DTS Sentinel unit serial number:	SN413079Multiplexer serial number:	ORYXHardware model number:	OX4-SRSoftware version number:	ORYX F/W v4.00 Oryx Data Collector v3.7.2.0data status	okinstallation	princeton_trtdifferential loss correction	single-endedforward channel	channel 2reverse channel	N/Adate	2019/09/18time	01:43:34forward acquisition time	60.00reverse acquisition time	0.00gamma	496.2192k internal	0.2350k external	0.2350temperature offset calibration	0.9986default loss term (dB/km)	0.3790temperature slope calibration	1.0000multiplexer offset coefficient	1.0000multiplexer slope coefficient	1.0000fibre end	0.00T internal ref (°C)	23.02T ext. ref 1 (°C)	0.17T ext. ref 2 (°C)	16.67length (m)	temperature (°C)	Stokes	anti-Stokes-747.200	-78.976	-0.292	-0.099
-746.185	105.406	-0.100	-0.119
-745.171	-30.010	0.136	0.077
-744.156	800.000	0.074	0.285
-743.142	68.834	-0.113	-0.116
-742.127	22.489	-0.218	0.178
-741.112	-200.000	-0.040	0.301
-740.098	165.059	-0.251	0.354
-739.083	-153.730	0.162	-0.011
-738.069	-2.547	0.100	-0.070
-737.054	-98.679	-0.261	0.066
-736.039	349.656	-0.078	-0.153
-735.025	-33.916	-0.345	-0.189
-734.010	800.000	-0.052	0.187
-732.996	800.000	-0.029	0.087
-731.981	-72.152	0.077	-0.028
-730.966	-128.769	0.043	0.006
-729.952	-106.552	-0.146	-0.033
-728.937	800.000	-0.099	0.334
-727.923	-10.405	-0.228	-0.151
-726.908	-200.000	0.013	-0.142
-725.894	800.000	-0.058	0.162
-724.879	127.954	-0.103	-0.130
-723.864	-61.377	-0.236	0.099
-722.850	-18.523	-0.059	-0.036
-721.835	-44.809	-0.373	0.185
-720.821	-5.388	0.104	0.071
-719.806	-41.674	-0.315	0.161
-718.791	14.170	0.193	-0.150
-717.777	-145.729	0.298	0.027
-716.762	17.920	-0.111	0.088
-715.748	264.744	-0.064	-0.112
-714.733	1.566	-0.197	-0.142
-713.718	800.000	-0.041	-0.168
-712.704	-200.000	-0.046	-0.249
-711.689	106.659	0.190	-0.225
-710.675	800.000	0.061	0.177
-709.660	-172.809	0.244	-0.008
-708.645	-15.217	0.241	-0.154
-707.631	-60.609	-0.203	-0.086
-706.616	46.361	0.107	-0.098
-705.602	-93.665	-0.280	-0.077
-704.587	-59.203	0.184	-0.079
-703.572	-98.364	-0.289	-0.074
-702.558	-200.000	-0.072	-0.324
-701.543	800.000	-0.013	-0.043
-700.529	46.570	0.246	-0.227
-699.514	-163.028	0.314	-0.015
-698.499	800.000	-0.049	0.166
-697.485	-200.000	0.012	0.169
-696.470	-79.054	-0.277	0.094
-695.456	-155.734	-0.251	0.016
-694.441	479.233	-0.015	-0.034
-693.426	-200.000	-0.044	-0.211
-692.412	39.394	-0.356	-0.318
-691.397	-200.000	-0.028	-0.169
-690.383	-55.548	0.459	-0.205
-689.368	-200.000	0.028	-0.399
-688.354	5.147	0.271	-0.199
-687.339	-45.409	-0.170	0.084
-686.324	-77.191	-0.104	-0.036
-685.310	-20.696	0.189	0.116
-684.295	245.177	-0.044	0.074
-683.281	-108.184	-0.176	-0.038
-682.266	36.734	0.228	0.201
-681.251	71.154	0.081	-0.084
-680.237	232.588	0.237	-0.387
-679.222	800.000	0.051	0.213
-678.208	-156.450	0.082	0.005
-677.193	20.717	0.090	-0.072
-676.178	800.000	-0.010	-0.034
-675.164	27.723	0.036	-0.030
-674.149	-4.378	0.154	-0.106
-673.135	-96.413	0.203	-0.053
-672.120	-39.067	0.048	-0.025
-671.105	-200.000	0.011	-0.094
-670.091	120.806	-0.228	0.282
-669.076	-79.537	-0.172	0.058
-668.062	-200.000	0.031	-0.147
-667.047	-2.451	0.024	0.017
-666.032	264.849	0.209	0.362
-665.018	182.973	0.040	-0.059
-664.003	555.669	-0.055	0.132
-662.989	147.492	0.152	-0.203
-661.974	343.637	-0.056	-0.109
-660.959	413.984	-0.079	0.167
-659.945	400.217	0.165	-0.345
-658.930	42.804	-0.209	0.189
-657.916	-41.560	-0.114	0.058
-656.901	-101.672	-0.306	0.074
-655.886	53.862	-0.077	-0.074
-654.872	61.965	0.270	0.268
-653.857	-81.857	-0.242	-0.079
-652.843	-101.118	0.177	-0.043
-651.828	93.140	-0.230	-0.258
-650.814	-114.554	0.177	0.034
-649.799	-142.809	0.255	0.025
-648.784	-164.309	0.103	0.005
-647.770	800.000	-0.078	0.242
-646.755	56.025	-0.227	-0.219
-645.741	-43.830	0.432	0.216
-644.726	264.273	-0.136	0.236
-643.711	-133.467	0.008	-0.001
-642.697	-200.000	-0.053	0.316
-641.682	-23.883	0.174	-0.104
-640.668	571.511	0.100	0.243
-639.653	-82.188	-0.109	-0.035
-638.638	24.890	0.318	0.262
-637.624	762.472	-0.061	0.166
-636.609	530.475	0.113	0.267
-635.595	42.245	-0.159	-0.144
-634.580	29.511	0.069	-0.058
-633.565	-94.704	0.157	0.042
-632.551	-200.000	-0.015	0.443
-631.536	-154.999	-0.345	-0.023
-630.522	-27.914	-0.287	-0.165
-629.507	26.388	-0.063	0.052
-628.492	-36.413	-0.127	-0.068
-627.478	19.862	-0.232	-0.186
-626.463	-147.185	-0.305	-0.026
-625.449	-45.513	-0.317	-0.156
-624.434	-117.726	0.144	0.026
-623.419	-200.000	-0.016	0.156
-622.405	73.818	-0.168	0.175
-621.390	-62.842	0.253	0.104
-620.376	-200.000	0.061	0.299
-619.361	-200.000	-0.066	-0.295
-618.346	25.520	0.131	-0.108
-617.332	79.822	0.081	-0.086
-616.317	-163.983	0.132	-0.006
-615.303	244.819	0.053	-0.088
-614.288	-42.369	-0.181	-0.092
-613.273	-184.279	0.075	0.001
-612.259	459.272	-0.120	-0.265
-611.244	481.733	-0.149	-0.336
-610.230	75.233	0.212	0.222
-609.215	6.151	0.169	0.124
-608.201	800.000	0.083	-0.257
-607.186	49.070	-0.286	-0.267
-606.171	23.359	0.103	0.084
-605.157	34.677	0.066	-0.057
-604.142	-200.000	0.057	-0.324
-603.128	800.000	-0.064	0.222
-602.113	332.941	0.112	-0.214
-601.098	-200.000	-0.019	0.241
-600.084	-108.204	-0.407	0.087
-599.069	-200.000	0.013	0.102
-598.055	-69.279	-0.182	-0.069
-597.040	-72.037	-0.095	0.035
-596.025	800.000	-0.067	-0.262
-595.011	516.782	0.154	0.358
-593.996	36.837	0.264	-0.231
-592.982	153.044	-0.030	0.041
-591.967	800.000	-0.073	0.218
-590.952	-200.000	0.019	-0.543
-589.938	-113.940	0.145	0.028
-588.923	-139.924	-0.118	-0.012
-587.909	378.350	-0.024	-0.049
-586.894	-200.000	0.011	-0.084
-585.879	-26.669	-0.335	-0.194
-584.865	-3.817	-0.193	0.133
-583.850	-200.000	0.005	0.055
-582.836	367.724	-0.122	-0.245
-581.821	392.342	0.149	-0.308
-580.806	543.643	0.134	0.317
-579.792	406.739	0.050	0.105
-578.777	-86.108	-0.277	-0.085
-577.763	-200.000	0.021	0.205
-576.748	541.314	0.124	0.293
-575.733	180.365	-0.019	-0.028
-574.719	73.131	-0.141	-0.146
-573.704	44.047	0.119	-0.108
-572.690	-200.000	-0.021	0.147
-571.675	800.000	0.048	-0.174
-570.661	402.506	-0.125	-0.261
-569.646	-200.000	0.007	-0.088
-568.631	-109.409	0.202	-0.042
-567.617	-88.139	-0.036	0.011
-566.602	25.107	-0.204	0.168
-565.588	-161.132	-0.252	0.013
-564.573	800.000	0.078	0.286
-563.558	800.000	-0.049	0.156
-562.544	-200.000	-0.000	0.028
-561.529	3.120	0.130	0.094
-560.515	-14.115	-0.188	-0.120
-559.500	11.713	-0.182	-0.139
-558.485	92.819	-0.200	-0.224
-557.471	77.459	0.168	-0.177
-556.456	-103.412	0.063	-0.015
-555.442	376.818	0.091	-0.185
-554.427	800.000	0.045	0.179
-553.412	-61.290	0.187	-0.078
-552.398	-200.000	0.010	-0.101
-551.383	674.304	0.137	-0.352
-550.369	-175.249	0.102	-0.003
-549.354	30.770	-0.223	0.189
-548.339	-13.611	-0.138	-0.089
-547.325	-64.420	-0.134	-0.054
-546.310	-36.321	0.112	0.060
-545.296	-48.886	-0.498	0.237
-544.281	-108.579	-0.237	0.050
-543.266	200.342	-0.156	0.238
-542.252	142.963	0.164	-0.216
-541.237	-150.845	-0.055	0.004
-540.223	21.131	0.215	-0.173
-539.208	-133.114	-0.326	0.041
-538.193	-200.000	0.018	0.282
-537.179	34.634	-0.038	0.033
-536.164	800.000	0.065	0.181
-535.150	43.601	0.282	-0.255
-534.135	-66.935	0.244	0.095
-533.121	-200.000	-0.052	-0.247
-532.106	-200.000	-0.010	-0.189
-531.091	-153.051	0.372	0.026
-530.077	-95.889	-0.306	0.081
-529.062	-63.862	0.114	0.046
-528.048	11.804	0.296	-0.225
-527.033	800.000	-0.027	-0.109
-526.018	-51.063	-0.474	-0.220
-525.004	65.232	-0.117	-0.117
-523.989	34.884	0.019	-0.017
-522.975	252.194	-0.082	0.137
-521.960	800.000	0.100	-0.298
-520.945	201.950	-0.106	0.161
-519.931	-200.000	-0.011	-0.177
-518.916	96.188	0.194	0.219
-517.902	-153.209	-0.385	-0.027
-516.887	-32.102	-0.036	0.020
-515.872	57.173	0.108	-0.105
-514.858	-161.982	-0.128	-0.006
-513.843	-72.217	-0.014	-0.005
-512.829	800.000	-0.057	-0.238
-511.814	-200.000	0.028	0.173
-510.799	-200.000	-0.014	-0.190
-509.785	84.182	-0.321	-0.347
-508.770	102.917	-0.108	-0.125
-507.756	800.000	0.191	-0.550
-506.741	-68.578	-0.140	0.054
-505.726	-200.000	-0.010	0.098
-504.712	-18.472	0.195	0.121
-503.697	-10.127	-0.150	0.099
-502.683	-200.000	0.019	0.107
-501.668	-37.942	0.114	0.060
-500.653	261.049	-0.079	0.135
-499.639	-159.473	-0.216	0.012
-498.624	-99.957	-0.128	-0.032
-497.610	-25.368	-0.360	-0.211
-496.595	-200.000	-0.155	-0.674
-495.581	-121.586	0.097	-0.016
-494.566	139.934	-0.132	0.172
-493.551	-200.000	0.008	-0.067
-492.537	10.987	-0.248	-0.187
-491.522	-200.000	-0.002	-0.119
-490.508	83.879	0.150	-0.162
-489.493	800.000	0.024	-0.068
-488.478	80.252	0.196	-0.208
-487.464	73.714	-0.179	-0.185
-486.449	434.053	-0.046	-0.100
-485.435	-200.000	-0.023	0.119
-484.420	-72.822	-0.148	-0.054
-483.405	-21.881	0.288	0.173
-482.391	206.651	0.164	0.253
-481.376	357.466	0.180	0.354
-480.362	-200.000	0.009	-0.078
-479.347	-55.355	-0.210	0.093
-478.332	-95.471	-0.202	0.054
-477.318	-15.261	0.040	-0.025
-476.303	-173.101	0.287	0.009
-475.289	-52.506	-0.220	0.100
-474.274	173.943	0.122	0.173
-473.259	4.677	-0.269	0.195
-472.245	-64.996	-0.208	0.083
-471.230	83.678	0.247	-0.266
-470.216	-200.000	-0.049	-0.284
-469.201	-170.610	-0.138	-0.005
-468.186	608.584	0.053	-0.132
-467.172	800.000	-0.139	-0.384
-466.157	800.000	0.034	-0.095
-465.143	-9.368	0.089	-0.059
-464.128	658.856	0.155	-0.395
-463.113	-27.217	-0.176	0.101
-462.099	-200.000	0.050	-0.412
-461.084	-158.202	0.057	0.003
-460.070	-200.000	-0.028	-0.195
-459.055	-87.244	-0.286	0.086
-458.040	-41.476	0.308	-0.157
-457.026	236.057	0.044	0.071
-456.011	24.306	-0.215	0.176
-454.997	-175.147	0.115	0.003
-453.982	-52.642	0.064	-0.029
-452.968	-114.150	0.301	-0.057
-451.953	355.483	-0.123	-0.242
-450.938	56.428	-0.479	-0.460
-449.924	26.248	0.240	-0.198
-448.909	-200.000	-0.034	-0.196
-447.895	206.072	-0.020	-0.030
-446.880	-200.000	0.037	0.261
-445.865	59.147	0.147	0.142
-444.851	-89.904	-0.353	0.102
-443.836	327.838	-0.085	0.162
-442.822	32.113	0.382	0.325
-441.807	-55.374	0.115	-0.051
-440.792	-75.198	-0.159	-0.056
-439.778	-49.222	-0.127	0.060
-438.763	-6.503	0.334	0.224
-437.749	-91.621	0.212	-0.059
-436.734	-7.805	0.132	0.088
-435.719	-76.925	0.079	0.027
-434.705	-123.793	0.496	0.077
-433.690	471.019	0.085	-0.188
-432.676	-200.000	-0.008	0.135
-431.661	-133.173	0.336	0.042
-430.646	259.963	0.029	0.050
-429.632	248.770	-0.054	-0.090
-428.617	123.460	-0.253	0.313
-427.603	579.426	-0.096	-0.231
-426.588	85.351	0.281	0.304
-425.573	11.788	0.106	0.080
-424.559	80.729	0.215	0.228
-423.544	-200.000	0.021	0.100
-422.530	-186.844	0.105	-0.001
-421.515	-200.000	0.035	0.216
-420.500	-200.000	0.057	0.559
-419.486	-147.998	-0.068	0.006
-418.471	-200.000	0.035	-0.162
-417.457	74.536	0.169	0.175
-416.442	124.624	-0.145	-0.180
-415.428	127.410	-0.138	0.172
-414.413	63.981	-0.295	-0.292
-413.398	66.768	-0.161	0.161
-412.384	-16.673	0.409	0.255
-411.369	-114.158	0.308	0.059
-410.355	314.280	0.213	-0.396
-409.340	38.776	0.116	0.102
-408.325	38.372	-0.323	-0.283
-407.311	362.266	0.134	0.266
-406.296	-51.914	-0.135	-0.062
-405.282	-198.274	0.394	-0.002
-404.267	-102.444	-0.256	-0.060
-403.252	114.355	0.187	0.224
-402.238	-89.445	0.259	-0.075
-401.223	-15.848	0.102	0.064
-400.209	372.194	-0.094	-0.188
-399.194	-36.845	-0.208	0.110
-398.179	-200.000	-0.020	-0.143
-397.165	-43.547	0.143	0.071
-396.150	-4.856	0.167	-0.113
-395.136	180.798	-0.136	-0.196
-394.121	-16.479	-0.230	0.144
-393.106	-200.000	0.028	0.242
-392.092	129.969	0.200	0.252
-391.077	627.951	-0.103	0.255
-390.063	-26.829	0.296	-0.171
-389.048	-200.000	0.009	-0.042
-388.033	635.365	-0.097	-0.243
-387.019	-81.188	-0.098	-0.032
-386.004	-3.448	-0.128	-0.088
-384.990	-95.450	0.069	-0.018
-383.975	-86.641	-0.240	-0.072
-382.960	-98.209	0.278	-0.070
-381.946	-9.170	0.174	0.114
-380.931	-95.022	-0.146	-0.039
-379.917	-200.000	-0.096	0.419
-378.902	-66.954	0.161	-0.063
-377.888	-200.000	-0.011	0.351
-376.873	-148.349	-0.648	-0.052
-375.858	-130.100	0.061	0.008
-374.844	-57.033	0.088	-0.038
-373.829	800.000	0.025	-0.078
-372.815	-100.558	-0.277	-0.067
-371.800	245.463	0.043	0.071
-370.785	431.409	-0.187	0.398
-369.771	-50.304	0.108	0.050
-368.756	-200.000	0.024	-0.120
-367.742	-66.389	0.540	-0.211
-366.727	-200.000	0.041	-0.193
-365.712	220.162	-0.134	-0.211
-364.698	115.510	0.109	-0.131
-363.683	-76.853	-0.072	-0.025
-362.669	-16.908	-0.107	0.066
-361.654	-125.000	-0.330	0.050
-360.639	116.667	0.055	0.066
-359.625	-119.859	0.341	-0.058
-358.610	102.287	0.217	0.250
-357.596	-65.290	0.209	0.083
-356.581	-179.654	0.321	-0.007
-355.566	64.551	0.124	-0.123
-354.552	800.000	0.107	0.422
-353.537	24.687	-0.187	-0.152
-352.523	-24.266	0.215	-0.126
-351.508	-50.587	0.042	-0.019
-350.493	800.000	0.032	0.088
-349.479	284.406	-0.088	0.156
-348.464	800.000	-0.037	0.104
-347.450	196.405	0.123	0.184
-346.435	-15.114	-0.201	-0.127
-345.420	-47.344	0.198	0.094
-344.406	166.237	-0.124	-0.172
-343.391	-200.000	-0.010	0.104
-342.377	135.017	0.107	-0.137
-341.362	-200.000	-0.057	0.416
-340.348	-200.000	-0.027	0.196
-339.333	-200.000	-0.042	0.316
-338.318	800.000	0.084	-0.256
-337.304	519.123	0.179	-0.412
-336.289	-91.947	-0.088	0.025
-335.275	59.833	0.150	-0.146
-334.260	-136.234	0.091	-0.010
-333.245	-17.951	-0.460	0.283
-332.231	587.354	-0.108	0.261
-331.216	-150.842	0.527	-0.039
-330.202	-29.893	0.363	0.203
-329.187	-90.372	-0.277	0.079
-328.172	754.547	0.084	0.223
-327.158	-200.000	-0.004	-0.413
-326.143	38.598	-0.075	0.066
-325.129	-74.769	-0.068	-0.024
-324.114	-82.737	0.186	0.059
-323.099	-9.223	0.228	-0.149
-322.085	800.000	0.070	-0.196
-321.070	-17.741	-0.111	-0.068
-320.056	800.000	-0.043	0.149
-319.041	355.866	-0.068	-0.133
-318.026	-77.876	0.349	0.118
-317.012	-173.194	-0.107	-0.003
-315.997	35.588	0.094	-0.081
-314.983	-6.343	-0.183	0.122
-313.968	-200.000	-0.002	-0.019
-312.953	102.668	-0.272	-0.312
-311.939	-200.000	0.030	0.452
-310.924	16.472	-0.307	-0.238
-309.910	84.036	0.247	-0.265
-308.895	142.596	0.073	0.096
-307.880	-87.150	0.106	-0.032
-306.866	-81.404	-0.272	-0.088
-305.851	-54.556	0.112	-0.050
-304.837	671.361	0.100	0.255
-303.822	800.000	-0.064	0.217
-302.807	-200.000	-0.020	-0.276
-301.793	-36.986	0.093	0.049
-300.778	-104.252	-0.274	0.062
-299.764	800.000	-0.127	0.400
-298.749	-120.372	-0.277	-0.046
-297.735	59.677	0.070	-0.068
-296.720	77.747	-0.033	-0.034
-295.705	-172.724	0.170	-0.005
-294.691	-200.000	0.004	-0.055
-293.676	395.982	-0.064	0.132
-292.662	218.881	0.113	0.177
-291.647	139.193	0.206	0.266
-290.632	-122.041	0.268	-0.043
-289.618	-95.406	-0.055	-0.015
-288.603	-144.250	0.442	-0.040
-287.589	-155.480	0.204	-0.013
-286.574	-127.399	0.265	0.038
-285.559	-99.817	-0.207	-0.051
-284.545	-200.000	-0.035	0.455
-283.530	-200.000	0.020	-0.280
-282.516	800.000	0.030	-0.098
-281.501	376.972	0.095	-0.190
-280.486	203.923	-0.087	0.132
-279.472	-200.000	0.027	-0.162
-278.457	800.000	-0.069	0.250
-277.443	-12.082	-0.205	0.132
-276.428	-123.821	0.031	0.005
-275.413	192.602	-0.126	0.187
-274.399	115.911	0.062	0.075
-273.384	643.260	-0.153	0.382
-272.370	-174.300	0.250	-0.007
-271.355	-151.254	-0.218	0.016
-270.340	-152.226	-0.193	0.014
-269.326	249.049	0.211	-0.350
-268.311	53.780	-0.117	0.110
-267.297	-79.801	-0.291	-0.096
-266.282	406.835	0.051	0.105
-265.267	174.460	0.059	-0.084
-264.253	217.355	-0.071	-0.111
-263.238	-36.187	-0.147	0.078
-262.224	19.184	0.133	-0.104
-261.209	-128.970	0.136	-0.019
-260.195	369.376	0.108	-0.215
-259.180	800.000	0.057	0.196
-258.165	-88.858	-0.305	-0.088
-257.151	-200.000	-0.068	0.398
-256.136	-50.673	-0.328	0.151
-255.122	-120.278	0.173	-0.029
-254.107	-139.499	0.042	-0.004
-253.092	-125.338	-0.135	0.020
-252.078	5.122	-0.303	-0.219
-251.063	197.681	0.160	-0.239
-250.049	131.755	-0.123	0.155
-249.034	-200.000	-0.022	0.311
-248.019	136.118	0.153	-0.196
-247.005	-0.937	-0.274	-0.190
-245.990	-200.000	0.062	0.332
-244.976	-164.985	0.323	-0.014
-243.961	-200.000	-0.005	0.083
-242.946	301.679	0.038	-0.070
-241.932	-86.913	-0.123	0.037
-240.917	-142.535	0.439	-0.042
-239.903	-200.000	0.003	-0.048
-238.888	800.000	0.109	-0.329
-237.873	253.345	-0.109	-0.182
-236.859	-134.124	-0.271	0.033
-235.844	140.474	0.109	0.140
-234.830	-200.000	-0.005	0.220
-233.815	140.796	0.153	0.198
-232.800	232.138	0.191	0.307
-231.786	92.550	-0.130	-0.144
-230.771	261.135	-0.021	0.035
-229.757	458.573	0.091	-0.199
-228.742	-200.000	0.037	-0.436
-227.727	-62.411	0.169	-0.069
-226.713	-200.000	0.002	-0.165
-225.698	-200.000	0.019	-0.100
-224.684	-163.223	-0.399	-0.019
-223.669	116.749	0.150	0.180
-222.655	-58.424	-0.093	-0.040
-221.640	-32.944	-0.091	-0.049
-220.625	146.097	-0.293	-0.384
-219.611	-93.567	0.200	-0.054
-218.596	-15.061	-0.171	-0.107
-217.582	-111.136	0.229	-0.046
-216.567	69.717	0.092	-0.093
-215.552	-135.536	0.328	0.038
-214.538	-200.000	-0.048	0.433
-213.523	329.497	-0.089	0.166
-212.509	-124.232	0.073	-0.011
-211.494	146.644	-0.126	0.166
-210.479	-200.000	0.051	-0.299
-209.465	277.910	-0.153	0.267
-208.450	108.622	-0.067	-0.078
-207.436	163.240	-0.131	-0.180
-206.421	-43.699	-0.201	0.099
-205.406	-10.127	0.124	0.080
-204.392	101.389	-0.178	-0.203
-203.377	-75.360	0.450	0.157
-202.363	84.616	0.057	-0.061
-201.348	7.510	0.129	-0.094
-200.333	-168.622	0.272	-0.010
-199.319	-118.168	-0.199	-0.035
-198.304	-129.232	-0.248	0.034
-197.290	-98.552	0.213	-0.053
-196.275	-200.000	0.003	-0.014
-195.260	-153.401	-0.301	-0.020
-194.246	-39.503	-0.243	0.124
-193.231	246.770	0.125	-0.207
-192.217	-200.000	0.004	-0.106
-191.202	-200.000	0.011	0.113
-190.187	-25.543	-0.168	-0.097
-189.173	92.251	0.230	0.253
-188.158	121.901	-0.074	-0.090
-187.144	-141.524	0.117	-0.012
-186.129	-34.026	-0.167	0.090
-185.114	-51.773	0.253	-0.115
-184.100	-103.787	-0.346	0.079
-183.085	-200.000	0.040	-0.392
-182.071	-117.071	-0.487	-0.087
-181.056	-10.108	0.299	0.194
-180.042	-85.222	0.175	0.054
-179.027	800.000	-0.023	-0.098
-178.012	800.000	0.032	-0.090
-176.998	800.000	-0.092	0.394
-175.983	133.356	-0.060	-0.075
-174.969	-113.290	-0.411	-0.079
-173.954	-119.534	0.106	-0.018
-172.939	-142.481	0.025	0.002
-171.925	-23.654	0.073	-0.043
-170.910	-108.389	0.433	-0.091
-169.896	-200.000	-0.011	0.105
-168.881	-200.000	-0.028	0.154
-167.866	78.916	0.108	0.113
-166.852	10.098	-0.123	0.091
-165.837	800.000	-0.125	-0.362
-164.823	800.000	-0.099	0.380
-163.808	45.569	-0.132	0.119
-162.793	100.589	0.140	-0.158
-161.779	793.715	-0.062	0.166
-160.764	57.600	-0.127	0.121
-159.750	226.408	0.379	0.600
-158.735	-200.000	0.024	0.203
-157.720	48.505	-0.228	-0.209
-156.706	-200.000	-0.046	-0.234
-155.691	-136.872	0.120	0.013
-154.677	651.492	0.054	0.135
-153.662	41.220	-0.038	-0.034
-152.647	348.018	0.133	-0.257
-151.633	-200.000	-0.036	0.262
-150.618	-47.730	-0.168	0.079
-149.604	174.605	0.086	-0.122
-148.589	-71.089	0.156	-0.057
-147.574	-20.902	0.208	0.125
-146.560	60.011	-0.106	-0.102
-145.545	800.000	0.026	0.106
-144.531	41.487	-0.234	-0.206
-143.516	-51.215	0.269	-0.123
-142.502	198.152	0.161	-0.240
-141.487	-74.374	-0.263	-0.092
-140.472	-200.000	-0.012	0.229
-139.458	800.000	0.014	-0.061
-138.443	-120.706	0.352	0.058
-137.429	800.000	-0.112	0.353
-136.414	-147.624	-0.124	-0.010
-135.399	132.514	-0.153	-0.193
-134.385	-5.074	0.200	-0.134
-133.370	800.000	0.090	0.271
-132.356	599.754	-0.043	-0.105
-131.341	467.907	0.069	0.152
-130.326	613.181	-0.058	-0.142
-129.312	-31.284	0.357	0.196
-128.297	79.112	0.337	-0.351
-127.283	-200.000	0.033	-0.162
-126.268	-143.079	0.323	0.030
-125.253	-136.050	0.045	0.005
-124.239	122.076	0.106	-0.129
-123.224	-72.518	0.171	0.062
-122.210	-200.000	0.017	-0.116
