DTS Sentinel unit serial number:	SN413079Multiplexer serial number:	ORYXHardware model number:	OX4-SRSoftware version number:	ORYX F/W v4.00 Oryx Data Collector v3.7.2.0data status	okinstallation	princeton_trtdifferential loss correction	single-endedforward channel	channel 2reverse channel	N/Adate	2019/09/13time	08:47:35forward acquisition time	60.00reverse acquisition time	0.00gamma	496.2192k internal	0.2332k external	0.2332temperature offset calibration	1.0192default loss term (dB/km)	0.3790temperature slope calibration	1.0000multiplexer offset coefficient	1.0000multiplexer slope coefficient	1.0000fibre end	0.00T internal ref (°C)	28.00T ext. ref 1 (°C)	4.32T ext. ref 2 (°C)	24.94length (m)	temperature (°C)	Stokes	anti-Stokes-747.200	-108.566	-0.198	-0.043
-746.185	666.637	0.024	-0.062
-745.171	613.350	0.115	0.290
-744.156	408.701	0.057	0.121
-743.142	101.209	-0.110	0.129
-742.127	157.857	-0.145	0.202
-741.112	52.789	-0.128	-0.123
-740.098	-55.078	-0.256	0.116
-739.083	-47.078	0.384	0.189
-738.069	88.092	-0.116	0.129
-737.054	-42.823	0.137	0.070
-736.039	66.683	-0.098	0.101
-735.025	-52.528	-0.103	-0.048
-734.010	105.205	0.120	0.142
-732.996	800.000	-0.015	-0.065
-731.981	315.585	-0.245	-0.465
-730.966	88.711	0.097	0.108
-729.952	-65.503	-0.325	0.131
-728.937	-83.810	-0.161	0.052
-727.923	-45.926	0.157	-0.078
-726.908	-90.184	-0.317	0.093
-725.894	-70.073	0.330	-0.126
-724.879	-116.130	0.107	-0.020
-723.864	-110.836	-0.229	-0.047
-722.850	-200.000	0.001	-0.190
-721.835	151.194	-0.027	0.037
-720.821	800.000	-0.027	-0.093
-719.806	-64.670	-0.163	-0.067
-718.791	735.405	0.093	-0.251
-717.777	192.849	-0.204	-0.309
-716.762	608.901	0.166	-0.416
-715.748	800.000	-0.080	-0.329
-714.733	-54.337	0.099	-0.045
-713.718	172.623	-0.153	0.222
-712.704	-166.932	-0.365	-0.015
-711.689	-172.238	-0.293	0.009
-710.675	-200.000	-0.012	-0.110
-709.660	-93.554	-0.582	-0.162
-708.645	31.690	0.236	0.204
-707.631	-137.850	-0.225	-0.025
-706.616	800.000	-0.010	0.042
-705.602	-23.123	-0.140	-0.085
-704.587	-93.986	0.225	-0.062
-703.572	177.016	-0.113	-0.166
-702.558	-136.923	-0.297	0.034
-701.543	157.522	-0.150	-0.209
-700.529	-118.303	-0.196	-0.035
-699.514	71.962	-0.487	0.508
-698.499	-157.534	-0.400	0.024
-697.485	121.205	-0.052	-0.065
-696.470	800.000	-0.046	-0.195
-695.456	-40.454	0.212	0.111
-694.441	-8.068	0.245	-0.166
-693.426	-27.731	-0.064	-0.037
-692.412	-180.672	0.148	0.003
-691.397	-33.885	-0.308	-0.170
-690.383	-45.288	-0.065	0.032
-689.368	-17.794	-0.088	0.056
-688.354	-200.000	-0.044	-0.216
-687.339	-44.966	0.171	-0.085
-686.324	800.000	-0.022	0.083
-685.310	114.541	0.013	-0.016
-684.295	-90.058	-0.250	0.073
-683.281	-22.710	0.226	0.137
-682.266	-71.656	0.280	0.105
-681.251	311.069	0.196	-0.368
-680.237	-11.486	0.086	0.057
-679.222	-10.505	-0.127	-0.084
-678.208	273.092	-0.107	0.190
-677.193	-36.494	-0.037	0.020
-676.178	3.647	0.125	0.092
-675.164	800.000	0.026	0.076
-674.149	-185.652	-0.190	-0.003
-673.135	-141.637	0.214	0.022
-672.120	262.164	0.149	-0.258
-671.105	800.000	-0.063	-0.245
-670.091	-161.723	-0.181	-0.009
-669.076	756.381	0.081	0.220
-668.062	-200.000	0.034	0.375
-667.047	800.000	-0.027	0.118
-666.032	101.135	0.150	-0.175
-665.018	800.000	0.065	0.189
-664.003	390.474	0.100	-0.208
-662.989	56.263	-0.127	-0.124
-661.974	167.911	0.087	-0.123
-660.959	-200.000	-0.014	-0.168
-659.945	729.249	-0.061	-0.164
-658.930	-83.688	-0.143	0.046
-657.916	-119.336	0.092	-0.016
-656.901	434.756	0.090	0.197
-655.886	800.000	0.133	-0.495
-654.872	-51.526	0.159	-0.074
-653.857	-131.484	0.378	0.050
-652.843	-200.000	0.012	-0.228
-651.828	800.000	-0.050	-0.173
-650.814	50.095	0.205	-0.194
-649.799	-141.317	-0.143	-0.015
-648.784	-23.447	0.118	-0.071
-647.770	58.919	0.124	-0.122
-646.755	-200.000	-0.040	-0.179
-645.741	5.857	-0.309	0.229
-644.726	-200.000	-0.043	0.298
-643.711	115.678	0.211	-0.259
-642.697	432.114	0.087	-0.190
-641.682	328.969	0.099	0.191
-640.668	239.021	0.119	-0.199
-639.653	-66.714	0.115	0.045
-638.638	35.172	0.276	0.242
-637.624	197.986	-0.224	-0.342
-636.609	-140.078	0.106	-0.011
-635.595	-152.890	-0.336	0.024
-634.580	174.488	-0.122	-0.177
-633.565	724.251	0.044	-0.119
-632.551	70.045	0.224	0.231
-631.536	-200.000	-0.021	-0.453
-630.522	-200.000	0.036	-0.278
-629.507	-68.789	0.237	0.092
-628.492	333.686	0.081	-0.156
-627.478	-175.832	-0.330	0.009
-626.463	-77.523	-0.292	-0.101
-625.449	199.688	0.088	-0.135
-624.434	-31.950	-0.284	0.160
-623.419	-116.799	-0.165	-0.030
-622.405	-200.000	-0.028	-0.273
-621.390	-70.162	0.065	0.025
-620.376	-200.000	0.003	-0.125
-619.361	407.789	-0.052	0.109
-618.346	800.000	-0.020	-0.067
-617.332	-157.425	0.410	0.025
-616.317	39.982	0.267	-0.240
-615.303	-200.000	0.089	-0.475
-614.288	462.063	-0.062	-0.139
-613.273	90.819	0.032	-0.035
-612.259	16.129	0.221	0.175
-611.244	648.173	-0.031	0.079
-610.230	56.149	-0.150	0.146
-609.215	-6.594	0.213	-0.145
-608.201	179.714	0.088	-0.129
-607.186	800.000	-0.038	0.116
-606.171	24.080	0.142	0.117
-605.157	-33.673	-0.198	-0.110
-604.142	-200.000	0.040	-0.492
-603.128	-62.898	0.190	-0.079
-602.113	-200.000	-0.017	0.135
-601.098	37.310	-0.091	0.081
-600.084	212.251	-0.146	-0.230
-599.069	314.949	-0.139	-0.262
-598.055	7.391	0.137	0.103
-597.040	-98.274	0.329	0.084
-596.025	49.842	0.169	0.160
-595.011	-200.000	-0.035	0.168
-593.996	184.268	0.050	0.074
-592.982	-143.479	0.307	-0.029
-591.967	-69.485	0.122	0.047
-590.952	-66.429	0.077	-0.031
-589.938	800.000	0.022	-0.067
-588.923	518.452	-0.066	0.154
-587.909	-200.000	-0.006	0.306
-586.894	-111.471	0.172	-0.035
-585.879	772.035	-0.010	-0.026
-584.865	12.901	-0.210	0.163
-583.850	34.296	-0.087	-0.076
-582.836	281.709	0.138	-0.246
-581.821	207.574	-0.101	-0.158
-580.806	800.000	0.052	-0.145
-579.792	110.362	0.150	0.181
-578.777	800.000	0.072	0.229
-577.763	-2.995	0.140	-0.098
-576.748	800.000	-0.098	0.325
-575.733	-200.000	0.000	-0.005
-574.719	-81.305	-0.313	-0.103
-573.704	-200.000	0.014	-0.209
-572.690	4.647	0.212	0.156
-571.675	-16.719	0.248	0.157
-570.661	-200.000	0.048	0.233
-569.646	0.375	-0.131	0.094
-568.631	32.004	-0.138	-0.119
-567.617	564.569	0.077	0.187
-566.602	311.377	-0.292	-0.547
-565.588	735.673	-0.033	0.087
-564.573	-95.948	0.283	-0.075
-563.558	-130.859	0.107	0.014
-562.544	671.741	0.090	0.232
-561.529	800.000	0.104	0.310
-560.515	49.929	0.267	-0.252
-559.500	-67.968	-0.291	0.113
-558.485	800.000	-0.099	-0.365
-557.471	-200.000	0.081	0.470
-556.456	-7.241	-0.074	0.050
-555.442	142.319	-0.199	-0.264
-554.427	654.776	-0.119	0.305
-553.412	139.821	-0.054	0.071
-552.398	117.818	0.142	0.175
-551.383	-95.491	0.114	0.031
-550.369	239.251	-0.070	0.116
-549.354	106.459	-0.188	-0.222
-548.339	800.000	0.092	-0.275
-547.325	-50.883	-0.084	-0.039
-546.310	107.285	-0.284	0.337
-545.296	31.096	-0.364	0.311
-544.281	97.789	-0.200	0.229
-543.266	800.000	-0.056	0.201
-542.252	496.068	0.163	0.375
-541.237	800.000	0.103	0.341
-540.223	0.549	-0.322	0.230
-539.208	-103.223	0.041	-0.010
-538.193	113.115	-0.039	-0.047
-537.179	-200.000	-0.051	-0.222
-536.164	154.876	-0.118	-0.161
-535.150	170.942	-0.289	-0.414
-534.135	-114.935	-0.352	-0.067
-533.121	-102.270	-0.223	-0.053
-532.106	-200.000	0.016	-0.261
-531.091	-53.441	0.549	-0.251
-530.077	800.000	-0.010	-0.035
-529.062	391.783	0.068	0.141
-528.048	-60.838	-0.146	0.062
-527.033	133.506	0.028	0.036
-526.018	800.000	0.081	-0.263
-525.004	-156.927	-0.118	0.007
-523.989	78.588	0.221	-0.236
-522.975	-24.274	-0.246	0.146
-521.960	-200.000	-0.031	0.242
-520.945	-54.488	-0.303	-0.137
-519.931	-200.000	-0.026	0.141
-518.916	-200.000	0.074	0.416
-517.902	582.933	0.143	0.351
-516.887	111.755	-0.196	0.236
-515.872	68.429	-0.222	0.227
-514.858	-61.394	0.139	0.058
-513.843	-22.494	-0.194	0.117
-512.829	-169.238	-0.367	-0.014
-511.814	141.460	-0.202	-0.267
-510.799	136.019	0.157	0.204
-509.785	-155.442	-0.128	0.008
-508.770	-200.000	-0.026	0.292
-507.756	800.000	0.049	-0.178
-506.741	800.000	-0.112	0.314
-505.726	-200.000	-0.344	-0.001
-504.712	-100.604	0.434	0.107
-503.697	-101.791	-0.191	-0.046
-502.683	15.172	0.196	-0.153
-501.668	800.000	-0.167	-0.474
-500.653	396.389	0.161	-0.334
-499.639	-51.328	-0.179	-0.084
-498.624	800.000	-0.104	0.352
-497.610	-178.665	-0.256	0.006
-496.595	-113.022	0.517	0.102
-495.581	-184.149	0.274	0.005
-494.566	395.605	-0.194	0.404
-493.551	37.518	0.402	-0.355
-492.537	17.723	-0.094	-0.074
-491.522	-10.691	0.365	0.240
-490.508	353.355	0.091	-0.180
-489.493	-13.800	-0.067	0.043
-488.478	-112.028	-0.112	0.023
-487.464	800.000	-0.104	0.290
-486.449	-47.144	0.235	-0.114
-485.435	-80.171	-0.261	0.087
-484.420	-200.000	0.021	0.300
-483.405	-200.000	0.012	-0.105
-482.391	-3.494	-0.137	0.095
-481.376	-2.542	-0.381	-0.266
-480.362	309.359	-0.065	0.121
-479.347	43.736	0.126	0.114
-478.332	46.499	0.175	0.162
-477.318	-40.857	0.129	0.067
-476.303	800.000	0.023	0.098
-475.289	2.472	0.363	-0.262
-474.274	264.259	0.109	0.188
-473.259	-120.534	-0.213	-0.036
-472.245	-200.000	0.014	0.272
-471.230	-200.000	-0.029	-0.223
-470.216	255.347	0.225	-0.384
-469.201	581.478	-0.124	-0.302
-468.186	800.000	-0.050	-0.180
-467.172	-108.632	0.443	-0.095
-466.157	800.000	0.074	-0.238
-465.143	800.000	-0.019	-0.064
-464.128	-104.231	-0.202	-0.047
-463.113	800.000	-0.058	-0.207
-462.099	-110.308	-0.178	0.037
-461.084	-31.755	-0.036	-0.020
-460.070	-11.266	0.277	-0.182
-459.055	-18.605	-0.169	0.105
-458.040	-112.585	0.102	0.020
-457.026	-54.623	-0.151	-0.068
-456.011	-39.169	-0.092	0.048
-454.997	-200.000	-0.017	0.334
-453.982	99.099	0.022	0.025
-452.968	727.408	-0.073	0.193
-451.953	-89.479	-0.351	-0.103
-450.938	-59.300	0.262	-0.112
-449.924	595.571	-0.168	-0.414
-448.909	145.676	0.192	0.256
-447.895	48.889	0.064	0.060
-446.880	-166.764	-0.402	-0.017
-445.865	127.812	0.067	0.085
-444.851	-94.311	0.049	0.013
-443.836	30.308	-0.138	0.117
-442.822	-50.730	-0.398	-0.186
-441.807	20.914	0.062	-0.050
-440.792	-46.823	0.123	-0.060
-439.778	-200.000	-0.202	0.001
-438.763	18.176	0.141	0.111
-437.749	-174.098	-0.468	0.014
-436.734	-33.100	0.446	-0.246
-435.719	154.431	-0.313	-0.427
-434.705	421.725	0.028	-0.061
-433.690	45.955	0.109	0.100
-432.676	-200.000	-0.031	0.380
-431.661	473.982	-0.091	-0.203
-430.646	-67.497	0.530	-0.207
-429.632	-96.118	0.149	-0.039
-428.617	-3.322	-0.240	-0.166
-427.603	-117.304	0.088	-0.016
-426.588	30.520	0.325	-0.276
-425.573	-89.901	-0.333	-0.097
-424.559	-121.276	-0.137	0.023
-423.544	-19.380	0.078	-0.048
-422.530	-146.081	-0.211	-0.018
-421.515	179.975	-0.085	0.124
-420.500	-200.000	0.031	0.159
-419.486	-44.070	0.083	0.041
-418.471	-43.418	-0.277	-0.139
-417.457	389.187	0.132	0.272
-416.442	449.954	0.116	0.254
-415.428	-66.999	0.070	0.027
-414.413	265.305	-0.098	-0.170
-413.398	-8.830	-0.080	0.053
-412.384	-200.000	-0.004	0.024
-411.369	-200.000	-0.004	0.345
-410.355	40.933	0.310	0.278
-409.340	-43.019	-0.205	0.103
-408.325	66.603	-0.270	0.273
-407.311	-29.713	0.082	0.047
-406.296	108.126	0.027	0.032
-405.282	202.767	0.078	0.120
-404.267	800.000	-0.103	-0.433
-403.252	572.359	0.076	0.184
-402.238	186.313	-0.027	0.040
-401.223	-200.000	-0.068	-0.301
-400.209	655.167	0.069	0.177
-399.194	-200.000	0.006	0.079
-398.179	56.075	0.101	0.098
-397.165	-88.299	0.131	0.039
-396.150	-99.263	0.132	-0.033
-395.136	-50.872	-0.179	-0.083
-394.121	-126.599	-0.371	-0.055
-393.106	-200.000	0.060	0.380
-392.092	742.223	0.034	0.090
-391.077	-29.056	0.345	-0.196
-390.063	24.367	0.280	0.229
-389.048	-2.801	-0.285	0.198
-388.033	18.911	-0.265	-0.210
-387.019	-200.000	0.033	0.212
-386.004	-123.918	-0.349	-0.055
-384.990	-82.686	0.219	-0.070
-383.975	-118.884	0.103	0.018
-382.960	-155.532	-0.271	0.017
-381.946	-200.000	-0.024	-0.214
-380.931	626.475	0.061	0.154
-379.917	-83.571	-0.272	0.086
-378.902	-15.735	0.101	0.064
-377.888	183.213	-0.065	-0.095
-376.873	-96.046	0.289	0.076
-375.858	-200.000	0.017	0.225
-374.844	166.545	0.020	0.028
-373.829	-168.045	0.101	-0.004
-372.815	-175.707	-0.179	-0.005
-371.800	-183.843	0.120	0.002
-370.785	-5.883	0.254	-0.172
-369.771	-200.000	-0.062	-0.349
-368.756	761.594	0.066	-0.177
-367.742	448.767	-0.079	-0.173
-366.727	526.160	-0.051	-0.120
-365.712	287.077	-0.079	-0.142
-364.698	-200.000	0.023	0.327
-363.683	230.518	0.086	0.139
-362.669	800.000	-0.099	-0.376
-361.654	63.766	0.178	-0.177
-360.639	-40.573	0.051	0.026
-359.625	139.183	-0.264	0.344
-358.610	-13.986	0.100	0.064
-357.596	-200.000	-0.013	-0.081
-356.581	-72.122	0.094	0.035
-355.566	-200.000	0.018	0.084
-354.552	-145.876	-0.113	-0.010
-353.537	363.753	-0.084	-0.166
-352.523	-77.862	-0.169	0.058
-351.508	-200.000	-0.037	0.172
-350.493	623.374	0.090	0.225
-349.479	-164.265	0.656	-0.030
-348.464	310.094	-0.021	-0.038
-347.450	-200.000	0.036	-0.169
-346.435	131.216	-0.129	0.164
-345.420	2.932	0.169	0.121
-344.406	800.000	-0.102	0.425
-343.391	-200.000	-0.007	0.375
-342.377	800.000	-0.036	0.102
-341.362	89.606	-0.145	-0.161
-340.348	800.000	0.034	-0.119
-339.333	800.000	-0.032	-0.123
-338.318	-92.280	-0.261	0.073
-337.304	77.933	0.048	-0.050
-336.289	-97.264	0.162	0.042
-335.275	281.483	0.057	-0.102
-334.260	-127.842	0.188	-0.027
-333.245	-136.322	-0.128	0.015
-332.231	-77.577	0.399	0.137
-331.216	-200.000	0.018	0.242
-330.202	-200.000	-0.059	0.272
-329.187	-200.000	-0.065	-0.460
-328.172	58.309	0.063	-0.061
-327.158	-27.284	0.155	-0.089
-326.143	154.450	0.183	-0.249
-325.129	-105.645	0.058	0.013
-324.114	-61.369	0.208	0.087
-323.099	-200.000	0.321	-0.000
-322.085	800.000	-0.028	-0.109
-321.070	586.068	0.040	0.097
-320.056	-200.000	-0.016	0.071
-319.041	492.974	0.031	0.069
-318.026	-47.714	0.104	0.050
-317.012	-84.957	0.245	0.076
-315.997	5.917	-0.289	-0.212
-314.983	-184.520	-0.098	0.002
-313.968	445.995	0.112	0.243
-312.953	800.000	-0.085	0.364
-311.939	184.234	0.157	-0.230
-310.924	-62.184	0.320	0.132
-309.910	-9.708	0.242	-0.160
-308.895	9.509	0.139	-0.104
-307.880	245.010	0.114	-0.190
-306.866	-53.740	-0.033	-0.015
-305.851	-39.373	0.192	-0.100
-304.837	96.455	0.103	-0.117
-303.822	-135.286	0.167	-0.020
-302.807	-12.134	0.127	0.082
-301.793	583.635	0.115	-0.280
-300.778	-58.387	0.093	-0.040
-299.764	38.398	-0.112	-0.099
-298.749	517.774	0.114	0.264
-297.735	-56.568	-0.141	0.062
-296.720	17.441	0.211	-0.166
-295.705	800.000	-0.057	0.186
-294.691	3.293	-0.095	-0.068
-293.676	359.005	-0.039	-0.077
-292.662	-105.607	-0.190	-0.042
-291.647	4.246	-0.111	0.080
-290.632	-68.371	0.102	0.039
-289.618	-82.926	0.070	0.022
-288.603	52.644	-0.117	0.110
-287.589	-55.955	0.201	-0.089
-286.574	97.743	-0.285	0.324
-285.559	-125.331	0.152	0.023
-284.545	800.000	0.044	0.170
-283.530	-94.372	0.098	-0.026
-282.516	140.901	-0.093	-0.122
-281.501	-115.531	-0.084	-0.016
-280.486	800.000	0.053	0.204
-279.472	800.000	0.050	-0.169
-278.457	-200.000	-0.012	0.052
-277.443	-76.611	-0.262	-0.091
-276.428	-200.000	-0.015	-0.275
-275.413	103.861	-0.065	-0.075
-274.399	41.169	0.126	-0.112
-273.384	-200.000	-0.063	0.277
-272.370	-116.808	-0.218	-0.040
-271.355	-90.220	-0.194	0.056
-270.340	-19.072	-0.096	-0.059
-269.326	-114.526	-0.194	0.037
-268.311	-106.829	0.299	-0.065
-267.297	-42.039	0.173	-0.087
-266.282	259.740	0.145	0.247
-265.267	800.000	-0.122	-0.335
-264.253	74.504	0.171	-0.177
-263.238	134.545	0.249	0.319
-262.224	-59.067	-0.162	-0.069
-261.209	150.575	-0.176	0.236
-260.195	-117.210	0.281	0.050
-259.180	-200.000	-0.018	-0.156
-258.165	328.592	-0.053	0.101
-257.151	7.282	-0.014	-0.010
-256.136	5.032	-0.122	-0.088
-255.122	358.711	0.187	-0.368
-254.107	439.223	-0.224	0.484
-253.092	27.896	0.017	-0.014
-252.078	-200.000	-0.040	0.366
-251.063	166.657	0.049	0.069
-250.049	108.963	0.039	-0.046
-249.034	386.333	-0.125	-0.255
-248.019	-68.152	0.138	0.053
-247.005	-200.000	-0.015	0.342
-245.990	31.396	-0.047	0.040
-244.976	800.000	0.068	0.222
-243.961	800.000	0.027	-0.089
-242.946	22.483	-0.136	0.109
-241.932	-12.004	0.131	-0.085
-240.917	800.000	-0.006	-0.023
-239.903	263.690	-0.184	0.316
-238.888	-53.964	0.032	-0.015
-237.873	76.288	-0.266	0.278
-236.859	-200.000	-0.035	-0.552
-235.844	-48.436	0.179	0.085
-234.830	-154.760	0.117	0.008
-233.815	-200.000	0.001	0.005
-232.800	72.973	-0.127	-0.131
-231.786	225.554	0.103	0.165
-230.771	800.000	-0.036	0.137
-229.757	-111.301	0.262	0.053
-228.742	26.847	0.234	-0.194
-227.727	-40.959	-0.217	0.111
-226.713	-200.000	-0.021	-0.267
-225.698	0.124	0.086	-0.061
-224.684	16.584	0.255	-0.199
-223.669	-200.000	0.050	0.299
-222.655	-126.628	-0.154	-0.022
-221.640	800.000	-0.039	-0.153
-220.625	498.821	-0.078	0.177
-219.611	-200.000	0.011	0.219
-218.596	-61.729	0.078	0.032
-217.582	-5.297	-0.202	-0.137
-216.567	-168.907	0.089	-0.003
-215.552	800.000	-0.019	0.079
-214.538	-200.000	0.000	0.087
-213.523	-58.035	-0.278	-0.120
-212.509	-15.110	-0.424	-0.267
-211.494	800.000	-0.110	-0.358
-210.479	-200.000	0.258	0.001
-209.465	-24.249	-0.196	-0.115
-208.450	163.685	0.235	-0.326
-207.436	-0.588	-0.325	0.227
-206.421	-12.585	0.186	-0.119
-205.406	90.601	0.247	0.273
-204.392	-200.000	-0.031	-0.212
-203.377	357.590	-0.105	-0.206
-202.363	-96.525	-0.240	0.062
-201.348	-200.000	0.054	-0.402
-200.333	-80.574	-0.363	-0.119
-199.319	371.100	0.104	-0.208
-198.304	199.255	-0.106	0.160
-197.290	63.253	-0.345	0.341
-196.275	-62.149	-0.231	0.095
-195.260	-40.616	0.170	0.087
-194.246	141.954	0.178	-0.232
-193.231	800.000	0.045	0.158
-192.217	-36.103	-0.145	-0.077
-191.202	-109.152	-0.126	-0.026
-190.187	-99.911	0.089	-0.022
-189.173	-64.290	-0.222	0.089
-188.158	-165.160	-0.326	0.014
-187.144	-104.855	0.135	0.031
-186.129	-20.951	-0.068	0.041
-185.114	-36.218	0.237	0.126
-184.100	-200.000	-0.010	0.094
-183.085	47.027	-0.218	-0.199
-182.071	-200.000	0.023	0.247
-181.056	-122.959	0.172	0.027
-180.042	130.536	-0.251	-0.317
-179.027	800.000	-0.057	0.182
-178.012	9.996	-0.128	-0.096
-176.998	103.484	0.164	0.189
-175.983	-164.876	0.492	-0.022
-174.969	-93.959	0.239	-0.065
-173.954	-138.428	0.157	0.017
-172.939	3.775	0.197	-0.142
-171.925	-153.116	-0.039	-0.003
-170.910	-50.999	0.247	0.114
-169.896	673.149	-0.114	-0.290
-168.881	283.372	-0.118	-0.208
-167.866	-80.161	-0.129	0.043
-166.852	-173.329	-0.057	0.002
-165.837	465.923	0.111	-0.244
-164.823	800.000	0.037	0.149
-163.808	-200.000	0.047	-0.333
-162.793	-30.456	0.085	-0.048
-161.779	-200.000	-0.037	0.398
-160.764	-21.179	0.229	0.138
-159.750	-200.000	-0.026	-0.113
-158.735	800.000	0.028	0.111
-157.720	-200.000	-0.058	0.297
-156.706	10.830	-0.307	-0.230
-155.691	-200.000	-0.034	-0.244
-154.677	-158.417	0.428	-0.024
-153.662	-89.747	-0.236	-0.068
-152.647	115.622	-0.194	-0.234
-151.633	-148.266	-0.461	0.037
-150.618	800.000	-0.095	0.361
-149.604	-2.956	0.110	0.075
-148.589	70.255	-0.174	-0.176
-147.574	800.000	0.059	-0.187
-146.560	-200.000	0.032	0.511
-145.545	100.556	-0.242	0.276
-144.531	213.639	-0.156	-0.243
-143.516	568.963	-0.053	0.126
-142.502	71.782	0.130	0.133
-141.487	7.055	-0.238	0.175
-140.472	-200.000	-0.068	-0.348
-139.458	-149.287	0.044	-0.003
-138.443	-200.000	0.020	-0.292
-137.429	29.678	0.110	-0.092
-136.414	-75.922	0.242	-0.084
-135.399	-200.000	-0.011	0.070
-134.385	149.332	-0.037	-0.050
-133.370	-104.048	-0.113	0.026
-132.356	23.377	0.068	-0.055
-131.341	-175.937	0.169	0.004
-130.326	70.744	0.212	-0.216
-129.312	800.000	0.063	0.252
-128.297	-173.736	0.124	0.004
-127.283	-40.060	0.135	0.069
-126.268	3.357	-0.204	0.146
-125.253	107.230	-0.112	-0.130
-124.239	291.225	0.078	-0.139
-123.224	-40.059	-0.188	-0.096
-122.210	674.405	-0.087	0.221
-121.195	800.000	0.021	-0.071
