DTS Sentinel unit serial number:	SN413079Multiplexer serial number:	ORYXHardware model number:	OX4-SRSoftware version number:	ORYX F/W v4.00 Oryx Data Collector v3.7.2.0data status	okinstallation	princeton_trtdifferential loss correction	single-endedforward channel	channel 2reverse channel	N/Adate	2019/09/17time	12:27:35forward acquisition time	60.00reverse acquisition time	0.00gamma	496.2192k internal	0.2322k external	0.2322temperature offset calibration	0.9992default loss term (dB/km)	0.3790temperature slope calibration	1.0000multiplexer offset coefficient	1.0000multiplexer slope coefficient	1.0000fibre end	0.00T internal ref (°C)	31.83T ext. ref 1 (°C)	0.43T ext. ref 2 (°C)	28.97length (m)	temperature (°C)	Stokes	anti-Stokes-747.200	166.279	0.067	-0.096
-746.185	165.365	-0.168	0.239
-745.171	169.389	-0.248	0.358
-744.156	-64.139	-0.060	-0.025
-743.142	-180.745	0.056	-0.001
-742.127	-200.000	0.081	0.502
-741.112	-200.000	-0.032	0.194
-740.098	-54.505	-0.130	-0.059
-739.083	339.099	0.190	0.374
-738.069	800.000	0.084	0.317
-737.054	-100.536	-0.388	0.097
-736.039	-200.000	-0.009	-0.225
-735.025	81.892	0.273	0.299
-734.010	800.000	-0.117	-0.415
-732.996	800.000	0.124	-0.535
-731.981	122.910	-0.175	-0.222
-730.966	41.531	-0.277	0.253
-729.952	-149.106	-0.447	-0.036
-728.937	203.624	-0.100	-0.156
-727.923	-129.402	0.431	-0.060
-726.908	67.925	-0.081	-0.083
-725.894	84.557	-0.109	-0.121
-724.879	-97.091	-0.065	0.017
-723.864	-161.477	0.233	0.012
-722.850	56.402	-0.169	-0.166
-721.835	-158.393	-0.211	-0.012
-720.821	-65.066	-0.102	0.042
-719.806	14.280	0.260	0.205
-718.791	-17.517	-0.097	-0.062
-717.777	-130.950	0.269	-0.036
-716.762	-56.344	-0.122	0.055
-715.748	7.305	0.150	0.113
-714.733	-39.200	0.276	-0.146
-713.718	-200.000	0.014	-0.153
-712.704	800.000	0.018	-0.051
-711.689	95.861	-0.124	-0.143
-710.675	-153.826	0.123	0.008
-709.660	-200.000	-0.044	0.223
-708.645	-14.721	-0.206	-0.134
-707.631	-74.222	-0.144	-0.053
-706.616	79.656	-0.166	-0.179
-705.602	465.128	0.173	-0.390
-704.587	-103.028	0.204	-0.049
-703.572	-107.926	-0.107	0.024
-702.558	215.002	-0.045	-0.072
-701.543	800.000	-0.030	0.105
-700.529	299.134	-0.084	-0.156
-699.514	76.959	-0.259	-0.278
-698.499	290.452	0.183	-0.336
-697.485	-200.000	0.018	-0.161
-696.470	-200.000	0.055	0.464
-695.456	63.888	0.168	0.171
-694.441	130.119	-0.101	-0.130
-693.426	151.258	0.202	-0.277
-692.412	-200.000	-0.039	-0.287
-691.397	14.413	-0.137	0.108
-690.383	-200.000	-0.034	-0.174
-689.368	494.900	0.126	-0.293
-688.354	27.161	0.091	0.077
-687.339	236.933	0.063	0.106
-686.324	-103.077	-0.240	-0.057
-685.310	241.139	-0.161	0.271
-684.295	247.685	-0.176	-0.300
-683.281	757.177	-0.046	-0.125
-682.266	-27.276	-0.304	-0.179
-681.251	-65.923	-0.348	0.140
-680.237	102.942	-0.145	-0.172
-679.222	7.537	-0.104	-0.078
-678.208	-79.955	-0.187	-0.063
-677.193	3.803	0.137	0.101
-676.178	401.752	0.078	0.164
-675.164	-133.592	-0.086	-0.011
-674.149	-55.487	0.169	-0.076
-673.135	800.000	-0.044	-0.153
-672.120	-18.011	-0.202	0.128
-671.105	-106.777	0.249	-0.056
-670.091	800.000	0.019	0.060
-669.076	-137.145	-0.189	-0.022
-668.062	140.240	-0.133	0.177
-667.047	147.674	-0.259	-0.352
-666.032	1.302	0.085	0.062
-665.018	562.171	-0.141	0.344
-664.003	-200.000	0.021	0.273
-662.989	-134.547	-0.073	-0.009
-661.974	-44.886	0.181	-0.091
-660.959	-8.831	-0.141	-0.095
-659.945	85.564	-0.076	-0.085
-658.930	800.000	0.038	-0.159
-657.916	6.392	-0.254	0.190
-656.901	800.000	-0.095	0.315
-655.886	236.010	-0.129	0.214
-654.872	-200.000	0.003	0.341
-653.857	-200.000	-0.085	-0.502
-652.843	-200.000	-0.000	0.231
-651.828	-200.000	0.010	0.061
-650.814	-46.400	-0.097	0.048
-649.799	-101.318	0.252	0.062
-648.784	-33.580	-0.124	-0.069
-647.770	98.616	-0.075	0.087
-646.755	698.275	0.089	0.235
-645.741	-94.526	0.451	0.124
-644.726	-200.000	0.000	-0.163
-643.711	800.000	-0.052	-0.199
-642.697	152.991	-0.036	-0.050
-641.682	-87.297	0.035	0.011
-640.668	-81.144	-0.255	0.085
-639.653	-21.815	-0.091	0.056
-638.638	-129.278	-0.181	0.025
-637.624	62.842	-0.106	-0.107
-636.609	-83.614	0.191	-0.062
-635.595	-200.000	0.007	-0.156
-634.580	800.000	-0.060	-0.173
-633.565	-69.104	-0.237	0.092
-632.551	19.431	-0.338	0.273
-631.536	-103.076	-0.176	-0.042
-630.522	-133.776	0.170	0.021
-629.507	-182.785	0.409	0.007
-628.492	-24.722	0.214	-0.128
-627.478	153.219	0.162	0.222
-626.463	263.533	0.053	0.093
-625.449	-71.329	-0.263	0.099
-624.434	800.000	0.053	0.209
-623.419	265.131	-0.020	0.035
-622.405	-11.843	-0.063	-0.041
-621.390	800.000	0.067	-0.288
-620.376	619.740	0.071	0.180
-619.361	113.518	0.081	0.098
-618.346	-101.373	0.132	-0.032
-617.332	248.857	-0.055	-0.094
-616.317	610.398	0.111	0.280
-615.303	-59.431	0.126	0.055
-614.288	28.295	-0.231	0.196
-613.273	-65.641	0.394	0.159
-612.259	-200.000	-0.042	0.193
-611.244	19.363	0.199	-0.161
-610.230	433.028	-0.081	-0.176
-609.215	-79.943	0.122	-0.041
-608.201	-10.268	0.181	0.121
-607.186	-200.000	-0.014	0.225
-606.171	-200.000	0.003	0.097
-605.157	-114.572	-0.320	0.062
-604.142	60.762	0.098	0.097
-603.128	255.303	0.067	0.115
-602.113	-63.239	-0.271	-0.112
-601.098	267.275	-0.219	-0.384
-600.084	20.149	-0.177	0.144
-599.069	132.173	-0.042	0.055
-598.055	-200.000	-0.051	0.282
-597.040	136.417	0.116	-0.152
-596.025	381.409	-0.065	0.133
-595.011	-3.146	-0.088	-0.062
-593.996	-22.453	0.433	0.263
-592.982	-156.592	-0.180	-0.011
-591.967	530.253	-0.073	0.174
-590.952	-200.000	-0.027	-0.221
-589.938	-99.825	0.283	0.071
-588.923	65.177	-0.047	-0.048
-587.909	253.177	-0.103	0.176
-586.894	800.000	-0.074	0.290
-585.879	-36.512	0.158	-0.085
-584.865	-136.526	-0.033	-0.004
-583.850	800.000	0.066	-0.225
-582.836	-74.439	-0.260	-0.094
-581.821	-25.525	0.403	-0.239
-580.806	-200.000	-0.006	-0.041
-579.792	330.677	-0.115	-0.223
-578.777	211.798	0.293	-0.464
-577.763	-145.674	0.099	0.009
-576.748	-112.488	0.231	-0.046
-575.733	158.509	-0.146	-0.203
-574.719	641.758	-0.089	-0.229
-573.704	289.523	-0.188	-0.342
-572.690	-67.907	-0.356	-0.140
-571.675	-200.000	0.018	0.117
-570.661	31.311	0.102	-0.088
-569.646	-200.000	-0.017	-0.183
-568.631	23.441	0.052	0.043
-567.617	-200.000	0.016	-0.138
-566.602	95.588	0.037	0.042
-565.588	800.000	-0.022	0.061
-564.573	450.802	0.113	0.251
-563.558	-200.000	-0.001	-0.110
-562.544	240.392	0.170	-0.284
-561.529	147.292	0.033	0.044
-560.515	-136.206	0.115	0.014
-559.500	-73.204	0.127	-0.047
-558.485	-143.786	0.224	0.021
-557.471	-200.000	-0.021	-0.387
-556.456	120.902	-0.098	0.122
-555.442	-33.851	0.302	0.167
-554.427	25.049	0.083	-0.069
-553.412	-200.000	-0.039	0.201
-552.398	148.350	0.260	0.352
-551.383	23.121	0.210	0.173
-550.369	-162.551	-0.278	-0.014
-549.354	-42.052	0.265	0.136
-548.339	-8.101	0.140	-0.095
-547.325	81.416	-0.169	-0.183
-546.310	7.855	-0.168	-0.126
-545.296	148.199	-0.075	-0.101
-544.281	-109.067	-0.185	-0.040
-543.266	23.453	-0.151	-0.124
-542.252	-48.694	0.137	-0.066
-541.237	-200.000	-0.066	-0.381
-540.223	20.740	0.119	0.096
-539.208	-155.680	-0.085	0.005
-538.193	-76.540	0.179	-0.063
-537.179	-200.000	0.020	-0.114
-536.164	46.000	-0.232	-0.215
-535.150	236.021	-0.065	0.107
-534.135	800.000	-0.114	-0.379
-533.121	428.564	-0.036	-0.077
-532.106	-100.590	-0.252	-0.062
-531.091	800.000	-0.093	-0.310
-530.077	-70.656	0.237	-0.090
-529.062	-200.000	0.002	0.324
-528.048	248.525	0.179	0.304
-527.033	49.687	-0.108	0.102
-526.018	-200.000	-0.026	-0.177
-525.004	-143.382	-0.282	-0.027
-523.989	-52.357	-0.124	0.058
-522.975	104.207	0.133	0.156
-521.960	101.994	0.173	0.202
-520.945	-64.772	-0.348	0.141
-519.931	-124.765	0.188	-0.029
-518.916	800.000	0.042	-0.155
-517.902	343.487	-0.155	-0.304
-516.887	800.000	-0.050	0.173
-515.872	800.000	-0.051	0.211
-514.858	-71.586	-0.096	0.036
-513.843	-80.473	0.264	-0.088
-512.829	-118.994	0.323	-0.057
-511.814	-148.355	-0.344	0.028
-510.799	-109.719	0.251	-0.053
-509.785	-53.116	0.299	-0.137
-508.770	-60.671	0.044	0.019
-507.756	-121.245	-0.246	-0.041
-506.741	-109.203	0.135	0.029
-505.726	-8.492	-0.201	0.135
-504.712	800.000	-0.082	0.277
-503.697	7.843	-0.149	-0.112
-502.683	21.969	-0.105	-0.085
-501.668	139.621	0.098	0.130
-500.653	213.379	-0.175	0.277
-499.639	131.549	-0.127	0.163
-498.624	800.000	-0.066	-0.207
-497.610	-200.000	0.004	0.254
-496.595	-167.822	-0.302	-0.012
-495.581	-200.000	0.038	-0.195
-494.566	347.481	-0.012	-0.023
-493.551	-151.978	0.248	-0.018
-492.537	577.543	-0.068	-0.167
-491.522	118.111	-0.063	-0.078
-490.508	25.636	-0.366	0.304
-489.493	-149.319	-0.217	-0.017
-488.478	198.703	-0.071	0.109
-487.464	-19.468	-0.200	0.124
-486.449	-200.000	0.077	0.374
-485.435	61.424	0.349	0.347
-484.420	81.272	0.092	-0.099
-483.405	-45.426	0.131	-0.065
-482.391	-195.406	-0.205	-0.002
-481.376	310.488	0.170	0.318
-480.362	267.202	0.029	-0.051
-479.347	-166.638	-0.117	-0.005
-478.332	-147.730	0.072	0.006
-477.318	75.758	-0.159	-0.168
-476.303	28.204	0.252	-0.213
-475.289	-122.194	-0.174	0.028
-474.274	-61.221	-0.176	-0.074
-473.259	33.937	0.173	-0.151
-472.245	-200.000	-0.029	0.367
-471.230	212.675	0.113	0.178
-470.216	-171.838	-0.278	-0.009
-469.201	150.251	0.207	-0.280
-468.186	-90.215	0.223	-0.065
-467.172	-78.384	0.150	0.051
-466.157	-78.006	-0.361	-0.124
-465.143	-34.833	-0.225	0.123
-464.128	120.132	0.089	0.111
-463.113	-35.031	0.216	-0.118
-462.099	800.000	-0.055	0.207
-461.084	-1.283	0.260	-0.184
-460.070	363.222	0.104	0.209
-459.055	24.231	-0.089	-0.074
-458.040	-45.445	-0.020	-0.010
-457.026	-42.457	0.116	-0.059
-456.011	-45.948	-0.158	0.078
-454.997	-122.786	0.412	0.066
-453.982	12.486	0.157	0.121
-452.968	623.003	0.131	0.331
-451.953	800.000	0.078	-0.312
-450.938	-75.022	0.085	-0.030
-449.924	70.754	0.208	0.215
-448.909	800.000	-0.063	-0.228
-447.895	35.735	-0.154	-0.135
-446.880	800.000	-0.036	0.148
-445.865	47.189	-0.371	0.345
-444.851	116.805	-0.172	0.211
-443.836	125.384	-0.046	0.058
-442.822	-200.000	-0.005	-0.189
-441.807	-34.929	-0.212	-0.116
-440.792	-34.063	-0.174	0.096
-439.778	800.000	-0.067	-0.265
-438.763	-98.161	0.109	0.028
-437.749	-200.000	-0.033	-0.175
-436.734	-200.000	-0.039	-0.387
-435.719	-200.000	-0.012	-0.139
-434.705	-147.557	-0.228	0.019
-433.690	-27.289	0.242	-0.141
-432.676	800.000	0.053	0.221
-431.661	88.871	0.217	-0.241
-430.646	628.901	0.083	-0.210
-429.632	-39.139	-0.156	-0.082
-428.617	249.585	-0.225	0.381
-427.603	800.000	-0.032	-0.087
-426.588	-8.450	-0.113	0.076
-425.573	800.000	0.065	-0.192
-424.559	48.352	-0.095	-0.089
-423.544	800.000	0.014	0.060
-422.530	-163.872	0.233	0.011
-421.515	-200.000	-0.018	-0.092
-420.500	591.382	-0.069	0.169
-419.486	-200.000	-0.028	-0.179
-418.471	450.105	-0.245	-0.539
-417.457	246.834	-0.073	0.123
-416.442	214.142	-0.118	0.186
-415.428	-200.000	0.018	-0.432
-414.413	-38.558	0.013	-0.007
-413.398	184.620	0.113	-0.167
-412.384	84.955	-0.152	-0.167
-411.369	53.623	0.114	-0.109
-410.355	763.357	0.116	-0.314
-409.340	-200.000	-0.000	0.174
-408.325	-200.000	-0.001	0.162
-407.311	473.595	-0.058	0.129
-406.296	432.926	-0.074	-0.160
-405.282	89.250	0.191	-0.212
-404.267	-42.041	-0.474	0.242
-403.252	6.361	0.324	-0.240
-402.238	178.167	0.078	0.114
-401.223	-200.000	0.042	-0.325
-400.209	280.972	-0.062	0.110
-399.194	-25.673	0.115	0.067
-398.179	-54.516	0.143	0.065
-397.165	160.979	-0.155	0.216
-396.150	-62.132	0.152	-0.063
-395.136	-11.499	0.291	-0.191
-394.121	-2.712	-0.184	-0.128
-393.106	800.000	-0.060	-0.172
-392.092	-112.386	0.175	-0.035
-391.077	-200.000	0.018	0.332
-390.063	-120.328	-0.094	0.016
-389.048	-143.140	0.186	0.018
-388.033	-200.000	-0.025	0.452
-387.019	24.548	-0.048	0.040
-386.004	-200.000	-0.009	0.204
-384.990	-160.482	-0.231	-0.012
-383.975	57.196	-0.137	0.133
-382.960	98.485	0.007	-0.008
-381.946	-15.958	-0.188	0.119
-380.931	-200.000	-0.013	-0.466
-379.917	48.458	0.119	0.111
-378.902	304.740	0.216	0.400
-377.888	-5.856	0.149	-0.101
-376.873	-85.971	0.246	0.076
-375.858	-34.229	-0.176	0.096
-374.844	800.000	0.130	-0.463
-373.829	205.732	-0.056	0.086
-372.815	-29.823	0.209	-0.119
-371.800	-200.000	-0.022	0.121
-370.785	769.882	0.108	0.292
-369.771	-200.000	-0.018	-0.209
-368.756	31.636	-0.098	0.084
-367.742	-65.124	0.442	0.178
-366.727	221.009	-0.079	-0.127
-365.712	40.476	0.070	0.063
-364.698	800.000	-0.064	-0.280
-363.683	131.718	0.048	0.062
-362.669	-107.116	0.237	-0.052
-361.654	169.897	0.164	0.234
-360.639	-200.000	0.010	0.353
-359.625	-200.000	0.010	-0.200
-358.610	800.000	0.033	0.101
-357.596	-2.404	-0.170	0.119
-356.581	-166.412	-0.179	-0.007
-355.566	-95.791	0.039	0.010
-354.552	-123.072	0.316	-0.050
-353.537	181.596	-0.171	-0.250
-352.523	-107.451	-0.090	0.020
-351.508	-27.095	-0.247	0.143
-350.493	351.134	-0.052	0.102
-349.479	800.000	-0.066	-0.249
-348.464	-116.228	0.175	-0.032
-347.450	314.307	-0.116	0.216
-346.435	378.576	0.095	-0.193
-345.420	-126.871	-0.198	-0.029
-344.406	204.579	0.057	-0.088
-343.391	-137.980	-0.056	0.006
-342.377	-8.688	-0.197	-0.132
-341.362	210.772	-0.018	0.028
-340.348	78.375	-0.108	-0.115
-339.333	20.723	0.298	0.240
-338.318	193.998	-0.131	0.198
-337.304	-131.216	-0.321	-0.042
-336.289	522.665	0.141	0.329
-335.275	-200.000	0.009	0.192
-334.260	36.759	-0.318	0.279
-333.245	-200.000	-0.039	0.337
-332.231	21.607	-0.106	0.086
-331.216	716.711	0.116	0.306
-330.202	163.054	0.068	0.094
-329.187	50.835	-0.313	-0.295
-328.172	-60.277	0.016	-0.007
-327.158	121.325	0.097	0.120
-326.143	-115.507	0.097	0.018
-325.129	-104.733	-0.213	-0.049
-324.114	337.884	-0.026	0.051
-323.099	34.705	-0.094	0.081
-322.085	224.487	-0.093	0.149
-321.070	14.895	-0.099	0.077
-320.056	213.401	-0.064	0.101
-319.041	-43.726	-0.135	0.067
-318.026	-18.512	-0.082	-0.051
-317.012	255.128	-0.163	0.278
-315.997	-12.162	0.042	-0.027
-314.983	800.000	0.061	0.213
-313.968	-31.656	0.207	0.115
-312.953	-94.126	0.081	-0.022
-311.939	488.130	0.137	0.311
-310.924	800.000	-0.014	-0.052
-309.910	340.464	0.078	-0.152
-308.895	491.079	-0.125	-0.284
-307.880	-112.432	-0.112	-0.022
-306.866	337.494	0.096	0.186
-305.851	78.740	0.314	-0.334
-304.837	-108.347	0.124	0.027
-303.822	-99.242	0.076	0.019
-302.807	184.857	-0.208	0.307
-301.793	527.066	0.066	0.155
-300.778	426.290	-0.028	-0.061
-299.764	10.543	0.106	0.080
-298.749	230.076	0.093	-0.151
-297.735	22.135	-0.068	-0.055
-296.720	-200.000	0.002	-0.118
-295.705	-116.388	-0.248	-0.046
-294.691	-200.000	-0.016	-0.134
-293.676	-95.424	0.176	0.047
-292.662	597.846	0.129	0.318
-291.647	-200.000	-0.026	0.155
-290.632	-29.198	-0.336	0.191
-289.618	82.371	0.116	0.125
-288.603	-152.594	-0.234	-0.017
-287.589	244.394	-0.087	-0.145
-286.574	11.765	-0.081	-0.062
-285.559	-61.269	-0.142	-0.060
-284.545	177.702	-0.134	0.194
-283.530	-22.031	-0.042	-0.026
-282.516	-200.000	-0.038	-0.333
-281.501	-200.000	-0.008	-0.044
-280.486	362.203	0.195	0.387
-279.472	-200.000	-0.088	-0.484
-278.457	-37.419	-0.102	-0.054
-277.443	800.000	-0.055	0.183
-276.428	-139.278	-0.067	0.007
-275.413	-200.000	-0.035	-0.163
-274.399	800.000	-0.155	0.478
-273.384	800.000	-0.090	0.269
-272.370	-200.000	-0.002	-0.161
-271.355	-96.696	-0.345	0.090
-270.340	-16.434	-0.149	-0.094
-269.326	13.313	-0.102	-0.079
-268.311	-200.000	0.013	0.129
-267.297	340.805	0.136	-0.263
-266.282	800.000	-0.023	-0.091
-265.267	-200.000	-0.017	-0.173
-264.253	800.000	-0.017	0.069
-263.238	9.034	0.152	0.114
-262.224	-105.219	0.356	-0.081
-261.209	-99.417	0.174	0.044
-260.195	9.370	-0.134	-0.100
-259.180	-69.928	0.158	-0.060
-258.165	15.120	0.086	-0.067
-257.151	-117.515	-0.527	-0.094
-256.136	-200.000	0.029	0.383
-255.122	-159.184	-0.139	-0.008
-254.107	-160.973	0.652	-0.034
-253.092	-188.901	-0.089	-0.001
-252.078	-67.762	0.166	-0.064
-251.063	11.494	0.203	0.154
-250.049	74.493	0.117	0.122
-249.034	800.000	0.065	-0.238
-248.019	-101.644	0.218	-0.052
-247.005	29.840	-0.205	0.173
-245.990	-200.000	-0.011	-0.236
-244.976	800.000	0.076	-0.312
-243.961	208.202	-0.148	-0.229
-242.946	-17.535	-0.297	-0.185
-241.932	54.925	0.170	0.163
-240.917	-20.254	0.130	-0.079
-239.903	-77.867	-0.032	-0.011
-238.888	-117.575	-0.293	-0.052
-237.873	800.000	-0.072	-0.226
-236.859	-200.000	0.025	0.197
-235.844	-200.000	0.004	-0.237
-234.830	-53.501	0.184	-0.083
-233.815	-80.380	0.086	-0.028
-232.800	362.968	-0.086	-0.171
-231.786	190.778	0.151	-0.224
-230.771	800.000	0.022	0.088
-229.757	800.000	-0.039	-0.125
-228.742	152.271	0.134	0.182
-227.727	-63.546	-0.095	-0.039
-226.713	-6.207	0.226	-0.153
-225.698	-200.000	0.017	-0.144
-224.684	83.137	0.140	-0.150
-223.669	-42.934	0.136	-0.068
-222.655	-144.135	0.355	0.033
-221.640	8.666	-0.227	0.170
-220.625	239.814	0.046	0.076
-219.611	104.674	-0.259	-0.302
-218.596	-125.231	-0.303	-0.046
-217.582	86.524	-0.080	0.087
-216.567	52.942	-0.106	0.101
-215.552	685.202	-0.054	-0.138
-214.538	244.233	0.134	0.223
-213.523	-60.742	-0.176	0.074
-212.509	-200.000	-0.012	0.062
-211.494	96.561	0.153	-0.173
-210.479	-116.297	-0.047	-0.009
-209.465	-200.000	-0.034	-0.503
-208.450	-200.000	-0.039	0.271
-207.436	55.654	-0.114	0.109
-206.421	-162.365	0.390	-0.019
-205.406	35.617	0.344	-0.299
-204.392	-200.000	0.006	0.059
-203.377	-200.000	0.024	-0.402
-202.363	155.742	0.185	0.251
-201.348	-82.853	-0.102	-0.032
-200.333	-192.333	-0.369	-0.003
-199.319	156.328	-0.059	0.080
-198.304	115.345	0.240	0.290
-197.290	-119.787	-0.415	0.071
-196.275	-69.254	-0.167	0.063
-195.260	-72.269	0.319	-0.117
-194.246	-100.421	0.453	0.111
-193.231	373.886	0.070	-0.142
-192.217	104.618	-0.139	-0.162
-191.202	257.098	0.036	-0.060
-190.187	-74.900	0.187	-0.066
-189.173	-60.706	-0.067	-0.028
-188.158	-15.183	0.146	0.093
-187.144	43.457	0.080	0.072
-186.129	-21.802	-0.164	0.099
-185.114	-200.000	0.001	-0.027
-184.100	-139.833	0.182	0.019
-183.085	-36.515	0.301	-0.160
-182.071	-118.845	-0.250	0.043
-181.056	358.725	-0.123	0.242
-180.042	-200.000	-0.047	0.240
-179.027	-72.614	0.427	-0.156
-178.012	483.241	0.088	-0.198
-176.998	800.000	0.125	0.357
-175.983	-16.221	-0.169	-0.106
-174.969	800.000	0.051	-0.159
-173.954	83.522	0.171	-0.185
-172.939	-200.000	-0.031	-0.570
-171.925	-127.114	-0.336	0.049
-170.910	-106.576	-0.349	0.077
-169.896	38.077	-0.145	-0.128
-168.881	800.000	0.090	0.385
-167.866	215.883	-0.114	0.179
-166.852	-40.611	0.032	0.016
-165.837	-200.000	0.006	-0.187
-164.823	-62.946	-0.178	-0.072
-163.808	399.760	-0.024	0.049
-162.793	-55.967	0.258	-0.114
-161.779	622.911	0.021	0.053
-160.764	-200.000	0.038	0.475
-159.750	-94.974	0.075	0.020
-158.735	-92.256	-0.174	0.048
-157.720	-4.647	-0.412	0.281
-156.706	717.240	-0.119	0.312
-155.691	-135.432	0.151	0.018
-154.677	256.085	0.063	-0.106
-153.662	128.337	0.232	-0.292
-152.647	-82.394	0.228	0.073
-151.633	239.932	-0.186	-0.306
-150.618	-200.000	0.030	-0.343
-149.604	-34.897	-0.278	-0.150
-148.589	-103.224	-0.176	-0.041
-147.574	-104.340	0.412	-0.094
-146.560	-200.000	-0.005	0.271
-145.545	-200.000	-0.010	-0.144
-144.531	81.939	0.101	0.108
-143.516	-176.462	0.266	0.007
-142.502	798.731	0.094	0.255
-141.487	800.000	-0.088	0.252
-140.472	182.377	0.190	0.276
-139.458	-96.738	-0.245	0.064
-138.443	-131.869	0.020	0.003
-137.429	-36.246	-0.341	0.182
-136.414	800.000	0.050	-0.208
-135.399	-15.184	0.213	0.134
-134.385	-46.211	0.126	0.061
-133.370	-3.971	-0.210	-0.143
-132.356	-200.000	-0.015	-0.402
-131.341	267.233	0.148	0.255
-130.326	-109.822	-0.122	-0.025
-129.312	800.000	0.078	-0.229
-128.297	-200.000	-0.008	-0.138
-127.283	800.000	-0.043	-0.178
-126.268	193.019	-0.058	-0.086
-125.253	-16.322	0.058	0.037
-124.239	162.785	0.077	-0.107
-123.224	-38.173	-0.232	0.121
-122.210	68.912	-0.105	0.107
