DTS Sentinel unit serial number:	SN413079Multiplexer serial number:	ORYXHardware model number:	OX4-SRSoftware version number:	ORYX F/W v4.00 Oryx Data Collector v3.7.2.0data status	okinstallation	princeton_trtdifferential loss correction	single-endedforward channel	channel 2reverse channel	N/Adate	2019/09/10time	23:57:11forward acquisition time	60.00reverse acquisition time	0.00gamma	496.2192k internal	0.2331k external	0.2331temperature offset calibration	0.9945default loss term (dB/km)	0.3790temperature slope calibration	1.0000multiplexer offset coefficient	1.0000multiplexer slope coefficient	1.0000fibre end	0.00T internal ref (°C)	29.44T ext. ref 1 (°C)	-0.32T ext. ref 2 (°C)	23.07length (m)	temperature (°C)	Stokes	anti-Stokes-747.200	-147.188	-0.216	-0.019
-746.185	800.000	0.037	0.109
-745.171	-102.993	0.190	-0.045
-744.156	-142.769	0.203	-0.020
-743.142	-200.000	-0.016	-0.385
-742.127	-12.784	-0.123	-0.081
-741.112	-81.269	-0.219	0.073
-740.098	-200.000	0.038	-0.273
-739.083	58.680	-0.097	-0.095
-738.069	-200.000	-0.022	0.237
-737.054	-83.121	0.207	0.067
-736.039	-53.538	-0.437	-0.201
-735.025	490.342	0.046	-0.105
-734.010	307.468	0.096	-0.181
-732.996	800.000	-0.013	0.050
-731.981	-148.340	-0.235	0.019
-730.966	-2.689	-0.027	-0.019
-729.952	-200.000	-0.019	-0.207
-728.937	-126.183	0.271	-0.041
-727.923	19.220	-0.130	-0.105
-726.908	-51.047	-0.373	0.176
-725.894	-141.533	-0.260	-0.026
-724.879	301.065	-0.179	-0.332
-723.864	-200.000	0.011	-0.230
-722.850	-38.881	-0.257	0.136
-721.835	-78.319	0.256	-0.088
-720.821	-36.385	-0.157	-0.085
-719.806	62.620	-0.141	-0.142
-718.791	-200.000	-0.031	-0.137
-717.777	-200.000	-0.007	0.144
-716.762	323.416	0.035	0.068
-715.748	-149.230	0.096	-0.008
-714.733	392.971	0.023	0.048
-713.718	48.066	0.138	0.129
-712.704	155.162	0.100	0.138
-711.689	-200.000	0.018	0.190
-710.675	79.776	-0.071	0.076
-709.660	67.322	0.152	0.156
-708.645	-15.378	-0.145	0.093
-707.631	197.061	-0.222	-0.340
-706.616	369.493	-0.089	-0.180
-705.602	118.211	-0.053	0.065
-704.587	14.417	-0.275	0.215
-703.572	-101.842	-0.157	-0.038
-702.558	338.147	0.122	0.238
-701.543	234.956	-0.042	0.070
-700.529	148.766	-0.184	-0.251
-699.514	-101.267	-0.146	0.036
-698.499	75.120	0.131	-0.138
-697.485	30.284	0.194	-0.167
-696.470	-2.159	-0.290	-0.205
-695.456	32.065	-0.234	0.202
-694.441	-200.000	-0.070	0.374
-693.426	-22.718	-0.164	0.100
-692.412	2.938	-0.268	-0.196
-691.397	-7.758	0.118	0.080
-690.383	-33.715	-0.125	-0.069
-689.368	-134.842	-0.163	0.020
-688.354	-200.000	-0.048	-0.322
-687.339	8.216	-0.161	0.121
-686.324	-200.000	0.036	0.160
-685.310	-83.748	-0.302	-0.097
-684.295	-117.621	0.121	0.022
-683.281	800.000	-0.072	0.273
-682.266	-89.924	0.028	0.008
-681.251	-200.000	-0.092	-0.497
-680.237	384.839	-0.228	-0.471
-679.222	800.000	0.085	-0.314
-678.208	454.719	-0.152	-0.339
-677.193	-100.698	0.046	-0.011
-676.178	-21.747	-0.168	-0.103
-675.164	81.185	0.210	0.227
-674.149	521.219	-0.156	-0.368
-673.135	-200.000	-0.033	-0.170
-672.120	111.028	0.181	-0.218
-671.105	-137.301	0.082	0.009
-670.091	73.530	0.038	-0.040
-669.076	705.910	-0.209	-0.553
-668.062	223.208	-0.185	-0.300
-667.047	-200.000	0.012	0.085
-666.032	480.329	-0.074	-0.167
-665.018	-135.455	-0.271	0.032
-664.003	93.568	0.176	-0.200
-662.989	-83.970	-0.334	-0.107
-661.974	681.450	-0.024	-0.062
-660.959	-79.897	0.129	0.044
-659.945	-11.521	0.043	0.029
-658.930	-35.990	-0.309	-0.168
-657.916	-21.608	-0.220	-0.134
-656.901	-70.728	-0.064	0.024
-655.886	-18.633	-0.312	-0.195
-654.872	-200.000	-0.025	-0.415
-653.857	60.595	-0.115	0.114
-652.843	-185.290	0.048	-0.001
-651.828	-31.610	-0.159	-0.090
-650.814	85.474	0.269	0.296
-649.799	-200.000	0.060	-0.269
-648.784	140.361	0.173	-0.229
-647.770	-200.000	0.046	-0.271
-646.755	800.000	0.092	0.360
-645.741	-114.032	0.473	-0.092
-644.726	353.783	-0.035	-0.070
-643.711	-159.946	0.091	0.005
-642.697	204.630	0.075	-0.116
-641.682	800.000	0.047	0.137
-640.668	58.354	-0.063	-0.062
-639.653	-103.305	0.183	-0.043
-638.638	-122.004	0.101	0.017
-637.624	-113.404	-0.120	-0.024
-636.609	-102.788	-0.244	0.058
-635.595	800.000	0.070	-0.281
-634.580	421.942	-0.059	-0.127
-633.565	-200.000	0.008	-0.093
-632.551	9.030	0.277	-0.209
-631.536	731.134	0.103	-0.275
-630.522	596.217	0.121	-0.299
-629.507	800.000	0.039	0.144
-628.492	240.486	0.086	-0.144
-627.478	-200.000	-0.009	-0.049
-626.463	800.000	0.024	-0.091
-625.449	219.379	-0.195	0.312
-624.434	32.635	0.123	-0.107
-623.419	29.138	-0.377	-0.320
-622.405	43.637	0.050	0.045
-621.390	-200.000	-0.051	-0.346
-620.376	-22.466	0.137	-0.083
-619.361	62.907	-0.363	0.364
-618.346	71.300	0.068	-0.071
-617.332	140.117	-0.175	-0.232
-616.317	452.430	-0.169	-0.375
-615.303	-136.396	0.388	-0.045
-614.288	76.704	-0.126	-0.134
-613.273	65.218	0.167	-0.169
-612.259	684.785	-0.075	-0.197
-611.244	167.568	-0.104	-0.148
-610.230	800.000	-0.068	-0.203
-609.215	68.208	0.140	-0.144
-608.201	46.514	0.044	-0.041
-607.186	584.512	-0.052	0.127
-606.171	266.019	-0.100	-0.175
-605.157	800.000	-0.064	-0.246
-604.142	-118.122	0.344	-0.062
-603.128	-115.403	-0.274	0.052
-602.113	42.852	0.088	0.080
-601.098	-27.483	-0.265	-0.154
-600.084	-200.000	0.005	0.097
-599.069	59.310	0.224	0.221
-598.055	129.021	0.223	-0.285
-597.040	358.486	0.223	0.446
-596.025	-65.404	0.042	0.017
-595.011	34.262	0.184	-0.161
-593.996	-200.000	0.037	-0.289
-592.982	-117.008	0.158	0.029
-591.967	154.157	0.038	0.053
-590.952	-3.954	-0.145	0.101
-589.938	-200.000	-0.059	0.396
-588.923	211.206	-0.051	-0.080
-587.909	162.852	-0.141	0.198
-586.894	-36.731	0.066	0.036
-585.879	-200.000	0.003	-0.125
-584.865	800.000	-0.083	-0.252
-583.850	246.150	0.051	0.086
-582.836	283.870	-0.111	0.200
-581.821	-6.586	-0.091	-0.062
-580.806	135.157	-0.169	0.220
-579.792	-30.837	-0.179	-0.101
-578.777	-200.000	0.202	0.001
-577.763	-173.915	0.226	-0.007
-576.748	-200.000	-0.045	-0.270
-575.733	-14.957	-0.451	-0.289
-574.719	226.433	0.148	0.240
-573.704	-181.884	0.374	0.007
-572.690	-116.916	-0.053	0.010
-571.675	100.225	-0.055	0.063
-570.661	-6.643	0.228	-0.155
-569.646	14.266	-0.095	0.074
-568.631	178.728	-0.181	-0.264
-567.617	-79.097	0.192	0.065
-566.602	800.000	0.050	-0.140
-565.588	800.000	-0.038	-0.155
-564.573	-53.288	-0.326	0.150
-563.558	463.075	0.142	0.317
-562.544	-167.531	-0.094	-0.004
-561.529	-200.000	0.001	-0.040
-560.515	800.000	-0.079	-0.341
-559.500	-74.816	0.282	-0.101
-558.485	800.000	-0.099	-0.297
-557.471	800.000	-0.027	-0.077
-556.456	11.886	-0.083	-0.064
-555.442	-47.732	0.357	0.173
-554.427	156.910	0.037	0.051
-553.412	73.039	-0.111	0.116
-552.398	800.000	0.068	0.208
-551.383	265.749	-0.109	-0.190
-550.369	800.000	0.063	-0.230
-549.354	116.483	0.229	-0.280
-548.339	-128.507	-0.356	0.050
-547.325	-86.861	-0.058	-0.018
-546.310	-200.000	-0.046	-0.290
-545.296	-92.867	0.152	0.042
-544.281	24.352	0.177	0.146
-543.266	-200.000	0.013	-0.067
-542.252	9.802	-0.111	-0.084
-541.237	-39.974	-0.159	0.083
-540.223	32.087	0.184	0.158
-539.208	-200.000	-0.018	-0.286
-538.193	82.146	-0.204	-0.221
-537.179	15.229	-0.042	0.033
-536.164	-30.200	0.155	0.088
-535.150	800.000	0.046	0.199
-534.135	-63.290	0.060	-0.025
-533.121	618.426	-0.059	0.149
-532.106	17.007	0.305	0.241
-531.091	-200.000	-0.029	-0.166
-530.077	-121.177	0.243	0.041
-529.062	-200.000	-0.036	-0.236
-528.048	-200.000	0.034	-0.213
-527.033	114.287	-0.039	-0.047
-526.018	197.782	-0.025	0.038
-525.004	-4.581	0.152	0.105
-523.989	-165.327	-0.195	0.009
-522.975	148.551	0.095	-0.129
-521.960	-200.000	-0.067	-0.354
-520.945	-77.606	0.355	0.123
-519.931	7.483	-0.235	-0.175
-518.916	800.000	-0.087	-0.248
-517.902	330.311	0.156	-0.300
-516.887	-200.000	-0.007	0.486
-515.872	-73.241	0.171	-0.062
-514.858	-62.030	0.059	-0.024
-513.843	-89.771	-0.267	0.078
-512.829	708.983	-0.064	0.169
-511.814	-200.000	-0.001	0.137
-510.799	-159.586	-0.295	-0.016
-509.785	-107.048	0.144	-0.032
-508.770	-200.000	-0.032	-0.232
-507.756	-200.000	-0.041	0.254
-506.741	-200.000	-0.015	-0.065
-505.726	-98.371	-0.081	-0.021
-504.712	-99.997	-0.218	-0.054
-503.697	-91.293	0.172	-0.049
-502.683	440.339	-0.100	0.218
-501.668	-167.252	-0.198	0.008
-500.653	-138.017	0.226	0.025
-499.639	-200.000	0.051	0.270
-498.624	-165.744	0.238	0.010
-497.610	-31.894	-0.237	-0.132
-496.595	243.832	-0.070	-0.118
-495.581	-120.424	-0.357	0.060
-494.566	-200.000	0.078	0.420
-493.551	-200.000	0.038	-0.220
-492.537	-200.000	0.005	0.112
-491.522	34.890	-0.139	-0.121
-490.508	-200.000	-0.012	-0.183
-489.493	2.375	0.129	0.093
-488.478	54.667	-0.061	-0.059
-487.464	800.000	0.044	0.184
-486.449	16.863	-0.124	-0.098
-485.435	558.525	0.124	-0.297
-484.420	800.000	0.019	0.055
-483.405	-16.266	-0.288	-0.182
-482.391	-92.365	0.078	-0.022
-481.376	-95.180	0.153	0.041
-480.362	55.179	-0.089	-0.085
-479.347	800.000	0.056	-0.174
-478.332	-200.000	-0.014	-0.097
-477.318	-200.000	0.008	-0.073
-476.303	174.857	0.163	0.234
-475.289	-59.319	0.334	-0.143
-474.274	703.538	0.101	-0.264
-473.259	49.580	-0.172	0.161
-472.245	-200.000	-0.013	-0.100
-471.230	-1.732	-0.122	0.085
-470.216	21.220	0.240	0.194
-469.201	17.740	-0.024	0.019
-468.186	58.208	0.209	0.204
-467.172	-28.681	0.335	0.192
-466.157	-101.822	-0.315	0.076
-465.143	639.839	0.085	-0.215
-464.128	421.423	0.122	-0.260
-463.113	-45.550	-0.181	0.089
-462.099	96.869	0.188	0.215
-461.084	-165.934	0.212	0.009
-460.070	-200.000	0.017	-0.080
-459.055	-200.000	-0.051	-0.405
-458.040	-200.000	-0.064	0.445
-457.026	110.237	0.275	0.329
-456.011	-200.000	-0.087	-0.428
-454.997	-94.613	-0.277	0.075
-453.982	190.742	-0.179	-0.268
-452.968	253.031	-0.135	-0.230
-451.953	23.423	0.110	0.090
-450.938	800.000	0.057	-0.206
-449.924	128.260	0.102	-0.129
-448.909	-61.865	-0.133	0.055
-447.895	319.464	-0.099	0.186
-446.880	-168.541	0.157	-0.006
-445.865	-20.091	-0.114	-0.070
-444.851	-17.599	0.255	0.159
-443.836	-200.000	0.075	0.359
-442.822	-200.000	0.041	0.203
-441.807	272.721	-0.034	0.060
-440.792	160.878	0.052	-0.072
-439.778	381.342	-0.063	0.129
-438.763	407.092	-0.063	0.133
-437.749	44.682	-0.347	-0.318
-436.734	226.075	-0.256	0.413
-435.719	-167.819	0.356	0.014
-434.705	800.000	-0.114	0.410
-433.690	-57.349	0.306	-0.134
-432.676	52.035	0.147	0.140
-431.661	-120.983	0.195	0.033
-430.646	-200.000	-0.011	-0.340
-429.632	13.815	0.225	0.174
-428.617	145.001	-0.261	0.348
-427.603	-15.561	-0.373	0.236
-426.588	-200.000	-0.044	-0.235
-425.573	-52.326	0.150	-0.069
-424.559	-78.600	0.190	0.064
-423.544	82.581	0.092	0.099
-422.530	136.359	0.230	0.298
-421.515	-5.900	-0.039	-0.027
-420.500	39.360	-0.140	0.125
-419.486	-111.464	-0.279	0.057
-418.471	-200.000	0.037	-0.169
-417.457	223.894	0.095	-0.153
-416.442	44.275	-0.165	0.150
-415.428	193.677	-0.071	0.107
-414.413	800.000	-0.098	-0.347
-413.398	121.610	-0.147	0.182
-412.384	-200.000	0.012	0.225
-411.369	167.863	-0.135	-0.191
-410.355	101.943	-0.127	-0.147
-409.340	-54.202	0.101	-0.045
-408.325	-18.741	0.218	-0.135
-407.311	25.872	0.176	-0.146
-406.296	-124.769	0.255	-0.039
-405.282	800.000	-0.052	-0.179
-404.267	608.805	0.118	-0.293
-403.252	39.610	0.153	0.136
-402.238	-200.000	-0.014	-0.067
-401.223	-200.000	0.009	0.137
-400.209	-167.721	0.355	-0.014
-399.194	-103.669	0.075	0.018
-398.179	-36.992	-0.085	0.045
-397.165	68.591	0.185	-0.188
-396.150	-10.611	-0.288	0.189
-395.136	292.052	0.104	0.188
-394.121	800.000	0.042	0.162
-393.106	-200.000	-0.008	0.095
-392.092	-75.186	-0.256	0.091
-391.077	342.808	-0.132	0.256
-390.063	-8.151	-0.193	0.129
-389.048	-134.865	0.141	-0.017
-388.033	800.000	0.199	-0.737
-387.019	-34.316	0.176	0.096
-386.004	-60.677	-0.139	0.058
-384.990	800.000	0.105	0.402
-383.975	146.059	-0.039	0.052
-382.960	38.638	-0.285	0.252
-381.946	36.299	0.257	-0.225
-380.931	597.316	0.012	-0.030
-379.917	87.925	0.181	-0.199
-378.902	-162.912	-0.178	0.009
-377.888	-200.000	-0.024	0.505
-376.873	-97.570	0.364	-0.094
-375.858	189.121	0.096	0.143
-374.844	-176.553	-0.308	-0.008
-373.829	161.487	-0.084	0.116
-372.815	-122.730	0.269	-0.043
-371.800	-1.651	0.022	-0.015
-370.785	-200.000	-0.033	-0.156
-369.771	800.000	0.085	0.360
-368.756	420.697	-0.069	-0.148
-367.742	800.000	0.051	-0.156
-366.727	-200.000	-0.011	0.138
-365.712	-37.362	0.168	0.089
-364.698	800.000	0.110	0.310
-363.683	-107.838	0.369	0.080
-362.669	179.987	0.165	0.240
-361.654	-10.724	-0.264	0.173
-360.639	-32.463	-0.229	0.127
-359.625	-33.619	0.350	0.192
-358.610	-37.669	-0.247	-0.131
-357.596	-200.000	0.014	0.089
-356.581	4.545	-0.221	0.161
-355.566	-200.000	0.053	0.474
-354.552	-82.599	-0.308	-0.099
-353.537	-200.000	-0.004	-0.156
-352.523	63.059	-0.430	-0.427
-351.508	16.870	-0.099	0.078
-350.493	79.755	0.191	0.204
-349.479	318.602	0.227	0.427
-348.464	-200.000	0.037	0.188
-347.450	-159.869	-0.100	0.005
-346.435	-200.000	-0.016	-0.151
-345.420	-200.000	-0.017	-0.125
-344.406	800.000	0.119	-0.349
-343.391	-74.283	-0.475	0.170
-342.377	-79.343	-0.252	0.085
-341.362	157.557	-0.213	-0.292
-340.348	-42.835	0.243	0.122
-339.333	712.691	-0.073	0.191
-338.318	79.583	0.118	0.125
-337.304	88.762	-0.091	-0.100
-336.289	146.182	0.228	-0.303
-335.275	-200.000	-0.276	-0.000
-334.260	-26.700	-0.602	0.349
-333.245	109.891	0.051	-0.061
-332.231	-74.343	0.061	-0.022
-331.216	120.402	0.111	0.136
-330.202	34.052	-0.184	-0.159
-329.187	118.307	-0.162	0.198
-328.172	-155.966	-0.191	0.012
-327.158	98.627	-0.075	-0.085
-326.143	72.486	-0.214	-0.221
-325.129	-200.000	-0.001	-0.247
-324.114	-200.000	0.035	-0.183
-323.099	347.171	-0.067	0.130
-322.085	-154.883	0.218	0.014
-321.070	-60.233	0.061	-0.026
-320.056	-200.000	-0.021	-0.143
-319.041	-145.297	-0.141	0.013
-318.026	119.403	0.086	0.106
-317.012	800.000	-0.009	0.037
-315.997	164.455	0.286	-0.400
-314.983	-200.000	0.054	-0.279
-313.968	-118.637	0.113	-0.020
-312.953	-123.087	-0.366	-0.058
-311.939	-115.219	0.165	0.031
-310.924	-155.784	-0.134	-0.008
-309.910	93.956	0.081	-0.091
-308.895	78.478	-0.107	-0.113
-307.880	-200.000	0.006	0.408
-306.866	-200.000	0.089	-0.516
-305.851	370.007	0.077	0.154
-304.837	-200.000	-0.016	0.300
-303.822	-16.617	-0.042	-0.026
-302.807	-15.844	0.171	0.107
-301.793	116.012	0.057	-0.069
-300.778	235.742	-0.174	0.285
-299.764	55.212	-0.353	0.338
-298.749	22.973	0.230	0.186
-297.735	30.649	-0.330	0.279
-296.720	800.000	-0.071	-0.261
-295.705	800.000	0.069	0.206
-294.691	800.000	0.043	-0.147
-293.676	227.673	-0.237	0.381
-292.662	-200.000	-0.012	0.124
-291.647	-30.080	-0.227	0.128
-290.632	-15.836	-0.045	-0.029
-289.618	-200.000	-0.045	-0.325
-288.603	-166.053	0.270	0.011
-287.589	1.769	-0.088	0.063
-286.574	-169.548	0.285	-0.010
-285.559	13.518	-0.396	-0.304
-284.545	-49.094	-0.223	-0.105
-283.530	-123.755	-0.491	0.077
-282.516	-200.000	-0.003	-0.184
-281.501	682.004	-0.083	0.215
-280.486	-87.260	0.331	-0.099
-279.472	800.000	0.066	-0.266
-278.457	64.213	-0.304	-0.302
-277.443	-67.138	-0.116	-0.045
-276.428	289.141	-0.106	0.190
-275.413	800.000	-0.037	-0.142
-274.399	-200.000	0.033	0.204
-273.384	-128.182	0.377	-0.053
-272.370	-96.004	0.008	0.002
-271.355	-200.000	-0.022	-0.101
-270.340	-200.000	0.026	-0.139
-269.326	38.400	-0.150	0.132
-268.311	-93.800	-0.058	0.016
-267.297	45.621	0.224	-0.204
-266.282	18.085	-0.167	-0.131
-265.267	518.004	-0.088	0.203
-264.253	55.098	-0.218	0.208
-263.238	-200.000	-0.082	0.430
-262.224	-102.435	0.213	-0.050
-261.209	-200.000	-0.046	-0.250
-260.195	73.974	-0.045	0.047
-259.180	-200.000	0.012	0.202
-258.165	-8.482	-0.097	-0.065
-257.151	-124.459	-0.203	-0.031
-256.136	-73.821	-0.368	0.132
-255.122	-143.486	-0.225	0.021
-254.107	207.736	-0.080	-0.124
-253.092	-200.000	-0.010	-0.147
-252.078	-101.595	0.135	0.032
-251.063	-200.000	0.016	-0.180
-250.049	-48.327	0.196	-0.093
-249.034	288.165	-0.063	-0.113
-248.019	1.474	-0.178	-0.126
-247.005	68.115	0.101	0.102
-245.990	705.854	-0.089	0.232
-244.976	635.747	-0.105	0.264
-243.961	-58.038	-0.094	0.041
-242.946	-200.000	-0.014	0.094
-241.932	-114.782	0.260	0.049
-240.917	-136.695	-0.165	0.019
-239.903	-62.392	-0.077	-0.032
-238.888	-49.469	-0.083	0.039
-237.873	-93.777	0.249	0.068
-236.859	65.328	0.068	0.068
-235.844	-125.228	-0.304	0.046
-234.830	174.744	-0.095	0.135
-233.815	800.000	0.019	0.072
-232.800	-76.841	-0.134	0.046
-231.786	-94.527	0.102	-0.027
-230.771	17.918	0.172	-0.135
-229.757	165.574	0.078	-0.109
-228.742	472.767	0.132	-0.292
-227.727	445.258	0.161	0.348
-226.713	-200.000	0.001	-0.160
-225.698	-96.778	0.351	0.091
-224.684	-35.747	-0.062	0.033
-223.669	46.159	0.118	-0.108
-222.655	117.825	0.086	-0.105
-221.640	-54.349	0.096	-0.043
-220.625	-195.337	0.282	-0.002
-219.611	-73.088	-0.184	0.067
-218.596	-41.703	-0.070	0.036
-217.582	754.098	-0.121	0.323
-216.567	135.513	0.156	-0.200
-215.552	-200.000	0.004	-0.214
-214.538	-8.387	0.066	-0.044
-213.523	-98.680	0.016	-0.004
-212.509	800.000	0.034	0.110
-211.494	503.715	-0.181	0.413
-210.479	800.000	0.094	0.258
-209.465	800.000	0.041	0.173
-208.450	-65.633	0.031	-0.012
-207.436	800.000	0.046	0.183
-206.421	62.499	0.269	0.265
-205.406	-200.000	-0.009	0.073
-204.392	31.188	-0.209	0.176
-203.377	-200.000	-0.017	0.141
-202.363	800.000	0.024	-0.089
-201.348	-53.301	-0.432	0.195
-200.333	-200.000	-0.023	-0.169
-199.319	-200.000	0.018	0.139
-198.304	153.351	-0.125	0.169
-197.290	24.195	0.238	-0.194
-196.275	-200.000	0.000	-0.081
-195.260	-25.973	0.095	0.055
-194.246	23.297	0.070	-0.057
-193.231	-77.536	0.121	0.041
-192.217	-200.000	-0.004	0.032
-191.202	800.000	-0.055	0.236
-190.187	45.008	-0.209	0.190
-189.173	160.128	0.103	0.141
-188.158	-61.721	0.135	0.056
-187.144	-14.456	-0.155	0.098
-186.129	-129.244	0.215	-0.030
-185.114	-65.646	0.439	0.173
-184.100	-63.691	-0.279	0.113
-183.085	800.000	0.091	-0.300
-182.071	-200.000	-0.022	-0.226
-181.056	-200.000	0.029	-0.129
-180.042	-78.367	-0.238	-0.080
-179.027	800.000	0.078	-0.228
-178.012	-52.688	-0.263	0.119
-176.998	-200.000	-0.047	-0.291
-175.983	201.173	0.202	0.305
-174.969	437.023	0.219	-0.470
-173.954	50.534	0.260	-0.242
-172.939	-200.000	0.038	0.325
-171.925	-85.837	-0.183	0.056
-170.910	-164.700	0.024	-0.001
-169.896	16.343	-0.174	-0.135
-168.881	-16.421	-0.155	0.097
-167.866	-29.078	-0.421	-0.238
-166.852	44.456	0.291	0.263
-165.837	-200.000	0.066	0.428
-164.823	-106.468	0.264	0.058
-163.808	14.019	-0.303	-0.232
-162.793	435.866	-0.058	-0.123
-161.779	-50.715	0.121	-0.056
-160.764	-104.418	-0.495	-0.113
-159.750	-114.564	0.104	0.020
-158.735	800.000	-0.070	0.226
-157.720	33.023	0.246	0.210
-156.706	-200.000	0.026	0.237
-155.691	-80.890	0.327	0.107
-154.677	107.289	-0.168	-0.197
-153.662	-140.215	-0.137	-0.014
-152.647	-145.179	0.190	-0.017
-151.633	-85.847	0.367	0.112
-150.618	-200.000	0.024	0.126
-149.604	-34.999	-0.196	0.105
-148.589	85.954	0.239	-0.258
-147.574	31.577	-0.200	-0.169
-146.560	-29.501	-0.308	0.173
-145.545	-22.235	-0.410	0.244
-144.531	-19.131	0.182	-0.111
-143.516	-77.929	0.275	0.093
-142.502	114.362	0.157	0.188
-141.487	800.000	-0.038	0.119
-140.472	41.966	-0.313	0.279
-139.458	172.226	0.161	0.228
-138.443	-200.000	-0.038	0.373
-137.429	-80.534	-0.062	-0.020
-136.414	489.078	0.060	-0.134
-135.399	-200.000	0.002	-0.349
-134.385	401.753	-0.157	0.325
-133.370	-159.936	0.367	0.020
-132.356	27.205	-0.243	0.201
-131.341	-121.396	-0.265	-0.043
-130.326	347.431	-0.026	-0.050
-129.312	74.878	-0.295	0.305
-128.297	586.267	0.101	-0.243
-127.283	-16.921	0.047	-0.029
-126.268	77.582	0.176	0.184
-125.253	117.715	-0.068	0.082
-124.239	-136.774	0.288	0.033
-123.224	-26.721	0.192	-0.110
-122.210	196.902	-0.086	0.129
-121.195	50.291	-0.276	0.257
