DTS Sentinel unit serial number:	SN413079Multiplexer serial number:	ORYXHardware model number:	OX4-SRSoftware version number:	ORYX F/W v4.00 Oryx Data Collector v3.7.2.0data status	okinstallation	princeton_trtdifferential loss correction	single-endedforward channel	channel 2reverse channel	N/Adate	2019/09/14time	05:11:34forward acquisition time	60.00reverse acquisition time	0.00gamma	496.2192k internal	0.2335k external	0.2335temperature offset calibration	1.0134default loss term (dB/km)	0.3790temperature slope calibration	1.0000multiplexer offset coefficient	1.0000multiplexer slope coefficient	1.0000fibre end	0.00T internal ref (°C)	26.89T ext. ref 1 (°C)	3.39T ext. ref 2 (°C)	21.96length (m)	temperature (°C)	Stokes	anti-Stokes-747.200	-123.011	-0.399	-0.064
-746.185	800.000	-0.060	-0.182
-745.171	-1.515	0.174	0.124
-744.156	-112.459	0.507	-0.102
-743.142	37.719	-0.166	0.148
-742.127	244.961	-0.132	-0.222
-741.112	9.892	0.029	-0.022
-740.098	-137.445	0.188	-0.021
-739.083	324.610	0.153	-0.294
-738.069	-123.897	-0.171	0.027
-737.054	329.398	-0.089	0.171
-736.039	19.799	-0.045	-0.036
-735.025	735.583	0.013	0.035
-734.010	-52.501	0.035	0.016
-732.996	-159.450	-0.212	-0.012
-731.981	312.794	0.083	-0.156
-730.966	205.851	-0.212	-0.331
-729.952	-7.351	-0.157	-0.107
-728.937	-22.004	0.140	-0.086
-727.923	63.723	0.058	0.059
-726.908	183.140	-0.110	0.163
-725.894	265.302	0.064	-0.111
-724.879	202.514	0.192	-0.298
-723.864	-86.037	-0.269	-0.083
-722.850	439.398	-0.007	-0.015
-721.835	227.399	-0.085	-0.139
-720.821	-46.337	-0.378	-0.187
-719.806	-130.973	0.095	0.013
-718.791	540.230	0.067	0.161
-717.777	38.429	-0.188	-0.168
-716.762	135.210	0.267	-0.348
-715.748	-37.847	-0.222	0.119
-714.733	653.326	-0.106	-0.272
-713.718	800.000	-0.068	-0.284
-712.704	-10.152	0.130	-0.087
-711.689	24.268	0.145	-0.120
-710.675	473.415	0.079	0.178
-709.660	-114.333	0.178	0.034
-708.645	639.849	-0.037	-0.095
-707.631	601.521	0.007	0.018
-706.616	800.000	0.046	-0.131
-705.602	148.816	0.129	0.175
-704.587	161.078	-0.281	0.394
-703.572	576.425	-0.186	0.456
-702.558	63.023	-0.113	-0.114
-701.543	-176.037	0.210	0.006
-700.529	162.528	-0.264	-0.372
-699.514	353.118	-0.201	-0.399
-698.499	421.456	-0.040	0.087
-697.485	124.798	-0.143	-0.181
-696.470	-53.843	0.164	0.075
-695.456	-71.556	-0.298	-0.112
-694.441	-200.000	0.032	-0.252
-693.426	-200.000	-0.048	-0.414
-692.412	800.000	0.036	-0.112
-691.397	337.557	0.103	0.200
-690.383	-144.980	0.183	0.017
-689.368	-126.090	-0.265	-0.040
-688.354	-144.505	0.043	0.004
-687.339	80.300	0.085	-0.091
-686.324	34.672	-0.226	-0.198
-685.310	130.863	0.139	-0.179
-684.295	355.596	0.039	-0.078
-683.281	-143.935	-0.354	-0.033
-682.266	52.238	0.244	-0.234
-681.251	-200.000	-0.007	0.138
-680.237	-17.875	-0.235	0.148
-679.222	71.700	0.083	0.087
-678.208	-123.441	0.096	0.015
-677.193	270.809	-0.069	0.122
-676.178	282.280	-0.249	-0.448
-675.164	-36.553	0.201	0.108
-674.149	-71.829	-0.177	-0.066
-673.135	-81.788	-0.070	0.023
-672.120	-200.000	0.044	0.192
-671.105	-147.205	-0.171	0.015
-670.091	223.452	-0.083	0.135
-669.076	306.241	-0.158	-0.294
-668.062	277.084	0.141	-0.252
-667.047	109.439	0.219	-0.263
-666.032	-96.811	0.202	-0.053
-665.018	-176.686	0.374	0.010
-664.003	-111.318	0.335	-0.069
-662.989	-6.014	-0.101	-0.069
-661.974	-200.000	-0.011	0.129
-660.959	173.212	-0.037	0.054
-659.945	222.825	-0.070	-0.113
-658.930	539.159	0.044	-0.105
-657.916	-95.009	0.055	0.015
-656.901	-109.541	-0.365	0.077
-655.886	800.000	0.047	0.167
-654.872	-200.000	0.003	0.153
-653.857	-200.000	0.027	-0.131
-652.843	140.079	0.194	0.256
-651.828	-200.000	0.000	0.114
-650.814	-79.987	-0.094	-0.032
-649.799	83.249	-0.073	0.080
-648.784	800.000	-0.005	0.016
-647.770	-1.203	0.146	-0.104
-646.755	-85.680	-0.262	0.081
-645.741	6.404	0.101	-0.075
-644.726	718.952	-0.126	-0.335
-643.711	532.036	0.187	-0.442
-642.697	508.253	-0.083	-0.193
-641.682	-97.536	-0.395	0.103
-640.668	135.455	0.065	-0.085
-639.653	-200.000	0.002	0.170
-638.638	46.206	-0.017	-0.016
-637.624	-111.973	0.317	-0.064
-636.609	-3.623	-0.367	0.256
-635.595	636.240	-0.073	-0.185
-634.580	-55.675	-0.276	-0.124
-633.565	-200.000	-0.012	-0.215
-632.551	-67.120	0.312	-0.123
-631.536	314.618	0.161	0.303
-630.522	-200.000	0.043	0.421
-629.507	-169.211	-0.052	-0.002
-628.492	-129.120	-0.366	0.051
-627.478	-200.000	-0.063	-0.414
-626.463	6.181	-0.050	0.037
-625.449	21.870	-0.129	-0.105
-624.434	-10.357	0.133	-0.088
-623.419	-54.390	0.318	0.144
-622.405	111.844	0.034	-0.042
-621.390	563.950	-0.032	-0.077
-620.376	-7.076	0.382	0.259
-619.361	-0.633	0.318	-0.226
-618.346	49.699	-0.211	-0.199
-617.332	-200.000	-0.011	0.176
-616.317	-105.532	-0.230	0.052
-615.303	299.685	-0.058	-0.107
-614.288	-200.000	0.022	-0.211
-613.273	-26.708	0.180	0.105
-612.259	-200.000	0.036	-0.252
-611.244	217.532	-0.123	-0.196
-610.230	243.453	0.196	0.329
-609.215	800.000	-0.037	0.103
-608.201	-200.000	-0.011	-0.113
-607.186	-200.000	-0.009	-0.294
-606.171	658.395	0.109	0.281
-605.157	-143.983	-0.447	0.042
-604.142	-185.563	0.043	-0.001
-603.128	-68.341	-0.333	0.129
-602.113	248.284	0.187	0.317
-601.098	800.000	0.005	0.018
-600.084	212.750	-0.232	-0.365
-599.069	800.000	-0.068	0.267
-598.055	412.111	0.129	0.274
-597.040	-200.000	0.249	0.001
-596.025	-135.337	-0.457	-0.055
-595.011	-26.652	-0.135	-0.079
-593.996	91.436	0.045	-0.051
-592.982	-106.461	-0.161	0.036
-591.967	568.444	0.138	0.336
-590.952	27.153	0.049	0.041
-589.938	-200.000	0.030	0.339
-588.923	-37.940	0.403	-0.214
-587.909	206.284	0.050	0.078
-586.894	-139.843	-0.313	0.033
-585.879	141.144	0.248	0.327
-584.865	-41.281	-0.062	-0.032
-583.850	-127.156	-0.145	-0.021
-582.836	-67.331	0.223	-0.087
-581.821	-136.797	-0.071	-0.008
-580.806	410.869	-0.014	0.030
-579.792	40.779	0.205	-0.185
-578.777	12.233	-0.311	-0.239
-577.763	-79.733	0.099	-0.033
-576.748	167.133	-0.061	0.086
-575.733	-200.000	-0.017	-0.095
-574.719	-200.000	0.012	0.192
-573.704	800.000	0.025	0.096
-572.690	800.000	0.057	-0.163
-571.675	-200.000	-0.032	-0.345
-570.661	-65.430	-0.416	0.167
-569.646	545.991	0.045	0.108
-568.631	48.905	-0.125	-0.117
-567.617	-111.814	0.221	-0.045
-566.602	-158.021	-0.126	0.007
-565.588	-26.844	-0.094	0.055
-564.573	-131.369	-0.221	0.029
-563.558	756.121	0.106	-0.286
-562.544	-200.000	0.073	0.332
-561.529	24.277	-0.243	-0.201
-560.515	-14.484	0.310	0.199
-559.500	61.420	0.066	0.065
-558.485	-200.000	-0.019	0.501
-557.471	-200.000	-0.004	-0.358
-556.456	-126.275	0.233	-0.035
-555.442	-200.000	0.009	-0.153
-554.427	40.990	-0.145	-0.131
-553.412	-200.000	-0.018	-0.358
-552.398	-200.000	-0.026	0.319
-551.383	-200.000	-0.021	0.173
-550.369	619.394	-0.093	-0.234
-549.354	323.547	-0.134	-0.255
-548.339	-117.543	0.371	0.067
-547.325	-200.000	0.008	-0.090
-546.310	-162.174	-0.152	0.008
-545.296	-44.289	0.268	0.134
-544.281	26.370	0.107	0.089
-543.266	707.787	0.051	-0.134
-542.252	253.119	0.041	-0.070
-541.237	16.725	0.176	0.139
-540.223	-200.000	-0.042	-0.231
-539.208	-200.000	0.028	-0.229
-538.193	394.265	0.046	-0.095
-537.179	800.000	-0.109	0.306
-536.164	-200.000	0.065	-0.390
-535.150	800.000	0.037	-0.155
-534.135	104.100	0.061	0.071
-533.121	243.393	-0.161	-0.269
-532.106	-117.737	0.219	0.039
-531.091	-79.170	0.027	0.009
-530.077	-73.111	-0.275	-0.100
-529.062	137.914	-0.034	-0.045
-528.048	-200.000	-0.014	0.340
-527.033	-200.000	-0.040	-0.206
-526.018	-30.916	0.324	0.182
-525.004	-78.479	0.287	0.098
-523.989	17.180	0.118	0.094
-522.975	-84.537	0.363	0.114
-521.960	-68.167	-0.123	0.048
-520.945	-200.000	0.033	0.217
-519.931	-62.535	0.246	0.102
-518.916	41.873	-0.194	-0.175
-517.902	-103.857	0.182	0.042
-516.887	800.000	-0.052	0.175
-515.872	-11.361	-0.425	0.279
-514.858	-37.346	0.328	-0.174
-513.843	-200.000	0.033	-0.246
-512.829	-200.000	-0.057	-0.430
-511.814	42.531	0.388	-0.351
-510.799	-12.521	0.096	-0.062
-509.785	-118.817	-0.431	0.075
-508.770	20.642	0.206	0.166
-507.756	23.232	0.214	0.175
-506.741	717.412	0.089	0.234
-505.726	34.362	0.127	0.110
-504.712	251.779	0.100	-0.170
-503.697	517.517	-0.028	0.065
-502.683	-61.839	-0.304	-0.127
-501.668	154.666	0.155	0.212
-500.653	77.519	-0.067	0.071
-499.639	-158.220	-0.209	0.012
-498.624	123.549	-0.104	-0.130
-497.610	-200.000	-0.030	-0.178
-496.595	-72.731	0.268	-0.098
-495.581	16.010	0.219	-0.171
-494.566	-23.343	-0.140	-0.084
-493.551	-200.000	-0.010	-0.102
-492.537	-79.368	-0.175	-0.059
-491.522	-95.289	-0.385	0.103
-490.508	-93.604	-0.132	0.036
-489.493	667.442	-0.105	-0.271
-488.478	396.808	-0.115	-0.239
-487.464	161.542	0.144	0.200
-486.449	-104.597	-0.178	0.041
-485.435	304.757	0.049	0.090
-484.420	800.000	0.059	-0.243
-483.405	-200.000	0.067	-0.301
-482.391	219.212	-0.089	-0.142
-481.376	-53.265	-0.269	-0.123
-480.362	-105.741	0.438	-0.099
-479.347	-200.000	-0.013	0.214
-478.332	-133.597	-0.233	0.029
-477.318	-25.280	-0.305	-0.180
-476.303	-181.754	-0.065	-0.001
-475.289	-80.466	-0.097	0.032
-474.274	-200.000	-0.003	-0.212
-473.259	-200.000	0.035	-0.246
-472.245	48.849	0.241	-0.225
-471.230	-92.708	-0.288	-0.080
-470.216	244.283	-0.163	0.271
-469.201	800.000	0.071	0.201
-468.186	219.346	0.183	-0.291
-467.172	57.660	0.066	0.064
-466.157	-10.001	-0.312	0.206
-465.143	-200.000	0.057	0.267
-464.128	160.886	-0.124	0.172
-463.113	-200.000	0.056	0.249
-462.099	212.206	-0.218	0.341
-461.084	-75.484	0.113	0.040
-460.070	381.149	0.016	0.032
-459.055	-19.638	-0.036	0.022
-458.040	800.000	-0.091	-0.332
-457.026	135.847	0.159	0.206
-456.011	-178.842	0.096	0.002
-454.997	95.109	-0.245	-0.278
-453.982	800.000	-0.022	0.084
-452.968	-40.840	0.439	-0.226
-451.953	-42.475	0.195	0.099
-450.938	-128.031	0.288	0.041
-449.924	134.578	-0.082	-0.106
-448.909	-21.030	-0.174	-0.106
-447.895	-128.664	-0.241	0.034
-446.880	-139.759	-0.228	-0.024
-445.865	68.289	-0.115	-0.117
-444.851	424.990	-0.110	0.235
-443.836	252.453	0.124	0.210
-442.822	704.798	-0.054	0.141
-441.807	472.598	0.068	0.153
-440.792	-71.620	-0.048	0.018
-439.778	-200.000	0.011	0.078
-438.763	-200.000	-0.015	0.104
-437.749	800.000	-0.058	-0.165
-436.734	80.812	0.179	-0.191
-435.719	124.595	-0.104	0.130
-434.705	-34.023	0.064	0.035
-433.690	-9.230	0.101	-0.067
-432.676	-88.684	-0.214	0.063
-431.661	-125.838	-0.106	-0.016
-430.646	800.000	0.003	-0.010
-429.632	21.299	0.276	-0.223
-428.617	373.059	0.032	0.065
-427.603	-68.389	0.407	0.157
-426.588	121.223	0.241	0.297
-425.573	34.036	0.237	0.205
-424.559	88.656	0.107	-0.118
-423.544	-17.947	0.230	-0.143
-422.530	-142.116	-0.164	-0.016
-421.515	-200.000	0.014	-0.304
-420.500	-96.947	-0.115	-0.030
-419.486	317.320	0.101	-0.189
-418.471	-109.500	0.126	0.026
-417.457	-88.765	0.207	-0.061
-416.442	-47.238	0.266	-0.129
-415.428	276.746	-0.169	0.298
-414.413	11.251	-0.154	-0.117
-413.398	-47.974	-0.114	-0.055
-412.384	-46.759	-0.223	-0.108
-411.369	-200.000	0.018	0.115
-410.355	67.670	0.116	0.117
-409.340	172.087	0.198	-0.282
-408.325	-112.036	0.334	-0.067
-407.311	-70.131	-0.380	0.143
-406.296	-200.000	0.024	-0.313
-405.282	-151.480	0.322	0.024
-404.267	-200.000	0.018	-0.092
-403.252	-200.000	-0.013	-0.141
-402.238	-27.227	-0.092	-0.053
-401.223	-145.917	-0.095	0.008
-400.209	1.539	-0.376	-0.268
-399.194	9.073	-0.224	-0.168
-398.179	229.980	-0.102	-0.166
-397.165	-120.492	-0.140	-0.024
-396.150	-13.725	-0.042	0.027
-395.136	7.565	-0.070	0.052
-394.121	-90.047	0.171	-0.050
-393.106	-200.000	-0.055	0.406
-392.092	135.701	-0.106	0.137
-391.077	-38.548	0.053	0.028
-390.063	-26.420	0.122	0.071
-389.048	-72.575	0.171	0.063
-388.033	800.000	0.075	-0.236
-387.019	800.000	0.051	0.148
-386.004	-86.717	-0.273	-0.083
-384.990	-86.362	-0.340	0.104
-383.975	256.305	0.082	0.139
-382.960	-200.000	-0.033	0.482
-381.946	800.000	0.050	-0.171
-380.931	-96.704	-0.150	0.039
-379.917	-200.000	0.035	0.252
-378.902	80.764	0.062	0.066
-377.888	-138.113	0.286	-0.031
-376.873	-200.000	-0.002	0.038
-375.858	800.000	-0.128	0.353
-374.844	70.800	-0.306	-0.314
-373.829	-155.460	0.294	-0.019
-372.815	800.000	-0.082	0.268
-371.800	-200.000	0.022	-0.223
-370.785	-191.234	-0.199	0.002
-369.771	62.891	-0.057	-0.057
-368.756	714.559	-0.173	-0.454
-367.742	-110.649	-0.277	-0.057
-366.727	-36.055	0.122	-0.065
-365.712	800.000	0.084	-0.234
-364.698	-200.000	-0.031	0.156
-363.683	800.000	-0.038	0.106
-362.669	-200.000	-0.005	-0.124
-361.654	94.772	0.136	-0.153
-360.639	6.656	-0.311	0.229
-359.625	154.591	-0.144	0.196
-358.610	800.000	0.035	0.122
-357.596	-9.149	-0.385	-0.255
-356.581	0.845	0.099	0.070
-355.566	50.619	0.242	0.227
-354.552	764.427	-0.056	0.151
-353.537	762.584	-0.017	-0.046
-352.523	129.687	-0.018	-0.023
-351.508	53.874	0.138	-0.131
-350.493	-89.756	0.409	-0.119
-349.479	-52.701	0.228	0.104
-348.464	800.000	0.015	0.046
-347.450	-98.352	0.306	0.078
-346.435	-200.000	0.003	-0.209
-345.420	-200.000	-0.039	0.244
-344.406	-123.342	0.310	-0.049
-343.391	-200.000	-0.013	0.128
-342.377	-83.252	-0.161	-0.051
-341.362	522.386	0.180	0.417
-340.348	651.723	0.034	-0.087
-339.333	-92.946	-0.435	-0.120
-338.318	666.127	0.133	-0.339
-337.304	-58.337	0.236	0.102
-336.289	5.429	0.217	-0.159
-335.275	-55.505	-0.358	0.159
-334.260	-200.000	0.016	-0.134
-333.245	-194.957	-0.060	0.000
-332.231	-43.912	-0.282	-0.140
-331.216	128.634	-0.190	0.239
-330.202	-200.000	0.007	0.275
-329.187	-145.719	0.150	0.013
-328.172	430.364	-0.041	0.088
-327.158	20.250	-0.139	-0.111
-326.143	800.000	0.065	-0.229
-325.129	-200.000	-0.007	-0.089
-324.114	-55.071	0.363	0.162
-323.099	800.000	0.054	0.226
-322.085	-105.103	0.182	-0.041
-321.070	-109.498	0.260	-0.054
-320.056	-71.391	-0.144	-0.053
-319.041	-40.979	-0.237	0.121
-318.026	274.468	-0.248	0.435
-317.012	-168.468	-0.079	0.003
-315.997	800.000	0.042	0.171
-314.983	223.525	-0.062	0.099
-313.968	-113.288	-0.242	-0.047
-312.953	44.412	-0.103	-0.094
-311.939	-83.618	-0.314	-0.099
-310.924	800.000	-0.062	0.247
-309.910	9.915	-0.043	0.033
-308.895	-200.000	0.030	-0.328
-307.880	52.923	-0.319	0.301
-306.866	119.665	0.052	0.064
-305.851	-131.871	0.303	-0.039
-304.837	53.934	-0.057	-0.054
-303.822	800.000	0.060	-0.190
-302.807	286.601	-0.038	0.068
-301.793	800.000	0.127	-0.416
-300.778	-200.000	-0.089	-0.434
-299.764	204.082	0.085	-0.130
-298.749	-200.000	0.055	-0.381
-297.735	-182.869	-0.156	0.003
-296.720	-67.294	-0.216	0.084
-295.705	-74.172	0.146	0.052
-294.691	235.303	0.176	-0.287
-293.676	398.525	-0.051	0.106
-292.662	262.938	0.179	-0.307
-291.647	100.732	-0.058	-0.066
-290.632	-200.000	0.006	0.189
-289.618	5.478	0.283	0.206
-288.603	174.401	-0.282	0.403
-287.589	800.000	0.127	0.405
-286.574	-84.221	0.112	0.035
-285.559	15.310	-0.104	-0.081
-284.545	370.419	-0.066	-0.133
-283.530	-128.371	-0.248	0.035
-282.516	324.555	0.106	0.200
-281.501	-200.000	-0.110	0.639
-280.486	-200.000	0.015	0.203
-279.472	-66.719	-0.204	0.080
-278.457	800.000	0.077	0.213
-277.443	-104.509	0.348	0.079
-276.428	6.568	0.107	0.078
-275.413	225.508	-0.057	0.091
-274.399	246.087	0.095	-0.158
-273.384	516.022	0.032	0.074
-272.370	-62.450	-0.318	-0.130
-271.355	17.758	0.444	-0.348
-270.340	23.585	0.079	-0.064
-269.326	800.000	0.059	0.191
-268.311	-200.000	-0.038	0.171
-267.297	800.000	-0.065	0.225
-266.282	616.145	-0.106	0.262
-265.267	-200.000	-0.013	0.073
-264.253	-200.000	-0.045	0.218
-263.238	184.938	0.077	-0.113
-262.224	-200.000	0.000	0.122
-261.209	-0.702	-0.198	0.139
-260.195	-200.000	-0.020	0.175
-259.180	166.126	0.156	-0.218
-258.165	-47.734	0.123	0.059
-257.151	40.170	0.130	0.115
-256.136	649.495	-0.182	0.459
-255.122	89.052	0.216	-0.237
-254.107	-48.066	-0.252	0.120
-253.092	800.000	-0.183	0.559
-252.078	351.590	-0.080	-0.156
-251.063	24.675	-0.267	0.218
-250.049	287.452	-0.147	0.262
-249.034	-200.000	-0.043	0.249
-248.019	800.000	-0.148	-0.486
-247.005	800.000	-0.005	-0.014
-245.990	-14.202	-0.131	0.083
-244.976	84.564	0.153	-0.165
-243.961	-125.910	-0.469	0.070
-242.946	-78.952	-0.178	-0.060
-241.932	220.106	0.158	-0.250
-240.917	-156.767	0.396	-0.024
-239.903	800.000	0.138	0.493
-238.888	586.626	0.109	0.264
-237.873	53.825	0.076	0.072
-236.859	-115.328	-0.387	-0.072
-235.844	-47.770	0.381	-0.182
-234.830	-200.000	0.037	-0.199
-233.815	800.000	0.053	-0.228
-232.800	234.997	0.149	0.242
-231.786	141.119	0.156	-0.203
-230.771	-200.000	0.070	0.339
-229.757	-200.000	-0.001	-0.041
-228.742	127.420	0.207	0.259
-227.727	-50.755	0.046	-0.021
-226.713	-63.818	-0.059	-0.024
-225.698	213.081	-0.094	0.147
-224.684	563.798	-0.119	-0.283
-223.669	800.000	-0.086	0.257
-222.655	100.119	-0.005	0.006
-221.640	141.366	0.113	0.148
-220.625	-68.334	0.060	0.023
-219.611	98.056	-0.168	-0.190
-218.596	-45.483	0.161	-0.078
-217.582	194.195	0.131	0.196
-216.567	-108.095	-0.253	0.054
-215.552	-200.000	-0.010	-0.128
-214.538	118.712	-0.237	0.288
-213.523	125.640	0.228	-0.284
-212.509	-200.000	-0.012	0.103
-211.494	11.275	0.109	-0.082
-210.479	130.824	0.106	-0.134
-209.465	421.018	-0.050	-0.106
-208.450	-156.582	0.094	0.006
-207.436	327.473	-0.170	-0.320
-206.421	-112.703	0.219	0.043
-205.406	-200.000	-0.003	0.091
-204.392	-115.146	-0.329	0.061
-203.377	314.105	0.041	0.076
-202.363	-200.000	0.023	0.376
-201.348	21.367	0.042	-0.034
-200.333	-139.959	0.140	-0.015
-199.319	-131.181	-0.119	0.016
-198.304	-89.931	-0.242	0.070
-197.290	-144.348	0.206	-0.019
-196.275	337.368	-0.146	0.280
-195.260	800.000	0.056	-0.231
-194.246	-45.890	0.198	0.096
-193.231	75.290	-0.038	-0.039
-192.217	718.470	-0.150	-0.392
-191.202	-146.109	0.118	0.010
-190.187	300.148	0.133	-0.242
-189.173	800.000	0.105	-0.340
-188.158	-194.387	-0.007	0.000
-187.144	800.000	0.092	0.265
-186.129	469.456	-0.067	-0.147
-185.114	-36.133	0.183	-0.097
-184.100	-147.050	-0.128	-0.011
-183.085	537.696	0.136	0.319
-182.071	-33.941	-0.103	0.056
-181.056	-35.675	-0.089	-0.047
-180.042	2.084	0.142	0.101
-179.027	-17.829	0.286	0.176
-178.012	296.963	0.202	0.365
-176.998	-141.618	-0.162	0.016
-175.983	15.802	-0.137	0.106
-174.969	128.452	-0.051	0.064
-173.954	-200.000	-0.008	-0.293
-172.939	-39.611	0.203	-0.104
-171.925	800.000	-0.102	-0.300
-170.910	-23.243	-0.193	0.114
-169.896	-200.000	0.008	0.136
-168.881	190.236	0.114	0.168
-167.866	-200.000	-0.016	-0.244
-166.852	119.789	0.201	-0.244
-165.837	-19.688	-0.275	-0.167
-164.823	-39.891	0.232	-0.119
-163.808	107.912	0.048	0.056
-162.793	249.411	-0.064	0.106
-161.779	91.473	0.219	-0.242
-160.764	58.260	-0.186	-0.179
-159.750	-87.578	0.232	0.069
-158.735	-75.349	-0.224	-0.078
-157.720	-27.410	0.249	-0.142
-156.706	-94.736	-0.110	-0.029
-155.691	800.000	0.079	0.221
-154.677	277.357	0.048	0.083
-153.662	-200.000	-0.035	-0.413
-152.647	800.000	0.125	-0.488
-151.633	-15.889	-0.424	-0.265
-150.618	34.781	0.151	0.129
-149.604	-126.767	-0.389	-0.056
-148.589	-111.643	-0.152	0.030
-147.574	23.407	0.076	-0.061
-146.560	-200.000	0.062	0.278
-145.545	-104.714	0.265	-0.060
-144.531	800.000	0.014	-0.046
-143.516	255.133	-0.108	0.181
-142.502	-106.429	-0.085	-0.019
-141.487	12.928	0.124	0.094
-140.472	-39.386	0.097	-0.050
-139.458	364.658	0.077	-0.153
-138.443	8.340	-0.232	0.171
-137.429	169.111	-0.282	0.395
-136.414	-167.803	0.426	0.016
-135.399	212.229	0.131	0.203
-134.385	434.842	-0.164	0.350
-133.370	-22.261	-0.337	0.201
-132.356	22.097	0.131	0.105
-131.341	427.445	0.132	0.279
-130.326	-34.743	0.272	-0.146
-129.312	314.944	-0.055	-0.102
-128.297	104.009	-0.074	0.086
-127.283	-99.087	-0.079	0.020
-126.268	378.133	0.117	0.235
-125.253	-200.000	-0.077	-0.342
-124.239	-63.242	0.407	0.164
-123.224	-130.183	0.196	-0.026
-122.210	-105.775	0.045	0.010
-121.195	-107.477	0.213	-0.046
