DTS Sentinel unit serial number:	SN413079Multiplexer serial number:	ORYXHardware model number:	OX4-SRSoftware version number:	ORYX F/W v4.00 Oryx Data Collector v3.7.2.0data status	okinstallation	princeton_trtdifferential loss correction	single-endedforward channel	channel 2reverse channel	N/Adate	2019/09/13time	11:39:35forward acquisition time	60.00reverse acquisition time	0.00gamma	496.2192k internal	0.2318k external	0.2318temperature offset calibration	1.0204default loss term (dB/km)	0.3790temperature slope calibration	1.0000multiplexer offset coefficient	1.0000multiplexer slope coefficient	1.0000fibre end	0.00T internal ref (°C)	33.00T ext. ref 1 (°C)	4.47T ext. ref 2 (°C)	30.25length (m)	temperature (°C)	Stokes	anti-Stokes-747.200	33.297	0.283	0.249
-746.185	465.294	-0.098	0.221
-745.171	-5.609	0.124	0.086
-744.156	170.623	-0.133	0.193
-743.142	403.100	-0.120	0.255
-742.127	187.008	-0.310	0.467
-741.112	546.294	-0.124	0.300
-740.098	-200.000	0.039	0.380
-739.083	194.906	-0.159	0.244
-738.069	-128.945	-0.432	0.061
-737.054	-200.000	-0.013	-0.105
-736.039	0.012	-0.175	-0.126
-735.025	-103.104	-0.225	0.054
-734.010	-200.000	-0.006	0.176
-732.996	800.000	-0.090	-0.357
-731.981	-42.967	-0.160	-0.082
-730.966	-98.641	-0.325	0.084
-729.952	-124.660	-0.283	0.044
-728.937	52.583	0.189	-0.183
-727.923	-50.041	-0.199	-0.095
-726.908	-200.000	-0.001	-0.252
-725.894	43.627	-0.198	-0.183
-724.879	247.849	0.054	-0.092
-723.864	-102.603	-0.266	0.064
-722.850	-59.877	-0.391	0.169
-721.835	-82.412	-0.244	0.080
-720.821	-200.000	0.006	-0.110
-719.806	-1.851	-0.101	-0.072
-718.791	148.943	-0.095	0.130
-717.777	-20.592	0.173	0.108
-716.762	22.514	-0.141	-0.116
-715.748	323.310	-0.222	-0.428
-714.733	-200.000	0.006	0.029
-713.718	-134.227	0.362	0.045
-712.704	26.577	-0.236	0.200
-711.689	-54.259	0.303	-0.139
-710.675	-126.840	-0.169	0.025
-709.660	153.588	-0.177	-0.245
-708.645	-200.000	0.036	0.190
-707.631	90.685	0.232	-0.263
-706.616	-50.659	-0.300	0.143
-705.602	-197.530	-0.179	0.001
-704.587	-75.936	-0.285	-0.102
-703.572	-39.357	-0.239	0.127
-702.558	-141.908	-0.145	-0.015
-701.543	-200.000	-0.050	0.286
-700.529	192.958	-0.036	-0.055
-699.514	60.430	-0.447	-0.447
-698.499	-200.000	-0.013	-0.306
-697.485	290.788	0.141	-0.259
-696.470	-88.944	-0.322	0.096
-695.456	-200.000	0.002	-0.018
-694.441	284.357	0.049	0.090
-693.426	44.425	-0.209	0.193
-692.412	-114.187	-0.161	-0.031
-691.397	-153.100	-0.060	-0.004
-690.383	185.654	-0.167	-0.250
-689.368	2.565	0.075	-0.055
-688.354	-200.000	0.008	-0.064
-687.339	-9.851	-0.158	0.106
-686.324	358.249	0.073	-0.146
-685.310	173.575	0.141	0.206
-684.295	-72.977	0.257	-0.095
-683.281	208.386	-0.058	-0.091
-682.266	-46.833	-0.390	-0.192
-681.251	-200.000	-0.064	-0.386
-680.237	274.211	0.076	0.135
-679.222	324.779	0.052	-0.101
-678.208	-89.105	0.399	0.119
-677.193	345.028	-0.115	-0.228
-676.178	41.979	-0.100	-0.092
-675.164	505.152	0.049	-0.115
-674.149	-98.172	0.073	-0.019
-673.135	-79.224	0.216	0.074
-672.120	208.673	-0.174	0.274
-671.105	154.936	0.097	0.134
-670.091	29.154	-0.033	0.028
-669.076	-102.332	-0.117	0.028
-668.062	-161.305	0.131	-0.007
-667.047	-62.607	-0.138	0.058
-666.032	216.805	-0.071	-0.114
-665.018	43.093	0.053	-0.049
-664.003	553.232	-0.177	0.429
-662.989	-104.075	0.169	-0.040
-661.974	-29.842	-0.237	0.137
-660.959	48.339	0.147	0.139
-659.945	647.503	-0.055	0.142
-658.930	7.807	-0.314	-0.237
-657.916	232.750	-0.059	-0.098
-656.901	-5.010	0.168	0.116
-655.886	360.962	-0.063	-0.128
-654.872	-100.154	0.317	-0.079
-653.857	-50.730	-0.056	0.026
-652.843	-56.959	-0.277	0.123
-651.828	800.000	-0.086	-0.317
-650.814	-200.000	0.010	-0.100
-649.799	-173.991	-0.352	-0.010
-648.784	60.481	-0.151	0.151
-647.770	105.803	-0.153	-0.182
-646.755	-43.220	-0.369	-0.188
-645.741	-46.587	0.161	0.079
-644.726	304.198	0.021	-0.039
-643.711	508.795	0.017	0.041
-642.697	800.000	-0.010	-0.030
-641.682	800.000	-0.062	-0.194
-640.668	92.449	0.074	-0.084
-639.653	-200.000	-0.051	-0.234
-638.638	147.046	-0.194	0.263
-637.624	684.459	-0.138	-0.364
-636.609	587.202	0.011	-0.026
-635.595	-95.854	-0.308	-0.083
-634.580	-58.901	-0.217	0.094
-633.565	122.465	-0.194	-0.245
-632.551	-23.319	-0.241	0.146
-631.536	-200.000	-0.017	0.158
-630.522	-200.000	0.059	0.323
-629.507	192.547	-0.123	-0.188
-628.492	75.391	0.301	-0.320
-627.478	-129.413	-0.229	-0.032
-626.463	220.711	0.127	0.206
-625.449	800.000	0.056	0.211
-624.434	-200.000	0.049	-0.428
-623.419	-200.000	-0.000	-0.125
-622.405	800.000	-0.055	-0.215
-621.390	-200.000	-0.025	-0.426
-620.376	119.733	-0.383	0.478
-619.361	800.000	0.093	0.274
-618.346	-57.931	-0.080	0.035
-617.332	-186.394	0.362	-0.005
-616.317	367.023	-0.064	0.130
-615.303	-61.604	0.268	-0.113
-614.288	-79.262	-0.052	0.018
-613.273	-142.850	-0.230	-0.022
-612.259	-20.932	-0.298	-0.184
-611.244	800.000	-0.071	-0.207
-610.230	162.258	-0.337	-0.475
-609.215	18.655	0.363	-0.292
-608.201	50.073	0.248	0.235
-607.186	287.900	-0.031	-0.056
-606.171	33.230	-0.222	-0.194
-605.157	20.313	-0.153	0.124
-604.142	76.461	0.095	-0.101
-603.128	195.276	0.122	-0.187
-602.113	-28.385	-0.006	0.004
-601.098	111.005	-0.162	-0.196
-600.084	464.224	0.089	-0.199
-599.069	194.853	0.223	-0.340
-598.055	31.054	0.156	-0.135
-597.040	800.000	0.066	-0.186
-596.025	33.030	0.175	-0.153
-595.011	-200.000	-0.046	0.255
-593.996	-110.579	0.372	0.078
-592.982	258.365	0.058	0.100
-591.967	207.210	0.088	0.138
-590.952	195.348	0.158	-0.242
-589.938	-59.254	-0.358	0.155
-588.923	-58.386	-0.319	-0.139
-587.909	-65.801	-0.310	-0.125
-586.894	-22.723	-0.254	-0.154
-585.879	-200.000	-0.016	-0.107
-584.865	-38.658	0.148	0.078
-583.850	703.132	0.177	0.470
-582.836	-200.000	-0.014	0.111
-581.821	11.660	0.204	-0.157
-580.806	17.359	-0.120	-0.096
-579.792	-83.685	-0.181	-0.058
-578.777	-120.724	-0.336	-0.057
-577.763	800.000	-0.034	0.124
-576.748	-179.562	-0.092	0.002
-575.733	800.000	0.077	-0.223
-574.719	-49.776	0.474	0.227
-573.704	-109.364	-0.252	0.054
-572.690	225.028	-0.159	-0.259
-571.675	20.148	0.142	0.116
-570.661	-64.089	-0.018	-0.007
-569.646	232.728	0.030	-0.050
-568.631	330.645	0.044	-0.086
-567.617	239.588	-0.064	0.107
-566.602	-200.000	0.008	0.108
-565.588	-200.000	-0.017	-0.131
-564.573	800.000	-0.127	-0.404
-563.558	116.732	-0.096	-0.118
-562.544	164.249	0.140	0.199
-561.529	101.399	-0.157	-0.184
-560.515	800.000	-0.057	-0.220
-559.500	-200.000	0.019	-0.254
-558.485	-118.449	-0.077	0.014
-557.471	-26.720	0.240	0.141
-556.456	-155.260	-0.262	0.017
-555.442	-200.000	0.010	-0.224
-554.427	-68.579	-0.165	0.064
-553.412	-200.000	0.050	-0.387
-552.398	-92.743	0.305	-0.086
-551.383	-24.698	-0.070	-0.042
-550.369	-200.000	-0.012	0.088
-549.354	-157.164	-0.169	-0.010
-548.339	-92.642	0.349	0.098
-547.325	-113.573	0.251	0.049
-546.310	800.000	-0.034	0.138
-545.296	129.789	-0.109	-0.140
-544.281	743.305	0.102	-0.275
-543.266	-115.819	-0.085	-0.016
-542.252	262.584	0.089	0.155
-541.237	-21.995	-0.260	-0.159
-540.223	-189.646	0.377	-0.004
-539.208	-200.000	-0.020	-0.258
-538.193	-200.000	-0.002	-0.206
-537.179	800.000	0.037	0.134
-536.164	800.000	-0.052	0.193
-535.150	645.406	-0.117	-0.300
-534.135	-111.847	0.475	-0.096
-533.121	-2.653	0.257	0.180
-532.106	-171.853	0.314	-0.010
-531.091	800.000	-0.079	-0.220
-530.077	-200.000	0.030	-0.325
-529.062	-200.000	0.025	0.165
-528.048	-113.636	-0.048	-0.009
-527.033	-168.323	0.090	-0.003
-526.018	136.872	0.008	-0.011
-525.004	316.348	-0.203	-0.385
-523.989	-200.000	-0.027	0.199
-522.975	-90.684	-0.239	0.069
-521.960	-57.544	0.161	-0.071
-520.945	380.018	-0.092	-0.189
-519.931	111.615	0.150	-0.182
-518.916	-200.000	-0.002	-0.056
-517.902	-106.524	-0.229	0.051
-516.887	85.333	0.289	0.318
-515.872	-96.844	-0.491	0.129
-514.858	439.759	-0.076	0.167
-513.843	-200.000	0.016	0.241
-512.829	-200.000	0.040	0.347
-511.814	-200.000	-0.010	0.290
-510.799	800.000	0.014	0.047
-509.785	-118.599	-0.049	-0.009
-508.770	800.000	0.089	-0.298
-507.756	368.523	0.098	0.199
-506.741	64.667	0.102	-0.103
-505.726	79.409	-0.270	-0.291
-504.712	-81.492	-0.251	0.083
-503.697	789.764	-0.076	0.210
-502.683	227.456	0.101	-0.164
-501.668	-65.781	-0.209	-0.084
-500.653	-67.382	0.450	0.177
-499.639	193.744	-0.127	-0.193
-498.624	525.540	0.080	0.189
-497.610	74.511	-0.144	0.152
-496.595	63.637	-0.218	0.220
-495.581	601.204	0.066	0.165
-494.566	227.435	-0.093	0.151
-493.551	-200.000	-0.055	0.268
-492.537	-28.436	0.424	0.245
-491.522	55.435	-0.024	-0.024
-490.508	-200.000	-0.007	-0.032
-489.493	800.000	-0.032	0.104
-488.478	-200.000	0.024	-0.187
-487.464	-200.000	-0.015	-0.247
-486.449	271.815	0.139	0.245
-485.435	-144.686	0.113	-0.010
-484.420	-200.000	0.032	-0.209
-483.405	-21.583	-0.237	0.145
-482.391	-200.000	-0.045	0.300
-481.376	-200.000	0.083	-0.412
-480.362	800.000	-0.074	0.305
-479.347	204.919	0.043	0.066
-478.332	258.154	-0.051	0.087
-477.318	-76.319	0.167	-0.059
-476.303	-78.538	0.130	-0.045
-475.289	800.000	0.056	-0.216
-474.274	-200.000	-0.027	-0.147
-473.259	-200.000	-0.048	0.317
-472.245	342.571	-0.166	-0.326
-471.230	-99.395	-0.115	-0.029
-470.216	800.000	0.100	0.382
-469.201	181.145	-0.127	0.186
-468.186	88.903	0.190	-0.211
-467.172	25.697	0.171	0.142
-466.157	-143.340	-0.094	-0.009
-465.143	-200.000	-0.004	-0.224
-464.128	800.000	0.114	-0.352
-463.113	-80.776	-0.140	0.046
-462.099	23.256	0.099	0.081
-461.084	800.000	0.065	0.272
-460.070	-87.401	0.326	-0.099
-459.055	177.623	-0.108	-0.157
-458.040	-175.673	0.267	0.007
-457.026	435.310	0.123	-0.267
-456.011	-100.616	0.352	0.087
-454.997	-4.284	-0.093	0.064
-453.982	-92.585	-0.417	0.117
-452.968	-102.480	0.328	-0.078
-451.953	110.035	0.129	0.155
-450.938	-63.644	0.238	-0.098
-449.924	-85.463	0.201	-0.063
-448.909	0.447	0.389	-0.278
-447.895	25.516	-0.220	0.183
-446.880	505.837	0.058	-0.135
-445.865	-200.000	0.005	-0.357
-444.851	76.383	0.248	0.263
-443.836	-42.286	0.317	-0.162
-442.822	193.705	-0.179	0.271
-441.807	-200.000	-0.059	0.403
-440.792	-200.000	-0.014	0.226
-439.778	-35.411	-0.377	0.205
-438.763	-117.836	-0.273	-0.049
-437.749	400.364	0.092	0.192
-436.734	-200.000	-0.011	0.226
-435.719	19.423	0.099	0.080
-434.705	-200.000	-0.010	0.075
-433.690	502.201	-0.092	-0.212
-432.676	-54.845	-0.171	-0.077
-431.661	302.671	0.017	-0.031
-430.646	800.000	-0.080	-0.291
-429.632	64.891	-0.230	-0.232
-428.617	392.772	-0.158	0.329
-427.603	-138.242	0.107	0.012
-426.588	203.526	0.139	0.215
-425.573	-80.927	-0.372	-0.123
-424.559	60.538	-0.141	0.139
-423.544	-115.137	0.172	0.033
-422.530	214.338	0.077	-0.122
-421.515	588.386	-0.107	-0.263
-420.500	583.191	0.052	-0.127
-419.486	338.949	-0.155	0.302
-418.471	-86.433	0.230	0.071
-417.457	371.057	0.011	-0.022
-416.442	160.155	0.130	-0.181
-415.428	-65.574	-0.092	-0.037
-414.413	27.142	-0.087	-0.073
-413.398	-200.000	-0.022	-0.144
-412.384	84.739	-0.153	-0.168
-411.369	-111.810	-0.219	-0.044
-410.355	-47.819	0.246	0.119
-409.340	800.000	0.071	-0.213
-408.325	260.058	-0.079	-0.136
-407.311	800.000	0.091	0.269
-406.296	800.000	-0.054	-0.231
-405.282	42.129	0.086	0.078
-404.267	64.284	0.187	0.188
-403.252	-200.000	0.012	0.227
-402.238	800.000	-0.067	-0.196
-401.223	121.152	-0.179	0.223
-400.209	563.341	-0.046	0.111
-399.194	444.275	0.063	-0.138
-398.179	-72.598	-0.112	0.041
-397.165	425.241	0.053	0.113
-396.150	265.104	-0.087	-0.151
-395.136	-95.792	-0.214	-0.057
-394.121	-104.690	0.215	0.049
-393.106	90.022	0.279	-0.311
-392.092	536.375	-0.084	-0.199
-391.077	800.000	-0.090	-0.258
-390.063	25.403	0.263	-0.218
-389.048	511.215	-0.134	0.312
-388.033	800.000	-0.066	0.229
-387.019	366.683	-0.221	0.445
-386.004	800.000	-0.029	0.122
-384.990	-94.102	-0.377	0.103
-383.975	56.020	-0.440	-0.426
-382.960	-64.787	0.102	-0.041
-381.946	117.964	-0.118	0.145
-380.931	147.390	0.225	0.302
-379.917	-137.373	-0.107	-0.012
-378.902	-200.000	-0.016	-0.174
-377.888	800.000	0.022	0.090
-376.873	299.253	0.032	-0.059
-375.858	-200.000	-0.001	0.043
-374.844	300.236	0.031	-0.056
-373.829	163.179	0.171	0.240
-372.815	-38.327	-0.110	-0.058
-371.800	800.000	-0.064	0.209
-370.785	139.981	-0.169	-0.223
-369.771	800.000	-0.097	-0.277
-368.756	-40.358	-0.225	0.116
-367.742	800.000	-0.052	-0.186
-366.727	248.438	-0.146	0.246
-365.712	-200.000	-0.037	0.167
-364.698	-200.000	0.078	0.347
-363.683	-72.177	-0.056	0.021
-362.669	-68.504	-0.227	-0.088
-361.654	800.000	-0.072	0.249
-360.639	37.849	-0.273	0.242
-359.625	-55.253	-0.312	-0.140
-358.610	-103.535	0.407	0.095
-357.596	679.556	0.103	0.266
-356.581	775.793	-0.082	-0.222
-355.566	367.158	0.027	0.055
-354.552	-121.493	0.232	0.038
-353.537	20.925	0.131	-0.106
-352.523	-25.851	0.265	-0.156
-351.508	24.639	0.216	0.179
-350.493	6.490	-0.045	0.033
-349.479	-200.000	-0.007	0.232
-348.464	-53.126	0.400	-0.183
-347.450	800.000	0.096	0.271
-346.435	-27.531	-0.083	0.048
-345.420	84.039	0.052	0.057
-344.406	-140.485	0.101	-0.010
-343.391	-138.490	0.200	0.022
-342.377	-54.751	-0.399	-0.179
-341.362	-200.000	-0.006	-0.252
-340.348	-6.192	0.138	0.094
-339.333	-40.776	0.040	0.021
-338.318	-128.559	0.298	0.042
-337.304	-60.348	0.187	0.079
-336.289	-188.576	0.271	0.003
-335.275	-42.449	0.255	-0.129
-334.260	59.203	0.169	0.165
-333.245	-103.931	-0.353	-0.082
-332.231	155.735	-0.075	-0.102
-331.216	-200.000	0.001	-0.171
-330.202	-80.012	-0.241	-0.081
-329.187	800.000	0.099	0.276
-328.172	-42.949	0.213	0.108
-327.158	-45.201	0.056	-0.028
-326.143	160.708	0.025	0.035
-325.129	-125.179	0.068	0.010
-324.114	532.839	0.144	-0.340
-323.099	45.284	0.016	0.015
-322.085	425.335	0.058	0.124
-321.070	-91.317	0.281	0.080
-320.056	789.437	0.067	0.184
-319.041	-96.653	0.247	0.065
-318.026	-112.817	0.262	-0.052
-317.012	160.607	-0.050	-0.069
-315.997	3.092	0.393	0.284
-314.983	-200.000	-0.033	0.257
-313.968	109.436	0.218	0.260
-312.953	-13.581	0.256	0.165
-311.939	289.770	-0.141	-0.254
-310.924	92.715	0.122	0.137
-309.910	10.368	-0.120	-0.091
-308.895	-73.329	0.080	0.029
-307.880	136.972	0.152	-0.198
-306.866	-200.000	-0.044	0.410
-305.851	-200.000	-0.000	0.124
-304.837	-29.488	0.421	0.239
-303.822	-9.290	-0.225	-0.150
-302.807	518.296	-0.039	0.091
-301.793	671.418	0.007	-0.018
-300.778	173.354	0.090	-0.129
-299.764	133.184	0.147	0.189
-298.749	67.057	-0.188	-0.191
-297.735	-93.464	0.097	-0.027
-296.720	-200.000	0.006	0.068
-295.705	800.000	-0.036	-0.103
-294.691	-200.000	0.002	-0.057
-293.676	-200.000	0.033	0.156
-292.662	216.876	-0.041	0.065
-291.647	-128.760	-0.173	-0.024
-290.632	-67.450	-0.381	-0.149
-289.618	173.846	0.171	0.246
-288.603	-162.816	0.454	-0.022
-287.589	-114.440	-0.321	0.061
-286.574	-110.921	-0.169	-0.034
-285.559	212.465	-0.040	0.062
-284.545	800.000	0.117	0.344
-283.530	-105.930	0.059	0.013
-282.516	-200.000	-0.003	-0.142
-281.501	-200.000	-0.016	0.271
-280.486	88.160	0.100	0.110
-279.472	239.930	0.085	-0.140
-278.457	-63.180	0.159	-0.065
-277.443	-79.830	-0.070	0.023
-276.428	67.310	-0.048	0.048
-275.413	800.000	-0.054	0.200
-274.399	445.434	0.089	0.194
-273.384	94.311	0.099	0.112
-272.370	-103.671	0.144	-0.034
-271.355	-30.422	-0.187	0.105
-270.340	-53.391	-0.207	0.094
-269.326	-187.982	0.653	-0.008
-268.311	12.919	-0.151	-0.116
-267.297	18.832	-0.121	0.096
-266.282	800.000	0.029	0.102
-265.267	562.927	0.119	0.285
-264.253	255.261	-0.146	-0.248
-263.238	-200.000	0.002	0.121
-262.224	11.636	-0.161	0.123
-261.209	23.990	-0.338	0.277
-260.195	261.534	-0.048	-0.082
-259.180	218.603	0.191	0.303
-258.165	-58.057	0.112	-0.049
-257.151	-138.974	0.356	-0.038
-256.136	32.550	0.213	0.182
-255.122	-200.000	-0.002	0.293
-254.107	79.167	-0.185	0.197
-253.092	52.889	-0.167	0.158
-252.078	-200.000	-0.007	0.140
-251.063	-16.737	-0.265	-0.167
-250.049	124.978	0.119	0.149
-249.034	-53.762	-0.222	-0.100
-248.019	-133.788	-0.054	0.007
-247.005	511.893	-0.136	-0.314
-245.990	221.295	-0.160	0.255
-244.976	-179.540	0.113	0.002
-243.961	-52.193	-0.162	-0.074
-242.946	117.857	-0.106	0.129
-241.932	800.000	0.057	-0.234
-240.917	800.000	-0.063	0.260
-239.903	142.570	-0.192	0.253
-238.888	-200.000	-0.039	-0.484
-237.873	800.000	0.084	-0.234
-236.859	458.757	0.128	-0.282
-235.844	-6.314	0.190	0.129
-234.830	-133.564	-0.317	0.039
-233.815	-53.622	0.244	-0.110
-232.800	-115.150	-0.285	-0.054
-231.786	-57.125	0.131	-0.057
-230.771	503.024	-0.062	-0.143
-229.757	-120.456	-0.179	0.030
-228.742	569.102	0.142	-0.341
-227.727	409.581	-0.116	0.245
-226.713	-143.968	-0.249	-0.023
-225.698	-73.223	-0.290	-0.105
-224.684	354.983	0.127	-0.251
-223.669	-63.305	0.087	-0.035
-222.655	-200.000	-0.038	-0.175
-221.640	189.127	-0.048	0.071
-220.625	800.000	0.107	-0.368
-219.611	-160.330	0.195	-0.010
-218.596	272.167	-0.099	0.173
-217.582	-200.000	0.047	-0.208
-216.567	-12.948	0.192	0.124
-215.552	175.064	0.146	0.210
-214.538	800.000	-0.006	0.019
-213.523	0.981	0.152	0.108
-212.509	-200.000	0.019	-0.110
-211.494	-120.644	-0.083	0.014
-210.479	147.058	0.139	0.186
-209.465	428.576	0.158	-0.338
-208.450	-10.424	-0.066	-0.043
-207.436	800.000	-0.112	0.314
-206.421	800.000	0.041	0.115
-205.406	-170.902	-0.336	0.011
-204.392	-93.201	-0.278	-0.077
-203.377	-17.204	0.287	0.179
-202.363	-116.773	0.366	0.067
-201.348	800.000	-0.037	-0.147
-200.333	38.776	-0.097	-0.086
-199.319	40.158	-0.263	0.234
-198.304	-61.632	-0.069	0.029
-197.290	417.944	0.192	0.407
-196.275	-94.962	-0.067	-0.018
-195.260	-200.000	0.011	-0.165
-194.246	800.000	0.005	-0.020
-193.231	-121.154	-0.330	0.055
-192.217	800.000	0.069	0.220
-191.202	334.608	-0.046	-0.087
-190.187	221.999	-0.132	-0.210
-189.173	-33.506	0.241	-0.132
-188.158	615.615	0.046	-0.114
-187.144	-200.000	0.005	0.115
-186.129	-114.752	-0.190	0.036
-185.114	-76.401	-0.240	0.084
-184.100	8.841	0.254	-0.189
-183.085	48.979	0.156	0.145
-182.071	-89.279	0.188	-0.055
-181.056	-99.856	-0.302	-0.075
-180.042	-82.206	-0.440	-0.142
-179.027	84.224	0.019	-0.021
-178.012	-121.104	0.320	-0.053
-176.998	-200.000	0.027	-0.141
-175.983	209.109	-0.017	0.026
-174.969	-140.501	0.070	0.007
-173.954	-56.966	-0.028	0.012
-172.939	46.861	-0.239	-0.219
-171.925	-41.813	-0.154	0.078
-170.910	47.962	-0.068	0.063
-169.896	-61.120	0.405	-0.169
-168.881	-200.000	0.019	-0.197
-167.866	-200.000	-0.014	-0.304
-166.852	-100.203	-0.043	0.011
-165.837	34.213	0.148	-0.128
-164.823	-200.000	-0.014	-0.065
-163.808	574.494	0.120	-0.291
-162.793	800.000	-0.012	-0.040
-161.779	-200.000	-0.016	0.272
-160.764	-200.000	-0.008	-0.138
-159.750	-9.696	0.193	0.127
-158.735	73.873	0.187	0.194
-157.720	120.679	-0.154	0.190
-156.706	43.219	-0.101	-0.091
-155.691	-128.295	0.256	0.036
-154.677	800.000	-0.049	0.180
-153.662	-6.813	-0.362	0.243
-152.647	-46.677	-0.279	-0.135
-151.633	-187.652	0.039	-0.001
-150.618	-88.705	-0.251	-0.074
-149.604	289.040	0.141	0.252
-148.589	-190.174	-0.388	0.004
-147.574	-46.394	0.118	-0.057
-146.560	321.940	-0.094	-0.177
-145.545	-200.000	-0.055	0.321
-144.531	201.923	-0.114	-0.173
-143.516	-67.795	0.395	-0.153
-142.502	-126.620	0.103	-0.015
-141.487	55.062	0.040	0.038
-140.472	800.000	0.038	0.145
-139.458	23.210	-0.063	0.051
-138.443	273.869	0.091	-0.159
-137.429	-153.655	0.448	-0.030
-136.414	66.630	0.141	0.142
-135.399	-48.788	-0.392	-0.186
-134.385	800.000	0.015	0.056
-133.370	-52.416	0.062	-0.028
-132.356	168.757	0.134	0.188
-131.341	385.086	-0.120	-0.244
-130.326	-200.000	-0.033	0.160
-129.312	-200.000	-0.007	-0.098
-128.297	-3.822	0.286	0.196
-127.283	9.126	-0.085	0.064
-126.268	631.241	0.098	0.244
-125.253	-14.586	-0.220	-0.139
-124.239	60.769	0.330	0.323
-123.224	-200.000	0.020	0.179
-122.210	44.385	0.193	0.175
