DTS Sentinel unit serial number:	SN413079Multiplexer serial number:	ORYXHardware model number:	OX4-SRSoftware version number:	ORYX F/W v4.00 Oryx Data Collector v3.7.2.0data status	okinstallation	princeton_trtdifferential loss correction	single-endedforward channel	channel 2reverse channel	N/Adate	2019/09/11time	08:33:11forward acquisition time	60.00reverse acquisition time	0.00gamma	496.2192k internal	0.2320k external	0.2320temperature offset calibration	0.9969default loss term (dB/km)	0.3790temperature slope calibration	1.0000multiplexer offset coefficient	1.0000multiplexer slope coefficient	1.0000fibre end	0.00T internal ref (°C)	33.20T ext. ref 1 (°C)	0.11T ext. ref 2 (°C)	30.73length (m)	temperature (°C)	Stokes	anti-Stokes-747.200	-200.000	0.054	0.332
-746.185	194.923	0.102	0.156
-745.171	-119.535	0.200	-0.035
-744.156	242.610	0.235	0.397
-743.142	-170.311	-0.072	0.003
-742.127	-27.679	-0.372	0.218
-741.112	-146.738	-0.113	0.010
-740.098	-200.000	0.032	0.188
-739.083	800.000	0.058	0.251
-738.069	70.738	0.264	0.276
-737.054	-25.263	0.247	0.148
-736.039	-55.133	0.061	0.028
-735.025	-200.000	-0.062	0.323
-734.010	-154.316	-0.218	-0.015
-732.996	-1.017	-0.173	-0.124
-731.981	-91.715	-0.035	-0.010
-730.966	177.830	-0.121	-0.179
-729.952	-200.000	0.029	-0.352
-728.937	-200.000	0.046	0.322
-727.923	109.078	-0.161	-0.194
-726.908	36.866	0.275	-0.246
-725.894	-200.000	-0.066	-0.000
-724.879	-72.936	-0.123	0.046
-723.864	378.306	-0.182	-0.376
-722.850	537.067	-0.099	0.238
-721.835	99.822	-0.276	0.324
-720.821	149.467	-0.119	0.163
-719.806	298.080	-0.023	-0.043
-718.791	-58.824	0.188	-0.082
-717.777	76.951	-0.312	-0.335
-716.762	44.936	-0.171	-0.159
-715.748	800.000	-0.057	0.164
-714.733	-164.879	-0.376	-0.017
-713.718	125.275	-0.225	-0.287
-712.704	-148.878	0.222	0.018
-711.689	-160.255	-0.245	-0.013
-710.675	800.000	-0.065	-0.216
-709.660	800.000	-0.196	-0.790
-708.645	-200.000	-0.012	-0.140
-707.631	-200.000	-0.073	-0.343
-706.616	-200.000	-0.021	-0.256
-705.602	-62.910	0.082	0.034
-704.587	-200.000	-0.066	0.308
-703.572	-200.000	-0.058	-0.378
-702.558	-189.740	0.164	-0.002
-701.543	-87.589	-0.089	-0.027
-700.529	432.810	0.135	0.296
-699.514	-157.224	-0.276	-0.017
-698.499	147.599	0.095	-0.129
-697.485	-116.638	0.361	-0.067
-696.470	-1.225	-0.024	0.017
-695.456	30.020	-0.214	0.184
-694.441	-87.077	0.114	0.035
-693.426	800.000	0.080	0.337
-692.412	-200.000	-0.083	0.400
-691.397	206.839	-0.032	0.050
-690.383	-45.852	0.202	-0.101
-689.368	-115.920	-0.261	-0.049
-688.354	160.688	0.069	0.098
-687.339	70.935	0.031	-0.033
-686.324	-5.404	-0.500	-0.346
-685.310	-200.000	-0.004	0.234
-684.295	800.000	-0.082	-0.289
-683.281	-85.870	-0.081	-0.025
-682.266	294.358	-0.099	-0.183
-681.251	-14.305	-0.083	0.054
-680.237	-0.913	-0.197	0.141
-679.222	88.803	-0.145	-0.163
-678.208	-92.679	-0.148	0.042
-677.193	213.897	0.102	0.163
-676.178	800.000	0.046	0.198
-675.164	200.297	-0.076	-0.118
-674.149	-200.000	-0.026	-0.361
-673.135	139.396	0.218	-0.289
-672.120	-200.000	0.000	-0.142
-671.105	800.000	0.032	-0.135
-670.091	-200.000	0.060	0.482
-669.076	161.059	0.118	-0.166
-668.062	800.000	0.004	0.019
-667.047	-115.336	-0.149	0.028
-666.032	-31.897	-0.169	0.095
-665.018	180.571	-0.042	-0.062
-664.003	294.209	-0.048	0.088
-662.989	195.573	0.172	0.264
-661.974	-200.000	-0.029	-0.146
-660.959	800.000	0.017	0.054
-659.945	-200.000	-0.014	-0.065
-658.930	33.548	-0.259	-0.227
-657.916	800.000	-0.031	0.087
-656.901	-172.522	0.024	0.001
-655.886	678.773	-0.067	-0.176
-654.872	237.781	0.081	0.136
-653.857	-103.632	0.124	-0.029
-652.843	762.572	0.053	-0.146
-651.828	384.663	0.033	-0.068
-650.814	-200.000	-0.004	0.084
-649.799	-200.000	0.091	0.415
-648.784	-58.331	0.177	0.078
-647.770	-41.368	0.158	-0.082
-646.755	-200.000	0.018	-0.083
-645.741	-12.475	-0.124	-0.081
-644.726	529.067	-0.035	-0.084
-643.711	-131.319	0.129	-0.017
-642.697	588.185	0.085	-0.211
-641.682	-51.540	0.329	-0.155
-640.668	-107.532	-0.045	0.010
-639.653	199.626	-0.195	0.301
-638.638	-88.314	-0.138	0.041
-637.624	-134.806	-0.114	-0.014
-636.609	-103.885	-0.406	-0.095
-635.595	695.283	-0.058	-0.153
-634.580	800.000	0.143	0.489
-633.565	364.863	0.035	0.070
-632.551	-18.909	-0.106	0.067
-631.536	-93.705	-0.096	0.027
-630.522	-74.519	-0.259	-0.094
-629.507	-200.000	0.021	-0.273
-628.492	-13.090	-0.288	-0.188
-627.478	721.021	0.050	-0.135
-626.463	197.155	0.173	0.266
-625.449	-27.700	-0.168	-0.098
-624.434	64.401	-0.173	0.175
-623.419	-40.583	-0.235	-0.123
-622.405	-91.085	0.195	-0.056
-621.390	130.605	-0.212	0.274
-620.376	192.728	0.110	-0.168
-619.361	32.654	0.034	0.030
-618.346	317.542	0.107	-0.204
-617.332	-87.172	-0.253	-0.077
-616.317	-200.000	-0.018	0.299
-615.303	-126.827	-0.364	0.054
-614.288	-30.679	-0.259	-0.148
-613.273	-200.000	0.004	-0.119
-612.259	-132.141	-0.156	0.020
-611.244	-111.476	0.208	-0.043
-610.230	-85.586	0.443	-0.139
-609.215	1.934	0.272	-0.197
-608.201	-95.381	0.270	-0.073
-607.186	-68.668	0.102	0.040
-606.171	584.892	0.089	-0.221
-605.157	-179.326	0.292	-0.006
-604.142	98.729	0.282	0.327
-603.128	-200.000	-0.007	0.158
-602.113	167.064	0.172	0.245
-601.098	-126.941	-0.452	-0.067
-600.084	-90.951	-0.112	-0.033
-599.069	-193.470	0.132	-0.001
-598.055	460.892	0.085	-0.191
-597.040	800.000	0.124	0.401
-596.025	-47.608	0.116	-0.057
-595.011	135.652	-0.147	-0.192
-593.996	-137.614	-0.103	-0.012
-592.982	145.828	0.045	0.060
-591.967	269.146	0.149	-0.263
-590.952	-200.000	0.011	-0.172
-589.938	47.929	0.177	-0.166
-588.923	800.000	0.067	-0.239
-587.909	82.360	0.170	0.185
-586.894	4.393	0.147	0.108
-585.879	-200.000	-0.001	-0.124
-584.865	-98.040	-0.370	-0.096
-583.850	-200.000	0.001	0.214
-582.836	319.340	0.137	0.260
-581.821	20.295	-0.225	0.183
-580.806	-87.573	0.353	0.107
-579.792	-35.710	0.115	0.062
-578.777	-141.814	-0.137	-0.014
-577.763	-200.000	0.039	-0.201
-576.748	34.286	0.223	0.196
-575.733	-63.250	-0.153	0.063
-574.719	-13.059	-0.426	0.278
-573.704	344.244	0.119	0.234
-572.690	-144.534	0.094	-0.009
-571.675	-60.521	-0.099	-0.042
-570.661	-117.564	0.282	-0.051
-569.646	-200.000	-0.023	-0.339
-568.631	-200.000	0.007	-0.243
-567.617	-149.980	0.320	-0.025
-566.602	-54.448	0.024	-0.011
-565.588	21.271	-0.145	0.118
-564.573	176.686	-0.027	0.040
-563.558	-75.070	0.072	0.026
-562.544	-1.008	-0.114	-0.081
-561.529	206.983	-0.080	0.125
-560.515	11.732	-0.294	0.227
-559.500	-54.307	0.044	0.020
-558.485	-5.155	-0.295	0.203
-557.471	-133.252	0.144	0.018
-556.456	800.000	-0.039	0.141
-555.442	0.521	-0.286	-0.205
-554.427	71.969	0.175	0.183
-553.412	-200.000	-0.006	-0.026
-552.398	-37.582	0.086	0.046
-551.383	-82.806	0.064	-0.021
-550.369	-110.527	-0.120	0.025
-549.354	-82.294	-0.151	0.049
-548.339	-200.000	0.025	-0.230
-547.325	-164.379	-0.246	0.011
-546.310	113.451	0.189	0.231
-545.296	421.508	-0.119	0.257
-544.281	367.707	-0.102	-0.207
-543.266	-43.474	-0.416	-0.211
-542.252	11.554	-0.208	-0.160
-541.237	-200.000	0.009	0.244
-540.223	-200.000	-0.030	0.250
-539.208	-110.511	0.090	-0.019
-538.193	-132.757	-0.190	0.024
-537.179	574.735	-0.066	0.163
-536.164	117.711	0.136	-0.168
-535.150	271.363	-0.063	-0.111
-534.135	37.825	0.133	-0.118
-533.121	-145.829	0.020	-0.002
-532.106	-22.656	-0.165	-0.100
-531.091	800.000	0.069	0.252
-530.077	-46.494	-0.205	-0.101
-529.062	-44.628	-0.327	0.164
-528.048	77.806	-0.139	0.149
-527.033	-98.578	0.440	0.113
-526.018	800.000	0.063	-0.240
-525.004	-34.460	0.478	-0.263
-523.989	-177.768	0.125	0.003
-522.975	31.991	-0.242	-0.209
-521.960	-31.150	0.117	0.066
-520.945	-200.000	-0.058	-0.315
-519.931	-200.000	-0.038	-0.199
-518.916	-71.394	-0.159	-0.060
-517.902	-125.893	0.023	-0.004
-516.887	161.624	0.098	0.137
-515.872	-155.182	0.175	0.011
-514.858	14.310	0.086	0.068
-513.843	70.159	-0.150	0.155
-512.829	-200.000	0.043	-0.191
-511.814	229.568	0.049	-0.080
-510.799	-91.446	-0.247	-0.071
-509.785	-131.781	-0.104	0.014
-508.770	-200.000	0.022	0.184
-507.756	111.481	0.153	0.184
-506.741	-200.000	-0.050	-0.297
-505.726	-115.893	0.605	0.113
-504.712	800.000	0.079	-0.307
-503.697	421.933	0.098	-0.210
-502.683	-36.552	-0.055	-0.030
-501.668	-98.437	-0.253	-0.065
-500.653	-145.607	0.090	0.008
-499.639	36.514	-0.199	0.176
-498.624	-111.602	-0.337	-0.069
-497.610	-200.000	0.081	-0.401
-496.595	-153.729	0.240	0.016
-495.581	142.724	0.174	-0.231
-494.566	-162.063	0.200	-0.010
-493.551	-23.160	-0.220	-0.133
-492.537	81.840	-0.074	-0.080
-491.522	-154.508	-0.090	-0.006
-490.508	-54.046	-0.239	-0.109
-489.493	315.333	-0.105	0.197
-488.478	-200.000	0.012	-0.078
-487.464	338.334	-0.201	-0.392
-486.449	-19.516	-0.091	0.056
-485.435	-200.000	0.000	-0.117
-484.420	623.291	0.089	-0.224
-483.405	29.850	-0.215	0.183
-482.391	-67.905	-0.157	0.061
-481.376	-102.909	0.091	0.022
-480.362	-43.140	0.145	0.073
-479.347	800.000	-0.066	-0.208
-478.332	-200.000	-0.005	-0.416
-477.318	-200.000	-0.039	-0.276
-476.303	-35.793	0.336	-0.182
-475.289	84.765	-0.271	-0.297
-474.274	-200.000	-0.005	-0.073
-473.259	-19.007	-0.139	-0.087
-472.245	25.712	0.400	-0.333
-471.230	800.000	0.150	-0.425
-470.216	-28.077	0.205	0.119
-469.201	469.706	-0.150	-0.337
-468.186	336.677	-0.072	-0.139
-467.172	-200.000	0.011	-0.235
-466.157	-64.829	0.296	-0.120
-465.143	800.000	0.085	-0.353
-464.128	-33.129	0.122	-0.068
-463.113	800.000	-0.037	-0.159
-462.099	-200.000	-0.035	-0.482
-461.084	445.867	0.031	0.068
-460.070	-71.344	0.230	0.086
-459.055	230.075	-0.169	-0.277
-458.040	-139.743	-0.229	0.024
-457.026	-200.000	0.011	-0.469
-456.011	58.408	-0.030	-0.029
-454.997	-200.000	0.029	0.429
-453.982	1.960	0.151	-0.109
-452.968	252.395	-0.060	-0.103
-451.953	-156.922	0.201	-0.012
-450.938	800.000	0.075	0.250
-449.924	461.984	-0.120	0.267
-448.909	-90.699	-0.325	0.094
-447.895	-200.000	-0.008	-0.197
-446.880	-142.946	0.364	-0.035
-445.865	183.627	-0.189	0.279
-444.851	800.000	-0.073	0.298
-443.836	-82.245	0.245	-0.080
-442.822	-61.788	-0.222	0.093
-441.807	-177.877	-0.328	-0.008
-440.792	-200.000	-0.011	0.203
-439.778	-200.000	0.010	-0.175
-438.763	-200.000	-0.004	-0.233
-437.749	-93.295	0.125	0.035
-436.734	167.816	-0.188	-0.267
-435.719	315.887	-0.115	-0.217
-434.705	800.000	-0.011	0.033
-433.690	24.162	0.110	-0.091
-432.676	28.657	-0.067	0.057
-431.661	-174.279	-0.107	-0.003
-430.646	311.470	0.044	0.083
-429.632	-107.793	-0.204	-0.044
-428.617	-10.825	0.189	-0.125
-427.603	-200.000	-0.028	0.147
-426.588	-200.000	-0.013	-0.119
-425.573	-68.677	-0.066	-0.026
-424.559	73.088	0.092	0.096
-423.544	261.526	-0.049	0.085
-422.530	-200.000	0.001	-0.167
-421.515	-109.913	-0.104	0.022
-420.500	63.710	0.185	-0.186
-419.486	121.812	-0.095	0.118
-418.471	107.965	-0.080	0.095
-417.457	-200.000	-0.009	-0.145
-416.442	-43.939	-0.156	-0.079
-415.428	481.159	-0.054	-0.122
-414.413	355.768	-0.080	0.159
-413.398	-105.028	-0.252	0.058
-412.384	-200.000	0.067	0.385
-411.369	80.418	-0.082	-0.088
-410.355	800.000	0.035	-0.111
-409.340	-8.122	0.284	0.191
-408.325	85.512	0.223	-0.244
-407.311	-59.956	-0.236	0.101
-406.296	124.150	0.108	0.135
-405.282	-200.000	-0.003	0.469
-404.267	-200.000	0.008	-0.222
-403.252	85.778	0.035	0.038
-402.238	-197.082	-0.192	0.001
-401.223	800.000	0.074	0.239
-400.209	397.906	0.040	0.083
-399.194	44.192	-0.175	0.160
-398.179	-200.000	0.026	-0.163
-397.165	-166.262	0.165	-0.007
-396.150	-200.000	0.062	0.412
-395.136	17.224	0.121	0.096
-394.121	23.738	-0.037	0.031
-393.106	-200.000	-0.014	-0.150
-392.092	25.644	-0.042	-0.035
-391.077	-14.664	-0.183	0.117
-390.063	-96.642	-0.200	-0.053
-389.048	-200.000	-0.004	0.028
-388.033	-36.091	-0.083	0.045
-387.019	123.471	-0.173	0.216
-386.004	-94.531	0.143	0.039
-384.990	-39.354	-0.302	0.158
-383.975	211.681	-0.220	0.345
-382.960	-85.041	-0.288	0.090
-381.946	-4.513	-0.129	-0.089
-380.931	-34.039	-0.137	0.075
-379.917	-174.037	-0.113	0.003
-378.902	-112.359	0.257	-0.051
-377.888	800.000	-0.013	0.040
-376.873	-75.828	0.424	0.150
-375.858	465.823	0.073	0.162
-374.844	-200.000	-0.013	-0.098
-373.829	-6.828	0.233	-0.158
-372.815	79.395	-0.158	0.169
-371.800	-147.293	-0.228	0.019
-370.785	394.935	-0.161	0.335
-369.771	-200.000	0.041	-0.225
-368.756	115.569	-0.280	0.342
-367.742	40.260	-0.340	0.304
-366.727	-20.848	0.394	0.240
-365.712	30.342	0.296	-0.252
-364.698	-200.000	0.056	-0.360
-363.683	-97.894	-0.449	0.115
-362.669	800.000	0.047	0.147
-361.654	-51.781	0.151	0.070
-360.639	800.000	-0.071	0.223
-359.625	-200.000	0.036	-0.367
-358.610	-50.673	0.109	0.051
-357.596	-166.944	0.045	0.002
-356.581	-200.000	0.033	-0.266
-355.566	800.000	0.070	-0.203
-354.552	-43.608	-0.168	0.085
-353.537	398.453	-0.079	0.165
-352.523	44.297	-0.200	0.183
-351.508	-200.000	-0.032	0.197
-350.493	-64.805	-0.262	-0.106
-349.479	185.638	-0.187	0.276
-348.464	205.674	0.066	0.101
-347.450	28.765	0.324	-0.274
-346.435	330.033	0.051	0.097
-345.420	-77.022	0.214	-0.074
-344.406	-85.871	-0.098	0.030
-343.391	-200.000	-0.017	-0.154
-342.377	-2.095	-0.144	0.101
-341.362	-127.661	-0.450	-0.065
-340.348	42.881	-0.173	-0.157
-339.333	663.496	-0.066	0.169
-338.318	-99.670	0.331	-0.083
-337.304	24.496	0.224	0.185
-336.289	-31.172	0.232	-0.130
-335.275	-37.470	0.168	0.089
-334.260	-82.378	-0.250	0.081
-333.245	-57.350	-0.179	-0.078
-332.231	-97.160	0.171	0.044
-331.216	-75.533	-0.292	0.103
-330.202	123.879	0.065	-0.081
-329.187	-39.201	0.109	-0.057
-328.172	14.442	0.169	0.131
-327.158	38.680	0.088	-0.078
-326.143	276.668	0.061	-0.107
-325.129	228.877	0.091	-0.148
-324.114	135.392	0.088	0.114
-323.099	-5.962	-0.204	-0.139
-322.085	800.000	0.036	0.137
-321.070	-98.430	0.281	0.072
-320.056	48.277	0.054	0.050
-319.041	-123.224	0.269	0.043
-318.026	364.799	-0.171	-0.342
-317.012	449.751	-0.085	0.187
-315.997	-200.000	-0.006	-0.117
-314.983	62.524	0.063	0.063
-313.968	45.742	-0.192	0.177
-312.953	88.776	0.351	-0.388
-311.939	100.794	0.125	-0.145
-310.924	-70.656	0.449	-0.169
-309.910	-25.395	-0.334	-0.197
-308.895	24.913	0.125	0.103
-307.880	-78.255	0.033	-0.011
-306.866	-124.184	0.319	-0.050
-305.851	-56.444	0.582	0.257
-304.837	206.167	0.098	0.151
-303.822	800.000	0.078	0.330
-302.807	174.669	0.045	-0.065
-301.793	-114.987	0.205	-0.039
-300.778	-26.145	0.233	-0.136
-299.764	-147.646	-0.181	-0.015
-298.749	119.397	-0.064	0.079
-297.735	-200.000	0.010	0.111
-296.720	-200.000	-0.030	0.158
-295.705	-108.450	-0.063	0.014
-294.691	329.586	0.061	-0.116
-293.676	12.465	-0.063	-0.048
-292.662	-112.106	-0.121	0.024
-291.647	-22.008	0.120	0.073
-290.632	730.952	-0.070	-0.186
-289.618	1.785	-0.216	-0.155
-288.603	-200.000	0.021	-0.167
-287.589	-66.922	-0.189	-0.074
-286.574	-178.826	0.064	-0.001
-285.559	-38.736	-0.071	-0.037
-284.545	56.133	0.182	0.176
-283.530	261.463	-0.211	0.363
-282.516	-185.321	-0.172	-0.003
-281.501	-125.816	-0.064	-0.010
-280.486	-200.000	0.087	-0.399
-279.472	226.107	0.103	-0.166
-278.457	800.000	0.035	-0.143
-277.443	102.248	0.184	-0.214
-276.428	-8.663	-0.358	0.239
-275.413	-4.659	-0.239	-0.164
-274.399	69.719	0.164	-0.167
-273.384	-200.000	0.038	-0.180
-272.370	-200.000	-0.074	0.332
-271.355	800.000	0.117	0.425
-270.340	-57.924	0.351	-0.152
-269.326	143.921	-0.108	-0.143
-268.311	342.284	0.021	-0.041
-267.297	800.000	-0.113	-0.408
-266.282	-35.657	-0.236	0.127
-265.267	199.772	0.081	0.124
-264.253	-77.204	0.395	0.137
-263.238	354.115	0.093	-0.182
-262.224	-157.110	-0.061	-0.004
-261.209	340.238	0.085	0.165
-260.195	-10.837	-0.123	-0.080
-259.180	-200.000	0.006	-0.134
-258.165	-52.058	-0.066	-0.030
-257.151	131.489	0.249	-0.317
-256.136	-37.505	0.254	-0.135
-255.122	248.999	0.148	-0.248
-254.107	590.879	-0.027	0.065
-253.092	554.681	0.090	0.216
-252.078	800.000	0.028	-0.080
-251.063	-59.166	0.092	0.040
-250.049	-3.388	-0.198	-0.137
-249.034	234.301	0.090	-0.147
-248.019	14.642	0.073	-0.056
-247.005	-41.670	0.352	0.180
-245.990	546.081	0.058	0.139
-244.976	800.000	-0.047	0.181
-243.961	248.746	0.134	0.224
-242.946	800.000	-0.080	0.269
-241.932	800.000	-0.065	0.184
-240.917	1.993	0.194	0.139
-239.903	800.000	0.064	0.179
-238.888	800.000	-0.029	-0.112
-237.873	-200.000	0.006	0.433
-236.859	196.588	-0.183	0.276
-235.844	150.584	-0.174	0.235
-234.830	-200.000	-0.056	-0.288
-233.815	-167.749	-0.245	-0.010
-232.800	-37.820	-0.391	-0.206
-231.786	-104.563	-0.133	0.030
-230.771	-200.000	0.014	0.211
-229.757	-155.475	0.268	-0.017
-228.742	-200.000	-0.009	0.060
-227.727	-6.208	0.190	0.129
-226.713	-142.213	-0.103	-0.010
-225.698	-175.965	-0.218	-0.006
-224.684	258.975	0.091	0.156
-223.669	-37.392	-0.060	0.032
-222.655	48.335	-0.313	0.290
-221.640	-110.824	-0.117	-0.024
-220.625	-79.319	0.269	-0.090
-219.611	-91.195	-0.435	-0.124
-218.596	-200.000	0.005	0.120
-217.582	172.276	0.084	0.120
-216.567	800.000	-0.041	-0.162
-215.552	86.950	-0.084	0.092
-214.538	-29.345	-0.391	-0.222
-213.523	-200.000	0.086	0.493
-212.509	190.890	0.106	0.158
-211.494	0.436	-0.252	-0.178
-210.479	32.563	0.185	-0.159
-209.465	46.551	-0.150	0.138
-208.450	310.290	-0.060	0.112
-207.436	294.757	0.071	0.129
-206.421	104.602	-0.180	-0.210
-205.406	118.341	0.103	0.126
-204.392	-115.196	0.344	-0.065
-203.377	152.819	-0.135	0.182
-202.363	61.097	0.002	0.002
-201.348	235.052	-0.123	-0.201
-200.333	-200.000	-0.063	-0.340
-199.319	-135.143	0.225	-0.027
-198.304	18.613	0.097	0.077
-197.290	800.000	0.031	0.126
-196.275	-200.000	0.009	0.083
-195.260	-95.051	0.335	0.090
-194.246	659.999	0.039	-0.099
-193.231	321.810	-0.044	-0.083
-192.217	-200.000	-0.017	0.157
-191.202	800.000	-0.068	0.192
-190.187	172.328	-0.122	-0.173
-189.173	710.836	-0.041	0.107
-188.158	-1.450	0.284	0.199
-187.144	-24.806	0.158	0.093
-186.129	68.569	0.178	0.180
-185.114	800.000	0.019	-0.068
-184.100	-7.079	-0.094	-0.063
-183.085	1.411	0.255	-0.181
-182.071	-42.164	-0.166	-0.084
-181.056	504.503	-0.026	0.059
-180.042	800.000	0.083	0.275
-179.027	651.712	0.142	-0.361
-178.012	369.840	0.153	0.306
-176.998	120.292	0.067	0.082
-175.983	290.973	0.186	-0.335
-174.969	-157.316	-0.029	-0.002
-173.954	-200.000	0.006	0.185
-172.939	80.518	0.321	0.342
-171.925	800.000	-0.035	0.110
-170.910	-200.000	-0.018	0.120
-169.896	-122.349	-0.102	0.016
-168.881	-200.000	0.075	0.343
-167.866	625.558	0.043	0.108
-166.852	-175.500	0.147	-0.004
-165.837	-73.821	-0.429	-0.154
-164.823	139.335	-0.086	0.112
-163.808	-65.854	-0.228	-0.090
-162.793	339.721	0.120	0.232
-161.779	-139.690	0.129	0.014
-160.764	-200.000	-0.027	-0.181
-159.750	-132.643	0.362	0.046
-158.735	-104.446	0.158	0.036
-157.720	13.171	-0.095	-0.073
-156.706	2.589	-0.088	-0.063
-155.691	17.648	-0.139	0.109
-154.677	-47.395	-0.384	0.185
-153.662	95.660	-0.075	-0.084
-152.647	-54.576	0.164	0.073
-151.633	141.376	0.060	-0.078
-150.618	5.182	0.089	0.065
-149.604	-89.207	0.285	-0.083
-148.589	22.250	-0.133	-0.107
-147.574	800.000	0.086	-0.243
-146.560	156.129	-0.265	-0.361
-145.545	-81.894	0.192	0.062
-144.531	800.000	-0.063	-0.252
-143.516	186.709	-0.301	-0.443
-142.502	-40.827	0.122	0.062
-141.487	120.679	-0.213	0.262
-140.472	-200.000	-0.077	0.407
-139.458	-42.148	0.109	-0.055
-138.443	-5.404	0.454	0.308
-137.429	18.204	0.194	0.153
-136.414	434.361	0.058	0.125
-135.399	395.880	-0.089	-0.183
-134.385	430.514	-0.160	0.342
-133.370	78.137	-0.062	0.065
-132.356	-21.513	-0.195	-0.117
-131.341	800.000	0.037	0.131
-130.326	-120.392	0.281	-0.047
-129.312	-86.792	-0.150	0.045
-128.297	-48.669	-0.345	0.164
-127.283	-30.502	0.311	0.174
-126.268	800.000	-0.075	0.276
-125.253	-2.642	0.131	-0.091
-124.239	248.355	0.236	0.395
-123.224	800.000	0.146	0.427
-122.210	-142.539	0.027	-0.003
-121.195	86.173	0.119	-0.129
