DTS Sentinel unit serial number:	SN413079Multiplexer serial number:	ORYXHardware model number:	OX4-SRSoftware version number:	ORYX F/W v4.00 Oryx Data Collector v3.7.2.0data status	okinstallation	princeton_trtdifferential loss correction	single-endedforward channel	channel 2reverse channel	N/Adate	2019/09/18time	05:39:34forward acquisition time	60.00reverse acquisition time	0.00gamma	496.2192k internal	0.2349k external	0.2349temperature offset calibration	0.9986default loss term (dB/km)	0.3790temperature slope calibration	1.0000multiplexer offset coefficient	1.0000multiplexer slope coefficient	1.0000fibre end	0.00T internal ref (°C)	23.36T ext. ref 1 (°C)	0.19T ext. ref 2 (°C)	16.95length (m)	temperature (°C)	Stokes	anti-Stokes-747.200	-58.245	0.114	0.049
-746.185	-40.744	-0.299	0.155
-745.171	-146.386	-0.132	-0.012
-744.156	15.454	-0.169	0.132
-743.142	800.000	0.054	0.199
-742.127	800.000	0.041	0.159
-741.112	28.431	0.128	0.108
-740.098	-90.494	-0.092	-0.027
-739.083	124.145	0.333	-0.418
-738.069	-200.000	0.040	0.337
-737.054	243.006	-0.114	-0.191
-736.039	-67.861	-0.425	-0.166
-735.025	-200.000	-0.015	-0.134
-734.010	461.590	0.041	0.092
-732.996	5.066	-0.266	-0.195
-731.981	105.818	0.174	0.205
-730.966	26.894	-0.095	0.080
-729.952	29.007	0.103	0.087
-728.937	-44.378	0.123	-0.061
-727.923	-24.547	-0.276	-0.164
-726.908	116.071	0.161	0.197
-725.894	-102.086	-0.208	0.050
-724.879	-34.204	0.316	-0.173
-723.864	85.857	-0.152	-0.167
-722.850	-20.092	-0.285	-0.175
-721.835	-200.000	-0.023	-0.238
-720.821	64.495	-0.087	-0.087
-719.806	30.854	-0.047	0.040
-718.791	72.960	0.011	-0.011
-717.777	293.925	-0.041	0.074
-716.762	800.000	0.174	-0.504
-715.748	-34.871	0.260	-0.142
-714.733	166.756	-0.172	-0.243
-713.718	488.109	-0.057	0.130
-712.704	-200.000	-0.045	-0.283
-711.689	-159.721	0.043	0.002
-710.675	151.040	-0.209	-0.283
-709.660	14.476	-0.103	-0.080
-708.645	-142.100	-0.242	-0.024
-707.631	77.079	-0.097	0.103
-706.616	-200.000	-0.021	-0.636
-705.602	-45.786	-0.303	0.149
-704.587	85.142	-0.040	0.043
-703.572	-2.664	0.147	0.102
-702.558	111.158	-0.153	-0.184
-701.543	190.628	-0.043	0.064
-700.529	-148.607	-0.061	0.005
-699.514	34.548	-0.042	0.037
-698.499	-28.652	0.135	-0.078
-697.485	800.000	0.019	-0.068
-696.470	122.348	-0.287	0.358
-695.456	800.000	0.075	-0.215
-694.441	-200.000	0.038	0.279
-693.426	-131.037	0.174	-0.023
-692.412	-180.046	-0.318	0.007
-691.397	-200.000	-0.005	0.120
-690.383	3.928	-0.283	0.206
-689.368	-91.365	0.255	-0.073
-688.354	-62.935	0.112	0.046
-687.339	137.507	0.109	-0.142
-686.324	216.991	0.289	-0.458
-685.310	230.427	0.177	-0.289
-684.295	705.281	-0.051	-0.135
-683.281	198.346	0.071	-0.108
-682.266	-200.000	-0.029	-0.162
-681.251	44.929	-0.227	-0.209
-680.237	-54.845	-0.290	-0.130
-679.222	-102.018	-0.160	-0.038
-678.208	-30.083	-0.295	-0.167
-677.193	-200.000	0.008	0.078
-676.178	570.802	0.086	0.209
-675.164	-106.395	0.045	0.010
-674.149	69.961	-0.129	0.133
-673.135	-101.457	-0.133	-0.032
-672.120	-99.933	0.324	0.081
-671.105	-59.170	-0.391	0.168
-670.091	43.668	0.222	-0.202
-669.076	800.000	0.055	-0.221
-668.062	59.655	0.078	0.076
-667.047	-200.000	-0.015	-0.262
-666.032	-200.000	-0.010	0.049
-665.018	241.143	-0.053	0.087
-664.003	-24.528	0.231	0.137
-662.989	352.507	-0.072	0.143
-661.974	-15.379	0.191	0.121
-660.959	-125.511	0.205	0.031
-659.945	162.204	0.071	0.099
-658.930	-41.864	-0.201	-0.103
-657.916	261.881	0.104	0.179
-656.901	800.000	0.059	0.215
-655.886	429.975	0.062	-0.134
-654.872	69.629	-0.153	-0.156
-653.857	46.759	0.059	0.055
-652.843	-173.305	-0.426	-0.013
-651.828	147.401	0.072	-0.096
-650.814	800.000	-0.070	0.258
-649.799	-151.312	-0.085	-0.006
-648.784	-11.675	-0.221	0.145
-647.770	179.174	0.172	-0.251
-646.755	-200.000	-0.018	-0.126
-645.741	800.000	0.104	0.339
-644.726	-33.854	-0.127	-0.069
-643.711	148.340	0.059	-0.079
-642.697	-80.276	-0.437	0.145
-641.682	449.694	-0.173	0.380
-640.668	244.756	-0.040	-0.066
-639.653	96.689	-0.124	-0.141
-638.638	-200.000	-0.034	-0.202
-637.624	-40.007	0.185	-0.096
-636.609	-20.464	0.297	-0.181
-635.595	-55.702	-0.109	-0.048
-634.580	-85.412	0.131	0.041
-633.565	-111.429	-0.101	-0.021
-632.551	90.729	-0.090	-0.100
-631.536	-95.471	0.209	0.056
-630.522	512.752	0.101	0.233
-629.507	-142.197	-0.138	-0.014
-628.492	720.849	0.036	0.095
-627.478	-200.000	0.001	0.176
-626.463	341.923	0.096	0.186
-625.449	383.910	-0.130	-0.265
-624.434	280.040	0.083	0.148
-623.419	36.225	-0.047	0.041
-622.405	214.428	-0.054	0.085
-621.390	161.232	0.161	-0.224
-620.376	800.000	0.036	-0.118
-619.361	800.000	0.074	0.256
-618.346	-71.559	-0.314	-0.117
-617.332	800.000	-0.053	0.148
-616.317	-152.027	-0.141	-0.010
-615.303	800.000	-0.062	-0.205
-614.288	182.608	-0.107	0.157
-613.273	-22.295	0.178	-0.107
-612.259	-56.993	-0.171	-0.075
-611.244	35.068	-0.075	-0.065
-610.230	210.768	-0.036	-0.057
-609.215	-72.434	-0.194	-0.071
-608.201	-98.239	-0.074	0.019
-607.186	-184.984	-0.215	-0.003
-606.171	-200.000	0.002	-0.139
-605.157	-83.075	-0.031	-0.010
-604.142	767.867	0.046	0.124
-603.128	122.163	-0.177	-0.219
-602.113	267.301	-0.043	-0.075
-601.098	196.021	0.225	0.341
-600.084	-46.088	-0.289	-0.141
-599.069	10.204	-0.124	0.093
-598.055	61.153	-0.053	-0.052
-597.040	-200.000	-0.022	0.139
-596.025	800.000	-0.047	-0.158
-595.011	-200.000	0.008	-0.336
-593.996	-200.000	0.020	-0.222
-592.982	-135.800	0.036	0.004
-591.967	-150.011	-0.228	0.018
-590.952	42.679	-0.175	-0.159
-589.938	436.122	0.103	-0.223
-588.923	-200.000	0.040	-0.176
-587.909	-200.000	-0.020	-0.226
-586.894	-51.355	-0.157	0.073
-585.879	97.048	-0.445	0.507
-584.865	-200.000	-0.053	0.285
-583.850	43.348	0.108	-0.098
-582.836	1.528	-0.041	-0.029
-581.821	-100.145	-0.172	-0.042
-580.806	-89.987	-0.076	-0.022
-579.792	-127.605	-0.075	0.011
-578.777	-77.213	0.193	-0.067
-577.763	-67.404	0.244	0.095
-576.748	-75.498	-0.149	-0.053
-575.733	-19.982	0.205	0.125
-574.719	-8.142	0.170	-0.114
-573.704	-200.000	0.001	0.102
-572.690	72.673	-0.157	-0.163
-571.675	800.000	0.020	0.067
-570.661	-45.863	-0.066	-0.032
-569.646	585.601	-0.105	0.256
-568.631	-200.000	-0.033	-0.178
-567.617	-127.046	0.306	0.044
-566.602	-137.755	-0.255	-0.028
-565.588	250.441	-0.095	-0.161
-564.573	-145.007	-0.227	-0.021
-563.558	800.000	-0.061	-0.261
-562.544	-35.907	-0.352	0.189
-561.529	-140.856	0.190	-0.019
-560.515	-127.471	-0.208	0.030
-559.500	332.324	-0.071	0.135
-558.485	58.697	-0.199	0.194
-557.471	-200.000	0.150	0.001
-556.456	698.200	0.053	-0.139
-555.442	-200.000	-0.023	0.102
-554.427	2.350	-0.204	0.146
-553.412	-200.000	-0.055	-0.240
-552.398	800.000	0.039	0.107
-551.383	26.848	0.141	0.117
-550.369	-200.000	0.007	-0.031
-549.354	402.580	-0.147	0.307
-548.339	252.946	0.174	0.294
-547.325	-44.993	-0.156	0.077
-546.310	-138.170	-0.087	0.010
-545.296	-62.695	0.207	-0.085
-544.281	-105.820	0.182	0.041
-543.266	-157.613	0.321	0.019
-542.252	1.416	-0.199	0.142
-541.237	-75.060	-0.107	-0.038
-540.223	172.844	-0.209	-0.298
-539.208	9.696	-0.078	0.059
-538.193	110.495	-0.176	0.209
-537.179	-72.511	0.079	-0.029
-536.164	-19.985	0.380	-0.232
-535.150	800.000	-0.046	-0.126
-534.135	-11.401	0.185	-0.121
-533.121	-84.545	0.204	0.064
-532.106	184.604	-0.033	0.049
-531.091	-111.458	-0.177	-0.036
-530.077	-34.288	-0.065	0.035
-529.062	-200.000	0.051	-0.565
-528.048	-162.524	-0.226	-0.011
-527.033	88.274	0.400	0.440
-526.018	-192.100	-0.395	0.004
-525.004	7.871	0.339	0.252
-523.989	-138.024	0.423	0.047
-522.975	-88.044	-0.374	-0.111
-521.960	-42.191	-0.212	0.107
-520.945	800.000	-0.053	-0.189
-519.931	140.825	-0.198	0.259
-518.916	-171.705	-0.205	0.007
-517.902	272.431	-0.070	0.123
-516.887	-64.701	-0.100	-0.040
-515.872	800.000	-0.059	-0.242
-514.858	800.000	0.103	-0.422
-513.843	800.000	-0.104	0.307
-512.829	146.048	-0.271	0.359
-511.814	800.000	-0.006	0.027
-510.799	800.000	-0.089	-0.270
-509.785	372.882	-0.154	-0.311
-508.770	-200.000	-0.007	0.114
-507.756	157.797	-0.168	-0.230
-506.741	800.000	0.044	0.186
-505.726	-200.000	0.011	-0.256
-504.712	-18.378	-0.155	-0.096
-503.697	-200.000	0.023	-0.222
-502.683	-200.000	-0.013	-0.212
-501.668	21.116	-0.114	-0.092
-500.653	-95.912	0.098	0.026
-499.639	-64.459	-0.270	-0.108
-498.624	-113.906	0.181	-0.035
-497.610	245.852	0.264	-0.440
-496.595	114.578	-0.202	-0.244
-495.581	326.264	-0.011	-0.021
-494.566	-5.930	-0.040	-0.027
-493.551	294.482	-0.169	0.305
-492.537	-133.321	-0.247	-0.031
-491.522	-180.993	-0.279	0.006
-490.508	-1.516	0.181	-0.126
-489.493	-134.275	-0.358	0.044
-488.478	74.589	-0.298	0.309
-487.464	800.000	-0.119	-0.423
-486.449	625.580	0.127	-0.317
-485.435	-200.000	0.008	-0.115
-484.420	800.000	0.065	-0.269
-483.405	-200.000	0.006	-0.254
-482.391	320.744	0.083	0.156
-481.376	76.982	0.146	-0.153
-480.362	-95.979	-0.290	-0.076
-479.347	-83.758	-0.099	0.031
-478.332	-107.080	0.272	-0.059
-477.318	-55.079	-0.111	-0.049
-476.303	800.000	0.047	-0.151
-475.289	21.289	-0.143	0.115
-474.274	-97.506	0.235	-0.060
-473.259	-88.057	-0.233	-0.069
-472.245	94.450	0.174	0.196
-471.230	-200.000	-0.009	0.119
-470.216	113.859	0.328	-0.394
-469.201	-85.707	-0.112	0.034
-468.186	-200.000	0.028	0.313
-467.172	191.008	0.220	0.328
-466.157	71.636	-0.192	0.197
-465.143	-99.824	0.055	0.014
-464.128	-101.038	-0.228	-0.055
-463.113	-100.846	0.158	-0.039
-462.099	-24.831	-0.127	0.074
-461.084	-99.129	0.176	0.044
-460.070	-68.855	-0.468	0.179
-459.055	-65.467	0.341	-0.135
-458.040	800.000	-0.086	0.237
-457.026	-76.406	0.177	0.062
-456.011	19.553	0.219	0.174
-454.997	-129.893	0.132	-0.018
-453.982	-124.909	0.174	-0.027
-452.968	800.000	0.049	-0.151
-451.953	264.318	0.200	-0.344
-450.938	127.875	-0.076	0.095
-449.924	49.772	0.365	0.339
-448.909	-155.459	0.111	-0.007
-447.895	286.790	-0.109	0.195
-446.880	-19.205	-0.126	0.077
-445.865	7.199	0.075	0.056
-444.851	-200.000	0.003	-0.191
-443.836	-64.985	-0.190	-0.076
-442.822	29.141	-0.255	-0.213
-441.807	-14.132	-0.221	-0.141
-440.792	31.773	0.211	-0.179
-439.778	29.345	0.150	0.125
-438.763	299.012	-0.100	0.181
-437.749	112.322	-0.314	0.374
-436.734	86.943	-0.099	0.108
-435.719	-200.000	0.035	-0.219
-434.705	216.846	0.144	0.227
-433.690	-200.000	0.054	0.618
-432.676	-19.630	0.182	0.111
-431.661	-100.816	0.206	-0.050
-430.646	-59.330	-0.303	-0.129
-429.632	800.000	0.059	0.204
-428.617	-155.292	-0.193	0.012
-427.603	9.664	0.095	0.071
-426.588	800.000	-0.066	0.192
-425.573	116.193	-0.211	0.255
-424.559	-175.037	0.239	0.007
-423.544	-200.000	0.001	0.056
-422.530	151.843	-0.155	0.208
-421.515	138.834	0.191	-0.247
-420.500	14.253	-0.106	-0.082
-419.486	800.000	-0.070	0.270
-418.471	92.874	-0.260	0.289
-417.457	41.904	0.147	-0.132
-416.442	-59.396	0.258	-0.109
-415.428	-94.686	-0.180	-0.048
-414.413	86.467	0.262	0.285
-413.398	-200.000	0.039	0.234
-412.384	-43.367	0.382	-0.190
-411.369	-200.000	-0.011	0.070
-410.355	-9.937	0.193	0.127
-409.340	201.527	0.238	-0.361
-408.325	167.433	0.141	0.197
-407.311	535.753	0.133	0.311
-406.296	-106.474	-0.095	-0.021
-405.282	-141.656	0.142	0.014
-404.267	60.239	0.283	0.276
-403.252	-200.000	0.038	0.357
-402.238	-13.916	0.297	0.189
-401.223	-57.346	-0.122	0.053
-400.209	-200.000	0.013	0.235
-399.194	-112.662	-0.060	-0.012
-398.179	-120.251	0.170	-0.029
-397.165	-200.000	0.008	-0.110
-396.150	68.953	-0.221	0.224
-395.136	-14.079	0.191	-0.121
-394.121	-69.826	0.115	-0.043
-393.106	-123.838	0.257	-0.040
-392.092	-96.017	0.101	-0.026
-391.077	-18.611	0.227	-0.139
-390.063	296.682	0.165	-0.299
-389.048	-38.420	-0.267	-0.139
-388.033	197.879	0.083	-0.125
-387.019	-189.816	-0.172	-0.002
-386.004	-131.342	0.197	-0.026
-384.990	-58.383	0.226	-0.097
-383.975	-83.695	-0.165	-0.052
-382.960	-200.000	0.055	0.282
-381.946	-200.000	-0.048	0.231
-380.931	-24.138	0.307	-0.181
-379.917	-200.000	-0.028	-0.262
-378.902	800.000	0.067	-0.183
-377.888	-120.836	0.360	0.060
-376.873	-188.305	-0.226	-0.003
-375.858	43.639	0.224	-0.201
-374.844	193.707	-0.147	0.219
-373.829	429.881	-0.088	0.187
-372.815	-200.000	0.045	-0.284
-371.800	15.154	0.185	-0.143
-370.785	-200.000	-0.009	0.101
-369.771	-200.000	0.053	0.253
-368.756	-38.774	0.199	0.103
-367.742	556.901	-0.049	-0.117
-366.727	491.518	0.052	0.117
-365.712	343.071	-0.165	-0.318
-364.698	-16.094	-0.216	0.135
-363.683	-200.000	0.038	0.408
-362.669	-92.700	0.147	-0.041
-361.654	-200.000	0.038	0.427
-360.639	107.639	0.203	-0.237
-359.625	2.497	-0.105	0.075
-358.610	-112.236	0.204	-0.040
-357.596	626.306	0.101	-0.251
-356.581	800.000	-0.059	-0.205
-355.566	-56.206	0.339	0.148
-354.552	-4.979	-0.208	-0.141
-353.537	-200.000	-0.040	-0.214
-352.523	800.000	-0.023	-0.064
-351.508	-37.479	0.155	-0.081
-350.493	221.913	0.081	-0.128
-349.479	47.764	0.100	0.092
-348.464	-200.000	-0.002	0.143
-347.450	-81.090	0.175	0.057
-346.435	-122.239	-0.080	-0.013
-345.420	32.432	0.322	0.274
-344.406	60.655	-0.126	0.123
-343.391	-48.893	-0.213	0.101
-342.377	800.000	0.072	-0.233
-341.362	-9.687	-0.287	0.188
-340.348	11.133	-0.442	0.332
-339.333	41.878	0.172	-0.153
-338.318	-83.848	0.093	-0.029
-337.304	165.428	-0.211	-0.293
-336.289	-41.168	-0.114	-0.058
-335.275	-200.000	-0.042	-0.336
-334.260	800.000	0.044	-0.131
-333.245	-55.572	0.126	-0.055
-332.231	102.119	-0.136	0.156
-331.216	-200.000	0.087	0.000
-330.202	-200.000	-0.017	-0.207
-329.187	-55.329	0.355	-0.157
-328.172	-51.565	0.305	-0.140
-327.158	40.194	-0.270	0.239
-326.143	-38.511	-0.100	0.052
-325.129	800.000	-0.043	0.177
-324.114	277.447	-0.047	0.082
-323.099	-183.359	-0.092	-0.002
-322.085	-38.515	-0.077	0.040
-321.070	34.829	0.226	0.194
-320.056	-200.000	0.037	-0.206
-319.041	-200.000	-0.046	-0.253
-318.026	-27.775	-0.240	-0.137
-317.012	483.555	0.066	-0.147
-315.997	553.046	0.200	0.472
-314.983	-56.962	-0.119	0.052
-313.968	-143.464	0.226	-0.021
-312.953	-1.364	-0.072	0.050
-311.939	154.491	0.201	-0.271
-310.924	-30.214	0.348	0.194
-309.910	376.490	0.102	0.204
-308.895	268.600	0.111	-0.191
-307.880	-114.850	-0.183	-0.034
-306.866	151.584	0.153	-0.205
-305.851	-166.171	-0.235	-0.010
-304.837	564.786	0.009	0.022
-303.822	275.159	-0.199	-0.346
-302.807	-0.021	0.195	0.136
-301.793	-119.229	-0.257	-0.044
-300.778	431.198	0.085	-0.181
-299.764	144.778	0.170	-0.223
-298.749	-111.572	-0.331	0.066
-297.735	-200.000	0.048	0.232
-296.720	-126.859	-0.072	-0.010
-295.705	-200.000	-0.023	0.139
-294.691	-171.809	-0.274	0.009
-293.676	800.000	0.113	-0.361
-292.662	198.348	-0.104	-0.156
-291.647	618.146	0.050	-0.122
-290.632	9.584	0.426	0.317
-289.618	-46.757	0.086	-0.042
-288.603	77.519	-0.141	0.147
-287.589	688.276	-0.117	-0.300
-286.574	-22.201	0.307	-0.183
-285.559	110.809	0.076	0.089
-284.545	137.972	-0.088	0.113
-283.530	298.185	0.051	-0.093
-282.516	-200.000	-0.038	-0.313
-281.501	-57.200	0.137	-0.059
-280.486	-200.000	-0.001	-0.139
-279.472	800.000	0.099	-0.348
-278.457	-57.981	-0.179	-0.076
-277.443	-23.064	0.132	-0.078
-276.428	-5.506	-0.233	-0.157
-275.413	-200.000	0.005	-0.050
-274.399	93.613	0.132	-0.146
-273.384	-136.800	-0.200	0.023
-272.370	-19.747	-0.063	-0.038
-271.355	252.284	-0.090	0.151
-270.340	432.559	-0.063	-0.134
-269.326	-200.000	0.058	-0.265
-268.311	-200.000	-0.004	0.122
-267.297	800.000	0.066	0.245
-266.282	-200.000	0.014	0.266
-265.267	-146.240	0.114	0.010
-264.253	800.000	0.028	-0.086
-263.238	8.117	-0.062	0.045
-262.224	-76.674	-0.278	-0.095
-261.209	-200.000	0.022	0.212
-260.195	-109.999	-0.197	-0.040
-259.180	139.669	-0.058	-0.074
-258.165	77.121	-0.104	0.108
-257.151	92.257	-0.164	0.181
-256.136	-143.797	-0.296	-0.027
-255.122	-28.780	0.070	-0.039
-254.107	585.321	-0.114	-0.274
-253.092	-200.000	0.039	-0.380
-252.078	-51.273	0.213	0.098
-251.063	422.564	0.036	0.075
-250.049	105.560	-0.265	0.307
-249.034	800.000	-0.047	0.164
-248.019	185.869	0.194	0.282
-247.005	406.681	0.232	0.480
-245.990	131.477	-0.153	-0.192
-244.976	294.389	-0.136	0.243
-243.961	-63.640	0.520	0.209
-242.946	800.000	-0.064	0.191
-241.932	135.605	-0.101	0.129
-240.917	-53.682	0.326	0.146
-239.903	-200.000	0.000	-0.007
-238.888	-113.571	0.291	-0.056
-237.873	-44.535	-0.062	0.030
-236.859	-200.000	0.037	-0.163
-235.844	366.695	0.101	0.200
-234.830	-13.995	-0.063	0.040
-233.815	-200.000	0.071	0.450
-232.800	20.457	-0.230	0.182
-231.786	-200.000	-0.036	0.215
-230.771	199.740	0.199	0.298
-229.757	-128.879	-0.506	0.070
-228.742	67.374	0.119	0.118
-227.727	112.020	-0.174	-0.206
-226.713	5.665	0.149	-0.108
-225.698	-200.000	-0.040	-0.232
-224.684	221.739	0.102	-0.161
-223.669	43.162	0.324	0.289
-222.655	105.555	-0.136	-0.157
-221.640	196.980	0.136	-0.203
-220.625	7.236	-0.295	0.215
-219.611	21.425	-0.277	-0.221
-218.596	-200.000	0.001	-0.252
-217.582	763.855	0.019	0.050
-216.567	143.159	-0.183	-0.238
-215.552	800.000	0.066	-0.188
-214.538	-200.000	0.025	0.233
-213.523	-151.319	0.209	-0.015
-212.509	-200.000	0.119	-0.522
-211.494	158.515	0.331	0.450
-210.479	87.683	-0.098	0.106
-209.465	31.417	0.132	-0.111
-208.450	379.580	-0.045	-0.090
-207.436	135.457	0.101	-0.129
-206.421	-31.183	-0.330	-0.182
-205.406	-107.441	-0.197	0.042
-204.392	358.137	0.050	0.097
-203.377	-200.000	0.063	-0.470
-202.363	103.019	0.189	0.216
-201.348	646.622	-0.070	0.176
-200.333	800.000	-0.008	-0.031
-199.319	102.784	0.037	-0.042
-198.304	325.543	-0.056	0.104
-197.290	-41.910	0.235	0.118
-196.275	-200.000	0.029	-0.322
-195.260	163.174	0.049	0.067
-194.246	-200.000	0.003	0.066
-193.231	68.143	0.180	0.180
-192.217	195.486	-0.096	-0.142
-191.202	16.702	0.196	0.152
-190.187	1.391	0.078	-0.055
-189.173	-95.362	0.253	0.066
-188.158	-200.000	0.014	0.423
-187.144	-5.634	0.104	0.070
-186.129	13.651	0.129	0.098
-185.114	314.366	0.059	0.109
-184.100	-200.000	0.001	0.179
-183.085	800.000	0.028	-0.102
-182.071	28.688	0.383	-0.317
-181.056	-30.780	-0.204	0.113
-180.042	42.181	0.093	0.083
-179.027	-118.703	0.068	-0.012
-178.012	218.527	0.115	-0.179
-176.998	800.000	0.051	-0.185
-175.983	-200.000	-0.004	0.184
-174.969	-145.896	-0.333	0.029
-173.954	-125.876	0.183	0.027
-172.939	-200.000	0.101	-0.475
-171.925	290.220	-0.235	0.417
-170.910	38.980	-0.163	0.142
-169.896	-200.000	-0.006	-0.162
-168.881	-73.543	0.248	0.088
-167.866	-37.031	-0.158	0.082
-166.852	-38.316	-0.065	-0.033
-165.837	295.779	-0.174	-0.312
-164.823	233.240	0.207	-0.332
-163.808	4.904	0.202	0.145
-162.793	800.000	-0.049	-0.206
-161.779	-42.954	-0.211	-0.105
-160.764	49.521	0.325	-0.299
-159.750	-48.444	-0.220	0.103
-158.735	-75.029	-0.432	0.151
-157.720	-164.567	0.144	0.006
-156.706	164.246	0.077	0.106
-155.691	-200.000	0.043	0.329
-154.677	7.651	0.162	0.118
-153.662	125.670	-0.183	-0.225
-152.647	569.203	0.076	0.180
-151.633	284.476	-0.057	-0.100
-150.618	223.953	0.029	-0.045
-149.604	-200.000	0.012	-0.093
-148.589	-103.782	0.104	-0.024
-147.574	-130.599	-0.135	-0.018
-146.560	-28.863	-0.174	0.097
-145.545	-140.022	0.162	-0.017
-144.531	-200.000	0.044	0.214
-143.516	155.767	0.147	-0.197
-142.502	800.000	0.055	-0.175
-141.487	-97.032	0.228	0.058
-140.472	5.938	-0.279	-0.201
-139.458	-200.000	-0.047	-0.232
-138.443	-85.833	0.085	-0.026
-137.429	-200.000	0.010	-0.059
-136.414	-76.581	0.295	0.101
-135.399	-148.336	-0.213	-0.017
-134.385	-24.796	0.285	0.165
-133.370	130.924	0.112	0.140
-132.356	-42.062	0.468	-0.233
-131.341	369.008	0.022	0.044
-130.326	800.000	0.033	0.134
-129.312	800.000	0.047	-0.177
-128.297	-200.000	0.048	0.260
-127.283	-18.534	0.282	-0.171
-126.268	163.878	-0.055	-0.076
-125.253	-151.361	-0.443	-0.032
-124.239	-132.474	-0.017	0.002
-123.224	-200.000	-0.026	0.143
-122.210	-200.000	0.017	0.128
-121.195	-18.370	0.220	-0.134
