DTS Sentinel unit serial number:	SN413079Multiplexer serial number:	ORYXHardware model number:	OX4-SRSoftware version number:	ORYX F/W v4.00 Oryx Data Collector v3.7.2.0data status	okinstallation	princeton_trtdifferential loss correction	single-endedforward channel	channel 2reverse channel	N/Adate	2019/09/14time	23:43:35forward acquisition time	60.00reverse acquisition time	0.00gamma	496.2192k internal	0.2324k external	0.2324temperature offset calibration	1.0055default loss term (dB/km)	0.3790temperature slope calibration	1.0000multiplexer offset coefficient	1.0000multiplexer slope coefficient	1.0000fibre end	0.00T internal ref (°C)	32.28T ext. ref 1 (°C)	4.64T ext. ref 2 (°C)	27.26length (m)	temperature (°C)	Stokes	anti-Stokes-747.200	589.240	0.096	0.240
-746.185	170.464	0.109	0.157
-745.171	654.880	0.155	0.402
-744.156	358.326	-0.109	0.219
-743.142	-163.271	-0.230	0.011
-742.127	661.371	0.134	0.350
-741.112	-200.000	0.000	0.270
-740.098	39.293	-0.152	0.137
-739.083	5.497	-0.335	-0.250
-738.069	-102.475	-0.333	-0.081
-737.054	-55.124	-0.201	-0.091
-736.039	-200.000	0.008	-0.302
-735.025	-200.000	-0.029	-0.174
-734.010	443.614	0.152	0.336
-732.996	-200.000	0.005	0.249
-731.981	-59.906	-0.394	-0.170
-730.966	-200.000	0.061	0.321
-729.952	114.893	0.036	-0.045
-728.937	-67.636	-0.188	0.074
-727.923	142.498	0.172	-0.231
-726.908	-157.780	-0.255	-0.015
-725.894	-94.172	-0.279	-0.077
-724.879	-149.358	-0.530	0.043
-723.864	291.776	-0.020	0.037
-722.850	-106.714	-0.212	-0.047
-721.835	-82.405	0.205	0.067
-720.821	-186.394	0.070	-0.001
-719.806	-200.000	-0.022	-0.290
-718.791	46.402	-0.155	0.145
-717.777	-61.109	-0.076	0.032
-716.762	-91.718	-0.313	-0.090
-715.748	182.081	-0.087	0.129
-714.733	800.000	-0.036	0.119
-713.718	33.476	-0.173	0.151
-712.704	-8.880	0.186	-0.126
-711.689	709.110	-0.097	0.258
-710.675	-94.130	0.258	-0.071
-709.660	-200.000	0.003	-0.153
-708.645	-146.607	-0.097	0.008
-707.631	85.749	-0.206	0.228
-706.616	61.682	-0.099	0.100
-705.602	47.065	-0.183	0.172
-704.587	453.866	-0.118	-0.264
-703.572	216.995	-0.137	0.219
-702.558	-112.216	0.246	-0.050
-701.543	-121.303	-0.090	0.015
-700.529	800.000	-0.089	0.259
-699.514	127.489	0.197	-0.252
-698.499	-200.000	0.018	-0.116
-697.485	-31.074	0.087	-0.050
-696.470	-44.933	0.152	0.076
-695.456	353.046	-0.174	0.348
-694.441	-200.000	0.029	-0.346
-693.426	61.110	0.207	-0.207
-692.412	105.714	-0.158	-0.188
-691.397	800.000	0.041	0.118
-690.383	800.000	0.008	-0.032
-689.368	-55.197	-0.254	0.115
-688.354	101.897	-0.336	0.395
-687.339	-200.000	-0.003	-0.057
-686.324	-55.050	-0.168	-0.076
-685.310	-105.436	0.132	-0.030
-684.295	-10.192	-0.045	0.030
-683.281	-118.437	0.468	0.084
-682.266	-119.175	-0.273	-0.048
-681.251	-200.000	0.025	0.265
-680.237	-86.992	-0.203	0.062
-679.222	-200.000	-0.009	-0.179
-678.208	-43.220	0.091	0.046
-677.193	151.106	-0.094	0.129
-676.178	-76.026	0.152	-0.054
-675.164	-200.000	0.044	-0.249
-674.149	185.197	0.128	-0.192
-673.135	339.267	-0.176	0.346
-672.120	-49.762	-0.205	0.098
-671.105	277.552	0.107	-0.192
-670.091	-200.000	-0.015	-0.087
-669.076	-51.583	-0.269	0.126
-668.062	-89.372	-0.188	-0.056
-667.047	1.925	-0.029	-0.021
-666.032	-35.912	-0.377	0.205
-665.018	-200.000	-0.035	0.269
-664.003	-61.836	-0.068	-0.029
-662.989	403.323	0.150	-0.318
-661.974	800.000	0.093	-0.293
-660.959	114.103	-0.303	-0.370
-659.945	-53.165	-0.178	-0.082
-658.930	3.502	-0.191	0.140
-657.916	-106.737	0.029	-0.007
-656.901	-123.324	-0.125	0.020
-655.886	433.430	0.102	-0.222
-654.872	-50.538	-0.395	-0.188
-653.857	-64.164	-0.190	-0.078
-652.843	-107.259	-0.232	-0.051
-651.828	113.159	-0.151	0.185
-650.814	-114.024	0.350	-0.068
-649.799	1.605	-0.185	0.134
-648.784	35.037	-0.192	-0.169
-647.770	5.886	0.275	0.204
-646.755	800.000	0.037	-0.132
-645.741	800.000	0.047	0.203
-644.726	47.366	0.355	0.332
-643.711	-137.530	-0.405	-0.046
-642.697	385.409	0.090	0.186
-641.682	-200.000	0.011	0.222
-640.668	800.000	-0.032	-0.132
-639.653	72.256	0.084	0.088
-638.638	-70.825	0.251	-0.095
-637.624	52.020	-0.129	-0.124
-636.609	76.269	-0.196	-0.209
-635.595	-200.000	-0.017	-0.137
-634.580	800.000	-0.063	-0.178
-633.565	-154.736	-0.249	0.017
-632.551	-200.000	0.064	0.282
-631.536	-200.000	-0.035	-0.360
-630.522	-47.277	0.225	0.110
-629.507	93.692	-0.106	0.121
-628.492	-200.000	-0.002	-0.160
-627.478	-200.000	-0.028	-0.172
-626.463	-200.000	-0.005	0.121
-625.449	501.105	-0.091	0.210
-624.434	186.384	0.003	-0.004
-623.419	-41.122	0.299	-0.155
-622.405	14.691	0.057	-0.045
-621.390	-152.617	-0.515	0.037
-620.376	626.444	-0.180	0.457
-619.361	800.000	0.024	0.099
-618.346	204.249	-0.199	-0.310
-617.332	316.688	0.139	-0.264
-616.317	-200.000	-0.021	-0.095
-615.303	-22.155	0.251	-0.153
-614.288	800.000	-0.033	0.143
-613.273	-64.644	-0.145	0.059
-612.259	-200.000	-0.030	0.227
-611.244	-20.941	-0.187	-0.115
-610.230	800.000	0.082	0.239
-609.215	-169.661	0.159	0.006
-608.201	-120.623	0.215	-0.037
-607.186	46.387	0.065	0.060
-606.171	304.799	0.085	-0.159
-605.157	-127.684	-0.465	-0.067
-604.142	-111.711	-0.177	0.036
-603.128	528.461	-0.164	0.388
-602.113	-200.000	0.037	0.244
-601.098	-82.773	0.197	0.064
-600.084	-75.815	-0.349	0.124
-599.069	-200.000	0.003	-0.213
-598.055	-200.000	0.026	-0.312
-597.040	-91.987	0.196	-0.056
-596.025	800.000	-0.029	-0.096
-595.011	647.884	-0.111	-0.285
-593.996	-35.212	0.123	-0.067
-592.982	-44.422	-0.154	-0.078
-591.967	-80.751	-0.266	-0.089
-590.952	-85.353	0.221	-0.069
-589.938	-105.920	-0.363	0.082
-588.923	-93.321	-0.250	0.070
-587.909	59.903	0.126	0.125
-586.894	-48.673	0.258	-0.124
-585.879	630.627	-0.053	-0.134
-584.865	-94.402	-0.115	0.031
-583.850	-111.302	-0.180	0.037
-582.836	-163.488	-0.084	0.004
-581.821	-200.000	0.034	-0.279
-580.806	-200.000	0.039	0.295
-579.792	-70.447	-0.179	-0.068
-578.777	28.739	0.111	-0.094
-577.763	-111.945	0.217	-0.044
-576.748	800.000	-0.127	-0.403
-575.733	-124.788	0.491	0.076
-574.719	800.000	0.037	-0.158
-573.704	800.000	-0.087	-0.268
-572.690	-51.736	-0.309	0.144
-571.675	210.860	0.118	0.186
-570.661	327.426	0.092	-0.177
-569.646	-70.534	0.306	0.116
-568.631	800.000	0.043	-0.174
-567.617	14.957	0.224	-0.175
-566.602	-96.959	0.212	0.056
-565.588	-139.905	-0.153	-0.016
-564.573	235.764	0.099	0.164
-563.558	421.324	0.102	-0.220
-562.544	750.334	0.151	-0.409
-561.529	-185.012	0.168	0.003
-560.515	-50.020	-0.155	-0.074
-559.500	158.139	-0.147	0.205
-558.485	29.653	0.170	0.145
-557.471	-10.995	-0.150	-0.100
-556.456	59.854	-0.070	-0.069
-555.442	569.274	-0.124	0.301
-554.427	-114.426	0.344	-0.066
-553.412	132.800	-0.108	0.140
-552.398	-97.421	0.201	-0.052
-551.383	57.538	-0.265	-0.260
-550.369	-123.497	-0.141	-0.023
-549.354	49.224	-0.094	0.088
-548.339	19.409	-0.179	0.144
-547.325	51.637	0.189	-0.180
-546.310	-154.478	-0.307	-0.021
-545.296	-22.962	0.113	-0.068
-544.281	70.935	-0.194	0.201
-543.266	-44.333	0.114	-0.057
-542.252	275.545	0.172	-0.306
-541.237	800.000	0.054	-0.236
-540.223	522.515	-0.027	-0.063
-539.208	800.000	-0.042	-0.119
-538.193	190.451	-0.197	-0.297
-537.179	-105.076	0.149	-0.034
-536.164	110.374	-0.015	-0.019
-535.150	157.055	-0.293	-0.406
-534.135	306.311	0.077	0.144
-533.121	-2.499	-0.117	-0.082
-532.106	-105.821	-0.135	0.031
-531.091	-200.000	-0.035	0.155
-530.077	185.297	0.115	0.171
-529.062	-25.134	-0.157	-0.093
-528.048	-18.455	-0.245	-0.153
-527.033	-18.393	-0.142	0.089
-526.018	-37.397	0.175	-0.094
-525.004	-64.868	-0.137	-0.055
-523.989	-54.374	0.350	-0.159
-522.975	80.166	-0.274	-0.295
-521.960	14.400	-0.134	0.104
-520.945	551.693	0.076	0.183
-519.931	800.000	0.059	0.238
-518.916	213.164	0.082	0.130
-517.902	-86.762	0.160	-0.049
-516.887	-47.367	-0.137	-0.067
-515.872	-32.623	-0.222	-0.124
-514.858	688.011	-0.089	0.232
-513.843	111.339	-0.120	-0.145
-512.829	46.906	-0.114	0.106
-511.814	-108.411	-0.062	-0.013
-510.799	200.943	-0.219	0.336
-509.785	-109.098	0.151	0.032
-508.770	800.000	0.022	0.077
-507.756	-200.000	-0.003	-0.097
-506.741	-13.301	0.072	-0.047
-505.726	-200.000	-0.044	-0.327
-504.712	-141.974	-0.282	0.028
-503.697	-200.000	0.020	-0.133
-502.683	52.060	-0.269	0.257
-501.668	-200.000	-0.046	0.264
-500.653	29.790	-0.175	0.149
-499.639	-9.818	-0.097	-0.064
-498.624	-200.000	0.008	-0.050
-497.610	-200.000	0.050	-0.422
-496.595	-124.010	0.251	-0.039
-495.581	-62.435	0.429	-0.178
-494.566	54.650	0.151	0.146
-493.551	57.861	-0.164	-0.160
-492.537	-71.032	-0.149	-0.056
-491.522	-111.985	0.274	-0.055
-490.508	433.830	-0.059	-0.128
-489.493	213.279	0.056	-0.089
-488.478	-139.813	0.166	0.018
-487.464	263.215	-0.095	0.164
-486.449	-200.000	-0.008	-0.273
-485.435	87.110	-0.298	-0.329
-484.420	-200.000	0.006	0.062
-483.405	-44.478	-0.105	-0.052
-482.391	308.567	-0.273	0.510
-481.376	-65.225	-0.128	0.051
-480.362	-6.717	-0.162	0.110
-479.347	-96.336	0.105	0.028
-478.332	-200.000	0.001	-0.085
-477.318	-129.698	0.161	-0.022
-476.303	-10.759	-0.143	-0.094
-475.289	-114.607	0.193	-0.037
-474.274	-65.362	0.157	-0.063
-473.259	800.000	0.048	0.166
-472.245	696.845	-0.067	0.176
-471.230	50.301	0.122	0.115
-470.216	-200.000	0.005	0.196
-469.201	-53.176	0.144	-0.066
-468.186	-89.373	0.203	0.060
-467.172	-200.000	0.060	-0.321
-466.157	-164.005	-0.183	-0.008
-465.143	482.114	0.130	-0.295
-464.128	-200.000	0.001	-0.187
-463.113	800.000	-0.097	-0.368
-462.099	467.521	-0.077	0.173
-461.084	163.206	-0.341	0.479
-460.070	-125.318	-0.265	0.040
-459.055	-200.000	-0.116	-0.554
-458.040	-117.787	0.197	-0.035
-457.026	-200.000	0.025	-0.289
-456.011	22.316	0.141	0.115
-454.997	-200.000	-0.035	0.269
-453.982	800.000	-0.045	-0.130
-452.968	651.615	-0.092	0.236
-451.953	-200.000	-0.010	0.066
-450.938	-49.337	0.116	0.055
-449.924	-135.046	-0.116	-0.014
-448.909	-78.893	0.160	-0.054
-447.895	-124.512	0.186	0.029
-446.880	278.091	-0.028	-0.051
-445.865	-74.196	0.043	-0.015
-444.851	800.000	0.082	-0.356
-443.836	-28.153	0.340	-0.196
-442.822	-181.744	0.194	0.004
-441.807	128.216	0.147	-0.186
-440.792	84.483	-0.170	-0.186
-439.778	-200.000	0.007	-0.210
-438.763	555.731	-0.101	0.243
-437.749	-77.713	0.190	0.066
-436.734	-138.373	-0.070	0.008
-435.719	-200.000	-0.018	-0.180
-434.705	6.192	0.282	-0.208
-433.690	-200.000	-0.013	0.335
-432.676	-200.000	-0.025	-0.263
-431.661	34.051	-0.169	0.147
-430.646	32.875	-0.031	-0.027
-429.632	-64.323	0.039	-0.016
-428.617	102.510	0.117	-0.137
-427.603	-55.086	0.305	-0.137
-426.588	-200.000	0.023	0.237
-425.573	336.325	0.158	-0.306
-424.559	-24.475	0.362	0.215
-423.544	-46.182	-0.250	-0.123
-422.530	-118.607	-0.316	0.056
-421.515	-200.000	-0.040	0.191
-420.500	-98.320	-0.129	-0.033
-419.486	-200.000	-0.033	-0.216
-418.471	-200.000	-0.020	-0.146
-417.457	-200.000	-0.033	-0.359
-416.442	121.966	-0.032	0.040
-415.428	-5.871	-0.297	-0.203
-414.413	29.333	-0.326	-0.276
-413.398	-57.569	-0.281	0.123
-412.384	800.000	-0.039	0.149
-411.369	-169.947	-0.096	-0.003
-410.355	-200.000	0.016	0.074
-409.340	-200.000	-0.073	-0.397
-408.325	-65.291	0.214	0.086
-407.311	23.296	-0.087	-0.071
-406.296	24.467	0.176	0.145
-405.282	-87.032	-0.119	0.036
-404.267	5.406	0.130	0.096
-403.252	75.826	0.093	0.098
-402.238	800.000	-0.076	0.210
-401.223	-76.524	-0.349	0.122
-400.209	-20.088	-0.136	0.084
-399.194	-67.277	0.276	0.108
-398.179	-171.190	0.301	0.010
-397.165	-181.122	-0.292	-0.006
-396.150	-200.000	-0.018	-0.149
-395.136	-80.577	0.063	-0.021
-394.121	-200.000	0.023	-0.362
-393.106	-72.363	-0.083	0.031
-392.092	165.245	0.079	0.111
-391.077	-51.443	-0.150	-0.070
-390.063	359.231	0.068	0.136
-389.048	-45.757	0.232	0.114
-388.033	394.058	-0.097	-0.202
-387.019	84.137	-0.129	0.140
-386.004	-117.742	-0.122	-0.022
-384.990	104.179	-0.053	-0.063
-383.975	-95.534	-0.212	0.057
-382.960	-41.336	0.247	-0.127
-381.946	-55.485	-0.145	-0.065
-380.931	-53.243	0.193	0.088
-379.917	-200.000	0.002	0.052
-378.902	125.778	-0.182	0.229
-377.888	34.606	-0.155	0.135
-376.873	-5.316	-0.103	0.070
-375.858	800.000	-0.107	0.323
-374.844	322.263	-0.153	0.289
-373.829	-12.772	-0.249	0.162
-372.815	-99.072	-0.038	-0.010
-371.800	-54.756	-0.173	-0.078
-370.785	-85.247	-0.112	0.035
-369.771	-200.000	0.001	0.026
-368.756	800.000	0.067	-0.250
-367.742	800.000	0.061	0.188
-366.727	558.278	0.100	0.241
-365.712	-200.000	-0.036	-0.226
-364.698	-51.175	0.162	-0.076
-363.683	-200.000	0.000	0.204
-362.669	-38.753	-0.092	-0.049
-361.654	-65.710	0.179	-0.071
-360.639	1.583	0.085	0.061
-359.625	800.000	-0.070	-0.220
-358.610	361.572	0.143	-0.284
-357.596	-118.419	0.129	0.023
-356.581	800.000	-0.032	0.101
-355.566	-20.139	-0.292	0.179
-354.552	-55.304	0.243	0.108
-353.537	636.012	-0.084	0.213
-352.523	616.603	0.099	0.246
-351.508	-200.000	-0.008	-0.151
-350.493	800.000	0.109	-0.387
-349.479	157.265	0.093	-0.128
-348.464	552.771	0.063	-0.150
-347.450	-200.000	-0.023	0.165
-346.435	-125.196	0.350	-0.053
-345.420	762.618	-0.135	0.365
-344.406	-19.002	0.106	0.066
-343.391	-200.000	-0.034	-0.270
-342.377	800.000	0.055	0.165
-341.362	-36.555	-0.325	-0.174
-340.348	-69.685	-0.131	0.050
-339.333	-28.075	0.408	-0.234
-338.318	-57.194	-0.127	0.055
-337.304	68.537	-0.126	-0.128
-336.289	131.252	-0.062	-0.079
-335.275	32.587	0.241	0.207
-334.260	-85.397	-0.189	0.058
-333.245	800.000	-0.029	-0.088
-332.231	-54.003	0.320	-0.145
-331.216	384.265	-0.133	0.273
-330.202	-147.497	-0.173	0.015
-329.187	375.352	-0.116	0.235
-328.172	35.156	-0.156	0.136
-327.158	-40.729	-0.165	0.085
-326.143	4.654	-0.237	-0.173
-325.129	6.960	0.241	0.178
-324.114	2.813	-0.248	-0.178
-323.099	276.187	0.172	-0.303
-322.085	-151.672	-0.484	-0.035
-321.070	-66.304	0.214	-0.085
-320.056	-200.000	0.024	-0.181
-319.041	73.407	-0.201	-0.208
-318.026	-26.427	-0.063	-0.037
-317.012	800.000	0.115	0.318
-315.997	-61.858	0.049	-0.020
-314.983	800.000	-0.031	0.111
-313.968	-200.000	0.062	0.273
-312.953	-136.746	-0.059	-0.007
-311.939	-200.000	-0.022	-0.135
-310.924	-200.000	-0.023	0.182
-309.910	123.531	0.086	-0.108
-308.895	-200.000	0.038	0.246
-307.880	-166.886	0.159	0.007
-306.866	413.927	0.034	0.072
-305.851	-68.508	0.309	-0.119
-304.837	-169.119	0.482	-0.018
-303.822	-57.423	-0.130	-0.057
-302.807	227.741	-0.027	-0.043
-301.793	24.654	0.154	-0.127
-300.778	25.417	-0.045	0.037
-299.764	-76.884	-0.200	-0.069
-298.749	800.000	-0.060	-0.172
-297.735	75.093	-0.119	-0.125
-296.720	124.340	-0.093	-0.116
-295.705	-200.000	0.002	0.238
-294.691	-200.000	-0.047	0.398
-293.676	-136.473	0.299	-0.034
-292.662	800.000	0.102	0.388
-291.647	-104.109	0.204	-0.047
-290.632	-28.212	-0.074	0.042
-289.618	38.870	0.300	0.266
-288.603	800.000	0.049	0.133
-287.589	575.170	0.090	-0.218
-286.574	-0.105	-0.161	-0.114
-285.559	-4.706	0.187	-0.128
-284.545	-200.000	0.010	0.112
-283.530	-200.000	-0.017	0.311
-282.516	94.403	-0.156	0.175
-281.501	9.319	0.271	-0.203
-280.486	86.814	-0.244	0.267
-279.472	800.000	-0.036	0.114
-278.457	-79.484	-0.134	0.045
-277.443	-18.414	0.204	-0.126
-276.428	-122.682	-0.156	-0.025
-275.413	33.167	0.096	-0.083
-274.399	-200.000	0.016	-0.125
-273.384	-200.000	-0.038	-0.169
-272.370	-200.000	-0.028	-0.254
-271.355	210.980	0.181	0.282
-270.340	800.000	0.110	0.385
-269.326	-37.910	-0.355	0.187
-268.311	15.384	0.152	-0.118
-267.297	267.388	0.201	-0.349
-266.282	15.733	0.345	0.269
-265.267	117.876	0.166	0.202
-264.253	-116.053	0.108	-0.020
-263.238	-88.221	0.205	0.061
-262.224	-167.934	0.550	0.021
-261.209	-42.475	-0.120	0.061
-260.195	-68.636	-0.097	0.037
-259.180	-53.482	0.153	-0.069
-258.165	-200.000	-0.018	0.239
-257.151	41.121	0.254	0.227
-256.136	800.000	0.157	-0.441
-255.122	-104.194	0.274	0.063
-254.107	-12.483	0.310	0.200
-253.092	800.000	0.093	0.311
-252.078	-58.024	-0.180	-0.078
-251.063	84.642	-0.115	0.125
-250.049	42.949	0.110	0.099
-249.034	-200.000	-0.048	0.577
-248.019	508.457	0.050	-0.114
-247.005	-142.623	0.325	-0.031
-245.990	-31.298	-0.288	0.161
-244.976	13.140	-0.116	0.089
-243.961	-200.000	-0.009	-0.056
-242.946	-110.109	0.466	-0.096
-241.932	168.231	0.261	-0.367
-240.917	-200.000	-0.033	0.232
-239.903	563.292	0.059	0.142
-238.888	168.076	0.072	0.101
-237.873	-117.373	-0.342	0.061
-236.859	58.983	-0.076	0.074
-235.844	-46.419	0.194	-0.094
-234.830	-191.380	-0.175	0.002
-233.815	21.147	0.095	-0.077
-232.800	591.385	-0.147	-0.359
-231.786	-56.280	0.215	-0.095
-230.771	-87.411	-0.203	-0.061
-229.757	-22.746	-0.057	0.034
-228.742	20.520	0.122	-0.098
-227.727	-91.428	-0.151	-0.043
-226.713	-130.316	0.360	0.048
-225.698	-69.635	-0.078	0.030
-224.684	-109.207	0.171	-0.036
-223.669	-77.985	-0.070	-0.024
-222.655	-98.179	-0.210	-0.053
-221.640	800.000	0.009	0.026
-220.625	-106.007	0.370	0.082
-219.611	-143.060	0.363	-0.035
-218.596	-45.039	-0.163	-0.080
-217.582	-42.984	0.226	-0.113
-216.567	27.761	-0.122	-0.102
-215.552	-200.000	-0.020	0.334
-214.538	-147.775	0.073	0.006
-213.523	140.328	0.138	0.180
-212.509	-14.579	0.180	-0.115
-211.494	121.708	-0.105	0.130
-210.479	137.966	0.063	-0.081
-209.465	18.309	-0.113	0.089
-208.450	242.387	-0.045	-0.074
-207.436	260.074	0.095	-0.162
-206.421	800.000	0.084	0.291
-205.406	-11.465	-0.097	0.063
-204.392	299.961	0.223	-0.405
-203.377	-52.706	0.310	-0.141
-202.363	-28.236	-0.266	-0.152
-201.348	135.962	0.217	0.279
-200.333	-200.000	0.007	-0.086
-199.319	-17.634	-0.252	-0.157
-198.304	-96.021	0.083	0.022
-197.290	126.094	0.103	0.128
-196.275	566.501	-0.080	0.191
-195.260	607.894	0.140	0.346
-194.246	-145.476	-0.272	0.024
-193.231	800.000	0.040	-0.114
-192.217	-125.300	0.059	-0.009
-191.202	-82.703	0.246	-0.079
-190.187	-200.000	-0.008	0.106
-189.173	221.022	-0.211	0.334
-188.158	-200.000	0.009	-0.071
-187.144	-159.642	0.220	0.012
-186.129	-73.824	-0.064	0.023
-185.114	-75.857	-0.374	0.131
-184.100	-200.000	0.001	0.054
-183.085	196.799	0.075	0.113
-182.071	-200.000	0.010	-0.073
-181.056	800.000	-0.018	-0.051
-180.042	-168.411	0.067	-0.003
-179.027	-119.222	-0.268	-0.046
-178.012	-46.496	-0.609	0.295
-176.998	-79.321	0.150	-0.050
-175.983	800.000	0.032	-0.108
-174.969	0.762	-0.114	0.081
-173.954	-38.150	0.370	0.194
-172.939	800.000	-0.108	0.433
-171.925	-162.587	0.235	-0.011
-170.910	-182.535	0.064	-0.001
-169.896	-98.508	-0.517	-0.130
-168.881	21.177	-0.315	-0.252
-167.866	91.137	-0.060	0.066
-166.852	103.841	0.179	0.208
-165.837	31.714	0.222	-0.188
-164.823	-21.248	-0.160	-0.096
-163.808	-179.706	-0.057	-0.001
-162.793	522.040	0.064	0.147
-161.779	-19.851	-0.082	0.050
-160.764	37.100	-0.104	-0.091
-159.750	-153.312	-0.131	0.009
-158.735	-12.606	-0.218	0.140
-157.720	-74.694	-0.215	0.076
-156.706	800.000	0.003	0.011
-155.691	502.912	0.043	0.099
-154.677	-167.720	0.250	-0.010
-153.662	20.462	0.070	0.056
-152.647	-12.364	0.056	0.036
-151.633	76.462	-0.037	0.039
-150.618	-200.000	-0.003	0.161
-149.604	20.444	0.053	0.042
-148.589	-35.822	0.105	-0.056
-147.574	-53.113	-0.231	-0.105
-146.560	-200.000	-0.034	-0.340
-145.545	304.403	0.072	0.131
-144.531	-200.000	-0.004	-0.206
-143.516	-51.761	0.247	-0.113
-142.502	43.431	-0.210	0.189
-141.487	148.114	-0.278	-0.370
-140.472	202.561	0.088	0.134
-139.458	5.076	0.263	0.191
-138.443	205.420	-0.141	-0.216
-137.429	229.686	0.166	0.267
-136.414	-200.000	0.097	0.483
-135.399	629.540	0.112	0.280
-134.385	-94.750	0.176	-0.047
-133.370	-12.895	-0.035	0.022
-132.356	-49.921	-0.126	-0.059
-131.341	-71.119	-0.308	-0.114
-130.326	193.319	0.153	0.228
-129.312	800.000	-0.095	-0.266
-128.297	-23.487	0.257	-0.152
-127.283	98.882	-0.112	-0.127
-126.268	241.688	0.165	-0.272
-125.253	-200.000	-0.001	-0.040
-124.239	-12.502	-0.301	0.194
-123.224	775.600	0.020	0.055
-122.210	-26.033	-0.303	-0.175
