DTS Sentinel unit serial number:	SN413079Multiplexer serial number:	ORYXHardware model number:	OX4-SRSoftware version number:	ORYX F/W v4.00 Oryx Data Collector v3.7.2.0data status	okinstallation	princeton_trtdifferential loss correction	single-endedforward channel	channel 2reverse channel	N/Adate	2019/09/12time	11:09:11forward acquisition time	60.00reverse acquisition time	0.00gamma	496.2192k internal	0.2305k external	0.2305temperature offset calibration	1.0071default loss term (dB/km)	0.3790temperature slope calibration	1.0000multiplexer offset coefficient	1.0000multiplexer slope coefficient	1.0000fibre end	0.00T internal ref (°C)	38.70T ext. ref 1 (°C)	1.95T ext. ref 2 (°C)	35.65length (m)	temperature (°C)	Stokes	anti-Stokes-747.200	26.231	0.200	-0.170
-746.185	30.644	0.276	-0.241
-745.171	-200.000	0.071	-0.376
-744.156	800.000	0.155	0.439
-743.142	-200.000	0.012	-0.227
-742.127	8.551	0.142	0.108
-741.112	-200.000	0.004	0.062
-740.098	50.709	0.317	0.306
-739.083	800.000	0.095	0.356
-738.069	161.776	0.025	0.036
-737.054	-31.684	-0.118	0.068
-736.039	-80.541	0.343	0.116
-735.025	-7.466	-0.096	-0.066
-734.010	-27.002	-0.371	0.220
-732.996	800.000	-0.163	0.597
-731.981	-136.329	-0.407	-0.048
-730.966	-92.066	0.245	0.070
-729.952	341.138	0.030	-0.060
-728.937	-155.245	-0.167	-0.011
-727.923	-131.534	-0.408	-0.055
-726.908	306.554	0.153	-0.290
-725.894	800.000	0.037	0.127
-724.879	-137.423	-0.408	-0.047
-723.864	800.000	-0.044	-0.195
-722.850	-103.108	-0.266	-0.064
-721.835	457.638	-0.066	-0.149
-720.821	-200.000	-0.071	0.392
-719.806	-180.670	-0.281	-0.006
-718.791	52.562	-0.128	-0.124
-717.777	-52.033	0.415	0.196
-716.762	26.672	0.274	-0.233
-715.748	-114.967	0.226	-0.044
-714.733	14.137	-0.051	-0.040
-713.718	800.000	0.121	0.339
-712.704	92.116	0.058	0.067
-711.689	94.396	0.082	0.094
-710.675	402.610	0.167	-0.356
-709.660	-177.866	0.070	0.002
-708.645	-200.000	-0.040	-0.417
-707.631	63.520	-0.148	-0.151
-706.616	-48.326	0.381	-0.187
-705.602	74.199	-0.099	0.106
-704.587	229.350	0.142	-0.236
-703.572	11.093	0.185	-0.144
-702.558	-180.017	0.181	0.004
-701.543	46.199	0.231	0.217
-700.529	82.654	-0.080	0.088
-699.514	-162.510	0.138	0.007
-698.499	-28.200	-0.346	-0.203
-697.485	190.947	-0.075	-0.114
-696.470	-200.000	0.031	-0.163
-695.456	79.717	0.055	-0.060
-694.441	20.120	0.050	-0.041
-693.426	-1.451	-0.160	-0.115
-692.412	-200.000	-0.040	-0.231
-691.397	68.409	0.123	0.128
-690.383	533.391	-0.121	-0.291
-689.368	-200.000	0.018	0.112
-688.354	561.193	-0.123	0.302
-687.339	745.713	0.071	-0.194
-686.324	-139.871	-0.099	0.011
-685.310	68.034	-0.208	-0.216
-684.295	104.385	0.165	0.198
-683.281	-116.748	-0.266	-0.050
-682.266	48.178	-0.103	0.098
-681.251	-32.685	0.252	-0.142
-680.237	128.597	-0.107	-0.139
-679.222	-111.293	0.224	-0.047
-678.208	-200.000	-0.015	-0.300
-677.193	-200.000	-0.018	-0.117
-676.178	-53.266	-0.269	-0.125
-675.164	639.581	0.108	0.279
-674.149	-144.051	-0.063	0.006
-673.135	156.520	0.140	0.197
-672.120	109.708	0.162	-0.197
-671.105	800.000	-0.083	-0.316
-670.091	285.757	-0.013	0.025
-669.076	-72.312	0.302	-0.114
-668.062	-155.286	0.197	-0.013
-667.047	170.302	0.188	0.273
-666.032	434.720	0.086	-0.190
-665.018	651.672	-0.098	0.254
-664.003	-5.249	0.412	0.287
-662.989	-200.000	0.204	-0.001
-661.974	-200.000	-0.039	0.401
-660.959	-127.871	-0.100	0.015
-659.945	-200.000	-0.030	0.349
-658.930	-1.573	0.149	-0.106
-657.916	16.247	-0.171	-0.137
-656.901	69.961	-0.268	-0.280
-655.886	-151.314	-0.101	0.008
-654.872	-103.439	0.200	0.048
-653.857	220.012	-0.087	-0.141
-652.843	146.356	-0.146	0.198
-651.828	114.120	-0.019	0.024
-650.814	-122.380	-0.514	0.085
-649.799	23.670	0.195	0.163
-648.784	105.863	-0.082	0.098
-647.770	0.791	0.064	0.047
-646.755	349.587	0.024	-0.048
-645.741	-63.006	-0.097	-0.041
-644.726	708.787	0.106	-0.284
-643.711	250.042	-0.063	-0.108
-642.697	-115.044	0.108	0.021
-641.682	215.050	-0.132	-0.212
-640.668	800.000	-0.049	-0.218
-639.653	-121.078	-0.297	-0.051
-638.638	5.089	-0.131	0.098
-637.624	143.263	-0.157	0.212
-636.609	-7.564	0.116	0.080
-635.595	-35.544	-0.228	0.126
-634.580	-71.010	-0.144	0.055
-633.565	-93.873	0.140	0.039
-632.551	-200.000	0.029	-0.129
-631.536	-72.348	-0.372	0.140
-630.522	-111.972	-0.356	0.073
-629.507	178.005	-0.071	-0.106
-628.492	70.075	0.304	0.318
-627.478	288.297	0.075	0.138
-626.463	26.183	-0.141	-0.119
-625.449	78.103	0.312	-0.337
-624.434	-137.754	-0.334	-0.038
-623.419	13.106	-0.272	0.214
-622.405	-74.692	0.283	0.103
-621.390	800.000	0.114	0.368
-620.376	57.574	0.312	-0.309
-619.361	-21.413	-0.245	-0.152
-618.346	-51.656	-0.280	-0.132
-617.332	182.321	-0.084	-0.126
-616.317	-45.986	-0.477	0.238
-615.303	-51.432	0.085	-0.040
-614.288	504.833	0.038	0.089
-613.273	64.204	0.213	0.218
-612.259	16.299	-0.049	-0.039
-611.244	-23.864	0.346	-0.210
-610.230	-56.956	-0.324	-0.145
-609.215	185.262	0.233	-0.350
-608.201	-164.632	-0.199	-0.009
-607.186	-200.000	0.001	-0.128
-606.171	-200.000	0.002	0.119
-605.157	-27.270	-0.068	0.040
-604.142	-154.645	-0.180	-0.012
-603.128	-106.372	0.329	0.075
-602.113	448.784	0.143	-0.319
-601.098	-200.000	0.007	0.176
-600.084	-34.767	0.174	0.096
-599.069	-200.000	-0.027	-0.217
-598.055	-125.299	-0.238	-0.037
-597.040	-200.000	0.007	-0.109
-596.025	158.209	-0.041	-0.058
-595.011	-58.126	0.226	-0.100
-593.996	-200.000	0.000	-0.080
-592.982	17.781	-0.138	-0.111
-591.967	138.195	-0.066	-0.088
-590.952	8.366	0.176	0.134
-589.938	-156.549	-0.289	0.018
-588.923	-200.000	-0.003	0.244
-587.909	-5.743	-0.186	-0.129
-586.894	-200.000	0.031	0.186
-585.879	800.000	-0.085	0.318
-584.865	359.548	0.116	0.236
-583.850	-45.079	-0.316	0.159
-582.836	-104.281	0.392	0.092
-581.821	688.130	0.054	0.142
-580.806	800.000	0.069	-0.239
-579.792	357.227	-0.162	0.328
-578.777	-40.827	-0.106	0.055
-577.763	-200.000	-0.050	-0.228
-576.748	20.068	0.309	-0.252
-575.733	800.000	-0.126	-0.418
-574.719	800.000	0.039	-0.135
-573.704	-60.829	-0.223	0.096
-572.690	85.346	0.057	-0.063
-571.675	-96.671	-0.145	0.039
-570.661	-21.572	0.306	0.189
-569.646	800.000	0.144	0.444
-568.631	94.427	0.196	0.225
-567.617	231.954	0.054	0.090
-566.602	800.000	-0.098	0.419
-565.588	-200.000	0.010	-0.059
-564.573	75.236	-0.111	-0.118
-563.558	-123.543	0.199	-0.032
-562.544	147.868	0.153	0.208
-561.529	-55.601	-0.215	-0.097
-560.515	48.066	0.027	0.026
-559.500	453.769	0.076	-0.170
-558.485	284.459	-0.068	-0.124
-557.471	-92.366	-0.261	-0.074
-556.456	1.787	0.124	0.090
-555.442	-173.436	0.255	0.008
-554.427	-24.915	-0.128	0.077
-553.412	-200.000	0.027	0.301
-552.398	-47.119	0.234	0.116
-551.383	-174.863	0.217	0.006
-550.369	-198.144	0.165	-0.001
-549.354	321.392	0.067	0.128
-548.339	800.000	0.011	-0.039
-547.325	-200.000	-0.008	0.370
-546.310	106.815	-0.042	-0.050
-545.296	-109.135	0.271	-0.058
-544.281	45.199	-0.075	-0.070
-543.266	-42.742	-0.461	-0.237
-542.252	-200.000	-0.064	-0.318
-541.237	93.308	0.086	-0.099
-540.223	-200.000	-0.019	0.285
-539.208	-200.000	-0.045	0.304
-538.193	136.240	-0.191	-0.252
-537.179	172.168	-0.169	-0.245
-536.164	-200.000	-0.004	-0.113
-535.150	-37.649	0.224	0.121
-534.135	-87.383	0.327	-0.100
-533.121	78.631	-0.073	-0.079
-532.106	44.486	-0.364	-0.337
-531.091	327.651	0.083	-0.161
-530.077	68.960	0.184	-0.191
-529.062	-104.885	0.190	-0.044
-528.048	-47.120	-0.263	-0.130
-527.033	800.000	0.055	-0.158
-526.018	800.000	0.097	-0.374
-525.004	-82.333	0.215	0.071
-523.989	800.000	-0.026	0.087
-522.975	-119.096	0.241	0.043
-521.960	130.023	-0.152	-0.196
-520.945	-52.823	-0.257	0.120
-519.931	771.789	0.023	0.064
-518.916	-81.469	-0.154	0.051
-517.902	-200.000	0.000	-0.153
-516.887	-58.909	-0.371	-0.162
-515.872	-61.251	-0.140	0.060
-514.858	-169.291	-0.090	0.003
-513.843	-200.000	-0.014	-0.184
-512.829	-135.716	0.491	-0.059
-511.814	-200.000	-0.025	0.375
-510.799	-200.000	0.018	-0.092
-509.785	-67.331	0.417	-0.165
-508.770	-89.015	-0.249	-0.074
-507.756	800.000	-0.048	0.186
-506.741	146.535	-0.041	-0.055
-505.726	-159.237	0.166	-0.009
-504.712	-200.000	0.062	0.311
-503.697	0.383	0.116	0.083
-502.683	-120.106	0.313	-0.054
-501.668	128.752	0.087	-0.112
-500.653	-200.000	-0.029	0.246
-499.639	-161.615	0.140	-0.007
-498.624	62.691	-0.166	0.167
-497.610	800.000	-0.044	-0.125
-496.595	800.000	-0.039	-0.164
-495.581	-8.934	0.238	-0.161
-494.566	-44.287	0.178	0.090
-493.551	-71.615	-0.165	-0.062
-492.537	123.013	-0.140	0.177
-491.522	87.848	0.030	-0.034
-490.508	318.726	0.042	-0.080
-489.493	48.839	0.082	0.078
-488.478	-11.473	0.245	-0.162
-487.464	14.321	0.198	-0.156
-486.449	-69.570	-0.041	0.016
-485.435	-102.768	-0.206	0.049
-484.420	-171.738	0.155	-0.005
-483.405	36.686	0.126	-0.112
-482.391	800.000	-0.074	-0.259
-481.376	-95.987	-0.271	-0.073
-480.362	42.955	0.104	-0.096
-479.347	184.367	0.026	-0.038
-478.332	800.000	0.043	0.127
-477.318	800.000	-0.028	0.087
-476.303	219.929	0.063	0.102
-475.289	19.389	0.237	-0.192
-474.274	-63.356	-0.341	0.141
-473.259	10.161	0.284	-0.217
-472.245	-87.569	0.269	-0.082
-471.230	-89.962	0.053	0.016
-470.216	1.014	0.305	-0.220
-469.201	-29.368	0.158	0.091
-468.186	33.887	-0.105	0.092
-467.172	-158.745	-0.140	-0.008
-466.157	660.344	-0.020	-0.053
-465.143	-105.061	0.339	0.078
-464.128	506.712	0.196	0.458
-463.113	-164.088	-0.378	-0.018
-462.099	-137.620	0.119	0.013
-461.084	156.398	0.181	0.251
-460.070	-200.000	0.005	0.160
-459.055	119.606	-0.307	0.383
-458.040	148.712	0.131	0.178
-457.026	-200.000	0.026	0.158
-456.011	7.995	-0.175	-0.132
-454.997	800.000	0.050	-0.219
-453.982	-105.304	-0.245	0.056
-452.968	58.866	0.181	-0.179
-451.953	-48.217	0.395	0.192
-450.938	656.356	0.134	0.346
-449.924	-200.000	0.018	0.134
-448.909	79.520	-0.149	0.161
-447.895	-200.000	-0.086	-0.432
-446.880	-80.534	0.276	-0.093
-445.865	800.000	0.057	-0.243
-444.851	-200.000	0.019	0.163
-443.836	-31.419	0.286	0.162
-442.822	294.606	-0.125	-0.230
-441.807	364.029	0.055	-0.110
-440.792	-200.000	-0.032	0.202
-439.778	58.090	0.304	-0.299
-438.763	131.693	0.078	0.101
-437.749	24.096	-0.158	-0.131
-436.734	-129.895	-0.383	0.053
-435.719	68.250	0.094	-0.096
-434.705	800.000	0.052	-0.190
-433.690	-2.823	0.229	-0.161
-432.676	-0.204	0.202	-0.144
-431.661	102.568	-0.158	0.186
-430.646	-152.476	-0.427	-0.031
-429.632	-90.268	0.087	-0.025
-428.617	800.000	-0.041	0.170
-427.603	-43.917	0.216	-0.109
-426.588	-165.777	0.249	-0.011
-425.573	-66.448	-0.072	-0.029
-424.559	800.000	-0.069	0.240
-423.544	-200.000	0.018	0.549
-422.530	72.727	-0.170	-0.178
-421.515	6.627	-0.211	0.158
-420.500	-136.645	-0.403	-0.047
-419.486	800.000	-0.122	0.364
-418.471	44.680	0.102	0.094
-417.457	-8.262	0.073	-0.049
-416.442	-145.462	-0.277	-0.025
-415.428	112.249	0.237	-0.288
-414.413	202.118	-0.030	-0.046
-413.398	-20.835	-0.287	0.177
-412.384	-129.035	0.314	0.044
-411.369	-164.429	0.358	0.016
-410.355	217.065	-0.178	-0.286
-409.340	-72.669	0.141	-0.052
-408.325	-152.518	0.180	0.013
-407.311	137.881	-0.129	-0.169
-406.296	-3.418	-0.595	-0.416
-405.282	481.608	-0.183	-0.418
-404.267	-138.956	-0.157	0.017
-403.252	800.000	0.051	0.145
-402.238	34.040	-0.138	-0.120
-401.223	51.656	0.086	0.082
-400.209	-109.190	-0.142	0.030
-399.194	-200.000	-0.014	-0.079
-398.179	56.004	0.227	-0.221
-397.165	800.000	0.062	-0.215
-396.150	-50.451	0.099	0.047
-395.136	587.312	0.121	0.300
-394.121	-146.856	0.064	0.006
-393.106	-125.659	0.256	0.039
-392.092	-65.745	-0.091	0.036
-391.077	-96.002	0.183	0.049
-390.063	-200.000	-0.003	-0.114
-389.048	59.241	0.142	0.140
-388.033	144.430	-0.135	-0.181
-387.019	-200.000	0.002	-0.485
-386.004	482.495	-0.047	0.108
-384.990	-200.000	-0.037	-0.203
-383.975	707.205	0.005	0.014
-382.960	5.308	0.089	-0.066
-381.946	-200.000	-0.027	-0.303
-380.931	-200.000	0.038	0.216
-379.917	-34.157	-0.056	0.031
-378.902	-200.000	-0.025	-0.174
-377.888	93.413	0.233	-0.265
-376.873	-200.000	0.003	0.230
-375.858	555.965	0.142	0.344
-374.844	800.000	0.118	0.401
-373.829	-93.722	-0.110	-0.030
-372.815	-111.934	0.267	-0.054
-371.800	-183.969	-0.181	-0.003
-370.785	800.000	-0.048	0.181
-369.771	-117.078	0.229	-0.042
-368.756	-6.718	0.257	-0.176
-367.742	-169.278	0.171	-0.006
-366.727	95.405	-0.128	-0.147
-365.712	166.644	0.043	0.061
-364.698	-200.000	-0.033	-0.377
-363.683	-39.881	-0.146	0.076
-362.669	-125.484	0.109	0.017
-361.654	-189.286	0.331	0.004
-360.639	115.105	0.019	0.024
-359.625	81.430	0.069	-0.075
-358.610	439.045	-0.103	-0.226
-357.596	169.862	-0.231	0.330
-356.581	128.702	-0.222	-0.283
-355.566	800.000	-0.036	-0.157
-354.552	-78.960	0.133	0.045
-353.537	-69.036	-0.086	-0.033
-352.523	800.000	-0.067	-0.189
-351.508	298.117	0.079	-0.145
-350.493	529.078	-0.070	-0.165
-349.479	73.243	-0.092	0.097
-348.464	-47.227	0.099	0.048
-347.450	-46.109	0.173	0.085
-346.435	-105.562	-0.227	-0.052
-345.420	-51.764	-0.046	0.021
-344.406	41.843	0.120	-0.109
-343.391	-88.485	-0.155	-0.046
-342.377	256.485	-0.044	0.076
-341.362	-55.536	-0.013	-0.006
-340.348	103.190	-0.172	-0.202
-339.333	568.779	-0.021	-0.052
-338.318	800.000	-0.055	0.221
-337.304	8.932	-0.108	-0.082
-336.289	326.095	-0.051	-0.099
-335.275	364.335	0.129	-0.260
-334.260	800.000	0.013	-0.059
-333.245	-109.563	-0.318	0.067
-332.231	800.000	-0.068	-0.279
-331.216	72.456	-0.101	-0.106
-330.202	800.000	-0.077	0.255
-329.187	142.844	-0.100	0.133
-328.172	-137.397	0.121	0.014
-327.158	190.878	-0.058	0.087
-326.143	-31.232	-0.065	0.037
-325.129	464.254	-0.247	0.554
-324.114	-8.112	-0.028	0.019
-323.099	-56.776	0.385	-0.170
-322.085	-200.000	-0.005	-0.049
-321.070	56.973	-0.299	-0.292
-320.056	-200.000	0.008	-0.074
-319.041	-17.897	0.337	-0.212
-318.026	-200.000	0.011	0.048
-317.012	211.392	-0.055	0.087
-315.997	800.000	-0.069	-0.209
-314.983	297.310	-0.237	-0.436
-313.968	101.934	-0.131	0.153
-312.953	-200.000	-0.134	-0.000
-311.939	211.555	-0.127	-0.201
-310.924	-125.379	-0.171	0.026
-309.910	196.859	0.033	-0.050
-308.895	259.285	0.023	0.040
-307.880	-90.193	-0.097	0.028
-306.866	-63.282	-0.101	0.042
-305.851	606.281	-0.041	-0.103
-304.837	-108.934	0.132	-0.028
-303.822	-100.666	-0.052	0.013
-302.807	800.000	0.032	0.107
-301.793	175.505	0.077	0.112
-300.778	-120.008	0.274	0.047
-299.764	800.000	0.080	0.245
-298.749	187.542	-0.103	-0.153
-297.735	-200.000	-0.047	-0.299
-296.720	199.435	-0.110	-0.169
-295.705	127.674	-0.238	0.303
-294.691	-200.000	-0.011	0.173
-293.676	84.846	0.136	-0.149
-292.662	-200.000	-0.026	-0.222
-291.647	-78.633	-0.193	0.066
-290.632	3.825	0.280	-0.204
-289.618	348.203	-0.096	0.189
-288.603	222.591	-0.122	0.196
-287.589	450.013	0.099	-0.219
-286.574	78.750	-0.374	0.400
-285.559	123.065	-0.255	0.319
-284.545	-103.432	-0.296	0.070
-283.530	-85.580	-0.264	0.082
-282.516	242.934	0.251	-0.421
-281.501	-200.000	0.076	-0.479
-280.486	-200.000	0.013	0.186
-279.472	-10.175	0.159	-0.106
-278.457	-20.122	0.118	0.072
-277.443	800.000	0.091	-0.286
-276.428	168.097	0.208	0.296
-275.413	68.769	0.275	0.282
-274.399	-81.696	-0.156	0.051
-273.384	-67.717	-0.353	0.138
-272.370	50.724	-0.190	0.180
-271.355	192.165	0.158	-0.239
-270.340	318.772	0.051	-0.097
-269.326	-47.026	-0.283	0.138
-268.311	115.549	0.019	0.023
-267.297	242.937	-0.035	-0.059
-266.282	119.825	0.084	0.104
-265.267	-46.200	-0.013	0.006
-264.253	54.214	-0.157	0.151
-263.238	489.443	-0.167	0.382
-262.224	-200.000	0.034	0.310
-261.209	262.038	0.027	0.047
-260.195	-119.760	-0.249	0.043
-259.180	44.752	-0.245	0.225
-258.165	154.842	0.378	0.519
-257.151	35.697	0.023	-0.020
-256.136	427.679	-0.032	0.069
-255.122	-79.027	0.200	0.068
-254.107	-200.000	0.004	0.262
-253.092	-52.603	0.041	0.019
-252.078	-200.000	-0.030	0.219
-251.063	74.090	0.214	0.224
-250.049	342.223	0.155	0.303
-249.034	-161.148	0.269	-0.014
-248.019	800.000	0.031	-0.103
-247.005	-200.000	0.012	0.166
-245.990	-178.341	0.010	-0.000
-244.976	-200.000	0.013	0.121
-243.961	-200.000	0.056	-0.311
-242.946	-154.416	0.327	-0.022
-241.932	-200.000	0.082	0.375
-240.917	37.688	0.343	0.304
-239.903	50.526	-0.093	0.087
-238.888	204.106	0.014	-0.021
-237.873	-4.773	-0.104	0.072
-236.859	61.510	-0.101	-0.100
-235.844	85.412	-0.220	0.241
-234.830	6.257	-0.299	0.222
-233.815	52.889	0.085	0.081
-232.800	439.470	0.154	0.335
-231.786	61.298	0.125	0.124
-230.771	-200.000	-0.018	-0.081
-229.757	-17.621	0.175	-0.110
-228.742	-26.022	0.319	0.187
-227.727	-200.000	0.038	0.231
-226.713	335.824	0.072	0.139
-225.698	94.670	-0.082	-0.093
-224.684	-66.323	-0.318	0.126
-223.669	39.388	-0.165	0.148
-222.655	-104.318	0.092	-0.021
-221.640	-21.956	0.152	0.092
-220.625	89.178	0.193	0.214
-219.611	-90.950	0.090	-0.026
-218.596	-127.548	0.226	0.033
-217.582	-59.101	0.042	0.018
-216.567	469.847	-0.137	0.308
-215.552	622.572	0.169	-0.424
-214.538	-74.450	0.036	-0.013
-213.523	12.700	-0.170	-0.131
-212.509	614.998	-0.163	0.408
-211.494	800.000	-0.061	0.194
-210.479	31.444	0.064	-0.055
-209.465	-135.612	0.110	-0.013
-208.450	53.193	-0.082	-0.078
-207.436	51.588	-0.260	-0.246
-206.421	641.644	-0.064	-0.163
-205.406	800.000	-0.044	0.170
-204.392	358.251	-0.216	-0.431
-203.377	-34.901	-0.034	0.019
-202.363	-21.022	-0.153	-0.093
-201.348	-20.800	-0.168	0.103
-200.333	800.000	0.062	0.187
-199.319	-87.472	0.150	0.045
-198.304	731.482	-0.029	-0.078
-197.290	-68.351	-0.231	-0.090
-196.275	-86.085	-0.248	-0.076
-195.260	126.916	0.094	0.119
-194.246	-56.786	-0.153	0.067
-193.231	800.000	0.088	-0.353
-192.217	130.748	0.129	-0.165
-191.202	19.302	0.361	-0.288
-190.187	-68.652	0.133	0.051
-189.173	-49.030	0.108	0.052
-188.158	-20.767	0.238	-0.145
-187.144	-200.000	-0.035	0.304
-186.129	-200.000	-0.000	-0.361
-185.114	-59.366	-0.116	0.049
-184.100	-73.137	-0.167	0.061
-183.085	-85.827	0.193	0.059
-182.071	236.532	-0.088	0.144
-181.056	4.829	-0.208	-0.152
-180.042	-105.331	0.292	0.066
-179.027	800.000	0.112	-0.329
-178.012	-100.965	0.157	-0.038
-176.998	-178.958	-0.393	-0.009
-175.983	-93.054	-0.249	-0.069
-174.969	-118.747	-0.105	-0.018
-173.954	800.000	0.026	-0.086
-172.939	-83.290	0.133	-0.042
-171.925	347.782	-0.083	-0.162
-170.910	-200.000	-0.039	0.172
-169.896	-122.925	-0.315	-0.051
-168.881	-96.358	0.096	-0.025
-167.866	-153.775	0.327	0.022
-166.852	62.060	-0.076	0.076
-165.837	43.691	0.105	-0.095
-164.823	63.325	0.069	-0.069
-163.808	800.000	-0.027	0.103
-162.793	-122.453	-0.357	0.058
-161.779	800.000	0.077	-0.245
-160.764	-200.000	-0.060	-0.322
-159.750	411.016	0.086	0.183
-158.735	0.828	-0.331	-0.236
-157.720	800.000	-0.036	0.110
-156.706	-200.000	0.034	0.169
-155.691	389.245	0.138	-0.285
-154.677	-19.897	0.418	0.257
-153.662	31.510	-0.191	-0.164
-152.647	-24.238	-0.248	-0.147
-151.633	-164.738	-0.075	0.003
-150.618	-200.000	0.002	0.010
-149.604	-7.970	0.260	0.174
-148.589	192.962	0.062	-0.094
-147.574	-130.816	0.127	0.017
-146.560	800.000	0.134	-0.390
-145.545	7.853	0.235	0.175
-144.531	-123.634	0.111	-0.017
-143.516	201.632	0.231	-0.354
-142.502	75.669	0.310	-0.325
-141.487	690.961	-0.066	-0.171
-140.472	-103.842	-0.101	0.023
-139.458	-102.435	-0.147	0.035
-138.443	-200.000	0.009	-0.048
-137.429	-143.010	0.345	-0.033
-136.414	-139.100	0.546	0.059
-135.399	274.926	-0.098	0.173
-134.385	-34.879	0.562	0.305
-133.370	-200.000	0.010	-0.153
-132.356	-200.000	0.020	0.118
-131.341	-200.000	-0.057	-0.258
-130.326	90.166	0.076	-0.085
-129.312	-84.497	0.286	-0.090
-128.297	508.182	-0.097	0.224
-127.283	301.968	-0.197	0.363
-126.268	-200.000	-0.005	0.476
-125.253	386.623	-0.087	-0.178
-124.239	-200.000	0.009	0.113
-123.224	656.989	-0.086	0.219
-122.210	293.214	0.139	0.252
-121.195	-93.054	0.303	0.084
-120.180	-111.237	0.395	0.080
