DTS Sentinel unit serial number:	SN413079Multiplexer serial number:	ORYXHardware model number:	OX4-SRSoftware version number:	ORYX F/W v4.00 Oryx Data Collector v3.7.2.0data status	okinstallation	princeton_trtdifferential loss correction	single-endedforward channel	channel 2reverse channel	N/Adate	2019/09/12time	06:25:11forward acquisition time	60.00reverse acquisition time	0.00gamma	496.2192k internal	0.2324k external	0.2324temperature offset calibration	1.0064default loss term (dB/km)	0.3790temperature slope calibration	1.0000multiplexer offset coefficient	1.0000multiplexer slope coefficient	1.0000fibre end	0.00T internal ref (°C)	32.16T ext. ref 1 (°C)	1.57T ext. ref 2 (°C)	27.36length (m)	temperature (°C)	Stokes	anti-Stokes-747.200	-61.715	0.199	0.084
-746.185	-154.191	-0.181	0.012
-745.171	54.911	0.249	0.243
-744.156	-4.261	-0.178	0.125
-743.142	-37.758	0.139	-0.075
-742.127	-56.724	-0.190	0.085
-741.112	-192.872	0.435	0.004
-740.098	31.344	-0.146	0.127
-739.083	-165.124	0.212	0.009
-738.069	-39.202	0.161	0.086
-737.054	800.000	-0.142	-0.440
-736.039	-140.391	-0.326	-0.034
-735.025	800.000	0.052	0.213
-734.010	96.656	-0.125	-0.144
-732.996	800.000	0.023	0.089
-731.981	-200.000	-0.020	-0.180
-730.966	580.403	-0.128	-0.316
-729.952	107.701	0.251	0.302
-728.937	337.577	0.018	-0.035
-727.923	3.319	0.153	-0.113
-726.908	96.985	0.111	-0.128
-725.894	-111.535	-0.202	-0.041
-724.879	-54.520	-0.349	-0.159
-723.864	270.380	-0.181	-0.321
-722.850	-84.991	-0.087	0.028
-721.835	-100.141	0.229	-0.058
-720.821	72.616	0.059	-0.062
-719.806	-97.664	-0.225	-0.059
-718.791	800.000	0.105	-0.319
-717.777	-88.739	-0.623	0.187
-716.762	145.048	0.230	0.310
-715.748	-137.947	0.188	0.021
-714.733	800.000	0.036	-0.112
-713.718	800.000	0.115	-0.426
-712.704	-157.740	-0.156	0.009
-711.689	-16.285	0.074	0.047
-710.675	-200.000	0.000	-0.117
-709.660	-200.000	0.099	-0.456
-708.645	-200.000	0.022	-0.112
-707.631	377.652	-0.067	-0.138
-706.616	354.038	-0.075	-0.149
-705.602	-154.753	-0.076	0.005
-704.587	-27.177	-0.009	0.005
-703.572	113.196	-0.119	-0.145
-702.558	-200.000	0.012	-0.062
-701.543	85.685	-0.064	-0.071
-700.529	299.497	0.082	-0.153
-699.514	8.969	-0.196	0.149
-698.499	113.582	-0.186	-0.227
-697.485	800.000	-0.035	0.137
-696.470	178.945	0.204	-0.300
-695.456	800.000	-0.109	-0.349
-694.441	-81.617	-0.410	-0.136
-693.426	-37.131	0.113	-0.061
-692.412	-71.212	-0.099	0.038
-691.397	401.051	0.118	0.249
-690.383	-180.738	0.505	0.010
-689.368	-100.130	-0.143	-0.036
-688.354	800.000	-0.103	-0.295
-687.339	800.000	0.075	0.310
-686.324	-87.921	-0.150	-0.045
-685.310	-200.000	0.043	0.197
-684.295	-45.448	0.282	-0.141
-683.281	122.834	-0.195	-0.246
-682.266	-114.655	-0.289	-0.056
-681.251	800.000	0.035	-0.152
-680.237	-200.000	-0.013	0.098
-679.222	-29.596	0.099	0.057
-678.208	-200.000	0.009	0.121
-677.193	142.193	0.272	-0.363
-676.178	-98.000	-0.303	0.079
-675.164	800.000	0.049	-0.163
-674.149	177.298	-0.148	0.217
-673.135	-200.000	-0.013	-0.361
-672.120	800.000	0.057	-0.184
-671.105	251.407	0.145	0.249
-670.091	-161.941	0.175	0.009
-669.076	465.482	0.070	0.157
-668.062	-200.000	-0.013	-0.170
-667.047	-200.000	-0.018	-0.235
-666.032	208.993	0.128	-0.202
-665.018	152.539	-0.054	0.074
-664.003	-141.673	0.217	0.022
-662.989	170.005	-0.081	0.116
-661.974	-113.196	-0.640	0.127
-660.959	-103.300	-0.195	-0.046
-659.945	800.000	-0.057	-0.181
-658.930	169.075	0.084	-0.120
-657.916	800.000	-0.091	-0.290
-656.901	-194.029	0.379	0.003
-655.886	262.445	-0.014	0.024
-654.872	158.162	0.103	-0.144
-653.857	-200.000	-0.013	-0.066
-652.843	-164.045	-0.368	-0.017
-651.828	-63.522	-0.162	0.067
-650.814	198.749	0.159	0.245
-649.799	59.038	-0.221	0.218
-648.784	800.000	0.092	-0.303
-647.770	-200.000	-0.005	-0.049
-646.755	-20.769	-0.143	-0.088
-645.741	-67.193	-0.172	-0.068
-644.726	102.555	-0.406	-0.478
-643.711	91.891	-0.132	0.150
-642.697	8.869	-0.382	-0.290
-641.682	329.705	0.049	-0.095
-640.668	800.000	-0.079	-0.321
-639.653	142.563	-0.164	0.218
-638.638	15.184	-0.078	0.062
-637.624	800.000	-0.050	-0.187
-636.609	-200.000	0.005	0.347
-635.595	289.810	-0.042	0.076
-634.580	-48.240	0.420	0.204
-633.565	-109.282	-0.077	-0.017
-632.551	-140.187	0.008	-0.001
-631.536	-75.853	-0.024	0.008
-630.522	65.704	-0.066	0.067
-629.507	-44.351	0.160	0.080
-628.492	-116.066	0.073	-0.014
-627.478	-86.766	0.288	0.089
-626.463	438.082	-0.033	-0.072
-625.449	-42.988	0.242	-0.124
-624.434	-200.000	0.005	0.148
-623.419	-200.000	-0.012	0.233
-622.405	800.000	-0.091	0.268
-621.390	-200.000	0.010	-0.129
-620.376	240.017	0.017	-0.029
-619.361	-200.000	0.009	0.066
-618.346	-109.897	-0.225	-0.047
-617.332	318.965	-0.033	0.063
-616.317	258.435	-0.079	0.137
-615.303	-126.146	0.045	0.007
-614.288	389.025	0.118	0.246
-613.273	800.000	0.036	-0.145
-612.259	685.341	-0.074	0.195
-611.244	120.427	-0.085	0.106
-610.230	413.305	0.160	0.341
-609.215	324.929	-0.120	0.230
-608.201	-200.000	0.036	0.373
-607.186	-93.076	0.186	0.052
-606.171	48.800	-0.313	-0.295
-605.157	337.482	-0.053	0.104
-604.142	-200.000	-0.052	0.364
-603.128	-200.000	-0.007	-0.102
-602.113	129.732	-0.053	-0.068
-601.098	92.326	-0.136	-0.154
-600.084	-200.000	-0.013	0.064
-599.069	-138.712	0.272	0.030
-598.055	182.918	0.225	0.333
-597.040	87.190	0.093	-0.103
-596.025	579.029	-0.066	0.162
-595.011	219.426	-0.080	0.128
-593.996	800.000	0.025	-0.088
-592.982	278.868	0.120	-0.214
-591.967	84.063	-0.206	-0.226
-590.952	176.204	-0.115	0.167
-589.938	66.279	-0.160	-0.163
-588.923	-130.323	-0.352	-0.048
-587.909	800.000	-0.032	0.098
-586.894	-143.122	0.158	-0.015
-585.879	-96.291	-0.206	0.055
-584.865	56.359	0.146	0.142
-583.850	800.000	-0.082	-0.256
-582.836	-69.970	-0.274	-0.105
-581.821	-10.416	0.024	0.016
-580.806	-8.392	-0.388	0.262
-579.792	-23.318	0.291	-0.176
-578.777	-107.145	0.275	0.061
-577.763	5.175	0.035	0.026
-576.748	-18.938	-0.389	0.243
-575.733	-200.000	-0.001	0.125
-574.719	-71.736	-0.153	0.057
-573.704	-200.000	-0.022	-0.160
-572.690	-8.516	-0.115	0.077
-571.675	4.052	0.077	0.057
-570.661	123.772	-0.129	0.163
-569.646	-64.536	0.469	-0.191
-568.631	800.000	-0.037	-0.143
-567.617	376.241	-0.043	-0.088
-566.602	316.996	0.087	-0.165
-565.588	-200.000	-0.006	0.134
-564.573	64.718	-0.074	-0.075
-563.558	-200.000	0.051	-0.239
-562.544	-89.178	0.057	-0.017
-561.529	-200.000	0.022	-0.234
-560.515	86.709	-0.152	0.168
-559.500	-153.522	0.270	0.019
-558.485	-28.145	0.137	-0.080
-557.471	21.036	-0.100	-0.081
-556.456	-127.725	-0.276	-0.040
-555.442	800.000	0.039	-0.157
-554.427	-61.831	0.151	-0.063
-553.412	223.348	-0.127	0.206
-552.398	-131.240	-0.264	0.035
-551.383	-200.000	-0.007	0.112
-550.369	800.000	-0.022	0.092
-549.354	-126.620	-0.182	0.027
-548.339	-90.542	-0.376	-0.109
-547.325	-98.384	0.057	0.015
-546.310	-166.766	0.222	0.009
-545.296	86.138	0.122	0.134
-544.281	-81.074	-0.258	0.086
-543.266	-200.000	-0.049	-0.242
-542.252	800.000	0.161	0.540
-541.237	-200.000	0.011	-0.163
-540.223	644.694	0.050	0.128
-539.208	-34.899	0.078	-0.042
-538.193	-97.736	-0.432	-0.112
-537.179	-200.000	0.029	0.189
-536.164	56.113	0.285	0.277
-535.150	161.580	0.221	0.310
-534.135	220.248	0.165	0.265
-533.121	-145.821	-0.441	0.039
-532.106	-200.000	0.004	0.293
-531.091	246.168	0.072	-0.121
-530.077	395.394	-0.047	-0.099
-529.062	-176.109	0.103	0.003
-528.048	-200.000	-0.006	-0.079
-527.033	-153.684	0.129	-0.009
-526.018	-95.906	-0.410	-0.109
-525.004	-29.636	0.408	-0.233
-523.989	445.554	-0.044	0.097
-522.975	-132.941	0.136	0.017
-521.960	228.060	0.150	0.245
-520.945	56.554	0.117	-0.114
-519.931	-78.917	0.249	-0.085
-518.916	-200.000	-0.007	-0.067
-517.902	-200.000	0.017	0.280
-516.887	-200.000	0.018	-0.208
-515.872	-200.000	-0.028	-0.426
-514.858	326.036	0.104	0.198
-513.843	-134.415	0.031	-0.004
-512.829	437.014	-0.126	0.274
-511.814	-40.056	-0.336	0.175
-510.799	-200.000	0.017	-0.297
-509.785	153.672	-0.067	-0.092
-508.770	-117.950	-0.400	-0.072
-507.756	-40.897	0.193	0.100
-506.741	34.341	-0.312	0.273
-505.726	-142.638	-0.210	-0.021
-504.712	-183.193	-0.310	-0.005
-503.697	-200.000	0.013	-0.074
-502.683	-200.000	-0.008	-0.251
-501.668	-109.201	0.150	0.032
-500.653	-200.000	-0.035	-0.249
-499.639	800.000	-0.027	0.102
-498.624	-80.326	-0.130	-0.043
-497.610	-146.907	-0.364	0.031
-496.595	-165.265	0.375	0.017
-495.581	-200.000	-0.009	0.053
-494.566	-82.943	0.384	-0.124
-493.551	223.382	0.105	-0.170
-492.537	60.041	0.109	-0.108
-491.522	183.954	-0.142	0.210
-490.508	207.281	0.212	-0.330
-489.493	26.261	0.461	-0.385
-488.478	800.000	-0.064	0.183
-487.464	-75.044	-0.067	0.024
-486.449	-200.000	0.020	0.122
-485.435	302.552	0.128	0.237
-484.420	-20.839	-0.020	0.012
-483.405	101.002	0.113	0.131
-482.391	-89.871	-0.151	-0.044
-481.376	75.270	0.183	0.193
-480.362	91.743	-0.136	-0.153
-479.347	-200.000	-0.047	-0.295
-478.332	265.785	-0.068	0.119
-477.318	-81.005	-0.359	0.119
-476.303	-200.000	-0.078	0.342
-475.289	284.233	-0.076	0.137
-474.274	800.000	-0.072	-0.233
-473.259	16.872	0.218	0.172
-472.245	-57.098	0.368	0.162
-471.230	-200.000	0.073	-0.380
-470.216	166.765	0.229	-0.324
-469.201	-147.493	0.387	0.033
-468.186	171.417	-0.058	0.083
-467.172	-200.000	0.063	-0.466
-466.157	-59.501	0.159	-0.068
-465.143	-93.368	0.149	0.041
-464.128	-153.720	-0.258	0.018
-463.113	-45.099	0.431	-0.214
-462.099	-200.000	-0.062	-0.298
-461.084	-136.982	-0.483	-0.055
-460.070	-145.157	-0.574	0.052
-459.055	-103.745	-0.126	0.030
-458.040	800.000	0.067	0.281
-457.026	-69.938	-0.212	-0.081
-456.011	-200.000	0.069	0.472
-454.997	89.359	-0.041	0.046
-453.982	800.000	0.037	0.102
-452.968	800.000	0.037	-0.157
-451.953	-200.000	0.060	-0.469
-450.938	-20.578	-0.147	0.090
-449.924	-100.989	-0.104	0.025
-448.909	35.266	0.254	-0.222
-447.895	-122.996	-0.295	-0.047
-446.880	-200.000	0.059	-0.386
-445.865	6.661	0.350	0.260
-444.851	-62.919	0.278	-0.115
-443.836	800.000	0.045	0.133
-442.822	-42.311	-0.191	0.097
-441.807	565.377	0.074	0.180
-440.792	449.027	0.035	0.077
-439.778	303.833	-0.103	-0.191
-438.763	-58.177	0.044	0.019
-437.749	351.532	0.288	-0.568
-436.734	524.356	0.010	0.023
-435.719	645.153	-0.092	-0.234
-434.705	88.330	0.118	0.131
-433.690	-11.249	0.418	-0.275
-432.676	55.484	-0.303	0.292
-431.661	315.430	0.202	-0.380
-430.646	-105.654	-0.250	-0.056
-429.632	-127.833	-0.240	-0.034
-428.617	800.000	-0.162	-0.477
-427.603	-200.000	0.020	-0.349
-426.588	-100.784	-0.122	-0.030
-425.573	-200.000	0.039	0.243
-424.559	71.257	0.132	0.137
-423.544	280.947	-0.111	0.199
-422.530	800.000	0.033	-0.103
-421.515	-131.465	-0.137	0.018
-420.500	-113.830	0.071	-0.014
-419.486	-200.000	0.063	0.287
-418.471	27.488	0.288	-0.242
-417.457	-14.393	-0.332	0.213
-416.442	-131.177	0.262	-0.035
-415.428	95.811	0.344	-0.391
-414.413	-200.000	-0.007	0.166
-413.398	-25.065	-0.250	0.148
-412.384	-32.297	-0.378	0.211
-411.369	-122.086	0.323	0.053
-410.355	3.809	0.395	-0.287
-409.340	-2.962	0.061	-0.042
-408.325	-200.000	-0.008	-0.058
-407.311	-200.000	-0.032	-0.236
-406.296	800.000	-0.083	0.275
-405.282	-3.129	0.160	0.111
-404.267	-119.489	0.331	-0.057
-403.252	-97.596	0.203	0.052
-402.238	357.677	-0.047	-0.093
-401.223	-200.000	0.005	-0.169
-400.209	2.389	-0.112	0.081
-399.194	-200.000	-0.040	0.229
-398.179	-148.716	0.255	-0.021
-397.165	-200.000	0.046	0.327
-396.150	800.000	0.075	0.261
-395.136	-72.798	-0.104	-0.038
-394.121	-200.000	-0.012	0.082
-393.106	800.000	0.030	-0.086
-392.092	-0.558	0.073	0.051
-391.077	742.107	-0.068	-0.182
-390.063	-65.386	-0.233	-0.093
-389.048	38.501	0.371	-0.329
-388.033	-43.299	0.149	0.075
-387.019	-200.000	-0.000	0.282
-386.004	-191.748	-0.245	-0.002
-384.990	800.000	0.037	-0.123
-383.975	-36.386	0.092	-0.049
-382.960	-200.000	-0.032	0.402
-381.946	-135.225	-0.137	0.016
-380.931	116.727	0.191	0.233
-379.917	-200.000	-0.003	-0.218
-378.902	17.895	0.274	-0.217
-377.888	15.115	-0.381	0.297
-376.873	-133.792	0.084	0.010
-375.858	-142.848	-0.161	0.016
-374.844	101.646	0.012	0.013
-373.829	252.549	-0.105	0.178
-372.815	-29.490	0.133	0.076
-371.800	-161.768	0.220	-0.011
-370.785	85.526	-0.299	0.327
-369.771	800.000	0.034	-0.112
-368.756	-68.142	0.472	0.183
-367.742	-20.539	0.298	-0.182
-366.727	45.596	-0.055	0.050
-365.712	-77.647	0.396	0.136
-364.698	800.000	-0.069	-0.210
-363.683	433.016	-0.033	-0.071
-362.669	-200.000	-0.025	0.263
-361.654	-34.999	-0.231	-0.125
-360.639	-188.890	-0.416	-0.005
-359.625	-88.918	-0.352	0.104
-358.610	167.780	-0.135	-0.192
-357.596	-160.387	-0.245	-0.013
-356.581	-200.000	-0.011	0.083
-355.566	59.912	-0.143	-0.140
-354.552	-95.935	-0.117	-0.031
-353.537	-119.783	-0.123	0.021
-352.523	800.000	0.047	0.186
-351.508	85.777	0.044	0.048
-350.493	-200.000	0.027	-0.186
-349.479	301.362	0.126	0.231
-348.464	-200.000	0.042	-0.267
-347.450	104.271	0.079	0.093
-346.435	-38.609	0.279	0.146
-345.420	-49.382	-0.044	-0.021
-344.406	371.554	-0.100	-0.203
-343.391	800.000	0.083	-0.303
-342.377	125.789	-0.137	-0.172
-341.362	-12.974	-0.065	-0.042
-340.348	156.264	0.294	-0.403
-339.333	-200.000	0.076	-0.406
-338.318	-200.000	-0.202	-0.001
-337.304	6.292	-0.129	0.095
-336.289	-77.018	0.271	-0.094
-335.275	18.474	0.140	0.111
-334.260	718.807	-0.113	0.297
-333.245	-200.000	0.055	0.246
-332.231	-184.488	-0.223	0.004
-331.216	-200.000	0.066	-0.346
-330.202	-93.578	-0.127	-0.035
-329.187	-200.000	-0.038	0.230
-328.172	-68.162	0.195	-0.076
-327.158	-200.000	0.004	-0.191
-326.143	-30.507	0.076	0.043
-325.129	74.887	-0.057	-0.060
-324.114	-200.000	0.279	0.001
-323.099	800.000	0.039	0.149
-322.085	76.972	-0.130	-0.137
-321.070	-182.609	-0.130	0.002
-320.056	-200.000	0.026	-0.419
-319.041	-14.693	-0.274	-0.175
-318.026	-200.000	0.011	0.286
-317.012	-73.818	0.265	-0.096
-315.997	129.612	-0.287	0.364
-314.983	104.642	-0.133	-0.155
-313.968	186.999	-0.097	-0.144
-312.953	177.357	0.213	-0.307
-311.939	-200.000	0.003	0.070
-310.924	800.000	0.077	0.276
-309.910	441.400	0.060	-0.130
-308.895	-200.000	-0.002	0.088
-307.880	35.102	0.269	-0.234
-306.866	110.877	0.117	0.140
-305.851	-82.260	-0.206	0.066
-304.837	662.976	-0.083	-0.212
-303.822	-200.000	-0.009	0.128
-302.807	672.323	-0.078	0.201
-301.793	108.011	-0.165	0.195
-300.778	-66.748	-0.131	0.051
-299.764	800.000	-0.064	0.256
-298.749	-126.235	-0.213	0.032
-297.735	10.520	-0.041	-0.031
-296.720	263.281	-0.062	-0.106
-295.705	-200.000	-0.021	0.224
-294.691	-200.000	0.029	0.281
-293.676	-12.153	-0.076	0.049
-292.662	-113.540	0.220	0.043
-291.647	74.893	0.192	0.201
-290.632	-200.000	0.050	0.260
-289.618	-200.000	-0.043	0.374
-288.603	258.411	0.116	-0.198
-287.589	-30.802	-0.074	0.041
-286.574	-4.045	0.295	0.203
-285.559	709.836	0.022	-0.058
-284.545	-32.224	0.275	0.152
-283.530	-119.409	-0.231	0.040
-282.516	-4.085	0.099	-0.068
-281.501	-26.719	0.071	0.041
-280.486	113.604	0.346	0.417
-279.472	65.935	-0.255	0.256
-278.457	-62.023	-0.350	-0.145
-277.443	-32.848	0.190	0.104
-276.428	545.378	-0.036	-0.085
-275.413	-200.000	0.027	-0.232
-274.399	-53.001	0.153	0.070
-273.384	25.220	0.100	0.083
-272.370	97.553	0.154	-0.175
-271.355	-200.000	-0.005	0.109
-270.340	781.805	0.195	0.529
-269.326	-126.111	-0.330	-0.049
-268.311	-25.569	0.313	-0.183
-267.297	-78.310	0.232	-0.079
-266.282	-100.525	-0.159	0.039
-265.267	-170.098	-0.090	0.003
-264.253	-200.000	-0.045	-0.241
-263.238	-162.345	-0.222	-0.011
-262.224	74.133	-0.120	0.125
-261.209	-57.445	-0.026	-0.011
-260.195	726.475	0.139	-0.368
-259.180	93.223	-0.317	0.355
-258.165	0.590	0.149	0.106
-257.151	223.439	-0.173	-0.276
-256.136	-200.000	0.008	0.064
-255.122	296.935	-0.139	-0.252
-254.107	32.916	0.131	-0.112
-253.092	-43.828	0.298	-0.149
-252.078	141.650	0.044	-0.057
-251.063	-119.944	-0.232	0.039
-250.049	284.284	-0.106	0.189
-249.034	-21.294	-0.032	-0.019
-248.019	800.000	0.086	0.240
-247.005	-177.187	-0.044	0.001
-245.990	-200.000	0.048	0.289
-244.976	0.204	-0.089	0.063
-243.961	-200.000	-0.005	-0.050
-242.946	-129.020	0.244	0.034
-241.932	-16.435	0.269	-0.169
-240.917	-18.812	-0.176	-0.109
-239.903	143.727	-0.034	0.044
-238.888	-200.000	-0.032	-0.213
-237.873	-131.207	0.086	-0.011
-236.859	58.095	-0.099	-0.096
-235.844	214.502	-0.181	-0.283
-234.830	-84.670	-0.127	0.040
-233.815	-200.000	0.013	-0.219
-232.800	-115.632	-0.158	0.029
-231.786	-151.914	0.299	0.022
-230.771	47.456	-0.222	-0.205
-229.757	-200.000	0.019	-0.145
-228.742	192.251	-0.100	-0.149
-227.727	-77.281	0.032	0.011
-226.713	-133.323	0.266	0.033
-225.698	593.852	0.107	0.261
-224.684	-41.765	0.222	0.112
-223.669	170.380	-0.134	0.190
-222.655	-20.559	-0.391	-0.238
-221.640	-133.763	0.209	0.026
-220.625	800.000	-0.022	-0.065
-219.611	800.000	-0.083	-0.276
-218.596	800.000	-0.062	0.188
-217.582	800.000	0.075	-0.247
-216.567	84.196	-0.191	-0.206
-215.552	-104.219	-0.406	-0.093
-214.538	-200.000	0.042	0.363
-213.523	-112.515	-0.293	-0.058
-212.509	-121.578	0.294	0.048
-211.494	-36.325	0.266	0.142
-210.479	543.365	0.008	0.019
-209.465	-200.000	0.040	-0.284
-208.450	-3.780	-0.246	-0.169
-207.436	-200.000	0.012	-0.170
-206.421	-200.000	-0.002	-0.099
-205.406	-200.000	-0.051	-0.315
-204.392	-69.348	0.420	-0.159
-203.377	-169.380	0.209	-0.008
-202.363	-93.599	-0.156	-0.043
-201.348	29.192	-0.165	0.138
-200.333	38.790	-0.100	0.088
-199.319	-107.069	0.095	-0.021
-198.304	-64.511	0.165	0.066
-197.290	107.795	0.137	-0.161
-196.275	-200.000	-0.039	0.256
-195.260	-200.000	-0.035	-0.203
-194.246	171.918	0.034	-0.048
-193.231	76.431	0.136	-0.142
-192.217	-20.658	0.278	0.169
-191.202	115.906	-0.234	-0.283
-190.187	-51.216	-0.109	-0.050
-189.173	9.053	0.293	0.219
-188.158	6.387	-0.041	-0.030
-187.144	-141.051	-0.083	-0.008
-186.129	304.766	-0.122	0.223
-185.114	-108.285	0.086	-0.018
-184.100	-165.615	-0.160	0.007
-183.085	-101.151	-0.131	0.032
-182.071	-181.159	0.160	0.003
-181.056	218.028	0.165	0.260
-180.042	201.238	-0.055	0.083
-179.027	-200.000	0.012	-0.182
-178.012	352.637	-0.158	0.310
-176.998	124.025	0.272	0.337
-175.983	27.085	0.226	0.188
-174.969	-27.144	-0.288	-0.166
-173.954	87.462	0.325	0.355
-172.939	-200.000	-0.039	-0.224
-171.925	-161.521	0.067	-0.003
-170.910	160.272	0.228	-0.314
-169.896	93.965	0.281	-0.315
-168.881	331.549	-0.090	0.171
-167.866	800.000	0.119	-0.335
-166.852	-54.370	-0.112	-0.050
-165.837	233.682	0.011	0.018
-164.823	-137.551	-0.472	-0.053
-163.808	-119.798	-0.191	0.033
-162.793	46.358	-0.069	-0.063
-161.779	-84.255	0.088	0.028
-160.764	261.329	-0.057	-0.097
-159.750	20.768	0.069	-0.056
-158.735	800.000	-0.038	0.144
-157.720	739.891	0.043	0.113
-156.706	192.404	-0.193	0.287
-155.691	-102.281	-0.128	0.030
-154.677	260.032	0.180	-0.307
-153.662	220.644	0.156	-0.246
-152.647	545.614	0.040	-0.094
-151.633	230.617	0.189	0.304
-150.618	800.000	0.080	0.255
-149.604	264.273	0.152	-0.260
-148.589	-85.830	0.250	0.076
-147.574	-200.000	-0.067	0.477
-146.560	-192.545	-0.068	-0.001
-145.545	-54.086	0.008	-0.003
-144.531	-154.393	0.110	0.007
-143.516	800.000	-0.054	-0.153
-142.502	670.334	-0.047	0.120
-141.487	800.000	-0.074	0.305
-140.472	54.658	0.149	0.142
-139.458	389.881	-0.094	0.193
-138.443	382.504	0.062	0.125
-137.429	-200.000	0.018	0.206
-136.414	-200.000	-0.032	0.250
-135.399	115.000	0.210	-0.253
-134.385	102.575	-0.073	-0.085
-133.370	-184.773	-0.073	-0.001
-132.356	186.016	0.122	-0.179
-131.341	-18.291	-0.129	0.080
-130.326	-200.000	-0.058	0.260
-129.312	-46.010	-0.318	-0.155
-128.297	64.071	-0.075	-0.074
-127.283	48.997	-0.079	0.074
-126.268	-200.000	0.020	-0.147
-125.253	45.820	-0.216	0.196
-124.239	-132.218	0.182	0.023
-123.224	58.388	0.051	0.049
-122.210	800.000	0.046	0.164
