DTS Sentinel unit serial number:	SN413079Multiplexer serial number:	ORYXHardware model number:	OX4-SRSoftware version number:	ORYX F/W v4.00 Oryx Data Collector v3.7.2.0data status	okinstallation	princeton_trtdifferential loss correction	single-endedforward channel	channel 2reverse channel	N/Adate	2019/09/17time	21:55:35forward acquisition time	60.00reverse acquisition time	0.00gamma	496.2192k internal	0.2342k external	0.2342temperature offset calibration	0.9990default loss term (dB/km)	0.3790temperature slope calibration	1.0000multiplexer offset coefficient	1.0000multiplexer slope coefficient	1.0000fibre end	0.00T internal ref (°C)	26.20T ext. ref 1 (°C)	0.18T ext. ref 2 (°C)	18.88length (m)	temperature (°C)	Stokes	anti-Stokes-747.200	-16.583	-0.081	-0.051
-746.185	-164.306	-0.159	0.007
-745.171	800.000	0.046	0.172
-744.156	280.699	-0.055	0.099
-743.142	-110.140	0.354	0.074
-742.127	69.278	0.071	-0.073
-741.112	-29.346	0.223	0.128
-740.098	-200.000	-0.083	0.379
-739.083	209.605	-0.097	0.152
-738.069	65.706	0.274	0.278
-737.054	112.362	0.186	0.225
-736.039	171.911	-0.243	-0.350
-735.025	215.289	-0.129	-0.206
-734.010	-94.401	-0.348	-0.095
-732.996	-44.219	-0.374	0.188
-731.981	-200.000	-0.006	-0.314
-730.966	800.000	-0.023	-0.092
-729.952	69.967	0.192	-0.198
-728.937	641.671	-0.058	-0.148
-727.923	-94.773	0.130	-0.035
-726.908	-136.967	-0.308	0.035
-725.894	-81.412	-0.201	-0.066
-724.879	441.186	0.099	0.216
-723.864	276.625	-0.039	0.070
-722.850	605.586	-0.085	-0.212
-721.835	473.964	-0.086	-0.194
-720.821	800.000	-0.140	-0.446
-719.806	480.643	-0.033	-0.075
-718.791	4.866	-0.259	-0.190
-717.777	37.136	-0.072	-0.064
-716.762	-53.581	-0.305	-0.139
-715.748	20.543	-0.281	-0.228
-714.733	153.367	-0.085	-0.117
-713.718	-200.000	0.003	-0.077
-712.704	-121.306	0.363	0.061
-711.689	800.000	-0.083	-0.328
-710.675	-69.980	0.273	0.104
-709.660	-63.385	-0.044	-0.018
-708.645	-200.000	-0.019	0.142
-707.631	246.488	0.088	0.148
-706.616	-60.478	0.288	-0.122
-705.602	800.000	0.083	-0.361
-704.587	395.366	0.034	-0.070
-703.572	-200.000	0.044	0.196
-702.558	-87.659	-0.139	0.042
-701.543	0.023	0.299	-0.213
-700.529	-60.012	-0.080	-0.034
-699.514	-71.203	-0.008	-0.003
-698.499	-74.620	0.304	0.109
-697.485	-75.050	0.093	0.033
-696.470	800.000	-0.051	0.161
-695.456	-200.000	0.014	-0.147
-694.441	94.613	0.053	0.060
-693.426	-200.000	-0.075	0.462
-692.412	324.769	0.086	-0.165
-691.397	800.000	-0.102	-0.441
-690.383	-60.633	-0.105	-0.045
-689.368	-200.000	-0.003	-0.533
-688.354	505.216	0.081	-0.187
-687.339	-34.996	-0.049	0.027
-686.324	-200.000	-0.043	0.289
-685.310	-200.000	-0.030	-0.172
-684.295	-200.000	0.008	-0.457
-683.281	94.381	0.194	-0.220
-682.266	-200.000	-0.007	-0.104
-681.251	229.641	-0.229	-0.373
-680.237	608.732	-0.096	0.239
-679.222	185.158	-0.114	-0.169
-678.208	-142.683	-0.239	-0.023
-677.193	-158.478	0.083	0.005
-676.178	-149.791	0.110	-0.009
-675.164	280.254	0.072	0.128
-674.149	639.453	-0.120	-0.304
-673.135	-169.248	-0.032	-0.001
-672.120	-200.000	0.035	0.245
-671.105	183.590	-0.120	-0.177
-670.091	196.818	-0.124	0.188
-669.076	46.689	-0.187	0.173
-668.062	57.361	-0.118	-0.115
-667.047	-70.718	-0.455	0.171
-666.032	-18.362	-0.186	0.116
-665.018	800.000	0.086	0.316
-664.003	-74.485	-0.206	-0.074
-662.989	-200.000	0.027	0.160
-661.974	-52.323	0.062	-0.029
-660.959	-200.000	0.004	-0.278
-659.945	-133.212	0.119	0.015
-658.930	-200.000	0.001	-0.049
-657.916	410.124	-0.090	-0.190
-656.901	356.002	0.143	-0.284
-655.886	-71.920	0.163	0.060
-654.872	-85.655	0.255	-0.079
-653.857	49.826	-0.060	-0.056
-652.843	285.135	0.264	0.475
-651.828	-85.720	0.315	0.098
-650.814	-200.000	0.090	-0.402
-649.799	74.885	0.228	0.239
-648.784	-200.000	-0.035	0.255
-647.770	489.749	-0.104	0.238
-646.755	-200.000	0.044	0.230
-645.741	169.796	0.157	-0.223
-644.726	126.525	-0.048	-0.060
-643.711	357.963	0.026	-0.052
-642.697	347.066	-0.102	0.201
-641.682	241.751	0.091	-0.151
-640.668	303.784	-0.209	-0.386
-639.653	-32.496	0.067	0.037
-638.638	-108.447	-0.083	-0.018
-637.624	-200.000	0.004	-0.244
-636.609	-200.000	-0.081	-0.404
-635.595	-46.533	0.099	-0.049
-634.580	383.934	0.066	-0.136
-633.565	750.713	0.165	-0.443
-632.551	241.240	0.062	0.104
-631.536	23.078	0.244	0.200
-630.522	526.653	0.103	-0.242
-629.507	753.751	-0.067	-0.180
-628.492	14.019	0.181	0.141
-627.478	113.754	-0.107	-0.129
-626.463	556.223	-0.123	-0.294
-625.449	-66.187	-0.333	0.132
-624.434	800.000	0.052	0.182
-623.419	800.000	-0.127	-0.369
-622.405	-200.000	-0.016	-0.131
-621.390	-119.696	0.233	-0.040
-620.376	43.595	-0.031	-0.029
-619.361	-141.303	0.139	-0.014
-618.346	-200.000	-0.072	-0.486
-617.332	1.358	-0.073	-0.052
-616.317	800.000	0.146	-0.423
-615.303	-200.000	0.007	-0.079
-614.288	-200.000	0.106	0.597
-613.273	544.248	0.072	0.172
-612.259	800.000	-0.127	-0.354
-611.244	-48.738	0.279	-0.133
-610.230	89.618	-0.063	0.070
-609.215	800.000	-0.020	0.064
-608.201	-200.000	0.009	0.184
-607.186	-133.177	-0.150	0.019
-606.171	-165.496	-0.081	-0.004
-605.157	-56.846	0.215	-0.095
-604.142	78.708	0.258	-0.275
-603.128	106.298	0.101	0.119
-602.113	-66.917	0.329	0.129
-601.098	800.000	-0.138	-0.452
-600.084	-112.492	0.133	-0.026
-599.069	-64.226	0.072	0.029
-598.055	94.083	0.191	0.215
-597.040	32.964	0.386	0.333
-596.025	24.080	-0.149	-0.122
-595.011	-200.000	-0.007	0.328
-593.996	1.227	-0.213	0.152
-592.982	-67.594	0.115	-0.045
-591.967	-200.000	0.022	-0.469
-590.952	39.681	-0.086	-0.077
-589.938	-96.745	-0.235	0.062
-588.923	-128.838	-0.141	-0.020
-587.909	89.138	-0.203	0.225
-586.894	270.513	0.179	0.314
-585.879	410.341	-0.132	-0.278
-584.865	121.890	-0.158	-0.197
-583.850	309.778	0.123	0.229
-582.836	489.601	0.072	-0.164
-581.821	-126.314	-0.425	-0.063
-580.806	-64.411	0.108	0.044
-579.792	-200.000	-0.103	-0.464
-578.777	800.000	0.031	0.091
-577.763	-189.876	-0.090	-0.001
-576.748	795.711	0.105	0.287
-575.733	159.148	-0.142	-0.196
-574.719	182.214	-0.092	0.134
-573.704	236.538	0.098	-0.162
-572.690	-99.193	0.222	-0.056
-571.675	-200.000	-0.034	-0.155
-570.661	101.505	-0.101	-0.117
-569.646	-118.138	0.299	-0.053
-568.631	259.139	0.055	0.095
-567.617	-105.582	0.187	-0.042
-566.602	-152.660	0.302	-0.021
-565.588	-119.346	0.236	-0.041
-564.573	-24.277	0.209	0.124
-563.558	800.000	-0.107	0.345
-562.544	-57.507	-0.177	0.077
-561.529	-200.000	-0.030	0.264
-560.515	800.000	-0.107	0.351
-559.500	-123.541	-0.456	-0.072
-558.485	624.701	-0.160	-0.402
-557.471	134.167	0.117	0.151
-556.456	-200.000	0.005	0.087
-555.442	-200.000	0.003	-0.251
-554.427	800.000	-0.024	-0.070
-553.412	-200.000	0.039	-0.225
-552.398	664.715	0.048	-0.124
-551.383	800.000	0.040	0.115
-550.369	-88.880	-0.211	-0.062
-549.354	-87.658	-0.248	-0.074
-548.339	556.970	0.113	0.271
-547.325	800.000	0.076	0.246
-546.310	-65.636	0.256	0.102
-545.296	16.962	-0.186	0.147
-544.281	-86.151	0.388	-0.119
-543.266	-88.219	0.279	-0.083
-542.252	58.049	0.031	-0.030
-541.237	-31.158	-0.021	0.012
-540.223	-64.018	-0.075	-0.031
-539.208	800.000	-0.160	-0.458
-538.193	-192.904	0.185	-0.002
-537.179	-188.876	-0.346	0.004
-536.164	-195.640	-0.304	0.002
-535.150	-3.228	0.222	0.154
-534.135	-200.000	-0.050	-0.472
-533.121	-12.390	-0.392	0.254
-532.106	-0.606	-0.269	0.190
-531.091	-200.000	-0.011	0.136
-530.077	35.185	-0.212	-0.184
-529.062	449.313	-0.116	-0.253
-528.048	-29.123	-0.077	-0.044
-527.033	53.611	-0.337	-0.321
-526.018	67.811	-0.104	0.106
-525.004	-155.395	-0.111	0.007
-523.989	-3.216	0.382	-0.264
-522.975	-41.366	0.181	0.092
-521.960	29.022	0.244	0.206
-520.945	-105.974	-0.017	0.004
-519.931	409.992	-0.081	-0.171
-518.916	178.272	0.147	0.213
-517.902	-200.000	0.031	-0.210
-516.887	167.349	0.246	-0.347
-515.872	800.000	0.084	-0.246
-514.858	-63.858	-0.133	0.054
-513.843	449.528	-0.062	0.135
-512.829	-200.000	-0.043	0.315
-511.814	-8.061	-0.138	-0.092
-510.799	530.806	-0.063	0.147
-509.785	-91.682	-0.073	-0.021
-508.770	-200.000	-0.038	0.175
-507.756	172.208	-0.162	-0.232
-506.741	761.517	-0.048	-0.130
-505.726	-122.099	-0.144	-0.023
-504.712	-200.000	0.025	0.326
-503.697	-1.975	-0.158	0.110
-502.683	-111.780	-0.252	-0.051
-501.668	-200.000	0.018	0.470
-500.653	-56.710	0.354	0.156
-499.639	-143.351	-0.188	-0.018
-498.624	-155.781	0.199	0.013
-497.610	-131.026	0.251	-0.033
-496.595	-51.221	0.328	-0.152
-495.581	-76.192	0.037	0.013
-494.566	-200.000	-0.025	0.175
-493.551	-125.114	0.154	-0.023
-492.537	83.316	-0.038	-0.041
-491.522	800.000	-0.025	0.100
-490.508	-35.951	-0.292	-0.157
-489.493	800.000	-0.096	0.335
-488.478	204.101	-0.136	-0.209
-487.464	493.962	0.086	0.195
-486.449	-54.121	0.195	0.088
-485.435	-142.634	0.117	-0.011
-484.420	-100.980	-0.238	0.058
-483.405	299.990	-0.277	0.505
-482.391	348.035	-0.084	0.163
-481.376	-200.000	-0.009	-0.100
-480.362	-98.626	0.252	-0.064
-479.347	262.609	-0.134	-0.231
-478.332	107.404	-0.125	-0.148
-477.318	33.450	0.230	-0.198
-476.303	52.142	0.286	-0.270
-475.289	-37.014	0.317	0.169
-474.274	-89.307	-0.197	0.057
-473.259	800.000	0.090	-0.255
-472.245	-55.770	-0.145	-0.064
-471.230	-21.151	0.357	-0.216
-470.216	-172.555	-0.072	0.002
-469.201	-131.020	0.094	-0.012
-468.186	-91.434	0.137	-0.039
-467.172	800.000	-0.100	0.352
-466.157	80.331	-0.177	-0.189
-465.143	-55.241	-0.218	-0.097
-464.128	-170.065	-0.332	-0.012
-463.113	-31.693	0.074	-0.041
-462.099	-200.000	-0.010	-0.075
-461.084	30.508	0.074	0.062
-460.070	-49.844	-0.210	-0.099
-459.055	98.578	-0.133	-0.152
-458.040	9.123	0.121	-0.090
-457.026	-63.777	-0.309	0.125
-456.011	-51.189	-0.332	0.154
-454.997	-111.809	-0.274	0.055
-453.982	-78.872	0.429	-0.145
-452.968	222.925	-0.267	0.426
-451.953	-104.900	-0.031	0.007
-450.938	-76.838	-0.142	-0.049
-449.924	-126.475	-0.069	-0.010
-448.909	-48.202	0.125	-0.060
-447.895	333.585	0.036	0.069
-446.880	293.338	0.134	-0.242
-445.865	604.493	0.050	0.123
-444.851	-84.397	0.365	-0.114
-443.836	-111.002	-0.488	0.099
-442.822	800.000	0.035	-0.099
-441.807	-66.332	-0.312	0.123
-440.792	800.000	0.097	-0.333
-439.778	-200.000	-0.002	-0.054
-438.763	35.641	-0.126	-0.110
-437.749	334.164	-0.067	-0.128
-436.734	-83.096	0.573	-0.182
-435.719	30.345	0.118	-0.099
-434.705	231.741	-0.154	-0.249
-433.690	800.000	-0.044	0.139
-432.676	-4.367	0.213	-0.146
-431.661	-137.417	-0.162	0.018
-430.646	244.938	-0.051	0.085
-429.632	-26.248	0.090	0.052
-428.617	728.961	0.042	-0.112
-427.603	-80.630	-0.389	0.128
-426.588	-23.767	-0.026	0.015
-425.573	-200.000	0.006	-0.085
-424.559	-200.000	-0.007	-0.158
-423.544	-110.076	-0.068	0.014
-422.530	-47.247	-0.092	-0.045
-421.515	-146.161	0.162	-0.014
-420.500	-14.453	-0.257	0.163
-419.486	-29.920	0.210	-0.118
-418.471	592.106	0.076	-0.187
-417.457	-61.366	-0.118	-0.049
-416.442	733.079	0.115	-0.304
-415.428	18.659	0.098	-0.078
-414.413	256.661	-0.063	0.106
-413.398	-132.043	-0.105	0.014
-412.384	-51.880	-0.236	0.109
-411.369	-132.696	0.217	-0.027
-410.355	-200.000	0.055	-0.281
-409.340	-2.048	-0.267	-0.185
-408.325	-200.000	-0.007	-0.246
-407.311	751.409	-0.124	0.331
-406.296	800.000	-0.056	0.225
-405.282	-35.405	-0.102	-0.055
-404.267	-200.000	-0.080	0.371
-403.252	121.063	-0.186	0.228
-402.238	86.539	0.174	-0.190
-401.223	41.849	-0.107	-0.096
-400.209	-160.718	-0.141	0.007
-399.194	-74.382	0.174	0.062
-398.179	-200.000	0.006	0.432
-397.165	-113.171	0.275	-0.054
-396.150	-69.941	-0.264	0.100
-395.136	800.000	-0.088	0.283
-394.121	10.868	0.097	0.073
-393.106	-97.318	-0.143	-0.037
-392.092	-200.000	-0.016	0.166
-391.077	587.013	0.064	0.157
-390.063	-200.000	0.023	-0.323
-389.048	800.000	-0.020	-0.083
-388.033	-14.436	0.120	-0.076
-387.019	18.311	0.200	0.158
-386.004	-119.824	0.092	0.016
-384.990	45.028	0.305	-0.277
-383.975	-118.468	-0.254	-0.044
-382.960	-105.025	0.293	0.066
-381.946	-23.914	0.204	0.120
-380.931	171.450	0.078	-0.110
-379.917	800.000	-0.047	-0.145
-378.902	167.831	-0.252	0.354
-377.888	88.698	-0.104	0.114
-376.873	-200.000	-0.012	0.139
-375.858	520.199	0.095	0.221
-374.844	400.415	0.059	-0.121
-373.829	-0.726	0.085	0.059
-372.815	-31.697	-0.184	-0.102
-371.800	189.111	-0.167	0.247
-370.785	-200.000	-0.026	-0.132
-369.771	-200.000	-0.014	-0.413
-368.756	613.173	0.044	-0.110
-367.742	293.346	-0.066	-0.118
-366.727	-75.030	-0.198	-0.070
-365.712	120.353	-0.130	0.159
-364.698	-32.911	-0.180	0.099
-363.683	-200.000	-0.039	-0.174
-362.669	430.027	-0.149	-0.319
-361.654	51.618	-0.283	-0.265
-360.639	-12.518	-0.161	0.104
-359.625	-172.266	0.165	-0.005
-358.610	793.517	-0.151	-0.409
-357.596	-152.571	0.265	0.019
-356.581	-200.000	-0.004	0.066
-355.566	-200.000	-0.005	0.269
-354.552	-68.153	0.160	-0.061
-353.537	-200.000	0.029	0.171
-352.523	-39.058	0.204	0.106
-351.508	-73.616	0.275	-0.099
-350.493	-159.468	0.238	0.013
-349.479	-50.903	-0.311	-0.144
-348.464	377.934	-0.064	0.129
-347.450	655.026	0.076	0.192
-346.435	15.968	0.263	0.204
-345.420	480.859	0.198	0.442
-344.406	-31.117	-0.064	-0.035
-343.391	800.000	0.083	-0.260
-342.377	-200.000	-0.007	0.135
-341.362	353.822	0.082	-0.161
-340.348	-200.000	-0.065	-0.373
-339.333	-200.000	-0.001	-0.021
-338.318	-200.000	-0.020	0.161
-337.304	295.584	0.238	0.430
-336.289	48.603	0.202	-0.186
-335.275	16.509	-0.112	-0.087
-334.260	624.749	0.102	-0.255
-333.245	236.198	-0.201	0.327
-332.231	-71.756	0.103	-0.038
-331.216	36.388	0.259	-0.225
-330.202	800.000	0.040	0.163
-329.187	-62.685	0.139	-0.057
-328.172	-56.185	-0.260	0.114
-327.158	14.615	0.358	-0.276
-326.143	-37.954	0.130	-0.068
-325.129	133.985	-0.056	-0.071
-324.114	689.015	0.125	0.323
-323.099	-200.000	0.022	0.133
-322.085	84.636	0.091	-0.099
-321.070	145.896	-0.201	-0.265
-320.056	-174.317	-0.150	-0.004
-319.041	9.577	-0.179	-0.134
-318.026	-200.000	0.000	0.221
-317.012	42.218	-0.076	-0.068
-315.997	-200.000	0.063	0.359
-314.983	-191.840	0.249	-0.002
-313.968	9.085	-0.065	0.048
-312.953	800.000	0.051	-0.195
-311.939	66.860	-0.092	0.092
-310.924	412.003	0.013	0.027
-309.910	222.713	-0.207	0.329
-308.895	90.294	-0.217	-0.239
-307.880	-11.862	-0.220	0.142
-306.866	-133.380	0.267	-0.033
-305.851	16.662	-0.086	0.067
-304.837	306.183	0.121	0.221
-303.822	800.000	0.027	-0.094
-302.807	186.359	0.068	-0.100
-301.793	408.054	0.123	-0.256
-300.778	443.678	0.011	0.024
-299.764	273.139	-0.068	-0.118
-298.749	125.595	-0.101	0.125
-297.735	206.056	-0.164	0.251
-296.720	-200.000	-0.051	-0.249
-295.705	63.632	0.203	0.201
-294.691	53.134	-0.061	-0.058
-293.676	-200.000	-0.021	-0.199
-292.662	-200.000	-0.036	-0.168
-291.647	-125.694	0.157	-0.023
-290.632	31.672	0.081	-0.068
-289.618	250.964	0.283	-0.473
-288.603	-200.000	-0.002	-0.012
-287.589	96.324	0.148	-0.167
-286.574	335.624	0.167	-0.318
-285.559	685.987	0.078	-0.201
-284.545	-200.000	-0.008	0.039
-283.530	-111.808	-0.222	0.044
-282.516	-57.680	-0.133	0.057
-281.501	-87.364	0.456	0.136
-280.486	505.663	0.061	0.138
-279.472	339.463	-0.099	-0.189
-278.457	-200.000	0.042	0.218
-277.443	-4.935	-0.382	-0.259
-276.428	-168.351	-0.068	-0.003
-275.413	-75.540	-0.210	0.074
-274.399	24.402	0.127	-0.104
-273.384	513.746	0.095	-0.217
-272.370	-158.297	-0.393	0.023
-271.355	-200.000	0.004	0.138
-270.340	-200.000	0.036	0.231
-269.326	177.592	-0.209	0.300
-268.311	645.782	-0.101	-0.253
-267.297	59.852	0.163	0.158
-266.282	-50.259	-0.176	0.082
-265.267	395.351	-0.089	0.182
-264.253	-159.791	-0.208	0.011
-263.238	14.085	-0.236	-0.181
-262.224	105.615	0.038	0.045
-261.209	-58.065	0.467	0.200
-260.195	800.000	-0.028	-0.117
-259.180	291.436	-0.052	0.092
-258.165	-149.895	-0.144	0.011
-257.151	265.374	0.013	0.022
-256.136	-200.000	-0.050	0.337
-255.122	722.282	0.113	0.295
-254.107	-37.108	-0.158	0.083
-253.092	800.000	-0.063	0.248
-252.078	800.000	0.034	0.135
-251.063	-155.512	0.355	-0.023
-250.049	29.663	0.027	-0.022
-249.034	-171.149	-0.267	-0.009
-248.019	-200.000	0.027	-0.152
-247.005	630.645	0.090	-0.225
-245.990	-200.000	0.013	-0.112
-244.976	183.846	-0.019	-0.027
-243.961	800.000	0.067	0.218
-242.946	-28.517	0.220	0.124
-241.932	-72.675	-0.233	-0.084
-240.917	49.835	0.127	0.117
-239.903	-133.144	-0.396	0.049
-238.888	-127.064	0.453	0.065
-237.873	-32.711	0.088	0.048
-236.859	-77.128	-0.078	-0.027
-235.844	49.278	-0.050	-0.046
-234.830	-172.623	0.188	0.006
-233.815	-1.145	0.503	-0.349
-232.800	427.750	-0.032	-0.068
-231.786	-163.018	-0.121	0.006
-230.771	800.000	-0.098	-0.269
-229.757	800.000	0.058	0.194
-228.742	-48.325	0.356	-0.168
-227.727	-172.786	-0.137	-0.004
-226.713	-78.559	0.205	-0.069
-225.698	375.073	0.060	0.119
-224.684	800.000	0.019	0.058
-223.669	-110.309	0.163	0.033
-222.655	-46.005	0.120	0.058
-221.640	-187.273	-0.388	0.005
-220.625	-200.000	-0.014	-0.327
-219.611	-132.909	-0.113	-0.014
-218.596	800.000	0.099	0.305
-217.582	-150.063	-0.202	0.015
-216.567	-102.653	0.133	-0.031
-215.552	23.843	0.138	-0.111
-214.538	-200.000	-0.007	-0.243
-213.523	112.412	-0.250	-0.296
-212.509	52.155	0.167	0.156
-211.494	-142.470	0.143	-0.014
-210.479	-117.886	-0.487	-0.086
-209.465	-117.040	0.114	0.020
-208.450	-200.000	0.008	0.092
-207.436	800.000	-0.035	0.109
-206.421	6.479	0.179	-0.130
-205.406	800.000	-0.042	-0.122
-204.392	-91.084	0.166	-0.047
-203.377	800.000	-0.166	0.489
-202.363	-122.859	0.410	-0.065
-201.348	350.806	0.038	-0.074
-200.333	59.564	-0.222	-0.215
-199.319	-114.513	-0.372	-0.070
-198.304	-61.811	0.163	0.067
-197.290	-83.659	-0.070	0.022
-196.275	188.518	0.066	0.097
-195.260	-200.000	0.019	0.278
-194.246	-200.000	0.024	0.273
-193.231	410.664	-0.050	0.104
-192.217	597.460	0.187	0.453
-191.202	-200.000	-0.002	0.259
-190.187	-107.092	-0.298	0.065
-189.173	76.266	0.266	0.277
-188.158	692.992	0.071	0.182
-187.144	-144.696	0.176	-0.016
-186.129	107.364	0.045	0.053
-185.114	-200.000	0.007	-0.051
-184.100	800.000	-0.016	0.057
-183.085	343.296	0.085	0.163
-182.071	119.790	0.099	-0.120
-181.056	800.000	0.131	0.527
-180.042	476.955	0.158	-0.350
-179.027	-200.000	-0.017	-0.196
-178.012	-52.465	0.206	0.093
-176.998	-40.116	0.055	0.028
-175.983	41.410	-0.204	0.181
-174.969	57.207	-0.157	-0.150
-173.954	-200.000	0.016	-0.075
-172.939	-131.592	-0.289	-0.037
-171.925	42.871	0.123	0.110
-170.910	-136.117	0.095	-0.011
-169.896	40.173	0.075	-0.066
-168.881	-200.000	-0.031	0.341
-167.866	-108.191	0.248	0.053
-166.852	-15.492	-0.214	0.134
-165.837	167.004	0.027	0.037
-164.823	-105.111	0.163	0.036
-163.808	-140.450	-0.189	0.019
-162.793	559.081	-0.160	0.379
-161.779	63.045	0.290	0.284
-160.764	-98.569	0.027	-0.007
-159.750	75.843	-0.113	0.117
-158.735	-169.548	-0.196	-0.007
-157.720	-89.214	-0.207	-0.060
-156.706	614.671	-0.080	0.195
-155.691	404.668	-0.207	0.427
-154.677	-84.542	-0.323	-0.100
-153.662	-200.000	-0.008	0.042
-152.647	-105.885	-0.080	0.018
-151.633	-120.168	0.174	-0.029
-150.618	-150.397	0.116	0.009
-149.604	800.000	0.093	0.360
-148.589	223.383	-0.116	0.183
-147.574	267.219	-0.068	0.117
-146.560	91.302	0.205	-0.225
-145.545	800.000	0.041	-0.132
-144.531	-200.000	0.027	0.469
-143.516	68.129	0.037	-0.038
-142.502	5.759	-0.157	0.113
-141.487	-95.891	0.100	0.026
-140.472	-200.000	0.040	0.277
-139.458	186.461	0.041	0.059
-138.443	74.235	-0.268	-0.275
-137.429	-100.687	-0.271	-0.065
-136.414	-35.618	0.179	-0.095
-135.399	135.065	0.161	-0.205
-134.385	403.957	-0.069	0.142
-133.370	-200.000	-0.025	-0.296
-132.356	178.707	0.142	0.203
-131.341	800.000	0.102	-0.294
-130.326	-200.000	0.042	-0.211
-129.312	202.375	0.066	0.099
-128.297	-59.582	-0.382	0.160
-127.283	800.000	-0.095	-0.306
-126.268	-200.000	0.015	0.132
-125.253	507.580	0.043	0.097
-124.239	800.000	-0.041	-0.116
-123.224	135.902	-0.268	0.341
-122.210	72.491	-0.318	-0.324
