DTS Sentinel unit serial number:	SN413079Multiplexer serial number:	ORYXHardware model number:	OX4-SRSoftware version number:	ORYX F/W v4.00 Oryx Data Collector v3.7.2.0data status	okinstallation	princeton_trtdifferential loss correction	single-endedforward channel	channel 2reverse channel	N/Adate	2019/09/14time	18:47:34forward acquisition time	60.00reverse acquisition time	0.00gamma	496.2192k internal	0.2320k external	0.2320temperature offset calibration	1.0099default loss term (dB/km)	0.3790temperature slope calibration	1.0000multiplexer offset coefficient	1.0000multiplexer slope coefficient	1.0000fibre end	0.00T internal ref (°C)	36.05T ext. ref 1 (°C)	4.89T ext. ref 2 (°C)	29.80length (m)	temperature (°C)	Stokes	anti-Stokes-747.200	-16.722	0.319	0.204
-746.185	-48.176	-0.096	0.047
-745.171	-200.000	-0.035	-0.190
-744.156	800.000	0.094	0.294
-743.142	-102.318	-0.559	-0.136
-742.127	-3.597	0.084	-0.059
-741.112	81.585	-0.129	0.141
-740.098	147.587	0.130	0.177
-739.083	247.270	-0.047	-0.080
-738.069	-91.162	0.054	-0.016
-737.054	371.124	0.158	-0.324
-736.039	-113.604	-0.579	0.114
-735.025	81.342	-0.099	0.108
-734.010	-39.491	0.255	-0.135
-732.996	-200.000	-0.082	-0.403
-731.981	-102.967	0.106	0.025
-730.966	183.614	0.226	0.337
-729.952	596.527	-0.033	-0.083
-728.937	216.860	0.207	-0.332
-727.923	193.215	0.128	-0.195
-726.908	-95.049	-0.316	0.086
-725.894	-53.315	-0.091	0.042
-724.879	-200.000	-0.054	0.253
-723.864	407.646	-0.123	0.262
-722.850	71.208	0.094	-0.099
-721.835	-125.311	-0.217	-0.033
-720.821	-42.258	0.251	-0.130
-719.806	-61.080	0.069	-0.030
-718.791	40.035	0.001	-0.001
-717.777	-48.113	-0.168	0.082
-716.762	0.171	0.072	-0.052
-715.748	49.455	0.328	-0.311
-714.733	466.556	-0.249	0.565
-713.718	-137.159	-0.347	0.040
-712.704	-45.471	-0.199	0.100
-711.689	-64.537	-0.088	0.036
-710.675	-90.597	-0.128	-0.037
-709.660	186.810	0.129	0.194
-708.645	-153.109	-0.219	0.016
-707.631	-93.731	0.156	0.044
-706.616	-35.159	0.071	0.039
-705.602	800.000	0.067	-0.208
-704.587	30.580	-0.098	-0.085
-703.572	-58.261	-0.064	0.028
-702.558	136.877	0.031	-0.041
-701.543	800.000	0.069	-0.295
-700.529	-42.776	-0.123	-0.063
-699.514	186.635	0.120	-0.181
-698.499	227.312	0.030	0.049
-697.485	416.372	-0.141	-0.305
-696.470	-53.843	0.192	0.088
-695.456	362.869	0.059	0.119
-694.441	134.801	-0.075	0.098
-693.426	210.667	-0.239	0.379
-692.412	33.405	0.128	-0.112
-691.397	-76.504	-0.132	-0.047
-690.383	-96.451	-0.272	0.072
-689.368	-57.533	-0.059	0.026
-688.354	-75.510	0.558	0.200
-687.339	800.000	-0.039	0.160
-686.324	-70.974	0.296	-0.113
-685.310	56.770	0.243	0.239
-684.295	-75.329	-0.101	0.036
-683.281	409.058	-0.092	-0.197
-682.266	-200.000	0.026	0.165
-681.251	-200.000	-0.002	0.119
-680.237	42.992	0.036	-0.033
-679.222	336.127	0.034	-0.066
-678.208	167.888	-0.181	0.259
-677.193	92.572	0.139	0.158
-676.178	-200.000	-0.019	0.212
-675.164	800.000	-0.059	-0.244
-674.149	-63.869	0.005	-0.002
-673.135	88.690	-0.175	-0.196
-672.120	67.911	0.067	0.070
-671.105	-12.590	-0.226	0.149
-670.091	-145.693	0.330	-0.030
-669.076	-60.854	0.147	0.063
-668.062	-130.966	-0.311	0.042
-667.047	46.562	-0.143	0.133
-666.032	326.352	0.159	0.307
-665.018	95.236	-0.110	0.126
-664.003	-200.000	0.017	0.138
-662.989	331.770	-0.020	-0.040
-661.974	-163.806	-0.088	0.004
-660.959	187.477	-0.034	0.051
-659.945	130.416	0.086	-0.111
-658.930	574.181	-0.104	-0.255
-657.916	-149.474	0.245	-0.020
-656.901	19.548	0.204	-0.165
-655.886	-123.146	-0.063	0.010
-654.872	-133.401	-0.284	0.036
-653.857	369.612	0.072	0.148
-652.843	-38.420	-0.462	-0.246
-651.828	102.069	-0.114	-0.134
-650.814	-125.800	-0.204	0.031
-649.799	-131.570	0.272	-0.036
-648.784	-169.158	-0.240	-0.009
-647.770	42.495	-0.077	0.071
-646.755	-69.024	-0.289	0.112
-645.741	-148.411	-0.052	-0.004
-644.726	132.528	-0.143	-0.186
-643.711	800.000	-0.045	-0.151
-642.697	49.577	0.250	0.237
-641.682	48.582	0.099	-0.094
-640.668	-94.734	0.240	-0.066
-639.653	-189.287	0.136	0.002
-638.638	-73.434	-0.278	-0.102
-637.624	21.880	-0.374	-0.307
-636.609	-200.000	-0.006	0.116
-635.595	-3.145	0.143	-0.101
-634.580	-17.172	0.109	-0.069
-633.565	-164.114	-0.229	0.011
-632.551	140.710	-0.179	-0.238
-631.536	-108.003	-0.176	-0.038
-630.522	7.729	0.038	0.029
-629.507	-141.937	0.257	-0.026
-628.492	-119.288	-0.279	-0.049
-627.478	800.000	0.132	-0.409
-626.463	11.074	0.240	-0.185
-625.449	-36.687	-0.325	0.176
-624.434	-127.756	-0.271	-0.039
-623.419	11.504	0.183	-0.141
-622.405	-97.612	0.359	-0.094
-621.390	341.117	0.062	-0.121
-620.376	-200.000	-0.039	-0.329
-619.361	99.743	-0.204	0.238
-618.346	-98.321	-0.309	0.080
-617.332	702.849	-0.091	-0.242
-616.317	93.183	-0.126	0.143
-615.303	-95.676	0.277	0.074
-614.288	15.965	0.081	-0.065
-613.273	-31.401	0.085	-0.048
-612.259	-4.810	0.183	0.127
-611.244	-126.679	0.103	0.015
-610.230	-142.039	0.216	0.022
-609.215	6.148	0.047	0.035
-608.201	-56.226	0.153	0.068
-607.186	800.000	-0.086	0.251
-606.171	-109.348	0.037	-0.008
-605.157	43.250	-0.362	-0.332
-604.142	232.409	-0.046	-0.076
-603.128	800.000	0.074	-0.315
-602.113	740.372	-0.106	-0.285
-601.098	90.678	0.164	-0.184
-600.084	-79.913	-0.255	-0.086
-599.069	-200.000	0.002	-0.031
-598.055	-49.832	-0.154	-0.074
-597.040	800.000	-0.019	0.071
-596.025	41.150	-0.059	-0.053
-595.011	-133.838	0.223	0.028
-593.996	-156.560	-0.279	-0.017
-592.982	-32.187	-0.209	0.118
-591.967	116.922	-0.061	-0.076
-590.952	104.573	-0.066	-0.078
-589.938	44.595	0.013	0.012
-588.923	234.155	0.039	0.065
-587.909	-99.740	0.122	-0.031
-586.894	55.757	0.153	0.149
-585.879	-200.000	-0.018	0.346
-584.865	-200.000	0.008	0.192
-583.850	-200.000	0.025	0.138
-582.836	-200.000	-0.053	0.239
-581.821	-122.433	-0.352	-0.058
-580.806	-83.813	0.159	0.051
-579.792	-33.483	0.189	-0.105
-578.777	-98.414	-0.139	0.036
-577.763	58.089	0.261	0.257
-576.748	-200.000	0.005	0.060
-575.733	-72.918	-0.050	0.018
-574.719	-200.000	0.007	-0.164
-573.704	42.120	-0.132	-0.120
-572.690	-200.000	-0.024	-0.257
-571.675	30.278	0.173	0.148
-570.661	668.837	-0.073	-0.190
-569.646	-16.776	-0.099	-0.063
-568.631	691.211	-0.116	0.306
-567.617	-200.000	-0.019	0.398
-566.602	394.924	0.093	-0.195
-565.588	-10.749	0.091	-0.060
-564.573	-97.077	-0.292	-0.077
-563.558	75.429	0.115	0.121
-562.544	212.197	0.167	0.264
-561.529	-200.000	0.006	0.193
-560.515	-200.000	-0.037	-0.186
-559.500	328.051	0.153	0.295
-558.485	-147.238	-0.088	0.008
-557.471	-72.374	0.146	0.054
-556.456	-200.000	0.013	0.062
-555.442	88.843	0.116	0.129
-554.427	24.035	0.255	-0.211
-553.412	-200.000	-0.013	-0.291
-552.398	800.000	-0.054	-0.148
-551.383	27.912	0.188	-0.159
-550.369	-200.000	-0.055	-0.337
-549.354	176.157	0.173	-0.252
-548.339	-138.579	0.205	0.023
-547.325	41.318	0.120	0.109
-546.310	231.498	-0.100	-0.164
-545.296	66.016	0.181	-0.184
-544.281	-200.000	-0.025	-0.337
-543.266	-9.655	0.320	0.214
-542.252	-200.000	-0.014	0.123
-541.237	-78.364	-0.145	-0.050
-540.223	-112.962	-0.251	0.050
-539.208	187.357	0.168	0.251
-538.193	182.134	0.090	-0.132
-537.179	32.543	-0.112	-0.097
-536.164	-58.667	-0.220	-0.096
-535.150	-106.969	0.276	-0.061
-534.135	773.969	0.075	0.206
-533.121	-113.518	0.179	0.035
-532.106	477.528	-0.048	-0.108
-531.091	-46.930	0.088	-0.043
-530.077	-38.984	0.136	0.072
-529.062	-200.000	-0.089	-0.000
-528.048	800.000	0.047	0.198
-527.033	752.224	-0.061	-0.166
-526.018	62.209	0.092	0.092
-525.004	800.000	0.049	-0.170
-523.989	137.575	0.097	-0.127
-522.975	-58.752	-0.039	-0.017
-521.960	192.115	0.071	-0.107
-520.945	800.000	0.051	-0.181
-519.931	-26.056	-0.515	-0.304
-518.916	-42.590	0.151	-0.077
-517.902	-27.574	0.211	0.123
-516.887	-138.820	-0.226	0.025
-515.872	24.648	0.258	-0.214
-514.858	-70.516	-0.337	-0.128
-513.843	-55.650	-0.120	0.054
-512.829	-114.070	0.374	0.073
-511.814	-200.000	0.002	0.099
-510.799	18.021	-0.186	-0.148
-509.785	-39.832	0.190	0.100
-508.770	2.848	-0.198	-0.144
-507.756	88.878	0.261	0.291
-506.741	63.443	-0.355	0.356
-505.726	-24.883	0.122	-0.073
-504.712	481.712	-0.072	0.164
-503.697	427.113	0.081	-0.175
-502.683	473.957	0.040	0.091
-501.668	132.444	0.119	0.153
-500.653	-8.686	-0.145	-0.098
-499.639	655.192	0.136	0.351
-498.624	800.000	-0.102	0.355
-497.610	322.166	-0.156	0.297
-496.595	-122.690	0.043	0.007
-495.581	-79.028	0.157	-0.053
-494.566	313.148	0.228	0.430
-493.551	-97.192	-0.052	0.014
-492.537	-18.929	0.183	-0.114
-491.522	423.157	-0.092	-0.197
-490.508	-200.000	-0.009	-0.147
-489.493	-113.723	0.081	0.016
-488.478	113.240	0.071	-0.086
-487.464	155.670	-0.157	0.217
-486.449	-92.645	-0.157	-0.044
-485.435	714.834	-0.127	-0.337
-484.420	583.174	-0.108	-0.266
-483.405	-200.000	-0.060	-0.406
-482.391	-84.279	-0.179	-0.057
-481.376	-63.607	-0.226	-0.093
-480.362	800.000	0.133	-0.463
-479.347	130.001	0.086	0.110
-478.332	-200.000	-0.006	0.167
-477.318	-170.035	0.254	-0.009
-476.303	-156.323	0.299	0.019
-475.289	-41.859	0.057	0.029
-474.274	-73.998	-0.276	0.100
-473.259	-67.582	0.282	0.111
-472.245	401.358	0.104	-0.218
-471.230	-123.382	-0.155	-0.025
-470.216	402.154	-0.050	0.106
-469.201	-200.000	0.039	-0.244
-468.186	-200.000	0.019	-0.095
-467.172	475.914	-0.016	0.036
-466.157	723.656	-0.136	-0.362
-465.143	-157.596	-0.050	-0.003
-464.128	-13.922	0.099	-0.064
-463.113	800.000	-0.021	0.060
-462.099	-41.801	0.035	-0.018
-461.084	168.587	-0.029	-0.041
-460.070	54.027	-0.019	0.018
-459.055	167.932	-0.170	0.241
-458.040	-143.152	0.284	-0.027
-457.026	-15.916	-0.233	0.148
-456.011	-200.000	-0.003	-0.138
-454.997	-102.354	-0.108	0.026
-453.982	118.206	-0.198	0.244
-452.968	71.708	0.157	0.163
-451.953	88.982	-0.063	-0.070
-450.938	83.493	-0.099	-0.108
-449.924	8.068	-0.231	0.174
-448.909	298.051	-0.101	0.186
-447.895	800.000	-0.057	0.208
-446.880	-107.550	0.238	-0.052
-445.865	69.248	-0.154	0.158
-444.851	-200.000	-0.017	0.370
-443.836	-98.323	-0.154	0.039
-442.822	405.327	-0.114	0.239
-441.807	208.329	0.076	-0.119
-440.792	-13.803	0.249	-0.161
-439.778	-200.000	-0.008	-0.228
-438.763	782.200	-0.048	0.132
-437.749	800.000	-0.097	0.303
-436.734	136.215	-0.205	-0.267
-435.719	225.441	-0.060	-0.098
-434.705	-194.958	0.022	-0.000
-433.690	137.557	0.187	0.245
-432.676	-147.386	-0.207	-0.018
-431.661	116.085	0.076	-0.093
-430.646	800.000	0.041	0.120
-429.632	-76.418	-0.262	0.092
-428.617	792.152	-0.134	-0.368
-427.603	-200.000	-0.011	0.294
-426.588	-200.000	0.041	0.213
-425.573	-10.774	0.248	0.164
-424.559	415.630	0.237	-0.504
-423.544	125.169	0.207	-0.261
-422.530	-171.336	0.169	-0.006
-421.515	-118.663	0.433	0.076
-420.500	800.000	-0.073	-0.222
-419.486	-2.009	-0.189	0.133
-418.471	-50.719	0.163	0.077
-417.457	-42.373	0.131	0.067
-416.442	-41.455	-0.249	0.128
-415.428	-141.826	-0.120	0.012
-414.413	-51.950	-0.108	-0.050
-413.398	-200.000	0.025	-0.314
-412.384	-28.095	0.198	-0.114
-411.369	-191.673	0.264	0.003
-410.355	-17.048	-0.290	-0.183
-409.340	-44.188	-0.082	0.041
-408.325	3.338	0.312	-0.227
-407.311	12.792	-0.218	0.168
-406.296	282.498	-0.053	-0.096
-405.282	800.000	0.044	-0.143
-404.267	-97.691	-0.105	-0.027
-403.252	-167.584	0.281	-0.011
-402.238	-200.000	0.025	-0.149
-401.223	-60.048	0.138	-0.059
-400.209	527.918	0.086	0.202
-399.194	10.208	0.140	0.106
-398.179	-159.527	0.144	0.008
-397.165	-17.382	-0.202	0.127
-396.150	800.000	-0.025	-0.094
-395.136	156.454	0.155	-0.214
-394.121	126.152	-0.071	-0.089
-393.106	-200.000	-0.007	-0.057
-392.092	350.462	0.102	-0.201
-391.077	-200.000	-0.015	0.065
-390.063	-89.214	-0.209	-0.062
-389.048	-200.000	0.023	-0.154
-388.033	445.341	0.090	-0.196
-387.019	-119.733	-0.184	0.032
-386.004	88.750	0.334	0.370
-384.990	-200.000	0.018	-0.138
-383.975	-104.563	0.084	-0.019
-382.960	800.000	-0.048	-0.175
-381.946	-82.763	-0.279	0.090
-380.931	209.720	-0.064	0.100
-379.917	207.290	-0.067	0.104
-378.902	20.622	-0.387	0.312
-377.888	-127.796	-0.558	0.080
-376.873	273.704	0.011	0.020
-375.858	-93.505	0.148	0.041
-374.844	4.490	-0.104	0.076
-373.829	18.191	0.242	-0.193
-372.815	800.000	0.059	-0.236
-371.800	578.201	-0.081	0.198
-370.785	330.376	0.204	0.391
-369.771	736.760	0.132	0.352
-368.756	800.000	-0.059	0.176
-367.742	-200.000	0.017	-0.101
-366.727	-87.452	-0.359	0.108
-365.712	162.816	0.025	0.035
-364.698	-109.821	-0.124	-0.026
-363.683	-130.179	-0.360	0.049
-362.669	355.338	0.086	0.170
-361.654	28.469	0.097	-0.082
-360.639	-200.000	-0.029	0.256
-359.625	24.897	-0.159	-0.131
-358.610	-142.181	0.307	0.030
-357.596	-139.683	-0.130	0.014
-356.581	800.000	-0.021	-0.062
-355.566	90.704	0.082	0.092
-354.552	-13.969	-0.199	0.128
-353.537	-114.183	0.184	0.035
-352.523	35.020	-0.133	0.116
-351.508	30.023	0.204	-0.173
-350.493	15.799	-0.250	-0.196
-349.479	-3.569	0.168	0.116
-348.464	59.096	0.074	-0.073
-347.450	800.000	-0.066	-0.263
-346.435	-81.544	-0.160	-0.052
-345.420	66.947	-0.188	-0.190
-344.406	-151.564	-0.281	0.021
-343.391	-200.000	0.011	-0.156
-342.377	-200.000	-0.006	0.158
-341.362	18.933	-0.115	0.091
-340.348	-200.000	0.024	-0.150
-339.333	-200.000	0.010	0.286
-338.318	-1.382	0.143	0.101
-337.304	-200.000	-0.035	0.250
-336.289	-59.710	-0.121	0.052
-335.275	11.496	-0.125	0.096
-334.260	138.795	-0.217	0.283
-333.245	-200.000	0.034	0.234
-332.231	183.477	0.088	-0.130
-331.216	410.420	-0.099	0.209
-330.202	-69.406	-0.178	-0.068
-329.187	-64.785	0.291	0.117
-328.172	-200.000	-0.052	-0.322
-327.158	-71.107	-0.137	0.051
-326.143	-33.149	-0.162	-0.089
-325.129	-11.323	0.217	-0.142
-324.114	86.601	0.151	-0.165
-323.099	800.000	-0.064	0.190
-322.085	269.456	0.094	-0.164
-321.070	280.058	0.155	0.276
-320.056	800.000	0.020	0.071
-319.041	185.433	-0.083	-0.122
-318.026	-200.000	0.034	-0.363
-317.012	-30.404	0.412	0.233
-315.997	66.303	-0.400	0.404
-314.983	691.783	-0.099	0.259
-313.968	161.218	-0.011	-0.015
-312.953	46.486	-0.230	-0.212
-311.939	210.409	0.156	-0.244
-310.924	510.773	-0.045	-0.103
-309.910	-38.591	0.158	0.083
-308.895	-14.314	-0.221	0.141
-307.880	-200.000	-0.042	-0.241
-306.866	-129.980	-0.379	0.052
-305.851	-131.124	-0.095	0.013
-304.837	800.000	-0.036	0.117
-303.822	-192.948	-0.453	-0.004
-302.807	195.033	0.139	0.210
-301.793	47.082	0.238	0.220
-300.778	-77.575	0.148	0.051
-299.764	-66.275	0.101	-0.040
-298.749	116.735	0.109	0.133
-297.735	147.070	0.198	0.265
-296.720	78.256	-0.245	0.260
-295.705	23.206	0.169	-0.138
-294.691	342.634	0.122	0.237
-293.676	800.000	-0.093	0.292
-292.662	193.762	-0.168	-0.253
-291.647	-200.000	-0.031	0.179
-290.632	-109.616	0.179	0.038
-289.618	-66.354	0.360	-0.142
-288.603	86.664	-0.216	0.236
-287.589	-81.178	0.341	-0.112
-286.574	-96.961	-0.448	0.117
-285.559	-40.290	0.314	0.162
-284.545	88.926	0.149	-0.164
-283.530	-142.095	0.382	-0.038
-282.516	-127.449	-0.103	-0.015
-281.501	-148.691	-0.019	-0.002
-280.486	345.495	0.095	0.185
-279.472	272.671	-0.115	0.202
-278.457	-99.140	0.203	-0.051
-277.443	3.899	-0.191	-0.139
-276.428	800.000	-0.021	-0.074
-275.413	-94.473	-0.120	0.033
-274.399	-74.248	0.191	-0.068
-273.384	-146.503	0.154	0.013
-272.370	800.000	0.074	0.313
-271.355	681.637	-0.168	-0.434
-270.340	-200.000	-0.023	-0.200
-269.326	122.004	0.151	0.187
-268.311	800.000	0.003	-0.012
-267.297	-80.683	0.180	0.059
-266.282	749.352	-0.037	-0.098
-265.267	-200.000	0.030	-0.158
-264.253	531.898	0.138	0.325
-263.238	80.738	0.055	0.059
-262.224	-200.000	-0.062	-0.271
-261.209	350.203	0.063	0.123
-260.195	74.586	0.065	0.068
-259.180	-61.291	-0.073	-0.030
-258.165	-34.375	-0.198	-0.108
-257.151	265.236	-0.071	-0.122
-256.136	800.000	-0.036	-0.129
-255.122	-173.899	0.165	0.005
-254.107	112.369	0.109	-0.131
-253.092	674.067	-0.030	-0.078
-252.078	-23.092	0.027	-0.016
-251.063	-103.487	-0.237	0.055
-250.049	-200.000	-0.033	-0.247
-249.034	-102.433	0.259	-0.061
-248.019	417.178	-0.075	-0.158
-247.005	-187.703	-0.177	0.002
-245.990	-200.000	0.084	-0.438
-244.976	222.917	0.077	-0.124
-243.961	78.205	0.065	-0.069
-242.946	16.588	-0.315	0.247
-241.932	8.331	-0.084	0.062
-240.917	-65.789	-0.362	-0.144
-239.903	-177.878	0.124	0.003
-238.888	220.148	0.131	-0.209
-237.873	800.000	0.053	-0.182
-236.859	800.000	0.069	-0.226
-235.844	-33.036	-0.073	0.040
-234.830	-200.000	-0.009	0.226
-233.815	363.910	0.133	-0.264
-232.800	-69.122	0.180	0.069
-231.786	-91.838	0.256	0.072
-230.771	-63.064	-0.216	0.088
-229.757	-200.000	0.002	0.143
-228.742	-200.000	0.010	-0.128
-227.727	-64.375	-0.365	-0.147
-226.713	-58.341	-0.451	-0.194
-225.698	159.722	-0.119	0.165
-224.684	56.057	-0.089	-0.086
-223.669	-200.000	0.004	0.104
-222.655	-26.335	-0.269	-0.156
-221.640	-200.000	-0.011	-0.095
-220.625	324.229	-0.036	-0.069
-219.611	-101.715	0.155	0.037
-218.596	-200.000	0.024	0.322
-217.582	-200.000	-0.027	0.140
-216.567	-156.643	0.117	-0.007
-215.552	-52.627	-0.119	0.055
-214.538	-108.429	-0.174	0.037
-213.523	220.026	-0.050	-0.079
-212.509	-200.000	-0.001	-0.298
-211.494	26.707	-0.159	0.132
-210.479	17.541	-0.183	-0.144
-209.465	47.413	0.207	0.191
-208.450	-13.153	0.130	0.084
-207.436	800.000	0.089	0.286
-206.421	-148.725	0.390	-0.031
-205.406	20.868	-0.214	0.172
-204.392	-200.000	0.032	0.195
-203.377	-93.702	0.149	-0.041
-202.363	5.594	0.193	-0.141
-201.348	-110.905	0.199	0.040
-200.333	-121.911	-0.237	0.039
-199.319	-87.034	-0.225	-0.068
-198.304	570.446	0.128	-0.308
-197.290	34.104	0.293	0.253
-196.275	-109.325	0.215	0.045
-195.260	-200.000	0.192	-0.001
-194.246	28.832	0.044	0.037
-193.231	112.759	0.118	0.142
-192.217	-115.308	0.115	0.021
-191.202	-200.000	-0.074	-0.389
-190.187	-62.458	0.107	0.044
-189.173	-65.642	0.072	0.028
-188.158	-61.472	0.155	0.065
-187.144	-200.000	0.021	-0.223
-186.129	50.711	0.171	0.160
-185.114	-8.358	-0.056	-0.037
-184.100	-47.544	0.241	0.116
-183.085	-73.970	-0.089	-0.032
-182.071	-173.071	0.240	-0.007
-181.056	-103.198	-0.020	-0.005
-180.042	-44.040	0.126	0.063
-179.027	-200.000	-0.027	0.235
-178.012	-96.542	-0.459	0.120
-176.998	-34.077	0.259	0.141
-175.983	21.097	0.276	0.222
-174.969	-80.240	-0.197	0.065
-173.954	7.337	0.138	-0.102
-172.939	95.253	-0.084	-0.095
-171.925	800.000	-0.070	-0.224
-170.910	20.226	-0.121	-0.096
-169.896	-200.000	0.007	0.070
-168.881	-200.000	0.039	-0.258
-167.866	79.897	0.122	0.129
-166.852	47.814	-0.138	0.127
-165.837	800.000	0.019	0.059
-164.823	176.295	0.119	0.172
-163.808	-36.513	-0.325	-0.173
-162.793	71.632	0.045	0.047
-161.779	604.849	-0.073	0.179
-160.764	-128.968	-0.101	0.014
-159.750	643.525	-0.050	0.127
-158.735	247.409	0.155	0.259
-157.720	-120.292	-0.110	0.018
-156.706	-64.567	-0.150	-0.060
-155.691	-200.000	-0.065	-0.387
-154.677	-162.982	0.275	0.013
-153.662	-26.180	-0.147	0.085
-152.647	44.030	-0.263	0.239
-151.633	50.272	0.200	0.187
-150.618	-13.925	0.162	-0.104
-149.604	106.641	0.033	0.039
-148.589	51.714	0.387	-0.364
-147.574	144.460	0.206	-0.271
-146.560	-132.142	0.179	-0.023
-145.545	512.072	0.136	0.313
-144.531	-173.893	-0.177	0.005
-143.516	132.152	-0.025	0.032
-142.502	-183.657	-0.157	0.003
-141.487	548.466	0.093	-0.219
-140.472	8.678	-0.170	-0.126
-139.458	411.405	-0.065	-0.137
-138.443	-96.513	-0.406	-0.106
-137.429	-200.000	0.030	0.404
-136.414	-200.000	-0.004	0.180
-135.399	-200.000	0.056	0.385
-134.385	800.000	0.111	0.405
-133.370	219.374	-0.202	-0.320
-132.356	151.627	-0.127	0.171
-131.341	36.534	0.165	0.143
-130.326	-94.355	0.265	0.071
-129.312	464.384	0.163	0.360
-128.297	115.189	0.286	0.344
-127.283	15.026	-0.048	-0.037
-126.268	-137.833	0.182	0.020
-125.253	-200.000	0.005	-0.198
-124.239	-116.664	-0.346	0.063
-123.224	50.723	-0.237	0.221
-122.210	292.046	-0.085	-0.152
-121.195	-121.193	0.472	-0.078
-120.180	48.213	-0.014	0.013
