DTS Sentinel unit serial number:	SN413079Multiplexer serial number:	ORYXHardware model number:	OX4-SRSoftware version number:	ORYX F/W v4.00 Oryx Data Collector v3.7.2.0data status	okinstallation	princeton_trtdifferential loss correction	single-endedforward channel	channel 2reverse channel	N/Adate	2019/09/17time	04:47:35forward acquisition time	60.00reverse acquisition time	0.00gamma	496.2192k internal	0.2327k external	0.2327temperature offset calibration	0.9979default loss term (dB/km)	0.3790temperature slope calibration	1.0000multiplexer offset coefficient	1.0000multiplexer slope coefficient	1.0000fibre end	0.00T internal ref (°C)	29.58T ext. ref 1 (°C)	0.13T ext. ref 2 (°C)	24.00length (m)	temperature (°C)	Stokes	anti-Stokes-747.200	-64.199	-0.115	0.047
-746.185	205.075	-0.144	0.225
-745.171	78.138	0.112	-0.121
-744.156	8.958	-0.157	0.119
-743.142	-200.000	0.003	0.158
-742.127	422.317	-0.179	0.387
-741.112	-69.875	-0.190	-0.073
-740.098	221.967	0.038	-0.062
-739.083	-200.000	0.002	-0.029
-738.069	739.443	0.138	0.372
-737.054	-200.000	-0.001	0.004
-736.039	217.561	-0.184	0.295
-735.025	-58.225	0.137	0.060
-734.010	-200.000	0.065	-0.337
-732.996	-191.617	-0.310	0.003
-731.981	285.342	-0.067	0.122
-730.966	-121.330	0.114	-0.019
-729.952	119.814	-0.091	-0.114
-728.937	47.462	-0.278	0.261
-727.923	2.410	-0.097	-0.071
-726.908	376.296	0.023	0.047
-725.894	24.139	-0.186	-0.154
-724.879	-200.000	-0.060	-0.263
-723.864	-82.779	0.211	0.069
-722.850	-125.441	-0.207	0.032
-721.835	302.343	0.102	0.190
-720.821	-70.008	-0.232	0.089
-719.806	800.000	0.038	0.136
-718.791	100.220	-0.196	-0.229
-717.777	69.380	-0.237	-0.246
-716.762	800.000	-0.035	0.107
-715.748	-200.000	0.020	0.280
-714.733	-150.520	-0.473	0.036
-713.718	-200.000	-0.066	0.482
-712.704	-55.017	-0.096	-0.044
-711.689	-200.000	0.058	-0.531
-710.675	198.085	-0.157	0.241
-709.660	231.505	0.098	-0.163
-708.645	9.655	-0.050	-0.038
-707.631	-172.848	-0.151	-0.005
-706.616	472.186	-0.183	-0.416
-705.602	-2.602	-0.032	-0.022
-704.587	-111.015	-0.222	-0.046
-703.572	-40.227	0.289	0.152
-702.558	-200.000	0.003	0.144
-701.543	-200.000	0.038	0.242
-700.529	800.000	0.106	-0.296
-699.514	-200.000	0.011	-0.208
-698.499	417.466	-0.081	-0.174
-697.485	-55.355	0.140	-0.063
-696.470	162.958	0.119	0.168
-695.456	-200.000	0.031	0.264
-694.441	-20.506	0.058	-0.036
-693.426	279.225	-0.070	-0.126
-692.412	-112.294	-0.107	-0.022
-691.397	-123.190	0.306	-0.049
-690.383	-96.722	-0.212	-0.056
-689.368	-157.310	-0.256	0.016
-688.354	-14.079	-0.151	0.098
-687.339	56.615	0.112	0.109
-686.324	-82.588	-0.191	0.062
-685.310	334.906	-0.054	-0.105
-684.295	-200.000	0.016	0.094
-683.281	4.350	-0.237	0.174
-682.266	296.546	-0.176	0.325
-681.251	18.902	-0.086	0.069
-680.237	-123.500	0.080	-0.013
-679.222	800.000	0.006	-0.019
-678.208	-188.846	0.339	0.004
-677.193	-200.000	-0.029	-0.174
-676.178	235.791	0.093	-0.154
-675.164	184.564	0.197	0.294
-674.149	-108.833	-0.204	0.044
-673.135	99.063	0.085	0.099
-672.120	108.044	0.172	0.206
-671.105	119.185	-0.068	-0.084
-670.091	122.249	0.185	0.233
-669.076	27.058	-0.362	0.305
-668.062	-56.808	-0.216	-0.096
-667.047	-57.161	0.100	0.044
-666.032	-126.957	0.353	-0.052
-665.018	-145.302	-0.372	0.034
-664.003	-167.848	0.157	0.006
-662.989	-74.233	0.087	0.032
-661.974	-47.570	-0.309	0.151
-660.959	800.000	0.106	-0.316
-659.945	-191.238	-0.086	0.001
-658.930	800.000	0.078	-0.274
-657.916	315.903	0.066	-0.125
-656.901	-130.397	0.192	-0.026
-655.886	-200.000	-0.001	-0.246
-654.872	-45.484	0.241	-0.120
-653.857	27.795	-0.078	-0.066
-652.843	429.027	0.058	0.126
-651.828	-18.621	-0.130	0.081
-650.814	279.941	0.083	-0.149
-649.799	-98.885	0.253	-0.065
-648.784	-5.335	0.246	0.170
-647.770	17.786	0.175	0.140
-646.755	121.228	0.198	0.248
-645.741	51.760	-0.200	-0.191
-644.726	-157.952	0.193	-0.011
-643.711	430.455	0.062	-0.135
-642.697	-200.000	0.019	-0.121
-641.682	-200.000	-0.034	-0.294
-640.668	159.370	-0.133	0.186
-639.653	-200.000	0.070	0.361
-638.638	-133.237	0.221	-0.028
-637.624	200.824	0.106	0.164
-636.609	-28.167	0.430	-0.250
-635.595	544.206	-0.104	-0.250
-634.580	-113.540	-0.083	-0.016
-633.565	-48.325	-0.070	0.034
-632.551	800.000	-0.083	-0.325
-631.536	252.418	-0.165	-0.283
-630.522	-123.444	0.100	-0.016
-629.507	-200.000	0.029	0.201
-628.492	-85.299	0.405	-0.127
-627.478	-200.000	-0.008	-0.069
-626.463	-110.601	-0.088	0.018
-625.449	45.240	0.089	-0.082
-624.434	-106.679	-0.209	0.047
-623.419	138.106	0.041	0.054
-622.405	-132.289	-0.183	0.024
-621.390	72.068	0.135	-0.141
-620.376	169.285	-0.254	-0.364
-619.361	157.621	-0.040	0.055
-618.346	-9.671	-0.405	-0.270
-617.332	-200.000	0.031	-0.364
-616.317	33.096	0.083	-0.072
-615.303	211.535	-0.112	0.178
-614.288	28.559	0.171	0.145
-613.273	-65.198	-0.160	0.065
-612.259	-16.659	0.169	-0.107
-611.244	-116.705	-0.093	0.017
-610.230	-77.911	-0.262	-0.091
-609.215	-200.000	0.023	-0.129
-608.201	-72.432	-0.086	0.032
-607.186	152.698	-0.007	-0.009
-606.171	-31.068	-0.262	-0.148
-605.157	-200.000	-0.005	-0.094
-604.142	47.148	-0.073	-0.068
-603.128	-155.824	0.148	-0.009
-602.113	-200.000	-0.013	0.220
-601.098	669.887	-0.097	-0.253
-600.084	-39.355	0.271	-0.143
-599.069	284.974	-0.108	-0.196
-598.055	-129.697	-0.221	0.031
-597.040	-154.199	0.186	-0.013
-596.025	53.959	-0.128	0.123
-595.011	40.206	0.090	0.081
-593.996	-193.347	0.222	0.002
-592.982	-27.537	-0.237	0.138
-591.967	88.510	-0.179	-0.200
-590.952	-153.410	-0.317	0.022
-589.938	-19.344	0.069	0.043
-588.923	-200.000	-0.060	-0.324
-587.909	-10.965	0.105	0.070
-586.894	254.482	-0.114	0.195
-585.879	80.184	-0.046	0.050
-584.865	173.625	-0.100	-0.145
-583.850	259.460	0.149	0.257
-582.836	-40.087	-0.161	-0.084
-581.821	-17.310	-0.357	-0.225
-580.806	-142.951	-0.255	0.025
-579.792	75.891	0.246	-0.260
-578.777	2.012	0.065	-0.047
-577.763	162.184	-0.133	-0.187
-576.748	-111.792	-0.235	0.048
-575.733	-36.800	-0.182	0.098
-574.719	-143.999	-0.151	-0.014
-573.704	-57.722	-0.225	-0.099
-572.690	-22.794	0.250	-0.151
-571.675	-74.027	0.122	0.044
-570.661	-200.000	-0.015	-0.171
-569.646	-200.000	0.004	-0.055
-568.631	101.388	0.171	0.199
-567.617	-200.000	-0.011	0.105
-566.602	-200.000	0.039	0.221
-565.588	219.764	0.120	-0.192
-564.573	-111.291	0.328	-0.067
-563.558	628.424	0.132	0.334
-562.544	-157.124	0.056	-0.003
-561.529	800.000	-0.043	-0.140
-560.515	64.242	0.144	0.145
-559.500	-70.439	0.182	0.069
-558.485	603.042	0.024	0.061
-557.471	-182.809	-0.165	0.003
-556.456	-200.000	0.025	0.408
-555.442	-45.675	0.189	0.094
-554.427	-55.020	-0.068	0.031
-553.412	-200.000	-0.004	-0.221
-552.398	-200.000	-0.052	-0.367
-551.383	-200.000	0.007	0.155
-550.369	-120.202	0.019	-0.003
-549.354	253.142	-0.178	0.304
-548.339	199.948	0.114	0.176
-547.325	-1.776	-0.053	-0.037
-546.310	88.208	0.150	-0.166
-545.296	39.880	-0.190	-0.171
-544.281	-30.050	0.294	0.167
-543.266	-158.729	-0.238	0.014
-542.252	497.560	0.116	-0.266
-541.237	423.492	-0.061	-0.131
-540.223	800.000	-0.089	-0.312
-539.208	357.792	-0.088	-0.175
-538.193	-136.788	-0.134	0.015
-537.179	-108.385	0.221	-0.048
-536.164	24.265	0.224	0.185
-535.150	32.351	-0.184	0.159
-534.135	43.989	0.138	-0.126
-533.121	412.655	-0.049	-0.105
-532.106	-86.900	-0.319	-0.097
-531.091	-78.236	-0.220	-0.076
-530.077	110.952	0.085	-0.102
-529.062	6.532	0.181	-0.135
-528.048	61.467	-0.080	-0.080
-527.033	-15.733	0.225	-0.144
-526.018	149.320	-0.116	0.157
-525.004	61.787	-0.117	0.116
-523.989	-200.000	-0.023	-0.153
-522.975	229.160	-0.208	-0.339
-521.960	-57.545	-0.070	0.031
-520.945	-147.700	0.338	0.028
-519.931	94.058	0.191	-0.217
-518.916	-50.562	0.251	0.118
-517.902	294.840	0.079	-0.145
-516.887	-25.161	0.307	0.182
-515.872	-200.000	-0.007	-0.137
-514.858	-200.000	-0.006	-0.204
-513.843	329.179	0.053	-0.102
-512.829	-200.000	0.012	0.174
-511.814	-59.702	-0.199	0.085
-510.799	800.000	0.098	0.370
-509.785	-200.000	0.002	0.156
-508.770	-104.720	0.160	-0.037
-507.756	-68.504	-0.085	-0.033
-506.741	680.573	0.030	0.077
-505.726	385.056	0.228	0.470
-504.712	-40.664	-0.018	0.010
-503.697	-55.700	-0.135	0.060
-502.683	-200.000	-0.059	-0.271
-501.668	86.209	-0.148	0.163
-500.653	245.764	-0.100	-0.169
-499.639	-200.000	-0.024	-0.137
-498.624	-200.000	0.041	-0.265
-497.610	-186.171	0.153	0.002
-496.595	-72.823	-0.046	-0.017
-495.581	24.617	-0.064	0.053
-494.566	-22.148	-0.171	0.104
-493.551	140.222	-0.095	-0.126
-492.537	800.000	0.055	-0.185
-491.522	186.554	0.181	-0.269
-490.508	-95.543	-0.365	-0.098
-489.493	3.273	-0.191	0.139
-488.478	-92.883	-0.095	0.026
-487.464	800.000	0.079	0.229
-486.449	452.187	0.184	0.406
-485.435	212.003	-0.178	0.280
-484.420	-200.000	-0.003	0.227
-483.405	-27.493	0.214	0.124
-482.391	-200.000	-0.011	0.102
-481.376	109.640	0.143	-0.171
-480.362	143.790	-0.180	-0.239
-479.347	3.015	0.171	-0.124
-478.332	-7.452	0.234	0.158
-477.318	-174.045	0.198	-0.006
-476.303	-108.973	0.093	0.020
-475.289	-125.839	-0.458	0.069
-474.274	-131.196	-0.225	-0.030
-473.259	224.652	-0.111	-0.179
-472.245	-98.001	-0.443	0.114
-471.230	-118.311	0.159	0.028
-470.216	-75.763	0.185	0.065
-469.201	256.645	0.061	0.104
-468.186	23.914	-0.162	0.133
-467.172	-54.735	0.323	-0.146
-466.157	81.281	0.151	-0.163
-465.143	-100.231	-0.306	0.076
-464.128	393.633	-0.087	-0.181
-463.113	142.386	-0.214	-0.284
-462.099	-24.723	-0.162	0.096
-461.084	122.017	0.168	0.209
-460.070	95.045	0.233	-0.264
-459.055	-77.743	-0.230	-0.079
-458.040	-108.467	-0.424	-0.091
-457.026	800.000	-0.055	-0.195
-456.011	-200.000	-0.036	0.229
-454.997	-62.546	0.044	0.018
-453.982	-80.713	0.161	-0.053
-452.968	-200.000	-0.003	0.035
-451.953	240.489	0.153	-0.255
-450.938	800.000	0.047	0.151
-449.924	-200.000	-0.028	0.166
-448.909	-200.000	0.004	0.091
-447.895	354.316	0.062	-0.123
-446.880	55.886	0.139	-0.135
-445.865	-200.000	0.005	0.067
-444.851	42.188	-0.175	-0.158
-443.836	-172.646	-0.397	-0.012
-442.822	-200.000	0.003	0.380
-441.807	-61.012	0.128	0.054
-440.792	-200.000	-0.058	0.290
-439.778	312.471	-0.113	0.211
-438.763	375.209	0.037	0.075
-437.749	-146.379	0.184	0.016
-436.734	695.831	-0.077	0.200
-435.719	-200.000	-0.074	0.374
-434.705	116.671	0.202	-0.247
-433.690	800.000	-0.044	0.186
-432.676	-200.000	-0.016	0.366
-431.661	13.209	0.128	0.099
-430.646	-200.000	-0.031	-0.375
-429.632	-142.518	0.205	0.020
-428.617	252.906	0.136	0.230
-427.603	126.180	0.199	-0.251
-426.588	-200.000	0.010	0.160
-425.573	85.571	-0.097	0.106
-424.559	-200.000	0.089	0.415
-423.544	-200.000	-0.019	-0.179
-422.530	800.000	0.049	0.160
-421.515	-113.878	0.351	-0.068
-420.500	-62.721	-0.127	-0.052
-419.486	-52.334	0.080	-0.037
-418.471	-15.824	-0.197	0.125
-417.457	10.319	0.286	0.217
-416.442	800.000	-0.040	-0.136
-415.428	-53.742	-0.226	0.103
-414.413	322.707	0.130	-0.247
-413.398	-15.524	0.080	-0.051
-412.384	-200.000	-0.050	0.312
-411.369	541.870	0.066	-0.158
-410.355	-155.873	-0.243	0.015
-409.340	220.245	0.092	-0.147
-408.325	631.886	0.067	0.168
-407.311	-143.844	-0.373	0.035
-406.296	68.322	-0.207	0.211
-405.282	10.653	0.224	0.170
-404.267	-200.000	-0.010	0.133
-403.252	-200.000	0.042	0.324
-402.238	800.000	0.055	0.169
-401.223	55.966	-0.037	0.035
-400.209	-200.000	-0.036	-0.204
-399.194	111.117	-0.060	0.072
-398.179	201.107	0.078	-0.119
-397.165	24.927	0.162	-0.133
-396.150	127.134	0.060	0.076
-395.136	16.706	-0.102	-0.080
-394.121	311.554	0.101	0.189
-393.106	-37.090	-0.253	0.135
-392.092	10.256	-0.160	-0.121
-391.077	-200.000	-0.006	-0.110
-390.063	226.816	0.070	-0.113
-389.048	-34.983	-0.434	0.235
-388.033	106.589	0.105	0.124
-387.019	-112.050	0.310	-0.062
-386.004	-200.000	0.021	0.410
-384.990	800.000	0.089	0.289
-383.975	7.562	0.319	-0.237
-382.960	-151.459	-0.243	0.018
-381.946	-6.100	0.371	-0.252
-380.931	-76.427	0.106	-0.037
-379.917	716.005	0.046	-0.121
-378.902	-200.000	0.022	0.159
-377.888	30.517	-0.423	0.359
-376.873	800.000	0.134	0.454
-375.858	800.000	-0.048	-0.142
-374.844	307.681	0.095	-0.176
-373.829	-97.140	-0.179	0.047
-372.815	396.227	0.099	0.206
-371.800	-77.662	-0.187	0.064
-370.785	-68.016	-0.394	0.153
-369.771	-157.262	0.109	-0.007
-368.756	15.232	-0.166	0.129
-367.742	199.571	-0.191	-0.291
-366.727	-200.000	-0.083	0.407
-365.712	800.000	0.045	-0.161
-364.698	-113.901	-0.110	-0.021
-363.683	-56.677	-0.261	-0.115
-362.669	800.000	0.054	-0.182
-361.654	239.867	-0.195	-0.323
-360.639	-200.000	0.039	-0.171
-359.625	293.243	0.047	-0.085
-358.610	107.994	-0.093	-0.110
-357.596	-182.875	-0.133	-0.002
-356.581	-149.168	-0.032	-0.003
-355.566	-121.669	-0.272	0.045
-354.552	-46.707	-0.150	-0.073
-353.537	800.000	0.035	-0.124
-352.523	-79.480	0.058	-0.019
-351.508	-166.488	0.200	-0.008
-350.493	-200.000	-0.030	-0.266
-349.479	-77.398	-0.086	0.030
-348.464	30.911	-0.282	0.240
-347.450	-200.000	0.040	-0.242
-346.435	-94.614	0.293	-0.079
-345.420	-53.355	-0.337	0.153
-344.406	636.492	0.156	-0.392
-343.391	-54.815	0.225	0.101
-342.377	64.212	0.136	0.136
-341.362	70.810	-0.205	0.210
-340.348	92.125	0.145	-0.162
-339.333	-67.771	0.183	0.071
-338.318	-36.693	0.286	-0.152
-337.304	446.118	-0.033	-0.073
-336.289	138.750	-0.134	0.174
-335.275	800.000	0.111	-0.324
-334.260	-40.149	0.185	-0.096
-333.245	-91.878	-0.250	-0.070
-332.231	-51.658	-0.142	-0.066
-331.216	-101.466	-0.300	-0.073
-330.202	-52.804	0.214	0.098
-329.187	-33.437	-0.035	0.019
-328.172	-200.000	0.041	-0.212
-327.158	-2.562	-0.413	-0.287
-326.143	-22.935	0.092	0.055
-325.129	800.000	0.092	-0.373
-324.114	-57.632	0.277	0.121
-323.099	-200.000	0.054	0.319
-322.085	-149.016	0.240	0.019
-321.070	-123.327	-0.214	-0.034
-320.056	566.260	-0.102	0.246
-319.041	-68.932	-0.140	-0.053
-318.026	-10.800	-0.030	-0.019
-317.012	9.792	-0.525	-0.395
-315.997	-43.577	0.325	-0.163
-314.983	-94.125	-0.426	-0.116
-313.968	-141.971	0.270	-0.027
-312.953	453.603	-0.083	-0.182
-311.939	129.857	0.093	0.118
-310.924	-11.021	0.174	-0.114
-309.910	67.656	0.235	-0.238
-308.895	800.000	-0.048	-0.173
-307.880	-22.819	-0.108	-0.065
-306.866	91.123	0.120	0.133
-305.851	-75.693	-0.208	0.073
-304.837	407.279	0.074	-0.154
-303.822	-200.000	-0.027	-0.296
-302.807	605.899	0.101	-0.248
-301.793	174.298	-0.072	0.103
-300.778	85.423	0.364	0.396
-299.764	800.000	-0.089	-0.293
-298.749	-76.228	0.293	-0.102
-297.735	-113.315	-0.455	0.089
-296.720	213.746	-0.074	0.116
-295.705	-131.205	0.046	0.006
-294.691	250.038	-0.065	0.109
-293.676	-34.867	-0.080	-0.043
-292.662	-51.106	0.216	-0.100
-291.647	15.637	-0.233	-0.182
-290.632	-200.000	0.084	0.416
-289.618	-105.119	-0.225	-0.051
-288.603	-79.140	0.389	-0.131
-287.589	-66.483	0.178	0.070
-286.574	546.313	0.072	0.170
-285.559	-152.659	0.114	0.008
-284.545	2.957	0.267	-0.192
-283.530	800.000	0.092	-0.296
-282.516	245.965	0.164	0.274
-281.501	-67.719	0.163	0.063
-280.486	-47.132	0.149	-0.072
-279.472	378.328	-0.020	-0.040
-278.457	-80.468	-0.144	-0.048
-277.443	66.854	0.283	-0.286
-276.428	286.279	-0.059	0.105
-275.413	-57.533	0.329	-0.143
-274.399	-99.042	0.149	0.037
-273.384	-91.134	0.306	0.087
-272.370	585.147	-0.045	-0.110
-271.355	33.226	0.131	0.112
-270.340	176.080	0.270	-0.388
-269.326	-200.000	-0.028	0.233
-268.311	-16.600	-0.077	0.048
-267.297	82.068	0.178	0.191
-266.282	-98.141	-0.190	0.048
-265.267	29.633	0.168	0.141
-264.253	-35.579	-0.074	-0.040
-263.238	-200.000	-0.011	-0.069
-262.224	-157.545	0.305	0.018
-261.209	264.529	0.166	-0.286
-260.195	362.266	0.092	0.183
-259.180	-18.602	-0.093	-0.058
-258.165	-36.906	0.210	0.112
-257.151	-138.909	-0.188	0.020
-256.136	695.474	-0.100	-0.260
-255.122	-123.733	0.271	0.042
-254.107	17.667	0.112	-0.088
-253.092	-83.773	0.341	0.107
-252.078	443.674	0.140	-0.303
-251.063	800.000	0.142	-0.393
-250.049	135.331	-0.094	0.121
-249.034	-200.000	-0.010	0.128
-248.019	800.000	-0.072	-0.234
-247.005	295.379	-0.258	-0.466
-245.990	800.000	-0.089	0.282
-244.976	552.595	-0.211	0.500
-243.961	75.774	0.107	0.112
-242.946	-200.000	0.001	-0.014
-241.932	77.415	0.119	0.125
-240.917	711.309	-0.082	0.214
-239.903	800.000	-0.022	-0.083
-238.888	58.928	0.226	0.220
-237.873	-200.000	0.029	0.236
-236.859	-101.202	0.224	-0.054
-235.844	-122.367	-0.243	0.039
-234.830	-16.961	-0.248	0.155
-233.815	-120.557	-0.078	-0.013
-232.800	110.953	-0.099	-0.117
-231.786	71.820	-0.053	0.054
-230.771	800.000	0.068	0.212
-229.757	-200.000	0.004	0.163
-228.742	-200.000	0.022	0.149
-227.727	39.342	0.156	0.138
-226.713	21.220	0.210	0.168
-225.698	170.412	-0.228	0.323
-224.684	-41.495	-0.219	-0.111
-223.669	123.085	0.002	0.003
-222.655	54.244	-0.198	-0.188
-221.640	-23.363	-0.086	-0.051
-220.625	91.326	0.183	-0.203
-219.611	66.686	-0.181	0.182
-218.596	-76.696	-0.161	0.056
-217.582	800.000	-0.102	0.359
-216.567	-200.000	0.003	-0.256
-215.552	-126.370	0.358	0.053
-214.538	-200.000	0.024	0.165
-213.523	-105.386	-0.221	-0.050
-212.509	124.365	-0.172	0.213
-211.494	-137.945	0.209	-0.023
-210.479	-134.717	-0.117	-0.014
-209.465	89.852	-0.226	0.249
-208.450	800.000	-0.057	-0.196
-207.436	-64.434	0.360	0.145
-206.421	-68.057	-0.094	0.036
-205.406	800.000	-0.066	0.248
-204.392	-200.000	0.007	0.087
-203.377	-79.684	0.124	-0.041
-202.363	-67.825	-0.344	0.133
-201.348	306.788	-0.012	-0.023
-200.333	176.298	-0.042	-0.060
-199.319	774.907	0.114	-0.306
-198.304	-200.000	0.010	-0.086
-197.290	-10.154	-0.170	0.112
-196.275	-36.693	0.105	-0.056
-195.260	-200.000	0.001	0.203
-194.246	800.000	0.133	0.378
-193.231	-47.861	-0.367	0.175
-192.217	-164.818	-0.338	0.015
-191.202	-107.414	-0.122	0.026
-190.187	415.400	-0.198	-0.416
-189.173	505.008	0.063	-0.145
-188.158	800.000	-0.106	0.309
-187.144	111.909	0.179	0.213
-186.129	-176.683	-0.271	0.007
-185.114	-33.707	0.120	-0.065
-184.100	-200.000	-0.017	0.286
-183.085	-95.750	0.361	0.095
-182.071	-13.538	-0.204	-0.131
-181.056	199.080	-0.162	-0.244
-180.042	-138.013	0.084	0.009
-179.027	83.515	0.072	0.077
-178.012	-200.000	-0.004	0.095
-176.998	333.115	0.123	0.234
-175.983	11.769	-0.368	0.279
-174.969	-200.000	-0.010	-0.185
-173.954	-75.468	-0.202	-0.071
-172.939	-75.937	-0.146	-0.051
-171.925	494.764	0.050	-0.113
-170.910	23.242	0.078	-0.063
-169.896	-166.541	-0.097	-0.004
-168.881	714.910	0.087	0.228
-167.866	-129.573	-0.129	-0.018
-166.852	-117.492	-0.337	0.060
-165.837	-147.515	0.159	0.013
-164.823	-56.860	0.338	0.147
-163.808	289.998	-0.057	0.102
-162.793	282.412	0.176	-0.310
-161.779	-128.048	0.380	-0.054
-160.764	-200.000	-0.007	-0.088
-159.750	119.878	0.132	-0.162
-158.735	49.255	0.088	-0.081
-157.720	387.916	0.057	-0.116
-156.706	281.998	0.026	-0.045
-155.691	-86.092	-0.222	0.068
-154.677	-40.579	0.096	0.049
-153.662	31.215	-0.061	0.052
-152.647	130.821	0.103	-0.130
-151.633	-200.000	0.042	0.251
-150.618	-200.000	0.003	0.056
-149.604	-45.466	0.075	0.036
-148.589	800.000	-0.073	0.237
-147.574	557.284	-0.083	0.196
-146.560	-123.219	-0.077	0.012
-145.545	186.541	-0.096	0.141
-144.531	-97.030	0.267	0.069
-143.516	-52.404	0.207	0.094
-142.502	-20.598	0.269	0.162
-141.487	-194.454	0.190	0.001
-140.472	-117.679	-0.365	-0.065
-139.458	13.608	0.101	-0.077
-138.443	-142.314	0.327	-0.032
-137.429	-110.253	0.054	0.011
-136.414	-121.271	0.041	0.007
-135.399	-181.236	0.182	-0.004
-134.385	481.943	0.034	0.077
-133.370	-98.712	0.581	0.146
-132.356	-24.833	0.210	-0.123
-131.341	800.000	-0.052	0.174
-130.326	-200.000	0.011	-0.125
-129.312	26.334	0.195	0.160
-128.297	330.610	-0.099	0.187
-127.283	300.737	0.078	0.141
-126.268	39.633	0.385	-0.340
-125.253	-148.619	-0.019	0.001
-124.239	5.974	0.094	-0.068
-123.224	389.652	-0.120	0.245
-122.210	-200.000	-0.018	0.093
-121.195	121.754	-0.177	-0.217
