DTS Sentinel unit serial number:	SN413079Multiplexer serial number:	ORYXHardware model number:	OX4-SRSoftware version number:	ORYX F/W v4.00 Oryx Data Collector v3.7.2.0data status	okinstallation	princeton_trtdifferential loss correction	single-endedforward channel	channel 2reverse channel	N/Adate	2019/09/11time	14:41:10forward acquisition time	60.00reverse acquisition time	0.00gamma	496.2192k internal	0.2290k external	0.2290temperature offset calibration	1.0008default loss term (dB/km)	0.3790temperature slope calibration	1.0000multiplexer offset coefficient	1.0000multiplexer slope coefficient	1.0000fibre end	0.00T internal ref (°C)	42.37T ext. ref 1 (°C)	0.92T ext. ref 2 (°C)	38.24length (m)	temperature (°C)	Stokes	anti-Stokes-747.200	48.191	-0.235	-0.226
-746.185	30.051	0.129	-0.112
-745.171	-200.000	-0.023	-0.275
-744.156	800.000	-0.029	-0.108
-743.142	-200.000	0.033	0.169
-742.127	691.641	0.110	0.296
-741.112	383.900	0.161	-0.339
-740.098	84.705	0.184	-0.207
-739.083	167.553	0.169	-0.246
-738.069	-80.205	-0.152	0.052
-737.054	-200.000	-0.057	-0.278
-736.039	-122.131	0.110	-0.019
-735.025	-123.365	-0.296	0.048
-734.010	0.260	-0.104	-0.076
-732.996	800.000	0.037	-0.154
-731.981	47.312	-0.298	-0.284
-730.966	414.336	-0.157	0.343
-729.952	82.744	-0.134	0.150
-728.937	-172.762	-0.134	-0.004
-727.923	-34.049	-0.128	-0.072
-726.908	225.907	-0.118	-0.196
-725.894	-200.000	0.006	-0.182
-724.879	800.000	0.098	-0.279
-723.864	285.300	-0.075	-0.138
-722.850	-95.697	-0.255	0.070
-721.835	-21.975	0.097	-0.061
-720.821	77.573	0.142	-0.154
-719.806	66.851	-0.100	-0.104
-718.791	-200.000	-0.003	-0.117
-717.777	-133.707	-0.233	0.030
-716.762	-200.000	0.008	0.070
-715.748	800.000	0.018	-0.071
-714.733	173.221	0.122	-0.181
-713.718	59.967	-0.073	0.074
-712.704	-200.000	-0.036	0.327
-711.689	800.000	0.030	-0.131
-710.675	-57.698	0.140	-0.063
-709.660	26.290	-0.391	0.334
-708.645	-78.995	-0.081	0.028
-707.631	-56.453	-0.157	0.071
-706.616	-200.000	0.015	-0.223
-705.602	-25.197	-0.077	0.046
-704.587	465.334	-0.120	-0.275
-703.572	73.849	0.050	0.054
-702.558	-39.719	0.080	0.043
-701.543	-7.893	-0.346	-0.239
-700.529	92.109	-0.146	-0.169
-699.514	598.590	0.044	-0.111
-698.499	270.249	-0.160	-0.287
-697.485	-170.432	-0.153	0.005
-696.470	741.982	0.028	-0.077
-695.456	-46.384	-0.107	-0.054
-694.441	-200.000	-0.003	-0.246
-693.426	-200.000	0.003	0.054
-692.412	-59.171	0.195	-0.086
-691.397	800.000	-0.083	0.264
-690.383	47.909	-0.168	-0.160
-689.368	-200.000	-0.012	-0.062
-688.354	211.471	0.021	0.033
-687.339	-93.109	0.115	-0.033
-686.324	-23.278	0.084	0.052
-685.310	66.471	-0.119	-0.124
-684.295	-133.861	0.140	0.018
-683.281	-38.382	0.183	0.099
-682.266	227.252	-0.146	0.242
-681.251	-200.000	0.031	-0.229
-680.237	571.953	0.021	-0.052
-679.222	-200.000	-0.045	-0.284
-678.208	800.000	0.010	-0.027
-677.193	-200.000	0.003	-0.016
-676.178	-200.000	-0.042	-0.259
-675.164	-31.840	-0.233	-0.133
-674.149	436.106	0.088	0.195
-673.135	160.318	-0.125	-0.179
-672.120	71.569	-0.257	0.272
-671.105	-71.358	-0.159	-0.061
-670.091	800.000	-0.062	0.180
-669.076	-101.352	0.437	0.109
-668.062	333.111	-0.178	0.352
-667.047	-61.606	-0.178	-0.076
-666.032	-122.118	-0.209	0.035
-665.018	35.615	-0.108	-0.096
-664.003	280.705	-0.225	-0.411
-662.989	385.126	0.025	0.053
-661.974	-139.289	-0.174	0.019
-660.959	-21.994	0.229	0.142
-659.945	-200.000	-0.009	0.058
-658.930	-162.613	0.077	-0.004
-657.916	513.122	0.104	0.248
-656.901	368.972	0.034	0.070
-655.886	-200.000	-0.010	-0.185
-654.872	23.868	0.153	0.129
-653.857	800.000	0.036	0.106
-652.843	404.393	-0.034	-0.074
-651.828	121.851	-0.140	0.179
-650.814	134.293	0.049	-0.065
-649.799	-200.000	-0.032	-0.238
-648.784	-43.756	0.091	0.047
-647.770	-135.585	0.035	-0.004
-646.755	-76.916	0.168	-0.060
-645.741	-200.000	0.007	0.100
-644.726	-200.000	-0.014	0.071
-643.711	46.399	-0.301	-0.285
-642.697	-1.391	-0.174	0.125
-641.682	479.588	-0.043	0.100
-640.668	157.887	-0.168	-0.238
-639.653	-200.000	-0.003	0.036
-638.638	800.000	-0.026	0.078
-637.624	-48.113	-0.217	-0.107
-636.609	-200.000	0.002	0.655
-635.595	562.877	0.019	0.048
-634.580	247.869	-0.204	0.352
-633.565	800.000	-0.042	0.156
-632.551	107.493	0.167	-0.203
-631.536	-85.491	-0.113	0.036
-630.522	-200.000	0.064	-0.582
-629.507	800.000	0.030	0.114
-628.492	-182.512	-0.111	-0.002
-627.478	6.127	0.015	-0.012
-626.463	-133.338	-0.130	-0.017
-625.449	70.750	0.084	0.089
-624.434	-71.811	-0.064	-0.024
-623.419	734.357	-0.071	-0.193
-622.405	800.000	0.021	0.086
-621.390	38.272	-0.059	0.054
-620.376	-200.000	0.028	0.158
-619.361	382.177	-0.064	0.135
-618.346	378.083	-0.116	-0.242
-617.332	-148.089	-0.231	0.020
-616.317	-77.649	0.112	-0.040
-615.303	148.577	0.166	0.229
-614.288	-200.000	-0.017	-0.121
-613.273	-196.378	-0.085	0.001
-612.259	228.522	-0.087	0.145
-611.244	14.352	0.183	-0.146
-610.230	178.583	-0.192	-0.286
-609.215	530.763	0.055	-0.131
-608.201	181.146	-0.142	0.213
-607.186	-29.336	0.143	0.083
-606.171	-200.000	0.022	-0.257
-605.157	-147.540	-0.121	-0.010
-604.142	274.437	-0.029	0.052
-603.128	559.431	0.017	-0.041
-602.113	-68.972	0.121	-0.048
-601.098	-0.039	-0.056	0.040
-600.084	-152.035	-0.128	-0.009
-599.069	45.223	0.167	0.157
-598.055	800.000	-0.033	0.107
-597.040	320.051	0.120	-0.231
-596.025	396.912	-0.165	0.351
-595.011	-99.302	0.062	-0.016
-593.996	275.128	-0.144	0.260
-592.982	10.855	0.174	-0.135
-591.967	-109.185	-0.230	-0.050
-590.952	-109.576	-0.154	0.033
-589.938	-200.000	-0.142	-0.690
-588.923	453.263	-0.006	0.014
-587.909	205.969	0.104	0.164
-586.894	-50.176	0.104	0.050
-585.879	261.210	-0.189	-0.334
-584.865	-14.080	0.117	0.077
-583.850	-104.207	-0.076	0.018
-582.836	-32.395	-0.230	-0.131
-581.821	3.153	-0.399	-0.295
-580.806	800.000	-0.011	0.040
-579.792	800.000	-0.073	0.274
-578.777	800.000	0.079	-0.342
-577.763	-200.000	-0.004	-0.206
-576.748	-6.547	-0.144	-0.100
-575.733	75.917	-0.226	0.243
-574.719	-83.519	-0.129	-0.042
-573.704	-200.000	-0.019	-0.107
-572.690	381.481	0.151	-0.316
-571.675	-200.000	0.013	0.103
-570.661	52.847	0.161	-0.157
-569.646	50.431	-0.135	0.130
-568.631	-106.515	-0.210	-0.048
-567.617	800.000	-0.062	-0.276
-566.602	-128.542	-0.096	0.014
-565.588	-73.845	0.111	-0.041
-564.573	-53.036	0.125	-0.058
-563.558	-139.370	0.247	0.027
-562.544	678.349	0.050	0.133
-561.529	363.708	0.066	-0.135
-560.515	-69.358	-0.112	0.044
-559.500	-200.000	-0.025	0.259
-558.485	-71.997	0.062	-0.023
-557.471	-38.522	-0.195	-0.105
-556.456	294.531	0.239	0.444
-555.442	259.696	-0.061	0.107
-554.427	-98.211	0.285	-0.075
-553.412	202.635	0.184	0.288
-552.398	260.932	0.142	0.250
-551.383	575.794	0.179	0.444
-550.369	205.116	-0.118	-0.186
-549.354	53.419	-0.045	-0.044
-548.339	29.877	-0.197	-0.171
-547.325	407.635	-0.045	0.096
-546.310	159.122	0.038	0.054
-545.296	-159.327	-0.049	0.003
-544.281	386.920	-0.006	-0.014
-543.266	-65.068	0.227	0.093
-542.252	-108.643	0.104	0.023
-541.237	72.412	0.019	0.020
-540.223	68.980	0.063	-0.066
-539.208	-12.327	0.180	-0.120
-538.193	183.696	0.150	0.226
-537.179	-41.471	-0.027	0.014
-536.164	63.653	-0.297	0.303
-535.150	588.480	0.056	-0.141
-534.135	253.169	-0.175	-0.303
-533.121	800.000	0.046	-0.178
-532.106	-10.245	0.075	-0.050
-531.091	79.500	-0.232	-0.253
-530.077	722.445	-0.107	-0.290
-529.062	-200.000	0.078	0.351
-528.048	-200.000	0.041	0.226
-527.033	-63.231	0.340	0.143
-526.018	71.733	0.095	-0.100
-525.004	227.098	0.104	0.172
-523.989	29.418	-0.131	0.113
-522.975	-14.862	0.133	0.086
-521.960	-46.437	-0.288	0.144
-520.945	-200.000	-0.029	-0.213
-519.931	-50.643	-0.203	0.097
-518.916	-200.000	0.034	0.446
-517.902	-200.000	-0.056	0.317
-516.887	-105.075	0.219	-0.051
-515.872	503.949	0.080	0.188
-514.858	-200.000	0.041	0.278
-513.843	142.624	-0.119	0.161
-512.829	-33.992	0.206	0.115
-511.814	800.000	0.073	0.287
-510.799	65.724	-0.193	-0.199
-509.785	-64.236	0.378	-0.156
-508.770	-102.222	0.232	-0.057
-507.756	-71.252	-0.131	-0.050
-506.741	210.833	0.085	0.136
-505.726	25.578	0.226	0.191
-504.712	-200.000	-0.046	-0.346
-503.697	-200.000	-0.004	0.083
-502.683	-200.000	0.079	0.374
-501.668	-119.255	-0.215	-0.038
-500.653	204.417	0.196	0.308
-499.639	-74.785	-0.170	0.062
-498.624	-200.000	-0.039	0.194
-497.610	-38.195	0.109	-0.059
-496.595	290.382	0.077	0.141
-495.581	350.947	-0.084	0.169
-494.566	-153.072	0.056	0.004
-493.551	-58.957	0.267	-0.117
-492.537	-150.946	0.222	0.017
-491.522	-33.948	-0.298	0.166
-490.508	63.873	0.124	-0.127
-489.493	299.907	0.069	-0.129
-488.478	800.000	-0.025	-0.086
-487.464	52.944	-0.185	-0.179
-486.449	775.464	0.031	-0.086
-485.435	130.624	0.055	-0.072
-484.420	-126.179	0.121	-0.018
-483.405	-33.075	-0.172	0.097
-482.391	110.044	-0.252	-0.307
-481.376	-56.985	-0.241	-0.108
-480.362	265.081	-0.047	-0.083
-479.347	800.000	-0.018	-0.075
-478.332	-99.033	-0.113	-0.029
-477.318	-74.869	0.360	-0.131
-476.303	-200.000	0.051	-0.254
-475.289	-43.737	-0.289	-0.148
-474.274	-100.583	0.334	-0.084
-473.259	-66.439	-0.207	-0.083
-472.245	-173.397	-0.208	-0.006
-471.230	476.981	-0.088	0.201
-470.216	268.466	-0.092	-0.164
-469.201	-52.013	-0.130	0.061
-468.186	105.644	0.015	0.017
-467.172	-74.630	0.136	0.050
-466.157	15.275	-0.007	0.005
-465.143	-36.435	0.037	-0.020
-464.128	-88.618	-0.209	0.063
-463.113	-20.799	0.097	0.060
-462.099	-22.661	0.018	-0.011
-461.084	-139.766	-0.124	-0.013
-460.070	116.746	0.129	0.160
-459.055	-98.291	-0.283	0.073
-458.040	-200.000	0.006	-0.255
-457.026	74.385	-0.213	0.227
-456.011	800.000	-0.078	0.277
-454.997	141.135	0.097	0.130
-453.982	135.156	0.166	-0.218
-452.968	341.133	0.052	0.104
-451.953	274.561	-0.145	-0.259
-450.938	263.865	0.024	0.042
-449.924	-200.000	-0.016	-0.297
-448.909	61.007	0.220	-0.221
-447.895	506.418	-0.100	-0.235
-446.880	19.123	0.095	0.077
-445.865	-133.385	0.272	-0.035
-444.851	-200.000	-0.001	0.107
-443.836	775.851	0.054	0.151
-442.822	-68.656	0.152	-0.060
-441.807	53.930	0.124	-0.121
-440.792	554.413	-0.076	-0.186
-439.778	79.419	-0.132	0.143
-438.763	-100.212	0.059	0.015
-437.749	-200.000	0.008	-0.104
-436.734	-91.641	0.253	-0.073
-435.719	-72.406	-0.133	-0.050
-434.705	-84.446	0.227	-0.073
-433.690	-150.811	-0.156	0.012
-432.676	181.848	0.066	-0.098
-431.661	-104.225	-0.331	-0.078
-430.646	-200.000	0.003	-0.126
-429.632	233.585	0.015	-0.024
-428.617	-79.427	-0.232	-0.080
-427.603	-81.751	-0.181	0.060
-426.588	-200.000	0.010	0.076
-425.573	-200.000	0.007	-0.373
-424.559	-200.000	0.032	-0.344
-423.544	-157.770	0.293	0.018
-422.530	117.393	-0.106	0.132
-421.515	-110.801	0.288	0.060
-420.500	-85.526	0.191	0.060
-419.486	-84.557	-0.201	0.064
-418.471	-94.291	0.179	0.050
-417.457	-200.000	0.017	0.408
-416.442	169.802	-0.168	-0.242
-415.428	-200.000	-0.002	-0.096
-414.413	79.662	0.114	-0.123
-413.398	800.000	-0.085	-0.317
-412.384	-200.000	-0.025	0.129
-411.369	29.898	0.278	0.240
-410.355	341.331	0.134	0.264
-409.340	-128.247	-0.210	0.030
-408.325	-28.587	0.230	0.134
-407.311	-14.797	-0.212	0.138
-406.296	-122.508	-0.138	-0.023
-405.282	-200.000	0.019	-0.122
-404.267	92.891	0.297	0.339
-403.252	-6.810	0.218	0.150
-402.238	-43.431	0.115	-0.059
-401.223	-55.438	-0.341	-0.155
-400.209	-163.384	0.040	0.002
-399.194	580.890	-0.055	0.137
-398.179	122.285	-0.055	-0.069
-397.165	800.000	0.079	0.253
-396.150	-133.199	0.485	0.062
-395.136	-39.603	-0.223	-0.118
-394.121	150.844	0.162	0.222
-393.106	-21.765	-0.114	-0.070
-392.092	103.818	-0.139	-0.166
-391.077	-127.097	0.242	0.036
-390.063	-113.692	-0.233	-0.046
-389.048	358.728	0.149	0.300
-388.033	45.853	0.159	0.149
-387.019	-20.475	0.332	-0.206
-386.004	2.115	0.405	-0.296
-384.990	-128.023	-0.065	0.009
-383.975	-64.845	0.032	0.013
-382.960	-154.461	-0.123	0.008
-381.946	420.351	0.066	-0.144
-380.931	539.037	-0.070	-0.168
-379.917	370.858	0.217	-0.443
-378.902	-65.556	0.290	-0.118
-377.888	-157.726	0.185	-0.011
-376.873	-166.111	-0.259	-0.011
-375.858	-74.537	0.391	0.142
-374.844	-200.000	0.014	0.102
-373.829	-169.222	-0.345	-0.013
-372.815	159.888	-0.264	0.371
-371.800	114.071	-0.062	-0.076
-370.785	-200.000	-0.025	-0.131
-369.771	123.377	-0.264	-0.335
-368.756	-200.000	0.017	0.161
-367.742	-200.000	0.030	-0.211
-366.727	-200.000	-0.028	-0.138
-365.712	800.000	0.017	0.050
-364.698	73.454	-0.220	0.233
-363.683	-56.282	-0.267	0.120
-362.669	547.465	-0.065	-0.157
-361.654	694.536	-0.067	0.178
-360.639	-11.200	-0.326	0.217
-359.625	404.638	-0.014	-0.031
-358.610	483.119	0.120	-0.276
-357.596	-200.000	0.029	-0.259
-356.581	0.594	0.189	-0.137
-355.566	-74.243	0.352	0.128
-354.552	-200.000	0.022	0.315
-353.537	-104.717	-0.123	-0.029
-352.523	0.584	0.141	-0.102
-351.508	-33.837	-0.156	0.087
-350.493	-118.242	-0.319	0.057
-349.479	-7.487	-0.154	0.105
-348.464	218.412	0.090	0.145
-347.450	-55.838	-0.076	0.034
-346.435	93.301	0.022	-0.025
-345.420	577.547	-0.078	-0.192
-344.406	-37.957	0.088	-0.047
-343.391	774.122	0.116	-0.318
-342.377	800.000	0.080	-0.230
-341.362	9.675	-0.172	-0.132
-340.348	412.679	0.153	0.328
-339.333	-200.000	0.005	0.346
-338.318	90.102	0.157	-0.176
-337.304	-200.000	0.024	-0.315
-336.289	-46.538	-0.424	0.210
-335.275	-1.222	0.266	-0.190
-334.260	82.768	0.080	0.087
-333.245	-4.946	0.010	0.007
-332.231	-5.460	-0.050	0.035
-331.216	-91.845	0.342	-0.098
-330.202	-63.998	-0.072	-0.030
-329.187	-66.984	0.214	0.085
-328.172	-78.280	0.199	0.069
-327.158	212.099	-0.124	0.197
-326.143	-65.503	-0.300	-0.122
-325.129	1.203	-0.107	0.077
-324.114	-102.591	-0.078	-0.019
-323.099	539.365	-0.037	-0.089
-322.085	13.147	-0.089	-0.070
-321.070	418.832	-0.160	0.345
-320.056	20.805	0.150	-0.123
-319.041	-179.296	0.212	0.005
-318.026	-61.552	-0.238	0.101
-317.012	-105.098	-0.261	-0.060
-315.997	800.000	-0.051	-0.200
-314.983	165.646	-0.099	-0.141
-313.968	800.000	-0.047	-0.195
-312.953	800.000	-0.068	-0.198
-311.939	314.214	-0.115	0.218
-310.924	95.896	0.212	0.244
-309.910	313.370	0.260	0.493
-308.895	698.252	-0.255	0.676
-307.880	-52.229	-0.091	0.043
-306.866	-113.158	0.268	0.053
-305.851	-93.643	-0.268	0.075
-304.837	321.430	-0.063	-0.120
-303.822	78.115	-0.084	-0.091
-302.807	-93.891	-0.216	-0.060
-301.793	-200.000	-0.001	0.029
-300.778	-168.340	0.149	0.006
-299.764	446.368	-0.130	-0.288
-298.749	-200.000	0.006	-0.179
-297.735	800.000	0.065	0.215
-296.720	-108.562	-0.355	-0.077
-295.705	187.815	0.078	-0.117
-294.691	201.507	-0.174	-0.270
-293.676	800.000	0.079	-0.345
-292.662	-99.393	-0.263	0.067
-291.647	-100.495	-0.550	0.137
-290.632	173.731	-0.304	0.441
-289.618	27.369	0.207	0.175
-288.603	179.723	-0.030	-0.044
-287.589	-24.641	0.327	-0.196
-286.574	800.000	-0.023	0.075
-285.559	-200.000	-0.027	-0.226
-284.545	37.480	-0.149	0.133
-283.530	-97.490	-0.149	-0.039
-282.516	-32.761	-0.260	-0.146
-281.501	-23.451	0.167	-0.101
-280.486	-154.389	0.156	-0.011
-279.472	34.428	-0.133	-0.117
-278.457	379.587	0.088	-0.182
-277.443	149.162	0.127	-0.173
-276.428	165.507	0.115	0.164
-275.413	-127.390	0.489	0.072
-274.399	-153.298	0.063	0.004
-273.384	-81.795	0.086	-0.028
-272.370	237.452	-0.168	0.281
-271.355	35.022	0.232	-0.204
-270.340	-172.515	0.065	0.002
-269.326	781.587	-0.024	0.065
-268.311	797.583	0.087	0.241
-267.297	-112.028	0.282	-0.057
-266.282	41.756	0.094	0.086
-265.267	-200.000	-0.034	-0.151
-264.253	129.746	-0.117	0.150
-263.238	195.564	0.059	0.090
-262.224	575.993	0.049	0.120
-261.209	-200.000	0.049	0.262
-260.195	-40.798	-0.159	-0.083
-259.180	-127.812	-0.137	-0.020
-258.165	-200.000	-0.022	-0.188
-257.151	-117.716	-0.150	-0.027
-256.136	177.509	0.022	0.033
-255.122	43.850	-0.100	-0.092
-254.107	-200.000	-0.035	-0.259
-253.092	-38.848	0.205	-0.109
-252.078	69.809	-0.237	0.246
-251.063	218.299	0.260	0.417
-250.049	-200.000	-0.010	-0.223
-249.034	-200.000	0.134	-0.001
-248.019	-200.000	0.022	-0.135
-247.005	-176.181	0.208	-0.005
-245.990	250.673	-0.062	0.105
-244.976	-30.417	0.258	-0.147
-243.961	-61.929	0.252	0.106
-242.946	384.998	0.104	-0.215
-241.932	155.647	-0.181	-0.251
-240.917	-24.707	-0.278	-0.166
-239.903	-47.971	0.429	-0.208
-238.888	-160.976	-0.028	-0.001
-237.873	185.919	-0.140	0.210
-236.859	-200.000	-0.009	-0.240
-235.844	800.000	-0.039	-0.120
-234.830	339.671	-0.232	0.454
-233.815	246.462	-0.094	-0.159
-232.800	800.000	-0.101	-0.303
-231.786	-200.000	-0.007	-0.049
-230.771	-179.407	0.462	0.010
-229.757	-44.017	-0.116	-0.059
-228.742	-179.180	0.437	-0.010
-227.727	800.000	-0.074	0.220
-226.713	-200.000	-0.030	-0.289
-225.698	525.003	0.046	0.110
-224.684	-113.747	-0.167	0.033
-223.669	-196.258	-0.086	-0.001
-222.655	161.314	0.242	0.339
-221.640	-68.743	0.094	-0.036
-220.625	-67.461	0.110	0.043
-219.611	-126.718	0.193	-0.029
-218.596	300.957	-0.198	0.367
-217.582	800.000	-0.046	0.199
-216.567	78.150	-0.059	0.064
-215.552	-200.000	-0.025	-0.138
-214.538	126.118	0.322	0.409
-213.523	-173.244	0.078	-0.002
-212.509	110.202	-0.068	-0.082
-211.494	-73.719	-0.105	0.039
-210.479	-68.204	0.146	-0.057
-209.465	-200.000	0.038	-0.200
-208.450	35.470	-0.176	0.155
-207.436	-48.700	0.091	0.044
-206.421	800.000	0.044	0.174
-205.406	435.408	-0.048	-0.105
-204.392	-26.310	0.354	-0.208
-203.377	247.194	0.067	-0.114
-202.363	-76.643	-0.151	-0.053
-201.348	-51.841	0.139	0.065
-200.333	-200.000	-0.002	-0.214
-199.319	142.405	-0.150	0.199
-198.304	-95.307	-0.239	-0.065
-197.290	-200.000	0.047	-0.275
-196.275	74.273	-0.154	-0.162
-195.260	-200.000	0.016	0.110
-194.246	-78.845	-0.143	0.049
-193.231	-156.009	0.214	0.014
-192.217	69.150	-0.155	0.160
-191.202	287.203	-0.047	0.085
-190.187	773.336	-0.100	0.274
-189.173	135.743	0.108	0.140
-188.158	-30.859	-0.152	-0.086
-187.144	72.249	0.163	0.170
-186.129	-102.638	0.367	0.088
-185.114	19.770	0.095	-0.077
-184.100	-106.386	-0.659	0.148
-183.085	-128.194	-0.237	0.034
-182.071	-73.044	-0.101	0.037
-181.056	-200.000	-0.002	0.157
-180.042	800.000	-0.163	0.453
-179.027	-157.289	0.191	-0.012
-178.012	-187.281	0.327	-0.004
-176.998	800.000	-0.010	-0.040
-175.983	239.805	-0.137	-0.228
-174.969	-79.962	0.104	0.035
-173.954	437.712	0.096	0.211
-172.939	-200.000	0.011	-0.116
-171.925	-200.000	-0.041	-0.207
-170.910	-9.360	0.233	-0.156
-169.896	-200.000	-0.038	-0.207
-168.881	293.414	-0.206	0.377
-167.866	549.441	0.079	0.190
-166.852	200.827	-0.017	0.027
-165.837	800.000	0.069	-0.203
-164.823	-136.303	-0.197	-0.023
-163.808	154.942	0.062	0.086
-162.793	-113.490	-0.190	-0.037
-161.779	67.982	0.231	-0.237
-160.764	-200.000	0.076	-0.335
-159.750	-200.000	0.002	0.068
-158.735	51.527	0.093	0.088
-157.720	800.000	-0.122	-0.360
-156.706	332.424	0.132	-0.256
-155.691	70.520	0.257	-0.266
-154.677	234.034	-0.034	-0.056
-153.662	-200.000	0.021	0.318
-152.647	-200.000	-0.018	0.156
-151.633	26.567	0.126	-0.106
-150.618	46.281	-0.197	-0.183
-149.604	-47.577	-0.088	0.043
-148.589	30.678	0.142	0.122
-147.574	245.254	-0.120	-0.202
-146.560	-25.283	0.076	-0.045
-145.545	-200.000	-0.013	0.055
-144.531	-38.101	-0.160	-0.085
-143.516	-200.000	0.021	-0.187
-142.502	800.000	0.056	-0.229
-141.487	-200.000	0.050	-0.370
-140.472	197.409	0.149	0.228
-139.458	353.654	-0.057	-0.112
-138.443	-70.932	-0.144	-0.054
-137.429	264.720	0.068	-0.118
-136.414	-118.100	0.100	0.018
-135.399	-122.254	0.203	-0.033
-134.385	-200.000	-0.012	-0.100
-133.370	800.000	0.065	0.214
-132.356	800.000	0.146	0.484
-131.341	-200.000	-0.009	-0.159
-130.326	0.296	0.213	0.152
-129.312	-109.879	0.430	0.090
-128.297	-200.000	-0.015	-0.101
-127.283	4.580	-0.277	-0.204
-126.268	-165.598	0.143	-0.006
-125.253	-74.821	0.220	-0.079
-124.239	-78.348	0.216	0.074
-123.224	82.646	-0.176	-0.191
-122.210	-29.885	-0.100	0.057
