DTS Sentinel unit serial number:	SN413079Multiplexer serial number:	ORYXHardware model number:	OX4-SRSoftware version number:	ORYX F/W v4.00 Oryx Data Collector v3.7.2.0data status	okinstallation	princeton_trtdifferential loss correction	single-endedforward channel	channel 2reverse channel	N/Adate	2019/09/11time	13:29:10forward acquisition time	60.00reverse acquisition time	0.00gamma	496.2192k internal	0.2292k external	0.2292temperature offset calibration	1.0007default loss term (dB/km)	0.3790temperature slope calibration	1.0000multiplexer offset coefficient	1.0000multiplexer slope coefficient	1.0000fibre end	0.00T internal ref (°C)	41.94T ext. ref 1 (°C)	0.83T ext. ref 2 (°C)	37.26length (m)	temperature (°C)	Stokes	anti-Stokes-747.200	-99.036	0.073	-0.019
-746.185	800.000	0.094	0.290
-745.171	241.011	0.128	-0.218
-744.156	800.000	0.080	0.342
-743.142	-104.954	-0.270	-0.063
-742.127	-200.000	0.009	0.203
-741.112	-2.456	0.197	-0.141
-740.098	224.818	-0.013	-0.021
-739.083	-13.906	-0.143	0.094
-738.069	-60.957	-0.481	0.208
-737.054	-116.803	0.281	0.053
-736.039	-200.000	0.013	0.308
-735.025	-86.256	-0.313	-0.099
-734.010	328.311	-0.199	0.391
-732.996	4.694	-0.239	-0.179
-731.981	391.202	0.118	-0.250
-730.966	678.068	0.103	-0.273
-729.952	6.758	-0.268	-0.204
-728.937	-43.857	-0.048	-0.025
-727.923	-200.000	0.014	0.181
-726.908	7.682	-0.109	0.084
-725.894	258.336	-0.204	-0.359
-724.879	-160.956	-0.047	0.003
-723.864	-200.000	-0.107	-0.522
-722.850	800.000	0.126	-0.402
-721.835	-200.000	0.017	-0.327
-720.821	-151.621	0.038	0.003
-719.806	-45.039	0.116	-0.059
-718.791	800.000	-0.079	0.258
-717.777	178.038	-0.186	0.277
-716.762	216.941	0.170	-0.277
-715.748	800.000	-0.024	0.080
-714.733	-129.774	-0.143	0.020
-713.718	16.303	-0.121	-0.098
-712.704	-22.098	-0.321	-0.199
-711.689	800.000	-0.166	-0.476
-710.675	-139.275	0.121	-0.013
-709.660	-56.949	0.083	0.037
-708.645	103.547	0.047	0.056
-707.631	170.540	-0.043	-0.063
-706.616	114.638	-0.083	0.104
-705.602	-200.000	0.014	0.182
-704.587	-96.506	-0.193	-0.052
-703.572	176.185	0.104	0.155
-702.558	-177.470	-0.220	0.006
-701.543	-149.803	-0.305	0.024
-700.529	-196.198	0.310	-0.002
-699.514	-200.000	0.006	-0.098
-698.499	-115.075	0.330	0.064
-697.485	-30.403	-0.055	-0.032
-696.470	-64.213	-0.070	-0.029
-695.456	-41.397	0.188	-0.099
-694.441	-29.451	-0.270	-0.158
-693.426	-52.993	-0.280	-0.132
-692.412	-110.194	0.133	-0.028
-691.397	484.187	-0.056	0.131
-690.383	-124.753	-0.293	-0.046
-689.368	-137.324	-0.154	-0.018
-688.354	302.816	-0.086	-0.163
-687.339	322.253	0.034	-0.067
-686.324	-200.000	0.055	-0.309
-685.310	-40.191	0.155	0.083
-684.295	-132.778	-0.174	0.023
-683.281	-45.647	-0.084	-0.043
-682.266	800.000	0.108	-0.385
-681.251	-11.781	0.112	0.075
-680.237	-200.000	0.015	-0.272
-679.222	-200.000	0.001	0.201
-678.208	-200.000	-0.022	-0.317
-677.193	210.191	-0.185	0.296
-676.178	800.000	0.011	-0.034
-675.164	-200.000	-0.005	-0.048
-674.149	48.520	0.144	0.138
-673.135	-200.000	0.041	0.213
-672.120	673.249	0.057	-0.151
-671.105	-181.942	0.465	0.009
-670.091	31.801	0.097	-0.086
-669.076	-126.855	-0.352	0.053
-668.062	-146.573	0.229	0.020
-667.047	800.000	-0.089	-0.321
-666.032	-32.583	0.119	0.068
-665.018	-147.421	-0.180	-0.016
-664.003	-181.598	-0.099	0.002
-662.989	146.553	0.236	0.323
-661.974	800.000	0.046	0.169
-660.959	-163.154	-0.190	0.009
-659.945	762.671	-0.056	0.155
-658.930	32.806	-0.113	0.100
-657.916	-200.000	-0.037	-0.214
-656.901	-128.750	0.192	0.028
-655.886	800.000	0.058	-0.225
-654.872	62.460	-0.180	-0.183
-653.857	82.091	0.186	-0.205
-652.843	-4.294	0.238	-0.168
-651.828	72.578	-0.200	-0.212
-650.814	642.131	0.049	0.128
-649.799	-114.794	-0.209	-0.041
-648.784	-200.000	-0.022	0.107
-647.770	513.658	0.085	-0.202
-646.755	-200.000	0.005	-0.107
-645.741	-95.743	0.201	0.055
-644.726	22.070	-0.150	-0.125
-643.711	49.702	-0.013	-0.012
-642.697	-180.618	-0.353	0.007
-641.682	-94.429	-0.189	-0.053
-640.668	4.489	0.048	-0.036
-639.653	-46.125	-0.211	-0.106
-638.638	800.000	0.044	-0.149
-637.624	800.000	0.042	0.157
-636.609	-47.856	-0.271	0.134
-635.595	-66.952	0.191	-0.077
-634.580	59.706	-0.045	-0.045
-633.565	36.161	0.088	0.079
-632.551	-200.000	-0.002	0.194
-631.536	-73.992	-0.239	0.088
-630.522	-109.941	0.265	-0.056
-629.507	-34.201	-0.295	-0.165
-628.492	-168.609	-0.119	-0.005
-627.478	-200.000	0.021	-0.193
-626.463	800.000	0.027	-0.106
-625.449	15.346	-0.135	-0.108
-624.434	800.000	0.047	-0.184
-623.419	-200.000	-0.019	-0.282
-622.405	-6.459	-0.142	-0.099
-621.390	-30.315	-0.094	0.054
-620.376	-96.816	0.253	0.068
-619.361	800.000	0.063	-0.279
-618.346	-200.000	-0.233	-0.001
-617.332	-99.504	0.360	-0.092
-616.317	767.535	-0.065	0.179
-615.303	-98.237	-0.185	-0.048
-614.288	-200.000	0.034	-0.185
-613.273	194.652	-0.332	-0.513
-612.259	48.753	-0.117	0.112
-611.244	751.749	-0.029	-0.081
-610.230	-107.909	0.159	-0.035
-609.215	800.000	-0.157	0.490
-608.201	-200.000	0.009	0.137
-607.186	-169.810	0.485	-0.018
-606.171	-36.118	-0.198	-0.109
-605.157	347.625	-0.136	0.273
-604.142	62.005	-0.068	-0.069
-603.128	99.311	0.212	0.250
-602.113	-157.588	-0.197	0.012
-601.098	37.273	-0.023	-0.021
-600.084	-82.713	-0.148	-0.049
-599.069	213.755	0.105	0.169
-598.055	-200.000	0.013	0.427
-597.040	208.791	0.158	0.252
-596.025	164.739	-0.092	-0.132
-595.011	-109.786	-0.173	0.037
-593.996	10.706	0.267	-0.207
-592.982	81.360	-0.029	-0.032
-591.967	-74.125	0.281	0.103
-590.952	178.708	-0.105	0.156
-589.938	-169.968	-0.199	0.007
-588.923	324.849	0.072	0.140
-587.909	800.000	-0.117	-0.371
-586.894	-97.977	-0.335	-0.088
-585.879	-37.595	0.192	0.104
-584.865	800.000	-0.105	-0.452
-583.850	173.122	-0.097	0.141
-582.836	261.832	-0.056	-0.100
-581.821	-200.000	0.068	0.391
-580.806	43.371	0.033	-0.031
-579.792	109.179	-0.162	0.197
-578.777	-160.163	0.258	0.014
-577.763	-16.240	-0.041	0.026
-576.748	34.266	-0.140	0.124
-575.733	-130.495	0.252	0.035
-574.719	185.974	-0.187	-0.283
-573.704	11.480	0.221	-0.172
-572.690	2.713	-0.104	-0.077
-571.675	135.983	-0.124	-0.164
-570.661	-52.990	0.453	-0.212
-569.646	-10.342	0.138	0.093
-568.631	-75.496	-0.159	-0.057
-567.617	-171.764	-0.187	-0.006
-566.602	800.000	0.089	0.283
-565.588	36.366	0.290	0.260
-564.573	123.748	0.197	0.251
-563.558	343.574	0.085	-0.169
-562.544	502.689	0.142	0.334
-561.529	-46.230	-0.130	-0.065
-560.515	800.000	-0.109	-0.404
-559.500	-83.509	0.334	-0.109
-558.485	82.328	0.138	-0.152
-557.471	14.349	0.212	0.168
-556.456	6.271	0.171	0.129
-555.442	-59.583	-0.215	-0.094
-554.427	-200.000	0.031	0.427
-553.412	-57.576	-0.196	-0.087
-552.398	-200.000	-0.036	-0.241
-551.383	126.511	0.106	0.137
-550.369	800.000	0.093	-0.351
-549.354	800.000	-0.062	-0.260
-548.339	-200.000	-0.042	0.243
-547.325	-155.275	-0.311	0.021
-546.310	-24.401	0.036	0.022
-545.296	-200.000	0.007	0.202
-544.281	-142.806	-0.326	0.032
-543.266	-35.502	0.332	0.183
-542.252	29.882	0.158	0.136
-541.237	-157.105	0.223	-0.014
-540.223	-35.072	-0.147	0.082
-539.208	-200.000	-0.014	0.184
-538.193	-23.331	0.212	0.129
-537.179	-14.324	-0.265	0.173
-536.164	800.000	0.112	-0.328
-535.150	409.468	-0.051	-0.109
-534.135	220.330	0.133	-0.216
-533.121	-104.920	-0.307	0.071
-532.106	-8.852	-0.098	-0.067
-531.091	-26.631	-0.076	0.045
-530.077	-24.932	-0.161	-0.097
-529.062	-200.000	0.018	-0.145
-528.048	-45.047	0.038	0.019
-527.033	244.057	0.087	0.149
-526.018	230.905	0.175	0.291
-525.004	-177.921	-0.196	-0.005
-523.989	-169.614	-0.322	0.012
-522.975	252.045	-0.022	-0.038
-521.960	44.309	0.267	-0.249
-520.945	-63.642	0.166	-0.069
-519.931	-200.000	0.010	-0.155
-518.916	-110.619	-0.063	0.013
-517.902	386.005	0.183	0.383
-516.887	213.272	0.190	0.304
-515.872	-131.537	0.030	-0.004
-514.858	-76.003	-0.268	0.096
-513.843	6.472	-0.129	0.097
-512.829	-60.046	-0.157	0.068
-511.814	64.271	0.137	0.139
-510.799	28.638	-0.217	0.186
-509.785	-131.220	-0.420	-0.057
-508.770	32.622	-0.113	-0.099
-507.756	-126.818	-0.285	0.043
-506.741	374.049	-0.023	0.048
-505.726	-85.337	-0.092	-0.029
-504.712	-13.037	-0.217	0.143
-503.697	-87.974	0.180	0.055
-502.683	531.617	0.118	-0.283
-501.668	12.552	-0.150	-0.117
-500.653	-200.000	0.029	-0.185
-499.639	-30.380	0.230	0.132
-498.624	-200.000	0.263	0.001
-497.610	-19.361	0.275	0.173
-496.595	425.892	-0.076	0.165
-495.581	277.317	-0.052	0.094
-494.566	598.687	-0.027	-0.068
-493.551	-101.416	-0.378	0.093
-492.537	-19.860	-0.254	0.159
-491.522	46.228	0.052	0.049
-490.508	-200.000	-0.060	0.441
-489.493	800.000	0.101	0.347
-488.478	51.485	-0.172	-0.166
-487.464	-200.000	0.007	-0.285
-486.449	-56.656	-0.095	0.043
-485.435	159.958	0.155	0.219
-484.420	180.107	0.047	-0.069
-483.405	-140.880	0.543	-0.057
-482.391	-136.631	0.246	-0.029
-481.376	-67.862	-0.393	-0.155
-480.362	602.563	0.031	-0.079
-479.347	29.623	-0.035	-0.030
-478.332	-200.000	-0.005	0.776
-477.318	-200.000	0.025	0.236
-476.303	-63.929	-0.043	0.018
-475.289	40.491	0.297	0.271
-474.274	800.000	0.160	-0.479
-473.259	533.248	0.072	-0.173
-472.245	94.702	-0.278	-0.320
-471.230	486.338	-0.055	-0.127
-470.216	-103.102	-0.230	0.055
-469.201	-200.000	-0.055	-0.376
-468.186	225.237	0.213	-0.348
-467.172	-17.786	0.269	-0.171
-466.157	-53.684	0.050	-0.023
-465.143	248.503	0.108	-0.185
-464.128	-200.000	0.011	-0.171
-463.113	-59.360	0.257	0.112
-462.099	203.533	-0.156	-0.244
-461.084	-80.152	-0.132	0.045
-460.070	318.806	-0.254	0.487
-459.055	-200.000	0.026	0.436
-458.040	137.054	0.039	0.052
-457.026	800.000	-0.092	-0.351
-456.011	364.484	-0.095	-0.194
-454.997	178.720	0.102	-0.152
-453.982	-106.166	0.118	0.027
-452.968	-200.000	0.015	0.122
-451.953	-200.000	0.007	0.198
-450.938	800.000	-0.080	0.347
-449.924	-200.000	-0.002	0.148
-448.909	-200.000	0.018	0.108
-447.895	10.020	-0.048	0.037
-446.880	-91.850	-0.170	0.049
-445.865	800.000	-0.033	-0.123
-444.851	800.000	0.051	0.170
-443.836	-1.307	-0.066	0.047
-442.822	-31.022	0.045	-0.026
-441.807	-43.175	0.141	0.072
-440.792	-9.721	0.169	0.114
-439.778	-200.000	0.021	0.137
-438.763	266.887	0.046	0.082
-437.749	800.000	0.075	0.222
-436.734	-116.157	0.235	-0.044
-435.719	-106.424	0.281	-0.063
-434.705	-200.000	-0.040	-0.255
-433.690	-113.031	0.099	-0.020
-432.676	115.861	-0.096	0.118
-431.661	-108.728	0.152	-0.033
-430.646	31.426	-0.111	-0.096
-429.632	334.750	-0.081	-0.158
-428.617	-200.000	-0.024	0.229
-427.603	149.657	0.027	0.036
-426.588	-200.000	-0.008	0.106
-425.573	342.335	-0.130	-0.258
-424.559	-151.262	0.378	-0.029
-423.544	-73.439	0.139	-0.051
-422.530	-148.085	-0.168	-0.014
-421.515	-25.683	0.412	-0.246
-420.500	56.106	-0.244	-0.239
-419.486	-75.670	0.097	-0.035
-418.471	356.799	-0.036	-0.073
-417.457	-40.389	-0.150	-0.079
-416.442	-200.000	0.022	0.187
-415.428	288.787	-0.053	0.098
-414.413	-33.670	0.174	0.097
-413.398	-200.000	0.018	0.155
-412.384	34.426	-0.179	0.158
-411.369	-200.000	0.014	0.071
-410.355	-40.658	0.306	-0.160
-409.340	-162.089	0.079	-0.004
-408.325	145.816	-0.191	0.259
-407.311	-93.242	-0.331	-0.093
-406.296	-200.000	-0.043	-0.414
-405.282	-26.490	0.287	-0.170
-404.267	800.000	-0.023	-0.101
-403.252	-57.692	0.357	-0.158
-402.238	800.000	0.042	0.183
-401.223	-191.588	-0.443	-0.004
-400.209	-1.377	0.281	-0.201
-399.194	88.843	-0.183	0.206
-398.179	800.000	0.059	0.188
-397.165	271.449	0.214	0.381
-396.150	-10.246	0.059	-0.040
-395.136	-200.000	-0.019	-0.166
-394.121	-200.000	-0.017	-0.332
-393.106	-71.040	0.302	-0.115
-392.092	-20.007	-0.227	0.142
-391.077	-110.726	0.293	0.061
-390.063	18.528	0.085	0.068
-389.048	-200.000	-0.016	-0.186
-388.033	-161.722	0.181	-0.009
-387.019	-6.635	-0.009	0.006
-386.004	76.045	-0.212	-0.226
-384.990	-200.000	-0.001	0.175
-383.975	110.331	-0.126	-0.153
-382.960	-44.908	0.196	0.099
-381.946	-7.996	-0.069	0.047
-380.931	197.337	-0.136	-0.209
-379.917	106.194	-0.036	-0.043
-378.902	-63.719	-0.259	-0.107
-377.888	800.000	-0.026	-0.101
-376.873	-200.000	0.047	0.299
-375.858	148.451	-0.152	-0.207
-374.844	-49.335	0.031	0.015
-373.829	-47.933	0.233	0.114
-372.815	-79.922	-0.099	0.033
-371.800	134.816	0.152	0.200
-370.785	-121.087	0.176	-0.030
-369.771	-45.212	0.211	-0.106
-368.756	-2.351	0.025	0.018
-367.742	-200.000	-0.033	0.180
-366.727	389.371	0.211	-0.441
-365.712	-127.771	0.323	0.047
-364.698	202.475	-0.061	0.095
-363.683	9.458	-0.087	0.066
-362.669	-200.000	0.033	-0.167
-361.654	-102.998	0.092	0.022
-360.639	-200.000	0.006	0.204
-359.625	800.000	-0.104	0.301
-358.610	-11.194	-0.117	0.078
-357.596	800.000	-0.068	-0.213
-356.581	163.840	-0.071	0.101
-355.566	-74.087	0.041	0.015
-354.552	-115.077	0.255	-0.049
-353.537	-38.588	0.131	0.070
-352.523	-153.308	-0.177	0.012
-351.508	-200.000	0.001	-0.013
-350.493	-200.000	0.035	-0.200
-349.479	-200.000	0.040	-0.322
-348.464	-54.737	-0.267	-0.122
-347.450	-78.239	0.334	-0.116
-346.435	-43.567	0.266	0.135
-345.420	444.699	-0.068	0.151
-344.406	83.319	0.138	-0.151
-343.391	-32.447	-0.249	0.140
-342.377	800.000	-0.082	0.261
-341.362	218.657	-0.122	0.196
-340.348	-200.000	0.007	0.134
-339.333	-200.000	0.035	0.280
-338.318	134.352	0.147	0.192
-337.304	222.430	-0.218	-0.353
-336.289	-61.829	0.261	0.110
-335.275	-146.826	0.135	-0.012
-334.260	800.000	-0.084	-0.286
-333.245	101.294	-0.115	-0.135
-332.231	-58.193	-0.241	-0.106
-331.216	800.000	0.048	-0.154
-330.202	52.179	-0.290	0.279
-329.187	-200.000	-0.032	0.195
-328.172	-134.794	0.128	0.016
-327.158	-38.486	-0.261	0.139
-326.143	-148.826	-0.169	0.014
-325.129	237.589	-0.197	-0.329
-324.114	162.162	-0.102	-0.144
-323.099	522.197	0.111	-0.263
-322.085	-27.340	0.345	-0.202
-321.070	257.636	-0.113	0.195
-320.056	-74.821	-0.209	0.075
-319.041	452.226	-0.122	0.272
-318.026	-18.821	0.134	-0.084
-317.012	-200.000	0.022	0.358
-315.997	-77.548	0.385	-0.134
-314.983	-165.426	0.149	0.007
-313.968	488.107	-0.087	0.199
-312.953	119.829	0.071	0.088
-311.939	-148.093	0.023	-0.002
-310.924	139.983	0.083	-0.110
-309.910	600.287	0.095	0.239
-308.895	-72.383	-0.380	-0.141
-307.880	-124.870	0.052	0.008
-306.866	53.315	-0.113	-0.109
-305.851	-200.000	0.019	0.207
-304.837	-111.754	-0.121	-0.025
-303.822	-200.000	0.048	-0.378
-302.807	-200.000	-0.043	0.303
-301.793	-200.000	-0.008	-0.131
-300.778	14.024	-0.152	-0.119
-299.764	8.325	0.081	-0.061
-298.749	480.736	-0.074	-0.170
-297.735	485.375	0.063	0.143
-296.720	-21.501	0.295	-0.181
-295.705	-84.673	0.193	-0.061
-294.691	10.470	-0.228	0.175
-293.676	61.723	-0.229	-0.229
-292.662	-165.477	0.158	-0.007
-291.647	-200.000	0.004	0.272
-290.632	-2.369	0.098	0.069
-289.618	34.968	0.107	0.094
-288.603	72.025	0.023	-0.024
-287.589	-200.000	0.000	-0.114
-286.574	800.000	-0.081	-0.228
-285.559	-38.502	0.011	-0.006
-284.545	800.000	-0.029	-0.085
-283.530	-14.632	-0.226	-0.146
-282.516	-200.000	-0.043	-0.312
-281.501	-2.644	0.447	0.315
-280.486	-200.000	0.003	0.094
-279.472	-9.820	-0.123	0.082
-278.457	800.000	-0.051	0.144
-277.443	-91.653	0.227	0.065
-276.428	-95.675	0.057	0.015
-275.413	-177.333	0.252	-0.006
-274.399	-23.919	0.087	0.052
-273.384	-200.000	-0.011	0.171
-272.370	308.672	0.112	0.210
-271.355	87.984	-0.191	-0.212
-270.340	49.686	-0.120	-0.113
-269.326	-200.000	0.120	0.000
-268.311	142.861	-0.227	0.303
-267.297	248.595	-0.146	0.248
-266.282	-200.000	-0.016	0.092
-265.267	124.225	0.158	-0.199
-264.253	152.503	-0.049	0.067
-263.238	66.811	-0.115	0.118
-262.224	-106.795	-0.365	0.081
-261.209	-103.210	0.321	0.076
-260.195	-92.459	-0.133	0.038
-259.180	-48.647	-0.077	-0.037
-258.165	104.713	-0.141	0.166
-257.151	-26.504	0.142	-0.084
-256.136	47.833	-0.119	-0.112
-255.122	169.882	0.215	-0.309
-254.107	37.688	0.259	-0.231
-253.092	528.457	0.003	0.006
-252.078	-200.000	-0.026	0.217
-251.063	800.000	0.067	-0.200
-250.049	651.036	-0.037	-0.096
-249.034	800.000	0.023	-0.074
-248.019	800.000	0.085	0.337
-247.005	99.957	-0.188	0.219
-245.990	53.453	-0.111	0.106
-244.976	-200.000	-0.009	-0.118
-243.961	-62.828	0.141	-0.059
-242.946	800.000	-0.062	0.263
-241.932	-35.637	0.088	0.048
-240.917	800.000	0.107	-0.357
-239.903	-21.137	-0.275	0.169
-238.888	225.267	-0.042	0.068
-237.873	-147.052	0.371	-0.032
-236.859	5.818	0.186	-0.138
-235.844	-18.685	-0.085	-0.053
-234.830	-84.193	-0.346	0.110
-233.815	-18.623	0.237	-0.148
-232.800	-28.776	-0.267	0.154
-231.786	-123.611	-0.132	0.021
-230.771	280.031	-0.119	-0.213
-229.757	-176.791	0.193	0.005
-228.742	-200.000	-0.004	0.069
-227.727	18.884	0.248	0.200
-226.713	-22.273	0.115	0.070
-225.698	512.805	0.094	0.219
-224.684	33.775	-0.149	-0.130
-223.669	-51.227	-0.084	-0.040
-222.655	800.000	0.086	-0.323
-221.640	-200.000	0.035	-0.265
-220.625	-72.458	-0.172	0.064
-219.611	-200.000	-0.020	0.278
-218.596	-200.000	0.095	0.631
-217.582	-115.947	0.129	-0.024
-216.567	-200.000	0.070	-0.349
-215.552	304.921	-0.239	-0.446
-214.538	155.123	0.107	-0.148
-213.523	70.210	0.072	-0.074
-212.509	769.603	-0.038	-0.103
-211.494	-56.534	0.146	0.065
-210.479	665.215	0.098	-0.252
-209.465	-200.000	0.033	-0.273
-208.450	220.173	0.138	-0.222
-207.436	-71.073	-0.385	-0.145
-206.421	-30.366	0.304	-0.173
-205.406	-108.264	-0.159	0.034
-204.392	36.323	-0.128	0.113
-203.377	352.370	0.036	0.071
-202.363	-200.000	-0.026	0.190
-201.348	-134.408	-0.184	0.023
-200.333	-200.000	0.013	-0.084
-199.319	150.912	0.124	0.169
-198.304	88.792	-0.076	-0.085
-197.290	-200.000	0.016	0.160
-196.275	26.598	0.016	-0.013
-195.260	522.841	0.096	0.226
-194.246	-200.000	-0.015	0.205
-193.231	-86.919	0.168	-0.051
-192.217	-81.511	-0.036	0.012
-191.202	-200.000	-0.008	-0.061
-190.187	-200.000	-0.009	0.201
-189.173	636.118	0.050	-0.128
-188.158	94.950	-0.103	0.118
-187.144	-200.000	0.040	-0.205
-186.129	89.814	0.179	-0.200
-185.114	47.784	0.163	0.152
-184.100	-91.597	-0.239	0.068
-183.085	800.000	0.076	-0.320
-182.071	800.000	0.036	0.156
-181.056	-83.286	0.109	-0.035
-180.042	-200.000	-0.011	0.141
-179.027	-176.899	0.134	-0.003
-178.012	-143.489	0.158	-0.015
-176.998	-67.068	-0.232	-0.092
-175.983	30.014	0.250	-0.213
-174.969	-200.000	-0.040	-0.288
-173.954	293.254	0.109	0.199
-172.939	-30.421	-0.242	0.137
-171.925	-122.649	-0.329	-0.053
-170.910	50.138	-0.226	-0.214
-169.896	-200.000	0.012	-0.226
-168.881	-109.211	0.325	0.069
-167.866	-105.375	-0.163	-0.037
-166.852	28.751	-0.158	-0.133
-165.837	107.364	-0.056	-0.067
-164.823	349.341	-0.195	-0.385
-163.808	119.191	-0.368	-0.455
-162.793	711.427	0.115	0.306
-161.779	-200.000	0.011	-0.123
-160.764	-53.499	0.153	-0.070
-159.750	-193.618	-0.206	0.002
-158.735	262.268	-0.236	0.410
-157.720	-136.577	0.079	-0.009
-156.706	-74.321	-0.181	0.065
-155.691	800.000	-0.112	0.370
-154.677	-127.930	-0.062	-0.009
-153.662	-108.860	-0.069	-0.015
-152.647	68.871	0.215	-0.221
-151.633	-19.289	-0.103	0.064
-150.618	84.466	0.244	0.267
-149.604	-200.000	0.067	0.382
-148.589	0.674	0.176	-0.126
-147.574	800.000	0.078	-0.298
-146.560	-179.480	0.121	-0.003
-145.545	-200.000	0.046	-0.219
-144.531	28.730	0.175	0.148
-143.516	-200.000	0.015	0.161
-142.502	388.299	0.138	0.285
-141.487	-119.853	-0.047	-0.008
-140.472	-200.000	0.034	0.166
-139.458	37.007	0.079	0.070
-138.443	394.597	-0.088	-0.184
-137.429	120.380	0.110	0.137
-136.414	26.740	0.054	0.045
-135.399	-4.270	-0.152	0.105
-134.385	-200.000	0.002	0.220
-133.370	25.650	0.241	0.201
-132.356	-55.903	-0.116	0.052
-131.341	-200.000	-0.004	-0.343
-130.326	-116.382	-0.057	0.011
-129.312	-174.923	0.174	0.005
-128.297	534.198	-0.041	0.096
-127.283	800.000	0.083	0.274
-126.268	47.230	0.010	-0.010
-125.253	32.521	-0.035	-0.030
-124.239	-14.261	0.244	0.157
-123.224	800.000	-0.028	-0.078
-122.210	-98.536	-0.372	0.095
