DTS Sentinel unit serial number:	SN413079Multiplexer serial number:	ORYXHardware model number:	OX4-SRSoftware version number:	ORYX F/W v4.00 Oryx Data Collector v3.7.2.0data status	okinstallation	princeton_trtdifferential loss correction	single-endedforward channel	channel 2reverse channel	N/Adate	2019/09/18time	03:23:34forward acquisition time	60.00reverse acquisition time	0.00gamma	496.2192k internal	0.2350k external	0.2350temperature offset calibration	0.9980default loss term (dB/km)	0.3790temperature slope calibration	1.0000multiplexer offset coefficient	1.0000multiplexer slope coefficient	1.0000fibre end	0.00T internal ref (°C)	22.80T ext. ref 1 (°C)	0.17T ext. ref 2 (°C)	17.12length (m)	temperature (°C)	Stokes	anti-Stokes-747.200	66.211	-0.340	0.344
-746.185	-149.087	-0.376	0.030
-745.171	211.880	-0.129	0.202
-744.156	-21.700	-0.166	-0.101
-743.142	-54.042	-0.168	0.076
-742.127	-200.000	0.069	0.304
-741.112	-2.055	-0.232	-0.163
-740.098	142.296	0.023	0.030
-739.083	-77.643	-0.327	0.113
-738.069	503.141	-0.127	0.294
-737.054	-55.793	0.342	0.153
-736.039	45.320	-0.274	0.252
-735.025	13.398	0.126	0.098
-734.010	745.957	-0.149	-0.400
-732.996	800.000	-0.084	0.269
-731.981	35.868	-0.175	0.154
-730.966	-31.574	-0.098	-0.055
-729.952	23.747	-0.124	-0.102
-728.937	55.462	-0.168	-0.162
-727.923	800.000	0.046	-0.180
-726.908	574.059	0.049	-0.119
-725.894	-200.000	-0.047	0.267
-724.879	-99.456	-0.465	-0.117
-723.864	-152.614	-0.175	-0.012
-722.850	-200.000	-0.035	0.218
-721.835	215.435	0.071	-0.112
-720.821	384.555	-0.103	0.212
-719.806	-200.000	-0.004	0.083
-718.791	-111.725	-0.293	-0.059
-717.777	52.327	-0.092	-0.087
-716.762	-200.000	-0.240	-0.001
-715.748	67.035	0.074	0.075
-714.733	314.718	0.072	0.135
-713.718	55.116	-0.288	0.278
-712.704	-136.600	-0.164	-0.019
-711.689	175.384	0.047	-0.068
-710.675	-44.641	-0.254	0.126
-709.660	800.000	0.031	-0.115
-708.645	-85.436	0.374	0.116
-707.631	-200.000	-0.006	-0.103
-706.616	-149.363	-0.060	-0.005
-705.602	800.000	-0.053	-0.175
-704.587	52.486	-0.234	0.223
-703.572	85.918	-0.146	-0.160
-702.558	149.222	-0.179	0.242
-701.543	-200.000	-0.000	-0.164
-700.529	-200.000	-0.008	0.177
-699.514	40.829	-0.227	0.204
-698.499	261.717	-0.056	0.097
-697.485	800.000	0.073	-0.217
-696.470	-55.315	-0.285	-0.127
-695.456	-114.885	-0.295	0.056
-694.441	800.000	-0.046	0.185
-693.426	-105.294	-0.365	-0.083
-692.412	-79.297	0.188	-0.063
-691.397	-88.601	-0.050	-0.015
-690.383	2.140	-0.288	-0.208
-689.368	206.412	-0.068	0.105
-688.354	800.000	0.049	0.170
-687.339	-179.484	0.108	-0.002
-686.324	-80.396	0.114	0.038
-685.310	800.000	0.070	-0.214
-684.295	-37.682	-0.351	0.186
-683.281	10.437	0.244	-0.185
-682.266	-200.000	-0.009	-0.583
-681.251	-61.620	0.207	0.086
-680.237	24.332	0.181	-0.149
-679.222	696.069	-0.112	-0.294
-678.208	388.179	0.166	-0.342
-677.193	106.582	-0.177	-0.209
-676.178	324.139	0.063	-0.121
-675.164	197.396	0.109	0.166
-674.149	-22.982	-0.156	-0.093
-673.135	565.532	-0.060	-0.145
-672.120	800.000	-0.030	-0.117
-671.105	-32.130	-0.223	0.124
-670.091	132.996	-0.188	0.242
-669.076	-68.191	0.185	0.072
-668.062	-77.595	0.070	0.024
-667.047	75.572	-0.107	-0.113
-666.032	274.589	0.059	0.103
-665.018	800.000	0.075	0.208
-664.003	-6.167	-0.414	0.281
-662.989	-200.000	0.002	-0.178
-661.974	480.474	-0.069	0.157
-660.959	342.022	-0.025	-0.048
-659.945	45.594	0.171	0.157
-658.930	-177.109	0.150	0.004
-657.916	147.014	-0.232	-0.311
-656.901	158.589	0.193	-0.266
-655.886	242.123	0.026	-0.044
-654.872	428.518	-0.111	0.238
-653.857	253.707	-0.058	0.098
-652.843	800.000	-0.051	-0.174
-651.828	800.000	-0.026	0.075
-650.814	800.000	0.047	0.164
-649.799	13.007	-0.067	0.052
-648.784	-200.000	0.058	-0.446
-647.770	736.763	-0.038	-0.101
-646.755	71.930	-0.116	-0.120
-645.741	207.438	0.050	0.078
-644.726	-30.781	-0.168	0.094
-643.711	157.079	0.105	-0.144
-642.697	-115.616	-0.207	-0.039
-641.682	-75.178	-0.254	0.090
-640.668	800.000	-0.056	-0.218
-639.653	-200.000	-0.013	-0.204
-638.638	-36.380	-0.147	-0.079
-637.624	168.692	0.120	-0.170
-636.609	-200.000	0.003	0.020
-635.595	109.560	-0.106	-0.126
-634.580	-63.597	-0.327	0.133
-633.565	-200.000	0.047	-0.206
-632.551	79.646	-0.095	-0.101
-631.536	121.897	0.107	0.133
-630.522	32.298	0.093	0.080
-629.507	-68.911	0.180	0.069
-628.492	20.637	0.122	-0.098
-627.478	-68.305	-0.285	0.110
-626.463	80.399	-0.064	0.069
-625.449	-71.125	-0.245	-0.092
-624.434	306.400	-0.062	-0.115
-623.419	-59.945	-0.133	-0.057
-622.405	-200.000	0.014	-0.179
-621.390	-32.644	-0.242	0.134
-620.376	-42.065	-0.209	-0.106
-619.361	-148.931	0.141	-0.011
-618.346	-15.081	-0.027	-0.017
-617.332	-86.319	-0.142	-0.043
-616.317	800.000	-0.041	0.149
-615.303	-94.819	-0.092	-0.025
-614.288	581.816	0.087	-0.211
-613.273	166.303	0.159	0.223
-612.259	25.418	-0.185	0.153
-611.244	228.069	0.131	-0.211
-610.230	-200.000	-0.053	0.327
-609.215	42.377	-0.153	0.138
-608.201	432.044	0.094	0.202
-607.186	-79.875	-0.252	-0.084
-606.171	351.088	-0.215	-0.423
-605.157	96.255	-0.041	-0.046
-604.142	-48.946	-0.295	0.140
-603.128	127.936	0.211	-0.266
-602.113	800.000	0.105	0.312
-601.098	800.000	0.095	-0.280
-600.084	-200.000	-0.010	0.097
-599.069	-140.051	0.209	-0.022
-598.055	-96.368	0.261	-0.069
-597.040	-188.502	-0.200	0.002
-596.025	-200.000	0.013	-0.280
-595.011	-200.000	0.012	-0.175
-593.996	27.229	-0.196	-0.163
-592.982	800.000	-0.049	-0.172
-591.967	-10.592	-0.266	-0.175
-590.952	202.406	0.185	-0.284
-589.938	-200.000	0.028	-0.265
-588.923	-7.158	0.301	-0.202
-587.909	800.000	-0.083	-0.271
-586.894	-46.653	-0.121	-0.059
-585.879	92.860	-0.151	-0.169
-584.865	55.134	0.112	0.108
-583.850	-91.349	-0.275	0.078
-582.836	-200.000	0.010	0.186
-581.821	-200.000	-0.018	-0.154
-580.806	9.443	-0.253	-0.190
-579.792	800.000	-0.061	-0.231
-578.777	-82.410	0.130	-0.042
-577.763	352.037	0.090	0.176
-576.748	800.000	0.067	-0.277
-575.733	-60.222	-0.113	-0.048
-574.719	800.000	0.055	-0.233
-573.704	337.785	-0.095	0.183
-572.690	-7.679	-0.299	-0.201
-571.675	-51.437	0.105	0.049
-570.661	-127.584	-0.587	0.084
-569.646	-75.921	0.315	-0.110
-568.631	-200.000	0.034	-0.304
-567.617	-16.877	0.116	-0.072
-566.602	39.028	0.222	-0.197
-565.588	800.000	-0.087	0.248
-564.573	12.737	0.044	-0.034
-563.558	106.291	-0.083	0.098
-562.544	-46.930	0.287	0.139
-561.529	-127.383	-0.214	-0.031
-560.515	-200.000	0.012	0.123
-559.500	-72.985	0.292	-0.106
-558.485	579.130	-0.125	-0.302
-557.471	-92.068	-0.255	-0.071
-556.456	7.392	-0.116	0.086
-555.442	668.791	-0.076	0.196
-554.427	-40.487	0.161	0.083
-553.412	800.000	0.103	-0.348
-552.398	-55.867	0.235	-0.104
-551.383	127.030	-0.240	0.301
-550.369	-66.316	0.205	0.081
-549.354	-200.000	0.023	-0.101
-548.339	107.823	-0.259	-0.305
-547.325	-1.806	-0.140	0.098
-546.310	22.211	-0.056	-0.045
-545.296	-200.000	0.050	0.412
-544.281	-37.189	0.126	-0.067
-543.266	-4.128	0.259	-0.178
-542.252	-112.681	0.183	-0.036
-541.237	550.498	0.050	-0.118
-540.223	-200.000	0.015	-0.437
-539.208	800.000	-0.015	-0.040
-538.193	69.376	-0.097	0.099
-537.179	223.489	0.102	0.163
-536.164	-71.537	-0.359	-0.133
-535.150	800.000	-0.045	0.188
-534.135	-141.699	0.121	-0.012
-533.121	84.942	0.081	-0.088
-532.106	800.000	-0.059	-0.167
-531.091	-200.000	0.037	0.306
-530.077	92.605	-0.102	0.114
-529.062	384.093	-0.067	0.136
-528.048	-126.065	0.229	-0.034
-527.033	-84.113	-0.130	-0.041
-526.018	417.943	0.145	0.307
-525.004	-99.263	-0.157	0.039
-523.989	-17.331	-0.186	0.116
-522.975	248.098	0.178	0.298
-521.960	-124.624	-0.161	-0.025
-520.945	-16.260	-0.297	-0.187
-519.931	800.000	-0.069	-0.282
-518.916	-200.000	0.043	-0.311
-517.902	194.826	-0.132	0.199
-516.887	-65.260	-0.216	0.086
-515.872	-92.333	-0.369	0.103
-514.858	-171.808	0.059	-0.002
-513.843	262.892	-0.049	0.084
-512.829	-138.015	-0.320	0.035
-511.814	-200.000	0.022	0.283
-510.799	-200.000	0.042	-0.205
-509.785	-71.484	-0.188	0.070
-508.770	-84.787	-0.234	0.073
-507.756	-200.000	-0.009	-0.210
-506.741	496.835	0.074	-0.169
-505.726	665.231	0.039	-0.100
-504.712	-173.612	-0.251	0.007
-503.697	800.000	-0.131	-0.368
-502.683	-200.000	-0.011	-0.183
-501.668	800.000	0.042	0.166
-500.653	-200.000	0.024	0.213
-499.639	-61.770	0.268	-0.111
-498.624	396.121	0.136	0.281
-497.610	800.000	-0.096	-0.330
-496.595	-200.000	-0.012	-0.228
-495.581	-89.252	-0.307	0.090
-494.566	108.254	0.152	0.179
-493.551	-84.469	-0.124	0.039
-492.537	-200.000	0.062	-0.297
-491.522	-200.000	-0.004	0.174
-490.508	82.140	-0.178	-0.191
-489.493	219.842	0.073	-0.116
-488.478	-38.461	0.108	0.057
-487.464	-200.000	-0.000	0.430
-486.449	-184.620	-0.104	0.002
-485.435	157.433	-0.274	-0.375
-484.420	44.729	0.136	-0.123
-483.405	2.317	0.032	0.023
-482.391	648.477	0.029	0.074
-481.376	-105.426	0.098	0.022
-480.362	-145.544	-0.208	0.018
-479.347	102.472	0.075	0.087
-478.332	-200.000	-0.014	0.196
-477.318	97.451	-0.099	-0.113
-476.303	-200.000	-0.023	0.123
-475.289	65.166	-0.186	-0.186
-474.274	56.969	0.133	-0.128
-473.259	-200.000	-0.016	0.434
-472.245	800.000	0.009	-0.036
-471.230	-123.865	0.183	-0.029
-470.216	-152.098	0.107	-0.008
-469.201	-157.620	0.298	0.018
-468.186	-35.445	-0.090	0.048
-467.172	-107.638	0.396	-0.085
-466.157	-152.757	0.190	-0.013
-465.143	-167.961	0.095	0.004
-464.128	218.959	-0.020	0.031
-463.113	102.163	0.122	-0.141
-462.099	-104.070	-0.156	-0.036
-461.084	53.137	-0.018	0.017
-460.070	-56.514	-0.180	0.079
-459.055	53.470	0.271	0.257
-458.040	-43.796	-0.039	0.020
-457.026	145.949	-0.030	-0.039
-456.011	224.485	0.047	-0.076
-454.997	-123.259	0.191	-0.030
-453.982	-200.000	-0.008	0.251
-452.968	-200.000	-0.010	-0.047
-451.953	235.089	0.026	0.043
-450.938	-104.913	0.400	0.091
-449.924	7.744	-0.209	-0.154
-448.909	228.390	-0.043	0.070
-447.895	-178.783	0.230	-0.005
-446.880	-200.000	-0.002	0.105
-445.865	-146.131	-0.227	-0.020
-444.851	11.885	0.069	0.053
-443.836	281.584	0.093	-0.164
-442.822	438.231	-0.098	0.211
-441.807	32.872	0.127	0.109
-440.792	9.739	0.222	-0.166
-439.778	112.483	-0.234	0.280
-438.763	-3.937	-0.056	0.038
-437.749	61.167	-0.100	0.098
-436.734	-193.142	0.283	0.002
-435.719	203.205	0.309	-0.472
-434.705	136.821	-0.172	0.221
-433.690	-200.000	-0.015	0.084
-432.676	-90.727	-0.219	-0.062
-431.661	-200.000	0.031	0.353
-430.646	241.663	-0.207	-0.342
-429.632	-144.036	-0.170	0.016
-428.617	571.066	-0.050	0.120
-427.603	800.000	-0.061	0.240
-426.588	-55.384	0.194	0.086
-425.573	88.283	0.156	-0.171
-424.559	800.000	0.023	0.073
-423.544	-94.182	0.284	-0.077
-422.530	800.000	0.099	0.274
-421.515	-65.879	-0.143	0.056
-420.500	-28.172	0.253	0.144
-419.486	-22.737	-0.456	0.271
-418.471	277.871	-0.101	0.178
-417.457	800.000	-0.024	0.086
-416.442	-68.911	-0.170	0.065
-415.428	41.206	-0.175	-0.156
-414.413	-36.563	-0.404	-0.214
-413.398	-121.391	0.277	0.045
-412.384	800.000	-0.133	-0.426
-411.369	153.706	0.126	-0.170
-410.355	-53.506	-0.354	-0.160
-409.340	-89.191	0.281	0.082
-408.325	75.316	0.448	0.465
-407.311	800.000	0.065	-0.244
-406.296	361.375	-0.130	-0.257
-405.282	-200.000	0.053	0.229
-404.267	-95.566	0.429	0.113
-403.252	-176.788	0.100	-0.002
-402.238	27.182	0.111	0.092
-401.223	-200.000	-0.052	0.329
-400.209	52.274	-0.124	-0.117
-399.194	120.039	0.119	0.146
-398.179	-200.000	-0.034	-0.304
-397.165	-92.513	-0.116	0.032
-396.150	213.166	-0.128	-0.200
-395.136	183.997	0.139	-0.202
-394.121	-54.937	-0.339	0.150
-393.106	-123.700	0.270	-0.042
-392.092	-98.019	0.211	-0.054
-391.077	-162.326	-0.291	0.014
-390.063	479.309	-0.065	-0.145
-389.048	-64.818	0.242	-0.097
-388.033	156.994	0.076	0.104
-387.019	-129.181	-0.175	-0.024
-386.004	29.200	-0.077	0.064
-384.990	418.419	-0.181	-0.382
-383.975	261.949	0.192	0.327
-382.960	-113.975	0.430	0.082
-381.946	800.000	0.167	0.559
-380.931	-40.957	0.094	0.048
-379.917	-200.000	0.014	-0.203
-378.902	-74.284	0.016	0.006
-377.888	31.883	-0.082	0.070
-376.873	31.334	0.360	-0.304
-375.858	229.086	-0.179	-0.287
-374.844	-200.000	-0.009	-0.196
-373.829	725.795	0.066	0.173
-372.815	88.197	0.059	-0.065
-371.800	-90.331	-0.306	-0.087
-370.785	-200.000	0.031	-0.249
-369.771	-146.955	-0.142	0.012
-368.756	-200.000	-0.017	0.078
-367.742	55.214	-0.144	0.137
-366.727	-200.000	-0.034	-0.158
-365.712	589.501	0.091	0.222
-364.698	60.968	0.179	0.175
-363.683	-49.887	-0.167	0.078
-362.669	-10.712	-0.436	-0.284
-361.654	800.000	0.045	-0.144
-360.639	-200.000	-0.022	0.134
-359.625	798.586	-0.086	-0.232
-358.610	-200.000	0.004	-0.241
-357.596	21.884	0.200	0.160
-356.581	-127.360	-0.153	-0.022
-355.566	-133.890	-0.270	-0.033
-354.552	-32.037	0.209	0.115
-353.537	-95.364	-0.127	-0.034
-352.523	-139.213	-0.371	0.039
-351.508	452.749	0.042	0.091
-350.493	513.773	0.146	-0.334
-349.479	661.747	0.063	-0.160
-348.464	-26.996	0.477	0.274
-347.450	-29.811	0.192	-0.108
-346.435	56.154	-0.199	-0.189
-345.420	-41.519	-0.271	0.137
-344.406	-163.230	-0.128	-0.006
-343.391	-67.572	0.291	0.112
-342.377	-200.000	0.003	0.177
-341.362	-200.000	-0.014	0.242
-340.348	-79.767	0.193	0.064
-339.333	612.397	-0.133	0.327
-338.318	-175.552	-0.177	-0.005
-337.304	328.953	-0.193	0.365
-336.289	0.724	0.180	-0.127
-335.275	223.534	-0.084	-0.133
-334.260	29.293	0.228	0.191
-333.245	-55.839	0.372	0.163
-332.231	28.166	0.132	0.109
-331.216	-25.613	0.213	0.124
-330.202	-74.803	-0.147	0.052
-329.187	-87.970	-0.091	-0.027
-328.172	-53.502	0.154	0.069
-327.158	184.885	0.051	-0.074
-326.143	800.000	-0.094	0.394
-325.129	-200.000	-0.040	0.360
-324.114	-200.000	0.015	-0.139
-323.099	-46.361	0.269	0.130
-322.085	270.249	-0.081	0.140
-321.070	234.649	0.148	0.240
-320.056	-200.000	-0.013	-0.281
-319.041	-123.339	0.115	-0.018
-318.026	-43.961	0.434	-0.214
-317.012	-200.000	0.001	0.220
-315.997	-84.734	0.244	0.076
-314.983	800.000	0.090	-0.267
-313.968	81.133	-0.153	-0.162
-312.953	260.712	0.053	-0.090
-311.939	-120.142	0.312	0.052
-310.924	-58.326	0.256	-0.109
-309.910	179.556	0.039	-0.055
-308.895	369.587	0.138	0.275
-307.880	-155.430	-0.123	-0.008
-306.866	142.910	-0.188	-0.245
-305.851	-72.809	-0.058	-0.021
-304.837	-125.526	-0.259	-0.039
-303.822	19.110	0.110	0.087
-302.807	-115.218	0.273	0.051
-301.793	367.009	0.117	-0.231
-300.778	-13.971	-0.167	-0.106
-299.764	-41.007	0.403	0.204
-298.749	-50.751	-0.253	0.117
-297.735	571.717	-0.056	-0.134
-296.720	800.000	-0.096	0.410
-295.705	-62.432	-0.030	0.012
-294.691	-56.875	-0.069	0.030
-293.676	762.058	0.059	0.158
-292.662	31.236	0.233	-0.196
-291.647	80.047	-0.213	0.224
-290.632	-200.000	0.002	0.370
-289.618	336.165	-0.193	0.367
-288.603	29.425	0.057	-0.047
-287.589	-127.759	0.086	-0.012
-286.574	-35.096	0.241	0.129
-285.559	-200.000	-0.023	0.101
-284.545	69.648	-0.218	-0.221
-283.530	51.772	0.098	-0.091
-282.516	597.519	-0.190	0.462
-281.501	141.359	0.120	-0.156
-280.486	800.000	-0.093	-0.300
-279.472	647.111	-0.056	0.141
-278.457	-200.000	0.039	0.283
-277.443	-33.104	0.277	-0.150
-276.428	-200.000	0.034	-0.180
-275.413	800.000	-0.056	-0.236
-274.399	-101.034	-0.261	-0.063
-273.384	30.380	0.057	0.048
-272.370	291.089	0.189	0.336
-271.355	-90.632	-0.333	-0.094
-270.340	129.531	0.208	0.261
-269.326	120.699	-0.183	0.223
-268.311	398.331	-0.101	0.207
-267.297	109.747	0.142	-0.167
-266.282	-117.464	-0.052	0.009
-265.267	213.568	0.118	0.183
-264.253	431.091	-0.069	0.145
-263.238	-165.526	-0.386	0.016
-262.224	-200.000	0.002	0.284
-261.209	-48.099	0.104	-0.049
-260.195	-131.951	0.446	0.057
-259.180	-22.983	-0.268	0.158
-258.165	-25.830	-0.223	-0.129
-257.151	-46.850	0.211	0.101
-256.136	-34.457	0.231	0.124
-255.122	58.549	-0.068	0.065
-254.107	-82.432	0.081	-0.026
-253.092	58.286	-0.056	-0.054
-252.078	629.176	-0.099	-0.245
-251.063	800.000	0.062	0.185
-250.049	-3.662	-0.077	-0.052
-249.034	43.597	-0.077	-0.069
-248.019	285.697	-0.185	-0.326
-247.005	-71.337	0.464	0.170
-245.990	-122.811	-0.376	0.059
-244.976	800.000	-0.058	0.174
-243.961	-148.739	0.315	0.025
-242.946	-79.126	-0.290	-0.097
-241.932	427.859	-0.035	-0.075
-240.917	399.526	-0.102	-0.209
-239.903	-145.309	0.055	0.005
-238.888	-200.000	0.011	-0.346
-237.873	-52.665	0.111	-0.050
-236.859	274.955	0.025	-0.043
-235.844	-94.401	-0.212	0.057
-234.830	-46.050	0.107	-0.051
-233.815	-20.380	0.085	0.051
-232.800	260.181	0.134	-0.226
-231.786	800.000	0.044	0.128
-230.771	243.968	0.140	0.230
-229.757	800.000	-0.012	-0.040
-228.742	-108.236	0.280	-0.059
-227.727	-200.000	-0.021	0.150
-226.713	-68.323	-0.032	-0.012
-225.698	-200.000	0.026	0.198
-224.684	-66.181	0.055	-0.022
-223.669	-55.863	0.112	0.049
-222.655	-52.592	-0.067	0.030
-221.640	42.230	-0.228	-0.202
-220.625	67.910	0.019	0.019
-219.611	-11.332	-0.051	0.033
-218.596	181.624	0.097	-0.140
-217.582	-83.451	0.335	0.105
-216.567	519.180	-0.176	0.402
-215.552	-153.944	-0.081	-0.005
-214.538	-92.312	0.399	-0.110
-213.523	-133.176	-0.147	0.018
-212.509	-77.521	-0.100	0.034
-211.494	-130.554	-0.552	0.073
-210.479	-32.651	-0.198	-0.107
-209.465	-96.036	-0.275	0.072
-208.450	481.678	-0.082	-0.181
-207.436	160.734	0.032	0.044
-206.421	-70.103	0.227	0.085
-205.406	-88.889	-0.233	-0.068
-204.392	-77.980	-0.255	0.086
-203.377	177.336	0.126	-0.179
-202.363	-55.794	-0.349	0.152
-201.348	153.330	0.217	-0.290
-200.333	-103.686	-0.023	0.005
-199.319	-120.068	0.409	-0.068
-198.304	800.000	0.053	0.196
-197.290	3.080	-0.085	0.060
-196.275	-151.275	0.333	-0.024
-195.260	-179.893	0.434	-0.009
-194.246	-9.678	0.164	0.107
-193.231	-122.782	-0.539	-0.085
-192.217	-200.000	-0.019	0.183
-191.202	-19.431	0.316	-0.191
-190.187	-23.108	-0.338	0.199
-189.173	-74.158	-0.095	0.034
-188.158	385.208	0.006	-0.012
-187.144	113.101	0.153	0.182
-186.129	-200.000	-0.078	0.482
-185.114	-86.176	0.269	-0.081
-184.100	-200.000	-0.026	-0.203
-183.085	-200.000	0.042	-0.440
-182.071	-151.243	0.436	-0.032
-181.056	-200.000	-0.022	-0.392
-180.042	155.569	0.125	-0.168
-179.027	-79.018	0.193	-0.064
-178.012	800.000	-0.059	0.225
-176.998	-121.190	-0.338	-0.055
-175.983	-103.521	0.129	0.030
-174.969	-11.030	0.209	0.135
-173.954	132.463	-0.042	-0.053
-172.939	-129.468	0.090	0.012
-171.925	26.036	0.089	0.072
-170.910	737.346	0.073	0.192
-169.896	77.925	-0.106	-0.110
-168.881	-120.063	0.510	0.085
-167.866	-130.494	-0.161	0.021
-166.852	646.221	-0.087	0.217
-165.837	112.178	-0.131	0.155
-164.823	221.326	-0.066	0.103
-163.808	-98.238	0.262	-0.066
-162.793	-200.000	0.028	-0.362
-161.779	110.394	0.189	-0.221
-160.764	645.182	-0.043	0.107
-159.750	-115.237	0.176	0.033
-158.735	-183.984	-0.106	0.002
-157.720	800.000	0.042	-0.122
-156.706	-200.000	0.018	0.403
-155.691	86.788	0.138	-0.149
-154.677	271.748	0.048	-0.083
-153.662	-200.000	0.029	0.191
-152.647	-15.347	-0.183	-0.114
-151.633	-200.000	-0.051	0.267
-150.618	303.328	0.037	0.067
-149.604	68.106	-0.097	-0.097
-148.589	800.000	0.053	0.163
-147.574	-75.317	-0.104	-0.036
-146.560	-33.708	0.341	0.184
-145.545	200.182	0.090	-0.136
-144.531	800.000	0.156	-0.538
-143.516	-125.276	-0.018	0.003
-142.502	40.999	0.221	0.195
-141.487	-200.000	0.047	0.234
-140.472	115.945	-0.219	-0.261
-139.458	800.000	0.087	0.252
-138.443	-200.000	0.015	0.216
-137.429	74.554	-0.102	0.104
-136.414	-200.000	-0.022	0.153
-135.399	164.667	0.045	-0.062
-134.385	787.483	0.077	0.205
-133.370	-200.000	-0.038	-0.207
-132.356	-161.372	0.167	0.008
-131.341	20.501	-0.056	-0.044
-130.326	-164.023	-0.227	-0.010
-129.312	299.261	-0.071	-0.127
-128.297	-90.933	-0.296	0.083
-127.283	219.812	-0.067	0.105
-126.268	-200.000	0.001	-0.127
-125.253	-176.806	0.071	-0.002
-124.239	800.000	-0.133	-0.382
-123.224	800.000	0.055	-0.234
-122.210	407.600	0.040	0.082
-121.195	166.731	-0.180	-0.249
