DTS Sentinel unit serial number:	SN413079Multiplexer serial number:	ORYXHardware model number:	OX4-SRSoftware version number:	ORYX F/W v4.00 Oryx Data Collector v3.7.2.0data status	okinstallation	princeton_trtdifferential loss correction	single-endedforward channel	channel 2reverse channel	N/Adate	2019/09/10time	15:57:11forward acquisition time	60.00reverse acquisition time	0.00gamma	496.2192k internal	0.2307k external	0.2307temperature offset calibration	0.9934default loss term (dB/km)	0.3790temperature slope calibration	1.0000multiplexer offset coefficient	1.0000multiplexer slope coefficient	1.0000fibre end	0.00T internal ref (°C)	38.19T ext. ref 1 (°C)	-0.27T ext. ref 2 (°C)	32.03length (m)	temperature (°C)	Stokes	anti-Stokes-747.200	-57.003	0.348	0.156
-746.185	800.000	-0.051	0.155
-745.171	-115.058	-0.052	0.010
-744.156	800.000	0.034	-0.122
-743.142	-61.160	-0.131	-0.056
-742.127	-4.108	0.229	0.161
-741.112	-73.433	-0.229	0.085
-740.098	-135.513	-0.328	-0.040
-739.083	618.255	-0.022	0.057
-738.069	-200.000	-0.016	0.434
-737.054	181.332	-0.085	0.127
-736.039	-200.000	0.012	-0.191
-735.025	-124.524	0.382	-0.060
-734.010	133.348	-0.146	-0.191
-732.996	-200.000	0.009	-0.156
-731.981	2.097	0.142	0.104
-730.966	183.177	0.106	-0.159
-729.952	91.087	0.152	-0.174
-728.937	-124.757	-0.368	-0.058
-727.923	-175.364	-0.338	-0.009
-726.908	138.510	-0.099	-0.132
-725.894	800.000	0.074	-0.321
-724.879	-200.000	0.043	-0.328
-723.864	60.428	-0.142	-0.143
-722.850	-60.055	0.248	-0.108
-721.835	800.000	-0.036	-0.140
-720.821	54.628	0.165	-0.162
-719.806	-188.060	-0.191	-0.002
-718.791	18.458	0.056	0.046
-717.777	121.759	0.206	-0.261
-716.762	800.000	0.068	-0.201
-715.748	-77.622	-0.374	0.132
-714.733	-200.000	0.009	-0.062
-713.718	-70.613	-0.377	0.145
-712.704	149.161	-0.092	-0.127
-711.689	-42.526	-0.230	0.119
-710.675	234.833	0.025	-0.042
-709.660	84.307	0.260	-0.289
-708.645	-74.254	0.066	-0.024
-707.631	273.453	-0.068	-0.122
-706.616	-24.092	0.096	0.058
-705.602	125.702	0.062	0.080
-704.587	-12.091	-0.244	0.162
-703.572	127.820	-0.139	-0.179
-702.558	47.426	-0.110	-0.104
-701.543	-17.670	0.264	-0.169
-700.529	-27.131	0.071	-0.042
-699.514	114.983	0.193	0.239
-698.499	-1.177	0.061	0.044
-697.485	300.726	-0.082	-0.154
-696.470	190.288	-0.091	0.139
-695.456	476.015	0.147	0.337
-694.441	-95.153	0.188	-0.052
-693.426	-22.411	0.138	-0.085
-692.412	70.542	0.175	-0.184
-691.397	-200.000	0.040	0.203
-690.383	72.523	-0.217	0.230
-689.368	-12.668	0.214	-0.142
-688.354	800.000	-0.079	-0.274
-687.339	-16.386	0.131	0.084
-686.324	75.966	0.117	0.125
-685.310	98.780	0.088	0.103
-684.295	722.499	0.030	0.082
-683.281	-16.338	-0.235	-0.151
-682.266	-200.000	-0.115	-0.534
-681.251	-125.621	-0.233	0.036
-680.237	-32.990	-0.352	0.198
-679.222	800.000	-0.051	-0.172
-678.208	198.582	0.154	0.239
-677.193	-17.899	-0.110	0.070
-676.178	-63.751	-0.467	-0.194
-675.164	-23.465	-0.253	-0.154
-674.149	-25.493	0.133	-0.080
-673.135	-59.720	0.078	0.034
-672.120	800.000	0.066	0.232
-671.105	414.137	-0.062	-0.133
-670.091	-16.437	-0.262	-0.169
-669.076	16.102	-0.282	-0.225
-668.062	-36.484	-0.083	-0.045
-667.047	-99.703	-0.260	-0.066
-666.032	155.292	0.129	-0.179
-665.018	-135.219	0.542	-0.066
-664.003	800.000	-0.109	-0.470
-662.989	800.000	-0.084	-0.265
-661.974	-102.268	0.131	-0.032
-660.959	85.938	0.217	-0.242
-659.945	237.962	0.062	-0.104
-658.930	-15.052	-0.055	0.036
-657.916	558.675	-0.073	0.179
-656.901	-200.000	0.019	-0.285
-655.886	-113.677	0.183	0.036
-654.872	19.469	-0.119	0.097
-653.857	43.170	-0.212	-0.196
-652.843	-109.215	0.158	0.034
-651.828	-25.916	0.217	0.130
-650.814	-200.000	-0.011	0.098
-649.799	46.871	0.068	0.064
-648.784	-59.787	-0.228	0.099
-647.770	-160.244	-0.095	0.005
-646.755	-140.877	0.041	-0.004
-645.741	165.484	-0.136	0.195
-644.726	-33.240	-0.189	0.106
-643.711	-122.580	0.357	0.059
-642.697	-200.000	-0.005	-0.111
-641.682	800.000	-0.024	0.101
-640.668	61.548	-0.208	0.210
-639.653	-116.526	-0.160	-0.030
-638.638	-111.156	-0.221	-0.046
-637.624	-200.000	-0.021	0.277
-636.609	-149.284	-0.157	0.013
-635.595	238.382	-0.076	0.127
-634.580	48.614	-0.131	-0.124
-633.565	193.762	-0.153	0.234
-632.551	-123.527	-0.170	-0.027
-631.536	800.000	0.043	-0.188
-630.522	-28.896	0.179	-0.104
-629.507	87.027	-0.228	-0.255
-628.492	800.000	-0.043	-0.132
-627.478	-200.000	-0.007	-0.051
-626.463	-31.485	-0.283	-0.161
-625.449	-200.000	0.009	-0.221
-624.434	159.461	0.110	-0.154
-623.419	-148.622	0.215	-0.018
-622.405	-200.000	-0.032	0.550
-621.390	-102.448	-0.382	0.092
-620.376	54.681	-0.162	-0.158
-619.361	-17.709	0.113	0.072
-618.346	355.883	-0.074	-0.150
-617.332	800.000	-0.062	-0.173
-616.317	155.433	0.118	-0.165
-615.303	-200.000	0.024	0.141
-614.288	-200.000	-0.009	-0.196
-613.273	-200.000	0.004	0.057
-612.259	-200.000	0.244	0.001
-611.244	800.000	0.014	-0.038
-610.230	800.000	0.033	-0.095
-609.215	-46.848	0.172	-0.085
-608.201	151.356	0.197	-0.271
-607.186	800.000	-0.046	-0.198
-606.171	-1.705	-0.210	-0.149
-605.157	-100.138	-0.280	0.071
-604.142	-154.650	-0.236	-0.016
-603.128	137.923	0.146	-0.193
-602.113	-200.000	0.046	-0.211
-601.098	263.795	0.251	-0.441
-600.084	-25.787	0.241	-0.144
-599.069	800.000	0.022	-0.094
-598.055	-144.074	0.106	0.010
-597.040	457.243	-0.056	0.127
-596.025	195.451	0.201	0.309
-595.011	-200.000	-0.050	0.227
-593.996	4.874	-0.189	0.140
-592.982	800.000	-0.049	-0.200
-591.967	518.301	0.125	-0.295
-590.952	781.154	0.079	-0.219
-589.938	-9.968	-0.199	-0.134
-588.923	-108.995	-0.127	0.027
-587.909	19.723	-0.246	0.200
-586.894	251.741	0.128	-0.220
-585.879	-200.000	0.048	-0.337
-584.865	33.306	-0.233	0.205
-583.850	153.638	-0.136	-0.188
-582.836	379.434	-0.081	0.167
-581.821	-114.634	0.077	-0.015
-580.806	-200.000	0.019	0.086
-579.792	-78.325	0.075	0.026
-578.777	-200.000	-0.011	0.114
-577.763	378.944	-0.038	0.078
-576.748	800.000	0.042	-0.126
-575.733	-145.924	-0.189	-0.017
-574.719	241.533	-0.091	0.154
-573.704	-43.542	0.188	-0.096
-572.690	-89.252	-0.454	0.135
-571.675	-39.954	-0.198	0.104
-570.661	800.000	0.033	-0.105
-569.646	800.000	-0.051	0.151
-568.631	248.741	0.157	-0.269
-567.617	43.059	-0.057	-0.052
-566.602	800.000	0.057	0.211
-565.588	589.523	-0.121	-0.300
-564.573	-151.741	-0.096	0.007
-563.558	-42.555	0.257	0.132
-562.544	800.000	0.118	-0.389
-561.529	161.189	-0.223	-0.315
-560.515	-68.289	-0.436	0.171
-559.500	341.109	-0.167	0.329
-558.485	7.635	-0.153	0.116
-557.471	59.166	-0.193	0.192
-556.456	-98.513	-0.120	0.031
-555.442	39.453	-0.156	0.141
-554.427	45.577	0.115	0.107
-553.412	-200.000	0.015	-0.075
-552.398	7.855	0.222	-0.168
-551.383	-116.779	-0.306	-0.057
-550.369	-17.247	0.267	0.170
-549.354	60.026	-0.070	-0.070
-548.339	267.850	-0.056	-0.099
-547.325	59.067	0.325	0.323
-546.310	610.412	-0.068	0.172
-545.296	-200.000	-0.034	-0.210
-544.281	163.295	0.125	0.177
-543.266	-76.708	-0.140	0.050
-542.252	800.000	0.047	-0.174
-541.237	-24.439	0.152	0.091
-540.223	91.825	-0.251	0.284
-539.208	394.349	0.032	-0.068
-538.193	800.000	-0.050	-0.141
-537.179	800.000	0.085	-0.320
-536.164	285.323	-0.093	0.170
-535.150	89.548	0.092	0.104
-534.135	-8.683	0.157	-0.107
-533.121	-6.764	-0.277	-0.190
-532.106	73.503	0.124	0.131
-531.091	-36.636	-0.184	-0.100
-530.077	800.000	0.042	-0.125
-529.062	-200.000	0.015	-0.083
-528.048	90.362	-0.243	0.274
-527.033	-59.004	-0.137	0.060
-526.018	-78.348	0.157	-0.054
-525.004	146.403	-0.146	0.198
-523.989	-161.591	-0.252	-0.013
-522.975	-72.900	-0.265	-0.098
-521.960	759.402	-0.057	-0.156
-520.945	188.886	-0.213	0.321
-519.931	547.366	-0.076	-0.184
-518.916	800.000	-0.056	-0.245
-517.902	-114.833	-0.263	0.051
-516.887	-54.807	-0.135	0.061
-515.872	-200.000	-0.007	-0.036
-514.858	-200.000	0.036	-0.194
-513.843	-3.437	-0.243	-0.170
-512.829	-47.516	0.232	0.114
-511.814	221.962	0.275	-0.446
-510.799	-33.936	0.042	-0.023
-509.785	-35.286	0.268	-0.147
-508.770	22.224	0.245	0.201
-507.756	-65.680	0.273	0.110
-506.741	82.519	0.047	0.052
-505.726	102.010	-0.138	-0.162
-504.712	-30.592	-0.154	-0.088
-503.697	116.208	-0.121	0.149
-502.683	-55.315	-0.311	0.141
-501.668	-52.715	0.190	-0.089
-500.653	-139.549	-0.305	0.033
-499.639	-98.106	0.366	0.095
-498.624	800.000	0.025	-0.099
-497.610	145.480	-0.260	-0.351
-496.595	24.559	0.408	-0.340
-495.581	602.118	-0.072	-0.181
-494.566	11.754	-0.243	-0.188
-493.551	241.390	-0.282	-0.475
-492.537	43.165	0.219	0.202
-491.522	800.000	0.057	-0.198
-490.508	-74.181	0.310	-0.113
-489.493	-63.555	0.067	-0.028
-488.478	-80.622	0.146	0.049
-487.464	-130.594	-0.151	-0.021
-486.449	-106.414	0.151	-0.034
-485.435	-200.000	-0.037	0.249
-484.420	-200.000	-0.019	0.327
-483.405	588.091	0.070	-0.174
-482.391	32.580	0.581	0.506
-481.376	23.026	-0.172	0.142
-480.362	51.442	0.123	0.118
-479.347	473.324	-0.039	0.089
-478.332	-200.000	0.005	-0.318
-477.318	-109.756	0.062	-0.013
-476.303	625.188	0.047	-0.119
-475.289	-165.367	0.245	-0.011
-474.274	93.725	0.200	-0.228
-473.259	-200.000	-0.091	-0.501
-472.245	800.000	-0.065	-0.238
-471.230	-51.721	0.223	0.105
-470.216	-200.000	-0.020	-0.229
-469.201	-200.000	0.018	-0.357
-468.186	17.234	0.361	-0.289
-467.172	-67.953	0.385	-0.151
-466.157	375.314	-0.051	0.104
-465.143	55.460	0.077	-0.075
-464.128	800.000	0.080	-0.338
-463.113	145.365	-0.205	-0.276
-462.099	-200.000	0.003	-0.236
-461.084	-117.647	-0.256	0.046
-460.070	-200.000	0.014	0.370
-459.055	417.708	-0.050	0.107
-458.040	310.643	-0.065	0.122
-457.026	-18.104	0.120	-0.075
-456.011	800.000	0.097	0.319
-454.997	-28.687	-0.124	0.072
-453.982	-144.084	0.131	-0.012
-452.968	-80.051	-0.238	-0.080
-451.953	39.649	0.146	-0.132
-450.938	-50.018	-0.187	-0.089
-449.924	-35.796	-0.291	0.158
-448.909	20.574	-0.260	0.212
-447.895	66.328	-0.131	0.133
-446.880	-119.654	-0.044	-0.008
-445.865	392.714	0.059	-0.124
-444.851	-153.059	0.043	-0.003
-443.836	-129.553	-0.328	0.046
-442.822	-200.000	0.018	0.192
-441.807	2.582	-0.248	-0.180
-440.792	-134.056	0.237	-0.030
-439.778	759.255	-0.068	-0.185
-438.763	-0.145	-0.124	-0.089
-437.749	-191.566	0.176	0.002
-436.734	-16.776	0.237	-0.150
-435.719	-178.920	-0.408	0.009
-434.705	-73.066	0.106	0.039
-433.690	628.108	0.068	-0.172
-432.676	-29.968	0.182	0.104
-431.661	-114.462	0.265	-0.051
-430.646	-52.474	-0.178	-0.082
-429.632	78.958	0.121	-0.131
-428.617	-110.500	0.211	-0.044
-427.603	64.153	0.196	0.198
-426.588	487.321	0.080	0.182
-425.573	-137.436	-0.105	-0.012
-424.559	-163.728	-0.111	-0.005
-423.544	800.000	0.050	-0.202
-422.530	140.940	0.213	0.283
-421.515	-72.158	-0.417	0.155
-420.500	60.078	0.175	0.173
-419.486	-200.000	0.009	-0.246
-418.471	275.757	-0.113	0.201
-417.457	-150.845	0.261	0.020
-416.442	54.984	-0.422	-0.409
-415.428	-85.053	-0.342	-0.108
-414.413	-41.892	0.043	0.022
-413.398	208.487	-0.173	0.271
-412.384	189.336	0.151	-0.228
-411.369	-73.050	-0.145	-0.053
-410.355	-137.074	0.214	0.024
-409.340	69.383	-0.208	-0.215
-408.325	-200.000	0.004	0.024
-407.311	-156.439	-0.073	-0.005
-406.296	95.208	-0.182	0.208
-405.282	800.000	0.074	0.235
-404.267	53.432	0.121	0.116
-403.252	-108.544	-0.149	-0.032
-402.238	800.000	-0.075	-0.212
-401.223	-102.969	-0.286	-0.068
-400.209	800.000	0.060	-0.241
-399.194	-99.381	0.322	-0.081
-398.179	-156.534	-0.161	0.010
-397.165	238.285	0.037	0.062
-396.150	229.425	0.111	0.182
-395.136	-137.729	0.213	0.024
-394.121	164.809	0.073	-0.104
-393.106	60.540	-0.187	-0.186
-392.092	-14.803	0.126	0.081
-391.077	-10.577	-0.273	-0.182
-390.063	67.126	-0.204	-0.208
-389.048	-200.000	-0.038	0.366
-388.033	147.203	-0.133	-0.180
-387.019	-129.260	-0.212	0.030
-386.004	-84.346	0.170	-0.054
-384.990	-200.000	-0.015	0.325
-383.975	-200.000	-0.028	0.250
-382.960	800.000	0.038	-0.141
-381.946	-29.926	0.322	0.184
-380.931	1.875	-0.081	0.059
-379.917	-135.723	0.183	-0.022
-378.902	800.000	-0.066	0.200
-377.888	-25.085	-0.082	-0.049
-376.873	30.459	0.253	0.217
-375.858	650.220	-0.057	0.146
-374.844	194.648	0.035	-0.053
-373.829	505.528	-0.015	-0.035
-372.815	-97.026	-0.219	0.057
-371.800	52.740	-0.147	0.141
-370.785	-200.000	-0.011	0.132
-369.771	800.000	0.115	-0.348
-368.756	800.000	-0.153	-0.513
-367.742	-200.000	-0.025	-0.116
-366.727	-83.820	0.097	0.031
-365.712	-134.718	0.100	-0.012
-364.698	19.125	-0.307	-0.247
-363.683	75.664	0.172	-0.182
-362.669	36.802	0.106	-0.094
-361.654	57.584	-0.050	0.049
-360.639	-173.783	-0.079	0.002
-359.625	125.183	0.179	-0.226
-358.610	-121.649	-0.217	-0.036
-357.596	-133.196	-0.138	0.017
-356.581	-159.872	-0.364	0.020
-355.566	67.169	-0.305	0.312
-354.552	-200.000	-0.010	0.133
-353.537	-200.000	0.017	0.136
-352.523	-35.378	0.409	-0.223
-351.508	185.157	0.065	0.097
-350.493	-60.187	-0.429	0.183
-349.479	36.262	-0.310	0.273
-348.464	800.000	-0.085	0.294
-347.450	-11.872	0.081	0.053
-346.435	-82.890	-0.239	-0.077
-345.420	-67.266	-0.023	0.009
-344.406	-142.652	-0.054	-0.005
-343.391	14.627	-0.084	0.066
-342.377	-200.000	0.028	0.258
-341.362	45.185	-0.265	-0.245
-340.348	-200.000	-0.035	-0.184
-339.333	-191.437	-0.196	0.002
-338.318	49.467	0.149	0.140
-337.304	-27.369	-0.300	0.174
-336.289	-92.215	0.057	-0.016
-335.275	6.760	-0.235	0.175
-334.260	-200.000	0.024	-0.276
-333.245	-192.254	0.147	0.001
-332.231	-57.328	0.100	0.044
-331.216	24.367	0.270	0.223
-330.202	-90.333	-0.102	-0.030
-329.187	25.859	0.118	-0.098
-328.172	-30.795	-0.039	-0.022
-327.158	-200.000	0.011	-0.087
-326.143	249.185	0.151	-0.256
-325.129	-28.371	0.022	-0.012
-324.114	-143.065	-0.148	0.014
-323.099	25.821	0.283	-0.236
-322.085	31.107	-0.158	-0.135
-321.070	214.995	0.115	0.182
-320.056	-65.797	0.251	0.100
-319.041	-200.000	0.006	0.181
-318.026	-70.418	-0.085	0.032
-317.012	-70.862	-0.189	-0.071
-315.997	-167.725	0.275	0.011
-314.983	103.253	0.118	0.138
-313.968	127.060	-0.127	-0.161
-312.953	127.730	0.204	0.260
-311.939	-200.000	0.060	0.326
-310.924	5.622	0.132	-0.097
-309.910	-200.000	0.036	0.237
-308.895	-200.000	0.011	0.381
-307.880	-142.012	-0.098	0.010
-306.866	-151.385	-0.313	0.023
-305.851	-74.396	0.414	0.149
-304.837	534.987	-0.095	0.224
-303.822	-200.000	0.018	0.084
-302.807	30.943	0.150	0.128
-301.793	41.334	-0.194	-0.175
-300.778	-151.427	-0.377	-0.028
-299.764	5.287	0.287	-0.212
-298.749	110.323	-0.061	-0.073
-297.735	-35.261	-0.187	-0.102
-296.720	-113.770	0.257	0.050
-295.705	106.971	-0.285	-0.338
-294.691	-200.000	-0.022	-0.153
-293.676	-200.000	-0.030	-0.285
-292.662	13.071	0.090	0.069
-291.647	-200.000	0.028	0.214
-290.632	331.264	-0.035	-0.068
-289.618	448.140	-0.176	0.388
-288.603	5.174	0.085	-0.062
-287.589	456.409	-0.146	-0.324
-286.574	-70.832	-0.180	-0.068
-285.559	800.000	-0.083	-0.293
-284.545	12.316	0.218	0.168
-283.530	217.469	0.054	-0.085
-282.516	800.000	0.064	-0.264
-281.501	-200.000	0.009	0.444
-280.486	-141.543	-0.217	0.022
-279.472	-200.000	-0.008	-0.077
-278.457	-200.000	0.016	0.273
-277.443	57.835	0.292	0.286
-276.428	-200.000	-0.002	-0.178
-275.413	-200.000	0.017	0.372
-274.399	-41.012	-0.122	0.063
-273.384	59.105	0.216	0.212
-272.370	325.966	0.063	-0.121
-271.355	-23.344	0.375	0.225
-270.340	218.469	0.176	0.280
-269.326	-200.000	0.003	0.174
-268.311	280.758	-0.090	0.160
-267.297	314.575	0.153	0.287
-266.282	800.000	0.021	0.078
-265.267	-200.000	-0.046	0.374
-264.253	-142.826	0.231	0.022
-263.238	-141.692	-0.191	0.019
-262.224	-200.000	0.001	-0.019
-261.209	-200.000	-0.008	-0.042
-260.195	418.189	0.038	0.082
-259.180	-121.389	0.132	0.022
-258.165	-87.024	-0.287	-0.087
-257.151	800.000	-0.018	-0.067
-256.136	465.023	0.127	0.283
-255.122	-150.081	0.231	-0.018
-254.107	706.361	0.129	0.338
-253.092	-63.742	0.649	-0.265
-252.078	800.000	0.071	-0.280
-251.063	40.946	-0.182	-0.164
-250.049	-99.056	-0.047	-0.012
-249.034	-86.457	0.135	0.041
-248.019	-200.000	-0.020	0.217
-247.005	-158.799	-0.145	0.008
-245.990	446.278	-0.104	-0.227
-244.976	98.841	-0.202	-0.233
-243.961	-31.854	0.298	-0.167
-242.946	352.943	0.197	-0.389
-241.932	-200.000	0.010	0.200
-240.917	800.000	-0.010	0.026
-239.903	-14.279	0.258	-0.166
-238.888	243.770	0.121	-0.203
-237.873	-200.000	0.000	0.112
-236.859	21.503	0.309	-0.251
-235.844	800.000	0.054	-0.198
-234.830	800.000	0.114	0.354
-233.815	-200.000	0.061	0.284
-232.800	108.065	-0.187	0.223
-231.786	-138.396	0.271	0.030
-230.771	-200.000	-0.025	0.168
-229.757	-49.600	-0.151	0.072
-228.742	-14.063	-0.154	-0.099
-227.727	-200.000	0.008	-0.329
-226.713	50.994	-0.019	-0.018
-225.698	-186.920	-0.207	0.003
-224.684	331.380	-0.089	0.171
-223.669	-200.000	-0.011	-0.067
-222.655	359.322	-0.028	0.056
-221.640	-200.000	0.058	0.273
-220.625	-181.215	0.342	-0.007
-219.611	-98.944	0.298	0.075
-218.596	-200.000	-0.022	-0.196
-217.582	32.725	0.137	0.118
-216.567	800.000	-0.086	0.348
-215.552	-48.395	-0.327	0.157
-214.538	800.000	0.049	-0.172
-213.523	125.818	-0.138	0.174
-212.509	800.000	0.116	0.444
-211.494	15.017	0.103	0.080
-210.479	-17.452	0.258	0.162
-209.465	-48.149	0.268	0.129
-208.450	24.620	0.237	-0.195
-207.436	-200.000	-0.010	-0.173
-206.421	216.048	0.226	0.358
-205.406	407.377	0.125	-0.263
-204.392	-34.773	0.212	0.116
-203.377	14.453	0.090	-0.070
-202.363	225.953	0.026	0.041
-201.348	139.034	-0.064	0.083
-200.333	-20.940	0.130	-0.079
-199.319	-112.937	-0.228	-0.045
-198.304	-15.038	0.377	0.240
-197.290	61.148	0.191	-0.189
-196.275	-110.042	-0.222	-0.046
-195.260	441.325	-0.004	-0.008
-194.246	105.224	0.149	-0.175
-193.231	-200.000	0.025	-0.241
-192.217	281.520	0.162	0.289
-191.202	-184.603	-0.096	-0.002
-190.187	-73.540	-0.115	-0.042
-189.173	218.500	0.116	-0.185
-188.158	-200.000	-0.033	-0.145
-187.144	-72.429	-0.362	-0.133
-186.129	-200.000	-0.030	-0.266
-185.114	800.000	0.025	0.077
-184.100	18.874	0.104	0.083
-183.085	800.000	-0.174	0.485
-182.071	-24.427	0.431	0.256
-181.056	185.932	-0.100	0.149
-180.042	-2.232	-0.312	-0.217
-179.027	-200.000	-0.032	-0.369
-178.012	-47.248	0.460	0.223
-176.998	504.316	-0.046	0.107
-175.983	-119.717	0.298	-0.051
-174.969	60.221	0.260	0.255
-173.954	-200.000	0.021	0.418
-172.939	55.945	0.208	0.201
-171.925	-136.379	-0.075	-0.009
-170.910	800.000	0.036	-0.131
-169.896	63.525	0.256	0.255
-168.881	281.121	-0.084	0.149
-167.866	127.680	-0.126	-0.159
-166.852	97.453	0.110	0.126
-165.837	213.499	0.195	0.306
-164.823	68.790	0.087	-0.088
-163.808	-23.217	-0.169	0.101
-162.793	-179.550	0.410	0.009
-161.779	-200.000	-0.018	-0.084
-160.764	284.314	0.008	-0.014
-159.750	-85.027	0.159	-0.050
-158.735	73.779	-0.137	-0.143
-157.720	800.000	0.093	0.382
-156.706	82.445	0.109	0.117
-155.691	-200.000	0.018	-0.395
-154.677	115.857	-0.219	-0.267
-153.662	-25.747	-0.241	0.141
-152.647	375.827	-0.095	0.193
-151.633	33.658	0.135	-0.117
-150.618	402.959	0.017	0.036
-149.604	800.000	-0.068	-0.187
-148.589	-73.810	0.335	0.121
-147.574	800.000	-0.048	0.165
-146.560	374.603	0.136	0.275
-145.545	560.742	0.154	0.371
-144.531	146.440	0.074	-0.099
-143.516	800.000	-0.007	-0.027
-142.502	15.572	0.153	0.120
-141.487	-132.747	-0.185	0.024
-140.472	-120.335	-0.140	-0.024
-139.458	-3.030	-0.156	-0.108
-138.443	-25.318	-0.093	-0.055
-137.429	-200.000	-0.010	-0.215
-136.414	-141.075	-0.235	-0.024
-135.399	527.658	-0.121	-0.284
-134.385	290.788	0.103	-0.187
-133.370	-200.000	-0.497	0.001
-132.356	207.731	0.293	0.454
-131.341	137.496	-0.066	0.086
-130.326	-85.732	-0.086	0.026
-129.312	55.425	-0.241	-0.232
-128.297	-58.948	0.121	0.052
-127.283	-200.000	0.032	0.171
-126.268	360.461	-0.149	-0.296
-125.253	-200.000	-0.002	-0.166
-124.239	10.015	0.118	0.089
-123.224	-136.298	0.156	0.018
-122.210	-111.013	0.108	0.022
-121.195	-200.000	0.002	0.165
