DTS Sentinel unit serial number:	SN413079Multiplexer serial number:	ORYXHardware model number:	OX4-SRSoftware version number:	ORYX F/W v4.00 Oryx Data Collector v3.7.2.0data status	okinstallation	princeton_trtdifferential loss correction	single-endedforward channel	channel 2reverse channel	N/Adate	2019/09/14time	03:07:35forward acquisition time	60.00reverse acquisition time	0.00gamma	496.2192k internal	0.2337k external	0.2337temperature offset calibration	1.0124default loss term (dB/km)	0.3790temperature slope calibration	1.0000multiplexer offset coefficient	1.0000multiplexer slope coefficient	1.0000fibre end	0.00T internal ref (°C)	26.58T ext. ref 1 (°C)	3.25T ext. ref 2 (°C)	21.64length (m)	temperature (°C)	Stokes	anti-Stokes-747.200	-145.317	-0.150	0.014
-746.185	-200.000	0.037	0.270
-745.171	157.490	0.248	-0.344
-744.156	258.016	0.039	-0.067
-743.142	-200.000	0.000	0.080
-742.127	265.197	0.159	0.278
-741.112	205.834	-0.136	-0.213
-740.098	800.000	-0.077	-0.221
-739.083	-115.860	-0.081	0.015
-738.069	-96.319	0.179	0.048
-737.054	-130.523	-0.218	0.030
-736.039	-94.669	-0.191	-0.052
-735.025	800.000	0.020	0.060
-734.010	231.748	0.054	0.088
-732.996	16.606	-0.122	-0.097
-731.981	800.000	-0.045	0.153
-730.966	72.470	-0.104	-0.109
-729.952	-200.000	0.006	-0.054
-728.937	800.000	-0.022	0.094
-727.923	-200.000	0.010	-0.287
-726.908	-80.328	0.133	-0.045
-725.894	-200.000	-0.030	-0.224
-724.879	-20.712	-0.137	0.084
-723.864	800.000	-0.022	0.065
-722.850	-200.000	0.002	0.222
-721.835	102.203	-0.118	0.139
-720.821	541.312	-0.052	0.123
-719.806	443.237	-0.043	-0.095
-718.791	68.119	-0.258	-0.265
-717.777	-132.681	-0.045	0.006
-716.762	109.648	-0.075	0.091
-715.748	-36.234	-0.144	0.078
-714.733	340.928	0.019	0.038
-713.718	-56.475	0.214	0.095
-712.704	-191.682	-0.173	0.002
-711.689	407.424	-0.244	-0.518
-710.675	-126.813	-0.375	0.056
-709.660	-133.375	0.218	-0.027
-708.645	-102.909	0.061	0.015
-707.631	-128.054	-0.168	0.024
-706.616	87.120	-0.402	-0.445
-705.602	456.491	-0.067	-0.150
-704.587	800.000	-0.048	-0.164
-703.572	-200.000	-0.066	-0.358
-702.558	-56.496	0.048	0.021
-701.543	-177.494	0.190	-0.005
-700.529	178.887	-0.096	-0.140
-699.514	430.540	0.130	-0.283
-698.499	-48.979	-0.156	-0.075
-697.485	105.282	0.113	-0.134
-696.470	-200.000	-0.011	-0.120
-695.456	-106.681	0.277	0.062
-694.441	702.239	0.121	0.320
-693.426	-107.935	-0.029	0.006
-692.412	121.636	0.015	-0.019
-691.397	-4.142	-0.230	-0.159
-690.383	-1.729	-0.157	0.111
-689.368	-49.371	0.330	0.158
-688.354	-160.744	-0.191	-0.010
-687.339	-200.000	0.048	-0.401
-686.324	-200.000	-0.010	0.124
-685.310	791.795	-0.047	0.130
-684.295	211.909	-0.098	0.155
-683.281	-200.000	0.023	0.134
-682.266	658.511	-0.024	0.061
-681.251	800.000	-0.045	-0.150
-680.237	-148.428	0.129	0.011
-679.222	27.695	-0.069	0.058
-678.208	-71.044	0.168	0.063
-677.193	-22.629	-0.163	0.099
-676.178	-200.000	-0.009	-0.053
-675.164	62.393	-0.032	0.032
-674.149	-22.385	-0.214	-0.130
-673.135	-69.366	-0.469	-0.180
-672.120	207.947	0.349	0.546
-671.105	-76.743	-0.187	-0.066
-670.091	-200.000	0.036	0.178
-669.076	744.807	-0.062	-0.166
-668.062	-200.000	-0.044	-0.280
-667.047	-141.552	0.099	0.010
-666.032	48.099	-0.131	-0.122
-665.018	-200.000	0.003	-0.227
-664.003	96.664	-0.116	-0.133
-662.989	-200.000	0.008	-0.233
-661.974	-105.533	-0.208	-0.047
-660.959	-82.083	-0.255	0.083
-659.945	-200.000	-0.013	0.191
-658.930	311.119	-0.126	-0.236
-657.916	-200.000	0.012	-0.226
-656.901	800.000	-0.076	0.232
-655.886	-47.486	0.147	-0.071
-654.872	-62.194	0.276	-0.115
-653.857	800.000	-0.038	-0.159
-652.843	-105.983	-0.428	-0.096
-651.828	-200.000	0.062	0.000
-650.814	108.264	0.096	0.115
-649.799	82.858	-0.021	-0.023
-648.784	-84.394	-0.201	-0.064
-647.770	144.762	0.077	-0.103
-646.755	-82.864	0.331	0.107
-645.741	800.000	-0.050	0.185
-644.726	-167.578	-0.345	0.014
-643.711	-200.000	-0.007	0.104
-642.697	-9.967	0.127	-0.085
-641.682	800.000	-0.111	0.325
-640.668	-200.000	0.051	0.261
-639.653	60.755	0.225	0.223
-638.638	-132.453	0.028	-0.004
-637.624	-191.362	-0.152	-0.002
-636.609	693.647	-0.029	0.076
-635.595	351.447	0.074	0.146
-634.580	-200.000	0.027	-0.135
-633.565	199.822	0.080	-0.123
-632.551	-145.224	-0.284	0.026
-631.536	-37.946	-0.172	0.091
-630.522	7.145	-0.270	-0.201
-629.507	-73.145	-0.192	-0.070
-628.492	-112.885	-0.235	-0.046
-627.478	-169.277	0.098	-0.004
-626.463	15.400	0.089	0.070
-625.449	-3.268	-0.352	-0.245
-624.434	-42.281	-0.220	0.112
-623.419	175.447	0.082	-0.119
-622.405	-200.000	-0.001	-0.117
-621.390	363.851	0.176	-0.353
-620.376	-200.000	-0.061	-0.446
-619.361	-149.925	-0.166	-0.013
-618.346	800.000	-0.026	-0.107
-617.332	17.569	0.207	-0.165
-616.317	60.927	-0.203	-0.201
-615.303	800.000	0.096	0.304
-614.288	-102.188	-0.451	0.108
-613.273	-33.252	0.118	0.065
-612.259	-48.866	-0.087	-0.042
-611.244	-119.729	0.537	0.093
-610.230	-67.635	-0.222	-0.087
-609.215	-200.000	-0.044	0.197
-608.201	-200.000	0.003	-0.124
-607.186	-200.000	-0.061	-0.310
-606.171	-68.506	0.282	-0.109
-605.157	800.000	-0.071	-0.288
-604.142	3.722	-0.291	0.212
-603.128	-200.000	0.007	-0.275
-602.113	74.698	0.221	-0.232
-601.098	-118.283	-0.065	0.012
-600.084	258.617	0.116	0.200
-599.069	800.000	0.021	0.083
-598.055	42.958	-0.202	-0.184
-597.040	190.065	0.095	-0.142
-596.025	-52.853	0.197	-0.090
-595.011	13.212	-0.203	0.157
-593.996	-4.047	0.103	-0.072
-592.982	-200.000	0.022	0.100
-591.967	-101.090	-0.263	-0.064
-590.952	240.873	-0.041	0.069
-589.938	-42.811	-0.079	0.040
-588.923	111.360	-0.215	0.259
-587.909	160.823	-0.102	0.142
-586.894	204.139	-0.347	-0.536
-585.879	800.000	-0.069	0.257
-584.865	311.840	0.108	0.202
-583.850	102.268	0.025	-0.029
-582.836	-123.531	-0.020	-0.003
-581.821	-170.684	0.407	0.014
-580.806	-129.457	0.409	-0.057
-579.792	-18.955	0.134	-0.083
-578.777	-134.794	0.167	-0.020
-577.763	-11.497	0.215	-0.141
-576.748	-55.957	0.159	0.071
-575.733	52.867	0.134	0.128
-574.719	-36.223	0.311	-0.167
-573.704	18.933	-0.059	-0.047
-572.690	-75.841	-0.331	0.117
-571.675	-0.753	0.077	0.054
-570.661	-156.384	-0.260	-0.016
-569.646	103.274	0.131	-0.153
-568.631	-29.562	0.197	-0.112
-567.617	-8.616	-0.434	-0.291
-566.602	800.000	0.039	-0.158
-565.588	6.703	0.181	-0.134
-564.573	-150.752	0.218	-0.017
-563.558	-133.055	0.159	0.020
-562.544	-200.000	-0.035	0.227
-561.529	27.255	0.220	-0.184
-560.515	800.000	0.025	0.084
-559.500	392.259	-0.054	0.113
-558.485	23.921	0.251	0.206
-557.471	-200.000	-0.061	0.413
-556.456	-130.074	-0.302	-0.041
-555.442	0.932	-0.313	-0.223
-554.427	-151.473	-0.093	0.007
-553.412	74.248	-0.178	-0.186
-552.398	-51.679	0.360	-0.167
-551.383	800.000	-0.104	0.399
-550.369	-200.000	-0.028	0.143
-549.354	116.995	0.128	0.157
-548.339	376.475	0.130	-0.264
-547.325	0.869	-0.099	-0.070
-546.310	-200.000	-0.010	-0.468
-545.296	285.367	0.109	0.196
-544.281	800.000	0.127	-0.483
-543.266	-31.748	0.395	-0.220
-542.252	-90.319	-0.090	-0.026
-541.237	173.231	-0.117	-0.168
-540.223	-200.000	-0.037	-0.278
-539.208	-119.185	0.098	0.017
-538.193	8.780	-0.136	0.102
-537.179	-0.276	-0.152	0.108
-536.164	-61.871	0.302	0.126
-535.150	-73.618	-0.162	-0.059
-534.135	-200.000	-0.043	-0.207
-533.121	-97.942	0.259	0.067
-532.106	314.573	-0.073	0.137
-531.091	-141.464	-0.324	-0.033
-530.077	430.904	-0.187	-0.403
-529.062	-81.301	-0.145	-0.048
-528.048	-88.723	0.264	0.078
-527.033	-59.707	0.225	-0.096
-526.018	-88.003	0.175	-0.052
-525.004	377.952	0.185	0.376
-523.989	-60.862	-0.231	-0.097
-522.975	503.748	0.028	0.064
-521.960	-39.983	-0.121	0.063
-520.945	-200.000	-0.025	-0.339
-519.931	-200.000	-0.007	0.173
-518.916	-45.302	0.111	0.055
-517.902	522.035	-0.042	-0.097
-516.887	668.324	0.076	0.196
-515.872	19.824	0.307	0.246
-514.858	289.715	-0.277	-0.499
-513.843	800.000	0.066	-0.229
-512.829	-118.699	0.138	-0.024
-511.814	-73.688	-0.588	-0.213
-510.799	518.466	0.038	0.088
-509.785	255.042	-0.157	-0.268
-508.770	-200.000	-0.020	0.110
-507.756	-196.105	0.179	-0.001
-506.741	-200.000	0.018	-0.105
-505.726	227.851	-0.050	0.080
-504.712	626.234	0.057	0.143
-503.697	-200.000	0.025	-0.150
-502.683	-79.832	-0.223	-0.075
-501.668	51.288	-0.356	-0.336
-500.653	-200.000	0.026	0.280
-499.639	12.250	0.060	0.046
-498.624	800.000	-0.041	-0.126
-497.610	800.000	-0.093	0.301
-496.595	196.241	0.067	0.101
-495.581	-200.000	-0.010	-0.106
-494.566	-29.046	0.128	-0.073
-493.551	-200.000	0.025	-0.272
-492.537	800.000	-0.134	0.477
-491.522	-99.651	0.104	0.026
-490.508	-200.000	0.087	0.000
-489.493	-0.294	0.354	0.250
-488.478	473.261	0.133	0.297
-487.464	62.312	-0.124	-0.123
-486.449	530.630	0.048	-0.112
-485.435	169.874	-0.145	-0.206
-484.420	155.444	-0.062	-0.085
-483.405	-6.982	-0.139	-0.094
-482.391	215.161	-0.076	-0.120
-481.376	277.910	0.084	-0.149
-480.362	-93.452	0.165	0.045
-479.347	800.000	-0.099	-0.291
-478.332	800.000	0.126	-0.381
-477.318	141.308	0.149	0.196
-476.303	109.681	-0.046	-0.054
-475.289	249.440	0.118	0.199
-474.274	-200.000	-0.017	-0.079
-473.259	-31.614	0.554	0.309
-472.245	207.745	-0.059	-0.092
-471.230	-4.298	-0.204	0.140
-470.216	-118.887	0.292	-0.051
-469.201	72.683	-0.039	0.041
-468.186	-142.084	-0.206	-0.020
-467.172	13.250	-0.234	0.180
-466.157	-170.129	-0.525	0.018
-465.143	-200.000	0.203	0.000
-464.128	-200.000	0.028	0.487
-463.113	-44.676	-0.315	0.156
-462.099	-66.555	-0.012	-0.005
-461.084	584.179	-0.069	-0.169
-460.070	-91.059	0.115	0.033
-459.055	800.000	-0.057	0.160
-458.040	191.572	0.083	-0.124
-457.026	42.198	0.121	0.109
-456.011	556.665	-0.043	0.103
-454.997	-64.363	-0.253	0.102
-453.982	-101.170	0.139	0.034
-452.968	-200.000	0.068	-0.299
-451.953	-129.231	-0.152	0.021
-450.938	290.433	-0.073	0.131
-449.924	735.689	0.196	-0.521
-448.909	162.745	0.084	0.117
-447.895	66.413	0.128	0.129
-446.880	-62.251	-0.236	-0.097
-445.865	-14.528	0.143	-0.092
-444.851	-137.407	-0.149	0.017
-443.836	-40.580	0.444	-0.229
-442.822	-14.569	0.273	-0.174
-441.807	-95.744	-0.321	0.085
-440.792	-43.436	0.110	-0.055
-439.778	123.049	0.116	0.145
-438.763	-88.789	0.318	0.094
-437.749	-200.000	-0.003	-0.024
-436.734	210.712	-0.142	-0.221
-435.719	-200.000	0.013	0.071
-434.705	800.000	0.013	-0.046
-433.690	16.718	-0.183	-0.144
-432.676	24.902	-0.302	-0.248
-431.661	91.880	-0.016	-0.018
-430.646	800.000	0.056	0.164
-429.632	-200.000	0.012	0.078
-428.617	-185.435	-0.221	0.003
-427.603	261.779	0.073	-0.126
-426.588	-69.522	0.430	-0.163
-425.573	-200.000	0.010	0.160
-424.559	-198.011	0.217	0.001
-423.544	-56.753	-0.271	0.119
-422.530	77.727	-0.084	0.088
-421.515	800.000	-0.066	0.203
-420.500	-18.940	0.074	0.046
-419.486	800.000	-0.049	0.180
-418.471	-200.000	-0.006	-0.130
-417.457	31.207	-0.260	0.221
-416.442	-27.332	-0.153	0.088
-415.428	-48.687	0.319	0.152
-414.413	509.062	0.039	0.090
-413.398	129.871	-0.127	-0.161
-412.384	-200.000	-0.023	-0.104
-411.369	-66.037	-0.312	0.123
-410.355	638.899	-0.031	0.077
-409.340	-98.547	-0.209	0.053
-408.325	431.166	-0.126	0.271
-407.311	-32.747	0.368	-0.203
-406.296	-95.146	0.274	-0.073
-405.282	321.097	-0.085	0.160
-404.267	43.616	0.203	0.184
-403.252	99.241	0.048	-0.055
-402.238	-200.000	0.024	-0.268
-401.223	-96.587	-0.265	-0.069
-400.209	800.000	0.018	0.075
-399.194	656.180	-0.047	0.119
-398.179	177.086	-0.147	0.211
-397.165	800.000	-0.059	-0.213
-396.150	218.002	-0.117	-0.184
-395.136	800.000	-0.051	-0.187
-394.121	239.875	0.118	0.194
-393.106	-200.000	0.019	0.263
-392.092	-151.489	0.281	-0.021
-391.077	228.127	-0.143	0.230
-390.063	-52.549	0.342	0.156
-389.048	-200.000	-0.024	0.126
-388.033	71.836	-0.240	0.247
-387.019	44.897	-0.164	0.149
-386.004	-98.846	0.145	-0.037
-384.990	-42.194	0.260	0.131
-383.975	137.894	0.151	0.196
-382.960	-68.773	-0.132	0.050
-381.946	-59.576	-0.282	0.120
-380.931	800.000	-0.068	-0.267
-379.917	50.312	-0.273	0.255
-378.902	800.000	-0.045	0.164
-377.888	233.606	0.084	0.136
-376.873	54.573	0.057	0.054
-375.858	-75.511	-0.011	-0.004
-374.844	-54.967	-0.031	0.014
-373.829	-40.548	-0.263	-0.135
-372.815	-50.933	-0.238	-0.110
-371.800	-76.469	-0.153	0.053
-370.785	-200.000	0.078	-0.344
-369.771	7.087	-0.156	-0.115
-368.756	30.177	0.403	0.340
-367.742	137.993	0.161	-0.208
-366.727	397.156	0.079	-0.163
-365.712	-44.714	0.247	0.122
-364.698	800.000	0.033	0.135
-363.683	-9.783	0.038	0.025
-362.669	800.000	0.040	-0.153
-361.654	317.513	0.020	-0.038
-360.639	-48.722	0.220	-0.104
-359.625	10.332	0.103	0.078
-358.610	209.563	0.098	0.152
-357.596	-200.000	-0.001	0.057
-356.581	-84.892	0.353	-0.109
-355.566	169.299	0.078	-0.110
-354.552	-92.015	-0.144	-0.040
-353.537	-200.000	0.038	0.183
-352.523	381.888	-0.140	-0.284
-351.508	698.413	0.118	0.307
-350.493	-200.000	0.048	-0.000
-349.479	-200.000	-0.016	0.212
-348.464	105.658	0.151	0.176
-347.450	-127.323	0.201	0.029
-346.435	-200.000	0.031	-0.247
-345.420	-200.000	-0.021	0.142
-344.406	37.627	0.175	-0.154
-343.391	800.000	0.011	-0.042
-342.377	119.766	-0.035	0.043
-341.362	167.742	0.058	0.082
-340.348	283.227	0.086	-0.152
-339.333	-35.409	-0.237	0.127
-338.318	-47.240	-0.131	-0.063
-337.304	379.442	-0.114	-0.231
-336.289	167.255	-0.189	-0.265
-335.275	-74.784	0.155	-0.055
-334.260	-200.000	-0.011	0.282
-333.245	269.979	-0.041	-0.071
-332.231	-19.797	-0.090	0.055
-331.216	546.318	0.125	-0.295
-330.202	277.801	0.040	-0.070
-329.187	533.485	-0.091	-0.213
-328.172	-20.150	0.381	-0.232
-327.158	168.675	-0.141	-0.198
-326.143	800.000	0.089	0.380
-325.129	800.000	-0.038	0.129
-324.114	185.294	-0.066	-0.096
-323.099	-8.518	-0.080	0.053
-322.085	7.199	0.121	0.089
-321.070	608.975	-0.082	0.203
-320.056	21.247	-0.166	0.133
-319.041	800.000	-0.113	0.316
-318.026	155.438	-0.110	-0.150
-317.012	-43.892	-0.115	-0.057
-315.997	800.000	0.030	0.127
-314.983	-200.000	-0.018	0.139
-313.968	144.986	-0.099	-0.131
-312.953	391.702	-0.048	-0.099
-311.939	800.000	-0.025	-0.107
-310.924	228.685	-0.143	0.230
-309.910	800.000	-0.074	0.280
-308.895	-109.508	-0.095	-0.020
-307.880	25.081	-0.035	-0.028
-306.866	-200.000	0.000	0.133
-305.851	-196.217	0.274	0.002
-304.837	-200.000	0.021	0.138
-303.822	83.959	-0.040	-0.043
-302.807	75.695	-0.173	0.181
-301.793	260.371	-0.094	-0.160
-300.778	-200.000	-0.025	0.165
-299.764	127.792	-0.180	-0.226
-298.749	-122.816	0.257	-0.041
-297.735	800.000	-0.014	0.048
-296.720	-56.571	-0.297	-0.130
-295.705	-87.513	-0.263	-0.078
-294.691	58.136	0.329	0.318
-293.676	-200.000	0.045	-0.385
-292.662	-60.242	-0.070	0.030
-291.647	-176.681	-0.402	-0.010
-290.632	29.789	-0.006	0.005
-289.618	-30.525	-0.170	0.095
-288.603	-1.694	0.185	-0.128
-287.589	-200.000	-0.002	-0.019
-286.574	-77.677	0.198	0.068
-285.559	97.818	-0.276	-0.313
-284.545	-75.329	-0.260	-0.091
-283.530	-200.000	-0.013	0.071
-282.516	-57.639	0.081	0.035
-281.501	347.881	0.048	-0.092
-280.486	-118.500	0.096	0.017
-279.472	-18.170	-0.268	0.165
-278.457	-200.000	-0.022	-0.171
-277.443	664.272	-0.052	0.133
-276.428	138.876	0.016	0.021
-275.413	166.097	0.068	0.095
-274.399	800.000	-0.019	-0.084
-273.384	312.717	0.099	0.183
-272.370	74.634	-0.288	-0.299
-271.355	572.133	-0.084	0.203
-270.340	-53.049	-0.141	-0.064
-269.326	217.791	0.029	-0.045
-268.311	-40.046	-0.075	-0.038
-267.297	-200.000	-0.018	-0.241
-266.282	577.019	0.021	-0.051
-265.267	107.016	0.100	-0.117
-264.253	98.404	0.198	-0.224
-263.238	1.456	-0.204	0.144
-262.224	407.210	-0.063	-0.130
-261.209	131.459	0.185	0.234
-260.195	-200.000	0.003	-0.327
-259.180	-130.436	0.192	0.026
-258.165	-123.441	0.299	0.047
-257.151	150.996	0.142	-0.190
-256.136	-16.524	0.101	-0.063
-255.122	50.995	0.134	-0.125
-254.107	474.011	-0.156	0.347
-253.092	-66.547	-0.286	0.112
-252.078	189.584	0.088	0.130
-251.063	145.790	0.097	0.129
-250.049	800.000	0.046	-0.152
-249.034	-68.240	0.097	-0.037
-248.019	-114.024	-0.268	-0.051
-247.005	25.635	0.172	-0.141
-245.990	-200.000	-0.024	0.189
-244.976	-200.000	0.016	0.086
-243.961	140.825	0.078	0.102
-242.946	160.240	0.036	-0.050
-241.932	271.746	0.120	-0.207
-240.917	-200.000	0.030	0.138
-239.903	-200.000	-0.021	-0.215
-238.888	800.000	-0.066	0.206
-237.873	-40.424	0.071	-0.036
-236.859	-29.085	-0.075	0.043
-235.844	574.510	-0.198	0.476
-234.830	-20.761	0.144	-0.087
-233.815	-114.198	-0.387	-0.074
-232.800	800.000	0.023	-0.069
-231.786	102.037	0.071	-0.082
-230.771	-63.389	-0.489	0.198
-229.757	88.788	0.169	0.185
-228.742	-200.000	0.004	0.153
-227.727	9.820	-0.140	0.104
-226.713	-86.135	0.349	-0.106
-225.698	-15.859	-0.126	-0.079
-224.684	43.359	0.205	0.184
-223.669	393.084	0.082	0.167
-222.655	-67.203	0.387	-0.150
-221.640	419.156	0.016	-0.034
-220.625	-133.728	-0.379	0.047
-219.611	-200.000	0.018	0.181
-218.596	521.155	-0.162	-0.373
-217.582	-57.612	-0.093	-0.040
-216.567	-54.424	-0.098	-0.044
-215.552	15.179	-0.178	0.137
-214.538	-59.365	0.112	0.047
-213.523	25.931	-0.265	0.218
-212.509	800.000	-0.060	-0.209
-211.494	-200.000	-0.021	-0.104
-210.479	97.128	0.091	0.102
-209.465	-113.160	-0.456	-0.088
-208.450	800.000	0.063	0.241
-207.436	616.277	-0.024	-0.059
-206.421	222.262	-0.116	-0.183
-205.406	800.000	0.028	0.094
-204.392	-53.524	-0.106	-0.048
-203.377	12.526	0.101	0.077
-202.363	-162.541	0.588	-0.029
-201.348	75.570	0.264	-0.274
-200.333	17.395	0.087	0.068
-199.319	-85.897	0.137	-0.042
-198.304	-27.721	-0.114	-0.065
-197.290	-200.000	0.011	-0.051
-196.275	17.983	0.128	-0.101
-195.260	80.469	0.086	0.091
-194.246	-110.149	0.473	-0.097
-193.231	-51.373	0.355	-0.163
-192.217	-43.738	0.111	-0.055
-191.202	566.718	-0.118	-0.281
-190.187	-42.612	0.185	-0.092
-189.173	112.784	-0.155	0.185
-188.158	-200.000	0.009	0.251
-187.144	-186.592	-0.209	0.003
-186.129	-200.000	0.010	0.091
-185.114	-34.657	0.135	-0.072
-184.100	-200.000	-0.009	0.212
-183.085	248.220	-0.090	-0.150
-182.071	-105.843	0.360	-0.080
-181.056	-127.235	-0.195	-0.028
-180.042	6.820	0.137	0.100
-179.027	800.000	-0.099	0.336
-178.012	-132.093	-0.306	0.039
-176.998	152.384	0.130	0.174
-175.983	9.577	-0.104	0.078
-174.969	-118.798	-0.221	0.038
-173.954	-200.000	-0.012	-0.054
-172.939	-74.501	0.100	-0.035
-171.925	175.954	0.089	0.127
-170.910	-110.980	-0.175	-0.035
-169.896	592.620	-0.022	0.053
-168.881	-129.365	0.383	-0.052
-167.866	21.673	0.075	-0.060
-166.852	-99.641	0.067	0.016
-165.837	800.000	0.030	-0.100
-164.823	-142.551	-0.039	-0.004
-163.808	-67.575	0.423	0.163
-162.793	-182.260	0.125	-0.002
-161.779	800.000	-0.050	0.208
-160.764	115.559	0.063	0.075
-159.750	-110.485	0.200	-0.041
-158.735	268.415	-0.051	-0.087
-157.720	288.948	-0.084	0.149
-156.706	29.894	0.143	-0.119
-155.691	800.000	-0.113	0.367
-154.677	199.912	0.234	0.352
-153.662	-170.325	-0.330	0.011
-152.647	-144.595	-0.132	0.012
-151.633	174.809	0.037	-0.053
-150.618	144.746	0.031	0.041
-149.604	-14.501	0.307	-0.194
-148.589	800.000	-0.040	-0.130
-147.574	511.599	-0.072	-0.164
-146.560	-200.000	0.010	0.143
-145.545	-122.512	0.398	0.063
-144.531	76.407	0.055	-0.057
-143.516	-80.160	-0.369	-0.121
-142.502	468.394	0.181	-0.398
-141.487	63.574	0.122	-0.120
-140.472	-200.000	0.016	-0.160
-139.458	219.647	0.148	-0.233
-138.443	54.858	-0.167	-0.158
-137.429	-81.020	-0.112	0.036
-136.414	-149.053	-0.127	0.010
-135.399	200.898	0.077	0.116
-134.385	-200.000	0.009	0.134
-133.370	156.571	-0.069	0.094
-132.356	-200.000	0.022	-0.211
-131.341	429.165	-0.098	-0.207
-130.326	800.000	0.034	0.138
-129.312	-200.000	-0.001	0.152
-128.297	247.803	0.154	-0.256
-127.283	563.481	-0.072	-0.171
-126.268	75.316	-0.293	0.303
-125.253	-200.000	-0.012	-0.195
-124.239	3.056	-0.218	-0.155
-123.224	-73.570	-0.310	0.111
-122.210	360.095	0.119	0.233
-121.195	-89.249	0.187	-0.054
