DTS Sentinel unit serial number:	SN413079Multiplexer serial number:	ORYXHardware model number:	OX4-SRSoftware version number:	ORYX F/W v4.00 Oryx Data Collector v3.7.2.0data status	okinstallation	princeton_trtdifferential loss correction	single-endedforward channel	channel 2reverse channel	N/Adate	2019/09/11time	02:49:10forward acquisition time	60.00reverse acquisition time	0.00gamma	496.2192k internal	0.2331k external	0.2331temperature offset calibration	0.9942default loss term (dB/km)	0.3790temperature slope calibration	1.0000multiplexer offset coefficient	1.0000multiplexer slope coefficient	1.0000fibre end	0.00T internal ref (°C)	29.25T ext. ref 1 (°C)	-0.29T ext. ref 2 (°C)	23.41length (m)	temperature (°C)	Stokes	anti-Stokes-747.200	800.000	0.091	-0.340
-746.185	-200.000	-0.015	0.177
-745.171	-122.906	0.186	0.030
-744.156	787.819	-0.067	0.185
-743.142	13.137	-0.097	0.076
-742.127	-113.452	-0.182	-0.036
-741.112	-200.000	-0.035	-0.271
-740.098	-200.000	-0.035	0.409
-739.083	8.128	-0.234	0.177
-738.069	-122.720	0.229	0.037
-737.054	124.659	-0.153	-0.194
-736.039	-35.834	0.107	-0.058
-735.025	155.321	-0.092	0.127
-734.010	-156.100	-0.244	0.016
-732.996	-133.769	-0.147	0.018
-731.981	-151.949	-0.245	-0.018
-730.966	-118.706	0.250	-0.044
-729.952	800.000	-0.037	0.103
-728.937	41.528	-0.318	-0.290
-727.923	800.000	0.045	-0.197
-726.908	92.891	0.146	-0.166
-725.894	800.000	0.101	-0.319
-724.879	-200.000	-0.012	-0.281
-723.864	-115.082	0.173	-0.033
-722.850	-99.414	-0.441	0.112
-721.835	116.414	0.028	-0.034
-720.821	331.353	0.175	-0.340
-719.806	-118.576	-0.231	0.041
-718.791	-115.051	-0.445	-0.085
-717.777	-64.289	-0.217	0.089
-716.762	-97.712	-0.259	0.067
-715.748	-50.972	0.099	-0.047
-714.733	-2.722	-0.160	-0.112
-713.718	-55.486	-0.332	0.150
-712.704	-5.471	0.288	-0.199
-711.689	-200.000	0.006	-0.205
-710.675	14.145	0.287	0.225
-709.660	800.000	-0.121	0.387
-708.645	-123.396	-0.053	-0.008
-707.631	7.662	0.148	-0.111
-706.616	78.520	-0.201	0.216
-705.602	-4.248	-0.176	-0.123
-704.587	-48.877	0.100	-0.048
-703.572	-106.372	-0.137	-0.031
-702.558	54.520	0.077	0.075
-701.543	-5.483	0.037	-0.025
-700.529	29.968	0.127	-0.109
-699.514	-67.711	-0.132	0.052
-698.499	-126.244	0.193	-0.029
-697.485	119.175	-0.185	0.230
-696.470	339.726	-0.202	0.396
-695.456	-119.078	0.195	0.034
-694.441	-119.610	0.311	0.054
-693.426	-17.639	-0.057	0.036
-692.412	52.009	-0.135	0.130
-691.397	416.177	-0.160	0.343
-690.383	800.000	0.051	0.141
-689.368	-9.202	-0.253	0.170
-688.354	181.225	-0.080	0.118
-687.339	668.424	0.056	0.145
-686.324	39.336	0.270	-0.243
-685.310	513.588	-0.109	-0.255
-684.295	-62.322	-0.069	0.029
-683.281	-200.000	-0.031	0.258
-682.266	-200.000	-0.326	0.001
-681.251	800.000	0.040	-0.156
-680.237	-155.240	-0.261	0.017
-679.222	-28.158	-0.033	-0.019
-678.208	55.094	-0.320	-0.310
-677.193	-200.000	0.009	0.078
-676.178	-200.000	-0.070	-0.375
-675.164	-4.157	0.067	0.047
-674.149	-14.247	0.181	0.117
-673.135	-159.101	0.113	-0.006
-672.120	58.219	-0.132	0.130
-671.105	-200.000	0.031	0.219
-670.091	30.887	-0.023	-0.020
-669.076	800.000	-0.093	-0.318
-668.062	-196.543	-0.350	-0.002
-667.047	-58.782	-0.318	-0.138
-666.032	122.753	0.198	-0.249
-665.018	-200.000	-0.003	-0.131
-664.003	718.429	0.128	0.341
-662.989	405.608	0.166	-0.351
-661.974	6.580	-0.195	-0.145
-660.959	15.989	-0.159	-0.126
-659.945	50.328	0.107	0.101
-658.930	50.189	-0.286	-0.271
-657.916	-112.693	-0.137	0.027
-656.901	38.585	0.229	-0.205
-655.886	-200.000	-0.033	0.174
-654.872	800.000	-0.045	-0.191
-653.857	-200.000	-0.005	0.039
-652.843	170.509	-0.076	0.109
-651.828	401.975	-0.136	-0.286
-650.814	540.300	0.019	-0.045
-649.799	-108.101	-0.114	0.025
-648.784	-61.218	0.285	-0.120
-647.770	-17.077	0.098	-0.062
-646.755	-183.716	0.255	-0.004
-645.741	446.404	0.067	-0.149
-644.726	246.051	-0.036	-0.061
-643.711	800.000	-0.037	-0.143
-642.697	-56.829	-0.239	0.106
-641.682	17.146	-0.325	0.258
-640.668	-13.739	-0.368	-0.239
-639.653	-22.916	0.316	-0.191
-638.638	-3.180	0.142	0.099
-637.624	-11.319	0.022	0.015
-636.609	30.109	-0.097	0.083
-635.595	148.752	-0.068	0.092
-634.580	159.188	0.063	-0.088
-633.565	29.003	-0.129	-0.110
-632.551	-128.889	-0.343	0.048
-631.536	-32.018	0.146	0.082
-630.522	650.231	-0.035	-0.091
-629.507	-200.000	0.013	-0.060
-628.492	-200.000	-0.001	0.052
-627.478	800.000	0.110	0.306
-626.463	-154.927	-0.372	0.025
-625.449	-200.000	0.022	-0.298
-624.434	-4.171	0.116	0.080
-623.419	-26.053	0.412	-0.243
-622.405	-3.651	0.132	-0.092
-621.390	-200.000	-0.028	0.135
-620.376	208.071	-0.028	-0.045
-619.361	135.882	0.131	-0.171
-618.346	-113.236	-0.358	0.071
-617.332	800.000	0.075	0.230
-616.317	800.000	0.021	-0.062
-615.303	-21.988	-0.110	-0.067
-614.288	-140.494	0.182	0.019
-613.273	-112.642	-0.150	0.030
-612.259	-6.173	-0.231	0.158
-611.244	800.000	0.022	0.072
-610.230	-6.305	-0.229	0.157
-609.215	800.000	0.071	-0.240
-608.201	-90.832	-0.212	-0.061
-607.186	14.806	-0.294	0.230
-606.171	431.452	0.079	0.172
-605.157	317.306	-0.111	0.210
-604.142	229.840	-0.207	-0.338
-603.128	-200.000	-0.038	0.222
-602.113	800.000	-0.083	0.301
-601.098	-28.690	0.210	0.121
-600.084	558.522	-0.147	0.355
-599.069	584.392	0.092	0.227
-598.055	142.953	0.102	0.136
-597.040	800.000	-0.065	0.191
-596.025	-63.619	0.259	-0.106
-595.011	76.348	-0.105	-0.111
-593.996	-200.000	0.038	0.296
-592.982	-115.832	-0.424	-0.079
-591.967	42.040	-0.072	-0.065
-590.952	-46.168	-0.213	0.105
-589.938	84.445	-0.194	-0.212
-588.923	699.821	-0.092	-0.243
-587.909	282.113	-0.226	0.405
-586.894	138.839	-0.195	0.256
-585.879	800.000	0.076	0.290
-584.865	87.363	0.177	-0.196
-583.850	121.154	0.029	-0.036
-582.836	334.697	-0.021	0.041
-581.821	337.423	0.076	0.148
-580.806	-44.831	0.137	0.069
-579.792	-200.000	-0.024	-0.227
-578.777	50.641	-0.248	-0.235
-577.763	-84.295	0.236	-0.075
-576.748	283.328	-0.122	-0.220
-575.733	304.532	0.020	-0.038
-574.719	-5.531	-0.135	-0.093
-573.704	-200.000	-0.002	-0.384
-572.690	269.211	0.168	0.295
-571.675	-34.213	0.121	0.067
-570.661	234.856	-0.096	-0.158
-569.646	-200.000	-0.037	-0.414
-568.631	-24.445	-0.090	0.054
-567.617	-99.837	0.348	-0.087
-566.602	344.146	0.086	-0.169
-565.588	83.113	-0.149	-0.163
-564.573	6.844	-0.231	-0.172
-563.558	800.000	-0.023	0.094
-562.544	-27.723	0.138	-0.080
-561.529	800.000	-0.026	0.077
-560.515	-200.000	-0.026	-0.139
-559.500	-200.000	-0.017	0.109
-558.485	800.000	0.068	-0.248
-557.471	99.834	0.075	0.087
-556.456	587.234	-0.112	0.275
-555.442	155.891	0.169	-0.233
-554.427	-200.000	-0.217	-0.001
-553.412	188.273	0.084	-0.125
-552.398	800.000	-0.071	-0.257
-551.383	-200.000	0.006	-0.110
-550.369	194.015	0.064	-0.097
-549.354	-184.723	0.180	-0.003
-548.339	-11.477	-0.364	-0.239
-547.325	-107.094	-0.276	0.061
-546.310	-59.524	-0.057	0.024
-545.296	-200.000	0.054	-0.264
-544.281	-20.748	-0.135	0.082
-543.266	140.087	0.083	0.109
-542.252	-125.170	0.049	0.008
-541.237	111.086	-0.015	-0.018
-540.223	800.000	0.049	0.176
-539.208	53.352	0.133	0.127
-538.193	180.358	0.195	-0.286
-537.179	271.582	-0.239	-0.421
-536.164	43.068	-0.139	-0.126
-535.150	800.000	0.055	-0.198
-534.135	72.638	-0.141	-0.147
-533.121	-36.174	-0.070	-0.038
-532.106	87.729	0.033	-0.036
-531.091	364.981	0.080	-0.161
-530.077	108.697	-0.252	0.301
-529.062	-200.000	0.017	-0.111
-528.048	195.776	0.060	0.092
-527.033	-96.923	-0.235	0.061
-526.018	-141.449	0.344	0.035
-525.004	468.180	0.085	0.190
-523.989	-200.000	0.034	-0.421
-522.975	134.956	0.107	0.139
-521.960	73.143	-0.286	-0.299
-520.945	-111.808	-0.132	0.027
-519.931	87.513	-0.138	-0.153
-518.916	19.623	0.193	-0.155
-517.902	-137.727	-0.222	-0.025
-516.887	800.000	-0.080	0.245
-515.872	800.000	0.078	-0.292
-514.858	-200.000	-0.033	-0.370
-513.843	134.622	0.130	-0.168
-512.829	800.000	-0.103	-0.347
-511.814	130.863	0.070	-0.090
-510.799	-200.000	-0.021	0.179
-509.785	800.000	0.041	-0.152
-508.770	-7.033	0.161	-0.109
-507.756	-89.328	0.247	-0.073
-506.741	276.246	0.094	0.167
-505.726	-56.139	-0.149	-0.066
-504.712	37.486	-0.007	-0.006
-503.697	800.000	-0.099	-0.404
-502.683	1.047	0.268	-0.192
-501.668	-200.000	-0.006	-0.339
-500.653	50.589	0.214	-0.202
-499.639	95.886	-0.241	-0.275
-498.624	800.000	-0.108	0.313
-497.610	-200.000	-0.036	0.208
-496.595	13.070	-0.149	0.115
-495.581	-43.913	0.240	-0.120
-494.566	27.303	-0.292	-0.244
-493.551	-18.294	-0.109	-0.068
-492.537	57.618	0.148	-0.144
-491.522	121.537	0.092	0.114
-490.508	178.597	0.137	-0.199
-489.493	-2.981	-0.256	-0.178
-488.478	169.169	-0.130	0.185
-487.464	-78.561	0.076	0.026
-486.449	59.684	-0.205	0.201
-485.435	-111.942	-0.250	0.050
-484.420	-67.927	-0.102	0.040
-483.405	190.572	0.041	0.061
-482.391	431.659	-0.118	0.255
-481.376	-125.602	-0.044	-0.007
-480.362	1.272	-0.231	0.165
-479.347	43.875	-0.204	0.186
-478.332	-200.000	0.025	-0.235
-477.318	77.532	-0.036	0.038
-476.303	-165.674	0.094	-0.004
-475.289	800.000	-0.040	0.143
-474.274	648.770	0.124	0.317
-473.259	461.847	0.069	-0.153
-472.245	-200.000	0.006	-0.264
-471.230	-200.000	-0.061	0.340
-470.216	-74.744	0.067	-0.024
-469.201	-167.521	0.332	0.013
-468.186	225.434	-0.167	0.270
-467.172	61.131	-0.481	-0.476
-466.157	-112.243	-0.203	0.041
-465.143	321.638	-0.139	0.262
-464.128	-94.377	-0.219	0.059
-463.113	191.324	-0.080	0.121
-462.099	-38.321	0.086	-0.046
-461.084	165.052	0.098	0.137
-460.070	-200.000	0.018	-0.161
-459.055	-39.972	-0.171	-0.089
-458.040	-76.624	-0.382	-0.133
-457.026	-66.527	0.195	0.077
-456.011	800.000	0.020	0.056
-454.997	111.486	0.084	-0.101
-453.982	220.724	0.091	0.145
-452.968	10.152	-0.196	0.149
-451.953	-50.348	-0.191	0.090
-450.938	284.849	-0.130	0.233
-449.924	174.375	-0.060	-0.087
-448.909	-82.834	0.106	0.034
-447.895	599.302	-0.084	-0.208
-446.880	-200.000	-0.028	-0.256
-445.865	-200.000	-0.005	-0.321
-444.851	1.709	0.108	-0.077
-443.836	800.000	0.049	0.156
-442.822	77.069	-0.194	-0.205
-441.807	155.726	0.173	0.237
-440.792	395.143	-0.102	-0.211
-439.778	148.591	-0.112	-0.150
-438.763	-82.020	-0.295	0.096
-437.749	-200.000	0.033	0.235
-436.734	194.442	0.165	0.249
-435.719	44.353	0.167	-0.152
-434.705	-200.000	0.064	0.374
-433.690	9.542	-0.045	-0.034
-432.676	-200.000	0.002	-0.527
-431.661	800.000	0.087	-0.255
-430.646	-200.000	0.034	-0.156
-429.632	-141.958	0.237	0.024
-428.617	-200.000	-0.021	0.096
-427.603	335.276	0.156	-0.301
-426.588	-129.726	0.092	-0.013
-425.573	800.000	-0.087	0.270
-424.559	-77.723	0.337	-0.116
-423.544	469.791	0.058	-0.130
-422.530	-200.000	-0.005	-0.281
-421.515	-200.000	0.058	-0.310
-420.500	443.445	0.073	-0.159
-419.486	-65.443	-0.339	0.135
-418.471	800.000	-0.021	0.067
-417.457	-25.131	-0.087	-0.052
-416.442	25.787	0.068	-0.056
-415.428	335.169	0.084	-0.161
-414.413	-200.000	-0.017	0.096
-413.398	-72.918	0.388	-0.142
-412.384	44.475	-0.103	-0.094
-411.369	114.193	0.172	-0.208
-410.355	800.000	0.120	-0.332
-409.340	411.183	0.036	-0.076
-408.325	114.132	0.140	0.170
-407.311	-200.000	0.006	-0.156
-406.296	29.610	-0.020	-0.017
-405.282	506.116	0.040	-0.093
-404.267	570.329	0.055	-0.132
-403.252	153.285	0.094	0.128
-402.238	37.832	0.300	-0.264
-401.223	-70.645	-0.364	0.137
-400.209	177.088	0.134	0.193
-399.194	175.707	0.059	-0.085
-398.179	168.461	0.155	0.219
-397.165	-200.000	0.008	0.531
-396.150	-162.447	-0.145	0.007
-395.136	235.170	0.147	-0.241
-394.121	-200.000	-0.020	-0.120
-393.106	-29.808	-0.093	0.053
-392.092	131.406	-0.156	-0.199
-391.077	8.399	-0.175	0.130
-390.063	-119.810	0.197	0.034
-389.048	-165.950	-0.128	0.005
-388.033	129.298	-0.078	0.099
-387.019	-109.831	0.393	0.082
-386.004	-34.283	0.254	-0.139
-384.990	-200.000	-0.002	-0.025
-383.975	338.631	-0.068	-0.131
-382.960	38.136	-0.349	0.309
-381.946	-86.409	0.137	-0.042
-380.931	15.257	-0.167	0.130
-379.917	-23.075	-0.057	0.034
-378.902	-31.658	0.147	0.082
-377.888	154.528	-0.057	-0.078
-376.873	137.932	-0.180	-0.233
-375.858	-138.419	0.108	-0.012
-374.844	381.912	-0.111	-0.227
-373.829	9.766	-0.180	0.135
-372.815	201.634	-0.121	0.185
-371.800	488.513	0.032	0.072
-370.785	-112.256	-0.219	0.044
-369.771	-30.185	0.233	0.131
-368.756	-200.000	-0.045	0.220
-367.742	275.007	-0.056	-0.098
-366.727	-13.328	-0.002	0.001
-365.712	-34.769	0.264	-0.143
-364.698	-43.616	0.264	-0.132
-363.683	-53.775	0.202	0.092
-362.669	380.547	0.014	-0.029
-361.654	-175.397	-0.503	-0.014
-360.639	-200.000	-0.030	0.152
-359.625	576.979	-0.088	0.212
-358.610	-200.000	0.042	0.205
-357.596	133.959	-0.115	-0.148
-356.581	20.551	-0.299	0.240
-355.566	-200.000	0.032	0.387
-354.552	-157.053	-0.097	0.006
-353.537	-114.738	0.125	-0.024
-352.523	-200.000	0.272	0.001
-351.508	70.106	0.169	-0.173
-350.493	-200.000	-0.056	0.260
-349.479	-76.366	-0.120	0.042
-348.464	6.353	-0.538	-0.396
-347.450	-58.454	0.206	0.089
-346.435	800.000	-0.102	-0.428
-345.420	-200.000	0.015	-0.289
-344.406	-100.910	-0.207	-0.050
-343.391	357.627	-0.077	0.152
-342.377	-32.817	0.030	-0.017
-341.362	-64.384	0.115	-0.046
-340.348	-129.232	-0.239	0.033
-339.333	-200.000	0.026	0.280
-338.318	-175.361	-0.144	-0.004
-337.304	-200.000	-0.043	0.476
-336.289	-75.768	0.140	-0.049
-335.275	-200.000	0.020	0.163
-334.260	-39.711	0.058	0.030
-333.245	-90.162	0.064	-0.019
-332.231	57.891	-0.176	0.170
-331.216	-200.000	-0.009	0.278
-330.202	-200.000	-0.027	0.223
-329.187	264.543	0.076	0.131
-328.172	504.892	-0.059	0.134
-327.158	-126.319	0.162	0.024
-326.143	-49.702	-0.359	-0.169
-325.129	-160.055	-0.360	-0.019
-324.114	-200.000	0.025	0.129
-323.099	257.500	0.123	0.210
-322.085	5.932	0.170	0.124
-321.070	-20.127	0.085	0.052
-320.056	131.562	-0.078	0.099
-319.041	-153.457	0.242	-0.017
-318.026	-62.943	-0.147	-0.060
-317.012	800.000	-0.069	-0.202
-315.997	-200.000	-0.028	-0.392
-314.983	18.610	0.042	0.034
-313.968	-125.009	0.049	-0.007
-312.953	-200.000	0.111	-0.000
-311.939	2.968	0.164	-0.118
-310.924	-110.079	0.180	-0.037
-309.910	88.401	-0.285	-0.313
-308.895	-200.000	0.017	-0.289
-307.880	800.000	0.056	-0.190
-306.866	-75.165	0.474	0.168
-305.851	86.810	0.330	-0.360
-304.837	172.009	-0.095	0.136
-303.822	-200.000	-0.030	0.173
-302.807	4.827	0.360	-0.262
-301.793	-97.343	0.146	-0.038
-300.778	-200.000	-0.183	-0.000
-299.764	-56.262	-0.094	-0.041
-298.749	59.993	0.160	-0.157
-297.735	-200.000	-0.015	0.325
-296.720	155.340	-0.133	0.181
-295.705	-104.642	-0.238	-0.054
-294.691	-200.000	-0.005	-0.148
-293.676	-49.009	-0.089	0.042
-292.662	155.734	-0.272	0.370
-291.647	-200.000	-0.039	0.357
-290.632	-26.074	0.263	0.153
-289.618	139.336	0.071	-0.092
-288.603	50.846	-0.053	0.049
-287.589	-200.000	-0.040	0.188
-286.574	-108.508	0.221	0.047
-285.559	8.375	0.393	-0.292
-284.545	-42.237	-0.124	0.063
-283.530	-85.659	0.113	-0.035
-282.516	-89.239	0.348	0.101
-281.501	13.565	-0.265	0.203
-280.486	82.203	-0.154	-0.165
-279.472	524.635	-0.082	0.192
-278.457	32.997	0.186	-0.160
-277.443	310.743	0.086	-0.160
-276.428	-30.975	0.172	0.096
-275.413	-177.752	0.114	-0.003
-274.399	13.828	0.185	0.142
-273.384	318.752	-0.119	0.222
-272.370	-100.952	-0.173	0.042
-271.355	323.249	0.074	-0.139
-270.340	215.656	-0.156	0.245
-269.326	-139.577	0.316	-0.033
-268.311	-200.000	-0.018	-0.179
-267.297	-65.880	-0.029	0.011
-266.282	-125.281	0.134	-0.020
-265.267	727.454	0.035	-0.091
-264.253	-54.889	0.152	-0.068
-263.238	800.000	-0.040	0.144
-262.224	800.000	0.090	-0.310
-261.209	115.040	0.070	-0.084
-260.195	-133.750	-0.149	0.018
-259.180	-200.000	-0.109	0.503
-258.165	-200.000	0.020	0.386
-257.151	59.704	0.008	0.008
-256.136	166.699	0.144	0.202
-255.122	-122.801	-0.250	0.040
-254.107	-200.000	-0.003	-0.180
-253.092	96.125	0.090	-0.102
-252.078	800.000	0.067	0.206
-251.063	44.414	0.250	0.227
-250.049	-33.355	0.092	0.050
-249.034	-200.000	-0.038	-0.202
-248.019	-200.000	-0.131	0.000
-247.005	-200.000	-0.000	-0.114
-245.990	404.167	-0.032	-0.066
-244.976	-53.544	-0.182	0.082
-243.961	-148.048	-0.105	0.009
-242.946	161.986	0.125	-0.173
-241.932	-150.231	-0.233	0.018
-240.917	-200.000	-0.005	0.315
-239.903	-80.149	0.188	0.062
-238.888	-137.709	-0.092	0.010
-237.873	-200.000	0.019	0.140
-236.859	-0.948	-0.071	0.050
-235.844	800.000	-0.151	0.427
-234.830	-200.000	-0.088	0.455
-233.815	53.046	-0.081	-0.077
-232.800	-200.000	-0.033	-0.221
-231.786	-200.000	-0.004	0.138
-230.771	-145.858	-0.299	0.026
-229.757	-200.000	0.016	0.089
-228.742	148.166	0.120	0.160
-227.727	290.301	-0.156	-0.279
-226.713	800.000	0.059	-0.175
-225.698	364.518	-0.155	-0.309
-224.684	-80.574	0.363	0.119
-223.669	-6.728	0.284	0.191
-222.655	-200.000	0.021	-0.238
-221.640	60.494	-0.135	0.132
-220.625	-77.943	0.337	-0.115
-219.611	-137.817	0.169	-0.019
-218.596	19.552	0.243	-0.193
-217.582	29.450	0.069	0.058
-216.567	26.458	-0.271	-0.223
-215.552	110.335	0.328	0.389
-214.538	-46.674	-0.057	-0.028
-213.523	-200.000	0.032	0.338
-212.509	-13.919	0.245	-0.156
-211.494	-166.641	-0.221	-0.009
-210.479	-200.000	-0.148	-0.662
-209.465	800.000	-0.061	-0.253
-208.450	106.731	-0.048	-0.056
-207.436	-142.868	0.183	0.018
-206.421	-16.552	-0.122	0.076
-205.406	-11.042	-0.229	0.149
-204.392	133.941	0.055	-0.071
-203.377	-120.312	0.118	-0.020
-202.363	-91.904	0.487	0.136
-201.348	389.658	0.063	-0.129
-200.333	95.601	0.137	-0.154
-199.319	-124.479	-0.350	-0.054
-198.304	76.386	0.184	-0.192
-197.290	-139.280	-0.557	0.059
-196.275	270.655	0.140	0.242
-195.260	-130.206	-0.280	0.038
-194.246	718.896	-0.091	0.239
-193.231	48.774	0.136	0.125
-192.217	-44.582	0.500	0.246
-191.202	-200.000	-0.027	0.174
-190.187	166.412	-0.073	-0.101
-189.173	-97.894	-0.108	0.028
-188.158	-200.000	-0.045	0.232
-187.144	748.018	0.106	-0.281
-186.129	-85.379	0.163	0.050
-185.114	103.689	-0.164	0.189
-184.100	195.838	0.099	0.148
-183.085	-200.000	0.011	0.112
-182.071	-66.678	-0.284	0.111
-181.056	-80.325	-0.120	0.040
-180.042	646.463	0.066	-0.167
-179.027	41.168	0.299	-0.266
-178.012	199.019	0.037	0.055
-176.998	800.000	0.103	0.320
-175.983	-200.000	0.000	0.202
-174.969	401.632	-0.176	0.364
-173.954	41.493	-0.175	0.156
-172.939	-135.290	0.150	0.018
-171.925	-9.400	0.298	0.196
-170.910	544.412	0.149	0.351
-169.896	-200.000	-0.007	0.048
-168.881	-166.915	0.320	0.013
-167.866	-39.897	-0.109	0.056
-166.852	-87.773	-0.181	-0.054
-165.837	800.000	0.043	-0.172
-164.823	-155.920	0.149	0.009
-163.808	176.914	0.291	0.417
-162.793	-200.000	0.022	-0.146
-161.779	-135.639	0.309	-0.036
-160.764	239.318	0.147	-0.241
-159.750	-111.830	0.164	0.033
-158.735	-200.000	0.024	0.105
-157.720	48.507	0.254	0.234
-156.706	156.876	0.140	-0.190
-155.691	-109.128	0.428	-0.089
-154.677	472.241	0.089	0.197
-153.662	800.000	0.064	-0.187
-152.647	-77.941	-0.267	0.090
-151.633	92.166	0.138	0.153
-150.618	-39.599	-0.137	-0.071
-149.604	-5.434	0.269	-0.181
-148.589	800.000	-0.057	0.170
-147.574	223.208	-0.109	-0.173
-146.560	404.061	-0.193	-0.400
-145.545	-13.240	0.097	0.062
-144.531	-62.382	-0.327	0.134
-143.516	85.211	-0.095	0.103
-142.502	-200.000	0.054	0.259
-141.487	285.464	0.095	0.168
-140.472	-200.000	0.028	-0.326
-139.458	76.177	0.180	-0.188
-138.443	-122.732	0.054	-0.009
-137.429	-24.895	-0.122	-0.071
-136.414	-200.000	0.001	-0.139
-135.399	237.612	-0.088	-0.144
-134.385	-125.261	-0.263	-0.040
-133.370	33.504	-0.180	-0.154
-132.356	800.000	-0.090	0.270
-131.341	-80.993	-0.247	0.080
-130.326	-143.310	-0.508	0.048
-129.312	-200.000	-0.008	0.114
-128.297	66.497	0.203	-0.203
-127.283	-44.424	-0.137	-0.067
-126.268	-200.000	-0.023	-0.261
-125.253	-58.777	-0.383	0.163
-124.239	800.000	0.076	0.320
-123.224	-164.324	-0.206	0.009
-122.210	800.000	-0.043	0.135
-121.195	800.000	-0.047	-0.145
