DTS Sentinel unit serial number:	SN413079Multiplexer serial number:	ORYXHardware model number:	OX4-SRSoftware version number:	ORYX F/W v4.00 Oryx Data Collector v3.7.2.0data status	okinstallation	princeton_trtdifferential loss correction	single-endedforward channel	channel 2reverse channel	N/Adate	2019/09/11time	15:45:11forward acquisition time	60.00reverse acquisition time	0.00gamma	496.2192k internal	0.2288k external	0.2288temperature offset calibration	1.0013default loss term (dB/km)	0.3790temperature slope calibration	1.0000multiplexer offset coefficient	1.0000multiplexer slope coefficient	1.0000fibre end	0.00T internal ref (°C)	42.84T ext. ref 1 (°C)	1.03T ext. ref 2 (°C)	37.72length (m)	temperature (°C)	Stokes	anti-Stokes-747.200	-71.050	0.056	0.022
-746.185	29.063	-0.198	0.173
-745.171	-200.000	-0.000	0.070
-744.156	-103.223	0.066	0.016
-743.142	-16.869	0.187	0.121
-742.127	40.368	-0.257	0.237
-741.112	-46.286	0.197	0.099
-740.098	106.348	0.096	-0.117
-739.083	-144.484	0.318	-0.030
-738.069	44.012	-0.304	0.286
-737.054	-200.000	0.056	0.446
-736.039	55.529	0.129	0.128
-735.025	-139.138	0.252	0.028
-734.010	4.783	-0.234	0.177
-732.996	-183.661	-0.106	-0.002
-731.981	-68.052	-0.272	0.109
-730.966	703.898	0.034	0.091
-729.952	-200.000	-0.047	0.314
-728.937	130.471	-0.227	-0.298
-727.923	-200.000	-0.016	0.125
-726.908	-86.780	-0.185	0.058
-725.894	233.691	0.135	-0.227
-724.879	554.060	-0.088	0.218
-723.864	-108.443	-0.436	0.096
-722.850	-200.000	0.011	-0.169
-721.835	-200.000	-0.044	-0.392
-720.821	-130.662	0.480	0.066
-719.806	-88.751	-0.297	0.090
-718.791	513.723	0.048	0.116
-717.777	414.693	0.047	0.103
-716.762	58.626	0.140	0.141
-715.748	-200.000	0.004	-0.152
-714.733	800.000	-0.014	0.041
-713.718	91.977	0.261	-0.300
-712.704	800.000	-0.112	0.366
-711.689	50.572	0.211	-0.205
-710.675	327.723	0.057	-0.112
-709.660	-200.000	0.031	-0.165
-708.645	45.487	0.072	0.068
-707.631	-104.103	0.292	0.070
-706.616	-135.283	-0.373	0.046
-705.602	-110.207	0.079	-0.017
-704.587	36.227	-0.097	0.088
-703.572	-20.818	-0.352	-0.221
-702.558	302.792	-0.134	-0.254
-701.543	-146.077	-0.089	-0.008
-700.529	56.827	-0.245	-0.244
-699.514	-90.773	-0.392	-0.116
-698.499	23.277	0.120	0.101
-697.485	-104.389	0.497	0.118
-696.470	182.584	0.278	-0.420
-695.456	12.288	0.103	0.081
-694.441	709.951	0.073	-0.197
-693.426	-64.702	-0.087	0.036
-692.412	-148.979	-0.177	-0.015
-691.397	-200.000	0.015	-0.280
-690.383	-132.592	0.024	-0.003
-689.368	-71.534	-0.300	-0.115
-688.354	-99.413	0.032	0.008
-687.339	-150.899	0.142	0.011
-686.324	-83.525	-0.355	-0.116
-685.310	-52.235	-0.107	0.051
-684.295	-129.017	-0.099	-0.014
-683.281	97.930	-0.210	-0.248
-682.266	0.721	0.213	0.156
-681.251	30.144	-0.192	-0.168
-680.237	23.745	0.097	-0.082
-679.222	-40.823	0.228	-0.121
-678.208	497.725	-0.054	0.128
-677.193	71.619	0.217	0.231
-676.178	-93.431	-0.211	0.060
-675.164	187.074	0.197	-0.300
-674.149	-200.000	0.024	-0.174
-673.135	-45.507	-0.271	0.137
-672.120	-15.697	0.396	-0.258
-671.105	-27.692	-0.360	0.213
-670.091	800.000	-0.071	0.230
-669.076	202.027	0.098	-0.155
-668.062	-200.000	-0.011	0.204
-667.047	-200.000	-0.055	0.444
-666.032	-200.000	0.014	-0.231
-665.018	100.588	-0.148	-0.176
-664.003	-200.000	0.041	0.247
-662.989	800.000	-0.051	0.182
-661.974	-24.093	0.094	0.058
-660.959	-28.957	-0.341	-0.200
-659.945	166.376	0.079	0.114
-658.930	-92.610	-0.270	-0.077
-657.916	-118.539	0.211	0.038
-656.901	187.321	-0.084	0.128
-655.886	352.331	0.109	-0.220
-654.872	-87.688	0.173	-0.053
-653.857	-200.000	-0.031	0.207
-652.843	-59.598	0.297	-0.130
-651.828	201.077	0.137	0.216
-650.814	800.000	0.054	0.202
-649.799	96.725	-0.102	0.119
-648.784	99.173	-0.031	-0.037
-647.770	-200.000	-0.027	0.219
-646.755	328.714	0.103	-0.202
-645.741	570.886	0.112	-0.279
-644.726	-45.389	0.142	-0.072
-643.711	-113.589	-0.326	0.065
-642.697	800.000	0.037	0.149
-641.682	-141.129	-0.116	-0.012
-640.668	-109.589	-0.229	0.049
-639.653	-15.742	-0.138	0.090
-638.638	-175.677	-0.323	-0.009
-637.624	34.801	0.031	-0.028
-636.609	445.770	0.083	0.187
-635.595	271.756	0.198	-0.357
-634.580	800.000	0.024	0.069
-633.565	-73.451	-0.263	-0.098
-632.551	764.086	0.022	0.062
-631.536	388.629	0.128	-0.270
-630.522	62.963	-0.285	-0.291
-629.507	120.522	0.152	-0.193
-628.492	-72.171	-0.243	-0.092
-627.478	-88.880	0.301	0.091
-626.463	246.402	0.220	0.378
-625.449	800.000	0.060	-0.223
-624.434	-200.000	0.008	-0.107
-623.419	-110.011	0.220	0.047
-622.405	-110.224	0.101	0.021
-621.390	58.994	-0.237	0.237
-620.376	266.745	-0.169	-0.302
-619.361	-38.653	-0.200	-0.108
-618.346	-25.405	0.263	-0.159
-617.332	109.824	0.184	0.225
-616.317	267.277	-0.049	0.088
-615.303	800.000	-0.105	0.331
-614.288	-42.893	-0.189	-0.098
-613.273	25.495	-0.281	0.238
-612.259	-55.667	0.089	-0.041
-611.244	-200.000	-0.068	-0.390
-610.230	800.000	-0.057	-0.170
-609.215	-200.000	0.015	-0.092
-608.201	800.000	-0.057	0.197
-607.186	-47.634	0.088	-0.043
-606.171	-119.423	-0.163	-0.029
-605.157	-124.138	0.155	0.025
-604.142	-132.805	-0.244	-0.032
-603.128	210.707	0.038	-0.060
-602.113	-76.762	0.088	0.031
-601.098	-20.174	0.273	0.171
-600.084	800.000	-0.048	0.146
-599.069	-0.341	-0.004	0.003
-598.055	-109.132	0.416	-0.090
-597.040	-200.000	-0.025	-0.230
-596.025	-41.775	0.262	0.137
-595.011	-200.000	0.068	0.377
-593.996	-80.694	0.028	0.009
-592.982	17.178	-0.098	-0.079
-591.967	167.123	0.193	-0.280
-590.952	151.317	0.125	0.173
-589.938	163.526	-0.130	-0.186
-588.923	286.686	-0.120	-0.220
-587.909	-91.071	-0.363	0.106
-586.894	800.000	-0.077	0.247
-585.879	-106.795	0.285	-0.064
-584.865	-18.687	0.108	0.069
-583.850	31.795	0.186	-0.163
-582.836	-133.283	0.134	0.017
-581.821	-94.561	-0.313	-0.087
-580.806	-110.620	-0.429	0.090
-579.792	294.837	0.058	-0.108
-578.777	-104.383	0.086	-0.020
-577.763	-83.172	0.109	0.036
-576.748	-200.000	0.011	-0.091
-575.733	32.268	0.180	-0.158
-574.719	-200.000	-0.017	0.217
-573.704	-74.575	-0.219	0.080
-572.690	-200.000	-0.014	-0.152
-571.675	-88.578	0.234	0.071
-570.661	-29.449	0.183	-0.106
-569.646	800.000	0.045	0.176
-568.631	-15.262	0.150	-0.098
-567.617	19.189	0.072	-0.059
-566.602	-95.646	0.183	-0.050
-565.588	-56.598	-0.143	0.064
-564.573	-4.555	0.237	0.167
-563.558	-200.000	0.072	0.000
-562.544	454.242	0.050	0.113
-561.529	-139.259	0.199	-0.022
-560.515	-81.819	0.119	0.040
-559.500	-191.836	-0.089	0.001
-558.485	-72.066	-0.181	-0.068
-557.471	63.812	0.087	-0.089
-556.456	463.072	0.032	0.072
-555.442	-118.174	-0.364	0.066
-554.427	268.071	-0.138	0.246
-553.412	-200.000	0.042	0.213
-552.398	-127.860	-0.123	0.018
-551.383	-36.732	0.029	0.016
-550.369	-61.118	-0.248	0.107
-549.354	238.110	-0.290	-0.490
-548.339	-200.000	-0.012	0.095
-547.325	97.430	-0.040	0.047
-546.310	-150.207	-0.238	0.019
-545.296	-200.000	0.020	-0.187
-544.281	-148.982	-0.146	0.012
-543.266	-51.411	-0.091	-0.043
-542.252	-137.926	-0.234	0.027
-541.237	54.484	-0.247	0.242
-540.223	242.452	0.250	-0.426
-539.208	53.044	0.143	0.140
-538.193	-125.143	-0.339	-0.053
-537.179	129.077	0.128	-0.166
-536.164	27.786	-0.167	-0.143
-535.150	-200.000	-0.016	-0.169
-534.135	-120.619	-0.236	0.041
-533.121	800.000	-0.085	-0.241
-532.106	78.891	0.115	-0.125
-531.091	-200.000	0.010	-0.065
-530.077	235.041	0.075	-0.126
-529.062	-200.000	0.052	-0.285
-528.048	-200.000	0.004	-0.060
-527.033	-190.108	-0.130	0.001
-526.018	800.000	0.038	0.167
-525.004	-200.000	0.011	-0.133
-523.989	-72.814	-0.328	-0.123
-522.975	-200.000	0.353	-0.001
-521.960	800.000	0.055	-0.192
-520.945	-68.461	0.188	-0.074
-519.931	-109.670	0.189	0.040
-518.916	560.491	0.064	-0.156
-517.902	7.372	-0.309	-0.234
-516.887	-83.811	0.412	0.133
-515.872	43.884	0.033	-0.031
-514.858	-153.600	-0.089	0.006
-513.843	71.833	-0.151	0.160
-512.829	3.858	-0.167	0.124
-511.814	-200.000	0.041	0.237
-510.799	-200.000	-0.039	0.000
-509.785	-80.130	-0.256	0.087
-508.770	-59.056	0.368	-0.161
-507.756	380.588	-0.162	-0.337
-506.741	418.017	-0.078	0.170
-505.726	-48.439	0.212	0.104
-504.712	-95.720	0.050	0.014
-503.697	137.291	-0.222	-0.295
-502.683	204.201	0.040	0.063
-501.668	44.133	0.135	0.126
-500.653	55.942	0.126	0.124
-499.639	276.640	0.161	-0.291
-498.624	-155.358	-0.124	0.008
-497.610	57.103	0.054	-0.054
-496.595	102.488	0.181	-0.215
-495.581	-200.000	0.028	0.250
-494.566	800.000	-0.059	-0.209
-493.551	-190.714	0.212	0.002
-492.537	-39.679	0.137	-0.073
-491.522	457.537	0.141	0.318
-490.508	800.000	0.042	-0.187
-489.493	255.141	0.061	-0.106
-488.478	26.890	0.134	-0.114
-487.464	-37.394	0.113	0.061
-486.449	-118.455	-0.360	0.065
-485.435	-200.000	-0.029	-0.262
-484.420	252.552	-0.200	-0.345
-483.405	-20.201	-0.272	-0.170
-482.391	800.000	-0.025	0.109
-481.376	143.391	-0.090	0.122
-480.362	232.490	0.086	0.143
-479.347	230.328	0.240	-0.398
-478.332	-135.032	0.136	-0.017
-477.318	-81.778	0.089	-0.030
-476.303	-77.768	0.132	-0.046
-475.289	58.393	0.200	-0.199
-474.274	39.877	-0.323	0.294
-473.259	-70.147	0.383	-0.148
-472.245	-182.438	0.087	0.002
-471.230	90.343	0.159	0.180
-470.216	51.732	0.011	-0.011
-469.201	66.494	0.159	0.164
-468.186	75.279	-0.042	0.045
-467.172	82.117	0.117	-0.129
-466.157	-68.256	-0.155	-0.061
-465.143	-150.234	-0.182	0.014
-464.128	-56.595	-0.487	0.219
-463.113	13.450	0.114	-0.090
-462.099	478.668	-0.093	0.214
-461.084	800.000	-0.062	-0.196
-460.070	389.527	0.092	-0.193
-459.055	160.529	-0.069	0.098
-458.040	-13.406	0.197	0.129
-457.026	800.000	0.081	-0.275
-456.011	800.000	-0.013	0.042
-454.997	-178.384	-0.185	-0.004
-453.982	123.786	0.227	-0.289
-452.968	800.000	-0.052	0.179
-451.953	392.999	-0.155	0.327
-450.938	774.517	-0.066	0.184
-449.924	-12.200	0.157	-0.104
-448.909	-94.726	-0.102	0.028
-447.895	44.298	-0.162	0.151
-446.880	-11.229	0.326	0.218
-445.865	800.000	0.005	0.021
-444.851	119.016	0.076	-0.095
-443.836	-39.741	0.203	0.107
-442.822	352.138	0.159	0.320
-441.807	-200.000	-0.034	0.237
-440.792	83.427	-0.055	-0.061
-439.778	800.000	0.096	-0.294
-438.763	800.000	0.105	-0.378
-437.749	-96.346	0.160	0.043
-436.734	-80.972	0.025	0.009
-435.719	-52.238	0.157	-0.074
-434.705	-156.306	-0.113	0.007
-433.690	800.000	0.069	-0.195
-432.676	-200.000	-0.030	-0.350
-431.661	-200.000	0.012	-0.126
-430.646	-200.000	-0.038	0.194
-429.632	-16.800	-0.284	-0.182
-428.617	164.565	0.020	0.029
-427.603	129.145	0.401	-0.518
-426.588	13.315	-0.141	-0.111
-425.573	522.143	0.105	-0.250
-424.559	800.000	0.019	0.074
-423.544	-56.046	0.349	0.157
-422.530	-22.845	0.089	0.054
-421.515	659.529	0.118	-0.308
-420.500	-90.958	-0.341	-0.099
-419.486	-191.819	-0.283	0.003
-418.471	-29.096	0.149	0.086
-417.457	43.609	0.345	0.320
-416.442	-94.881	0.072	-0.020
-415.428	-37.639	0.080	-0.043
-414.413	-132.073	-0.291	0.038
-413.398	119.469	-0.068	0.085
-412.384	800.000	-0.102	0.310
-411.369	86.718	0.163	-0.182
-410.355	-118.144	0.104	-0.019
-409.340	86.018	0.127	-0.141
-408.325	194.311	0.123	-0.188
-407.311	71.318	-0.067	0.071
-406.296	143.683	0.188	0.253
-405.282	-23.505	-0.215	-0.131
-404.267	800.000	0.097	0.406
-403.252	-8.292	-0.248	-0.169
-402.238	701.459	0.063	-0.169
-401.223	65.488	-0.272	0.278
-400.209	20.097	0.271	0.221
-399.194	363.248	-0.085	0.172
-398.179	-156.502	-0.246	0.015
-397.165	47.127	-0.374	-0.352
-396.150	-200.000	0.042	-0.294
-395.136	109.415	-0.264	0.319
-394.121	-168.549	-0.359	0.014
-393.106	-71.773	0.090	0.034
-392.092	-24.378	-0.203	-0.123
-391.077	-125.755	-0.177	-0.027
-390.063	800.000	0.042	-0.120
-389.048	238.500	-0.112	0.189
-388.033	131.798	-0.123	0.160
-387.019	800.000	-0.034	-0.144
-386.004	-172.402	-0.292	0.009
-384.990	-32.835	-0.095	0.054
-383.975	-155.840	-0.233	0.015
-382.960	-87.710	0.046	-0.014
-381.946	601.799	-0.017	0.043
-380.931	-128.876	0.329	0.047
-379.917	-200.000	0.025	0.171
-378.902	-126.925	0.176	0.026
-377.888	249.496	-0.056	-0.097
-376.873	-98.296	0.009	0.002
-375.858	-127.364	-0.220	0.032
-374.844	-200.000	0.109	0.000
-373.829	-200.000	0.012	-0.385
-372.815	-16.322	-0.125	-0.080
-371.800	251.029	-0.060	0.103
-370.785	22.560	0.066	0.054
-369.771	259.045	0.133	0.231
-368.756	367.810	0.215	0.440
-367.742	-200.000	-0.034	-0.179
-366.727	-182.635	-0.475	-0.009
-365.712	-85.874	0.223	0.070
-364.698	-200.000	0.005	-0.032
-363.683	-1.669	0.090	-0.064
-362.669	72.990	0.087	0.091
-361.654	-200.000	0.003	0.047
-360.639	154.865	0.045	0.063
-359.625	-142.675	-0.092	-0.009
-358.610	-144.419	0.239	-0.022
-357.596	-79.472	0.090	-0.031
-356.581	-119.919	0.104	0.018
-355.566	83.126	0.191	0.210
-354.552	800.000	-0.087	0.363
-353.537	-28.030	0.375	-0.219
-352.523	113.106	0.083	0.101
-351.508	325.369	0.081	0.156
-350.493	43.269	0.161	-0.148
-349.479	112.212	0.088	-0.108
-348.464	-200.000	0.069	-0.317
-347.450	-200.000	-0.011	-0.055
-346.435	-200.000	-0.032	0.267
-345.420	800.000	-0.052	-0.165
-344.406	248.507	-0.145	0.247
-343.391	63.469	0.216	0.218
-342.377	-200.000	-0.034	-0.173
-341.362	392.216	-0.143	-0.299
-340.348	-73.951	-0.243	-0.089
-339.333	-3.662	0.027	0.019
-338.318	-35.060	0.236	0.130
-337.304	-200.000	-0.033	0.255
-336.289	172.676	-0.154	0.224
-335.275	-110.211	0.413	-0.087
-334.260	211.660	-0.017	0.027
-333.245	800.000	-0.053	0.224
-332.231	-200.000	0.042	0.444
-331.216	-128.604	-0.316	-0.045
-330.202	-200.000	-0.049	-0.290
-329.187	-71.183	-0.128	-0.049
-328.172	186.036	0.096	0.143
-327.158	424.709	0.162	0.351
-326.143	-33.099	0.206	-0.115
-325.129	-200.000	0.025	0.199
-324.114	-108.218	0.131	0.029
-323.099	-200.000	-0.025	-0.221
-322.085	-200.000	0.054	-0.275
-321.070	800.000	-0.070	-0.234
-320.056	-18.759	-0.243	-0.153
-319.041	-104.649	-0.127	0.029
-318.026	-200.000	0.000	0.158
-317.012	-14.248	-0.259	0.168
-315.997	-126.850	-0.392	-0.058
-314.983	-134.119	0.235	0.029
-313.968	361.366	-0.046	-0.094
-312.953	-115.057	0.248	0.047
-311.939	60.803	-0.074	-0.074
-310.924	-68.931	0.110	0.043
-309.910	20.113	0.097	-0.079
-308.895	376.388	-0.121	0.250
-307.880	-87.841	-0.326	0.099
-306.866	-78.526	0.313	-0.108
-305.851	70.331	-0.107	-0.111
-304.837	15.585	-0.092	-0.073
-303.822	443.747	0.085	0.188
-302.807	-136.459	0.186	-0.022
-301.793	-76.597	0.069	0.024
-300.778	83.403	0.196	-0.215
-299.764	-200.000	-0.021	0.138
-298.749	124.526	-0.101	0.128
-297.735	-62.393	-0.106	-0.045
-296.720	-115.759	0.310	0.058
-295.705	800.000	0.096	0.290
-294.691	800.000	0.029	0.095
-293.676	296.240	0.141	0.261
-292.662	131.616	0.188	-0.243
-291.647	395.653	0.029	0.060
-290.632	-119.684	0.059	0.010
-289.618	-109.765	0.203	0.043
-288.603	-200.000	-0.027	0.428
-287.589	165.695	-0.222	-0.316
-286.574	-200.000	0.024	0.137
-285.559	16.784	-0.195	-0.155
-284.545	-84.737	-0.369	-0.117
-283.530	-162.812	0.039	0.002
-282.516	-200.000	-0.013	0.170
-281.501	-200.000	-0.015	-0.139
-280.486	52.575	0.060	-0.058
-279.472	-88.865	0.394	0.118
-278.457	163.712	-0.206	-0.292
-277.443	800.000	0.059	-0.209
-276.428	800.000	0.053	-0.193
-275.413	-3.429	0.132	-0.092
-274.399	-200.000	0.009	-0.167
-273.384	18.045	0.252	0.202
-272.370	-32.499	-0.257	0.144
-271.355	238.981	0.083	0.139
-270.340	-200.000	0.066	-0.296
-269.326	-68.431	-0.298	0.116
-268.311	800.000	0.013	0.051
-267.297	-68.799	0.146	-0.057
-266.282	55.815	-0.305	0.297
-265.267	-137.042	0.182	-0.021
-264.253	-105.884	-0.348	-0.079
-263.238	-200.000	-0.011	0.160
-262.224	800.000	-0.018	0.071
-261.209	-181.458	-0.121	-0.002
-260.195	-53.737	-0.031	0.014
-259.180	-99.203	0.192	0.049
-258.165	-200.000	-0.031	0.236
-257.151	133.074	-0.073	0.094
-256.136	5.429	-0.073	-0.054
-255.122	-149.140	0.154	0.012
-254.107	-30.880	0.146	0.083
-253.092	203.285	-0.171	0.266
-252.078	-200.000	-0.035	0.198
-251.063	-200.000	0.001	-0.215
-250.049	-200.000	-0.047	-0.243
-249.034	-200.000	0.001	0.156
-248.019	-200.000	0.011	0.132
-247.005	800.000	-0.084	-0.246
-245.990	372.692	-0.233	-0.477
-244.976	-200.000	-0.017	0.259
-243.961	130.693	0.226	0.292
-242.946	89.602	0.228	-0.256
-241.932	-200.000	0.053	-0.235
-240.917	-78.034	0.100	0.035
-239.903	-55.270	0.109	-0.049
-238.888	71.715	0.137	-0.143
-237.873	145.881	0.194	0.261
-236.859	-127.022	0.222	-0.033
-235.844	-141.297	0.098	-0.010
-234.830	-200.000	0.041	0.225
-233.815	79.978	0.091	-0.099
-232.800	21.834	-0.105	0.086
-231.786	301.064	-0.142	-0.263
-230.771	-200.000	0.039	0.238
-229.757	327.536	0.040	0.078
-228.742	-74.451	-0.131	-0.047
-227.727	434.659	0.036	0.078
-226.713	-81.918	-0.138	-0.046
-225.698	598.532	-0.103	0.256
-224.684	-200.000	-0.030	0.186
-223.669	-200.000	-0.013	-0.071
-222.655	-129.177	-0.243	0.034
-221.640	62.312	0.072	0.072
-220.625	800.000	0.082	0.321
-219.611	-12.681	0.178	-0.117
-218.596	-155.169	0.158	-0.010
-217.582	42.255	0.232	0.211
-216.567	800.000	0.092	0.317
-215.552	-21.219	0.262	-0.161
-214.538	800.000	-0.038	0.109
-213.523	577.208	0.178	0.437
-212.509	-10.445	0.366	0.243
-211.494	800.000	-0.058	-0.185
-210.479	800.000	0.043	0.166
-209.465	-200.000	0.054	-0.282
-208.450	4.251	-0.188	-0.138
-207.436	-183.407	-0.284	0.005
-206.421	800.000	-0.148	-0.419
-205.406	521.430	0.142	-0.335
-204.392	213.081	0.086	-0.137
-203.377	-85.940	0.093	0.029
-202.363	140.741	-0.090	0.119
-201.348	-125.329	-0.293	0.045
-200.333	-108.084	-0.285	-0.062
-199.319	-53.834	-0.089	0.041
-198.304	218.696	0.038	0.061
-197.290	-63.709	-0.067	0.027
-196.275	-77.209	0.152	-0.053
-195.260	-200.000	-0.023	0.192
-194.246	-141.112	0.133	0.014
-193.231	51.124	-0.118	0.112
-192.217	761.310	-0.122	-0.331
-191.202	-115.513	0.084	0.016
-190.187	-200.000	-0.004	0.134
-189.173	104.190	0.099	0.117
-188.158	-200.000	-0.082	-0.410
-187.144	216.900	0.279	-0.445
-186.129	-6.731	0.039	0.027
-185.114	-70.943	-0.251	-0.095
-184.100	-115.599	-0.317	-0.060
-183.085	-200.000	0.023	-0.174
-182.071	800.000	0.052	-0.174
-181.056	46.881	0.137	0.128
-180.042	6.365	0.103	0.076
-179.027	84.095	-0.103	0.113
-178.012	-194.439	-0.278	-0.002
-176.998	41.950	-0.140	-0.127
-175.983	-104.332	-0.047	-0.011
-174.969	269.935	-0.182	0.321
-173.954	393.709	-0.172	0.359
-172.939	236.476	-0.226	0.375
-171.925	-200.000	0.037	0.215
-170.910	-121.186	-0.256	0.043
-169.896	-200.000	0.002	0.117
-168.881	-200.000	-0.049	0.325
-167.866	189.483	0.083	0.124
-166.852	-80.892	-0.249	0.083
-165.837	800.000	0.073	-0.304
-164.823	-200.000	0.006	0.029
-163.808	-54.634	-0.410	0.186
-162.793	-139.228	0.101	-0.011
-161.779	732.030	-0.190	0.509
-160.764	-200.000	0.021	-0.255
-159.750	800.000	0.065	-0.255
-158.735	260.158	-0.089	-0.154
-157.720	180.260	-0.066	0.096
-156.706	-200.000	-0.017	-0.155
-155.691	-57.760	-0.201	0.088
-154.677	-47.885	0.293	0.142
-153.662	343.451	0.093	-0.183
-152.647	-107.145	0.191	-0.042
-151.633	-14.250	-0.107	-0.069
-150.618	-21.832	-0.015	0.009
-149.604	-200.000	-0.018	0.188
-148.589	-43.469	-0.269	-0.136
-147.574	-82.258	-0.269	0.088
-146.560	620.612	0.188	0.472
-145.545	-133.887	0.275	0.034
-144.531	127.950	-0.064	0.082
-143.516	248.532	-0.085	0.144
-142.502	-200.000	-0.012	0.144
-141.487	-142.302	-0.039	-0.004
-140.472	-26.187	-0.175	0.103
-139.458	352.196	0.088	0.174
-138.443	800.000	-0.050	-0.200
-137.429	-27.718	-0.236	-0.137
-136.414	-137.949	0.184	0.021
-135.399	800.000	-0.067	0.227
-134.385	-19.384	-0.160	0.100
-133.370	479.790	-0.152	0.345
-132.356	-22.282	0.162	0.098
-131.341	-41.197	-0.116	0.060
-130.326	177.859	0.028	0.042
-129.312	-62.358	-0.315	0.131
-128.297	634.240	-0.056	0.143
-127.283	-200.000	-0.026	-0.320
-126.268	332.194	0.184	0.356
-125.253	-63.524	0.055	0.023
-124.239	64.352	0.160	-0.161
-123.224	-100.893	0.388	-0.095
-122.210	294.703	0.074	0.135
-121.195	-110.757	-0.177	0.037
-120.180	140.390	0.138	-0.182
