DTS Sentinel unit serial number:	SN413079Multiplexer serial number:	ORYXHardware model number:	OX4-SRSoftware version number:	ORYX F/W v4.00 Oryx Data Collector v3.7.2.0data status	okinstallation	princeton_trtdifferential loss correction	single-endedforward channel	channel 2reverse channel	N/Adate	2019/09/17time	09:43:35forward acquisition time	60.00reverse acquisition time	0.00gamma	496.2192k internal	0.2327k external	0.2327temperature offset calibration	0.9973default loss term (dB/km)	0.3790temperature slope calibration	1.0000multiplexer offset coefficient	1.0000multiplexer slope coefficient	1.0000fibre end	0.00T internal ref (°C)	29.31T ext. ref 1 (°C)	0.16T ext. ref 2 (°C)	25.41length (m)	temperature (°C)	Stokes	anti-Stokes-747.200	800.000	0.078	0.329
-746.185	-200.000	0.002	0.151
-745.171	57.503	0.279	0.275
-744.156	96.473	-0.407	0.470
-743.142	32.247	0.265	-0.230
-742.127	599.685	-0.071	-0.179
-741.112	800.000	0.067	0.229
-740.098	-200.000	-0.003	-0.045
-739.083	-124.749	-0.122	0.019
-738.069	0.269	-0.357	0.256
-737.054	6.210	-0.188	-0.141
-736.039	800.000	0.179	-0.516
-735.025	-16.995	0.071	-0.045
-734.010	-77.912	-0.176	-0.061
-732.996	-200.000	-0.059	-0.326
-731.981	638.061	-0.064	-0.163
-730.966	509.853	-0.133	-0.312
-729.952	-200.000	-0.003	-0.485
-728.937	-169.537	0.203	0.007
-727.923	-149.550	-0.277	0.022
-726.908	25.698	-0.328	-0.275
-725.894	683.983	-0.094	0.247
-724.879	-149.838	0.400	-0.032
-723.864	-107.563	0.332	-0.073
-722.850	-70.860	0.108	0.041
-721.835	-200.000	0.040	0.442
-720.821	-123.583	-0.147	-0.024
-719.806	21.638	-0.050	0.041
-718.791	106.576	-0.181	-0.216
-717.777	-200.000	-0.006	-0.183
-716.762	526.204	-0.079	0.188
-715.748	94.917	-0.035	-0.041
-714.733	142.622	0.175	-0.234
-713.718	-52.554	0.055	-0.026
-712.704	2.437	-0.210	-0.153
-711.689	160.111	0.176	-0.247
-710.675	-120.089	-0.102	-0.018
-709.660	-153.623	0.248	-0.017
-708.645	-18.900	-0.315	-0.198
-707.631	127.003	-0.092	-0.118
-706.616	411.400	-0.057	-0.121
-705.602	318.340	-0.065	0.124
-704.587	656.340	0.091	0.236
-703.572	79.882	0.246	-0.266
-702.558	800.000	-0.074	-0.254
-701.543	-53.042	-0.072	-0.033
-700.529	-200.000	0.011	0.420
-699.514	154.968	0.344	0.476
-698.499	-20.332	0.230	0.143
-697.485	4.414	-0.153	0.113
-696.470	21.772	-0.095	0.078
-695.456	150.093	0.130	0.178
-694.441	-200.000	0.021	0.245
-693.426	32.572	0.136	0.119
-692.412	-200.000	-0.016	-0.143
-691.397	672.381	-0.061	-0.158
-690.383	800.000	0.048	-0.145
-689.368	-200.000	-0.011	0.059
-688.354	380.446	0.073	-0.151
-687.339	-200.000	-0.051	0.302
-686.324	729.934	0.112	-0.302
-685.310	410.898	0.126	-0.269
-684.295	-200.000	0.001	0.047
-683.281	-144.746	0.393	0.036
-682.266	-200.000	0.018	0.121
-681.251	-89.337	0.117	0.035
-680.237	160.691	-0.117	-0.164
-679.222	92.650	-0.143	-0.162
-678.208	4.063	0.285	0.209
-677.193	-200.000	-0.012	0.120
-676.178	281.219	0.076	0.138
-675.164	-46.577	0.251	0.124
-674.149	-47.712	-0.294	0.143
-673.135	73.290	0.087	-0.091
-672.120	207.647	0.191	-0.299
-671.105	66.633	-0.111	0.114
-670.091	-129.155	-0.251	-0.035
-669.076	-200.000	-0.016	-0.090
-668.062	190.044	0.172	-0.259
-667.047	96.803	-0.121	0.140
-666.032	54.799	-0.218	-0.212
-665.018	-147.741	0.141	0.012
-664.003	800.000	0.080	0.241
-662.989	-88.388	-0.252	-0.076
-661.974	800.000	-0.185	0.535
-660.959	1.286	-0.295	-0.213
-659.945	800.000	-0.064	0.281
-658.930	-17.764	0.038	-0.024
-657.916	-68.840	0.112	-0.044
-656.901	-25.837	-0.294	-0.174
-655.886	-200.000	-0.002	-0.097
-654.872	-2.549	0.207	0.146
-653.857	-200.000	-0.007	-0.208
-652.843	-176.582	0.184	-0.005
-651.828	-200.000	0.058	-0.281
-650.814	-119.275	-0.166	-0.029
-649.799	-183.491	0.065	-0.001
-648.784	-114.039	0.179	-0.035
-647.770	-14.877	-0.270	-0.174
-646.755	-8.143	0.082	-0.055
-645.741	-91.686	-0.350	-0.100
-644.726	444.375	0.075	-0.164
-643.711	-93.611	0.082	0.023
-642.697	92.524	0.123	-0.140
-641.682	-112.603	-0.195	-0.039
-640.668	-46.181	-0.155	0.076
-639.653	3.452	-0.143	0.105
-638.638	49.567	0.051	0.048
-637.624	72.781	0.098	0.102
-636.609	-75.860	0.180	-0.064
-635.595	800.000	-0.063	0.240
-634.580	-145.992	0.219	0.019
-633.565	-162.503	0.050	-0.002
-632.551	256.793	-0.087	-0.150
-631.536	11.149	0.070	-0.053
-630.522	-92.047	-0.243	0.069
-629.507	-32.769	-0.300	0.167
-628.492	490.971	0.098	-0.224
-627.478	-88.718	-0.140	-0.042
-626.463	-104.751	-0.045	0.010
-625.449	238.628	0.080	0.134
-624.434	-17.149	-0.219	-0.139
-623.419	150.733	-0.233	-0.317
-622.405	109.104	0.091	-0.109
-621.390	-77.225	0.165	-0.058
-620.376	-200.000	0.014	0.334
-619.361	139.632	0.102	-0.134
-618.346	-200.000	-0.011	0.195
-617.332	-130.692	0.167	0.023
-616.317	-122.300	-0.262	0.043
-615.303	-124.544	-0.023	-0.004
-614.288	25.688	-0.233	0.195
-613.273	-29.157	-0.236	0.136
-612.259	75.002	0.179	0.189
-611.244	-200.000	0.056	-0.389
-610.230	246.108	-0.052	-0.088
-609.215	-168.026	0.150	-0.006
-608.201	-167.518	0.300	0.012
-607.186	-38.308	0.520	0.276
-606.171	63.037	-0.143	-0.143
-605.157	551.871	-0.053	0.128
-604.142	-8.094	-0.353	0.238
-603.128	-200.000	-0.019	-0.182
-602.113	-200.000	0.010	-0.093
-601.098	-148.446	0.341	-0.028
-600.084	-200.000	0.037	-0.197
-599.069	-68.831	0.114	-0.044
-598.055	-200.000	-0.005	-0.271
-597.040	800.000	-0.144	-0.445
-596.025	-141.779	-0.236	-0.024
-595.011	-89.465	-0.034	-0.010
-593.996	-200.000	0.069	0.447
-592.982	-48.654	0.181	0.087
-591.967	-200.000	0.020	0.338
-590.952	188.052	0.172	0.257
-589.938	517.739	0.090	-0.210
-588.923	-42.653	0.220	-0.112
-587.909	-200.000	0.035	-0.317
-586.894	12.716	-0.156	-0.121
-585.879	37.991	-0.049	0.044
-584.865	514.384	-0.030	-0.069
-583.850	-200.000	0.037	-0.187
-582.836	-82.999	0.136	0.044
-581.821	-93.285	-0.187	-0.052
-580.806	-123.777	0.294	-0.047
-579.792	352.573	0.122	-0.242
-578.777	-44.322	-0.184	0.092
-577.763	-43.750	0.446	0.225
-576.748	-97.968	-0.235	-0.061
-575.733	-78.582	-0.258	-0.089
-574.719	-46.183	-0.311	-0.153
-573.704	-200.000	0.022	-0.291
-572.690	-29.868	0.328	0.187
-571.675	-48.842	0.224	0.108
-570.661	800.000	0.025	0.076
-569.646	-1.777	-0.059	0.042
-568.631	14.983	-0.138	-0.108
-567.617	336.450	0.146	-0.285
-566.602	800.000	-0.076	0.212
-565.588	-39.991	0.355	0.185
-564.573	-90.099	0.115	0.033
-563.558	-100.024	-0.305	0.076
-562.544	-34.327	0.084	0.046
-561.529	371.314	0.166	-0.337
-560.515	332.601	-0.097	-0.187
-559.500	283.504	0.079	-0.142
-558.485	-180.512	0.447	0.009
-557.471	800.000	0.032	-0.104
-556.456	-32.638	0.337	-0.188
-555.442	-54.177	0.037	0.017
-554.427	-60.812	-0.206	-0.087
-553.412	-90.452	-0.259	0.075
-552.398	-33.214	-0.063	-0.035
-551.383	62.950	-0.284	-0.284
-550.369	152.339	0.049	-0.066
-549.354	800.000	0.059	0.188
-548.339	-52.783	0.037	-0.017
-547.325	477.853	-0.156	0.354
-546.310	-85.687	0.104	0.032
-545.296	-29.275	-0.020	0.012
-544.281	140.418	0.155	-0.205
-543.266	-200.000	-0.057	0.264
-542.252	-79.186	-0.286	-0.097
-541.237	259.249	-0.031	-0.054
-540.223	-19.121	0.129	-0.080
-539.208	204.217	-0.073	-0.113
-538.193	-119.056	0.128	-0.022
-537.179	50.194	-0.027	0.026
-536.164	111.649	0.011	-0.014
-535.150	-177.119	0.309	0.008
-534.135	-131.738	0.211	-0.028
-533.121	-50.149	-0.084	-0.040
-532.106	800.000	-0.042	0.137
-531.091	-55.671	-0.248	-0.111
-530.077	-64.911	-0.148	-0.060
-529.062	-106.686	0.165	-0.037
-528.048	155.875	-0.169	-0.232
-527.033	-8.940	-0.168	-0.113
-526.018	-7.578	-0.284	-0.192
-525.004	-52.007	-0.367	0.170
-523.989	800.000	0.093	0.304
-522.975	238.644	0.102	-0.169
-521.960	800.000	-0.124	-0.504
-520.945	-186.127	0.051	-0.001
-519.931	12.143	-0.132	0.102
-518.916	-52.851	-0.034	-0.016
-517.902	60.895	0.120	-0.119
-516.887	-68.709	-0.135	0.052
-515.872	36.128	-0.150	-0.132
-514.858	-76.185	-0.178	0.063
-513.843	92.357	0.049	-0.055
-512.829	-200.000	0.011	-0.072
-511.814	143.431	-0.012	0.016
-510.799	-105.423	-0.385	-0.087
-509.785	-51.854	0.220	0.102
-508.770	-104.379	0.115	-0.027
-507.756	800.000	-0.105	-0.294
-506.741	-200.000	0.006	0.152
-505.726	-200.000	-0.038	0.411
-504.712	-17.859	0.108	0.068
-503.697	-110.958	0.138	-0.028
-502.683	46.541	0.190	0.176
-501.668	466.189	-0.093	0.208
-500.653	1.966	-0.174	-0.125
-499.639	800.000	-0.087	-0.324
-498.624	-130.303	0.093	-0.013
-497.610	495.131	-0.087	-0.199
-496.595	6.936	0.215	0.160
-495.581	-200.000	0.007	-0.471
-494.566	-89.958	-0.237	0.069
-493.551	29.332	-0.160	0.136
-492.537	-88.173	0.225	0.067
-491.522	381.028	-0.090	-0.184
-490.508	442.629	-0.084	0.184
-489.493	-96.599	0.312	0.082
-488.478	-200.000	-0.008	0.261
-487.464	-136.059	-0.332	0.039
-486.449	800.000	-0.016	0.057
-485.435	164.853	-0.214	0.302
-484.420	-3.410	-0.174	-0.121
-483.405	56.187	0.074	0.072
-482.391	800.000	-0.030	-0.129
-481.376	800.000	-0.048	-0.146
-480.362	279.985	-0.180	0.321
-479.347	-60.462	-0.266	0.113
-478.332	52.386	-0.201	0.191
-477.318	-71.409	0.272	-0.102
-476.303	-116.217	-0.356	-0.066
-475.289	5.492	-0.066	0.049
-474.274	12.510	0.323	-0.248
-473.259	-134.968	-0.205	-0.025
-472.245	84.939	-0.141	-0.155
-471.230	-15.505	0.223	0.142
-470.216	119.509	0.077	0.095
-469.201	-11.716	-0.252	-0.165
-468.186	-200.000	-0.010	0.062
-467.172	-126.209	0.209	-0.031
-466.157	-80.349	-0.313	0.104
-465.143	-14.106	-0.342	-0.220
-464.128	591.486	-0.077	0.191
-463.113	114.850	0.168	-0.204
-462.099	5.684	0.221	0.163
-461.084	435.151	-0.026	0.057
-460.070	-111.058	0.093	-0.019
-459.055	-200.000	0.013	0.279
-458.040	-66.174	-0.367	-0.146
-457.026	132.959	-0.025	0.033
-456.011	98.681	0.127	0.146
-454.997	-79.703	0.432	0.145
-453.982	41.695	0.020	0.018
-452.968	-79.958	0.294	0.098
-451.953	-151.321	0.142	0.011
-450.938	75.089	0.146	0.154
-449.924	-200.000	-0.055	0.249
-448.909	-49.561	-0.247	-0.117
-447.895	-61.997	0.185	0.077
-446.880	-104.553	0.144	0.033
-445.865	-3.733	0.205	0.142
-444.851	40.313	-0.090	0.081
-443.836	-63.026	-0.159	0.065
-442.822	307.658	0.055	-0.102
-441.807	51.816	-0.040	0.038
-440.792	800.000	0.039	0.123
-439.778	1.103	-0.421	-0.301
-438.763	246.765	0.100	-0.168
-437.749	-61.786	-0.150	0.062
-436.734	-17.555	-0.367	0.230
-435.719	800.000	-0.091	0.296
-434.705	-200.000	0.068	0.345
-433.690	215.194	-0.028	-0.044
-432.676	661.910	-0.062	-0.158
-431.661	154.046	0.086	-0.118
-430.646	215.176	-0.065	0.102
-429.632	-45.058	-0.131	-0.065
-428.617	9.141	0.154	-0.116
-427.603	800.000	-0.065	-0.244
-426.588	117.765	-0.072	0.088
-425.573	-122.394	0.251	-0.041
-424.559	-200.000	0.005	-0.222
-423.544	-22.813	-0.148	0.089
-422.530	97.973	-0.131	-0.150
-421.515	-73.695	-0.219	-0.079
-420.500	-200.000	-0.010	-0.090
-419.486	-200.000	0.037	-0.246
-418.471	-200.000	0.023	-0.120
-417.457	-58.750	0.165	-0.071
-416.442	-163.757	0.142	-0.007
-415.428	61.366	0.150	-0.148
-414.413	42.937	-0.134	0.122
-413.398	-200.000	-0.041	0.421
-412.384	-99.013	-0.212	0.053
-411.369	87.716	0.226	0.250
-410.355	309.585	-0.306	0.570
-409.340	-110.008	-0.130	0.027
-408.325	-200.000	0.066	0.380
-407.311	800.000	-0.082	-0.258
-406.296	-133.671	0.063	-0.008
-405.282	-200.000	-0.026	-0.243
-404.267	-200.000	-0.001	-0.153
-403.252	-200.000	-0.011	0.137
-402.238	-97.575	-0.193	-0.050
-401.223	-64.990	-0.063	-0.025
-400.209	39.845	-0.136	-0.122
-399.194	94.583	-0.075	0.085
-398.179	-153.102	-0.133	-0.009
-397.165	-109.460	0.212	-0.045
-396.150	-59.370	-0.199	0.085
-395.136	-200.000	0.032	-0.206
-394.121	-200.000	0.009	0.047
-393.106	-41.952	0.120	-0.061
-392.092	107.639	-0.062	0.074
-391.077	-120.776	-0.365	0.061
-390.063	37.987	0.168	-0.148
-389.048	-200.000	-0.018	-0.153
-388.033	-127.358	0.318	-0.046
-387.019	-38.059	0.159	-0.084
-386.004	-150.815	0.327	0.025
-384.990	800.000	0.100	0.383
-383.975	-200.000	0.053	0.338
-382.960	800.000	-0.053	-0.178
-381.946	324.725	-0.089	-0.169
-380.931	-189.377	0.280	-0.003
-379.917	-10.463	0.245	-0.162
-378.902	22.295	0.209	-0.170
-377.888	73.199	-0.180	-0.187
-376.873	181.605	0.050	-0.073
-375.858	-92.400	0.335	0.094
-374.844	800.000	0.021	-0.079
-373.829	-200.000	0.013	0.064
-372.815	-200.000	0.016	0.098
-371.800	-85.955	-0.238	-0.073
-370.785	6.833	-0.229	-0.169
-369.771	800.000	-0.043	-0.128
-368.756	-81.146	-0.061	-0.020
-367.742	-181.033	0.213	-0.004
-366.727	-60.442	-0.216	0.091
-365.712	48.716	0.154	0.144
-364.698	-200.000	-0.001	-0.214
-363.683	-49.293	0.110	0.052
-362.669	-200.000	-0.073	-0.392
-361.654	26.381	0.138	0.115
-360.639	-137.912	0.263	-0.029
-359.625	-58.343	0.187	0.081
-358.610	253.933	-0.262	0.445
-357.596	49.248	-0.147	0.137
-356.581	-187.878	-0.264	-0.003
-355.566	-72.923	0.177	-0.065
-354.552	-39.554	0.254	-0.132
-353.537	-74.928	0.143	0.051
-352.523	-200.000	-0.058	-0.302
-351.508	-161.481	0.069	-0.004
-350.493	135.944	0.137	0.177
-349.479	-200.000	-0.003	-0.033
-348.464	-79.742	-0.097	-0.032
-347.450	-112.478	0.479	0.095
-346.435	220.741	0.092	-0.146
-345.420	800.000	-0.063	-0.180
-344.406	-84.972	-0.114	-0.036
-343.391	7.991	-0.310	0.231
-342.377	-42.718	0.065	-0.033
-341.362	800.000	-0.023	0.080
-340.348	0.549	0.041	0.029
-339.333	51.928	0.094	-0.089
-338.318	492.519	-0.125	0.285
-337.304	125.654	-0.037	-0.046
-336.289	61.240	0.112	0.111
-335.275	195.106	0.246	0.371
-334.260	-97.096	-0.325	0.084
-333.245	-1.037	0.136	0.095
-332.231	-5.793	0.361	-0.245
-331.216	308.799	-0.132	-0.244
-330.202	108.945	0.197	-0.234
-329.187	-113.478	0.365	-0.071
-328.172	-164.544	0.112	-0.005
-327.158	64.533	0.059	-0.059
-326.143	800.000	-0.080	-0.252
-325.129	-200.000	-0.005	0.063
-324.114	268.443	0.053	-0.092
-323.099	-44.037	-0.116	-0.058
-322.085	40.415	-0.119	-0.106
-321.070	800.000	0.111	0.359
-320.056	-200.000	-0.056	0.385
-319.041	164.844	0.188	-0.263
-318.026	800.000	-0.054	0.229
-317.012	-59.971	0.357	-0.151
-315.997	651.143	0.073	-0.186
-314.983	172.574	-0.084	-0.120
-313.968	359.523	0.090	0.179
-312.953	274.543	0.178	0.313
-311.939	11.276	0.222	-0.169
-310.924	253.401	0.027	-0.046
-309.910	-200.000	0.002	-0.010
-308.895	184.557	0.054	-0.080
-307.880	150.137	0.174	-0.234
-306.866	-125.864	0.076	0.011
-305.851	161.757	-0.025	-0.035
-304.837	800.000	-0.046	0.133
-303.822	-127.392	0.200	-0.029
-302.807	-37.845	-0.166	0.088
-301.793	-136.213	0.461	-0.053
-300.778	24.178	0.299	-0.245
-299.764	-57.613	-0.081	-0.035
-298.749	-200.000	-0.049	0.498
-297.735	58.546	-0.119	0.116
-296.720	-96.913	-0.084	0.022
-295.705	-200.000	-0.006	-0.063
-294.691	-200.000	-0.005	0.204
-293.676	-41.738	-0.140	-0.071
-292.662	-87.658	-0.350	-0.105
-291.647	481.345	0.034	-0.076
-290.632	-103.838	0.153	0.035
-289.618	-68.376	0.072	-0.028
-288.603	-200.000	-0.021	0.255
-287.589	-114.877	0.191	-0.036
-286.574	93.100	-0.107	0.120
-285.559	-35.824	0.173	0.093
-284.545	713.923	0.010	-0.026
-283.530	27.542	-0.157	0.131
-282.516	30.469	-0.182	0.154
-281.501	-26.475	0.210	0.122
-280.486	266.299	-0.029	-0.051
-279.472	64.561	-0.150	-0.150
-278.457	674.148	0.124	0.318
-277.443	13.528	0.146	-0.112
-276.428	212.155	-0.191	-0.298
-275.413	-59.023	0.042	-0.018
-274.399	11.157	0.090	-0.068
-273.384	-30.815	0.404	-0.226
-272.370	622.849	0.006	-0.016
-271.355	411.594	0.103	-0.217
-270.340	21.463	-0.077	0.062
-269.326	62.565	-0.108	-0.107
-268.311	5.608	-0.290	0.212
-267.297	800.000	0.056	0.157
-266.282	27.268	0.264	0.219
-265.267	-200.000	0.016	0.254
-264.253	105.547	-0.054	0.064
-263.238	5.362	0.190	0.139
-262.224	800.000	-0.138	-0.456
-261.209	17.481	-0.031	-0.024
-260.195	694.872	0.036	-0.093
-259.180	37.100	0.145	-0.127
-258.165	-63.111	-0.470	0.192
-257.151	-200.000	0.025	0.221
-256.136	80.002	-0.256	0.272
-255.122	800.000	0.058	0.169
-254.107	-200.000	0.072	0.417
-253.092	-48.550	-0.317	-0.151
-252.078	-96.744	-0.192	0.050
-251.063	-91.657	-0.213	0.060
-250.049	-200.000	-0.035	0.164
-249.034	201.628	-0.199	-0.303
-248.019	61.893	-0.174	-0.172
-247.005	1.790	-0.233	-0.166
-245.990	-117.664	0.305	-0.054
-244.976	-73.429	-0.468	0.169
-243.961	-11.844	0.138	-0.089
-242.946	211.045	-0.086	-0.133
-241.932	-109.726	-0.199	-0.041
-240.917	-137.483	-0.193	-0.022
-239.903	-31.830	-0.224	0.124
-238.888	77.396	-0.141	-0.148
-237.873	800.000	0.045	-0.175
-236.859	148.291	-0.189	0.252
-235.844	-115.357	0.179	-0.033
-234.830	-91.506	0.522	0.147
-233.815	92.951	-0.132	-0.147
-232.800	-115.426	0.591	0.110
-231.786	94.328	-0.131	-0.147
-230.771	-200.000	-0.021	-0.553
-229.757	800.000	-0.045	-0.123
-228.742	-89.773	0.118	-0.034
-227.727	668.450	0.099	-0.254
-226.713	-161.116	0.089	-0.005
-225.698	-24.868	-0.185	0.109
-224.684	286.369	-0.070	0.125
-223.669	-64.434	0.136	0.054
-222.655	-150.950	-0.374	0.028
-221.640	141.214	0.034	0.044
-220.625	-133.778	0.082	-0.010
-219.611	-200.000	-0.036	-0.507
-218.596	-18.750	0.131	0.080
-217.582	800.000	0.127	-0.347
-216.567	124.197	-0.235	-0.292
-215.552	-200.000	0.041	-0.265
-214.538	-109.218	0.178	0.037
-213.523	65.057	-0.168	0.168
-212.509	-71.891	0.078	-0.029
-211.494	342.822	0.111	0.215
-210.479	27.828	-0.028	0.024
-209.465	-35.514	-0.569	0.305
-208.450	800.000	-0.076	0.283
-207.436	286.822	0.174	-0.311
-206.421	40.325	-0.124	0.110
-205.406	-104.963	-0.010	-0.002
-204.392	-200.000	-0.006	0.406
-203.377	126.380	-0.057	0.071
-202.363	-34.212	-0.247	-0.134
-201.348	-93.841	0.324	0.088
-200.333	-200.000	0.038	0.230
-199.319	396.411	0.074	-0.152
-198.304	-50.241	0.127	0.059
-197.290	-187.471	-0.086	-0.001
-196.275	-118.045	0.263	-0.046
-195.260	41.242	-0.127	0.114
-194.246	-55.237	0.204	0.091
-193.231	800.000	-0.163	-0.476
-192.217	-36.549	0.193	0.102
-191.202	800.000	-0.118	-0.360
-190.187	-3.324	-0.205	0.141
-189.173	-200.000	0.035	0.240
-188.158	37.880	-0.236	-0.207
-187.144	106.187	-0.086	0.101
-186.129	167.976	0.140	0.196
-185.114	-11.625	-0.224	0.145
-184.100	421.044	0.065	-0.138
-183.085	-92.564	0.366	0.101
-182.071	800.000	-0.077	0.231
-181.056	-174.009	-0.464	-0.013
-180.042	-142.556	0.255	0.025
-179.027	-200.000	-0.058	-0.364
-178.012	8.855	0.251	0.187
-176.998	-6.756	0.091	-0.061
-175.983	-164.875	0.111	0.005
-174.969	-149.434	-0.234	-0.018
-173.954	-55.767	-0.123	-0.054
-172.939	-109.470	0.089	0.018
-171.925	-156.565	0.063	-0.004
-170.910	-38.716	-0.288	-0.150
-169.896	39.640	-0.184	0.163
-168.881	262.443	0.161	0.276
-167.866	157.346	-0.126	0.172
-166.852	800.000	-0.167	0.637
-165.837	-73.502	-0.312	-0.112
-164.823	-177.417	0.400	0.010
-163.808	-60.198	-0.281	0.118
-162.793	-92.774	0.206	-0.057
-161.779	-114.002	0.188	-0.036
-160.764	-69.462	-0.265	0.100
-159.750	-27.514	0.371	-0.212
-158.735	84.027	-0.154	0.166
-157.720	-200.000	-0.013	0.191
-156.706	-17.900	0.275	-0.170
-155.691	381.066	-0.074	-0.149
-154.677	800.000	-0.059	0.251
-153.662	271.969	0.183	0.318
-152.647	-136.243	0.192	0.022
-151.633	-118.965	0.253	0.044
-150.618	-51.502	0.127	-0.058
-149.604	68.097	0.058	-0.058
-148.589	152.632	0.077	-0.103
-147.574	74.997	0.143	0.148
-146.560	-140.416	-0.063	0.006
-145.545	198.034	-0.124	-0.187
-144.531	-35.244	-0.147	-0.079
-143.516	135.772	0.056	-0.072
-142.502	-200.000	0.010	-0.050
-141.487	20.307	0.034	-0.027
-140.472	-139.000	0.260	0.028
-139.458	-119.765	-0.327	-0.055
-138.443	-142.799	0.365	-0.035
-137.429	-200.000	0.062	-0.428
-136.414	-93.270	0.345	0.094
-135.399	-200.000	0.011	0.192
-134.385	800.000	0.098	0.308
-133.370	800.000	-0.031	0.097
-132.356	399.137	-0.106	0.219
-131.341	800.000	-0.043	0.148
-130.326	63.409	0.178	0.176
-129.312	-200.000	-0.004	0.018
-128.297	70.435	0.033	-0.034
-127.283	-82.138	-0.132	0.042
-126.268	134.832	0.218	-0.279
-125.253	-27.317	0.265	-0.152
-124.239	598.826	0.125	0.304
-123.224	-71.417	0.175	-0.065
-122.210	-200.000	-0.017	0.182
-121.195	-86.607	0.094	-0.028
