DTS Sentinel unit serial number:	SN413079Multiplexer serial number:	ORYXHardware model number:	OX4-SRSoftware version number:	ORYX F/W v4.00 Oryx Data Collector v3.7.2.0data status	okinstallation	princeton_trtdifferential loss correction	single-endedforward channel	channel 2reverse channel	N/Adate	2019/09/10time	19:21:11forward acquisition time	60.00reverse acquisition time	0.00gamma	496.2192k internal	0.2325k external	0.2325temperature offset calibration	0.9948default loss term (dB/km)	0.3790temperature slope calibration	1.0000multiplexer offset coefficient	1.0000multiplexer slope coefficient	1.0000fibre end	0.00T internal ref (°C)	33.77T ext. ref 1 (°C)	-0.28T ext. ref 2 (°C)	26.28length (m)	temperature (°C)	Stokes	anti-Stokes-747.200	800.000	0.043	-0.141
-746.185	238.242	-0.225	0.377
-745.171	-19.300	-0.108	0.067
-744.156	162.572	-0.093	0.131
-743.142	495.121	-0.077	-0.179
-742.127	-68.844	-0.091	-0.035
-741.112	-200.000	0.050	-0.241
-740.098	42.989	-0.187	0.172
-739.083	-101.405	0.144	-0.035
-738.069	349.649	-0.236	0.470
-737.054	-37.452	-0.192	-0.104
-736.039	-134.918	-0.170	0.021
-735.025	55.985	-0.165	0.161
-734.010	89.201	-0.102	-0.114
-732.996	-69.913	-0.028	0.011
-731.981	55.810	0.224	-0.219
-730.966	-48.771	-0.157	0.076
-729.952	-42.504	-0.242	-0.124
-728.937	-8.950	0.099	0.067
-727.923	83.257	0.187	0.206
-726.908	-185.893	0.128	0.002
-725.894	800.000	0.070	0.273
-724.879	-200.000	-0.007	-0.094
-723.864	31.239	-0.152	-0.132
-722.850	123.282	-0.109	0.137
-721.835	-200.000	-0.021	-0.115
-720.821	-34.229	-0.361	0.200
-719.806	16.986	0.092	0.074
-718.791	185.536	-0.179	-0.268
-717.777	316.853	-0.130	0.248
-716.762	-151.591	-0.110	-0.008
-715.748	800.000	-0.080	-0.349
-714.733	800.000	-0.050	-0.192
-713.718	198.515	0.019	0.029
-712.704	30.762	-0.257	-0.222
-711.689	-200.000	-0.016	-0.157
-710.675	230.941	0.035	0.058
-709.660	800.000	0.019	0.067
-708.645	197.672	-0.039	-0.060
-707.631	-200.000	0.055	-0.361
-706.616	-194.158	-0.182	-0.001
-705.602	800.000	0.113	-0.354
-704.587	-30.363	0.402	0.230
-703.572	-122.653	-0.394	-0.064
-702.558	121.551	0.071	-0.089
-701.543	-125.865	-0.073	0.011
-700.529	800.000	0.053	0.151
-699.514	193.604	-0.063	0.097
-698.499	-101.933	-0.095	-0.023
-697.485	140.373	0.142	0.189
-696.470	105.338	0.118	0.141
-695.456	25.263	0.137	-0.114
-694.441	-23.520	-0.169	-0.102
-693.426	-27.265	-0.194	-0.114
-692.412	-200.000	0.010	-0.084
-691.397	81.381	0.234	0.255
-690.383	-16.041	0.119	0.077
-689.368	-118.383	0.164	0.029
-688.354	-121.889	-0.096	-0.016
-687.339	423.970	-0.142	-0.308
-686.324	-125.068	-0.109	0.017
-685.310	28.567	-0.244	0.208
-684.295	-46.287	-0.079	-0.039
-683.281	-88.525	0.186	-0.056
-682.266	10.308	0.081	0.062
-681.251	-200.000	-0.006	0.033
-680.237	-128.370	-0.331	0.047
-679.222	-200.000	-0.029	0.223
-678.208	-191.162	-0.402	-0.004
-677.193	-45.683	0.086	-0.043
-676.178	140.691	0.134	0.178
-675.164	800.000	-0.026	-0.111
-674.149	-121.805	0.180	-0.030
-673.135	336.463	-0.291	-0.569
-672.120	135.813	-0.153	-0.200
-671.105	103.924	0.111	0.132
-670.091	41.526	0.024	-0.022
-669.076	596.363	-0.021	-0.052
-668.062	43.691	-0.033	-0.030
-667.047	-200.000	-0.010	-0.219
-666.032	76.147	-0.180	-0.191
-665.018	-76.890	0.302	-0.106
-664.003	-118.695	-0.331	0.059
-662.989	-64.802	-0.133	-0.054
-661.974	-101.909	0.203	-0.049
-660.959	71.438	-0.201	-0.210
-659.945	-200.000	-0.031	0.369
-658.930	-68.593	-0.093	-0.036
-657.916	-26.295	0.225	0.133
-656.901	193.086	0.036	0.055
-655.886	620.081	-0.014	0.035
-654.872	-73.105	-0.018	0.007
-653.857	-200.000	-0.025	-0.271
-652.843	56.948	-0.214	-0.210
-651.828	800.000	0.051	-0.158
-650.814	386.626	0.274	0.569
-649.799	-123.504	0.414	0.066
-648.784	-40.946	-0.261	-0.136
-647.770	368.767	-0.061	0.125
-646.755	200.744	-0.040	0.062
-645.741	320.821	-0.106	-0.202
-644.726	123.104	0.050	-0.063
-643.711	-113.882	0.108	0.021
-642.697	93.380	0.118	0.134
-641.682	-200.000	-0.073	-0.350
-640.668	380.531	-0.136	-0.280
-639.653	-200.000	0.015	-0.292
-638.638	-5.964	-0.245	-0.168
-637.624	800.000	-0.173	-0.600
-636.609	-141.421	0.065	-0.007
-635.595	-41.437	-0.143	0.074
-634.580	-77.122	0.305	0.107
-633.565	-124.623	-0.161	0.025
-632.551	222.379	0.124	0.200
-631.536	-200.000	0.009	0.155
-630.522	20.262	-0.026	-0.021
-629.507	294.823	0.091	-0.167
-628.492	40.629	-0.221	-0.200
-627.478	147.995	0.187	-0.253
-626.463	-107.699	-0.211	-0.046
-625.449	517.128	-0.110	-0.258
-624.434	423.714	-0.082	0.176
-623.419	48.305	0.278	0.262
-622.405	515.137	0.022	0.051
-621.390	-67.789	-0.264	-0.104
-620.376	-132.316	0.341	0.044
-619.361	-144.709	-0.607	-0.056
-618.346	800.000	0.116	0.413
-617.332	-80.221	0.178	-0.060
-616.317	-78.673	-0.428	0.147
-615.303	-70.463	0.232	0.088
-614.288	-14.232	-0.204	-0.132
-613.273	-24.807	0.355	0.211
-612.259	43.821	0.261	0.240
-611.244	-124.712	-0.365	-0.057
-610.230	-200.000	-0.005	-0.248
-609.215	-64.819	0.335	0.136
-608.201	-200.000	0.031	0.247
-607.186	800.000	0.081	0.290
-606.171	38.684	-0.243	0.217
-605.157	800.000	0.052	0.219
-604.142	185.262	-0.135	-0.202
-603.128	23.102	0.112	-0.092
-602.113	-200.000	0.018	-0.112
-601.098	800.000	0.044	-0.136
-600.084	-119.088	0.337	-0.059
-599.069	800.000	0.049	0.201
-598.055	61.628	-0.209	-0.209
-597.040	40.863	-0.076	0.069
-596.025	800.000	-0.057	-0.236
-595.011	297.809	0.228	0.421
-593.996	165.293	0.081	-0.115
-592.982	-200.000	-0.034	0.269
-591.967	-78.274	0.543	0.187
-590.952	-32.197	0.032	-0.018
-589.938	-98.035	-0.147	-0.038
-588.923	119.582	0.193	-0.239
-587.909	-64.853	-0.103	0.042
-586.894	-200.000	0.025	0.181
-585.879	-128.040	0.167	-0.024
-584.865	-200.000	0.013	-0.186
-583.850	-200.000	-0.027	-0.122
-582.836	-38.673	-0.377	0.199
-581.821	-135.680	-0.065	-0.008
-580.806	134.286	0.046	0.060
-579.792	105.202	-0.027	-0.032
-578.777	800.000	0.019	0.064
-577.763	-200.000	0.002	0.192
-576.748	-121.857	0.310	-0.051
-575.733	800.000	-0.145	-0.439
-574.719	-66.635	-0.252	-0.100
-573.704	-112.106	0.233	0.047
-572.690	244.151	0.110	0.184
-571.675	-41.801	-0.201	0.103
-570.661	42.041	0.191	-0.174
-569.646	-79.542	0.071	0.024
-568.631	80.333	0.159	-0.172
-567.617	-75.911	-0.197	-0.070
-566.602	-151.673	0.229	-0.017
-565.588	-200.000	0.045	0.206
-564.573	-183.818	0.261	0.004
-563.558	365.719	-0.112	0.226
-562.544	74.470	0.090	0.095
-561.529	276.231	-0.196	0.348
-560.515	51.198	0.019	-0.018
-559.500	-99.581	0.122	0.031
-558.485	-120.922	-0.458	-0.077
-557.471	-200.000	0.055	-0.358
-556.456	800.000	-0.093	-0.268
-555.442	-98.563	-0.268	-0.069
-554.427	800.000	-0.111	-0.444
-553.412	20.854	0.174	-0.141
-552.398	-200.000	-0.047	0.286
-551.383	-186.840	-0.193	0.003
-550.369	-132.737	-0.442	0.057
-549.354	5.472	-0.179	0.132
-548.339	580.474	0.140	0.344
-547.325	328.180	-0.172	-0.330
-546.310	3.902	-0.104	0.076
-545.296	-200.000	-0.250	0.000
-544.281	-75.204	0.081	-0.029
-543.266	-100.184	-0.155	0.039
-542.252	52.774	0.167	-0.160
-541.237	-113.591	0.152	0.030
-540.223	-200.000	-0.000	-0.156
-539.208	57.109	-0.188	-0.183
-538.193	19.866	-0.207	-0.167
-537.179	-14.978	0.243	0.156
-536.164	-21.655	-0.261	-0.159
-535.150	800.000	-0.072	-0.206
-534.135	386.616	0.060	-0.124
-533.121	-200.000	0.013	-0.119
-532.106	22.780	-0.103	0.085
-531.091	-44.600	0.135	0.067
-530.077	164.819	0.059	-0.083
-529.062	80.552	0.242	-0.261
-528.048	19.954	-0.074	-0.060
-527.033	-127.433	-0.213	-0.031
-526.018	-17.615	0.142	-0.089
-525.004	-119.019	-0.478	-0.084
-523.989	-101.106	-0.113	-0.028
-522.975	356.030	-0.046	0.091
-521.960	-125.086	-0.104	0.016
-520.945	37.026	0.155	-0.138
-519.931	-200.000	-0.009	0.227
-518.916	-161.854	-0.147	0.007
-517.902	797.264	-0.058	-0.160
-516.887	280.295	0.031	-0.056
-515.872	270.357	0.132	0.231
-514.858	368.139	0.100	-0.202
-513.843	-19.753	-0.199	-0.123
-512.829	-163.328	0.245	-0.012
-511.814	-163.482	0.203	0.010
-510.799	-200.000	-0.021	0.278
-509.785	800.000	0.056	-0.177
-508.770	-43.089	-0.248	-0.126
-507.756	-200.000	0.001	0.076
-506.741	800.000	0.043	0.148
-505.726	254.881	0.013	0.023
-504.712	119.676	-0.106	-0.132
-503.697	36.784	-0.194	0.172
-502.683	-32.987	0.198	-0.110
-501.668	-200.000	0.001	0.012
-500.653	301.101	0.042	0.077
-499.639	-17.166	0.263	0.166
-498.624	-97.428	-0.465	0.121
-497.610	83.584	-0.175	-0.190
-496.595	413.477	0.182	-0.387
-495.581	172.883	-0.155	0.224
-494.566	-1.190	-0.167	0.118
-493.551	-162.060	-0.254	-0.013
-492.537	219.055	-0.171	0.273
-491.522	-62.574	-0.097	-0.040
-490.508	376.094	-0.139	-0.283
-489.493	-147.877	-0.308	-0.026
-488.478	71.099	-0.162	-0.168
-487.464	-83.393	-0.333	0.107
-486.449	-127.404	-0.415	-0.060
-485.435	123.475	0.247	0.310
-484.420	-200.000	-0.125	-0.730
-483.405	-200.000	0.000	-0.292
-482.391	749.625	0.113	0.304
-481.376	516.915	0.197	0.459
-480.362	800.000	0.061	-0.259
-479.347	-92.179	0.013	-0.004
-478.332	800.000	0.022	-0.089
-477.318	-10.790	-0.360	0.238
-476.303	37.803	0.163	-0.145
-475.289	356.845	-0.188	0.375
-474.274	64.027	0.263	-0.264
-473.259	60.754	-0.185	0.183
-472.245	-68.081	-0.307	0.120
-471.230	104.805	0.175	0.206
-470.216	-200.000	-0.052	0.420
-469.201	-10.754	-0.396	0.261
-468.186	-150.523	0.419	-0.032
-467.172	-139.506	0.021	0.002
-466.157	-106.132	0.232	0.052
-465.143	-21.632	-0.311	0.189
-464.128	-188.355	0.293	-0.004
-463.113	800.000	0.063	0.230
-462.099	-31.438	-0.250	0.140
-461.084	400.609	0.098	-0.206
-460.070	-200.000	-0.071	-0.343
-459.055	-25.754	-0.048	-0.028
-458.040	467.270	0.096	-0.215
-457.026	-200.000	-0.044	0.221
-456.011	235.393	-0.101	0.167
-454.997	-12.268	-0.318	-0.207
-453.982	-22.047	-0.297	0.180
-452.968	470.171	0.112	0.252
-451.953	116.397	0.191	0.233
-450.938	528.680	0.133	0.313
-449.924	-200.000	0.029	0.379
-448.909	-164.444	0.130	0.006
-447.895	-138.761	0.093	0.010
-446.880	143.640	-0.163	-0.217
-445.865	-200.000	0.021	-0.226
-444.851	345.832	0.108	-0.212
-443.836	-60.186	0.201	0.085
-442.822	197.642	-0.152	0.231
-441.807	-191.047	0.055	-0.001
-440.792	13.367	0.106	0.082
-439.778	-149.169	-0.152	-0.012
-438.763	-120.065	-0.476	0.081
-437.749	-59.901	0.115	-0.049
-436.734	800.000	0.042	-0.163
-435.719	365.649	0.121	-0.244
-434.705	-50.536	-0.329	-0.155
-433.690	-58.985	0.196	0.085
-432.676	444.488	-0.015	0.033
-431.661	-98.552	-0.158	0.040
-430.646	-80.354	-0.135	0.045
-429.632	800.000	0.111	-0.386
-428.617	-77.958	0.214	-0.074
-427.603	-200.000	0.061	-0.274
-426.588	210.098	0.078	0.122
-425.573	10.206	-0.394	0.298
-424.559	4.131	0.187	-0.136
-423.544	451.028	-0.138	-0.304
-422.530	800.000	-0.089	0.368
-421.515	-200.000	0.029	0.131
-420.500	-30.180	0.324	0.184
-419.486	338.186	0.134	0.260
-418.471	-88.335	0.293	-0.087
-417.457	138.872	-0.237	-0.310
-416.442	-200.000	0.018	0.089
-415.428	123.472	0.218	0.272
-414.413	-121.997	0.241	0.039
-413.398	425.582	0.179	0.384
-412.384	-135.631	0.086	0.010
-411.369	204.588	0.151	0.233
-410.355	38.229	-0.260	0.231
-409.340	180.992	0.106	0.155
-408.325	115.167	0.153	0.187
-407.311	-109.474	-0.122	0.026
-406.296	-200.000	0.087	-0.465
-405.282	527.705	0.100	0.235
-404.267	-112.384	0.419	0.083
-403.252	86.740	-0.191	0.210
-402.238	800.000	-0.021	0.065
-401.223	303.680	-0.120	-0.221
-400.209	138.992	0.353	-0.462
-399.194	-200.000	-0.036	0.160
-398.179	130.484	-0.063	0.081
-397.165	666.930	0.110	0.283
-396.150	800.000	-0.123	0.454
-395.136	-48.661	0.197	-0.094
-394.121	-47.464	0.178	0.086
-393.106	-128.431	0.081	-0.011
-392.092	633.176	0.091	-0.231
-391.077	-106.004	0.140	0.031
-390.063	-28.184	0.180	0.103
-389.048	266.567	-0.081	-0.141
-388.033	198.902	-0.073	-0.111
-387.019	429.759	-0.048	-0.103
-386.004	800.000	0.126	0.412
-384.990	800.000	0.028	-0.082
-383.975	395.202	-0.069	-0.144
-382.960	-41.903	0.180	0.092
-381.946	433.008	0.101	0.217
-380.931	800.000	-0.135	-0.401
-379.917	-136.465	-0.128	0.015
-378.902	106.345	0.065	-0.077
-377.888	-200.000	0.035	0.244
-376.873	114.348	0.143	0.173
-375.858	52.068	0.149	0.141
-374.844	-115.222	0.142	-0.027
-373.829	-152.259	0.093	-0.007
-372.815	-127.309	0.157	-0.023
-371.800	204.195	-0.222	-0.342
-370.785	-84.616	-0.384	-0.120
-369.771	-200.000	0.006	-0.264
-368.756	104.716	0.267	0.313
-367.742	490.582	-0.067	-0.153
-366.727	188.585	0.007	0.011
-365.712	167.585	0.099	-0.140
-364.698	800.000	0.080	-0.297
-363.683	718.118	-0.081	-0.215
-362.669	140.753	-0.187	0.245
-361.654	-141.527	-0.085	0.009
-360.639	-200.000	-0.055	0.378
-359.625	-200.000	-0.364	0.002
-358.610	213.133	-0.085	-0.134
-357.596	511.970	0.080	0.185
-356.581	16.652	0.115	-0.091
-355.566	373.908	0.073	-0.147
-354.552	781.611	0.020	-0.055
-353.537	-200.000	0.009	-0.126
-352.523	-200.000	-0.069	-0.326
-351.508	-64.774	-0.284	0.114
-350.493	-42.922	0.139	-0.070
-349.479	-80.193	0.088	-0.029
-348.464	-65.226	-0.304	0.122
-347.450	-80.290	-0.350	0.116
-346.435	23.331	0.167	0.137
-345.420	-16.259	-0.373	0.235
-344.406	178.171	-0.121	0.176
-343.391	-91.224	0.182	0.052
-342.377	98.410	0.215	0.246
-341.362	136.269	-0.244	0.316
-340.348	244.288	-0.050	0.083
-339.333	-57.543	-0.221	-0.096
-338.318	800.000	-0.132	-0.388
-337.304	36.452	-0.265	-0.232
-336.289	39.498	-0.121	-0.108
-335.275	280.969	-0.004	-0.007
-334.260	-144.442	-0.138	-0.013
-333.245	-72.267	0.147	-0.054
-332.231	800.000	0.069	-0.229
-331.216	380.494	-0.097	0.198
-330.202	97.026	-0.056	0.064
-329.187	-200.000	-0.005	0.070
-328.172	-108.061	-0.251	0.054
-327.158	19.057	-0.120	-0.095
-326.143	-40.998	-0.167	0.086
-325.129	-60.075	0.097	0.041
-324.114	259.537	0.230	0.395
-323.099	800.000	-0.018	0.056
-322.085	800.000	-0.026	0.073
-321.070	413.997	-0.017	0.036
-320.056	-200.000	0.068	0.343
-319.041	-23.543	0.164	0.098
-318.026	142.714	-0.050	-0.066
-317.012	183.321	-0.344	-0.504
-315.997	-186.989	-0.640	0.009
-314.983	800.000	0.016	-0.050
-313.968	50.054	0.258	-0.241
-312.953	117.527	0.332	-0.405
-311.939	-187.016	0.305	0.004
-310.924	10.554	0.210	-0.159
-309.910	-79.753	-0.110	0.037
-308.895	-44.718	0.267	-0.132
-307.880	-82.650	0.159	0.051
-306.866	-162.087	-0.232	-0.012
-305.851	41.382	-0.184	0.166
-304.837	-173.787	0.282	-0.008
-303.822	-76.602	-0.429	0.149
-302.807	215.072	-0.092	-0.145
-301.793	-134.925	0.131	-0.016
-300.778	-105.092	-0.050	-0.011
-299.764	-48.195	0.031	0.015
-298.749	800.000	-0.058	-0.173
-297.735	24.210	-0.179	-0.147
-296.720	-131.976	-0.280	-0.036
-295.705	615.148	-0.128	-0.317
-294.691	70.108	-0.078	0.080
-293.676	-168.062	0.104	0.004
-292.662	-73.127	-0.026	0.010
-291.647	-165.885	0.271	-0.012
-290.632	-45.647	-0.415	-0.204
-289.618	-2.253	-0.137	0.095
-288.603	270.233	0.113	0.197
-287.589	-200.000	-0.001	-0.055
-286.574	219.312	0.140	0.221
-285.559	63.335	0.098	0.097
-284.545	140.474	-0.042	0.056
-283.530	-18.872	0.429	0.265
-282.516	-119.720	0.033	0.006
-281.501	-43.951	0.284	-0.141
-280.486	-200.000	-0.018	0.096
-279.472	-13.292	0.072	-0.046
-278.457	-200.000	0.047	-0.385
-277.443	55.496	0.142	0.136
-276.428	64.064	0.163	0.162
-275.413	800.000	-0.009	-0.028
-274.399	1.873	-0.060	0.043
-273.384	-97.822	-0.115	0.029
-272.370	800.000	-0.063	-0.257
-271.355	-200.000	-0.055	-0.346
-270.340	325.798	0.011	0.022
-269.326	-143.512	0.209	0.020
-268.311	-123.703	0.370	-0.058
-267.297	371.146	-0.123	0.247
-266.282	217.596	0.057	0.090
-265.267	800.000	0.117	-0.387
-264.253	47.624	0.065	-0.060
-263.238	125.389	0.156	-0.194
-262.224	-140.132	0.700	-0.073
-261.209	-110.956	0.397	0.081
-260.195	283.206	-0.110	-0.195
-259.180	-71.952	-0.192	0.071
-258.165	-98.006	0.185	-0.047
-257.151	167.067	0.075	0.106
-256.136	70.657	-0.112	0.114
-255.122	-137.313	-0.367	0.041
-254.107	135.583	0.113	0.146
-253.092	-81.349	0.294	0.096
-252.078	-27.464	-0.354	-0.204
-251.063	-200.000	-0.012	-0.062
-250.049	-200.000	-0.048	-0.238
-249.034	298.557	0.125	0.228
-248.019	-150.817	-0.049	0.004
-247.005	-141.551	-0.234	-0.023
-245.990	24.932	-0.154	0.127
-244.976	-160.837	0.170	-0.009
-243.961	179.605	0.174	0.253
-242.946	-11.439	-0.175	0.114
-241.932	-49.772	0.217	-0.102
-240.917	68.652	-0.147	-0.149
-239.903	800.000	-0.018	0.063
-238.888	420.752	0.082	-0.173
-237.873	710.593	-0.137	-0.359
-236.859	440.456	0.163	-0.352
-235.844	-111.791	-0.167	0.033
-234.830	800.000	0.069	0.209
-233.815	-153.069	0.472	-0.033
-232.800	800.000	-0.017	0.054
-231.786	-200.000	0.007	0.058
-230.771	-111.268	-0.043	0.009
-229.757	139.731	-0.085	-0.111
-228.742	-150.806	0.077	-0.006
-227.727	-200.000	0.022	-0.108
-226.713	-134.486	0.104	-0.013
-225.698	-39.498	-0.162	-0.084
-224.684	-200.000	0.068	0.293
-223.669	440.073	-0.037	-0.080
-222.655	-200.000	0.007	-0.111
-221.640	156.292	0.190	0.259
-220.625	607.767	-0.065	0.161
-219.611	-33.140	-0.099	0.054
-218.596	-200.000	0.017	-0.195
-217.582	-64.895	-0.079	0.032
-216.567	435.088	-0.066	-0.141
-215.552	-4.621	-0.211	-0.144
-214.538	-133.012	0.283	0.035
-213.523	343.236	0.160	-0.310
-212.509	-132.993	-0.052	0.007
-211.494	322.941	-0.135	0.255
-210.479	-200.000	0.057	-0.253
-209.465	54.481	0.299	-0.285
-208.450	230.179	0.136	-0.220
-207.436	800.000	-0.015	-0.049
-206.421	458.780	-0.128	-0.280
-205.406	-66.839	-0.145	-0.057
-204.392	-65.150	0.100	-0.040
-203.377	500.386	0.020	-0.046
-202.363	108.222	-0.185	-0.218
-201.348	53.834	0.165	0.156
-200.333	-200.000	0.035	0.287
-199.319	-117.147	-0.102	-0.018
-198.304	166.548	-0.175	0.245
-197.290	-51.528	0.262	-0.121
-196.275	-123.593	-0.290	0.045
-195.260	-81.144	0.367	0.120
-194.246	233.216	0.052	-0.084
-193.231	-200.000	-0.032	-0.143
-192.217	226.439	0.125	0.200
-191.202	-16.818	0.356	0.222
-190.187	-170.842	0.264	0.009
-189.173	653.540	0.129	0.328
-188.158	129.702	0.177	-0.224
-187.144	186.502	0.230	-0.338
-186.129	116.859	0.024	-0.029
-185.114	413.515	-0.042	-0.087
-184.100	270.074	0.142	0.247
-183.085	38.581	-0.176	-0.155
-182.071	43.307	-0.133	-0.120
-181.056	-48.096	-0.117	-0.056
-180.042	133.322	0.085	0.109
-179.027	-10.981	-0.126	0.082
-178.012	-200.000	-0.025	0.120
-176.998	-90.180	-0.302	-0.087
-175.983	-200.000	0.066	0.562
-174.969	128.174	0.324	0.407
-173.954	274.286	-0.218	0.381
-172.939	124.096	0.096	-0.119
-171.925	232.440	-0.169	0.274
-170.910	-121.059	-0.238	-0.039
-169.896	10.125	0.252	0.189
-168.881	27.025	-0.248	0.205
-167.866	-200.000	0.003	-0.023
-166.852	-23.104	0.418	-0.248
-165.837	-170.189	-0.327	-0.011
-164.823	-9.852	-0.013	-0.009
-163.808	-100.813	0.401	-0.097
-162.793	-200.000	-0.023	-0.132
-161.779	1.666	0.051	-0.036
-160.764	-103.349	0.423	-0.098
-159.750	441.237	0.179	-0.386
-158.735	127.060	0.151	-0.188
-157.720	-114.529	-0.132	-0.025
-156.706	-57.534	-0.426	0.184
-155.691	60.345	0.271	0.264
-154.677	-200.000	0.056	0.289
-153.662	-67.805	-0.056	-0.022
-152.647	65.591	-0.039	-0.039
-151.633	-105.944	-0.063	-0.014
-150.618	-3.617	-0.383	-0.263
-149.604	477.447	0.150	-0.335
-148.589	-200.000	0.025	-0.240
-147.574	-139.063	0.135	-0.014
-146.560	-26.481	-0.112	-0.065
-145.545	2.492	0.151	-0.108
-144.531	-200.000	0.016	-0.128
-143.516	36.333	0.199	0.173
-142.502	-106.105	-0.043	-0.010
-141.487	-42.966	0.070	0.035
-140.472	248.615	-0.089	0.148
-139.458	-123.984	0.167	-0.026
-138.443	255.903	-0.207	-0.350
-137.429	800.000	-0.035	0.138
-136.414	-121.448	-0.252	-0.041
-135.399	7.318	-0.061	-0.045
-134.385	530.056	-0.116	-0.270
-133.370	-200.000	-0.015	-0.264
-132.356	-200.000	0.057	-0.284
-131.341	-29.973	-0.212	-0.119
-130.326	-200.000	0.002	0.051
-129.312	614.425	0.089	-0.219
-128.297	-72.827	0.220	0.080
-127.283	800.000	-0.030	-0.129
-126.268	800.000	0.014	0.044
-125.253	-116.236	-0.101	0.018
-124.239	800.000	-0.083	0.274
-123.224	-29.790	0.285	-0.160
-122.210	800.000	-0.129	-0.452
