DTS Sentinel unit serial number:	SN413079Multiplexer serial number:	ORYXHardware model number:	OX4-SRSoftware version number:	ORYX F/W v4.00 Oryx Data Collector v3.7.2.0data status	okinstallation	princeton_trtdifferential loss correction	single-endedforward channel	channel 2reverse channel	N/Adate	2019/09/11time	04:17:11forward acquisition time	60.00reverse acquisition time	0.00gamma	496.2192k internal	0.2329k external	0.2329temperature offset calibration	0.9940default loss term (dB/km)	0.3790temperature slope calibration	1.0000multiplexer offset coefficient	1.0000multiplexer slope coefficient	1.0000fibre end	0.00T internal ref (°C)	29.56T ext. ref 1 (°C)	-0.28T ext. ref 2 (°C)	23.40length (m)	temperature (°C)	Stokes	anti-Stokes-747.200	-129.542	0.487	0.068
-746.185	-200.000	0.011	0.160
-745.171	-147.315	0.257	0.022
-744.156	292.339	-0.063	0.115
-743.142	-200.000	-0.029	-0.238
-742.127	702.025	-0.107	0.283
-741.112	608.837	-0.054	-0.136
-740.098	-200.000	-0.008	-0.289
-739.083	451.072	0.057	-0.127
-738.069	-200.000	-0.031	0.289
-737.054	1.385	0.190	0.138
-736.039	51.974	-0.219	-0.210
-735.025	-200.000	-0.056	0.296
-734.010	-109.420	-0.147	-0.031
-732.996	-200.000	-0.026	0.218
-731.981	-139.847	0.151	-0.016
-730.966	-100.714	-0.242	-0.060
-729.952	-200.000	-0.091	-0.411
-728.937	-153.232	-0.196	0.014
-727.923	-37.509	-0.161	0.087
-726.908	47.567	0.088	-0.083
-725.894	491.750	-0.147	-0.339
-724.879	92.095	0.040	-0.045
-723.864	-30.744	-0.146	0.083
-722.850	28.082	-0.287	-0.244
-721.835	-40.070	-0.154	-0.081
-720.821	411.777	0.045	-0.096
-719.806	437.887	-0.115	-0.253
-718.791	-200.000	-0.011	-0.062
-717.777	-200.000	-0.040	-0.256
-716.762	51.241	0.116	-0.111
-715.748	-171.064	-0.228	-0.008
-714.733	-35.015	0.272	-0.149
-713.718	495.667	0.181	-0.418
-712.704	800.000	-0.061	-0.240
-711.689	-127.508	0.137	0.020
-710.675	-76.683	0.150	0.053
-709.660	-30.448	0.057	0.032
-708.645	-172.321	-0.166	-0.005
-707.631	-74.299	-0.256	0.093
-706.616	-200.000	-0.036	0.221
-705.602	22.198	-0.109	-0.090
-704.587	35.349	0.148	-0.130
-703.572	-95.450	-0.292	-0.079
-702.558	-56.642	0.070	-0.031
-701.543	800.000	-0.108	0.351
-700.529	132.326	0.261	-0.339
-699.514	226.196	-0.166	-0.271
-698.499	145.245	0.129	0.174
-697.485	-200.000	-0.072	-0.612
-696.470	-200.000	-0.022	0.255
-695.456	279.712	-0.033	-0.059
-694.441	733.060	0.095	-0.255
-693.426	-80.138	0.118	0.040
-692.412	-138.699	-0.406	0.045
-691.397	30.299	-0.089	-0.077
-690.383	-200.000	-0.003	-0.220
-689.368	-200.000	-0.032	0.180
-688.354	-200.000	0.039	-0.324
-687.339	-106.057	-0.132	-0.030
-686.324	-157.813	0.147	-0.009
-685.310	800.000	0.128	-0.479
-684.295	137.925	0.188	-0.248
-683.281	-89.823	0.204	0.060
-682.266	23.659	0.166	0.138
-681.251	-68.617	0.331	0.129
-680.237	-200.000	-0.012	-0.307
-679.222	800.000	-0.101	-0.304
-678.208	359.706	0.094	0.189
-677.193	-9.236	-0.069	-0.046
-676.178	-153.407	-0.147	0.010
-675.164	-78.627	-0.040	0.014
-674.149	-99.767	-0.103	-0.026
-673.135	139.197	0.223	-0.295
-672.120	-31.731	0.076	-0.043
-671.105	755.591	-0.033	-0.091
-670.091	-200.000	0.014	0.281
-669.076	-29.167	-0.126	-0.073
-668.062	-99.376	0.420	-0.106
-667.047	579.671	-0.090	-0.222
-666.032	800.000	0.071	-0.221
-665.018	-51.961	0.260	0.121
-664.003	-200.000	-0.023	-0.320
-662.989	-200.000	-0.053	0.303
-661.974	-42.360	0.177	-0.091
-660.959	-200.000	0.017	0.136
-659.945	415.592	0.035	0.075
-658.930	760.224	-0.113	0.307
-657.916	-82.949	-0.431	-0.139
-656.901	-172.638	0.257	0.008
-655.886	-45.628	-0.202	0.101
-654.872	-159.559	-0.097	0.005
-653.857	70.143	-0.140	-0.145
-652.843	154.618	0.132	-0.183
-651.828	-116.805	-0.312	0.057
-650.814	-46.563	0.339	-0.167
-649.799	-159.355	-0.380	-0.021
-648.784	-157.388	-0.317	-0.019
-647.770	-76.486	-0.251	0.088
-646.755	800.000	-0.016	0.051
-645.741	-109.357	-0.071	0.015
-644.726	145.966	-0.251	0.338
-643.711	-200.000	0.027	-0.323
-642.697	-105.525	0.347	0.079
-641.682	-17.019	-0.136	0.086
-640.668	-120.379	0.133	0.023
-639.653	-50.250	-0.296	-0.140
-638.638	-48.658	-0.384	-0.185
-637.624	-7.739	0.127	-0.086
-636.609	308.911	0.118	-0.221
-635.595	-127.300	-0.230	0.034
-634.580	256.265	0.112	-0.193
-633.565	489.550	-0.106	0.242
-632.551	-200.000	-0.024	0.212
-631.536	-22.354	-0.140	-0.085
-630.522	132.062	-0.115	0.149
-629.507	127.369	0.281	-0.358
-628.492	86.741	-0.069	0.077
-627.478	-87.641	-0.339	-0.103
-626.463	-60.505	-0.236	0.101
-625.449	64.076	0.063	-0.064
-624.434	-123.930	0.025	0.004
-623.419	376.513	-0.062	-0.127
-622.405	800.000	-0.161	-0.556
-621.390	-52.111	-0.126	0.059
-620.376	376.436	0.034	-0.070
-619.361	-80.589	-0.201	0.067
-618.346	343.082	-0.125	-0.245
-617.332	800.000	0.059	0.191
-616.317	-99.813	-0.340	0.085
-615.303	-0.311	0.202	0.144
-614.288	420.411	-0.109	0.234
-613.273	-42.354	-0.278	0.142
-612.259	-172.164	-0.159	0.005
-611.244	52.826	-0.081	0.077
-610.230	800.000	-0.059	-0.165
-609.215	-130.858	-0.293	-0.039
-608.201	-200.000	-0.063	-0.352
-607.186	64.676	0.066	-0.067
-606.171	-65.924	0.149	-0.060
-605.157	-83.990	-0.244	0.078
-604.142	-132.652	-0.231	-0.030
-603.128	-74.317	0.162	-0.059
-602.113	160.836	0.123	0.172
-601.098	-200.000	-0.054	-0.277
-600.084	319.807	0.069	-0.132
-599.069	732.819	-0.101	-0.271
-598.055	-51.606	-0.155	0.073
-597.040	69.416	0.099	0.102
-596.025	-15.801	-0.369	0.235
-595.011	186.561	-0.109	-0.163
-593.996	107.819	0.030	-0.036
-592.982	151.664	-0.045	-0.061
-591.967	666.796	-0.043	-0.112
-590.952	-86.719	0.166	0.051
-589.938	-78.305	-0.146	-0.050
-588.923	117.374	-0.189	-0.233
-587.909	-200.000	0.001	0.219
-586.894	-52.907	0.027	-0.012
-585.879	-88.401	-0.208	-0.062
-584.865	-118.497	0.310	-0.055
-583.850	-121.212	-0.195	-0.033
-582.836	-55.805	0.113	0.051
-581.821	85.978	-0.150	0.166
-580.806	61.005	0.187	-0.186
-579.792	-34.252	-0.381	-0.209
-578.777	-123.062	0.115	0.019
-577.763	-110.195	0.455	0.095
-576.748	-19.604	0.108	-0.067
-575.733	-28.993	-0.295	0.169
-574.719	-14.885	0.214	0.137
-573.704	-70.524	-0.188	-0.071
-572.690	-112.510	0.152	0.030
-571.675	-200.000	0.045	-0.330
-570.661	82.091	-0.185	-0.200
-569.646	-84.769	0.315	0.099
-568.631	257.356	-0.055	-0.094
-567.617	-105.659	0.261	0.059
-566.602	-17.762	-0.163	-0.102
-565.588	62.264	0.089	-0.089
-564.573	-37.939	0.210	0.112
-563.558	1.661	-0.231	0.167
-562.544	296.555	0.057	0.105
-561.529	38.051	0.110	0.098
-560.515	-125.992	-0.302	-0.045
-559.500	800.000	0.116	0.360
-558.485	-200.000	-0.002	0.141
-557.471	29.523	0.030	-0.025
-556.456	-78.342	0.384	-0.132
-555.442	258.283	-0.189	-0.326
-554.427	800.000	-0.036	-0.155
-553.412	800.000	0.056	-0.179
-552.398	405.986	0.030	0.064
-551.383	-149.525	-0.331	0.026
-550.369	800.000	-0.004	-0.012
-549.354	-136.814	-0.189	-0.022
-548.339	-200.000	0.002	0.328
-547.325	90.915	0.180	-0.202
-546.310	4.461	0.174	0.128
-545.296	-99.570	0.323	0.081
-544.281	-200.000	0.044	0.211
-543.266	-68.896	-0.316	0.122
-542.252	284.939	-0.157	-0.282
-541.237	800.000	-0.104	0.393
-540.223	144.625	-0.082	0.110
-539.208	-200.000	0.031	-0.221
-538.193	800.000	0.107	-0.312
-537.179	114.685	-0.089	-0.108
-536.164	472.172	-0.060	-0.134
-535.150	-65.481	-0.272	0.109
-534.135	255.111	0.028	0.048
-533.121	465.774	-0.035	0.078
-532.106	-120.008	-0.282	0.048
-531.091	67.026	0.258	0.263
-530.077	-200.000	0.163	-0.000
-529.062	-41.112	-0.163	0.084
-528.048	-164.743	0.290	-0.013
-527.033	800.000	0.033	-0.139
-526.018	800.000	0.082	-0.293
-525.004	-200.000	-0.027	-0.506
-523.989	-36.566	-0.430	0.231
-522.975	800.000	0.036	0.112
-521.960	139.042	-0.308	0.404
-520.945	-96.311	0.097	0.026
-519.931	350.486	0.132	0.261
-518.916	-154.388	-0.189	-0.013
-517.902	61.896	0.096	-0.095
-516.887	596.968	-0.206	-0.508
-515.872	451.115	0.096	0.213
-514.858	48.796	0.330	0.309
-513.843	-200.000	0.034	0.198
-512.829	300.585	0.112	-0.206
-511.814	-138.941	0.139	0.015
-510.799	417.326	-0.075	0.159
-509.785	-1.628	-0.126	-0.089
-508.770	70.038	0.025	-0.026
-507.756	411.476	0.065	0.139
-506.741	-119.177	0.280	-0.049
-505.726	-176.489	-0.512	-0.013
-504.712	-200.000	-0.008	-0.068
-503.697	-102.079	0.227	0.055
-502.683	53.753	-0.072	-0.069
-501.668	552.069	0.109	0.262
-500.653	-51.209	-0.019	0.009
-499.639	-200.000	-0.027	0.331
-498.624	800.000	0.022	0.083
-497.610	-117.653	0.339	-0.061
-496.595	-62.162	0.247	0.103
-495.581	-111.539	0.246	0.050
-494.566	282.675	0.073	0.130
-493.551	393.986	-0.165	0.344
-492.537	-50.368	-0.202	0.095
-491.522	66.556	0.122	-0.123
-490.508	-31.199	-0.364	-0.205
-489.493	-124.913	-0.174	0.027
-488.478	32.586	0.212	0.183
-487.464	-69.921	-0.178	0.068
-486.449	27.152	0.112	-0.094
-485.435	32.945	-0.225	0.194
-484.420	-200.000	-0.010	0.199
-483.405	-23.694	0.168	-0.100
-482.391	81.701	0.083	-0.089
-481.376	222.808	0.154	0.247
-480.362	-95.809	0.108	-0.029
-479.347	-130.822	-0.102	0.014
-478.332	748.422	-0.049	0.131
-477.318	-63.962	0.185	-0.075
-476.303	-32.942	0.093	0.051
-475.289	227.925	-0.043	-0.070
-474.274	96.402	0.010	-0.011
-473.259	324.272	-0.099	0.188
-472.245	-33.579	0.039	-0.021
-471.230	-1.122	-0.128	-0.090
-470.216	300.931	0.047	0.087
-469.201	419.349	0.028	-0.061
-468.186	220.607	-0.022	0.035
-467.172	-165.204	-0.215	0.009
-466.157	607.770	0.079	-0.196
-465.143	800.000	0.040	0.121
-464.128	-200.000	0.002	-0.133
-463.113	-50.772	-0.030	0.014
-462.099	-78.020	0.241	0.083
-461.084	116.375	-0.085	-0.104
-460.070	-17.014	0.236	0.149
-459.055	-139.535	-0.396	0.042
-458.040	314.921	0.023	-0.044
-457.026	-20.190	0.166	-0.102
-456.011	-200.000	0.024	0.364
-454.997	569.410	-0.074	0.178
-453.982	-64.851	-0.332	-0.134
-452.968	281.130	0.127	-0.226
-451.953	280.109	0.189	-0.337
-450.938	-30.320	-0.223	0.126
-449.924	-0.647	0.125	-0.088
-448.909	-130.134	0.210	0.028
-447.895	-142.827	0.172	0.017
-446.880	-148.253	-0.262	0.022
-445.865	377.155	0.125	-0.253
-444.851	800.000	0.042	-0.143
-443.836	-15.966	-0.174	0.110
-442.822	282.544	0.120	0.214
-441.807	-200.000	-0.033	0.220
-440.792	-200.000	0.021	0.244
-439.778	-200.000	0.090	0.515
-438.763	566.097	-0.095	0.230
-437.749	-200.000	-0.015	-0.272
-436.734	85.166	-0.352	-0.385
-435.719	-200.000	-0.006	0.056
-434.705	-115.273	-0.172	-0.032
-433.690	-68.884	0.108	0.042
-432.676	97.257	0.038	-0.044
-431.661	-200.000	0.026	0.263
-430.646	104.973	0.258	-0.302
-429.632	-111.862	0.128	0.026
-428.617	424.288	-0.044	-0.094
-427.603	-82.588	-0.517	0.167
-426.588	574.198	0.108	0.262
-425.573	-128.569	-0.138	-0.019
-424.559	800.000	0.056	0.198
-423.544	117.688	0.046	-0.056
-422.530	194.536	-0.231	-0.349
-421.515	-127.676	0.073	-0.010
-420.500	-200.000	-0.013	-0.117
-419.486	-186.367	-0.234	0.003
-418.471	-138.106	0.141	-0.016
-417.457	25.679	0.516	-0.428
-416.442	-108.145	-0.273	-0.059
-415.428	-7.401	-0.319	-0.215
-414.413	-200.000	-0.022	0.148
-413.398	188.718	0.020	-0.030
-412.384	176.534	0.171	-0.247
-411.369	-106.065	0.269	-0.060
-410.355	4.345	-0.138	-0.100
-409.340	188.622	-0.144	-0.214
-408.325	-200.000	0.009	0.384
-407.311	605.252	-0.023	-0.057
-406.296	29.741	0.114	-0.097
-405.282	-81.865	0.279	0.091
-404.267	-15.851	-0.198	0.126
-403.252	-159.806	0.381	-0.021
-402.238	-200.000	-0.001	0.394
-401.223	26.977	-0.267	-0.222
-400.209	60.262	-0.156	-0.153
-399.194	-200.000	0.012	-0.145
-398.179	100.082	0.126	0.146
-397.165	161.393	0.197	0.275
-396.150	59.781	-0.115	0.112
-395.136	-84.587	0.182	0.057
-394.121	46.846	0.237	0.219
-393.106	514.269	0.099	0.229
-392.092	-200.000	0.007	0.077
-391.077	619.725	-0.126	-0.314
-390.063	171.039	0.106	0.151
-389.048	182.776	0.149	-0.218
-388.033	-200.000	-0.003	-0.077
-387.019	-110.463	0.168	-0.035
-386.004	99.769	-0.060	-0.070
-384.990	-200.000	0.015	-0.077
-383.975	735.457	-0.182	-0.483
-382.960	-200.000	0.016	-0.142
-381.946	34.559	0.057	-0.050
-380.931	270.242	-0.242	0.423
-379.917	-60.557	0.134	-0.056
-378.902	577.385	-0.138	-0.334
-377.888	68.459	0.153	0.156
-376.873	-68.046	0.159	-0.061
-375.858	-51.726	0.548	-0.253
-374.844	-200.000	-0.009	-0.310
-373.829	43.868	0.177	-0.161
-372.815	-16.739	-0.247	-0.155
-371.800	80.698	-0.062	-0.066
-370.785	-0.126	0.273	-0.193
-369.771	156.473	-0.227	-0.311
-368.756	-200.000	-0.061	-0.370
-367.742	800.000	0.065	0.263
-366.727	-200.000	-0.040	0.207
-365.712	-116.336	0.091	-0.017
-364.698	-200.000	-0.025	-0.130
-363.683	395.189	-0.110	-0.227
-362.669	-193.098	-0.124	-0.001
-361.654	-4.424	-0.169	0.116
-360.639	-68.509	-0.301	-0.116
-359.625	-59.985	-0.188	-0.080
-358.610	-24.995	0.257	0.151
-357.596	-27.603	0.136	-0.078
-356.581	-27.764	-0.171	0.098
-355.566	-200.000	0.021	-0.271
-354.552	-108.548	0.356	-0.076
-353.537	800.000	0.039	0.138
-352.523	103.666	-0.082	0.095
-351.508	-136.290	0.278	0.032
-350.493	498.184	0.071	0.163
-349.479	157.217	-0.183	-0.251
-348.464	-62.898	0.228	0.093
-347.450	-97.441	-0.557	0.144
-346.435	-200.000	0.002	0.209
-345.420	23.475	0.194	-0.158
-344.406	-92.890	-0.215	0.060
-343.391	90.556	-0.272	0.302
-342.377	-108.405	-0.085	-0.018
-341.362	-117.372	0.155	-0.028
-340.348	134.705	-0.069	0.089
-339.333	-148.680	-0.042	0.003
-338.318	800.000	0.130	0.423
-337.304	-104.825	-0.147	-0.033
-336.289	-116.036	-0.348	0.064
-335.275	-200.000	0.011	0.353
-334.260	104.956	0.075	-0.087
-333.245	-64.965	-0.221	0.088
-332.231	800.000	0.041	0.138
-331.216	-51.475	0.328	0.152
-330.202	-156.616	0.493	-0.030
-329.187	-86.230	0.238	-0.073
-328.172	-133.286	-0.185	0.023
-327.158	-200.000	0.016	0.213
-326.143	-200.000	0.007	0.063
-325.129	-32.313	0.349	-0.193
-324.114	800.000	-0.127	-0.407
-323.099	-85.481	0.055	0.017
-322.085	-117.686	0.057	-0.010
-321.070	711.103	0.058	-0.153
-320.056	-13.929	-0.221	0.141
-319.041	-200.000	-0.055	-0.388
-318.026	-143.763	-0.080	0.008
-317.012	131.901	-0.118	-0.150
-315.997	-30.259	0.301	0.169
-314.983	-149.005	0.236	0.019
-313.968	-152.947	0.211	-0.015
-312.953	-123.221	-0.275	-0.044
-311.939	-106.627	0.201	0.044
-310.924	-200.000	0.040	0.214
-309.910	47.902	0.275	0.254
-308.895	130.916	-0.230	0.292
-307.880	9.312	0.128	-0.096
-306.866	-200.000	-0.019	-0.142
-305.851	800.000	0.076	0.241
-304.837	84.006	0.163	0.177
-303.822	-93.995	0.162	0.044
-302.807	21.553	0.080	-0.065
-301.793	-200.000	-0.041	0.471
-300.778	134.020	0.139	-0.178
-299.764	97.434	-0.145	0.165
-298.749	-196.139	-0.322	0.002
-297.735	-125.960	-0.246	-0.037
-296.720	66.056	0.189	0.190
-295.705	88.278	0.068	-0.074
-294.691	800.000	0.049	-0.183
-293.676	-200.000	0.018	-0.217
-292.662	-92.522	0.124	0.034
-291.647	3.253	0.108	0.078
-290.632	-75.133	-0.196	-0.069
-289.618	800.000	-0.055	0.162
-288.603	-115.204	0.306	0.057
-287.589	135.832	0.155	0.199
-286.574	410.791	0.064	-0.134
-285.559	-96.824	0.120	0.031
-284.545	65.927	-0.102	-0.103
-283.530	83.373	-0.109	0.117
-282.516	-52.545	0.212	-0.097
-281.501	17.622	0.178	0.140
-280.486	-51.933	-0.179	-0.082
-279.472	-111.828	-0.419	0.084
-278.457	60.369	0.129	-0.126
-277.443	800.000	-0.106	-0.291
-276.428	98.907	-0.122	0.140
-275.413	-7.788	0.207	-0.138
-274.399	124.053	-0.156	-0.193
-273.384	109.350	-0.096	-0.113
-272.370	91.223	0.099	-0.110
-271.355	800.000	-0.078	0.223
-270.340	676.248	0.104	0.268
-269.326	-200.000	-0.002	-0.009
-268.311	-28.090	-0.317	0.181
-267.297	800.000	-0.070	0.275
-266.282	-87.017	-0.208	0.063
-265.267	510.945	0.036	0.083
-264.253	-136.621	0.160	0.018
-263.238	-200.000	0.033	0.207
-262.224	800.000	-0.081	0.251
-261.209	-2.952	-0.110	0.076
-260.195	-148.132	-0.254	0.021
-259.180	-200.000	0.006	0.197
-258.165	800.000	0.011	0.037
-257.151	591.454	-0.121	-0.295
-256.136	-99.841	0.295	-0.073
-255.122	307.173	-0.124	-0.229
-254.107	-78.213	-0.247	-0.084
-253.092	206.987	-0.176	-0.270
-252.078	104.223	0.171	0.199
-251.063	95.532	0.164	-0.184
-250.049	-200.000	-0.020	-0.278
-249.034	4.151	-0.222	0.161
-248.019	-43.032	0.110	0.055
-247.005	-161.897	0.108	0.005
-245.990	-50.723	0.158	0.073
-244.976	-96.373	0.244	0.064
-243.961	-31.292	0.241	-0.134
-242.946	81.447	-0.209	-0.223
-241.932	107.570	0.127	-0.150
-240.917	407.098	0.119	-0.248
-239.903	800.000	-0.077	-0.286
-238.888	-98.344	0.178	-0.045
-237.873	-36.072	-0.128	0.069
-236.859	-200.000	-0.033	0.259
-235.844	800.000	0.087	0.253
-234.830	-46.187	0.359	-0.175
-233.815	-45.994	0.018	-0.009
-232.800	-131.583	0.309	-0.040
-231.786	-118.787	-0.220	-0.038
-230.771	-20.725	-0.283	-0.172
-229.757	-200.000	0.035	0.389
-228.742	-87.861	-0.194	0.058
-227.727	625.525	0.034	-0.085
-226.713	505.517	-0.038	-0.086
-225.698	49.820	0.193	0.180
-224.684	-7.174	0.353	-0.236
-223.669	800.000	-0.153	-0.582
-222.655	-132.342	0.271	0.035
-221.640	556.422	0.107	-0.253
-220.625	-137.710	0.252	-0.028
-219.611	-132.481	-0.179	-0.023
-218.596	117.401	0.032	0.039
-217.582	-200.000	-0.026	-0.124
-216.567	-200.000	-0.012	-0.087
-215.552	-122.217	0.126	0.020
-214.538	41.866	-0.128	0.115
-213.523	706.206	-0.060	0.156
-212.509	-200.000	0.007	0.314
-211.494	3.640	0.043	0.031
-210.479	800.000	-0.062	0.180
-209.465	-48.585	0.139	-0.066
-208.450	243.284	0.128	-0.211
-207.436	-200.000	0.035	-0.383
-206.421	12.558	0.306	0.233
-205.406	85.842	0.330	0.358
-204.392	221.707	0.255	-0.404
-203.377	-100.860	0.227	0.055
-202.363	-164.266	-0.099	-0.005
-201.348	-104.623	-0.098	-0.022
-200.333	-200.000	-0.001	-0.018
-199.319	4.494	0.329	0.238
-198.304	-141.650	-0.231	-0.023
-197.290	800.000	-0.068	0.237
-196.275	119.565	-0.153	0.187
-195.260	-147.858	-0.173	0.014
-194.246	89.813	-0.062	0.068
-193.231	-107.254	0.284	0.062
-192.217	128.340	-0.110	-0.138
-191.202	800.000	-0.044	0.170
-190.187	800.000	-0.082	-0.335
-189.173	19.244	0.244	-0.193
-188.158	-49.484	-0.234	0.110
-187.144	-200.000	-0.004	0.066
-186.129	-63.413	0.073	-0.030
-185.114	174.968	0.162	-0.232
-184.100	116.517	-0.183	0.222
-183.085	800.000	-0.077	-0.307
-182.071	-193.400	0.301	-0.003
-181.056	-92.969	-0.131	0.036
-180.042	-172.629	0.251	-0.008
-179.027	49.393	0.218	0.202
-178.012	-150.799	-0.157	-0.012
-176.998	58.828	-0.083	-0.080
-175.983	93.082	-0.182	-0.203
-174.969	241.945	0.127	0.210
-173.954	124.909	-0.337	0.418
-172.939	58.009	0.270	0.261
-171.925	-200.000	0.026	-0.336
-170.910	673.488	-0.053	-0.136
-169.896	601.655	-0.178	0.437
-168.881	-46.597	-0.133	0.064
-167.866	800.000	-0.045	0.170
-166.852	-44.164	0.323	-0.160
-165.837	-130.125	0.157	0.021
-164.823	-200.000	0.019	-0.207
-163.808	82.585	0.336	0.359
-162.793	-49.182	0.135	0.064
-161.779	32.117	0.251	-0.213
-160.764	-51.708	0.028	0.013
-159.750	-35.914	-0.068	-0.036
-158.735	-92.670	-0.211	-0.058
-157.720	21.676	0.069	0.055
-156.706	155.459	-0.088	-0.120
-155.691	-45.887	-0.319	0.155
-154.677	800.000	-0.081	0.324
-153.662	-200.000	0.011	-0.317
-152.647	-200.000	-0.032	-0.176
-151.633	65.886	0.221	-0.220
-150.618	-16.936	0.151	-0.094
-149.604	-7.322	-0.212	-0.141
-148.589	-200.000	0.000	-0.125
-147.574	4.539	0.318	0.230
-146.560	-105.044	-0.249	0.056
-145.545	265.743	0.147	0.253
-144.531	-90.086	-0.232	-0.066
-143.516	-139.763	-0.263	-0.028
-142.502	-103.461	-0.199	0.046
-141.487	-34.006	0.341	0.184
-140.472	800.000	0.099	-0.311
-139.458	26.868	-0.340	0.280
-138.443	308.941	0.080	-0.147
-137.429	-200.000	-0.065	-0.359
-136.414	228.911	0.158	-0.254
-135.399	314.890	-0.136	-0.251
-134.385	-71.337	-0.482	0.178
-133.370	-200.000	0.030	-0.200
-132.356	-200.000	0.021	-0.195
-131.341	-80.751	-0.102	-0.033
-130.326	125.760	-0.215	-0.267
-129.312	-93.685	0.226	0.061
-128.297	163.341	0.112	0.155
-127.283	800.000	-0.024	-0.098
-126.268	788.813	0.099	-0.268
-125.253	-24.416	0.081	0.047
-124.239	800.000	-0.015	0.043
-123.224	-200.000	-0.060	-0.326
-122.210	266.671	0.097	-0.166
