DTS Sentinel unit serial number:	SN413079Multiplexer serial number:	ORYXHardware model number:	OX4-SRSoftware version number:	ORYX F/W v4.00 Oryx Data Collector v3.7.2.0data status	okinstallation	princeton_trtdifferential loss correction	single-endedforward channel	channel 2reverse channel	N/Adate	2019/09/12time	18:38:49forward acquisition time	15.00reverse acquisition time	0.00gamma	496.2192k internal	0.2324k external	0.2324temperature offset calibration	1.0139default loss term (dB/km)	0.3790temperature slope calibration	1.0000multiplexer offset coefficient	1.0000multiplexer slope coefficient	1.0000fibre end	0.00T internal ref (°C)	33.12T ext. ref 1 (°C)	2.97T ext. ref 2 (°C)	27.68length (m)	temperature (°C)	Stokes	anti-Stokes-747.200	800.000	0.037	-0.110
-746.185	-200.000	0.015	0.492
-745.171	25.781	0.179	-0.151
-744.156	277.640	-0.364	-0.654
-743.142	-40.722	-0.469	0.245
-742.127	800.000	-0.136	-0.401
-741.112	535.013	-0.254	0.608
-740.098	66.785	-0.112	0.115
-739.083	182.311	0.298	0.443
-738.069	-49.253	0.259	0.125
-737.054	800.000	-0.158	-0.557
-736.039	475.795	-0.094	0.215
-735.025	-106.350	1.067	0.241
-734.010	163.755	-0.405	0.575
-732.996	21.347	-0.408	0.334
-731.981	64.409	-0.756	-0.768
-730.966	-200.000	-0.041	-0.368
-729.952	-120.275	1.118	0.192
-728.937	86.677	0.246	0.274
-727.923	160.472	0.296	-0.417
-726.908	15.351	-0.520	-0.412
-725.894	123.652	-0.815	-1.032
-724.879	24.969	-0.552	-0.462
-723.864	-112.289	-0.120	0.024
-722.850	-1.325	0.226	-0.161
-721.835	-200.000	-0.130	-0.664
-720.821	517.549	0.084	0.199
-719.806	-200.000	-0.087	-0.652
-718.791	-200.000	-0.012	0.121
-717.777	-200.000	-0.052	0.626
-716.762	-60.845	0.051	0.022
-715.748	143.380	0.443	-0.594
-714.733	-69.688	-0.291	-0.112
-713.718	123.614	-0.279	-0.353
-712.704	800.000	-0.180	-0.522
-711.689	-200.000	0.258	-1.271
-710.675	312.379	0.189	-0.359
-709.660	42.896	-0.240	0.221
-708.645	800.000	-0.015	-0.053
-707.631	-64.585	0.431	0.176
-706.616	-99.523	1.044	0.264
-705.602	271.858	-0.127	0.225
-704.587	-126.303	-0.284	-0.043
-703.572	182.587	-0.309	-0.459
-702.558	-33.245	-0.501	0.279
-701.543	-174.632	-0.167	0.005
-700.529	-76.306	0.164	-0.058
-699.514	18.037	0.176	0.141
-698.499	325.976	-0.427	-0.823
-697.485	-41.660	-0.643	0.333
-696.470	-89.631	0.998	-0.295
-695.456	189.072	-0.215	-0.324
-694.441	-181.880	0.249	-0.005
-693.426	-70.191	0.162	0.062
-692.412	-44.594	0.365	0.184
-691.397	339.732	-0.116	-0.229
-690.383	-103.737	0.122	-0.029
-689.368	-48.910	0.480	0.232
-688.354	-200.000	0.027	-0.990
-687.339	-153.988	-0.317	-0.022
-686.324	-200.000	-0.021	0.146
-685.310	36.597	0.501	0.446
-684.295	62.162	-0.150	0.150
-683.281	84.578	-0.290	0.319
-682.266	-16.111	0.299	0.191
-681.251	-159.307	0.293	-0.017
-680.237	56.866	-0.135	-0.133
-679.222	800.000	-0.434	1.220
-678.208	-135.913	0.201	0.024
-677.193	-14.291	0.536	0.347
-676.178	-130.071	-0.196	0.027
-675.164	-81.551	-0.508	0.168
-674.149	-200.000	-0.106	-0.649
-673.135	-41.219	-0.864	-0.449
-672.120	-145.061	0.535	0.049
-671.105	-175.248	0.466	-0.013
-670.091	65.884	0.582	-0.594
-669.076	-200.000	-0.019	-0.547
-668.062	295.064	0.157	-0.289
-667.047	-200.000	0.125	0.699
-666.032	-156.292	0.825	-0.052
-665.018	143.401	0.307	-0.411
-664.003	800.000	0.213	-0.851
-662.989	-33.435	0.350	0.195
-661.974	-200.000	0.077	0.398
-660.959	401.340	-0.102	0.215
-659.945	300.923	-0.393	-0.729
-658.930	304.881	0.140	-0.261
-657.916	-200.000	0.041	-0.723
-656.901	-24.212	-0.168	-0.101
-655.886	-184.202	0.618	0.010
-654.872	-200.000	-0.038	0.181
-653.857	-12.484	0.232	-0.152
-652.843	92.039	0.370	0.419
-651.828	30.405	-0.528	0.453
-650.814	72.583	0.129	-0.135
-649.799	192.033	0.120	0.182
-648.784	-6.251	0.595	0.408
-647.770	-200.000	-0.081	0.779
-646.755	-200.000	0.208	-1.076
-645.741	-88.484	0.836	0.251
-644.726	-85.036	0.561	-0.177
-643.711	-133.173	0.628	0.080
-642.697	800.000	-0.119	0.463
-641.682	-200.000	0.088	-0.465
-640.668	-200.000	0.059	-0.549
-639.653	-200.000	0.027	0.181
-638.638	-159.304	-0.554	-0.031
-637.624	-137.315	-0.175	-0.020
-636.609	-26.296	-0.286	0.169
-635.595	-62.807	-0.542	0.226
-634.580	-61.388	-0.298	-0.126
-633.565	-20.987	0.871	-0.536
-632.551	-89.730	-0.569	0.168
-631.536	58.084	-0.536	0.528
-630.522	87.127	-0.226	-0.251
-629.507	37.286	-0.447	-0.398
-628.492	-122.462	-0.525	0.086
-627.478	-154.864	-0.291	-0.019
-626.463	-85.032	0.327	0.103
-625.449	-113.870	-1.009	-0.197
-624.434	129.558	-0.283	-0.363
-623.419	436.298	0.183	-0.400
-622.405	-9.051	-0.496	-0.333
-621.390	141.287	-0.375	-0.499
-620.376	97.865	-0.283	-0.327
-619.361	-42.394	0.113	0.058
-618.346	-123.773	-0.853	0.135
-617.332	17.790	-0.369	-0.295
-616.317	73.017	0.227	0.238
-615.303	129.514	0.240	0.308
-614.288	-36.513	0.461	0.249
-613.273	-151.581	-0.750	-0.056
-612.259	-200.000	-0.036	-0.346
-611.244	-115.735	-1.206	0.227
-610.230	-200.000	0.015	-0.369
-609.215	-153.462	0.422	0.029
-608.201	-137.413	-0.373	0.042
-607.186	-136.989	0.590	-0.068
-606.171	80.762	-0.359	0.388
-605.157	-6.874	-0.705	0.481
-604.142	-200.000	-0.039	-1.020
-603.128	-200.000	-0.078	0.419
-602.113	523.439	-0.449	1.058
-601.098	-40.967	-0.296	0.153
-600.084	-200.000	0.048	-0.307
-599.069	-24.919	-0.639	0.381
-598.055	254.713	-0.341	0.585
-597.040	-22.896	-0.234	0.141
-596.025	61.224	0.456	0.454
-595.011	-12.442	-0.338	-0.221
-593.996	172.992	-0.696	-1.006
-592.982	22.546	-0.623	-0.512
-591.967	141.882	-0.212	-0.283
-590.952	-200.000	0.057	0.435
-589.938	-63.028	-0.874	0.362
-588.923	-200.000	-0.083	0.595
-587.909	364.880	-0.264	-0.534
-586.894	155.970	0.196	-0.271
-585.879	151.328	-0.225	0.308
-584.865	-123.673	0.788	0.125
-583.850	20.954	-0.486	0.395
-582.836	203.925	0.299	-0.465
-581.821	-200.000	0.083	0.419
-580.806	-114.487	0.440	-0.085
-579.792	-21.335	-0.627	-0.384
-578.777	800.000	-0.216	-0.793
-577.763	245.537	0.394	0.666
-576.748	-101.255	-0.119	0.029
-575.733	145.508	-0.414	-0.557
-574.719	-200.000	-0.018	0.329
-573.704	-138.594	-0.203	-0.022
-572.690	665.301	-0.105	0.273
-571.675	800.000	-0.182	-0.619
-570.661	71.974	-0.745	-0.777
-569.646	-40.178	-0.340	0.178
-568.631	-200.000	-0.040	0.307
-567.617	-30.438	0.713	-0.405
-566.602	-64.521	0.596	-0.242
-565.588	-94.981	0.151	-0.041
-564.573	-130.210	-0.456	-0.062
-563.558	-4.236	-0.094	0.065
-562.544	292.117	0.076	-0.138
-561.529	-62.239	-0.273	0.114
-560.515	281.814	-0.342	-0.614
-559.500	-133.367	-0.398	0.050
-558.485	-152.384	-0.475	0.034
-557.471	-200.000	0.081	0.523
-556.456	361.820	0.287	-0.577
-555.442	83.306	0.250	-0.273
-554.427	-64.105	0.574	-0.235
-553.412	800.000	0.083	0.266
-552.398	281.143	0.641	1.150
-551.383	117.288	0.130	0.160
-550.369	-168.455	-0.460	0.018
-549.354	108.534	0.186	-0.223
-548.339	127.308	-0.538	-0.684
-547.325	-200.000	-0.069	-0.307
-546.310	-119.067	0.620	0.109
-545.296	-178.524	-0.655	0.015
-544.281	800.000	0.186	-0.644
-543.266	-114.060	-0.525	0.102
-542.252	-80.517	-0.182	0.061
-541.237	800.000	-0.143	-0.563
-540.223	205.724	0.267	-0.416
-539.208	-167.603	-0.403	-0.016
-538.193	-111.043	-0.143	-0.029
-537.179	-200.000	-0.125	0.811
-536.164	-78.869	0.293	0.100
-535.150	73.785	-0.524	0.550
-534.135	800.000	0.043	0.158
-533.121	-200.000	0.078	0.648
-532.106	-84.738	1.352	-0.426
-531.091	-129.303	0.904	0.126
-530.077	44.912	0.222	0.204
-529.062	-200.000	0.076	0.369
-528.048	135.201	0.470	0.612
-527.033	-200.000	-0.106	-0.680
-526.018	494.759	-0.253	-0.581
-525.004	209.642	0.275	0.432
-523.989	118.913	0.462	-0.571
-522.975	-148.207	-0.346	0.029
-521.960	800.000	0.180	0.550
-520.945	-200.000	0.022	-0.431
-519.931	-0.471	-0.635	-0.451
-518.916	75.822	-0.566	-0.599
-517.902	1.920	0.423	-0.305
-516.887	-200.000	-0.065	0.430
-515.872	-128.101	0.973	-0.139
-514.858	171.426	-0.416	-0.597
-513.843	-98.047	0.821	0.212
-512.829	-200.000	0.048	-0.391
-511.814	-200.000	0.044	-0.212
-510.799	105.350	-0.313	-0.370
-509.785	63.343	-0.258	-0.259
-508.770	779.221	-0.056	-0.152
-507.756	-41.331	0.147	0.076
-506.741	-137.228	0.414	0.047
-505.726	635.216	0.143	0.364
-504.712	-136.685	0.382	0.044
-503.697	-70.994	-0.252	0.095
-502.683	5.303	0.254	-0.187
-501.668	-200.000	0.147	0.710
-500.653	-47.102	-0.915	-0.446
-499.639	33.301	0.179	0.155
-498.624	-200.000	0.054	0.358
-497.610	-98.347	0.987	-0.253
-496.595	-200.000	-0.038	-0.425
-495.581	-85.604	-0.813	-0.252
-494.566	-73.027	0.358	0.131
-493.551	248.543	-0.224	0.379
-492.537	-200.000	-0.177	-1.032
-491.522	-47.860	-0.528	-0.255
-490.508	-44.425	-0.091	0.046
-489.493	127.954	-0.181	0.230
-488.478	-200.000	0.026	0.541
-487.464	-200.000	0.038	-0.247
-486.449	-94.093	-0.587	0.161
-485.435	-179.741	0.314	-0.007
-484.420	-9.609	0.975	-0.650
-483.405	-94.543	-0.423	0.115
-482.391	-200.000	0.052	-0.232
-481.376	-200.000	0.051	0.408
-480.362	800.000	0.079	0.293
-479.347	-200.000	-0.058	0.487
-478.332	-88.804	0.322	-0.096
-477.318	406.475	0.150	0.316
-476.303	-177.955	0.693	-0.017
-475.289	-200.000	-0.065	0.372
-474.274	-141.003	0.436	0.045
-473.259	-39.797	-0.172	0.090
-472.245	-200.000	-0.124	0.871
-471.230	-47.950	-0.894	-0.432
-470.216	-107.474	1.018	-0.223
-469.201	800.000	0.142	0.464
-468.186	300.787	-0.223	0.410
-467.172	-36.733	0.435	0.233
-466.157	52.319	-0.523	-0.498
-465.143	434.577	0.384	-0.833
-464.128	103.005	0.329	0.385
-463.113	-155.818	-0.470	0.030
-462.099	-139.510	0.500	0.053
-461.084	236.326	0.063	-0.104
-460.070	800.000	0.126	-0.505
-459.055	39.119	-0.078	-0.070
-458.040	-200.000	0.045	0.236
-457.026	-200.000	-0.012	1.087
-456.011	-200.000	-0.106	-0.873
-454.997	71.022	-0.401	0.415
-453.982	-200.000	0.062	-0.406
-452.968	-107.139	0.360	0.079
-451.953	258.813	-0.016	-0.027
-450.938	-35.914	0.463	0.250
-449.924	35.487	0.295	-0.259
-448.909	388.534	-0.216	-0.447
-447.895	-10.680	0.112	-0.074
-446.880	-200.000	0.150	0.844
-445.865	204.806	-0.318	0.492
-444.851	-200.000	-0.158	0.855
-443.836	-108.144	0.778	0.168
-442.822	-41.700	0.359	-0.184
-441.807	-107.393	-0.727	0.159
-440.792	-83.019	1.077	-0.346
-439.778	-78.643	0.355	0.121
-438.763	-79.474	-0.376	-0.127
-437.749	185.971	-0.293	0.435
-436.734	-200.000	-0.026	-0.156
-435.719	800.000	0.157	0.502
-434.705	-169.947	0.376	0.013
-433.690	-83.765	0.466	-0.148
-432.676	-71.388	0.800	0.299
-431.661	-200.000	0.037	0.243
-430.646	-200.000	-0.014	0.135
-429.632	-30.302	-0.551	0.312
-428.617	120.084	0.136	0.169
-427.603	53.920	-0.276	0.265
-426.588	-56.978	-0.475	-0.209
-425.573	-74.019	0.425	0.154
-424.559	-200.000	0.050	-0.218
-423.544	-82.079	-0.554	0.180
-422.530	22.358	-0.143	-0.117
-421.515	-90.118	0.234	-0.068
-420.500	-200.000	-0.024	-0.782
-419.486	-120.109	0.618	-0.105
-418.471	-174.071	-0.104	0.003
-417.457	107.054	0.500	-0.592
-416.442	-49.606	0.229	-0.109
-415.428	-137.825	0.750	0.084
-414.413	91.970	-0.638	-0.716
-413.398	-200.000	0.107	-0.588
-412.384	-200.000	0.072	-0.454
-411.369	180.778	-0.589	0.862
-410.355	-165.863	-0.211	-0.009
-409.340	-95.093	-0.536	0.144
-408.325	736.393	0.092	-0.246
-407.311	-100.374	-0.220	-0.054
-406.296	-103.265	0.210	0.049
-405.282	-107.911	-0.590	-0.128
-404.267	70.975	-0.083	-0.086
-403.252	-200.000	-0.067	0.330
-402.238	-72.165	-0.487	0.180
-401.223	-200.000	-0.017	-0.222
-400.209	-21.577	-0.265	0.161
-399.194	51.519	0.290	0.274
-398.179	114.573	-0.566	0.687
-397.165	-200.000	-0.028	0.468
-396.150	98.914	0.307	0.352
-395.136	50.858	0.194	-0.183
-394.121	800.000	-0.111	0.430
-393.106	52.529	-0.490	-0.466
-392.092	-34.650	-0.870	-0.474
-391.077	133.411	0.251	0.323
-390.063	586.311	-0.421	1.031
-389.048	200.191	-0.490	0.749
-388.033	19.918	-1.096	0.880
-387.019	78.532	0.416	0.442
-386.004	532.996	0.432	1.018
-384.990	-42.613	0.417	-0.211
-383.975	13.408	-0.663	0.512
-382.960	598.627	0.217	-0.535
-381.946	-68.414	-0.703	-0.272
-380.931	385.796	0.257	0.528
-379.917	-47.307	0.560	0.271
-378.902	234.415	0.487	-0.799
-377.888	368.776	0.211	-0.424
-376.873	-115.793	-0.530	0.099
-375.858	800.000	0.202	0.630
-374.844	800.000	0.292	-0.832
-373.829	-200.000	0.033	-0.282
-372.815	-105.768	1.052	-0.237
-371.800	-57.307	-0.713	-0.312
-370.785	-195.014	0.953	-0.007
-369.771	80.089	-0.124	0.132
-368.756	200.193	-0.203	-0.311
-367.742	-23.023	-0.616	0.369
-366.727	-200.000	-0.029	-0.607
-365.712	-200.000	-0.017	-0.443
-364.698	-200.000	-0.000	-0.466
-363.683	800.000	-0.094	0.346
-362.669	149.003	-0.183	0.246
-361.654	-200.000	0.168	0.980
-360.639	-200.000	0.077	-0.574
-359.625	-111.052	0.353	0.072
-358.610	156.591	0.406	0.558
-357.596	149.574	0.040	-0.054
-356.581	800.000	0.151	0.432
-355.566	84.141	0.266	-0.289
-354.552	120.108	-0.253	0.312
-353.537	78.020	0.232	0.246
-352.523	-2.418	-0.935	0.651
-351.508	-200.000	-0.038	-0.330
-350.493	-96.421	-0.389	0.102
-349.479	-200.000	0.008	-0.083
-348.464	14.226	-0.595	-0.461
-347.450	-115.557	-0.061	-0.011
-346.435	-48.798	0.437	0.208
-345.420	-175.806	-0.122	0.003
-344.406	546.308	-0.106	0.251
-343.391	-102.048	-0.398	0.095
-342.377	-118.621	-0.322	-0.057
-341.362	230.869	-0.465	0.756
-340.348	800.000	-0.056	0.238
-339.333	24.027	0.404	-0.331
-338.318	-80.023	0.446	-0.149
-337.304	800.000	0.136	-0.426
-336.289	55.038	0.967	0.928
-335.275	-48.798	-0.417	0.199
-334.260	-156.491	-0.593	-0.037
-333.245	52.950	-0.947	0.900
-332.231	800.000	-0.170	0.623
-331.216	-165.802	0.467	0.020
-330.202	452.196	-0.063	-0.139
-329.187	800.000	-0.207	0.783
-328.172	692.701	0.218	0.567
-327.158	-114.185	0.637	-0.122
-326.143	-62.517	0.646	-0.266
-325.129	-102.394	-0.397	0.095
-324.114	134.171	0.463	-0.596
-323.099	-200.000	0.027	-0.352
-322.085	98.806	-0.768	0.880
-321.070	-54.413	1.101	-0.496
-320.056	-55.554	0.119	0.053
-319.041	-200.000	0.089	0.619
-318.026	-139.239	-0.490	-0.052
-317.012	160.806	0.267	-0.371
-315.997	-200.000	0.012	0.271
-314.983	-200.000	-0.021	0.141
-313.968	-200.000	0.120	1.265
-312.953	800.000	-0.079	-0.239
-311.939	-35.066	0.348	0.188
-310.924	-38.025	-0.367	0.193
-309.910	-108.682	-0.263	-0.056
-308.895	-19.185	0.970	0.598
-307.880	18.775	0.824	-0.654
-306.866	-191.010	-0.505	-0.005
-305.851	-13.447	0.054	0.034
-304.837	86.443	0.400	0.437
-303.822	-143.815	0.255	-0.024
-302.807	-33.947	0.939	-0.513
-301.793	198.039	-0.289	0.438
-300.778	800.000	0.117	0.438
-299.764	284.309	0.267	0.477
-298.749	-100.434	0.410	0.101
-297.735	329.421	-0.312	0.595
-296.720	-191.738	0.754	0.007
-295.705	-200.000	-0.049	-0.541
-294.691	-73.307	-0.402	0.146
-293.676	500.967	0.175	-0.401
-292.662	95.567	-0.146	0.165
-291.647	-98.581	-0.694	0.176
-290.632	67.701	-0.569	-0.576
-289.618	-103.409	-0.725	-0.169
-288.603	26.287	0.783	-0.649
-287.589	-119.096	1.473	-0.255
-286.574	89.330	-0.686	-0.758
-285.559	148.490	-0.379	-0.507
-284.545	-97.397	-1.134	-0.293
-283.530	-200.000	0.061	-1.068
-282.516	-200.000	-0.090	-0.568
-281.501	255.305	-0.416	-0.706
-280.486	-19.631	1.008	0.618
-279.472	-7.588	0.759	-0.509
-278.457	-200.000	-0.050	-0.445
-277.443	-200.000	-0.103	0.523
-276.428	-116.494	0.410	0.075
-275.413	-58.315	-0.582	-0.251
-274.399	-56.607	-0.645	0.283
-273.384	-8.676	0.918	0.611
-272.370	-118.160	1.023	0.181
-271.355	800.000	-0.476	-1.542
-270.340	-200.000	0.123	-0.663
-269.326	-24.344	0.512	0.303
-268.311	-200.000	-0.022	0.414
-267.297	-200.000	-0.029	0.231
-266.282	319.262	-0.218	-0.409
-265.267	-200.000	-0.212	-1.164
-264.253	-178.387	0.122	0.003
-263.238	127.326	-0.525	0.660
-262.224	-75.633	0.449	-0.158
-261.209	13.433	-0.513	0.394
-260.195	-171.404	0.463	0.015
-259.180	72.027	0.264	0.272
-258.165	800.000	-0.116	0.436
-257.151	-200.000	-0.112	0.874
-256.136	-119.278	0.292	0.050
-255.122	118.193	0.478	-0.584
-254.107	395.822	0.616	-1.272
-253.092	234.448	-0.413	-0.674
-252.078	8.153	-0.556	-0.413
-251.063	66.961	-0.292	-0.294
-250.049	-200.000	-0.137	-0.603
-249.034	-148.828	0.387	0.031
-248.019	-200.000	-0.052	0.936
-247.005	40.795	0.129	-0.115
-245.990	-148.702	0.414	0.033
-244.976	231.914	-0.685	-1.112
-243.961	-200.000	0.038	-0.806
-242.946	617.037	0.420	1.043
-241.932	-69.595	0.796	-0.302
-240.917	-200.000	-0.008	-0.282
-239.903	800.000	-0.101	-0.277
-238.888	38.468	-0.080	-0.071
-237.873	224.489	-0.270	0.432
-236.859	-144.210	0.698	-0.064
-235.844	800.000	-0.150	-0.530
-234.830	-200.000	0.105	0.904
-233.815	-53.241	-0.652	-0.296
-232.800	-200.000	0.094	0.564
-231.786	-101.924	0.980	-0.234
-230.771	732.179	0.227	-0.600
-229.757	-64.872	0.256	-0.103
-228.742	143.151	0.217	-0.285
-227.727	-200.000	0.028	-0.775
-226.713	-200.000	-0.023	0.220
-225.698	467.660	-0.112	0.248
-224.684	148.141	0.315	-0.420
-223.669	-44.072	-0.431	-0.214
-222.655	800.000	-0.223	0.887
-221.640	-158.001	-0.391	0.023
-220.625	-92.699	-0.318	0.088
-219.611	110.523	-0.463	-0.551
-218.596	-21.899	0.615	0.370
-217.582	111.313	0.425	0.506
-216.567	91.675	-0.217	-0.241
-215.552	-200.000	-0.075	0.347
-214.538	397.953	-0.306	0.632
-213.523	289.534	-0.505	-0.906
-212.509	-200.000	-0.081	0.857
-211.494	-200.000	-0.028	0.726
-210.479	301.757	-0.119	-0.217
-209.465	-149.103	0.382	0.030
-208.450	2.586	-0.370	-0.265
-207.436	-38.113	-0.270	0.142
-206.421	-19.808	-0.295	0.180
-205.406	-11.950	0.561	0.364
-204.392	-105.120	-0.559	-0.126
-203.377	184.336	0.550	0.805
-202.363	23.795	0.805	0.655
-201.348	800.000	-0.110	-0.348
-200.333	800.000	-0.163	0.464
-199.319	-106.259	-1.239	0.274
-198.304	181.987	-0.136	-0.198
-197.290	100.198	-0.489	-0.560
-196.275	39.716	0.402	0.356
-195.260	21.141	-1.052	-0.844
-194.246	467.273	0.122	0.271
-193.231	-101.667	0.468	0.112
-192.217	-65.088	0.303	-0.121
-191.202	365.004	0.062	-0.123
-190.187	-200.000	0.063	0.425
-189.173	-200.000	0.014	-0.372
-188.158	660.609	-0.113	0.289
-187.144	-6.594	0.291	0.196
-186.129	-200.000	0.092	-0.719
-185.114	-100.496	-0.787	0.192
-184.100	800.000	-0.098	-0.272
-183.085	-112.902	0.365	0.071
-182.071	-11.607	0.608	0.395
-181.056	-61.209	-0.970	-0.404
-180.042	-36.219	0.501	-0.267
-179.027	-116.390	-0.764	-0.139
-178.012	-116.953	0.429	0.077
-176.998	-200.000	-0.132	-0.661
-175.983	-200.000	0.133	-0.633
-174.969	80.820	0.471	0.502
-173.954	800.000	-0.391	1.223
-172.939	-48.919	0.469	-0.222
-171.925	800.000	-0.133	-0.375
-170.910	-48.998	0.625	-0.295
-169.896	-184.177	0.744	0.012
-168.881	427.781	-0.132	-0.280
-167.866	53.181	-0.325	0.307
-166.852	65.816	0.467	0.467
-165.837	29.784	-0.487	0.409
-164.823	-35.637	-0.483	-0.258
-163.808	220.970	0.172	-0.273
-162.793	-200.000	0.048	0.615
-161.779	704.513	-0.196	-0.511
-160.764	205.342	0.325	0.498
-159.750	800.000	0.287	0.819
-158.735	120.408	0.402	0.492
-157.720	11.614	-0.173	-0.131
-156.706	97.486	0.290	-0.328
-155.691	-200.000	-0.092	-0.436
-154.677	28.663	0.894	-0.746
-153.662	-33.162	0.647	-0.354
-152.647	-181.651	-0.422	0.008
-151.633	308.189	0.713	-1.312
-150.618	-200.000	-0.079	0.743
-149.604	-87.307	0.384	0.115
-148.589	-5.106	-0.636	-0.432
-147.574	-180.670	-0.304	-0.006
-146.560	800.000	0.302	0.869
-145.545	-187.332	1.064	-0.014
-144.531	201.008	-0.344	0.521
-143.516	-40.504	0.388	-0.198
-142.502	-200.000	-0.001	-0.061
-141.487	119.781	-0.292	-0.357
-140.472	565.556	-0.145	0.346
-139.458	121.776	-0.930	1.144
-138.443	-73.547	0.435	-0.156
-137.429	-28.049	0.639	0.364
-136.414	20.902	0.445	-0.355
-135.399	149.999	-0.142	-0.190
-134.385	-200.000	-0.025	-0.169
-133.370	-110.469	0.084	0.017
-132.356	-155.341	1.017	0.065
-131.341	-120.258	0.326	-0.055
-130.326	37.268	0.498	-0.435
-129.312	53.397	0.475	-0.449
-128.297	65.044	-0.584	0.581
-127.283	171.537	-0.041	0.058
-126.268	33.384	-0.291	0.249
-125.253	-75.616	0.143	-0.050
-124.239	-200.000	0.019	0.508
-123.224	800.000	0.226	0.860
