DTS Sentinel unit serial number:	SN413079Multiplexer serial number:	ORYXHardware model number:	OX4-SRSoftware version number:	ORYX F/W v4.00 Oryx Data Collector v3.7.2.0data status	okinstallation	princeton_trtdifferential loss correction	single-endedforward channel	channel 2reverse channel	N/Adate	2019/09/14time	19:07:35forward acquisition time	60.00reverse acquisition time	0.00gamma	496.2192k internal	0.2321k external	0.2321temperature offset calibration	1.0097default loss term (dB/km)	0.3790temperature slope calibration	1.0000multiplexer offset coefficient	1.0000multiplexer slope coefficient	1.0000fibre end	0.00T internal ref (°C)	35.42T ext. ref 1 (°C)	4.87T ext. ref 2 (°C)	29.34length (m)	temperature (°C)	Stokes	anti-Stokes-747.200	-83.417	0.026	-0.008
-746.185	-39.261	-0.068	0.036
-745.171	29.128	0.242	-0.208
-744.156	-130.393	-0.280	-0.038
-743.142	800.000	0.029	0.097
-742.127	477.650	0.126	0.289
-741.112	348.910	0.128	0.256
-740.098	-200.000	-0.038	0.330
-739.083	103.030	-0.163	-0.193
-738.069	-31.261	-0.309	-0.176
-737.054	-200.000	-0.006	-0.218
-736.039	-62.678	-0.175	0.073
-735.025	-83.641	0.185	0.060
-734.010	152.443	-0.155	-0.214
-732.996	800.000	-0.057	0.176
-731.981	-134.946	0.276	0.034
-730.966	-77.160	-0.098	0.034
-729.952	198.246	-0.050	-0.077
-728.937	240.419	-0.167	0.282
-727.923	-70.068	0.200	-0.077
-726.908	800.000	0.021	0.082
-725.894	-200.000	-0.035	-0.245
-724.879	-93.563	-0.093	-0.026
-723.864	-96.314	-0.135	0.036
-722.850	-54.642	0.349	0.159
-721.835	1.669	-0.172	0.125
-720.821	67.789	0.210	-0.217
-719.806	800.000	0.063	-0.230
-718.791	12.155	-0.259	-0.201
-717.777	298.561	0.034	0.063
-716.762	-113.068	0.193	-0.039
-715.748	336.498	0.059	-0.117
-714.733	-100.575	-0.269	0.067
-713.718	800.000	0.040	0.136
-712.704	-9.392	-0.064	-0.043
-711.689	-162.133	0.204	-0.010
-710.675	-112.252	-0.404	0.082
-709.660	-129.137	-0.065	-0.009
-708.645	-200.000	-0.027	-0.378
-707.631	800.000	0.064	-0.203
-706.616	800.000	-0.062	0.191
-705.602	-69.189	0.240	0.093
-704.587	427.463	0.036	0.078
-703.572	-147.896	0.194	0.016
-702.558	-200.000	-0.007	-0.215
-701.543	-200.000	0.065	-0.371
-700.529	-200.000	-0.042	0.216
-699.514	93.887	0.119	-0.137
-698.499	-200.000	-0.029	-0.242
-697.485	136.666	0.174	-0.229
-696.470	7.381	-0.189	-0.143
-695.456	48.964	-0.108	-0.102
-694.441	-1.268	0.180	-0.128
-693.426	7.318	-0.204	-0.154
-692.412	-200.000	0.053	-0.335
-691.397	-75.092	0.224	-0.081
-690.383	-200.000	0.004	0.058
-689.368	678.596	-0.039	0.104
-688.354	111.299	0.184	0.224
-687.339	-60.412	0.146	-0.063
-686.324	82.246	-0.253	-0.277
-685.310	668.615	0.053	0.139
-684.295	30.945	0.270	0.234
-683.281	72.316	-0.141	0.148
-682.266	82.312	0.187	0.204
-681.251	63.605	-0.215	-0.218
-680.237	38.590	-0.089	-0.080
-679.222	-73.095	-0.325	0.120
-678.208	409.184	0.126	-0.269
-677.193	393.343	0.278	0.583
-676.178	-152.706	0.080	-0.006
-675.164	-75.438	-0.230	-0.082
-674.149	-52.490	-0.267	0.125
-673.135	284.169	-0.041	-0.074
-672.120	42.787	0.162	-0.149
-671.105	-10.420	-0.152	-0.102
-670.091	-200.000	-0.003	-0.138
-669.076	-200.000	-0.016	0.118
-668.062	-3.291	0.083	0.058
-667.047	800.000	-0.061	-0.214
-666.032	-75.017	-0.044	-0.016
-665.018	559.188	-0.025	0.062
-664.003	-200.000	0.016	-0.172
-662.989	-142.144	-0.188	-0.019
-661.974	-56.578	0.055	0.025
-660.959	800.000	-0.149	-0.457
-659.945	446.219	0.078	0.173
-658.930	-114.131	-0.206	0.040
-657.916	-200.000	-0.090	-0.424
-656.901	182.178	-0.037	-0.054
-655.886	283.323	0.108	-0.196
-654.872	14.668	0.123	-0.096
-653.857	800.000	-0.122	-0.344
-652.843	-69.325	0.069	-0.027
-651.828	-200.000	0.024	0.223
-650.814	-175.210	-0.212	-0.006
-649.799	-162.772	-0.203	0.010
-648.784	-56.621	-0.274	-0.122
-647.770	-47.947	0.380	0.185
-646.755	-114.891	0.152	-0.029
-645.741	189.210	-0.150	-0.226
-644.726	-91.332	-0.326	-0.094
-643.711	163.123	-0.118	-0.167
-642.697	-16.572	0.214	0.136
-641.682	800.000	0.024	-0.078
-640.668	-164.484	-0.378	-0.017
-639.653	800.000	-0.064	0.248
-638.638	-113.526	-0.147	0.029
-637.624	153.462	0.104	0.143
-636.609	56.258	-0.235	-0.230
-635.595	-47.962	0.196	0.095
-634.580	272.325	0.051	-0.090
-633.565	-200.000	0.032	0.182
-632.551	-5.587	-0.173	-0.119
-631.536	-77.333	0.137	0.048
-630.522	-106.720	0.159	0.035
-629.507	-137.005	0.376	0.043
-628.492	-85.323	-0.153	-0.048
-627.478	443.939	0.114	0.252
-626.463	-138.821	-0.213	-0.023
-625.449	800.000	-0.054	-0.165
-624.434	-200.000	0.040	0.363
-623.419	188.296	0.159	0.239
-622.405	-29.349	-0.560	0.322
-621.390	123.767	0.147	-0.185
-620.376	-103.893	-0.098	-0.023
-619.361	-60.954	-0.356	-0.151
-618.346	15.116	0.080	0.063
-617.332	194.602	-0.122	0.186
-616.317	-102.945	-0.205	0.049
-615.303	21.558	-0.219	-0.180
-614.288	-200.000	0.050	-0.445
-613.273	-200.000	0.012	0.060
-612.259	141.914	0.109	0.145
-611.244	-200.000	-0.003	-0.079
-610.230	105.644	-0.275	-0.327
-609.215	55.648	0.110	-0.107
-608.201	-118.543	-0.516	-0.092
-607.186	-25.338	-0.221	0.132
-606.171	800.000	0.011	-0.043
-605.157	-27.806	0.063	-0.037
-604.142	526.829	0.067	0.158
-603.128	142.039	-0.240	0.320
-602.113	242.628	-0.114	0.191
-601.098	-2.112	0.366	-0.258
-600.084	-200.000	0.001	0.160
-599.069	-200.000	0.044	-0.298
-598.055	19.553	0.175	-0.141
-597.040	-200.000	0.021	-0.289
-596.025	293.075	0.082	0.151
-595.011	68.120	-0.251	0.258
-593.996	89.025	0.077	-0.087
-592.982	227.524	-0.066	0.108
-591.967	-162.230	0.061	-0.003
-590.952	-133.317	-0.172	0.022
-589.938	80.542	0.142	-0.154
-588.923	-200.000	-0.028	0.188
-587.909	-132.370	-0.328	0.043
-586.894	52.891	0.289	-0.277
-585.879	-119.739	0.218	0.038
-584.865	-90.225	-0.124	0.036
-583.850	-3.745	0.148	0.104
-582.836	-200.000	0.056	0.336
-581.821	387.181	0.103	0.214
-580.806	-89.014	0.221	0.066
-579.792	-200.000	0.081	0.497
-578.777	429.389	-0.065	-0.141
-577.763	-200.000	-0.067	0.452
-576.748	338.178	-0.048	-0.094
-575.733	69.550	0.232	0.240
-574.719	-64.417	-0.215	-0.088
-573.704	32.308	-0.171	-0.148
-572.690	-200.000	-0.003	-0.117
-571.675	-128.588	0.179	-0.025
-570.661	-151.199	0.085	0.006
-569.646	800.000	-0.048	0.162
-568.631	17.101	-0.278	0.221
-567.617	16.330	-0.062	0.049
-566.602	-200.000	-0.004	-0.363
-565.588	-77.573	-0.305	-0.106
-564.573	-13.311	-0.260	-0.170
-563.558	332.043	0.085	-0.164
-562.544	-30.846	0.107	-0.061
-561.529	-110.677	0.217	-0.045
-560.515	800.000	-0.024	-0.077
-559.500	72.410	0.134	0.140
-558.485	124.229	0.223	0.281
-557.471	-164.680	0.343	-0.016
-556.456	595.769	0.050	-0.123
-555.442	-200.000	0.223	0.000
-554.427	-95.873	0.268	-0.072
-553.412	216.937	-0.148	-0.236
-552.398	231.304	-0.165	0.271
-551.383	-200.000	-0.027	0.303
-550.369	-200.000	0.005	0.262
-549.354	800.000	-0.106	-0.301
-548.339	70.140	-0.158	-0.164
-547.325	619.353	0.146	-0.369
-546.310	-139.359	-0.260	-0.028
-545.296	-83.918	-0.384	-0.122
-544.281	20.744	-0.208	0.169
-543.266	-200.000	-0.028	-0.232
-542.252	16.617	-0.176	0.140
-541.237	-94.475	-0.157	0.043
-540.223	-5.446	-0.205	0.141
-539.208	-142.646	0.203	0.020
-538.193	-200.000	0.015	0.292
-537.179	26.916	0.123	0.104
-536.164	-54.658	0.152	0.069
-535.150	403.242	0.155	-0.327
-534.135	-138.329	-0.414	0.046
-533.121	-200.000	0.027	0.181
-532.106	-126.491	0.222	0.033
-531.091	-77.246	-0.189	-0.066
-530.077	-146.320	0.257	0.023
-529.062	301.934	0.117	0.216
-528.048	-110.675	0.149	-0.031
-527.033	267.986	0.176	0.309
-526.018	-25.636	-0.315	0.186
-525.004	800.000	0.154	0.464
-523.989	-157.521	0.338	-0.020
-522.975	-115.364	-0.232	-0.044
-521.960	-26.426	0.110	0.064
-520.945	-51.993	0.361	-0.168
-519.931	222.039	-0.195	0.314
-518.916	-200.000	-0.006	-0.110
-517.902	-148.363	0.231	0.019
-516.887	-54.296	-0.179	0.082
-515.872	-200.000	-0.047	0.259
-514.858	-17.399	0.141	0.089
-513.843	-200.000	-0.037	-0.257
-512.829	574.670	0.112	0.273
-511.814	-68.080	-0.117	-0.045
-510.799	354.504	0.077	-0.153
-509.785	-94.462	0.182	0.050
-508.770	-21.032	0.151	0.093
-507.756	102.227	-0.140	-0.164
-506.741	145.638	-0.060	0.081
-505.726	-200.000	0.006	-0.122
-504.712	-28.731	-0.105	0.060
-503.697	800.000	-0.015	0.056
-502.683	-22.594	0.134	0.081
-501.668	-88.162	0.093	-0.028
-500.653	92.248	0.170	-0.192
-499.639	800.000	-0.018	0.050
-498.624	800.000	0.006	-0.023
-497.610	-148.245	0.127	-0.010
-496.595	-200.000	-0.022	0.281
-495.581	-181.762	0.349	0.007
-494.566	-200.000	-0.059	0.303
-493.551	-87.167	-0.166	-0.051
-492.537	127.648	0.081	-0.103
-491.522	-127.119	-0.272	-0.040
-490.508	348.706	0.069	-0.136
-489.493	76.349	-0.098	-0.104
-488.478	9.721	-0.288	0.218
-487.464	27.485	-0.094	-0.079
-486.449	-59.423	0.207	0.089
-485.435	133.680	-0.175	0.226
-484.420	361.907	0.023	-0.045
-483.405	212.580	0.010	-0.015
-482.391	-200.000	0.037	-0.218
-481.376	-32.587	0.159	-0.088
-480.362	-200.000	0.053	-0.265
-479.347	-89.407	0.044	-0.013
-478.332	-200.000	0.041	-0.299
-477.318	193.799	-0.067	-0.101
-476.303	388.262	0.113	-0.234
-475.289	-161.789	0.212	-0.011
-474.274	-200.000	0.041	-0.200
-473.259	751.221	-0.078	0.210
-472.245	724.501	0.080	0.213
-471.230	-61.247	-0.152	0.064
-470.216	800.000	-0.079	-0.319
-469.201	-94.410	0.170	0.046
-468.186	-200.000	0.001	0.127
-467.172	800.000	0.030	0.109
-466.157	-200.000	0.040	-0.246
-465.143	523.415	0.052	0.122
-464.128	5.618	-0.152	0.112
-463.113	-3.432	0.068	-0.047
-462.099	-20.532	-0.242	-0.148
-461.084	800.000	0.049	-0.160
-460.070	77.314	0.149	0.159
-459.055	800.000	0.072	0.287
-458.040	800.000	-0.027	-0.087
-457.026	-200.000	0.007	0.352
-456.011	800.000	0.159	-0.492
-454.997	257.215	-0.239	-0.410
-453.982	-200.000	-0.008	0.078
-452.968	-92.452	0.289	0.081
-451.953	-27.391	-0.465	-0.271
-450.938	-84.625	-0.261	0.082
-449.924	15.691	-0.083	-0.065
-448.909	-200.000	-0.063	-0.377
-447.895	-125.191	-0.237	0.036
-446.880	81.096	-0.187	0.202
-445.865	671.297	0.105	-0.272
-444.851	-159.504	0.186	-0.010
-443.836	-55.400	-0.134	-0.060
-442.822	262.839	-0.187	0.324
-441.807	22.533	0.261	0.213
-440.792	-200.000	0.011	-0.189
-439.778	-8.168	0.262	0.176
-438.763	155.795	-0.100	-0.138
-437.749	90.847	0.206	-0.231
-436.734	-66.167	0.221	0.088
-435.719	34.187	0.164	-0.143
-434.705	164.863	-0.104	-0.146
-433.690	152.813	-0.102	-0.139
-432.676	11.125	0.094	-0.072
-431.661	-200.000	0.054	-0.324
-430.646	800.000	-0.129	-0.358
-429.632	120.276	-0.143	-0.177
-428.617	510.803	0.089	0.207
-427.603	800.000	-0.057	0.226
-426.588	-119.678	-0.063	-0.011
-425.573	57.600	-0.145	0.142
-424.559	-156.003	-0.240	0.015
-423.544	-120.626	-0.150	0.025
-422.530	-68.476	0.100	-0.039
-421.515	-51.589	-0.192	0.089
-420.500	-85.216	0.223	0.069
-419.486	-92.508	-0.241	0.068
-418.471	-128.903	0.297	0.042
-417.457	133.133	-0.109	0.141
-416.442	504.838	-0.075	-0.174
-415.428	315.314	-0.066	-0.123
-414.413	-65.996	0.084	-0.033
-413.398	-25.709	0.187	-0.110
-412.384	-200.000	0.010	-0.163
-411.369	-77.201	0.203	0.071
-410.355	800.000	0.019	-0.055
-409.340	-76.920	-0.146	-0.051
-408.325	-128.544	-0.176	-0.025
-407.311	490.413	-0.166	-0.379
-406.296	166.529	0.204	-0.289
-405.282	-179.376	0.453	0.010
-404.267	-200.000	0.046	0.259
-403.252	-132.591	0.319	0.041
-402.238	-126.099	0.083	0.012
-401.223	-140.382	-0.059	0.006
-400.209	177.725	-0.037	0.054
-399.194	65.817	0.212	0.214
-398.179	511.930	-0.099	0.230
-397.165	-77.202	0.091	-0.032
-396.150	254.948	-0.185	-0.316
-395.136	45.731	0.390	-0.359
-394.121	-163.954	-0.371	0.017
-393.106	800.000	0.082	-0.274
-392.092	-200.000	-0.027	0.246
-391.077	40.661	-0.140	0.126
-390.063	-200.000	-0.028	-0.237
-389.048	194.495	0.141	0.213
-388.033	-104.496	-0.249	-0.057
-387.019	-51.335	-0.283	-0.132
-386.004	33.813	-0.203	0.176
-384.990	16.764	-0.379	0.299
-383.975	-142.468	-0.374	-0.037
-382.960	800.000	-0.027	0.082
-381.946	-92.080	-0.254	0.072
-380.931	-200.000	-0.030	-0.387
-379.917	550.619	0.088	-0.210
-378.902	-98.179	-0.450	-0.115
-377.888	-200.000	0.010	-0.183
-376.873	469.329	-0.033	-0.073
-375.858	-81.692	0.145	-0.047
-374.844	-35.048	-0.135	0.073
-373.829	-66.418	0.422	0.167
-372.815	80.360	-0.126	-0.135
-371.800	-50.807	0.281	-0.132
-370.785	4.997	-0.211	0.155
-369.771	-200.000	0.005	-0.064
-368.756	-200.000	-0.018	0.173
-367.742	103.993	0.078	-0.091
-366.727	118.123	-0.117	0.144
-365.712	214.165	-0.062	0.098
-364.698	800.000	-0.108	-0.404
-363.683	461.914	0.174	0.385
-362.669	161.690	-0.037	0.051
-361.654	100.332	0.111	0.128
-360.639	48.448	0.191	-0.178
-359.625	538.628	-0.039	0.091
-358.610	-85.106	0.130	0.041
-357.596	-66.365	-0.225	0.089
-356.581	800.000	0.118	-0.405
-355.566	68.201	-0.106	-0.108
-354.552	213.866	0.062	0.097
-353.537	-136.291	-0.121	-0.014
-352.523	97.421	-0.172	-0.196
-351.508	-91.039	0.344	-0.098
-350.493	-9.338	0.380	-0.253
-349.479	-145.190	-0.233	-0.021
-348.464	-62.198	-0.115	-0.048
-347.450	40.475	0.137	0.123
-346.435	-58.328	-0.309	0.134
-345.420	144.338	0.139	-0.185
-344.406	-45.741	-0.206	0.101
-343.391	-25.564	0.287	-0.168
-342.377	800.000	-0.104	-0.306
-341.362	167.675	0.089	-0.126
-340.348	800.000	0.041	0.117
-339.333	-177.509	-0.346	-0.008
-338.318	800.000	-0.052	0.170
-337.304	-119.766	-0.008	0.001
-336.289	-200.000	-0.009	-0.049
-335.275	70.895	-0.227	0.234
-334.260	42.032	-0.110	0.099
-333.245	80.209	-0.270	0.288
-332.231	-49.658	0.103	-0.049
-331.216	-16.407	-0.147	-0.092
-330.202	-200.000	-0.008	-0.082
-329.187	161.018	0.109	0.151
-328.172	-200.000	-0.015	-0.176
-327.158	461.189	-0.048	-0.106
-326.143	-4.498	0.064	-0.044
-325.129	-138.429	0.155	0.017
-324.114	104.234	0.229	0.268
-323.099	-125.773	0.109	-0.016
-322.085	-101.760	-0.352	0.085
-321.070	438.923	0.032	-0.069
-320.056	-113.937	-0.430	0.083
-319.041	-24.172	0.137	-0.081
-318.026	-115.135	-0.108	-0.020
-317.012	-93.490	-0.055	-0.015
-315.997	-200.000	0.029	0.219
-314.983	31.690	0.129	-0.111
-313.968	-106.828	-0.112	-0.025
-312.953	-174.983	-0.135	0.004
-311.939	52.256	0.162	-0.153
-310.924	98.568	-0.122	0.140
-309.910	304.972	0.033	-0.060
-308.895	-11.786	0.127	0.083
-307.880	-123.074	0.195	-0.031
-306.866	-145.498	0.453	-0.040
-305.851	-104.604	-0.264	0.061
-304.837	133.900	-0.106	-0.136
-303.822	-200.000	0.038	-0.223
-302.807	195.217	-0.057	-0.087
-301.793	800.000	0.060	-0.177
-300.778	-200.000	-0.025	-0.208
-299.764	-133.562	-0.074	0.009
-298.749	124.758	-0.107	-0.134
-297.735	117.782	0.117	0.143
-296.720	-11.942	-0.281	-0.183
-295.705	-49.039	0.326	-0.155
-294.691	-102.858	0.291	-0.069
-293.676	30.668	-0.101	-0.086
-292.662	-200.000	0.023	0.266
-291.647	-156.944	-0.280	-0.017
-290.632	-71.992	0.195	0.072
-289.618	163.370	0.166	0.232
-288.603	-200.000	0.015	-0.144
-287.589	-101.110	-0.196	0.048
-286.574	-20.798	-0.135	-0.082
-285.559	-112.755	0.135	0.027
-284.545	458.421	0.173	0.382
-283.530	202.084	0.045	0.069
-282.516	124.521	-0.139	-0.174
-281.501	800.000	0.057	-0.179
-280.486	-52.330	0.058	0.027
-279.472	88.850	0.092	-0.102
-278.457	148.759	-0.237	-0.317
-277.443	54.980	-0.162	-0.155
-276.428	800.000	-0.067	0.189
-275.413	-32.360	-0.123	-0.068
-274.399	-156.651	-0.077	-0.005
-273.384	-51.157	0.172	-0.080
-272.370	-200.000	0.001	0.148
-271.355	188.195	-0.094	-0.140
-270.340	-194.146	0.168	0.001
-269.326	-184.645	0.527	-0.008
-268.311	260.739	-0.068	-0.117
-267.297	-128.598	0.123	0.017
-266.282	-30.379	-0.218	-0.122
-265.267	-58.516	0.061	-0.026
-264.253	-200.000	0.008	0.335
-263.238	155.545	0.176	-0.241
-262.224	49.777	0.054	0.051
-261.209	63.458	0.198	0.197
-260.195	-6.217	-0.143	-0.097
-259.180	-180.078	-0.277	0.006
-258.165	292.237	-0.122	-0.220
-257.151	800.000	0.080	-0.251
-256.136	-106.442	0.064	0.014
-255.122	437.068	0.061	-0.132
-254.107	-59.684	0.069	0.029
-253.092	106.011	-0.062	0.072
-252.078	622.317	0.074	-0.185
-251.063	-200.000	0.004	0.265
-250.049	-45.846	0.231	0.113
-249.034	-200.000	0.020	0.241
-248.019	800.000	-0.083	0.261
-247.005	-8.754	0.203	-0.135
-245.990	-200.000	-0.015	-0.211
-244.976	223.805	-0.073	0.116
-243.961	-34.548	0.213	-0.115
-242.946	97.208	0.097	0.110
-241.932	-158.819	0.138	-0.008
-240.917	-18.888	0.112	0.069
-239.903	-81.474	-0.155	-0.051
-238.888	-42.245	0.066	0.033
-237.873	674.989	0.191	-0.491
-236.859	-200.000	0.025	0.260
-235.844	-52.663	-0.199	-0.091
-234.830	130.733	0.232	0.295
-233.815	-200.000	0.010	-0.264
-232.800	152.157	-0.134	-0.182
-231.786	94.004	0.076	-0.086
-230.771	-94.542	-0.407	0.110
-229.757	148.503	0.090	0.120
-228.742	-200.000	-0.025	0.352
-227.727	225.776	0.171	0.274
-226.713	-59.522	-0.245	-0.104
-225.698	12.607	-0.391	0.299
-224.684	-76.988	0.328	0.113
-223.669	-106.970	0.184	0.040
-222.655	538.838	0.010	-0.023
-221.640	200.086	-0.003	0.004
-220.625	512.161	-0.092	0.213
-219.611	206.534	0.057	-0.088
-218.596	800.000	-0.052	0.189
-217.582	-25.516	-0.192	-0.112
-216.567	-21.664	0.294	0.177
-215.552	-75.310	-0.104	0.037
-214.538	53.064	-0.225	-0.213
-213.523	800.000	-0.104	-0.363
-212.509	21.201	0.085	0.068
-211.494	-40.761	-0.173	0.089
-210.479	-23.383	-0.104	0.062
-209.465	-99.534	-0.217	-0.054
-208.450	6.097	0.080	0.059
-207.436	-187.636	0.258	-0.003
-206.421	270.864	-0.184	0.321
-205.406	69.723	-0.103	-0.105
-204.392	-9.962	0.270	0.178
-203.377	118.355	-0.161	0.197
-202.363	282.052	0.173	-0.307
-201.348	-54.628	0.060	-0.027
-200.333	178.851	0.298	0.431
-199.319	-200.000	0.025	-0.150
-198.304	68.938	0.318	-0.323
-197.290	25.865	-0.011	-0.009
-196.275	11.883	0.239	0.182
-195.260	279.930	0.106	-0.187
-194.246	1.519	0.091	-0.064
-193.231	164.662	0.164	-0.229
-192.217	56.527	0.094	-0.091
-191.202	265.891	-0.101	-0.175
-190.187	-87.571	-0.317	-0.095
-189.173	-200.000	0.046	0.276
-188.158	-60.893	0.381	-0.159
-187.144	193.734	-0.250	0.374
-186.129	-62.610	-0.071	0.029
-185.114	350.814	0.061	0.119
-184.100	-7.149	-0.265	-0.178
-183.085	-200.000	0.024	0.121
-182.071	-67.451	0.107	0.042
-181.056	800.000	-0.010	0.029
-180.042	35.419	0.303	0.263
-179.027	-120.912	-0.204	0.034
-178.012	50.538	-0.203	0.190
-176.998	87.930	0.135	0.148
-175.983	800.000	0.013	0.053
-174.969	-88.338	0.294	0.087
-173.954	-115.676	-0.380	-0.070
-172.939	-200.000	-0.063	0.448
-171.925	-200.000	-0.060	0.319
-170.910	-27.877	0.153	-0.088
-169.896	800.000	0.058	0.202
-168.881	-22.666	0.080	-0.048
-167.866	-200.000	0.063	-0.393
-166.852	-191.424	0.071	-0.001
-165.837	-200.000	0.030	0.179
-164.823	269.530	0.061	-0.106
-163.808	-185.609	0.037	-0.001
-162.793	-200.000	-0.001	-0.198
-161.779	184.301	-0.070	0.103
-160.764	-200.000	-0.024	-0.118
-159.750	-200.000	-0.048	-0.237
-158.735	-59.798	0.227	-0.096
-157.720	156.829	0.293	0.400
-156.706	97.624	0.206	0.234
-155.691	16.138	0.098	0.076
-154.677	-45.666	0.185	-0.090
-153.662	21.928	0.072	0.058
-152.647	480.528	0.079	-0.176
-151.633	28.919	-0.156	0.131
-150.618	800.000	0.119	-0.453
-149.604	70.691	0.158	0.162
-148.589	-200.000	-0.060	-0.275
-147.574	68.159	0.181	0.183
-146.560	-200.000	-0.068	-0.326
-145.545	-114.956	0.183	-0.034
-144.531	13.820	-0.197	-0.151
-143.516	40.452	-0.008	-0.008
-142.502	800.000	0.046	0.146
-141.487	-105.720	0.157	0.035
-140.472	-105.513	-0.117	0.026
-139.458	-147.051	0.351	0.030
-138.443	-200.000	-0.022	-0.209
-137.429	101.020	0.238	-0.273
-136.414	223.661	0.103	-0.164
-135.399	706.716	0.082	0.213
-134.385	79.748	-0.063	0.067
-133.370	-22.073	-0.301	0.181
-132.356	33.481	-0.151	-0.129
-131.341	178.699	0.196	0.283
-130.326	-128.156	0.227	-0.032
-129.312	65.682	-0.106	-0.106
-128.297	46.953	0.333	-0.305
-127.283	800.000	-0.024	0.082
-126.268	-128.065	0.063	0.009
-125.253	-4.225	0.100	0.068
-124.239	-79.159	-0.046	-0.015
-123.224	10.613	0.130	0.098
-122.210	-200.000	-0.013	-0.443
-121.195	49.338	-0.070	0.065
