DTS Sentinel unit serial number:	SN413079Multiplexer serial number:	ORYXHardware model number:	OX4-SRSoftware version number:	ORYX F/W v4.00 Oryx Data Collector v3.7.2.0data status	okinstallation	princeton_trtdifferential loss correction	single-endedforward channel	channel 2reverse channel	N/Adate	2019/09/17time	21:39:34forward acquisition time	60.00reverse acquisition time	0.00gamma	496.2192k internal	0.2342k external	0.2342temperature offset calibration	0.9980default loss term (dB/km)	0.3790temperature slope calibration	1.0000multiplexer offset coefficient	1.0000multiplexer slope coefficient	1.0000fibre end	0.00T internal ref (°C)	26.78T ext. ref 1 (°C)	0.18T ext. ref 2 (°C)	19.11length (m)	temperature (°C)	Stokes	anti-Stokes-747.200	-156.809	-0.220	-0.014
-746.185	-17.424	-0.158	0.100
-745.171	350.402	-0.061	-0.120
-744.156	127.324	-0.115	0.146
-743.142	386.837	0.134	0.277
-742.127	652.413	0.013	-0.034
-741.112	798.292	0.028	-0.076
-740.098	-73.269	-0.223	0.082
-739.083	0.988	-0.148	-0.106
-738.069	-140.897	-0.152	0.016
-737.054	-86.259	0.043	-0.013
-736.039	385.468	-0.091	-0.189
-735.025	-200.000	0.000	0.182
-734.010	252.287	-0.171	-0.292
-732.996	-23.442	-0.093	-0.056
-731.981	230.522	-0.031	-0.051
-730.966	800.000	-0.059	-0.165
-729.952	-171.104	-0.082	-0.003
-728.937	-200.000	0.062	-0.286
-727.923	-145.699	-0.330	-0.029
-726.908	495.835	0.018	-0.042
-725.894	-200.000	-0.016	0.099
-724.879	-200.000	-0.010	-0.190
-723.864	-200.000	0.028	-0.171
-722.850	-113.715	0.171	-0.033
-721.835	-80.333	-0.272	-0.091
-720.821	106.554	-0.124	0.147
-719.806	-175.696	0.268	-0.007
-718.791	30.591	0.223	0.191
-717.777	-4.498	-0.081	-0.056
-716.762	247.218	-0.163	-0.276
-715.748	83.705	0.119	-0.129
-714.733	-200.000	-0.014	0.119
-713.718	-88.453	-0.350	0.104
-712.704	-65.844	-0.175	0.070
-711.689	800.000	-0.071	0.284
-710.675	-200.000	-0.091	-0.408
-709.660	-41.626	0.241	-0.124
-708.645	-200.000	-0.039	-0.192
-707.631	800.000	-0.133	-0.379
-706.616	-200.000	-0.010	0.196
-705.602	-25.447	-0.412	-0.243
-704.587	-0.561	0.290	0.206
-703.572	-200.000	-0.013	0.097
-702.558	312.925	-0.128	0.240
-701.543	-55.595	-0.196	0.088
-700.529	-133.484	-0.080	-0.010
-699.514	-44.589	-0.089	-0.045
-698.499	800.000	0.041	0.162
-697.485	-180.831	-0.378	-0.008
-696.470	-200.000	-0.040	-0.270
-695.456	-64.943	-0.165	-0.067
-694.441	132.138	0.070	-0.090
-693.426	212.415	0.081	0.128
-692.412	-92.949	-0.137	0.038
-691.397	-133.701	0.430	-0.054
-690.383	181.507	0.228	-0.335
-689.368	6.183	0.128	0.095
-688.354	-47.030	-0.148	0.072
-687.339	-155.870	-0.104	-0.007
-686.324	-167.332	-0.190	0.008
-685.310	37.759	-0.097	0.086
-684.295	-200.000	0.002	-0.106
-683.281	-172.060	-0.176	0.006
-682.266	162.863	-0.075	-0.105
-681.251	-200.000	-0.003	-0.057
-680.237	-17.228	-0.102	0.064
-679.222	354.461	0.150	-0.298
-678.208	-27.864	0.369	-0.214
-677.193	258.238	0.161	-0.277
-676.178	226.588	-0.056	0.091
-675.164	30.117	-0.307	0.261
-674.149	244.303	0.118	-0.197
-673.135	2.313	0.089	0.065
-672.120	361.146	0.123	-0.246
-671.105	-120.482	-0.053	0.009
-670.091	54.640	-0.176	0.169
-669.076	285.204	-0.077	-0.139
-668.062	-200.000	-0.000	-0.015
-667.047	-200.000	0.013	-0.137
-666.032	-71.742	-0.117	0.044
-665.018	-14.587	0.348	-0.224
-664.003	-191.595	-0.187	0.002
-662.989	-200.000	0.004	-0.189
-661.974	102.069	-0.247	0.288
-660.959	71.904	-0.329	0.342
-659.945	-123.288	-0.187	-0.030
-658.930	-25.274	-0.271	0.160
-657.916	800.000	-0.091	0.358
-656.901	-33.343	-0.244	-0.135
-655.886	-52.744	-0.203	-0.093
-654.872	-200.000	-0.001	-0.282
-653.857	800.000	-0.054	-0.173
-652.843	298.345	0.116	-0.212
-651.828	70.308	0.192	0.198
-650.814	282.645	-0.099	-0.177
-649.799	-154.608	-0.276	0.018
-648.784	-200.000	0.056	-0.298
-647.770	452.130	-0.081	0.180
-646.755	-145.689	0.236	-0.021
-645.741	-200.000	-0.020	0.205
-644.726	294.393	0.032	0.058
-643.711	38.855	-0.124	0.110
-642.697	-139.061	0.232	0.025
-641.682	-104.196	0.352	0.082
-640.668	-178.804	-0.100	0.002
-639.653	-82.917	-0.382	-0.123
-638.638	81.796	0.141	-0.152
-637.624	-111.591	-0.224	-0.045
-636.609	-200.000	-0.037	0.393
-635.595	-142.342	0.274	0.027
-634.580	489.347	0.116	0.265
-633.565	-200.000	0.002	0.135
-632.551	-200.000	0.004	-0.219
-631.536	800.000	-0.095	-0.266
-630.522	286.733	0.036	0.065
-629.507	-105.717	0.266	-0.060
-628.492	591.638	0.070	-0.172
-627.478	374.072	0.197	0.400
-626.463	-200.000	-0.002	0.095
-625.449	800.000	0.110	-0.361
-624.434	-54.221	-0.112	0.051
-623.419	124.019	0.310	-0.389
-622.405	-166.334	-0.323	0.014
-621.390	301.359	-0.073	0.134
-620.376	584.587	0.097	-0.237
-619.361	112.633	-0.060	0.072
-618.346	132.346	-0.164	0.211
-617.332	-92.503	0.230	-0.064
-616.317	-135.016	0.032	-0.004
-615.303	742.260	0.025	-0.066
-614.288	173.459	0.104	-0.149
-613.273	281.614	-0.174	-0.311
-612.259	-54.976	-0.173	-0.078
-611.244	51.743	0.242	-0.229
-610.230	-200.000	-0.021	-0.244
-609.215	125.200	0.046	0.057
-608.201	800.000	0.051	-0.187
-607.186	190.270	-0.183	-0.275
-606.171	-200.000	-0.005	0.181
-605.157	-130.272	-0.217	0.029
-604.142	-36.248	0.261	0.140
-603.128	29.206	-0.112	0.095
-602.113	40.648	0.282	-0.253
-601.098	291.644	-0.163	-0.296
-600.084	576.591	0.114	-0.277
-599.069	-200.000	-0.056	-0.306
-598.055	-131.618	0.115	0.015
-597.040	603.724	-0.091	0.226
-596.025	-48.214	0.135	-0.065
-595.011	-200.000	-0.047	0.215
-593.996	-200.000	0.034	-0.164
-592.982	-129.324	0.224	-0.031
-591.967	-56.146	0.335	0.148
-590.952	122.501	-0.261	0.324
-589.938	-55.231	-0.285	-0.127
-588.923	12.425	0.111	0.085
-587.909	-134.404	-0.232	0.028
-586.894	-200.000	0.011	0.078
-585.879	-57.715	0.106	0.046
-584.865	193.210	0.211	-0.317
-583.850	-112.076	-0.511	0.102
-582.836	104.049	0.150	0.176
-581.821	-3.237	0.242	-0.168
-580.806	-39.069	-0.170	0.089
-579.792	-167.374	-0.062	-0.002
-578.777	-176.329	-0.112	0.003
-577.763	-128.016	0.056	0.008
-576.748	-46.895	-0.244	-0.119
-575.733	342.879	0.051	0.099
-574.719	464.705	-0.080	0.177
-573.704	70.071	0.067	-0.068
-572.690	-31.112	-0.241	-0.135
-571.675	-72.817	-0.064	0.023
-570.661	800.000	0.040	-0.122
-569.646	511.468	-0.073	-0.169
-568.631	-130.924	-0.227	-0.030
-567.617	-33.945	0.103	0.056
-566.602	-133.599	-0.176	-0.022
-565.588	213.640	0.063	0.100
-564.573	-44.407	0.115	-0.057
-563.558	137.529	0.091	0.119
-562.544	150.453	-0.191	-0.258
-561.529	-109.743	-0.403	-0.084
-560.515	-130.503	0.234	-0.032
-559.500	800.000	0.077	-0.231
-558.485	-45.748	0.053	-0.026
-557.471	-42.050	-0.148	0.076
-556.456	355.343	0.162	-0.320
-555.442	496.463	0.165	0.377
-554.427	-144.991	-0.176	-0.016
-553.412	-176.983	0.283	-0.007
-552.398	800.000	-0.029	-0.115
-551.383	-85.676	-0.074	0.023
-550.369	99.373	-0.168	-0.194
-549.354	-96.089	-0.164	-0.043
-548.339	308.630	0.042	0.077
-547.325	472.358	0.111	-0.248
-546.310	800.000	0.119	-0.331
-545.296	-94.537	0.235	-0.064
-544.281	416.476	-0.097	0.206
-543.266	-138.087	0.376	0.042
-542.252	-200.000	-0.022	-0.174
-541.237	-34.320	0.142	-0.078
-540.223	36.095	0.210	-0.184
-539.208	-9.452	0.249	0.165
-538.193	164.778	0.115	-0.162
-537.179	800.000	0.030	0.123
-536.164	800.000	0.043	-0.176
-535.150	800.000	-0.061	-0.205
-534.135	-29.752	0.067	0.038
-533.121	-93.634	0.140	0.038
-532.106	-200.000	-0.007	0.242
-531.091	58.922	-0.072	0.070
-530.077	800.000	-0.049	-0.182
-529.062	180.199	-0.072	0.105
-528.048	133.371	0.072	-0.092
-527.033	800.000	-0.043	-0.157
-526.018	-94.015	0.005	-0.001
-525.004	-200.000	-0.051	-0.244
-523.989	800.000	-0.047	0.135
-522.975	-109.764	0.065	0.014
-521.960	-108.829	-0.416	-0.088
-520.945	99.897	0.183	0.210
-519.931	-41.242	-0.135	0.069
-518.916	-1.235	-0.120	-0.084
-517.902	-200.000	-0.008	0.074
-516.887	-69.435	-0.080	0.030
-515.872	-82.982	-0.456	-0.146
-514.858	-44.755	0.191	0.095
-513.843	4.996	-0.123	0.090
-512.829	135.707	-0.096	-0.124
-511.814	266.988	-0.091	0.158
-510.799	239.741	-0.069	-0.113
-509.785	9.883	0.062	0.046
-508.770	-200.000	-0.090	-0.415
-507.756	800.000	-0.025	-0.077
-506.741	-150.246	0.128	0.010
-505.726	-200.000	-0.022	0.115
-504.712	187.234	-0.134	0.198
-503.697	151.383	0.184	-0.249
-502.683	701.796	-0.060	-0.156
-501.668	286.403	-0.100	-0.179
-500.653	-32.383	-0.387	-0.214
-499.639	-154.710	-0.237	-0.016
-498.624	800.000	0.015	0.058
-497.610	-22.532	0.232	0.139
-496.595	6.287	-0.121	-0.089
-495.581	-114.937	0.042	-0.008
-494.566	512.983	0.109	-0.252
-493.551	-12.356	-0.160	-0.104
-492.537	-19.007	-0.040	-0.025
-491.522	-200.000	0.012	0.092
-490.508	743.808	0.109	-0.292
-489.493	-200.000	0.037	-0.368
-488.478	-16.342	-0.086	-0.054
-487.464	6.618	-0.080	-0.059
-486.449	169.512	0.042	-0.059
-485.435	-16.285	0.105	-0.066
-484.420	-80.106	0.239	0.080
-483.405	-60.262	0.256	0.108
-482.391	-103.267	-0.050	0.012
-481.376	-63.097	0.205	0.084
-480.362	137.052	-0.104	0.134
-479.347	800.000	0.032	0.105
-478.332	800.000	0.052	0.187
-477.318	-125.626	-0.175	0.026
-476.303	-200.000	0.013	-0.110
-475.289	-130.504	-0.096	0.013
-474.274	-88.872	-0.130	0.038
-473.259	-200.000	-0.014	-0.339
-472.245	-19.536	0.128	-0.079
-471.230	257.435	-0.043	0.073
-470.216	-151.132	-0.362	-0.027
-469.201	800.000	0.035	0.126
-468.186	717.835	0.106	0.280
-467.172	-200.000	0.015	-0.192
-466.157	16.452	0.255	0.200
-465.143	-52.094	-0.242	-0.111
-464.128	-98.737	-0.079	-0.020
-463.113	252.985	0.084	-0.142
-462.099	221.952	-0.129	0.206
-461.084	20.190	-0.206	-0.165
-460.070	-44.203	-0.512	0.254
-459.055	-66.448	-0.130	-0.051
-458.040	-113.382	-0.132	0.026
-457.026	102.144	-0.150	-0.173
-456.011	-200.000	-0.037	-0.168
-454.997	-200.000	-0.035	-0.413
-453.982	-200.000	0.058	0.273
-452.968	-111.043	0.118	0.024
-451.953	59.132	-0.099	-0.097
-450.938	-6.213	0.262	0.177
-449.924	800.000	-0.072	0.227
-448.909	800.000	-0.091	0.386
-447.895	-95.937	-0.392	-0.103
-446.880	-35.034	0.372	0.201
-445.865	800.000	0.066	-0.227
-444.851	-200.000	-0.053	0.387
-443.836	46.190	0.229	-0.210
-442.822	88.691	0.192	-0.211
-441.807	-46.215	0.137	0.067
-440.792	800.000	0.034	-0.104
-439.778	304.145	0.065	-0.120
-438.763	-167.464	-0.208	0.008
-437.749	45.772	-0.471	0.431
-436.734	174.317	-0.133	-0.190
-435.719	278.437	-0.094	0.165
-434.705	800.000	-0.065	0.178
-433.690	338.475	-0.033	-0.064
-432.676	635.988	0.038	-0.096
-431.661	-78.119	0.045	-0.015
-430.646	-68.636	-0.228	0.087
-429.632	-200.000	0.028	0.186
-428.617	-200.000	-0.009	0.589
-427.603	94.537	0.205	-0.231
-426.588	157.388	0.187	-0.255
-425.573	-76.654	-0.241	0.084
-424.559	29.468	-0.183	0.154
-423.544	55.274	-0.096	-0.092
-422.530	131.222	0.192	0.243
-421.515	-200.000	-0.016	0.322
-420.500	19.029	0.202	0.161
-419.486	-37.979	0.132	0.069
-418.471	-71.552	0.336	0.124
-417.457	-200.000	-0.042	-0.188
-416.442	26.929	-0.228	-0.189
-415.428	-200.000	0.019	0.173
-414.413	38.218	0.103	0.091
-413.398	-5.016	-0.135	-0.092
-412.384	525.235	0.079	0.183
-411.369	-20.519	0.188	0.114
-410.355	-66.783	-0.246	0.096
-409.340	800.000	-0.072	-0.290
-408.325	83.311	0.267	-0.288
-407.311	-145.790	-0.435	0.038
-406.296	-200.000	0.036	0.303
-405.282	-200.000	0.038	0.311
-404.267	151.840	-0.077	0.103
-403.252	-200.000	0.060	0.498
-402.238	140.269	-0.241	0.314
-401.223	-200.000	0.027	0.148
-400.209	11.729	-0.206	0.157
-399.194	-2.715	0.182	-0.126
-398.179	-91.286	-0.353	-0.100
-397.165	300.340	-0.015	-0.027
-396.150	-127.446	0.251	-0.036
-395.136	-200.000	-0.023	-0.185
-394.121	16.911	0.338	-0.264
-393.106	-96.470	0.067	0.017
-392.092	800.000	-0.050	0.143
-391.077	-41.808	-0.152	0.077
-390.063	-3.254	-0.045	-0.031
-389.048	-45.509	0.280	0.137
-388.033	23.058	0.290	0.235
-387.019	67.297	-0.154	-0.156
-386.004	3.305	0.215	-0.155
-384.990	-200.000	-0.014	-0.373
-383.975	195.809	0.017	0.026
-382.960	-116.410	-0.248	0.045
-381.946	256.551	0.025	-0.042
-380.931	41.626	-0.096	0.086
-379.917	309.199	0.087	0.160
-378.902	-68.982	0.176	-0.067
-377.888	-85.328	0.160	0.049
-376.873	34.088	-0.157	-0.135
-375.858	-21.812	0.229	-0.138
-374.844	-174.189	-0.301	0.009
-373.829	-52.141	0.122	0.056
-372.815	345.523	-0.090	-0.175
-371.800	132.127	-0.119	0.152
-370.785	-200.000	-0.029	-0.142
-369.771	121.975	0.166	-0.204
-368.756	-105.554	-0.356	-0.080
-367.742	-28.019	-0.136	0.078
-366.727	800.000	-0.046	0.173
-365.712	800.000	0.039	-0.112
-364.698	-147.115	-0.369	-0.031
-363.683	-200.000	0.008	-0.124
-362.669	-200.000	-0.045	0.238
-361.654	330.931	0.162	0.308
-360.639	186.859	-0.151	0.221
-359.625	261.423	-0.204	0.348
-358.610	-200.000	-0.081	0.386
-357.596	-200.000	-0.002	0.017
-356.581	131.819	0.255	-0.323
-355.566	88.738	-0.174	-0.191
-354.552	-145.429	-0.264	0.023
-353.537	281.209	0.048	0.085
-352.523	-90.255	0.202	-0.058
-351.508	47.348	-0.251	-0.230
-350.493	-73.898	0.194	-0.069
-349.479	-139.655	0.211	0.022
-348.464	524.632	0.051	0.118
-347.450	-200.000	0.054	0.262
-346.435	730.836	-0.073	-0.193
-345.420	74.136	-0.253	0.262
-344.406	-200.000	0.030	0.236
-343.391	-31.595	0.146	0.081
-342.377	-128.547	0.238	0.033
-341.362	196.693	0.108	-0.163
-340.348	466.360	-0.074	-0.164
-339.333	800.000	-0.106	0.296
-338.318	-119.270	0.247	-0.043
-337.304	281.146	0.031	-0.055
-336.289	-119.173	0.309	0.053
-335.275	430.230	0.069	0.146
-334.260	290.441	-0.196	0.352
-333.245	-108.323	-0.455	0.097
-332.231	-200.000	0.012	0.095
-331.216	94.679	0.416	0.466
-330.202	-200.000	-0.008	0.188
-329.187	683.347	-0.178	0.458
-328.172	-6.437	0.122	-0.082
-327.158	87.590	-0.148	0.162
-326.143	-18.151	-0.328	0.202
-325.129	800.000	-0.040	-0.140
-324.114	-200.000	-0.014	0.210
-323.099	-200.000	-0.032	0.230
-322.085	211.837	0.063	-0.097
-321.070	182.139	-0.187	-0.272
-320.056	-87.768	0.405	0.120
-319.041	319.887	-0.134	-0.251
-318.026	185.873	0.232	-0.340
-317.012	162.598	0.093	-0.128
-315.997	-129.995	-0.111	0.015
-314.983	-71.498	0.409	-0.151
-313.968	-200.000	0.013	0.187
-312.953	36.157	0.190	0.165
-311.939	23.392	0.221	0.179
-310.924	-200.000	0.024	-0.153
-309.910	441.670	0.180	0.387
-308.895	-200.000	-0.035	0.166
-307.880	215.928	0.305	0.477
-306.866	43.595	0.268	0.242
-305.851	-65.474	-0.078	0.031
-304.837	87.649	-0.109	0.119
-303.822	-88.796	0.182	0.053
-302.807	207.856	0.075	-0.115
-301.793	-69.056	-0.337	-0.128
-300.778	-103.546	0.311	-0.072
-299.764	800.000	-0.033	-0.091
-298.749	151.533	0.086	0.115
-297.735	-79.369	0.223	-0.074
-296.720	800.000	0.052	0.146
-295.705	800.000	0.030	0.113
-294.691	-60.850	-0.270	-0.112
-293.676	-60.654	-0.171	0.071
-292.662	-84.718	-0.350	0.108
-291.647	19.272	0.101	0.080
-290.632	-106.144	0.059	0.013
-289.618	253.377	-0.087	0.146
-288.603	-127.720	0.125	-0.018
-287.589	-41.391	-0.140	-0.071
-286.574	-116.334	-0.088	0.016
-285.559	345.525	-0.130	-0.252
-284.545	-48.624	-0.300	-0.142
-283.530	-107.453	0.299	0.065
-282.516	107.639	-0.245	0.286
-281.501	288.070	-0.147	-0.262
-280.486	469.853	-0.035	0.077
-279.472	800.000	0.048	0.146
-278.457	800.000	0.050	-0.198
-277.443	-73.034	-0.295	0.106
-276.428	-156.446	0.151	0.009
-275.413	74.797	0.164	-0.170
-274.399	-83.471	0.358	-0.113
-273.384	-200.000	-0.028	-0.254
-272.370	-86.308	0.270	0.082
-271.355	80.321	0.094	-0.100
-270.340	64.741	0.348	0.345
-269.326	-120.335	-0.236	0.039
-268.311	-120.792	-0.120	0.020
-267.297	-167.624	0.100	0.004
-266.282	121.154	-0.063	0.077
-265.267	219.769	0.193	-0.305
-264.253	33.353	-0.102	0.087
-263.238	-65.308	-0.149	0.059
-262.224	-105.253	-0.082	0.018
-261.209	31.034	0.147	-0.124
-260.195	-200.000	-0.018	-0.240
-259.180	165.576	-0.030	0.042
-258.165	-37.755	-0.169	0.089
-257.151	-200.000	0.017	0.422
-256.136	41.644	-0.065	-0.057
-255.122	-63.607	-0.182	0.073
-254.107	-129.293	0.034	0.005
-253.092	-88.671	0.277	-0.081
-252.078	30.461	-0.311	0.261
-251.063	-200.000	-0.002	-0.156
-250.049	75.691	-0.029	0.030
-249.034	-200.000	0.032	0.141
-248.019	77.105	0.134	0.139
-247.005	21.807	-0.065	-0.052
-245.990	-55.323	-0.202	-0.089
-244.976	-64.312	0.319	0.127
-243.961	-80.233	-0.053	-0.017
-242.946	-157.426	0.455	0.027
-241.932	26.907	0.169	0.139
-240.917	-17.831	-0.208	0.128
-239.903	148.567	0.118	-0.157
-238.888	-6.877	0.060	-0.040
-237.873	-95.921	-0.191	-0.050
-236.859	282.455	-0.037	-0.065
-235.844	800.000	-0.093	-0.267
-234.830	-26.130	-0.034	-0.020
-233.815	426.610	0.052	0.109
-232.800	398.215	-0.069	-0.142
-231.786	-200.000	-0.048	-0.239
-230.771	-125.158	0.181	-0.027
-229.757	-49.001	0.192	-0.090
-228.742	-64.608	-0.302	0.120
-227.727	-85.634	-0.183	-0.056
-226.713	91.389	-0.130	0.143
-225.698	-73.909	-0.271	0.096
-224.684	800.000	0.097	-0.269
-223.669	-20.256	0.068	-0.041
-222.655	16.525	0.128	-0.099
-221.640	-57.566	-0.062	-0.027
-220.625	15.045	-0.282	0.217
-219.611	-1.186	0.324	0.225
-218.596	309.047	-0.043	-0.079
-217.582	-58.848	-0.142	0.060
-216.567	-200.000	-0.012	0.119
-215.552	-200.000	-0.059	0.357
-214.538	-2.916	-0.076	0.052
-213.523	520.496	0.055	-0.126
-212.509	-151.502	0.033	0.002
-211.494	83.368	0.042	-0.045
-210.479	-131.511	0.152	-0.020
-209.465	0.163	-0.189	-0.132
-208.450	-168.544	0.292	-0.011
-207.436	-200.000	0.033	-0.195
-206.421	-51.539	-0.221	-0.101
-205.406	99.384	-0.299	0.340
-204.392	144.312	0.076	0.099
-203.377	-148.299	-0.365	0.029
-202.363	122.929	0.329	-0.404
-201.348	423.993	0.088	-0.185
-200.333	-154.325	-0.246	-0.016
-199.319	145.775	0.138	0.182
-198.304	-84.944	-0.101	0.031
-197.290	-118.816	0.452	-0.078
-196.275	330.469	-0.021	-0.039
-195.260	-43.440	0.226	-0.112
-194.246	104.377	0.220	-0.253
-193.231	-200.000	-0.081	-0.498
-192.217	-111.766	-0.316	-0.063
-191.202	-200.000	-0.060	-0.397
-190.187	-67.278	-0.281	0.108
-189.173	800.000	-0.103	0.350
-188.158	10.127	-0.094	0.070
-187.144	767.435	-0.119	0.316
-186.129	-75.650	0.185	0.064
-185.114	-200.000	0.022	-0.187
-184.100	441.188	0.053	-0.114
-183.085	-48.000	-0.103	-0.049
-182.071	1.595	0.388	-0.274
-181.056	-73.921	-0.074	0.026
-180.042	-200.000	-0.334	0.001
-179.027	-120.076	0.074	0.012
-178.012	800.000	-0.081	-0.234
-176.998	-59.666	0.234	0.098
-175.983	638.269	0.029	0.071
-174.969	-3.453	-0.231	-0.157
-173.954	90.202	0.058	-0.063
-172.939	255.982	-0.011	0.018
-171.925	184.096	-0.164	-0.238
-170.910	-29.614	0.258	0.145
-169.896	629.004	-0.045	-0.112
-168.881	354.200	0.114	-0.221
-167.866	800.000	0.032	0.100
-166.852	-60.436	0.201	-0.084
-165.837	-200.000	-0.027	0.325
-164.823	-200.000	-0.016	0.336
-163.808	-200.000	0.024	0.204
-162.793	143.717	0.077	-0.101
-161.779	-200.000	0.002	0.096
-160.764	2.074	0.313	-0.221
-159.750	-200.000	-0.014	-0.128
-158.735	-38.576	0.137	-0.071
-157.720	147.711	-0.094	0.124
-156.706	124.492	0.069	0.085
-155.691	237.691	0.025	-0.040
-154.677	12.382	0.137	0.103
-153.662	-200.000	0.012	-0.209
-152.647	800.000	0.225	-0.618
-151.633	-132.801	0.162	-0.020
-150.618	166.365	-0.158	0.219
-149.604	29.246	0.070	-0.058
-148.589	228.759	0.054	-0.087
-147.574	-50.616	-0.309	0.143
-146.560	-82.844	0.263	-0.083
-145.545	508.471	-0.087	-0.198
-144.531	210.081	-0.093	0.143
-143.516	4.115	0.156	-0.112
-142.502	71.061	0.099	-0.101
-141.487	-200.000	-0.030	0.153
-140.472	-156.157	0.244	0.015
-139.458	-200.000	-0.005	-0.357
-138.443	178.018	-0.066	0.095
-137.429	-2.467	0.100	-0.069
-136.414	53.915	-0.096	-0.090
-135.399	-183.897	0.321	-0.005
-134.385	-133.448	-0.153	0.019
-133.370	79.218	-0.040	-0.042
-132.356	37.139	-0.199	-0.172
-131.341	-19.287	0.155	-0.094
-130.326	800.000	-0.038	-0.146
-129.312	-179.407	-0.147	0.003
-128.297	-87.209	-0.251	-0.075
-127.283	207.573	0.136	0.207
-126.268	431.330	0.162	-0.344
-125.253	-200.000	0.034	-0.197
-124.239	800.000	0.068	-0.231
-123.224	153.580	0.234	0.313
-122.210	-124.860	0.185	-0.028
