DTS Sentinel unit serial number:	SN413079Multiplexer serial number:	ORYXHardware model number:	OX4-SRSoftware version number:	ORYX F/W v4.00 Oryx Data Collector v3.7.2.0data status	okinstallation	princeton_trtdifferential loss correction	single-endedforward channel	channel 2reverse channel	N/Adate	2019/09/18time	08:11:35forward acquisition time	60.00reverse acquisition time	0.00gamma	496.2192k internal	0.2344k external	0.2344temperature offset calibration	0.9980default loss term (dB/km)	0.3790temperature slope calibration	1.0000multiplexer offset coefficient	1.0000multiplexer slope coefficient	1.0000fibre end	0.00T internal ref (°C)	23.87T ext. ref 1 (°C)	0.20T ext. ref 2 (°C)	19.63length (m)	temperature (°C)	Stokes	anti-Stokes-747.200	-20.307	-0.023	-0.014
-746.185	-98.163	-0.154	0.040
-745.171	132.202	-0.221	0.285
-744.156	43.849	-0.151	0.139
-743.142	84.116	-0.125	0.137
-742.127	-84.412	0.162	0.051
-741.112	417.280	-0.106	0.226
-740.098	402.107	0.054	0.113
-739.083	-81.382	0.324	0.107
-738.069	121.146	0.172	-0.214
-737.054	339.551	0.021	0.042
-736.039	-24.808	-0.603	0.358
-735.025	45.137	-0.190	-0.175
-734.010	-127.113	-0.576	-0.084
-732.996	-200.000	-0.041	-0.330
-731.981	-14.638	0.258	-0.166
-730.966	620.286	-0.168	0.422
-729.952	-37.871	-0.308	0.164
-728.937	25.651	-0.018	-0.015
-727.923	800.000	0.011	0.033
-726.908	32.868	0.133	-0.115
-725.894	800.000	-0.044	-0.153
-724.879	388.387	0.044	0.092
-723.864	116.741	-0.129	0.158
-722.850	324.430	-0.034	-0.065
-721.835	132.159	0.112	0.145
-720.821	39.703	-0.097	-0.087
-719.806	172.662	0.189	-0.272
-718.791	796.558	-0.034	-0.093
-717.777	368.784	-0.073	-0.148
-716.762	-76.691	0.136	-0.048
-715.748	-149.258	-0.270	-0.022
-714.733	81.761	-0.061	0.066
-713.718	-163.181	-0.218	0.010
-712.704	129.499	-0.072	-0.092
-711.689	-142.400	0.066	0.006
-710.675	-200.000	0.028	0.152
-709.660	-138.344	-0.142	-0.016
-708.645	193.133	-0.099	-0.150
-707.631	-130.471	0.163	-0.022
-706.616	29.754	-0.152	0.129
-705.602	99.914	0.152	0.177
-704.587	-27.152	-0.079	-0.046
-703.572	-7.716	0.157	-0.106
-702.558	-200.000	-0.006	-0.455
-701.543	-200.000	0.026	-0.233
-700.529	55.754	-0.144	-0.139
-699.514	472.653	-0.136	0.307
-698.499	25.568	0.140	-0.117
-697.485	71.862	-0.102	-0.106
-696.470	800.000	-0.059	-0.253
-695.456	15.505	0.316	-0.248
-694.441	120.637	0.200	-0.248
-693.426	-87.981	0.266	-0.080
-692.412	-200.000	-0.019	-0.099
-691.397	-98.313	-0.202	0.052
-690.383	-89.434	-0.150	-0.044
-689.368	117.652	-0.063	0.078
-688.354	-200.000	-0.069	-0.456
-687.339	-95.218	-0.169	-0.046
-686.324	-125.958	-0.167	0.025
-685.310	800.000	0.141	-0.466
-684.295	-46.146	0.196	-0.096
-683.281	-136.811	-0.153	0.018
-682.266	69.120	-0.167	0.171
-681.251	217.431	0.088	0.139
-680.237	-98.162	-0.355	0.091
-679.222	-3.834	-0.119	0.082
-678.208	156.301	-0.067	0.092
-677.193	441.652	-0.039	0.086
-676.178	55.506	-0.144	-0.139
-675.164	-152.884	-0.211	0.015
-674.149	-200.000	-0.026	-0.145
-673.135	539.660	0.072	-0.172
-672.120	-54.321	0.174	0.079
-671.105	-119.430	-0.427	0.074
-670.091	158.960	0.033	-0.045
-669.076	-113.563	-0.112	-0.022
-668.062	-128.900	0.433	-0.061
-667.047	-148.570	-0.157	-0.013
-666.032	39.028	0.087	0.077
-665.018	632.635	-0.103	-0.259
-664.003	-145.766	-0.145	0.013
-662.989	-35.011	-0.073	0.040
-661.974	-170.228	-0.241	-0.009
-660.959	-59.192	0.174	-0.075
-659.945	463.628	-0.080	0.178
-658.930	-43.514	-0.235	0.119
-657.916	-69.464	0.264	-0.101
-656.901	314.464	0.068	0.128
-655.886	-30.134	-0.072	0.041
-654.872	613.751	0.084	0.211
-653.857	-67.268	-0.278	-0.109
-652.843	-33.033	0.067	0.037
-651.828	-200.000	-0.020	0.207
-650.814	289.786	0.088	-0.159
-649.799	377.600	-0.086	-0.176
-648.784	330.835	-0.085	-0.163
-647.770	238.384	-0.007	0.011
-646.755	46.643	-0.058	0.054
-645.741	99.218	-0.286	0.329
-644.726	169.605	-0.044	-0.063
-643.711	633.892	0.087	-0.220
-642.697	583.970	0.086	0.210
-641.682	61.614	-0.118	0.117
-640.668	-123.592	0.364	-0.058
-639.653	59.128	-0.099	-0.097
-638.638	156.001	0.066	0.091
-637.624	-200.000	-0.029	-0.147
-636.609	-88.686	-0.142	-0.042
-635.595	-200.000	-0.013	0.109
-634.580	-200.000	0.015	-0.174
-633.565	57.136	-0.129	0.125
-632.551	-22.120	0.087	0.053
-631.536	422.951	-0.090	-0.193
-630.522	800.000	-0.079	0.335
-629.507	-136.081	0.109	0.013
-628.492	-142.551	-0.541	-0.053
-627.478	-65.907	0.402	-0.160
-626.463	122.516	0.107	-0.133
-625.449	-200.000	-0.004	0.030
-624.434	381.913	0.112	-0.230
-623.419	-200.000	-0.047	-0.207
-622.405	-54.679	-0.107	0.048
-621.390	-120.434	0.391	0.066
-620.376	-200.000	0.051	-0.393
-619.361	58.950	-0.111	0.108
-618.346	34.616	-0.133	-0.116
-617.332	-128.807	0.286	-0.040
-616.317	722.679	-0.108	0.286
-615.303	-200.000	0.045	0.297
-614.288	39.192	0.138	-0.123
-613.273	800.000	0.100	-0.407
-612.259	270.884	-0.090	-0.158
-611.244	-77.333	-0.159	-0.055
-610.230	-70.677	0.109	0.041
-609.215	-16.078	-0.072	0.046
-608.201	-28.381	0.123	-0.071
-607.186	54.210	-0.104	0.099
-606.171	5.461	-0.097	0.072
-605.157	-200.000	0.015	-0.129
-604.142	84.337	0.078	0.085
-603.128	-106.906	-0.202	0.045
-602.113	-131.998	-0.265	0.034
-601.098	-200.000	0.010	-0.119
-600.084	800.000	0.115	-0.463
-599.069	-49.220	-0.126	0.060
-598.055	456.121	-0.088	0.194
-597.040	-86.520	0.421	0.129
-596.025	-113.449	0.193	0.038
-595.011	190.459	-0.095	-0.142
-593.996	-90.634	0.226	0.065
-592.982	143.397	0.137	0.181
-591.967	-108.061	0.198	0.043
-590.952	800.000	0.111	-0.363
-589.938	12.655	-0.092	-0.071
-588.923	-7.991	-0.118	0.079
-587.909	180.587	0.131	0.191
-586.894	15.345	-0.098	0.077
-585.879	113.390	0.093	0.112
-584.865	57.497	-0.148	0.144
-583.850	-181.017	-0.368	0.007
-582.836	-59.250	-0.112	0.048
-581.821	-85.530	-0.280	-0.087
-580.806	-127.141	-0.296	0.043
-579.792	-200.000	-0.315	-0.001
-578.777	800.000	-0.072	-0.271
-577.763	-20.666	-0.333	0.203
-576.748	163.269	0.182	0.254
-575.733	-180.062	0.158	-0.003
-574.719	73.769	-0.076	0.079
-573.704	-125.595	-0.273	0.041
-572.690	556.880	-0.107	0.255
-571.675	-42.870	-0.460	0.232
-570.661	-125.450	-0.084	0.013
-569.646	-66.688	-0.228	-0.090
-568.631	-132.591	-0.404	0.052
-567.617	14.068	0.279	0.216
-566.602	402.951	-0.074	-0.155
-565.588	-115.135	-0.126	0.024
-564.573	-56.507	-0.166	-0.073
-563.558	-119.042	-0.333	0.058
-562.544	109.667	-0.130	0.155
-561.529	-181.537	0.295	0.006
-560.515	-150.732	0.368	0.028
-559.500	71.245	0.060	0.061
-558.485	-59.504	-0.130	0.056
-557.471	-9.873	-0.379	0.250
-556.456	226.290	-0.019	0.031
-555.442	67.793	0.098	-0.099
-554.427	254.122	-0.172	-0.293
-553.412	272.175	0.045	0.080
-552.398	800.000	0.045	0.186
-551.383	352.719	-0.044	0.086
-550.369	800.000	0.022	0.087
-549.354	-200.000	0.036	-0.229
-548.339	-140.555	0.051	0.005
-547.325	79.065	0.299	-0.318
-546.310	-0.693	-0.170	0.120
-545.296	800.000	-0.096	-0.320
-544.281	39.631	-0.058	-0.052
-543.266	-144.740	-0.165	-0.015
-542.252	-34.734	0.227	-0.123
-541.237	136.771	0.064	0.083
-540.223	800.000	0.098	0.270
-539.208	-37.182	-0.162	-0.086
-538.193	-116.124	0.253	-0.047
-537.179	44.230	0.184	-0.168
-536.164	-200.000	0.002	-0.020
-535.150	153.140	0.134	-0.181
-534.135	174.364	-0.330	-0.474
-533.121	4.668	-0.305	-0.222
-532.106	-53.353	-0.409	0.186
-531.091	61.485	-0.220	0.217
-530.077	-157.127	0.093	0.006
-529.062	-44.524	0.162	0.080
-528.048	-81.229	-0.131	0.043
-527.033	-200.000	0.002	-0.244
-526.018	296.675	0.177	-0.323
-525.004	348.874	0.162	-0.317
-523.989	800.000	0.020	0.075
-522.975	41.882	0.183	0.165
-521.960	-35.997	-0.364	-0.195
-520.945	133.737	0.109	0.140
-519.931	-80.744	0.202	0.067
-518.916	-90.029	-0.476	-0.138
-517.902	-13.870	0.147	0.094
-516.887	43.357	0.229	-0.207
-515.872	-200.000	0.027	-0.222
-514.858	171.145	0.074	0.106
-513.843	793.706	0.069	-0.189
-512.829	800.000	0.048	-0.180
-511.814	8.016	-0.077	0.057
-510.799	-200.000	-0.007	0.113
-509.785	-118.852	-0.136	-0.024
-508.770	121.882	-0.117	0.145
-507.756	151.111	-0.303	0.409
-506.741	800.000	0.058	0.247
-505.726	433.072	-0.132	0.283
-504.712	528.596	0.014	-0.033
-503.697	-200.000	0.004	0.088
-502.683	69.752	0.287	-0.293
-501.668	185.425	-0.095	0.140
-500.653	800.000	-0.057	0.166
-499.639	689.044	0.075	-0.194
-498.624	-137.020	0.363	-0.041
-497.610	156.280	-0.180	0.246
-496.595	540.729	0.082	-0.193
-495.581	-200.000	0.014	0.217
-494.566	30.306	0.242	-0.205
-493.551	-55.553	0.245	0.109
-492.537	-15.947	0.101	0.064
-491.522	-200.000	0.011	-0.064
-490.508	0.587	-0.110	-0.078
-489.493	-43.623	-0.385	-0.192
-488.478	-69.635	-0.197	0.075
-487.464	800.000	0.046	0.131
-486.449	-59.137	-0.161	0.069
-485.435	800.000	-0.071	-0.233
-484.420	-200.000	-0.021	0.430
-483.405	800.000	-0.105	0.397
-482.391	-186.437	0.162	0.002
-481.376	-90.436	-0.298	0.086
-480.362	508.047	-0.098	-0.224
-479.347	-75.884	-0.252	0.088
-478.332	800.000	0.051	-0.168
-477.318	123.512	0.038	-0.048
-476.303	34.525	0.371	0.321
-475.289	-200.000	-0.000	-0.259
-474.274	-200.000	-0.016	0.119
-473.259	4.107	0.155	0.112
-472.245	308.160	0.108	0.200
-471.230	-99.343	-0.095	-0.024
-470.216	488.829	-0.122	0.275
-469.201	247.063	0.180	0.300
-468.186	19.755	-0.121	-0.096
-467.172	800.000	0.095	0.393
-466.157	-166.368	-0.166	0.007
-465.143	-131.494	0.165	-0.022
-464.128	28.974	-0.251	0.211
-463.113	800.000	0.090	0.295
-462.099	491.192	-0.068	-0.154
-461.084	368.275	-0.106	0.213
-460.070	-200.000	0.046	-0.366
-459.055	95.510	0.191	-0.215
-458.040	27.814	-0.109	-0.091
-457.026	29.704	-0.226	-0.190
-456.011	-42.409	-0.114	0.057
-454.997	-200.000	0.086	0.534
-453.982	-200.000	0.057	0.274
-452.968	-200.000	-0.028	0.247
-451.953	-176.928	-0.241	0.006
-450.938	328.487	-0.102	0.193
-449.924	30.159	0.157	0.132
-448.909	-200.000	-0.017	0.159
-447.895	-60.837	0.069	0.029
-446.880	192.911	-0.108	0.162
-445.865	-130.915	0.086	0.011
-444.851	95.260	-0.110	-0.124
-443.836	-92.207	-0.308	-0.086
-442.822	-199.521	0.164	0.001
-441.807	51.218	-0.073	-0.069
-440.792	-151.158	0.125	0.009
-439.778	-70.346	-0.322	0.121
-438.763	21.744	-0.255	0.205
-437.749	-200.000	-0.011	0.053
-436.734	800.000	0.124	-0.384
-435.719	-200.000	-0.040	0.367
-434.705	-77.731	-0.224	0.077
-433.690	781.539	0.115	0.310
-432.676	-200.000	-0.030	0.225
-431.661	-200.000	-0.020	-0.110
-430.646	251.603	0.070	0.118
-429.632	-200.000	-0.010	0.183
-428.617	541.648	0.061	0.144
-427.603	-200.000	-0.013	-0.254
-426.588	-26.766	-0.413	0.239
-425.573	-13.643	0.417	-0.267
-424.559	-165.555	0.409	0.018
-423.544	-83.738	-0.140	0.044
-422.530	61.447	0.199	0.196
-421.515	-200.000	0.022	0.129
-420.500	53.070	0.194	-0.183
-419.486	156.282	-0.218	0.298
-418.471	-200.000	0.013	-0.086
-417.457	-133.724	-0.264	-0.033
-416.442	-200.000	0.011	0.106
-415.428	98.854	0.246	0.281
-414.413	-20.081	-0.212	0.129
-413.398	800.000	-0.025	0.083
-412.384	628.408	0.037	-0.093
-411.369	-200.000	0.028	-0.230
-410.355	-118.450	-0.349	-0.061
-409.340	-5.812	-0.117	-0.079
-408.325	800.000	0.009	-0.028
-407.311	425.456	0.068	0.144
-406.296	13.487	0.238	-0.183
-405.282	-150.122	0.053	0.004
-404.267	-91.494	-0.213	-0.060
-403.252	-109.378	0.309	0.065
-402.238	-148.834	0.426	0.034
-401.223	465.112	0.120	0.265
-400.209	800.000	-0.055	-0.151
-399.194	-21.481	-0.161	0.097
-398.179	274.278	0.099	0.173
-397.165	-108.991	-0.160	-0.034
-396.150	800.000	0.104	-0.399
-395.136	-30.805	-0.319	0.178
-394.121	90.365	-0.158	-0.174
-393.106	-112.208	0.232	0.046
-392.092	-154.471	-0.069	0.005
-391.077	-46.083	0.066	0.032
-390.063	122.279	-0.148	-0.183
-389.048	-200.000	0.035	-0.298
-388.033	494.185	-0.160	-0.361
-387.019	-65.727	0.226	0.089
-386.004	55.245	-0.151	-0.144
-384.990	13.816	-0.218	0.167
-383.975	54.034	0.247	0.234
-382.960	108.292	0.120	-0.141
-381.946	779.233	0.159	-0.430
-380.931	-200.000	0.001	0.168
-379.917	800.000	0.106	0.313
-378.902	800.000	0.044	0.167
-377.888	-84.322	0.208	-0.065
-376.873	254.607	-0.119	-0.201
-375.858	800.000	-0.064	-0.254
-374.844	97.373	0.182	0.206
-373.829	800.000	0.033	0.101
-372.815	800.000	-0.044	0.156
-371.800	-49.758	-0.158	0.074
-370.785	-93.607	0.192	-0.052
-369.771	-66.701	-0.131	-0.051
-368.756	539.057	0.108	-0.253
-367.742	57.517	0.132	-0.127
-366.727	-25.433	-0.187	-0.109
-365.712	-200.000	-0.035	-0.166
-364.698	80.531	-0.157	-0.166
-363.683	62.327	0.335	-0.330
-362.669	-78.635	0.101	0.034
-361.654	-23.137	-0.211	-0.125
-360.639	-14.919	0.151	0.095
-359.625	199.635	0.164	-0.248
-358.610	-22.117	0.078	-0.047
-357.596	560.575	0.077	-0.184
-356.581	-129.018	0.200	-0.028
-355.566	800.000	-0.052	0.225
-354.552	141.505	0.301	0.393
-353.537	12.668	-0.222	0.169
-352.523	-57.105	0.125	0.055
-351.508	535.673	0.081	-0.188
-350.493	-15.967	0.049	-0.031
-349.479	-96.113	0.125	0.033
-348.464	800.000	0.089	-0.343
-347.450	0.923	0.073	0.051
-346.435	-68.260	-0.204	0.078
-345.420	-200.000	0.006	-0.094
-344.406	183.587	0.192	0.280
-343.391	175.365	-0.089	0.127
-342.377	-71.985	-0.242	-0.089
-341.362	605.434	-0.106	0.260
-340.348	367.078	0.026	-0.051
-339.333	163.420	0.099	0.137
-338.318	-24.410	0.255	-0.150
-337.304	800.000	0.145	0.437
-336.289	446.335	-0.054	-0.116
-335.275	8.348	-0.135	-0.100
-334.260	-26.254	0.350	-0.202
-333.245	800.000	0.020	-0.070
-332.231	29.757	-0.241	0.202
-331.216	-200.000	0.018	-0.158
-330.202	-12.203	-0.214	0.138
-329.187	800.000	0.083	0.234
-328.172	-185.471	0.222	0.003
-327.158	-169.808	0.227	-0.008
-326.143	800.000	-0.009	-0.024
-325.129	33.992	0.242	0.207
-324.114	-96.387	-0.542	-0.141
-323.099	-51.799	-0.338	0.155
-322.085	-99.870	0.162	0.040
-321.070	238.570	0.058	0.095
-320.056	-95.601	-0.276	0.073
-319.041	0.825	0.123	-0.087
-318.026	139.665	0.180	0.234
-317.012	-200.000	-0.066	-0.389
-315.997	-130.398	0.150	-0.020
-314.983	-200.000	-0.035	0.179
-313.968	121.407	-0.160	-0.196
-312.953	189.184	-0.056	-0.083
-311.939	800.000	-0.057	-0.219
-310.924	-162.553	-0.347	0.017
-309.910	-200.000	0.003	0.101
-308.895	-116.962	0.156	0.028
-307.880	-116.370	-0.242	-0.044
-306.866	800.000	-0.069	-0.210
-305.851	117.395	0.187	-0.227
-304.837	-200.000	0.268	0.000
-303.822	800.000	0.143	-0.444
-302.807	-117.184	0.274	0.049
-301.793	691.932	0.044	-0.113
-300.778	-200.000	0.024	-0.136
-299.764	800.000	0.054	-0.148
-298.749	800.000	0.109	-0.364
-297.735	-100.974	0.316	-0.076
-296.720	-90.830	-0.188	-0.053
-295.705	800.000	0.040	0.132
-294.691	164.141	0.079	-0.110
-293.676	256.169	0.135	-0.228
-292.662	-200.000	-0.028	0.183
-291.647	-171.387	-0.386	0.013
-290.632	800.000	-0.082	-0.307
-289.618	489.309	-0.045	0.101
-288.603	-200.000	0.040	-0.231
-287.589	154.727	-0.093	0.126
-286.574	487.018	0.065	0.145
-285.559	-115.275	0.197	-0.037
-284.545	-200.000	0.050	0.237
-283.530	800.000	0.132	-0.385
-282.516	800.000	-0.107	0.366
-281.501	500.992	-0.125	0.285
-280.486	-200.000	-0.014	0.076
-279.472	-200.000	0.032	0.509
-278.457	68.440	-0.235	0.237
-277.443	-86.635	0.255	0.077
-276.428	249.821	0.070	0.117
-275.413	-200.000	-0.013	0.146
-274.399	-32.804	0.208	-0.114
-273.384	-136.463	-0.176	0.020
-272.370	-162.437	-0.106	0.005
-271.355	-61.905	-0.295	-0.121
-270.340	-200.000	-0.042	-0.334
-269.326	-120.639	0.481	-0.080
-268.311	798.903	-0.051	0.139
-267.297	-106.766	0.153	-0.033
-266.282	-200.000	0.114	0.513
-265.267	114.767	-0.154	0.184
-264.253	269.621	-0.093	0.160
-263.238	-200.000	0.015	-0.081
-262.224	87.537	-0.174	-0.189
-261.209	-182.860	0.323	-0.006
-260.195	9.939	0.137	-0.102
-259.180	71.473	-0.104	-0.106
-258.165	63.019	0.129	-0.127
-257.151	-155.448	-0.109	-0.007
-256.136	156.347	0.154	-0.209
-255.122	-200.000	-0.005	-0.110
-254.107	79.837	0.096	-0.101
-253.092	-58.350	-0.166	-0.071
-252.078	-200.000	0.031	-0.257
-251.063	-144.391	0.289	0.026
-250.049	-200.000	0.029	-0.206
-249.034	9.118	-0.066	0.049
-248.019	346.969	-0.043	-0.084
-247.005	-200.000	-0.018	-0.122
-245.990	-200.000	0.047	-0.215
-244.976	-134.669	0.384	-0.046
-243.961	-58.918	-0.172	-0.073
-242.946	-23.553	0.207	-0.122
-241.932	-175.881	0.285	-0.007
-240.917	-200.000	0.013	-0.081
-239.903	-200.000	-0.025	0.205
-238.888	-6.113	0.104	-0.070
-237.873	-29.827	-0.028	-0.016
-236.859	131.762	-0.153	-0.193
-235.844	9.096	-0.184	-0.136
-234.830	-200.000	-0.042	-0.309
-233.815	-200.000	0.023	-0.369
-232.800	-200.000	0.035	-0.312
-231.786	14.950	-0.115	-0.088
-230.771	109.946	-0.156	0.183
-229.757	-169.844	0.297	0.010
-228.742	-200.000	0.033	-0.352
-227.727	242.248	0.053	-0.086
-226.713	-70.208	0.159	0.059
-225.698	-84.560	-0.179	-0.056
-224.684	41.826	-0.153	0.136
-223.669	800.000	0.129	0.376
-222.655	52.498	-0.179	0.168
-221.640	-196.754	0.130	0.001
-220.625	-37.338	-0.240	-0.126
-219.611	-200.000	-0.016	0.113
-218.596	-193.189	-0.095	0.001
-217.582	800.000	0.076	-0.229
-216.567	-200.000	-0.063	0.299
-215.552	-143.943	0.066	-0.006
-214.538	-56.435	0.289	-0.126
-213.523	-200.000	-0.027	0.191
-212.509	310.982	-0.262	0.481
-211.494	604.316	0.226	0.551
-210.479	-200.000	-0.037	0.196
-209.465	-200.000	-0.066	-0.368
-208.450	-121.587	0.150	0.024
-207.436	3.002	-0.065	-0.046
-206.421	-200.000	0.042	-0.232
-205.406	800.000	0.018	0.076
-204.392	-123.372	0.184	0.029
-203.377	-67.505	0.143	-0.055
-202.363	-103.181	-0.125	-0.029
-201.348	-57.407	0.141	0.061
-200.333	1.491	-0.203	0.143
-199.319	-70.203	0.311	0.116
-198.304	-18.245	-0.124	-0.076
-197.290	187.014	-0.052	0.076
-196.275	800.000	-0.027	0.103
-195.260	800.000	0.040	-0.128
-194.246	73.545	0.353	-0.362
-193.231	47.386	-0.246	-0.224
-192.217	37.345	-0.278	0.241
-191.202	-200.000	0.003	-0.025
-190.187	-200.000	0.036	-0.309
-189.173	428.620	0.097	0.206
-188.158	-145.011	0.042	-0.004
-187.144	-61.863	-0.289	0.118
-186.129	173.937	0.120	0.170
-185.114	55.814	-0.104	-0.099
-184.100	417.743	0.124	0.260
-183.085	217.920	0.247	0.386
-182.071	304.327	0.116	-0.210
-181.056	371.046	-0.141	-0.281
-180.042	185.032	0.184	0.267
-179.027	1.674	0.236	-0.166
-178.012	-21.370	0.124	0.074
-176.998	-75.103	0.437	0.153
-175.983	-200.000	-0.027	-0.196
-174.969	-199.829	-0.190	-0.001
-173.954	-81.419	-0.193	0.062
-172.939	13.213	0.192	-0.145
-171.925	-200.000	-0.032	0.225
-170.910	800.000	0.059	0.219
-169.896	650.688	-0.105	-0.264
-168.881	101.851	0.116	-0.132
-167.866	-200.000	-0.025	-0.161
-166.852	-69.907	0.157	-0.058
-165.837	-158.895	0.321	-0.018
-164.823	-5.162	-0.252	0.169
-163.808	-200.000	0.026	0.256
-162.793	26.138	-0.115	-0.094
-161.779	-172.868	0.246	-0.007
-160.764	800.000	0.063	-0.216
-159.750	-103.703	-0.169	-0.039
-158.735	54.891	0.083	0.078
-157.720	114.640	0.078	-0.093
-156.706	800.000	-0.057	-0.184
-155.691	-57.991	-0.278	0.119
-154.677	396.245	0.218	-0.446
-153.662	72.092	-0.188	-0.191
-152.647	-89.746	-0.153	0.044
-151.633	-200.000	-0.014	0.063
-150.618	76.156	0.152	0.157
-149.604	20.238	0.358	0.282
-148.589	366.309	-0.020	-0.040
-147.574	-90.743	0.450	-0.127
-146.560	231.150	0.071	0.113
-145.545	322.191	-0.023	-0.042
-144.531	800.000	0.034	-0.132
-143.516	-200.000	-0.006	-0.412
-142.502	76.833	-0.040	-0.042
-141.487	-65.074	0.122	0.048
-140.472	-19.639	-0.483	-0.292
-139.458	46.061	0.213	-0.193
-138.443	-103.365	-0.354	-0.082
-137.429	-56.823	0.337	0.146
-136.414	55.454	-0.228	0.216
-135.399	-75.633	0.240	-0.083
-134.385	622.449	-0.080	0.198
-133.370	253.335	-0.057	0.095
-132.356	-155.309	0.253	-0.016
-131.341	5.881	0.205	0.148
-130.326	65.152	-0.163	-0.161
-129.312	800.000	-0.060	-0.189
-128.297	-35.069	0.026	0.014
-127.283	1.759	0.096	0.067
-126.268	-200.000	0.021	0.232
-125.253	160.479	0.123	0.168
-124.239	-140.910	-0.043	-0.004
-123.224	-35.828	0.238	0.126
-122.210	149.747	-0.084	-0.112
-121.195	768.096	-0.050	-0.133
-120.180	62.641	0.254	-0.248
