DTS Sentinel unit serial number:	SN413079Multiplexer serial number:	ORYXHardware model number:	OX4-SRSoftware version number:	ORYX F/W v4.00 Oryx Data Collector v3.7.2.0data status	okinstallation	princeton_trtdifferential loss correction	single-endedforward channel	channel 2reverse channel	N/Adate	2019/09/12time	19:41:49forward acquisition time	15.00reverse acquisition time	0.00gamma	496.2192k internal	0.2327k external	0.2327temperature offset calibration	1.0149default loss term (dB/km)	0.3790temperature slope calibration	1.0000multiplexer offset coefficient	1.0000multiplexer slope coefficient	1.0000fibre end	0.00T internal ref (°C)	32.06T ext. ref 1 (°C)	3.36T ext. ref 2 (°C)	26.57length (m)	temperature (°C)	Stokes	anti-Stokes-747.200	-200.000	0.071	-0.816
-746.185	-200.000	0.028	-0.165
-745.171	79.853	0.248	-0.268
-744.156	-48.715	-0.388	-0.188
-743.142	-200.000	-0.133	-0.662
-742.127	-200.000	0.011	0.430
-741.112	-36.855	0.454	0.246
-740.098	700.892	0.170	0.450
-739.083	168.571	-0.416	0.597
-738.069	-105.790	-0.677	0.154
-737.054	313.634	-0.153	-0.291
-736.039	207.901	0.261	-0.410
-735.025	800.000	-0.209	0.824
-734.010	263.044	-0.182	-0.319
-732.996	-200.000	-0.000	0.204
-731.981	-63.821	-0.555	0.229
-730.966	3.708	0.347	-0.255
-729.952	-160.626	-0.388	0.021
-728.937	44.061	0.652	-0.603
-727.923	-200.000	-0.085	0.421
-726.908	-48.792	0.404	0.196
-725.894	33.739	0.510	-0.447
-724.879	36.114	-0.464	-0.411
-723.864	-73.697	0.725	0.266
-722.850	-70.986	-0.810	0.307
-721.835	-200.000	0.034	0.431
-720.821	-52.622	-0.067	-0.031
-719.806	-97.447	-1.220	-0.320
-718.791	-72.763	-0.410	0.152
-717.777	-22.917	0.505	-0.307
-716.762	336.796	0.175	0.342
-715.748	-200.000	0.169	-0.881
-714.733	-55.398	0.535	-0.242
-713.718	-200.000	-0.018	-0.434
-712.704	-72.146	0.416	-0.155
-711.689	65.671	-0.208	0.212
-710.675	-200.000	-0.010	0.387
-709.660	-57.997	0.431	0.189
-708.645	176.912	0.293	0.429
-707.631	-117.821	-0.972	0.176
-706.616	-61.007	0.789	0.335
-705.602	446.906	-0.404	0.895
-704.587	13.764	-0.904	-0.707
-703.572	359.277	0.253	0.510
-702.558	116.549	0.211	-0.261
-701.543	-4.229	-0.764	0.532
-700.529	21.077	0.409	-0.334
-699.514	78.324	-0.147	-0.158
-698.499	405.056	-0.154	-0.327
-697.485	-200.000	-0.283	1.446
-696.470	-110.930	-0.296	0.061
-695.456	27.648	-0.593	-0.502
-694.441	-12.353	-0.059	0.039
-693.426	-200.000	-0.009	-0.415
-692.412	-12.346	-0.432	0.284
-691.397	52.368	0.404	0.388
-690.383	103.922	0.455	-0.538
-689.368	623.897	-0.295	-0.747
-688.354	43.803	0.350	-0.322
-687.339	775.321	-0.029	0.080
-686.324	-160.590	1.040	-0.056
-685.310	255.922	-0.300	0.517
-684.295	-153.469	-0.101	-0.007
-683.281	14.332	0.993	0.779
-682.266	800.000	0.097	-0.270
-681.251	13.140	-0.269	0.210
-680.237	38.658	0.286	-0.257
-679.222	51.370	0.492	-0.470
-678.208	-1.723	-0.618	-0.438
-677.193	-66.606	0.219	0.087
-676.178	-165.779	-1.396	-0.060
-675.164	-77.426	0.536	-0.187
-674.149	89.214	-0.349	0.391
-673.135	-94.400	0.291	-0.080
-672.120	598.633	0.348	0.868
-671.105	152.267	-0.613	0.841
-670.091	800.000	-0.068	0.234
-669.076	-114.423	-0.571	-0.110
-668.062	44.460	0.415	0.383
-667.047	800.000	0.241	-0.919
-666.032	296.488	-0.260	-0.479
-665.018	800.000	-0.140	-0.539
-664.003	-90.867	-0.952	0.276
-662.989	350.400	-0.258	-0.514
-661.974	-91.812	-0.395	-0.113
-660.959	-200.000	0.078	0.419
-659.945	-200.000	-0.026	0.237
-658.930	-67.993	0.851	-0.334
-657.916	-24.588	-0.117	0.070
-656.901	-200.000	0.030	-0.518
-655.886	-57.752	0.292	0.128
-654.872	3.134	0.388	-0.284
-653.857	245.613	-0.275	0.465
-652.843	-200.000	0.081	-0.541
-651.828	520.963	-0.102	0.241
-650.814	-94.568	-1.140	-0.312
-649.799	-200.000	-0.036	-0.355
-648.784	6.429	0.557	0.416
-647.770	-115.961	-0.675	-0.126
-646.755	87.849	0.243	-0.271
-645.741	177.160	-0.242	0.354
-644.726	800.000	-0.369	-1.069
-643.711	-51.979	0.427	0.200
-642.697	-54.568	0.493	-0.224
-641.682	88.890	0.352	0.393
-640.668	-2.779	-0.259	0.182
-639.653	-17.673	-0.472	0.298
-638.638	-104.209	0.845	-0.197
-637.624	800.000	0.156	0.449
-636.609	800.000	-0.224	0.647
-635.595	280.309	-0.098	-0.176
-634.580	141.607	-0.339	-0.450
-633.565	800.000	-0.095	-0.300
-632.551	-139.311	-0.594	-0.064
-631.536	292.235	0.281	0.514
-630.522	-200.000	0.150	-0.731
-629.507	-91.360	0.085	0.024
-628.492	590.146	-0.254	0.628
-627.478	151.933	0.231	-0.316
-626.463	-127.874	-0.242	0.035
-625.449	24.732	0.559	0.465
-624.434	-61.020	0.208	-0.088
-623.419	-13.488	-0.544	-0.354
-622.405	-123.387	-0.440	0.070
-621.390	800.000	0.159	0.573
-620.376	-129.377	-0.454	0.063
-619.361	46.138	0.553	0.514
-618.346	24.000	0.323	-0.267
-617.332	98.629	-0.373	0.431
-616.317	217.760	-0.136	0.218
-615.303	83.216	-0.273	-0.299
-614.288	-200.000	0.026	-0.307
-613.273	270.794	0.080	0.141
-612.259	-58.885	-0.744	0.323
-611.244	-77.520	0.464	-0.161
-610.230	145.786	-0.248	-0.334
-609.215	-200.000	-0.011	-0.438
-608.201	437.741	-0.139	-0.304
-607.186	68.956	0.156	0.161
-606.171	-87.907	0.325	-0.098
-605.157	800.000	0.116	0.398
-604.142	-40.337	-0.163	0.085
-603.128	-111.458	0.225	-0.046
-602.113	-118.755	0.299	0.053
-601.098	-93.094	-0.361	0.101
-600.084	717.151	-0.157	-0.418
-599.069	-71.041	0.300	-0.113
-598.055	-200.000	-0.111	-0.969
-597.040	360.845	-0.130	-0.261
-596.025	-28.323	0.440	0.255
-595.011	800.000	0.101	-0.344
-593.996	165.495	-0.212	-0.301
-592.982	33.060	-0.452	-0.393
-591.967	307.401	-0.161	0.300
-590.952	192.850	0.259	-0.393
-589.938	-200.000	0.051	0.484
-588.923	-72.859	-0.658	-0.243
-587.909	136.552	-0.233	-0.305
-586.894	218.654	0.232	-0.371
-585.879	-200.000	0.109	0.533
-584.865	800.000	0.248	0.821
-583.850	50.587	-0.694	-0.658
-582.836	-200.000	-0.065	-0.557
-581.821	-200.000	0.078	0.610
-580.806	-200.000	-0.086	-0.967
-579.792	800.000	0.129	-0.431
-578.777	163.398	-0.474	-0.668
-577.763	-35.983	0.415	-0.225
-576.748	-163.453	-0.303	0.014
-575.733	-7.765	0.337	-0.228
-574.719	-32.339	-0.248	-0.139
-573.704	-21.088	-0.406	-0.249
-572.690	-200.000	-0.044	0.419
-571.675	-123.823	-1.057	0.167
-570.661	253.133	-0.489	-0.835
-569.646	90.438	0.473	0.530
-568.631	-200.000	-0.024	-0.271
-567.617	-200.000	0.080	0.677
-566.602	33.741	-0.189	0.165
-565.588	59.972	0.236	0.233
-564.573	433.140	-0.185	-0.402
-563.558	800.000	0.206	0.591
-562.544	-53.797	-0.632	-0.289
-561.529	-48.322	-0.177	-0.085
-560.515	-200.000	-0.048	-1.188
-559.500	65.109	0.170	-0.172
-558.485	36.926	0.474	-0.419
-557.471	-156.507	-1.354	-0.084
-556.456	158.543	-0.122	-0.170
-555.442	-86.650	0.271	-0.083
-554.427	238.469	0.062	-0.102
-553.412	33.559	0.418	-0.363
-552.398	130.807	0.410	-0.527
-551.383	-11.156	-0.528	-0.348
-550.369	-200.000	0.025	0.516
-549.354	800.000	0.290	1.147
-548.339	470.866	-0.239	0.538
-547.325	-87.976	1.119	-0.337
-546.310	-7.378	-0.320	-0.217
-545.296	53.765	0.616	0.592
-544.281	373.433	0.030	0.061
-543.266	-113.966	-0.839	-0.163
-542.252	-25.097	0.710	0.421
-541.237	267.308	-0.288	-0.504
-540.223	-200.000	-0.060	-0.363
-539.208	87.304	0.358	-0.396
-538.193	-118.910	0.166	-0.029
-537.179	-18.942	-0.223	0.139
-536.164	104.148	0.216	0.254
-535.150	273.814	-0.305	-0.540
-534.135	-200.000	0.061	0.391
-533.121	-92.070	-0.320	0.091
-532.106	-200.000	-0.059	0.744
-531.091	151.953	0.562	0.767
-530.077	-79.921	-0.527	-0.177
-529.062	529.444	-0.299	0.705
-528.048	-80.995	0.144	0.048
-527.033	-123.427	-0.428	0.068
-526.018	-55.467	-0.238	0.106
-525.004	709.624	0.152	-0.402
-523.989	228.089	-0.125	0.204
-522.975	-200.000	0.063	0.312
-521.960	233.999	-0.161	-0.265
-520.945	326.549	-0.310	-0.593
-519.931	67.820	-0.120	0.123
-518.916	-199.689	0.344	-0.002
-517.902	-200.000	-0.033	-0.278
-516.887	-200.000	0.100	-0.539
-515.872	26.567	0.424	-0.355
-514.858	100.618	0.232	-0.269
-513.843	800.000	-0.358	0.990
-512.829	-97.099	-0.469	0.123
-511.814	-151.156	0.446	0.033
-510.799	-69.324	0.403	-0.154
-509.785	800.000	0.079	-0.263
-508.770	-200.000	-0.039	0.361
-507.756	13.998	0.449	-0.349
-506.741	-87.815	0.256	-0.077
-505.726	111.673	0.401	0.483
-504.712	362.258	0.212	-0.424
-503.697	-136.492	0.414	-0.048
-502.683	35.531	-0.496	0.435
-501.668	800.000	0.122	-0.473
-500.653	-200.000	-0.016	-0.232
-499.639	-49.427	0.529	0.252
-498.624	-76.870	-0.527	-0.184
-497.610	-117.594	-0.207	0.037
-496.595	-200.000	0.182	1.041
-495.581	800.000	0.064	-0.235
-494.566	78.670	-0.416	-0.444
-493.551	-65.801	-0.917	-0.367
-492.537	630.464	-0.269	0.681
-491.522	-200.000	0.106	1.196
-490.508	402.046	-0.251	0.527
-489.493	41.775	0.453	-0.410
-488.478	-48.072	-0.823	-0.397
-487.464	-200.000	-0.053	-0.779
-486.449	20.085	0.091	0.073
-485.435	23.607	-0.449	0.369
-484.420	-162.848	-0.382	-0.019
-483.405	-176.524	0.664	-0.017
-482.391	-200.000	0.004	-0.179
-481.376	-105.588	0.433	0.098
-480.362	-153.916	-0.464	0.032
-479.347	-17.060	0.481	-0.303
-478.332	800.000	0.077	0.273
-477.318	-36.979	-0.534	0.286
-476.303	-200.000	0.002	0.447
-475.289	-200.000	-0.122	0.669
-474.274	102.747	-0.523	0.611
-473.259	272.504	0.272	0.479
-472.245	-39.405	-1.073	0.562
-471.230	-32.404	0.152	-0.084
-470.216	-200.000	0.008	-0.573
-469.201	-111.351	0.596	-0.121
-468.186	328.798	-0.149	0.285
-467.172	164.835	0.365	0.514
-466.157	-29.471	-0.708	0.404
-465.143	-116.847	0.148	0.027
-464.128	-200.000	-0.003	1.204
-463.113	-28.454	-0.562	-0.323
-462.099	-200.000	-0.075	-0.373
-461.084	-173.645	-0.274	-0.008
-460.070	-176.231	-0.788	-0.021
-459.055	-10.681	0.436	-0.288
-458.040	146.063	-0.440	-0.588
-457.026	55.642	-0.246	-0.237
-456.011	-200.000	0.034	0.457
-454.997	11.023	-0.474	0.361
-453.982	-1.534	0.248	0.175
-452.968	86.973	-0.089	-0.098
-451.953	-93.442	-0.734	-0.203
-450.938	89.731	-0.649	0.722
-449.924	102.566	0.397	0.463
-448.909	32.199	-0.320	0.276
-447.895	-200.000	0.106	-0.501
-446.880	-101.256	-0.728	0.177
-445.865	-144.172	0.631	0.059
-444.851	-61.004	-0.279	-0.117
-443.836	-58.131	-0.475	-0.206
-442.822	-110.303	-0.406	-0.084
-441.807	-200.000	-0.012	1.131
-440.792	30.180	-0.476	-0.405
-439.778	800.000	-0.073	0.283
-438.763	33.966	0.691	0.599
-437.749	85.905	0.203	0.222
-436.734	109.283	0.188	0.224
-435.719	657.253	0.314	0.805
-434.705	504.967	-0.070	0.161
-433.690	247.274	-0.050	0.083
-432.676	278.303	-0.309	0.548
-431.661	406.641	0.295	0.621
-430.646	-45.450	0.389	-0.192
-429.632	362.142	-0.026	0.053
-428.617	-200.000	0.008	-0.326
-427.603	110.879	0.381	-0.457
-426.588	-56.081	0.585	0.260
-425.573	607.404	-0.241	-0.599
-424.559	-66.424	-0.741	-0.293
-423.544	43.587	-0.304	-0.277
-422.530	144.930	-0.491	-0.654
-421.515	800.000	-0.176	0.506
-420.500	-120.063	0.161	0.027
-419.486	39.579	-0.455	0.406
-418.471	238.279	0.372	-0.615
-417.457	-18.228	0.308	-0.192
-416.442	122.362	-0.353	-0.439
-415.428	-58.278	-0.598	0.259
-414.413	800.000	0.148	-0.433
-413.398	-55.443	-0.380	0.170
-412.384	300.002	-0.269	0.494
-411.369	-200.000	-0.092	0.689
-410.355	-94.513	0.176	-0.048
-409.340	-200.000	-0.019	-0.297
-408.325	-200.000	-0.035	-0.556
-407.311	-70.238	0.499	-0.189
-406.296	461.422	0.049	-0.108
-405.282	575.408	0.206	0.501
-404.267	187.926	0.429	-0.637
-403.252	765.799	-0.366	-0.990
-402.238	84.319	-0.277	0.301
-401.223	253.911	0.184	0.313
-400.209	-183.863	0.420	-0.007
-399.194	32.175	-0.313	0.268
-398.179	-200.000	-0.016	-0.431
-397.165	-51.181	0.372	-0.173
-396.150	15.443	0.127	0.099
-395.136	35.476	0.575	0.502
-394.121	-130.586	0.536	0.072
-393.106	800.000	-0.336	-0.983
-392.092	-110.868	1.047	-0.214
-391.077	132.386	0.617	0.791
-390.063	29.685	-0.443	-0.375
-389.048	233.325	-0.032	0.052
-388.033	3.532	0.641	0.464
-387.019	-28.172	0.197	0.113
-386.004	-161.293	0.961	0.050
-384.990	718.561	0.285	-0.752
-383.975	-200.000	0.113	0.500
-382.960	-28.007	0.426	0.245
-381.946	-14.085	0.508	-0.326
-380.931	-142.061	0.811	0.080
-379.917	-196.161	0.700	-0.005
-378.902	43.969	-0.265	-0.241
-377.888	-87.462	-0.420	-0.126
-376.873	-47.312	0.540	-0.261
-375.858	36.753	-0.350	-0.308
-374.844	-134.151	0.213	0.026
-373.829	260.731	-0.173	-0.297
-372.815	-200.000	0.112	-0.670
-371.800	-200.000	0.102	0.590
-370.785	-200.000	0.016	-0.074
-369.771	-42.128	-0.564	-0.287
-368.756	-200.000	0.005	-0.125
-367.742	-110.672	0.174	0.036
-366.727	109.758	-0.443	0.528
-365.712	-184.828	-0.736	0.012
-364.698	-200.000	0.058	-0.375
-363.683	-53.396	0.088	0.040
-362.669	-0.034	0.436	-0.309
-361.654	74.766	-0.075	0.078
-360.639	-138.533	0.875	0.095
-359.625	-88.286	-0.670	0.199
-358.610	27.590	-0.188	-0.157
-357.596	800.000	0.240	-0.848
-356.581	81.237	-0.246	-0.264
-355.566	800.000	-0.010	0.042
-354.552	389.026	-0.304	0.625
-353.537	-200.000	0.046	-0.244
-352.523	800.000	0.233	-0.935
-351.508	6.286	0.545	-0.402
-350.493	-5.502	0.102	0.069
-349.479	-95.261	-0.437	-0.117
-348.464	311.926	0.569	1.061
-347.450	-143.914	-0.391	-0.037
-346.435	29.945	0.244	0.206
-345.420	408.499	-0.177	0.372
-344.406	-115.535	1.075	-0.201
-343.391	-200.000	0.012	-0.301
-342.377	38.152	0.539	0.476
-341.362	-26.336	-0.403	0.234
-340.348	103.282	0.064	0.074
-339.333	-200.000	0.008	-0.162
-338.318	-187.115	-0.637	-0.009
-337.304	-34.523	0.663	-0.360
-336.289	47.459	-0.067	-0.062
-335.275	417.422	0.321	0.681
-334.260	-146.882	0.488	0.042
-333.245	-14.433	-0.449	0.287
-332.231	-200.000	0.017	0.507
-331.216	-78.795	0.682	-0.231
-330.202	-124.489	-0.276	-0.043
-329.187	-147.628	-0.481	-0.040
-328.172	800.000	0.074	-0.228
-327.158	53.144	0.299	-0.284
-326.143	191.414	0.190	-0.284
-325.129	-55.915	0.568	0.251
-324.114	-40.511	-0.286	0.147
-323.099	-39.773	-0.473	0.245
-322.085	-14.214	-0.143	-0.092
-321.070	-200.000	0.022	-0.123
-320.056	-200.000	-0.030	-1.043
-319.041	-77.069	0.566	0.196
-318.026	-64.182	0.678	0.274
-317.012	800.000	0.127	0.441
-315.997	627.870	-0.216	0.540
-314.983	-200.000	0.106	0.665
-313.968	-112.695	0.542	0.107
-312.953	-2.542	0.368	0.255
-311.939	800.000	0.202	0.675
-310.924	-150.001	-0.419	0.032
-309.910	-200.000	0.109	-0.795
-308.895	-0.586	0.305	-0.214
-307.880	800.000	0.212	-0.656
-306.866	195.272	-0.565	0.851
-305.851	-107.875	0.998	-0.215
-304.837	-200.000	0.006	0.132
-303.822	-152.261	-0.537	-0.038
-302.807	800.000	-0.226	0.641
-301.793	19.578	0.159	-0.127
-300.778	235.101	-0.579	0.947
-299.764	-200.000	-0.097	0.742
-298.749	-33.170	0.917	0.504
-297.735	521.763	-0.116	-0.270
-296.720	54.837	0.459	-0.439
-295.705	-64.955	-1.103	-0.442
-294.691	-112.168	0.303	0.060
-293.676	143.136	-0.439	0.578
-292.662	57.462	-0.579	0.560
-291.647	-116.536	0.465	0.085
-290.632	171.724	-0.213	0.304
-289.618	-200.000	0.000	-0.271
-288.603	800.000	-0.152	0.511
-287.589	-5.589	0.390	-0.265
-286.574	57.465	0.357	0.345
-285.559	-200.000	-0.014	-0.772
-284.545	-64.473	0.171	0.069
-283.530	-200.000	-0.001	-0.381
-282.516	-47.819	-0.609	-0.292
-281.501	800.000	0.153	0.488
-280.486	199.263	0.164	-0.248
-279.472	-163.257	0.634	0.030
-278.457	-200.000	0.027	-0.300
-277.443	-11.699	-0.574	-0.373
-276.428	452.512	0.389	-0.852
-275.413	-56.614	-0.474	-0.208
-274.399	-121.003	0.505	0.084
-273.384	547.511	-0.280	-0.664
-272.370	-174.761	-0.821	-0.023
-271.355	-7.819	0.279	0.187
-270.340	-0.003	-0.671	-0.473
-269.326	-78.762	0.677	0.229
-268.311	-117.609	0.714	-0.127
-267.297	269.082	-0.314	-0.546
-266.282	59.034	0.401	0.391
-265.267	108.850	-0.345	-0.408
-264.253	-200.000	0.009	-0.601
-263.238	-200.000	-0.009	-0.988
-262.224	-150.249	-0.193	0.015
-261.209	-105.355	0.643	-0.145
-260.195	3.000	-0.187	0.134
-259.180	48.771	-0.196	-0.182
-258.165	-118.971	-0.506	0.088
-257.151	186.707	-0.100	0.148
-256.136	276.315	-0.438	0.769
-255.122	59.479	-0.270	0.263
-254.107	-130.423	0.804	-0.108
-253.092	-23.626	0.343	-0.203
-252.078	31.811	0.378	-0.322
-251.063	-143.567	-0.782	0.074
-250.049	175.198	-0.134	-0.192
-249.034	719.470	0.079	-0.207
-248.019	291.767	0.317	-0.570
-247.005	-103.758	-0.482	-0.112
-245.990	-149.306	-0.416	0.033
-244.976	288.387	0.206	-0.370
-243.961	-112.811	-0.219	-0.043
-242.946	-48.098	0.298	-0.142
-241.932	-151.142	-0.965	-0.072
-240.917	54.729	0.110	0.105
-239.903	800.000	-0.151	-0.523
-238.888	-76.103	0.528	0.184
-237.873	-64.380	-1.018	0.409
-236.859	800.000	-0.191	0.705
-235.844	45.762	0.420	0.384
-234.830	80.303	-0.343	0.365
-233.815	187.734	-0.145	-0.215
-232.800	92.564	-0.596	-0.665
-231.786	506.202	-0.179	0.410
-230.771	666.199	-0.370	-0.945
-229.757	58.645	0.254	-0.247
-228.742	-0.066	0.146	0.103
-227.727	-200.000	0.039	0.263
-226.713	61.884	0.257	0.253
-225.698	79.259	-0.686	-0.727
-224.684	54.719	0.335	-0.319
-223.669	290.623	0.227	0.407
-222.655	37.574	0.753	-0.660
-221.640	574.083	-0.274	0.661
-220.625	-200.000	0.162	0.995
-219.611	16.294	0.671	0.523
-218.596	-102.514	-0.297	0.070
-217.582	-141.040	0.031	0.003
-216.567	335.152	0.202	0.388
-215.552	-200.000	0.163	-0.860
-214.538	-93.309	0.640	0.176
-213.523	508.442	0.419	-0.960
-212.509	-88.388	-0.614	0.181
-211.494	443.335	-0.288	-0.623
-210.479	144.890	0.692	-0.914
-209.465	73.674	0.127	-0.131
-208.450	56.528	-0.277	0.266
-207.436	-133.422	-0.499	-0.062
-206.421	288.110	-0.301	-0.538
-205.406	-34.381	-0.343	-0.186
-204.392	-171.289	0.632	0.021
-203.377	100.849	0.370	0.424
-202.363	-200.000	-0.093	0.509
-201.348	88.294	-0.456	0.499
-200.333	-200.000	-0.052	-0.342
-199.319	-24.561	-0.481	0.283
-198.304	-69.557	-0.660	-0.249
-197.290	-165.854	0.146	-0.006
-196.275	-133.656	0.564	0.070
-195.260	79.707	-0.283	-0.300
-194.246	129.719	-0.395	0.499
-193.231	-50.597	0.445	0.207
-192.217	156.171	0.495	-0.674
-191.202	378.096	-0.420	0.847
-190.187	129.640	0.154	0.195
-189.173	-64.004	-0.078	0.031
-188.158	-200.000	0.115	0.864
-187.144	-200.000	-0.103	0.591
-186.129	800.000	-0.099	0.285
-185.114	-172.316	-0.277	-0.009
-184.100	148.961	-0.131	0.175
-183.085	-89.650	0.280	-0.081
-182.071	80.577	-0.443	0.470
-181.056	-37.179	0.283	-0.149
-180.042	-200.000	0.037	0.943
-179.027	-115.423	0.099	-0.018
-178.012	-64.508	-0.352	-0.141
-176.998	38.075	-0.471	-0.413
-175.983	37.163	0.678	0.592
-174.969	46.754	0.748	0.685
-173.954	72.880	0.747	-0.769
-172.939	800.000	-0.130	0.480
-171.925	24.944	0.232	-0.189
-170.910	-99.744	0.435	0.107
-169.896	440.863	0.139	-0.301
-168.881	-18.163	-0.295	0.182
-167.866	-17.181	0.557	-0.346
-166.852	98.261	0.757	-0.860
-165.837	-200.000	0.051	0.257
-164.823	-33.565	-0.655	-0.357
-163.808	-51.837	-0.222	-0.102
-162.793	-57.830	0.354	-0.153
-161.779	-124.750	0.531	0.081
-160.764	25.709	-0.460	-0.377
-159.750	146.272	-0.077	-0.101
-158.735	4.397	0.646	0.467
-157.720	-161.013	-1.406	-0.073
-156.706	-58.892	0.262	0.112
-155.691	-194.835	0.367	0.003
-154.677	137.888	-0.333	0.429
-153.662	-47.309	0.670	0.321
-152.647	143.342	0.181	-0.237
-151.633	298.722	-0.301	-0.546
-150.618	751.232	0.288	0.766
-149.604	-29.840	-0.468	0.263
-148.589	800.000	-0.158	0.441
-147.574	-134.411	-0.531	-0.064
-146.560	-66.167	0.577	0.227
-145.545	-200.000	-0.018	0.708
-144.531	446.377	-0.219	0.473
-143.516	-113.143	-0.789	-0.153
-142.502	-133.840	1.263	-0.155
-141.487	-56.281	0.050	0.022
-140.472	10.097	0.227	-0.170
-139.458	-113.418	0.187	0.036
-138.443	-61.256	-0.173	-0.072
-137.429	115.845	-0.290	-0.350
-136.414	-57.014	-0.492	0.214
-135.399	-8.142	-0.216	0.143
-134.385	-117.379	-0.290	0.052
-133.370	7.346	-0.377	0.277
-132.356	-141.304	0.266	-0.027
-131.341	59.375	0.340	0.330
-130.326	-160.639	0.592	0.031
-129.312	-37.315	-0.633	0.333
-128.297	109.540	0.063	0.074
-127.283	-200.000	-0.024	1.497
-126.268	-39.824	-0.810	0.417
-125.253	-64.709	-0.495	0.197
-124.239	-200.000	0.110	0.862
-123.224	-37.578	-0.316	-0.166
-122.210	-73.952	-0.199	-0.071
-121.195	-24.311	0.864	0.507
