DTS Sentinel unit serial number:	SN413079Multiplexer serial number:	ORYXHardware model number:	OX4-SRSoftware version number:	ORYX F/W v4.00 Oryx Data Collector v3.7.2.0data status	okinstallation	princeton_trtdifferential loss correction	single-endedforward channel	channel 2reverse channel	N/Adate	2019/09/11time	01:01:11forward acquisition time	60.00reverse acquisition time	0.00gamma	496.2192k internal	0.2332k external	0.2332temperature offset calibration	0.9944default loss term (dB/km)	0.3790temperature slope calibration	1.0000multiplexer offset coefficient	1.0000multiplexer slope coefficient	1.0000fibre end	0.00T internal ref (°C)	29.14T ext. ref 1 (°C)	-0.31T ext. ref 2 (°C)	22.92length (m)	temperature (°C)	Stokes	anti-Stokes-747.200	35.888	0.290	-0.257
-746.185	-62.395	-0.058	-0.024
-745.171	-73.975	0.076	0.028
-744.156	-13.972	-0.159	0.103
-743.142	10.451	0.144	0.110
-742.127	-15.531	0.343	-0.221
-741.112	628.768	0.029	-0.073
-740.098	2.682	0.299	-0.218
-739.083	-140.415	0.044	0.005
-738.069	-200.000	0.062	0.366
-737.054	117.746	0.104	0.129
-736.039	104.459	0.090	-0.106
-735.025	-200.000	0.028	0.286
-734.010	-140.691	-0.229	-0.024
-732.996	620.233	-0.129	-0.327
-731.981	-22.580	0.505	-0.307
-730.966	31.183	-0.283	-0.244
-729.952	800.000	-0.069	0.254
-728.937	-38.338	-0.066	0.035
-727.923	-28.464	0.133	0.077
-726.908	-135.551	-0.176	0.021
-725.894	-114.097	-0.266	-0.052
-724.879	-200.000	0.010	0.087
-723.864	-200.000	0.009	0.175
-722.850	12.893	-0.070	-0.054
-721.835	583.994	-0.030	0.075
-720.821	-89.291	0.056	-0.017
-719.806	246.196	0.111	-0.188
-718.791	800.000	0.111	-0.324
-717.777	427.856	0.097	-0.209
-716.762	-34.786	0.135	0.074
-715.748	-200.000	-0.008	-0.214
-714.733	110.656	-0.212	0.256
-713.718	-60.455	-0.140	0.060
-712.704	276.237	0.135	-0.242
-711.689	800.000	0.016	-0.046
-710.675	-6.142	0.298	0.205
-709.660	800.000	0.017	-0.050
-708.645	-23.575	-0.231	0.139
-707.631	-29.076	-0.124	-0.072
-706.616	459.450	-0.121	0.271
-705.602	-200.000	0.079	0.379
-704.587	800.000	0.071	-0.228
-703.572	-147.465	-0.349	0.030
-702.558	79.015	0.160	-0.172
-701.543	-170.139	0.240	0.009
-700.529	-47.994	-0.157	-0.076
-699.514	800.000	0.131	-0.417
-698.499	-115.923	-0.481	0.090
-697.485	-200.000	-0.024	-0.115
-696.470	-28.625	-0.148	-0.085
-695.456	800.000	-0.102	0.328
-694.441	-200.000	0.037	-0.246
-693.426	27.937	0.125	0.106
-692.412	515.469	0.045	-0.105
-691.397	144.266	0.097	0.130
-690.383	-200.000	-0.017	0.296
-689.368	-110.525	0.328	-0.068
-688.354	-186.575	-0.299	-0.004
-687.339	-48.934	0.114	-0.055
-686.324	181.239	-0.022	0.033
-685.310	124.557	0.323	-0.408
-684.295	100.048	-0.307	-0.357
-683.281	-117.455	-0.135	0.025
-682.266	194.835	-0.160	0.244
-681.251	800.000	-0.056	-0.182
-680.237	130.077	0.159	-0.204
-679.222	195.031	-0.040	-0.061
-678.208	514.925	-0.161	0.376
-677.193	-140.127	0.351	0.037
-676.178	611.406	0.098	0.245
-675.164	-200.000	0.004	0.028
-674.149	-57.600	-0.138	0.061
-673.135	49.334	0.130	-0.123
-672.120	764.941	0.058	-0.158
-671.105	-200.000	0.021	0.093
-670.091	365.660	0.097	-0.196
-669.076	800.000	-0.094	-0.268
-668.062	-30.161	-0.259	0.147
-667.047	-200.000	0.006	0.345
-666.032	-51.865	-0.132	-0.062
-665.018	420.701	0.211	-0.453
-664.003	300.213	-0.120	-0.221
-662.989	-106.666	-0.264	0.059
-661.974	-84.611	0.078	-0.025
-660.959	70.842	0.080	0.083
-659.945	133.130	-0.191	0.247
-658.930	25.560	-0.130	-0.109
-657.916	-170.426	0.158	0.006
-656.901	138.530	-0.285	0.375
-655.886	282.967	0.025	0.045
-654.872	-112.140	0.336	-0.068
-653.857	800.000	-0.047	-0.180
-652.843	33.391	0.106	-0.092
-651.828	-200.000	-0.006	-0.336
-650.814	-78.771	0.085	0.029
-649.799	-200.000	-0.003	0.268
-648.784	-163.126	0.296	-0.014
-647.770	-159.498	-0.251	0.014
-646.755	12.808	-0.194	0.150
-645.741	645.061	-0.140	-0.359
-644.726	-200.000	-0.095	-0.492
-643.711	3.413	-0.444	0.324
-642.697	118.307	-0.028	0.035
-641.682	298.931	0.239	-0.441
-640.668	-50.692	-0.195	-0.092
-639.653	-110.880	-0.274	0.057
-638.638	280.613	0.032	-0.058
-637.624	800.000	-0.022	-0.095
-636.609	199.521	0.141	0.217
-635.595	119.787	-0.272	-0.338
-634.580	-200.000	0.007	0.129
-633.565	338.046	-0.188	0.367
-632.551	-121.287	-0.162	0.027
-631.536	-17.973	-0.252	-0.158
-630.522	-63.687	0.248	0.102
-629.507	-200.000	0.009	0.096
-628.492	482.195	0.105	-0.239
-627.478	-51.054	0.211	0.099
-626.463	188.328	-0.109	-0.163
-625.449	21.031	-0.104	0.085
-624.434	115.178	0.079	0.097
-623.419	-200.000	-0.020	0.238
-622.405	73.563	0.032	-0.033
-621.390	-43.559	0.141	-0.071
-620.376	800.000	-0.062	-0.263
-619.361	-41.774	-0.362	0.186
-618.346	-200.000	0.003	-0.043
-617.332	766.770	0.015	-0.041
-616.317	800.000	-0.115	-0.334
-615.303	-142.491	-0.173	-0.017
-614.288	-200.000	0.006	0.061
-613.273	305.417	-0.101	0.187
-612.259	3.643	0.360	0.263
-611.244	-19.075	-0.275	-0.171
-610.230	-200.000	-0.003	-0.262
-609.215	800.000	0.059	0.211
-608.201	762.967	0.115	-0.313
-607.186	233.625	-0.126	0.207
-606.171	-96.466	0.068	0.018
-605.157	-200.000	0.065	-0.383
-604.142	1.784	0.129	-0.093
-603.128	426.834	-0.102	0.219
-602.113	288.571	0.030	0.053
-601.098	26.601	0.315	-0.264
-600.084	75.465	0.232	0.245
-599.069	184.983	-0.207	0.308
-598.055	-200.000	-0.003	-0.170
-597.040	800.000	-0.108	-0.336
-596.025	-105.986	0.080	0.018
-595.011	-200.000	0.027	-0.148
-593.996	-180.415	-0.060	-0.001
-592.982	34.954	0.150	0.131
-591.967	-126.269	-0.250	-0.037
-590.952	-200.000	0.029	-0.166
-589.938	-69.320	-0.080	0.031
-588.923	-35.465	-0.134	-0.073
-587.909	-200.000	-0.062	0.482
-586.894	-93.472	-0.215	-0.059
-585.879	324.213	-0.160	0.306
-584.865	800.000	0.040	0.140
-583.850	675.087	-0.063	-0.162
-582.836	-180.367	0.596	-0.012
-581.821	-200.000	0.064	-0.287
-580.806	-85.326	-0.131	-0.041
-579.792	-101.411	-0.406	-0.099
-578.777	-5.571	0.249	-0.171
-577.763	-176.144	0.201	0.005
-576.748	-200.000	-0.001	-0.158
-575.733	79.766	-0.183	0.197
-574.719	-113.847	0.304	0.059
-573.704	-200.000	0.014	-0.071
-572.690	-144.593	-0.282	-0.026
-571.675	800.000	0.100	0.307
-570.661	43.495	0.070	-0.064
-569.646	54.860	0.135	0.130
-568.631	50.939	-0.040	0.038
-567.617	-200.000	-0.071	0.466
-566.602	60.246	0.165	0.163
-565.588	-29.628	0.143	-0.081
-564.573	-117.561	0.189	0.034
-563.558	599.499	0.049	-0.122
-562.544	-101.425	0.285	0.069
-561.529	69.165	-0.254	-0.261
-560.515	105.766	-0.382	0.452
-559.500	409.428	0.172	0.363
-558.485	-126.436	-0.333	0.050
-557.471	-30.767	0.335	-0.189
-556.456	39.424	-0.072	-0.064
-555.442	14.799	-0.132	-0.103
-554.427	31.921	0.121	-0.104
-553.412	800.000	0.073	-0.273
-552.398	-16.170	0.216	-0.137
-551.383	-142.199	-0.110	-0.011
-550.369	-35.608	0.214	0.116
-549.354	-65.114	0.086	-0.035
-548.339	151.051	-0.083	0.113
-547.325	160.341	0.047	0.065
-546.310	257.420	0.096	-0.165
-545.296	25.805	0.312	-0.259
-544.281	-200.000	-0.024	-0.127
-543.266	-20.315	-0.300	-0.184
-542.252	-200.000	-0.029	-0.167
-541.237	-200.000	-0.016	-0.422
-540.223	84.602	0.177	-0.193
-539.208	800.000	-0.035	-0.112
-538.193	27.506	-0.199	0.167
-537.179	800.000	-0.058	0.216
-536.164	-200.000	-0.004	-0.097
-535.150	-124.621	0.213	0.033
-534.135	301.223	-0.150	-0.277
-533.121	20.217	0.275	0.221
-532.106	-61.862	-0.094	-0.039
-531.091	-137.859	0.373	0.042
-530.077	-121.751	0.134	0.022
-529.062	100.370	0.119	-0.138
-528.048	-200.000	-0.021	-0.404
-527.033	-200.000	0.007	0.173
-526.018	-200.000	-0.009	0.054
-525.004	295.487	0.030	-0.054
-523.989	-160.813	0.376	-0.020
-522.975	-168.476	0.320	-0.012
-521.960	800.000	-0.018	-0.063
-520.945	-200.000	-0.045	-0.223
-519.931	264.577	0.203	-0.352
-518.916	39.701	0.145	0.130
-517.902	800.000	-0.064	0.182
-516.887	537.927	-0.034	-0.081
-515.872	-27.635	0.135	0.078
-514.858	-67.856	-0.487	0.190
-513.843	153.051	0.114	-0.155
-512.829	-90.810	-0.080	0.023
-511.814	0.914	-0.128	-0.092
-510.799	134.697	0.137	-0.178
-509.785	-200.000	-0.015	-0.128
-508.770	-200.000	-0.002	0.153
-507.756	127.870	-0.235	-0.298
-506.741	84.082	-0.011	-0.012
-505.726	-68.676	-0.192	-0.074
-504.712	106.126	-0.110	-0.130
-503.697	-26.352	-0.152	0.089
-502.683	45.266	0.056	-0.052
-501.668	-200.000	0.015	-0.330
-500.653	-35.784	0.141	-0.076
-499.639	-200.000	-0.012	0.204
-498.624	-37.564	0.091	0.048
-497.610	800.000	-0.077	0.328
-496.595	-157.362	-0.218	-0.013
-495.581	800.000	0.021	0.066
-494.566	707.297	0.024	-0.062
-493.551	-40.579	-0.075	0.039
-492.537	-157.109	0.424	-0.026
-491.522	484.678	-0.118	-0.268
-490.508	-200.000	0.012	-0.252
-489.493	-97.342	0.178	-0.046
-488.478	286.139	0.145	0.261
-487.464	-59.372	-0.182	-0.078
-486.449	-116.787	0.171	0.031
-485.435	508.292	-0.126	0.292
-484.420	-145.172	-0.350	-0.032
-483.405	103.677	-0.156	0.182
-482.391	800.000	-0.067	0.272
-481.376	171.889	-0.100	-0.143
-480.362	-90.864	-0.177	-0.051
-479.347	-116.776	0.164	-0.030
-478.332	-200.000	-0.004	-0.109
-477.318	-110.149	-0.145	-0.030
-476.303	159.162	0.133	-0.185
-475.289	-200.000	-0.050	-0.353
-474.274	44.154	0.054	0.049
-473.259	12.456	-0.246	-0.188
-472.245	725.182	-0.065	-0.173
-471.230	72.295	0.096	0.099
-470.216	800.000	-0.048	0.185
-469.201	-142.156	-0.275	0.027
-468.186	80.478	0.245	0.262
-467.172	-114.253	0.244	-0.047
-466.157	-193.083	-0.060	0.001
-465.143	800.000	-0.079	0.252
-464.128	-109.389	0.352	-0.074
-463.113	-113.457	0.388	-0.076
-462.099	505.038	0.046	0.106
-461.084	-105.879	-0.136	-0.031
-460.070	-86.834	0.152	0.046
-459.055	64.638	-0.122	0.123
-458.040	56.900	0.201	-0.194
-457.026	-35.072	0.065	-0.035
-456.011	800.000	-0.071	0.248
-454.997	130.244	-0.221	0.282
-453.982	79.566	-0.146	-0.156
-452.968	-105.478	-0.252	-0.057
-451.953	-189.242	0.209	0.002
-450.938	-50.199	-0.106	-0.050
-449.924	683.852	-0.120	-0.311
-448.909	-136.700	0.176	0.020
-447.895	223.673	0.158	0.253
-446.880	336.866	0.018	0.036
-445.865	45.230	0.290	0.266
-444.851	-20.110	0.173	0.106
-443.836	-62.786	-0.033	0.013
-442.822	-200.000	-0.158	0.000
-441.807	-200.000	-0.006	0.369
-440.792	-130.825	0.159	-0.021
-439.778	-200.000	-0.005	0.093
-438.763	104.744	-0.055	-0.065
-437.749	-200.000	-0.025	-0.203
-436.734	800.000	-0.033	-0.098
-435.719	283.912	-0.133	0.238
-434.705	-200.000	0.026	0.125
-433.690	-90.823	-0.488	0.140
-432.676	-200.000	-0.041	0.295
-431.661	-52.305	-0.156	-0.072
-430.646	501.222	0.114	-0.262
-429.632	370.110	0.029	0.059
-428.617	506.486	-0.099	-0.229
-427.603	529.017	0.098	0.229
-426.588	93.568	-0.158	0.178
-425.573	-170.906	0.374	0.013
-424.559	-86.445	-0.055	-0.017
-423.544	33.025	-0.229	0.197
-422.530	800.000	-0.066	0.218
-421.515	-200.000	-0.031	-0.208
-420.500	-92.765	-0.138	-0.038
-419.486	-200.000	0.003	-0.100
-418.471	-154.233	-0.176	-0.012
-417.457	800.000	0.033	-0.141
-416.442	551.768	0.051	0.122
-415.428	506.943	0.025	0.058
-414.413	42.643	0.125	-0.113
-413.398	-200.000	0.035	-0.235
-412.384	-200.000	0.009	0.194
-411.369	59.626	-0.205	0.201
-410.355	68.694	0.273	0.278
-409.340	194.533	-0.105	0.158
-408.325	31.676	-0.113	-0.096
-407.311	116.537	-0.162	-0.197
-406.296	54.780	-0.156	0.150
-405.282	-34.728	-0.138	-0.075
-404.267	-200.000	-0.025	-0.198
-403.252	-120.258	-0.310	-0.053
-402.238	-123.155	-0.114	0.018
-401.223	-32.347	-0.336	0.186
-400.209	-129.387	0.331	-0.046
-399.194	-24.852	-0.304	-0.179
-398.179	-200.000	-0.019	-0.186
-397.165	-168.908	-0.198	0.007
-396.150	-66.978	0.027	0.010
-395.136	245.896	-0.184	-0.307
-394.121	-100.855	0.384	-0.094
-393.106	211.791	0.132	-0.206
-392.092	313.093	-0.188	-0.351
-391.077	41.274	-0.057	0.051
-390.063	-75.410	-0.070	-0.025
-389.048	51.349	-0.068	0.064
-388.033	-59.250	0.310	-0.132
-387.019	76.461	-0.010	0.011
-386.004	-171.802	-0.295	-0.010
-384.990	111.087	0.051	0.061
-383.975	101.750	-0.115	0.133
-382.960	-15.114	-0.283	-0.180
-381.946	-1.732	-0.056	-0.039
-380.931	800.000	-0.025	-0.103
-379.917	-200.000	0.014	-0.066
-378.902	8.979	-0.231	-0.173
-377.888	272.058	0.085	0.148
-376.873	667.455	0.108	0.278
-375.858	-112.781	0.454	0.089
-374.844	-200.000	-0.034	-0.293
-373.829	800.000	-0.075	0.206
-372.815	800.000	0.016	-0.044
-371.800	-194.055	0.385	0.003
-370.785	-200.000	0.006	-0.126
-369.771	-52.834	-0.436	-0.199
-368.756	-100.805	-0.221	0.054
-367.742	-200.000	-0.087	-0.000
-366.727	-55.831	-0.132	-0.059
-365.712	781.277	0.116	0.315
-364.698	298.303	-0.183	-0.333
-363.683	47.992	-0.330	0.306
-362.669	204.079	-0.025	-0.038
-361.654	800.000	-0.095	-0.265
-360.639	262.274	0.024	0.042
-359.625	19.974	-0.052	-0.041
-358.610	54.361	0.102	0.097
-357.596	-100.807	0.070	-0.017
-356.581	-55.204	-0.068	0.030
-355.566	154.998	0.142	-0.194
-354.552	312.423	-0.051	-0.094
-353.537	397.609	0.185	0.384
-352.523	-117.177	-0.237	0.043
-351.508	155.478	-0.094	0.129
-350.493	-118.150	0.453	0.080
-349.479	800.000	0.079	0.325
-348.464	-58.817	-0.552	-0.236
-347.450	800.000	-0.144	-0.454
-346.435	388.274	-0.077	0.157
-345.420	-67.850	0.168	0.065
-344.406	-18.310	0.206	-0.127
-343.391	-200.000	-0.044	0.204
-342.377	-200.000	0.022	-0.156
-341.362	-74.668	0.053	0.019
-340.348	-17.310	0.279	0.174
-339.333	-135.252	0.194	-0.023
-338.318	-200.000	-0.037	0.436
-337.304	56.494	-0.040	-0.038
-336.289	601.659	-0.094	-0.230
-335.275	338.375	-0.120	0.231
-334.260	82.528	-0.288	0.310
-333.245	800.000	-0.048	0.205
-332.231	593.092	-0.128	-0.313
-331.216	100.426	0.210	0.241
-330.202	800.000	0.036	-0.143
-329.187	-111.431	0.055	0.011
-328.172	800.000	-0.066	0.285
-327.158	-200.000	0.006	-0.204
-326.143	-200.000	-0.017	0.133
-325.129	-41.846	-0.087	-0.044
-324.114	683.655	-0.132	-0.340
-323.099	-200.000	0.148	0.696
-322.085	215.308	-0.195	0.307
-321.070	-200.000	0.029	0.127
-320.056	482.626	0.034	-0.077
-319.041	99.280	0.163	-0.187
-318.026	268.828	-0.059	-0.103
-317.012	-49.459	0.230	-0.108
-315.997	39.370	0.203	0.180
-314.983	234.982	-0.061	0.099
-313.968	29.554	0.148	-0.125
-312.953	67.631	-0.199	-0.201
-311.939	-103.895	0.194	-0.045
-310.924	71.159	0.205	-0.210
-309.910	-35.372	-0.356	-0.191
-308.895	-103.881	0.126	-0.029
-307.880	-200.000	-0.065	-0.411
-306.866	-200.000	-0.021	-0.149
-305.851	74.254	0.298	0.309
-304.837	153.296	0.036	-0.048
-303.822	-200.000	0.009	-0.062
-302.807	43.469	-0.152	0.137
-301.793	45.772	-0.101	0.092
-300.778	-52.461	-0.087	-0.040
-299.764	800.000	-0.030	0.090
-298.749	-27.470	0.161	-0.092
-297.735	-20.509	-0.260	0.158
-296.720	-63.796	0.275	0.111
-295.705	800.000	-0.109	0.347
-294.691	-200.000	0.035	0.205
-293.676	137.414	0.298	0.385
-292.662	-146.085	0.176	0.015
-291.647	6.717	0.134	0.098
-290.632	51.593	-0.192	0.181
-289.618	800.000	0.068	0.221
-288.603	-60.103	-0.098	0.041
-287.589	380.195	-0.129	0.261
-286.574	-200.000	-0.029	-0.189
-285.559	-200.000	0.002	0.288
-284.545	220.074	-0.095	-0.151
-283.530	-127.496	0.106	0.015
-282.516	776.822	-0.174	0.471
-281.501	800.000	-0.034	-0.115
-280.486	-33.105	0.185	0.101
-279.472	-107.940	0.338	-0.073
-278.457	138.743	0.019	-0.024
-277.443	-115.956	0.421	-0.078
-276.428	-200.000	-0.263	0.001
-275.413	-96.122	0.226	0.059
-274.399	-63.781	-0.531	0.215
-273.384	758.397	0.105	0.281
-272.370	250.106	-0.224	-0.376
-271.355	800.000	0.031	-0.132
-270.340	-130.158	-0.102	0.014
-269.326	12.447	-0.086	0.065
-268.311	-61.969	-0.150	-0.062
-267.297	0.613	0.271	-0.192
-266.282	289.774	-0.130	-0.233
-265.267	444.379	-0.123	-0.267
-264.253	800.000	-0.046	-0.180
-263.238	-200.000	-0.076	0.342
-262.224	134.572	0.094	0.120
-261.209	14.982	0.142	-0.110
-260.195	-51.443	-0.094	0.043
-259.180	69.185	0.262	0.266
-258.165	195.856	0.127	0.190
-257.151	101.394	-0.107	-0.123
-256.136	-200.000	0.016	-0.208
-255.122	65.934	0.067	-0.067
-254.107	-111.636	0.337	-0.067
-253.092	13.929	0.101	0.078
-252.078	223.348	0.140	0.223
-251.063	354.154	-0.091	0.179
-250.049	-6.811	0.173	0.116
-249.034	-200.000	0.101	-0.443
-248.019	-24.786	-0.081	-0.047
-247.005	184.994	-0.134	0.196
-245.990	37.467	0.190	0.166
-244.976	11.611	0.151	-0.114
-243.961	367.199	-0.009	-0.017
-242.946	213.543	0.094	0.147
-241.932	-52.140	0.223	-0.102
-240.917	-200.000	0.006	-0.130
-239.903	-200.000	-0.046	-0.384
-238.888	-68.083	0.008	0.003
-237.873	68.412	-0.206	-0.208
-236.859	-67.760	-0.230	-0.089
-235.844	-100.885	0.101	-0.024
-234.830	-154.302	0.079	0.005
-233.815	800.000	0.114	0.462
-232.800	800.000	0.114	-0.386
-231.786	303.594	0.169	-0.308
-230.771	160.581	-0.144	0.198
-229.757	-77.990	0.325	-0.111
-228.742	404.053	-0.118	-0.244
-227.727	279.653	0.196	0.345
-226.713	-190.847	-0.023	0.000
-225.698	800.000	0.027	-0.075
-224.684	74.169	-0.175	-0.182
-223.669	258.262	-0.223	-0.379
-222.655	800.000	-0.021	-0.072
-221.640	-15.108	-0.267	0.169
-220.625	315.992	-0.078	0.145
-219.611	151.130	0.132	0.177
-218.596	-124.583	-0.081	-0.012
-217.582	800.000	0.081	0.265
-216.567	-182.250	0.237	-0.004
-215.552	66.878	-0.048	-0.048
-214.538	-89.513	-0.437	-0.126
-213.523	11.098	0.085	0.064
-212.509	52.184	0.297	-0.279
-211.494	-100.389	0.194	0.047
-210.479	-125.287	-0.133	0.020
-209.465	-133.887	0.309	-0.038
-208.450	800.000	0.081	-0.267
-207.436	800.000	-0.058	-0.227
-206.421	-200.000	-0.008	0.232
-205.406	748.415	-0.065	-0.172
-204.392	102.686	-0.281	0.324
-203.377	-200.000	0.025	0.341
-202.363	338.050	-0.036	-0.070
-201.348	-200.000	-0.022	-0.159
-200.333	-118.871	-0.320	0.055
-199.319	64.933	-0.167	0.166
-198.304	800.000	-0.112	0.317
-197.290	-200.000	0.023	0.258
-196.275	-119.243	0.017	-0.003
-195.260	54.900	0.129	0.123
-194.246	800.000	-0.064	0.207
-193.231	254.828	0.056	-0.094
-192.217	800.000	-0.011	0.038
-191.202	36.861	0.060	-0.052
-190.187	-200.000	0.028	-0.679
-189.173	-89.736	-0.178	-0.051
-188.158	-101.959	-0.038	0.009
-187.144	213.658	0.090	0.140
-186.129	-102.865	-0.297	-0.070
-185.114	-68.057	0.126	0.048
-184.100	-72.160	0.093	0.034
-183.085	-200.000	0.021	0.182
-182.071	800.000	0.031	0.098
-181.056	269.041	-0.013	-0.023
-180.042	16.490	0.213	0.166
-179.027	656.775	-0.084	-0.212
-178.012	675.138	0.060	0.153
-176.998	40.385	0.116	-0.103
-175.983	-74.026	0.235	-0.084
-174.969	-200.000	-0.013	0.186
-173.954	0.118	0.385	0.270
-172.939	-200.000	-0.003	-0.467
-171.925	-142.711	0.466	0.045
-170.910	-8.083	0.066	0.043
-169.896	782.265	-0.128	-0.345
-168.881	112.616	0.311	-0.371
-167.866	-106.964	-0.259	0.056
-166.852	-61.874	0.156	0.064
-165.837	348.728	-0.125	0.243
-164.823	0.570	0.107	0.075
-163.808	-49.397	-0.230	0.108
-162.793	64.143	-0.217	0.215
-161.779	-55.016	0.198	-0.088
-160.764	-23.972	-0.161	0.095
-159.750	113.186	-0.100	-0.120
-158.735	-61.132	0.310	0.128
-157.720	29.694	0.260	0.218
-156.706	-68.681	0.128	-0.049
-155.691	252.676	-0.029	0.049
-154.677	241.406	-0.072	-0.119
-153.662	-62.277	-0.147	-0.060
-152.647	-88.943	0.226	-0.066
-151.633	800.000	0.085	0.270
-150.618	800.000	-0.073	0.224
-149.604	122.863	-0.034	-0.042
-148.589	-200.000	-0.030	0.171
-147.574	-200.000	-0.001	-0.075
-146.560	446.911	0.110	-0.238
-145.545	-132.592	-0.377	-0.048
-144.531	146.941	-0.090	0.119
-143.516	317.037	-0.123	0.229
-142.502	-30.060	-0.128	0.072
-141.487	-56.103	0.185	0.081
-140.472	-102.613	0.239	-0.056
-139.458	34.002	0.133	0.114
-138.443	-200.000	0.037	0.357
-137.429	252.944	0.101	-0.169
-136.414	-2.007	-0.304	-0.210
-135.399	-200.000	0.026	-0.161
-134.385	63.064	-0.094	0.093
-133.370	800.000	-0.176	0.495
-132.356	-86.443	-0.166	-0.050
-131.341	-200.000	-0.011	-0.097
-130.326	800.000	-0.031	-0.100
-129.312	190.917	-0.101	-0.149
-128.297	800.000	0.081	-0.331
-127.283	-110.148	0.299	-0.061
-126.268	-3.185	0.075	-0.051
-125.253	800.000	-0.038	0.119
-124.239	56.407	-0.096	0.091
-123.224	25.729	0.155	0.127
-122.210	-73.877	0.269	-0.096
