DTS Sentinel unit serial number:	SN413079Multiplexer serial number:	ORYXHardware model number:	OX4-SRSoftware version number:	ORYX F/W v4.00 Oryx Data Collector v3.7.2.0data status	okinstallation	princeton_trtdifferential loss correction	single-endedforward channel	channel 2reverse channel	N/Adate	2019/09/16time	02:47:34forward acquisition time	60.00reverse acquisition time	0.00gamma	496.2192k internal	0.2334k external	0.2334temperature offset calibration	0.9971default loss term (dB/km)	0.3790temperature slope calibration	1.0000multiplexer offset coefficient	1.0000multiplexer slope coefficient	1.0000fibre end	0.00T internal ref (°C)	27.75T ext. ref 1 (°C)	10.35T ext. ref 2 (°C)	22.29length (m)	temperature (°C)	Stokes	anti-Stokes-747.200	-60.685	-0.337	0.143
-746.185	45.704	-0.240	0.223
-745.171	-200.000	0.004	0.068
-744.156	-200.000	0.027	0.300
-743.142	-100.632	0.335	0.083
-742.127	-66.471	-0.326	0.130
-741.112	-88.512	-0.129	0.039
-740.098	5.684	0.191	0.142
-739.083	-101.862	0.127	-0.031
-738.069	534.854	-0.167	0.399
-737.054	-200.000	-0.040	0.265
-736.039	7.700	0.254	-0.191
-735.025	-36.298	-0.280	0.152
-734.010	-148.460	-0.391	-0.032
-732.996	800.000	0.058	-0.189
-731.981	-10.194	-0.293	-0.195
-730.966	21.333	-0.185	0.151
-729.952	392.646	-0.180	-0.375
-728.937	-200.000	-0.032	-0.401
-727.923	-150.586	0.288	0.022
-726.908	-3.518	0.189	-0.132
-725.894	-68.895	0.166	-0.064
-724.879	-122.673	-0.210	0.034
-723.864	-101.835	0.227	-0.055
-722.850	325.344	-0.145	0.278
-721.835	-64.316	-0.193	0.079
-720.821	-200.000	0.004	-0.030
-719.806	-200.000	-0.029	-0.148
-718.791	404.787	0.119	0.252
-717.777	22.992	-0.227	-0.187
-716.762	-34.426	0.129	-0.071
-715.748	-198.494	0.210	0.001
-714.733	580.636	-0.043	-0.106
-713.718	257.025	0.089	-0.154
-712.704	-200.000	0.008	0.100
-711.689	237.903	0.155	-0.258
-710.675	-143.446	0.107	-0.010
-709.660	86.173	0.213	0.236
-708.645	72.168	-0.134	0.140
-707.631	-200.000	0.009	-0.064
-706.616	-64.747	0.247	-0.100
-705.602	691.021	0.099	0.260
-704.587	-138.981	0.233	0.025
-703.572	57.280	-0.267	-0.262
-702.558	262.557	-0.089	-0.155
-701.543	-146.135	0.218	-0.019
-700.529	-147.583	0.337	0.028
-699.514	253.237	-0.111	-0.190
-698.499	-200.000	0.057	0.272
-697.485	70.927	-0.044	-0.046
-696.470	-131.021	-0.083	-0.011
-695.456	419.541	-0.057	0.123
-694.441	238.342	-0.047	0.078
-693.426	800.000	-0.136	-0.442
-692.412	-200.000	0.070	-0.362
-691.397	800.000	0.044	0.163
-690.383	-200.000	-0.004	0.107
-689.368	-84.912	0.176	-0.055
-688.354	129.958	-0.027	-0.035
-687.339	-47.011	-0.053	-0.026
-686.324	-200.000	0.018	-0.092
-685.310	-59.873	-0.190	0.081
-684.295	800.000	-0.059	0.243
-683.281	125.505	-0.105	0.133
-682.266	-5.182	-0.373	0.257
-681.251	-200.000	-0.010	0.165
-680.237	-124.016	0.149	-0.023
-679.222	9.275	-0.343	0.260
-678.208	-43.524	0.174	-0.088
-677.193	-107.520	-0.140	0.031
-676.178	-136.659	0.233	-0.027
-675.164	597.529	-0.059	0.146
-674.149	-56.000	-0.245	0.109
-673.135	-44.178	-0.235	0.118
-672.120	-138.641	0.106	0.012
-671.105	-157.706	-0.206	0.012
-670.091	569.310	-0.074	-0.180
-669.076	-136.840	-0.064	-0.007
-668.062	-123.572	-0.276	-0.044
-667.047	20.738	-0.234	-0.190
-666.032	-56.128	-0.099	0.044
-665.018	61.189	0.150	-0.150
-664.003	-28.067	0.277	-0.160
-662.989	62.827	0.326	-0.327
-661.974	800.000	-0.100	-0.296
-660.959	-131.230	-0.158	0.021
-659.945	298.999	0.024	0.044
-658.930	-64.940	-0.219	0.089
-657.916	134.371	-0.255	0.331
-656.901	800.000	-0.070	0.229
-655.886	-89.207	-0.254	0.075
-654.872	-76.397	0.065	-0.023
-653.857	-200.000	-0.037	0.222
-652.843	-200.000	-0.051	0.469
-651.828	291.610	-0.123	0.223
-650.814	800.000	-0.089	-0.344
-649.799	-200.000	-0.022	-0.207
-648.784	-0.716	-0.197	0.140
-647.770	116.487	0.240	0.295
-646.755	-200.000	-0.018	0.108
-645.741	281.782	0.145	-0.260
-644.726	-200.000	0.023	0.196
-643.711	60.702	-0.291	0.288
-642.697	-16.231	-0.094	-0.060
-641.682	20.532	-0.086	-0.070
-640.668	-176.337	-0.342	0.009
-639.653	-88.758	-0.301	-0.089
-638.638	-200.000	0.050	-0.319
-637.624	-110.258	-0.172	0.036
-636.609	-106.897	-0.234	0.052
-635.595	657.389	-0.033	-0.086
-634.580	76.332	0.117	0.124
-633.565	268.546	-0.153	-0.269
-632.551	402.442	-0.117	-0.246
-631.536	-178.056	-0.099	-0.002
-630.522	-17.021	-0.113	0.071
-629.507	800.000	-0.035	-0.119
-628.492	-200.000	-0.045	-0.308
-627.478	279.236	0.074	0.132
-626.463	-84.166	-0.157	0.050
-625.449	-200.000	0.008	0.090
-624.434	23.209	-0.429	-0.352
-623.419	-105.192	-0.228	-0.052
-622.405	-65.790	-0.174	-0.070
-621.390	800.000	-0.058	0.198
-620.376	387.521	0.152	0.314
-619.361	-79.827	0.137	0.046
-618.346	147.867	-0.084	0.113
-617.332	120.806	0.115	-0.143
-616.317	331.966	-0.113	-0.218
-615.303	347.500	0.201	0.396
-614.288	800.000	-0.052	-0.156
-613.273	133.733	-0.117	0.152
-612.259	114.612	-0.170	-0.207
-611.244	79.004	0.260	0.278
-610.230	-18.318	-0.185	0.116
-609.215	-102.428	-0.341	0.082
-608.201	42.055	0.346	-0.314
-607.186	-36.819	-0.210	-0.113
-606.171	-200.000	0.019	0.222
-605.157	360.645	0.236	0.473
-604.142	-200.000	0.021	0.155
-603.128	-110.253	0.192	-0.040
-602.113	776.575	0.061	0.167
-601.098	-83.652	-0.078	0.025
-600.084	13.786	0.260	-0.202
-599.069	2.963	-0.040	0.029
-598.055	-200.000	-0.013	-0.434
-597.040	-85.608	-0.380	-0.118
-596.025	220.960	0.227	-0.365
-595.011	-200.000	-0.009	-0.099
-593.996	-200.000	0.022	0.276
-592.982	-46.888	-0.161	0.079
-591.967	171.006	-0.209	-0.299
-590.952	759.663	0.018	-0.049
-589.938	-77.762	-0.159	-0.055
-588.923	-200.000	-0.092	0.442
-587.909	-102.156	-0.213	-0.051
-586.894	-13.146	-0.312	-0.203
-585.879	-200.000	0.024	-0.298
-584.865	12.692	-0.369	0.285
-583.850	-200.000	-0.003	0.148
-582.836	-97.309	0.154	0.040
-581.821	754.494	-0.044	0.119
-580.806	512.426	-0.062	0.145
-579.792	48.031	-0.032	-0.030
-578.777	176.862	0.187	0.271
-577.763	-2.414	0.128	-0.090
-576.748	283.805	-0.169	0.303
-575.733	-136.638	0.200	-0.023
-574.719	47.555	-0.061	0.057
-573.704	-200.000	0.048	-0.300
-572.690	-142.799	0.130	0.013
-571.675	452.100	0.074	0.162
-570.661	-200.000	0.001	-0.110
-569.646	539.581	-0.101	-0.240
-568.631	800.000	-0.075	-0.245
-567.617	-6.560	-0.229	-0.156
-566.602	47.305	-0.186	-0.173
-565.588	800.000	-0.022	-0.095
-564.573	-95.702	0.253	-0.067
-563.558	-102.063	0.059	-0.014
-562.544	309.083	-0.010	0.018
-561.529	30.517	-0.142	0.121
-560.515	38.076	0.119	0.106
-559.500	-200.000	-0.051	-0.296
-558.485	105.674	-0.067	-0.079
-557.471	-59.289	0.258	0.111
-556.456	-200.000	-0.038	-0.198
-555.442	-176.866	-0.177	0.004
-554.427	-86.218	0.470	0.144
-553.412	-43.171	-0.141	0.071
-552.398	-200.000	-0.023	-0.436
-551.383	-148.690	-0.139	0.011
-550.369	-200.000	0.030	0.262
-549.354	63.180	-0.071	-0.071
-548.339	-200.000	-0.052	-0.301
-547.325	-66.421	-0.062	-0.025
-546.310	446.565	0.121	-0.266
-545.296	-114.618	0.074	0.014
-544.281	-200.000	-0.018	-0.243
-543.266	162.418	0.113	-0.158
-542.252	-78.531	-0.146	-0.050
-541.237	263.559	-0.065	-0.113
-540.223	501.611	0.087	-0.201
-539.208	800.000	-0.059	-0.174
-538.193	18.851	0.177	-0.141
-537.179	-200.000	0.011	0.162
-536.164	24.648	0.054	-0.045
-535.150	800.000	0.091	-0.254
-534.135	-50.166	-0.024	0.011
-533.121	-2.258	0.079	-0.055
-532.106	-163.527	0.370	-0.017
-531.091	117.183	-0.207	-0.253
-530.077	278.183	0.114	0.203
-529.062	-30.944	-0.042	0.024
-528.048	83.930	0.073	0.080
-527.033	41.406	-0.085	0.076
-526.018	1.601	-0.115	0.082
-525.004	-200.000	0.018	0.129
-523.989	-93.611	-0.377	0.104
-522.975	354.912	-0.105	0.208
-521.960	-200.000	0.007	-0.206
-520.945	-152.050	0.033	0.002
-519.931	-83.215	-0.079	0.025
-518.916	93.368	0.112	0.127
-517.902	-2.925	-0.115	-0.080
-516.887	233.382	-0.026	0.043
-515.872	-200.000	0.036	0.320
-514.858	-157.965	0.252	-0.015
-513.843	-156.284	-0.104	-0.007
-512.829	800.000	-0.041	0.138
-511.814	-153.159	-0.149	-0.010
-510.799	52.834	-0.177	0.169
-509.785	-200.000	0.014	-0.197
-508.770	-151.488	0.414	0.031
-507.756	443.178	-0.103	-0.225
-506.741	-48.693	-0.160	0.077
-505.726	64.437	0.245	-0.246
-504.712	167.446	-0.131	-0.185
-503.697	-157.479	0.168	-0.010
-502.683	33.410	0.167	-0.145
-501.668	-200.000	0.001	0.233
-500.653	28.746	-0.037	-0.031
-499.639	45.627	-0.032	0.029
-498.624	692.042	0.010	0.027
-497.610	-42.313	0.273	-0.139
-496.595	-200.000	0.066	-0.306
-495.581	252.446	0.138	0.234
-494.566	-6.363	0.258	0.175
-493.551	56.033	-0.262	0.253
-492.537	-13.451	-0.117	-0.075
-491.522	-29.303	-0.217	-0.124
-490.508	2.469	0.056	-0.040
-489.493	800.000	-0.101	0.292
-488.478	-200.000	-0.023	0.274
-487.464	-125.317	0.191	0.029
-486.449	110.644	-0.168	0.201
-485.435	-74.704	-0.243	-0.087
-484.420	580.339	0.156	0.380
-483.405	-162.013	0.169	0.008
-482.391	62.059	0.196	0.195
-481.376	-100.920	-0.005	-0.001
-480.362	-47.338	0.115	0.056
-479.347	321.423	-0.088	-0.166
-478.332	800.000	-0.075	0.296
-477.318	-25.334	-0.446	0.262
-476.303	-66.711	0.363	-0.143
-475.289	348.158	-0.064	-0.125
-474.274	-93.230	-0.300	0.083
-473.259	-7.158	-0.166	0.112
-472.245	49.954	0.442	-0.415
-471.230	-128.405	0.159	-0.023
-470.216	268.921	0.137	0.238
-469.201	-170.197	-0.389	0.014
-468.186	-200.000	0.016	-0.092
-467.172	762.812	-0.034	0.093
-466.157	800.000	-0.090	0.262
-465.143	-178.248	0.255	0.006
-464.128	-200.000	-0.021	-0.247
-463.113	82.672	-0.096	-0.103
-462.099	542.230	0.078	0.185
-461.084	-56.814	0.365	-0.161
-460.070	800.000	-0.047	0.156
-459.055	-23.204	-0.042	0.025
-458.040	-121.427	0.223	-0.037
-457.026	8.491	-0.175	-0.131
-456.011	15.802	-0.196	-0.153
-454.997	106.433	0.170	-0.200
-453.982	399.056	0.105	0.219
-452.968	-6.238	-0.371	-0.252
-451.953	-108.424	-0.230	0.049
-450.938	184.604	-0.028	-0.041
-449.924	181.820	0.048	0.070
-448.909	-80.916	0.142	0.047
-447.895	474.731	-0.065	-0.145
-446.880	-200.000	-0.058	-0.255
-445.865	38.415	-0.254	-0.225
-444.851	800.000	0.058	0.189
-443.836	688.563	-0.027	-0.071
-442.822	65.193	-0.275	-0.276
-441.807	-22.018	-0.232	0.140
-440.792	-45.634	0.211	0.104
-439.778	-73.598	0.288	-0.104
-438.763	-56.881	-0.271	0.119
-437.749	-147.558	-0.131	0.011
-436.734	246.070	0.105	-0.176
-435.719	-200.000	0.039	0.219
-434.705	800.000	-0.056	0.203
-433.690	-163.725	0.105	0.005
-432.676	81.702	-0.270	-0.290
-431.661	-99.603	0.222	-0.055
-430.646	-24.245	0.202	-0.120
-429.632	-108.560	0.095	0.020
-428.617	120.425	-0.113	-0.139
-427.603	-200.000	-0.020	0.161
-426.588	-200.000	0.073	-0.387
-425.573	-90.360	-0.331	-0.095
-424.559	16.836	0.283	-0.222
-423.544	-30.391	-0.139	-0.078
-422.530	-200.000	0.003	0.163
-421.515	88.158	-0.070	0.077
-420.500	52.868	-0.123	0.117
-419.486	9.962	-0.103	0.078
-418.471	130.270	-0.147	-0.187
-417.457	-200.000	0.025	0.290
-416.442	-126.167	0.052	0.008
-415.428	-171.101	-0.203	-0.007
-414.413	333.198	0.082	-0.157
-413.398	-3.094	-0.387	-0.268
-412.384	136.524	-0.086	0.111
-411.369	-115.997	-0.176	-0.032
-410.355	47.770	0.258	0.238
-409.340	241.066	0.164	0.272
-408.325	-81.162	-0.215	0.071
-407.311	178.500	0.221	0.320
-406.296	-28.127	0.126	0.072
-405.282	55.469	-0.160	0.153
-404.267	800.000	-0.136	-0.434
-403.252	169.117	-0.213	-0.301
-402.238	58.860	0.139	-0.136
-401.223	20.368	0.312	0.250
-400.209	800.000	-0.059	-0.246
-399.194	-101.099	-0.213	0.052
-398.179	-200.000	-0.001	0.089
-397.165	35.952	0.386	0.336
-396.150	203.457	-0.350	0.537
-395.136	-51.799	0.131	-0.061
-394.121	-133.345	-0.153	-0.019
-393.106	1.536	0.148	-0.106
-392.092	-99.986	0.336	-0.083
-391.077	800.000	0.021	-0.065
-390.063	16.091	-0.139	-0.108
-389.048	-166.758	0.076	-0.003
-388.033	431.632	0.153	-0.329
-387.019	-200.000	-0.035	0.234
-386.004	23.763	0.282	0.230
-384.990	-39.163	0.126	0.066
-383.975	-200.000	-0.005	0.275
-382.960	469.587	-0.181	-0.402
-381.946	-106.047	0.391	0.087
-380.931	196.451	0.182	-0.274
-379.917	178.140	-0.083	0.121
-378.902	-67.255	-0.351	-0.137
-377.888	48.046	0.060	-0.055
-376.873	-99.438	-0.103	-0.026
-375.858	20.098	0.107	0.086
-374.844	-139.263	0.146	-0.016
-373.829	-108.044	0.165	-0.035
-372.815	-76.080	0.481	0.168
-371.800	-200.000	-0.010	-0.123
-370.785	-94.360	0.199	-0.054
-369.771	-0.737	-0.177	0.124
-368.756	-39.546	0.220	0.114
-367.742	368.643	-0.069	0.138
-366.727	-17.018	0.219	-0.137
-365.712	0.582	-0.310	0.219
-364.698	-84.302	0.136	0.043
-363.683	741.135	0.033	0.087
-362.669	182.062	0.058	0.084
-361.654	800.000	0.026	0.082
-360.639	216.691	-0.053	0.083
-359.625	183.702	-0.040	-0.059
-358.610	375.189	-0.106	0.214
-357.596	800.000	0.037	-0.135
-356.581	148.453	-0.242	-0.323
-355.566	662.384	-0.025	0.063
-354.552	800.000	0.064	-0.277
-353.537	114.529	0.071	0.086
-352.523	-80.521	0.247	-0.081
-351.508	-99.030	0.246	0.062
-350.493	215.280	0.067	-0.105
-349.479	-200.000	0.087	-0.448
-348.464	67.247	0.117	0.118
-347.450	-200.000	0.054	-0.239
-346.435	-82.791	0.191	-0.061
-345.420	67.055	0.170	0.172
-344.406	-118.604	0.299	-0.052
-343.391	-200.000	0.014	-0.200
-342.377	800.000	-0.054	0.169
-341.362	-82.233	-0.250	0.081
-340.348	741.120	0.031	-0.082
-339.333	65.064	0.124	0.124
-338.318	-200.000	-0.023	0.228
-337.304	-89.880	-0.163	0.047
-336.289	311.697	-0.034	-0.064
-335.275	-200.000	0.008	-0.186
-334.260	66.102	-0.149	-0.149
-333.245	507.573	0.098	0.225
-332.231	182.249	-0.033	-0.048
-331.216	-152.162	0.182	0.013
-330.202	575.342	-0.092	-0.222
-329.187	-143.661	-0.168	0.016
-328.172	-78.117	-0.083	-0.028
-327.158	17.568	-0.198	0.155
-326.143	-77.269	-0.337	-0.116
-325.129	-67.339	-0.079	0.031
-324.114	-200.000	-0.025	-0.170
-323.099	1.458	0.086	0.061
-322.085	649.662	0.113	-0.287
-321.070	-17.363	0.216	-0.135
-320.056	-41.068	0.176	-0.090
-319.041	800.000	-0.064	0.175
-318.026	-200.000	0.006	-0.068
-317.012	-200.000	-0.023	0.376
-315.997	-16.531	0.232	0.145
-314.983	198.443	-0.056	0.084
-313.968	49.954	0.254	-0.236
-312.953	-22.545	0.231	0.138
-311.939	-55.783	0.081	-0.036
-310.924	694.126	-0.086	-0.223
-309.910	800.000	0.107	0.364
-308.895	145.430	-0.155	0.205
-307.880	-98.037	0.086	0.022
-306.866	-134.561	-0.322	-0.039
-305.851	1.970	-0.209	0.149
-304.837	-57.920	-0.134	-0.058
-303.822	-66.819	0.202	-0.079
-302.807	-142.716	-0.134	-0.013
-301.793	-141.486	-0.045	0.004
-300.778	-10.375	0.251	0.164
-299.764	-11.698	-0.085	0.055
-298.749	-110.700	0.377	0.077
-297.735	-74.650	-0.084	0.030
-296.720	-42.183	-0.282	-0.142
-295.705	-42.885	-0.194	0.097
-294.691	8.379	0.185	0.137
-293.676	-78.562	-0.272	-0.092
-292.662	152.019	0.123	-0.166
-291.647	800.000	-0.046	-0.175
-290.632	68.834	0.380	-0.385
-289.618	-135.116	-0.196	0.023
-288.603	-15.708	0.122	-0.077
-287.589	-119.848	-0.123	-0.021
-286.574	800.000	0.063	-0.176
-285.559	-200.000	0.016	-0.100
-284.545	-174.442	0.104	-0.003
-283.530	-129.387	-0.490	-0.067
-282.516	-29.333	0.088	0.050
-281.501	-40.882	0.211	0.108
-280.486	-77.957	-0.300	-0.102
-279.472	7.759	0.208	-0.154
-278.457	377.743	0.067	0.136
-277.443	236.522	0.162	0.265
-276.428	-20.244	-0.134	-0.082
-275.413	-145.222	0.290	0.026
-274.399	-200.000	-0.043	-0.355
-273.384	-200.000	-0.029	0.198
-272.370	-143.456	-0.340	-0.032
-271.355	92.346	0.060	0.067
-270.340	490.560	0.037	-0.084
-269.326	-200.000	-0.006	-0.031
-268.311	-107.356	0.012	-0.003
-267.297	-0.363	0.054	-0.038
-266.282	-74.867	0.163	0.058
-265.267	-152.426	-0.437	-0.031
-264.253	-137.633	0.314	0.035
-263.238	-125.714	0.042	-0.006
-262.224	254.238	-0.167	0.282
-261.209	624.560	-0.107	0.265
-260.195	282.282	0.105	0.186
-259.180	-200.000	0.037	-0.287
-258.165	162.613	0.147	0.204
-257.151	-136.119	0.173	0.020
-256.136	800.000	-0.113	-0.345
-255.122	-69.326	0.207	0.078
-254.107	-124.230	0.280	0.043
-253.092	624.495	0.075	0.187
-252.078	198.609	0.084	-0.127
-251.063	-54.345	-0.062	-0.028
-250.049	-173.016	-0.229	-0.007
-249.034	-118.040	0.362	-0.064
-248.019	116.349	-0.243	-0.293
-247.005	144.867	0.196	0.258
-245.990	800.000	0.071	0.204
-244.976	-56.078	0.057	0.025
-243.961	-149.126	-0.038	0.003
-242.946	-21.268	0.068	0.041
-241.932	254.415	-0.098	-0.165
-240.917	109.303	0.157	-0.185
-239.903	-172.960	0.409	0.012
-238.888	-134.977	-0.335	0.040
-237.873	-139.102	-0.257	-0.027
-236.859	-120.602	0.269	-0.045
-235.844	211.066	-0.054	0.084
-234.830	-108.963	0.314	-0.066
-233.815	-200.000	0.022	-0.132
-232.800	256.481	0.033	-0.057
-231.786	-38.728	0.102	-0.053
-230.771	50.144	0.220	-0.205
-229.757	147.408	-0.143	0.190
-228.742	4.069	-0.272	0.196
-227.727	-81.277	0.313	-0.102
-226.713	239.207	-0.106	0.174
-225.698	-136.524	0.290	0.033
-224.684	200.989	0.052	0.079
-223.669	-101.585	0.332	0.079
-222.655	-99.322	0.128	0.032
-221.640	-74.663	-0.318	0.113
-220.625	-70.427	-0.247	0.092
-219.611	224.309	0.236	-0.376
-218.596	-32.816	-0.193	0.106
-217.582	800.000	-0.016	-0.053
-216.567	259.417	0.161	0.273
-215.552	-200.000	0.005	0.146
-214.538	-200.000	0.041	0.293
-213.523	17.717	-0.052	0.040
-212.509	-14.747	-0.065	0.041
-211.494	127.089	0.073	-0.091
-210.479	192.689	0.143	0.212
-209.465	-123.500	-0.193	-0.030
-208.450	432.503	0.071	-0.151
-207.436	800.000	0.076	0.233
-206.421	98.551	0.219	-0.249
-205.406	-58.316	-0.372	0.159
-204.392	-200.000	0.024	-0.203
-203.377	-57.300	-0.265	-0.115
-202.363	-200.000	0.004	-0.126
-201.348	-200.000	0.055	0.258
-200.333	-8.463	-0.143	-0.095
-199.319	-24.654	-0.072	-0.042
-198.304	-200.000	0.025	0.285
-197.290	-90.181	0.149	0.043
-196.275	178.481	0.134	0.192
-195.260	628.470	-0.100	-0.250
-194.246	101.293	-0.052	0.059
-193.231	-146.449	0.377	0.032
-192.217	-171.533	-0.281	-0.009
-191.202	184.614	-0.023	-0.034
-190.187	-82.957	-0.098	0.031
-189.173	800.000	-0.065	-0.205
-188.158	800.000	-0.038	0.160
-187.144	175.770	-0.072	-0.103
-186.129	-1.616	0.112	0.078
-185.114	800.000	0.179	0.528
-184.100	-152.676	-0.364	0.026
-183.085	-74.042	0.313	-0.112
-182.071	-200.000	0.025	0.262
-181.056	800.000	0.060	0.188
-180.042	-200.000	0.075	-0.354
-179.027	465.144	-0.159	0.349
-178.012	-55.751	-0.339	0.149
-176.998	-52.868	-0.120	0.054
-175.983	-27.506	0.232	0.133
-174.969	227.443	-0.080	0.128
-173.954	-82.078	-0.225	0.072
-172.939	-107.038	0.176	0.038
-171.925	63.643	-0.236	0.233
-170.910	412.130	0.108	-0.226
-169.896	-200.000	0.000	-0.162
-168.881	-151.374	0.115	-0.008
-167.866	-200.000	0.085	0.374
-166.852	-200.000	0.034	0.195
-165.837	-137.019	-0.522	-0.059
-164.823	250.717	0.110	0.184
-163.808	-200.000	0.011	0.177
-162.793	-79.061	0.191	-0.064
-161.779	800.000	0.073	-0.233
-160.764	-200.000	-0.112	-0.558
-159.750	-200.000	0.030	-0.131
-158.735	47.946	0.257	0.236
-157.720	-200.000	0.054	-0.515
-156.706	-133.602	-0.257	-0.032
-155.691	-35.279	-0.190	0.101
-154.677	-94.570	0.246	-0.066
-153.662	-175.017	0.205	-0.006
-152.647	-33.577	-0.235	0.127
-151.633	-3.528	0.337	0.230
-150.618	-65.341	-0.086	0.034
-149.604	-181.438	0.271	0.005
-148.589	-174.231	-0.301	-0.009
-147.574	-200.000	-0.002	-0.091
-146.560	-1.243	0.058	-0.040
-145.545	-98.051	-0.184	0.046
-144.531	800.000	0.038	-0.135
-143.516	800.000	-0.028	0.087
-142.502	-67.991	0.163	0.062
-141.487	-37.404	0.237	-0.124
-140.472	132.612	-0.096	0.121
-139.458	800.000	0.016	-0.059
-138.443	703.860	-0.136	-0.353
-137.429	321.034	0.098	-0.183
-136.414	-16.630	-0.185	-0.115
-135.399	-99.955	-0.340	0.083
-134.385	6.076	-0.213	0.155
-133.370	-171.578	0.224	0.007
-132.356	-62.083	0.232	-0.095
-131.341	308.094	0.206	-0.377
-130.326	-200.000	0.009	-0.268
-129.312	197.970	-0.054	0.081
-128.297	-151.778	0.148	-0.011
-127.283	363.001	-0.057	0.112
-126.268	8.319	-0.114	0.084
-125.253	800.000	-0.001	0.004
-124.239	627.961	-0.003	0.007
-123.224	63.556	0.238	-0.235
-122.210	-48.948	0.277	0.130
-121.195	86.975	-0.169	0.183
