DTS Sentinel unit serial number:	SN413079Multiplexer serial number:	ORYXHardware model number:	OX4-SRSoftware version number:	ORYX F/W v4.00 Oryx Data Collector v3.7.2.0data status	okinstallation	princeton_trtdifferential loss correction	single-endedforward channel	channel 2reverse channel	N/Adate	2019/09/17time	00:59:35forward acquisition time	60.00reverse acquisition time	0.00gamma	496.2192k internal	0.2328k external	0.2328temperature offset calibration	0.9978default loss term (dB/km)	0.3790temperature slope calibration	1.0000multiplexer offset coefficient	1.0000multiplexer slope coefficient	1.0000fibre end	0.00T internal ref (°C)	29.44T ext. ref 1 (°C)	0.11T ext. ref 2 (°C)	24.11length (m)	temperature (°C)	Stokes	anti-Stokes-747.200	-93.607	-0.321	0.089
-746.185	-50.935	0.090	-0.043
-745.171	-125.911	-0.324	0.049
-744.156	345.414	0.062	0.122
-743.142	310.885	0.196	-0.370
-742.127	-61.888	-0.233	0.098
-741.112	-200.000	-0.011	0.132
-740.098	46.849	0.200	0.187
-739.083	-164.159	-0.185	-0.009
-738.069	-200.000	-0.029	0.233
-737.054	-58.636	0.253	-0.110
-736.039	-135.950	-0.087	0.010
-735.025	76.653	0.222	-0.238
-734.010	-200.000	0.019	-0.148
-732.996	800.000	-0.019	-0.082
-731.981	-49.253	-0.212	-0.102
-730.966	-12.431	-0.278	0.183
-729.952	-146.585	-0.275	0.024
-728.937	-102.985	-0.275	0.066
-727.923	297.390	0.058	-0.108
-726.908	15.502	-0.382	-0.302
-725.894	-200.000	-0.033	-0.215
-724.879	-139.270	0.378	0.041
-723.864	-137.175	-0.095	-0.011
-722.850	8.878	0.055	0.042
-721.835	-31.383	-0.341	0.193
-720.821	-200.000	-0.020	-0.166
-719.806	250.877	-0.147	-0.252
-718.791	-106.702	-0.468	0.105
-717.777	-123.166	-0.256	-0.041
-716.762	-57.238	0.227	-0.101
-715.748	-100.320	0.190	-0.047
-714.733	763.993	0.055	0.149
-713.718	-15.164	0.134	0.087
-712.704	-69.435	0.132	0.051
-711.689	76.840	-0.215	0.230
-710.675	800.000	-0.159	-0.496
-709.660	-45.466	-0.115	-0.057
-708.645	800.000	-0.059	-0.173
-707.631	-200.000	0.038	-0.213
-706.616	-94.529	0.142	0.039
-705.602	-47.668	-0.272	0.133
-704.587	-200.000	0.038	0.184
-703.572	-200.000	-0.045	0.426
-702.558	90.328	-0.106	0.120
-701.543	-173.335	0.340	0.010
-700.529	155.447	0.107	-0.148
-699.514	122.678	-0.064	-0.081
-698.499	-163.701	-0.160	0.008
-697.485	-148.844	-0.522	-0.042
-696.470	79.248	-0.190	0.205
-695.456	-107.742	-0.342	0.075
-694.441	-108.042	-0.129	-0.028
-693.426	-5.197	-0.072	0.050
-692.412	121.137	0.282	0.353
-691.397	14.729	-0.116	0.091
-690.383	217.374	-0.172	0.275
-689.368	88.851	0.251	-0.281
-688.354	800.000	-0.075	0.234
-687.339	140.593	0.247	0.327
-686.324	-58.800	-0.083	-0.036
-685.310	-60.764	0.150	-0.064
-684.295	-133.964	0.235	0.029
-683.281	-31.153	-0.096	-0.054
-682.266	-200.000	-0.024	-0.273
-681.251	-200.000	-0.033	0.194
-680.237	-200.000	0.144	0.671
-679.222	-39.586	0.172	-0.090
-678.208	-124.310	-0.451	-0.071
-677.193	-73.452	-0.335	0.123
-676.178	409.969	0.075	0.160
-675.164	265.049	-0.049	0.086
-674.149	-141.085	-0.303	-0.031
-673.135	-46.728	0.198	-0.098
-672.120	67.946	0.151	0.155
-671.105	259.508	0.029	0.051
-670.091	48.033	0.121	-0.114
-669.076	-80.285	-0.058	-0.020
-668.062	184.401	0.014	0.020
-667.047	-42.664	-0.324	-0.166
-666.032	-200.000	0.003	0.139
-665.018	-67.981	-0.353	0.139
-664.003	46.463	0.167	-0.155
-662.989	800.000	-0.105	0.368
-661.974	-64.268	-0.322	-0.132
-660.959	-160.637	0.205	0.011
-659.945	-104.621	0.159	0.037
-658.930	31.809	-0.397	-0.343
-657.916	-156.586	0.338	-0.021
-656.901	204.409	0.157	0.244
-655.886	104.212	-0.150	-0.177
-654.872	1.500	0.111	-0.080
-653.857	234.188	-0.078	0.128
-652.843	-68.744	0.133	-0.052
-651.828	-53.181	-0.301	0.139
-650.814	-31.287	-0.106	-0.060
-649.799	30.738	0.250	-0.215
-648.784	84.318	0.178	0.196
-647.770	-200.000	0.005	-0.098
-646.755	-200.000	0.013	-0.087
-645.741	800.000	0.016	0.054
-644.726	-56.112	0.008	-0.003
-643.711	-42.143	0.136	0.070
-642.697	-97.467	-0.429	-0.112
-641.682	23.066	-0.004	0.003
-640.668	-94.332	-0.420	-0.115
-639.653	17.743	-0.103	-0.083
-638.638	-135.054	0.333	-0.040
-637.624	506.974	0.067	-0.156
-636.609	-88.410	-0.155	0.046
-635.595	-10.517	0.196	-0.130
-634.580	14.396	-0.329	-0.257
-633.565	33.902	-0.110	-0.097
-632.551	647.920	-0.058	-0.149
-631.536	-40.227	-0.251	0.131
-630.522	193.842	-0.128	-0.194
-629.507	131.319	-0.068	-0.087
-628.492	-60.275	0.197	0.084
-627.478	-200.000	0.034	-0.178
-626.463	-200.000	0.022	0.271
-625.449	-75.727	-0.111	-0.040
-624.434	161.352	0.099	0.139
-623.419	584.173	-0.118	0.290
-622.405	-56.862	-0.218	0.097
-621.390	567.110	0.208	0.507
-620.376	184.527	0.039	0.057
-619.361	-35.189	0.230	-0.125
-618.346	458.493	-0.137	-0.305
-617.332	-180.853	-0.256	-0.005
-616.317	-157.967	0.211	-0.012
-615.303	-200.000	-0.014	0.081
-614.288	107.559	-0.201	-0.239
-613.273	-101.620	-0.125	-0.030
-612.259	-200.000	-0.010	-0.129
-611.244	-200.000	-0.033	0.336
-610.230	68.236	0.174	0.179
-609.215	-102.490	0.199	0.048
-608.201	22.498	0.204	-0.167
-607.186	662.596	0.144	-0.371
-606.171	-80.055	0.258	-0.087
-605.157	-31.903	0.272	0.153
-604.142	-97.071	0.231	-0.060
-603.128	-153.563	-0.231	0.016
-602.113	73.036	-0.318	-0.333
-601.098	-61.910	0.177	-0.074
-600.084	-99.060	0.422	-0.107
-599.069	800.000	-0.113	-0.361
-598.055	800.000	-0.140	-0.522
-597.040	-200.000	-0.003	-0.083
-596.025	343.985	-0.043	-0.085
-595.011	267.160	0.111	-0.194
-593.996	557.524	0.067	-0.161
-592.982	-81.543	0.194	-0.064
-591.967	219.054	0.227	0.364
-590.952	757.800	0.081	0.220
-589.938	-33.031	0.243	-0.135
-588.923	-39.501	0.259	0.136
-587.909	40.830	0.167	-0.151
-586.894	800.000	0.051	-0.221
-585.879	-47.460	0.208	0.101
-584.865	-200.000	0.022	-0.101
-583.850	296.688	0.110	0.201
-582.836	268.490	-0.066	-0.117
-581.821	-30.032	0.027	-0.015
-580.806	-200.000	0.039	0.270
-579.792	115.690	0.179	0.220
-578.777	-24.915	-0.040	-0.024
-577.763	-94.303	-0.376	-0.103
-576.748	83.533	0.193	-0.210
-575.733	-69.857	-0.153	-0.058
-574.719	625.675	0.075	-0.190
-573.704	-76.685	0.217	0.076
-572.690	-200.000	0.033	0.205
-571.675	-47.989	-0.300	0.145
-570.661	800.000	-0.038	0.156
-569.646	184.802	0.137	-0.203
-568.631	141.544	0.144	-0.191
-567.617	800.000	-0.051	0.151
-566.602	-200.000	0.043	-0.195
-565.588	130.645	0.095	-0.121
-564.573	228.462	-0.041	-0.067
-563.558	-130.076	0.173	0.024
-562.544	-117.028	-0.251	0.046
-561.529	-6.979	-0.243	-0.165
-560.515	216.523	-0.141	0.224
-559.500	4.869	-0.073	-0.054
-558.485	800.000	-0.090	-0.326
-557.471	651.229	0.043	0.111
-556.456	140.867	0.121	-0.160
-555.442	-48.984	0.348	-0.167
-554.427	-41.640	-0.272	-0.140
-553.412	-83.414	-0.393	0.126
-552.398	-200.000	-0.078	0.489
-551.383	-23.423	0.260	-0.156
-550.369	-200.000	0.035	0.157
-549.354	238.420	0.191	-0.318
-548.339	-170.926	-0.196	0.007
-547.325	-133.942	-0.213	0.026
-546.310	285.915	-0.076	-0.137
-545.296	-26.357	0.017	-0.010
-544.281	-200.000	-0.002	0.121
-543.266	98.303	-0.158	0.182
-542.252	-102.986	0.311	-0.074
-541.237	-24.495	-0.156	-0.093
-540.223	-121.626	-0.131	0.022
-539.208	800.000	0.027	0.094
-538.193	-59.509	-0.099	0.042
-537.179	-148.849	-0.158	0.013
-536.164	121.847	0.043	0.053
-535.150	498.847	-0.134	0.309
-534.135	-200.000	-0.065	0.457
-533.121	87.695	-0.199	0.221
-532.106	-158.826	0.096	-0.005
-531.091	-154.538	-0.194	-0.013
-530.077	81.949	-0.158	0.171
-529.062	-156.338	0.285	-0.018
-528.048	131.736	-0.062	-0.079
-527.033	758.531	0.158	-0.427
-526.018	-73.299	-0.392	-0.143
-525.004	-94.689	0.301	0.082
-523.989	81.188	-0.094	-0.101
-522.975	800.000	-0.027	-0.109
-521.960	800.000	-0.041	-0.175
-520.945	-65.187	-0.115	-0.046
-519.931	800.000	0.022	-0.078
-518.916	-149.592	-0.341	-0.027
-517.902	70.806	-0.173	-0.179
-516.887	-130.008	0.111	0.015
-515.872	53.686	-0.199	-0.190
-514.858	-123.058	0.403	-0.065
-513.843	-200.000	-0.068	0.321
-512.829	-200.000	0.052	-0.229
-511.814	306.968	-0.074	-0.137
-510.799	140.821	-0.258	-0.341
-509.785	-200.000	-0.015	-0.250
-508.770	-115.151	0.271	0.051
-507.756	800.000	-0.081	-0.257
-506.741	-2.932	-0.107	0.075
-505.726	-196.934	0.320	-0.002
-504.712	-26.128	-0.184	0.108
-503.697	241.895	-0.106	-0.178
-502.683	-200.000	0.014	0.289
-501.668	-28.450	0.343	-0.197
-500.653	-155.151	0.100	0.007
-499.639	523.943	0.125	0.292
-498.624	62.706	-0.170	0.170
-497.610	-161.347	0.121	0.006
-496.595	378.374	-0.080	0.163
-495.581	109.378	-0.074	0.088
-494.566	-78.602	0.082	0.028
-493.551	-115.002	-0.446	0.085
-492.537	-200.000	-0.050	-0.256
-491.522	20.237	0.102	0.082
-490.508	52.580	-0.183	-0.174
-489.493	-200.000	-0.047	-0.288
-488.478	-33.068	-0.408	-0.226
-487.464	102.578	0.176	0.205
-486.449	-91.638	-0.154	-0.044
-485.435	-84.058	0.155	-0.049
-484.420	36.198	0.288	0.253
-483.405	-99.759	0.343	0.086
-482.391	800.000	-0.041	-0.143
-481.376	721.815	0.106	-0.282
-480.362	-110.551	0.045	-0.009
-479.347	-200.000	0.027	0.210
-478.332	-122.565	-0.378	-0.061
-477.318	-112.203	0.231	-0.046
-476.303	800.000	-0.036	0.109
-475.289	147.701	-0.173	-0.232
-474.274	171.266	-0.201	-0.287
-473.259	226.237	0.126	0.204
-472.245	800.000	0.013	0.037
-471.230	-90.661	0.221	-0.064
-470.216	2.057	0.184	0.132
-469.201	-144.801	0.078	0.007
-468.186	32.611	-0.032	-0.028
-467.172	-158.982	0.244	0.014
-466.157	409.774	0.094	-0.198
-465.143	-28.359	-0.252	0.145
-464.128	29.290	0.058	0.049
-463.113	-200.000	-0.052	0.365
-462.099	10.528	0.033	0.025
-461.084	-200.000	-0.009	0.077
-460.070	109.647	-0.147	-0.175
-459.055	-99.209	-0.117	-0.029
-458.040	-200.000	-0.035	-0.242
-457.026	-58.005	0.205	-0.089
-456.011	800.000	-0.062	0.184
-454.997	42.692	0.094	0.085
-453.982	40.871	0.126	-0.113
-452.968	-87.636	-0.218	0.066
-451.953	800.000	-0.037	0.116
-450.938	563.362	0.047	-0.113
-449.924	211.175	-0.145	0.227
-448.909	-65.534	-0.303	-0.121
-447.895	142.917	0.196	-0.260
-446.880	-119.047	-0.122	-0.021
-445.865	99.133	-0.072	0.083
-444.851	-113.088	-0.226	0.044
-443.836	-200.000	-0.095	0.000
-442.822	-50.485	0.019	-0.009
-441.807	17.007	-0.164	0.129
-440.792	-200.000	-0.012	-0.058
-439.778	-200.000	0.346	-0.001
-438.763	-19.367	0.150	-0.093
-437.749	-200.000	0.057	0.271
-436.734	-161.570	-0.253	-0.013
-435.719	554.579	0.067	-0.160
-434.705	-107.629	-0.263	-0.057
-433.690	12.107	-0.128	0.098
-432.676	-195.217	0.040	-0.000
-431.661	-15.351	0.178	-0.113
-430.646	33.848	0.344	-0.298
-429.632	436.106	-0.073	-0.158
-428.617	-133.974	-0.240	0.030
-427.603	-103.308	0.242	0.057
-426.588	204.360	-0.088	-0.135
-425.573	-26.246	0.138	-0.080
-424.559	800.000	0.059	-0.196
-423.544	-15.353	0.236	-0.150
-422.530	606.328	0.072	0.179
-421.515	800.000	0.050	0.161
-420.500	237.235	0.063	-0.103
-419.486	286.814	-0.100	0.180
-418.471	769.846	0.064	-0.173
-417.457	-131.111	-0.183	-0.024
-416.442	28.786	0.127	-0.107
-415.428	4.910	-0.205	0.150
-414.413	800.000	0.041	0.129
-413.398	-22.300	-0.174	0.105
-412.384	-133.658	-0.211	0.026
-411.369	-114.928	0.181	-0.034
-410.355	-200.000	-0.030	-0.375
-409.340	-5.637	0.190	-0.129
-408.325	-15.573	0.313	0.199
-407.311	162.196	0.183	0.254
-406.296	-9.264	0.149	-0.099
-405.282	322.473	-0.074	0.140
-404.267	-200.000	0.005	0.212
-403.252	139.428	0.164	0.215
-402.238	42.710	-0.024	-0.022
-401.223	-46.192	0.228	0.112
-400.209	-50.485	-0.257	-0.121
-399.194	-200.000	-0.001	0.419
-398.179	219.892	-0.090	-0.143
-397.165	43.519	0.208	-0.189
-396.150	-200.000	-0.003	-0.256
-395.136	-200.000	-0.009	-0.422
-394.121	590.306	-0.017	-0.042
-393.106	-200.000	0.005	0.046
-392.092	674.944	0.056	0.144
-391.077	-143.192	0.315	-0.030
-390.063	205.490	0.167	0.257
-389.048	-200.000	0.001	-0.025
-388.033	-151.731	0.343	-0.025
-387.019	-135.677	-0.070	0.008
-386.004	-119.473	-0.349	0.060
-384.990	122.458	0.082	0.102
-383.975	250.262	0.133	0.225
-382.960	-44.160	-0.323	0.161
-381.946	-200.000	0.001	0.078
-380.931	625.582	0.046	-0.115
-379.917	-137.777	-0.225	0.025
-378.902	-150.670	-0.036	-0.003
-377.888	800.000	-0.059	-0.233
-376.873	-157.263	-0.119	-0.007
-375.858	-74.944	0.202	0.072
-374.844	-71.491	0.342	0.127
-373.829	-126.439	0.266	0.039
-372.815	565.020	0.145	0.350
-371.800	22.520	0.179	0.145
-370.785	800.000	-0.088	-0.286
-369.771	14.034	-0.173	-0.134
-368.756	23.206	0.083	-0.067
-367.742	642.984	-0.184	0.465
-366.727	166.567	-0.184	-0.259
-365.712	800.000	0.069	0.196
-364.698	-200.000	0.025	0.180
-363.683	65.188	0.183	0.183
-362.669	800.000	-0.080	-0.311
-361.654	800.000	-0.090	-0.379
-360.639	-189.432	0.130	-0.002
-359.625	122.956	0.268	-0.333
-358.610	-124.491	-0.238	-0.037
-357.596	521.011	-0.009	0.020
-356.581	800.000	0.087	-0.261
-355.566	-28.004	0.122	-0.070
-354.552	476.311	0.150	0.337
-353.537	-200.000	-0.064	0.311
-352.523	-104.051	-0.184	0.043
-351.508	443.350	0.069	0.150
-350.493	-88.256	-0.188	-0.056
-349.479	-4.682	-0.152	0.104
-348.464	-76.643	0.135	0.047
-347.450	-86.784	-0.374	-0.113
-346.435	209.642	-0.135	-0.210
-345.420	-84.293	-0.379	0.119
-344.406	-200.000	-0.046	0.642
-343.391	-200.000	0.020	0.147
-342.377	-9.864	-0.263	-0.174
-341.362	-66.016	-0.033	-0.013
-340.348	800.000	-0.082	0.244
-339.333	83.261	-0.172	0.186
-338.318	-200.000	-0.015	0.201
-337.304	128.297	0.115	0.145
-336.289	43.370	-0.120	-0.109
-335.275	115.231	-0.036	0.044
-334.260	-7.808	0.188	-0.126
-333.245	94.822	0.034	0.038
-332.231	310.306	0.079	-0.146
-331.216	53.312	0.148	-0.141
-330.202	-127.007	0.176	-0.026
-329.187	-168.121	-0.069	-0.003
-328.172	31.089	0.144	0.122
-327.158	-200.000	0.019	0.168
-326.143	-71.386	-0.354	0.131
-325.129	-34.494	-0.186	0.101
-324.114	0.970	0.254	0.180
-323.099	-148.357	0.170	0.014
-322.085	49.851	-0.277	-0.258
-321.070	800.000	0.056	-0.170
-320.056	39.201	-0.211	0.187
-319.041	55.447	0.195	0.187
-318.026	542.112	-0.068	0.160
-317.012	-16.646	-0.149	-0.094
-315.997	-36.338	-0.281	-0.150
-314.983	625.358	-0.027	-0.067
-313.968	-200.000	-0.011	-0.150
-312.953	800.000	0.016	-0.064
-311.939	73.792	0.043	0.045
-310.924	-200.000	-0.016	0.304
-309.910	-200.000	0.051	0.313
-308.895	-200.000	0.026	0.160
-307.880	-180.155	0.235	-0.005
-306.866	171.286	-0.276	-0.392
-305.851	178.336	0.152	-0.220
-304.837	-23.472	0.446	-0.265
-303.822	47.589	-0.437	0.403
-302.807	-75.767	0.073	-0.026
-301.793	-13.469	0.206	0.132
-300.778	-73.126	-0.171	0.062
-299.764	-93.324	-0.209	-0.057
-298.749	-200.000	0.030	-0.198
-297.735	800.000	0.098	0.311
-296.720	242.086	-0.062	0.103
-295.705	115.569	0.162	-0.196
-294.691	52.656	0.189	0.178
-293.676	49.831	-0.277	0.258
-292.662	37.479	0.157	-0.137
-291.647	-140.592	-0.108	0.011
-290.632	-200.000	0.021	0.120
-289.618	34.140	0.208	0.179
-288.603	712.587	-0.083	-0.219
-287.589	-30.058	-0.170	-0.096
-286.574	-80.061	-0.185	-0.061
-285.559	-200.000	0.033	-0.207
-284.545	-200.000	-0.038	-0.405
-283.530	-46.593	-0.432	0.210
-282.516	12.360	-0.225	0.172
-281.501	199.490	0.133	-0.201
-280.486	-69.320	0.186	-0.071
-279.472	-121.369	0.048	0.008
-278.457	-173.704	-0.231	-0.007
-277.443	85.959	-0.177	-0.193
-276.428	-200.000	-0.001	0.117
-275.413	44.242	-0.086	-0.078
-274.399	-18.450	-0.181	0.112
-273.384	-200.000	-0.036	-0.167
-272.370	54.728	-0.082	-0.078
-271.355	27.025	-0.271	0.225
-270.340	-58.426	-0.358	0.154
-269.326	296.041	-0.149	0.270
-268.311	-200.000	-0.012	-0.128
-267.297	-200.000	-0.004	0.156
-266.282	-127.961	0.258	-0.037
-265.267	800.000	0.024	0.069
-264.253	-200.000	0.058	-0.328
-263.238	800.000	-0.018	0.053
-262.224	-65.124	0.337	-0.135
-261.209	595.195	0.052	-0.127
-260.195	-35.879	-0.406	-0.217
-259.180	-96.968	-0.294	0.076
-258.165	592.777	0.083	0.203
-257.151	-75.535	-0.255	0.090
-256.136	-200.000	-0.003	0.405
-255.122	-79.791	0.269	-0.090
-254.107	-81.626	0.226	0.073
-253.092	-200.000	-0.026	-0.292
-252.078	78.546	-0.168	0.177
-251.063	-1.553	0.274	0.191
-250.049	-200.000	-0.022	0.113
-249.034	232.783	-0.075	0.122
-248.019	-9.386	0.243	0.161
-247.005	-200.000	-0.032	-0.218
-245.990	105.825	0.140	-0.164
-244.976	-200.000	0.028	-0.229
-243.961	800.000	0.063	0.176
-242.946	-9.956	0.268	-0.176
-241.932	-111.512	0.222	0.045
-240.917	240.024	0.081	0.134
-239.903	116.796	0.165	-0.200
-238.888	-130.837	0.375	-0.050
-237.873	-200.000	-0.018	0.219
-236.859	800.000	-0.067	0.249
-235.844	-200.000	-0.062	0.267
-234.830	-200.000	0.069	-0.351
-233.815	-132.920	0.237	-0.030
-232.800	-200.000	0.027	0.178
-231.786	-69.551	-0.197	0.075
-230.771	463.730	-0.055	0.121
-229.757	-200.000	-0.059	-0.262
-228.742	-200.000	0.003	0.046
-227.727	800.000	-0.011	0.030
-226.713	786.471	0.054	0.147
-225.698	800.000	-0.032	0.136
-224.684	312.389	0.193	0.359
-223.669	-200.000	-0.012	0.299
-222.655	-128.899	0.110	0.015
-221.640	188.794	-0.112	0.165
-220.625	-104.134	-0.111	0.025
-219.611	104.319	0.169	0.197
-218.596	394.599	0.137	-0.282
-217.582	81.733	-0.258	-0.276
-216.567	-200.000	0.005	-0.102
-215.552	1.289	0.270	0.192
-214.538	-85.935	0.149	0.045
-213.523	-88.122	-0.221	-0.065
-212.509	-151.727	0.210	0.015
-211.494	-99.450	-0.264	-0.066
-210.479	-200.000	-0.006	0.203
-209.465	-200.000	-0.001	0.109
-208.450	80.262	-0.059	0.063
-207.436	268.137	0.071	-0.122
-206.421	55.082	0.104	0.099
-205.406	753.452	-0.137	-0.365
-204.392	-86.022	0.066	0.020
-203.377	47.145	0.016	0.015
-202.363	9.870	-0.279	-0.209
-201.348	-126.756	-0.417	-0.061
-200.333	208.956	0.342	-0.528
-199.319	-43.551	0.191	-0.095
-198.304	84.615	0.057	-0.061
-197.290	-124.764	-0.200	-0.030
-196.275	471.919	-0.043	0.096
-195.260	197.376	-0.060	0.090
-194.246	-102.126	-0.306	0.073
-193.231	-200.000	0.001	-0.049
-192.217	-31.334	-0.083	0.046
-191.202	133.959	0.272	0.347
-190.187	173.415	0.037	-0.053
-189.173	358.941	-0.033	0.065
-188.158	-200.000	-0.030	-0.224
-187.144	-200.000	0.002	0.150
-186.129	166.859	0.068	-0.095
-185.114	-133.094	-0.121	0.015
-184.100	61.892	0.123	0.121
-183.085	219.821	0.124	0.195
-182.071	60.848	0.171	0.167
-181.056	258.779	-0.262	-0.446
-180.042	614.674	-0.051	-0.127
-179.027	-84.423	-0.250	0.078
-178.012	40.476	-0.109	0.096
-176.998	800.000	0.107	0.364
-175.983	-89.929	0.199	-0.057
-174.969	-200.000	0.007	0.227
-173.954	-100.957	0.061	0.015
-172.939	153.872	-0.131	0.177
-171.925	85.183	0.096	-0.104
-170.910	239.933	0.143	-0.235
-169.896	800.000	0.029	0.106
-168.881	142.255	-0.150	0.196
-167.866	24.041	0.298	0.242
-166.852	121.061	-0.160	-0.196
-165.837	331.858	-0.264	0.502
-164.823	-125.454	0.318	-0.048
-163.808	-115.868	-0.115	-0.021
-162.793	244.861	0.186	0.307
-161.779	62.086	0.130	-0.127
-160.764	-53.567	-0.164	0.074
-159.750	-21.945	-0.128	-0.077
-158.735	-138.253	0.287	0.031
-157.720	-20.488	0.196	-0.119
-156.706	800.000	0.081	-0.329
-155.691	-200.000	-0.033	-0.168
-154.677	-103.593	0.019	0.004
-153.662	59.493	-0.259	0.252
-152.647	800.000	0.126	-0.372
-151.633	128.202	-0.184	0.230
-150.618	-101.280	-0.171	-0.041
-149.604	219.840	0.063	-0.100
-148.589	-42.013	0.190	0.096
-147.574	-200.000	0.004	0.056
-146.560	-101.333	-0.065	-0.016
-145.545	-150.988	-0.118	-0.009
-144.531	-101.734	0.420	0.100
-143.516	-200.000	-0.026	0.246
-142.502	-200.000	0.001	0.231
-141.487	800.000	0.044	-0.134
-140.472	-200.000	-0.017	-0.097
-139.458	231.718	-0.154	0.248
-138.443	-130.909	0.239	0.031
-137.429	93.102	0.054	0.061
-136.414	-200.000	-0.010	0.181
-135.399	197.084	-0.045	-0.068
-134.385	-158.868	0.283	0.016
-133.370	25.139	-0.296	-0.242
-132.356	-13.750	0.212	0.135
-131.341	-37.144	0.241	0.127
-130.326	-126.312	0.044	-0.007
-129.312	-200.000	-0.007	0.172
-128.297	-87.809	0.176	-0.052
-127.283	-200.000	-0.007	-0.103
-126.268	87.919	-0.123	-0.134
-125.253	218.669	0.166	-0.261
-124.239	24.497	0.209	0.170
-123.224	-93.531	0.072	-0.020
-122.210	-57.783	0.152	-0.065
