DTS Sentinel unit serial number:	SN413079Multiplexer serial number:	ORYXHardware model number:	OX4-SRSoftware version number:	ORYX F/W v4.00 Oryx Data Collector v3.7.2.0data status	okinstallation	princeton_trtdifferential loss correction	single-endedforward channel	channel 2reverse channel	N/Adate	2019/09/12time	01:09:11forward acquisition time	60.00reverse acquisition time	0.00gamma	496.2192k internal	0.2325k external	0.2325temperature offset calibration	1.0091default loss term (dB/km)	0.3790temperature slope calibration	1.0000multiplexer offset coefficient	1.0000multiplexer slope coefficient	1.0000fibre end	0.00T internal ref (°C)	33.06T ext. ref 1 (°C)	2.07T ext. ref 2 (°C)	27.60length (m)	temperature (°C)	Stokes	anti-Stokes-747.200	-28.798	0.184	-0.107
-746.185	732.762	-0.112	0.302
-745.171	179.128	0.250	0.368
-744.156	196.289	0.170	0.261
-743.142	-200.000	0.008	0.059
-742.127	800.000	-0.043	0.161
-741.112	393.377	0.238	-0.500
-740.098	-200.000	0.018	0.268
-739.083	-200.000	0.012	0.244
-738.069	382.854	0.062	0.129
-737.054	800.000	0.125	-0.352
-736.039	-123.195	-0.181	-0.029
-735.025	-62.738	-0.129	-0.054
-734.010	82.659	-0.161	0.177
-732.996	-66.446	0.157	-0.063
-731.981	556.551	-0.057	-0.138
-730.966	-101.887	-0.332	-0.081
-729.952	-23.102	-0.094	-0.057
-728.937	59.498	-0.345	-0.343
-727.923	800.000	-0.054	0.186
-726.908	192.586	-0.131	0.200
-725.894	-103.969	-0.399	-0.094
-724.879	-200.000	0.039	-0.299
-723.864	-200.000	0.007	-0.136
-722.850	305.023	-0.134	-0.250
-721.835	-200.000	0.056	-0.274
-720.821	117.321	-0.234	0.289
-719.806	-199.585	0.157	-0.001
-718.791	108.224	0.285	-0.342
-717.777	226.670	-0.139	-0.228
-716.762	-106.197	0.103	-0.023
-715.748	64.084	0.370	-0.375
-714.733	81.108	0.086	0.094
-713.718	-149.090	0.192	0.016
-712.704	800.000	-0.026	-0.072
-711.689	-200.000	-0.004	0.245
-710.675	-200.000	-0.006	-0.060
-709.660	15.879	-0.117	0.093
-708.645	-146.695	-0.287	-0.025
-707.631	-94.345	0.245	0.067
-706.616	-45.449	0.088	-0.044
-705.602	-18.523	-0.180	0.113
-704.587	-161.573	-0.311	0.016
-703.572	-99.833	-0.305	0.077
-702.558	-200.000	-0.002	0.049
-701.543	-4.836	0.206	0.143
-700.529	-200.000	-0.001	0.102
-699.514	-108.626	-0.443	-0.096
-698.499	366.437	-0.029	-0.058
-697.485	-77.622	0.348	-0.121
-696.470	-200.000	-0.114	-0.597
-695.456	-64.930	0.131	-0.053
-694.441	-105.954	0.325	0.074
-693.426	-33.362	-0.073	0.041
-692.412	-200.000	-0.016	-0.207
-691.397	-13.389	0.061	0.040
-690.383	800.000	-0.062	0.223
-689.368	202.185	-0.107	-0.167
-688.354	-35.363	0.099	-0.054
-687.339	-200.000	-0.074	0.376
-686.324	88.316	0.208	-0.232
-685.310	-14.405	-0.220	0.143
-684.295	-200.000	-0.018	0.157
-683.281	472.920	-0.142	0.323
-682.266	274.515	-0.117	-0.209
-681.251	-200.000	0.042	0.449
-680.237	-51.468	-0.297	-0.140
-679.222	-51.560	-0.487	0.229
-678.208	256.826	-0.097	-0.168
-677.193	-20.670	0.215	0.133
-676.178	-51.170	-0.126	-0.059
-675.164	53.876	0.320	0.309
-674.149	800.000	-0.068	-0.212
-673.135	-200.000	-0.013	-0.085
-672.120	-188.507	-0.430	0.005
-671.105	-32.643	-0.229	0.128
-670.091	800.000	-0.108	0.410
-669.076	76.106	-0.220	0.234
-668.062	574.140	-0.043	-0.105
-667.047	-72.242	0.208	-0.078
-666.032	-54.353	0.045	-0.021
-665.018	621.169	-0.039	0.099
-664.003	-17.520	-0.333	0.210
-662.989	-32.353	0.166	0.093
-661.974	274.915	0.026	-0.047
-660.959	800.000	0.040	0.173
-659.945	-56.513	-0.156	-0.069
-658.930	142.257	-0.066	-0.087
-657.916	-99.440	-0.293	-0.074
-656.901	-13.567	-0.100	0.065
-655.886	-59.813	-0.234	-0.101
-654.872	-51.787	-0.216	0.101
-653.857	10.321	0.166	-0.127
-652.843	800.000	0.036	-0.151
-651.828	-200.000	-0.022	-0.200
-650.814	-99.112	0.098	-0.025
-649.799	-117.797	0.107	-0.019
-648.784	-59.306	-0.043	0.018
-647.770	239.718	0.197	-0.330
-646.755	-57.486	-0.271	-0.119
-645.741	111.206	-0.119	-0.144
-644.726	-85.850	-0.412	-0.128
-643.711	268.852	0.157	0.277
-642.697	507.836	-0.062	0.146
-641.682	-200.000	-0.002	-0.064
-640.668	210.428	0.135	-0.213
-639.653	-14.931	0.182	-0.117
-638.638	-171.089	-0.333	0.011
-637.624	328.036	0.054	0.104
-636.609	170.015	-0.167	0.240
-635.595	27.277	0.216	-0.183
-634.580	800.000	-0.095	0.302
-633.565	-3.080	-0.179	-0.125
-632.551	470.327	0.073	-0.164
-631.536	336.354	-0.112	-0.218
-630.522	37.131	-0.114	-0.102
-629.507	280.594	-0.388	-0.697
-628.492	-87.990	-0.376	0.113
-627.478	800.000	-0.034	0.104
-626.463	-172.182	0.310	-0.010
-625.449	-155.223	-0.173	0.011
-624.434	-45.383	-0.181	0.090
-623.419	-200.000	0.014	-0.111
-622.405	-54.092	-0.281	-0.128
-621.390	91.928	0.004	0.004
-620.376	-144.092	0.065	0.006
-619.361	-77.528	0.177	-0.062
-618.346	800.000	0.073	0.260
-617.332	800.000	0.132	-0.446
-616.317	-182.092	-0.153	0.003
-615.303	-18.557	-0.061	-0.038
-614.288	-59.148	-0.198	-0.086
-613.273	-200.000	-0.023	-0.263
-612.259	-101.386	0.050	-0.012
-611.244	-200.000	-0.022	0.185
-610.230	800.000	-0.058	0.181
-609.215	112.792	0.037	0.045
-608.201	800.000	0.115	0.354
-607.186	-70.126	-0.223	-0.085
-606.171	-53.059	-0.138	0.063
-605.157	-14.510	-0.123	-0.079
-604.142	-200.000	-0.052	-0.348
-603.128	-48.399	0.425	-0.206
-602.113	46.854	-0.284	-0.265
-601.098	-102.002	-0.145	-0.035
-600.084	-45.865	-0.232	0.115
-599.069	-138.514	-0.051	-0.006
-598.055	-200.000	-0.020	0.117
-597.040	114.815	0.052	0.064
-596.025	-44.172	0.339	-0.171
-595.011	-120.733	0.241	-0.041
-593.996	155.002	-0.147	-0.203
-592.982	62.818	-0.156	0.156
-591.967	255.229	-0.078	-0.135
-590.952	-52.432	0.337	0.156
-589.938	20.350	-0.237	0.192
-588.923	362.854	0.113	-0.227
-587.909	-200.000	-0.009	0.233
-586.894	65.638	0.126	0.128
-585.879	-146.839	-0.317	-0.027
-584.865	-200.000	0.006	-0.071
-583.850	-200.000	-0.001	-0.153
-582.836	206.883	0.135	0.210
-581.821	-200.000	0.002	0.196
-580.806	-124.318	-0.233	0.036
-579.792	212.611	0.087	0.138
-578.777	143.000	0.082	0.109
-577.763	-146.051	-0.103	0.009
-576.748	135.535	-0.180	-0.234
-575.733	-200.000	-0.035	0.243
-574.719	60.670	-0.197	-0.196
-573.704	62.413	0.253	0.254
-572.690	-200.000	0.035	-0.240
-571.675	-89.348	0.216	-0.064
-570.661	-116.514	0.214	-0.040
-569.646	-72.945	-0.271	0.100
-568.631	149.226	-0.074	-0.100
-567.617	15.407	0.264	-0.207
-566.602	-159.696	-0.055	-0.003
-565.588	43.815	0.193	0.177
-564.573	-200.000	-0.072	0.348
-563.558	100.579	0.202	0.235
-562.544	61.238	-0.138	0.138
-561.529	439.635	0.030	0.066
-560.515	20.585	-0.196	-0.159
-559.500	-200.000	-0.032	-0.152
-558.485	-143.274	-0.308	0.030
-557.471	800.000	0.063	-0.238
-556.456	213.126	-0.173	-0.273
-555.442	-34.516	0.171	0.094
-554.427	-153.320	-0.274	-0.019
-553.412	800.000	0.056	0.239
-552.398	800.000	-0.023	-0.086
-551.383	-200.000	-0.005	0.130
-550.369	53.101	-0.215	-0.206
-549.354	-162.165	-0.454	-0.023
-548.339	-200.000	0.010	0.069
-547.325	-200.000	-0.071	-0.528
-546.310	-133.420	0.251	-0.032
-545.296	-116.433	-0.087	0.016
-544.281	236.160	-0.169	0.280
-543.266	-73.489	-0.168	-0.061
-542.252	10.511	0.070	0.053
-541.237	800.000	-0.049	-0.160
-540.223	55.094	-0.200	0.194
-539.208	364.705	-0.165	0.333
-538.193	101.448	-0.124	0.144
-537.179	112.968	0.163	-0.197
-536.164	-52.861	0.248	-0.115
-535.150	-140.765	0.040	-0.004
-534.135	74.749	-0.148	-0.156
-533.121	800.000	0.099	-0.290
-532.106	800.000	0.048	-0.170
-531.091	-81.016	-0.298	-0.099
-530.077	-200.000	0.004	-0.051
-529.062	205.459	0.141	-0.220
-528.048	81.005	-0.085	-0.092
-527.033	-200.000	-0.022	0.118
-526.018	-18.056	-0.114	0.072
-525.004	-200.000	-0.045	-0.519
-523.989	-149.856	0.205	0.016
-522.975	96.385	0.169	-0.193
-521.960	-177.697	-0.096	-0.002
-520.945	-172.008	0.016	0.001
-519.931	116.539	0.203	-0.249
-518.916	-200.000	-0.019	-0.212
-517.902	-92.818	0.313	0.088
-516.887	-32.882	-0.127	-0.071
-515.872	-133.142	0.145	-0.018
-514.858	800.000	0.033	0.101
-513.843	-200.000	0.035	0.198
-512.829	-191.451	-0.361	0.004
-511.814	-122.592	0.224	0.036
-510.799	-116.109	-0.320	0.059
-509.785	92.745	0.123	0.138
-508.770	72.024	0.141	-0.147
-507.756	-37.163	-0.230	0.123
-506.741	800.000	-0.060	0.257
-505.726	-57.861	-0.268	-0.117
-504.712	166.009	-0.133	-0.188
-503.697	-200.000	-0.030	0.216
-502.683	7.242	0.296	0.220
-501.668	800.000	-0.055	-0.165
-500.653	315.853	0.032	-0.061
-499.639	-200.000	0.035	-0.298
-498.624	-82.545	0.046	-0.015
-497.610	800.000	-0.032	0.103
-496.595	43.838	-0.159	-0.146
-495.581	173.374	-0.152	-0.219
-494.566	255.274	-0.104	-0.178
-493.551	-99.451	0.164	-0.041
-492.537	-200.000	-0.008	0.086
-491.522	240.549	-0.068	-0.114
-490.508	166.406	0.084	0.119
-489.493	-200.000	-0.044	-0.210
-488.478	-165.520	-0.169	-0.007
-487.464	-138.024	0.219	0.024
-486.449	44.465	-0.063	-0.058
-485.435	50.060	-0.079	0.074
-484.420	130.520	-0.339	0.433
-483.405	-8.211	-0.350	-0.235
-482.391	286.594	-0.139	0.250
-481.376	135.042	0.167	-0.217
-480.362	-21.399	-0.330	0.201
-479.347	-200.000	-0.001	0.285
-478.332	-200.000	-0.016	-0.093
-477.318	42.885	-0.114	-0.104
-476.303	-31.445	0.117	0.066
-475.289	-153.988	-0.293	0.020
-474.274	800.000	0.030	-0.091
-473.259	53.100	0.179	-0.171
-472.245	-200.000	0.017	0.168
-471.230	-200.000	0.011	0.344
-470.216	800.000	0.051	0.144
-469.201	15.751	0.048	0.037
-468.186	-200.000	-0.002	-0.045
-467.172	-51.666	0.200	0.093
-466.157	-200.000	-0.049	-0.250
-465.143	331.938	0.117	-0.225
-464.128	-70.773	0.220	-0.083
-463.113	-200.000	-0.042	-0.221
-462.099	-81.257	-0.053	0.017
-461.084	800.000	-0.080	0.276
-460.070	-200.000	-0.005	-0.034
-459.055	800.000	0.087	0.326
-458.040	-200.000	0.011	0.120
-457.026	-200.000	0.106	0.535
-456.011	128.186	0.297	0.377
-454.997	-200.000	0.009	-0.091
-453.982	168.439	-0.212	0.301
-452.968	-98.893	0.296	0.075
-451.953	-66.363	0.233	0.092
-450.938	-165.967	0.204	-0.009
-449.924	73.174	0.206	0.215
-448.909	23.111	0.123	-0.101
-447.895	118.653	-0.215	-0.265
-446.880	-160.283	-0.222	-0.012
-445.865	569.935	-0.220	-0.533
-444.851	42.767	-0.224	0.204
-443.836	-99.842	-0.112	-0.028
-442.822	24.424	0.259	-0.214
-441.807	113.764	0.115	0.139
-440.792	-200.000	-0.027	-0.133
-439.778	153.535	0.173	-0.236
-438.763	32.409	0.104	-0.090
-437.749	800.000	-0.036	-0.150
-436.734	-81.573	0.071	0.023
-435.719	-200.000	0.044	0.230
-434.705	50.711	-0.166	-0.157
-433.690	-55.205	-0.204	0.091
-432.676	574.335	0.082	0.198
-431.661	263.609	-0.183	-0.317
-430.646	441.994	-0.023	0.051
-429.632	-200.000	-0.017	0.099
-428.617	265.268	-0.201	0.349
-427.603	28.562	0.147	0.124
-426.588	-32.977	-0.312	0.172
-425.573	-200.000	-0.056	-0.272
-424.559	-168.088	0.247	-0.010
-423.544	-83.251	-0.064	0.021
-422.530	-58.522	-0.261	-0.113
-421.515	-183.042	-0.306	0.005
-420.500	24.608	-0.373	0.308
-419.486	203.696	0.149	0.229
-418.471	-2.990	0.172	-0.119
-417.457	204.777	0.030	-0.047
-416.442	30.468	0.120	0.102
-415.428	-105.037	0.436	-0.099
-414.413	-103.485	-0.265	0.062
-413.398	26.433	0.109	0.091
-412.384	-85.765	0.425	-0.131
-411.369	2.471	0.053	0.038
-410.355	18.916	-0.257	0.205
-409.340	-200.000	0.011	0.067
-408.325	418.836	0.081	0.173
-407.311	134.262	0.074	-0.096
-406.296	154.727	-0.140	-0.191
-405.282	-65.720	-0.304	-0.121
-404.267	-109.335	-0.129	-0.027
-403.252	-200.000	0.051	-0.317
-402.238	800.000	-0.085	-0.264
-401.223	-200.000	-0.018	-0.135
-400.209	-106.283	0.227	0.051
-399.194	155.265	-0.196	0.268
-398.179	-200.000	0.036	-0.379
-397.165	102.725	0.191	0.223
-396.150	-184.504	-0.214	0.003
-395.136	-87.631	0.128	0.038
-394.121	-140.417	-0.223	-0.023
-393.106	-135.355	-0.123	0.015
-392.092	-91.922	0.372	0.105
-391.077	-14.218	0.051	-0.033
-390.063	-31.491	-0.153	-0.086
-389.048	16.446	0.061	-0.048
-388.033	-200.000	-0.017	-0.125
-387.019	-200.000	-0.016	0.089
-386.004	-200.000	0.027	0.515
-384.990	-200.000	0.030	0.328
-383.975	-52.917	0.206	0.094
-382.960	456.953	-0.076	-0.168
-381.946	-83.383	0.063	0.020
-380.931	-140.611	0.232	-0.024
-379.917	13.697	0.450	0.348
-378.902	-101.719	-0.303	0.073
-377.888	-46.743	0.099	0.048
-376.873	73.045	-0.021	0.022
-375.858	-154.227	0.175	0.012
-374.844	89.056	0.262	-0.290
-373.829	287.093	0.011	-0.019
-372.815	-66.133	0.098	-0.039
-371.800	130.766	0.259	0.331
-370.785	5.482	-0.200	0.147
-369.771	88.136	-0.146	0.161
-368.756	105.479	0.148	-0.174
-367.742	574.750	0.064	0.156
-366.727	-180.211	-0.110	0.002
-365.712	-200.000	-0.003	-0.135
-364.698	444.063	0.043	0.094
-363.683	-65.959	-0.172	0.068
-362.669	-147.747	0.391	0.033
-361.654	-200.000	0.023	0.118
-360.639	-159.544	0.267	-0.015
-359.625	-200.000	0.002	0.150
-358.610	-200.000	0.021	-0.200
-357.596	-48.051	-0.204	0.098
-356.581	-171.110	0.201	-0.007
-355.566	-72.460	-0.096	0.035
-354.552	67.814	-0.054	0.054
-353.537	147.388	-0.223	-0.298
-352.523	-200.000	-0.034	0.220
-351.508	-200.000	-0.017	-0.166
-350.493	-149.409	-0.249	-0.020
-349.479	51.433	-0.129	-0.122
-348.464	-60.760	-0.155	-0.065
-347.450	-43.521	-0.388	-0.195
-346.435	7.721	0.198	0.148
-345.420	-126.782	0.112	0.016
-344.406	706.745	-0.065	-0.171
-343.391	278.528	-0.152	0.269
-342.377	-200.000	-0.019	-0.099
-341.362	711.178	0.033	-0.086
-340.348	430.143	0.065	-0.140
-339.333	-200.000	0.074	-0.370
-338.318	-45.640	-0.109	-0.054
-337.304	227.991	-0.085	-0.138
-336.289	606.974	0.060	-0.149
-335.275	800.000	-0.019	0.069
-334.260	772.934	0.077	-0.210
-333.245	228.626	-0.123	-0.199
-332.231	-155.289	-0.167	-0.011
-331.216	800.000	0.152	0.427
-330.202	-98.745	-0.202	0.051
-329.187	97.115	0.168	-0.191
-328.172	335.848	0.109	-0.210
-327.158	352.717	-0.135	-0.265
-326.143	715.170	0.046	0.120
-325.129	-153.402	0.301	-0.021
-324.114	625.568	0.047	0.118
-323.099	800.000	0.048	0.134
-322.085	-200.000	-0.039	0.229
-321.070	-200.000	0.065	0.327
-320.056	629.778	0.072	0.181
-319.041	243.321	0.174	0.290
-318.026	-18.932	0.067	0.041
-317.012	-63.057	-0.088	-0.036
-315.997	317.054	0.141	-0.265
-314.983	-60.354	-0.165	0.070
-313.968	62.764	-0.177	0.176
-312.953	45.081	0.138	0.126
-311.939	-29.007	0.138	-0.078
-310.924	18.635	0.146	-0.116
-309.910	-155.537	0.187	0.012
-308.895	-84.419	-0.124	0.039
-307.880	-85.013	0.021	0.007
-306.866	16.920	-0.180	0.141
-305.851	-64.412	0.157	0.063
-304.837	275.489	0.066	-0.116
-303.822	103.872	0.197	-0.230
-302.807	26.074	-0.169	0.140
-301.793	523.257	0.068	0.158
-300.778	249.225	0.139	0.233
-299.764	610.728	0.030	-0.074
-298.749	30.786	-0.232	0.197
-297.735	-30.518	-0.136	-0.076
-296.720	-161.636	-0.197	0.010
-295.705	-162.234	0.322	-0.016
-294.691	162.168	0.090	0.125
-293.676	1.144	-0.026	0.019
-292.662	84.112	-0.116	-0.126
-291.647	166.202	-0.226	0.317
-290.632	129.780	0.063	0.080
-289.618	-180.445	0.444	0.009
-288.603	120.822	0.130	-0.160
-287.589	108.764	0.213	0.252
-286.574	20.601	0.082	0.066
-285.559	17.966	-0.165	-0.130
-284.545	587.981	-0.093	0.228
-283.530	-200.000	0.000	0.061
-282.516	46.321	0.218	0.200
-281.501	-54.908	0.055	0.024
-280.486	-200.000	0.058	0.341
-279.472	-200.000	0.033	0.213
-278.457	66.859	-0.136	-0.137
-277.443	-200.000	0.041	-0.209
-276.428	800.000	0.158	-0.669
-275.413	-151.608	0.115	0.008
-274.399	800.000	0.089	0.356
-273.384	-166.253	0.296	-0.012
-272.370	-188.752	-0.290	-0.004
-271.355	355.161	-0.178	0.350
-270.340	-48.129	0.330	0.158
-269.326	-7.025	-0.303	-0.204
-268.311	36.774	0.197	-0.172
-267.297	-200.000	-0.003	0.405
-266.282	52.907	-0.271	0.256
-265.267	-41.985	-0.275	0.140
-264.253	-9.948	-0.161	0.106
-263.238	-13.520	0.183	0.117
-262.224	-132.337	0.317	0.041
-261.209	-129.008	0.307	-0.043
-260.195	88.344	-0.339	-0.373
-259.180	-200.000	0.024	0.167
-258.165	587.136	-0.047	-0.115
-257.151	-101.715	0.148	0.036
-256.136	-2.613	-0.198	0.137
-255.122	800.000	-0.043	-0.140
-254.107	197.210	0.091	0.137
-253.092	-177.995	0.261	0.006
-252.078	57.724	-0.219	0.212
-251.063	171.107	0.238	-0.337
-250.049	-200.000	-0.001	-0.042
-249.034	-200.000	0.017	0.271
-248.019	154.851	0.120	0.163
-247.005	-200.000	0.019	0.106
-245.990	-55.161	0.261	0.116
-244.976	-67.998	-0.013	0.005
-243.961	88.205	-0.207	0.227
-242.946	800.000	-0.098	-0.278
-241.932	315.026	-0.050	-0.094
-240.917	-180.239	-0.118	0.002
-239.903	-74.980	0.110	-0.039
-238.888	-117.004	-0.134	0.024
-237.873	23.183	0.051	0.042
-236.859	11.389	0.095	-0.072
-235.844	-200.000	-0.047	-0.285
-234.830	99.180	0.266	0.304
-233.815	-167.999	-0.408	0.016
-232.800	-143.142	0.099	-0.009
-231.786	-7.955	0.094	0.062
-230.771	746.898	-0.097	-0.258
-229.757	37.462	-0.089	-0.078
-228.742	-200.000	0.002	-0.312
-227.727	160.495	0.085	-0.117
-226.713	-82.404	0.282	-0.090
-225.698	164.301	0.203	0.282
-224.684	65.163	-0.227	0.227
-223.669	7.154	-0.141	0.104
-222.655	394.331	-0.177	-0.365
-221.640	114.578	-0.241	-0.290
-220.625	800.000	0.106	-0.292
-219.611	800.000	-0.024	-0.101
-218.596	-66.379	0.112	-0.044
-217.582	7.826	-0.106	0.079
-216.567	-110.741	0.406	-0.083
-215.552	112.890	0.174	0.208
-214.538	800.000	0.059	0.199
-213.523	-200.000	0.003	-0.041
-212.509	-41.518	-0.273	0.139
-211.494	-92.320	0.291	-0.081
-210.479	98.737	-0.045	-0.052
-209.465	259.888	0.137	-0.234
-208.450	-200.000	0.003	-0.174
-207.436	-55.812	0.402	0.177
-206.421	-184.730	-0.352	-0.006
-205.406	-119.250	-0.180	0.031
-204.392	399.544	-0.095	-0.197
-203.377	226.989	-0.069	-0.111
-202.363	-61.059	0.583	0.243
-201.348	-98.758	-0.302	-0.076
-200.333	135.777	-0.124	0.159
-199.319	800.000	-0.036	-0.144
-198.304	-150.754	-0.100	0.007
-197.290	-72.719	-0.237	0.086
-196.275	29.095	0.340	-0.285
-195.260	800.000	0.076	-0.286
-194.246	-89.080	0.262	-0.076
-193.231	-73.686	0.153	-0.055
-192.217	-19.065	0.235	-0.144
-191.202	214.192	0.139	0.217
-190.187	-168.793	0.361	-0.013
-189.173	380.486	0.075	-0.151
-188.158	-174.220	-0.111	0.003
-187.144	800.000	-0.017	0.059
-186.129	-31.695	-0.278	-0.154
-185.114	-38.889	-0.128	-0.067
-184.100	-143.524	0.241	-0.023
-183.085	-200.000	0.034	0.429
-182.071	22.185	0.149	0.120
-181.056	-110.379	0.272	0.056
-180.042	800.000	0.028	0.104
-179.027	-18.500	-0.310	-0.191
-178.012	800.000	-0.109	-0.346
-176.998	-13.191	-0.099	0.064
-175.983	-95.380	0.053	0.014
-174.969	-135.444	0.144	0.017
-173.954	800.000	-0.031	-0.120
-172.939	800.000	0.095	-0.278
-171.925	800.000	0.026	0.081
-170.910	-2.510	0.130	-0.090
-169.896	260.219	-0.101	-0.171
-168.881	-62.874	0.139	-0.057
-167.866	-200.000	0.010	0.287
-166.852	144.705	0.183	0.241
-165.837	800.000	0.040	0.159
-164.823	-200.000	0.062	0.279
-163.808	-36.644	-0.207	0.110
-162.793	-114.955	0.112	0.021
-161.779	-200.000	-0.044	0.438
-160.764	38.193	0.172	0.151
-159.750	-95.033	0.275	0.073
-158.735	26.973	-0.250	-0.206
-157.720	459.579	0.047	-0.104
-156.706	714.231	-0.030	-0.079
-155.691	31.538	0.079	-0.067
-154.677	800.000	-0.028	-0.113
-153.662	8.544	-0.335	-0.249
-152.647	-176.820	0.322	0.008
-151.633	-200.000	-0.004	0.168
-150.618	345.552	0.048	-0.094
-149.604	180.755	-0.078	-0.113
-148.589	-53.137	-0.504	-0.228
-147.574	800.000	-0.031	0.124
-146.560	800.000	0.071	0.207
-145.545	128.766	0.249	0.313
-144.531	-147.186	0.315	0.026
-143.516	-165.785	-0.054	-0.002
-142.502	-200.000	-0.045	-0.358
-141.487	117.279	0.059	0.072
-140.472	800.000	0.071	-0.251
-139.458	470.133	0.225	0.499
-138.443	17.936	0.161	0.127
-137.429	-200.000	-0.017	0.203
-136.414	18.106	0.038	-0.030
-135.399	13.800	0.109	-0.084
-134.385	-200.000	0.032	0.184
-133.370	-200.000	0.016	0.328
-132.356	-19.260	0.037	0.023
-131.341	-158.080	-0.232	0.013
-130.326	-81.247	0.080	0.026
-129.312	800.000	0.075	-0.212
-128.297	34.692	-0.255	-0.220
-127.283	-7.985	-0.412	-0.273
-126.268	-200.000	0.021	-0.325
-125.253	-68.945	-0.152	0.058
-124.239	-103.920	-0.080	0.018
-123.224	-168.602	0.208	-0.008
-122.210	12.355	0.073	-0.056
