DTS Sentinel unit serial number:	SN413079Multiplexer serial number:	ORYXHardware model number:	OX4-SRSoftware version number:	ORYX F/W v4.00 Oryx Data Collector v3.7.2.0data status	okinstallation	princeton_trtdifferential loss correction	single-endedforward channel	channel 2reverse channel	N/Adate	2019/09/14time	01:59:34forward acquisition time	60.00reverse acquisition time	0.00gamma	496.2192k internal	0.2337k external	0.2337temperature offset calibration	1.0124default loss term (dB/km)	0.3790temperature slope calibration	1.0000multiplexer offset coefficient	1.0000multiplexer slope coefficient	1.0000fibre end	0.00T internal ref (°C)	26.50T ext. ref 1 (°C)	3.21T ext. ref 2 (°C)	21.53length (m)	temperature (°C)	Stokes	anti-Stokes-747.200	252.655	0.096	-0.165
-746.185	-179.591	-0.196	0.004
-745.171	383.743	0.104	0.216
-744.156	-160.954	-0.236	0.012
-743.142	800.000	-0.143	0.525
-742.127	154.640	-0.110	0.152
-741.112	82.180	-0.125	-0.136
-740.098	-49.671	-0.393	-0.188
-739.083	150.920	-0.329	0.449
-738.069	164.637	0.062	0.087
-737.054	278.796	0.125	-0.224
-736.039	-110.668	-0.306	0.063
-735.025	668.047	0.094	0.244
-734.010	-68.413	-0.366	-0.142
-732.996	25.615	-0.073	-0.061
-731.981	-197.294	0.377	-0.002
-730.966	166.451	0.155	-0.221
-729.952	745.842	-0.113	-0.306
-728.937	487.213	0.120	-0.275
-727.923	-188.384	-0.116	0.001
-726.908	-0.063	-0.225	0.160
-725.894	800.000	0.036	0.143
-724.879	-1.155	-0.116	0.082
-723.864	-123.321	0.329	0.053
-722.850	-200.000	0.044	-0.331
-721.835	119.575	-0.128	-0.159
-720.821	-200.000	-0.049	0.289
-719.806	-200.000	0.027	0.162
-718.791	63.807	-0.287	-0.289
-717.777	-200.000	-0.013	-0.167
-716.762	800.000	-0.033	-0.142
-715.748	800.000	-0.045	-0.183
-714.733	-200.000	-0.031	0.244
-713.718	163.493	-0.075	-0.106
-712.704	268.047	-0.092	-0.161
-711.689	77.980	0.177	0.189
-710.675	83.907	-0.124	-0.135
-709.660	9.499	0.109	0.083
-708.645	-185.369	-0.141	-0.002
-707.631	-1.109	-0.133	-0.094
-706.616	243.193	0.196	0.330
-705.602	-25.783	-0.177	0.105
-704.587	5.603	-0.131	-0.097
-703.572	59.985	0.218	-0.215
-702.558	27.417	-0.218	-0.184
-701.543	22.993	-0.154	-0.127
-700.529	278.699	0.134	-0.239
-699.514	-200.000	-0.002	0.021
-698.499	396.834	0.127	0.265
-697.485	247.178	-0.168	0.284
-696.470	800.000	-0.031	-0.085
-695.456	566.160	-0.023	-0.057
-694.441	-41.829	-0.278	0.143
-693.426	-151.654	0.279	-0.021
-692.412	51.309	-0.072	0.068
-691.397	336.832	-0.036	-0.071
-690.383	-103.383	-0.192	-0.045
-689.368	31.836	-0.176	-0.152
-688.354	226.036	0.230	-0.373
-687.339	375.092	0.158	-0.323
-686.324	-101.203	-0.358	-0.088
-685.310	298.531	0.161	0.297
-684.295	800.000	0.106	-0.409
-683.281	228.950	0.236	-0.385
-682.266	161.847	0.162	-0.227
-681.251	164.527	-0.270	0.381
-680.237	742.633	0.062	-0.167
-679.222	-200.000	-0.016	-0.223
-678.208	-200.000	0.023	-0.274
-677.193	150.414	-0.281	0.382
-676.178	195.323	-0.182	-0.276
-675.164	-0.942	0.118	-0.084
-674.149	800.000	-0.037	-0.101
-673.135	86.429	-0.175	0.193
-672.120	-1.360	-0.180	-0.127
-671.105	406.906	-0.061	-0.128
-670.091	-29.159	-0.382	-0.219
-669.076	316.155	-0.113	0.214
-668.062	98.871	-0.061	-0.070
-667.047	287.451	0.188	-0.340
-666.032	186.496	0.044	-0.066
-665.018	27.941	0.322	-0.272
-664.003	-179.717	-0.311	0.007
-662.989	194.129	0.166	0.251
-661.974	-0.833	-0.354	-0.251
-660.959	-200.000	-0.004	-0.046
-659.945	-12.822	0.166	0.108
-658.930	226.547	-0.163	-0.265
-657.916	229.405	-0.114	-0.186
-656.901	-173.386	0.226	-0.007
-655.886	174.993	0.089	-0.129
-654.872	-200.000	0.027	-0.231
-653.857	-35.971	-0.331	-0.179
-652.843	-116.843	0.357	-0.065
-651.828	-153.188	-0.280	0.020
-650.814	-127.864	0.156	0.023
-649.799	16.871	-0.126	-0.100
-648.784	-200.000	0.025	0.164
-647.770	46.152	-0.077	-0.072
-646.755	230.979	0.076	-0.125
-645.741	-200.000	0.054	-0.363
-644.726	-26.172	-0.107	0.063
-643.711	800.000	-0.051	0.146
-642.697	92.125	-0.129	-0.146
-641.682	152.541	0.089	-0.121
-640.668	-76.865	0.358	0.125
-639.653	-77.657	0.230	-0.080
-638.638	-85.230	-0.332	-0.104
-637.624	-200.000	0.010	0.097
-636.609	648.047	-0.062	-0.157
-635.595	-200.000	-0.032	0.141
-634.580	-3.304	0.089	0.062
-633.565	-200.000	-0.002	0.062
-632.551	-117.329	0.436	0.079
-631.536	176.411	0.145	0.210
-630.522	0.616	-0.101	0.072
-629.507	95.118	0.317	-0.361
-628.492	11.587	-0.097	-0.074
-627.478	800.000	0.041	-0.123
-626.463	-100.768	-0.329	-0.081
-625.449	-86.306	-0.062	-0.019
-624.434	49.115	-0.189	-0.177
-623.419	16.222	0.196	-0.154
-622.405	63.212	-0.121	-0.121
-621.390	-75.069	0.257	-0.092
-620.376	531.541	-0.178	0.420
-619.361	-111.349	-0.302	0.061
-618.346	482.631	0.041	0.093
-617.332	-56.118	0.148	0.066
-616.317	-57.756	0.222	0.097
-615.303	-200.000	0.017	0.290
-614.288	800.000	0.063	-0.188
-613.273	-200.000	0.030	-0.505
-612.259	428.568	-0.088	0.190
-611.244	474.461	-0.041	0.093
-610.230	-21.734	0.019	0.012
-609.215	800.000	0.119	0.433
-608.201	800.000	-0.063	-0.212
-607.186	-200.000	-0.002	-0.429
-606.171	78.543	0.114	-0.121
-605.157	800.000	-0.038	0.116
-604.142	-77.899	-0.229	0.079
-603.128	-111.470	-0.177	-0.036
-602.113	700.170	-0.021	0.056
-601.098	-33.536	0.318	-0.176
-600.084	-26.598	-0.460	-0.269
-599.069	-43.840	-0.178	0.090
-598.055	-52.743	0.273	-0.126
-597.040	-70.216	0.176	0.067
-596.025	-200.000	0.042	0.195
-595.011	-53.841	-0.122	-0.055
-593.996	-0.537	-0.273	0.193
-592.982	-87.535	-0.111	-0.034
-591.967	-200.000	0.004	-0.408
-590.952	230.335	-0.125	-0.204
-589.938	68.377	-0.070	0.072
-588.923	55.034	0.357	0.344
-587.909	-65.960	0.078	-0.031
-586.894	-21.510	-0.155	-0.095
-585.879	187.427	0.060	0.089
-584.865	800.000	-0.093	0.396
-583.850	20.154	-0.262	-0.211
-582.836	-131.957	-0.167	0.022
-581.821	-52.722	0.340	0.156
-580.806	-57.896	0.161	0.070
-579.792	427.457	-0.170	0.366
-578.777	106.897	0.166	0.197
-577.763	-84.285	0.234	0.074
-576.748	247.670	0.236	-0.398
-575.733	-31.077	0.282	0.159
-574.719	89.594	0.068	-0.076
-573.704	-200.000	0.006	-0.034
-572.690	195.846	-0.082	0.125
-571.675	-89.328	-0.181	-0.053
-570.661	-56.641	-0.400	-0.177
-569.646	-114.838	0.109	0.021
-568.631	800.000	-0.042	-0.156
-567.617	10.221	-0.109	0.082
-566.602	-86.765	0.332	-0.101
-565.588	800.000	-0.103	-0.338
-564.573	800.000	0.062	0.185
-563.558	-200.000	0.028	0.201
-562.544	22.026	-0.204	0.166
-561.529	75.244	-0.241	0.253
-560.515	-53.577	-0.296	-0.135
-559.500	800.000	0.097	-0.339
-558.485	391.768	0.057	-0.118
-557.471	11.211	-0.169	-0.129
-556.456	-63.742	-0.109	0.045
-555.442	204.141	0.073	-0.113
-554.427	-200.000	-0.039	-0.352
-553.412	214.681	0.149	-0.236
-552.398	54.218	0.223	-0.214
-551.383	-57.319	0.314	-0.137
-550.369	178.477	-0.082	-0.119
-549.354	-43.913	0.262	-0.131
-548.339	-91.195	-0.221	0.063
-547.325	37.388	0.257	0.227
-546.310	800.000	0.070	-0.255
-545.296	-186.504	-0.273	-0.004
-544.281	52.307	0.087	0.083
-543.266	-135.193	0.075	-0.009
-542.252	-71.958	-0.279	-0.103
-541.237	-87.556	-0.208	-0.063
-540.223	421.900	-0.053	-0.112
-539.208	20.762	-0.320	0.258
-538.193	137.030	-0.218	0.283
-537.179	-18.652	-0.124	0.077
-536.164	-26.746	0.167	0.097
-535.150	163.393	-0.112	0.157
-534.135	672.257	0.079	-0.204
-533.121	-143.695	0.235	0.022
-532.106	-65.586	-0.120	0.048
-531.091	153.153	0.199	-0.271
-530.077	-117.636	-0.254	0.046
-529.062	-122.348	0.305	-0.050
-528.048	800.000	-0.102	0.380
-527.033	0.148	-0.181	0.128
-526.018	-80.437	-0.048	-0.016
-525.004	-200.000	0.016	0.080
-523.989	750.724	-0.089	-0.239
-522.975	800.000	0.047	0.172
-521.960	-101.206	0.323	0.078
-520.945	93.518	-0.271	-0.305
-519.931	-68.248	-0.295	0.114
-518.916	-23.694	-0.196	-0.117
-517.902	49.222	-0.154	-0.144
-516.887	-200.000	-0.025	-0.198
-515.872	-179.144	-0.336	0.007
-514.858	63.277	0.099	0.098
-513.843	704.951	0.070	0.182
-512.829	767.756	0.131	-0.355
-511.814	-200.000	-0.032	-0.162
-510.799	-77.377	0.145	0.050
-509.785	-6.964	0.124	-0.084
-508.770	16.113	-0.327	0.257
-507.756	-0.576	-0.253	0.179
-506.741	120.138	-0.036	0.044
-505.726	109.158	-0.232	-0.277
-504.712	-82.047	-0.404	0.131
-503.697	800.000	0.033	0.125
-502.683	22.354	-0.150	0.122
-501.668	-3.451	0.063	0.044
-500.653	-142.905	-0.061	0.006
-499.639	-142.884	-0.110	-0.011
-498.624	800.000	-0.029	-0.081
-497.610	-66.938	0.143	-0.056
-496.595	181.445	0.234	0.342
-495.581	-131.569	-0.296	-0.039
-494.566	-200.000	0.021	-0.492
-493.551	5.174	0.218	0.160
-492.537	-200.000	0.019	-0.132
-491.522	-8.439	0.082	0.055
-490.508	-105.595	0.114	0.026
-489.493	-161.086	0.146	0.008
-488.478	-183.776	-0.414	-0.007
-487.464	256.226	-0.239	-0.407
-486.449	-200.000	-0.025	0.371
-485.435	-110.328	-0.221	0.046
-484.420	800.000	-0.117	-0.336
-483.405	-200.000	0.021	0.139
-482.391	-30.293	-0.210	0.118
-481.376	355.746	0.105	-0.208
-480.362	-120.553	0.227	0.038
-479.347	16.824	-0.341	-0.268
-478.332	-101.120	0.089	0.022
-477.318	-13.943	-0.153	0.098
-476.303	-200.000	0.045	-0.259
-475.289	25.353	-0.009	-0.007
-474.274	800.000	-0.091	-0.349
-473.259	-200.000	-0.004	-0.075
-472.245	5.914	-0.178	0.131
-471.230	221.463	0.079	0.127
-470.216	-178.392	0.441	0.010
-469.201	-89.415	-0.089	0.026
-468.186	-57.864	0.143	0.062
-467.172	-31.575	-0.220	0.123
-466.157	-99.628	-0.175	-0.044
-465.143	-200.000	-0.021	0.259
-464.128	-142.670	-0.047	0.005
-463.113	800.000	0.067	-0.198
-462.099	-163.770	0.246	-0.011
-461.084	331.397	-0.172	-0.329
-460.070	498.163	0.074	-0.168
-459.055	800.000	-0.038	0.154
-458.040	-160.972	0.120	-0.006
-457.026	-118.387	-0.437	-0.077
-456.011	-192.894	-0.299	-0.003
-454.997	5.750	-0.239	-0.175
-453.982	668.626	0.100	0.257
-452.968	218.732	0.095	-0.151
-451.953	-93.344	-0.256	0.070
-450.938	73.181	-0.183	0.189
-449.924	-200.000	0.032	-0.412
-448.909	-64.074	0.468	0.189
-447.895	-42.498	0.144	0.073
-446.880	198.428	-0.108	-0.164
-445.865	288.259	-0.190	0.342
-444.851	144.869	0.197	-0.262
-443.836	259.339	-0.071	0.121
-442.822	-200.000	0.028	0.168
-441.807	124.264	-0.032	0.040
-440.792	800.000	-0.039	0.130
-439.778	29.009	0.153	-0.128
-438.763	800.000	0.090	0.249
-437.749	-7.019	0.104	0.070
-436.734	-92.990	-0.083	-0.023
-435.719	-4.634	0.260	0.178
-434.705	-94.941	0.199	0.053
-433.690	-106.560	-0.074	0.016
-432.676	800.000	0.145	0.450
-431.661	-200.000	0.220	-0.001
-430.646	95.691	-0.137	0.155
-429.632	-66.328	-0.195	0.077
-428.617	-200.000	-0.017	0.260
-427.603	-200.000	-0.005	0.239
-426.588	-200.000	-0.014	-0.205
-425.573	-147.986	0.180	0.015
-424.559	4.067	0.092	-0.067
-423.544	68.848	-0.241	-0.245
-422.530	-43.289	0.095	0.048
-421.515	800.000	0.051	0.201
-420.500	-123.097	0.208	-0.033
-419.486	-134.971	-0.172	-0.021
-418.471	674.504	0.002	0.006
-417.457	-109.294	0.239	0.050
-416.442	-141.884	-0.343	0.034
-415.428	800.000	0.086	-0.247
-414.413	-200.000	0.001	0.360
-413.398	-200.000	-0.012	0.132
-412.384	22.623	-0.161	0.130
-411.369	-101.955	-0.318	-0.076
-410.355	-200.000	-0.059	0.295
-409.340	105.089	0.279	-0.326
-408.325	800.000	-0.061	-0.175
-407.311	680.457	0.070	-0.179
-406.296	-63.396	0.285	-0.116
-405.282	-99.864	0.493	0.122
-404.267	-200.000	-0.033	0.208
-403.252	-200.000	0.007	0.046
-402.238	-100.749	-0.351	0.086
-401.223	-37.890	0.287	-0.151
-400.209	800.000	-0.049	-0.184
-399.194	261.988	0.240	0.413
-398.179	206.290	0.164	0.253
-397.165	-8.423	-0.347	0.231
-396.150	-200.000	0.022	0.155
-395.136	-86.005	0.106	-0.032
-394.121	24.123	0.149	-0.122
-393.106	166.068	-0.165	0.231
-392.092	-3.658	0.061	0.042
-391.077	-146.117	0.444	-0.039
-390.063	-200.000	-0.311	-0.001
-389.048	-125.752	0.399	0.060
-388.033	-200.000	-0.032	-0.238
-387.019	-12.088	-0.122	0.079
-386.004	174.309	0.052	-0.074
-384.990	-5.322	-0.257	0.175
-383.975	800.000	-0.045	-0.166
-382.960	-134.105	-0.089	-0.011
-381.946	138.932	0.159	-0.207
-380.931	749.489	0.074	-0.197
-379.917	-200.000	-0.015	-0.214
-378.902	-98.259	-0.263	0.067
-377.888	360.047	-0.086	-0.171
-376.873	-139.510	0.194	-0.020
-375.858	155.033	0.151	0.205
-374.844	-83.065	0.256	-0.082
-373.829	138.608	-0.148	0.193
-372.815	-43.206	-0.130	0.065
-371.800	-20.607	-0.161	-0.098
-370.785	48.408	-0.157	-0.145
-369.771	-178.418	-0.144	0.003
-368.756	800.000	-0.118	-0.323
-367.742	166.203	-0.101	-0.141
-366.727	141.824	0.163	-0.214
-365.712	-41.925	-0.112	-0.057
-364.698	-133.310	-0.066	-0.008
-363.683	251.520	-0.201	0.337
-362.669	-80.589	-0.412	0.136
-361.654	-47.832	0.082	0.039
-360.639	800.000	0.087	0.241
-359.625	592.016	-0.062	0.151
-358.610	111.321	-0.079	0.094
-357.596	9.182	0.290	-0.217
-356.581	36.088	0.432	0.376
-355.566	-107.955	-0.147	0.032
-354.552	6.126	-0.196	0.144
-353.537	-200.000	0.015	-0.193
-352.523	-110.351	-0.243	0.050
-351.508	-200.000	0.016	-0.118
-350.493	-200.000	-0.064	-0.550
-349.479	-102.839	0.085	-0.020
-348.464	11.533	0.087	0.066
-347.450	-114.662	-0.064	0.012
-346.435	-200.000	-0.031	-0.253
-345.420	-17.728	0.115	-0.072
-344.406	-21.795	-0.256	-0.154
-343.391	-53.893	0.096	-0.043
-342.377	-128.932	0.418	-0.058
-341.362	-83.033	0.351	0.112
-340.348	129.310	-0.117	0.147
-339.333	-65.189	-0.204	0.081
-338.318	-75.221	0.109	0.038
-337.304	61.540	0.156	-0.153
-336.289	-200.000	0.014	0.131
-335.275	-52.868	-0.167	0.076
-334.260	-48.988	0.217	0.103
-333.245	132.315	0.064	-0.082
-332.231	-143.474	0.132	0.012
-331.216	106.748	-0.152	0.178
-330.202	-112.401	-0.280	-0.055
-329.187	-115.605	0.362	0.067
-328.172	-159.204	0.219	-0.012
-327.158	800.000	-0.036	-0.115
-326.143	-200.000	-0.027	0.135
-325.129	-200.000	0.031	-0.336
-324.114	-156.613	0.150	0.009
-323.099	39.053	-0.231	0.204
-322.085	565.852	-0.166	-0.398
-321.070	466.016	0.100	0.221
-320.056	438.823	-0.012	0.026
-319.041	596.924	-0.060	0.146
-318.026	43.942	0.254	-0.230
-317.012	-95.657	-0.321	0.085
-315.997	-200.000	-0.039	-0.403
-314.983	704.187	-0.121	-0.315
-313.968	47.355	0.138	0.127
-312.953	-96.386	0.270	0.070
-311.939	-200.000	0.003	0.544
-310.924	-82.444	-0.278	0.089
-309.910	-3.184	-0.119	0.082
-308.895	-200.000	0.021	0.313
-307.880	-123.553	0.226	0.035
-306.866	800.000	-0.029	-0.120
-305.851	299.311	0.069	0.126
-304.837	-84.348	0.216	0.068
-303.822	-200.000	-0.003	-0.053
-302.807	-111.886	0.043	0.009
-301.793	-69.092	-0.287	0.109
-300.778	-137.682	0.295	-0.033
-299.764	-70.245	0.204	-0.077
-298.749	-46.244	-0.082	0.040
-297.735	800.000	0.050	0.183
-296.720	-59.338	0.321	0.136
-295.705	-54.969	-0.255	0.113
-294.691	-200.000	-0.040	0.246
-293.676	277.787	-0.125	0.220
-292.662	800.000	-0.053	-0.222
-291.647	-99.055	-0.187	0.047
-290.632	-200.000	0.026	0.126
-289.618	11.117	-0.364	-0.275
-288.603	-45.618	-0.146	-0.071
-287.589	-126.952	0.288	0.042
-286.574	-98.757	0.346	0.087
-285.559	643.744	0.078	0.196
-284.545	-91.184	0.129	0.037
-283.530	70.229	0.199	-0.203
-282.516	-2.023	-0.212	-0.147
-281.501	441.268	0.070	-0.151
-280.486	-200.000	0.029	-0.193
-279.472	800.000	-0.061	-0.225
-278.457	-176.594	0.236	0.006
-277.443	-72.728	-0.268	0.097
-276.428	-200.000	-0.037	-0.235
-275.413	350.510	0.137	-0.266
-274.399	-55.297	0.228	0.101
-273.384	24.089	-0.076	-0.061
-272.370	95.266	0.217	0.244
-271.355	800.000	-0.153	0.478
-270.340	733.048	-0.162	-0.427
-269.326	160.253	0.114	0.157
-268.311	-133.797	0.100	-0.012
-267.297	-200.000	0.015	0.143
-266.282	-28.245	0.331	0.188
-265.267	-136.422	-0.369	0.042
-264.253	90.894	-0.054	0.060
-263.238	-103.784	0.037	0.008
-262.224	-173.600	0.084	-0.002
-261.209	800.000	-0.067	-0.244
-260.195	-70.955	0.284	0.105
-259.180	105.289	-0.264	0.307
-258.165	-200.000	-0.005	0.125
-257.151	38.916	-0.237	-0.209
-256.136	800.000	-0.064	0.200
-255.122	19.383	-0.128	-0.101
-254.107	-13.313	0.298	0.190
-253.092	184.297	0.169	0.246
-252.078	-20.852	0.245	0.148
-251.063	38.042	0.046	0.041
-250.049	327.197	-0.097	-0.183
-249.034	-21.616	0.204	0.122
-248.019	-77.600	-0.302	0.103
-247.005	-82.843	-0.414	0.132
-245.990	223.548	0.309	-0.491
-244.976	104.210	0.218	-0.253
-243.961	-12.635	0.209	0.134
-242.946	464.264	-0.088	0.193
-241.932	29.866	0.219	-0.183
-240.917	800.000	-0.050	-0.165
-239.903	271.023	-0.165	-0.286
-238.888	570.207	-0.124	-0.296
-237.873	-14.085	0.363	-0.231
-236.859	-200.000	-0.024	-0.128
-235.844	-85.559	-0.167	0.051
-234.830	134.089	0.348	-0.444
-233.815	171.614	-0.108	0.152
-232.800	800.000	0.101	-0.290
-231.786	138.042	-0.135	-0.174
-230.771	-82.359	-0.278	0.089
-229.757	230.125	-0.162	0.260
-228.742	-9.704	0.178	0.117
-227.727	800.000	0.073	0.258
-226.713	8.583	0.268	-0.198
-225.698	225.711	-0.107	0.170
-224.684	-97.706	-0.073	0.019
-223.669	-200.000	-0.001	0.339
-222.655	-144.140	0.420	0.039
-221.640	94.607	-0.145	0.162
-220.625	800.000	-0.062	0.178
-219.611	-135.408	0.104	-0.012
-218.596	56.160	-0.194	-0.185
-217.582	-126.434	0.233	0.034
-216.567	9.611	0.284	-0.212
-215.552	-104.816	0.249	0.056
-214.538	83.650	0.247	0.265
-213.523	-84.386	0.369	0.115
-212.509	-48.921	-0.246	-0.116
-211.494	729.885	-0.011	0.029
-210.479	-200.000	-0.100	0.631
-209.465	-88.626	0.360	0.105
-208.450	-47.257	0.372	-0.178
-207.436	-133.400	-0.052	-0.006
-206.421	601.018	0.062	0.151
-205.406	-12.224	-0.281	0.181
-204.392	168.786	0.198	-0.277
-203.377	291.475	0.128	0.229
-202.363	-181.673	-0.431	-0.008
-201.348	-200.000	0.032	-0.365
-200.333	-105.724	-0.351	0.078
-199.319	123.595	-0.132	-0.162
-198.304	462.463	0.106	-0.232
-197.290	-109.948	-0.169	-0.035
-196.275	61.652	-0.061	-0.059
-195.260	249.594	0.148	-0.247
-194.246	-69.885	0.373	0.140
-193.231	271.475	0.098	0.170
-192.217	-200.000	0.010	0.087
-191.202	-200.000	-0.091	0.425
-190.187	-72.209	0.181	0.066
-189.173	-147.753	0.093	-0.008
-188.158	-119.185	-0.236	-0.041
-187.144	-200.000	0.017	-0.216
-186.129	-172.127	0.071	-0.002
-185.114	212.843	-0.166	-0.258
-184.100	31.999	-0.282	0.239
-183.085	257.602	0.055	0.092
-182.071	512.002	0.082	-0.186
-181.056	-200.000	0.055	-0.263
-180.042	800.000	-0.046	0.170
-179.027	-200.000	0.014	-0.140
-178.012	-14.396	-0.289	-0.182
-176.998	-56.863	-0.391	-0.170
-175.983	-200.000	0.011	-0.081
-174.969	27.735	0.319	0.263
-173.954	-104.379	-0.083	-0.019
-172.939	-200.000	0.012	-0.074
-171.925	82.673	0.099	-0.106
-170.910	-131.297	0.165	-0.021
-169.896	124.401	0.090	0.111
-168.881	372.283	-0.131	0.261
-167.866	-200.000	0.008	0.154
-166.852	-200.000	-0.082	-0.543
-165.837	422.251	0.083	0.175
-164.823	-47.824	0.071	-0.034
-163.808	35.953	-0.169	-0.146
-162.793	-200.000	0.078	0.493
-161.779	-200.000	0.020	0.089
-160.764	101.820	-0.178	0.204
-159.750	37.837	-0.273	-0.238
-158.735	-19.347	0.082	0.050
-157.720	-200.000	0.012	-0.107
-156.706	-83.551	-0.296	-0.093
-155.691	-83.089	0.259	0.082
-154.677	448.325	-0.144	-0.310
-153.662	-91.617	0.302	-0.084
-152.647	62.010	-0.063	-0.062
-151.633	342.116	0.166	0.319
-150.618	-200.000	0.006	0.061
-149.604	134.899	-0.094	0.119
-148.589	251.419	-0.214	0.357
-147.574	-87.912	-0.284	-0.084
-146.560	-157.264	-0.261	-0.016
-145.545	-200.000	0.080	-0.342
-144.531	-21.821	0.091	0.054
-143.516	-55.306	0.223	-0.098
-142.502	-200.000	-0.024	-0.316
-141.487	-18.200	-0.070	0.043
-140.472	751.982	-0.066	-0.174
-139.458	-51.772	0.361	-0.165
-138.443	305.586	-0.063	-0.115
-137.429	188.223	0.096	0.141
-136.414	800.000	-0.053	0.213
-135.399	800.000	-0.079	-0.229
-134.385	-200.000	-0.018	-0.155
-133.370	-200.000	0.032	0.240
-132.356	14.103	-0.167	-0.127
-131.341	50.670	0.187	-0.174
-130.326	38.337	-0.261	0.228
-129.312	19.802	0.116	-0.091
-128.297	11.957	0.082	-0.062
-127.283	-61.221	0.289	0.119
-126.268	26.292	0.166	-0.136
-125.253	-200.000	0.003	-0.051
-124.239	243.144	0.177	-0.290
-123.224	-20.295	-0.171	-0.103
-122.210	-111.403	-0.079	-0.016
-121.195	-200.000	0.003	0.072
