DTS Sentinel unit serial number:	SN413079Multiplexer serial number:	ORYXHardware model number:	OX4-SRSoftware version number:	ORYX F/W v4.00 Oryx Data Collector v3.7.2.0data status	okinstallation	princeton_trtdifferential loss correction	single-endedforward channel	channel 2reverse channel	N/Adate	2019/09/12time	20:31:35forward acquisition time	60.00reverse acquisition time	0.00gamma	496.2192k internal	0.2327k external	0.2327temperature offset calibration	1.0170default loss term (dB/km)	0.3790temperature slope calibration	1.0000multiplexer offset coefficient	1.0000multiplexer slope coefficient	1.0000fibre end	0.00T internal ref (°C)	31.25T ext. ref 1 (°C)	3.62T ext. ref 2 (°C)	25.84length (m)	temperature (°C)	Stokes	anti-Stokes-747.200	-200.000	-0.049	-0.262
-746.185	-29.926	0.346	-0.198
-745.171	200.373	-0.105	-0.163
-744.156	-84.184	-0.113	0.036
-743.142	46.509	0.149	-0.139
-742.127	800.000	-0.144	0.406
-741.112	-200.000	-0.000	0.092
-740.098	247.504	0.108	0.183
-739.083	-200.000	-0.011	-0.099
-738.069	700.497	0.048	0.127
-737.054	-200.000	-0.018	-0.235
-736.039	111.543	-0.207	-0.252
-735.025	800.000	-0.099	0.297
-734.010	63.918	0.093	-0.095
-732.996	-159.142	0.111	-0.006
-731.981	-25.276	-0.284	0.169
-730.966	522.035	0.177	-0.419
-729.952	-37.610	-0.227	0.122
-728.937	24.414	-0.071	-0.059
-727.923	-200.000	0.008	-0.152
-726.908	-200.000	0.045	0.515
-725.894	-182.246	-0.271	-0.005
-724.879	-10.812	0.197	0.131
-723.864	-113.357	-0.053	0.010
-722.850	800.000	-0.038	0.120
-721.835	85.165	0.312	-0.345
-720.821	-128.911	-0.312	0.044
-719.806	-108.829	0.259	0.056
-718.791	-84.130	0.021	-0.007
-717.777	-26.101	0.073	-0.043
-716.762	800.000	0.034	0.127
-715.748	800.000	-0.024	-0.073
-714.733	-200.000	0.014	-0.102
-713.718	304.807	-0.231	-0.431
-712.704	15.476	0.098	-0.078
-711.689	-200.000	-0.020	-0.105
-710.675	800.000	0.109	-0.305
-709.660	-18.391	0.108	-0.068
-708.645	800.000	0.033	0.102
-707.631	85.511	0.037	0.041
-706.616	800.000	-0.028	-0.082
-705.602	-157.449	-0.364	-0.022
-704.587	-46.006	-0.176	0.087
-703.572	270.685	-0.018	0.031
-702.558	-200.000	-0.004	-0.154
-701.543	-161.483	-0.138	-0.007
-700.529	37.015	0.139	0.124
-699.514	800.000	0.051	0.159
-698.499	-119.865	-0.214	0.037
-697.485	61.710	-0.189	-0.189
-696.470	-71.285	-0.138	0.052
-695.456	182.694	0.031	-0.046
-694.441	248.419	-0.130	-0.221
-693.426	54.987	0.066	0.064
-692.412	136.892	-0.135	-0.177
-691.397	-200.000	-0.072	-0.327
-690.383	800.000	0.085	-0.266
-689.368	142.837	-0.208	-0.278
-688.354	327.842	-0.070	-0.136
-687.339	-21.842	-0.063	-0.038
-686.324	49.887	-0.214	0.203
-685.310	-200.000	-0.008	-0.190
-684.295	424.860	-0.059	-0.129
-683.281	-8.093	-0.119	0.081
-682.266	386.872	-0.059	-0.123
-681.251	343.876	0.183	-0.362
-680.237	-200.000	-0.024	-0.268
-679.222	185.533	0.231	-0.345
-678.208	653.379	0.097	-0.250
-677.193	-200.000	0.001	0.124
-676.178	-98.001	0.249	0.064
-675.164	-200.000	-0.001	0.180
-674.149	447.491	-0.134	-0.298
-673.135	-12.115	0.239	0.157
-672.120	320.788	0.199	-0.380
-671.105	-200.000	0.020	0.256
-670.091	-11.301	-0.097	-0.064
-669.076	45.586	-0.094	-0.088
-668.062	403.604	0.124	-0.262
-667.047	73.008	0.145	-0.153
-666.032	188.263	0.117	-0.177
-665.018	116.916	0.152	-0.188
-664.003	-200.000	0.011	0.111
-662.989	-126.107	-0.193	-0.029
-661.974	-200.000	-0.013	0.182
-660.959	-103.947	-0.173	-0.041
-659.945	411.524	-0.150	0.321
-658.930	-36.317	0.257	-0.139
-657.916	-62.783	-0.395	0.165
-656.901	-47.241	0.236	-0.115
-655.886	75.755	-0.021	0.022
-654.872	-102.614	0.300	0.072
-653.857	-200.000	0.058	-0.286
-652.843	-147.272	0.245	-0.021
-651.828	116.908	-0.275	0.340
-650.814	-200.000	0.004	0.251
-649.799	239.695	-0.125	0.210
-648.784	-70.424	0.209	-0.080
-647.770	173.639	0.069	-0.100
-646.755	-118.609	0.061	0.011
-645.741	308.033	0.187	0.350
-644.726	68.210	0.090	-0.093
-643.711	754.636	0.192	0.521
-642.697	98.223	0.077	-0.089
-641.682	19.092	-0.324	0.261
-640.668	800.000	-0.008	0.031
-639.653	463.672	-0.054	-0.122
-638.638	-101.930	0.191	-0.046
-637.624	-100.394	-0.251	-0.062
-636.609	-196.124	-0.157	-0.001
-635.595	152.926	0.190	-0.261
-634.580	601.630	-0.092	-0.229
-633.565	23.782	0.205	-0.169
-632.551	131.481	0.054	-0.070
-631.536	193.173	0.072	0.109
-630.522	107.971	-0.114	-0.137
-629.507	800.000	-0.022	0.087
-628.492	35.010	-0.149	-0.131
-627.478	-200.000	-0.018	0.153
-626.463	156.081	0.085	-0.117
-625.449	-52.297	0.219	-0.102
-624.434	615.037	-0.087	0.219
-623.419	-45.417	0.132	-0.066
-622.405	-200.000	0.052	0.294
-621.390	-200.000	-0.012	0.238
-620.376	-72.259	-0.082	0.030
-619.361	-34.804	0.072	-0.039
-618.346	-149.843	0.357	-0.028
-617.332	114.743	-0.175	-0.214
-616.317	800.000	-0.109	0.332
-615.303	-40.913	0.250	0.130
-614.288	55.984	-0.146	0.142
-613.273	-200.000	0.017	-0.202
-612.259	17.281	-0.367	-0.292
-611.244	-40.653	0.265	0.138
-610.230	431.745	0.022	-0.047
-609.215	28.296	-0.297	-0.252
-608.201	204.970	0.037	-0.058
-607.186	-20.360	-0.086	0.053
-606.171	799.836	-0.047	0.129
-605.157	-36.946	-0.194	0.104
-604.142	-200.000	0.000	-0.196
-603.128	102.094	0.210	-0.246
-602.113	73.612	0.066	0.070
-601.098	-108.025	-0.306	0.067
-600.084	-22.381	-0.238	-0.144
-599.069	800.000	0.062	0.176
-598.055	393.775	0.063	0.133
-597.040	-79.274	-0.346	0.118
-596.025	-39.426	0.061	0.032
-595.011	-95.745	0.342	0.092
-593.996	-55.665	0.203	0.091
-592.982	445.848	-0.035	0.078
-591.967	147.652	0.266	0.359
-590.952	572.207	0.132	-0.321
-589.938	27.970	0.015	0.013
-588.923	-5.153	0.202	-0.139
-587.909	800.000	-0.030	-0.111
-586.894	289.268	-0.159	-0.289
-585.879	115.880	0.139	-0.170
-584.865	-200.000	0.008	0.213
-583.850	-177.587	0.095	0.002
-582.836	-28.151	-0.344	-0.199
-581.821	485.336	-0.182	0.415
-580.806	54.979	0.173	0.167
-579.792	349.215	-0.128	0.252
-578.777	138.291	-0.096	-0.126
-577.763	-100.413	-0.340	0.084
-576.748	317.156	-0.173	-0.327
-575.733	-178.955	-0.252	-0.006
-574.719	-200.000	-0.067	0.386
-573.704	71.025	0.225	0.233
-572.690	-16.750	-0.094	-0.060
-571.675	800.000	0.042	-0.133
-570.661	800.000	0.062	0.173
-569.646	-21.896	0.143	-0.087
-568.631	44.335	-0.191	-0.176
-567.617	-33.557	-0.299	-0.165
-566.602	-72.131	-0.216	-0.080
-565.588	361.730	-0.181	-0.363
-564.573	-54.988	-0.124	-0.056
-563.558	800.000	-0.011	0.043
-562.544	800.000	-0.029	-0.098
-561.529	93.659	0.055	-0.062
-560.515	667.688	-0.135	-0.348
-559.500	-77.665	-0.207	0.072
-558.485	145.962	-0.152	0.205
-557.471	157.517	0.040	-0.056
-556.456	34.990	0.039	-0.034
-555.442	-74.368	-0.435	-0.157
-554.427	74.939	-0.101	0.106
-553.412	-200.000	0.040	-0.177
-552.398	74.090	-0.135	-0.142
-551.383	-79.028	-0.192	0.065
-550.369	-139.753	-0.015	-0.002
-549.354	-66.935	-0.428	0.169
-548.339	54.469	0.148	0.142
-547.325	618.002	-0.029	0.072
-546.310	-83.779	-0.184	0.059
-545.296	-200.000	-0.020	0.167
-544.281	-126.264	-0.433	0.065
-543.266	800.000	-0.077	0.237
-542.252	78.621	0.094	-0.101
-541.237	-78.902	0.187	0.064
-540.223	135.950	0.192	-0.251
-539.208	378.669	0.093	0.190
-538.193	710.381	-0.082	0.216
-537.179	-115.709	-0.042	0.008
-536.164	176.557	-0.207	0.300
-535.150	-36.888	-0.347	0.186
-534.135	142.940	0.194	-0.259
-533.121	800.000	-0.076	-0.225
-532.106	250.335	-0.182	0.308
-531.091	161.516	0.074	-0.103
-530.077	10.075	0.042	-0.032
-529.062	113.885	0.273	0.332
-528.048	-62.858	-0.181	-0.075
-527.033	68.811	-0.233	-0.239
-526.018	800.000	-0.106	0.356
-525.004	-200.000	-0.054	0.303
-523.989	177.516	-0.046	-0.067
-522.975	-83.006	0.256	-0.083
-521.960	800.000	-0.110	0.324
-520.945	800.000	0.094	-0.293
-519.931	-200.000	-0.051	-0.345
-518.916	-200.000	0.031	-0.376
-517.902	374.422	0.173	0.352
-516.887	-152.555	-0.252	-0.018
-515.872	176.039	-0.253	-0.367
-514.858	-149.714	-0.308	-0.024
-513.843	169.930	0.129	-0.184
-512.829	47.184	0.141	-0.132
-511.814	72.946	0.146	-0.153
-510.799	-45.721	0.163	-0.080
-509.785	-146.782	0.200	-0.017
-508.770	-175.392	-0.235	-0.006
-507.756	-200.000	0.002	0.035
-506.741	-178.266	-0.238	0.006
-505.726	-112.337	0.256	-0.051
-504.712	521.167	0.149	0.349
-503.697	653.861	-0.075	-0.193
-502.683	-200.000	-0.015	0.071
-501.668	121.677	-0.193	-0.240
-500.653	-102.725	0.268	0.064
-499.639	159.817	-0.093	-0.130
-498.624	4.353	0.014	-0.010
-497.610	800.000	-0.075	0.264
-496.595	320.116	-0.099	-0.187
-495.581	-10.745	0.024	-0.016
-494.566	59.308	-0.155	0.153
-493.551	56.113	0.178	-0.172
-492.537	50.072	-0.289	0.272
-491.522	648.427	0.065	0.166
-490.508	-200.000	-0.001	0.287
-489.493	321.084	-0.013	0.024
-488.478	171.738	0.090	-0.129
-487.464	-37.468	0.092	-0.049
-486.449	-22.227	0.227	-0.138
-485.435	-200.000	0.058	-0.368
-484.420	800.000	-0.030	0.092
-483.405	800.000	0.070	0.292
-482.391	800.000	-0.102	0.328
-481.376	800.000	0.099	0.323
-480.362	-200.000	-0.004	0.270
-479.347	-93.772	-0.314	0.086
-478.332	292.763	0.124	-0.225
-477.318	523.861	-0.142	-0.332
-476.303	-200.000	-0.066	-0.314
-475.289	-49.166	0.284	0.136
-474.274	-43.299	-0.266	-0.134
-473.259	129.177	-0.101	0.128
-472.245	228.332	-0.053	0.086
-471.230	-53.228	0.320	-0.147
-470.216	800.000	-0.059	-0.218
-469.201	64.322	0.138	-0.138
-468.186	102.304	-0.199	-0.232
-467.172	-200.000	0.007	0.089
-466.157	75.394	-0.135	0.142
-465.143	-180.703	-0.084	0.002
-464.128	800.000	-0.045	0.195
-463.113	-173.751	-0.262	0.008
-462.099	-141.061	-0.058	0.006
-461.084	199.045	-0.153	-0.233
-460.070	120.999	0.125	-0.155
-459.055	-45.473	0.558	-0.276
-458.040	41.000	-0.060	-0.054
-457.026	-196.882	-0.034	0.000
-456.011	-164.834	0.134	-0.006
-454.997	800.000	-0.090	0.343
-453.982	428.708	0.135	0.291
-452.968	800.000	0.123	0.403
-451.953	-72.409	-0.339	0.125
-450.938	-200.000	-0.025	-0.125
-449.924	-179.297	-0.098	0.002
-448.909	1.777	0.256	0.184
-447.895	800.000	0.026	0.078
-446.880	-200.000	-0.084	0.537
-445.865	4.176	-0.126	0.092
-444.851	800.000	0.054	0.213
-443.836	123.213	0.174	-0.217
-442.822	-24.974	0.224	-0.133
-441.807	-96.807	-0.150	-0.039
-440.792	-88.090	-0.125	-0.037
-439.778	-92.573	0.263	-0.074
-438.763	-158.930	-0.090	-0.005
-437.749	337.291	-0.096	-0.187
-436.734	109.681	-0.075	-0.089
-435.719	-57.802	0.197	0.086
-434.705	31.949	0.069	-0.059
-433.690	64.609	0.214	-0.215
-432.676	-81.472	-0.145	-0.048
-431.661	6.808	-0.190	0.141
-430.646	73.110	0.185	-0.192
-429.632	-200.000	0.011	-0.208
-428.617	181.036	-0.099	-0.146
-427.603	221.888	0.090	-0.143
-426.588	-139.527	-0.282	-0.030
-425.573	3.123	0.038	0.028
-424.559	-200.000	-0.043	-0.267
-423.544	272.804	-0.125	0.219
-422.530	-55.784	0.136	-0.061
-421.515	162.898	0.113	-0.158
-420.500	145.545	0.074	0.099
-419.486	105.171	-0.124	-0.146
-418.471	531.551	0.062	-0.146
-417.457	800.000	0.049	-0.167
-416.442	102.337	0.254	-0.296
-415.428	-104.805	0.313	0.072
-414.413	211.097	0.126	-0.198
-413.398	-91.846	-0.214	-0.061
-412.384	95.246	-0.161	0.183
-411.369	-200.000	-0.047	0.412
-410.355	-9.109	-0.346	-0.230
-409.340	190.440	-0.254	-0.380
-408.325	155.289	-0.403	-0.552
-407.311	800.000	-0.058	-0.234
-406.296	800.000	0.020	0.080
-405.282	-86.608	0.153	-0.047
-404.267	-200.000	-0.070	-0.306
-403.252	-170.317	-0.410	0.014
-402.238	119.982	0.159	-0.196
-401.223	-148.872	-0.245	0.020
-400.209	-200.000	-0.025	-0.204
-399.194	800.000	0.023	0.082
-398.179	-11.459	0.045	0.029
-397.165	753.831	-0.057	-0.154
-396.150	-200.000	0.002	0.054
-395.136	-56.057	-0.544	0.241
-394.121	-18.962	-0.270	0.167
-393.106	466.015	-0.068	0.153
-392.092	226.223	0.045	0.073
-391.077	756.539	0.019	-0.052
-390.063	25.483	0.117	-0.097
-389.048	-34.139	-0.422	0.231
-388.033	90.438	-0.232	0.259
-387.019	400.241	0.061	-0.128
-386.004	-54.520	-0.125	-0.056
-384.990	-200.000	-0.003	-0.108
-383.975	288.446	0.058	-0.104
-382.960	-86.528	-0.315	-0.096
-381.946	-52.081	0.323	-0.149
-380.931	-78.818	-0.105	0.036
-379.917	-76.293	-0.202	-0.071
-378.902	-200.000	0.005	-0.148
-377.888	-200.000	0.069	-0.337
-376.873	-200.000	-0.019	-0.191
-375.858	74.144	0.076	0.079
-374.844	800.000	0.031	0.107
-373.829	-200.000	-0.026	-0.167
-372.815	260.497	-0.133	0.228
-371.800	800.000	-0.054	0.189
-370.785	189.148	0.124	-0.185
-369.771	-22.657	0.259	-0.156
-368.756	206.473	0.124	-0.191
-367.742	19.208	0.147	-0.117
-366.727	37.743	0.093	-0.082
-365.712	-40.950	-0.132	-0.068
-364.698	16.012	0.150	-0.117
-363.683	791.998	-0.064	-0.174
-362.669	-102.474	0.056	-0.013
-361.654	-168.612	0.155	-0.006
-360.639	-200.000	0.010	-0.079
-359.625	318.114	-0.049	0.093
-358.610	-140.283	0.313	0.033
-357.596	-200.000	-0.000	0.090
-356.581	-118.462	-0.317	-0.056
-355.566	434.495	-0.038	-0.081
-354.552	283.292	0.056	0.100
-353.537	800.000	0.039	0.165
-352.523	-86.456	0.146	-0.045
-351.508	92.305	0.105	0.117
-350.493	-142.466	0.242	0.024
-349.479	-85.006	-0.289	-0.090
-348.464	264.573	0.054	-0.093
-347.450	-177.981	0.185	-0.004
-346.435	181.107	-0.193	-0.282
-345.420	546.395	-0.114	-0.270
-344.406	30.364	-0.192	0.163
-343.391	-101.216	0.032	-0.008
-342.377	49.342	0.222	-0.208
-341.362	73.063	-0.075	0.078
-340.348	-197.443	-0.110	0.001
-339.333	365.824	-0.123	0.246
-338.318	36.175	0.034	-0.030
-337.304	-62.507	0.214	-0.088
-336.289	42.700	0.087	-0.079
-335.275	22.319	-0.159	0.129
-334.260	-42.659	0.106	0.053
-333.245	566.038	-0.041	0.098
-332.231	-16.443	0.321	-0.202
-331.216	595.007	-0.006	0.014
-330.202	98.323	-0.107	-0.123
-329.187	-200.000	-0.069	0.371
-328.172	-15.193	0.048	-0.031
-327.158	2.839	0.249	0.179
-326.143	601.382	-0.088	0.216
-325.129	-44.099	-0.175	-0.087
-324.114	-68.428	-0.096	-0.037
-323.099	-3.810	-0.091	-0.062
-322.085	106.565	0.180	0.212
-321.070	-200.000	-0.003	0.376
-320.056	-43.531	0.140	0.070
-319.041	-23.554	-0.191	-0.113
-318.026	-145.233	0.189	-0.017
-317.012	571.249	0.093	-0.224
-315.997	111.366	-0.085	0.101
-314.983	-200.000	-0.003	0.137
-313.968	-106.857	0.265	-0.058
-312.953	85.396	-0.212	-0.231
-311.939	-104.277	0.098	0.022
-310.924	800.000	0.021	-0.065
-309.910	-128.501	-0.188	-0.026
-308.895	43.668	-0.110	0.100
-307.880	-111.429	0.212	0.043
-306.866	800.000	-0.047	0.146
-305.851	7.971	0.171	0.127
-304.837	171.353	-0.051	-0.072
-303.822	81.660	0.290	0.311
-302.807	-104.503	0.119	0.027
-301.793	800.000	0.099	-0.281
-300.778	-62.792	-0.371	0.152
-299.764	566.089	0.096	0.230
-298.749	-106.964	0.155	-0.034
-297.735	800.000	0.061	-0.193
-296.720	-48.640	-0.064	-0.031
-295.705	-156.323	-0.118	0.007
-294.691	16.456	0.264	0.207
-293.676	800.000	-0.041	-0.129
-292.662	-54.153	0.238	-0.107
-291.647	-41.124	0.262	0.134
-290.632	-10.508	0.169	0.111
-289.618	-42.610	-0.067	-0.034
-288.603	-25.387	0.436	0.255
-287.589	34.846	0.115	0.100
-286.574	198.195	-0.114	0.172
-285.559	-64.760	-0.270	0.108
-284.545	-200.000	-0.003	0.063
-283.530	75.259	-0.132	-0.138
-282.516	-91.373	0.245	-0.069
-281.501	800.000	0.098	-0.408
-280.486	-113.337	0.235	0.046
-279.472	71.689	-0.137	0.141
-278.457	-200.000	0.032	0.206
-277.443	800.000	0.048	-0.163
-276.428	227.655	0.083	0.133
-275.413	57.727	-0.206	0.200
-274.399	244.686	0.148	0.246
-273.384	-16.225	-0.203	0.128
-272.370	-200.000	0.019	-0.231
-271.355	-200.000	0.011	0.113
-270.340	-106.213	-0.282	-0.063
-269.326	-67.786	0.067	0.026
-268.311	295.507	0.066	0.120
-267.297	800.000	0.060	-0.210
-266.282	-106.351	-0.242	0.053
-265.267	-112.511	0.130	-0.026
-264.253	-58.090	0.185	0.080
-263.238	202.414	0.149	-0.227
-262.224	800.000	-0.077	-0.271
-261.209	-200.000	-0.025	-0.358
-260.195	-71.312	0.271	0.101
-259.180	-200.000	0.034	0.180
-258.165	-24.941	0.141	0.083
-257.151	-200.000	0.019	0.148
-256.136	169.281	0.125	-0.176
-255.122	-24.134	0.338	0.200
-254.107	-40.618	-0.213	-0.109
-253.092	-200.000	-0.001	0.097
-252.078	65.470	0.178	-0.178
-251.063	18.733	0.185	-0.146
-250.049	194.294	0.133	0.200
-249.034	800.000	-0.034	0.095
-248.019	-83.138	0.286	0.091
-247.005	157.478	-0.082	-0.112
-245.990	-17.829	0.188	0.117
-244.976	54.650	-0.042	0.040
-243.961	-166.584	-0.085	-0.003
-242.946	84.808	0.199	-0.215
-241.932	800.000	-0.069	-0.260
-240.917	-16.493	-0.032	-0.020
-239.903	-200.000	-0.094	-0.420
-238.888	277.705	0.015	-0.027
-237.873	464.619	-0.050	-0.111
-236.859	-101.685	-0.211	-0.050
-235.844	-115.247	0.241	0.045
-234.830	412.274	0.045	0.095
-233.815	-59.099	0.333	0.142
-232.800	286.101	0.195	0.347
-231.786	15.980	-0.279	0.217
-230.771	-95.503	-0.328	0.087
-229.757	-138.867	-0.185	0.020
-228.742	-113.210	0.229	-0.045
-227.727	-128.531	0.156	0.022
-226.713	-93.049	-0.254	0.070
-225.698	-200.000	0.020	0.263
-224.684	800.000	0.018	-0.066
-223.669	-116.707	0.210	-0.038
-222.655	-200.000	-0.003	0.023
-221.640	13.557	0.265	-0.203
-220.625	-69.545	0.253	0.096
-219.611	-80.897	-0.347	0.114
-218.596	-26.465	0.279	-0.161
-217.582	72.855	-0.160	-0.165
-216.567	587.533	-0.156	0.379
-215.552	-115.770	0.141	0.026
-214.538	500.408	-0.139	0.317
-213.523	-59.050	-0.112	0.048
-212.509	83.980	-0.171	-0.185
-211.494	-86.781	0.213	-0.064
-210.479	-113.596	0.228	-0.044
-209.465	-81.338	-0.052	0.017
-208.450	663.771	-0.079	-0.201
-207.436	-200.000	-0.021	0.289
-206.421	-94.113	0.276	-0.075
-205.406	-76.699	-0.292	-0.101
-204.392	-200.000	-0.022	-0.126
-203.377	-65.255	-0.108	0.043
-202.363	-200.000	-0.053	0.250
-201.348	640.086	-0.016	-0.039
-200.333	-30.282	0.459	0.257
-199.319	-200.000	0.006	0.112
-198.304	-98.919	0.191	0.048
-197.290	-200.000	-0.032	-0.214
-196.275	800.000	0.089	0.371
-195.260	46.598	0.178	-0.163
-194.246	81.024	0.206	-0.219
-193.231	-170.030	0.386	-0.014
-192.217	-200.000	-0.039	0.179
-191.202	-134.814	-0.183	0.022
-190.187	-7.760	0.092	0.061
-189.173	145.718	0.269	-0.356
-188.158	7.613	0.230	0.170
-187.144	362.789	-0.139	0.275
-186.129	-90.623	-0.071	-0.020
-185.114	800.000	-0.016	-0.062
-184.100	100.142	0.166	-0.190
-183.085	108.587	-0.171	-0.201
-182.071	89.837	0.062	-0.068
-181.056	-88.259	-0.202	0.060
-180.042	77.557	0.167	-0.176
-179.027	28.023	0.361	0.301
-178.012	-63.004	0.293	-0.120
-176.998	-33.072	0.069	-0.038
-175.983	800.000	-0.035	0.120
-174.969	82.582	-0.077	0.083
-173.954	-137.377	-0.096	-0.011
-172.939	800.000	-0.110	0.384
-171.925	-12.450	0.034	0.022
-170.910	-89.283	-0.359	-0.104
-169.896	191.920	0.094	-0.139
-168.881	800.000	-0.045	-0.171
-167.866	-71.896	0.066	0.024
-166.852	35.916	0.226	-0.196
-165.837	-54.551	-0.278	0.124
-164.823	-180.960	0.175	-0.003
-163.808	34.788	-0.216	0.186
-162.793	-200.000	0.124	0.589
-161.779	-19.818	-0.014	-0.009
-160.764	-64.477	-0.199	-0.080
-159.750	-179.499	0.265	0.006
-158.735	800.000	-0.028	-0.088
-157.720	48.026	0.065	-0.060
-156.706	-200.000	0.052	0.301
-155.691	-126.197	0.306	-0.045
-154.677	-114.472	-0.169	0.032
-153.662	219.042	-0.096	-0.151
-152.647	258.649	-0.062	0.105
-151.633	468.645	-0.077	0.170
-150.618	-21.729	0.427	-0.256
-149.604	454.807	-0.194	0.424
-148.589	32.898	0.251	-0.214
-147.574	-200.000	-0.005	-0.024
-146.560	-200.000	-0.006	-0.112
-145.545	320.636	-0.068	-0.128
-144.531	-152.861	-0.337	-0.024
-143.516	75.295	0.262	0.272
-142.502	-93.217	-0.241	0.066
-141.487	-200.000	-0.036	0.346
-140.472	-200.000	-0.049	-0.222
-139.458	11.613	0.238	-0.180
-138.443	749.973	0.181	0.482
-137.429	-64.257	0.211	0.084
-136.414	188.159	0.129	-0.190
-135.399	-200.000	-0.039	-0.307
-134.385	66.423	0.367	0.367
-133.370	38.539	0.254	0.223
-132.356	-135.141	0.143	0.017
-131.341	49.505	-0.205	0.190
-130.326	-109.505	0.279	0.058
-129.312	-200.000	0.026	-0.220
-128.297	167.418	-0.022	0.031
-127.283	-87.297	0.281	0.084
-126.268	180.057	-0.122	0.176
-125.253	66.799	0.111	-0.111
-124.239	-200.000	0.007	0.032
-123.224	-37.610	0.209	0.110
-122.210	600.020	-0.041	-0.099
-121.195	-58.256	0.128	-0.055
