DTS Sentinel unit serial number:	SN413079Multiplexer serial number:	ORYXHardware model number:	OX4-SRSoftware version number:	ORYX F/W v4.00 Oryx Data Collector v3.7.2.0data status	okinstallation	princeton_trtdifferential loss correction	single-endedforward channel	channel 2reverse channel	N/Adate	2019/09/16time	17:07:35forward acquisition time	60.00reverse acquisition time	0.00gamma	496.2192k internal	0.2307k external	0.2307temperature offset calibration	0.9945default loss term (dB/km)	0.3790temperature slope calibration	1.0000multiplexer offset coefficient	1.0000multiplexer slope coefficient	1.0000fibre end	0.00T internal ref (°C)	39.12T ext. ref 1 (°C)	15.32T ext. ref 2 (°C)	33.28length (m)	temperature (°C)	Stokes	anti-Stokes-747.200	-116.504	-0.070	0.013
-746.185	172.696	-0.179	0.263
-745.171	407.024	0.042	-0.091
-744.156	-156.803	0.149	-0.009
-743.142	82.273	-0.103	0.114
-742.127	-122.337	-0.226	-0.038
-741.112	-200.000	-0.001	0.184
-740.098	800.000	-0.115	0.340
-739.083	-200.000	0.020	0.155
-738.069	-102.487	-0.277	-0.067
-737.054	-200.000	0.114	0.511
-736.039	530.867	0.032	0.078
-735.025	-103.398	0.285	0.068
-734.010	-86.725	0.163	0.051
-732.996	119.954	0.067	-0.084
-731.981	-200.000	-0.027	-0.230
-730.966	-50.175	-0.421	-0.202
-729.952	108.879	0.149	0.181
-728.937	-85.595	-0.108	-0.034
-727.923	40.892	-0.073	-0.067
-726.908	800.000	-0.087	-0.255
-725.894	-114.977	0.221	-0.043
-724.879	406.966	0.148	-0.319
-723.864	268.636	0.037	-0.065
-722.850	-200.000	-0.010	0.236
-721.835	63.004	-0.176	0.180
-720.821	-119.579	-0.041	-0.007
-719.806	-88.031	-0.117	0.036
-718.791	119.795	-0.015	-0.019
-717.777	-113.596	0.204	-0.041
-716.762	-141.557	-0.184	-0.019
-715.748	314.933	0.020	0.038
-714.733	-141.711	-0.123	-0.013
-713.718	164.448	-0.169	0.242
-712.704	-137.618	-0.037	-0.004
-711.689	50.711	0.168	-0.161
-710.675	-53.550	0.393	-0.183
-709.660	-62.429	-0.336	-0.142
-708.645	-58.400	0.144	0.063
-707.631	-53.883	-0.029	0.013
-706.616	-30.851	0.179	-0.103
-705.602	800.000	0.010	0.037
-704.587	153.504	0.049	0.068
-703.572	140.424	-0.181	-0.243
-702.558	260.912	-0.040	-0.071
-701.543	-115.597	0.113	0.022
-700.529	-6.148	0.236	-0.164
-699.514	-46.796	-0.381	-0.189
-698.499	-200.000	-0.002	0.344
-697.485	-200.000	-0.018	-0.153
-696.470	-200.000	0.002	-0.515
-695.456	-200.000	-0.000	0.057
-694.441	-31.961	-0.227	0.129
-693.426	-200.000	0.024	-0.120
-692.412	800.000	-0.010	-0.042
-691.397	-33.765	-0.065	0.036
-690.383	-200.000	-0.013	0.098
-689.368	-200.000	0.019	0.092
-688.354	59.006	-0.084	-0.084
-687.339	-43.452	-0.065	-0.033
-686.324	-69.034	0.357	0.140
-685.310	-200.000	0.003	0.151
-684.295	-200.000	0.009	-0.138
-683.281	-200.000	0.040	-0.229
-682.266	29.797	-0.235	0.203
-681.251	-119.775	0.110	-0.019
-680.237	84.572	-0.167	-0.186
-679.222	74.530	-0.070	0.075
-678.208	800.000	-0.013	-0.049
-677.193	460.036	0.114	-0.259
-676.178	-200.000	0.173	-0.001
-675.164	-200.000	0.012	0.123
-674.149	63.961	0.084	0.086
-673.135	-13.228	0.147	0.097
-672.120	-182.478	-0.337	0.006
-671.105	-120.032	0.285	0.050
-670.091	-163.934	-0.222	-0.011
-669.076	50.843	-0.161	-0.155
-668.062	-51.316	-0.262	-0.124
-667.047	159.451	-0.059	0.083
-666.032	-184.747	-0.260	0.004
-665.018	-200.000	0.054	-0.327
-664.003	-97.371	0.176	0.046
-662.989	241.065	0.089	0.151
-661.974	-8.772	-0.043	0.029
-660.959	34.003	0.041	-0.036
-659.945	-148.973	0.185	-0.015
-658.930	29.511	-0.112	-0.096
-657.916	91.435	0.285	0.325
-656.901	-89.178	-0.037	-0.011
-655.886	-200.000	0.006	-0.191
-654.872	-21.498	0.094	0.058
-653.857	-112.312	-0.046	-0.009
-652.843	-200.000	0.032	0.336
-651.828	17.943	0.188	0.152
-650.814	-200.000	-0.002	0.254
-649.799	-109.967	-0.109	-0.023
-648.784	205.662	0.053	-0.084
-647.770	-139.228	0.122	0.013
-646.755	-200.000	0.033	-0.148
-645.741	101.409	0.096	-0.113
-644.726	-200.000	-0.003	-0.235
-643.711	-200.000	-0.010	-0.313
-642.697	800.000	-0.075	-0.251
-641.682	-154.005	-0.197	0.014
-640.668	11.752	0.040	0.031
-639.653	-84.800	-0.215	0.068
-638.638	38.905	0.115	-0.104
-637.624	-183.465	-0.133	-0.002
-636.609	266.728	-0.211	0.374
-635.595	-24.729	0.534	0.322
-634.580	217.033	0.050	0.081
-633.565	-200.000	-0.011	-0.262
-632.551	-86.957	0.092	-0.029
-631.536	-12.798	-0.254	-0.168
-630.522	82.174	-0.250	-0.274
-629.507	-200.000	-0.004	-0.170
-628.492	429.412	-0.144	-0.314
-627.478	-16.196	0.039	0.025
-626.463	-44.156	-0.138	0.070
-625.449	131.755	-0.053	-0.068
-624.434	-130.914	0.022	-0.003
-623.419	-72.576	0.625	-0.233
-622.405	-154.634	-0.121	-0.008
-621.390	-84.833	-0.381	0.121
-620.376	-94.104	-0.295	0.082
-619.361	-150.133	0.330	0.026
-618.346	13.558	0.190	-0.149
-617.332	-29.594	-0.104	0.060
-616.317	-69.549	-0.124	-0.048
-615.303	52.273	0.180	-0.174
-614.288	494.679	0.046	0.106
-613.273	-200.000	-0.027	0.247
-612.259	292.012	0.085	0.157
-611.244	-56.788	-0.409	-0.183
-610.230	-200.000	-0.001	-0.109
-609.215	310.585	-0.083	-0.157
-608.201	-144.145	0.234	0.022
-607.186	91.294	-0.239	0.272
-606.171	-200.000	-0.016	-0.173
-605.157	-93.824	0.162	0.045
-604.142	800.000	-0.051	0.158
-603.128	-150.013	-0.323	0.025
-602.113	-64.994	-0.171	-0.070
-601.098	-200.000	-0.025	-0.236
-600.084	139.337	0.098	0.131
-599.069	81.889	0.059	-0.064
-598.055	-161.714	0.283	0.015
-597.040	-159.790	-0.269	-0.015
-596.025	800.000	-0.052	0.192
-595.011	-109.186	-0.045	-0.010
-593.996	409.765	-0.020	0.042
-592.982	-4.097	-0.414	0.290
-591.967	-22.536	-0.222	0.136
-590.952	-200.000	-0.028	0.358
-589.938	25.114	-0.253	0.212
-588.923	111.918	0.109	-0.134
-587.909	-47.493	-0.264	0.129
-586.894	-3.081	0.173	0.122
-585.879	195.317	0.068	0.105
-584.865	73.523	0.097	0.103
-583.850	-200.000	0.022	0.277
-582.836	150.035	-0.141	0.193
-581.821	-200.000	0.016	0.082
-580.806	-152.869	-0.188	0.013
-579.792	-73.085	0.278	0.103
-578.777	-200.000	0.047	0.278
-577.763	36.954	0.180	0.161
-576.748	-87.542	-0.332	-0.101
-575.733	-200.000	-0.001	0.040
-574.719	128.141	-0.207	-0.266
-573.704	306.861	-0.161	-0.303
-572.690	660.078	-0.114	-0.297
-571.675	800.000	-0.016	0.046
-570.661	-133.620	-0.223	0.028
-569.646	-200.000	0.009	0.087
-568.631	-133.737	0.186	-0.023
-567.617	800.000	0.092	0.380
-566.602	-119.833	-0.351	-0.061
-565.588	9.430	-0.170	-0.130
-564.573	-73.817	-0.049	-0.018
-563.558	631.735	-0.054	-0.138
-562.544	-37.850	-0.209	0.112
-561.529	14.448	-0.063	0.050
-560.515	572.182	0.104	-0.256
-559.500	-200.000	-0.030	0.281
-558.485	800.000	0.093	0.295
-557.471	84.779	0.103	-0.114
-556.456	62.611	-0.258	0.260
-555.442	-29.832	0.241	-0.138
-554.427	-150.502	0.254	0.020
-553.412	-55.683	0.061	-0.027
-552.398	-200.000	0.000	-0.250
-551.383	642.136	-0.087	0.225
-550.369	-108.022	0.076	0.017
-549.354	90.925	-0.101	-0.114
-548.339	-197.284	-0.217	0.001
-547.325	-29.001	0.173	0.100
-546.310	-104.230	0.517	-0.121
-545.296	-94.881	-0.256	-0.070
-544.281	-132.134	-0.243	-0.032
-543.266	-200.000	-0.042	-0.217
-542.252	-50.530	0.159	-0.076
-541.237	-80.115	-0.101	-0.034
-540.223	613.580	-0.019	0.048
-539.208	-103.569	-0.092	-0.022
-538.193	-46.940	0.331	-0.163
-537.179	-200.000	0.011	-0.397
-536.164	800.000	0.053	0.194
-535.150	41.378	0.122	0.112
-534.135	170.525	0.180	-0.260
-533.121	-37.899	-0.185	-0.099
-532.106	-62.242	0.295	-0.124
-531.091	-3.018	-0.119	0.084
-530.077	-200.000	-0.002	0.244
-529.062	-99.369	-0.205	0.052
-528.048	2.670	-0.113	0.083
-527.033	91.600	0.057	0.064
-526.018	231.693	0.217	0.358
-525.004	-84.653	0.157	-0.050
-523.989	314.579	0.114	-0.217
-522.975	60.246	-0.026	0.026
-521.960	387.991	-0.050	0.104
-520.945	-200.000	0.002	-0.153
-519.931	402.733	-0.119	0.252
-518.916	800.000	-0.049	0.184
-517.902	800.000	0.104	0.316
-516.887	800.000	0.071	-0.284
-515.872	172.390	-0.243	-0.352
-514.858	-200.000	0.013	-0.244
-513.843	-92.634	0.038	-0.011
-512.829	800.000	-0.101	-0.333
-511.814	-200.000	0.018	0.100
-510.799	122.699	0.075	0.095
-509.785	-200.000	0.005	-0.309
-508.770	-47.289	0.166	0.081
-507.756	-71.463	-0.194	0.073
-506.741	65.433	-0.172	0.175
-505.726	-200.000	0.036	-0.182
-504.712	255.157	-0.145	-0.250
-503.697	-114.279	0.101	0.020
-502.683	-5.549	-0.232	0.161
-501.668	-161.618	-0.321	0.017
-500.653	84.219	0.151	-0.166
-499.639	382.576	0.095	0.196
-498.624	-150.016	-0.358	0.028
-497.610	-79.919	-0.178	-0.060
-496.595	-163.703	-0.512	0.024
-495.581	800.000	-0.059	0.166
-494.566	38.105	0.149	-0.134
-493.551	41.422	-0.145	0.132
-492.537	45.602	0.051	0.048
-491.522	87.777	-0.249	-0.278
-490.508	-200.000	0.058	-0.367
-489.493	303.541	-0.174	-0.324
-488.478	-200.000	-0.025	0.181
-487.464	254.663	-0.041	0.071
-486.449	607.236	-0.057	0.143
-485.435	-200.000	0.010	0.097
-484.420	800.000	-0.043	0.132
-483.405	-91.260	-0.433	-0.125
-482.391	139.619	0.155	-0.206
-481.376	800.000	0.097	-0.333
-480.362	-143.110	0.200	-0.019
-479.347	486.082	0.068	0.157
-478.332	-94.670	-0.301	-0.082
-477.318	119.140	-0.152	-0.189
-476.303	-110.628	0.375	0.078
-475.289	800.000	-0.072	0.296
-474.274	343.286	-0.181	0.357
-473.259	-200.000	0.001	0.089
-472.245	-200.000	0.012	0.109
-471.230	-10.241	-0.120	-0.080
-470.216	37.121	0.154	-0.137
-469.201	370.397	-0.123	-0.251
-468.186	-200.000	-0.032	0.196
-467.172	-9.928	0.176	0.118
-466.157	76.130	0.092	0.098
-465.143	-106.572	-0.313	-0.070
-464.128	632.350	0.073	-0.187
-463.113	-89.981	0.269	-0.079
-462.099	800.000	0.046	-0.151
-461.084	-13.203	0.182	0.119
-460.070	-126.707	-0.130	-0.019
-459.055	-143.820	0.291	0.028
-458.040	-139.935	-0.439	-0.047
-457.026	-63.613	0.167	-0.069
-456.011	800.000	-0.031	0.129
-454.997	317.529	-0.119	-0.227
-453.982	51.417	0.163	-0.156
-452.968	42.062	-0.103	0.094
-451.953	-12.778	-0.054	0.036
-450.938	-111.824	-0.325	0.066
-449.924	-129.020	0.132	-0.019
-448.909	-62.589	-0.207	0.086
-447.895	-68.259	0.191	-0.075
-446.880	116.510	0.137	0.169
-445.865	-109.133	0.289	-0.062
-444.851	-200.000	-0.073	-0.329
-443.836	44.058	0.180	0.166
-442.822	-200.000	0.004	-0.126
-441.807	800.000	0.039	-0.158
-440.792	229.681	-0.095	0.157
-439.778	547.672	-0.132	-0.319
-438.763	256.741	0.218	-0.377
-437.749	-200.000	-0.027	0.343
-436.734	4.394	-0.140	-0.103
-435.719	252.544	-0.094	-0.162
-434.705	49.775	-0.037	-0.035
-433.690	-200.000	-0.008	-0.092
-432.676	800.000	0.093	0.269
-431.661	107.523	0.106	-0.127
-430.646	-123.401	0.106	-0.017
-429.632	-148.067	0.455	0.038
-428.617	-27.152	-0.394	-0.231
-427.603	115.345	0.061	0.075
-426.588	53.335	0.268	-0.258
-425.573	-91.403	0.011	0.003
-424.559	13.847	0.133	-0.104
-423.544	-13.835	0.091	0.059
-422.530	109.836	-0.087	-0.105
-421.515	-8.449	0.095	0.064
-420.500	-55.993	-0.060	-0.027
-419.486	-83.754	0.083	-0.027
-418.471	212.265	0.074	-0.118
-417.457	800.000	0.068	-0.207
-416.442	114.080	-0.116	0.141
-415.428	69.475	-0.193	0.199
-414.413	87.415	-0.265	0.294
-413.398	191.078	-0.105	-0.159
-412.384	800.000	-0.054	0.204
-411.369	800.000	-0.053	0.165
-410.355	-163.647	0.347	-0.016
-409.340	-111.423	0.057	0.012
-408.325	-200.000	-0.018	0.428
-407.311	-54.912	0.362	0.164
-406.296	172.211	0.009	0.013
-405.282	-3.875	0.299	0.208
-404.267	-79.691	0.284	-0.096
-403.252	-10.746	0.282	0.187
-402.238	55.810	-0.204	0.198
-401.223	93.640	-0.230	0.262
-400.209	35.199	-0.102	-0.090
-399.194	84.292	-0.206	-0.226
-398.179	384.409	-0.076	-0.157
-397.165	13.323	0.141	-0.109
-396.150	-200.000	-0.014	0.283
-395.136	-100.694	0.241	-0.060
-394.121	134.619	0.268	0.348
-393.106	-13.129	0.131	-0.085
-392.092	285.999	-0.043	0.078
-391.077	-175.346	0.179	0.005
-390.063	644.570	-0.165	0.422
-389.048	800.000	-0.019	-0.083
-388.033	47.921	-0.050	0.047
-387.019	800.000	-0.086	-0.264
-386.004	-200.000	-0.002	0.220
-384.990	-200.000	-0.050	-0.236
-383.975	87.559	0.259	0.288
-382.960	-200.000	-0.011	-0.151
-381.946	-115.622	0.232	-0.044
-380.931	269.466	0.096	0.170
-379.917	-200.000	-0.000	-0.136
-378.902	117.049	0.156	-0.193
-377.888	-62.320	-0.149	-0.062
-376.873	126.750	-0.140	-0.178
-375.858	133.824	-0.248	-0.321
-374.844	221.918	0.052	-0.083
-373.829	-69.782	0.488	-0.187
-372.815	-130.815	-0.291	0.039
-371.800	8.324	-0.084	-0.063
-370.785	242.979	-0.187	0.315
-369.771	800.000	0.019	0.069
-368.756	229.638	0.049	-0.081
-367.742	-19.770	0.284	-0.176
-366.727	-100.115	-0.174	-0.044
-365.712	119.359	-0.207	0.257
-364.698	39.116	0.086	0.077
-363.683	800.000	-0.062	-0.217
-362.669	571.736	0.043	0.106
-361.654	-39.785	-0.148	0.077
-360.639	0.453	-0.179	0.128
-359.625	34.506	-0.161	0.141
-358.610	698.677	0.077	0.203
-357.596	-25.668	-0.153	0.091
-356.581	89.912	-0.133	-0.149
-355.566	703.022	0.138	-0.364
-354.552	800.000	-0.043	0.187
-353.537	-24.105	0.375	-0.224
-352.523	-118.032	-0.133	0.024
-351.508	467.113	0.117	0.263
-350.493	-92.749	-0.275	0.077
-349.479	-200.000	-0.046	0.327
-348.464	-105.125	-0.450	0.103
-347.450	-89.628	0.049	-0.014
-346.435	800.000	-0.034	0.108
-345.420	-44.014	0.247	-0.124
-344.406	336.929	0.085	0.165
-343.391	-88.311	-0.280	0.084
-342.377	-200.000	0.044	0.306
-341.362	405.954	-0.045	0.094
-340.348	117.161	0.036	-0.044
-339.333	325.176	-0.072	-0.138
-338.318	216.667	0.095	-0.151
-337.304	-41.201	0.366	-0.189
-336.289	-57.315	-0.121	-0.053
-335.275	403.829	0.113	-0.238
-334.260	-200.000	-0.034	-0.300
-333.245	-200.000	0.027	0.211
-332.231	800.000	-0.047	-0.158
-331.216	3.765	0.144	0.105
-330.202	535.200	-0.039	0.092
-329.187	-137.823	-0.095	-0.011
-328.172	187.542	-0.091	0.137
-327.158	403.999	-0.148	0.311
-326.143	244.273	0.112	0.188
-325.129	49.985	0.205	-0.193
-324.114	191.963	-0.116	-0.175
-323.099	-200.000	-0.060	0.299
-322.085	-200.000	-0.106	0.563
-321.070	41.252	0.145	-0.131
-320.056	800.000	-0.036	0.114
-319.041	140.995	-0.041	0.055
-318.026	-99.287	0.159	0.040
-317.012	69.562	0.121	-0.125
-315.997	800.000	0.081	-0.311
-314.983	-91.074	-0.227	0.065
-313.968	-40.197	-0.343	-0.178
-312.953	-145.664	0.311	0.028
-311.939	-98.783	0.241	-0.061
-310.924	800.000	0.048	0.162
-309.910	5.473	-0.290	-0.214
-308.895	164.239	-0.097	0.136
-307.880	-200.000	-0.014	0.222
-306.866	-200.000	0.030	0.296
-305.851	223.143	0.211	0.340
-304.837	-72.005	-0.314	-0.117
-303.822	800.000	-0.039	0.162
-302.807	-22.145	0.293	0.177
-301.793	-200.000	-0.006	-0.376
-300.778	-92.064	0.403	-0.114
-299.764	-200.000	-0.016	-0.075
-298.749	800.000	-0.079	0.264
-297.735	-129.626	-0.202	0.028
-296.720	-7.103	0.111	-0.076
-295.705	-13.806	-0.183	-0.118
-294.691	471.326	-0.071	0.160
-293.676	-200.000	-0.021	-0.379
-292.662	-200.000	0.017	-0.104
-291.647	-0.239	0.144	-0.103
-290.632	104.315	0.201	0.236
-289.618	107.924	-0.190	-0.226
-288.603	-35.927	-0.126	-0.068
-287.589	45.280	-0.252	0.232
-286.574	800.000	-0.076	0.315
-285.559	149.150	0.151	0.204
-284.545	-0.128	0.142	-0.101
-283.530	-138.841	-0.586	0.064
-282.516	8.932	0.071	0.054
-281.501	-111.862	0.213	-0.043
-280.486	-31.524	0.113	0.064
-279.472	54.150	-0.074	0.071
-278.457	47.128	-0.150	0.139
-277.443	417.461	0.049	0.104
-276.428	355.681	0.082	0.164
-275.413	174.112	0.054	0.077
-274.399	527.996	0.173	0.408
-273.384	141.140	-0.216	0.285
-272.370	252.054	-0.129	0.219
-271.355	-38.176	0.269	0.142
-270.340	302.676	-0.091	0.168
-269.326	-20.968	-0.149	0.091
-268.311	306.396	0.134	-0.250
-267.297	-51.515	0.374	0.174
-266.282	-200.000	-0.006	-0.150
-265.267	59.251	0.113	0.111
-264.253	-144.606	-0.122	-0.011
-263.238	79.778	0.324	-0.347
-262.224	501.172	0.072	-0.166
-261.209	18.216	-0.093	-0.074
-260.195	308.627	0.046	-0.086
-259.180	-84.428	0.236	0.074
-258.165	-115.719	0.113	0.021
-257.151	-4.811	-0.397	0.273
-256.136	11.432	-0.252	0.193
-255.122	88.483	-0.256	0.284
-254.107	-77.890	-0.228	-0.078
-253.092	800.000	0.017	-0.061
-252.078	168.503	0.146	-0.207
-251.063	-59.806	-0.070	-0.030
-250.049	-200.000	0.074	0.344
-249.034	116.718	0.142	-0.174
-248.019	800.000	-0.010	-0.042
-247.005	-136.675	-0.356	-0.041
-245.990	800.000	-0.063	0.209
-244.976	129.937	-0.183	-0.233
-243.961	800.000	-0.082	-0.295
-242.946	-171.886	-0.191	-0.006
-241.932	-119.897	0.248	-0.042
-240.917	-36.711	0.056	0.030
-239.903	46.245	-0.197	-0.182
-238.888	-52.815	-0.228	0.105
-237.873	-113.339	-0.150	0.029
-236.859	306.796	0.134	-0.249
-235.844	-15.563	-0.135	0.086
-234.830	-107.236	-0.173	-0.038
-233.815	800.000	-0.107	0.303
-232.800	67.635	0.233	-0.237
-231.786	17.954	-0.215	0.171
-230.771	27.084	0.062	0.052
-229.757	740.023	0.067	-0.180
-228.742	-73.566	-0.092	0.033
-227.727	-200.000	-0.004	-0.052
-226.713	105.752	-0.061	0.072
-225.698	562.106	0.061	0.147
-224.684	800.000	0.060	-0.217
-223.669	-125.728	-0.153	-0.023
-222.655	3.528	0.065	0.047
-221.640	-125.403	0.278	-0.042
-220.625	-200.000	0.020	0.116
-219.611	-200.000	-0.018	-0.276
-218.596	-61.593	0.248	-0.104
-217.582	-59.460	-0.213	-0.091
-216.567	161.004	-0.107	-0.148
-215.552	-123.753	-0.100	-0.016
-214.538	388.172	-0.158	0.327
-213.523	109.141	0.142	-0.169
-212.509	-155.315	0.188	-0.012
-211.494	65.167	0.138	0.139
-210.479	41.227	0.161	0.145
-209.465	-72.493	0.199	-0.073
-208.450	-58.146	0.367	0.159
-207.436	-40.776	0.339	0.175
-206.421	228.433	0.232	0.376
-205.406	-185.503	0.219	0.003
-204.392	-52.119	-0.130	0.060
-203.377	800.000	0.014	-0.042
-202.363	335.469	0.176	0.339
-201.348	-22.421	-0.374	-0.225
-200.333	45.801	-0.068	0.063
-199.319	-6.380	0.181	-0.123
-198.304	-126.658	-0.073	0.011
-197.290	233.051	0.111	-0.182
-196.275	-83.840	0.204	-0.065
-195.260	-173.060	0.171	0.005
-194.246	-14.134	0.280	-0.179
-193.231	-171.999	0.107	0.003
-192.217	-200.000	-0.023	-0.157
-191.202	-66.167	-0.123	-0.049
-190.187	-137.496	0.416	-0.047
-189.173	48.784	-0.128	0.120
-188.158	-152.295	0.300	0.022
-187.144	37.405	-0.100	-0.088
-186.129	-52.361	-0.106	-0.049
-185.114	-125.251	0.166	-0.025
-184.100	171.998	0.146	0.208
-183.085	359.361	0.146	-0.290
-182.071	-99.048	-0.171	-0.043
-181.056	29.088	0.354	-0.298
-180.042	379.819	0.148	-0.302
-179.027	166.226	0.089	0.126
-178.012	277.068	0.104	-0.185
-176.998	-200.000	-0.022	0.122
-175.983	-154.032	-0.193	-0.013
-174.969	-132.464	0.190	-0.024
-173.954	292.240	-0.028	0.050
-172.939	-0.341	-0.253	-0.179
-171.925	29.547	0.231	-0.195
-170.910	150.943	0.122	-0.165
-169.896	800.000	-0.083	-0.275
-168.881	191.569	-0.216	-0.323
-167.866	-71.468	-0.191	0.071
-166.852	-34.416	0.050	0.027
-165.837	800.000	0.158	-0.445
-164.823	-137.898	0.057	-0.006
-163.808	-200.000	0.010	0.122
-162.793	-150.633	-0.107	-0.008
-161.779	572.023	0.093	-0.226
-160.764	-121.375	0.124	0.021
-159.750	-200.000	0.004	0.226
-158.735	-200.000	0.030	-0.376
-157.720	-105.405	-0.030	-0.007
-156.706	800.000	0.052	0.164
-155.691	1.422	0.184	-0.131
-154.677	-46.620	0.274	-0.133
-153.662	-42.569	0.414	0.210
-152.647	-97.159	-0.123	-0.032
-151.633	250.873	0.031	0.053
-150.618	-7.354	0.239	0.161
-149.604	12.503	0.067	-0.051
-148.589	54.886	0.257	0.246
-147.574	-20.333	-0.161	-0.099
-146.560	-108.002	-0.221	-0.048
-145.545	513.701	0.159	-0.368
-144.531	23.719	0.136	-0.111
-143.516	-85.877	-0.368	-0.113
-142.502	-39.405	0.304	0.159
-141.487	-94.766	-0.063	0.017
-140.472	800.000	0.098	-0.390
-139.458	153.240	-0.056	-0.075
-138.443	-36.072	-0.349	-0.187
-137.429	-74.584	-0.063	0.023
-136.414	115.007	-0.104	-0.126
-135.399	367.331	0.109	0.218
-134.385	800.000	0.018	-0.051
-133.370	-91.229	-0.273	0.078
-132.356	36.597	0.111	-0.098
-131.341	-79.331	0.281	0.094
-130.326	-53.218	0.183	0.084
-129.312	-64.565	-0.026	0.010
-128.297	29.949	-0.167	0.141
-127.283	101.023	0.199	0.229
-126.268	284.738	-0.065	0.116
-125.253	800.000	0.106	0.359
-124.239	-141.823	-0.238	0.024
-123.224	-135.131	-0.245	-0.029
-122.210	-68.668	-0.168	0.065
-121.195	-13.433	0.062	0.040
