DTS Sentinel unit serial number:	SN413079Multiplexer serial number:	ORYXHardware model number:	OX4-SRSoftware version number:	ORYX F/W v4.00 Oryx Data Collector v3.7.2.0data status	okinstallation	princeton_trtdifferential loss correction	single-endedforward channel	channel 2reverse channel	N/Adate	2019/09/13time	13:35:35forward acquisition time	60.00reverse acquisition time	0.00gamma	496.2192k internal	0.2315k external	0.2315temperature offset calibration	1.0207default loss term (dB/km)	0.3790temperature slope calibration	1.0000multiplexer offset coefficient	1.0000multiplexer slope coefficient	1.0000fibre end	0.00T internal ref (°C)	35.06T ext. ref 1 (°C)	4.58T ext. ref 2 (°C)	31.36length (m)	temperature (°C)	Stokes	anti-Stokes-747.200	-18.270	0.094	-0.060
-746.185	161.270	-0.122	0.173
-745.171	109.357	0.130	0.158
-744.156	41.067	-0.210	0.192
-743.142	115.555	0.133	0.164
-742.127	-117.870	-0.075	0.014
-741.112	800.000	0.045	-0.130
-740.098	-200.000	-0.011	0.151
-739.083	-144.157	0.469	0.044
-738.069	61.229	0.333	0.336
-737.054	-17.950	-0.133	0.084
-736.039	4.925	0.137	-0.102
-735.025	191.559	0.143	0.219
-734.010	-127.246	-0.231	-0.034
-732.996	-12.097	-0.200	0.133
-731.981	81.572	-0.129	-0.142
-730.966	534.385	0.197	-0.473
-729.952	-116.516	-0.223	-0.042
-728.937	-200.000	-0.004	-0.281
-727.923	-200.000	0.042	-0.356
-726.908	-51.220	0.282	-0.134
-725.894	118.041	-0.176	-0.220
-724.879	-140.792	0.236	0.025
-723.864	233.576	0.069	-0.115
-722.850	-200.000	-0.027	-0.230
-721.835	104.010	-0.209	-0.248
-720.821	47.465	-0.308	-0.290
-719.806	60.833	-0.164	0.165
-718.791	63.814	-0.168	-0.171
-717.777	-99.604	-0.265	-0.067
-716.762	457.828	-0.114	-0.257
-715.748	-50.677	-0.188	-0.089
-714.733	-200.000	-0.003	-0.080
-713.718	-200.000	0.003	0.073
-712.704	-121.176	-0.333	0.056
-711.689	245.217	-0.038	-0.065
-710.675	-200.000	-0.012	-0.103
-709.660	136.279	0.240	-0.317
-708.645	-200.000	0.021	0.214
-707.631	121.743	0.056	0.071
-706.616	27.625	-0.195	-0.166
-705.602	238.422	-0.132	-0.222
-704.587	2.188	-0.308	0.225
-703.572	800.000	-0.051	0.204
-702.558	-200.000	-0.092	-0.474
-701.543	-131.477	-0.318	0.042
-700.529	-19.771	-0.094	-0.059
-699.514	-182.641	-0.080	-0.001
-698.499	-200.000	0.004	0.128
-697.485	-200.000	-0.005	-0.112
-696.470	800.000	-0.090	-0.271
-695.456	624.244	0.066	-0.168
-694.441	-132.801	0.158	0.020
-693.426	-100.421	-0.248	0.062
-692.412	-200.000	-0.006	-0.093
-691.397	-11.954	0.192	0.127
-690.383	-144.941	-0.171	0.016
-689.368	-21.847	0.138	-0.085
-688.354	148.911	0.071	0.096
-687.339	800.000	-0.054	0.193
-686.324	405.035	0.094	-0.200
-685.310	-100.683	-0.242	-0.060
-684.295	800.000	0.037	0.143
-683.281	-99.358	0.403	-0.103
-682.266	408.412	0.210	-0.448
-681.251	-106.625	0.135	0.030
-680.237	323.566	-0.175	-0.338
-679.222	-35.691	-0.289	0.158
-678.208	-200.000	0.020	-0.155
-677.193	-94.710	0.247	-0.068
-676.178	53.949	0.172	-0.167
-675.164	-109.933	-0.365	-0.077
-674.149	-43.996	0.222	0.113
-673.135	-147.831	-0.106	0.009
-672.120	-200.000	-0.020	0.189
-671.105	-200.000	-0.006	-0.128
-670.091	43.066	0.098	0.090
-669.076	-59.007	0.385	0.168
-668.062	800.000	0.047	0.187
-667.047	800.000	-0.058	-0.231
-666.032	800.000	-0.076	-0.231
-665.018	-136.061	-0.131	-0.016
-664.003	129.753	-0.086	-0.111
-662.989	-200.000	0.012	-0.314
-661.974	-69.692	0.491	-0.190
-660.959	12.726	0.079	-0.062
-659.945	-92.150	-0.237	-0.068
-658.930	418.776	0.042	0.091
-657.916	662.359	0.114	0.297
-656.901	-172.582	0.136	0.004
-655.886	88.572	-0.112	-0.126
-654.872	-110.511	0.423	0.089
-653.857	187.666	-0.150	-0.226
-652.843	44.440	0.054	-0.050
-651.828	-47.212	-0.185	-0.091
-650.814	248.933	0.129	-0.221
-649.799	-93.791	0.195	-0.054
-648.784	-65.770	0.244	-0.099
-647.770	-155.943	-0.083	-0.005
-646.755	-72.436	0.143	-0.053
-645.741	82.965	0.080	-0.088
-644.726	-179.650	0.115	-0.003
-643.711	-132.421	0.327	0.043
-642.697	-200.000	-0.038	-0.314
-641.682	-161.443	-0.343	0.018
-640.668	37.521	0.188	0.168
-639.653	800.000	-0.063	0.188
-638.638	517.735	0.066	0.157
-637.624	-200.000	-0.027	0.193
-636.609	-200.000	-0.043	0.334
-635.595	-200.000	-0.016	-0.298
-634.580	95.520	0.248	0.285
-633.565	173.727	-0.171	-0.249
-632.551	157.487	-0.212	-0.296
-631.536	-116.561	0.230	-0.043
-630.522	-125.224	0.186	-0.029
-629.507	235.250	0.120	0.199
-628.492	36.670	0.116	-0.104
-627.478	520.257	-0.128	-0.304
-626.463	-1.077	0.162	-0.116
-625.449	219.578	0.145	0.234
-624.434	-34.721	0.086	0.048
-623.419	-200.000	-0.014	-0.107
-622.405	11.867	0.159	-0.123
-621.390	22.306	-0.246	-0.203
-620.376	-125.123	0.126	0.019
-619.361	-72.556	0.216	-0.080
-618.346	63.140	0.223	-0.225
-617.332	386.632	-0.134	0.280
-616.317	-200.000	-0.011	0.234
-615.303	734.623	0.081	0.220
-614.288	800.000	-0.116	0.427
-613.273	-27.798	-0.452	0.264
-612.259	-200.000	0.043	-0.228
-611.244	800.000	-0.066	-0.197
-610.230	800.000	-0.023	-0.100
-609.215	-58.493	0.196	0.086
-608.201	113.663	0.201	-0.246
-607.186	244.656	0.197	-0.335
-606.171	-80.329	0.483	-0.163
-605.157	800.000	-0.095	-0.268
-604.142	-171.387	-0.318	0.011
-603.128	564.186	-0.148	-0.361
-602.113	-130.487	0.019	0.003
-601.098	12.775	0.097	0.075
-600.084	33.030	-0.146	-0.128
-599.069	22.407	-0.040	0.033
-598.055	-62.469	-0.210	-0.088
-597.040	-200.000	0.028	-0.155
-596.025	-72.540	0.256	-0.095
-595.011	-75.848	0.029	0.010
-593.996	-57.353	0.106	-0.047
-592.982	91.485	-0.243	-0.275
-591.967	373.947	0.133	-0.273
-590.952	-200.000	0.046	0.446
-589.938	-147.869	0.096	0.008
-588.923	-200.000	-0.006	-0.099
-587.909	-200.000	-0.027	0.214
-586.894	-113.453	-0.123	0.024
-585.879	-91.762	0.351	0.100
-584.865	583.510	0.075	0.185
-583.850	312.581	-0.084	0.158
-582.836	-80.509	-0.198	0.067
-581.821	-200.000	-0.010	0.097
-580.806	46.902	-0.349	-0.327
-579.792	221.988	0.105	-0.171
-578.777	129.666	-0.020	0.026
-577.763	800.000	-0.087	-0.253
-576.748	64.451	0.071	-0.072
-575.733	-33.847	-0.177	-0.098
-574.719	-130.591	0.191	-0.026
-573.704	795.001	-0.028	0.079
-572.690	-200.000	-0.055	0.329
-571.675	800.000	0.067	0.273
-570.661	-200.000	-0.055	0.376
-569.646	-200.000	-0.010	0.155
-568.631	800.000	-0.084	-0.289
-567.617	220.709	-0.020	0.032
-566.602	-149.015	-0.280	-0.023
-565.588	800.000	0.009	-0.027
-564.573	-200.000	0.197	-0.001
-563.558	-51.369	0.123	-0.058
-562.544	-152.883	-0.085	-0.006
-561.529	61.174	0.116	-0.116
-560.515	85.027	-0.158	-0.174
-559.500	-191.036	-0.427	0.004
-558.485	-179.060	-0.061	0.001
-557.471	-181.388	0.159	0.003
-556.456	-200.000	0.056	0.303
-555.442	210.032	-0.268	-0.423
-554.427	574.619	-0.045	-0.110
-553.412	120.857	0.054	0.068
-552.398	126.611	-0.128	-0.163
-551.383	-75.723	0.088	0.031
-550.369	-200.000	-0.027	-0.197
-549.354	30.699	-0.101	0.087
-548.339	-189.228	-0.140	0.002
-547.325	160.365	-0.113	-0.158
-546.310	-149.045	0.256	0.021
-545.296	638.590	0.042	-0.106
-544.281	-123.032	-0.233	0.038
-543.266	167.559	-0.256	0.365
-542.252	800.000	0.034	0.119
-541.237	47.437	0.091	-0.085
-540.223	-47.866	-0.308	0.150
-539.208	617.413	0.080	0.203
-538.193	414.234	0.035	0.074
-537.179	-58.473	-0.047	0.021
-536.164	-3.609	0.221	-0.154
-535.150	223.117	0.079	0.128
-534.135	-121.066	0.264	-0.045
-533.121	-112.152	0.348	0.070
-532.106	307.041	0.024	0.044
-531.091	-200.000	0.071	-0.327
-530.077	-200.000	-0.460	-0.001
-529.062	29.201	0.401	-0.342
-528.048	800.000	-0.031	-0.101
-527.033	800.000	-0.113	-0.333
-526.018	-77.158	-0.157	-0.055
-525.004	703.863	-0.057	-0.151
-523.989	-119.766	0.220	-0.038
-522.975	155.566	-0.138	-0.191
-521.960	743.793	0.071	0.192
-520.945	-177.727	0.324	-0.008
-519.931	-200.000	-0.019	0.373
-518.916	15.348	-0.138	0.109
-517.902	167.562	-0.052	-0.075
-516.887	-103.228	-0.261	0.062
-515.872	72.607	-0.233	0.245
-514.858	-132.278	-0.192	0.025
-513.843	800.000	-0.051	0.182
-512.829	-37.743	-0.282	0.151
-511.814	29.449	0.251	-0.214
-510.799	-200.000	-0.017	0.384
-509.785	-200.000	0.020	0.356
-508.770	-200.000	0.012	-0.226
-507.756	337.003	0.039	-0.076
-506.741	125.393	-0.068	0.086
-505.726	-1.514	0.186	0.132
-504.712	-128.166	0.227	0.033
-503.697	-200.000	-0.020	0.096
-502.683	-200.000	-0.007	0.043
-501.668	91.685	0.081	0.092
-500.653	-132.764	-0.201	-0.026
-499.639	-119.203	-0.132	-0.023
-498.624	-200.000	0.003	-0.381
-497.610	234.866	-0.067	-0.111
-496.595	671.644	0.043	-0.113
-495.581	406.097	-0.056	-0.118
-494.566	230.130	0.080	-0.131
-493.551	-129.037	0.189	-0.027
-492.537	-88.271	0.211	0.063
-491.522	5.406	-0.145	0.108
-490.508	-162.951	-0.336	0.016
-489.493	-69.327	-0.164	0.063
-488.478	101.232	0.249	0.291
-487.464	638.110	0.135	0.345
-486.449	-200.000	-0.008	0.061
-485.435	-0.140	-0.291	-0.208
-484.420	-200.000	0.019	-0.129
-483.405	43.756	-0.132	-0.121
-482.391	-116.248	-0.216	0.040
-481.376	-6.135	-0.057	0.039
-480.362	-200.000	-0.013	-0.078
-479.347	-15.869	0.151	-0.097
-478.332	119.186	-0.116	-0.143
-477.318	-122.682	0.194	0.032
-476.303	-200.000	0.010	-0.081
-475.289	-105.079	-0.034	0.008
-474.274	-50.180	0.238	-0.113
-473.259	-200.000	-0.007	0.188
-472.245	-200.000	0.011	-0.199
-471.230	11.109	-0.057	0.043
-470.216	-63.985	0.061	-0.025
-469.201	224.866	0.065	0.105
-468.186	0.868	0.041	0.029
-467.172	-154.857	0.082	-0.005
-466.157	-30.516	-0.197	0.112
-465.143	800.000	-0.052	0.173
-464.128	-119.196	0.276	0.048
-463.113	-35.682	-0.199	-0.108
-462.099	126.199	0.079	0.100
-461.084	-200.000	0.001	-0.060
-460.070	-13.534	-0.172	0.112
-459.055	-77.219	-0.089	-0.031
-458.040	-200.000	-0.027	0.177
-457.026	-200.000	0.002	-0.108
-456.011	691.369	0.017	-0.045
-454.997	-95.247	-0.295	-0.080
-453.982	-80.085	-0.126	0.042
-452.968	800.000	0.093	-0.260
-451.953	218.925	-0.078	-0.124
-450.938	-43.031	-0.517	0.262
-449.924	-76.399	0.269	0.095
-448.909	800.000	-0.116	-0.357
-447.895	-9.818	-0.162	-0.108
-446.880	800.000	0.058	-0.194
-445.865	222.184	-0.126	0.203
-444.851	-22.588	0.098	0.059
-443.836	-200.000	0.021	-0.152
-442.822	90.614	0.133	-0.149
-441.807	-200.000	-0.016	0.100
-440.792	-200.000	-0.041	0.342
-439.778	-116.654	-0.120	-0.022
-438.763	178.214	0.175	-0.256
-437.749	-135.245	0.131	0.016
-436.734	-16.222	-0.075	0.048
-435.719	128.908	-0.167	-0.214
-434.705	-200.000	-0.038	-0.235
-433.690	-200.000	-0.014	-0.229
-432.676	147.587	0.066	0.089
-431.661	-200.000	-0.010	-0.157
-430.646	-200.000	0.005	-0.177
-429.632	-95.020	0.157	0.042
-428.617	-200.000	-0.059	0.378
-427.603	60.652	-0.118	0.117
-426.588	-127.767	-0.067	-0.010
-425.573	-37.529	-0.224	-0.120
-424.559	133.951	0.237	-0.307
-423.544	162.481	-0.106	-0.149
-422.530	800.000	-0.081	0.328
-421.515	-159.851	-0.160	0.009
-420.500	471.657	0.150	-0.338
-419.486	91.532	0.289	-0.325
-418.471	-108.764	0.058	-0.012
-417.457	91.975	0.138	-0.156
-416.442	174.469	-0.120	0.174
-415.428	800.000	0.095	0.316
-414.413	-97.903	-0.160	-0.041
-413.398	52.396	-0.048	-0.046
-412.384	800.000	-0.055	-0.178
-411.369	4.857	0.230	0.169
-410.355	-87.190	0.111	-0.034
-409.340	-121.965	0.256	0.042
-408.325	-113.058	-0.256	-0.051
-407.311	131.479	0.044	-0.057
-406.296	-200.000	-0.062	0.299
-405.282	800.000	0.043	0.132
-404.267	101.918	0.195	0.228
-403.252	85.924	0.117	0.128
-402.238	800.000	0.108	-0.309
-401.223	409.227	0.104	0.221
-400.209	-55.245	0.352	0.158
-399.194	737.368	0.024	0.065
-398.179	-200.000	0.007	-0.112
-397.165	175.928	-0.301	-0.437
-396.150	800.000	-0.026	-0.080
-395.136	187.607	-0.056	-0.083
-394.121	-17.638	0.325	0.204
-393.106	-200.000	-0.026	0.172
-392.092	800.000	-0.058	0.181
-391.077	-138.882	0.081	0.009
-390.063	32.768	-0.184	-0.159
-389.048	-103.135	-0.066	-0.016
-388.033	800.000	0.077	0.269
-387.019	573.992	0.130	-0.317
-386.004	71.183	-0.135	0.140
-384.990	188.104	-0.141	-0.211
-383.975	800.000	0.110	0.412
-382.960	800.000	-0.074	-0.307
-381.946	-12.105	0.163	0.106
-380.931	-200.000	0.008	-0.037
-379.917	-0.271	0.094	0.067
-378.902	-93.309	0.121	0.034
-377.888	232.156	-0.094	-0.154
-376.873	-106.375	0.093	-0.021
-375.858	-95.781	-0.203	-0.054
-374.844	-94.581	-0.361	-0.098
-373.829	-200.000	-0.068	-0.462
-372.815	-90.932	0.020	-0.006
-371.800	-104.921	-0.258	0.059
-370.785	-63.060	0.093	-0.038
-369.771	-42.856	0.180	0.091
-368.756	-200.000	-0.011	-0.131
-367.742	-84.587	0.104	-0.033
-366.727	-144.768	0.248	0.023
-365.712	-6.765	0.369	-0.251
-364.698	-200.000	0.034	0.171
-363.683	230.486	0.219	-0.358
-362.669	52.182	0.312	0.297
-361.654	12.818	-0.091	-0.070
-360.639	-200.000	-0.000	0.016
-359.625	18.040	0.409	-0.325
-358.610	-149.207	0.121	0.010
-357.596	105.260	-0.200	-0.236
-356.581	666.059	0.025	0.064
-355.566	304.000	-0.089	0.164
-354.552	-200.000	-0.010	-0.404
-353.537	-200.000	-0.003	-0.084
-352.523	-38.422	-0.203	0.107
-351.508	-103.023	0.075	-0.018
-350.493	105.256	0.216	0.254
-349.479	-82.618	-0.086	0.028
-348.464	-94.634	-0.192	-0.052
-347.450	205.247	0.097	0.151
-346.435	-200.000	-0.084	0.371
-345.420	57.522	0.048	-0.047
-344.406	800.000	-0.093	-0.296
-343.391	-147.582	-0.084	-0.007
-342.377	-45.087	0.220	0.109
-341.362	-118.748	-0.307	-0.054
-340.348	-103.255	0.223	-0.053
-339.333	16.348	0.178	0.140
-338.318	-181.464	-0.114	-0.002
-337.304	-72.673	-0.060	-0.022
-336.289	-144.665	0.092	-0.008
-335.275	-86.597	-0.081	-0.025
-334.260	800.000	0.013	0.039
-333.245	254.523	-0.066	0.113
-332.231	800.000	0.038	-0.147
-331.216	80.895	0.227	-0.244
-330.202	-119.709	-0.090	-0.015
-329.187	334.287	-0.100	0.193
-328.172	-46.384	-0.331	0.162
-327.158	56.213	-0.309	0.299
-326.143	-47.405	-0.224	0.109
-325.129	502.378	-0.027	0.063
-324.114	24.032	0.268	0.220
-323.099	346.252	-0.120	0.236
-322.085	-109.709	-0.597	-0.125
-321.070	29.271	0.194	0.164
-320.056	4.294	-0.142	0.104
-319.041	-4.417	0.407	-0.281
-318.026	192.695	-0.107	0.161
-317.012	-200.000	0.000	-0.063
-315.997	-200.000	-0.005	0.115
-314.983	-200.000	-0.035	0.201
-313.968	-200.000	0.054	0.352
-312.953	800.000	-0.067	-0.194
-311.939	-157.805	-0.085	-0.005
-310.924	-41.554	0.161	-0.082
-309.910	151.568	-0.088	-0.119
-308.895	-200.000	0.031	0.205
-307.880	-82.777	-0.323	0.104
-306.866	-93.195	-0.377	-0.104
-305.851	724.149	0.056	-0.150
-304.837	35.562	0.128	0.112
-303.822	-96.317	0.203	-0.053
-302.807	-19.815	-0.169	-0.104
-301.793	-7.643	0.233	0.157
-300.778	-35.730	-0.064	0.035
-299.764	800.000	-0.094	0.283
-298.749	12.787	-0.209	-0.161
-297.735	28.669	0.109	0.092
-296.720	93.828	-0.454	0.512
-295.705	800.000	0.143	0.469
-294.691	800.000	-0.098	-0.313
-293.676	-200.000	0.029	-0.341
-292.662	800.000	0.071	-0.276
-291.647	800.000	-0.068	-0.278
-290.632	-22.258	0.272	-0.164
-289.618	333.149	0.106	-0.203
-288.603	768.116	0.126	-0.342
-287.589	13.907	0.072	0.056
-286.574	-117.893	-0.261	0.047
-285.559	391.828	0.079	0.164
-284.545	217.375	0.143	-0.227
-283.530	175.111	-0.156	0.225
-282.516	800.000	0.036	-0.122
-281.501	-52.225	0.344	-0.159
-280.486	-140.513	-0.336	-0.035
-279.472	248.142	0.217	0.365
-278.457	-200.000	-0.029	0.167
-277.443	-65.155	-0.297	0.119
-276.428	43.723	-0.120	-0.110
-275.413	77.286	-0.157	0.166
-274.399	-118.843	0.248	0.043
-273.384	-200.000	-0.032	0.313
-272.370	-62.983	0.149	-0.061
-271.355	-200.000	-0.006	0.082
-270.340	-32.072	-0.045	0.025
-269.326	-72.021	-0.380	0.141
-268.311	-47.508	0.086	0.042
-267.297	186.012	-0.147	0.218
-266.282	-58.893	-0.138	0.059
-265.267	28.247	-0.084	0.071
-264.253	-200.000	0.076	0.388
-263.238	76.608	0.018	0.019
-262.224	-143.751	0.235	-0.022
-261.209	-83.008	0.012	0.004
-260.195	486.185	-0.070	0.159
-259.180	-42.317	0.014	-0.007
-258.165	-200.000	0.022	-0.241
-257.151	-200.000	-0.006	-0.085
-256.136	404.681	-0.040	-0.083
-255.122	-200.000	0.027	-0.282
-254.107	130.612	0.025	-0.032
-253.092	-178.167	0.101	-0.002
-252.078	185.093	-0.119	-0.175
-251.063	39.751	0.014	0.013
-250.049	-110.095	0.339	0.070
-249.034	162.376	0.107	0.149
-248.019	562.743	0.046	0.111
-247.005	-200.000	0.021	0.212
-245.990	-36.008	-0.248	-0.133
-244.976	-76.033	-0.497	-0.174
-243.961	142.768	0.057	0.075
-242.946	-200.000	0.025	-0.154
-241.932	268.423	0.116	-0.201
-240.917	232.167	-0.038	0.062
-239.903	-52.388	-0.116	0.053
-238.888	-200.000	-0.050	-0.402
-237.873	-18.487	0.095	-0.059
-236.859	31.295	0.200	-0.170
-235.844	-200.000	-0.277	-0.000
-234.830	-200.000	-0.021	-0.233
-233.815	-136.589	-0.082	0.009
-232.800	140.980	-0.095	-0.125
-231.786	-79.910	0.352	-0.117
-230.771	-97.759	-0.058	-0.015
-229.757	249.922	-0.046	-0.078
-228.742	662.536	-0.091	0.233
-227.727	800.000	-0.039	-0.113
-226.713	-10.136	-0.199	-0.131
-225.698	-27.132	-0.362	0.209
-224.684	-134.259	-0.298	-0.036
-223.669	-200.000	-0.023	-0.000
-222.655	65.171	-0.135	-0.135
-221.640	339.657	-0.183	0.355
-220.625	-132.238	0.209	0.027
-219.611	166.785	0.145	-0.204
-218.596	-127.834	-0.334	0.048
-217.582	800.000	0.082	-0.243
-216.567	-72.308	-0.273	0.101
-215.552	624.877	-0.139	0.348
-214.538	86.211	-0.174	0.191
-213.523	-98.929	0.295	-0.074
-212.509	456.983	-0.079	0.173
-211.494	-86.165	0.149	0.046
-210.479	-108.683	-0.393	-0.084
-209.465	800.000	0.023	0.093
-208.450	-81.467	0.175	-0.057
-207.436	-116.611	0.332	-0.061
-206.421	-200.000	0.035	-0.184
-205.406	138.581	0.024	-0.032
-204.392	290.709	-0.138	-0.249
-203.377	-200.000	-0.006	-0.243
-202.363	91.391	0.133	0.149
-201.348	800.000	0.060	0.244
-200.333	155.408	-0.069	0.094
-199.319	-155.920	0.338	-0.021
-198.304	133.917	-0.174	0.223
-197.290	317.896	-0.088	0.166
-196.275	800.000	-0.064	0.220
-195.260	228.122	0.229	-0.370
-194.246	-200.000	0.022	0.170
-193.231	-200.000	-0.019	0.150
-192.217	-84.970	-0.144	-0.045
-191.202	-43.715	0.102	-0.051
-190.187	48.513	-0.043	-0.040
-189.173	-131.883	0.188	0.024
-188.158	185.218	0.137	0.201
-187.144	-153.179	-0.160	-0.011
-186.129	119.748	0.091	-0.112
-185.114	800.000	0.053	0.209
-184.100	24.923	-0.096	0.079
-183.085	-200.000	-0.001	0.308
-182.071	37.101	0.102	0.090
-181.056	592.370	-0.055	-0.135
-180.042	332.028	-0.082	0.157
-179.027	22.011	-0.016	0.013
-178.012	-200.000	0.048	0.282
-176.998	78.471	-0.071	0.075
-175.983	-135.272	0.259	0.031
-174.969	-71.308	-0.150	-0.056
-173.954	312.263	-0.146	-0.272
-172.939	80.907	-0.081	-0.086
-171.925	-200.000	-0.006	-0.087
-170.910	148.228	-0.031	-0.042
-169.896	-200.000	-0.012	-0.222
-168.881	-200.000	-0.028	0.243
-167.866	716.835	-0.104	-0.273
-166.852	287.067	0.305	0.546
-165.837	-200.000	0.039	0.218
-164.823	-94.080	0.286	-0.078
-163.808	75.011	0.227	0.236
-162.793	88.410	0.181	0.199
-161.779	-114.815	-0.103	0.019
-160.764	-200.000	0.054	-0.257
-159.750	104.306	0.032	-0.037
-158.735	-128.674	-0.197	0.028
-157.720	-84.237	0.219	0.069
-156.706	639.046	0.084	0.212
-155.691	15.083	0.172	-0.133
-154.677	-146.789	0.458	-0.039
-153.662	-200.000	0.024	-0.106
-152.647	-102.105	0.341	-0.081
-151.633	-200.000	0.014	0.285
-150.618	64.601	-0.128	-0.128
-149.604	800.000	-0.060	-0.192
-148.589	305.109	0.183	-0.336
-147.574	800.000	0.061	-0.171
-146.560	-84.540	0.364	0.114
-145.545	-69.951	-0.112	0.042
-144.531	-129.172	0.172	0.024
-143.516	51.816	-0.135	-0.127
-142.502	-123.176	0.142	-0.023
-141.487	448.222	-0.067	0.146
-140.472	-200.000	-0.044	-0.273
-139.458	-200.000	0.024	-0.238
-138.443	19.529	-0.017	0.013
-137.429	800.000	-0.092	0.252
-136.414	-94.142	-0.089	-0.024
-135.399	137.214	0.200	0.259
-134.385	335.432	-0.103	-0.198
-133.370	800.000	0.143	0.433
-132.356	120.092	-0.201	-0.246
-131.341	-1.145	-0.276	-0.193
-130.326	-52.098	0.221	0.102
-129.312	-200.000	0.035	-0.384
-128.297	-200.000	0.022	0.204
-127.283	-200.000	0.015	-0.114
-126.268	-16.509	0.094	-0.059
-125.253	-19.157	0.217	0.134
-124.239	800.000	0.059	-0.252
-123.224	-16.810	0.275	-0.172
