DTS Sentinel unit serial number:	SN413079Multiplexer serial number:	ORYXHardware model number:	OX4-SRSoftware version number:	ORYX F/W v4.00 Oryx Data Collector v3.7.2.0data status	okinstallation	princeton_trtdifferential loss correction	single-endedforward channel	channel 2reverse channel	N/Adate	2019/09/18time	12:15:35forward acquisition time	60.00reverse acquisition time	0.00gamma	496.2192k internal	0.2325k external	0.2325temperature offset calibration	0.9990default loss term (dB/km)	0.3790temperature slope calibration	1.0000multiplexer offset coefficient	1.0000multiplexer slope coefficient	1.0000fibre end	0.00T internal ref (°C)	31.75T ext. ref 1 (°C)	0.50T ext. ref 2 (°C)	27.81length (m)	temperature (°C)	Stokes	anti-Stokes-747.200	-200.000	0.005	0.139
-746.185	-200.000	0.024	0.106
-745.171	462.523	0.140	-0.316
-744.156	21.598	0.220	0.181
-743.142	-60.245	0.215	-0.093
-742.127	259.850	0.069	0.121
-741.112	-20.100	0.280	0.174
-740.098	-200.000	-0.022	0.381
-739.083	682.592	0.190	-0.499
-738.069	-200.000	-0.001	0.195
-737.054	125.179	0.214	0.272
-736.039	-65.106	-0.374	-0.152
-735.025	144.478	0.219	0.295
-734.010	86.817	-0.212	-0.236
-732.996	-200.000	-0.011	-0.231
-731.981	-85.925	-0.345	0.108
-730.966	-170.649	-0.035	-0.001
-729.952	800.000	-0.065	0.214
-728.937	145.551	0.099	0.134
-727.923	-200.000	-0.026	0.179
-726.908	81.385	0.155	0.169
-725.894	-200.000	-0.086	-0.629
-724.879	111.564	-0.273	-0.332
-723.864	-96.008	0.096	-0.026
-722.850	-136.905	-0.082	0.009
-721.835	-59.793	-0.103	-0.045
-720.821	31.185	-0.105	0.090
-719.806	-37.683	-0.289	0.155
-718.791	189.727	-0.070	-0.106
-717.777	-200.000	0.015	-0.150
-716.762	-48.653	-0.265	-0.129
-715.748	-200.000	0.003	-0.116
-714.733	-200.000	-0.010	-0.128
-713.718	-159.213	-0.127	0.007
-712.704	-200.000	-0.000	-0.166
-711.689	-141.163	0.223	-0.023
-710.675	-70.358	0.209	0.080
-709.660	-36.964	-0.225	-0.122
-708.645	-73.962	-0.117	-0.043
-707.631	-200.000	-0.005	-0.127
-706.616	73.495	0.225	-0.238
-705.602	-200.000	0.054	-0.299
-704.587	-153.174	-0.092	0.006
-703.572	-70.482	-0.449	-0.171
-702.558	225.002	-0.096	-0.157
-701.543	172.240	-0.128	0.186
-700.529	116.813	0.151	0.187
-699.514	-67.819	-0.199	-0.078
-698.499	-147.027	-0.114	-0.010
-697.485	219.602	-0.233	0.376
-696.470	85.157	0.059	0.065
-695.456	101.073	0.057	0.067
-694.441	491.640	-0.073	0.169
-693.426	155.997	-0.357	0.496
-692.412	-130.260	-0.084	0.012
-691.397	-47.841	-0.140	-0.068
-690.383	-37.635	-0.138	-0.074
-689.368	124.640	-0.126	0.159
-688.354	79.422	0.116	-0.125
-687.339	16.136	-0.102	-0.081
-686.324	113.270	-0.280	-0.342
-685.310	-114.903	-0.343	0.066
-684.295	-200.000	0.040	-0.177
-683.281	176.107	-0.185	-0.271
-682.266	-200.000	-0.045	-0.482
-681.251	-165.773	-0.269	-0.012
-680.237	-200.000	-0.043	-0.199
-679.222	-25.626	-0.116	0.069
-678.208	-116.422	-0.357	0.066
-677.193	-200.000	-0.019	-0.088
-676.178	-54.355	-0.222	-0.101
-675.164	16.366	0.209	-0.166
-674.149	60.086	0.212	-0.211
-673.135	84.006	0.123	0.136
-672.120	-200.000	0.005	0.091
-671.105	-86.556	0.249	-0.077
-670.091	193.579	0.374	-0.569
-669.076	-94.099	0.260	-0.072
-668.062	-45.125	0.185	-0.092
-667.047	-45.535	-0.136	-0.068
-666.032	561.084	0.142	-0.345
-665.018	502.277	0.114	0.266
-664.003	-11.682	-0.068	0.045
-662.989	-119.918	-0.439	0.076
-661.974	92.565	0.199	0.226
-660.959	-200.000	-0.021	-0.097
-659.945	-116.908	-0.191	0.035
-658.930	-30.398	-0.259	-0.148
-657.916	-57.410	-0.250	-0.110
-656.901	50.424	0.198	-0.188
-655.886	160.212	0.104	0.146
-654.872	-17.729	-0.180	-0.113
-653.857	-109.844	0.134	0.028
-652.843	-200.000	0.006	-0.399
-651.828	-75.810	0.166	0.059
-650.814	-117.431	-0.312	0.057
-649.799	-200.000	-0.013	-0.185
-648.784	800.000	0.101	-0.323
-647.770	91.448	-0.074	-0.084
-646.755	-200.000	-0.050	0.266
-645.741	197.528	-0.136	-0.209
-644.726	75.679	-0.245	0.260
-643.711	-200.000	0.016	-0.397
-642.697	-200.000	0.015	-0.215
-641.682	15.109	0.063	0.050
-640.668	406.137	0.053	-0.112
-639.653	-165.431	0.290	0.013
-638.638	372.653	-0.047	0.096
-637.624	211.486	-0.032	-0.051
-636.609	-200.000	-0.035	-0.373
-635.595	-105.876	-0.138	-0.031
-634.580	458.890	-0.182	0.406
-633.565	-200.000	0.019	-0.131
-632.551	-59.722	0.411	-0.177
-631.536	56.349	-0.134	-0.131
-630.522	51.391	-0.117	0.111
-629.507	800.000	-0.020	0.062
-628.492	-43.069	0.051	0.026
-627.478	-109.645	0.367	-0.078
-626.463	97.085	0.111	0.128
-625.449	-15.362	0.140	0.090
-624.434	298.742	-0.055	0.102
-623.419	-6.233	-0.147	-0.101
-622.405	12.167	-0.089	-0.069
-621.390	-20.919	-0.165	0.101
-620.376	154.709	0.217	0.299
-619.361	87.503	0.089	0.099
-618.346	41.993	0.200	0.182
-617.332	36.823	0.096	-0.085
-616.317	58.852	0.043	-0.042
-615.303	138.760	-0.057	0.076
-614.288	-61.636	0.235	0.099
-613.273	-200.000	0.042	-0.255
-612.259	69.273	0.028	-0.029
-611.244	723.178	-0.044	-0.118
-610.230	426.569	0.036	0.078
-609.215	-92.172	0.075	0.021
-608.201	-70.134	0.139	-0.053
-607.186	-59.873	-0.210	0.090
-606.171	-200.000	-0.003	-0.124
-605.157	304.117	-0.089	-0.166
-604.142	135.890	0.150	-0.196
-603.128	66.343	0.127	0.130
-602.113	519.600	0.056	-0.132
-601.098	-37.275	-0.345	-0.185
-600.084	-27.317	0.197	-0.115
-599.069	-79.762	-0.266	-0.090
-598.055	-115.675	-0.244	-0.046
-597.040	110.150	-0.204	0.246
-596.025	800.000	-0.055	0.219
-595.011	-23.466	0.180	0.109
-593.996	-99.560	0.146	-0.037
-592.982	527.526	0.158	-0.373
-591.967	-46.318	0.197	0.097
-590.952	-200.000	-0.026	-0.267
-589.938	-200.000	0.013	-0.399
-588.923	17.689	-0.192	0.154
-587.909	83.260	-0.174	0.190
-586.894	179.290	-0.183	0.269
-585.879	-98.017	-0.306	0.079
-584.865	-181.627	0.281	0.005
-583.850	-64.371	0.148	-0.060
-582.836	-38.690	0.141	0.075
-581.821	-17.517	0.356	-0.225
-580.806	-38.076	-0.143	0.076
-579.792	-72.958	0.212	-0.078
-578.777	609.143	-0.093	-0.233
-577.763	800.000	0.019	-0.069
-576.748	-200.000	-0.026	0.132
-575.733	-151.691	-0.373	-0.028
-574.719	800.000	-0.085	-0.370
-573.704	-200.000	0.007	-0.215
-572.690	-75.608	-0.132	-0.047
-571.675	-151.860	-0.138	0.010
-570.661	-122.999	-0.424	-0.068
-569.646	302.703	-0.208	0.386
-568.631	329.024	0.087	0.168
-567.617	-158.903	0.142	-0.008
-566.602	-90.125	-0.241	0.070
-565.588	215.222	-0.268	0.426
-564.573	-90.725	-0.351	0.102
-563.558	-200.000	-0.005	0.037
-562.544	-1.657	-0.062	0.043
-561.529	36.007	-0.195	-0.172
-560.515	293.693	-0.163	0.298
-559.500	-123.998	0.160	-0.025
-558.485	-18.346	0.385	-0.241
-557.471	800.000	0.094	-0.286
-556.456	340.814	0.057	-0.112
-555.442	58.764	-0.150	0.148
-554.427	128.223	-0.256	-0.327
-553.412	113.924	0.135	-0.164
-552.398	-200.000	-0.057	0.256
-551.383	22.058	0.104	0.085
-550.369	-2.330	0.063	0.044
-549.354	-136.635	-0.113	0.013
-548.339	245.479	-0.228	-0.383
-547.325	22.532	0.272	-0.223
-546.310	800.000	0.077	-0.281
-545.296	-66.102	0.116	0.046
-544.281	-200.000	0.056	-0.406
-543.266	-200.000	0.007	-0.241
-542.252	-200.000	0.066	0.346
-541.237	-19.453	-0.509	-0.316
-540.223	-64.981	0.206	0.083
-539.208	33.093	0.072	0.062
-538.193	248.863	-0.156	-0.264
-537.179	800.000	-0.061	0.171
-536.164	-95.368	-0.172	-0.046
-535.150	6.142	0.035	0.026
-534.135	92.820	0.250	-0.283
-533.121	674.848	0.140	-0.364
-532.106	37.561	-0.086	0.076
-531.091	-200.000	-0.056	-0.369
-530.077	68.873	0.109	-0.112
-529.062	-90.270	-0.340	0.099
-528.048	33.422	0.063	0.054
-527.033	175.160	-0.165	0.239
-526.018	86.421	0.083	-0.091
-525.004	-81.013	0.155	-0.051
-523.989	79.551	-0.177	-0.190
-522.975	491.657	-0.131	-0.300
-521.960	800.000	0.014	-0.054
-520.945	800.000	-0.082	0.285
-519.931	-35.864	-0.111	0.060
-518.916	-32.809	0.215	-0.120
-517.902	361.591	0.116	-0.232
-516.887	-54.243	-0.315	-0.143
-515.872	-200.000	-0.052	0.405
-514.858	190.553	0.172	-0.258
-513.843	308.448	0.060	-0.112
-512.829	266.942	0.083	-0.144
-511.814	64.535	0.030	0.030
-510.799	-109.668	0.338	0.071
-509.785	433.910	-0.070	-0.152
-508.770	-26.405	0.334	0.196
-507.756	-66.385	0.249	-0.099
-506.741	-200.000	0.005	-0.064
-505.726	-200.000	-0.089	0.481
-504.712	-114.750	0.093	-0.018
-503.697	7.812	-0.078	0.058
-502.683	123.098	0.074	0.092
-501.668	-108.259	-0.320	0.069
-500.653	-200.000	0.048	0.243
-499.639	-98.711	-0.034	-0.009
-498.624	461.545	0.024	0.054
-497.610	-143.175	0.211	0.020
-496.595	230.321	-0.148	-0.242
-495.581	165.202	0.261	0.368
-494.566	93.785	-0.211	0.239
-493.551	202.473	0.090	-0.139
-492.537	-67.358	-0.340	0.134
-491.522	46.971	-0.362	0.336
-490.508	-171.796	0.311	-0.010
-489.493	-41.879	-0.164	0.084
-488.478	9.503	0.102	0.077
-487.464	24.968	0.322	-0.267
-486.449	-74.794	0.281	0.101
-485.435	434.964	-0.212	0.459
-484.420	13.410	0.169	0.131
-483.405	98.008	0.105	0.121
-482.391	110.482	-0.276	-0.331
-481.376	-200.000	0.011	0.111
-480.362	241.203	-0.100	0.167
-479.347	-200.000	-0.008	-0.050
-478.332	3.598	-0.145	-0.106
-477.318	-200.000	0.051	0.307
-476.303	160.927	-0.067	0.093
-475.289	288.914	0.129	0.233
-474.274	-136.305	-0.546	-0.064
-473.259	1.959	0.168	-0.121
-472.245	75.388	-0.248	0.261
-471.230	-98.014	0.394	0.101
-470.216	800.000	-0.067	-0.191
-469.201	-200.000	-0.018	0.235
-468.186	-154.966	-0.438	-0.029
-467.172	-200.000	-0.008	-0.158
-466.157	277.335	0.189	0.335
-465.143	330.909	-0.012	-0.024
-464.128	288.564	-0.115	0.207
-463.113	63.765	0.187	-0.188
-462.099	347.120	0.206	-0.405
-461.084	-200.000	0.013	-0.330
-460.070	1.045	-0.139	0.099
-459.055	-115.002	0.353	-0.067
-458.040	20.930	-0.081	-0.065
-457.026	-73.746	-0.241	0.088
-456.011	-34.368	0.253	0.138
-454.997	18.151	0.125	0.100
-453.982	235.292	-0.087	0.144
-452.968	-165.579	0.179	-0.008
-451.953	-200.000	0.041	0.217
-450.938	-89.005	0.413	-0.122
-449.924	-19.615	-0.221	0.136
-448.909	-200.000	-0.026	0.176
-447.895	-22.287	0.038	-0.023
-446.880	4.828	-0.269	-0.197
-445.865	-128.356	0.220	0.031
-444.851	22.625	0.200	-0.163
-443.836	77.393	0.169	-0.180
-442.822	301.431	0.209	0.386
-441.807	59.374	-0.195	0.191
-440.792	-120.029	-0.130	0.022
-439.778	251.197	-0.092	-0.157
-438.763	147.281	0.165	0.222
-437.749	-14.700	0.190	0.121
-436.734	46.569	0.124	0.115
-435.719	-82.061	0.280	-0.091
-434.705	25.625	0.105	-0.087
-433.690	767.139	-0.046	0.124
-432.676	216.758	0.110	0.174
-431.661	-90.762	0.277	0.080
-430.646	-200.000	0.003	0.088
-429.632	169.420	0.180	0.256
-428.617	49.130	0.309	0.289
-427.603	18.782	0.024	0.019
-426.588	-169.841	0.117	-0.004
-425.573	270.427	-0.055	-0.096
-424.559	-35.089	0.165	0.089
-423.544	-200.000	0.000	0.145
-422.530	-131.152	0.017	0.002
-421.515	-28.037	-0.285	-0.164
-420.500	-37.067	0.034	0.018
-419.486	422.246	-0.087	0.187
-418.471	-89.853	0.210	-0.061
-417.457	396.954	0.167	0.348
-416.442	-12.843	-0.100	0.065
-415.428	-86.171	0.074	0.023
-414.413	800.000	-0.066	0.222
-413.398	-118.599	-0.202	-0.036
-412.384	69.269	0.031	-0.032
-411.369	513.990	0.044	-0.101
-410.355	-200.000	-0.041	-0.310
-409.340	-43.426	-0.123	0.062
-408.325	-79.541	0.153	0.051
-407.311	-52.254	0.314	0.145
-406.296	70.597	-0.044	0.046
-405.282	-128.958	-0.494	0.069
-404.267	-200.000	-0.035	0.194
-403.252	-174.645	-0.166	-0.005
-402.238	274.196	-0.168	0.296
-401.223	26.530	0.112	-0.093
-400.209	602.816	0.094	0.233
-399.194	-137.747	0.171	-0.019
-398.179	-200.000	0.001	-0.119
-397.165	800.000	0.033	-0.116
-396.150	94.282	0.235	0.266
-395.136	557.456	0.051	0.123
-394.121	-3.330	-0.256	-0.178
-393.106	38.104	0.165	0.146
-392.092	-153.197	0.092	-0.006
-391.077	-200.000	-0.038	-0.226
-390.063	80.642	0.112	0.120
-389.048	157.794	-0.037	0.051
-388.033	-42.023	-0.108	0.055
-387.019	-200.000	-0.059	0.259
-386.004	266.168	0.092	-0.160
-384.990	289.296	0.093	-0.167
-383.975	26.931	-0.151	-0.126
-382.960	245.562	-0.209	-0.350
-381.946	-200.000	0.022	-0.197
-380.931	-200.000	0.009	0.230
-379.917	800.000	-0.049	0.189
-378.902	727.477	-0.140	-0.372
-377.888	-64.274	-0.121	-0.049
-376.873	-113.494	-0.291	0.057
-375.858	-98.578	0.131	-0.033
-374.844	-116.077	-0.360	0.067
-373.829	10.234	-0.203	-0.153
-372.815	-89.993	-0.117	-0.034
-371.800	-12.695	0.063	-0.041
-370.785	-200.000	0.039	-0.340
-369.771	-4.709	-0.032	0.022
-368.756	-75.907	-0.264	-0.093
-367.742	-93.252	0.387	-0.107
-366.727	-179.772	0.122	-0.003
-365.712	-85.843	-0.095	0.029
-364.698	-62.905	0.120	0.049
-363.683	800.000	0.014	0.041
-362.669	-200.000	-0.034	0.253
-361.654	-53.482	-0.139	-0.063
-360.639	-130.355	0.100	0.013
-359.625	-5.300	-0.095	-0.065
-358.610	800.000	-0.052	0.186
-357.596	150.387	0.167	0.225
-356.581	-200.000	0.057	0.418
-355.566	196.839	0.186	-0.282
-354.552	-116.417	0.155	0.028
-353.537	-34.574	0.090	-0.049
-352.523	-200.000	-0.055	0.298
-351.508	252.588	-0.143	-0.242
-350.493	-200.000	0.051	0.520
-349.479	-200.000	0.002	0.082
-348.464	50.271	-0.191	-0.179
-347.450	164.896	0.021	0.029
-346.435	-200.000	-0.001	0.098
-345.420	-200.000	0.003	0.090
-344.406	10.710	0.248	0.188
-343.391	550.924	0.040	0.095
-342.377	-42.072	-0.051	-0.026
-341.362	-74.455	-0.458	0.164
-340.348	589.475	-0.071	-0.173
-339.333	-104.837	0.157	0.036
-338.318	-200.000	0.002	-0.186
-337.304	-58.237	0.207	0.090
-336.289	-197.557	-0.087	-0.001
-335.275	160.350	-0.032	-0.045
-334.260	-0.987	0.196	0.138
-333.245	-200.000	-0.001	0.190
-332.231	-41.251	0.033	0.017
-331.216	240.586	-0.033	-0.055
-330.202	800.000	0.058	-0.250
-329.187	-79.281	0.140	-0.047
-328.172	-91.794	-0.030	0.009
-327.158	-86.923	0.085	-0.026
-326.143	-108.237	-0.101	-0.022
-325.129	115.385	-0.314	0.381
-324.114	0.754	-0.260	-0.184
-323.099	233.728	-0.178	0.291
-322.085	252.307	-0.094	0.158
-321.070	-136.049	-0.258	-0.030
-320.056	-117.111	0.244	0.044
-319.041	208.333	0.073	-0.112
-318.026	-79.497	-0.364	-0.122
-317.012	-200.000	0.007	0.263
-315.997	-68.844	0.166	0.063
-314.983	121.804	0.107	0.132
-313.968	-104.037	-0.071	-0.016
-312.953	-176.710	-0.054	-0.001
-311.939	-41.943	-0.169	-0.086
-310.924	-200.000	-0.020	0.123
-309.910	-133.303	-0.194	0.024
-308.895	-181.331	0.124	-0.002
-307.880	-127.434	-0.178	-0.026
-306.866	166.335	0.183	-0.257
-305.851	-0.568	-0.248	0.175
-304.837	-111.750	-0.105	0.021
-303.822	16.197	-0.159	-0.124
-302.807	556.802	-0.078	-0.187
-301.793	249.153	-0.033	-0.055
-300.778	201.802	0.063	-0.096
-299.764	800.000	-0.081	-0.245
-298.749	-86.641	0.350	-0.106
-297.735	800.000	-0.076	-0.208
-296.720	-129.319	0.160	-0.022
-295.705	-158.811	0.143	0.008
-294.691	501.892	-0.115	-0.263
-293.676	800.000	0.063	0.183
-292.662	-189.009	0.078	-0.001
-291.647	-200.000	0.053	0.258
-290.632	224.582	-0.037	0.059
-289.618	-29.476	-0.063	-0.036
-288.603	-200.000	-0.015	0.309
-287.589	479.584	-0.082	0.183
-286.574	-60.882	-0.213	-0.089
-285.559	-23.433	0.226	0.135
-284.545	-116.230	0.086	-0.016
-283.530	-51.181	-0.207	0.096
-282.516	0.018	-0.189	0.133
-281.501	690.738	0.045	0.118
-280.486	670.772	0.095	-0.244
-279.472	-200.000	-0.027	-0.401
-278.457	-102.077	0.185	0.044
-277.443	18.575	0.154	-0.122
-276.428	800.000	0.049	-0.207
-275.413	503.298	-0.013	-0.030
-274.399	56.041	-0.267	-0.256
-273.384	22.188	0.175	-0.142
-272.370	7.115	0.058	-0.043
-271.355	-117.239	-0.303	-0.055
-270.340	73.053	0.193	0.200
-269.326	-38.577	0.116	0.061
-268.311	-49.669	-0.091	0.043
-267.297	174.395	0.037	0.054
-266.282	-200.000	0.058	0.289
-265.267	260.424	0.126	-0.215
-264.253	23.409	-0.417	-0.340
-263.238	800.000	0.061	-0.194
-262.224	-149.323	0.131	0.010
-261.209	-55.663	-0.077	0.034
-260.195	-174.318	-0.116	-0.003
-259.180	-69.698	-0.094	0.036
-258.165	126.226	-0.088	0.111
-257.151	800.000	0.041	-0.144
-256.136	-163.220	0.181	0.009
-255.122	-63.324	0.390	-0.159
-254.107	-154.278	-0.230	-0.015
-253.092	222.548	0.104	0.166
-252.078	190.503	-0.057	-0.085
-251.063	31.921	-0.174	-0.148
-250.049	-163.512	-0.066	0.003
-249.034	-92.691	-0.259	0.072
-248.019	-144.759	0.076	0.007
-247.005	230.331	0.238	-0.385
-245.990	270.564	-0.170	0.296
-244.976	469.869	0.211	0.470
-243.961	-200.000	0.002	-0.126
-242.946	38.152	0.140	-0.123
-241.932	104.733	-0.067	-0.078
-240.917	112.714	0.108	0.129
-239.903	-105.040	-0.217	-0.049
-238.888	82.572	0.152	0.163
-237.873	-67.136	0.179	0.070
-236.859	-89.595	0.139	0.040
-235.844	-47.415	-0.408	-0.196
-234.830	-200.000	0.027	-0.198
-233.815	-200.000	-0.026	-0.252
-232.800	-26.321	0.077	-0.045
-231.786	-11.961	0.228	0.148
-230.771	278.175	-0.125	0.220
-229.757	242.362	0.048	0.079
-228.742	96.976	-0.234	0.266
-227.727	-200.000	0.022	0.197
-226.713	800.000	0.034	-0.140
-225.698	30.350	0.134	0.113
-224.684	800.000	-0.100	0.338
-223.669	-200.000	-0.013	0.091
-222.655	-42.855	0.219	0.110
-221.640	800.000	0.008	-0.025
-220.625	397.572	0.011	-0.022
-219.611	-200.000	-0.042	0.312
-218.596	-114.665	0.171	0.032
-217.582	12.647	0.234	-0.179
-216.567	144.721	-0.169	0.223
-215.552	231.118	0.100	0.161
-214.538	-104.558	0.319	-0.073
-213.523	465.857	-0.042	-0.092
-212.509	-60.755	-0.252	-0.106
-211.494	214.989	-0.225	0.353
-210.479	275.803	0.063	-0.111
-209.465	15.195	-0.266	-0.206
-208.450	112.155	0.105	0.125
-207.436	-134.542	0.090	-0.011
-206.421	-94.536	-0.234	-0.063
-205.406	-200.000	-0.042	-0.213
-204.392	-200.000	0.039	-0.213
-203.377	47.829	-0.251	0.231
-202.363	800.000	-0.036	-0.103
-201.348	16.224	-0.160	-0.124
-200.333	138.655	0.153	0.199
-199.319	534.868	-0.168	-0.394
-198.304	68.609	0.227	0.230
-197.290	-74.102	0.190	-0.068
-196.275	800.000	-0.052	-0.163
-195.260	-200.000	-0.053	-0.332
-194.246	-200.000	0.018	-0.193
-193.231	50.273	-0.102	0.095
-192.217	573.191	0.073	-0.175
-191.202	-200.000	-0.033	0.186
-190.187	-30.210	-0.381	0.214
-189.173	-84.821	-0.125	-0.039
-188.158	-200.000	0.050	-0.217
-187.144	-200.000	0.040	0.262
-186.129	-90.653	-0.578	0.165
-185.114	-7.177	0.334	0.223
-184.100	-200.000	-0.031	0.326
-183.085	-56.752	-0.132	0.057
-182.071	-145.186	0.150	-0.013
-181.056	332.044	-0.092	0.175
-180.042	-200.000	-0.009	-0.306
-179.027	16.400	0.141	0.110
-178.012	-62.564	0.355	-0.145
-176.998	-110.637	-0.179	-0.037
-175.983	224.496	0.182	-0.290
-174.969	399.387	0.093	-0.192
-173.954	-200.000	-0.005	-0.240
-172.939	-138.274	0.149	-0.016
-171.925	265.069	0.071	0.121
-170.910	800.000	0.142	-0.451
-169.896	-146.381	0.153	-0.013
-168.881	-200.000	0.020	-0.359
-167.866	113.964	-0.084	0.101
-166.852	-124.571	-0.160	-0.025
-165.837	-147.903	0.057	-0.005
-164.823	325.891	0.090	-0.170
-163.808	-1.030	0.219	-0.153
-162.793	-20.503	-0.182	-0.110
-161.779	800.000	0.062	0.185
-160.764	-200.000	-0.010	-0.079
-159.750	-200.000	-0.018	-0.362
-158.735	235.788	0.223	0.363
-157.720	696.527	-0.083	-0.215
-156.706	505.036	0.164	0.375
-155.691	-29.847	0.275	-0.155
-154.677	-90.128	-0.055	0.016
-153.662	57.769	0.221	0.213
-152.647	-2.388	-0.208	-0.143
-151.633	30.189	-0.278	-0.234
-150.618	-117.877	0.133	0.023
-149.604	80.521	0.097	-0.103
-148.589	165.043	-0.167	-0.232
-147.574	-200.000	-0.006	0.165
-146.560	-48.828	-0.028	-0.013
-145.545	-84.367	0.063	-0.020
-144.531	-200.000	0.015	0.174
-143.516	62.189	-0.158	-0.156
-142.502	-4.894	0.158	-0.107
-141.487	324.948	-0.045	-0.085
-140.472	-200.000	-0.023	-0.292
-139.458	-200.000	0.038	0.179
-138.443	34.659	0.070	0.060
-137.429	-200.000	-0.017	0.189
-136.414	-200.000	0.045	0.390
-135.399	-98.030	0.205	-0.052
-134.385	78.421	0.060	-0.063
-133.370	181.540	-0.086	0.125
-132.356	-70.898	0.094	-0.035
-131.341	-200.000	0.024	-0.447
-130.326	143.712	0.131	0.173
-129.312	22.146	-0.178	-0.143
-128.297	-80.809	-0.123	0.040
-127.283	4.145	-0.097	0.070
-126.268	45.089	-0.128	0.117
-125.253	-1.935	-0.196	0.136
-124.239	10.841	0.091	0.069
-123.224	-140.102	-0.219	0.023
-122.210	-36.581	-0.238	0.126
-121.195	-200.000	-0.044	0.384
