DTS Sentinel unit serial number:	SN413079Multiplexer serial number:	ORYXHardware model number:	OX4-SRSoftware version number:	ORYX F/W v4.00 Oryx Data Collector v3.7.2.0data status	okinstallation	princeton_trtdifferential loss correction	single-endedforward channel	channel 2reverse channel	N/Adate	2019/09/14time	00:47:34forward acquisition time	60.00reverse acquisition time	0.00gamma	496.2192k internal	0.2338k external	0.2338temperature offset calibration	1.0132default loss term (dB/km)	0.3790temperature slope calibration	1.0000multiplexer offset coefficient	1.0000multiplexer slope coefficient	1.0000fibre end	0.00T internal ref (°C)	26.39T ext. ref 1 (°C)	3.19T ext. ref 2 (°C)	21.09length (m)	temperature (°C)	Stokes	anti-Stokes-747.200	69.812	0.268	-0.278
-746.185	800.000	-0.049	0.189
-745.171	563.170	0.091	0.221
-744.156	264.768	-0.072	0.126
-743.142	119.578	0.049	0.061
-742.127	-200.000	-0.029	0.000
-741.112	-200.000	0.076	-0.350
-740.098	-159.503	-0.365	0.020
-739.083	-3.395	0.068	-0.047
-738.069	143.976	0.105	0.140
-737.054	-200.000	0.007	-0.100
-736.039	-32.026	-0.412	0.231
-735.025	-35.402	-0.483	0.263
-734.010	-100.387	0.204	0.051
-732.996	640.711	-0.053	0.136
-731.981	800.000	-0.053	0.207
-730.966	-200.000	-0.102	0.512
-729.952	-200.000	0.003	0.019
-728.937	-200.000	-0.006	-0.083
-727.923	-59.304	0.245	-0.106
-726.908	701.939	0.045	0.118
-725.894	-55.111	-0.155	0.070
-724.879	-169.232	-0.224	0.008
-723.864	-92.421	0.253	-0.071
-722.850	-4.838	-0.289	-0.199
-721.835	800.000	-0.055	-0.153
-720.821	26.241	0.111	-0.093
-719.806	-55.068	-0.156	0.070
-718.791	-102.007	-0.136	0.033
-717.777	-79.225	-0.250	0.085
-716.762	-200.000	0.083	0.502
-715.748	-42.478	0.328	0.168
-714.733	150.301	-0.387	-0.527
-713.718	89.362	-0.318	-0.356
-712.704	756.068	-0.103	0.280
-711.689	42.271	-0.170	-0.155
-710.675	-25.065	-0.253	-0.150
-709.660	299.506	-0.102	0.189
-708.645	134.330	0.190	0.247
-707.631	43.244	-0.320	-0.292
-706.616	-87.518	-0.145	0.044
-705.602	-65.937	0.268	-0.107
-704.587	370.821	0.013	-0.027
-703.572	-100.324	0.306	0.076
-702.558	-174.781	-0.079	-0.002
-701.543	-200.000	0.030	0.240
-700.529	-111.851	-0.109	-0.022
-699.514	169.022	-0.161	0.231
-698.499	800.000	-0.112	0.326
-697.485	119.013	0.075	-0.093
-696.470	104.532	0.224	-0.264
-695.456	-40.175	0.189	-0.099
-694.441	120.131	-0.158	-0.197
-693.426	7.980	0.070	0.053
-692.412	-19.053	-0.137	0.086
-691.397	800.000	0.020	-0.075
-690.383	429.195	0.107	-0.231
-689.368	115.281	0.138	-0.169
-688.354	107.373	-0.303	0.361
-687.339	800.000	-0.089	0.257
-686.324	-200.000	0.012	-0.102
-685.310	800.000	-0.057	-0.162
-684.295	-182.490	0.322	0.006
-683.281	-200.000	0.012	0.219
-682.266	-115.732	0.391	0.073
-681.251	-138.221	-0.201	-0.022
-680.237	131.074	0.098	0.126
-679.222	-77.066	-0.183	0.064
-678.208	-148.834	0.207	0.017
-677.193	-24.105	-0.244	-0.146
-676.178	800.000	0.050	-0.149
-675.164	-126.577	-0.264	0.039
-674.149	800.000	-0.076	-0.222
-673.135	800.000	-0.088	0.250
-672.120	610.503	-0.061	-0.153
-671.105	-182.122	0.091	-0.002
-670.091	151.798	0.105	0.143
-669.076	142.161	0.127	0.169
-668.062	104.131	-0.222	-0.261
-667.047	31.802	0.188	0.162
-666.032	575.859	0.053	-0.130
-665.018	573.962	-0.110	0.270
-664.003	307.347	-0.103	-0.191
-662.989	33.066	-0.155	0.135
-661.974	-30.130	-0.305	0.174
-660.959	-95.418	-0.210	-0.056
-659.945	210.567	0.077	-0.121
-658.930	-92.992	-0.130	-0.036
-657.916	-55.857	-0.303	0.135
-656.901	-172.772	0.301	0.009
-655.886	800.000	-0.118	-0.332
-654.872	-200.000	0.001	-0.308
-653.857	270.274	-0.227	0.400
-652.843	-200.000	-0.051	-0.247
-651.828	-111.464	0.140	-0.028
-650.814	78.948	-0.162	-0.173
-649.799	22.476	-0.177	0.145
-648.784	69.584	-0.103	0.106
-647.770	-200.000	0.019	0.097
-646.755	107.336	0.077	-0.092
-645.741	-190.086	0.133	0.001
-644.726	36.132	-0.089	0.078
-643.711	800.000	-0.092	0.299
-642.697	587.304	0.072	-0.178
-641.682	92.122	-0.079	0.089
-640.668	29.601	-0.117	0.100
-639.653	800.000	-0.117	-0.324
-638.638	800.000	0.030	0.116
-637.624	314.436	-0.110	-0.207
-636.609	-77.102	0.240	0.084
-635.595	245.706	-0.036	-0.060
-634.580	-52.322	0.229	-0.106
-633.565	-155.224	-0.510	-0.033
-632.551	-93.264	-0.051	-0.014
-631.536	-13.460	-0.417	0.270
-630.522	-48.880	0.131	-0.063
-629.507	-36.086	-0.293	-0.158
-628.492	101.428	0.219	-0.254
-627.478	89.218	-0.093	0.104
-626.463	119.787	-0.110	-0.136
-625.449	800.000	0.081	0.278
-624.434	-200.000	0.014	-0.190
-623.419	-1.569	-0.147	0.104
-622.405	102.596	0.172	-0.201
-621.390	1.588	0.094	0.068
-620.376	-44.235	-0.101	0.051
-619.361	-69.939	0.048	-0.018
-618.346	112.369	0.226	-0.273
-617.332	-200.000	0.027	-0.138
-616.317	6.928	-0.212	0.158
-615.303	-200.000	0.022	-0.457
-614.288	-200.000	0.072	-0.314
-613.273	80.433	-0.046	0.049
-612.259	-21.545	-0.242	0.147
-611.244	727.793	-0.131	0.348
-610.230	178.192	0.248	-0.361
-609.215	-200.000	0.028	-0.144
-608.201	-155.587	-0.350	-0.022
-607.186	81.434	-0.246	0.265
-606.171	-64.149	-0.161	0.066
-605.157	-35.171	0.158	0.086
-604.142	501.318	-0.100	-0.230
-603.128	60.965	0.108	0.107
-602.113	800.000	0.041	0.171
-601.098	-200.000	0.046	0.289
-600.084	800.000	-0.059	0.191
-599.069	91.432	0.087	-0.097
-598.055	332.111	0.154	-0.296
-597.040	-200.000	-0.075	-0.000
-596.025	718.355	0.094	0.248
-595.011	-200.000	0.002	-0.036
-593.996	94.567	-0.099	-0.113
-592.982	-134.350	-0.449	0.055
-591.967	-200.000	0.018	0.185
-590.952	-111.477	0.390	0.079
-589.938	-139.405	-0.098	-0.010
-588.923	240.528	-0.052	-0.086
-587.909	-200.000	-0.005	-0.209
-586.894	-23.184	0.073	-0.044
-585.879	-57.836	-0.207	-0.090
-584.865	-200.000	-0.044	-0.288
-583.850	-118.156	0.331	0.059
-582.836	800.000	0.058	-0.197
-581.821	-200.000	0.027	0.449
-580.806	-111.798	-0.329	-0.066
-579.792	-163.196	-0.175	0.008
-578.777	-200.000	-0.060	-0.274
-577.763	-113.636	0.186	-0.036
-576.748	-200.000	0.052	0.349
-575.733	-153.706	-0.213	-0.015
-574.719	-200.000	0.021	-0.245
-573.704	-14.898	-0.198	-0.126
-572.690	-103.513	0.142	-0.033
-571.675	800.000	0.038	0.120
-570.661	209.640	0.145	0.227
-569.646	-117.766	-0.336	0.060
-568.631	800.000	0.009	0.036
-567.617	-28.167	0.152	0.087
-566.602	800.000	-0.037	-0.130
-565.588	800.000	0.046	0.134
-564.573	-40.070	-0.073	0.038
-563.558	-200.000	-0.013	-0.201
-562.544	-200.000	-0.011	0.104
-561.529	423.745	0.089	0.190
-560.515	70.110	-0.193	-0.198
-559.500	561.732	-0.083	-0.201
-558.485	62.450	-0.087	-0.087
-557.471	-200.000	-0.021	-0.166
-556.456	-200.000	0.017	-0.110
-555.442	-200.000	0.048	-0.230
-554.427	306.231	-0.060	-0.112
-553.412	-135.937	0.028	0.003
-552.398	-200.000	-0.020	-0.118
-551.383	800.000	-0.060	0.182
-550.369	175.298	0.066	0.095
-549.354	-37.436	0.255	0.136
-548.339	322.752	-0.165	0.312
-547.325	432.710	-0.069	0.150
-546.310	-128.885	-0.108	0.015
-545.296	72.293	-0.102	-0.106
-544.281	-107.808	-0.224	0.049
-543.266	-175.313	0.122	-0.003
-542.252	-19.561	-0.203	0.125
-541.237	-62.066	0.188	-0.078
-540.223	-200.000	0.017	-0.116
-539.208	-68.071	-0.167	0.065
-538.193	-16.161	-0.236	0.149
-537.179	10.488	0.119	-0.091
-536.164	-200.000	0.008	-0.194
-535.150	800.000	-0.070	-0.280
-534.135	-126.501	0.191	-0.028
-533.121	-104.443	-0.299	-0.069
-532.106	-90.375	0.323	-0.093
-531.091	-71.645	0.103	-0.038
-530.077	489.038	-0.112	-0.254
-529.062	-63.061	0.350	-0.144
-528.048	-200.000	-0.020	0.249
-527.033	-48.832	-0.065	0.031
-526.018	800.000	-0.046	-0.159
-525.004	-25.116	-0.158	0.093
-523.989	-14.525	-0.188	0.120
-522.975	195.855	0.097	0.147
-521.960	200.350	-0.074	-0.113
-520.945	127.419	-0.206	0.260
-519.931	-138.450	0.187	-0.020
-518.916	395.521	0.089	0.185
-517.902	-21.855	-0.217	-0.131
-516.887	232.230	0.052	0.084
-515.872	245.006	0.140	0.234
-514.858	634.008	-0.095	0.239
-513.843	800.000	0.062	0.189
-512.829	-164.031	-0.333	-0.015
-511.814	-200.000	-0.022	-0.189
-510.799	-18.836	0.052	-0.032
-509.785	-7.597	-0.225	-0.152
-508.770	695.014	0.104	-0.273
-507.756	-30.977	0.262	0.147
-506.741	158.231	0.138	0.191
-505.726	800.000	-0.022	0.090
-504.712	0.626	-0.371	0.264
-503.697	-200.000	0.004	0.023
-502.683	-200.000	-0.005	0.046
-501.668	31.053	0.236	-0.201
-500.653	4.857	-0.102	0.075
-499.639	-25.064	-0.226	0.133
-498.624	18.682	-0.095	0.076
-497.610	129.339	-0.223	0.283
-496.595	-69.593	-0.162	-0.061
-495.581	-128.080	-0.341	-0.048
-494.566	312.720	0.132	0.247
-493.551	800.000	-0.039	0.153
-492.537	3.964	-0.207	0.151
-491.522	-66.121	0.072	-0.029
-490.508	800.000	-0.063	-0.235
-489.493	-37.705	0.104	-0.055
-488.478	-58.922	-0.171	0.073
-487.464	800.000	-0.059	0.247
-486.449	-200.000	0.028	0.456
-485.435	-60.357	-0.128	-0.054
-484.420	83.694	-0.113	-0.123
-483.405	85.294	-0.140	0.153
-482.391	-117.421	-0.155	0.028
-481.376	-195.964	-0.106	0.001
-480.362	-30.544	-0.109	-0.061
-479.347	-84.201	0.377	0.119
-478.332	-82.898	-0.256	-0.082
-477.318	-200.000	-0.131	0.572
-476.303	-200.000	0.038	0.225
-475.289	-200.000	0.027	-0.171
-474.274	177.776	-0.195	0.282
-473.259	-110.364	0.282	-0.058
-472.245	-118.293	0.171	0.030
-471.230	-134.641	-0.275	-0.033
-470.216	-200.000	0.009	-0.258
-469.201	263.648	-0.185	0.319
-468.186	-62.937	-0.132	0.054
-467.172	61.254	0.163	-0.161
-466.157	113.044	-0.052	-0.063
-465.143	-40.209	0.093	0.048
-464.128	-111.245	-0.277	0.056
-463.113	-172.798	0.225	0.007
-462.099	120.209	0.107	-0.131
-461.084	-158.114	-0.227	-0.013
-460.070	-70.783	-0.097	-0.036
-459.055	315.508	-0.193	-0.361
-458.040	468.183	-0.096	-0.213
-457.026	800.000	-0.040	0.141
-456.011	800.000	-0.015	-0.043
-454.997	765.329	-0.086	-0.231
-453.982	800.000	0.038	-0.123
-452.968	-135.322	0.365	0.043
-451.953	189.636	-0.116	-0.173
-450.938	-102.196	-0.090	0.022
-449.924	-200.000	0.046	0.295
-448.909	57.074	-0.104	-0.100
-447.895	95.857	-0.049	-0.055
-446.880	65.261	0.245	0.246
-445.865	139.180	0.139	0.182
-444.851	800.000	-0.022	0.071
-443.836	65.633	-0.325	-0.326
-442.822	-43.649	-0.131	-0.066
-441.807	-75.337	0.224	0.079
-440.792	800.000	0.089	0.277
-439.778	124.919	-0.099	0.124
-438.763	67.034	-0.073	0.074
-437.749	-177.459	-0.156	-0.004
-436.734	90.621	0.051	0.057
-435.719	-200.000	0.029	0.139
-434.705	-200.000	-0.020	0.195
-433.690	-78.145	0.401	0.137
-432.676	-2.686	-0.076	0.053
-431.661	-49.429	-0.149	0.071
-430.646	98.652	-0.113	0.129
-429.632	-99.883	0.091	0.022
-428.617	114.522	-0.066	0.079
-427.603	-200.000	0.007	-0.048
-426.588	-124.305	0.350	-0.054
-425.573	238.145	0.029	0.048
-424.559	520.211	-0.138	-0.320
-423.544	-119.856	0.414	-0.071
-422.530	-103.771	0.261	-0.061
-421.515	372.645	-0.107	0.216
-420.500	-200.000	-0.017	-0.142
-419.486	149.938	0.173	-0.233
-418.471	427.572	-0.095	0.202
-417.457	-200.000	-0.014	-0.187
-416.442	-200.000	-0.001	0.019
-415.428	-34.288	0.151	-0.082
-414.413	523.907	-0.174	0.405
-413.398	800.000	-0.037	-0.111
-412.384	2.831	0.141	-0.101
-411.369	321.716	-0.057	-0.107
-410.355	-89.396	0.025	0.007
-409.340	-200.000	0.059	0.381
-408.325	-178.535	0.272	-0.006
-407.311	-48.006	0.267	-0.128
-406.296	800.000	0.102	-0.293
-405.282	64.292	-0.167	-0.167
-404.267	-56.338	0.156	-0.069
-403.252	-29.663	-0.329	0.186
-402.238	389.144	-0.123	-0.252
-401.223	339.046	0.073	0.141
-400.209	61.031	-0.231	-0.227
-399.194	-174.381	0.486	0.014
-398.179	-200.000	-0.012	0.271
-397.165	248.232	0.073	-0.123
-396.150	-200.000	-0.030	0.150
-395.136	-200.000	-0.001	0.313
-394.121	623.809	0.084	0.209
-393.106	-3.948	0.262	-0.180
-392.092	-52.144	0.188	0.086
-391.077	121.324	0.101	0.124
-390.063	-200.000	0.024	0.199
-389.048	-108.261	0.089	-0.019
-388.033	-87.113	-0.207	-0.062
-387.019	-52.340	0.210	0.096
-386.004	110.161	0.143	-0.170
-384.990	-6.267	0.181	0.122
-383.975	216.695	-0.239	0.376
-382.960	384.203	-0.184	-0.375
-381.946	224.581	0.151	-0.241
-380.931	115.347	0.087	0.105
-379.917	-144.819	0.286	-0.026
-378.902	0.033	-0.217	0.153
-377.888	127.635	-0.053	0.067
-376.873	800.000	-0.059	-0.192
-375.858	-200.000	0.011	-0.100
-374.844	-200.000	0.064	-0.282
-373.829	-200.000	-0.033	0.181
-372.815	-137.253	0.226	0.025
-371.800	-18.314	-0.095	-0.059
-370.785	127.381	0.201	0.252
-369.771	205.011	-0.077	0.118
-368.756	188.399	0.086	0.127
-367.742	-57.474	-0.113	0.049
-366.727	800.000	0.114	0.453
-365.712	91.393	0.162	-0.180
-364.698	800.000	0.052	-0.157
-363.683	24.989	-0.042	-0.034
-362.669	-118.831	0.163	-0.028
-361.654	138.103	0.145	-0.188
-360.639	-140.656	0.164	0.017
-359.625	22.482	-0.276	0.223
-358.610	5.320	-0.125	-0.091
-357.596	-40.125	0.113	-0.058
-356.581	135.017	-0.182	-0.234
-355.566	136.478	0.237	0.305
-354.552	-13.852	-0.155	0.099
-353.537	-34.167	0.217	0.118
-352.523	271.519	0.054	-0.095
-351.508	245.546	0.145	-0.242
-350.493	-200.000	-0.007	0.094
-349.479	366.994	-0.021	-0.041
-348.464	-200.000	-0.018	-0.157
-347.450	-114.767	-0.385	0.073
-346.435	531.075	-0.135	0.314
-345.420	-27.231	0.164	-0.094
-344.406	162.667	-0.110	-0.153
-343.391	-200.000	-0.011	-0.265
-342.377	-200.000	0.056	0.286
-341.362	216.489	0.102	0.160
-340.348	-11.507	-0.055	-0.036
-339.333	-77.313	0.244	0.084
-338.318	-70.585	0.157	0.059
-337.304	54.477	-0.202	-0.192
-336.289	800.000	-0.160	0.484
-335.275	-200.000	-0.031	-0.706
-334.260	-142.755	0.149	-0.014
-333.245	-154.232	-0.305	0.020
-332.231	-200.000	-0.006	-0.131
-331.216	-200.000	0.001	-0.160
-330.202	145.847	0.292	-0.386
-329.187	-82.261	0.288	0.093
-328.172	-77.421	0.319	0.109
-327.158	-200.000	-0.043	0.309
-326.143	-194.962	-0.087	0.001
-325.129	-84.634	0.329	-0.102
-324.114	-174.858	0.179	-0.005
-323.099	34.331	-0.231	-0.199
-322.085	-14.240	-0.111	0.071
-321.070	78.137	0.164	-0.173
-320.056	124.596	-0.048	0.060
-319.041	142.485	0.222	-0.290
-318.026	-114.562	-0.361	-0.068
-317.012	-102.991	0.201	-0.047
-315.997	-145.241	-0.138	0.012
-314.983	-158.173	-0.144	0.008
-313.968	-84.795	-0.225	-0.070
-312.953	135.277	0.222	-0.284
-311.939	-111.732	-0.148	0.030
-310.924	113.309	-0.024	0.029
-309.910	-148.899	0.068	0.005
-308.895	-37.646	0.194	-0.102
-307.880	127.530	0.142	0.178
-306.866	-120.499	0.181	0.030
-305.851	-200.000	0.008	-0.092
-304.837	-200.000	-0.377	0.000
-303.822	-27.042	-0.277	0.159
-302.807	800.000	-0.037	0.161
-301.793	-72.211	0.211	-0.077
-300.778	-67.290	0.187	0.073
-299.764	800.000	-0.154	-0.428
-298.749	-62.226	0.244	-0.100
-297.735	-200.000	0.019	-0.173
-296.720	36.642	-0.150	-0.131
-295.705	-128.336	0.338	0.048
-294.691	641.183	0.127	-0.318
-293.676	9.465	0.121	0.090
-292.662	-200.000	0.017	-0.093
-291.647	-200.000	0.015	-0.354
-290.632	3.564	0.128	0.092
-289.618	55.886	-0.207	0.198
-288.603	-5.606	0.148	-0.100
-287.589	-200.000	-0.025	0.118
-286.574	26.604	-0.205	0.169
-285.559	-64.858	-0.375	0.150
-284.545	277.791	0.115	0.202
-283.530	-4.488	0.159	-0.108
-282.516	-134.714	-0.032	-0.004
-281.501	219.711	-0.094	-0.149
-280.486	30.142	0.140	0.118
-279.472	-17.497	0.092	0.057
-278.457	-127.051	-0.075	0.011
-277.443	7.920	0.279	0.206
-276.428	-200.000	0.028	-0.272
-275.413	-200.000	0.022	-0.142
-274.399	-77.502	0.170	-0.058
-273.384	800.000	-0.077	0.300
-272.370	243.897	-0.186	0.307
-271.355	800.000	-0.112	-0.320
-270.340	-89.116	-0.255	0.074
-269.326	-50.872	0.202	-0.094
-268.311	-155.007	0.238	-0.015
-267.297	4.342	-0.230	-0.166
-266.282	608.562	-0.074	-0.181
-265.267	39.787	-0.267	-0.236
-264.253	800.000	-0.015	-0.047
-263.238	-133.287	0.131	-0.016
-262.224	154.194	-0.196	-0.265
-261.209	-84.255	0.228	-0.071
-260.195	388.269	-0.147	0.300
-259.180	266.471	-0.118	-0.203
-258.165	60.767	0.144	-0.140
-257.151	-200.000	0.161	0.000
-256.136	800.000	0.022	-0.077
-255.122	166.064	-0.184	-0.256
-254.107	-122.577	-0.251	0.040
-253.092	-200.000	0.028	0.616
-252.078	-68.326	0.251	0.096
-251.063	-200.000	0.059	-0.368
-250.049	-90.604	0.115	0.033
-249.034	-38.572	0.039	0.021
-248.019	-200.000	0.006	-0.295
-247.005	-114.383	-0.298	0.056
-245.990	-52.683	0.081	0.037
-244.976	-34.644	-0.047	-0.025
-243.961	220.518	0.167	0.264
-242.946	41.383	-0.395	-0.351
-241.932	686.655	-0.002	0.004
-240.917	-24.023	-0.177	0.104
-239.903	302.578	0.148	-0.270
-238.888	800.000	0.094	-0.261
-237.873	800.000	-0.046	0.188
-236.859	-17.647	-0.150	-0.092
-235.844	233.121	0.119	0.193
-234.830	-200.000	-0.022	0.384
-233.815	-200.000	-0.043	-0.331
-232.800	40.984	0.147	0.130
-231.786	-5.925	-0.017	-0.012
-230.771	-188.923	-0.244	-0.003
-229.757	-9.870	-0.145	0.095
-228.742	750.300	0.027	0.072
-227.727	800.000	0.037	0.129
-226.713	-120.053	0.084	0.014
-225.698	-115.936	-0.174	0.032
-224.684	37.762	0.197	-0.172
-223.669	-60.527	-0.156	0.065
-222.655	800.000	-0.042	0.166
-221.640	-100.429	0.408	-0.099
-220.625	-200.000	-0.063	-0.277
-219.611	-43.322	0.083	0.041
-218.596	598.698	-0.108	0.263
-217.582	54.001	-0.286	0.270
-216.567	800.000	0.124	-0.394
-215.552	466.881	-0.166	-0.366
-214.538	41.566	0.412	-0.367
-213.523	-9.079	-0.242	-0.159
-212.509	47.067	0.354	-0.324
-211.494	800.000	0.089	-0.285
-210.479	-200.000	0.019	-0.094
-209.465	23.516	0.263	-0.212
-208.450	-125.160	-0.236	0.036
-207.436	529.670	0.049	-0.115
-206.421	37.404	0.247	0.215
-205.406	800.000	-0.080	0.334
-204.392	-56.487	-0.305	0.133
-203.377	67.632	-0.168	0.169
-202.363	106.838	-0.083	-0.096
-201.348	206.665	-0.028	0.042
-200.333	-33.780	0.180	-0.098
-199.319	180.420	0.191	0.276
-198.304	174.380	0.060	-0.085
-197.290	-106.199	0.285	0.063
-196.275	425.194	0.080	0.170
-195.260	-139.347	0.205	0.022
-194.246	723.411	0.120	-0.313
-193.231	126.821	-0.036	0.045
-192.217	-92.668	-0.200	0.055
-191.202	153.610	0.182	-0.245
-190.187	69.856	-0.197	-0.199
-189.173	-13.504	0.208	0.132
-188.158	-68.739	0.343	0.130
-187.144	800.000	0.045	0.189
-186.129	281.749	-0.138	0.243
-185.114	82.285	-0.082	0.088
-184.100	74.051	0.227	0.234
-183.085	-41.093	0.224	0.114
-182.071	1.754	-0.117	0.083
-181.056	126.718	-0.139	0.173
-180.042	469.660	0.207	0.458
-179.027	48.597	-0.054	-0.049
-178.012	800.000	0.031	0.096
-176.998	5.721	0.232	0.168
-175.983	800.000	0.015	0.064
-174.969	-200.000	0.020	-0.166
-173.954	-20.814	0.141	-0.085
-172.939	-127.609	0.120	0.017
-171.925	201.382	-0.278	0.419
-170.910	-200.000	-0.010	0.116
-169.896	-9.730	-0.314	0.205
-168.881	-200.000	-0.017	-0.381
-167.866	-200.000	-0.054	0.246
-166.852	-200.000	0.028	-0.267
-165.837	-200.000	0.053	-0.237
-164.823	-15.793	0.150	0.094
-163.808	-24.011	-0.056	0.033
-162.793	476.716	0.064	0.142
-161.779	-102.792	0.345	-0.081
-160.764	92.035	0.115	-0.127
-159.750	800.000	-0.087	-0.340
-158.735	8.047	-0.167	0.123
-157.720	800.000	0.055	-0.223
-156.706	143.197	-0.044	0.058
-155.691	8.730	0.222	-0.164
-154.677	220.372	-0.142	-0.224
-153.662	-200.000	0.058	0.275
-152.647	800.000	0.067	-0.215
-151.633	346.762	0.105	0.203
-150.618	-200.000	-0.007	-0.256
-149.604	-132.569	-0.235	0.030
-148.589	-119.196	0.262	-0.045
-147.574	208.360	-0.063	-0.096
-146.560	-150.775	-0.307	-0.023
-145.545	625.108	0.129	-0.320
-144.531	-200.000	-0.001	0.049
-143.516	-200.000	0.025	0.221
-142.502	-57.070	-0.080	-0.034
-141.487	-200.000	-0.003	-0.163
-140.472	-167.515	0.477	0.019
-139.458	-114.349	0.242	-0.046
-138.443	236.488	0.101	-0.164
-137.429	784.995	0.052	0.140
-136.414	-104.724	0.210	-0.047
-135.399	800.000	0.067	0.200
-134.385	-62.110	0.152	-0.062
-133.370	-74.426	0.261	0.092
-132.356	-200.000	0.026	-0.146
-131.341	163.050	-0.160	0.221
-130.326	-59.425	-0.152	0.064
-129.312	512.354	-0.096	0.219
-128.297	800.000	-0.031	0.125
-127.283	-79.525	-0.111	0.037
-126.268	167.844	0.084	0.117
-125.253	68.742	0.206	-0.208
-124.239	-129.545	-0.357	-0.048
-123.224	800.000	0.053	-0.151
-122.210	-200.000	-0.007	-0.306
-121.195	-94.709	0.222	0.059
