DTS Sentinel unit serial number:	SN413079Multiplexer serial number:	ORYXHardware model number:	OX4-SRSoftware version number:	ORYX F/W v4.00 Oryx Data Collector v3.7.2.0data status	okinstallation	princeton_trtdifferential loss correction	single-endedforward channel	channel 2reverse channel	N/Adate	2019/09/10time	15:53:11forward acquisition time	60.00reverse acquisition time	0.00gamma	496.2192k internal	0.2307k external	0.2307temperature offset calibration	0.9938default loss term (dB/km)	0.3790temperature slope calibration	1.0000multiplexer offset coefficient	1.0000multiplexer slope coefficient	1.0000fibre end	0.00T internal ref (°C)	38.17T ext. ref 1 (°C)	-0.28T ext. ref 2 (°C)	32.28length (m)	temperature (°C)	Stokes	anti-Stokes-747.200	128.557	-0.080	0.104
-746.185	-140.084	0.097	-0.010
-745.171	-52.436	0.206	0.097
-744.156	116.138	0.135	0.168
-743.142	-68.482	0.644	-0.254
-742.127	800.000	0.024	-0.096
-741.112	55.946	0.192	0.190
-740.098	108.973	-0.215	0.261
-739.083	800.000	-0.123	-0.382
-738.069	-24.132	0.239	0.145
-737.054	800.000	0.114	0.386
-736.039	111.300	-0.144	-0.176
-735.025	-119.607	0.203	-0.036
-734.010	-64.257	-0.274	-0.113
-732.996	-73.427	-0.413	-0.153
-731.981	-200.000	-0.021	0.150
-730.966	567.621	0.079	-0.194
-729.952	-200.000	0.026	-0.196
-728.937	-137.715	-0.343	-0.039
-727.923	-105.768	-0.055	0.013
-726.908	-132.726	-0.439	0.057
-725.894	-200.000	-0.051	0.233
-724.879	-47.427	0.395	-0.195
-723.864	27.684	0.106	-0.091
-722.850	-200.000	0.041	-0.321
-721.835	8.153	0.214	-0.163
-720.821	-73.731	-0.190	-0.070
-719.806	195.276	0.182	-0.280
-718.791	-119.919	0.229	-0.040
-717.777	-87.792	0.240	-0.073
-716.762	71.930	0.125	-0.132
-715.748	-109.865	0.188	0.040
-714.733	800.000	-0.060	0.186
-713.718	-110.876	-0.269	0.056
-712.704	-8.871	-0.142	-0.097
-711.689	-152.107	-0.211	-0.016
-710.675	562.787	0.045	-0.111
-709.660	-116.124	-0.381	0.072
-708.645	800.000	-0.025	0.100
-707.631	800.000	0.052	-0.163
-706.616	6.897	-0.255	0.193
-705.602	-94.688	0.093	-0.026
-704.587	-48.284	0.078	0.038
-703.572	595.130	-0.086	0.215
-702.558	240.461	-0.136	0.230
-701.543	800.000	-0.045	-0.143
-700.529	31.512	0.052	0.045
-699.514	-135.262	0.264	0.032
-698.499	-150.109	-0.247	-0.019
-697.485	36.799	0.309	-0.277
-696.470	-200.000	0.015	-0.087
-695.456	-162.236	0.134	0.007
-694.441	31.514	0.191	-0.167
-693.426	170.194	0.259	0.376
-692.412	-200.000	-0.038	0.258
-691.397	373.928	0.151	-0.313
-690.383	800.000	-0.045	0.152
-689.368	-162.155	0.245	-0.012
-688.354	-200.000	-0.076	-0.377
-687.339	-131.569	-0.140	-0.019
-686.324	54.337	-0.141	0.138
-685.310	800.000	0.075	0.225
-684.295	-200.000	0.003	-0.279
-683.281	489.655	0.016	-0.036
-682.266	297.400	-0.055	0.102
-681.251	61.393	0.054	0.055
-680.237	-49.456	-0.087	-0.042
-679.222	-97.488	0.178	0.047
-678.208	-98.947	-0.142	0.036
-677.193	-200.000	-0.027	0.265
-676.178	-42.236	-0.276	-0.143
-675.164	-200.000	-0.006	-0.033
-674.149	-48.880	-0.028	-0.014
-673.135	-83.000	-0.167	-0.055
-672.120	6.550	-0.207	-0.156
-671.105	-132.289	0.277	0.036
-670.091	60.633	-0.037	0.037
-669.076	53.659	0.222	0.216
-668.062	48.412	0.107	0.102
-667.047	408.200	-0.057	-0.122
-666.032	-190.250	-0.414	-0.005
-665.018	-16.592	0.143	-0.092
-664.003	635.856	0.014	-0.035
-662.989	421.594	0.050	0.108
-661.974	800.000	0.071	0.255
-660.959	-35.080	0.385	-0.213
-659.945	-94.880	-0.138	0.038
-658.930	-27.324	-0.239	0.141
-657.916	1.509	-0.102	-0.074
-656.901	36.371	-0.062	-0.055
-655.886	-48.840	-0.181	0.088
-654.872	150.805	0.099	-0.137
-653.857	800.000	-0.033	-0.113
-652.843	-18.719	-0.312	-0.197
-651.828	-81.184	-0.275	-0.092
-650.814	-47.950	0.200	-0.098
-649.799	-200.000	0.031	0.158
-648.784	-200.000	0.010	0.235
-647.770	4.157	-0.088	-0.065
-646.755	-49.495	0.208	-0.100
-645.741	-200.000	-0.020	-0.258
-644.726	53.225	0.108	-0.105
-643.711	26.335	-0.132	0.112
-642.697	-200.000	0.029	0.249
-641.682	44.264	-0.157	-0.146
-640.668	-94.177	0.295	-0.082
-639.653	159.722	0.305	-0.430
-638.638	172.503	0.036	-0.053
-637.624	-200.000	0.036	0.203
-636.609	275.627	-0.122	0.220
-635.595	69.519	0.310	0.323
-634.580	-40.759	-0.167	-0.087
-633.565	707.907	-0.190	-0.508
-632.551	-4.246	-0.114	-0.080
-631.536	-56.429	0.264	0.118
-630.522	38.127	0.103	-0.092
-629.507	78.376	0.149	-0.161
-628.492	-45.965	-0.295	0.147
-627.478	-92.383	0.150	0.043
-626.463	-200.000	0.052	-0.248
-625.449	-200.000	0.011	-0.153
-624.434	62.152	-0.253	0.255
-623.419	-3.473	-0.092	-0.065
-622.405	-151.391	0.168	-0.013
-621.390	-102.020	-0.168	-0.041
-620.376	187.840	-0.057	0.087
-619.361	726.776	-0.040	-0.109
-618.346	-138.244	-0.341	0.038
-617.332	-200.000	0.034	0.262
-616.317	77.489	-0.115	0.124
-615.303	517.886	0.150	0.356
-614.288	-200.000	-0.038	0.189
-613.273	-200.000	0.018	0.204
-612.259	28.935	0.232	0.199
-611.244	164.605	0.120	-0.172
-610.230	57.908	0.159	-0.157
-609.215	-56.373	0.175	0.079
-608.201	132.816	-0.103	0.134
-607.186	81.148	-0.152	-0.166
-606.171	-200.000	0.058	-0.321
-605.157	126.740	-0.141	0.180
-604.142	800.000	0.044	0.160
-603.128	-200.000	0.013	0.161
-602.113	305.834	0.150	0.282
-601.098	40.862	0.085	-0.078
-600.084	96.357	0.105	-0.122
-599.069	-200.000	-0.001	0.090
-598.055	-200.000	0.019	0.269
-597.040	347.838	-0.128	0.255
-596.025	-200.000	-0.020	-0.141
-595.011	-20.346	-0.172	0.107
-593.996	-7.534	0.343	0.234
-592.982	-200.000	0.006	-0.028
-591.967	-200.000	-0.034	-0.287
-590.952	-164.811	-0.208	0.009
-589.938	31.494	-0.154	0.134
-588.923	-100.107	0.403	0.101
-587.909	33.513	0.231	0.203
-586.894	-132.980	0.149	0.019
-585.879	-36.281	-0.129	0.070
-584.865	-133.386	0.214	0.027
-583.850	30.865	-0.165	-0.143
-582.836	-200.000	-0.010	0.276
-581.821	-117.593	0.288	-0.053
-580.806	-160.487	-0.495	0.027
-579.792	52.317	0.248	-0.239
-578.777	-2.128	0.042	-0.030
-577.763	71.953	-0.087	-0.091
-576.748	107.750	-0.013	0.015
-575.733	-71.022	-0.023	-0.009
-574.719	-44.517	0.158	0.080
-573.704	28.425	-0.159	-0.135
-572.690	248.723	-0.182	-0.311
-571.675	-200.000	0.003	-0.428
-570.661	269.983	-0.150	-0.267
-569.646	407.666	0.101	-0.215
-568.631	-158.955	0.259	-0.015
-567.617	-101.334	-0.368	-0.091
-566.602	-103.658	-0.160	-0.038
-565.588	800.000	0.012	0.036
-564.573	-35.611	-0.259	-0.142
-563.558	24.189	-0.254	-0.211
-562.544	16.089	0.158	-0.125
-561.529	294.892	0.131	-0.242
-560.515	-200.000	0.007	0.248
-559.500	-27.010	-0.324	0.191
-558.485	-162.152	0.059	-0.003
-557.471	4.085	0.104	0.077
-556.456	184.721	0.078	0.117
-555.442	156.247	0.186	0.259
-554.427	73.046	0.141	0.149
-553.412	-51.075	-0.142	0.067
-552.398	-130.444	-0.300	-0.041
-551.383	8.532	-0.098	0.074
-550.369	-127.484	0.389	-0.057
-549.354	11.463	-0.113	-0.088
-548.339	800.000	0.046	-0.181
-547.325	259.619	-0.128	0.222
-546.310	117.018	-0.176	0.218
-545.296	-70.925	-0.290	0.110
-544.281	-118.051	-0.235	-0.042
-543.266	1.795	-0.162	-0.118
-542.252	48.088	0.205	-0.193
-541.237	1.959	-0.237	-0.172
-540.223	-200.000	-0.044	-0.503
-539.208	85.000	0.274	0.304
-538.193	-75.330	-0.280	-0.101
-537.179	34.001	-0.064	0.056
-536.164	-200.000	-0.029	0.512
-535.150	-154.828	0.385	-0.026
-534.135	-53.880	-0.174	-0.080
-533.121	29.309	-0.244	-0.209
-532.106	-114.868	-0.246	-0.047
-531.091	-61.061	-0.282	-0.120
-530.077	-200.000	0.004	0.113
-529.062	-161.297	0.195	0.010
-528.048	53.030	-0.210	-0.203
-527.033	375.612	0.059	0.122
-526.018	-56.171	0.245	-0.110
-525.004	219.287	-0.144	-0.233
-523.989	539.419	0.067	-0.161
-522.975	13.853	0.081	-0.064
-521.960	-124.619	0.238	0.037
-520.945	497.344	-0.130	0.302
-519.931	-200.000	-0.028	-0.163
-518.916	-73.087	-0.169	-0.062
-517.902	-200.000	0.016	-0.392
-516.887	-92.574	-0.301	0.085
-515.872	-91.105	-0.182	0.053
-514.858	1.391	0.259	-0.187
-513.843	-162.285	-0.235	0.012
-512.829	59.781	0.138	0.137
-511.814	119.530	0.146	-0.183
-510.799	112.617	0.168	0.205
-509.785	106.455	-0.344	0.411
-508.770	-200.000	0.005	0.420
-507.756	191.252	0.121	-0.184
-506.741	-200.000	0.026	0.180
-505.726	800.000	-0.051	-0.157
-504.712	358.805	0.061	0.124
-503.697	4.510	0.403	-0.298
-502.683	800.000	0.080	-0.323
-501.668	800.000	-0.056	0.182
-500.653	-200.000	-0.049	0.267
-499.639	71.217	-0.241	-0.252
-498.624	7.038	0.324	-0.243
-497.610	249.255	0.228	-0.388
-496.595	87.914	0.129	0.144
-495.581	116.340	0.019	0.023
-494.566	109.967	0.103	0.124
-493.551	-200.000	-0.012	0.366
-492.537	-188.782	0.207	-0.003
-491.522	800.000	0.077	0.260
-490.508	133.059	0.156	0.202
-489.493	241.681	-0.217	-0.365
-488.478	800.000	0.120	-0.352
-487.464	-59.076	-0.104	-0.045
-486.449	214.808	-0.170	0.271
-485.435	200.510	0.033	-0.051
-484.420	39.246	0.402	0.363
-483.405	-52.222	0.160	0.075
-482.391	-200.000	-0.023	-0.363
-481.376	409.259	0.169	-0.359
-480.362	-66.707	-0.139	0.056
-479.347	-48.728	0.154	0.075
-478.332	-200.000	-0.001	-0.246
-477.318	-29.878	-0.244	-0.140
-476.303	-27.830	0.104	-0.061
-475.289	-200.000	-0.064	-0.330
-474.274	-89.516	0.212	0.063
-473.259	800.000	0.034	0.097
-472.245	14.053	0.087	-0.068
-471.230	-200.000	0.009	-0.347
-470.216	-200.000	0.006	-0.088
-469.201	183.707	-0.094	-0.140
-468.186	173.689	0.112	0.163
-467.172	686.831	-0.035	-0.093
-466.157	-132.340	-0.210	-0.027
-465.143	-24.858	0.228	-0.136
-464.128	-189.935	0.102	0.001
-463.113	-200.000	0.128	-0.000
-462.099	-31.833	0.216	0.122
-461.084	-116.739	-0.192	-0.035
-460.070	-134.910	-0.189	-0.023
-459.055	-99.992	-0.291	-0.073
-458.040	322.055	0.127	0.244
-457.026	21.593	0.132	0.108
-456.011	431.104	0.120	0.262
-454.997	14.310	0.321	0.252
-453.982	-84.736	-0.458	-0.145
-452.968	190.614	-0.071	-0.107
-451.953	-94.684	-0.090	-0.025
-450.938	713.387	0.105	0.279
-449.924	-80.779	0.222	0.074
-448.909	213.273	0.048	0.077
-447.895	-200.000	-0.018	0.108
-446.880	-79.617	-0.339	0.115
-445.865	-171.517	0.133	0.004
-444.851	50.235	0.228	0.216
-443.836	-200.000	0.019	-0.416
-442.822	24.276	-0.168	0.139
-441.807	-200.000	-0.037	-0.248
-440.792	-48.682	0.198	-0.095
-439.778	178.581	-0.084	0.123
-438.763	134.344	-0.279	0.364
-437.749	-126.979	-0.085	0.013
-436.734	-128.628	0.218	-0.031
-435.719	-200.000	0.033	-0.192
-434.705	508.148	0.091	-0.211
-433.690	-1.648	0.246	-0.174
-432.676	800.000	0.024	0.092
-431.661	-107.984	0.028	0.006
-430.646	800.000	-0.045	0.130
-429.632	-154.955	-0.302	0.020
-428.617	465.272	0.024	0.054
-427.603	416.642	0.132	-0.283
-426.588	227.461	0.025	0.040
-425.573	91.681	0.061	0.069
-424.559	-151.824	0.116	0.009
-423.544	167.506	-0.185	0.264
-422.530	65.408	0.146	-0.148
-421.515	691.155	0.146	-0.385
-420.500	206.716	0.181	-0.283
-419.486	-200.000	0.098	0.490
-418.471	248.605	-0.165	0.281
-417.457	-54.081	-0.372	-0.170
-416.442	80.786	-0.096	-0.104
-415.428	17.360	0.291	-0.232
-414.413	161.323	0.086	-0.121
-413.398	699.503	-0.182	-0.482
-412.384	-1.126	0.127	-0.090
-411.369	95.882	0.064	-0.074
-410.355	-142.151	0.115	-0.011
-409.340	-200.000	-0.005	-0.151
-408.325	57.523	-0.264	-0.259
-407.311	-48.712	0.115	0.056
-406.296	29.128	-0.074	0.063
-405.282	-39.060	0.049	-0.026
-404.267	800.000	-0.056	0.208
-403.252	-149.409	0.078	0.006
-402.238	-75.918	-0.241	0.086
-401.223	-200.000	-0.061	-0.271
-400.209	-30.368	0.119	-0.068
-399.194	783.950	0.071	0.196
-398.179	9.242	0.310	-0.235
-397.165	-200.000	0.034	-0.280
-396.150	226.489	-0.101	0.165
-395.136	194.805	-0.128	-0.195
-394.121	-200.000	-0.013	-0.117
-393.106	394.498	0.142	0.297
-392.092	-49.062	0.334	-0.160
-391.077	119.818	-0.110	0.137
-390.063	-84.701	-0.164	0.052
-389.048	75.138	-0.067	-0.071
-388.033	-11.831	-0.136	0.089
-387.019	47.455	0.103	-0.097
-386.004	-74.320	0.185	-0.067
-384.990	800.000	-0.047	0.160
-383.975	132.112	-0.172	0.222
-382.960	800.000	-0.057	-0.212
-381.946	538.057	0.056	-0.132
-380.931	-131.626	0.276	-0.036
-379.917	104.867	0.404	-0.477
-378.902	-200.000	-0.016	-0.118
-377.888	-200.000	0.025	0.156
-376.873	-25.464	0.177	-0.105
-375.858	800.000	-0.052	-0.207
-374.844	800.000	0.031	0.094
-373.829	-94.022	0.101	-0.028
-372.815	-62.806	0.080	-0.033
-371.800	-72.674	0.261	0.096
-370.785	-30.324	-0.012	0.007
-369.771	61.964	0.154	-0.154
-368.756	-200.000	-0.078	0.351
-367.742	-200.000	0.067	0.381
-366.727	-112.293	0.224	-0.045
-365.712	20.436	-0.148	-0.120
-364.698	-200.000	0.021	0.269
-363.683	30.512	-0.251	-0.215
-362.669	-73.693	-0.071	0.026
-361.654	800.000	-0.061	0.238
-360.639	-57.198	0.162	0.072
-359.625	-124.347	0.149	-0.023
-358.610	800.000	0.050	0.155
-357.596	107.422	-0.096	-0.115
-356.581	-14.195	0.152	0.098
-355.566	-200.000	-0.039	0.254
-354.552	516.423	-0.185	0.433
-353.537	45.970	0.099	0.091
-352.523	119.371	0.148	-0.184
-351.508	-19.550	-0.218	-0.135
-350.493	-200.000	-0.026	-0.151
-349.479	16.515	0.196	-0.155
-348.464	-7.978	-0.290	-0.196
-347.450	-43.077	0.284	0.144
-346.435	-110.611	-0.061	0.013
-345.420	-138.619	-0.173	-0.019
-344.406	122.809	-0.024	0.030
-343.391	232.923	0.059	-0.097
-342.377	295.138	0.063	-0.115
-341.362	-1.928	-0.093	0.066
-340.348	122.398	-0.104	0.130
-339.333	427.414	-0.196	0.424
-338.318	-56.419	0.048	0.021
-337.304	-45.340	0.198	-0.098
-336.289	-200.000	0.027	0.539
-335.275	-129.512	-0.272	-0.038
-334.260	345.980	-0.204	0.401
-333.245	19.814	-0.391	-0.315
-332.231	403.928	-0.060	-0.127
-331.216	-200.000	0.054	-0.258
-330.202	-16.109	-0.091	0.058
-329.187	329.293	0.074	0.142
-328.172	-107.333	0.063	-0.014
-327.158	-64.582	0.309	-0.126
-326.143	-145.165	0.304	-0.028
-325.129	704.344	-0.027	0.071
-324.114	-34.502	-0.297	-0.163
-323.099	7.821	-0.131	0.098
-322.085	5.958	-0.138	0.102
-321.070	-200.000	-0.046	0.315
-320.056	-152.527	0.349	0.025
-319.041	800.000	0.088	0.280
-318.026	270.429	-0.127	-0.223
-317.012	545.967	-0.160	0.383
-315.997	79.912	-0.071	-0.077
-314.983	-200.000	-0.007	-0.117
-313.968	101.166	-0.071	-0.083
-312.953	-78.578	0.115	-0.039
-311.939	800.000	0.023	-0.084
-310.924	-8.094	0.094	0.063
-309.910	800.000	-0.160	0.466
-308.895	-158.194	-0.216	-0.013
-307.880	-161.197	0.193	0.010
-306.866	66.072	-0.068	-0.069
-305.851	138.603	-0.092	-0.121
-304.837	800.000	-0.039	-0.128
-303.822	-18.727	0.194	0.121
-302.807	86.811	-0.080	-0.088
-301.793	-169.801	0.116	-0.004
-300.778	-200.000	0.026	0.396
-299.764	-200.000	-0.012	0.151
-298.749	-200.000	0.027	-0.424
-297.735	118.888	0.231	-0.286
-296.720	-172.950	0.145	-0.004
-295.705	20.473	0.285	-0.230
-294.691	791.406	-0.072	-0.199
-293.676	307.210	0.027	-0.050
-292.662	-200.000	0.030	0.409
-291.647	221.337	-0.088	-0.141
-290.632	45.979	0.234	-0.217
-289.618	-85.951	0.122	-0.038
-288.603	-69.790	0.307	-0.117
-287.589	-200.000	0.045	-0.285
-286.574	-7.266	-0.134	0.090
-285.559	73.032	-0.138	-0.144
-284.545	70.911	0.027	0.028
-283.530	-71.445	0.092	-0.035
-282.516	800.000	-0.082	0.246
-281.501	-30.676	0.152	-0.086
-280.486	738.891	-0.160	-0.428
-279.472	232.497	-0.076	0.125
-278.457	-73.035	-0.366	-0.134
-277.443	-118.107	-0.255	0.046
-276.428	101.974	-0.219	0.255
-275.413	-146.904	-0.312	0.027
-274.399	-68.653	0.160	0.062
-273.384	-94.183	0.163	0.044
-272.370	246.477	0.010	0.017
-271.355	-186.828	-0.151	-0.002
-270.340	800.000	0.075	-0.224
-269.326	800.000	-0.039	-0.115
-268.311	-136.700	0.091	0.010
-267.297	-57.739	0.091	0.040
-266.282	-114.098	-0.193	0.037
-265.267	800.000	0.093	-0.306
-264.253	-42.311	0.085	-0.043
-263.238	-50.118	-0.092	-0.043
-262.224	-70.555	0.193	0.073
-261.209	183.963	-0.116	-0.172
-260.195	-19.203	0.201	0.125
-259.180	-33.749	0.034	0.019
-258.165	-14.047	-0.227	0.146
-257.151	790.615	-0.083	-0.227
-256.136	-118.859	-0.299	0.052
-255.122	-200.000	-0.117	0.528
-254.107	3.464	-0.352	0.256
-253.092	-37.367	-0.280	-0.149
-252.078	-200.000	-0.009	0.141
-251.063	-200.000	-0.035	-0.376
-250.049	201.650	-0.206	-0.316
-249.034	-70.904	-0.421	-0.158
-248.019	-68.481	0.090	-0.035
-247.005	-175.619	-0.115	0.003
-245.990	-68.537	0.331	0.128
-244.976	-61.262	-0.219	0.092
-243.961	644.210	-0.068	0.174
-242.946	93.404	-0.301	0.339
-241.932	116.969	0.217	0.266
-240.917	36.216	0.203	-0.179
-239.903	-200.000	0.022	0.408
-238.888	574.141	-0.061	0.149
-237.873	-111.893	0.147	-0.030
-236.859	251.527	-0.081	-0.137
-235.844	800.000	-0.058	0.178
-234.830	-61.941	0.285	-0.119
-233.815	177.479	-0.142	-0.206
-232.800	-174.168	-0.060	0.002
-231.786	-118.634	-0.196	0.035
-230.771	-18.225	0.212	0.132
-229.757	-200.000	0.008	0.140
-228.742	125.239	0.175	0.220
-227.727	7.886	0.038	0.029
-226.713	74.710	-0.242	0.254
-225.698	-200.000	-0.056	0.351
-224.684	800.000	-0.064	0.272
-223.669	-20.138	-0.080	-0.049
-222.655	31.463	0.365	-0.312
-221.640	-71.049	0.143	0.054
-220.625	-54.182	0.027	-0.012
-219.611	-68.769	-0.252	0.097
-218.596	800.000	0.050	0.197
-217.582	-49.901	0.014	-0.006
-216.567	112.765	0.022	0.027
-215.552	800.000	0.098	0.316
-214.538	-150.709	-0.022	-0.002
-213.523	800.000	-0.045	-0.178
-212.509	36.541	0.278	-0.244
-211.494	168.933	-0.222	-0.315
-210.479	-200.000	0.025	0.165
-209.465	91.031	0.090	0.101
-208.450	297.870	-0.104	-0.191
-207.436	44.072	0.068	0.062
-206.421	266.625	-0.122	0.212
-205.406	-179.539	0.233	-0.005
-204.392	76.371	-0.142	0.150
-203.377	-84.052	0.162	-0.051
-202.363	222.023	-0.114	0.182
-201.348	-35.829	0.131	-0.071
-200.333	-23.199	-0.103	-0.061
-199.319	-125.266	-0.097	0.015
-198.304	-87.742	0.118	0.035
-197.290	-200.000	0.008	0.061
-196.275	-81.511	-0.115	-0.038
-195.260	18.182	0.114	-0.090
-194.246	206.064	0.068	-0.105
-193.231	-76.052	-0.135	-0.047
-192.217	-200.000	0.061	-0.271
-191.202	60.910	-0.161	0.159
-190.187	-41.636	0.181	-0.093
-189.173	514.243	0.014	-0.031
-188.158	56.563	-0.214	-0.207
-187.144	356.080	0.213	-0.422
-186.129	-200.000	0.001	-0.174
-185.114	-139.713	-0.326	0.035
-184.100	271.295	-0.189	-0.331
-183.085	16.753	0.132	-0.104
-182.071	-200.000	-0.005	0.282
-181.056	-172.354	-0.163	0.005
-180.042	33.536	-0.182	-0.157
-179.027	-113.423	0.205	-0.040
-178.012	800.000	0.044	0.146
-176.998	800.000	0.091	0.312
-175.983	-25.289	-0.297	-0.175
-174.969	800.000	0.099	-0.314
-173.954	-200.000	0.019	0.236
-172.939	84.548	-0.269	0.293
-171.925	-200.000	-0.004	-0.151
-170.910	360.608	-0.145	0.289
-169.896	-156.925	-0.180	0.011
-168.881	57.356	0.166	0.161
-167.866	-200.000	0.025	-0.112
-166.852	800.000	-0.009	-0.037
-165.837	-200.000	-0.038	-0.191
-164.823	53.665	-0.196	-0.187
-163.808	10.145	0.221	0.167
-162.793	800.000	0.020	-0.067
-161.779	427.346	0.087	0.188
-160.764	-111.590	-0.161	0.033
-159.750	236.374	0.143	0.236
-158.735	-171.605	0.136	-0.004
-157.720	-163.930	0.209	-0.010
-156.706	-43.383	0.068	0.034
-155.691	-31.122	-0.081	-0.045
-154.677	-200.000	-0.020	0.246
-153.662	-196.416	-0.179	-0.001
-152.647	212.967	0.073	0.114
-151.633	-200.000	-0.085	0.408
-150.618	-200.000	-0.014	-0.280
-149.604	0.856	-0.154	-0.110
-148.589	247.641	0.086	0.145
-147.574	94.003	0.128	0.144
-146.560	-153.820	-0.394	0.027
-145.545	-66.998	-0.197	0.077
-144.531	800.000	0.023	0.096
-143.516	55.847	-0.347	-0.334
-142.502	-124.813	0.347	0.053
-141.487	314.759	0.071	-0.132
-140.472	-34.578	0.161	0.088
-139.458	281.764	-0.174	-0.309
-138.443	-35.845	0.087	-0.047
-137.429	-103.289	-0.289	-0.068
-136.414	-71.682	-0.102	-0.038
-135.399	-42.687	0.282	0.142
-134.385	-154.426	-0.306	-0.020
-133.370	106.009	-0.073	0.086
-132.356	-200.000	0.024	-0.211
-131.341	-128.684	-0.225	-0.032
-130.326	206.059	0.142	-0.219
-129.312	-73.937	-0.079	-0.028
-128.297	800.000	0.061	-0.225
-127.283	19.015	0.192	0.153
-126.268	159.220	0.085	0.117
-125.253	-200.000	-0.031	0.143
-124.239	-112.083	-0.178	0.036
-123.224	800.000	-0.045	-0.183
-122.210	-142.649	0.197	-0.019
-121.195	-116.306	0.032	0.006
