DTS Sentinel unit serial number:	SN413079Multiplexer serial number:	ORYXHardware model number:	OX4-SRSoftware version number:	ORYX F/W v4.00 Oryx Data Collector v3.7.2.0data status	okinstallation	princeton_trtdifferential loss correction	single-endedforward channel	channel 2reverse channel	N/Adate	2019/09/10time	20:37:11forward acquisition time	60.00reverse acquisition time	0.00gamma	496.2192k internal	0.2330k external	0.2330temperature offset calibration	0.9947default loss term (dB/km)	0.3790temperature slope calibration	1.0000multiplexer offset coefficient	1.0000multiplexer slope coefficient	1.0000fibre end	0.00T internal ref (°C)	31.94T ext. ref 1 (°C)	-0.31T ext. ref 2 (°C)	25.17length (m)	temperature (°C)	Stokes	anti-Stokes-747.200	-200.000	-0.030	0.146
-746.185	-149.431	-0.151	0.012
-745.171	44.098	0.231	0.214
-744.156	656.086	-0.056	0.145
-743.142	162.332	-0.180	-0.253
-742.127	-121.226	0.063	-0.011
-741.112	325.285	0.093	0.179
-740.098	589.845	-0.013	-0.032
-739.083	-130.919	0.125	-0.017
-738.069	164.578	-0.167	0.238
-737.054	-100.524	0.106	-0.026
-736.039	798.609	-0.113	-0.314
-735.025	-200.000	-0.025	0.196
-734.010	-200.000	0.056	-0.419
-732.996	65.920	-0.212	-0.217
-731.981	260.295	0.073	-0.128
-730.966	-200.000	-0.016	-0.117
-729.952	351.208	-0.027	-0.053
-728.937	-119.750	-0.254	-0.044
-727.923	453.158	-0.074	0.166
-726.908	-141.168	0.016	-0.002
-725.894	40.863	-0.240	0.218
-724.879	800.000	0.045	-0.150
-723.864	-98.098	-0.183	-0.047
-722.850	-200.000	0.015	-0.119
-721.835	59.949	-0.151	-0.150
-720.821	98.849	-0.121	-0.140
-719.806	66.370	0.261	-0.267
-718.791	800.000	0.066	-0.214
-717.777	-152.253	-0.329	0.024
-716.762	-26.475	0.363	0.214
-715.748	-104.403	0.134	0.031
-714.733	-200.000	0.002	-0.147
-713.718	-143.569	0.168	0.016
-712.704	16.091	-0.262	0.208
-711.689	609.255	-0.059	-0.148
-710.675	242.260	0.289	-0.487
-709.660	324.270	0.094	-0.181
-708.645	-38.349	-0.061	0.032
-707.631	800.000	0.047	-0.155
-706.616	151.171	-0.237	-0.324
-705.602	94.748	-0.092	-0.105
-704.587	-134.046	0.467	-0.058
-703.572	71.875	0.124	-0.129
-702.558	-200.000	-0.002	-0.178
-701.543	-200.000	0.001	0.126
-700.529	32.860	0.147	0.128
-699.514	317.782	-0.085	-0.163
-698.499	-86.798	-0.185	-0.057
-697.485	-147.337	-0.226	-0.019
-696.470	256.925	0.142	-0.246
-695.456	-20.346	0.059	-0.036
-694.441	-200.000	-0.005	-0.379
-693.426	393.872	0.189	-0.396
-692.412	-200.000	-0.015	-0.068
-691.397	-142.541	-0.257	-0.025
-690.383	6.444	-0.245	-0.183
-689.368	-200.000	-0.014	0.170
-688.354	561.149	0.003	-0.007
-687.339	-33.331	-0.137	0.076
-686.324	-119.728	0.224	0.039
-685.310	252.128	-0.261	-0.446
-684.295	-71.124	0.102	0.038
-683.281	-17.721	-0.295	-0.186
-682.266	-125.730	0.360	-0.055
-681.251	-104.181	0.301	-0.070
-680.237	171.735	0.095	-0.136
-679.222	-21.895	-0.154	-0.094
-678.208	-149.125	0.107	-0.009
-677.193	151.153	0.142	0.194
-676.178	6.901	0.298	0.223
-675.164	-149.273	0.239	0.019
-674.149	-74.885	-0.045	-0.016
-673.135	-105.416	0.112	-0.026
-672.120	111.969	0.110	0.133
-671.105	25.881	-0.150	-0.125
-670.091	800.000	0.083	-0.267
-669.076	369.847	-0.065	-0.131
-668.062	564.799	-0.080	-0.195
-667.047	-200.000	0.014	0.168
-666.032	-90.580	-0.042	0.012
-665.018	27.694	-0.169	-0.143
-664.003	90.037	0.079	-0.089
-662.989	-20.315	0.309	-0.191
-661.974	47.526	-0.255	0.238
-660.959	-121.764	0.355	0.059
-659.945	-200.000	-0.009	-0.052
-658.930	288.081	0.043	-0.078
-657.916	-200.000	0.054	0.250
-656.901	-24.593	0.212	0.126
-655.886	-200.000	-0.038	0.205
-654.872	-200.000	-0.001	-0.403
-653.857	-200.000	0.024	0.134
-652.843	142.678	0.143	-0.191
-651.828	30.225	-0.268	-0.230
-650.814	144.701	0.089	-0.119
-649.799	-200.000	0.023	-0.372
-648.784	143.050	0.006	0.008
-647.770	-200.000	0.011	0.350
-646.755	83.241	-0.225	0.246
-645.741	-76.339	0.296	-0.104
-644.726	-200.000	0.004	0.054
-643.711	-54.594	-0.274	0.124
-642.697	-58.809	0.139	0.060
-641.682	655.042	-0.046	0.119
-640.668	800.000	0.075	-0.245
-639.653	56.955	0.089	0.087
-638.638	336.544	-0.059	0.116
-637.624	-200.000	-0.005	-0.164
-636.609	-93.703	-0.049	0.014
-635.595	-26.774	-0.237	-0.139
-634.580	-119.929	0.566	0.098
-633.565	-200.000	-0.014	-0.259
-632.551	-2.243	0.122	0.086
-631.536	-98.165	0.247	0.064
-630.522	-200.000	0.085	-0.375
-629.507	-84.616	0.286	-0.090
-628.492	20.450	-0.076	-0.062
-627.478	-98.948	0.188	0.048
-626.463	-105.823	0.409	0.093
-625.449	-200.000	-0.019	-0.461
-624.434	-57.848	-0.296	0.130
-623.419	646.701	-0.130	-0.333
-622.405	114.723	-0.110	0.135
-621.390	-120.518	-0.162	0.028
-620.376	23.092	0.163	0.134
-619.361	-130.709	-0.064	-0.009
-618.346	531.430	0.070	0.167
-617.332	-200.000	0.003	-0.305
-616.317	53.064	-0.076	0.073
-615.303	-121.065	0.299	0.050
-614.288	-200.000	-0.075	0.351
-613.273	-200.000	-0.064	-0.309
-612.259	40.422	-0.126	-0.114
-611.244	50.635	-0.312	-0.296
-610.230	342.551	-0.182	-0.356
-609.215	100.932	0.131	0.152
-608.201	-159.291	0.345	-0.019
-607.186	546.782	0.115	-0.274
-606.171	800.000	0.133	0.380
-605.157	147.675	-0.079	-0.107
-604.142	-114.162	0.109	-0.021
-603.128	265.832	-0.103	-0.181
-602.113	152.458	-0.205	-0.280
-601.098	399.248	-0.138	-0.290
-600.084	119.338	-0.169	-0.210
-599.069	-113.912	0.165	0.032
-598.055	-105.262	0.305	0.070
-597.040	-11.784	-0.132	-0.087
-596.025	-200.000	-0.022	0.171
-595.011	-114.370	-0.103	0.020
-593.996	-104.992	0.184	-0.042
-592.982	232.543	0.136	-0.224
-591.967	-87.774	-0.363	-0.110
-590.952	-41.775	0.099	0.051
-589.938	-27.033	0.041	-0.024
-588.923	273.526	0.072	-0.128
-587.909	-17.302	0.079	-0.050
-586.894	800.000	-0.025	0.081
-585.879	800.000	0.116	0.334
-584.865	-72.855	-0.059	-0.022
-583.850	65.035	-0.173	-0.175
-582.836	-62.886	-0.382	-0.158
-581.821	-159.703	0.105	0.006
-580.806	-29.480	0.283	0.162
-579.792	-136.926	0.173	0.020
-578.777	-133.710	-0.358	-0.045
-577.763	133.375	0.112	-0.145
-576.748	-200.000	-0.004	0.055
-575.733	800.000	0.028	-0.118
-574.719	-34.676	0.259	-0.142
-573.704	-200.000	0.040	-0.285
-572.690	167.726	-0.089	-0.127
-571.675	-130.788	0.128	-0.017
-570.661	-166.747	-0.188	-0.008
-569.646	-200.000	-0.003	0.149
-568.631	-200.000	0.024	0.106
-567.617	-103.895	-0.047	-0.011
-566.602	64.732	-0.116	0.117
-565.588	-93.543	-0.224	0.062
-564.573	-61.798	0.588	0.246
-563.558	-107.613	-0.170	0.037
-562.544	406.577	0.093	-0.197
-561.529	-131.625	-0.195	0.026
-560.515	-200.000	-0.005	-0.056
-559.500	86.100	0.124	-0.136
-558.485	-110.946	-0.304	0.062
-557.471	423.722	0.119	-0.255
-556.456	352.417	0.166	0.328
-555.442	232.472	0.191	-0.314
-554.427	800.000	0.013	-0.043
-553.412	-116.580	-0.146	0.027
-552.398	800.000	-0.093	-0.276
-551.383	-64.475	0.134	-0.054
-550.369	390.249	0.059	-0.122
-549.354	-110.535	-0.179	0.037
-548.339	393.877	-0.154	-0.320
-547.325	-36.438	-0.077	-0.041
-546.310	-61.181	0.034	-0.014
-545.296	-38.862	-0.310	0.163
-544.281	-200.000	0.010	-0.083
-543.266	-119.156	-0.110	0.019
-542.252	-17.610	-0.409	-0.257
-541.237	84.625	-0.100	0.109
-540.223	-200.000	0.002	-0.059
-539.208	134.515	-0.020	-0.026
-538.193	130.187	-0.061	-0.078
-537.179	-66.768	0.079	-0.031
-536.164	800.000	-0.094	-0.384
-535.150	-200.000	0.003	0.141
-534.135	87.505	0.307	0.340
-533.121	-160.419	-0.352	0.019
-532.106	-186.777	-0.060	0.001
-531.091	-126.930	0.291	0.043
-530.077	-200.000	0.003	-0.205
-529.062	-130.845	0.361	0.048
-528.048	-200.000	-0.062	0.350
-527.033	-119.906	0.318	-0.055
-526.018	-69.522	-0.402	0.154
-525.004	-200.000	-0.055	0.503
-523.989	26.110	0.057	0.048
-522.975	-65.734	-0.100	0.040
-521.960	192.633	-0.034	-0.052
-520.945	27.606	0.128	-0.107
-519.931	-79.395	-0.126	-0.042
-518.916	-61.120	-0.147	0.062
-517.902	-200.000	-0.034	0.331
-516.887	-191.365	0.159	-0.002
-515.872	-14.812	-0.276	0.177
-514.858	-43.656	-0.153	-0.077
-513.843	-57.778	0.017	-0.007
-512.829	-200.000	-0.030	0.135
-511.814	-139.823	0.037	0.004
-510.799	-120.021	-0.093	-0.016
-509.785	235.961	-0.176	0.290
-508.770	-200.000	0.034	0.175
-507.756	87.971	0.158	0.175
-506.741	-200.000	-0.014	0.069
-505.726	-79.057	-0.529	0.179
-504.712	-51.978	-0.242	-0.112
-503.697	122.599	-0.303	0.378
-502.683	-141.576	0.212	0.021
-501.668	375.900	0.026	0.054
-500.653	786.346	-0.037	0.102
-499.639	-4.859	-0.234	-0.161
-498.624	85.628	0.248	0.271
-497.610	146.598	0.107	0.144
-496.595	222.034	-0.078	-0.126
-495.581	-200.000	0.057	0.338
-494.566	596.031	0.051	-0.126
-493.551	95.138	0.030	0.034
-492.537	-200.000	0.018	0.185
-491.522	-31.018	0.164	0.092
-490.508	-154.410	0.195	0.013
-489.493	78.182	-0.286	-0.305
-488.478	151.718	0.122	0.165
-487.464	800.000	-0.094	0.276
-486.449	72.811	-0.294	-0.305
-485.435	-200.000	-0.059	-0.311
-484.420	-54.633	0.029	-0.013
-483.405	-200.000	-0.037	-0.296
-482.391	13.074	0.150	-0.116
-481.376	566.806	-0.035	0.085
-480.362	-48.898	-0.202	0.097
-479.347	132.591	-0.214	0.275
-478.332	54.473	-0.179	0.172
-477.318	782.260	0.219	0.598
-476.303	-200.000	-0.036	0.425
-475.289	-55.950	-0.211	-0.094
-474.274	800.000	-0.067	0.271
-473.259	408.581	0.080	0.168
-472.245	-18.534	0.241	0.150
-471.230	800.000	0.102	-0.307
-470.216	-200.000	0.012	-0.153
-469.201	-94.888	0.297	0.080
-468.186	290.827	0.081	0.147
-467.172	788.696	0.048	0.130
-466.157	1.635	-0.276	0.198
-465.143	219.193	0.044	0.071
-464.128	137.765	-0.028	-0.036
-463.113	-125.039	0.255	0.039
-462.099	-162.402	0.150	0.007
-461.084	-1.018	0.143	0.101
-460.070	-95.366	-0.514	0.138
-459.055	-200.000	-0.081	0.453
-458.040	-176.875	-0.060	0.002
-457.026	-200.000	0.062	0.381
-456.011	-200.000	0.034	0.168
-454.997	99.203	0.141	-0.162
-453.982	69.134	0.378	-0.387
-452.968	800.000	0.147	0.437
-451.953	-200.000	0.013	-0.122
-450.938	12.738	0.107	-0.082
-449.924	800.000	0.043	-0.184
-448.909	327.507	-0.097	-0.185
-447.895	84.407	-0.125	-0.136
-446.880	0.671	-0.084	-0.060
-445.865	-200.000	-0.018	-0.301
-444.851	-73.704	0.124	0.045
-443.836	213.932	-0.066	-0.104
-442.822	-132.363	-0.351	0.045
-441.807	800.000	-0.090	-0.296
-440.792	-128.886	0.254	-0.035
-439.778	-66.344	0.180	0.071
-438.763	-200.000	0.057	0.294
-437.749	800.000	-0.046	0.198
-436.734	74.878	-0.123	-0.129
-435.719	224.803	0.117	-0.188
-434.705	-62.802	0.112	-0.046
-433.690	-12.960	-0.158	-0.102
-432.676	800.000	0.065	-0.257
-431.661	-39.040	-0.582	-0.305
-430.646	800.000	-0.039	-0.117
-429.632	390.565	-0.102	-0.210
-428.617	105.431	0.128	0.151
-427.603	-11.756	-0.139	-0.091
-426.588	47.652	-0.064	0.059
-425.573	23.731	0.289	-0.236
-424.559	800.000	0.064	-0.231
-423.544	-156.500	-0.245	0.015
-422.530	-62.290	-0.096	0.040
-421.515	-64.556	0.243	0.098
-420.500	-200.000	0.001	-0.163
-419.486	-200.000	0.000	-0.033
-418.471	685.140	0.072	0.188
-417.457	12.162	-0.132	-0.101
-416.442	-29.634	0.163	-0.092
-415.428	3.969	0.040	-0.029
-414.413	-44.799	-0.037	-0.018
-413.398	304.039	0.094	-0.173
-412.384	47.636	-0.173	0.161
-411.369	800.000	0.160	0.514
-410.355	-196.697	0.209	-0.001
-409.340	-59.904	-0.180	-0.077
-408.325	115.448	0.244	0.297
-407.311	216.505	-0.142	-0.224
-406.296	115.786	-0.089	-0.108
-405.282	473.608	0.080	0.179
-404.267	13.156	0.080	0.062
-403.252	19.599	-0.208	0.166
-402.238	394.857	0.094	0.195
-401.223	-158.353	0.285	0.016
-400.209	173.458	-0.051	-0.072
-399.194	-114.400	0.115	-0.022
-398.179	-43.596	-0.039	0.020
-397.165	-117.942	-0.061	0.011
-396.150	-56.077	-0.088	-0.039
-395.136	-200.000	0.023	0.110
-394.121	94.370	-0.060	-0.067
-393.106	169.137	0.198	0.281
-392.092	11.562	-0.236	-0.180
-391.077	-70.294	-0.396	0.149
-390.063	-150.351	-0.325	0.025
-389.048	-145.832	-0.279	-0.025
-388.033	800.000	-0.033	-0.117
-387.019	134.045	0.123	-0.158
-386.004	-64.835	-0.357	-0.144
-384.990	-25.778	0.032	0.019
-383.975	-200.000	-0.017	0.076
-382.960	-200.000	0.005	0.425
-381.946	-143.405	0.204	0.019
-380.931	573.371	-0.031	-0.075
-379.917	31.491	0.015	0.013
-378.902	-200.000	-0.012	0.059
-377.888	-200.000	0.034	0.149
-376.873	-5.132	-0.123	-0.084
-375.858	-200.000	0.027	-0.127
-374.844	81.149	0.118	-0.126
-373.829	72.201	0.084	-0.087
-372.815	39.728	-0.275	0.244
-371.800	-200.000	0.057	0.271
-370.785	71.365	0.373	-0.384
-369.771	-53.970	-0.283	0.128
-368.756	792.318	-0.050	-0.137
-367.742	182.591	0.183	0.269
-366.727	-146.530	-0.201	-0.017
-365.712	113.286	-0.134	-0.162
-364.698	-86.829	0.231	0.070
-363.683	-200.000	-0.020	-0.307
-362.669	-200.000	-0.009	-0.287
-361.654	559.584	0.073	0.174
-360.639	-64.450	-0.587	0.237
-359.625	-12.408	-0.081	-0.053
-358.610	355.658	0.085	-0.168
-357.596	61.108	0.084	0.082
-356.581	-78.395	0.182	-0.062
-355.566	800.000	-0.024	-0.086
-354.552	-70.477	-0.057	0.021
-353.537	-200.000	-0.007	-0.037
-352.523	-125.739	0.274	0.041
-351.508	-144.190	0.411	0.038
-350.493	307.368	0.063	0.116
-349.479	-139.368	0.117	-0.013
-348.464	-121.881	0.340	0.056
-347.450	-76.635	-0.214	0.074
-346.435	800.000	-0.072	-0.216
-345.420	44.834	0.329	0.300
-344.406	-150.920	-0.255	-0.019
-343.391	197.755	0.119	-0.180
-342.377	-95.421	0.179	-0.048
-341.362	16.267	-0.231	-0.181
-340.348	182.871	0.170	0.249
-339.333	340.561	-0.038	0.074
-338.318	-55.052	-0.361	-0.161
-337.304	46.997	0.043	0.039
-336.289	800.000	-0.075	0.275
-335.275	-200.000	0.038	-0.246
-334.260	800.000	0.017	-0.047
-333.245	85.718	0.198	-0.215
-332.231	-55.362	0.156	0.070
-331.216	-90.691	-0.482	-0.138
-330.202	2.917	-0.030	0.022
-329.187	-6.317	-0.156	0.106
-328.172	-143.768	-0.198	0.019
-327.158	12.459	-0.118	-0.090
-326.143	-25.067	-0.087	-0.051
-325.129	-200.000	0.004	0.046
-324.114	169.685	0.039	-0.056
-323.099	-43.665	0.301	-0.150
-322.085	-108.034	0.240	0.052
-321.070	-200.000	-0.015	0.095
-320.056	19.886	0.198	-0.158
-319.041	304.717	0.122	-0.225
-318.026	-91.573	-0.472	-0.133
-317.012	-200.000	-0.002	-0.038
-315.997	60.340	0.108	0.106
-314.983	0.703	-0.240	0.170
-313.968	76.606	-0.053	0.056
-312.953	-200.000	-0.036	-0.188
-311.939	-200.000	-0.000	-0.088
-310.924	446.810	0.080	0.173
-309.910	165.948	0.181	0.253
-308.895	-200.000	-0.009	0.077
-307.880	-59.765	-0.116	0.049
-306.866	-4.382	0.095	-0.065
-305.851	-200.000	0.016	-0.176
-304.837	105.078	0.243	-0.284
-303.822	86.078	-0.107	-0.117
-302.807	-200.000	0.008	-0.132
-301.793	-143.037	-0.143	0.014
-300.778	163.528	0.227	-0.316
-299.764	164.137	-0.164	-0.228
-298.749	-133.812	0.117	-0.014
-297.735	-64.663	-0.285	-0.114
-296.720	-137.404	0.286	-0.032
-295.705	-47.467	-0.140	0.067
-294.691	-200.000	0.018	0.116
-293.676	315.610	-0.149	-0.278
-292.662	-54.274	-0.319	-0.143
-291.647	7.421	0.133	-0.098
-290.632	800.000	-0.027	-0.082
-289.618	282.278	-0.170	0.302
-288.603	-200.000	-0.002	-0.100
-287.589	-25.560	0.200	-0.117
-286.574	-200.000	0.015	-0.161
-285.559	63.959	-0.160	0.159
-284.545	270.816	0.177	-0.307
-283.530	-59.331	-0.303	0.129
-282.516	-200.000	0.008	0.211
-281.501	264.019	-0.109	-0.188
-280.486	-103.687	-0.180	-0.042
-279.472	-111.569	0.450	0.090
-278.457	39.112	0.215	-0.190
-277.443	-200.000	0.019	0.106
-276.428	-200.000	0.007	0.309
-275.413	-200.000	0.028	-0.134
-274.399	-178.947	0.122	-0.003
-273.384	42.861	-0.095	-0.085
-272.370	-50.869	-0.078	0.036
-271.355	257.165	-0.130	0.221
-270.340	257.485	-0.179	0.305
-269.326	118.395	-0.153	0.187
-268.311	-43.514	-0.251	0.125
-267.297	-60.557	-0.240	0.101
-266.282	800.000	0.092	0.344
-265.267	-34.716	0.207	0.112
-264.253	-200.000	-0.065	-0.419
-263.238	21.124	0.165	-0.132
-262.224	800.000	-0.073	0.236
-261.209	-62.170	0.413	-0.170
-260.195	800.000	-0.017	0.059
-259.180	9.473	0.145	0.108
-258.165	-74.714	0.161	0.057
-257.151	800.000	-0.033	-0.135
-256.136	-116.545	-0.265	-0.048
-255.122	57.521	0.097	0.093
-254.107	-200.000	-0.009	0.338
-253.092	70.215	0.118	-0.120
-252.078	47.025	0.132	0.122
-251.063	-185.383	-0.233	-0.004
-250.049	-200.000	0.008	0.044
-249.034	-71.353	0.226	-0.083
-248.019	73.226	0.196	0.202
-247.005	-169.731	-0.105	0.004
-245.990	-96.382	0.246	0.064
-244.976	-63.645	-0.172	0.070
-243.961	-32.806	0.380	-0.208
-242.946	-200.000	0.098	0.000
-241.932	-52.320	0.123	-0.056
-240.917	37.884	0.086	0.075
-239.903	-200.000	-0.009	-0.172
-238.888	-90.613	-0.096	-0.027
-237.873	-85.665	-0.305	-0.093
-236.859	-58.057	0.109	0.047
-235.844	-85.294	0.298	-0.092
-234.830	609.014	0.033	0.081
-233.815	800.000	0.037	-0.158
-232.800	273.220	-0.027	0.048
-231.786	25.629	-0.220	0.181
-230.771	-80.154	-0.210	-0.069
-229.757	-200.000	0.002	-0.155
-228.742	13.840	-0.385	-0.296
-227.727	-200.000	0.005	-0.155
-226.713	16.502	-0.163	-0.127
-225.698	512.091	0.029	-0.067
-224.684	48.370	0.358	-0.331
-223.669	-114.089	-0.040	-0.008
-222.655	-126.390	0.260	-0.038
-221.640	-111.064	0.113	0.023
-220.625	-79.281	0.336	0.112
-219.611	-10.832	0.059	-0.038
-218.596	-30.988	0.268	0.149
-217.582	-4.386	-0.062	-0.042
-216.567	-161.876	0.222	-0.011
-215.552	-200.000	-0.054	-0.566
-214.538	-112.584	-0.258	-0.051
-213.523	-43.523	-0.109	-0.054
-212.509	74.152	0.161	0.166
-211.494	-200.000	-0.029	0.179
-210.479	-111.653	0.187	-0.037
-209.465	-131.070	-0.172	-0.023
-208.450	502.486	0.019	0.044
-207.436	122.978	0.110	-0.136
-206.421	415.464	-0.048	0.101
-205.406	-13.568	-0.291	0.186
-204.392	-48.521	-0.290	-0.138
-203.377	800.000	0.073	0.293
-202.363	-59.624	0.220	-0.093
-201.348	30.599	0.134	-0.113
-200.333	-200.000	-0.033	0.237
-199.319	257.586	-0.140	0.238
-198.304	-200.000	0.031	-0.205
-197.290	800.000	0.122	0.410
-196.275	-92.287	-0.138	0.038
-195.260	-200.000	-0.003	0.224
-194.246	-200.000	-0.027	0.136
-193.231	455.832	-0.170	0.371
-192.217	-55.702	-0.228	-0.101
-191.202	-200.000	0.053	0.341
-190.187	800.000	0.051	-0.139
-189.173	102.951	0.211	-0.243
-188.158	-114.965	-0.126	0.024
-187.144	-48.166	0.148	-0.070
-186.129	53.339	-0.088	0.083
-185.114	-165.753	0.193	-0.008
-184.100	-14.261	0.089	-0.056
-183.085	295.143	-0.090	-0.161
-182.071	105.454	0.217	0.252
-181.056	-200.000	-0.059	0.378
-180.042	-200.000	0.014	0.174
-179.027	-200.000	0.007	0.138
-178.012	328.190	-0.109	-0.207
-176.998	800.000	-0.123	0.348
-175.983	-62.302	-0.205	-0.084
-174.969	-97.463	0.159	-0.041
-173.954	-73.613	0.034	-0.012
-172.939	-92.202	-0.293	-0.081
-171.925	800.000	0.051	0.181
-170.910	-109.698	0.267	0.055
-169.896	-76.047	0.340	0.118
-168.881	679.961	0.088	0.226
-167.866	-200.000	-0.052	-0.232
-166.852	-14.286	-0.073	0.046
-165.837	79.890	0.290	-0.307
-164.823	800.000	0.042	0.121
-163.808	-134.381	-0.134	0.016
-162.793	80.232	0.131	-0.138
-161.779	800.000	-0.094	0.302
-160.764	-18.322	0.093	0.057
-159.750	-25.067	0.316	0.184
-158.735	294.488	0.147	-0.264
-157.720	419.443	0.098	-0.206
-156.706	171.847	-0.171	-0.241
-155.691	201.816	-0.072	-0.109
-154.677	264.756	0.013	0.023
-153.662	143.562	-0.033	-0.043
-152.647	-86.878	-0.102	0.031
-151.633	573.302	-0.016	-0.039
-150.618	-200.000	-0.080	0.397
-149.604	21.693	0.221	0.177
-148.589	-200.000	0.001	-0.244
-147.574	-91.853	-0.387	0.108
-146.560	-200.000	0.001	-0.195
-145.545	-34.514	-0.104	-0.056
-144.531	69.206	-0.230	0.233
-143.516	-140.687	0.337	0.034
-142.502	241.504	-0.136	-0.224
-141.487	-141.700	-0.112	-0.011
-140.472	-200.000	-0.026	0.119
-139.458	-63.126	0.227	0.092
-138.443	373.620	-0.046	0.092
-137.429	21.660	-0.139	0.111
-136.414	-152.542	0.119	0.008
-135.399	-200.000	-0.037	-0.205
-134.385	-132.223	0.439	0.056
-133.370	144.327	0.165	0.216
-132.356	66.542	0.368	-0.368
-131.341	51.739	0.192	0.179
-130.326	-200.000	-0.015	-0.267
-129.312	-70.724	0.368	-0.137
-128.297	445.137	0.210	0.453
-127.283	155.126	-0.320	0.433
-126.268	29.301	0.075	-0.063
-125.253	-66.015	0.396	-0.155
-124.239	2.859	-0.270	-0.193
-123.224	800.000	0.119	-0.451
-122.210	174.379	-0.168	0.239
