DTS Sentinel unit serial number:	SN413079Multiplexer serial number:	ORYXHardware model number:	OX4-SRSoftware version number:	ORYX F/W v4.00 Oryx Data Collector v3.7.2.0data status	okinstallation	princeton_trtdifferential loss correction	single-endedforward channel	channel 2reverse channel	N/Adate	2019/09/12time	00:37:11forward acquisition time	60.00reverse acquisition time	0.00gamma	496.2192k internal	0.2325k external	0.2325temperature offset calibration	1.0087default loss term (dB/km)	0.3790temperature slope calibration	1.0000multiplexer offset coefficient	1.0000multiplexer slope coefficient	1.0000fibre end	0.00T internal ref (°C)	33.36T ext. ref 1 (°C)	2.07T ext. ref 2 (°C)	27.93length (m)	temperature (°C)	Stokes	anti-Stokes-747.200	38.501	0.058	0.052
-746.185	177.644	0.096	-0.141
-745.171	800.000	-0.034	0.139
-744.156	288.745	-0.063	0.115
-743.142	800.000	-0.015	0.058
-742.127	-30.023	0.189	0.109
-741.112	-61.047	0.225	-0.096
-740.098	46.431	-0.130	-0.121
-739.083	-200.000	0.070	-0.400
-738.069	26.439	0.014	0.012
-737.054	-11.112	-0.111	-0.074
-736.039	215.020	-0.212	-0.339
-735.025	149.479	0.167	0.228
-734.010	23.248	-0.043	-0.036
-732.996	-113.230	-0.378	-0.075
-731.981	-154.556	-0.288	-0.019
-730.966	-200.000	0.029	0.264
-729.952	-29.334	-0.206	-0.119
-728.937	113.476	-0.051	0.063
-727.923	391.672	0.056	0.118
-726.908	-19.127	-0.123	-0.077
-725.894	1.496	0.230	-0.167
-724.879	521.718	-0.070	0.166
-723.864	-151.960	-0.207	-0.015
-722.850	-105.943	-0.356	-0.081
-721.835	800.000	0.191	0.579
-720.821	-105.348	-0.385	0.088
-719.806	-84.904	-0.177	-0.056
-718.791	-107.626	-0.177	0.039
-717.777	-33.936	0.327	-0.182
-716.762	-200.000	0.005	-0.152
-715.748	-100.865	0.171	0.042
-714.733	496.126	0.054	-0.126
-713.718	-200.000	-0.011	0.184
-712.704	96.539	0.177	0.204
-711.689	800.000	0.043	-0.125
-710.675	-200.000	0.175	-0.000
-709.660	-151.805	-0.300	0.022
-708.645	-200.000	0.046	0.274
-707.631	-123.680	0.140	0.022
-706.616	386.317	0.053	0.111
-705.602	-39.527	0.227	-0.120
-704.587	181.823	0.045	0.067
-703.572	-200.000	-0.063	-0.360
-702.558	-200.000	-0.064	-0.381
-701.543	116.477	0.317	0.391
-700.529	-104.247	0.176	-0.041
-699.514	66.545	-0.264	-0.271
-698.499	-104.389	-0.493	-0.115
-697.485	293.854	0.037	0.068
-696.470	31.396	-0.235	0.203
-695.456	263.459	-0.121	-0.211
-694.441	-96.648	0.395	-0.105
-693.426	-102.651	-0.289	-0.069
-692.412	-17.721	0.141	0.089
-691.397	-163.790	0.039	-0.002
-690.383	-56.641	-0.192	0.086
-689.368	-137.606	0.213	-0.024
-688.354	800.000	-0.038	-0.117
-687.339	-54.618	0.164	-0.075
-686.324	-200.000	0.011	-0.084
-685.310	281.464	-0.137	-0.247
-684.295	-143.810	-0.122	0.012
-683.281	13.389	0.250	-0.195
-682.266	800.000	0.073	-0.216
-681.251	-134.260	0.185	0.023
-680.237	673.713	-0.089	-0.233
-679.222	-66.242	-0.204	-0.082
-678.208	-161.839	-0.400	-0.020
-677.193	57.935	-0.070	0.069
-676.178	-27.580	-0.337	0.197
-675.164	-13.913	0.010	-0.007
-674.149	-200.000	-0.009	-0.172
-673.135	195.516	-0.216	-0.331
-672.120	800.000	0.054	0.187
-671.105	-57.487	-0.054	0.024
-670.091	-15.438	-0.244	0.157
-669.076	-123.353	-0.243	0.039
-668.062	42.623	0.282	0.258
-667.047	-200.000	-0.002	-0.181
-666.032	-140.062	-0.088	-0.009
-665.018	27.460	0.095	0.080
-664.003	-167.138	-0.339	0.014
-662.989	4.117	-0.106	-0.078
-661.974	-200.000	0.028	0.289
-660.959	-43.558	-0.183	0.093
-659.945	-11.664	-0.228	0.151
-658.930	416.962	0.174	-0.373
-657.916	-72.674	0.082	-0.030
-656.901	-109.429	0.086	0.018
-655.886	-140.340	-0.297	0.031
-654.872	489.866	-0.067	-0.153
-653.857	253.588	-0.144	0.247
-652.843	-106.071	-0.178	-0.040
-651.828	-109.497	-0.076	-0.016
-650.814	114.607	-0.042	0.051
-649.799	11.253	-0.256	-0.197
-648.784	-200.000	0.024	0.194
-647.770	192.264	0.147	-0.222
-646.755	-159.357	-0.300	0.017
-645.741	800.000	-0.102	0.381
-644.726	724.805	-0.122	0.327
-643.711	800.000	0.067	-0.257
-642.697	17.402	-0.116	-0.092
-641.682	181.745	-0.141	-0.208
-640.668	-33.962	0.446	-0.247
-639.653	-77.557	0.214	-0.075
-638.638	-115.917	0.241	-0.045
-637.624	800.000	0.139	-0.476
-636.609	-95.369	0.216	0.058
-635.595	631.876	-0.112	-0.284
-634.580	800.000	-0.039	-0.111
-633.565	-129.389	-0.254	0.035
-632.551	-102.446	-0.195	-0.047
-631.536	-26.282	0.076	0.045
-630.522	-200.000	-0.004	0.149
-629.507	-200.000	0.013	0.150
-628.492	-200.000	0.004	-0.364
-627.478	-200.000	-0.021	-0.294
-626.463	-11.662	-0.149	-0.098
-625.449	-35.092	-0.166	-0.091
-624.434	-153.758	-0.428	-0.029
-623.419	-11.147	0.029	-0.019
-622.405	-172.781	-0.519	0.016
-621.390	-200.000	-0.032	-0.187
-620.376	-38.012	-0.112	-0.060
-619.361	10.609	-0.305	-0.234
-618.346	-200.000	-0.014	0.150
-617.332	800.000	-0.069	-0.225
-616.317	-70.486	-0.395	-0.150
-615.303	344.858	-0.165	-0.324
-614.288	-31.985	-0.189	0.106
-613.273	800.000	0.014	0.051
-612.259	-200.000	-0.017	0.227
-611.244	-138.831	0.191	-0.021
-610.230	-200.000	-0.051	-0.260
-609.215	-200.000	0.015	-0.140
-608.201	-105.918	-0.151	-0.034
-607.186	59.065	-0.074	0.073
-606.171	52.837	-0.129	0.124
-605.157	-89.264	-0.311	-0.092
-604.142	-110.626	-0.052	0.011
-603.128	-48.783	-0.398	-0.192
-602.113	89.741	-0.057	0.064
-601.098	-196.833	0.368	0.002
-600.084	-88.505	-0.187	-0.056
-599.069	119.678	-0.191	0.238
-598.055	-26.690	-0.386	-0.227
-597.040	-200.000	0.004	-0.345
-596.025	-200.000	-0.023	-0.251
-595.011	94.682	0.106	-0.121
-593.996	-46.646	0.167	0.082
-592.982	-125.204	0.046	-0.007
-591.967	-38.072	0.423	0.225
-590.952	-101.037	0.136	0.033
-589.938	-55.037	0.278	0.126
-588.923	-200.000	-0.015	0.171
-587.909	800.000	-0.118	-0.354
-586.894	40.244	0.160	-0.144
-585.879	800.000	0.094	0.269
-584.865	16.413	-0.200	-0.159
-583.850	-127.159	-0.111	-0.016
-582.836	87.113	0.066	0.073
-581.821	459.979	-0.073	0.163
-580.806	-72.920	-0.239	-0.088
-579.792	223.500	0.165	-0.266
-578.777	452.179	-0.090	-0.199
-577.763	19.477	0.157	0.127
-576.748	-43.164	-0.280	0.142
-575.733	-200.000	-0.029	-0.149
-574.719	800.000	-0.125	0.454
-573.704	-24.531	0.135	-0.080
-572.690	117.509	0.124	0.153
-571.675	-74.720	0.286	-0.103
-570.661	-200.000	0.042	-0.223
-569.646	-69.285	0.359	-0.138
-568.631	-200.000	0.008	-0.213
-567.617	-138.953	-0.232	0.025
-566.602	-58.228	-0.285	0.125
-565.588	209.096	-0.196	0.307
-564.573	800.000	0.109	0.343
-563.558	-154.870	-0.262	0.017
-562.544	-7.921	0.244	0.165
-561.529	-83.424	0.063	0.020
-560.515	-200.000	-0.001	-0.213
-559.500	-114.520	-0.503	0.097
-558.485	42.285	-0.195	-0.178
-557.471	-200.000	-0.024	0.244
-556.456	92.252	-0.194	0.219
-555.442	-152.513	0.245	0.018
-554.427	18.735	-0.204	-0.163
-553.412	-200.000	-0.011	-0.188
-552.398	800.000	-0.023	0.095
-551.383	-47.116	-0.063	-0.031
-550.369	-31.600	0.037	0.021
-549.354	-27.450	0.262	-0.152
-548.339	-102.781	0.219	-0.052
-547.325	-51.317	0.151	0.071
-546.310	110.629	0.334	0.403
-545.296	-99.490	0.300	0.076
-544.281	5.633	-0.066	-0.049
-543.266	273.582	-0.107	0.189
-542.252	252.006	-0.161	0.274
-541.237	-114.364	-0.278	-0.054
-540.223	-200.000	-0.007	-0.220
-539.208	-34.495	-0.162	-0.089
-538.193	147.970	0.301	-0.407
-537.179	-200.000	-0.012	0.139
-536.164	100.008	0.119	-0.138
-535.150	252.057	0.100	-0.171
-534.135	-200.000	-0.030	-0.232
-533.121	-162.017	0.296	-0.015
-532.106	-48.941	0.263	-0.126
-531.091	800.000	0.020	-0.082
-530.077	210.791	0.116	0.182
-529.062	366.468	0.056	-0.113
-528.048	-200.000	-0.031	0.364
-527.033	471.520	-0.182	0.410
-526.018	-45.806	-0.379	0.188
-525.004	358.278	0.063	0.125
-523.989	-200.000	-0.025	-0.205
-522.975	-15.162	-0.379	0.242
-521.960	-200.000	0.036	0.183
-520.945	-44.353	-0.016	-0.008
-519.931	-95.733	-0.429	-0.115
-518.916	-23.354	-0.135	0.081
-517.902	-88.663	-0.152	-0.045
-516.887	8.441	-0.410	-0.308
-515.872	88.756	0.182	-0.202
-514.858	31.523	0.170	-0.146
-513.843	110.533	-0.172	-0.207
-512.829	-81.006	0.103	0.034
-511.814	-200.000	0.006	0.263
-510.799	145.305	0.147	0.196
-509.785	-55.494	-0.404	0.181
-508.770	-200.000	0.004	0.142
-507.756	-91.356	0.245	0.070
-506.741	-88.062	-0.322	0.097
-505.726	98.960	-0.180	0.208
-504.712	-200.000	0.033	0.176
-503.697	800.000	-0.086	0.307
-502.683	89.609	0.057	0.064
-501.668	7.750	0.207	0.155
-500.653	128.539	-0.192	-0.245
-499.639	-152.746	-0.229	-0.016
-498.624	246.446	-0.075	0.126
-497.610	-200.000	-0.040	-0.544
-496.595	-200.000	0.002	0.253
-495.581	221.810	0.158	0.253
-494.566	258.177	-0.100	-0.173
-493.551	174.463	-0.046	0.066
-492.537	208.756	-0.101	-0.158
-491.522	-92.317	-0.145	0.041
-490.508	800.000	0.080	-0.226
-489.493	-200.000	-0.007	0.139
-488.478	-40.393	-0.145	-0.075
-487.464	-142.249	0.273	0.027
-486.449	426.399	-0.143	0.308
-485.435	161.432	-0.077	0.108
-484.420	458.401	-0.053	0.117
-483.405	375.260	0.120	0.244
-482.391	800.000	0.055	-0.188
-481.376	109.719	-0.100	-0.120
-480.362	-70.137	-0.242	-0.092
-479.347	-150.873	-0.270	0.020
-478.332	25.291	-0.230	0.191
-477.318	800.000	-0.034	-0.097
-476.303	-50.251	-0.356	0.168
-475.289	15.861	0.191	-0.150
-474.274	582.467	-0.061	-0.148
-473.259	-29.783	-0.103	0.059
-472.245	-40.983	0.176	0.091
-471.230	-8.271	-0.103	-0.069
-470.216	212.882	0.089	-0.141
-469.201	-200.000	-0.010	0.137
-468.186	41.134	-0.241	-0.217
-467.172	-173.321	-0.560	0.017
-466.157	221.788	-0.103	0.166
-465.143	-95.575	0.171	-0.046
-464.128	145.161	0.196	0.262
-463.113	800.000	0.090	-0.349
-462.099	-200.000	0.042	-0.390
-461.084	93.652	0.074	0.084
-460.070	49.782	0.271	-0.255
-459.055	-200.000	-0.006	-0.233
-458.040	-199.211	-0.152	-0.001
-457.026	-94.146	0.309	0.084
-456.011	800.000	0.048	0.146
-454.997	800.000	0.083	-0.237
-453.982	8.230	-0.067	-0.050
-452.968	-83.373	0.060	-0.019
-451.953	800.000	0.031	0.102
-450.938	-96.011	-0.265	-0.070
-449.924	-103.878	-0.229	-0.053
-448.909	-12.883	-0.312	-0.202
-447.895	-200.000	-0.046	0.218
-446.880	-56.895	0.224	0.099
-445.865	-200.000	-0.053	0.244
-444.851	-140.055	-0.478	-0.050
-443.836	140.313	0.191	-0.251
-442.822	-128.963	0.213	0.030
-441.807	206.281	-0.112	-0.173
-440.792	92.411	0.439	0.494
-439.778	-109.600	0.291	-0.061
-438.763	126.264	-0.068	0.085
-437.749	-200.000	0.045	-0.331
-436.734	-155.064	-0.260	0.017
-435.719	-115.522	-0.045	0.008
-434.705	489.991	-0.091	0.208
-433.690	-200.000	-0.041	0.203
-432.676	-31.449	0.302	0.170
-431.661	-200.000	-0.003	-0.173
-430.646	-40.088	0.353	-0.183
-429.632	-66.289	0.240	-0.095
-428.617	-81.615	0.225	0.074
-427.603	298.072	-0.168	0.308
-426.588	-200.000	0.024	-0.107
-425.573	-185.258	-0.083	0.001
-424.559	-24.592	0.197	-0.117
-423.544	21.847	0.129	-0.105
-422.530	171.044	0.115	-0.164
-421.515	442.279	-0.116	-0.254
-420.500	18.961	0.031	0.025
-419.486	-81.505	-0.065	-0.021
-418.471	37.241	0.247	-0.218
-417.457	33.643	0.321	0.278
-416.442	-46.354	-0.098	0.048
-415.428	-200.000	0.002	-0.251
-414.413	15.551	-0.128	0.100
-413.398	-86.029	-0.293	-0.090
-412.384	78.526	-0.097	-0.103
-411.369	44.593	0.081	-0.074
-410.355	-159.693	-0.095	0.005
-409.340	-200.000	-0.007	-0.221
-408.325	-200.000	0.048	0.274
-407.311	451.100	0.094	-0.207
-406.296	800.000	0.071	0.310
-405.282	71.815	-0.105	0.109
-404.267	23.547	0.129	-0.105
-403.252	90.970	-0.088	-0.098
-402.238	800.000	0.036	-0.107
-401.223	-200.000	0.027	-0.297
-400.209	44.001	0.189	-0.173
-399.194	-6.767	-0.468	-0.317
-398.179	-200.000	0.008	-0.124
-397.165	-50.261	-0.126	-0.059
-396.150	620.017	0.036	0.091
-395.136	-13.794	-0.240	0.154
-394.121	-63.815	-0.108	-0.044
-393.106	214.087	0.155	-0.244
-392.092	-56.569	-0.176	0.078
-391.077	-191.040	-0.121	-0.001
-390.063	-95.588	0.126	-0.034
-389.048	148.296	-0.163	0.219
-388.033	-200.000	0.007	-0.203
-387.019	-35.511	-0.316	-0.171
-386.004	-200.000	0.022	-0.158
-384.990	233.834	0.065	-0.106
-383.975	-48.182	-0.346	-0.166
-382.960	96.450	0.148	-0.169
-381.946	316.965	0.082	0.154
-380.931	21.088	-0.307	-0.247
-379.917	-127.491	-0.184	-0.027
-378.902	671.946	-0.111	0.285
-377.888	149.051	-0.154	-0.208
-376.873	42.112	0.220	0.199
-375.858	-103.930	0.191	0.044
-374.844	-140.577	-0.228	0.024
-373.829	-200.000	0.013	0.116
-372.815	-200.000	-0.321	-0.001
-371.800	-59.186	-0.108	-0.046
-370.785	0.984	0.471	0.335
-369.771	800.000	0.047	-0.138
-368.756	405.275	0.063	-0.132
-367.742	-200.000	0.028	0.306
-366.727	-136.581	0.197	-0.023
-365.712	-200.000	-0.003	-0.145
-364.698	-200.000	-0.001	0.152
-363.683	391.456	0.082	0.170
-362.669	-154.929	-0.326	0.021
-361.654	-30.657	0.357	0.201
-360.639	800.000	0.024	0.089
-359.625	32.595	-0.150	0.129
-358.610	-63.628	0.201	0.082
-357.596	278.205	-0.080	0.142
-356.581	-152.774	0.140	-0.010
-355.566	-119.363	0.148	0.026
-354.552	33.684	-0.310	0.268
-353.537	-34.013	0.156	-0.085
-352.523	-16.703	0.187	-0.118
-351.508	71.128	-0.228	-0.234
-350.493	-129.717	-0.141	0.019
-349.479	149.734	-0.218	0.294
-348.464	-200.000	0.000	-0.068
-347.450	-200.000	0.007	0.201
-346.435	165.899	0.262	-0.369
-345.420	800.000	0.027	0.093
-344.406	-38.222	0.274	-0.144
-343.391	-171.421	0.214	-0.007
-342.377	30.220	-0.029	0.025
-341.362	302.891	-0.087	0.159
-340.348	-83.631	0.305	0.097
-339.333	-108.879	-0.283	0.060
-338.318	-200.000	-0.021	0.102
-337.304	800.000	-0.060	-0.207
-336.289	800.000	0.067	-0.241
-335.275	94.894	0.086	-0.097
-334.260	108.937	0.062	-0.074
-333.245	-33.109	-0.214	0.118
-332.231	259.056	0.223	0.382
-331.216	-34.435	0.204	0.111
-330.202	144.819	0.039	-0.052
-329.187	441.718	-0.129	0.281
-328.172	202.935	-0.134	-0.206
-327.158	60.940	0.319	-0.314
-326.143	-18.799	-0.084	-0.052
-325.129	-179.528	0.107	-0.002
-324.114	800.000	0.031	-0.098
-323.099	56.925	0.185	0.178
-322.085	-90.121	0.112	0.032
-321.070	-11.748	0.080	0.052
-320.056	-200.000	-0.043	-0.332
-319.041	-200.000	-0.008	0.108
-318.026	-22.810	0.277	-0.166
-317.012	30.229	-0.116	0.098
-315.997	-200.000	-0.029	-0.332
-314.983	-200.000	-0.054	0.450
-313.968	129.572	-0.301	0.381
-312.953	133.420	0.277	-0.355
-311.939	-141.061	-0.103	-0.010
-310.924	-89.173	-0.307	-0.090
-309.910	320.902	0.082	-0.154
-308.895	-81.023	-0.096	0.032
-307.880	-200.000	0.024	-0.346
-306.866	800.000	-0.060	-0.174
-305.851	-200.000	0.002	0.285
-304.837	74.782	0.015	-0.015
-303.822	800.000	0.096	-0.287
-302.807	-177.529	-0.272	0.007
-301.793	516.409	-0.068	0.159
-300.778	28.066	-0.313	-0.262
-299.764	-146.760	0.205	-0.018
-298.749	-7.776	-0.145	-0.097
-297.735	183.959	-0.056	0.082
-296.720	-96.432	0.256	0.067
-295.705	-75.737	0.017	0.006
-294.691	-122.032	-0.108	-0.018
-293.676	-60.683	-0.074	0.031
-292.662	14.814	-0.244	-0.189
-291.647	800.000	0.088	-0.339
-290.632	-75.338	0.204	0.072
-289.618	168.014	0.116	0.163
-288.603	23.211	-0.207	-0.168
-287.589	-200.000	-0.001	-0.254
-286.574	-191.700	-0.161	-0.002
-285.559	228.071	0.014	-0.023
-284.545	-112.963	0.057	0.011
-283.530	-200.000	0.000	0.028
-282.516	-75.107	-0.097	0.035
-281.501	800.000	0.044	-0.137
-280.486	406.706	-0.089	0.185
-279.472	-105.925	0.390	-0.087
-278.457	-200.000	-0.027	0.135
-277.443	-120.730	-0.390	-0.065
-276.428	-31.829	-0.139	-0.077
-275.413	86.432	0.049	-0.053
-274.399	91.485	-0.200	-0.222
-273.384	-37.366	0.411	-0.217
-272.370	-151.580	0.139	-0.010
-271.355	301.267	0.128	-0.234
-270.340	-63.214	0.262	-0.107
-269.326	58.829	-0.419	-0.408
-268.311	-135.446	-0.151	0.018
-267.297	180.867	-0.067	0.097
-266.282	-76.895	0.273	-0.094
-265.267	-190.965	0.250	-0.003
-264.253	-6.916	0.083	-0.056
-263.238	62.174	-0.158	0.156
-262.224	-78.345	0.390	0.132
-261.209	-60.860	-0.163	0.068
-260.195	-103.931	0.176	-0.041
-259.180	-90.126	0.153	0.044
-258.165	-86.247	0.177	-0.054
-257.151	75.875	0.192	-0.201
-256.136	-95.978	0.124	0.033
-255.122	23.375	-0.151	0.123
-254.107	236.865	0.168	-0.276
-253.092	-98.996	-0.096	0.024
-252.078	-200.000	0.002	-0.233
-251.063	-94.002	0.195	-0.053
-250.049	69.764	-0.104	-0.106
-249.034	800.000	-0.043	0.155
-248.019	507.700	-0.128	0.295
-247.005	367.014	0.056	0.112
-245.990	-24.940	0.111	-0.065
-244.976	-125.101	0.285	0.043
-243.961	-200.000	-0.006	0.229
-242.946	-134.934	0.134	0.016
-241.932	148.086	-0.174	-0.232
-240.917	800.000	-0.026	0.108
-239.903	93.221	-0.179	0.200
-238.888	-45.816	0.218	-0.106
-237.873	-34.185	-0.118	-0.064
-236.859	-97.998	0.138	-0.035
-235.844	800.000	-0.071	0.253
-234.830	-78.586	0.298	0.101
-233.815	44.344	0.116	-0.105
-232.800	19.072	0.070	-0.055
-231.786	-36.500	-0.400	-0.213
-230.771	-41.200	-0.327	0.167
-229.757	-200.000	0.029	0.343
-228.742	79.746	0.275	0.292
-227.727	-200.000	0.066	-0.313
-226.713	76.698	-0.179	-0.188
-225.698	-49.598	0.152	-0.071
-224.684	-148.509	0.236	0.019
-223.669	-95.304	0.107	0.028
-222.655	-93.298	-0.747	0.205
-221.640	297.447	0.233	0.422
-220.625	-151.358	0.205	-0.015
-219.611	87.195	0.109	0.119
-218.596	-75.394	-0.233	-0.082
-217.582	224.514	-0.142	-0.226
-216.567	-14.463	0.282	0.180
-215.552	472.761	0.050	0.111
-214.538	609.576	0.143	0.352
-213.523	-200.000	0.011	-0.087
-212.509	538.260	-0.172	-0.403
-211.494	-31.671	0.482	0.267
-210.479	-37.731	0.274	0.144
-209.465	790.986	-0.046	0.126
-208.450	-29.079	0.143	-0.081
-207.436	10.692	0.142	-0.107
-206.421	90.074	-0.032	-0.036
-205.406	70.573	0.280	0.286
-204.392	-103.362	0.352	-0.082
-203.377	135.568	-0.082	0.106
-202.363	372.410	-0.120	0.240
-201.348	-200.000	0.076	0.487
-200.333	-103.200	-0.285	-0.066
-199.319	-200.000	-0.046	-0.255
-198.304	17.545	0.226	0.178
-197.290	-200.000	-0.002	0.079
-196.275	292.044	-0.091	0.164
-195.260	-173.378	0.400	-0.012
-194.246	800.000	0.167	0.480
-193.231	-136.155	0.413	0.048
-192.217	800.000	-0.054	0.191
-191.202	-200.000	0.049	0.408
-190.187	104.207	0.360	0.418
-189.173	-146.784	0.187	0.016
-188.158	-200.000	-0.017	0.113
-187.144	47.833	0.006	0.005
-186.129	-96.932	0.390	0.101
-185.114	-15.499	0.313	-0.197
-184.100	-58.101	0.212	0.091
-183.085	615.971	0.122	0.301
-182.071	-200.000	0.023	0.262
-181.056	93.727	0.142	0.159
-180.042	17.157	-0.073	0.057
-179.027	-174.319	-0.295	-0.008
-178.012	-43.846	0.093	0.046
-176.998	353.915	-0.098	-0.192
-175.983	-95.644	0.088	-0.023
-174.969	800.000	-0.063	0.217
-173.954	313.598	-0.123	0.229
-172.939	-200.000	0.046	0.261
-171.925	575.945	0.161	-0.388
-170.910	197.418	0.055	-0.082
-169.896	92.098	0.030	0.033
-168.881	-67.071	-0.183	0.071
-167.866	49.109	0.186	-0.173
-166.852	800.000	-0.023	0.085
-165.837	-127.249	0.256	-0.037
-164.823	-200.000	-0.045	-0.269
-163.808	-105.715	-0.146	0.032
-162.793	-192.919	-0.428	-0.004
-161.779	800.000	0.070	0.209
-160.764	9.861	0.120	-0.090
-159.750	446.350	0.170	0.368
-158.735	-154.251	0.111	-0.007
-157.720	-87.709	-0.262	0.078
-156.706	609.579	0.046	0.112
-155.691	-98.763	0.235	-0.059
-154.677	-9.699	0.159	0.105
-153.662	-73.651	0.262	0.094
-152.647	-32.893	0.125	0.069
-151.633	-200.000	-0.024	0.182
-150.618	-64.505	0.042	-0.017
-149.604	263.264	-0.092	-0.157
-148.589	548.873	-0.050	-0.118
-147.574	-88.165	-0.162	-0.048
-146.560	-31.417	-0.133	-0.074
-145.545	800.000	0.018	-0.054
-144.531	255.464	0.310	0.524
-143.516	-108.709	-0.197	-0.042
-142.502	-200.000	0.014	0.324
-141.487	-114.531	0.077	-0.014
-140.472	24.503	0.219	0.179
-139.458	-145.024	-0.216	-0.019
-138.443	-200.000	0.009	-0.136
-137.429	484.808	0.055	-0.124
-136.414	-25.846	-0.130	-0.075
-135.399	-200.000	0.037	-0.182
-134.385	-80.247	0.109	0.036
-133.370	-196.523	0.214	0.001
-132.356	-134.472	-0.151	-0.018
-131.341	-200.000	0.009	0.135
-130.326	-200.000	-0.033	0.295
-129.312	-136.569	-0.364	-0.042
-128.297	-200.000	0.016	0.478
-127.283	178.838	-0.131	-0.189
-126.268	-131.797	-0.311	0.040
-125.253	-46.206	0.044	0.021
-124.239	9.326	-0.530	0.395
-123.224	-0.192	-0.170	-0.119
-122.210	-200.000	-0.026	0.116
