DTS Sentinel unit serial number:	SN413079Multiplexer serial number:	ORYXHardware model number:	OX4-SRSoftware version number:	ORYX F/W v4.00 Oryx Data Collector v3.7.2.0data status	okinstallation	princeton_trtdifferential loss correction	single-endedforward channel	channel 2reverse channel	N/Adate	2019/09/10time	22:41:11forward acquisition time	60.00reverse acquisition time	0.00gamma	496.2192k internal	0.2330k external	0.2330temperature offset calibration	0.9941default loss term (dB/km)	0.3790temperature slope calibration	1.0000multiplexer offset coefficient	1.0000multiplexer slope coefficient	1.0000fibre end	0.00T internal ref (°C)	30.23T ext. ref 1 (°C)	-0.31T ext. ref 2 (°C)	23.86length (m)	temperature (°C)	Stokes	anti-Stokes-747.200	157.950	-0.124	-0.173
-746.185	-106.358	-0.018	-0.004
-745.171	107.283	0.141	-0.168
-744.156	-54.589	0.144	-0.066
-743.142	-200.000	0.067	-0.322
-742.127	43.990	-0.164	-0.151
-741.112	-51.338	-0.498	-0.235
-740.098	-3.047	-0.222	-0.156
-739.083	-83.362	0.430	0.139
-738.069	491.817	-0.153	0.353
-737.054	341.475	-0.108	-0.212
-736.039	-3.154	-0.081	-0.057
-735.025	-200.000	0.001	0.189
-734.010	-80.333	-0.134	0.045
-732.996	-81.511	-0.336	0.111
-731.981	-139.937	-0.248	0.026
-730.966	229.238	0.188	-0.309
-729.952	-200.000	0.050	-0.323
-728.937	152.321	0.155	0.213
-727.923	-86.911	-0.237	0.073
-726.908	-200.000	-0.002	-0.051
-725.894	-107.471	-0.382	-0.084
-724.879	-16.658	-0.170	-0.108
-723.864	26.760	0.147	-0.124
-722.850	-36.466	-0.105	-0.057
-721.835	-200.000	-0.048	0.256
-720.821	-200.000	0.011	0.092
-719.806	193.257	0.067	0.101
-718.791	-132.248	-0.340	0.044
-717.777	-10.890	-0.114	0.076
-716.762	-35.761	-0.116	0.063
-715.748	183.001	0.180	-0.268
-714.733	-44.571	-0.145	0.073
-713.718	800.000	-0.074	-0.251
-712.704	56.892	-0.209	-0.205
-711.689	-47.648	0.223	-0.109
-710.675	800.000	0.040	-0.163
-709.660	800.000	0.073	-0.245
-708.645	485.498	-0.096	-0.219
-707.631	-49.888	0.088	-0.042
-706.616	122.603	-0.256	-0.322
-705.602	143.157	0.169	-0.226
-704.587	234.333	-0.030	-0.050
-703.572	-162.688	-0.436	-0.021
-702.558	82.769	-0.175	0.191
-701.543	551.877	-0.107	0.257
-700.529	278.297	0.229	-0.410
-699.514	-125.367	-0.228	-0.035
-698.499	-179.932	0.364	-0.008
-697.485	800.000	-0.067	-0.191
-696.470	-44.134	-0.388	0.196
-695.456	-195.870	0.163	-0.001
-694.441	-92.508	-0.300	0.085
-693.426	-77.776	-0.224	-0.078
-692.412	320.771	0.170	-0.325
-691.397	-157.312	0.031	-0.002
-690.383	188.490	-0.209	0.314
-689.368	492.286	-0.153	-0.353
-688.354	-200.000	-0.012	0.387
-687.339	353.526	-0.069	-0.137
-686.324	800.000	0.076	-0.241
-685.310	-5.246	-0.188	-0.130
-684.295	-115.235	-0.251	0.048
-683.281	-200.000	0.041	-0.355
-682.266	800.000	-0.070	-0.207
-681.251	7.650	0.089	0.067
-680.237	1.955	-0.241	-0.174
-679.222	-200.000	-0.006	-0.205
-678.208	-37.660	-0.303	0.162
-677.193	113.813	-0.031	-0.038
-676.178	-200.000	0.033	-0.170
-675.164	-178.951	-0.339	-0.008
-674.149	-72.250	-0.190	-0.071
-673.135	91.300	-0.251	0.283
-672.120	106.807	0.162	0.193
-671.105	-200.000	0.000	-0.170
-670.091	-145.937	0.055	-0.005
-669.076	-56.893	-0.170	-0.075
-668.062	-200.000	-0.043	-0.227
-667.047	-95.370	-0.142	-0.038
-666.032	75.301	-0.228	-0.241
-665.018	277.688	-0.049	-0.088
-664.003	-76.284	-0.049	-0.017
-662.989	-108.617	0.284	-0.061
-661.974	-77.007	-0.180	-0.063
-660.959	-200.000	-0.052	0.319
-659.945	-88.686	0.119	-0.035
-658.930	-107.740	-0.064	-0.014
-657.916	-200.000	0.021	-0.131
-656.901	800.000	0.143	-0.398
-655.886	-138.855	0.056	0.006
-654.872	483.640	-0.049	-0.111
-653.857	213.998	0.097	-0.153
-652.843	-118.718	0.166	-0.029
-651.828	800.000	-0.046	-0.187
-650.814	-200.000	0.011	-0.263
-649.799	-200.000	0.016	-0.298
-648.784	438.896	-0.091	0.200
-647.770	-53.789	-0.320	0.147
-646.755	-44.250	0.191	0.096
-645.741	-127.001	-0.234	-0.035
-644.726	-39.756	0.355	0.186
-643.711	800.000	0.050	-0.206
-642.697	402.113	-0.225	-0.475
-641.682	-18.173	0.242	0.152
-640.668	-147.869	-0.084	0.007
-639.653	-92.108	0.099	-0.028
-638.638	-80.078	-0.226	-0.076
-637.624	375.016	-0.086	-0.177
-636.609	486.097	0.243	-0.556
-635.595	-18.673	-0.152	-0.095
-634.580	-35.059	0.061	0.034
-633.565	435.432	-0.156	-0.340
-632.551	-186.228	-0.446	-0.007
-631.536	-77.297	-0.323	-0.113
-630.522	-37.398	0.142	0.076
-629.507	-67.033	0.493	-0.195
-628.492	-200.000	0.034	0.164
-627.478	-200.000	-0.042	-0.243
-626.463	-200.000	-0.065	-0.313
-625.449	-110.004	0.401	-0.084
-624.434	800.000	-0.112	-0.421
-623.419	340.837	-0.037	-0.072
-622.405	-200.000	0.072	0.334
-621.390	-70.559	0.115	0.044
-620.376	-200.000	0.045	-0.446
-619.361	-65.327	-0.183	0.074
-618.346	111.975	0.038	0.046
-617.332	282.158	0.137	0.246
-616.317	4.439	-0.129	-0.095
-615.303	213.668	-0.036	0.057
-614.288	-200.000	-0.044	-0.230
-613.273	301.545	0.162	0.299
-612.259	-143.694	0.277	0.026
-611.244	311.034	-0.112	-0.210
-610.230	84.697	-0.318	-0.349
-609.215	-132.348	0.213	-0.028
-608.201	202.841	0.093	0.143
-607.186	-200.000	0.015	-0.173
-606.171	208.331	-0.254	-0.398
-605.157	-71.193	-0.113	-0.043
-604.142	739.966	-0.050	0.135
-603.128	-82.681	-0.197	0.064
-602.113	-200.000	0.039	-0.356
-601.098	800.000	-0.042	0.158
-600.084	205.277	0.060	-0.093
-599.069	-200.000	0.014	-0.320
-598.055	412.646	-0.088	0.187
-597.040	-109.365	-0.023	0.005
-596.025	211.096	0.145	-0.229
-595.011	524.553	-0.031	-0.074
-593.996	-141.295	0.465	-0.047
-592.982	800.000	-0.093	-0.272
-591.967	326.583	-0.059	-0.112
-590.952	-200.000	-0.004	-0.184
-589.938	595.378	-0.082	-0.202
-588.923	-97.919	0.335	0.087
-587.909	2.599	-0.296	-0.215
-586.894	-64.562	0.279	0.113
-585.879	-101.010	0.077	-0.019
-584.865	166.823	-0.042	0.060
-583.850	-200.000	0.057	0.296
-582.836	2.840	-0.197	-0.143
-581.821	266.383	-0.036	-0.063
-580.806	-58.243	0.171	0.074
-579.792	-96.108	0.142	-0.038
-578.777	-116.440	0.098	-0.018
-577.763	-200.000	-0.003	-0.317
-576.748	-200.000	-0.003	0.197
-575.733	412.730	-0.034	0.072
-574.719	181.324	0.089	-0.131
-573.704	-73.427	0.223	0.082
-572.690	146.777	-0.042	-0.056
-571.675	-84.796	0.171	-0.054
-570.661	-200.000	-0.006	-0.156
-569.646	-200.000	0.036	0.489
-568.631	-200.000	0.010	-0.068
-567.617	-98.239	-0.072	-0.019
-566.602	-70.171	0.021	0.008
-565.588	-200.000	-0.005	-0.351
-564.573	-14.860	0.246	0.158
-563.558	-80.395	-0.210	0.070
-562.544	800.000	0.086	0.270
-561.529	125.515	-0.045	0.057
-560.515	-61.898	-0.287	-0.120
-559.500	127.121	0.074	-0.093
-558.485	-115.187	-0.218	-0.041
-557.471	568.182	-0.147	0.357
-556.456	42.480	-0.379	0.345
-555.442	101.357	-0.192	0.224
-554.427	90.391	0.242	-0.270
-553.412	304.255	0.123	-0.228
-552.398	378.632	-0.114	0.234
-551.383	705.265	0.059	-0.156
-550.369	-118.455	0.277	0.049
-549.354	800.000	-0.081	-0.256
-548.339	53.866	-0.267	0.257
-547.325	128.038	0.091	-0.116
-546.310	-114.414	0.220	-0.042
-545.296	800.000	-0.057	-0.241
-544.281	-80.803	0.284	0.094
-543.266	197.223	-0.060	0.091
-542.252	-38.370	0.138	0.073
-541.237	-77.729	-0.343	-0.119
-540.223	16.041	0.332	0.262
-539.208	-66.440	-0.569	0.226
-538.193	-200.000	0.010	0.055
-537.179	25.667	0.172	0.143
-536.164	210.505	-0.148	-0.232
-535.150	-97.853	0.308	0.079
-534.135	-32.764	-0.215	-0.119
-533.121	-200.000	0.080	0.000
-532.106	9.635	-0.226	-0.171
-531.091	-84.262	-0.110	0.035
-530.077	-148.110	0.138	-0.011
-529.062	-151.078	-0.187	-0.014
-528.048	-200.000	-0.000	-0.093
-527.033	70.928	0.078	-0.081
-526.018	10.442	-0.159	0.121
-525.004	105.942	-0.079	-0.093
-523.989	-194.185	-0.277	0.002
-522.975	203.885	-0.071	-0.110
-521.960	131.422	-0.179	-0.230
-520.945	11.281	0.236	-0.181
-519.931	-141.476	-0.208	0.021
-518.916	158.088	0.179	0.247
-517.902	800.000	0.115	-0.362
-516.887	270.489	0.209	-0.367
-515.872	451.103	-0.054	-0.119
-514.858	-104.432	-0.176	0.041
-513.843	-51.751	0.020	-0.009
-512.829	44.754	0.140	0.129
-511.814	800.000	-0.052	-0.171
-510.799	66.446	0.130	0.132
-509.785	-168.704	-0.230	-0.009
-508.770	-28.924	0.290	-0.166
-507.756	-16.829	-0.093	-0.058
-506.741	62.531	0.260	0.260
-505.726	-102.336	0.329	-0.079
-504.712	-56.794	-0.267	0.118
-503.697	523.224	-0.160	0.375
-502.683	167.077	-0.208	0.295
-501.668	89.593	-0.226	0.252
-500.653	381.240	-0.121	0.248
-499.639	331.367	0.031	-0.059
-498.624	165.960	0.171	0.241
-497.610	-9.344	0.153	0.102
-496.595	-194.367	0.182	-0.001
-495.581	-200.000	-0.036	-0.259
-494.566	-83.976	-0.093	-0.030
-493.551	-149.340	0.202	0.016
-492.537	-102.709	0.259	-0.062
-491.522	-200.000	-0.061	-0.304
-490.508	-123.588	0.246	-0.039
-489.493	-102.080	-0.300	-0.072
-488.478	-110.871	-0.160	0.033
-487.464	698.920	-0.053	0.138
-486.449	134.116	0.237	-0.306
-485.435	642.694	0.122	-0.309
-484.420	-37.296	0.197	-0.105
-483.405	800.000	-0.048	0.167
-482.391	178.321	0.111	-0.162
-481.376	196.452	0.104	-0.157
-480.362	-138.878	-0.083	-0.009
-479.347	31.938	-0.234	0.201
-478.332	278.838	-0.123	-0.218
-477.318	-28.733	-0.092	-0.053
-476.303	568.963	0.070	-0.171
-475.289	-91.788	0.082	-0.023
-474.274	80.587	-0.388	-0.417
-473.259	191.986	-0.099	0.148
-472.245	-155.437	-0.161	0.010
-471.230	-200.000	0.087	0.413
-470.216	92.299	0.057	-0.064
-469.201	800.000	-0.030	0.092
-468.186	-141.270	-0.058	-0.006
-467.172	-130.990	0.118	0.016
-466.157	-35.366	-0.267	-0.145
-465.143	602.940	-0.095	-0.236
-464.128	48.645	-0.265	-0.247
-463.113	-52.580	-0.544	-0.250
-462.099	-142.173	0.215	0.021
-461.084	-102.234	0.131	-0.031
-460.070	-200.000	0.011	-0.208
-459.055	-23.836	-0.018	0.011
-458.040	-38.364	0.107	-0.056
-457.026	171.501	0.069	0.099
-456.011	269.248	-0.154	-0.270
-454.997	-200.000	0.028	-0.306
-453.982	67.925	0.019	0.020
-452.968	-47.463	0.159	-0.077
-451.953	-50.877	-0.300	0.140
-450.938	174.860	0.081	-0.117
-449.924	-200.000	0.023	0.173
-448.909	-47.828	-0.356	-0.172
-447.895	212.855	-0.143	0.224
-446.880	335.453	0.167	0.323
-445.865	-58.755	-0.220	-0.095
-444.851	255.913	-0.117	0.201
-443.836	-109.612	0.102	-0.021
-442.822	-172.392	0.076	0.002
-441.807	-200.000	0.000	0.046
-440.792	24.406	-0.069	-0.057
-439.778	-24.838	0.104	0.061
-438.763	25.858	-0.035	-0.029
-437.749	154.563	-0.146	0.199
-436.734	291.860	-0.221	0.400
-435.719	248.468	-0.100	0.168
-434.705	107.510	0.184	0.218
-433.690	-200.000	0.048	0.256
-432.676	317.548	0.017	-0.033
-431.661	4.378	-0.214	0.156
-430.646	-5.449	0.189	-0.129
-429.632	-200.000	0.046	-0.338
-428.617	-188.602	0.274	-0.003
-427.603	280.787	-0.068	-0.121
-426.588	88.796	-0.063	0.070
-425.573	-26.479	-0.345	0.201
-424.559	-200.000	-0.007	-0.186
-423.544	-123.057	-0.183	0.029
-422.530	-91.980	0.194	-0.055
-421.515	96.924	-0.131	-0.149
-420.500	505.555	0.109	0.251
-419.486	129.199	0.187	-0.238
-418.471	-200.000	-0.027	0.203
-417.457	357.184	-0.146	0.290
-416.442	36.083	-0.212	0.185
-415.428	268.896	-0.113	0.197
-414.413	-32.245	-0.333	0.185
-413.398	-55.616	0.284	0.126
-412.384	-101.353	-0.456	0.111
-411.369	99.343	0.246	-0.283
-410.355	-2.230	-0.103	0.072
-409.340	132.196	-0.090	0.115
-408.325	-200.000	-0.013	-0.162
-407.311	-113.902	0.074	-0.014
-406.296	228.144	-0.093	0.150
-405.282	65.559	-0.113	-0.113
-404.267	-44.173	0.367	0.183
-403.252	-130.487	0.064	0.009
-402.238	387.937	-0.104	0.215
-401.223	492.216	0.222	-0.505
-400.209	-139.341	-0.291	-0.031
-399.194	609.992	0.140	0.347
-398.179	142.852	0.201	0.265
-397.165	-200.000	0.035	-0.155
-396.150	99.824	-0.104	0.120
-395.136	-200.000	0.023	0.111
-394.121	-142.413	-0.225	0.022
-393.106	44.441	-0.068	-0.062
-392.092	-82.295	-0.129	0.042
-391.077	-65.732	-0.137	-0.054
-390.063	2.317	-0.063	0.045
-389.048	-55.088	0.309	0.138
-388.033	370.252	0.058	0.117
-387.019	-28.679	-0.357	0.204
-386.004	-193.925	0.460	-0.004
-384.990	194.017	0.057	0.086
-383.975	252.580	0.200	0.339
-382.960	54.624	0.151	0.145
-381.946	146.231	-0.186	-0.248
-380.931	-0.799	-0.043	-0.030
-379.917	-121.515	-0.149	0.025
-378.902	-200.000	-0.045	0.282
-377.888	-158.089	0.259	-0.015
-376.873	266.582	-0.135	0.234
-375.858	800.000	-0.068	0.206
-374.844	-200.000	-0.055	0.403
-373.829	-86.196	-0.015	0.005
-372.815	-29.200	0.270	0.154
-371.800	-110.060	-0.243	0.050
-370.785	-62.894	0.451	-0.185
-369.771	30.147	0.428	-0.362
-368.756	-34.955	0.186	-0.101
-367.742	800.000	0.073	0.257
-366.727	-136.654	0.347	0.040
-365.712	128.115	-0.166	-0.210
-364.698	-93.138	-0.317	-0.088
-363.683	104.377	-0.043	-0.050
-362.669	-200.000	0.011	0.097
-361.654	-161.786	-0.117	-0.006
-360.639	-70.578	0.078	0.029
-359.625	-121.369	0.057	0.009
-358.610	107.491	-0.013	0.015
-357.596	-37.636	0.325	-0.172
-356.581	-200.000	-0.005	-0.072
-355.566	94.474	-0.247	0.278
-354.552	70.286	0.232	0.238
-353.537	98.532	0.157	-0.180
-352.523	51.979	0.213	-0.201
-351.508	-200.000	0.002	0.123
-350.493	-1.229	-0.191	0.134
-349.479	-47.354	0.289	0.140
-348.464	-200.000	-0.027	-0.202
-347.450	800.000	-0.059	-0.167
-346.435	302.327	-0.266	0.487
-345.420	524.501	0.041	-0.095
-344.406	-40.224	-0.178	-0.092
-343.391	-200.000	-0.017	-0.205
-342.377	-67.236	-0.070	-0.027
-341.362	-116.166	0.181	0.033
-340.348	800.000	0.100	0.411
-339.333	23.373	-0.177	0.144
-338.318	95.570	-0.026	-0.029
-337.304	93.588	-0.046	0.052
-336.289	31.217	-0.072	0.061
-335.275	689.440	-0.049	0.127
-334.260	-200.000	-0.041	-0.187
-333.245	-111.780	-0.119	0.024
-332.231	800.000	0.112	0.392
-331.216	-200.000	-0.017	0.311
-330.202	-3.453	0.102	0.070
-329.187	130.184	-0.060	0.076
-328.172	-200.000	-0.057	0.385
-327.158	289.461	0.060	-0.107
-326.143	472.565	0.009	-0.019
-325.129	101.279	-0.156	-0.180
-324.114	318.621	0.073	-0.137
-323.099	554.981	-0.129	-0.308
-322.085	-91.160	-0.264	-0.075
-321.070	250.448	-0.226	0.380
-320.056	-28.829	0.061	-0.035
-319.041	319.626	-0.039	0.074
-318.026	9.638	-0.149	0.112
-317.012	-74.267	0.258	-0.092
-315.997	-79.792	0.206	-0.068
-314.983	800.000	0.129	-0.375
-313.968	-67.279	-0.076	0.030
-312.953	93.246	-0.120	0.135
-311.939	-53.777	0.177	-0.080
-310.924	726.642	-0.107	0.282
-309.910	30.484	0.059	0.050
-308.895	148.874	0.211	0.282
-307.880	23.461	-0.176	0.144
-306.866	99.799	-0.066	-0.076
-305.851	135.423	0.308	0.396
-304.837	-116.137	-0.163	-0.030
-303.822	-95.713	-0.145	-0.038
-302.807	-56.166	-0.290	-0.128
-301.793	800.000	-0.047	-0.147
-300.778	291.567	0.087	-0.157
-299.764	-22.346	-0.270	0.162
-298.749	800.000	-0.015	0.060
-297.735	-128.659	-0.281	-0.039
-296.720	800.000	0.077	-0.235
-295.705	-183.086	0.229	0.004
-294.691	-7.903	-0.175	0.117
-293.676	-68.772	0.289	-0.110
-292.662	222.078	-0.157	-0.250
-291.647	409.521	-0.086	0.181
-290.632	-71.487	0.318	-0.118
-289.618	465.826	-0.051	0.113
-288.603	16.262	0.117	0.091
-287.589	-200.000	0.012	0.188
-286.574	-128.771	0.164	0.023
-285.559	800.000	-0.038	-0.153
-284.545	-90.298	-0.231	-0.066
-283.530	-105.434	-0.159	-0.036
-282.516	200.429	-0.071	0.108
-281.501	-23.268	-0.076	-0.045
-280.486	800.000	-0.099	0.299
-279.472	-200.000	-0.007	0.040
-278.457	651.510	0.082	0.208
-277.443	-175.858	-0.235	-0.006
-276.428	-97.384	-0.180	0.046
-275.413	-58.220	0.062	0.027
-274.399	560.350	0.101	-0.242
-273.384	-200.000	0.029	0.310
-272.370	-200.000	0.019	-0.106
-271.355	15.279	0.218	-0.169
-270.340	-200.000	0.049	-0.257
-269.326	-45.548	0.242	0.119
-268.311	76.049	0.135	0.141
-267.297	-96.688	0.195	-0.051
-266.282	53.539	-0.384	-0.364
-265.267	-55.531	0.093	-0.041
-264.253	172.566	-0.105	0.149
-263.238	48.541	0.172	-0.159
-262.224	372.720	0.058	-0.117
-261.209	-7.428	0.236	-0.158
-260.195	34.642	0.159	-0.137
-259.180	43.733	-0.121	0.109
-258.165	-110.848	-0.120	0.024
-257.151	220.307	0.106	-0.168
-256.136	800.000	0.041	-0.156
-255.122	-137.940	0.441	0.049
-254.107	-20.510	0.093	-0.056
-253.092	-56.003	0.148	-0.065
-252.078	-125.653	0.093	0.014
-251.063	61.187	0.187	-0.183
-250.049	800.000	0.042	-0.147
-249.034	-29.296	-0.162	-0.092
-248.019	22.910	0.291	-0.235
-247.005	395.748	0.011	-0.022
-245.990	-45.388	0.415	0.203
-244.976	-200.000	-0.061	0.307
-243.961	-26.580	-0.288	0.167
-242.946	91.644	0.094	-0.105
-241.932	218.643	0.209	-0.330
-240.917	-122.139	-0.251	0.041
-239.903	800.000	0.026	0.098
-238.888	-4.095	-0.293	0.200
-237.873	800.000	0.047	0.138
-236.859	60.052	0.157	-0.153
-235.844	75.901	-0.071	0.074
-234.830	-200.000	-0.080	0.548
-233.815	176.231	-0.148	0.213
-232.800	-200.000	-0.036	-0.255
-231.786	156.481	0.169	0.230
-230.771	44.922	0.058	-0.053
-229.757	-200.000	0.012	-0.235
-228.742	160.087	0.064	-0.088
-227.727	-21.984	-0.279	-0.168
-226.713	-91.405	0.313	-0.088
-225.698	243.169	0.177	-0.293
-224.684	68.922	0.081	0.082
-223.669	117.796	0.113	-0.137
-222.655	-9.578	-0.326	0.215
-221.640	-75.501	0.410	-0.144
-220.625	-200.000	-0.008	-0.166
-219.611	-120.862	0.126	-0.021
-218.596	-200.000	0.062	-0.357
-217.582	-200.000	-0.056	0.473
-216.567	-155.436	-0.088	-0.006
-215.552	12.953	-0.120	0.092
-214.538	21.291	-0.109	-0.087
-213.523	33.039	-0.250	0.214
-212.509	-138.900	-0.349	0.037
-211.494	-200.000	0.037	-0.184
-210.479	520.357	-0.061	-0.140
-209.465	92.320	0.088	-0.098
-208.450	60.509	-0.191	-0.187
-207.436	-200.000	0.003	0.065
-206.421	-123.502	-0.132	0.021
-205.406	-63.669	0.069	-0.028
-204.392	-64.961	0.145	0.058
-203.377	-17.847	-0.154	0.095
-202.363	-147.574	-0.125	-0.010
-201.348	-200.000	0.002	0.012
-200.333	167.741	-0.147	-0.206
-199.319	800.000	-0.056	0.201
-198.304	-200.000	0.005	0.206
-197.290	-3.396	0.234	-0.161
-196.275	-53.907	-0.089	0.040
-195.260	-107.572	0.204	0.044
-194.246	-200.000	-0.023	0.233
-193.231	-30.275	0.161	-0.090
-192.217	562.042	-0.139	0.332
-191.202	-7.417	0.116	0.077
-190.187	50.879	-0.072	0.067
-189.173	-21.625	-0.058	0.035
-188.158	440.979	-0.068	0.146
-187.144	-200.000	0.047	0.209
-186.129	-154.720	-0.093	0.006
-185.114	-62.381	-0.220	-0.090
-184.100	129.258	-0.030	0.038
-183.085	-174.266	-0.214	0.006
-182.071	52.184	0.055	0.052
-181.056	-133.929	0.370	0.045
-180.042	-109.468	0.377	0.078
-179.027	-15.585	0.075	0.047
-178.012	-112.444	0.390	0.077
-176.998	105.662	0.194	0.226
-175.983	116.576	-0.257	0.311
-174.969	4.931	0.171	0.124
-173.954	-200.000	0.023	0.267
-172.939	-90.050	0.104	-0.030
-171.925	11.900	-0.171	-0.130
-170.910	-200.000	-0.005	-0.172
-169.896	-200.000	0.006	-0.218
-168.881	369.371	-0.138	-0.274
-167.866	347.766	0.055	0.107
-166.852	-27.749	-0.144	-0.082
-165.837	487.931	0.099	-0.223
-164.823	260.128	0.107	0.182
-163.808	-96.970	0.129	0.033
-162.793	-66.951	-0.121	0.047
-161.779	-60.816	-0.379	0.158
-160.764	-40.513	0.527	0.269
-159.750	-72.060	0.127	0.046
-158.735	-88.938	0.124	-0.036
-157.720	-200.000	-0.021	0.120
-156.706	-123.322	-0.280	-0.044
-155.691	-82.067	0.300	0.096
-154.677	141.615	-0.047	-0.062
-153.662	49.835	0.199	-0.184
-152.647	-142.903	-0.132	-0.013
-151.633	800.000	-0.045	-0.123
-150.618	438.832	-0.047	0.101
-149.604	-57.909	0.230	0.099
-148.589	-200.000	0.066	0.342
-147.574	110.962	-0.150	0.178
-146.560	-48.011	-0.164	-0.078
-145.545	-17.382	-0.118	-0.073
-144.531	-200.000	0.007	0.218
-143.516	-79.862	-0.168	0.056
-142.502	-200.000	0.045	0.390
-141.487	-118.382	0.136	-0.024
-140.472	800.000	0.068	0.293
-139.458	-89.286	-0.113	-0.033
-138.443	-64.865	-0.164	0.065
-137.429	53.725	0.199	-0.188
-136.414	-200.000	-0.055	-0.320
-135.399	-200.000	-0.008	0.083
-134.385	-138.663	0.330	-0.036
-133.370	-59.314	0.350	-0.148
-132.356	-200.000	-0.016	-0.107
-131.341	800.000	0.053	0.181
-130.326	48.571	-0.129	-0.119
-129.312	-200.000	-0.006	-0.218
-128.297	385.393	-0.045	-0.091
-127.283	800.000	-0.096	-0.333
-126.268	154.274	0.034	0.046
-125.253	387.124	-0.113	0.229
-124.239	397.178	0.173	-0.356
-123.224	9.818	-0.254	-0.190
