DTS Sentinel unit serial number:	SN413079Multiplexer serial number:	ORYXHardware model number:	OX4-SRSoftware version number:	ORYX F/W v4.00 Oryx Data Collector v3.7.2.0data status	okinstallation	princeton_trtdifferential loss correction	single-endedforward channel	channel 2reverse channel	N/Adate	2019/09/10time	19:17:11forward acquisition time	60.00reverse acquisition time	0.00gamma	496.2192k internal	0.2324k external	0.2324temperature offset calibration	0.9944default loss term (dB/km)	0.3790temperature slope calibration	1.0000multiplexer offset coefficient	1.0000multiplexer slope coefficient	1.0000fibre end	0.00T internal ref (°C)	33.92T ext. ref 1 (°C)	-0.34T ext. ref 2 (°C)	26.34length (m)	temperature (°C)	Stokes	anti-Stokes-747.200	800.000	-0.072	0.310
-746.185	21.569	-0.329	0.270
-745.171	-98.410	-0.357	0.092
-744.156	539.060	-0.094	0.226
-743.142	-200.000	0.003	-0.151
-742.127	-129.650	0.348	0.048
-741.112	-90.459	-0.186	-0.054
-740.098	-102.765	-0.278	0.067
-739.083	800.000	0.081	-0.258
-738.069	-200.000	-0.017	0.169
-737.054	279.385	-0.045	-0.080
-736.039	-146.503	-0.341	-0.030
-735.025	-200.000	-0.009	-0.087
-734.010	-21.321	-0.108	-0.066
-732.996	-35.803	-0.072	-0.039
-731.981	38.766	-0.162	-0.146
-730.966	-130.289	0.112	-0.015
-729.952	403.413	-0.052	0.109
-728.937	-2.511	0.248	0.176
-727.923	800.000	-0.020	-0.078
-726.908	-157.048	0.174	-0.011
-725.894	800.000	-0.046	0.134
-724.879	91.650	-0.261	-0.295
-723.864	207.788	0.204	-0.322
-722.850	-93.124	-0.285	0.080
-721.835	55.375	-0.221	-0.216
-720.821	-158.299	0.309	0.018
-719.806	-4.055	-0.320	-0.224
-718.791	-118.108	-0.232	-0.042
-717.777	-141.822	0.161	-0.016
-716.762	-200.000	-0.050	-0.326
-715.748	69.151	0.132	-0.137
-714.733	-169.409	-0.205	0.008
-713.718	266.971	0.054	0.096
-712.704	-49.545	0.340	-0.163
-711.689	48.839	0.078	-0.074
-710.675	-59.202	-0.173	-0.075
-709.660	0.649	-0.276	-0.199
-708.645	-129.039	0.277	-0.039
-707.631	99.249	-0.218	0.254
-706.616	800.000	0.071	0.276
-705.602	798.783	0.028	0.077
-704.587	-48.833	-0.209	0.101
-703.572	-60.609	0.046	0.019
-702.558	-155.761	0.099	0.006
-701.543	-200.000	-0.031	-0.141
-700.529	-25.960	-0.141	-0.084
-699.514	-65.429	-0.410	-0.166
-698.499	-79.234	-0.383	0.131
-697.485	190.712	-0.106	-0.160
-696.470	288.182	-0.035	0.064
-695.456	800.000	-0.024	-0.091
-694.441	-10.456	-0.137	0.092
-693.426	800.000	0.049	-0.160
-692.412	800.000	0.061	0.265
-691.397	53.358	-0.024	0.023
-690.383	-200.000	0.020	0.176
-689.368	-200.000	0.025	-0.241
-688.354	-200.000	0.015	0.082
-687.339	145.836	0.055	-0.074
-686.324	-13.807	-0.137	0.089
-685.310	-92.874	0.274	-0.077
-684.295	-95.689	-0.258	0.069
-683.281	-32.725	0.280	0.157
-682.266	150.593	0.094	-0.129
-681.251	-200.000	0.020	-0.206
-680.237	44.281	-0.240	-0.222
-679.222	49.646	-0.182	0.173
-678.208	654.504	-0.214	-0.554
-677.193	-74.218	-0.206	-0.075
-676.178	6.655	0.116	0.087
-675.164	166.929	0.116	0.165
-674.149	-58.931	-0.284	-0.124
-673.135	-73.932	-0.127	0.046
-672.120	18.763	0.168	-0.136
-671.105	-168.629	-0.199	0.008
-670.091	16.002	-0.217	0.172
-669.076	-22.143	-0.136	0.083
-668.062	140.733	-0.173	0.230
-667.047	64.628	0.305	0.309
-666.032	-200.000	-0.036	0.265
-665.018	142.239	-0.209	0.279
-664.003	-119.858	-0.178	-0.031
-662.989	-86.264	-0.253	0.078
-661.974	-104.101	0.199	0.046
-660.959	-72.420	-0.300	-0.112
-659.945	-200.000	-0.031	-0.645
-658.930	-200.000	-0.007	-0.242
-657.916	-200.000	0.056	-0.459
-656.901	800.000	0.061	-0.260
-655.886	72.074	-0.275	-0.288
-654.872	120.227	-0.131	0.164
-653.857	68.547	0.161	0.166
-652.843	-141.200	0.133	-0.014
-651.828	-174.509	0.098	-0.003
-650.814	-86.213	-0.304	-0.094
-649.799	-170.588	-0.387	-0.014
-648.784	800.000	0.082	0.243
-647.770	78.612	-0.076	0.081
-646.755	-81.986	-0.198	0.065
-645.741	-88.176	-0.328	0.099
-644.726	29.957	0.151	-0.129
-643.711	38.150	0.076	-0.068
-642.697	-12.420	0.360	0.237
-641.682	-200.000	-0.056	0.279
-640.668	-146.097	0.129	0.011
-639.653	-119.512	-0.263	-0.046
-638.638	-43.055	0.419	0.214
-637.624	-79.068	-0.080	0.027
-636.609	30.862	0.202	-0.174
-635.595	296.387	-0.095	-0.175
-634.580	37.155	0.192	0.171
-633.565	-164.382	-0.184	-0.008
-632.551	181.189	-0.166	0.245
-631.536	-200.000	0.007	-0.185
-630.522	-200.000	0.010	-0.172
-629.507	156.999	-0.112	0.155
-628.492	-112.561	0.231	0.046
-627.478	-117.769	-0.237	0.043
-626.463	-145.963	0.353	-0.031
-625.449	388.273	-0.057	-0.118
-624.434	800.000	-0.101	-0.284
-623.419	751.861	0.103	-0.279
-622.405	800.000	0.060	0.250
-621.390	-104.697	0.167	0.039
-620.376	357.968	0.044	-0.087
-619.361	100.611	0.180	-0.210
-618.346	220.800	0.097	-0.156
-617.332	800.000	0.063	-0.213
-616.317	-145.136	0.105	-0.010
-615.303	4.493	0.143	-0.106
-614.288	-68.079	0.065	-0.025
-613.273	-200.000	-0.012	-0.307
-612.259	-29.954	0.291	0.166
-611.244	15.560	0.151	0.119
-610.230	-20.196	0.073	-0.045
-609.215	-1.575	0.163	-0.115
-608.201	213.165	0.088	0.139
-607.186	-67.587	-0.243	-0.096
-606.171	-200.000	-0.049	0.226
-605.157	-124.827	-0.116	0.018
-604.142	746.771	-0.086	0.234
-603.128	-200.000	0.005	0.074
-602.113	794.180	0.106	-0.293
-601.098	-200.000	-0.013	-0.170
-600.084	-200.000	-0.087	-0.518
-599.069	-111.821	-0.119	-0.024
-598.055	-94.935	-0.205	0.056
-597.040	2.528	0.036	-0.026
-596.025	-18.147	-0.120	0.076
-595.011	228.258	0.097	-0.159
-593.996	11.340	0.085	0.065
-592.982	-163.729	-0.324	-0.015
-591.967	107.715	0.162	0.193
-590.952	1.176	-0.042	0.030
-589.938	-200.000	0.010	0.153
-588.923	-200.000	0.008	0.110
-587.909	22.086	0.149	0.122
-586.894	-171.341	-0.279	0.009
-585.879	-200.000	-0.052	0.232
-584.865	568.820	0.078	0.190
-583.850	109.857	-0.122	0.146
-582.836	-123.696	0.023	-0.004
-581.821	251.319	-0.090	-0.153
-580.806	146.534	-0.091	-0.122
-579.792	-96.700	0.111	-0.029
-578.777	-58.831	-0.117	-0.051
-577.763	66.375	0.388	0.395
-576.748	382.593	0.096	0.199
-575.733	-124.773	-0.108	-0.017
-574.719	-200.000	0.017	0.413
-573.704	-200.000	0.012	0.260
-572.690	-121.106	-0.226	0.038
-571.675	-200.000	-0.019	-0.379
-570.661	772.045	0.025	0.067
-569.646	40.204	-0.339	-0.306
-568.631	467.092	0.085	0.192
-567.617	-200.000	-0.086	-0.423
-566.602	-1.490	0.233	0.164
-565.588	332.486	-0.108	-0.210
-564.573	53.844	0.120	-0.116
-563.558	242.839	-0.111	0.186
-562.544	147.458	-0.034	-0.046
-561.529	186.497	0.109	-0.162
-560.515	-200.000	-0.037	-0.189
-559.500	91.369	0.101	-0.114
-558.485	34.725	0.350	0.306
-557.471	647.859	-0.123	0.316
-556.456	-29.151	0.295	0.170
-555.442	78.535	0.259	0.277
-554.427	436.376	0.151	0.330
-553.412	515.231	-0.032	0.075
-552.398	216.603	-0.116	0.185
-551.383	800.000	-0.085	-0.295
-550.369	-112.790	-0.119	0.024
-549.354	-200.000	0.046	-0.229
-548.339	-60.003	0.017	-0.007
-547.325	123.309	0.177	-0.222
-546.310	-183.957	0.283	0.005
-545.296	-5.877	-0.106	0.073
-544.281	800.000	-0.068	0.256
-543.266	616.004	-0.135	0.338
-542.252	493.236	0.062	0.143
-541.237	1.190	-0.135	-0.097
-540.223	-37.023	0.205	-0.110
-539.208	-24.650	-0.182	0.109
-538.193	533.071	0.076	0.181
-537.179	61.393	0.089	0.089
-536.164	-50.970	-0.332	0.156
-535.150	122.377	0.176	0.220
-534.135	228.346	0.125	0.205
-533.121	800.000	-0.086	0.266
-532.106	-200.000	-0.008	-0.096
-531.091	-141.162	-0.226	-0.023
-530.077	-77.818	0.302	-0.105
-529.062	-105.244	0.108	0.025
-528.048	160.973	0.088	0.124
-527.033	53.761	-0.283	-0.272
-526.018	-162.550	-0.081	-0.004
-525.004	-20.324	-0.195	-0.120
-523.989	85.497	-0.108	-0.119
-522.975	-66.921	-0.368	-0.146
-521.960	150.365	0.222	-0.302
-520.945	70.343	-0.147	0.152
-519.931	311.736	-0.042	-0.079
-518.916	271.532	-0.069	-0.121
-517.902	-94.147	0.081	-0.022
-516.887	15.173	-0.220	-0.173
-515.872	-4.257	0.163	-0.113
-514.858	800.000	-0.035	-0.102
-513.843	-132.951	-0.147	-0.019
-512.829	310.856	0.049	0.092
-511.814	-123.898	-0.225	0.035
-510.799	-162.615	0.194	0.010
-509.785	749.763	0.083	-0.224
-508.770	-200.000	-0.012	-0.174
-507.756	180.206	0.335	0.491
-506.741	800.000	0.101	0.289
-505.726	-200.000	-0.002	0.123
-504.712	-7.693	0.207	-0.140
-503.697	16.790	-0.189	-0.150
-502.683	-57.875	0.256	0.112
-501.668	-200.000	-0.017	-0.229
-500.653	247.328	0.101	-0.171
-499.639	135.254	0.068	0.088
-498.624	-151.739	0.108	0.008
-497.610	120.251	-0.187	-0.232
-496.595	-200.000	-0.014	-0.131
-495.581	76.033	-0.062	0.066
-494.566	-200.000	-0.037	-0.183
-493.551	163.096	-0.132	-0.186
-492.537	635.677	-0.095	-0.241
-491.522	9.747	0.203	0.154
-490.508	-82.379	0.124	0.040
-489.493	-200.000	0.005	0.064
-488.478	10.549	0.080	0.061
-487.464	243.785	0.168	-0.282
-486.449	163.465	-0.042	-0.060
-485.435	25.821	0.072	0.060
-484.420	-168.621	0.318	0.012
-483.405	-94.974	0.085	0.023
-482.391	-42.380	-0.011	-0.006
-481.376	-73.575	-0.294	0.107
-480.362	178.743	-0.190	0.277
-479.347	800.000	-0.068	0.254
-478.332	37.208	-0.039	0.035
-477.318	-49.877	0.322	0.153
-476.303	11.587	0.143	0.110
-475.289	-30.969	-0.106	0.060
-474.274	-200.000	0.002	-0.137
-473.259	-126.935	0.200	-0.029
-472.245	-30.327	0.351	0.199
-471.230	18.474	-0.459	-0.366
-470.216	-58.098	-0.275	0.120
-469.201	-200.000	0.016	-0.243
-468.186	93.276	0.133	-0.150
-467.172	-200.000	0.007	-0.264
-466.157	-200.000	-0.052	-0.350
-465.143	-200.000	-0.039	0.291
-464.128	-146.083	0.218	0.019
-463.113	190.788	0.127	-0.191
-462.099	21.749	0.121	0.099
-461.084	207.540	-0.076	0.119
-460.070	-200.000	0.005	0.192
-459.055	-181.799	-0.210	0.004
-458.040	800.000	-0.091	0.260
-457.026	-78.858	-0.338	0.115
-456.011	800.000	-0.020	-0.062
-454.997	30.979	0.132	0.113
-453.982	50.325	0.190	0.179
-452.968	323.682	-0.128	-0.244
-451.953	-200.000	0.036	0.275
-450.938	201.015	0.143	0.219
-449.924	-131.842	-0.110	-0.014
-448.909	800.000	0.035	0.126
-447.895	800.000	-0.081	0.243
-446.880	67.713	0.160	0.163
-445.865	-200.000	-0.027	-0.203
-444.851	-54.629	-0.109	0.049
-443.836	220.029	-0.202	0.323
-442.822	340.703	-0.090	-0.176
-441.807	-36.159	0.109	0.059
-440.792	800.000	0.063	0.237
-439.778	800.000	0.022	-0.088
-438.763	179.285	-0.195	-0.284
-437.749	56.008	-0.301	0.292
-436.734	-200.000	-0.114	-0.502
-435.719	238.166	0.154	-0.255
-434.705	-96.673	0.111	-0.029
-433.690	-73.464	0.229	0.083
-432.676	571.463	-0.054	-0.132
-431.661	-129.540	0.233	0.032
-430.646	-69.054	-0.265	-0.102
-429.632	442.457	0.137	0.299
-428.617	800.000	0.043	0.154
-427.603	522.620	0.254	-0.595
-426.588	84.137	0.088	0.096
-425.573	5.925	-0.257	0.190
-424.559	31.936	0.119	0.102
-423.544	-102.423	-0.309	0.074
-422.530	96.434	-0.242	0.276
-421.515	8.953	0.053	0.040
-420.500	-112.962	0.197	0.039
-419.486	623.437	-0.079	0.198
-418.471	313.720	0.128	-0.240
-417.457	2.746	-0.112	0.081
-416.442	554.922	-0.055	0.132
-415.428	67.262	-0.208	-0.212
-414.413	98.781	-0.135	-0.155
-413.398	15.488	-0.118	0.092
-412.384	-200.000	-0.017	0.242
-411.369	-21.916	-0.184	0.111
-410.355	36.025	-0.155	0.136
-409.340	-200.000	0.013	0.062
-408.325	755.484	0.090	0.244
-407.311	-72.025	-0.210	-0.078
-406.296	-54.665	0.151	-0.068
-405.282	82.603	0.144	-0.156
-404.267	-200.000	-0.000	-0.159
-403.252	212.411	-0.112	-0.177
-402.238	-33.694	-0.310	-0.170
-401.223	-126.854	-0.375	-0.055
-400.209	121.383	0.244	-0.302
-399.194	135.064	0.211	-0.273
-398.179	-200.000	0.010	-0.075
-397.165	-19.773	-0.111	0.068
-396.150	36.580	0.287	-0.252
-395.136	800.000	0.059	-0.203
-394.121	-70.493	-0.326	0.123
-393.106	38.213	-0.189	0.167
-392.092	-61.894	-0.342	0.142
-391.077	-200.000	0.048	-0.228
-390.063	-12.820	0.114	-0.074
-389.048	-68.590	-0.182	-0.070
-388.033	-106.556	0.317	-0.070
-387.019	131.967	-0.224	-0.287
-386.004	-200.000	-0.025	0.263
-384.990	18.597	-0.345	-0.275
-383.975	800.000	-0.028	0.115
-382.960	164.475	-0.080	-0.112
-381.946	-46.426	-0.182	0.089
-380.931	800.000	-0.077	0.279
-379.917	-125.368	-0.156	0.024
-378.902	-23.361	-0.167	-0.100
-377.888	-29.039	0.140	0.080
-376.873	16.341	0.124	0.098
-375.858	-151.768	0.244	0.018
-374.844	-43.668	-0.135	0.068
-373.829	-98.393	-0.340	-0.087
-372.815	-100.621	0.156	-0.038
-371.800	101.555	0.322	-0.374
-370.785	647.818	0.128	-0.325
-369.771	185.322	0.150	-0.221
-368.756	-60.053	0.174	-0.074
-367.742	730.019	0.034	0.091
-366.727	-63.441	0.569	0.233
-365.712	-31.557	-0.201	0.112
-364.698	-22.762	-0.170	0.102
-363.683	-200.000	0.002	-0.171
-362.669	-8.316	0.164	-0.110
-361.654	-200.000	0.000	-0.231
-360.639	183.847	0.106	0.156
-359.625	-200.000	0.000	0.132
-358.610	-200.000	-0.022	0.119
-357.596	-28.505	0.013	0.008
-356.581	800.000	-0.087	0.263
-355.566	-52.997	-0.139	0.063
-354.552	46.789	-0.131	-0.121
-353.537	243.963	-0.220	-0.367
-352.523	800.000	0.059	-0.229
-351.508	357.936	0.102	0.202
-350.493	108.586	-0.274	0.326
-349.479	88.687	-0.194	0.214
-348.464	24.780	-0.254	-0.209
-347.450	-152.837	-0.259	-0.018
-346.435	-149.810	-0.297	-0.023
-345.420	-95.251	0.021	-0.005
-344.406	-78.427	0.309	-0.105
-343.391	82.975	0.055	-0.059
-342.377	-168.877	0.363	0.014
-341.362	-200.000	-0.006	-0.220
-340.348	-142.645	0.407	0.040
-339.333	5.095	0.216	0.158
-338.318	385.595	0.016	-0.034
-337.304	18.103	-0.070	0.055
-336.289	-118.293	-0.256	-0.045
-335.275	340.883	0.106	-0.207
-334.260	-200.000	-0.016	-0.120
-333.245	-95.029	0.252	0.068
-332.231	800.000	-0.129	0.365
-331.216	800.000	0.077	-0.280
-330.202	43.400	0.256	-0.232
-329.187	-135.233	-0.182	0.022
-328.172	-118.805	-0.065	-0.011
-327.158	241.898	-0.105	-0.174
-326.143	-24.458	-0.201	-0.119
-325.129	67.996	-0.075	-0.076
-324.114	-102.496	-0.420	-0.100
-323.099	-106.662	0.428	0.094
-322.085	-118.513	0.166	0.029
-321.070	-200.000	0.030	-0.227
-320.056	-200.000	-0.039	-0.197
-319.041	-78.063	0.298	0.102
-318.026	-0.097	0.158	0.112
-317.012	143.126	-0.145	-0.191
-315.997	-200.000	-0.024	-0.144
-314.983	38.547	-0.357	-0.316
-313.968	229.294	-0.080	-0.130
-312.953	800.000	0.053	0.151
-311.939	146.352	0.116	-0.154
-310.924	252.323	-0.084	0.142
-309.910	119.637	0.037	-0.046
-308.895	-102.329	0.072	-0.017
-307.880	800.000	0.092	0.264
-306.866	153.059	-0.015	-0.020
-305.851	-12.881	0.259	-0.167
-304.837	-3.857	0.226	-0.155
-303.822	-200.000	-0.017	-0.080
-302.807	-122.643	0.137	-0.022
-301.793	79.508	-0.136	-0.145
-300.778	55.696	-0.118	-0.114
-299.764	52.021	0.085	-0.080
-298.749	611.061	-0.097	-0.240
-297.735	-40.807	-0.173	-0.089
-296.720	-200.000	0.010	-0.183
-295.705	-107.070	-0.393	0.086
-294.691	-15.855	0.040	-0.025
-293.676	-42.417	-0.121	-0.061
-292.662	132.781	0.102	-0.130
-291.647	70.631	-0.251	-0.258
-290.632	115.191	0.015	-0.018
-289.618	22.019	-0.227	0.184
-288.603	-181.331	0.228	-0.004
-287.589	15.058	-0.080	-0.062
-286.574	-76.560	0.172	0.060
-285.559	36.777	-0.309	-0.271
-284.545	71.424	-0.097	-0.100
-283.530	-99.593	0.336	-0.084
-282.516	-200.000	0.078	0.347
-281.501	10.356	0.358	-0.270
-280.486	-112.464	-0.193	-0.038
-279.472	-184.112	0.501	-0.008
-278.457	-200.000	0.001	-0.047
-277.443	639.264	0.139	0.352
-276.428	-200.000	-0.023	0.162
-275.413	-69.337	-0.196	0.075
-274.399	188.160	0.125	0.185
-273.384	58.305	0.255	0.248
-272.370	800.000	-0.066	0.189
-271.355	-62.812	-0.433	-0.178
-270.340	-70.603	0.314	0.118
-269.326	-200.000	0.003	-0.151
-268.311	-54.241	0.136	0.061
-267.297	-18.898	0.353	0.217
-266.282	-51.220	0.128	0.059
-265.267	242.188	-0.136	0.226
-264.253	-95.748	0.353	-0.094
-263.238	15.389	-0.147	-0.114
-262.224	56.572	-0.159	-0.153
-261.209	-200.000	0.020	-0.218
-260.195	800.000	-0.051	0.144
-259.180	-159.259	-0.121	0.007
-258.165	162.214	0.067	-0.092
-257.151	-119.511	0.276	-0.047
-256.136	-35.853	-0.268	0.144
-255.122	326.698	0.056	0.107
-254.107	111.914	0.112	-0.134
-253.092	-200.000	0.056	0.426
-252.078	-200.000	0.006	-0.314
-251.063	-157.751	-0.155	0.009
-250.049	213.587	-0.052	0.081
-249.034	-34.242	0.265	-0.144
-248.019	646.900	-0.082	-0.207
-247.005	-200.000	-0.032	0.182
-245.990	800.000	-0.024	0.103
-244.976	95.368	-0.252	-0.285
-243.961	15.717	0.103	-0.080
-242.946	26.852	0.151	0.126
-241.932	96.643	0.345	0.391
-240.917	-134.704	0.075	-0.009
-239.903	-60.363	0.207	-0.087
-238.888	-200.000	0.012	-0.329
-237.873	-200.000	-0.027	-0.121
-236.859	-200.000	0.002	-0.143
-235.844	-80.752	0.228	0.075
-234.830	-139.702	-0.347	-0.036
-233.815	-155.411	-0.120	-0.008
-232.800	33.932	0.063	0.054
-231.786	800.000	-0.154	-0.560
-230.771	208.385	0.039	0.060
-229.757	-200.000	0.050	0.276
-228.742	-7.108	0.270	0.181
-227.727	-50.503	-0.133	0.062
-226.713	-60.339	-0.240	0.101
-225.698	148.937	0.142	0.190
-224.684	407.513	0.104	0.217
-223.669	-200.000	-0.042	0.283
-222.655	-157.437	-0.353	0.021
-221.640	175.083	-0.143	0.205
-220.625	-200.000	0.032	0.165
-219.611	341.301	-0.087	-0.168
-218.596	164.308	-0.181	-0.252
-217.582	-6.607	0.172	0.116
-216.567	-0.541	0.046	0.032
-215.552	-200.000	-0.005	-0.161
-214.538	-57.629	-0.282	-0.122
-213.523	-200.000	0.034	-0.280
-212.509	-200.000	-0.010	0.140
-211.494	68.152	-0.101	0.102
-210.479	328.594	-0.108	0.204
-209.465	2.921	-0.112	-0.080
-208.450	-0.749	-0.398	0.279
-207.436	-113.090	0.125	0.024
-206.421	-21.404	-0.147	0.089
-205.406	-31.530	-0.092	-0.051
-204.392	-200.000	0.004	-0.268
-203.377	611.884	0.131	0.324
-202.363	303.397	-0.058	0.107
-201.348	24.749	-0.226	0.185
-200.333	-200.000	-0.022	0.210
-199.319	-200.000	-0.034	0.184
-198.304	-54.703	0.132	-0.059
-197.290	-22.927	-0.068	0.040
-196.275	-29.076	-0.081	-0.046
-195.260	212.817	-0.254	0.396
-194.246	-107.236	-0.219	0.048
-193.231	35.038	0.288	-0.249
-192.217	-71.863	0.245	0.090
-191.202	-200.000	0.053	0.276
-190.187	106.977	-0.158	0.186
-189.173	-85.959	-0.355	0.108
-188.158	-75.910	0.385	-0.135
-187.144	800.000	0.070	-0.218
-186.129	800.000	0.075	-0.280
-185.114	-60.332	0.138	0.058
-184.100	-200.000	-0.251	-0.001
-183.085	-9.060	-0.093	-0.062
-182.071	10.636	0.285	0.214
-181.056	679.425	0.125	0.320
-180.042	58.835	0.039	0.038
-179.027	-23.398	0.358	-0.213
-178.012	-200.000	-0.018	-0.135
-176.998	-25.369	-0.127	-0.074
-175.983	341.086	0.051	-0.098
-174.969	39.551	-0.277	-0.245
-173.954	800.000	0.058	0.176
-172.939	-200.000	0.007	0.173
-171.925	-24.144	0.225	0.133
-170.910	-38.818	0.216	0.112
-169.896	-200.000	0.006	-0.381
-168.881	33.731	-0.253	0.218
-167.866	478.580	0.048	0.106
-166.852	-200.000	0.031	0.143
-165.837	-120.477	-0.186	0.031
-164.823	-200.000	0.000	-0.041
-163.808	800.000	-0.035	-0.127
-162.793	-200.000	-0.010	0.209
-161.779	-89.065	-0.297	-0.087
-160.764	18.339	0.151	0.119
-159.750	-168.967	-0.009	0.000
-158.735	-72.133	-0.291	-0.107
-157.720	-129.201	0.245	0.034
-156.706	-60.058	0.245	-0.103
-155.691	215.268	0.073	0.114
-154.677	287.555	0.043	-0.077
-153.662	66.088	-0.143	-0.144
-152.647	351.385	-0.046	-0.090
-151.633	-149.567	0.269	0.021
-150.618	-18.728	0.119	0.073
-149.604	-99.914	-0.175	-0.043
-148.589	-36.879	-0.138	-0.073
-147.574	328.288	0.065	-0.123
-146.560	-158.580	0.183	-0.010
-145.545	-64.719	0.116	-0.046
-144.531	80.907	0.072	-0.077
-143.516	121.245	-0.116	0.142
-142.502	800.000	0.053	0.219
-141.487	-7.331	0.276	0.184
-140.472	800.000	-0.116	0.429
-139.458	129.101	0.185	-0.232
-138.443	-200.000	0.000	0.172
-137.429	-131.889	0.268	-0.035
-136.414	530.011	0.150	-0.348
-135.399	-18.904	-0.245	-0.150
-134.385	-99.548	-0.060	0.015
-133.370	-20.681	-0.109	0.066
-132.356	102.668	0.134	-0.154
-131.341	800.000	0.048	-0.134
-130.326	-53.839	-0.037	-0.016
-129.312	-29.128	0.377	-0.213
-128.297	-200.000	-0.011	-0.132
-127.283	86.259	0.094	0.102
-126.268	732.556	0.186	-0.490
-125.253	-159.710	0.380	0.021
-124.239	-200.000	-0.031	-0.177
-123.224	547.150	0.193	-0.456
-122.210	56.307	0.177	0.169
-121.195	800.000	0.087	-0.286
-120.180	19.963	0.298	0.236
