DTS Sentinel unit serial number:	SN413079Multiplexer serial number:	ORYXHardware model number:	OX4-SRSoftware version number:	ORYX F/W v4.00 Oryx Data Collector v3.7.2.0data status	okinstallation	princeton_trtdifferential loss correction	single-endedforward channel	channel 2reverse channel	N/Adate	2019/09/17time	03:23:35forward acquisition time	60.00reverse acquisition time	0.00gamma	496.2192k internal	0.2326k external	0.2326temperature offset calibration	0.9975default loss term (dB/km)	0.3790temperature slope calibration	1.0000multiplexer offset coefficient	1.0000multiplexer slope coefficient	1.0000fibre end	0.00T internal ref (°C)	30.00T ext. ref 1 (°C)	0.14T ext. ref 2 (°C)	24.84length (m)	temperature (°C)	Stokes	anti-Stokes-747.200	-56.966	0.063	0.028
-746.185	82.341	-0.110	0.120
-745.171	79.565	0.291	-0.315
-744.156	-126.773	-0.292	0.043
-743.142	7.442	0.377	0.284
-742.127	298.208	-0.091	0.168
-741.112	77.773	-0.076	0.082
-740.098	207.410	0.174	0.274
-739.083	-200.000	0.024	-0.208
-738.069	431.160	-0.185	0.405
-737.054	-78.316	-0.322	0.111
-736.039	47.436	-0.099	-0.093
-735.025	182.164	-0.100	-0.148
-734.010	-55.176	-0.198	-0.090
-732.996	-38.880	0.174	-0.092
-731.981	134.151	0.017	-0.023
-730.966	-101.547	-0.103	0.025
-729.952	305.654	-0.064	0.120
-728.937	800.000	0.116	0.324
-727.923	-1.294	-0.113	0.080
-726.908	-200.000	-0.019	0.322
-725.894	346.625	-0.028	0.055
-724.879	-83.657	0.141	0.045
-723.864	-200.000	-0.017	0.182
-722.850	134.695	-0.079	-0.103
-721.835	28.417	0.318	-0.271
-720.821	94.327	-0.114	-0.131
-719.806	502.899	0.064	-0.148
-718.791	120.842	0.277	0.348
-717.777	-183.507	-0.136	0.002
-716.762	582.571	0.060	0.147
-715.748	-103.511	-0.091	-0.022
-714.733	800.000	-0.022	-0.061
-713.718	-13.607	0.189	-0.124
-712.704	-69.433	0.175	0.068
-711.689	575.145	0.030	0.073
-710.675	353.715	-0.081	0.162
-709.660	-200.000	0.005	-0.423
-708.645	22.565	-0.126	-0.104
-707.631	107.711	0.317	0.381
-706.616	-123.741	-0.264	0.042
-705.602	-130.961	0.207	0.028
-704.587	-200.000	-0.004	-0.032
-703.572	-142.443	0.440	-0.044
-702.558	679.918	-0.123	0.323
-701.543	800.000	0.027	-0.088
-700.529	-200.000	-0.019	0.196
-699.514	-47.858	0.160	0.078
-698.499	-22.265	0.157	-0.096
-697.485	127.718	-0.098	-0.126
-696.470	47.547	0.064	-0.060
-695.456	171.290	0.089	-0.128
-694.441	-60.893	0.262	-0.111
-693.426	-9.087	0.398	-0.268
-692.412	123.089	-0.145	-0.182
-691.397	303.055	-0.170	-0.317
-690.383	205.767	0.034	0.053
-689.368	47.691	0.158	0.148
-688.354	124.715	-0.221	-0.280
-687.339	-36.692	-0.020	-0.011
-686.324	-200.000	-0.098	0.480
-685.310	800.000	-0.074	-0.296
-684.295	800.000	-0.047	-0.165
-683.281	-200.000	-0.012	-0.251
-682.266	-41.945	0.191	0.098
-681.251	-183.862	-0.200	-0.003
-680.237	-48.505	-0.327	0.158
-679.222	82.700	0.069	0.075
-678.208	-1.012	-0.246	-0.175
-677.193	-41.076	0.035	0.018
-676.178	800.000	0.045	-0.161
-675.164	32.868	0.215	-0.187
-674.149	45.678	0.299	-0.278
-673.135	-200.000	-0.012	-0.225
-672.120	28.262	-0.346	-0.294
-671.105	-45.698	-0.223	-0.111
-670.091	437.060	-0.108	-0.236
-669.076	174.101	0.100	0.145
-668.062	-80.589	-0.084	0.028
-667.047	-145.384	-0.044	0.004
-666.032	226.382	-0.157	0.257
-665.018	-61.483	0.299	0.127
-664.003	-121.020	-0.135	0.023
-662.989	800.000	0.061	0.176
-661.974	561.016	-0.087	-0.212
-660.959	45.742	-0.214	-0.199
-659.945	-25.780	-0.161	-0.096
-658.930	63.552	0.186	0.188
-657.916	508.212	0.104	0.242
-656.901	-200.000	-0.063	0.298
-655.886	800.000	0.029	-0.107
-654.872	-57.207	0.218	-0.096
-653.857	-34.357	-0.117	0.065
-652.843	193.106	-0.162	0.247
-651.828	-76.824	-0.145	-0.051
-650.814	-200.000	-0.014	-0.183
-649.799	800.000	-0.046	0.155
-648.784	11.539	0.260	-0.201
-647.770	4.305	-0.157	0.115
-646.755	38.590	0.154	-0.138
-645.741	147.984	-0.108	0.147
-644.726	800.000	0.074	0.272
-643.711	-200.000	-0.002	-0.123
-642.697	74.321	-0.061	-0.065
-641.682	-152.499	-0.129	0.009
-640.668	469.945	-0.030	-0.069
-639.653	42.328	0.265	-0.242
-638.638	-46.045	-0.194	0.096
-637.624	-159.344	-0.104	-0.006
-636.609	-103.261	0.198	0.047
-635.595	222.407	-0.061	-0.099
-634.580	-200.000	-0.060	0.374
-633.565	-200.000	-0.077	0.414
-632.551	-200.000	0.017	-0.083
-631.536	-69.385	-0.136	-0.052
-630.522	-200.000	0.032	-0.207
-629.507	-146.624	0.328	0.029
-628.492	400.689	0.063	-0.133
-627.478	155.475	-0.072	0.100
-626.463	-126.172	-0.498	0.075
-625.449	705.240	-0.072	0.192
-624.434	112.126	0.157	0.190
-623.419	119.528	-0.150	0.186
-622.405	-200.000	0.015	-0.189
-621.390	-83.122	-0.193	-0.062
-620.376	-14.145	-0.060	-0.039
-619.361	-17.324	0.191	0.121
-618.346	19.496	0.241	0.194
-617.332	56.912	0.055	-0.054
-616.317	-200.000	-0.049	-0.357
-615.303	-139.095	-0.289	0.031
-614.288	-200.000	0.005	-0.356
-613.273	-200.000	-0.032	0.151
-612.259	700.599	0.025	0.066
-611.244	120.018	0.280	-0.349
-610.230	-160.500	0.268	-0.014
-609.215	286.406	-0.138	-0.251
-608.201	800.000	0.104	-0.333
-607.186	6.716	0.032	0.024
-606.171	-70.944	0.445	-0.168
-605.157	79.945	-0.169	-0.182
-604.142	154.040	-0.153	-0.210
-603.128	147.823	0.313	0.423
-602.113	-200.000	-0.026	-0.502
-601.098	61.825	-0.012	-0.012
-600.084	161.418	-0.131	-0.184
-599.069	-123.939	0.144	-0.023
-598.055	77.244	-0.211	0.225
-597.040	548.723	-0.076	-0.183
-596.025	-87.437	0.091	0.028
-595.011	-49.544	0.235	0.112
-593.996	-7.111	-0.238	0.162
-592.982	384.276	-0.065	-0.134
-591.967	-111.729	-0.248	-0.050
-590.952	32.481	0.153	0.132
-589.938	-200.000	0.022	0.155
-588.923	-121.721	0.327	-0.054
-587.909	-200.000	0.047	-0.216
-586.894	53.416	-0.144	0.138
-585.879	218.578	0.064	0.103
-584.865	438.680	0.046	0.101
-583.850	-200.000	0.029	-0.301
-582.836	-200.000	-0.032	0.217
-581.821	162.239	-0.189	0.266
-580.806	493.877	-0.023	-0.053
-579.792	-200.000	0.015	-0.211
-578.777	-200.000	-0.012	0.054
-577.763	-23.549	-0.284	-0.171
-576.748	-200.000	0.009	-0.152
-575.733	392.301	0.042	-0.087
-574.719	76.901	-0.189	0.201
-573.704	-48.366	0.167	0.081
-572.690	160.768	-0.188	0.263
-571.675	-119.969	0.122	0.021
-570.661	369.635	0.050	0.101
-569.646	3.904	0.045	-0.033
-568.631	-47.115	-0.057	-0.028
-567.617	-123.486	0.338	0.054
-566.602	110.251	-0.064	-0.076
-565.588	618.916	0.058	-0.146
-564.573	-200.000	-0.003	-0.255
-563.558	-200.000	-0.030	0.550
-562.544	-200.000	0.007	0.262
-561.529	-80.209	0.351	-0.117
-560.515	-200.000	0.007	-0.186
-559.500	800.000	-0.082	-0.237
-558.485	-41.495	-0.252	-0.130
-557.471	401.802	0.054	-0.113
-556.456	-200.000	0.022	0.193
-555.442	-200.000	-0.086	-0.396
-554.427	-200.000	-0.044	0.238
-553.412	-200.000	0.007	0.199
-552.398	-200.000	-0.028	-0.179
-551.383	-81.170	-0.196	-0.065
-550.369	218.427	0.106	0.170
-549.354	581.872	0.097	-0.238
-548.339	246.191	0.178	0.300
-547.325	8.995	-0.280	0.212
-546.310	67.413	-0.155	0.158
-545.296	-11.237	0.120	0.079
-544.281	529.303	0.107	0.252
-543.266	95.101	-0.125	-0.143
-542.252	176.238	0.178	-0.259
-541.237	4.141	-0.282	0.206
-540.223	-23.873	-0.335	-0.200
-539.208	800.000	-0.060	0.169
-538.193	249.146	-0.088	-0.150
-537.179	800.000	0.082	0.232
-536.164	148.691	0.127	0.172
-535.150	750.380	-0.102	0.276
-534.135	-10.342	0.257	-0.171
-533.121	-57.801	0.119	-0.052
-532.106	800.000	0.043	0.119
-531.091	-118.072	-0.321	0.057
-530.077	214.626	-0.146	-0.232
-529.062	-200.000	-0.067	-0.300
-528.048	-126.387	0.131	0.020
-527.033	-97.846	-0.321	-0.083
-526.018	-70.888	0.169	0.064
-525.004	129.873	-0.142	0.182
-523.989	164.776	-0.155	0.218
-522.975	-108.567	0.166	-0.036
-521.960	-200.000	0.008	0.294
-520.945	30.747	0.149	0.128
-519.931	-112.648	0.204	-0.041
-518.916	226.725	-0.109	0.177
-517.902	118.986	0.064	-0.079
-516.887	153.781	-0.044	0.060
-515.872	-28.828	-0.397	0.228
-514.858	-200.000	0.000	0.119
-513.843	382.505	-0.096	-0.198
-512.829	202.063	0.083	-0.128
-511.814	281.139	-0.172	0.307
-510.799	-42.347	0.155	-0.079
-509.785	144.336	0.129	0.172
-508.770	800.000	-0.018	-0.062
-507.756	563.890	0.182	-0.439
-506.741	-105.362	-0.326	-0.074
-505.726	112.308	-0.228	-0.276
-504.712	-21.316	0.351	0.214
-503.697	-200.000	0.006	0.112
-502.683	-185.870	0.439	0.007
-501.668	403.227	-0.122	-0.256
-500.653	-200.000	0.011	-0.162
-499.639	-103.103	-0.250	-0.059
-498.624	74.493	-0.097	0.102
-497.610	-200.000	0.003	-0.181
-496.595	800.000	-0.049	0.166
-495.581	-111.558	0.199	-0.040
-494.566	-35.052	-0.026	-0.014
-493.551	-116.980	-0.510	0.093
-492.537	-144.401	0.218	0.020
-491.522	334.006	-0.082	-0.159
-490.508	25.825	0.216	0.179
-489.493	-200.000	-0.014	0.132
-488.478	237.463	0.205	0.340
-487.464	-110.755	0.084	-0.017
-486.449	-114.071	-0.143	-0.028
-485.435	800.000	0.064	0.198
-484.420	-44.450	-0.191	0.095
-483.405	269.537	-0.109	0.191
-482.391	-200.000	-0.082	0.413
-481.376	-51.826	-0.023	0.011
-480.362	-22.308	-0.129	-0.078
-479.347	-3.058	-0.216	-0.150
-478.332	-139.556	-0.232	0.025
-477.318	-200.000	-0.009	0.100
-476.303	-15.806	0.235	0.150
-475.289	-160.240	0.318	0.017
-474.274	68.134	0.262	-0.267
-473.259	-65.064	-0.243	-0.098
-472.245	25.887	0.137	0.114
-471.230	109.302	0.190	-0.227
-470.216	187.690	-0.045	0.066
-469.201	-94.711	-0.605	0.164
-468.186	328.348	0.023	-0.043
-467.172	-200.000	0.024	0.107
-466.157	134.344	0.091	0.118
-465.143	30.236	0.107	0.091
-464.128	204.122	0.035	-0.054
-463.113	-200.000	0.001	-0.062
-462.099	-99.282	0.166	-0.042
-461.084	112.084	0.111	0.133
-460.070	-145.149	0.301	-0.027
-459.055	82.319	0.116	0.125
-458.040	-116.091	-0.244	-0.045
-457.026	457.991	-0.072	-0.159
-456.011	800.000	-0.110	-0.328
-454.997	709.251	0.125	-0.329
-453.982	-200.000	-0.009	0.286
-452.968	165.051	0.095	-0.134
-451.953	-200.000	0.026	-0.287
-450.938	-200.000	-0.003	0.140
-449.924	-200.000	0.001	-0.336
-448.909	139.871	0.031	0.041
-447.895	-149.600	0.236	-0.019
-446.880	-200.000	0.007	-0.064
-445.865	229.769	-0.162	-0.264
-444.851	-200.000	0.018	-0.336
-443.836	-90.184	-0.196	-0.057
-442.822	-200.000	-0.002	-0.071
-441.807	-69.490	-0.025	-0.010
-440.792	800.000	-0.090	-0.252
-439.778	-86.479	0.215	0.066
-438.763	-200.000	0.033	-0.162
-437.749	-200.000	0.006	-0.070
-436.734	429.932	0.119	0.256
-435.719	-200.000	-0.067	0.330
-434.705	43.350	0.259	0.236
-433.690	-34.951	-0.419	-0.228
-432.676	464.993	0.073	0.163
-431.661	-94.690	-0.249	0.067
-430.646	-200.000	0.030	0.227
-429.632	125.172	-0.079	0.099
-428.617	-200.000	0.023	0.225
-427.603	-33.037	0.240	-0.132
-426.588	14.849	0.323	-0.252
-425.573	244.261	0.146	0.244
-424.559	-28.241	-0.288	-0.165
-423.544	129.013	-0.127	-0.161
-422.530	255.707	0.028	-0.048
-421.515	-146.353	-0.356	-0.031
-420.500	-71.510	0.271	0.101
-419.486	-200.000	0.004	0.195
-418.471	102.252	-0.263	0.306
-417.457	103.290	0.212	0.247
-416.442	359.873	0.073	-0.145
-415.428	119.516	0.118	-0.145
-414.413	800.000	-0.077	0.310
-413.398	-2.092	0.132	-0.092
-412.384	-127.858	0.196	-0.028
-411.369	-200.000	-0.013	0.143
-410.355	800.000	0.099	-0.368
-409.340	-166.465	0.142	-0.006
-408.325	-81.444	-0.038	0.013
-407.311	451.132	0.142	-0.311
-406.296	-159.033	-0.314	-0.018
-405.282	212.415	-0.193	0.303
-404.267	539.073	-0.069	0.163
-403.252	239.430	-0.139	-0.231
-402.238	-200.000	0.016	0.291
-401.223	800.000	-0.041	-0.153
-400.209	38.822	-0.181	-0.161
-399.194	317.059	-0.071	-0.134
-398.179	-95.706	-0.181	0.048
-397.165	-118.279	0.345	-0.061
-396.150	13.910	-0.123	-0.095
-395.136	-129.283	0.350	-0.049
-394.121	103.268	-0.100	-0.116
-393.106	77.359	0.350	-0.370
-392.092	159.362	0.107	-0.149
-391.077	-79.089	0.239	0.081
-390.063	-180.514	-0.243	0.005
-389.048	227.011	-0.048	-0.078
-388.033	579.367	-0.036	0.088
-387.019	-62.099	-0.216	0.090
-386.004	36.108	0.153	-0.134
-384.990	270.364	0.123	-0.214
-383.975	20.467	-0.125	0.101
-382.960	-200.000	-0.047	0.313
-381.946	-58.353	-0.131	0.056
-380.931	-200.000	0.016	-0.304
-379.917	-200.000	0.035	0.163
-378.902	113.979	0.163	0.197
-377.888	800.000	-0.080	-0.301
-376.873	51.734	0.199	0.188
-375.858	5.271	-0.082	-0.060
-374.844	279.188	-0.096	0.170
-373.829	437.486	-0.109	-0.236
-372.815	-200.000	-0.016	-0.295
-371.800	-152.697	0.310	0.022
-370.785	-57.567	-0.386	0.168
-369.771	-6.031	0.107	-0.073
-368.756	230.683	0.133	0.216
-367.742	76.722	0.088	0.092
-366.727	-36.677	-0.287	-0.153
-365.712	111.152	-0.263	-0.314
-364.698	-129.430	-0.187	-0.026
-363.683	-77.203	-0.010	-0.003
-362.669	43.441	-0.205	0.186
-361.654	38.921	0.122	-0.108
-360.639	6.485	-0.148	0.109
-359.625	178.475	0.065	-0.094
-358.610	45.894	-0.134	0.123
-357.596	289.385	0.042	-0.075
-356.581	97.500	-0.081	0.092
-355.566	-165.049	0.093	0.004
-354.552	136.491	-0.082	-0.106
-353.537	50.906	-0.023	-0.022
-352.523	-200.000	0.050	-0.331
-351.508	509.498	0.060	-0.138
-350.493	-200.000	-0.052	0.260
-349.479	-8.667	-0.233	0.155
-348.464	-115.099	0.429	0.081
-347.450	12.293	0.176	-0.134
-346.435	161.663	-0.051	0.071
-345.420	-43.792	-0.143	0.071
-344.406	-84.121	0.146	-0.046
-343.391	-66.139	-0.137	0.054
-342.377	-27.885	-0.125	-0.072
-341.362	-119.783	0.146	-0.025
-340.348	-200.000	-0.011	0.071
-339.333	425.014	-0.026	0.055
-338.318	190.327	-0.117	0.174
-337.304	-85.716	0.165	0.051
-336.289	92.302	0.143	0.160
-335.275	-65.069	-0.080	0.032
-334.260	40.139	-0.114	0.102
-333.245	272.662	0.070	0.122
-332.231	-165.639	0.165	-0.007
-331.216	40.489	0.243	-0.217
-330.202	48.714	-0.267	0.249
-329.187	-166.270	0.229	0.010
-328.172	75.669	-0.049	-0.051
-327.158	93.829	-0.143	-0.161
-326.143	547.334	-0.176	0.417
-325.129	276.263	0.088	-0.156
-324.114	-176.982	-0.089	-0.002
-323.099	-125.321	0.203	-0.031
-322.085	115.307	-0.108	0.131
-321.070	99.726	-0.042	0.048
-320.056	88.883	0.066	0.073
-319.041	-200.000	0.003	-0.324
-318.026	223.777	-0.256	0.410
-317.012	424.867	-0.158	0.338
-315.997	800.000	0.120	-0.338
-314.983	-146.444	-0.188	0.016
-313.968	425.568	0.031	0.066
-312.953	-200.000	0.010	-0.203
-311.939	155.755	0.055	-0.075
-310.924	-200.000	-0.003	0.238
-309.910	-144.988	-0.338	-0.031
-308.895	-135.154	-0.060	-0.007
-307.880	-157.462	-0.249	-0.015
-306.866	800.000	-0.045	-0.128
-305.851	249.180	0.229	-0.385
-304.837	89.297	0.167	-0.184
-303.822	-200.000	-0.003	0.021
-302.807	-46.997	0.220	0.106
-301.793	-140.501	-0.278	-0.029
-300.778	200.256	-0.060	0.091
-299.764	142.556	0.062	0.082
-298.749	503.116	0.086	-0.196
-297.735	-67.712	-0.130	0.051
-296.720	800.000	-0.053	0.182
-295.705	-200.000	0.036	-0.221
-294.691	267.043	0.059	0.102
-293.676	-166.580	-0.219	-0.009
-292.662	-200.000	0.011	0.207
-291.647	-200.000	0.025	0.190
-290.632	508.793	0.190	-0.437
-289.618	37.110	-0.101	-0.089
-288.603	-104.294	0.196	0.045
-287.589	-46.012	0.332	0.162
-286.574	-139.581	-0.141	0.015
-285.559	800.000	0.033	-0.138
-284.545	581.838	0.094	0.228
-283.530	-200.000	0.032	-0.160
-282.516	-85.971	0.116	-0.036
-281.501	-200.000	0.015	0.098
-280.486	800.000	0.062	0.235
-279.472	351.093	-0.104	-0.204
-278.457	51.435	-0.119	0.112
-277.443	-200.000	-0.061	-0.441
-276.428	-101.382	0.280	0.068
-275.413	126.357	-0.145	0.181
-274.399	107.260	-0.144	-0.169
-273.384	-104.055	0.363	0.084
-272.370	3.642	-0.138	-0.100
-271.355	546.974	0.088	0.208
-270.340	-111.923	-0.279	-0.056
-269.326	21.306	0.236	0.189
-268.311	-200.000	-0.034	-0.312
-267.297	-200.000	0.032	0.242
-266.282	60.836	-0.159	0.156
-265.267	205.520	-0.101	-0.155
-264.253	-158.505	0.334	0.019
-263.238	-200.000	0.002	0.038
-262.224	181.046	0.174	-0.253
-261.209	-156.933	-0.409	0.025
-260.195	571.175	-0.080	-0.193
-259.180	91.753	0.061	-0.067
-258.165	800.000	-0.045	0.180
-257.151	44.350	0.196	0.178
-256.136	-70.713	-0.233	0.087
-255.122	96.266	0.263	-0.298
-254.107	-38.957	0.315	-0.164
-253.092	-200.000	0.024	0.190
-252.078	97.455	-0.062	0.071
-251.063	-200.000	0.044	-0.259
-250.049	-97.234	0.069	0.018
-249.034	-183.328	0.017	0.000
-248.019	-104.513	-0.074	0.017
-247.005	800.000	0.009	0.036
-245.990	48.236	-0.111	-0.103
-244.976	-131.928	0.209	-0.027
-243.961	-13.800	-0.087	-0.056
-242.946	224.915	0.143	0.228
-241.932	-139.386	0.186	-0.020
-240.917	-115.259	0.228	-0.043
-239.903	-35.681	-0.245	-0.131
-238.888	31.484	-0.276	0.234
-237.873	-34.774	0.253	0.137
-236.859	393.366	-0.056	-0.115
-235.844	777.563	0.067	-0.182
-234.830	-70.527	0.224	-0.084
-233.815	-116.899	0.244	0.044
-232.800	-106.326	0.098	-0.022
-231.786	33.944	0.188	-0.162
-230.771	171.080	-0.103	-0.146
-229.757	490.160	0.083	-0.187
-228.742	-65.513	-0.116	0.046
-227.727	135.177	0.243	0.312
-226.713	111.719	0.105	-0.126
-225.698	-90.770	-0.079	-0.023
-224.684	-73.561	0.152	-0.055
-223.669	3.410	-0.260	-0.187
-222.655	140.633	-0.144	0.188
-221.640	-200.000	-0.002	0.137
-220.625	-71.415	-0.134	0.049
-219.611	-61.303	-0.177	0.074
-218.596	-200.000	-0.043	0.371
-217.582	30.677	-0.020	-0.017
-216.567	-83.839	-0.070	-0.022
-215.552	800.000	-0.007	-0.023
-214.538	800.000	-0.051	0.156
-213.523	-200.000	-0.018	0.410
-212.509	170.701	-0.054	-0.076
-211.494	-6.498	-0.147	-0.099
-210.479	-83.890	0.081	-0.026
-209.465	-61.292	-0.070	-0.029
-208.450	-15.177	0.117	-0.074
-207.436	159.006	-0.137	0.188
-206.421	800.000	-0.040	0.121
-205.406	800.000	-0.045	-0.136
-204.392	-200.000	0.041	-0.238
-203.377	297.221	0.156	0.282
-202.363	-94.697	-0.592	0.159
-201.348	52.327	-0.143	-0.135
-200.333	97.266	0.129	-0.147
-199.319	-134.307	0.217	0.026
-198.304	-200.000	0.005	-0.169
-197.290	800.000	0.028	-0.107
-196.275	135.040	0.230	0.295
-195.260	415.754	-0.111	-0.234
-194.246	800.000	-0.132	-0.409
-193.231	14.758	-0.045	0.035
-192.217	-54.969	-0.153	0.068
-191.202	1.875	-0.146	0.104
-190.187	-153.603	0.026	-0.002
-189.173	800.000	0.018	0.054
-188.158	56.283	-0.144	0.138
-187.144	680.565	0.050	0.129
-186.129	-4.032	-0.193	0.132
-185.114	-200.000	-0.019	0.137
-184.100	800.000	-0.026	0.074
-183.085	507.917	-0.046	-0.105
-182.071	36.424	-0.280	-0.244
-181.056	-21.354	0.329	0.198
-180.042	301.727	-0.090	-0.164
-179.027	163.708	0.153	-0.213
-178.012	-200.000	0.051	0.286
-176.998	-22.111	-0.202	-0.121
-175.983	-200.000	0.003	0.160
-174.969	-98.439	-0.141	0.036
-173.954	392.094	0.063	0.130
-172.939	-200.000	-0.055	0.679
-171.925	-138.582	0.321	-0.035
-170.910	74.880	0.180	-0.187
-169.896	287.529	0.069	-0.123
-168.881	-200.000	-0.042	-0.264
-167.866	-200.000	-0.031	-0.355
-166.852	198.952	0.072	-0.108
-165.837	-200.000	-0.057	0.310
-164.823	-66.714	0.318	-0.124
-163.808	-80.263	-0.210	-0.069
-162.793	140.319	-0.102	-0.132
-161.779	-200.000	-0.002	0.048
-160.764	800.000	0.011	-0.039
-159.750	76.419	0.174	0.182
-158.735	-74.793	0.183	-0.065
-157.720	-193.706	0.266	-0.002
-156.706	-200.000	-0.023	0.133
-155.691	95.318	0.063	-0.070
-154.677	33.702	-0.129	0.111
-153.662	609.659	0.101	-0.248
-152.647	-187.298	0.215	-0.003
-151.633	50.533	0.094	-0.087
-150.618	135.440	0.214	-0.274
-149.604	800.000	-0.022	-0.095
-148.589	360.391	-0.109	0.215
-147.574	18.349	-0.235	0.185
-146.560	-11.254	0.206	-0.134
-145.545	-80.778	-0.474	-0.155
-144.531	800.000	0.103	-0.301
-143.516	-200.000	-0.020	0.147
-142.502	125.746	0.033	0.041
-141.487	27.394	0.174	-0.144
-140.472	48.877	-0.209	0.194
-139.458	-200.000	0.005	-0.100
-138.443	-132.457	0.229	0.029
-137.429	418.210	-0.121	0.255
-136.414	67.185	0.134	-0.135
-135.399	-54.319	0.199	-0.089
-134.385	227.077	0.189	0.303
-133.370	50.572	0.149	0.139
-132.356	-9.585	0.133	-0.087
-131.341	29.690	-0.262	0.220
-130.326	-117.711	0.212	0.038
-129.312	-74.929	-0.177	0.062
-128.297	136.988	-0.122	-0.157
-127.283	508.095	0.135	0.308
-126.268	4.091	-0.036	-0.026
-125.253	194.842	-0.198	0.296
-124.239	34.977	0.134	0.116
-123.224	-10.759	-0.201	-0.131
-122.210	135.196	0.166	0.213
-121.195	-63.486	0.307	-0.124
