DTS Sentinel unit serial number:	SN413079Multiplexer serial number:	ORYXHardware model number:	OX4-SRSoftware version number:	ORYX F/W v4.00 Oryx Data Collector v3.7.2.0data status	okinstallation	princeton_trtdifferential loss correction	single-endedforward channel	channel 2reverse channel	N/Adate	2019/09/11time	17:41:11forward acquisition time	60.00reverse acquisition time	0.00gamma	496.2192k internal	0.2284k external	0.2284temperature offset calibration	1.0021default loss term (dB/km)	0.3790temperature slope calibration	1.0000multiplexer offset coefficient	1.0000multiplexer slope coefficient	1.0000fibre end	0.00T internal ref (°C)	43.83T ext. ref 1 (°C)	1.10T ext. ref 2 (°C)	39.08length (m)	temperature (°C)	Stokes	anti-Stokes-747.200	-59.283	-0.352	0.156
-746.185	-54.273	0.104	0.049
-745.171	357.442	0.051	-0.105
-744.156	103.059	-0.379	0.457
-743.142	133.918	0.157	0.209
-742.127	22.301	-0.386	0.324
-741.112	-200.000	0.070	0.381
-740.098	667.451	-0.042	0.111
-739.083	-33.340	0.183	-0.104
-738.069	-6.039	-0.093	0.065
-737.054	-200.000	0.006	0.040
-736.039	-119.369	-0.046	-0.008
-735.025	121.437	-0.156	0.199
-734.010	-62.519	-0.193	0.082
-732.996	-115.249	-0.241	0.047
-731.981	-169.415	-0.594	0.022
-730.966	296.644	0.092	0.173
-729.952	-34.710	0.230	0.129
-728.937	36.855	-0.028	0.025
-727.923	-122.202	-0.114	-0.019
-726.908	95.593	0.419	0.491
-725.894	-44.924	-0.278	-0.142
-724.879	-200.000	-0.060	-0.333
-723.864	-63.921	0.146	-0.061
-722.850	390.393	0.062	-0.132
-721.835	-200.000	-0.011	0.323
-720.821	8.496	0.086	-0.067
-719.806	705.850	-0.070	-0.189
-718.791	-31.108	0.071	-0.041
-717.777	25.675	-0.324	-0.277
-716.762	619.160	-0.076	-0.196
-715.748	-176.399	-0.382	-0.010
-714.733	-35.878	-0.222	-0.123
-713.718	289.720	0.120	-0.224
-712.704	28.822	-0.259	-0.225
-711.689	61.031	-0.123	0.125
-710.675	212.980	0.107	-0.173
-709.660	364.085	-0.010	-0.021
-708.645	-84.816	-0.079	-0.025
-707.631	-170.716	0.095	0.003
-706.616	-200.000	0.001	0.192
-705.602	-200.000	0.032	-0.166
-704.587	-92.525	-0.254	-0.073
-703.572	36.771	-0.255	-0.231
-702.558	65.942	-0.222	0.231
-701.543	100.006	0.072	0.085
-700.529	274.427	-0.167	-0.302
-699.514	437.206	0.035	-0.079
-698.499	164.851	-0.175	-0.253
-697.485	-60.360	-0.035	-0.015
-696.470	-200.000	0.002	0.050
-695.456	-90.879	-0.081	-0.024
-694.441	-158.411	0.033	0.002
-693.426	-110.933	0.302	-0.064
-692.412	-110.150	0.152	-0.032
-691.397	-200.000	-0.027	-0.248
-690.383	26.084	0.149	-0.127
-689.368	-93.376	0.241	-0.068
-688.354	-200.000	0.019	-0.100
-687.339	373.763	0.104	-0.216
-686.324	230.216	0.037	0.063
-685.310	219.697	-0.107	-0.175
-684.295	162.602	0.059	-0.085
-683.281	134.725	0.109	-0.145
-682.266	-105.211	-0.252	0.059
-681.251	69.315	-0.225	0.237
-680.237	-15.189	-0.327	0.215
-679.222	800.000	-0.029	0.103
-678.208	-139.882	0.255	0.028
-677.193	166.704	-0.029	-0.043
-676.178	-54.325	-0.040	0.019
-675.164	147.778	0.048	0.066
-674.149	-79.941	-0.141	-0.048
-673.135	-85.974	-0.059	0.019
-672.120	-58.388	-0.071	-0.031
-671.105	-200.000	-0.044	-0.206
-670.091	330.073	0.065	0.128
-669.076	-111.965	0.184	0.038
-668.062	-123.535	-0.075	0.012
-667.047	210.527	-0.179	0.288
-666.032	492.142	0.144	0.339
-665.018	-200.000	-0.011	0.144
-664.003	-200.000	-0.027	0.148
-662.989	-85.234	-0.132	0.042
-661.974	800.000	-0.064	-0.246
-660.959	255.033	0.045	-0.078
-659.945	550.954	0.057	0.141
-658.930	112.617	-0.205	0.255
-657.916	-121.725	0.031	0.005
-656.901	27.104	-0.173	0.148
-655.886	-88.099	-0.332	0.102
-654.872	-200.000	0.022	-0.155
-653.857	155.397	-0.094	0.132
-652.843	49.065	-0.368	0.354
-651.828	-200.000	0.002	0.322
-650.814	-92.553	-0.182	0.052
-649.799	-200.000	0.041	0.323
-648.784	-14.625	-0.043	-0.028
-647.770	21.900	-0.134	0.111
-646.755	-48.302	-0.208	-0.102
-645.741	1.240	-0.170	0.125
-644.726	116.209	0.168	0.211
-643.711	395.111	-0.155	-0.332
-642.697	-128.286	0.238	0.035
-641.682	-114.866	-0.154	-0.030
-640.668	149.922	-0.069	0.096
-639.653	266.427	-0.113	-0.202
-638.638	56.719	0.069	-0.069
-637.624	-188.179	-0.133	-0.002
-636.609	174.105	0.021	0.030
-635.595	90.668	-0.247	0.283
-634.580	-156.468	0.302	0.019
-633.565	-200.000	-0.003	-0.181
-632.551	-82.988	-0.111	-0.037
-631.536	14.967	0.040	0.032
-630.522	-140.830	0.316	-0.033
-629.507	-200.000	-0.004	-0.055
-628.492	83.920	0.184	0.206
-627.478	13.515	0.131	-0.104
-626.463	-35.660	-0.223	0.124
-625.449	19.760	0.244	0.201
-624.434	800.000	0.080	-0.273
-623.419	188.969	-0.153	-0.233
-622.405	3.359	0.228	-0.169
-621.390	107.164	-0.159	-0.193
-620.376	-47.016	-0.191	0.096
-619.361	669.800	0.182	-0.482
-618.346	23.649	-0.118	0.099
-617.332	95.485	-0.150	-0.175
-616.317	177.525	-0.180	-0.268
-615.303	800.000	-0.037	-0.134
-614.288	-120.770	-0.200	-0.035
-613.273	-200.000	0.065	-0.426
-612.259	-8.946	-0.079	0.054
-611.244	55.261	0.419	-0.414
-610.230	32.419	-0.073	-0.065
-609.215	99.566	-0.146	-0.172
-608.201	-5.021	-0.305	0.215
-607.186	-134.899	-0.416	-0.051
-606.171	-200.000	-0.012	-0.209
-605.157	-200.000	-0.007	-0.226
-604.142	71.640	0.092	-0.098
-603.128	497.677	-0.095	0.223
-602.113	524.895	-0.103	0.246
-601.098	-46.988	0.364	0.182
-600.084	-65.407	-0.200	0.082
-599.069	-129.147	0.239	-0.034
-598.055	-57.797	-0.041	0.018
-597.040	-33.552	0.088	-0.050
-596.025	-200.000	0.014	0.124
-595.011	800.000	0.008	-0.029
-593.996	-141.850	0.130	0.013
-592.982	-93.168	0.146	0.041
-591.967	137.303	-0.361	-0.482
-590.952	800.000	-0.113	0.404
-589.938	-28.183	-0.380	-0.224
-588.923	54.862	-0.079	-0.078
-587.909	-200.000	0.010	0.093
-586.894	143.325	-0.107	-0.146
-585.879	-40.968	-0.079	-0.041
-584.865	236.237	0.113	0.191
-583.850	-161.259	-0.197	-0.010
-582.836	28.601	0.254	0.219
-581.821	-173.949	0.145	-0.004
-580.806	57.104	-0.150	-0.150
-579.792	160.955	-0.026	-0.037
-578.777	-200.000	0.046	0.228
-577.763	-200.000	0.085	-0.406
-576.748	-200.000	-0.574	0.000
-575.733	-200.000	-0.044	-0.400
-574.719	-70.143	-0.223	-0.087
-573.704	41.678	0.326	-0.301
-572.690	800.000	0.093	-0.311
-571.675	-15.583	-0.239	0.156
-570.661	24.956	0.049	-0.041
-569.646	57.617	0.102	-0.101
-568.631	-200.000	-0.016	0.114
-567.617	290.152	-0.014	-0.025
-566.602	-200.000	0.002	0.102
-565.588	53.026	-0.169	-0.165
-564.573	355.017	0.097	0.196
-563.558	800.000	0.044	0.132
-562.544	-44.634	-0.205	0.104
-561.529	800.000	0.033	-0.110
-560.515	-21.209	0.040	-0.025
-559.500	800.000	-0.044	0.184
-558.485	800.000	-0.011	-0.031
-557.471	-27.513	-0.036	0.021
-556.456	152.608	-0.100	-0.139
-555.442	800.000	-0.015	-0.044
-554.427	-116.626	-0.325	0.061
-553.412	-130.738	0.331	-0.045
-552.398	-200.000	-0.005	-0.208
-551.383	800.000	0.112	-0.325
-550.369	-200.000	-0.051	-0.332
-549.354	756.005	0.022	0.060
-548.339	-200.000	-0.048	0.251
-547.325	-152.977	-0.158	-0.011
-546.310	-161.853	0.136	0.007
-545.296	800.000	-0.014	-0.064
-544.281	56.184	0.174	0.172
-543.266	584.940	-0.053	-0.133
-542.252	-200.000	-0.053	-0.000
-541.237	-50.830	-0.304	0.146
-540.223	186.721	-0.067	-0.101
-539.208	-9.320	0.246	-0.167
-538.193	800.000	0.078	-0.233
-537.179	87.182	-0.019	0.021
-536.164	-104.379	0.273	0.064
-535.150	-200.000	0.011	0.126
-534.135	-102.098	-0.349	-0.086
-533.121	122.606	-0.209	0.267
-532.106	275.524	0.159	0.288
-531.091	800.000	-0.081	-0.320
-530.077	20.299	0.347	-0.286
-529.062	124.140	0.061	0.078
-528.048	-67.046	0.264	0.106
-527.033	-113.603	-0.126	-0.025
-526.018	-61.261	0.130	-0.056
-525.004	-29.929	0.118	0.069
-523.989	3.512	-0.290	0.215
-522.975	800.000	0.054	-0.164
-521.960	-200.000	-0.005	-0.220
-520.945	470.252	0.022	0.051
-519.931	-55.434	0.217	0.099
-518.916	638.933	-0.129	0.333
-517.902	81.089	-0.101	0.112
-516.887	628.826	0.057	-0.146
-515.872	125.062	-0.163	0.209
-514.858	800.000	0.050	-0.201
-513.843	724.869	0.096	-0.262
-512.829	667.057	-0.097	-0.255
-511.814	-106.511	0.230	0.052
-510.799	-36.389	0.249	-0.137
-509.785	-86.864	0.247	0.077
-508.770	-54.962	-0.033	0.015
-507.756	-200.000	-0.164	0.000
-506.741	-85.191	-0.056	-0.018
-505.726	-106.675	-0.148	0.033
-504.712	-7.235	0.072	0.050
-503.697	142.380	-0.155	-0.209
-502.683	183.380	0.061	0.091
-501.668	-184.813	0.406	0.007
-500.653	85.573	0.211	-0.235
-499.639	800.000	-0.067	0.211
-498.624	-200.000	0.040	-0.207
-497.610	441.361	0.141	-0.315
-496.595	42.460	0.075	-0.070
-495.581	-200.000	-0.011	0.155
-494.566	22.705	-0.227	-0.189
-493.551	181.070	0.217	0.325
-492.537	-200.000	0.002	0.018
-491.522	-2.014	-0.322	-0.230
-490.508	209.335	-0.148	0.235
-489.493	-200.000	-0.034	-0.317
-488.478	-186.270	0.227	0.003
-487.464	-40.394	0.180	0.095
-486.449	-140.040	-0.457	0.049
-485.435	-30.758	-0.257	-0.148
-484.420	40.241	0.272	-0.249
-483.405	-39.993	0.110	-0.058
-482.391	-187.063	0.101	0.001
-481.376	-200.000	0.009	0.114
-480.362	-200.000	-0.001	0.242
-479.347	-85.753	0.186	0.059
-478.332	-200.000	0.025	0.119
-477.318	800.000	0.041	-0.160
-476.303	355.419	0.091	-0.183
-475.289	4.533	0.248	-0.185
-474.274	343.113	-0.166	-0.331
-473.259	800.000	0.024	-0.076
-472.245	183.059	-0.060	0.089
-471.230	51.526	-0.209	0.202
-470.216	-109.484	0.112	0.024
-469.201	421.019	-0.127	0.276
-468.186	188.473	0.106	0.161
-467.172	-32.069	0.026	0.015
-466.157	42.028	0.190	0.175
-465.143	-13.516	0.076	-0.050
-464.128	-121.161	-0.225	0.038
-463.113	6.259	-0.127	0.095
-462.099	-53.588	0.247	0.115
-461.084	2.719	0.064	0.047
-460.070	-200.000	-0.002	-0.295
-459.055	-67.213	0.116	0.047
-458.040	123.863	0.150	-0.191
-457.026	574.744	-0.049	0.122
-456.011	175.890	-0.101	-0.149
-454.997	-120.544	0.493	0.085
-453.982	-107.108	0.125	0.028
-452.968	800.000	-0.055	0.163
-451.953	-165.944	0.244	0.011
-450.938	-200.000	-0.019	-0.212
-449.924	-96.767	0.104	-0.028
-448.909	-110.025	0.147	-0.031
-447.895	377.201	-0.117	-0.242
-446.880	162.071	0.136	-0.193
-445.865	197.189	-0.080	0.124
-444.851	800.000	-0.117	0.465
-443.836	-17.711	0.073	0.047
-442.822	482.360	-0.143	-0.329
-441.807	-59.965	-0.253	-0.110
-440.792	-200.000	-0.023	-0.320
-439.778	-200.000	-0.040	-0.225
-438.763	800.000	0.016	-0.056
-437.749	-71.205	0.128	0.049
-436.734	249.599	0.101	-0.174
-435.719	-200.000	0.025	0.145
-434.705	-200.000	-0.013	0.071
-433.690	-79.337	0.241	-0.083
-432.676	235.069	-0.163	0.273
-431.661	47.714	-0.120	0.114
-430.646	800.000	-0.069	-0.289
-429.632	191.109	0.156	-0.238
-428.617	-40.124	-0.273	-0.144
-427.603	13.732	0.032	-0.025
-426.588	-200.000	-0.005	-0.237
-425.573	-200.000	0.009	-0.358
-424.559	588.711	-0.014	0.035
-423.544	169.408	-0.090	0.130
-422.530	-200.000	-0.013	-0.125
-421.515	-194.523	-0.376	-0.003
-420.500	-52.222	-0.210	-0.099
-419.486	-91.124	0.057	0.017
-418.471	-22.813	-0.301	0.184
-417.457	138.434	0.134	0.178
-416.442	304.509	-0.099	0.186
-415.428	-83.506	-0.520	-0.169
-414.413	183.538	-0.068	0.102
-413.398	-200.000	-0.065	-0.475
-412.384	-13.936	0.447	-0.293
-411.369	60.321	0.199	0.199
-410.355	0.269	-0.340	-0.246
-409.340	800.000	0.102	-0.288
-408.325	-11.999	0.117	-0.077
-407.311	47.593	0.177	-0.167
-406.296	-9.856	-0.120	-0.081
-405.282	7.795	-0.142	0.108
-404.267	507.437	-0.063	-0.148
-403.252	-56.568	0.269	-0.121
-402.238	-200.000	-0.073	0.386
-401.223	-8.265	-0.310	0.211
-400.209	800.000	-0.149	-0.469
-399.194	-132.274	-0.131	-0.017
-398.179	20.960	-0.226	0.186
-397.165	-143.986	-0.222	0.021
-396.150	-200.000	-0.040	-0.194
-395.136	-98.817	-0.292	0.075
-394.121	4.071	0.102	0.075
-393.106	183.654	-0.132	0.198
-392.092	-173.701	-0.272	0.008
-391.077	-125.477	-0.146	-0.022
-390.063	202.209	0.128	0.200
-389.048	-96.445	-0.149	-0.040
-388.033	43.403	-0.176	0.163
-387.019	-105.534	0.106	-0.024
-386.004	404.676	0.128	0.273
-384.990	231.062	-0.056	0.093
-383.975	163.711	0.086	0.122
-382.960	388.944	0.083	-0.175
-381.946	-85.818	0.156	0.049
-380.931	-102.177	0.249	0.061
-379.917	-55.578	0.265	0.120
-378.902	110.490	-0.070	0.086
-377.888	-200.000	-0.024	0.108
-376.873	-200.000	-0.058	-0.305
-375.858	-79.315	0.128	-0.044
-374.844	247.140	0.013	0.023
-373.829	510.184	-0.086	0.201
-372.815	1.181	-0.227	0.165
-371.800	158.892	-0.179	0.252
-370.785	800.000	-0.089	0.333
-369.771	-200.000	0.030	0.169
-368.756	-200.000	0.005	0.267
-367.742	355.776	0.029	-0.058
-366.727	59.758	0.358	0.358
-365.712	-15.161	-0.085	0.055
-364.698	-200.000	-0.028	0.160
-363.683	-200.000	0.031	0.156
-362.669	20.693	0.158	-0.129
-361.654	-200.000	0.000	-0.119
-360.639	300.223	-0.014	-0.026
-359.625	469.910	-0.084	0.192
-358.610	-200.000	0.026	-0.350
-357.596	-36.969	-0.255	0.138
-356.581	-126.676	-0.226	0.034
-355.566	87.057	0.235	0.263
-354.552	134.312	0.115	0.151
-353.537	-200.000	-0.036	0.289
-352.523	-80.949	0.137	0.046
-351.508	57.409	0.183	0.181
-350.493	-200.000	0.025	0.160
-349.479	-200.000	0.037	-0.333
-348.464	26.347	-0.302	-0.255
-347.450	800.000	-0.017	0.058
-346.435	538.333	-0.115	0.276
-345.420	49.401	-0.129	0.123
-344.406	751.398	0.075	-0.204
-343.391	30.089	0.112	0.097
-342.377	-129.458	0.239	-0.033
-341.362	800.000	-0.056	0.210
-340.348	-166.540	0.372	0.016
-339.333	-74.188	-0.158	0.058
-338.318	-0.976	-0.253	-0.181
-337.304	175.857	0.080	-0.118
-336.289	77.020	0.272	-0.292
-335.275	371.531	-0.103	-0.212
-334.260	150.166	-0.004	0.006
-333.245	-23.194	0.112	0.068
-332.231	160.390	0.124	0.174
-331.216	800.000	-0.083	0.356
-330.202	182.895	-0.129	0.192
-329.187	50.253	-0.092	0.088
-328.172	-115.476	0.256	0.049
-327.158	-76.257	0.351	-0.125
-326.143	-200.000	-0.081	0.423
-325.129	669.769	0.095	0.247
-324.114	-44.703	-0.175	-0.088
-323.099	47.728	0.101	-0.095
-322.085	-200.000	0.060	-0.294
-321.070	96.019	0.139	-0.160
-320.056	32.777	0.166	-0.145
-319.041	-60.461	0.163	-0.070
-318.026	437.986	0.155	0.341
-317.012	800.000	-0.093	0.318
-315.997	-55.271	-0.195	-0.089
-314.983	-131.964	-0.457	0.060
-313.968	281.246	0.057	-0.103
-312.953	340.702	0.211	-0.415
-311.939	46.632	-0.154	0.145
-310.924	81.244	0.145	0.158
-309.910	8.707	0.161	0.123
-308.895	-76.486	0.273	-0.097
-307.880	-98.730	-0.390	0.100
-306.866	11.655	0.260	0.201
-305.851	-140.193	-0.198	0.021
-304.837	165.923	-0.188	-0.268
-303.822	-24.597	-0.117	0.070
-302.807	57.809	0.146	0.144
-301.793	800.000	0.029	0.123
-300.778	-108.492	-0.157	0.034
-299.764	364.767	0.148	-0.301
-298.749	-157.212	-0.276	-0.017
-297.735	-3.791	-0.180	-0.126
-296.720	-200.000	0.005	0.445
-295.705	-134.781	0.289	-0.035
-294.691	-3.913	-0.124	0.087
-293.676	-109.233	-0.072	-0.016
-292.662	-93.671	0.191	0.053
-291.647	-120.789	-0.102	0.017
-290.632	54.272	0.143	-0.139
-289.618	-200.000	-0.047	0.218
-288.603	-114.161	-0.220	0.043
-287.589	800.000	0.058	-0.214
-286.574	136.348	0.137	-0.181
-285.559	-200.000	-0.028	0.158
-284.545	-9.597	-0.166	0.111
-283.530	-200.000	-0.003	0.156
-282.516	-200.000	0.015	0.262
-281.501	205.773	0.095	-0.150
-280.486	-200.000	-0.070	-0.449
-279.472	-66.949	-0.322	0.128
-278.457	482.339	0.122	-0.280
-277.443	344.873	0.097	0.193
-276.428	270.639	0.107	-0.190
-275.413	-200.000	0.038	-0.444
-274.399	-114.084	-0.117	-0.023
-273.384	-200.000	-0.016	-0.180
-272.370	315.216	0.192	-0.365
-271.355	56.501	-0.184	-0.180
-270.340	-151.931	0.290	-0.021
-269.326	88.141	-0.258	0.288
-268.311	800.000	0.012	0.043
-267.297	229.234	0.058	0.096
-266.282	56.648	-0.166	0.163
-265.267	117.378	0.238	0.295
-264.253	-200.000	0.020	0.108
-263.238	-200.000	-0.043	0.296
-262.224	728.648	0.032	-0.085
-261.209	146.306	0.169	-0.228
-260.195	800.000	0.031	0.090
-259.180	443.355	0.088	0.194
-258.165	-200.000	0.023	-0.109
-257.151	800.000	0.056	0.216
-256.136	87.137	-0.087	0.097
-255.122	-102.400	-0.160	-0.039
-254.107	-64.982	-0.199	0.081
-253.092	800.000	0.089	0.270
-252.078	-37.997	0.192	-0.103
-251.063	113.053	0.091	-0.111
-250.049	-5.571	0.273	0.189
-249.034	-132.865	0.223	0.029
-248.019	231.159	-0.178	0.293
-247.005	147.054	-0.071	-0.096
-245.990	6.069	0.158	-0.118
-244.976	-72.111	-0.127	0.047
-243.961	-200.000	-0.036	-0.216
-242.946	136.950	-0.220	0.290
-241.932	-26.917	0.188	0.110
-240.917	285.675	0.079	0.144
-239.903	-54.474	-0.100	0.046
-238.888	348.558	0.090	-0.179
-237.873	344.051	-0.166	-0.327
-236.859	800.000	0.059	-0.180
-235.844	40.863	-0.271	-0.246
-234.830	-73.946	-0.246	0.090
-233.815	135.082	-0.093	-0.121
-232.800	800.000	-0.080	-0.249
-231.786	-200.000	0.024	-0.139
-230.771	-200.000	0.058	0.269
-229.757	226.799	-0.066	-0.108
-228.742	-144.261	0.176	-0.017
-227.727	128.436	-0.190	-0.244
-226.713	81.952	0.219	-0.238
-225.698	27.391	0.159	0.135
-224.684	608.999	-0.059	-0.149
-223.669	130.824	-0.168	-0.217
-222.655	17.853	-0.278	0.223
-221.640	244.806	-0.100	0.168
-220.625	629.520	0.030	-0.075
-219.611	24.254	-0.063	-0.053
-218.596	-70.779	0.076	0.029
-217.582	26.816	0.061	-0.052
-216.567	-68.388	0.093	0.036
-215.552	194.203	-0.121	0.184
-214.538	609.950	-0.058	0.146
-213.523	-200.000	0.020	0.197
-212.509	81.275	0.053	0.058
-211.494	694.336	0.032	0.084
-210.479	-42.457	0.245	-0.126
-209.465	4.191	-0.111	0.081
-208.450	-175.625	-0.047	0.001
-207.436	-160.810	0.200	-0.011
-206.421	-79.539	0.096	0.033
-205.406	-16.986	-0.133	-0.084
-204.392	493.709	-0.186	0.430
-203.377	-105.767	0.332	0.075
-202.363	482.598	-0.143	0.328
-201.348	-200.000	-0.017	0.223
-200.333	-74.120	0.274	0.100
-199.319	226.555	0.070	0.115
-198.304	-17.169	-0.216	-0.137
-197.290	302.768	-0.158	0.294
-196.275	-35.276	-0.265	0.145
-195.260	-69.710	-0.257	-0.099
-194.246	-94.442	0.330	0.090
-193.231	-200.000	0.014	0.200
-192.217	-29.866	0.215	-0.123
-191.202	-57.761	0.001	-0.001
-190.187	-200.000	0.032	-0.191
-189.173	-38.020	0.245	-0.131
-188.158	-103.452	-0.297	-0.070
-187.144	-52.754	-0.333	0.154
-186.129	59.960	0.261	0.259
-185.114	532.392	0.129	0.308
-184.100	116.241	0.116	-0.143
-183.085	800.000	-0.075	-0.309
-182.071	-93.066	0.291	0.082
-181.056	-29.750	0.187	0.107
-180.042	172.837	0.150	0.217
-179.027	-82.737	0.197	-0.064
-178.012	24.673	-0.019	-0.016
-176.998	-3.298	-0.176	0.123
-175.983	-35.071	0.095	0.052
-174.969	-200.000	0.022	0.107
-173.954	-49.076	0.292	0.140
-172.939	6.989	0.217	0.163
-171.925	-61.706	0.240	0.101
-170.910	9.669	0.164	-0.125
-169.896	49.015	0.141	-0.133
-168.881	-53.823	0.290	-0.133
-167.866	2.883	-0.366	0.267
-166.852	129.963	0.134	-0.172
-165.837	-184.693	0.234	-0.004
-164.823	38.583	0.129	-0.115
-163.808	-70.364	0.149	-0.057
-162.793	188.447	-0.096	-0.144
-161.779	-200.000	-0.015	0.302
-160.764	-38.207	-0.078	0.042
-159.750	-145.555	0.235	-0.021
-158.735	155.079	0.048	0.067
-157.720	-178.849	0.101	-0.002
-156.706	-178.511	0.034	0.001
-155.691	-82.203	-0.401	0.131
-154.677	-81.662	0.055	-0.018
-153.662	34.751	-0.306	0.268
-152.647	-72.735	-0.223	0.083
-151.633	48.208	-0.075	0.071
-150.618	-162.818	-0.049	0.002
-149.604	-125.971	0.181	0.027
-148.589	800.000	-0.069	-0.253
-147.574	-152.040	0.086	0.006
-146.560	25.255	-0.168	0.140
-145.545	-0.950	-0.271	0.193
-144.531	-70.492	0.256	-0.097
-143.516	258.680	0.117	-0.203
-142.502	-165.381	-0.050	-0.002
-141.487	469.273	-0.054	0.122
-140.472	1.416	-0.220	0.159
-139.458	-21.587	0.108	0.066
-138.443	19.670	-0.071	0.057
-137.429	98.235	0.040	0.047
-136.414	107.957	-0.030	0.036
-135.399	-200.000	0.059	0.306
-134.385	-200.000	0.025	-0.121
-133.370	-200.000	-0.001	0.112
-132.356	-126.395	-0.079	-0.012
-131.341	-1.760	0.104	0.074
-130.326	-130.322	-0.260	-0.035
-129.312	-200.000	-0.066	-0.390
-128.297	317.107	-0.132	-0.251
-127.283	-136.417	0.192	-0.022
-126.268	-148.429	0.185	0.015
-125.253	48.793	-0.277	-0.260
-124.239	-200.000	-0.038	-0.232
-123.224	16.266	0.201	-0.159
-122.210	-200.000	-0.006	0.102
-121.195	-44.535	0.029	-0.015
-120.180	-157.523	0.401	0.024
