DTS Sentinel unit serial number:	SN413079Multiplexer serial number:	ORYXHardware model number:	OX4-SRSoftware version number:	ORYX F/W v4.00 Oryx Data Collector v3.7.2.0data status	okinstallation	princeton_trtdifferential loss correction	single-endedforward channel	channel 2reverse channel	N/Adate	2019/09/19time	13:19:35forward acquisition time	60.00reverse acquisition time	0.00gamma	496.2192k internal	0.2328k external	0.2328temperature offset calibration	1.0021default loss term (dB/km)	0.3790temperature slope calibration	1.0000multiplexer offset coefficient	1.0000multiplexer slope coefficient	1.0000fibre end	0.00T internal ref (°C)	29.56T ext. ref 1 (°C)	0.96T ext. ref 2 (°C)	27.05length (m)	temperature (°C)	Stokes	anti-Stokes-747.200	58.495	0.281	-0.278
-746.185	197.021	-0.030	0.046
-745.171	-200.000	-0.050	0.320
-744.156	-200.000	-0.034	-0.232
-743.142	239.560	-0.107	0.179
-742.127	106.794	-0.145	-0.173
-741.112	-117.491	-0.211	0.038
-740.098	-108.733	-0.132	0.029
-739.083	-146.358	-0.093	-0.008
-738.069	70.134	-0.090	-0.093
-737.054	-200.000	-0.069	-0.347
-736.039	114.452	-0.191	0.234
-735.025	573.977	0.027	-0.067
-734.010	800.000	0.010	-0.040
-732.996	-200.000	-0.094	-0.501
-731.981	146.498	-0.279	-0.378
-730.966	-75.440	0.217	0.078
-729.952	40.779	-0.218	-0.198
-728.937	-124.603	0.183	0.029
-727.923	387.430	0.083	0.173
-726.908	-108.438	-0.202	-0.044
-725.894	-73.169	0.141	-0.052
-724.879	-36.286	0.206	0.112
-723.864	-200.000	0.042	-0.191
-722.850	800.000	-0.029	-0.092
-721.835	800.000	-0.073	-0.302
-720.821	-11.461	-0.085	-0.056
-719.806	138.897	-0.195	-0.258
-718.791	-116.442	-0.261	-0.049
-717.777	-200.000	-0.012	-0.365
-716.762	-47.945	0.209	-0.102
-715.748	-139.902	-0.197	0.021
-714.733	-126.238	-0.351	0.053
-713.718	188.764	0.090	0.135
-712.704	157.955	0.213	-0.298
-711.689	-86.866	-0.298	-0.091
-710.675	304.758	-0.067	-0.125
-709.660	335.309	-0.085	-0.165
-708.645	-200.000	-0.010	-0.082
-707.631	-19.485	0.132	-0.083
-706.616	317.548	0.199	-0.379
-705.602	-200.000	-0.025	0.135
-704.587	-109.845	0.266	-0.056
-703.572	-33.109	-0.030	0.017
-702.558	2.380	-0.195	-0.142
-701.543	-200.000	0.044	-0.335
-700.529	-1.317	-0.069	-0.049
-699.514	174.370	-0.183	0.266
-698.499	-116.522	-0.249	-0.046
-697.485	224.426	0.090	-0.146
-696.470	800.000	0.122	-0.365
-695.456	426.021	0.075	-0.162
-694.441	-86.571	-0.171	0.053
-693.426	380.531	0.045	0.093
-692.412	-200.000	-0.030	-0.508
-691.397	21.755	-0.012	0.010
-690.383	116.790	-0.033	0.040
-689.368	0.546	-0.134	0.096
-688.354	143.909	-0.091	0.122
-687.339	-200.000	-0.002	-0.288
-686.324	-106.341	-0.134	0.030
-685.310	-170.025	-0.200	0.007
-684.295	274.894	-0.070	-0.125
-683.281	-152.523	-0.502	-0.036
-682.266	74.597	-0.163	-0.173
-681.251	261.742	0.033	0.058
-680.237	154.163	0.208	0.287
-679.222	89.552	0.140	-0.158
-678.208	800.000	-0.054	-0.203
-677.193	-118.164	0.165	0.030
-676.178	-200.000	-0.035	-0.223
-675.164	70.220	-0.044	-0.046
-674.149	-106.228	0.250	-0.056
-673.135	-200.000	0.001	0.188
-672.120	-25.328	-0.326	0.194
-671.105	262.543	-0.111	-0.194
-670.091	-3.354	-0.164	-0.114
-669.076	15.447	-0.161	-0.127
-668.062	-147.394	-0.168	-0.014
-667.047	28.095	0.080	-0.068
-666.032	-200.000	-0.069	-0.382
-665.018	-84.297	-0.062	0.020
-664.003	800.000	0.091	0.255
-662.989	-200.000	-0.037	-0.228
-661.974	12.983	0.080	-0.062
-660.959	-19.208	0.208	-0.130
-659.945	-110.832	-0.270	0.056
-658.930	-108.685	0.039	-0.008
-657.916	41.086	0.153	-0.139
-656.901	-129.174	-0.170	0.024
-655.886	-40.141	-0.146	-0.076
-654.872	-101.091	0.172	-0.042
-653.857	-178.210	0.222	-0.005
-652.843	-124.871	0.097	0.015
-651.828	-200.000	-0.003	0.367
-650.814	-98.244	-0.370	-0.095
-649.799	-49.530	0.330	0.158
-648.784	-200.000	0.054	-0.378
-647.770	-116.464	-0.374	0.069
-646.755	-37.754	0.180	-0.096
-645.741	-97.557	-0.091	-0.024
-644.726	-99.833	-0.328	-0.082
-643.711	219.059	-0.115	-0.185
-642.697	199.069	0.065	-0.100
-641.682	-123.521	0.124	0.020
-640.668	-128.028	0.237	-0.034
-639.653	-48.901	-0.367	-0.177
-638.638	-42.403	-0.086	-0.044
-637.624	-28.476	0.577	0.334
-636.609	-55.522	-0.246	0.110
-635.595	-36.526	0.296	-0.160
-634.580	127.514	-0.054	0.068
-633.565	-24.736	-0.227	0.135
-632.551	800.000	0.092	0.380
-631.536	-200.000	0.034	0.299
-630.522	155.889	-0.066	0.091
-629.507	28.927	0.080	-0.068
-628.492	523.573	-0.035	-0.083
-627.478	79.345	0.121	0.131
-626.463	-59.076	-0.075	-0.033
-625.449	800.000	0.043	-0.179
-624.434	-0.016	-0.208	-0.149
-623.419	800.000	-0.085	-0.263
-622.405	-109.863	0.186	0.039
-621.390	244.953	0.221	-0.373
-620.376	69.496	-0.187	-0.194
-619.361	17.292	0.163	-0.129
-618.346	103.139	-0.138	0.162
-617.332	172.446	-0.044	0.064
-616.317	-200.000	-0.009	-0.093
-615.303	800.000	0.021	-0.086
-614.288	25.726	-0.055	-0.046
-613.273	35.227	-0.087	-0.076
-612.259	-124.514	0.442	0.069
-611.244	-161.309	-0.021	-0.001
-610.230	142.861	-0.103	-0.137
-609.215	-25.039	0.087	-0.052
-608.201	-200.000	0.035	0.231
-607.186	330.532	-0.038	-0.074
-606.171	800.000	-0.044	0.186
-605.157	-86.704	-0.441	0.135
-604.142	7.664	0.090	0.068
-603.128	-125.817	-0.095	0.014
-602.113	-67.551	-0.160	-0.063
-601.098	-112.893	0.130	-0.026
-600.084	-200.000	-0.055	0.268
-599.069	169.359	0.054	0.077
-598.055	493.292	-0.076	-0.175
-597.040	-98.611	-0.127	0.033
-596.025	82.895	-0.067	0.072
-595.011	-59.822	-0.229	0.098
-593.996	-114.887	0.491	-0.094
-592.982	25.116	-0.185	-0.154
-591.967	496.166	0.030	0.070
-590.952	67.797	0.224	-0.230
-589.938	-58.585	-0.211	-0.092
-588.923	-97.654	0.328	-0.085
-587.909	239.320	-0.228	0.379
-586.894	471.217	0.123	0.277
-585.879	-71.746	0.167	-0.063
-584.865	-86.972	-0.154	-0.047
-583.850	-162.394	0.219	0.011
-582.836	548.650	-0.091	0.217
-581.821	174.808	0.240	-0.348
-580.806	-103.266	0.374	-0.088
-579.792	-200.000	-0.008	-0.124
-578.777	-103.023	0.185	-0.044
-577.763	524.220	-0.154	0.362
-576.748	-24.341	-0.141	-0.084
-575.733	-200.000	-0.009	-0.085
-574.719	6.391	0.323	0.240
-573.704	800.000	-0.023	0.093
-572.690	-115.668	0.027	0.005
-571.675	168.894	0.038	0.054
-570.661	173.817	-0.090	-0.131
-569.646	800.000	-0.136	-0.388
-568.631	91.574	-0.222	-0.250
-567.617	-37.084	-0.102	0.055
-566.602	-49.618	0.124	0.059
-565.588	363.258	-0.039	0.078
-564.573	113.392	-0.058	0.071
-563.558	-121.980	-0.246	-0.040
-562.544	-53.629	-0.215	0.098
-561.529	-51.477	-0.338	-0.158
-560.515	800.000	-0.019	0.054
-559.500	-47.711	-0.101	-0.049
-558.485	-152.090	0.262	-0.019
-557.471	800.000	-0.099	0.308
-556.456	112.188	0.105	-0.127
-555.442	-200.000	0.025	0.147
-554.427	-111.973	0.187	0.038
-553.412	-5.190	0.139	0.096
-552.398	-54.568	0.255	0.115
-551.383	58.017	-0.151	0.148
-550.369	-73.661	-0.070	0.026
-549.354	-21.892	-0.124	-0.075
-548.339	-180.695	-0.191	-0.004
-547.325	800.000	0.027	-0.110
-546.310	-200.000	0.006	-0.261
-545.296	-200.000	0.015	-0.385
-544.281	62.372	-0.174	-0.174
-543.266	-129.574	0.192	0.026
-542.252	-200.000	-0.060	0.395
-541.237	-96.909	-0.104	0.027
-540.223	-63.913	0.109	-0.045
-539.208	-28.049	-0.153	0.088
-538.193	-68.449	0.067	-0.026
-537.179	-37.014	-0.195	-0.105
-536.164	-200.000	-0.016	-0.246
-535.150	-177.254	0.206	0.005
-534.135	-200.000	0.118	-0.547
-533.121	83.153	0.192	-0.209
-532.106	-156.877	-0.260	0.016
-531.091	-16.925	-0.122	-0.077
-530.077	-39.086	-0.175	-0.092
-529.062	800.000	-0.042	0.148
-528.048	-5.797	-0.108	-0.074
-527.033	91.954	0.155	0.175
-526.018	800.000	0.052	0.153
-525.004	-200.000	0.008	0.241
-523.989	-126.610	0.230	-0.034
-522.975	800.000	-0.034	0.119
-521.960	800.000	-0.050	0.214
-520.945	464.372	-0.046	-0.104
-519.931	-90.889	0.249	-0.072
-518.916	-130.311	-0.395	-0.054
-517.902	-31.508	-0.169	0.095
-516.887	114.567	0.099	0.120
-515.872	785.870	-0.054	0.148
-514.858	-82.464	-0.302	0.098
-513.843	474.829	0.063	0.142
-512.829	21.391	0.357	0.290
-511.814	57.784	-0.192	-0.187
-510.799	413.259	0.113	-0.240
-509.785	-140.121	-0.251	0.026
-508.770	190.754	0.293	-0.439
-507.756	173.759	-0.082	0.119
-506.741	-200.000	-0.023	-0.186
-505.726	308.264	-0.069	0.129
-504.712	-120.193	-0.246	0.042
-503.697	-8.190	0.065	0.044
-502.683	14.122	-0.099	0.077
-501.668	124.395	0.073	-0.092
-500.653	381.901	-0.038	-0.078
-499.639	545.129	0.095	0.226
-498.624	337.183	0.017	0.033
-497.610	285.587	0.113	-0.204
-496.595	-61.392	-0.245	-0.103
-495.581	6.645	-0.118	0.087
-494.566	56.910	-0.079	-0.077
-493.551	-200.000	0.006	-0.039
-492.537	180.329	0.123	-0.180
-491.522	35.426	-0.153	-0.134
-490.508	282.469	0.128	-0.229
-489.493	800.000	-0.056	-0.195
-488.478	-52.000	0.228	0.106
-487.464	-57.350	0.075	-0.033
-486.449	-6.038	-0.161	-0.110
-485.435	-200.000	-0.016	-0.274
-484.420	67.923	0.136	0.139
-483.405	631.687	-0.097	0.245
-482.391	-200.000	-0.038	0.223
-481.376	-200.000	-0.031	-0.277
-480.362	20.814	-0.362	0.292
-479.347	-197.202	0.240	-0.002
-478.332	457.922	-0.058	0.129
-477.318	500.372	0.035	-0.081
-476.303	-200.000	-0.005	0.054
-475.289	736.228	-0.076	0.202
-474.274	-4.451	0.173	0.119
-473.259	-200.000	-0.027	0.217
-472.245	-36.256	-0.127	-0.068
-471.230	800.000	-0.069	-0.237
-470.216	-200.000	-0.018	-0.311
-469.201	-37.649	0.273	0.145
-468.186	-99.695	0.030	0.007
-467.172	283.372	-0.178	0.318
-466.157	-82.593	0.063	-0.020
-465.143	-126.578	-0.290	0.043
-464.128	-200.000	0.034	-0.167
-463.113	-42.731	-0.185	0.094
-462.099	335.324	0.160	0.308
-461.084	240.277	-0.091	-0.151
-460.070	-126.743	-0.136	0.020
-459.055	-98.986	-0.181	0.046
-458.040	-200.000	0.006	0.056
-457.026	-151.182	0.401	0.030
-456.011	-136.935	-0.246	0.028
-454.997	125.879	-0.056	-0.070
-453.982	50.362	0.240	-0.226
-452.968	58.311	-0.125	0.122
-451.953	114.448	-0.154	0.187
-450.938	-46.638	0.166	-0.081
-449.924	-200.000	-0.052	-0.389
-448.909	93.970	0.213	-0.241
-447.895	14.083	0.156	-0.121
-446.880	-179.724	-0.098	-0.002
-445.865	-200.000	-0.030	0.464
-444.851	800.000	0.098	-0.288
-443.836	53.682	-0.219	-0.209
-442.822	-150.959	0.501	0.038
-441.807	-11.914	0.129	-0.084
-440.792	-184.899	-0.238	-0.004
-439.778	330.095	-0.114	-0.219
-438.763	45.917	-0.059	0.055
-437.749	-197.158	0.153	-0.001
-436.734	-200.000	0.030	0.141
-435.719	-200.000	-0.001	0.049
-434.705	-18.458	0.277	0.172
-433.690	-64.518	0.227	-0.092
-432.676	-100.802	-0.106	-0.026
-431.661	-153.162	0.248	0.017
-430.646	5.560	0.084	-0.062
-429.632	191.581	0.036	0.055
-428.617	25.863	-0.098	0.081
-427.603	800.000	0.059	0.212
-426.588	494.172	-0.109	0.248
-425.573	-10.389	-0.249	0.164
-424.559	-89.526	-0.317	-0.093
-423.544	-145.867	-0.117	0.010
-422.530	152.219	-0.065	0.089
-421.515	-33.571	-0.347	-0.191
-420.500	122.136	-0.272	-0.338
-419.486	800.000	0.016	0.056
-418.471	-200.000	-0.065	-0.399
-417.457	-64.060	-0.535	0.217
-416.442	124.536	0.138	-0.173
-415.428	543.050	0.106	-0.251
-414.413	73.294	0.103	-0.108
-413.398	-125.211	0.066	0.010
-412.384	-94.283	-0.167	-0.045
-411.369	-200.000	-0.002	0.088
-410.355	215.168	0.059	-0.093
-409.340	188.211	-0.062	0.092
-408.325	-120.181	0.084	0.014
-407.311	621.052	-0.124	0.311
-406.296	-200.000	0.003	0.181
-405.282	-200.000	-0.011	0.171
-404.267	-200.000	-0.019	-0.186
-403.252	-45.214	-0.126	-0.062
-402.238	215.754	-0.038	0.059
-401.223	65.054	0.056	0.056
-400.209	-39.937	0.030	0.015
-399.194	-32.141	-0.172	0.096
-398.179	-143.159	-0.152	-0.015
-397.165	98.043	-0.157	-0.179
-396.150	86.912	0.160	0.176
-395.136	-46.521	0.082	-0.040
-394.121	-151.562	-0.288	0.021
-393.106	-200.000	0.010	-0.477
-392.092	-98.287	-0.236	-0.060
-391.077	76.777	-0.261	-0.275
-390.063	4.079	0.111	-0.081
-389.048	137.086	-0.255	0.331
-388.033	-200.000	0.009	0.045
-387.019	2.089	0.176	-0.126
-386.004	-125.941	0.173	-0.026
-384.990	-95.483	0.236	0.063
-383.975	-71.472	0.227	0.084
-382.960	-84.763	0.321	-0.100
-381.946	-200.000	-0.008	-0.249
-380.931	-88.402	0.099	0.029
-379.917	196.653	0.133	-0.201
-378.902	30.907	0.212	0.180
-377.888	14.318	0.073	0.056
-376.873	413.224	0.085	-0.179
-375.858	127.066	-0.195	0.246
-374.844	-100.666	0.068	0.017
-373.829	514.530	0.081	0.187
-372.815	-139.717	0.277	0.029
-371.800	-28.023	-0.222	0.128
-370.785	175.987	-0.250	0.361
-369.771	-135.246	-0.141	-0.017
-368.756	247.675	-0.223	-0.375
-367.742	196.059	-0.127	-0.192
-366.727	379.858	0.043	-0.088
-365.712	-33.492	-0.191	-0.105
-364.698	-112.594	-0.060	-0.012
-363.683	-84.026	-0.100	0.032
-362.669	-200.000	0.070	0.372
-361.654	800.000	-0.091	0.272
-360.639	47.710	0.234	-0.217
-359.625	199.389	0.168	0.256
-358.610	-90.120	-0.247	0.071
-357.596	403.067	0.062	-0.129
-356.581	-139.075	0.216	-0.023
-355.566	-81.680	-0.189	0.062
-354.552	-31.241	0.136	-0.076
-353.537	153.202	0.101	0.138
-352.523	341.540	0.076	0.148
-351.508	4.062	-0.044	0.032
-350.493	21.306	-0.223	-0.180
-349.479	800.000	0.081	-0.284
-348.464	800.000	0.027	-0.087
-347.450	-200.000	0.047	-0.267
-346.435	-57.682	0.250	-0.109
-345.420	-82.291	-0.063	-0.020
-344.406	-31.602	0.082	0.046
-343.391	-41.264	0.153	-0.078
-342.377	-200.000	0.054	-0.236
-341.362	-71.067	0.144	-0.054
-340.348	33.194	-0.358	0.308
-339.333	-55.575	-0.274	-0.122
-338.318	121.050	-0.128	-0.158
-337.304	86.152	-0.140	-0.153
-336.289	57.326	-0.129	-0.125
-335.275	26.800	0.285	0.236
-334.260	242.519	0.156	-0.259
-333.245	-41.626	-0.235	0.120
-332.231	686.669	0.170	0.440
-331.216	117.410	0.299	0.365
-330.202	800.000	0.179	-0.524
-329.187	-133.162	-0.248	-0.031
-328.172	769.224	0.023	0.061
-327.158	800.000	0.130	0.404
-326.143	539.276	0.014	0.034
-325.129	-146.090	0.370	-0.032
-324.114	-97.645	-0.180	-0.046
-323.099	9.272	-0.101	-0.075
-322.085	-41.799	-0.225	-0.114
-321.070	800.000	0.054	0.223
-320.056	123.088	0.170	-0.210
-319.041	-150.517	-0.253	0.019
-318.026	9.186	0.028	-0.021
-317.012	-1.341	-0.230	-0.161
-315.997	127.701	-0.153	0.193
-314.983	-148.888	0.296	0.024
-313.968	355.968	-0.139	0.274
-312.953	26.802	-0.236	0.196
-311.939	24.924	0.146	-0.120
-310.924	-200.000	-0.036	0.483
-309.910	404.113	-0.113	0.235
-308.895	-200.000	0.038	-0.226
-307.880	83.101	-0.078	-0.085
-306.866	-85.743	-0.042	0.013
-305.851	682.123	-0.053	-0.137
-304.837	226.381	0.094	0.152
-303.822	-200.000	-0.027	0.143
-302.807	-88.017	-0.273	-0.081
-301.793	-61.282	0.638	-0.266
-300.778	55.220	0.127	0.121
-299.764	39.382	-0.252	-0.223
-298.749	282.391	0.106	-0.188
-297.735	17.312	-0.094	0.074
-296.720	-164.906	0.215	-0.010
-295.705	-48.012	0.252	0.121
-294.691	-200.000	0.016	0.111
-293.676	-111.611	0.126	0.025
-292.662	800.000	-0.117	0.375
-291.647	-75.921	-0.180	-0.063
-290.632	-134.891	0.245	0.029
-289.618	-150.519	-0.105	0.008
-288.603	-70.177	-0.091	0.034
-287.589	-200.000	0.024	-0.202
-286.574	4.988	0.058	-0.042
-285.559	-92.709	-0.303	0.084
-284.545	-40.317	-0.187	0.096
-283.530	-113.972	0.255	-0.049
-282.516	-144.778	-0.330	-0.030
-281.501	-24.281	0.337	-0.199
-280.486	149.979	-0.264	-0.355
-279.472	-55.611	0.273	0.121
-278.457	-85.373	-0.230	0.071
-277.443	-60.704	-0.206	-0.087
-276.428	-200.000	0.033	-0.149
-275.413	-82.311	0.182	-0.059
-274.399	106.631	0.040	-0.048
-273.384	302.177	0.073	0.134
-272.370	121.964	-0.225	-0.277
-271.355	-56.489	-0.215	-0.094
-270.340	-101.554	0.124	-0.030
-269.326	-169.732	0.135	-0.005
-268.311	800.000	0.027	-0.074
-267.297	-71.901	-0.303	-0.112
-266.282	-96.890	0.151	0.039
-265.267	-200.000	-0.023	0.313
-264.253	-17.494	0.233	0.145
-263.238	-137.501	-0.079	-0.009
-262.224	569.314	0.033	-0.080
-261.209	224.755	0.197	0.315
-260.195	-200.000	0.053	0.391
-259.180	-45.213	-0.114	0.056
-258.165	24.923	0.134	0.110
-257.151	42.221	0.105	-0.094
-256.136	-129.736	0.322	0.044
-255.122	-130.246	-0.135	0.018
-254.107	105.366	-0.197	0.230
-253.092	36.698	-0.072	0.063
-252.078	-111.902	0.244	0.049
-251.063	79.201	0.085	-0.090
-250.049	-18.566	0.189	-0.117
-249.034	28.410	-0.259	-0.216
-248.019	-200.000	0.031	0.134
-247.005	106.128	-0.035	0.041
-245.990	384.087	-0.155	-0.316
-244.976	408.547	-0.166	0.346
-243.961	29.668	0.080	0.067
-242.946	-50.962	-0.316	-0.147
-241.932	168.971	-0.160	0.225
-240.917	780.170	-0.072	0.194
-239.903	-200.000	-0.011	-0.171
-238.888	-200.000	0.024	-0.156
-237.873	65.268	-0.138	-0.138
-236.859	800.000	0.076	-0.295
-235.844	180.771	0.255	-0.370
-234.830	-34.196	-0.376	-0.204
-233.815	333.059	-0.032	0.061
-232.800	141.179	0.291	0.380
-231.786	111.984	0.114	-0.136
-230.771	43.313	0.255	0.230
-229.757	321.108	0.095	0.178
-228.742	-48.080	0.319	0.152
-227.727	172.155	-0.176	-0.250
-226.713	-200.000	0.093	-0.000
-225.698	-8.681	-0.291	0.193
-224.684	199.555	0.029	0.044
-223.669	-66.719	0.193	-0.075
-222.655	54.542	0.185	-0.176
-221.640	-13.214	-0.260	0.166
-220.625	-84.188	0.262	0.082
-219.611	-70.851	0.203	-0.076
-218.596	79.048	-0.195	0.206
-217.582	3.119	-0.400	-0.287
-216.567	784.048	0.052	-0.140
-215.552	-200.000	0.001	-0.116
-214.538	385.920	0.021	-0.042
-213.523	97.981	0.078	0.089
-212.509	-200.000	0.037	0.323
-211.494	-101.116	-0.201	-0.049
-210.479	-59.367	0.501	-0.213
-209.465	-0.443	0.159	0.112
-208.450	61.235	-0.121	0.118
-207.436	-43.229	0.074	0.037
-206.421	-150.043	0.189	-0.014
-205.406	800.000	-0.075	-0.208
-204.392	105.438	0.117	-0.137
-203.377	235.228	-0.136	0.221
-202.363	-68.995	0.199	-0.076
-201.348	753.102	-0.054	-0.144
-200.333	-82.314	-0.549	0.176
-199.319	216.150	-0.062	0.098
-198.304	214.556	-0.073	0.115
-197.290	-103.700	0.106	0.025
-196.275	150.783	-0.077	-0.103
-195.260	-0.101	-0.293	0.205
-194.246	800.000	0.030	0.107
-193.231	408.656	-0.132	0.275
-192.217	800.000	-0.024	0.093
-191.202	535.872	-0.087	-0.204
-190.187	-100.536	0.069	-0.017
-189.173	-200.000	0.008	0.131
-188.158	800.000	-0.058	0.233
-187.144	0.638	0.124	0.088
-186.129	309.073	0.150	0.276
-185.114	-144.590	-0.185	0.017
-184.100	-200.000	-0.013	-0.056
-183.085	800.000	0.013	0.036
-182.071	-200.000	0.007	0.037
-181.056	-31.398	0.229	-0.127
-180.042	-142.864	0.069	0.007
-179.027	-114.970	0.319	-0.060
-178.012	-200.000	0.059	0.278
-176.998	507.848	0.186	0.426
-175.983	343.282	0.094	-0.182
-174.969	-200.000	0.008	0.126
-173.954	-67.965	0.163	0.063
-172.939	111.695	0.290	-0.345
-171.925	-62.271	0.269	-0.110
-170.910	115.484	-0.135	0.163
-169.896	-129.422	0.262	0.036
-168.881	-78.938	-0.301	-0.101
-167.866	719.090	0.069	-0.182
-166.852	-104.122	0.233	-0.053
-165.837	-0.808	-0.199	-0.139
-164.823	-24.515	0.105	0.062
-163.808	158.208	-0.041	0.055
-162.793	800.000	0.078	0.246
-161.779	-35.940	0.164	-0.087
-160.764	-190.546	-0.275	0.003
-159.750	800.000	-0.060	-0.253
-158.735	-46.041	0.282	-0.137
-157.720	-33.361	0.187	-0.102
-156.706	-200.000	0.235	-0.001
-155.691	4.071	-0.107	0.077
-154.677	-152.845	0.165	0.012
-153.662	-92.096	0.117	0.033
-152.647	-200.000	-0.004	-0.081
-151.633	-200.000	-0.028	0.349
-150.618	-200.000	-0.014	0.351
-149.604	148.415	0.163	0.217
-148.589	-47.474	-0.141	0.067
-147.574	67.343	-0.004	0.004
-146.560	800.000	-0.024	-0.079
-145.545	181.289	0.131	-0.190
-144.531	-103.718	0.172	0.040
-143.516	286.137	-0.052	0.092
-142.502	-118.480	0.430	-0.075
-141.487	-126.915	-0.267	-0.039
-140.472	-200.000	-0.010	0.113
-139.458	-35.870	0.166	0.088
-138.443	-148.801	-0.232	0.019
-137.429	-8.753	0.276	-0.182
-136.414	-154.576	-0.072	0.005
-135.399	74.039	-0.028	0.029
-134.385	276.999	0.158	-0.277
-133.370	82.858	0.047	-0.050
-132.356	800.000	0.099	-0.286
-131.341	-200.000	0.034	-0.184
-130.326	-109.231	-0.071	-0.015
-129.312	-28.190	-0.203	-0.116
-128.297	-42.568	-0.222	0.111
-127.283	0.611	0.235	-0.165
-126.268	364.309	0.099	0.196
-125.253	37.174	-0.116	0.101
-124.239	-14.302	0.213	0.135
-123.224	-6.468	0.234	0.157
-122.210	49.683	0.137	-0.127
