DTS Sentinel unit serial number:	SN413079Multiplexer serial number:	ORYXHardware model number:	OX4-SRSoftware version number:	ORYX F/W v4.00 Oryx Data Collector v3.7.2.0data status	okinstallation	princeton_trtdifferential loss correction	single-endedforward channel	channel 2reverse channel	N/Adate	2019/09/18time	23:23:35forward acquisition time	60.00reverse acquisition time	0.00gamma	496.2192k internal	0.2350k external	0.2350temperature offset calibration	1.0015default loss term (dB/km)	0.3790temperature slope calibration	1.0000multiplexer offset coefficient	1.0000multiplexer slope coefficient	1.0000fibre end	0.00T internal ref (°C)	23.78T ext. ref 1 (°C)	0.77T ext. ref 2 (°C)	16.90length (m)	temperature (°C)	Stokes	anti-Stokes-747.200	-13.252	-0.081	-0.053
-746.185	-200.000	0.003	0.220
-745.171	-200.000	-0.034	-0.239
-744.156	382.470	-0.147	0.301
-743.142	-193.950	-0.288	-0.002
-742.127	14.160	-0.208	0.161
-741.112	-112.326	-0.351	0.070
-740.098	5.326	-0.068	0.050
-739.083	800.000	0.125	-0.388
-738.069	-163.701	-0.178	-0.008
-737.054	-89.819	0.136	-0.040
-736.039	-143.953	-0.613	-0.058
-735.025	-87.439	0.349	-0.106
-734.010	526.312	-0.134	0.315
-732.996	-200.000	0.016	-0.154
-731.981	-67.118	-0.297	0.117
-730.966	296.971	-0.088	-0.161
-729.952	-200.000	-0.013	0.220
-728.937	-200.000	-0.007	0.189
-727.923	511.671	-0.135	0.313
-726.908	-39.060	-0.282	0.148
-725.894	-41.310	0.325	0.167
-724.879	-89.166	0.202	0.059
-723.864	86.905	-0.170	-0.187
-722.850	800.000	0.037	0.144
-721.835	205.751	-0.120	-0.186
-720.821	730.072	0.044	-0.118
-719.806	487.316	-0.085	-0.193
-718.791	-80.721	0.031	-0.010
-717.777	279.139	0.147	-0.262
-716.762	148.282	-0.184	-0.247
-715.748	211.348	-0.176	-0.277
-714.733	269.204	-0.082	0.144
-713.718	203.392	0.130	-0.201
-712.704	81.149	0.349	-0.376
-711.689	-124.914	-0.197	-0.030
-710.675	85.479	-0.062	-0.068
-709.660	-200.000	0.047	-0.356
-708.645	-110.057	-0.192	-0.040
-707.631	284.589	0.149	-0.268
-706.616	-111.062	0.076	0.016
-705.602	-80.970	-0.217	-0.072
-704.587	-27.054	0.199	0.116
-703.572	-200.000	-0.107	0.630
-702.558	-200.000	-0.017	-0.151
-701.543	750.474	0.009	-0.023
-700.529	-99.339	0.214	0.054
-699.514	475.208	-0.067	0.150
-698.499	-97.813	-0.375	-0.097
-697.485	147.584	0.089	-0.120
-696.470	-146.094	0.240	-0.021
-695.456	393.266	-0.081	-0.167
-694.441	-134.618	-0.172	-0.021
-693.426	800.000	0.067	0.184
-692.412	-200.000	-0.004	0.061
-691.397	-73.823	-0.401	0.145
-690.383	800.000	-0.020	-0.085
-689.368	51.904	0.091	-0.086
-688.354	-200.000	0.058	-0.361
-687.339	-96.151	-0.072	0.019
-686.324	7.932	-0.066	0.049
-685.310	634.333	-0.068	-0.172
-684.295	800.000	-0.009	-0.037
-683.281	-149.612	0.178	-0.014
-682.266	-63.422	-0.212	-0.087
-681.251	800.000	-0.023	0.091
-680.237	-14.392	0.013	0.008
-679.222	-69.168	-0.125	-0.048
-678.208	-57.125	0.092	0.040
-677.193	800.000	0.075	0.294
-676.178	800.000	-0.126	-0.449
-675.164	118.547	0.118	0.145
-674.149	399.941	-0.086	-0.180
-673.135	-69.501	-0.252	0.096
-672.120	259.451	-0.068	-0.117
-671.105	75.196	-0.261	-0.274
-670.091	800.000	0.061	-0.254
-669.076	-88.615	-0.138	-0.041
-668.062	-80.439	0.169	0.056
-667.047	-104.016	0.304	-0.070
-666.032	-200.000	-0.022	-0.244
-665.018	122.367	0.098	0.122
-664.003	-36.071	0.177	-0.095
-662.989	-12.939	-0.155	0.101
-661.974	61.908	-0.299	-0.297
-660.959	-200.000	-0.024	0.234
-659.945	299.563	0.141	-0.259
-658.930	225.786	-0.104	0.167
-657.916	800.000	0.012	0.034
-656.901	-200.000	0.015	-0.381
-655.886	-110.518	-0.060	-0.012
-654.872	-200.000	0.005	-0.112
-653.857	-153.369	-0.300	0.021
-652.843	-35.958	0.269	0.145
-651.828	352.966	-0.081	0.161
-650.814	-22.008	0.032	-0.020
-649.799	6.356	-0.183	0.135
-648.784	-200.000	-0.013	0.120
-647.770	800.000	0.073	0.294
-646.755	-51.766	-0.322	-0.149
-645.741	132.593	-0.234	0.301
-644.726	311.265	0.086	0.160
-643.711	211.653	-0.003	-0.004
-642.697	98.204	0.172	-0.197
-641.682	98.759	-0.029	0.033
-640.668	-124.430	0.089	-0.014
-639.653	-168.539	-0.332	0.013
-638.638	-141.798	0.327	0.033
-637.624	76.757	0.047	0.049
-636.609	-200.000	0.038	-0.187
-635.595	0.524	0.051	-0.036
-634.580	477.602	0.014	0.031
-633.565	-200.000	-0.026	0.245
-632.551	-168.400	0.395	0.015
-631.536	-200.000	-0.034	0.227
-630.522	-97.151	0.214	-0.056
-629.507	-200.000	-0.008	-0.230
-628.492	190.510	-0.077	-0.115
-627.478	148.736	-0.123	-0.165
-626.463	-17.090	0.272	0.171
-625.449	183.634	0.061	0.089
-624.434	-132.013	0.312	-0.040
-623.419	39.082	0.195	-0.173
-622.405	-200.000	-0.012	-0.353
-621.390	57.601	-0.385	-0.373
-620.376	-1.842	-0.360	0.251
-619.361	-200.000	-0.039	0.172
-618.346	-126.656	-0.215	0.032
-617.332	320.278	0.222	-0.418
-616.317	800.000	0.062	-0.254
-615.303	-167.263	0.240	0.010
-614.288	131.154	0.142	0.181
-613.273	-200.000	0.015	0.372
-612.259	-11.001	-0.124	0.081
-611.244	-159.134	0.331	-0.019
-610.230	152.697	-0.119	0.162
-609.215	-128.360	0.285	0.040
-608.201	142.611	-0.156	0.205
-607.186	797.883	0.113	-0.309
-606.171	-18.225	-0.207	0.129
-605.157	298.061	0.143	0.262
-604.142	-96.220	0.185	0.049
-603.128	800.000	-0.017	0.050
-602.113	-19.110	0.098	-0.061
-601.098	-100.593	0.364	-0.089
-600.084	36.475	-0.178	-0.156
-599.069	-87.527	0.264	-0.079
-598.055	661.996	0.011	0.027
-597.040	-107.818	-0.182	-0.039
-596.025	226.821	-0.095	-0.153
-595.011	-139.649	0.284	-0.030
-593.996	-1.619	0.043	0.030
-592.982	-30.782	-0.377	0.212
-591.967	-200.000	0.032	0.289
-590.952	-200.000	-0.031	-0.150
-589.938	90.346	0.127	-0.141
-588.923	-132.027	-0.164	-0.021
-587.909	269.879	-0.110	0.192
-586.894	-16.367	0.374	0.235
-585.879	175.085	-0.110	0.158
-584.865	-50.566	0.134	-0.063
-583.850	108.184	0.232	0.274
-582.836	-103.180	-0.100	-0.023
-581.821	-200.000	-0.033	0.192
-580.806	-61.701	-0.100	-0.041
-579.792	301.018	-0.064	-0.118
-578.777	-127.155	0.065	0.009
-577.763	-200.000	0.032	-0.286
-576.748	-59.476	0.048	-0.021
-575.733	-4.855	-0.170	0.116
-574.719	-2.407	-0.383	-0.266
-573.704	8.271	-0.236	0.176
-572.690	-200.000	0.005	0.151
-571.675	-75.160	-0.126	-0.045
-570.661	118.351	0.118	0.145
-569.646	-148.820	0.259	-0.021
-568.631	800.000	0.036	-0.129
-567.617	81.709	-0.124	-0.133
-566.602	-115.476	0.444	0.083
-565.588	-159.538	-0.313	-0.017
-564.573	705.049	0.067	-0.175
-563.558	-29.941	-0.288	0.162
-562.544	9.297	0.182	-0.136
-561.529	-200.000	-0.016	-0.114
-560.515	-100.504	0.431	-0.106
-559.500	-152.739	-0.242	-0.017
-558.485	800.000	-0.054	0.227
-557.471	231.462	0.125	0.204
-556.456	-188.024	-0.188	-0.002
-555.442	-109.076	0.222	0.047
-554.427	-41.255	0.154	-0.079
-553.412	55.824	-0.094	-0.090
-552.398	-50.403	-0.198	0.093
-551.383	-200.000	0.038	0.281
-550.369	-144.606	-0.117	-0.011
-549.354	38.123	0.194	-0.171
-548.339	213.310	0.070	-0.109
-547.325	88.784	0.186	0.205
-546.310	265.895	-0.162	-0.279
-545.296	116.964	0.035	-0.042
-544.281	275.972	0.052	-0.091
-543.266	-48.787	-0.263	0.125
-542.252	-137.609	-0.305	-0.034
-541.237	784.801	-0.073	-0.199
-540.223	-21.806	0.072	0.044
-539.208	-142.174	-0.203	-0.020
-538.193	-2.926	-0.221	0.153
-537.179	36.239	0.284	-0.247
-536.164	293.418	-0.116	-0.210
-535.150	-143.738	0.159	-0.015
-534.135	135.636	-0.093	0.120
-533.121	-200.000	0.061	-0.534
-532.106	45.427	0.326	0.298
-531.091	56.036	0.097	-0.093
-530.077	-200.000	0.012	-0.150
-529.062	351.249	-0.157	-0.307
-528.048	433.223	-0.022	-0.048
-527.033	65.075	-0.240	-0.240
-526.018	-23.304	0.072	0.043
-525.004	800.000	-0.022	-0.093
-523.989	135.821	0.185	0.239
-522.975	-8.277	0.235	-0.157
-521.960	-200.000	-0.021	-0.190
-520.945	214.028	0.107	-0.168
-519.931	800.000	-0.030	-0.117
-518.916	-200.000	0.044	-0.236
-517.902	-123.806	-0.323	0.051
-516.887	339.243	0.212	0.409
-515.872	516.762	0.015	-0.034
-514.858	27.930	-0.018	-0.015
-513.843	-200.000	-0.017	-0.165
-512.829	448.438	0.084	-0.183
-511.814	480.888	0.057	0.129
-510.799	-200.000	-0.008	0.329
-509.785	3.782	-0.065	-0.047
-508.770	-128.544	0.354	-0.050
-507.756	800.000	-0.122	-0.370
-506.741	-134.289	-0.116	-0.014
-505.726	800.000	-0.097	-0.349
-504.712	177.034	-0.118	0.170
-503.697	-82.810	0.098	-0.031
-502.683	79.389	0.061	0.065
-501.668	147.486	-0.184	-0.245
-500.653	168.946	-0.055	-0.078
-499.639	-118.735	0.414	0.072
-498.624	-200.000	0.028	0.160
-497.610	-87.237	-0.293	0.088
-496.595	78.367	-0.178	-0.188
-495.581	131.795	0.139	-0.177
-494.566	16.263	0.177	0.138
-493.551	-92.591	-0.200	-0.055
-492.537	-89.010	-0.189	-0.055
-491.522	-89.984	0.279	0.080
-490.508	-56.128	0.191	0.084
-489.493	75.557	0.128	-0.133
-488.478	-146.332	-0.141	-0.012
-487.464	-60.944	-0.419	-0.175
-486.449	-200.000	-0.012	-0.312
-485.435	53.295	0.133	-0.126
-484.420	47.501	0.088	-0.081
-483.405	110.313	0.106	0.126
-482.391	676.069	-0.116	0.298
-481.376	43.900	0.294	-0.267
-480.362	800.000	0.021	0.077
-479.347	800.000	0.103	-0.327
-478.332	50.536	-0.098	0.092
-477.318	-16.017	-0.224	0.141
-476.303	355.426	0.073	0.143
-475.289	-138.451	-0.243	0.026
-474.274	800.000	-0.083	-0.290
-473.259	84.529	0.309	0.333
-472.245	392.857	-0.082	-0.168
-471.230	-200.000	0.035	0.204
-470.216	-200.000	-0.047	0.210
-469.201	592.593	-0.049	-0.121
-468.186	-39.555	-0.243	-0.126
-467.172	5.281	-0.040	0.029
-466.157	184.557	-0.222	-0.325
-465.143	-200.000	-0.019	-0.388
-464.128	-200.000	-0.058	0.281
-463.113	-16.331	-0.280	-0.175
-462.099	138.622	-0.178	-0.230
-461.084	21.589	-0.087	0.070
-460.070	-87.982	0.291	-0.086
-459.055	241.294	0.133	-0.220
-458.040	256.093	-0.064	-0.108
-457.026	-31.284	-0.138	-0.077
-456.011	462.806	-0.099	-0.218
-454.997	-200.000	0.003	-0.066
-453.982	7.649	-0.044	0.032
-452.968	15.336	-0.340	-0.263
-451.953	-139.480	0.206	0.022
-450.938	22.846	0.153	-0.124
-449.924	-162.716	-0.097	0.005
-448.909	800.000	-0.048	0.133
-447.895	800.000	-0.070	0.206
-446.880	-69.036	0.165	-0.063
-445.865	-200.000	-0.010	0.073
-444.851	-71.417	-0.225	-0.083
-443.836	16.734	0.081	-0.063
-442.822	30.548	0.100	0.085
-441.807	-61.295	0.129	0.054
-440.792	105.486	0.129	-0.151
-439.778	82.456	-0.080	-0.085
-438.763	424.249	-0.051	0.109
-437.749	-93.588	0.186	-0.051
-436.734	-124.073	0.085	-0.013
-435.719	-200.000	-0.016	0.320
-434.705	20.666	0.024	0.019
-433.690	-146.089	-0.078	0.007
-432.676	-83.036	-0.265	-0.084
-431.661	-39.946	-0.287	0.148
-430.646	29.475	0.437	0.367
-429.632	-71.357	0.179	0.066
-428.617	800.000	0.195	0.624
-427.603	800.000	-0.052	-0.185
-426.588	29.059	0.138	0.116
-425.573	-112.038	-0.229	0.045
-424.559	-108.786	0.318	-0.067
-423.544	-31.962	0.111	-0.061
-422.530	-113.222	-0.351	-0.068
-421.515	-109.094	-0.279	-0.058
-420.500	-200.000	0.008	0.151
-419.486	81.274	-0.033	0.036
-418.471	-107.102	-0.442	0.096
-417.457	63.065	0.196	0.193
-416.442	-35.881	0.353	0.188
-415.428	254.491	0.185	0.311
-414.413	111.309	-0.107	-0.127
-413.398	740.411	0.094	-0.250
-412.384	570.812	-0.072	-0.174
-411.369	596.117	-0.089	0.216
-410.355	-14.734	-0.149	-0.094
-409.340	800.000	0.010	0.036
-408.325	-200.000	-0.008	0.067
-407.311	15.574	0.226	-0.175
-406.296	304.626	0.054	-0.098
-405.282	149.537	-0.229	0.306
-404.267	800.000	0.101	-0.336
-403.252	-200.000	0.028	0.137
-402.238	-200.000	-0.035	0.159
-401.223	50.213	-0.076	-0.071
-400.209	-200.000	0.006	0.218
-399.194	290.703	0.258	0.462
-398.179	133.292	0.108	-0.137
-397.165	244.636	-0.152	-0.251
-396.150	-44.191	-0.037	-0.018
-395.136	129.216	-0.149	0.188
-394.121	-200.000	0.039	-0.266
-393.106	26.268	0.102	0.084
-392.092	-164.915	-0.276	0.012
-391.077	337.963	0.242	-0.464
-390.063	-37.636	-0.107	0.056
-389.048	-68.239	-0.218	-0.083
-388.033	232.866	0.113	0.183
-387.019	489.053	0.098	-0.220
-386.004	-23.632	0.126	-0.074
-384.990	-15.389	0.191	0.120
-383.975	-200.000	0.005	-0.357
-382.960	-130.518	-0.392	0.052
-381.946	228.995	-0.188	0.301
-380.931	326.891	0.094	0.176
-379.917	-127.488	0.266	0.038
-378.902	-60.897	-0.273	0.114
-377.888	204.819	-0.087	-0.132
-376.873	674.144	0.074	-0.189
-375.858	-65.556	0.176	0.069
-374.844	403.883	-0.054	-0.111
-373.829	-200.000	-0.054	-0.247
-372.815	-200.000	-0.005	0.234
-371.800	-144.280	-0.189	0.017
-370.785	144.029	0.041	-0.054
-369.771	-200.000	-0.007	0.085
-368.756	381.132	0.020	-0.040
-367.742	338.602	0.144	0.276
-366.727	800.000	-0.018	0.071
-365.712	-35.986	-0.165	-0.088
-364.698	-85.347	0.073	-0.022
-363.683	-151.370	-0.299	0.022
-362.669	-200.000	-0.022	-0.250
-361.654	110.947	-0.074	-0.088
-360.639	-200.000	0.044	-0.235
-359.625	-200.000	-0.019	0.136
-358.610	-87.148	-0.223	0.067
-357.596	-47.202	0.012	-0.006
-356.581	800.000	-0.085	-0.250
-355.566	-20.329	-0.260	0.157
-354.552	-63.287	0.298	-0.121
-353.537	207.800	-0.149	0.229
-352.523	102.408	-0.047	0.054
-351.508	556.536	0.109	0.257
-350.493	-43.916	0.229	0.113
-349.479	231.803	-0.067	0.108
-348.464	49.014	0.235	0.217
-347.450	-135.559	0.025	0.003
-346.435	800.000	0.017	-0.068
-345.420	-200.000	0.007	-0.037
-344.406	7.518	0.200	0.147
-343.391	-200.000	-0.033	0.352
-342.377	186.274	0.022	-0.032
-341.362	-29.537	-0.095	-0.053
-340.348	-200.000	0.034	0.150
-339.333	257.087	0.137	-0.232
-338.318	-200.000	0.035	-0.200
-337.304	-200.000	0.009	-0.070
-336.289	-88.154	0.247	-0.073
-335.275	-200.000	-0.001	0.041
-334.260	800.000	-0.118	0.328
-333.245	-82.368	-0.148	-0.047
-332.231	-53.653	0.286	-0.128
-331.216	-58.671	-0.264	0.112
-330.202	114.169	0.106	0.126
-329.187	-164.820	0.249	-0.011
-328.172	-172.949	-0.262	0.008
-327.158	37.667	-0.235	-0.205
-326.143	19.111	0.093	-0.073
-325.129	-84.065	0.259	-0.081
-324.114	-200.000	-0.015	0.128
-323.099	-115.346	-0.077	0.014
-322.085	17.574	-0.151	0.118
-321.070	-162.947	0.317	0.015
-320.056	800.000	0.116	-0.318
-319.041	98.154	0.114	-0.129
-318.026	175.579	0.058	-0.083
-317.012	-48.758	0.098	0.046
-315.997	-49.067	0.163	0.076
-314.983	12.017	-0.035	-0.027
-313.968	-200.000	-0.043	-0.234
-312.953	7.708	-0.130	0.095
-311.939	800.000	0.074	0.220
-310.924	-96.455	-0.071	0.019
-309.910	-200.000	0.001	-0.059
-308.895	-200.000	0.037	0.208
-307.880	-9.830	-0.136	0.089
-306.866	372.567	-0.085	-0.170
-305.851	-165.241	0.289	-0.012
-304.837	800.000	0.072	0.257
-303.822	97.124	0.139	-0.156
-302.807	172.234	-0.129	0.183
-301.793	-62.500	0.272	0.111
-300.778	561.660	-0.122	0.288
-299.764	-200.000	-0.021	-0.182
-298.749	205.845	0.034	0.052
-297.735	665.209	0.077	0.196
-296.720	-180.870	0.395	0.008
-295.705	-95.524	0.200	0.053
-294.691	-68.907	-0.201	-0.076
-293.676	-200.000	0.037	-0.251
-292.662	18.804	-0.253	0.199
-291.647	706.118	-0.041	0.105
-290.632	-200.000	-0.039	0.180
-289.618	12.584	-0.070	0.053
-288.603	-121.896	0.134	0.022
-287.589	40.157	-0.182	-0.160
-286.574	-149.645	-0.195	0.015
-285.559	-72.904	0.323	0.117
-284.545	-139.438	-0.263	-0.028
-283.530	-93.452	-0.155	-0.042
-282.516	-139.006	-0.092	0.010
-281.501	-200.000	0.020	-0.096
-280.486	128.632	-0.107	0.134
-279.472	-110.998	-0.131	-0.026
-278.457	-176.897	-0.193	-0.005
-277.443	-200.000	0.045	-0.315
-276.428	-0.467	0.251	-0.175
-275.413	-128.513	0.241	-0.034
-274.399	73.461	-0.163	0.167
-273.384	-31.516	0.240	0.132
-272.370	-69.358	-0.105	0.040
-271.355	-200.000	0.045	-0.320
-270.340	-200.000	0.025	-0.198
-269.326	145.526	-0.203	-0.267
-268.311	-92.202	0.159	0.044
-267.297	-200.000	-0.004	0.277
-266.282	-19.615	0.298	0.181
-265.267	1.821	-0.046	0.033
-264.253	-42.433	0.063	-0.031
-263.238	-110.490	0.134	-0.027
-262.224	107.132	-0.205	-0.239
-261.209	-200.000	0.010	-0.116
-260.195	800.000	0.067	-0.261
-259.180	-5.408	0.148	0.100
-258.165	-106.441	0.221	0.048
-257.151	800.000	-0.052	-0.201
-256.136	28.910	0.162	-0.134
-255.122	-89.034	0.066	0.019
-254.107	-200.000	0.023	0.139
-253.092	664.121	0.031	0.079
-252.078	-200.000	-0.044	0.397
-251.063	-85.261	-0.127	0.039
-250.049	-200.000	-0.008	0.270
-249.034	-80.405	0.032	-0.010
-248.019	-45.373	-0.220	0.107
-247.005	185.449	0.106	-0.154
-245.990	305.791	-0.019	0.034
-244.976	-25.398	-0.252	0.146
-243.961	-36.400	-0.242	0.128
-242.946	-200.000	-0.013	-0.152
-241.932	-41.097	0.329	0.166
-240.917	366.832	-0.114	-0.224
-239.903	-114.411	-0.409	0.077
-238.888	-104.346	0.113	0.026
-237.873	35.974	-0.211	0.182
-236.859	-16.655	-0.107	0.066
-235.844	800.000	0.059	-0.227
-234.830	-1.536	0.055	-0.038
-233.815	-200.000	-0.094	-0.446
-232.800	-161.882	0.185	0.009
-231.786	122.021	0.116	0.142
-230.771	388.158	-0.082	0.166
-229.757	-55.017	0.267	-0.118
-228.742	-36.595	0.283	0.149
-227.727	-105.775	-0.390	0.086
-226.713	800.000	-0.047	0.127
-225.698	-116.975	0.335	0.060
-224.684	-101.777	0.352	0.083
-223.669	-182.252	-0.367	-0.007
-222.655	-45.631	-0.077	-0.037
-221.640	719.996	0.085	-0.222
-220.625	-45.193	-0.210	-0.102
-219.611	-200.000	-0.021	0.092
-218.596	-200.000	0.035	0.237
-217.582	68.461	-0.209	0.209
-216.567	70.775	-0.092	0.093
-215.552	-186.579	0.365	-0.005
-214.538	-200.000	-0.000	0.014
-213.523	562.100	-0.092	-0.218
-212.509	86.505	0.249	0.268
-211.494	209.057	-0.228	0.349
-210.479	-4.827	0.115	-0.077
-209.465	269.972	0.049	-0.085
-208.450	-116.623	-0.304	0.055
-207.436	-200.000	0.036	-0.253
-206.421	526.332	0.050	-0.115
-205.406	-47.132	0.274	-0.131
-204.392	-62.939	-0.133	0.054
-203.377	-200.000	0.056	-0.280
-202.363	299.639	-0.160	0.289
-201.348	-38.967	0.082	0.042
-200.333	29.530	0.191	0.159
-199.319	255.441	-0.048	-0.081
-198.304	39.375	-0.417	0.365
-197.290	-200.000	0.013	0.253
-196.275	-168.718	-0.109	-0.004
-195.260	-134.024	0.325	-0.039
-194.246	-103.437	0.330	-0.076
-193.231	-25.683	-0.318	0.183
-192.217	61.525	-0.044	0.043
-191.202	116.672	-0.086	-0.103
-190.187	347.409	-0.152	-0.293
-189.173	-108.690	0.340	-0.071
-188.158	24.359	0.119	0.096
-187.144	7.123	-0.041	-0.030
-186.129	-122.173	-0.381	0.061
-185.114	-105.622	0.606	0.134
-184.100	-200.000	0.011	0.194
-183.085	800.000	-0.062	0.186
-182.071	220.042	-0.089	-0.139
-181.056	12.697	-0.227	-0.171
-180.042	464.799	-0.072	-0.156
-179.027	-61.633	-0.352	0.144
-178.012	3.786	0.252	-0.180
-176.998	800.000	-0.086	0.299
-175.983	13.285	-0.037	0.028
-174.969	103.728	-0.025	-0.029
-173.954	45.613	-0.261	-0.236
-172.939	-44.371	0.182	-0.089
-171.925	471.785	0.021	-0.047
-170.910	-200.000	0.400	-0.001
-169.896	-145.182	-0.331	0.029
-168.881	40.882	-0.033	0.029
-167.866	111.168	-0.147	-0.173
-166.852	800.000	0.079	0.269
-165.837	41.911	0.056	-0.050
-164.823	-200.000	0.067	-0.423
-163.808	-86.304	-0.097	0.029
-162.793	800.000	0.075	-0.245
-161.779	282.771	0.132	-0.231
-160.764	800.000	-0.041	0.152
-159.750	-95.918	-0.329	-0.085
-158.735	57.285	-0.109	-0.104
-157.720	66.577	-0.439	0.436
-156.706	161.213	-0.138	-0.188
-155.691	146.161	0.081	0.106
-154.677	60.010	-0.034	-0.032
-153.662	-35.532	-0.265	0.140
-152.647	63.482	0.096	0.094
-151.633	-200.000	0.035	0.230
-150.618	63.381	-0.171	-0.167
-149.604	800.000	0.060	0.226
-148.589	800.000	0.091	0.349
-147.574	8.596	0.251	-0.184
-146.560	-142.092	-0.134	0.013
-145.545	-200.000	-0.004	-0.020
-144.531	-200.000	0.049	0.573
-143.516	8.371	0.187	0.137
-142.502	259.994	-0.111	-0.187
-141.487	-200.000	0.057	0.378
-140.472	-200.000	-0.044	0.244
-139.458	427.950	-0.081	0.171
-138.443	677.449	0.084	-0.214
-137.429	-200.000	0.094	0.523
-136.414	104.482	-0.150	0.172
-135.399	89.725	-0.030	-0.033
-134.385	-37.933	0.188	-0.098
-133.370	12.277	-0.194	0.145
-132.356	74.935	0.199	-0.204
-131.341	-113.554	0.158	0.030
-130.326	800.000	-0.060	0.216
-129.312	-68.850	0.254	-0.096
-128.297	435.400	-0.073	0.155
-127.283	35.632	-0.136	-0.116
-126.268	-14.535	0.262	-0.164
-125.253	-200.000	-0.010	-0.103
-124.239	800.000	0.052	0.151
-123.224	800.000	0.047	0.161
-122.210	248.098	-0.188	0.309
