DTS Sentinel unit serial number:	SN413079Multiplexer serial number:	ORYXHardware model number:	OX4-SRSoftware version number:	ORYX F/W v4.00 Oryx Data Collector v3.7.2.0data status	okinstallation	princeton_trtdifferential loss correction	single-endedforward channel	channel 2reverse channel	N/Adate	2019/09/14time	19:39:35forward acquisition time	60.00reverse acquisition time	0.00gamma	496.2192k internal	0.2320k external	0.2320temperature offset calibration	1.0097default loss term (dB/km)	0.3790temperature slope calibration	1.0000multiplexer offset coefficient	1.0000multiplexer slope coefficient	1.0000fibre end	0.00T internal ref (°C)	34.55T ext. ref 1 (°C)	4.88T ext. ref 2 (°C)	28.78length (m)	temperature (°C)	Stokes	anti-Stokes-747.200	-120.261	0.105	-0.018
-746.185	-67.793	-0.178	-0.070
-745.171	-54.367	-0.299	-0.137
-744.156	-193.417	-0.239	-0.002
-743.142	-67.619	0.147	0.058
-742.127	-200.000	-0.076	0.392
-741.112	-52.353	-0.130	0.061
-740.098	-26.417	-0.049	-0.029
-739.083	115.139	-0.121	-0.150
-738.069	800.000	0.064	-0.266
-737.054	-200.000	-0.001	-0.270
-736.039	-11.010	-0.169	0.112
-735.025	-72.201	0.091	-0.034
-734.010	-52.822	-0.199	-0.093
-732.996	800.000	0.095	-0.297
-731.981	800.000	-0.046	0.148
-730.966	800.000	-0.091	-0.268
-729.952	-89.757	0.491	0.145
-728.937	31.701	-0.295	-0.256
-727.923	58.980	-0.025	-0.025
-726.908	-154.910	-0.110	0.007
-725.894	-145.828	-0.158	0.014
-724.879	31.845	-0.092	-0.080
-723.864	65.619	0.047	-0.048
-722.850	-141.494	-0.314	0.032
-721.835	800.000	-0.069	-0.204
-720.821	562.192	-0.091	-0.222
-719.806	-99.318	0.236	0.060
-718.791	-75.593	-0.084	0.030
-717.777	0.619	-0.289	0.209
-716.762	-200.000	0.037	0.406
-715.748	-200.000	-0.019	0.134
-714.733	0.759	0.242	-0.175
-713.718	98.442	-0.107	0.125
-712.704	-98.639	0.207	-0.053
-711.689	161.012	-0.168	0.237
-710.675	181.461	-0.072	-0.107
-709.660	800.000	-0.127	-0.402
-708.645	-200.000	-0.081	-0.371
-707.631	342.914	-0.086	0.170
-706.616	67.426	-0.083	0.085
-705.602	-200.000	0.010	0.095
-704.587	70.817	-0.139	-0.146
-703.572	-25.910	-0.185	0.110
-702.558	800.000	0.047	0.174
-701.543	-200.000	-0.017	-0.361
-700.529	800.000	0.126	-0.461
-699.514	800.000	0.023	0.092
-698.499	800.000	0.023	-0.081
-697.485	-60.280	-0.024	-0.010
-696.470	-119.199	-0.234	-0.041
-695.456	-56.824	-0.088	-0.039
-694.441	61.128	-0.257	-0.258
-693.426	643.673	-0.069	-0.178
-692.412	186.323	0.131	0.197
-691.397	444.464	0.123	0.272
-690.383	81.240	-0.173	0.189
-689.368	-153.497	0.244	0.017
-688.354	800.000	-0.093	-0.325
-687.339	139.150	0.086	0.114
-686.324	774.224	-0.028	-0.078
-685.310	-90.698	0.025	0.007
-684.295	-85.093	0.165	-0.052
-683.281	157.421	0.075	0.105
-682.266	-93.660	-0.079	-0.022
-681.251	-172.571	0.033	-0.001
-680.237	52.627	-0.069	0.067
-679.222	462.937	0.106	0.239
-678.208	-200.000	0.005	0.095
-677.193	-117.522	0.319	-0.058
-676.178	-163.519	-0.361	0.017
-675.164	21.038	0.161	0.132
-674.149	-163.268	-0.339	0.016
-673.135	462.640	-0.124	0.279
-672.120	-164.979	-0.139	0.006
-671.105	-122.222	-0.098	0.016
-670.091	-12.898	0.359	0.236
-669.076	134.776	-0.045	-0.059
-668.062	-36.840	-0.129	0.070
-667.047	110.019	-0.119	-0.144
-666.032	-87.302	0.090	0.027
-665.018	-200.000	0.008	-0.105
-664.003	800.000	-0.087	0.242
-662.989	-5.594	0.038	-0.026
-661.974	233.316	0.092	0.152
-660.959	113.338	0.150	-0.183
-659.945	99.243	0.233	0.271
-658.930	686.664	-0.111	0.291
-657.916	-28.031	0.088	-0.051
-656.901	800.000	0.071	-0.221
-655.886	4.183	-0.222	-0.163
-654.872	-200.000	0.035	0.186
-653.857	72.582	0.238	0.250
-652.843	569.752	-0.054	-0.133
-651.828	116.913	-0.228	-0.282
-650.814	-200.000	0.007	-0.223
-649.799	286.548	-0.084	-0.153
-648.784	61.795	0.143	0.144
-647.770	-200.000	0.014	-0.228
-646.755	-56.806	-0.210	-0.094
-645.741	-71.784	0.310	0.117
-644.726	-174.591	0.187	-0.005
-643.711	65.491	0.085	-0.087
-642.697	-114.191	-0.079	-0.015
-641.682	182.005	-0.033	0.049
-640.668	-149.544	0.246	0.020
-639.653	-36.397	-0.060	0.032
-638.638	800.000	0.045	-0.141
-637.624	-200.000	-0.057	-0.282
-636.609	117.366	-0.276	-0.342
-635.595	84.055	-0.273	0.300
-634.580	-154.958	-0.269	-0.018
-633.565	-47.733	-0.167	0.082
-632.551	800.000	-0.048	-0.135
-631.536	147.988	0.118	-0.160
-630.522	36.996	-0.282	-0.251
-629.507	19.995	0.271	-0.220
-628.492	459.517	-0.072	-0.162
-627.478	234.626	-0.083	0.138
-626.463	10.962	0.067	0.051
-625.449	-200.000	0.034	-0.249
-624.434	-67.757	-0.182	0.072
-623.419	-3.687	0.380	-0.266
-622.405	374.839	-0.112	0.229
-621.390	1.781	-0.079	-0.057
-620.376	-15.831	-0.174	0.112
-619.361	231.190	-0.194	0.319
-618.346	800.000	-0.018	0.057
-617.332	-4.789	-0.177	0.123
-616.317	-60.357	-0.249	0.107
-615.303	800.000	0.059	0.201
-614.288	317.165	0.078	-0.148
-613.273	-56.226	-0.144	0.064
-612.259	15.643	-0.089	0.070
-611.244	338.828	-0.077	0.151
-610.230	-172.151	-0.170	-0.006
-609.215	-200.000	-0.018	0.367
-608.201	75.192	0.059	0.063
-607.186	52.643	-0.182	0.174
-606.171	1.839	0.159	-0.115
-605.157	204.960	0.145	-0.226
-604.142	-200.000	0.049	0.259
-603.128	-55.871	-0.239	0.108
-602.113	-200.000	0.042	0.354
-601.098	-141.796	-0.141	-0.014
-600.084	-81.934	0.166	0.054
-599.069	-200.000	0.044	0.429
-598.055	-56.352	0.028	0.012
-597.040	9.477	-0.142	0.108
-596.025	-200.000	0.048	-0.219
-595.011	-200.000	-0.526	-0.002
-593.996	84.701	0.104	-0.114
-592.982	752.043	0.056	-0.153
-591.967	404.596	-0.102	0.215
-590.952	103.207	0.296	-0.349
-589.938	-115.096	-0.174	0.033
-588.923	800.000	-0.066	0.200
-587.909	-200.000	-0.015	-0.156
-586.894	403.683	-0.112	-0.238
-585.879	-38.315	0.374	0.199
-584.865	-42.506	-0.050	0.026
-583.850	-81.934	0.067	-0.022
-582.836	-134.607	0.294	-0.036
-581.821	-200.000	0.016	0.084
-580.806	143.820	-0.013	0.017
-579.792	-8.871	0.257	0.173
-578.777	581.891	-0.124	-0.305
-577.763	42.109	-0.075	0.068
-576.748	-49.289	-0.334	-0.160
-575.733	246.647	-0.044	-0.075
-574.719	270.654	0.154	-0.272
-573.704	-200.000	0.012	0.109
-572.690	-200.000	-0.007	-0.164
-571.675	748.528	-0.103	0.278
-570.661	-91.826	0.120	0.034
-569.646	34.239	-0.268	-0.234
-568.631	-200.000	0.008	0.267
-567.617	800.000	0.068	-0.287
-566.602	681.644	0.152	-0.398
-565.588	-163.307	0.046	0.002
-564.573	114.904	0.213	0.260
-563.558	-165.586	0.098	0.004
-562.544	26.791	-0.048	0.040
-561.529	-200.000	0.004	-0.227
-560.515	-200.000	0.004	0.226
-559.500	-99.592	0.171	0.043
-558.485	-200.000	-0.010	-0.288
-557.471	-200.000	0.314	0.001
-556.456	-200.000	-0.022	0.396
-555.442	-89.853	0.210	-0.062
-554.427	165.853	0.028	-0.040
-553.412	-61.446	-0.312	0.132
-552.398	-109.290	0.303	0.064
-551.383	39.411	0.086	-0.077
-550.369	188.636	-0.037	-0.055
-549.354	-94.533	-0.253	-0.069
-548.339	19.384	-0.112	0.090
-547.325	63.746	0.196	-0.198
-546.310	-155.702	0.188	0.012
-545.296	800.000	0.002	-0.007
-544.281	148.288	0.125	-0.170
-543.266	56.530	0.116	0.113
-542.252	800.000	0.079	-0.304
-541.237	800.000	-0.017	0.049
-540.223	520.790	-0.024	-0.056
-539.208	-200.000	-0.006	-0.166
-538.193	-169.058	-0.543	-0.020
-537.179	800.000	-0.055	-0.239
-536.164	-2.876	-0.214	-0.150
-535.150	800.000	0.080	-0.260
-534.135	28.462	-0.145	-0.123
-533.121	-91.554	-0.175	0.050
-532.106	-29.171	-0.307	0.176
-531.091	-200.000	-0.079	0.683
-530.077	-200.000	-0.029	-0.334
-529.062	-81.526	0.261	0.086
-528.048	-200.000	0.021	-0.193
-527.033	-131.795	0.169	0.022
-526.018	32.211	-0.064	-0.056
-525.004	142.597	0.051	-0.068
-523.989	800.000	0.020	-0.079
-522.975	-124.163	-0.148	-0.023
-521.960	74.222	-0.127	0.134
-520.945	-48.915	0.168	-0.081
-519.931	-75.185	-0.328	-0.117
-518.916	519.593	-0.072	0.169
-517.902	-200.000	0.014	0.221
-516.887	164.092	0.205	-0.289
-515.872	-78.132	0.131	0.045
-514.858	637.773	0.065	0.165
-513.843	14.111	-0.153	-0.119
-512.829	-112.424	-0.129	0.026
-511.814	-3.562	-0.111	-0.078
-510.799	-58.272	0.294	-0.128
-509.785	800.000	-0.027	-0.083
-508.770	-200.000	-0.004	0.140
-507.756	24.977	0.178	0.148
-506.741	84.971	-0.162	0.178
-505.726	36.679	-0.053	-0.047
-504.712	800.000	0.047	0.141
-503.697	-200.000	0.020	-0.128
-502.683	800.000	-0.084	0.283
-501.668	43.606	0.155	0.142
-500.653	-1.956	-0.215	0.151
-499.639	-39.769	-0.232	0.121
-498.624	-98.020	0.373	0.096
-497.610	746.729	-0.021	0.058
-496.595	171.754	0.099	-0.142
-495.581	-116.082	0.246	-0.046
-494.566	800.000	-0.036	-0.111
-493.551	-200.000	-0.018	-0.174
-492.537	-100.776	0.132	0.033
-491.522	-69.433	0.254	-0.097
-490.508	-54.865	-0.129	-0.058
-489.493	237.270	0.195	-0.324
-488.478	-161.894	-0.184	0.009
-487.464	45.061	-0.153	0.141
-486.449	97.552	-0.134	0.155
-485.435	-200.000	-0.070	-0.328
-484.420	-200.000	-0.022	-0.314
-483.405	-200.000	0.075	-0.361
-482.391	-99.547	0.090	0.023
-481.376	-174.565	-0.464	0.013
-480.362	-106.960	-0.149	0.033
-479.347	-89.422	0.206	0.061
-478.332	72.098	0.125	0.130
-477.318	-200.000	0.053	0.332
-476.303	29.969	-0.105	-0.090
-475.289	4.565	0.233	0.171
-474.274	49.008	-0.233	-0.219
-473.259	404.249	0.071	0.149
-472.245	-109.630	0.203	-0.043
-471.230	-104.595	-0.115	0.026
-470.216	-200.000	0.036	-0.288
-469.201	-107.913	0.297	-0.065
-468.186	-200.000	-0.034	-0.360
-467.172	3.314	-0.247	-0.180
-466.157	32.591	0.074	0.064
-465.143	-148.223	-0.710	-0.059
-464.128	199.251	0.136	-0.208
-463.113	800.000	-0.078	0.301
-462.099	-12.392	0.164	0.107
-461.084	135.312	-0.168	0.218
-460.070	-166.704	-0.402	-0.017
-459.055	-110.792	0.084	0.017
-458.040	-6.591	-0.269	0.183
-457.026	28.288	0.173	0.146
-456.011	12.453	-0.154	-0.118
-454.997	-140.800	0.350	0.036
-453.982	-78.605	0.138	-0.047
-452.968	-128.245	-0.254	0.036
-451.953	-61.599	-0.277	-0.116
-450.938	-200.000	-0.026	-0.334
-449.924	-166.056	0.206	-0.009
-448.909	135.110	-0.121	-0.158
-447.895	-200.000	0.000	-0.058
-446.880	-118.014	0.061	-0.011
-445.865	96.688	-0.288	-0.329
-444.851	-152.014	0.180	0.013
-443.836	800.000	-0.026	0.084
-442.822	-95.415	-0.254	-0.068
-441.807	-66.735	-0.038	-0.015
-440.792	342.963	0.062	0.121
-439.778	49.177	0.180	0.169
-438.763	-200.000	0.030	-0.223
-437.749	800.000	0.073	-0.233
-436.734	295.876	-0.089	0.162
-435.719	5.760	0.181	-0.134
-434.705	72.668	0.097	0.101
-433.690	54.266	0.137	-0.132
-432.676	-86.510	-0.303	-0.093
-431.661	-200.000	0.072	0.340
-430.646	800.000	0.020	-0.057
-429.632	-4.503	-0.059	-0.041
-428.617	-164.921	0.109	-0.005
-427.603	800.000	-0.080	0.245
-426.588	202.980	-0.034	-0.052
-425.573	800.000	0.040	-0.131
-424.559	250.607	-0.071	-0.121
-423.544	800.000	-0.080	0.263
-422.530	-200.000	-0.014	0.186
-421.515	-200.000	-0.009	-0.284
-420.500	-200.000	0.009	-0.079
-419.486	800.000	-0.027	-0.111
-418.471	76.381	-0.040	-0.042
-417.457	-9.595	-0.158	0.105
-416.442	-62.755	-0.364	-0.150
-415.428	-82.999	-0.429	-0.138
-414.413	-68.853	0.093	-0.036
-413.398	-17.979	0.332	-0.208
-412.384	-184.206	0.182	0.003
-411.369	-50.674	0.150	-0.070
-410.355	-136.590	-0.261	-0.030
-409.340	-121.898	-0.696	0.114
-408.325	800.000	0.030	0.095
-407.311	800.000	-0.037	-0.125
-406.296	-26.780	0.069	0.040
-405.282	140.902	0.105	-0.138
-404.267	327.093	0.070	0.133
-403.252	-42.013	-0.052	0.027
-402.238	-50.109	-0.239	-0.113
-401.223	434.044	0.109	-0.236
-400.209	-200.000	0.027	0.221
-399.194	52.888	-0.127	0.121
-398.179	95.112	0.251	-0.286
-397.165	640.162	0.053	-0.133
-396.150	800.000	-0.048	0.187
-395.136	111.339	-0.115	0.138
-394.121	-200.000	0.070	-0.355
-393.106	0.235	0.067	0.048
-392.092	-136.869	0.220	-0.025
-391.077	119.361	-0.171	-0.211
-390.063	-92.729	-0.336	-0.094
-389.048	800.000	0.077	0.331
-388.033	-200.000	0.002	0.100
-387.019	-149.301	0.155	-0.012
-386.004	14.464	-0.147	-0.114
-384.990	-37.123	0.175	-0.094
-383.975	800.000	0.043	-0.142
-382.960	800.000	0.057	-0.217
-381.946	29.760	0.282	0.239
-380.931	-66.396	-0.363	-0.144
-379.917	-34.569	0.035	0.019
-378.902	-4.998	0.055	0.038
-377.888	-78.741	0.051	0.017
-376.873	5.664	0.445	-0.328
-375.858	102.921	0.170	0.199
-374.844	450.535	0.097	-0.213
-373.829	120.833	-0.132	0.163
-372.815	800.000	0.056	-0.154
-371.800	181.219	0.128	0.187
-370.785	-60.870	0.289	-0.122
-369.771	318.441	-0.088	-0.166
-368.756	-87.909	0.012	-0.004
-367.742	-12.430	-0.206	-0.134
-366.727	-21.401	0.290	0.177
-365.712	-200.000	-0.012	-0.365
-364.698	-115.026	0.324	-0.061
-363.683	800.000	0.075	0.222
-362.669	-200.000	0.013	0.066
-361.654	-200.000	-0.025	0.498
-360.639	98.987	0.084	-0.097
-359.625	-139.827	-0.408	-0.043
-358.610	-200.000	-0.012	0.198
-357.596	601.786	-0.094	0.233
-356.581	-14.045	-0.242	0.156
-355.566	-119.830	0.231	-0.040
-354.552	-200.000	-0.078	0.484
-353.537	-200.000	0.008	0.331
-352.523	800.000	-0.040	0.128
-351.508	-200.000	-0.007	0.251
-350.493	-58.344	-0.205	-0.089
-349.479	-200.000	0.046	0.348
-348.464	-200.000	-0.017	-0.139
-347.450	-184.464	0.328	-0.005
-346.435	-200.000	0.029	0.416
-345.420	148.487	-0.063	-0.085
-344.406	-78.760	0.304	-0.103
-343.391	-51.130	-0.071	0.033
-342.377	-29.634	-0.160	0.091
-341.362	-55.294	0.230	-0.103
-340.348	254.638	-0.124	0.211
-339.333	159.950	-0.134	0.186
-338.318	800.000	0.076	-0.258
-337.304	21.627	-0.167	-0.136
-336.289	88.870	0.107	-0.119
-335.275	-14.234	0.161	-0.103
-334.260	-53.807	0.432	-0.196
-333.245	-120.711	-0.186	0.031
-332.231	800.000	-0.043	-0.149
-331.216	118.157	0.050	0.061
-330.202	-37.729	-0.116	-0.061
-329.187	-200.000	-0.003	0.139
-328.172	-200.000	-0.025	0.141
-327.158	531.209	0.074	-0.174
-326.143	-28.375	0.215	-0.124
-325.129	493.696	0.146	0.334
-324.114	-44.485	0.122	0.061
-323.099	6.437	0.069	-0.051
-322.085	-132.868	0.128	-0.016
-321.070	43.109	-0.312	-0.283
-320.056	800.000	-0.029	0.097
-319.041	800.000	0.044	0.175
-318.026	-29.983	0.053	0.030
-317.012	-200.000	0.048	-0.309
-315.997	141.317	0.109	0.143
-314.983	60.044	0.211	-0.207
-313.968	-81.531	0.350	-0.114
-312.953	-200.000	-0.030	0.159
-311.939	-160.007	-0.153	0.008
-310.924	-200.000	-0.062	0.287
-309.910	204.369	-0.119	0.183
-308.895	146.440	0.251	0.335
-307.880	-200.000	-0.079	0.372
-306.866	800.000	0.053	0.168
-305.851	201.710	0.039	-0.060
-304.837	-60.968	0.460	-0.193
-303.822	302.443	0.167	0.308
-302.807	442.424	-0.047	0.102
-301.793	-120.958	-0.133	0.022
-300.778	6.226	-0.134	-0.099
-299.764	514.860	0.072	-0.168
-298.749	-200.000	0.013	0.102
-297.735	519.676	0.067	0.156
-296.720	216.315	0.031	-0.049
-295.705	45.751	-0.177	0.162
-294.691	-28.880	-0.200	0.114
-293.676	800.000	-0.061	0.172
-292.662	796.593	-0.078	-0.213
-291.647	201.321	-0.136	-0.208
-290.632	-83.779	0.155	0.049
-289.618	-29.983	-0.048	0.027
-288.603	-8.394	0.123	-0.082
-287.589	777.855	-0.065	-0.177
-286.574	-47.814	-0.113	0.055
-285.559	-200.000	-0.034	-0.209
-284.545	255.075	0.074	-0.126
-283.530	37.658	0.311	-0.274
-282.516	-31.855	0.063	-0.035
-281.501	-141.115	0.155	-0.016
-280.486	800.000	0.043	-0.119
-279.472	418.049	-0.046	0.097
-278.457	117.146	-0.167	-0.204
-277.443	-41.359	0.248	0.127
-276.428	-50.672	-0.132	-0.062
-275.413	-76.369	-0.136	-0.048
-274.399	4.392	-0.106	0.077
-273.384	-82.534	0.362	0.117
-272.370	149.725	0.175	-0.235
-271.355	690.773	-0.047	0.123
-270.340	93.761	0.054	0.061
-269.326	-55.996	0.061	-0.027
-268.311	-200.000	0.010	-0.045
-267.297	800.000	-0.083	-0.243
-266.282	743.725	0.061	-0.162
-265.267	36.249	-0.104	-0.091
-264.253	209.249	0.101	0.156
-263.238	-200.000	-0.012	0.177
-262.224	123.912	0.207	-0.258
-261.209	440.616	-0.102	-0.221
-260.195	-73.231	-0.267	0.097
-259.180	-101.934	0.233	-0.056
-258.165	-164.040	-0.223	0.010
-257.151	-68.489	-0.093	-0.036
-256.136	146.039	-0.068	-0.091
-255.122	-39.602	-0.306	-0.159
-254.107	-60.075	0.055	-0.023
-253.092	798.213	0.028	-0.077
-252.078	117.249	0.397	-0.484
-251.063	-4.755	0.065	-0.044
-250.049	199.887	0.039	0.059
-249.034	800.000	0.056	0.154
-248.019	-200.000	0.043	-0.207
-247.005	-60.534	0.318	-0.134
-245.990	527.827	0.092	0.214
-244.976	36.666	-0.292	0.255
-243.961	-200.000	-0.047	0.224
-242.946	-48.873	-0.254	0.121
-241.932	-200.000	0.004	0.085
-240.917	18.130	0.114	0.090
-239.903	83.553	0.194	-0.209
-238.888	213.695	0.128	0.201
-237.873	199.990	-0.156	0.238
-236.859	783.239	-0.110	-0.297
-235.844	1.775	0.290	0.207
-234.830	-40.299	-0.079	0.041
-233.815	-75.646	-0.266	0.094
-232.800	-72.202	0.197	0.072
-231.786	99.745	0.049	-0.057
-230.771	-200.000	-0.004	-0.051
-229.757	114.801	-0.064	-0.078
-228.742	-90.873	-0.064	0.018
-227.727	414.582	-0.093	0.196
-226.713	-200.000	0.021	0.166
-225.698	800.000	0.086	-0.292
-224.684	-46.830	0.036	-0.018
-223.669	316.888	0.193	-0.362
-222.655	-75.015	-0.159	0.056
-221.640	770.406	-0.039	-0.106
-220.625	-76.705	0.068	0.023
-219.611	800.000	-0.056	-0.191
-218.596	-63.606	-0.134	0.054
-217.582	-73.849	0.223	-0.080
-216.567	800.000	-0.114	0.365
-215.552	800.000	0.057	0.172
-214.538	271.736	-0.134	-0.233
-213.523	-200.000	-0.064	-0.303
-212.509	-73.856	0.187	0.067
-211.494	144.215	-0.138	0.182
-210.479	-82.505	0.047	-0.015
-209.465	61.804	-0.102	-0.101
-208.450	61.393	-0.180	-0.177
-207.436	-200.000	-0.013	0.238
-206.421	-66.635	-0.230	0.090
-205.406	-75.850	0.154	0.054
-204.392	51.041	-0.073	-0.068
-203.377	357.216	-0.139	0.274
-202.363	42.298	-0.241	0.217
-201.348	-200.000	-0.017	0.146
-200.333	800.000	-0.067	-0.270
-199.319	-200.000	0.034	-0.204
-198.304	800.000	0.102	0.323
-197.290	800.000	0.202	0.565
-196.275	208.250	0.117	-0.181
-195.260	-121.138	-0.203	-0.034
-194.246	-28.272	-0.242	0.138
-193.231	38.971	-0.126	0.111
-192.217	-61.532	-0.275	-0.114
-191.202	201.935	0.104	0.158
-190.187	-141.990	0.214	0.021
-189.173	-64.360	0.221	0.089
-188.158	-101.617	-0.086	-0.021
-187.144	128.602	0.173	-0.218
-186.129	-200.000	0.053	-0.292
-185.114	-136.257	-0.146	0.017
-184.100	61.875	0.315	0.311
-183.085	-68.699	0.245	-0.094
-182.071	129.401	-0.212	0.268
-181.056	474.648	0.138	0.309
-180.042	34.244	-0.084	0.073
-179.027	192.970	0.021	0.031
-178.012	328.399	0.132	0.251
-176.998	-132.049	0.337	-0.043
-175.983	-42.392	-0.392	0.198
-174.969	-146.155	-0.275	0.024
-173.954	800.000	-0.044	-0.128
-172.939	18.089	0.153	-0.120
-171.925	-200.000	-0.063	0.321
-170.910	-56.868	0.270	-0.118
-169.896	383.814	0.165	0.337
-168.881	800.000	0.081	-0.297
-167.866	-35.124	-0.224	-0.120
-166.852	-179.255	0.252	0.006
-165.837	-86.492	-0.186	-0.057
-164.823	34.372	-0.128	-0.110
-163.808	-129.469	0.251	0.034
-162.793	399.064	-0.191	0.395
-161.779	157.413	0.111	0.152
-160.764	-61.995	-0.253	-0.104
-159.750	-1.238	-0.147	-0.102
-158.735	-16.325	0.342	0.215
-157.720	800.000	0.033	-0.129
-156.706	-200.000	-0.019	0.091
-155.691	-200.000	0.033	-0.245
-154.677	-22.436	0.158	0.094
-153.662	-94.453	-0.219	-0.059
-152.647	-200.000	-0.066	0.319
-151.633	-167.413	0.299	0.012
-150.618	-45.338	0.144	-0.071
-149.604	800.000	-0.040	0.170
-148.589	800.000	0.067	-0.203
-147.574	-93.311	-0.070	0.019
-146.560	9.132	-0.257	0.192
-145.545	68.243	0.094	-0.095
-144.531	-147.754	-0.145	-0.012
-143.516	-200.000	-0.023	0.165
-142.502	-108.497	0.290	-0.062
-141.487	800.000	-0.077	0.267
-140.472	-151.025	0.283	-0.021
-139.458	0.464	0.224	0.158
-138.443	-200.000	0.036	0.485
-137.429	-148.197	0.113	0.009
-136.414	148.444	-0.205	0.274
-135.399	800.000	-0.083	0.289
-134.385	25.943	-0.168	-0.139
-133.370	132.779	-0.269	0.342
-132.356	800.000	-0.044	-0.179
-131.341	229.470	-0.110	-0.177
-130.326	35.728	-0.287	0.249
-129.312	-89.093	0.286	-0.084
-128.297	155.296	-0.081	0.110
-127.283	243.348	0.140	0.232
-126.268	442.978	0.092	0.199
-125.253	62.593	0.324	0.320
-124.239	-158.312	-0.179	0.010
-123.224	-96.094	-0.046	-0.012
-122.210	-200.000	0.003	-0.015
-121.195	700.541	-0.166	-0.430
-120.180	153.599	-0.205	-0.277
