DTS Sentinel unit serial number:	SN413079Multiplexer serial number:	ORYXHardware model number:	OX4-SRSoftware version number:	ORYX F/W v4.00 Oryx Data Collector v3.7.2.0data status	okinstallation	princeton_trtdifferential loss correction	single-endedforward channel	channel 2reverse channel	N/Adate	2019/09/11time	04:05:10forward acquisition time	60.00reverse acquisition time	0.00gamma	496.2192k internal	0.2329k external	0.2329temperature offset calibration	0.9938default loss term (dB/km)	0.3790temperature slope calibration	1.0000multiplexer offset coefficient	1.0000multiplexer slope coefficient	1.0000fibre end	0.00T internal ref (°C)	29.56T ext. ref 1 (°C)	-0.28T ext. ref 2 (°C)	23.65length (m)	temperature (°C)	Stokes	anti-Stokes-747.200	-9.917	-0.244	-0.164
-746.185	-200.000	0.065	-0.406
-745.171	-33.231	0.142	-0.079
-744.156	-73.702	0.132	-0.049
-743.142	-165.283	0.161	0.007
-742.127	-101.543	0.210	0.051
-741.112	47.346	-0.091	0.086
-740.098	153.676	-0.298	0.412
-739.083	-166.898	0.298	0.012
-738.069	53.507	-0.064	0.062
-737.054	562.691	-0.109	-0.266
-736.039	-175.109	-0.379	0.011
-735.025	-113.405	0.428	-0.085
-734.010	585.195	-0.177	-0.437
-732.996	-0.383	0.041	-0.029
-731.981	-43.516	-0.325	-0.165
-730.966	-142.872	-0.456	-0.045
-729.952	-7.595	-0.039	0.027
-728.937	149.754	-0.166	0.226
-727.923	800.000	-0.082	-0.255
-726.908	309.963	-0.116	-0.219
-725.894	10.116	-0.174	-0.133
-724.879	212.691	0.204	-0.325
-723.864	440.062	-0.020	-0.044
-722.850	771.476	0.133	-0.366
-721.835	8.142	0.202	-0.153
-720.821	12.053	-0.382	-0.296
-719.806	-200.000	-0.008	0.078
-718.791	-89.625	-0.128	-0.038
-717.777	109.736	0.078	0.094
-716.762	-200.000	-0.010	0.162
-715.748	36.308	-0.047	-0.042
-714.733	297.174	-0.044	-0.081
-713.718	17.717	0.143	0.115
-712.704	50.087	-0.121	0.115
-711.689	-35.830	0.108	-0.059
-710.675	27.491	-0.287	-0.242
-709.660	-70.663	0.274	0.104
-708.645	71.884	0.035	0.037
-707.631	228.122	-0.075	-0.123
-706.616	800.000	0.046	0.137
-705.602	-180.829	-0.215	0.004
-704.587	-200.000	-0.040	-0.250
-703.572	-144.293	0.184	-0.017
-702.558	447.054	-0.040	0.090
-701.543	63.778	-0.133	0.134
-700.529	-0.736	-0.195	-0.139
-699.514	-76.834	-0.183	0.064
-698.499	-200.000	-0.027	-0.131
-697.485	-12.629	0.093	0.061
-696.470	424.698	0.014	-0.031
-695.456	-88.232	-0.314	-0.094
-694.441	-66.982	-0.306	-0.121
-693.426	26.965	0.087	0.074
-692.412	547.413	-0.147	-0.353
-691.397	-170.736	0.358	0.012
-690.383	-25.133	-0.204	-0.122
-689.368	-46.258	0.292	0.144
-688.354	115.900	0.189	-0.232
-687.339	-145.958	0.151	0.013
-686.324	800.000	-0.088	0.351
-685.310	233.682	0.179	-0.296
-684.295	347.380	0.101	0.200
-683.281	34.136	-0.203	0.178
-682.266	-78.761	0.326	0.112
-681.251	-7.096	0.131	-0.089
-680.237	-200.000	-0.040	0.208
-679.222	781.366	0.024	-0.066
-678.208	152.374	-0.149	0.205
-677.193	-200.000	0.034	-0.250
-676.178	149.119	-0.087	0.119
-675.164	585.714	-0.150	0.370
-674.149	-159.571	0.143	-0.008
-673.135	-32.263	-0.198	-0.111
-672.120	-24.621	-0.260	0.155
-671.105	-149.324	0.155	0.012
-670.091	6.101	-0.208	0.155
-669.076	-82.454	-0.274	0.090
-668.062	800.000	-0.059	-0.248
-667.047	-200.000	0.000	0.014
-666.032	186.775	0.152	0.228
-665.018	800.000	0.101	-0.329
-664.003	-24.996	0.193	-0.115
-662.989	380.596	0.163	-0.335
-661.974	800.000	0.031	-0.093
-660.959	-12.907	-0.156	-0.102
-659.945	-41.634	-0.092	-0.048
-658.930	-5.278	-0.089	0.062
-657.916	28.673	0.072	0.061
-656.901	-200.000	-0.007	0.038
-655.886	800.000	0.022	0.086
-654.872	-79.883	-0.535	-0.181
-653.857	-200.000	0.001	0.153
-652.843	126.474	-0.222	-0.282
-651.828	710.283	0.149	-0.397
-650.814	543.193	-0.132	-0.316
-649.799	-64.669	-0.134	-0.055
-648.784	280.726	0.137	0.246
-647.770	-24.742	0.170	-0.102
-646.755	-64.202	-0.303	-0.124
-645.741	-78.984	0.179	0.061
-644.726	-153.676	0.124	0.009
-643.711	-200.000	-0.002	0.043
-642.697	604.714	-0.035	-0.088
-641.682	-183.021	-0.306	-0.005
-640.668	-125.941	0.558	-0.084
-639.653	-200.000	-0.001	-0.093
-638.638	-200.000	0.005	0.088
-637.624	-24.682	0.147	0.088
-636.609	800.000	-0.035	-0.143
-635.595	1.861	-0.158	-0.114
-634.580	55.941	-0.202	-0.197
-633.565	53.395	0.073	0.070
-632.551	265.470	0.050	0.088
-631.536	-200.000	-0.059	-0.517
-630.522	-200.000	-0.011	0.098
-629.507	27.568	-0.315	-0.265
-628.492	143.760	0.139	0.185
-627.478	-110.152	-0.161	0.034
-626.463	-2.061	0.155	-0.109
-625.449	-92.757	-0.112	-0.031
-624.434	160.437	-0.223	-0.313
-623.419	-79.551	-0.172	0.058
-622.405	99.711	-0.147	0.170
-621.390	-200.000	0.027	-0.216
-620.376	148.093	0.162	0.219
-619.361	4.372	-0.281	0.207
-618.346	800.000	-0.024	0.073
-617.332	-139.687	0.216	0.023
-616.317	-82.751	0.207	0.067
-615.303	-141.100	0.126	-0.013
-614.288	-26.541	-0.215	0.126
-613.273	-116.592	0.216	0.040
-612.259	-157.967	0.285	0.017
-611.244	-39.617	-0.281	0.147
-610.230	0.994	-0.377	0.271
-609.215	800.000	0.099	-0.380
-608.201	490.918	0.133	-0.304
-607.186	-89.856	0.057	0.017
-606.171	119.806	-0.212	-0.263
-605.157	-200.000	0.025	-0.206
-604.142	-200.000	-0.004	0.212
-603.128	481.478	0.035	0.080
-602.113	-30.838	-0.072	-0.041
-601.098	115.192	-0.168	-0.206
-600.084	-93.378	-0.123	-0.034
-599.069	-90.375	0.179	-0.052
-598.055	269.932	-0.061	-0.108
-597.040	-1.620	0.109	-0.077
-596.025	800.000	-0.076	0.323
-595.011	527.354	-0.071	-0.167
-593.996	-64.731	-0.128	-0.052
-592.982	31.555	0.045	-0.039
-591.967	-102.822	-0.257	-0.061
-590.952	800.000	0.119	-0.448
-589.938	-200.000	-0.014	-0.244
-588.923	-107.321	-0.250	-0.055
-587.909	11.681	-0.470	0.361
-586.894	24.888	-0.095	-0.079
-585.879	184.482	-0.073	0.108
-584.865	48.985	-0.012	0.011
-583.850	69.309	-0.278	0.287
-582.836	-73.008	0.098	0.036
-581.821	-200.000	-0.009	0.131
-580.806	397.818	-0.044	-0.093
-579.792	-64.758	0.223	0.090
-578.777	-146.664	0.159	0.014
-577.763	711.523	0.044	0.118
-576.748	800.000	0.022	0.091
-575.733	-7.743	0.108	-0.073
-574.719	-130.330	-0.488	0.066
-573.704	-83.885	-0.225	-0.072
-572.690	-79.675	0.150	0.051
-571.675	36.088	-0.177	-0.156
-570.661	-56.320	0.202	0.090
-569.646	-200.000	0.040	0.261
-568.631	-167.342	-0.232	0.009
-567.617	-200.000	-0.002	0.064
-566.602	-47.356	0.108	-0.053
-565.588	-5.397	-0.141	-0.097
-564.573	-200.000	0.011	0.327
-563.558	-127.535	0.169	-0.025
-562.544	-66.134	-0.216	0.086
-561.529	591.499	-0.054	0.134
-560.515	-131.160	-0.183	-0.024
-559.500	-34.886	0.341	-0.186
-558.485	97.915	-0.257	0.296
-557.471	-101.554	0.151	-0.037
-556.456	-99.981	-0.294	-0.073
-555.442	-106.869	0.129	-0.029
-554.427	241.274	0.106	0.177
-553.412	19.283	-0.082	0.066
-552.398	800.000	0.077	-0.214
-551.383	-200.000	0.015	-0.282
-550.369	-155.386	-0.288	-0.019
-549.354	509.233	-0.082	-0.191
-548.339	-200.000	0.021	-0.319
-547.325	-90.229	-0.297	0.086
-546.310	277.795	-0.069	-0.124
-545.296	-200.000	-0.061	-0.377
-544.281	800.000	0.097	0.292
-543.266	-15.263	0.101	-0.064
-542.252	30.550	-0.048	0.041
-541.237	800.000	0.048	-0.173
-540.223	-138.542	0.265	-0.029
-539.208	-131.751	-0.261	-0.034
-538.193	170.487	0.131	-0.188
-537.179	50.728	0.194	-0.184
-536.164	-18.649	-0.140	0.088
-535.150	-55.138	0.140	-0.063
-534.135	22.225	-0.188	-0.153
-533.121	97.077	-0.114	-0.131
-532.106	800.000	0.026	0.111
-531.091	800.000	-0.053	0.219
-530.077	-23.336	0.223	0.134
-529.062	90.150	-0.172	-0.192
-528.048	272.159	-0.181	-0.320
-527.033	215.207	-0.103	-0.163
-526.018	154.438	-0.182	0.250
-525.004	-125.746	-0.054	-0.008
-523.989	72.549	0.153	0.160
-522.975	38.609	0.137	-0.122
-521.960	-151.974	-0.096	0.007
-520.945	-5.936	0.157	0.108
-519.931	-16.556	0.107	-0.067
-518.916	105.555	-0.122	0.144
-517.902	-200.000	-0.007	-0.056
-516.887	764.892	0.071	-0.193
-515.872	-90.583	0.273	0.079
-514.858	41.516	0.121	0.109
-513.843	1.403	0.140	0.101
-512.829	373.474	0.109	-0.222
-511.814	-118.999	0.392	-0.069
-510.799	43.626	-0.128	0.116
-509.785	-200.000	0.005	0.303
-508.770	-200.000	-0.014	-0.299
-507.756	102.705	0.042	0.050
-506.741	-49.004	-0.213	-0.102
-505.726	-65.364	-0.251	-0.101
-504.712	-144.029	0.232	-0.022
-503.697	-130.295	0.104	-0.014
-502.683	74.944	0.152	-0.160
-501.668	189.905	0.142	0.212
-500.653	-116.569	0.263	0.048
-499.639	180.717	-0.130	-0.191
-498.624	-200.000	0.008	0.218
-497.610	-200.000	-0.011	0.205
-496.595	-6.249	-0.137	-0.093
-495.581	-39.004	0.247	-0.130
-494.566	734.710	-0.082	0.218
-493.551	800.000	-0.023	0.072
-492.537	127.554	-0.037	-0.047
-491.522	-53.356	0.086	0.039
-490.508	-90.963	-0.127	-0.037
-489.493	-14.593	-0.211	-0.135
-488.478	66.714	0.086	0.087
-487.464	-150.082	0.055	-0.004
-486.449	-69.779	0.060	-0.023
-485.435	-200.000	-0.010	0.049
-484.420	-27.847	0.073	-0.042
-483.405	486.626	-0.154	-0.349
-482.391	-171.494	-0.052	0.002
-481.376	60.203	-0.151	-0.148
-480.362	-200.000	-0.003	0.126
-479.347	72.043	-0.169	0.176
-478.332	-102.950	-0.142	0.034
-477.318	-55.032	-0.093	-0.042
-476.303	-200.000	-0.009	-0.177
-475.289	56.244	-0.234	0.227
-474.274	-200.000	-0.013	0.293
-473.259	-138.262	0.304	-0.034
-472.245	-1.723	0.181	0.127
-471.230	800.000	0.048	0.141
-470.216	-44.016	-0.083	0.042
-469.201	136.088	0.187	-0.243
-468.186	-51.641	0.274	0.127
-467.172	-106.659	0.199	0.044
-466.157	51.960	-0.229	0.217
-465.143	-200.000	0.007	-0.168
-464.128	800.000	-0.082	-0.337
-463.113	507.381	-0.131	-0.302
-462.099	-16.417	-0.103	0.065
-461.084	-63.126	-0.236	0.097
-460.070	133.285	0.330	0.425
-459.055	-200.000	-0.054	0.239
-458.040	-43.389	-0.124	0.062
-457.026	54.598	0.112	0.108
-456.011	800.000	-0.045	-0.181
-454.997	371.071	0.123	-0.248
-453.982	222.744	-0.120	0.193
-452.968	171.682	0.167	0.239
-451.953	-93.328	0.076	-0.021
-450.938	800.000	-0.064	-0.198
-449.924	-200.000	-0.163	-0.000
-448.909	-158.106	-0.188	0.011
-447.895	-118.787	-0.009	0.002
-446.880	429.587	-0.154	0.331
-445.865	-70.465	0.447	0.169
-444.851	-179.436	-0.238	0.005
-443.836	189.580	0.091	-0.136
-442.822	-200.000	0.074	0.413
-441.807	130.463	-0.178	-0.227
-440.792	-85.893	0.066	0.020
-439.778	-200.000	-0.006	-0.101
-438.763	-148.648	-0.227	0.018
-437.749	275.452	0.053	0.094
-436.734	-200.000	0.015	0.170
-435.719	-53.656	-0.185	0.084
-434.705	800.000	0.081	-0.327
-433.690	-87.745	0.161	-0.048
-432.676	-100.836	0.178	0.044
-431.661	174.070	-0.125	0.180
-430.646	-55.132	0.196	0.088
-429.632	-200.000	0.047	-0.218
-428.617	-200.000	-0.002	0.103
-427.603	-42.956	-0.056	-0.028
-426.588	-200.000	0.002	-0.180
-425.573	-200.000	-0.070	0.345
-424.559	3.770	0.305	-0.221
-423.544	162.946	-0.235	0.329
-422.530	-108.863	-0.327	0.070
-421.515	-13.002	-0.186	0.121
-420.500	800.000	0.016	0.066
-419.486	9.562	0.087	-0.066
-418.471	-63.403	0.222	-0.091
-417.457	800.000	-0.090	-0.296
-416.442	71.076	-0.087	0.089
-415.428	-200.000	0.016	0.119
-414.413	62.502	0.142	-0.141
-413.398	800.000	0.023	-0.091
-412.384	-181.751	0.311	0.006
-411.369	237.100	-0.131	-0.216
-410.355	800.000	0.095	-0.375
-409.340	-119.813	0.197	-0.034
-408.325	184.458	-0.086	-0.126
-407.311	162.737	-0.184	-0.257
-406.296	673.973	-0.149	-0.385
-405.282	-145.278	0.172	-0.015
-404.267	-77.364	0.103	0.036
-403.252	165.423	0.089	-0.125
-402.238	-121.102	-0.230	0.038
-401.223	-89.044	0.279	-0.082
-400.209	-200.000	-0.018	-0.094
-399.194	-200.000	0.287	-0.001
-398.179	-39.261	0.148	-0.077
-397.165	-1.839	-0.140	0.098
-396.150	436.163	-0.117	0.253
-395.136	800.000	0.104	0.326
-394.121	156.316	0.037	0.050
-393.106	-16.121	-0.333	-0.210
-392.092	147.647	0.055	0.074
-391.077	37.948	-0.117	-0.103
-390.063	-67.886	0.059	0.023
-389.048	123.103	-0.173	-0.215
-388.033	110.809	0.182	0.218
-387.019	-18.830	0.250	0.155
-386.004	800.000	-0.047	-0.133
-384.990	-34.185	-0.299	0.163
-383.975	-110.297	-0.016	-0.003
-382.960	-120.983	0.136	0.023
-381.946	-50.383	-0.368	-0.173
-380.931	487.868	0.105	-0.237
-379.917	241.975	0.172	-0.286
-378.902	282.292	-0.084	0.149
-377.888	50.405	-0.080	-0.075
-376.873	-86.094	-0.128	0.039
-375.858	49.691	-0.352	-0.330
-374.844	-129.891	-0.336	-0.046
-373.829	-200.000	-0.003	0.049
-372.815	123.654	-0.201	0.250
-371.800	800.000	0.021	0.087
-370.785	-200.000	-0.011	-0.322
-369.771	-30.716	-0.129	0.072
-368.756	800.000	0.057	0.231
-367.742	-63.291	0.122	0.050
-366.727	165.486	-0.141	0.198
-365.712	-200.000	-0.005	-0.246
-364.698	204.321	0.151	-0.232
-363.683	122.057	-0.227	0.281
-362.669	73.037	0.062	0.065
-361.654	-200.000	0.041	-0.441
-360.639	-200.000	0.010	-0.092
-359.625	-114.523	0.203	-0.039
-358.610	-162.522	0.343	-0.017
-357.596	-81.710	0.182	0.059
-356.581	553.355	0.052	0.124
-355.566	171.107	-0.111	-0.158
-354.552	-200.000	-0.006	-0.077
-353.537	-77.921	-0.087	-0.030
-352.523	-25.928	-0.086	-0.050
-351.508	-200.000	-0.029	-0.149
-350.493	319.771	0.109	-0.205
-349.479	-200.000	-0.066	0.321
-348.464	-90.839	-0.426	-0.122
-347.450	-78.490	-0.186	-0.063
-346.435	-100.399	-0.257	0.063
-345.420	108.702	-0.164	0.194
-344.406	105.985	0.078	0.092
-343.391	800.000	0.036	0.117
-342.377	-200.000	0.009	0.134
-341.362	-51.949	0.305	-0.141
-340.348	20.389	0.229	-0.183
-339.333	800.000	-0.036	0.137
-338.318	152.510	0.128	-0.173
-337.304	83.816	-0.240	-0.260
-336.289	557.972	-0.086	0.205
-335.275	-137.639	0.339	0.038
-334.260	64.089	-0.154	-0.154
-333.245	-200.000	-0.014	-0.068
-332.231	-135.913	-0.097	0.011
-331.216	800.000	-0.039	-0.110
-330.202	241.890	-0.181	0.300
-329.187	-10.741	0.377	-0.247
-328.172	-89.311	0.137	-0.040
-327.158	800.000	-0.041	-0.157
-326.143	-155.336	0.234	0.015
-325.129	-60.802	-0.224	0.094
-324.114	-82.849	-0.080	0.026
-323.099	-132.419	0.031	0.004
-322.085	464.268	0.051	-0.114
-321.070	-120.880	-0.405	-0.068
-320.056	-23.678	-0.183	0.109
-319.041	-3.649	0.347	0.239
-318.026	-34.265	0.172	-0.094
-317.012	-68.007	0.236	0.091
-315.997	78.238	-0.269	0.285
-314.983	30.760	-0.189	0.161
-313.968	14.310	-0.236	0.182
-312.953	-178.123	0.558	0.013
-311.939	-200.000	0.008	-0.243
-310.924	800.000	-0.045	-0.162
-309.910	-200.000	0.036	0.175
-308.895	800.000	-0.028	0.090
-307.880	21.256	-0.089	0.072
-306.866	-76.640	0.332	0.115
-305.851	-194.859	0.164	-0.001
-304.837	202.678	-0.051	0.078
-303.822	-145.888	0.169	-0.015
-302.807	-140.080	-0.409	0.043
-301.793	328.454	0.028	-0.052
-300.778	800.000	-0.041	0.111
-299.764	-87.286	0.232	0.070
-298.749	-44.112	0.255	-0.127
-297.735	77.199	-0.137	0.144
-296.720	-200.000	0.056	0.276
-295.705	-132.213	0.078	-0.010
-294.691	800.000	-0.063	-0.177
-293.676	114.831	0.159	0.192
-292.662	71.995	0.164	0.169
-291.647	-15.300	0.100	-0.064
-290.632	800.000	0.011	-0.040
-289.618	-200.000	0.059	-0.314
-288.603	76.338	-0.150	-0.157
-287.589	135.990	-0.170	0.219
-286.574	-200.000	0.016	0.094
-285.559	-126.577	-0.129	-0.019
-284.545	64.965	-0.226	-0.226
-283.530	772.640	-0.037	-0.100
-282.516	-145.730	-0.229	0.020
-281.501	190.226	0.128	-0.190
-280.486	-47.977	0.222	-0.106
-279.472	27.664	0.134	-0.112
-278.457	299.726	0.073	0.133
-277.443	-89.773	0.220	0.064
-276.428	-71.995	-0.332	0.122
-275.413	-200.000	0.009	-0.129
-274.399	-91.026	-0.255	0.073
-273.384	-148.741	-0.295	0.024
-272.370	-200.000	-0.054	0.392
-271.355	800.000	-0.067	-0.195
-270.340	686.420	-0.150	-0.387
-269.326	171.388	-0.212	0.301
-268.311	-200.000	0.009	-0.161
-267.297	208.231	0.038	-0.059
-266.282	158.997	-0.132	0.181
-265.267	364.682	-0.116	-0.232
-264.253	291.864	0.125	-0.226
-263.238	800.000	-0.056	0.158
-262.224	342.066	0.107	0.207
-261.209	-200.000	0.025	0.355
-260.195	-143.468	0.296	0.028
-259.180	48.739	0.106	0.099
-258.165	322.285	0.096	0.180
-257.151	347.959	-0.022	0.043
-256.136	57.103	-0.148	0.142
-255.122	-39.507	0.126	0.065
-254.107	90.336	0.102	0.113
-253.092	-166.033	0.093	0.004
-252.078	780.717	0.028	0.076
-251.063	-200.000	0.079	0.416
-250.049	4.735	0.198	0.143
-249.034	61.850	-0.110	0.108
-248.019	12.685	0.127	0.097
-247.005	-71.081	-0.114	-0.042
-245.990	-120.812	0.348	0.058
-244.976	-78.483	0.391	-0.132
-243.961	-200.000	-0.028	0.246
-242.946	-200.000	0.023	-0.189
-241.932	-46.208	0.236	-0.115
-240.917	800.000	0.078	-0.280
-239.903	-36.876	-0.147	0.078
-238.888	616.630	0.072	-0.178
-237.873	123.482	-0.207	0.256
-236.859	-200.000	-0.086	0.430
-235.844	-200.000	-0.023	0.223
-234.830	198.265	0.124	-0.188
-233.815	-10.718	-0.427	0.279
-232.800	-3.741	-0.081	0.055
-231.786	-200.000	-0.011	0.380
-230.771	-89.869	0.156	-0.045
-229.757	-200.000	-0.023	-0.123
-228.742	119.230	0.082	0.100
-227.727	-83.414	0.286	0.090
-226.713	-200.000	0.035	0.267
-225.698	320.691	0.123	0.230
-224.684	97.923	0.218	0.248
-223.669	-5.776	-0.281	-0.190
-222.655	800.000	0.044	-0.129
-221.640	-50.542	0.078	-0.036
-220.625	171.304	-0.086	0.122
-219.611	-147.618	-0.120	0.010
-218.596	-50.323	0.274	-0.128
-217.582	11.003	0.081	0.061
-216.567	-196.893	0.102	-0.001
-215.552	-68.184	-0.072	-0.028
-214.538	-200.000	0.036	-0.206
-213.523	-200.000	-0.012	-0.164
-212.509	-87.402	0.232	-0.069
-211.494	0.842	-0.238	0.168
-210.479	-67.155	-0.059	0.023
-209.465	203.705	0.099	0.151
-208.450	-35.100	-0.053	0.029
-207.436	800.000	0.070	0.246
-206.421	-7.140	0.260	-0.174
-205.406	-51.793	0.078	0.036
-204.392	159.764	-0.220	0.303
-203.377	-178.913	-0.120	0.003
-202.363	12.570	-0.197	0.150
-201.348	299.569	0.096	0.175
-200.333	265.828	0.036	0.061
-199.319	-158.095	-0.292	-0.017
-198.304	-17.270	-0.162	0.101
-197.290	340.602	0.079	0.152
-196.275	-135.835	0.019	0.002
-195.260	642.939	0.119	-0.298
-194.246	12.238	-0.066	-0.050
-193.231	36.692	0.476	-0.414
-192.217	89.593	-0.211	-0.232
-191.202	109.542	0.052	0.061
-190.187	-130.177	0.234	0.031
-189.173	-91.597	0.145	0.041
-188.158	-200.000	-0.002	0.070
-187.144	59.666	-0.076	-0.074
-186.129	455.819	0.026	0.057
-185.114	24.261	-0.117	0.096
-184.100	800.000	0.072	-0.249
-183.085	330.585	-0.102	0.194
-182.071	-75.915	0.307	-0.107
-181.056	63.375	-0.039	-0.039
-180.042	133.329	0.059	0.075
-179.027	39.956	0.253	0.224
-178.012	-8.824	-0.122	-0.080
-176.998	-78.784	-0.334	-0.112
-175.983	39.142	-0.242	-0.213
-174.969	191.303	0.173	-0.257
-173.954	272.764	0.102	0.177
-172.939	294.738	0.042	0.075
-171.925	-200.000	-0.025	0.163
-170.910	-160.421	-0.283	0.015
-169.896	-42.719	0.225	0.113
-168.881	240.172	-0.169	0.278
-167.866	-104.740	0.060	-0.014
-166.852	7.050	0.309	0.227
-165.837	-200.000	0.038	-0.370
-164.823	800.000	0.099	0.275
-163.808	-200.000	-0.029	-0.229
-162.793	160.856	0.135	-0.185
-161.779	-200.000	0.039	0.315
-160.764	-135.284	-0.091	0.011
-159.750	35.360	0.255	-0.220
-158.735	164.643	0.212	-0.295
-157.720	-78.738	-0.259	-0.087
-156.706	154.415	0.152	0.205
-155.691	-21.191	-0.044	-0.027
-154.677	512.324	0.129	-0.297
-153.662	-200.000	0.011	-0.209
-152.647	-200.000	0.064	-0.311
-151.633	-144.291	0.273	0.025
-150.618	-37.986	-0.150	0.078
-149.604	-200.000	-0.010	0.215
-148.589	338.595	-0.149	0.285
-147.574	37.046	-0.402	0.350
-146.560	-76.126	-0.235	0.082
-145.545	800.000	0.052	0.212
-144.531	-200.000	-0.000	0.020
-143.516	178.796	0.183	-0.264
-142.502	-2.435	-0.030	-0.020
-141.487	-102.146	0.148	0.035
-140.472	112.084	0.235	0.279
-139.458	-200.000	-0.003	0.536
-138.443	452.574	-0.074	-0.161
-137.429	79.254	0.195	0.206
-136.414	-0.390	-0.216	0.151
-135.399	-50.608	0.071	0.033
-134.385	-73.845	0.026	-0.009
-133.370	-43.033	0.062	-0.031
-132.356	41.877	-0.280	0.250
-131.341	-200.000	-0.047	0.314
-130.326	58.216	0.136	0.131
-129.312	40.151	-0.277	0.245
-128.297	-105.636	-0.235	-0.052
-127.283	8.342	-0.012	-0.009
-126.268	-99.494	-0.336	0.083
-125.253	59.163	-0.160	-0.155
-124.239	233.216	0.046	0.074
-123.224	-200.000	0.012	-0.070
-122.210	-200.000	-0.047	-0.395
-121.195	-200.000	-0.024	0.175
-120.180	-57.519	0.292	0.126
