DTS Sentinel unit serial number:	SN413079Multiplexer serial number:	ORYXHardware model number:	OX4-SRSoftware version number:	ORYX F/W v4.00 Oryx Data Collector v3.7.2.0data status	okinstallation	princeton_trtdifferential loss correction	single-endedforward channel	channel 2reverse channel	N/Adate	2019/09/12time	04:41:11forward acquisition time	60.00reverse acquisition time	0.00gamma	496.2192k internal	0.2327k external	0.2327temperature offset calibration	1.0127default loss term (dB/km)	0.3790temperature slope calibration	1.0000multiplexer offset coefficient	1.0000multiplexer slope coefficient	1.0000fibre end	0.00T internal ref (°C)	31.61T ext. ref 1 (°C)	2.61T ext. ref 2 (°C)	27.19length (m)	temperature (°C)	Stokes	anti-Stokes-747.200	-200.000	0.036	0.345
-746.185	-156.452	-0.385	-0.024
-745.171	800.000	0.080	0.284
-744.156	-65.804	0.175	0.070
-743.142	349.658	0.038	-0.076
-742.127	109.278	0.129	-0.156
-741.112	-90.075	-0.095	0.028
-740.098	-25.039	0.178	0.106
-739.083	240.246	0.211	0.354
-738.069	-200.000	-0.002	0.070
-737.054	-76.131	-0.266	-0.094
-736.039	800.000	-0.041	0.181
-735.025	270.131	0.170	0.301
-734.010	240.021	-0.181	0.303
-732.996	-200.000	0.013	-0.083
-731.981	-200.000	-0.017	-0.192
-730.966	-142.404	-0.320	0.032
-729.952	-200.000	0.006	-0.039
-728.937	-141.231	-0.123	-0.013
-727.923	-41.288	-0.404	-0.210
-726.908	150.636	0.137	-0.188
-725.894	89.360	0.179	-0.201
-724.879	-44.565	-0.138	0.069
-723.864	800.000	0.084	-0.319
-722.850	108.489	0.254	0.306
-721.835	800.000	-0.068	-0.212
-720.821	567.408	-0.090	-0.219
-719.806	800.000	-0.104	-0.318
-718.791	3.538	0.183	-0.135
-717.777	-47.205	-0.095	-0.047
-716.762	44.043	0.150	0.138
-715.748	-75.753	0.290	-0.104
-714.733	-128.426	0.141	-0.020
-713.718	-200.000	0.015	-0.204
-712.704	-123.911	0.033	-0.005
-711.689	-124.925	0.147	0.023
-710.675	376.550	0.080	0.164
-709.660	-200.000	-0.010	-0.373
-708.645	-23.526	0.437	0.264
-707.631	-127.792	0.229	0.033
-706.616	-200.000	0.001	0.067
-705.602	56.466	-0.154	0.151
-704.587	-81.132	0.153	0.051
-703.572	-60.631	-0.176	-0.075
-702.558	86.918	-0.159	-0.177
-701.543	-41.158	0.179	0.093
-700.529	445.318	-0.003	-0.007
-699.514	-200.000	0.001	-0.083
-698.499	-200.000	0.007	-0.165
-697.485	366.275	-0.157	0.319
-696.470	137.080	0.086	-0.113
-695.456	537.520	-0.088	-0.210
-694.441	-143.810	0.123	0.012
-693.426	-50.927	0.226	0.107
-692.412	-95.864	0.175	-0.047
-691.397	-161.184	0.036	0.002
-690.383	-27.150	0.235	-0.138
-689.368	-200.000	-0.009	-0.287
-688.354	213.926	-0.106	0.169
-687.339	-172.153	-0.261	-0.008
-686.324	-52.715	0.158	-0.073
-685.310	-114.164	0.267	0.052
-684.295	42.849	-0.139	0.128
-683.281	-9.056	0.142	0.096
-682.266	-51.053	0.215	0.101
-681.251	-45.960	0.267	0.132
-680.237	-200.000	0.001	0.186
-679.222	-200.000	-0.036	0.347
-678.208	-166.950	0.234	0.010
-677.193	-80.301	-0.328	0.110
-676.178	131.233	0.097	-0.126
-675.164	-200.000	0.019	-0.106
-674.149	-200.000	-0.008	0.334
-673.135	-200.000	0.007	0.093
-672.120	-72.731	0.346	0.128
-671.105	800.000	-0.069	0.239
-670.091	-200.000	0.001	-0.169
-669.076	800.000	0.019	0.078
-668.062	-149.570	-0.403	-0.032
-667.047	145.644	-0.154	-0.207
-666.032	82.527	-0.092	0.100
-665.018	126.068	-0.140	0.178
-664.003	800.000	0.070	-0.238
-662.989	225.925	0.056	0.091
-661.974	-200.000	-0.021	-0.103
-660.959	35.436	-0.027	-0.024
-659.945	-128.481	0.437	-0.062
-658.930	800.000	0.127	-0.406
-657.916	7.495	0.146	0.110
-656.901	115.294	0.123	-0.151
-655.886	-200.000	-0.069	0.367
-654.872	74.338	0.285	0.301
-653.857	800.000	-0.050	0.186
-652.843	23.489	-0.054	0.044
-651.828	800.000	0.104	0.373
-650.814	-10.190	-0.350	-0.234
-649.799	-184.444	0.308	0.005
-648.784	-86.504	-0.230	-0.071
-647.770	492.512	0.129	0.297
-646.755	-81.647	0.175	-0.058
-645.741	-76.220	-0.273	-0.097
-644.726	-200.000	-0.004	-0.186
-643.711	-144.937	-0.263	0.024
-642.697	-105.859	-0.310	-0.070
-641.682	-200.000	0.010	-0.086
-640.668	161.818	-0.075	-0.105
-639.653	-87.666	-0.262	-0.079
-638.638	-192.972	0.278	0.003
-637.624	178.389	0.061	0.089
-636.609	-37.606	0.047	-0.025
-635.595	-23.102	0.098	-0.059
-634.580	800.000	0.036	0.108
-633.565	-49.237	-0.233	-0.112
-632.551	-5.421	0.050	0.034
-631.536	-76.638	-0.469	0.165
-630.522	94.398	-0.231	0.263
-629.507	96.416	0.349	0.401
-628.492	-12.215	-0.096	-0.063
-627.478	-168.400	-0.477	-0.018
-626.463	-200.000	0.004	0.092
-625.449	641.518	-0.088	0.225
-624.434	800.000	0.083	-0.303
-623.419	-20.241	-0.058	-0.036
-622.405	93.551	0.231	0.262
-621.390	-29.662	-0.131	0.075
-620.376	154.908	-0.097	0.134
-619.361	48.322	-0.079	-0.074
-618.346	714.166	-0.088	-0.235
-617.332	-157.040	-0.056	0.003
-616.317	-45.711	-0.069	-0.034
-615.303	-200.000	0.025	-0.224
-614.288	-200.000	-0.013	0.090
-613.273	466.665	0.074	-0.167
-612.259	650.944	-0.008	0.019
-611.244	-1.783	0.448	-0.316
-610.230	0.503	0.147	0.105
-609.215	351.219	-0.105	0.208
-608.201	800.000	-0.067	-0.260
-607.186	507.945	-0.093	0.217
-606.171	-200.000	-0.019	0.109
-605.157	6.414	0.075	-0.056
-604.142	-143.594	-0.358	-0.034
-603.128	-183.953	0.414	-0.007
-602.113	-54.790	-0.152	-0.069
-601.098	-147.882	-0.309	0.026
-600.084	-8.105	-0.279	0.188
-599.069	250.268	0.110	0.187
-598.055	239.367	-0.169	-0.282
-597.040	184.317	-0.115	-0.171
-596.025	243.736	0.174	0.293
-595.011	-40.901	-0.163	-0.085
-593.996	-200.000	0.029	0.186
-592.982	-101.686	-0.115	0.028
-591.967	800.000	-0.071	-0.234
-590.952	-53.333	0.406	0.187
-589.938	250.433	0.156	0.266
-588.923	-200.000	0.009	0.190
-587.909	162.815	0.121	-0.171
-586.894	-74.300	-0.136	-0.049
-585.879	400.924	0.147	-0.310
-584.865	23.729	-0.209	0.172
-583.850	-91.196	-0.067	0.019
-582.836	-57.258	-0.128	0.056
-581.821	-139.994	-0.348	0.037
-580.806	-53.964	-0.241	0.110
-579.792	152.036	0.071	-0.097
-578.777	-6.757	-0.129	0.088
-577.763	-39.693	-0.507	-0.266
-576.748	93.229	0.008	-0.009
-575.733	-200.000	-0.015	-0.374
-574.719	99.499	-0.073	0.085
-573.704	69.295	0.083	0.085
-572.690	48.623	-0.131	0.123
-571.675	300.445	0.036	-0.066
-570.661	800.000	0.113	-0.337
-569.646	-47.820	-0.284	0.138
-568.631	-59.831	-0.270	0.116
-567.617	158.701	0.221	-0.307
-566.602	-121.773	0.397	-0.066
-565.588	-21.925	-0.342	-0.208
-564.573	-49.948	0.156	0.074
-563.558	368.081	0.109	-0.221
-562.544	-7.827	-0.061	0.041
-561.529	-200.000	-0.037	0.205
-560.515	-62.740	-0.109	-0.045
-559.500	6.805	-0.133	-0.099
-558.485	-200.000	-0.037	-0.424
-557.471	-4.395	-0.172	-0.119
-556.456	-18.660	-0.137	-0.086
-555.442	800.000	-0.035	0.124
-554.427	-200.000	0.008	0.089
-553.412	3.980	-0.122	0.089
-552.398	24.651	0.077	0.063
-551.383	800.000	-0.051	0.219
-550.369	-60.664	-0.153	-0.065
-549.354	800.000	0.010	0.036
-548.339	-101.661	0.172	-0.042
-547.325	-26.528	0.268	0.157
-546.310	-164.934	-0.063	-0.003
-545.296	347.325	0.070	0.138
-544.281	15.526	-0.045	0.035
-543.266	8.420	-0.205	-0.154
-542.252	-200.000	-0.042	-0.342
-541.237	-60.559	0.406	0.173
-540.223	37.968	0.199	-0.177
-539.208	361.408	0.125	-0.252
-538.193	411.962	-0.079	0.169
-537.179	115.944	0.051	-0.062
-536.164	800.000	-0.132	-0.378
-535.150	-193.173	0.303	-0.003
-534.135	-75.856	0.325	0.115
-533.121	-28.233	-0.063	0.036
-532.106	70.756	-0.274	0.284
-531.091	800.000	-0.054	-0.206
-530.077	-0.532	0.101	0.072
-529.062	-53.437	-0.222	0.101
-528.048	123.017	0.231	0.289
-527.033	-200.000	-0.011	0.317
-526.018	117.259	-0.162	0.199
-525.004	79.955	-0.038	0.041
-523.989	9.642	0.085	0.064
-522.975	-39.308	0.268	0.140
-521.960	50.131	0.304	0.287
-520.945	-200.000	0.061	0.309
-519.931	712.251	0.054	-0.142
-518.916	-142.128	0.244	0.024
-517.902	-77.380	0.277	0.096
-516.887	-79.111	0.289	-0.098
-515.872	-46.725	-0.491	-0.240
-514.858	290.711	0.207	-0.376
-513.843	-78.246	0.247	0.085
-512.829	201.363	-0.136	-0.209
-511.814	595.858	-0.208	-0.514
-510.799	-26.332	0.124	-0.073
-509.785	63.634	0.168	0.168
-508.770	-200.000	0.019	-0.108
-507.756	-200.000	0.035	0.374
-506.741	-200.000	-0.076	0.332
-505.726	-200.000	0.009	0.178
-504.712	-106.337	0.212	-0.047
-503.697	66.526	-0.131	0.133
-502.683	21.416	-0.255	0.207
-501.668	-108.335	0.364	-0.078
-500.653	-200.000	0.009	-0.058
-499.639	-160.649	0.201	0.011
-498.624	154.811	-0.132	-0.180
-497.610	319.939	-0.156	-0.296
-496.595	24.573	0.501	0.414
-495.581	-34.428	-0.379	0.207
-494.566	-136.931	-0.325	0.037
-493.551	-143.207	0.080	-0.008
-492.537	800.000	0.037	-0.156
-491.522	-69.104	0.256	0.098
-490.508	-148.348	0.363	-0.030
-489.493	-57.022	-0.172	0.076
-488.478	-200.000	0.036	-0.232
-487.464	202.662	-0.077	-0.119
-486.449	96.620	0.013	0.015
-485.435	-99.315	-0.053	0.013
-484.420	116.393	0.055	-0.067
-483.405	-75.880	-0.120	0.042
-482.391	143.184	0.204	0.271
-481.376	101.268	0.118	-0.137
-480.362	113.306	0.209	0.253
-479.347	-104.771	-0.200	0.046
-478.332	-74.418	-0.252	0.091
-477.318	27.784	0.389	0.327
-476.303	113.639	-0.107	-0.130
-475.289	-59.316	0.264	-0.113
-474.274	-200.000	0.021	0.170
-473.259	-93.455	-0.381	-0.105
-472.245	-200.000	-0.052	-0.403
-471.230	780.136	0.093	-0.253
-470.216	-140.675	-0.415	-0.043
-469.201	181.197	-0.228	-0.334
-468.186	-200.000	0.043	-0.308
-467.172	281.041	-0.073	0.130
-466.157	-81.549	-0.372	0.122
-465.143	-51.404	0.221	0.103
-464.128	-61.821	0.136	-0.057
-463.113	4.255	-0.070	0.051
-462.099	-200.000	-0.027	-0.207
-461.084	261.929	-0.042	0.072
-460.070	-200.000	0.007	-0.120
-459.055	800.000	-0.107	-0.367
-458.040	800.000	0.067	-0.236
-457.026	-2.912	0.155	-0.108
-456.011	-35.700	-0.042	0.023
-454.997	127.359	-0.169	-0.213
-453.982	800.000	-0.119	-0.335
-452.968	-140.392	-0.121	0.013
-451.953	-152.787	-0.350	0.025
-450.938	28.772	-0.255	-0.215
-449.924	178.028	0.138	-0.201
-448.909	800.000	-0.031	-0.112
-447.895	-60.965	0.100	0.042
-446.880	164.024	-0.085	-0.120
-445.865	9.343	-0.136	0.103
-444.851	800.000	0.041	-0.128
-443.836	3.647	-0.259	0.188
-442.822	86.052	-0.156	-0.171
-441.807	-3.541	-0.067	-0.046
-440.792	37.545	0.173	-0.153
-439.778	-200.000	0.019	0.266
-438.763	217.646	0.050	-0.079
-437.749	-200.000	-0.017	0.279
-436.734	-200.000	-0.040	0.187
-435.719	29.202	0.055	0.046
-434.705	237.356	0.038	-0.063
-433.690	-117.116	-0.145	0.026
-432.676	-60.364	-0.215	0.091
-431.661	-165.680	-0.075	0.003
-430.646	-92.765	-0.246	-0.069
-429.632	-10.973	-0.140	0.092
-428.617	-200.000	0.013	0.158
-427.603	60.057	0.213	-0.210
-426.588	-61.336	-0.166	0.070
-425.573	-90.540	0.189	-0.054
-424.559	23.064	-0.071	0.058
-423.544	800.000	-0.036	0.136
-422.530	-93.204	0.222	-0.062
-421.515	580.671	-0.200	0.489
-420.500	593.973	-0.101	0.248
-419.486	141.693	0.125	-0.164
-418.471	-200.000	0.040	0.190
-417.457	-91.896	0.445	0.126
-416.442	569.381	0.154	-0.372
-415.428	386.393	-0.038	0.077
-414.413	-200.000	0.050	0.223
-413.398	-107.382	0.326	-0.071
-412.384	800.000	-0.020	-0.067
-411.369	-104.475	-0.217	0.050
-410.355	-77.841	-0.272	0.093
-409.340	800.000	-0.059	0.251
-408.325	-200.000	0.007	0.278
-407.311	262.602	-0.118	-0.203
-406.296	-148.406	-0.320	-0.026
-405.282	-92.274	-0.208	-0.058
-404.267	-12.286	-0.207	-0.135
-403.252	196.272	-0.132	0.200
-402.238	226.053	0.091	0.146
-401.223	286.937	-0.182	0.327
-400.209	-56.537	0.208	0.092
-399.194	800.000	-0.137	0.449
-398.179	800.000	0.050	-0.176
-397.165	-33.776	-0.171	-0.094
-396.150	-12.530	-0.118	-0.076
-395.136	161.832	0.196	-0.274
-394.121	207.981	-0.101	-0.157
-393.106	349.713	0.022	0.042
-392.092	284.438	0.052	-0.092
-391.077	-200.000	-0.056	0.428
-390.063	320.727	-0.112	0.212
-389.048	-49.048	0.317	0.151
-388.033	-200.000	-0.035	0.222
-387.019	-200.000	-0.021	-0.265
-386.004	221.534	0.187	-0.298
-384.990	-110.222	-0.093	-0.019
-383.975	-5.420	0.130	0.089
-382.960	-32.054	0.316	-0.176
-381.946	20.376	-0.109	-0.087
-380.931	560.371	-0.095	-0.228
-379.917	206.697	-0.169	0.261
-378.902	77.874	0.093	-0.098
-377.888	-142.142	0.266	0.026
-376.873	-200.000	-0.038	0.325
-375.858	-33.199	0.109	0.060
-374.844	111.906	0.102	-0.122
-373.829	-43.489	-0.277	0.139
-372.815	6.584	-0.241	-0.178
-371.800	-200.000	-0.015	-0.109
-370.785	77.203	0.093	-0.098
-369.771	283.201	-0.072	0.128
-368.756	-200.000	0.002	-0.175
-367.742	-72.386	0.107	0.039
-366.727	-72.619	0.070	-0.026
-365.712	-200.000	-0.021	-0.228
-364.698	-138.904	-0.058	0.006
-363.683	800.000	0.029	-0.122
-362.669	-48.346	-0.379	0.182
-361.654	358.435	-0.151	-0.299
-360.639	109.770	0.148	-0.176
-359.625	2.927	0.398	-0.287
-358.610	712.756	-0.026	-0.069
-357.596	-165.439	0.143	0.006
-356.581	-200.000	-0.009	-0.090
-355.566	800.000	-0.069	-0.263
-354.552	-200.000	0.018	-0.222
-353.537	800.000	-0.038	-0.108
-352.523	75.341	-0.037	0.039
-351.508	-200.000	-0.010	-0.411
-350.493	-200.000	0.032	-0.300
-349.479	-20.380	-0.079	0.048
-348.464	800.000	0.115	0.316
-347.450	-8.634	0.203	0.135
-346.435	-16.041	0.109	0.069
-345.420	141.339	0.174	-0.228
-344.406	-200.000	-0.014	-0.218
-343.391	-200.000	-0.008	-0.096
-342.377	-65.856	0.180	-0.071
-341.362	327.218	0.147	-0.279
-340.348	-200.000	0.034	0.156
-339.333	-38.236	0.270	0.142
-338.318	-93.787	-0.104	0.028
-337.304	-200.000	0.002	0.065
-336.289	415.454	0.275	0.581
-335.275	69.134	0.106	0.109
-334.260	-200.000	0.075	-0.529
-333.245	-131.603	0.344	-0.045
-332.231	-21.942	-0.217	0.131
-331.216	584.324	-0.108	0.262
-330.202	-83.815	0.168	0.053
-329.187	800.000	0.077	0.332
-328.172	-109.339	0.066	-0.014
-327.158	-200.000	-0.086	0.000
-326.143	75.571	0.150	0.157
-325.129	-134.353	-0.071	0.009
-324.114	355.580	-0.044	-0.087
-323.099	-39.681	-0.062	0.032
-322.085	-28.600	0.188	-0.107
-321.070	-165.488	0.130	0.006
-320.056	800.000	-0.071	-0.216
-319.041	-200.000	-0.015	0.163
-318.026	200.249	-0.139	0.211
-317.012	-8.901	-0.141	0.094
-315.997	-119.057	-0.186	-0.032
-314.983	-200.000	-0.005	0.173
-313.968	458.351	-0.071	0.157
-312.953	-59.751	-0.166	0.070
-311.939	-140.838	0.134	-0.014
-310.924	121.532	-0.098	0.121
-309.910	6.780	0.354	-0.261
-308.895	-200.000	-0.014	0.327
-307.880	170.223	0.083	0.117
-306.866	422.491	-0.057	0.122
-305.851	800.000	-0.033	-0.139
-304.837	718.980	0.156	-0.412
-303.822	-97.932	0.296	0.076
-302.807	641.990	0.066	0.167
-301.793	-47.077	-0.131	0.063
-300.778	76.971	0.308	-0.324
-299.764	-49.137	0.128	0.061
-298.749	-200.000	-0.041	0.540
-297.735	-124.383	0.021	-0.003
-296.720	-55.701	0.479	-0.212
-295.705	-200.000	-0.001	0.101
-294.691	1.714	-0.063	0.045
-293.676	120.547	0.084	-0.103
-292.662	86.128	0.058	-0.063
-291.647	-4.238	0.200	0.137
-290.632	-200.000	0.006	-0.265
-289.618	-21.505	0.062	0.037
-288.603	-200.000	0.040	0.187
-287.589	800.000	0.083	0.235
-286.574	76.781	0.030	0.032
-285.559	648.080	0.033	-0.083
-284.545	-53.801	0.072	-0.032
-283.530	-29.506	-0.412	0.233
-282.516	-157.590	0.148	-0.009
-281.501	-62.473	0.086	-0.035
-280.486	-200.000	0.037	-0.192
-279.472	-92.379	0.269	-0.075
-278.457	-81.951	-0.160	-0.052
-277.443	-0.108	0.108	-0.076
-276.428	-200.000	0.185	-0.001
-275.413	800.000	-0.079	0.311
-274.399	-139.813	0.215	-0.023
-273.384	131.288	0.179	0.227
-272.370	-128.000	0.196	-0.028
-271.355	-133.203	-0.179	-0.022
-270.340	-108.034	0.226	0.048
-269.326	21.086	0.228	-0.183
-268.311	-156.564	-0.340	-0.021
-267.297	-27.646	0.257	-0.148
-266.282	800.000	0.048	-0.201
-265.267	-200.000	0.009	0.164
-264.253	-200.000	0.017	-0.088
-263.238	40.558	0.231	0.206
-262.224	297.203	-0.103	0.187
-261.209	648.898	0.058	-0.147
-260.195	1.357	-0.146	-0.104
-259.180	-91.476	0.153	0.043
-258.165	800.000	-0.100	0.406
-257.151	18.455	-0.156	-0.123
-256.136	-132.472	0.099	-0.013
-255.122	-200.000	-0.062	-0.306
-254.107	-38.214	0.279	-0.147
-253.092	800.000	-0.020	-0.083
-252.078	221.173	0.113	-0.180
-251.063	96.940	0.160	-0.181
-250.049	205.004	-0.079	-0.121
-249.034	462.222	-0.078	-0.173
-248.019	23.477	-0.239	-0.195
-247.005	-75.832	-0.240	0.084
-245.990	-200.000	-0.037	-0.186
-244.976	180.919	-0.080	-0.117
-243.961	-65.727	-0.332	0.131
-242.946	80.957	0.162	-0.173
-241.932	-60.446	-0.175	0.074
-240.917	-113.569	-0.169	0.033
-239.903	180.284	0.029	0.043
-238.888	-64.893	0.500	0.200
-237.873	-4.323	0.320	0.219
-236.859	285.904	0.230	-0.410
-235.844	60.666	-0.146	-0.143
-234.830	82.253	0.198	-0.213
-233.815	-145.913	-0.333	0.029
-232.800	430.470	-0.073	-0.156
-231.786	-44.594	0.163	0.081
-230.771	-110.165	0.359	0.074
-229.757	-131.047	0.083	-0.011
-228.742	-200.000	0.055	0.392
-227.727	-200.000	-0.037	-0.228
-226.713	800.000	-0.148	-0.409
-225.698	227.197	0.143	-0.230
-224.684	-200.000	0.059	-0.264
-223.669	51.781	-0.055	0.052
-222.655	-126.258	0.047	-0.007
-221.640	-54.412	-0.265	0.118
-220.625	-200.000	0.002	-0.039
-219.611	592.325	-0.056	-0.136
-218.596	495.686	-0.042	0.095
-217.582	462.405	0.058	0.128
-216.567	-13.835	-0.142	0.091
-215.552	97.081	-0.184	-0.209
-214.538	107.426	-0.096	-0.113
-213.523	5.166	-0.278	-0.202
-212.509	-58.090	0.213	0.092
-211.494	800.000	-0.044	-0.144
-210.479	19.146	-0.160	0.127
-209.465	188.353	0.018	-0.027
-208.450	745.357	-0.161	0.427
-207.436	33.929	0.379	0.325
-206.421	68.548	-0.167	0.169
-205.406	744.961	0.108	-0.288
-204.392	-110.266	0.248	0.051
-203.377	90.193	0.172	0.190
-202.363	61.731	0.224	0.220
-201.348	63.922	-0.121	0.120
-200.333	-200.000	-0.012	0.056
-199.319	28.899	0.231	0.193
-198.304	274.380	-0.138	-0.241
-197.290	-76.543	0.226	0.078
-196.275	-119.174	-0.034	-0.006
-195.260	-143.106	0.123	0.012
-194.246	-187.988	-0.420	-0.005
-193.231	190.386	-0.220	-0.326
-192.217	175.945	-0.094	0.134
-191.202	-200.000	0.004	0.139
-190.187	160.865	0.122	0.168
-189.173	50.022	-0.039	-0.037
-188.158	-17.787	0.174	0.108
-187.144	-200.000	-0.001	-0.063
-186.129	-121.783	-0.438	0.071
-185.114	360.154	-0.124	-0.245
-184.100	-101.480	-0.237	-0.057
-183.085	65.396	-0.232	0.231
-182.071	-62.239	-0.145	-0.059
-181.056	475.559	-0.093	-0.207
-180.042	66.670	-0.237	-0.238
-179.027	183.031	0.192	0.279
-178.012	68.742	-0.270	0.273
-176.998	-69.280	0.112	-0.043
-175.983	-200.000	-0.082	0.393
-174.969	-96.855	-0.266	-0.069
-173.954	-200.000	-0.049	-0.328
-172.939	-44.481	-0.189	0.093
-171.925	-200.000	-0.025	0.347
-170.910	264.268	-0.041	0.070
-169.896	44.268	-0.203	-0.184
-168.881	-99.641	-0.302	0.075
-167.866	146.284	0.036	0.047
-166.852	1.726	0.302	0.215
-165.837	-2.818	-0.041	-0.028
-164.823	22.667	0.053	0.043
-163.808	102.675	0.062	0.071
-162.793	20.621	0.285	0.227
-161.779	9.114	0.075	0.056
-160.764	-107.340	0.418	0.091
-159.750	-76.432	-0.217	0.075
-158.735	749.505	0.028	0.074
-157.720	499.918	-0.018	-0.041
-156.706	-26.080	0.197	0.114
-155.691	171.984	0.114	-0.162
-154.677	416.870	0.116	-0.245
-153.662	-69.688	0.215	0.081
-152.647	39.944	0.138	0.122
-151.633	800.000	-0.023	0.084
-150.618	-99.111	0.040	0.010
-149.604	-118.260	-0.335	-0.059
-148.589	185.956	0.104	-0.152
-147.574	-13.862	-0.117	0.075
-146.560	-8.087	0.087	-0.058
-145.545	-112.886	0.161	-0.031
-144.531	94.416	0.196	0.219
-143.516	2.195	-0.408	0.291
-142.502	-64.622	-0.427	0.171
-141.487	71.811	-0.243	0.249
-140.472	-42.520	-0.196	0.098
-139.458	800.000	0.104	-0.338
-138.443	800.000	-0.084	-0.293
-137.429	28.261	0.051	0.043
-136.414	87.296	-0.237	-0.258
-135.399	-200.000	-0.013	0.082
-134.385	3.328	-0.045	0.032
-133.370	800.000	-0.047	0.135
-132.356	-80.703	0.079	0.026
-131.341	272.770	-0.098	-0.170
-130.326	130.764	-0.264	0.334
-129.312	-52.214	0.080	0.037
-128.297	353.705	-0.064	0.124
-127.283	-200.000	0.008	0.221
-126.268	-200.000	0.023	0.117
-125.253	13.291	0.308	0.235
-124.239	-84.321	0.141	0.044
-123.224	113.928	0.152	-0.182
-122.210	409.417	-0.078	-0.163
-121.195	-64.986	0.229	0.091
-120.180	32.250	0.194	-0.165
