DTS Sentinel unit serial number:	SN413079Multiplexer serial number:	ORYXHardware model number:	OX4-SRSoftware version number:	ORYX F/W v4.00 Oryx Data Collector v3.7.2.0data status	okinstallation	princeton_trtdifferential loss correction	single-endedforward channel	channel 2reverse channel	N/Adate	2019/09/10time	18:13:11forward acquisition time	60.00reverse acquisition time	0.00gamma	496.2192k internal	0.2316k external	0.2316temperature offset calibration	0.9937default loss term (dB/km)	0.3790temperature slope calibration	1.0000multiplexer offset coefficient	1.0000multiplexer slope coefficient	1.0000fibre end	0.00T internal ref (°C)	36.64T ext. ref 1 (°C)	-0.37T ext. ref 2 (°C)	28.79length (m)	temperature (°C)	Stokes	anti-Stokes-747.200	-38.781	0.394	0.210
-746.185	221.927	0.131	-0.214
-745.171	12.882	-0.316	-0.248
-744.156	373.908	0.072	0.148
-743.142	166.489	0.177	0.254
-742.127	-200.000	-0.018	-0.350
-741.112	-6.613	-0.023	0.016
-740.098	19.904	-0.157	-0.128
-739.083	-200.000	-0.011	-0.057
-738.069	-56.741	-0.084	-0.037
-737.054	-77.817	-0.146	-0.051
-736.039	-108.735	-0.329	0.071
-735.025	-158.763	0.264	-0.015
-734.010	-68.081	0.121	0.048
-732.996	-200.000	0.022	-0.241
-731.981	-98.079	-0.106	-0.028
-730.966	-84.942	0.194	0.062
-729.952	-109.575	-0.132	0.028
-728.937	-55.689	-0.260	0.118
-727.923	-200.000	0.018	0.257
-726.908	18.688	-0.203	-0.165
-725.894	-200.000	0.012	0.083
-724.879	326.176	-0.039	0.076
-723.864	800.000	0.024	-0.083
-722.850	612.888	-0.120	-0.303
-721.835	-200.000	0.005	0.048
-720.821	25.776	0.203	0.171
-719.806	428.339	0.062	-0.135
-718.791	488.228	-0.103	0.237
-717.777	-200.000	0.036	-0.223
-716.762	-78.423	-0.527	-0.183
-715.748	42.991	0.317	-0.292
-714.733	-46.311	0.267	0.133
-713.718	-144.774	-0.456	0.042
-712.704	-200.000	0.004	0.135
-711.689	-148.467	0.286	0.024
-710.675	268.647	0.095	-0.169
-709.660	81.519	-0.104	-0.114
-708.645	-175.828	-0.088	0.002
-707.631	603.671	-0.056	-0.141
-706.616	-47.514	-0.296	-0.145
-705.602	-95.508	0.111	0.030
-704.587	156.309	0.068	-0.094
-703.572	-19.537	-0.227	0.142
-702.558	302.492	0.079	-0.148
-701.543	-200.000	-0.024	-0.146
-700.529	-200.000	-0.030	-0.153
-699.514	153.663	-0.299	0.414
-698.499	-125.593	0.140	-0.022
-697.485	428.295	0.089	-0.193
-696.470	-58.627	-0.208	0.091
-695.456	-72.918	-0.304	0.113
-694.441	180.243	-0.063	-0.093
-693.426	800.000	-0.056	-0.165
-692.412	-73.211	0.135	0.050
-691.397	-63.696	0.066	-0.028
-690.383	-57.363	-0.211	-0.094
-689.368	237.775	0.100	0.168
-688.354	448.127	0.071	0.158
-687.339	-200.000	0.033	0.282
-686.324	151.917	0.165	0.227
-685.310	-33.720	-0.126	-0.070
-684.295	-171.317	-0.149	-0.005
-683.281	122.402	-0.126	-0.159
-682.266	-29.722	-0.215	-0.124
-681.251	800.000	0.032	-0.113
-680.237	-2.404	-0.148	0.105
-679.222	-43.742	-0.080	0.041
-678.208	297.315	0.132	-0.246
-677.193	93.722	0.116	-0.133
-676.178	58.179	-0.210	-0.208
-675.164	-62.772	-0.152	-0.063
-674.149	323.068	-0.114	-0.220
-673.135	140.940	0.101	0.135
-672.120	480.585	-0.031	-0.072
-671.105	-200.000	0.041	0.191
-670.091	800.000	-0.073	-0.227
-669.076	-174.338	0.018	0.001
-668.062	36.275	0.137	-0.122
-667.047	146.989	-0.273	-0.370
-666.032	174.436	0.030	-0.044
-665.018	192.295	0.103	-0.156
-664.003	313.189	-0.097	-0.183
-662.989	-200.000	0.004	-0.201
-661.974	340.996	0.182	-0.359
-660.959	111.329	-0.014	-0.017
-659.945	-153.657	0.188	-0.013
-658.930	52.212	0.095	-0.092
-657.916	-14.507	-0.187	0.121
-656.901	-200.000	-0.059	-0.388
-655.886	-200.000	-0.032	-0.246
-654.872	-132.504	0.219	0.028
-653.857	163.789	0.032	0.045
-652.843	-200.000	-0.051	-0.328
-651.828	-127.660	-0.271	0.039
-650.814	-144.716	-0.249	-0.023
-649.799	-200.000	0.031	-0.202
-648.784	-22.771	-0.142	0.086
-647.770	-200.000	-0.004	0.017
-646.755	-200.000	0.005	-0.176
-645.741	230.238	-0.076	-0.126
-644.726	-1.013	-0.065	0.046
-643.711	-200.000	-0.314	-0.001
-642.697	65.067	-0.139	-0.141
-641.682	-125.796	-0.388	0.059
-640.668	-173.720	-0.175	-0.005
-639.653	441.296	-0.089	-0.196
-638.638	800.000	-0.113	-0.409
-637.624	-21.442	-0.312	-0.192
-636.609	17.498	-0.229	-0.183
-635.595	-148.303	-0.345	-0.029
-634.580	-72.389	0.188	0.070
-633.565	-22.990	-0.341	0.207
-632.551	0.998	-0.187	-0.135
-631.536	24.703	0.164	0.137
-630.522	263.228	-0.238	0.416
-629.507	-146.517	-0.146	0.013
-628.492	-61.677	0.171	-0.072
-627.478	35.948	0.033	-0.029
-626.463	-44.453	0.408	0.206
-625.449	-72.966	-0.301	0.111
-624.434	-200.000	-0.004	-0.147
-623.419	-46.893	0.255	-0.126
-622.405	-7.726	-0.171	0.117
-621.390	-75.352	-0.109	-0.039
-620.376	-82.750	-0.106	0.035
-619.361	-15.119	-0.029	-0.019
-618.346	800.000	0.101	-0.344
-617.332	55.504	-0.294	0.287
-616.317	-200.000	0.027	-0.261
-615.303	-105.204	-0.068	-0.016
-614.288	-200.000	-0.013	-0.171
-613.273	74.390	-0.103	-0.109
-612.259	-76.807	-0.194	-0.068
-611.244	-92.205	0.322	0.092
-610.230	-200.000	0.006	0.153
-609.215	800.000	0.052	-0.227
-608.201	-50.633	-0.306	-0.145
-607.186	-133.325	-0.145	0.018
-606.171	-45.743	-0.084	0.042
-605.157	-86.253	-0.047	0.015
-604.142	71.054	-0.068	0.071
-603.128	165.996	0.076	0.109
-602.113	-23.966	0.114	0.069
-601.098	39.447	-0.160	-0.144
-600.084	-40.706	0.032	-0.017
-599.069	-29.315	0.333	0.192
-598.055	-12.009	0.114	-0.075
-597.040	-200.000	0.006	0.172
-596.025	-134.915	-0.226	0.028
-595.011	-200.000	-0.033	-0.283
-593.996	29.463	-0.092	-0.079
-592.982	6.581	0.052	0.039
-591.967	-200.000	-0.012	0.108
-590.952	-33.244	-0.170	-0.095
-589.938	119.151	-0.093	0.115
-588.923	-81.333	-0.189	-0.063
-587.909	-75.470	-0.245	0.088
-586.894	-200.000	-0.010	-0.083
-585.879	-14.995	-0.043	-0.028
-584.865	246.342	-0.039	0.067
-583.850	98.102	0.090	0.104
-582.836	-59.977	-0.377	0.162
-581.821	-200.000	0.073	0.405
-580.806	-145.464	0.139	-0.013
-579.792	-120.705	0.512	-0.087
-578.777	104.395	-0.215	0.255
-577.763	0.531	0.392	0.282
-576.748	312.632	0.197	0.373
-575.733	34.120	0.068	-0.059
-574.719	300.797	0.158	-0.294
-573.704	345.002	-0.159	0.314
-572.690	800.000	-0.048	0.202
-571.675	544.380	0.050	0.119
-570.661	-82.280	0.266	0.087
-569.646	-111.210	0.192	0.039
-568.631	8.841	0.133	-0.101
-567.617	122.357	-0.158	-0.199
-566.602	-77.166	-0.103	-0.036
-565.588	-118.969	-0.324	-0.057
-564.573	-85.838	-0.144	-0.045
-563.558	-164.168	0.120	0.006
-562.544	66.636	0.047	-0.048
-561.529	800.000	-0.051	0.154
-560.515	800.000	0.067	0.238
-559.500	-200.000	-0.003	-0.184
-558.485	-83.538	-0.359	-0.115
-557.471	12.453	0.186	-0.144
-556.456	93.461	0.091	0.103
-555.442	-200.000	0.002	-0.178
-554.427	-135.702	0.131	0.016
-553.412	71.506	-0.094	-0.099
-552.398	36.931	-0.198	0.176
-551.383	-13.919	-0.028	-0.018
-550.369	-43.004	-0.245	-0.125
-549.354	-8.500	0.387	-0.262
-548.339	-200.000	0.009	0.121
-547.325	613.520	-0.092	-0.233
-546.310	-51.888	-0.131	-0.061
-545.296	-120.487	0.056	-0.010
-544.281	800.000	0.086	0.313
-543.266	92.224	0.124	0.140
-542.252	-170.830	0.219	-0.008
-541.237	800.000	0.065	0.186
-540.223	-19.966	-0.211	0.131
-539.208	-118.561	0.103	0.018
-538.193	-200.000	-0.071	0.321
-537.179	10.488	0.140	0.107
-536.164	192.782	0.263	-0.398
-535.150	62.256	0.063	0.063
-534.135	275.006	0.065	0.116
-533.121	61.663	-0.060	-0.060
-532.106	529.064	-0.078	-0.185
-531.091	134.556	0.081	-0.106
-530.077	462.110	0.101	0.226
-529.062	-100.396	0.129	-0.032
-528.048	-200.000	-0.026	-0.155
-527.033	800.000	0.016	0.063
-526.018	38.484	0.181	0.162
-525.004	-88.916	-0.437	-0.130
-523.989	22.550	-0.239	0.196
-522.975	800.000	-0.106	0.379
-521.960	205.764	-0.104	-0.162
-520.945	800.000	0.035	0.111
-519.931	325.177	-0.147	-0.281
-518.916	-14.759	-0.147	0.095
-517.902	-200.000	0.003	-0.078
-516.887	-66.722	0.153	-0.061
-515.872	136.846	0.190	0.249
-514.858	-181.643	0.234	0.005
-513.843	698.337	0.072	-0.189
-512.829	-63.353	-0.139	-0.057
-511.814	-200.000	0.000	0.089
-510.799	-104.759	0.097	-0.022
-509.785	-200.000	0.020	-0.110
-508.770	-200.000	0.003	-0.309
-507.756	-125.203	0.065	-0.010
-506.741	-200.000	-0.007	-0.090
-505.726	395.275	-0.060	-0.126
-504.712	205.624	-0.054	-0.084
-503.697	21.030	-0.313	0.254
-502.683	800.000	0.076	0.316
-501.668	800.000	-0.045	0.170
-500.653	-157.223	-0.335	-0.020
-499.639	-146.690	-0.270	-0.023
-498.624	-156.299	0.166	-0.010
-497.610	-90.925	0.253	0.073
-496.595	800.000	0.036	0.136
-495.581	-135.230	0.184	-0.022
-494.566	-75.320	0.201	0.072
-493.551	-124.362	0.147	0.023
-492.537	800.000	0.134	0.401
-491.522	172.248	-0.159	0.229
-490.508	-146.286	0.072	-0.006
-489.493	-34.486	-0.248	-0.136
-488.478	172.570	0.205	-0.295
-487.464	-62.304	0.065	-0.027
-486.449	340.311	-0.063	-0.124
-485.435	-200.000	-0.020	0.152
-484.420	-121.016	-0.338	0.057
-483.405	-169.711	-0.189	0.007
-482.391	88.717	0.140	-0.156
-481.376	-40.026	0.343	-0.179
-480.362	-123.944	0.253	-0.040
-479.347	-28.190	-0.181	0.105
-478.332	-116.963	-0.196	-0.036
-477.318	146.677	-0.092	0.124
-476.303	476.422	0.052	-0.117
-475.289	-200.000	0.042	0.187
-474.274	59.799	0.262	0.259
-473.259	32.908	-0.096	-0.083
-472.245	-200.000	-0.013	-0.105
-471.230	-200.000	-0.015	0.179
-470.216	580.236	0.050	-0.123
-469.201	-126.180	-0.320	0.048
-468.186	-21.411	0.167	-0.102
-467.172	85.612	-0.139	-0.153
-466.157	-53.884	-0.282	-0.129
-465.143	141.800	0.166	-0.220
-464.128	-63.871	0.085	-0.035
-463.113	-73.156	0.190	-0.070
-462.099	376.293	0.126	0.258
-461.084	56.326	0.199	-0.194
-460.070	800.000	0.019	0.052
-459.055	542.627	0.057	0.136
-458.040	-139.642	0.322	0.034
-457.026	-200.000	-0.039	-0.404
-456.011	-95.702	0.232	-0.062
-454.997	132.341	0.059	0.076
-453.982	-144.820	0.225	-0.021
-452.968	233.437	0.157	-0.258
-451.953	-96.013	0.113	-0.030
-450.938	800.000	-0.026	-0.104
-449.924	-42.061	0.148	0.076
-448.909	800.000	-0.103	0.425
-447.895	218.058	0.081	0.129
-446.880	-200.000	-0.003	-0.105
-445.865	-139.977	-0.282	0.030
-444.851	-118.863	0.284	-0.050
-443.836	-158.272	0.080	-0.005
-442.822	800.000	-0.081	-0.264
-441.807	800.000	-0.076	0.319
-440.792	-47.949	-0.217	0.105
-439.778	33.318	-0.046	-0.040
-438.763	22.078	-0.117	0.095
-437.749	37.680	0.273	-0.242
-436.734	-200.000	0.016	-0.150
-435.719	-200.000	-0.012	-0.193
-434.705	191.370	0.075	-0.114
-433.690	-200.000	0.092	-0.411
-432.676	-49.652	-0.106	-0.051
-431.661	-26.576	0.216	-0.127
-430.646	-22.738	0.420	-0.254
-429.632	-133.452	-0.568	-0.071
-428.617	431.755	-0.045	-0.097
-427.603	-56.232	-0.440	0.196
-426.588	-200.000	-0.031	0.312
-425.573	188.944	-0.081	-0.121
-424.559	-60.680	-0.186	0.079
-423.544	-200.000	0.006	-0.106
-422.530	800.000	0.043	-0.185
-421.515	37.370	0.197	0.175
-420.500	-171.525	0.188	-0.006
-419.486	-177.856	-0.102	-0.002
-418.471	800.000	-0.023	-0.094
-417.457	88.890	0.020	-0.022
-416.442	-50.933	0.191	-0.090
-415.428	-136.600	0.188	-0.022
-414.413	-100.402	0.199	-0.049
-413.398	800.000	-0.028	-0.100
-412.384	15.863	-0.254	0.200
-411.369	188.710	-0.030	-0.045
-410.355	11.826	0.139	0.107
-409.340	-159.394	-0.200	-0.011
-408.325	174.822	0.084	-0.122
-407.311	758.852	0.044	0.120
-406.296	1.143	0.301	-0.216
-405.282	728.082	0.052	-0.140
-404.267	-200.000	-0.328	0.001
-403.252	-129.848	-0.259	0.036
-402.238	-76.855	0.053	0.019
-401.223	-184.545	0.253	0.004
-400.209	222.894	-0.097	0.157
-399.194	-200.000	-0.028	0.139
-398.179	800.000	0.037	0.107
-397.165	-105.666	-0.400	0.090
-396.150	-200.000	-0.058	0.347
-395.136	-66.252	-0.198	-0.079
-394.121	-200.000	-0.029	-0.169
-393.106	-102.469	-0.341	0.082
-392.092	179.379	0.096	0.141
-391.077	-200.000	0.048	-0.451
-390.063	-72.922	-0.110	0.040
-389.048	27.072	0.258	0.216
-388.033	-97.989	0.185	0.048
-387.019	-200.000	-0.001	0.330
-386.004	-130.620	-0.064	0.009
-384.990	-26.380	-0.053	-0.031
-383.975	-200.000	-0.013	0.154
-382.960	124.882	-0.075	0.095
-381.946	701.622	0.049	-0.128
-380.931	-176.863	0.190	-0.005
-379.917	-56.947	0.262	-0.115
-378.902	-111.472	-0.534	0.108
-377.888	-16.300	0.220	0.139
-376.873	9.543	0.138	0.104
-375.858	647.067	0.080	0.205
-374.844	117.607	-0.196	0.240
-373.829	-7.790	-0.195	-0.131
-372.815	-147.897	0.291	-0.024
-371.800	-160.863	0.242	-0.013
-370.785	-83.185	-0.489	0.157
-369.771	-77.137	-0.111	-0.039
-368.756	-57.081	0.290	-0.128
-367.742	-72.351	0.215	-0.080
-366.727	800.000	0.075	-0.302
-365.712	34.028	-0.264	-0.229
-364.698	31.915	-0.139	-0.119
-363.683	-200.000	0.025	0.146
-362.669	-6.550	-0.025	0.017
-361.654	40.896	-0.084	-0.076
-360.639	393.486	0.049	-0.102
-359.625	43.000	-0.160	0.146
-358.610	-200.000	-0.000	0.182
-357.596	-2.917	0.176	-0.123
-356.581	-200.000	-0.012	-0.079
-355.566	-200.000	-0.033	-0.181
-354.552	-125.465	-0.143	-0.022
-353.537	-200.000	-0.018	-0.324
-352.523	-200.000	0.020	-0.135
-351.508	800.000	-0.025	0.088
-350.493	17.760	-0.162	0.128
-349.479	83.066	-0.080	0.087
-348.464	-138.989	-0.346	-0.037
-347.450	-200.000	0.010	0.071
-346.435	-139.406	0.084	0.009
-345.420	-57.340	0.201	-0.088
-344.406	800.000	-0.063	-0.261
-343.391	-10.897	0.206	-0.136
-342.377	-155.089	-0.138	0.009
-341.362	646.808	0.063	-0.161
-340.348	-200.000	-0.013	0.135
-339.333	176.918	0.050	-0.072
-338.318	-110.828	-0.250	-0.051
-337.304	-200.000	0.001	-0.040
-336.289	-157.987	0.127	-0.007
-335.275	141.751	-0.234	0.309
-334.260	-70.420	-0.272	0.103
-333.245	-200.000	0.007	-0.050
-332.231	549.436	0.016	0.039
-331.216	-74.521	-0.211	0.076
-330.202	-200.000	0.009	-0.274
-329.187	-20.839	-0.167	0.102
-328.172	-165.037	0.115	-0.005
-327.158	312.616	-0.078	-0.146
-326.143	-119.134	-0.293	-0.051
-325.129	492.638	0.097	-0.222
-324.114	-158.954	-0.096	-0.005
-323.099	117.546	-0.156	0.192
-322.085	547.492	0.126	-0.300
-321.070	-24.737	-0.341	-0.202
-320.056	-7.765	-0.150	0.101
-319.041	-85.810	0.394	-0.122
-318.026	59.262	0.148	-0.145
-317.012	93.540	-0.105	-0.119
-315.997	154.239	0.328	0.448
-314.983	-80.705	0.340	-0.113
-313.968	-142.303	-0.321	-0.032
-312.953	-200.000	0.039	0.287
-311.939	-200.000	-0.036	-0.218
-310.924	12.711	0.094	0.072
-309.910	283.200	-0.211	-0.377
-308.895	396.767	0.058	0.122
-307.880	29.400	-0.073	-0.062
-306.866	418.141	-0.189	-0.403
-305.851	-57.433	-0.242	0.106
-304.837	-200.000	0.026	-0.162
-303.822	-200.000	-0.057	-0.444
-302.807	-117.312	0.103	-0.019
-301.793	-59.203	-0.094	-0.040
-300.778	-76.482	-0.198	0.069
-299.764	-200.000	-0.118	-0.001
-298.749	4.835	0.264	0.193
-297.735	-200.000	0.020	-0.105
-296.720	190.996	-0.047	-0.070
-295.705	-38.540	0.216	0.114
-294.691	-200.000	0.011	-0.111
-293.676	800.000	0.030	0.112
-292.662	800.000	0.073	0.214
-291.647	800.000	0.053	0.177
-290.632	-200.000	0.015	0.213
-289.618	-101.029	-0.211	0.052
-288.603	118.520	0.188	0.231
-287.589	0.218	-0.210	0.149
-286.574	-127.841	0.118	0.017
-285.559	800.000	-0.042	0.178
-284.545	48.143	-0.194	-0.181
-283.530	327.583	0.070	0.134
-282.516	-200.000	0.023	-0.378
-281.501	29.879	0.086	0.073
-280.486	228.206	0.149	0.242
-279.472	175.294	0.106	0.153
-278.457	-156.404	-0.163	0.010
-277.443	-127.618	0.191	-0.028
-276.428	299.080	0.251	0.460
-275.413	-11.094	0.410	0.269
-274.399	-20.187	0.075	0.046
-273.384	-167.881	-0.234	0.009
-272.370	-158.304	0.072	-0.004
-271.355	-45.776	0.182	0.089
-270.340	43.291	-0.073	-0.066
-269.326	123.108	-0.138	-0.172
-268.311	492.092	-0.114	-0.260
-267.297	-18.417	-0.210	0.131
-266.282	-157.570	0.187	-0.011
-265.267	-134.556	-0.332	-0.040
-264.253	-69.374	0.429	-0.164
-263.238	254.466	0.032	-0.054
-262.224	-200.000	0.013	-0.081
-261.209	50.982	-0.167	-0.157
-260.195	25.351	0.103	0.085
-259.180	-137.803	0.257	0.029
-258.165	606.757	0.046	-0.113
-257.151	447.788	-0.076	0.165
-256.136	140.773	0.124	-0.163
-255.122	-121.233	0.203	-0.034
-254.107	-183.103	0.151	-0.003
-253.092	309.205	0.146	0.270
-252.078	642.628	-0.062	-0.156
-251.063	402.325	-0.025	0.051
-250.049	73.663	0.146	0.152
-249.034	-181.238	0.306	0.006
-248.019	43.630	0.079	-0.072
-247.005	19.219	0.253	0.202
-245.990	-94.717	0.107	-0.029
-244.976	73.485	-0.194	0.202
-243.961	-22.015	-0.409	0.247
-242.946	-9.519	-0.170	0.113
-241.932	38.671	-0.219	-0.194
-240.917	800.000	-0.070	-0.212
-239.903	98.068	0.152	0.174
-238.888	90.079	-0.197	0.219
-237.873	-200.000	-0.022	-0.112
-236.859	800.000	0.029	-0.124
-235.844	84.856	0.108	-0.118
-234.830	-200.000	-0.034	0.175
-233.815	172.309	0.165	-0.236
-232.800	-102.169	-0.064	0.015
-231.786	117.380	0.145	0.178
-230.771	-45.294	-0.191	-0.094
-229.757	-200.000	-0.055	0.246
-228.742	-200.000	0.002	0.193
-227.727	-162.286	0.360	0.018
-226.713	-132.252	0.187	0.024
-225.698	-200.000	-0.026	-0.194
-224.684	-200.000	0.035	0.338
-223.669	234.314	0.157	0.256
-222.655	114.092	-0.188	0.228
-221.640	78.622	-0.253	-0.268
-220.625	36.876	0.065	0.057
-219.611	397.841	-0.123	0.256
-218.596	-200.000	0.035	0.185
-217.582	-97.190	-0.049	0.013
-216.567	800.000	-0.018	-0.066
-215.552	23.090	0.297	-0.242
-214.538	190.390	-0.132	0.196
-213.523	182.996	0.229	-0.335
-212.509	-110.423	-0.052	0.011
-211.494	286.734	-0.040	-0.071
-210.479	-200.000	-0.005	-0.052
-209.465	-200.000	-0.055	0.308
-208.450	-87.649	0.392	0.118
-207.436	-139.959	0.396	0.041
-206.421	226.514	0.127	-0.204
-205.406	-12.599	0.064	0.041
-204.392	166.673	-0.031	0.044
-203.377	-200.000	0.018	0.305
-202.363	214.555	0.205	-0.322
-201.348	-140.334	0.444	0.046
-200.333	-134.906	-0.129	-0.016
-199.319	-52.627	-0.039	0.018
-198.304	3.225	0.185	0.134
-197.290	800.000	-0.064	-0.226
-196.275	800.000	-0.031	0.106
-195.260	-107.651	-0.406	0.088
-194.246	-66.140	0.134	-0.053
-193.231	116.533	-0.354	-0.430
-192.217	-64.194	0.199	-0.080
-191.202	-146.487	0.117	-0.010
-190.187	535.796	0.093	0.219
-189.173	-34.606	0.361	0.196
-188.158	-124.655	0.180	0.028
-187.144	-187.864	-0.218	-0.003
-186.129	-60.340	0.141	0.059
-185.114	185.932	-0.148	0.218
-184.100	333.542	0.157	-0.301
-183.085	800.000	0.089	-0.342
-182.071	800.000	-0.130	-0.498
-181.056	584.320	0.080	0.195
-180.042	0.008	0.242	0.171
-179.027	436.854	-0.053	0.115
-178.012	14.694	0.132	-0.102
-176.998	19.751	-0.222	-0.177
-175.983	372.336	-0.079	-0.159
-174.969	800.000	-0.041	-0.175
-173.954	-6.714	0.179	-0.120
-172.939	-120.453	0.119	-0.020
-171.925	-98.823	-0.199	-0.050
-170.910	-24.784	-0.161	0.095
-169.896	-12.010	-0.243	0.157
-168.881	-200.000	0.019	0.368
-167.866	-78.433	0.134	0.046
-166.852	-24.249	0.203	0.120
-165.837	291.078	-0.084	0.152
-164.823	800.000	-0.060	0.169
-163.808	333.124	0.102	0.195
-162.793	-200.000	-0.016	0.412
-161.779	-200.000	0.017	0.089
-160.764	-159.116	-0.117	-0.007
-159.750	-40.232	-0.041	-0.021
-158.735	408.638	0.088	-0.185
-157.720	31.381	0.034	-0.029
-156.706	490.295	-0.021	0.048
-155.691	191.404	-0.104	-0.155
-154.677	-56.542	-0.118	0.052
-153.662	-27.114	0.403	-0.233
-152.647	468.241	-0.121	-0.268
-151.633	31.200	0.352	-0.299
-150.618	-33.637	0.114	-0.062
-149.604	-43.020	-0.221	0.111
-148.589	-200.000	0.099	0.442
-147.574	68.009	-0.323	-0.327
-146.560	94.630	0.216	-0.243
-145.545	92.376	0.125	0.139
-144.531	-200.000	-0.030	0.398
-143.516	-70.290	-0.288	-0.108
-142.502	-188.269	-0.390	-0.005
-141.487	-26.321	0.224	0.130
-140.472	29.645	-0.304	-0.256
-139.458	-41.540	-0.260	-0.132
-138.443	300.419	-0.085	0.155
-137.429	-200.000	0.053	0.231
-136.414	-45.068	0.129	-0.063
-135.399	88.371	-0.097	-0.106
-134.385	-200.000	0.021	-0.336
-133.370	-200.000	-0.020	0.120
-132.356	-200.000	0.045	-0.208
-131.341	-200.000	0.037	-0.298
-130.326	55.941	-0.128	0.123
-129.312	-128.033	-0.150	-0.021
-128.297	800.000	-0.078	-0.251
-127.283	-200.000	0.011	-0.213
-126.268	-200.000	0.001	0.087
-125.253	-74.450	0.226	-0.081
-124.239	-89.021	0.129	0.038
-123.224	277.778	0.098	0.173
