DTS Sentinel unit serial number:	SN413079Multiplexer serial number:	ORYXHardware model number:	OX4-SRSoftware version number:	ORYX F/W v4.00 Oryx Data Collector v3.7.2.0data status	okinstallation	princeton_trtdifferential loss correction	single-endedforward channel	channel 2reverse channel	N/Adate	2019/09/13time	07:15:35forward acquisition time	60.00reverse acquisition time	0.00gamma	496.2192k internal	0.2337k external	0.2337temperature offset calibration	1.0195default loss term (dB/km)	0.3790temperature slope calibration	1.0000multiplexer offset coefficient	1.0000multiplexer slope coefficient	1.0000fibre end	0.00T internal ref (°C)	26.06T ext. ref 1 (°C)	4.15T ext. ref 2 (°C)	21.44length (m)	temperature (°C)	Stokes	anti-Stokes-747.200	446.841	0.028	0.063
-746.185	337.332	0.133	0.259
-745.171	-45.176	-0.040	-0.020
-744.156	435.293	-0.105	0.229
-743.142	-43.935	0.018	-0.009
-742.127	-200.000	-0.012	0.189
-741.112	-120.070	-0.160	0.027
-740.098	-130.604	-0.229	0.031
-739.083	298.047	0.100	-0.184
-738.069	800.000	-0.047	-0.191
-737.054	83.922	-0.041	-0.045
-736.039	-158.568	-0.464	-0.027
-735.025	457.724	-0.033	-0.074
-734.010	-200.000	-0.040	-0.267
-732.996	-126.001	0.114	0.017
-731.981	-200.000	-0.062	-0.378
-730.966	-17.860	0.164	0.103
-729.952	166.002	-0.344	0.489
-728.937	-200.000	-0.027	0.234
-727.923	206.653	0.038	-0.059
-726.908	-51.101	0.122	-0.058
-725.894	-101.557	-0.113	-0.028
-724.879	-27.103	0.184	-0.107
-723.864	-99.180	-0.087	0.022
-722.850	-118.414	-0.359	-0.064
-721.835	124.314	-0.109	-0.138
-720.821	800.000	-0.079	-0.231
-719.806	286.109	0.118	0.214
-718.791	-70.070	0.299	-0.114
-717.777	-200.000	0.027	-0.216
-716.762	-78.451	0.248	-0.085
-715.748	-76.849	-0.185	-0.065
-714.733	800.000	0.093	-0.305
-713.718	-200.000	0.062	0.315
-712.704	-200.000	0.012	-0.209
-711.689	-28.604	-0.214	0.124
-710.675	-200.000	-0.033	-0.224
-709.660	58.620	0.250	-0.246
-708.645	484.218	0.097	0.220
-707.631	-95.400	-0.145	0.039
-706.616	-200.000	-0.031	0.256
-705.602	83.711	0.144	0.158
-704.587	-50.215	0.383	0.182
-703.572	-60.699	0.160	-0.068
-702.558	-147.222	0.160	-0.014
-701.543	-61.122	-0.221	0.093
-700.529	467.236	0.052	0.116
-699.514	59.305	0.038	-0.038
-698.499	27.246	0.076	0.064
-697.485	76.877	-0.129	-0.137
-696.470	131.054	0.194	-0.250
-695.456	-200.000	-0.016	-0.174
-694.441	-125.620	-0.091	-0.014
-693.426	414.988	0.116	-0.248
-692.412	-200.000	0.005	-0.215
-691.397	-200.000	0.005	-0.189
-690.383	169.174	0.064	0.091
-689.368	-200.000	-0.041	-0.223
-688.354	-200.000	0.029	-0.235
-687.339	-24.492	-0.258	0.154
-686.324	-48.698	0.111	0.053
-685.310	-7.032	0.161	-0.109
-684.295	-110.687	-0.262	-0.054
-683.281	-63.874	-0.148	-0.061
-682.266	420.139	0.081	0.173
-681.251	800.000	-0.056	0.188
-680.237	-200.000	-0.021	0.121
-679.222	97.508	0.098	0.112
-678.208	800.000	-0.032	0.117
-677.193	-46.065	0.192	0.095
-676.178	-59.538	-0.233	0.100
-675.164	-44.070	0.287	0.145
-674.149	800.000	-0.031	-0.111
-673.135	800.000	0.050	-0.168
-672.120	800.000	-0.088	0.308
-671.105	7.714	-0.205	0.154
-670.091	85.808	-0.036	0.040
-669.076	268.642	0.053	0.093
-668.062	192.282	0.118	-0.179
-667.047	-200.000	0.021	0.120
-666.032	-200.000	-0.021	-0.227
-665.018	-17.027	-0.176	0.111
-664.003	346.283	-0.026	0.052
-662.989	-143.645	-0.275	-0.026
-661.974	-74.700	-0.101	0.036
-660.959	-200.000	0.004	-0.132
-659.945	-200.000	0.002	0.110
-658.930	319.865	0.176	0.335
-657.916	-85.112	-0.149	-0.047
-656.901	8.978	-0.304	0.230
-655.886	-200.000	0.014	-0.132
-654.872	-169.518	-0.179	0.007
-653.857	-57.936	-0.054	-0.023
-652.843	-124.199	-0.143	-0.022
-651.828	-116.042	0.392	0.073
-650.814	78.629	-0.358	0.383
-649.799	-37.734	0.103	-0.055
-648.784	113.583	0.121	0.147
-647.770	-50.838	-0.325	-0.153
-646.755	393.026	0.063	-0.132
-645.741	8.445	0.403	0.303
-644.726	-96.104	-0.254	0.068
-643.711	44.984	0.061	0.056
-642.697	-200.000	-0.028	-0.350
-641.682	64.620	0.151	-0.152
-640.668	800.000	0.082	-0.243
-639.653	87.895	-0.130	-0.144
-638.638	172.321	-0.180	0.259
-637.624	-125.641	-0.541	0.082
-636.609	-5.823	-0.150	0.103
-635.595	-198.737	0.163	0.001
-634.580	174.436	-0.277	-0.400
-633.565	172.514	-0.111	0.159
-632.551	-200.000	0.021	-0.183
-631.536	30.475	-0.208	-0.178
-630.522	491.494	0.127	-0.290
-629.507	-126.910	-0.031	0.005
-628.492	5.891	-0.323	-0.239
-627.478	-86.974	-0.150	0.046
-626.463	800.000	0.090	0.296
-625.449	-90.204	-0.182	0.053
-624.434	-75.191	-0.229	0.082
-623.419	-146.208	-0.225	-0.020
-622.405	201.358	0.070	0.108
-621.390	-41.836	-0.099	-0.051
-620.376	-30.150	0.261	-0.149
-619.361	-110.262	0.055	0.011
-618.346	-200.000	-0.018	-0.363
-617.332	164.230	0.250	0.351
-616.317	457.165	0.140	0.311
-615.303	-71.376	0.343	-0.128
-614.288	787.523	-0.040	-0.110
-613.273	-123.458	0.339	0.054
-612.259	-70.745	0.343	-0.129
-611.244	-63.945	0.069	-0.028
-610.230	29.417	0.054	0.046
-609.215	-200.000	0.016	-0.208
-608.201	-34.538	0.037	-0.020
-607.186	648.672	0.082	-0.211
-606.171	-18.422	-0.267	-0.167
-605.157	-147.722	-0.111	-0.009
-604.142	-91.628	-0.356	-0.101
-603.128	-158.385	-0.363	-0.021
-602.113	-4.332	-0.096	-0.066
-601.098	-104.178	-0.294	-0.068
-600.084	124.955	-0.339	0.426
-599.069	420.148	0.100	0.214
-598.055	-67.378	0.203	0.080
-597.040	123.849	-0.069	-0.087
-596.025	-200.000	0.034	-0.253
-595.011	800.000	0.026	-0.094
-593.996	-200.000	-0.069	0.310
-592.982	-8.322	0.152	-0.102
-591.967	-200.000	0.007	-0.370
-590.952	53.458	-0.245	0.235
-589.938	-43.198	-0.371	-0.188
-588.923	167.135	0.165	-0.234
-587.909	-50.920	0.181	-0.085
-586.894	800.000	0.024	-0.088
-585.879	308.432	0.089	-0.166
-584.865	-107.610	0.158	-0.035
-583.850	-1.935	0.173	-0.121
-582.836	-200.000	0.014	-0.093
-581.821	-115.962	0.109	-0.020
-580.806	-200.000	-0.041	-0.286
-579.792	-67.487	-0.106	-0.041
-578.777	800.000	-0.030	0.085
-577.763	426.798	-0.165	0.355
-576.748	-42.557	-0.124	-0.063
-575.733	800.000	0.047	-0.170
-574.719	-200.000	-0.029	-0.231
-573.704	36.965	-0.103	-0.091
-572.690	312.685	-0.077	-0.144
-571.675	800.000	-0.080	0.225
-570.661	-200.000	0.014	-0.082
-569.646	-135.567	0.277	0.033
-568.631	347.395	-0.125	-0.246
-567.617	-182.778	0.057	-0.001
-566.602	-0.923	0.199	0.140
-565.588	-200.000	0.003	0.019
-564.573	170.898	0.070	-0.100
-563.558	-21.231	0.020	0.012
-562.544	9.266	-0.293	0.221
-561.529	41.551	-0.089	-0.081
-560.515	-67.877	-0.285	-0.111
-559.500	800.000	0.045	0.130
-558.485	-150.379	-0.157	0.012
-557.471	-22.587	-0.315	-0.190
-556.456	-19.379	-0.049	-0.030
-555.442	203.285	-0.182	0.280
-554.427	-93.642	-0.335	-0.092
-553.412	272.287	-0.276	0.486
-552.398	-64.631	-0.356	-0.144
-551.383	65.824	0.130	-0.132
-550.369	-137.519	0.282	-0.032
-549.354	-167.132	0.132	0.005
-548.339	87.880	0.195	-0.216
-547.325	-68.057	-0.201	0.078
-546.310	800.000	-0.032	0.127
-545.296	20.761	0.235	-0.190
-544.281	800.000	0.067	0.215
-543.266	-128.190	-0.422	-0.060
-542.252	-200.000	-0.018	0.150
-541.237	448.042	-0.079	-0.173
-540.223	-62.467	-0.185	0.076
-539.208	-135.685	0.171	0.020
-538.193	800.000	-0.071	-0.201
-537.179	-150.898	0.142	0.011
-536.164	800.000	-0.079	-0.271
-535.150	-200.000	0.022	0.097
-534.135	-86.695	0.085	0.026
-533.121	200.297	-0.199	0.305
-532.106	-200.000	0.005	-0.414
-531.091	25.524	-0.184	0.152
-530.077	-189.609	-0.167	-0.002
-529.062	-144.581	0.215	-0.020
-528.048	-60.437	-0.257	-0.109
-527.033	-200.000	0.017	0.158
-526.018	-159.587	0.148	-0.008
-525.004	323.344	-0.027	0.051
-523.989	101.633	-0.092	0.107
-522.975	-39.390	-0.248	-0.129
-521.960	-27.486	0.141	-0.082
-520.945	50.100	-0.068	0.064
-519.931	51.124	0.155	-0.146
-518.916	-103.854	0.260	-0.061
-517.902	59.950	0.239	-0.235
-516.887	-200.000	0.080	0.401
-515.872	-200.000	0.052	-0.247
-514.858	800.000	0.033	-0.125
-513.843	-1.237	0.089	0.063
-512.829	40.693	-0.082	-0.073
-511.814	38.715	0.395	-0.351
-510.799	-28.411	0.187	0.107
-509.785	-5.048	-0.230	-0.158
-508.770	11.858	-0.039	-0.030
-507.756	501.870	-0.038	0.086
-506.741	-32.116	-0.319	0.177
-505.726	-167.963	-0.129	-0.005
-504.712	185.837	0.233	0.344
-503.697	-200.000	0.023	0.173
-502.683	-116.603	0.173	0.032
-501.668	800.000	-0.060	0.247
-500.653	-72.857	0.286	0.105
-499.639	3.244	-0.278	0.201
-498.624	-137.917	-0.092	0.010
-497.610	-200.000	0.016	0.266
-496.595	300.353	0.069	0.127
-495.581	147.691	0.109	0.146
-494.566	-200.000	-0.024	0.211
-493.551	-200.000	0.039	-0.268
-492.537	220.657	0.141	-0.226
-491.522	-45.622	-0.051	-0.025
-490.508	-83.389	0.371	0.118
-489.493	355.445	0.068	-0.135
-488.478	-142.026	-0.174	0.017
-487.464	367.272	-0.169	0.339
-486.449	-10.182	-0.162	-0.107
-485.435	559.471	-0.081	-0.194
-484.420	-43.651	-0.163	-0.082
-483.405	284.811	0.049	-0.087
-482.391	-151.270	0.106	-0.008
-481.376	-92.235	-0.131	-0.037
-480.362	426.474	-0.081	0.174
-479.347	-121.905	-0.188	-0.031
-478.332	574.646	-0.022	0.053
-477.318	-200.000	-0.296	-0.001
-476.303	-129.285	-0.278	-0.038
-475.289	-200.000	-0.034	0.207
-474.274	-96.407	0.231	0.061
-473.259	800.000	0.043	-0.163
-472.245	93.108	0.044	0.050
-471.230	-22.803	0.155	-0.093
-470.216	-192.473	0.175	-0.002
-469.201	-3.505	-0.110	-0.076
-468.186	-99.608	0.234	0.058
-467.172	431.248	0.102	-0.219
-466.157	-45.768	-0.029	0.014
-465.143	-151.131	0.048	-0.004
-464.128	-91.686	-0.143	0.041
-463.113	214.118	0.156	-0.245
-462.099	29.885	-0.061	-0.052
-461.084	-17.681	0.296	0.185
-460.070	800.000	0.032	0.089
-459.055	412.656	-0.051	0.107
-458.040	-154.690	-0.389	-0.026
-457.026	125.335	-0.068	-0.085
-456.011	-6.107	0.309	-0.209
-454.997	-31.881	-0.325	0.181
-453.982	201.285	-0.103	-0.157
-452.968	-81.849	-0.234	-0.076
-451.953	-200.000	-0.028	-0.125
-450.938	-200.000	0.004	0.400
-449.924	-115.470	-0.251	-0.047
-448.909	-70.329	-0.071	0.027
-447.895	54.164	0.148	-0.142
-446.880	16.102	0.003	-0.003
-445.865	81.343	-0.183	0.197
-444.851	-119.769	0.107	0.018
-443.836	414.759	0.081	0.170
-442.822	-132.884	-0.230	0.029
-441.807	-5.266	-0.256	-0.174
-440.792	-200.000	0.028	0.374
-439.778	-43.569	0.086	-0.043
-438.763	-56.093	0.198	0.088
-437.749	175.019	-0.290	-0.416
-436.734	-133.429	-0.011	-0.001
-435.719	-200.000	-0.010	0.148
-434.705	-8.351	0.243	0.162
-433.690	16.743	0.145	-0.114
-432.676	-200.000	-0.035	0.193
-431.661	26.934	0.167	-0.139
-430.646	116.566	0.162	-0.196
-429.632	42.540	0.126	0.114
-428.617	-200.000	-0.007	-0.261
-427.603	-200.000	0.048	0.217
-426.588	2.636	-0.086	-0.062
-425.573	260.555	0.021	-0.036
-424.559	-19.968	-0.073	-0.045
-423.544	45.164	0.172	0.158
-422.530	268.639	0.045	-0.079
-421.515	-200.000	0.007	-0.150
-420.500	-138.871	-0.211	0.023
-419.486	800.000	0.041	0.115
-418.471	-36.341	0.220	0.118
-417.457	307.445	-0.277	-0.511
-416.442	-200.000	-0.013	-0.354
-415.428	-25.446	-0.179	-0.105
-414.413	257.135	-0.105	-0.179
-413.398	89.938	-0.189	0.209
-412.384	346.845	0.078	-0.153
-411.369	576.994	0.138	0.334
-410.355	-28.646	0.037	0.021
-409.340	-200.000	-0.036	-0.176
-408.325	235.312	0.049	0.081
-407.311	8.555	0.317	0.236
-406.296	-73.972	0.256	-0.092
-405.282	-43.667	0.170	-0.085
-404.267	-31.087	-0.072	0.040
-403.252	-109.560	-0.097	0.020
-402.238	-26.982	0.192	-0.111
-401.223	102.461	-0.126	-0.146
-400.209	114.554	-0.285	0.344
-399.194	800.000	-0.115	0.384
-398.179	100.797	0.095	0.109
-397.165	-200.000	-0.010	0.082
-396.150	85.705	-0.060	0.065
-395.136	-55.739	0.168	-0.074
-394.121	-200.000	-0.005	-0.225
-393.106	-157.942	-0.124	-0.007
-392.092	800.000	-0.127	0.384
-391.077	-124.997	0.236	0.036
-390.063	-17.298	-0.152	-0.095
-389.048	25.211	0.145	0.119
-388.033	-67.316	-0.131	0.051
-387.019	35.895	0.146	-0.127
-386.004	-123.471	-0.254	0.040
-384.990	-112.048	0.147	-0.029
-383.975	-105.536	0.218	0.049
-382.960	-149.645	-0.257	-0.020
-381.946	151.523	0.236	0.319
-380.931	72.750	-0.222	0.229
-379.917	256.570	0.072	0.122
-378.902	-23.364	-0.067	0.040
-377.888	-127.214	-0.234	-0.034
-376.873	4.642	-0.209	0.152
-375.858	91.750	0.186	0.207
-374.844	77.423	0.134	0.142
-373.829	-200.000	-0.053	0.284
-372.815	157.302	-0.208	-0.285
-371.800	-200.000	0.012	0.050
-370.785	72.991	0.145	0.149
-369.771	-200.000	-0.020	0.202
-368.756	800.000	0.119	0.386
-367.742	650.353	-0.058	0.146
-366.727	-200.000	-0.017	-0.211
-365.712	-200.000	0.043	-0.258
-364.698	595.934	-0.129	-0.315
-363.683	-200.000	-0.009	0.194
-362.669	-105.501	0.176	-0.039
-361.654	104.010	0.141	0.164
-360.639	318.656	-0.080	0.150
-359.625	-200.000	-0.044	0.348
-358.610	-75.400	0.408	-0.144
-357.596	112.296	-0.349	-0.417
-356.581	-109.922	0.142	-0.029
-355.566	-103.508	-0.178	0.041
-354.552	-68.980	0.277	-0.106
-353.537	-200.000	-0.018	-0.343
-352.523	-148.554	-0.153	0.012
-351.508	-88.146	-0.214	0.063
-350.493	-176.669	0.170	0.004
-349.479	5.505	-0.176	0.128
-348.464	55.342	0.200	0.192
-347.450	68.313	0.266	0.269
-346.435	-149.468	0.144	-0.011
-345.420	-30.702	-0.084	0.047
-344.406	-100.297	-0.353	0.087
-343.391	441.713	-0.086	0.186
-342.377	-115.314	-0.095	0.018
-341.362	-200.000	-0.039	0.229
-340.348	-148.056	-0.366	-0.030
-339.333	-46.925	0.250	-0.121
-338.318	-98.235	0.159	0.040
-337.304	264.097	0.094	0.162
-336.289	-200.000	0.038	0.233
-335.275	800.000	-0.046	0.151
-334.260	-200.000	-0.001	-0.227
-333.245	-5.829	0.064	-0.043
-332.231	-200.000	0.016	0.193
-331.216	104.900	0.252	0.293
-330.202	-50.012	0.110	0.052
-329.187	168.199	0.117	0.165
-328.172	-88.344	0.245	0.072
-327.158	800.000	0.081	-0.234
-326.143	-200.000	0.017	0.165
-325.129	-183.732	0.308	-0.005
-324.114	-200.000	-0.034	-0.272
-323.099	800.000	0.040	-0.127
-322.085	-83.760	0.065	0.020
-321.070	294.703	0.098	0.176
-320.056	-71.297	-0.096	0.035
-319.041	58.181	0.172	-0.166
-318.026	-63.760	-0.197	-0.080
-317.012	548.724	0.084	-0.198
-315.997	-200.000	0.027	0.191
-314.983	113.778	0.011	0.013
-313.968	242.399	0.035	0.057
-312.953	-63.811	-0.279	-0.113
-311.939	-200.000	0.013	-0.188
-310.924	-200.000	0.001	-0.145
-309.910	-79.447	0.077	-0.026
-308.895	-200.000	0.083	-0.402
-307.880	53.780	-0.056	-0.053
-306.866	76.271	0.245	-0.256
-305.851	800.000	0.098	0.322
-304.837	-200.000	-0.017	0.150
-303.822	255.910	-0.240	-0.407
-302.807	-20.391	0.118	0.071
-301.793	77.513	0.059	0.061
-300.778	-200.000	-0.253	0.000
-299.764	-121.067	0.259	-0.043
-298.749	-140.551	0.263	-0.027
-297.735	-24.034	-0.239	0.141
-296.720	-200.000	-0.018	-0.171
-295.705	-200.000	0.047	-0.250
-294.691	-24.952	0.085	-0.050
-293.676	41.402	-0.285	-0.254
-292.662	-104.376	-0.158	-0.036
-291.647	-81.833	0.312	-0.101
-290.632	174.629	-0.078	0.111
-289.618	-182.749	0.017	0.000
-288.603	-200.000	-0.015	-0.252
-287.589	-200.000	-0.020	0.144
-286.574	533.835	0.209	0.488
-285.559	800.000	0.161	-0.452
-284.545	-200.000	-0.037	-0.360
-283.530	3.269	-0.251	-0.180
-282.516	60.805	0.262	-0.256
-281.501	800.000	-0.077	-0.233
-280.486	20.138	0.130	-0.104
-279.472	20.933	-0.147	0.117
-278.457	12.902	-0.275	-0.209
-277.443	2.054	-0.254	0.180
-276.428	-200.000	0.001	0.290
-275.413	130.442	-0.088	-0.111
-274.399	178.765	0.239	0.344
-273.384	800.000	0.040	-0.158
-272.370	418.488	-0.104	-0.219
-271.355	-200.000	0.046	0.337
-270.340	800.000	-0.046	0.191
-269.326	-54.057	-0.182	-0.082
-268.311	752.773	-0.033	-0.089
-267.297	315.696	-0.073	0.135
-266.282	-58.067	0.281	-0.121
-265.267	55.066	0.201	-0.192
-264.253	800.000	0.048	0.193
-263.238	52.360	0.114	0.107
-262.224	-109.613	0.229	-0.047
-261.209	-200.000	-0.017	-0.364
-260.195	131.317	0.116	-0.147
-259.180	-85.980	-0.386	-0.118
-258.165	280.265	0.104	-0.184
-257.151	-136.899	0.180	-0.020
-256.136	9.051	0.141	0.105
-255.122	-200.000	0.007	0.292
-254.107	-24.736	-0.121	-0.071
-253.092	-160.727	0.091	0.005
-252.078	205.234	0.360	0.551
-251.063	-38.250	0.316	-0.165
-250.049	800.000	0.012	0.041
-249.034	62.298	-0.161	-0.158
-248.019	-79.809	0.323	0.107
-247.005	-139.569	-0.315	-0.033
-245.990	111.082	-0.138	0.164
-244.976	39.158	0.137	0.121
-243.961	-113.917	-0.399	0.076
-242.946	-81.722	-0.460	0.149
-241.932	-153.401	0.232	0.016
-240.917	-44.920	0.263	0.129
-239.903	90.071	0.183	0.202
-238.888	222.271	0.091	-0.144
-237.873	-47.061	0.278	-0.133
-236.859	110.406	0.146	-0.173
-235.844	800.000	-0.065	-0.246
-234.830	-21.548	-0.379	0.227
-233.815	101.151	0.133	-0.153
-232.800	44.914	0.134	-0.122
-231.786	-200.000	0.004	-0.086
-230.771	-200.000	-0.016	0.099
-229.757	-93.427	0.151	-0.041
-228.742	130.304	0.069	0.087
-227.727	-162.436	0.188	-0.009
-226.713	273.883	0.089	0.154
-225.698	-200.000	0.004	0.047
-224.684	153.904	0.133	-0.180
-223.669	-200.000	-0.012	0.150
-222.655	-20.711	-0.047	-0.029
-221.640	-101.297	-0.007	-0.002
-220.625	-79.678	-0.124	0.041
-219.611	419.011	-0.186	0.392
-218.596	-200.000	0.005	-0.234
-217.582	11.321	0.022	-0.017
-216.567	385.559	0.070	-0.141
-215.552	-22.418	0.176	-0.105
-214.538	212.324	0.178	0.275
-213.523	52.472	0.168	0.157
-212.509	9.932	0.166	-0.124
-211.494	-12.498	0.076	0.049
-210.479	-200.000	0.020	-0.230
-209.465	-59.672	-0.476	-0.201
-208.450	80.868	-0.259	-0.274
-207.436	-57.581	0.069	0.030
-206.421	22.690	0.480	0.386
-205.406	-5.913	-0.080	0.054
-204.392	-200.000	-0.001	0.123
-203.377	800.000	-0.031	-0.105
-202.363	88.856	0.141	-0.154
-201.348	-67.739	-0.332	0.128
-200.333	-200.000	-0.007	-0.131
-199.319	106.688	0.095	-0.111
-198.304	-114.035	0.295	-0.056
-197.290	116.875	0.216	0.261
-196.275	-200.000	-0.052	-0.282
-195.260	78.347	0.236	-0.248
-194.246	-200.000	0.002	-0.021
-193.231	800.000	0.019	0.056
-192.217	-15.446	-0.151	0.095
-191.202	57.043	-0.131	0.125
-190.187	-93.527	0.326	0.089
-189.173	298.071	0.120	0.216
-188.158	-200.000	0.009	0.199
-187.144	-118.731	-0.232	0.040
-186.129	23.928	0.117	-0.094
-185.114	36.546	-0.095	0.082
-184.100	-9.428	0.100	0.066
-183.085	14.965	0.122	-0.094
-182.071	-89.774	-0.128	-0.037
-181.056	126.826	-0.165	-0.205
-180.042	12.114	0.129	0.098
-179.027	-200.000	-0.062	0.334
-178.012	-200.000	0.044	-0.474
-176.998	-200.000	0.038	0.211
-175.983	-62.829	0.137	0.055
-174.969	800.000	0.048	-0.167
-173.954	-134.255	0.166	-0.020
-172.939	119.480	-0.039	-0.047
-171.925	-117.347	0.299	0.053
-170.910	-200.000	0.057	-0.418
-169.896	-162.205	-0.532	-0.026
-168.881	-79.977	-0.079	0.026
-167.866	-45.447	0.041	-0.020
-166.852	-34.305	-0.215	-0.116
-165.837	-149.263	0.123	-0.010
-164.823	81.407	0.032	-0.034
-163.808	670.137	0.081	0.206
-162.793	-143.947	-0.362	0.033
-161.779	-88.343	-0.185	0.054
-160.764	-200.000	-0.018	0.220
-159.750	-200.000	0.016	0.330
-158.735	36.518	0.085	-0.073
-157.720	81.327	0.125	0.133
-156.706	-161.615	0.222	0.011
-155.691	-200.000	0.037	0.251
-154.677	-79.895	-0.138	0.045
-153.662	-33.014	-0.296	0.161
-152.647	-200.000	-0.014	0.300
-151.633	629.889	-0.044	0.108
-150.618	126.953	0.175	0.218
-149.604	60.696	0.203	0.197
-148.589	-200.000	-0.005	0.113
-147.574	194.270	-0.157	0.233
-146.560	539.961	0.081	0.189
-145.545	121.305	0.064	0.078
-144.531	-200.000	0.023	0.209
-143.516	550.708	-0.034	-0.080
-142.502	277.621	0.124	0.216
-141.487	-95.710	-0.260	-0.068
-140.472	800.000	-0.094	0.291
-139.458	180.014	0.119	0.171
-138.443	-54.471	0.079	0.035
-137.429	-143.607	0.220	-0.020
-136.414	-42.674	0.086	0.043
-135.399	50.388	-0.034	-0.031
-134.385	99.596	0.231	0.262
-133.370	12.406	-0.116	0.087
-132.356	61.055	0.261	-0.254
-131.341	60.425	0.121	0.117
-130.326	-63.953	-0.286	-0.114
-129.312	-200.000	-0.028	0.255
-128.297	-93.654	-0.374	0.101
-127.283	0.283	-0.030	0.021
-126.268	-64.695	0.185	-0.074
-125.253	435.595	-0.151	0.321
-124.239	-200.000	-0.023	-0.323
-123.224	-111.074	0.154	0.031
-122.210	-200.000	0.024	-0.333
-121.195	58.108	0.126	0.121
