DTS Sentinel unit serial number:	SN413079Multiplexer serial number:	ORYXHardware model number:	OX4-SRSoftware version number:	ORYX F/W v4.00 Oryx Data Collector v3.7.2.0data status	okinstallation	princeton_trtdifferential loss correction	single-endedforward channel	channel 2reverse channel	N/Adate	2019/09/10time	17:49:11forward acquisition time	60.00reverse acquisition time	0.00gamma	496.2192k internal	0.2312k external	0.2312temperature offset calibration	0.9941default loss term (dB/km)	0.3790temperature slope calibration	1.0000multiplexer offset coefficient	1.0000multiplexer slope coefficient	1.0000fibre end	0.00T internal ref (°C)	37.44T ext. ref 1 (°C)	-0.34T ext. ref 2 (°C)	30.24length (m)	temperature (°C)	Stokes	anti-Stokes-747.200	49.299	0.047	0.045
-746.185	-58.856	0.189	0.083
-745.171	-64.477	0.101	0.042
-744.156	800.000	0.065	0.251
-743.142	362.754	-0.102	0.207
-742.127	-200.000	-0.066	0.331
-741.112	-47.296	-0.383	0.189
-740.098	20.904	0.048	-0.039
-739.083	89.735	0.138	-0.156
-738.069	196.857	0.339	0.524
-737.054	-99.325	0.215	-0.055
-736.039	-109.548	-0.215	0.046
-735.025	-200.000	0.019	0.229
-734.010	536.084	-0.034	-0.082
-732.996	508.346	0.087	-0.204
-731.981	268.143	0.172	0.306
-730.966	39.450	-0.220	-0.200
-729.952	-152.000	-0.391	0.029
-728.937	90.016	0.184	0.209
-727.923	-24.157	-0.429	0.260
-726.908	105.167	-0.193	-0.231
-725.894	-88.024	-0.532	-0.162
-724.879	-54.379	-0.129	-0.059
-723.864	-170.549	-0.081	-0.003
-722.850	-116.207	0.133	0.025
-721.835	85.891	-0.198	-0.221
-720.821	-21.277	0.300	0.186
-719.806	283.727	0.188	0.343
-718.791	44.508	-0.146	-0.136
-717.777	-30.632	-0.091	-0.052
-716.762	24.902	0.113	0.095
-715.748	-103.612	-0.258	-0.061
-714.733	71.669	-0.132	-0.139
-713.718	-200.000	-0.008	0.178
-712.704	-180.591	-0.133	-0.003
-711.689	-71.247	-0.229	-0.087
-710.675	196.745	-0.094	0.146
-709.660	-128.915	0.097	0.014
-708.645	-7.950	0.225	-0.154
-707.631	152.551	-0.019	0.026
-706.616	393.780	-0.216	-0.457
-705.602	262.178	0.169	0.297
-704.587	239.501	-0.150	-0.253
-703.572	-200.000	0.018	-0.206
-702.558	-43.097	-0.111	0.057
-701.543	-200.000	0.039	-0.227
-700.529	800.000	-0.058	0.179
-699.514	-93.309	-0.222	-0.062
-698.499	-72.301	0.284	-0.107
-697.485	-39.457	-0.079	-0.042
-696.470	800.000	-0.093	-0.343
-695.456	-200.000	-0.031	0.142
-694.441	302.360	0.069	0.130
-693.426	160.513	-0.110	0.155
-692.412	796.599	0.033	-0.093
-691.397	-20.708	-0.120	-0.075
-690.383	-73.314	0.411	-0.152
-689.368	258.258	0.085	-0.148
-688.354	-41.746	0.120	0.062
-687.339	-6.439	-0.136	-0.094
-686.324	-179.907	-0.251	-0.005
-685.310	800.000	-0.054	-0.167
-684.295	-200.000	-0.007	-0.087
-683.281	106.535	-0.161	-0.193
-682.266	274.781	-0.180	-0.323
-681.251	64.294	-0.053	-0.054
-680.237	30.941	-0.120	-0.104
-679.222	56.199	0.038	-0.037
-678.208	291.514	-0.080	-0.146
-677.193	22.615	0.126	-0.104
-676.178	408.990	-0.096	0.207
-675.164	46.157	0.116	0.108
-674.149	-96.889	0.113	0.030
-673.135	233.730	-0.075	-0.125
-672.120	188.446	-0.138	0.209
-671.105	259.123	0.214	0.373
-670.091	-27.196	-0.186	0.110
-669.076	137.843	0.082	0.109
-668.062	-85.113	-0.211	-0.067
-667.047	-200.000	0.037	0.249
-666.032	221.361	0.091	0.148
-665.018	-181.518	0.295	-0.006
-664.003	125.397	-0.152	-0.194
-662.989	416.784	-0.103	-0.222
-661.974	93.236	0.205	0.234
-660.959	-14.094	0.109	0.071
-659.945	-156.008	0.403	0.026
-658.930	-115.462	-0.264	0.050
-657.916	258.708	-0.076	0.133
-656.901	12.534	0.032	0.025
-655.886	300.597	0.100	0.186
-654.872	-94.095	-0.103	-0.029
-653.857	-61.768	0.171	0.072
-652.843	8.647	0.200	0.152
-651.828	86.362	0.119	-0.133
-650.814	-200.000	-0.068	0.316
-649.799	-200.000	0.009	0.240
-648.784	75.436	-0.257	-0.274
-647.770	-142.949	-0.243	-0.024
-646.755	800.000	-0.101	0.360
-645.741	39.694	0.313	-0.284
-644.726	-61.762	0.156	0.066
-643.711	-103.753	-0.098	-0.023
-642.697	-200.000	-0.002	-0.106
-641.682	-200.000	0.059	-0.477
-640.668	39.724	-0.177	0.161
-639.653	-11.978	0.200	0.132
-638.638	268.484	-0.151	-0.267
-637.624	56.626	-0.076	-0.075
-636.609	-193.856	-0.100	0.001
-635.595	800.000	0.050	-0.203
-634.580	-72.416	0.243	0.091
-633.565	93.491	0.184	-0.210
-632.551	800.000	0.073	0.276
-631.536	-63.142	-0.187	0.078
-630.522	61.950	-0.149	-0.150
-629.507	-34.555	0.216	0.120
-628.492	70.667	-0.322	0.337
-627.478	8.687	0.159	0.121
-626.463	-93.931	0.153	-0.043
-625.449	679.404	0.029	0.077
-624.434	-19.274	-0.191	-0.120
-623.419	45.915	0.403	0.377
-622.405	356.531	0.080	0.161
-621.390	-200.000	0.032	0.246
-620.376	-130.600	0.198	0.027
-619.361	8.114	0.116	0.088
-618.346	-130.889	-0.323	-0.044
-617.332	107.690	-0.129	0.155
-616.317	-126.086	0.330	0.050
-615.303	800.000	-0.032	-0.094
-614.288	-48.805	0.076	0.037
-613.273	800.000	-0.084	-0.250
-612.259	-67.091	-0.167	0.067
-611.244	134.055	0.106	0.138
-610.230	-39.193	-0.513	-0.272
-609.215	2.291	0.119	-0.087
-608.201	10.028	-0.188	-0.144
-607.186	21.021	-0.223	0.183
-606.171	-94.454	-0.374	0.103
-605.157	23.535	0.156	-0.130
-604.142	-200.000	0.033	-0.265
-603.128	-200.000	-0.015	-0.137
-602.113	-79.523	0.080	-0.027
-601.098	800.000	-0.081	0.354
-600.084	-200.000	0.028	-0.176
-599.069	68.827	0.095	-0.098
-598.055	14.173	-0.168	0.132
-597.040	-3.714	0.115	0.080
-596.025	296.328	-0.222	0.410
-595.011	-52.857	0.440	0.204
-593.996	800.000	-0.050	-0.194
-592.982	-86.127	-0.119	-0.037
-591.967	-135.247	0.122	-0.015
-590.952	189.291	-0.212	-0.321
-589.938	302.349	-0.165	0.308
-588.923	282.348	0.108	0.195
-587.909	214.535	0.027	-0.043
-586.894	-63.603	-0.491	0.203
-585.879	-36.442	0.329	-0.178
-584.865	-167.843	0.180	0.007
-583.850	800.000	0.110	-0.430
-582.836	41.092	-0.120	0.109
-581.821	75.815	0.071	-0.076
-580.806	-200.000	0.011	-0.228
-579.792	563.667	-0.079	-0.194
-578.777	-11.469	-0.077	-0.051
-577.763	-174.192	0.153	-0.004
-576.748	570.965	-0.101	-0.249
-575.733	-9.105	0.201	-0.135
-574.719	-200.000	0.051	-0.280
-573.704	-64.529	0.233	0.095
-572.690	-54.110	-0.189	-0.086
-571.675	-200.000	0.012	-0.095
-570.661	494.543	0.082	-0.191
-569.646	467.379	0.097	-0.220
-568.631	-88.837	-0.090	-0.027
-567.617	61.332	-0.171	-0.171
-566.602	-200.000	0.001	0.162
-565.588	18.964	-0.181	-0.146
-564.573	-200.000	0.001	-0.358
-563.558	-200.000	-0.033	0.188
-562.544	-136.284	-0.553	-0.065
-561.529	65.920	0.176	-0.180
-560.515	-200.000	-0.037	-0.376
-559.500	-200.000	-0.012	-0.263
-558.485	800.000	0.054	0.190
-557.471	22.860	0.252	0.208
-556.456	38.569	0.186	0.167
-555.442	-67.989	-0.372	0.146
-554.427	-200.000	0.006	-0.218
-553.412	-8.341	-0.079	0.053
-552.398	-51.098	-0.015	0.007
-551.383	-200.000	0.012	0.433
-550.369	-200.000	0.019	-0.305
-549.354	-26.709	-0.062	0.036
-548.339	-69.563	-0.269	-0.104
-547.325	297.897	-0.042	0.077
-546.310	115.155	0.033	-0.041
-545.296	-175.394	0.217	-0.006
-544.281	213.738	0.157	-0.250
-543.266	65.219	0.238	-0.243
-542.252	-200.000	-0.032	0.261
-541.237	52.665	0.137	-0.132
-540.223	790.598	-0.042	0.115
-539.208	-155.290	0.392	-0.026
-538.193	-53.870	-0.247	-0.113
-537.179	-200.000	0.005	0.209
-536.164	17.624	0.140	-0.112
-535.150	166.565	-0.073	-0.104
-534.135	797.966	0.074	0.206
-533.121	-136.672	0.048	-0.006
-532.106	168.296	-0.112	0.160
-531.091	-200.000	-0.027	-0.122
-530.077	800.000	-0.054	0.203
-529.062	-94.678	-0.191	0.052
-528.048	10.087	-0.193	-0.147
-527.033	-200.000	0.299	-0.001
-526.018	800.000	-0.069	-0.217
-525.004	-107.651	0.295	0.065
-523.989	132.698	-0.198	-0.257
-522.975	-200.000	0.024	0.299
-521.960	800.000	-0.055	0.193
-520.945	161.752	0.183	0.257
-519.931	137.389	-0.171	-0.225
-518.916	-103.553	-0.137	0.032
-517.902	-125.998	0.431	-0.065
-516.887	-153.717	0.073	-0.005
-515.872	-47.662	0.149	0.073
-514.858	-3.467	-0.300	0.210
-513.843	32.012	-0.184	-0.160
-512.829	-101.745	-0.289	0.070
-511.814	73.866	0.132	0.140
-510.799	105.136	-0.060	0.071
-509.785	125.692	-0.177	0.224
-508.770	-151.435	-0.532	-0.040
-507.756	285.703	-0.064	0.115
-506.741	8.186	-0.198	0.149
-505.726	-120.107	0.145	0.025
-504.712	-200.000	-0.002	0.049
-503.697	-200.000	0.016	-0.187
-502.683	-200.000	-0.003	0.207
-501.668	40.012	0.249	-0.225
-500.653	188.821	-0.106	-0.159
-499.639	-2.215	0.132	0.093
-498.624	-200.000	0.027	-0.132
-497.610	247.099	-0.090	-0.153
-496.595	571.982	0.138	-0.339
-495.581	193.187	0.094	0.143
-494.566	-200.000	-0.004	0.304
-493.551	-47.674	-0.058	-0.028
-492.537	32.938	0.125	-0.109
-491.522	-200.000	-0.006	0.282
-490.508	231.952	-0.145	0.238
-489.493	685.518	-0.122	0.320
-488.478	-35.455	0.164	0.089
-487.464	-131.940	0.154	0.020
-486.449	-200.000	-0.025	0.164
-485.435	85.031	0.097	-0.106
-484.420	800.000	-0.069	0.267
-483.405	-26.021	0.188	0.111
-482.391	-200.000	-0.006	-0.048
-481.376	-200.000	0.012	0.191
-480.362	126.409	0.080	-0.101
-479.347	550.334	-0.071	-0.170
-478.332	-150.511	0.346	0.027
-477.318	2.320	0.136	0.099
-476.303	-200.000	-0.037	-0.187
-475.289	-200.000	-0.010	-0.120
-474.274	316.980	0.059	-0.112
-473.259	-1.849	0.159	-0.112
-472.245	-200.000	0.010	-0.173
-471.230	98.782	0.135	0.157
-470.216	-54.706	-0.296	-0.134
-469.201	-139.743	-0.279	-0.030
-468.186	21.659	-0.152	0.124
-467.172	315.386	-0.051	-0.097
-466.157	-82.847	0.227	-0.073
-465.143	-146.767	0.031	0.003
-464.128	-7.287	-0.147	0.100
-463.113	-5.521	-0.365	0.252
-462.099	-49.658	0.066	-0.031
-461.084	-75.656	0.219	0.078
-460.070	-200.000	0.026	-0.116
-459.055	-78.183	-0.307	0.106
-458.040	-75.206	-0.051	0.018
-457.026	770.357	-0.061	-0.167
-456.011	800.000	-0.094	0.348
-454.997	267.760	-0.135	0.237
-453.982	800.000	0.120	0.365
-452.968	-74.154	-0.224	-0.081
-451.953	316.850	0.104	-0.196
-450.938	-200.000	0.016	0.236
-449.924	-200.000	0.020	0.209
-448.909	570.479	-0.064	-0.156
-447.895	7.031	0.231	-0.173
-446.880	-7.444	0.412	-0.280
-445.865	-15.820	0.325	-0.208
-444.851	773.217	0.080	-0.219
-443.836	84.789	-0.152	-0.167
-442.822	-166.443	0.109	-0.005
-441.807	-26.264	0.091	-0.054
-440.792	469.162	0.191	0.430
-439.778	2.304	0.379	0.275
-438.763	-77.739	-0.175	0.061
-437.749	-54.800	-0.045	-0.021
-436.734	800.000	0.053	0.199
-435.719	-1.149	0.086	0.061
-434.705	-200.000	-0.008	0.174
-433.690	-200.000	0.006	-0.179
-432.676	5.341	0.220	-0.163
-431.661	800.000	-0.074	-0.224
-430.646	-200.000	0.031	-0.227
-429.632	-200.000	0.012	-0.158
-428.617	-26.719	-0.152	-0.089
-427.603	-200.000	0.081	0.437
-426.588	573.812	0.039	-0.094
-425.573	-74.364	0.215	0.078
-424.559	-122.288	0.176	0.029
-423.544	120.730	-0.043	-0.054
-422.530	72.411	0.197	-0.206
-421.515	-104.585	0.145	0.034
-420.500	-34.928	-0.089	0.049
-419.486	163.179	-0.024	-0.034
-418.471	800.000	0.050	0.161
-417.457	-176.805	-0.523	0.013
-416.442	-8.345	-0.216	-0.145
-415.428	-62.702	0.252	-0.105
-414.413	2.210	0.189	-0.137
-413.398	67.731	-0.231	-0.236
-412.384	-145.743	0.082	0.007
-411.369	-200.000	0.009	-0.208
-410.355	-69.455	0.334	0.128
-409.340	-136.826	0.177	0.020
-408.325	-95.087	-0.301	0.081
-407.311	-200.000	0.018	-0.089
-406.296	74.376	0.017	-0.018
-405.282	97.471	-0.182	0.209
-404.267	-48.614	0.239	-0.115
-403.252	-200.000	-0.004	0.105
-402.238	-23.008	-0.083	-0.050
-401.223	447.874	0.034	-0.075
-400.209	-12.799	-0.292	-0.191
-399.194	71.598	-0.055	-0.057
-398.179	-200.000	-0.002	0.030
-397.165	-200.000	0.036	-0.298
-396.150	188.390	-0.032	0.048
-395.136	45.070	-0.140	0.130
-394.121	81.576	0.153	0.166
-393.106	-66.175	0.176	-0.070
-392.092	81.656	-0.113	-0.123
-391.077	103.938	-0.139	-0.163
-390.063	-200.000	-0.031	-0.246
-389.048	376.334	-0.181	0.371
-388.033	28.185	-0.163	-0.138
-387.019	-163.902	-0.252	-0.012
-386.004	147.046	-0.184	-0.247
-384.990	51.466	0.189	0.179
-383.975	-94.630	0.207	-0.056
-382.960	-79.377	-0.214	0.072
-381.946	-200.000	0.007	0.376
-380.931	70.505	-0.152	0.157
-379.917	-52.777	0.153	-0.071
-378.902	-38.509	-0.067	-0.035
-377.888	-200.000	0.051	0.232
-376.873	-38.828	-0.182	0.096
-375.858	-13.478	0.201	0.131
-374.844	104.721	0.157	-0.186
-373.829	-67.633	-0.190	0.074
-372.815	-1.907	0.232	0.163
-371.800	188.236	0.051	-0.076
-370.785	-54.056	-0.023	-0.010
-369.771	-104.157	-0.310	0.072
-368.756	88.260	0.061	0.068
-367.742	800.000	-0.030	-0.095
-366.727	236.339	-0.120	-0.199
-365.712	173.204	0.080	0.116
-364.698	-71.690	0.008	0.003
-363.683	-76.355	-0.097	0.034
-362.669	-8.644	-0.139	0.093
-361.654	-32.780	0.074	-0.041
-360.639	-45.485	-0.284	0.141
-359.625	-200.000	0.031	-0.217
-358.610	-175.026	0.390	-0.011
-357.596	508.857	-0.117	-0.271
-356.581	-28.450	-0.023	0.013
-355.566	69.653	0.003	0.003
-354.552	-0.966	0.127	0.090
-353.537	-45.607	0.098	0.049
-352.523	-200.000	0.005	-0.120
-351.508	-63.497	-0.168	-0.069
-350.493	-93.249	-0.077	0.021
-349.479	-169.008	-0.212	0.008
-348.464	-200.000	0.231	0.000
-347.450	65.532	0.124	0.126
-346.435	-104.778	0.414	0.095
-345.420	-4.697	0.111	-0.076
-344.406	-150.092	-0.083	-0.006
-343.391	-200.000	-0.063	0.309
-342.377	578.963	0.037	0.090
-341.362	-95.211	-0.114	0.031
-340.348	525.990	0.068	-0.160
-339.333	-29.176	0.085	-0.048
-338.318	26.247	0.154	-0.129
-337.304	-5.180	0.125	-0.086
-336.289	256.272	0.049	0.085
-335.275	-42.474	0.365	0.186
-334.260	-145.993	-0.139	0.012
-333.245	344.794	-0.064	0.126
-332.231	-119.544	-0.207	0.036
-331.216	-200.000	0.046	0.301
-330.202	-137.771	0.073	-0.008
-329.187	95.621	-0.148	-0.168
-328.172	800.000	0.009	0.029
-327.158	-200.000	-0.015	0.355
-326.143	800.000	-0.048	-0.150
-325.129	-200.000	0.030	0.178
-324.114	800.000	-0.075	0.286
-323.099	11.579	0.234	0.179
-322.085	356.624	0.099	0.198
-321.070	182.541	-0.070	-0.103
-320.056	-150.278	-0.156	-0.012
-319.041	-146.896	0.312	-0.027
-318.026	40.914	0.182	0.164
-317.012	800.000	0.014	0.041
-315.997	-179.373	0.429	0.009
-314.983	-23.465	0.205	-0.123
-313.968	287.307	0.106	-0.191
-312.953	-132.844	0.305	-0.039
-311.939	78.350	0.109	0.116
-310.924	265.100	-0.034	-0.059
-309.910	-49.358	-0.124	0.059
-308.895	-145.702	0.085	0.008
-307.880	-108.564	0.272	0.058
-306.866	432.700	-0.178	-0.386
-305.851	-200.000	0.013	-0.122
-304.837	86.893	-0.093	0.103
-303.822	-78.956	0.067	-0.023
-302.807	-24.666	0.312	-0.185
-301.793	109.426	-0.146	-0.174
-300.778	-136.368	-0.287	-0.033
-299.764	276.098	-0.047	0.084
-298.749	385.269	-0.125	0.257
-297.735	-200.000	-0.007	0.056
-296.720	10.080	-0.174	0.132
-295.705	800.000	0.135	-0.424
-294.691	-200.000	0.020	-0.162
-293.676	16.260	-0.145	0.114
-292.662	-105.615	-0.296	0.067
-291.647	74.300	-0.128	-0.134
-290.632	-16.826	-0.268	-0.169
-289.618	-200.000	0.054	0.306
-288.603	-200.000	0.263	-0.001
-287.589	-70.016	-0.229	-0.087
-286.574	516.383	-0.141	-0.329
-285.559	84.200	-0.173	-0.188
-284.545	469.825	0.036	-0.080
-283.530	-92.598	0.241	-0.067
-282.516	349.650	0.047	0.093
-281.501	71.854	0.193	0.200
-280.486	530.573	-0.146	0.343
-279.472	-68.272	-0.231	-0.089
-278.457	-38.610	-0.119	-0.063
-277.443	52.831	0.344	0.328
-276.428	-85.659	0.370	-0.114
-275.413	-200.000	0.035	-0.273
-274.399	-187.893	-0.404	0.005
-273.384	416.391	0.043	0.092
-272.370	-74.283	0.336	-0.121
-271.355	-200.000	0.023	0.164
-270.340	198.248	-0.202	-0.308
-269.326	58.013	0.195	-0.190
-268.311	-200.000	0.054	0.244
-267.297	-56.054	0.071	0.032
-266.282	-200.000	-0.014	0.157
-265.267	-200.000	0.020	0.135
-264.253	-40.737	-0.238	-0.123
-263.238	800.000	-0.100	-0.401
-262.224	800.000	0.080	0.255
-261.209	-76.637	-0.239	0.083
-260.195	56.327	-0.291	-0.281
-259.180	369.301	0.025	0.051
-258.165	762.042	-0.035	-0.095
-257.151	22.323	-0.114	0.093
-256.136	800.000	-0.093	-0.334
-255.122	64.350	-0.216	-0.217
-254.107	-27.883	0.314	0.181
-253.092	-90.391	0.499	-0.144
-252.078	-124.086	0.324	0.051
-251.063	172.446	0.168	-0.241
-250.049	-45.729	0.141	0.069
-249.034	800.000	-0.041	-0.124
-248.019	-32.533	0.077	-0.043
-247.005	111.072	0.206	-0.247
-245.990	-200.000	0.018	-0.140
-244.976	-129.571	0.058	0.008
-243.961	-0.528	-0.076	0.054
-242.946	-186.543	0.071	0.001
-241.932	-82.175	0.206	-0.067
-240.917	1.513	0.275	0.197
-239.903	109.161	0.129	-0.154
-238.888	-72.701	0.229	-0.084
-237.873	-150.932	-0.214	-0.016
-236.859	800.000	0.056	0.178
-235.844	800.000	-0.017	0.051
-234.830	800.000	-0.007	0.029
-233.815	94.186	-0.072	-0.081
-232.800	140.667	-0.060	-0.079
-231.786	800.000	-0.141	0.459
-230.771	-63.959	0.139	0.056
-229.757	-53.420	-0.264	0.120
-228.742	-200.000	0.042	0.291
-227.727	-7.850	-0.081	-0.054
-226.713	213.596	-0.096	0.151
-225.698	-48.799	-0.355	0.170
-224.684	-127.830	-0.237	0.034
-223.669	-200.000	-0.008	0.291
-222.655	216.038	0.017	-0.026
-221.640	800.000	-0.063	0.183
-220.625	-200.000	0.013	0.296
-219.611	249.453	0.191	0.322
-218.596	22.689	0.113	-0.092
-217.582	-68.658	-0.329	-0.126
-216.567	-75.734	-0.209	0.074
-215.552	766.844	0.075	0.202
-214.538	-4.987	-0.076	0.052
-213.523	-200.000	-0.012	-0.106
-212.509	70.587	0.086	0.088
-211.494	122.578	0.255	0.316
-210.479	291.413	-0.155	0.281
-209.465	-165.937	-0.086	-0.004
-208.450	-200.000	0.000	0.153
-207.436	68.426	-0.196	-0.200
-206.421	-104.613	0.110	-0.025
-205.406	-5.340	0.216	0.147
-204.392	29.066	-0.257	-0.216
-203.377	394.744	0.033	0.069
-202.363	28.757	0.123	-0.103
-201.348	-43.793	0.266	-0.133
-200.333	283.323	-0.163	0.291
-199.319	800.000	0.050	0.209
-198.304	10.210	0.559	-0.422
-197.290	-200.000	-0.061	-0.335
-196.275	392.166	0.057	0.117
-195.260	1.506	0.210	0.150
-194.246	800.000	-0.070	0.239
-193.231	-25.996	-0.382	-0.223
-192.217	-111.417	-0.129	0.026
-191.202	159.292	-0.173	-0.238
-190.187	-85.998	0.431	-0.132
-189.173	-200.000	-0.045	-0.215
-188.158	244.014	-0.257	-0.429
-187.144	-168.643	-0.349	-0.013
-186.129	-88.645	-0.173	0.051
-185.114	800.000	-0.062	0.187
-184.100	-13.054	-0.171	-0.110
-183.085	-92.373	-0.040	0.011
-182.071	-27.655	-0.117	0.067
-181.056	-200.000	0.020	0.290
-180.042	11.041	-0.152	-0.115
-179.027	184.274	0.060	0.088
-178.012	-200.000	0.001	-0.071
-176.998	773.753	0.126	0.342
-175.983	519.785	-0.082	0.192
-174.969	-176.836	-0.190	0.005
-173.954	499.556	0.166	-0.380
-172.939	-48.851	0.228	-0.109
-171.925	67.625	-0.140	-0.142
-170.910	-200.000	-0.014	-0.104
-169.896	800.000	-0.114	0.360
-168.881	60.475	0.033	-0.033
-167.866	-39.927	0.162	0.084
-166.852	163.253	-0.129	0.180
-165.837	-67.676	-0.346	-0.134
-164.823	56.409	0.162	-0.156
-163.808	61.524	-0.298	0.294
-162.793	12.740	-0.234	-0.180
-161.779	800.000	-0.027	-0.081
-160.764	226.143	0.168	0.271
-159.750	68.168	0.021	0.021
-158.735	352.191	-0.055	-0.108
-157.720	-186.732	-0.306	0.004
-156.706	-102.494	0.334	-0.079
-155.691	-200.000	-0.002	-0.267
-154.677	800.000	0.048	-0.174
-153.662	-165.511	-0.119	0.005
-152.647	558.178	-0.062	0.149
-151.633	-200.000	-0.071	-0.514
-150.618	-64.478	-0.028	0.011
-149.604	-75.552	-0.218	0.077
-148.589	27.741	-0.110	0.092
-147.574	-62.573	0.116	-0.048
-146.560	-92.819	0.317	0.088
-145.545	-200.000	-0.006	0.138
-144.531	-32.137	-0.414	0.229
-143.516	1.862	0.418	0.299
-142.502	-44.325	0.328	-0.163
-141.487	-15.023	-0.307	-0.195
-140.472	-86.093	-0.044	0.014
-139.458	-66.860	-0.276	-0.108
-138.443	232.138	-0.171	-0.277
-137.429	-18.805	0.078	0.048
-136.414	389.514	0.087	-0.179
-135.399	-200.000	-0.009	-0.119
-134.385	800.000	-0.057	-0.197
-133.370	-148.378	0.115	-0.009
-132.356	258.207	-0.114	0.195
-131.341	732.940	0.074	-0.196
-130.326	-27.757	-0.328	-0.189
-129.312	-91.899	-0.148	0.042
-128.297	-131.548	0.211	0.027
-127.283	-116.164	0.257	0.047
-126.268	-150.588	-0.375	0.028
-125.253	-200.000	0.093	0.407
-124.239	-200.000	-0.047	0.260
-123.224	800.000	-0.006	0.020
-122.210	350.664	-0.075	-0.147
-121.195	71.160	-0.212	0.218
-120.180	372.324	0.115	0.232
