DTS Sentinel unit serial number:	SN413079Multiplexer serial number:	ORYXHardware model number:	OX4-SRSoftware version number:	ORYX F/W v4.00 Oryx Data Collector v3.7.2.0data status	okinstallation	princeton_trtdifferential loss correction	single-endedforward channel	channel 2reverse channel	N/Adate	2019/09/13time	14:47:35forward acquisition time	60.00reverse acquisition time	0.00gamma	496.2192k internal	0.2313k external	0.2313temperature offset calibration	1.0207default loss term (dB/km)	0.3790temperature slope calibration	1.0000multiplexer offset coefficient	1.0000multiplexer slope coefficient	1.0000fibre end	0.00T internal ref (°C)	35.52T ext. ref 1 (°C)	4.69T ext. ref 2 (°C)	32.62length (m)	temperature (°C)	Stokes	anti-Stokes-747.200	-200.000	0.041	-0.297
-746.185	-152.523	-0.240	0.017
-745.171	319.339	0.102	0.196
-744.156	451.753	0.067	-0.150
-743.142	88.328	0.164	-0.185
-742.127	800.000	-0.083	0.326
-741.112	800.000	-0.048	0.144
-740.098	497.264	0.110	0.256
-739.083	-118.803	-0.160	0.028
-738.069	-200.000	-0.017	0.402
-737.054	-200.000	0.004	0.083
-736.039	-200.000	-0.005	0.098
-735.025	-74.675	0.365	0.133
-734.010	-107.228	-0.386	0.086
-732.996	61.288	0.163	0.164
-731.981	-16.467	-0.361	0.232
-730.966	122.920	0.228	0.289
-729.952	800.000	0.104	-0.339
-728.937	-140.615	-0.256	0.027
-727.923	-200.000	-0.051	-0.342
-726.908	357.226	-0.051	-0.102
-725.894	-200.000	-0.019	-0.265
-724.879	285.438	-0.293	-0.535
-723.864	-54.859	-0.519	0.238
-722.850	-105.263	-0.265	-0.061
-721.835	-200.000	0.001	-0.492
-720.821	-72.016	-0.128	-0.048
-719.806	-200.000	-0.008	-0.217
-718.791	800.000	-0.096	-0.348
-717.777	214.078	-0.079	0.127
-716.762	600.852	0.066	0.166
-715.748	-54.931	-0.493	-0.225
-714.733	800.000	0.090	0.272
-713.718	142.674	0.054	0.072
-712.704	-42.712	-0.110	-0.057
-711.689	-60.526	0.099	0.043
-710.675	-64.588	-0.218	-0.090
-709.660	12.557	-0.151	0.118
-708.645	-24.214	-0.167	-0.101
-707.631	232.638	-0.142	-0.236
-706.616	68.159	0.210	0.217
-705.602	25.520	0.145	-0.122
-704.587	176.084	0.172	-0.254
-703.572	-21.224	0.177	0.109
-702.558	58.752	-0.431	0.429
-701.543	1.331	-0.057	-0.041
-700.529	109.447	-0.198	0.241
-699.514	240.536	0.087	0.147
-698.499	-2.656	0.196	-0.139
-697.485	7.896	-0.083	0.063
-696.470	290.097	-0.101	0.185
-695.456	-148.790	-0.370	-0.030
-694.441	800.000	-0.005	-0.019
-693.426	-200.000	0.015	0.396
-692.412	-135.647	-0.017	-0.002
-691.397	-50.147	-0.245	-0.118
-690.383	-9.410	0.203	0.137
-689.368	-126.762	-0.397	-0.059
-688.354	800.000	0.042	-0.158
-687.339	-154.218	-0.208	-0.014
-686.324	195.629	0.077	0.118
-685.310	-102.281	-0.388	-0.094
-684.295	170.567	0.010	-0.014
-683.281	237.584	-0.089	0.150
-682.266	38.938	-0.062	-0.056
-681.251	287.084	0.053	0.098
-680.237	-200.000	-0.028	0.144
-679.222	238.558	-0.251	-0.423
-678.208	-5.084	0.078	0.054
-677.193	56.296	0.050	0.049
-676.178	52.234	-0.057	0.055
-675.164	-39.998	-0.068	-0.036
-674.149	-200.000	-0.025	-0.199
-673.135	-72.390	-0.297	0.111
-672.120	-200.000	0.005	-0.154
-671.105	-61.418	-0.199	0.085
-670.091	800.000	-0.076	-0.215
-669.076	-61.071	-0.413	0.176
-668.062	-39.829	-0.094	-0.050
-667.047	-183.974	-0.295	-0.005
-666.032	-200.000	-0.021	-0.156
-665.018	-30.168	-0.283	0.163
-664.003	-51.939	-0.191	0.090
-662.989	105.451	-0.102	-0.122
-661.974	-106.737	0.102	0.023
-660.959	-166.247	-0.197	-0.008
-659.945	-153.040	0.084	-0.006
-658.930	800.000	0.037	0.131
-657.916	-86.556	-0.130	-0.040
-656.901	-148.237	-0.082	0.007
-655.886	-184.140	0.257	-0.004
-654.872	-200.000	0.005	-0.052
-653.857	170.324	-0.213	0.308
-652.843	258.143	0.094	-0.164
-651.828	-200.000	-0.010	-0.193
-650.814	-200.000	0.030	0.295
-649.799	-200.000	0.024	0.366
-648.784	29.571	0.278	0.239
-647.770	129.632	0.047	-0.060
-646.755	-103.633	-0.390	0.093
-645.741	-200.000	0.001	-0.005
-644.726	147.314	-0.177	-0.241
-643.711	-47.743	0.196	0.096
-642.697	184.324	0.073	-0.110
-641.682	0.331	0.461	-0.333
-640.668	-200.000	0.036	-0.251
-639.653	248.670	0.260	-0.444
-638.638	-154.677	-0.346	-0.023
-637.624	61.814	0.079	0.080
-636.609	-104.832	0.342	0.079
-635.595	-200.000	0.000	0.075
-634.580	76.609	0.128	0.137
-633.565	-50.901	-0.349	0.166
-632.551	-160.924	-0.193	0.010
-631.536	83.328	-0.096	-0.106
-630.522	178.577	-0.163	0.240
-629.507	-200.000	0.048	-0.249
-628.492	800.000	-0.019	0.058
-627.478	-63.983	0.050	0.021
-626.463	800.000	0.046	-0.156
-625.449	-35.088	-0.305	-0.168
-624.434	-17.385	-0.205	-0.131
-623.419	-200.000	0.019	0.140
-622.405	800.000	0.040	0.158
-621.390	-63.915	-0.175	0.072
-620.376	-99.049	0.146	-0.037
-619.361	-200.000	-0.010	-0.190
-618.346	121.925	-0.214	0.270
-617.332	-46.636	-0.188	0.093
-616.317	-86.564	-0.185	-0.057
-615.303	-34.478	0.264	-0.146
-614.288	-183.277	0.212	0.004
-613.273	89.964	0.167	0.188
-612.259	82.414	-0.263	-0.288
-611.244	696.886	-0.099	0.263
-610.230	800.000	0.093	-0.328
-609.215	-193.404	-0.340	-0.003
-608.201	144.461	-0.142	-0.191
-607.186	-101.407	-0.249	0.061
-606.171	-166.823	-0.274	-0.011
-605.157	311.629	-0.191	-0.361
-604.142	-81.912	0.153	0.050
-603.128	165.492	0.089	-0.127
-602.113	-116.819	0.378	-0.070
-601.098	-157.519	0.213	0.013
-600.084	272.837	-0.118	-0.210
-599.069	-70.486	0.072	-0.027
-598.055	-200.000	0.030	0.142
-597.040	-36.743	0.125	0.068
-596.025	-200.000	-0.028	-0.313
-595.011	-59.590	0.048	0.021
-593.996	-200.000	-0.046	0.222
-592.982	457.569	0.149	-0.334
-591.967	-45.042	0.186	-0.093
-590.952	-84.907	0.172	-0.054
-589.938	-85.234	-0.114	0.036
-588.923	4.304	0.080	-0.059
-587.909	-23.134	0.201	-0.122
-586.894	119.790	-0.157	0.196
-585.879	-134.278	0.275	-0.034
-584.865	58.981	-0.060	0.060
-583.850	-25.576	0.175	-0.104
-582.836	800.000	0.058	0.171
-581.821	-200.000	-0.032	-0.187
-580.806	-20.381	0.084	0.052
-579.792	-200.000	0.001	-0.126
-578.777	-117.468	-0.182	-0.033
-577.763	128.465	-0.146	-0.187
-576.748	-84.686	0.123	0.039
-575.733	330.837	0.083	0.162
-574.719	228.605	-0.044	-0.072
-573.704	-13.438	-0.160	0.105
-572.690	800.000	-0.048	0.134
-571.675	-132.402	0.417	0.054
-570.661	-94.144	0.107	-0.029
-569.646	181.461	0.088	0.131
-568.631	599.003	-0.049	-0.122
-567.617	71.885	-0.275	0.288
-566.602	163.830	0.071	0.101
-565.588	163.279	0.052	-0.073
-564.573	-66.194	0.165	0.066
-563.558	800.000	-0.098	-0.317
-562.544	-149.698	0.273	0.022
-561.529	-156.810	0.156	0.010
-560.515	-200.000	-0.043	-0.271
-559.500	-200.000	-0.080	-0.385
-558.485	82.585	-0.047	-0.052
-557.471	184.999	0.065	0.097
-556.456	359.065	-0.098	-0.197
-555.442	-87.868	0.355	0.108
-554.427	-121.089	-0.223	-0.038
-553.412	63.605	-0.148	-0.150
-552.398	-134.232	0.334	-0.041
-551.383	-82.087	0.144	-0.047
-550.369	-17.630	0.123	-0.078
-549.354	-200.000	-0.036	0.376
-548.339	202.578	0.093	0.145
-547.325	33.778	-0.101	-0.088
-546.310	-200.000	-0.002	0.077
-545.296	170.324	-0.089	0.128
-544.281	-200.000	0.043	0.297
-543.266	482.024	-0.159	-0.364
-542.252	-107.619	0.018	-0.004
-541.237	374.320	-0.048	-0.098
-540.223	800.000	0.039	0.130
-539.208	-200.000	-0.022	-0.328
-538.193	-101.163	0.071	-0.017
-537.179	-82.033	-0.156	-0.051
-536.164	468.455	-0.080	-0.180
-535.150	16.227	0.176	-0.140
-534.135	-177.698	0.262	0.006
-533.121	-104.307	-0.142	-0.033
-532.106	-72.219	-0.105	-0.039
-531.091	-136.495	0.368	0.043
-530.077	86.872	0.093	0.103
-529.062	143.345	-0.126	-0.168
-528.048	258.433	0.240	-0.416
-527.033	74.375	0.158	-0.167
-526.018	-52.243	-0.416	-0.194
-525.004	-66.796	0.062	-0.025
-523.989	800.000	0.109	-0.377
-522.975	-0.724	0.136	-0.097
-521.960	6.044	0.129	0.096
-520.945	37.909	0.086	-0.077
-519.931	-87.588	0.139	0.042
-518.916	-23.551	-0.214	0.129
-517.902	800.000	-0.088	0.253
-516.887	800.000	-0.028	0.086
-515.872	-200.000	0.001	-0.135
-514.858	-200.000	0.063	0.282
-513.843	-200.000	0.026	-0.140
-512.829	-1.319	0.029	0.020
-511.814	-116.032	0.156	-0.029
-510.799	148.832	0.173	-0.235
-509.785	-200.000	0.252	0.000
-508.770	-29.358	-0.128	-0.073
-507.756	28.654	-0.193	0.164
-506.741	-200.000	0.000	0.013
-505.726	-51.804	0.104	0.049
-504.712	-79.505	-0.209	-0.071
-503.697	337.581	-0.070	0.137
-502.683	-141.294	-0.204	0.021
-501.668	513.350	-0.080	0.187
-500.653	-104.947	-0.072	0.017
-499.639	-119.265	-0.148	-0.026
-498.624	-149.655	-0.246	0.019
-497.610	800.000	-0.018	-0.057
-496.595	-4.512	-0.150	-0.104
-495.581	491.713	-0.094	0.216
-494.566	-200.000	-0.006	-0.173
-493.551	-39.258	0.163	0.086
-492.537	-125.613	-0.103	0.016
-491.522	-136.968	-0.193	0.022
-490.508	-150.660	0.487	0.037
-489.493	556.515	0.032	0.077
-488.478	11.242	-0.105	-0.081
-487.464	70.070	0.116	-0.120
-486.449	-200.000	-0.073	0.578
-485.435	-43.027	0.213	-0.108
-484.420	-200.000	-0.010	-0.132
-483.405	-200.000	-0.062	0.303
-482.391	125.640	-0.179	0.227
-481.376	-28.583	-0.241	0.139
-480.362	-200.000	0.058	0.266
-479.347	312.568	-0.101	0.190
-478.332	-94.713	-0.272	0.074
-477.318	97.473	-0.156	-0.180
-476.303	-130.096	0.284	0.039
-475.289	-92.122	-0.254	0.072
-474.274	800.000	-0.124	0.350
-473.259	-200.000	0.058	0.390
-472.245	555.626	0.046	-0.111
-471.230	-200.000	0.031	0.244
-470.216	266.871	0.043	0.076
-469.201	-26.536	0.276	-0.162
-468.186	-26.588	-0.220	0.129
-467.172	329.205	-0.104	0.201
-466.157	800.000	0.044	0.155
-465.143	-200.000	0.034	0.220
-464.128	111.344	-0.103	-0.124
-463.113	-160.955	-0.171	0.009
-462.099	-33.847	-0.372	-0.206
-461.084	800.000	-0.108	-0.315
-460.070	-200.000	-0.149	0.000
-459.055	-61.328	0.305	0.129
-458.040	-132.603	-0.371	0.048
-457.026	-157.926	0.118	0.007
-456.011	400.444	0.133	-0.279
-454.997	133.515	-0.145	-0.188
-453.982	-200.000	0.005	0.022
-452.968	-71.240	0.131	0.049
-451.953	65.811	0.133	-0.135
-450.938	800.000	0.034	0.144
-449.924	-168.667	-0.091	0.003
-448.909	-200.000	-0.011	0.090
-447.895	800.000	0.092	0.381
-446.880	-30.163	0.236	-0.135
-445.865	117.841	0.110	0.135
-444.851	-200.000	-0.032	0.255
-443.836	14.632	-0.165	-0.129
-442.822	-94.154	-0.142	-0.039
-441.807	-141.554	0.066	-0.007
-440.792	121.691	-0.123	0.154
-439.778	121.054	0.179	0.223
-438.763	254.083	-0.141	-0.241
-437.749	-23.624	-0.168	0.101
-436.734	20.017	0.141	-0.114
-435.719	4.836	0.200	0.147
-434.705	-200.000	0.025	-0.274
-433.690	153.001	0.105	0.144
-432.676	511.461	0.061	0.143
-431.661	211.535	0.073	0.114
-430.646	-76.956	-0.223	0.078
-429.632	172.397	0.197	0.284
-428.617	361.247	0.086	0.172
-427.603	190.022	-0.111	0.166
-426.588	-43.837	0.167	-0.084
-425.573	267.955	0.116	0.203
-424.559	459.200	0.087	0.194
-423.544	-98.648	0.060	-0.015
-422.530	322.241	-0.140	-0.268
-421.515	-200.000	-0.005	-0.082
-420.500	-143.562	0.305	-0.029
-419.486	-23.992	-0.352	0.211
-418.471	41.787	-0.263	0.239
-417.457	-144.174	0.258	-0.024
-416.442	-0.076	-0.216	-0.154
-415.428	-37.295	-0.104	-0.056
-414.413	35.716	0.134	-0.118
-413.398	-125.359	0.535	0.082
-412.384	96.604	0.184	0.211
-411.369	-129.673	-0.289	-0.040
-410.355	714.416	0.090	-0.240
-409.340	-34.265	0.216	-0.119
-408.325	133.608	0.086	-0.111
-407.311	-26.188	0.227	0.133
-406.296	61.282	0.127	-0.126
-405.282	-37.950	-0.090	-0.048
-404.267	-200.000	-0.021	-0.128
-403.252	-58.662	-0.328	0.142
-402.238	800.000	-0.059	0.215
-401.223	148.939	-0.060	-0.081
-400.209	-116.989	-0.153	0.028
-399.194	186.599	0.110	-0.164
-398.179	-76.247	0.120	0.042
-397.165	-200.000	0.021	-0.117
-396.150	-68.689	-0.100	-0.039
-395.136	-200.000	-0.015	0.171
-394.121	53.958	0.231	-0.222
-393.106	-95.355	-0.189	-0.051
-392.092	586.097	-0.030	0.075
-391.077	154.365	0.151	-0.208
-390.063	-200.000	-0.037	-0.300
-389.048	222.003	0.218	-0.351
-388.033	15.561	-0.235	-0.185
-387.019	156.626	0.071	-0.098
-386.004	-95.884	0.238	0.063
-384.990	349.111	0.154	0.305
-383.975	764.399	-0.039	0.107
-382.960	184.448	-0.144	-0.213
-381.946	146.858	0.142	0.191
-380.931	486.382	-0.107	0.243
-379.917	-39.694	0.120	0.063
-378.902	3.278	0.071	-0.051
-377.888	67.693	0.104	0.107
-376.873	800.000	-0.101	0.319
-375.858	34.770	0.228	-0.199
-374.844	-200.000	0.010	0.087
-373.829	-188.235	0.223	-0.003
-372.815	-200.000	0.000	0.002
-371.800	-55.700	0.132	0.059
-370.785	-147.002	-0.224	0.019
-369.771	53.140	-0.175	0.168
-368.756	-200.000	-0.086	0.419
-367.742	-200.000	-0.064	0.400
-366.727	296.051	0.074	0.135
-365.712	96.529	0.216	0.247
-364.698	89.816	0.286	-0.320
-363.683	141.433	-0.054	-0.071
-362.669	-0.814	-0.094	0.067
-361.654	-98.089	0.158	-0.041
-360.639	142.024	0.265	0.352
-359.625	-36.793	-0.183	-0.098
-358.610	270.970	-0.160	-0.281
-357.596	-22.572	0.053	-0.032
-356.581	-171.462	0.030	-0.001
-355.566	-89.570	-0.289	0.085
-354.552	-110.842	-0.325	-0.067
-353.537	-40.376	0.085	0.044
-352.523	235.472	-0.033	0.054
-351.508	-174.257	-0.129	-0.004
-350.493	34.256	-0.204	-0.178
-349.479	112.849	0.082	-0.099
-348.464	-68.473	0.439	0.170
-347.450	248.717	0.105	0.177
-346.435	-35.231	-0.256	-0.139
-345.420	74.685	-0.061	-0.064
-344.406	68.920	-0.050	-0.052
-343.391	800.000	-0.064	-0.216
-342.377	-200.000	-0.020	0.336
-341.362	800.000	-0.020	-0.079
-340.348	-200.000	0.005	0.065
-339.333	84.822	-0.180	-0.197
-338.318	-162.853	0.124	-0.006
-337.304	-102.663	-0.335	0.080
-336.289	152.228	0.083	0.113
-335.275	260.103	-0.107	-0.184
-334.260	-150.117	-0.173	0.013
-333.245	-140.646	-0.630	0.065
-332.231	-104.359	0.127	-0.029
-331.216	-99.523	0.152	0.038
-330.202	-137.125	0.519	0.059
-329.187	61.360	-0.230	-0.228
-328.172	-64.383	-0.161	0.066
-327.158	-187.555	0.135	-0.002
-326.143	-54.693	-0.213	0.096
-325.129	288.508	0.077	0.140
-324.114	3.850	0.055	-0.040
-323.099	29.532	-0.049	0.042
-322.085	81.544	-0.146	-0.157
-321.070	2.051	-0.259	0.186
-320.056	-200.000	-0.083	0.495
-319.041	-200.000	-0.022	-0.235
-318.026	204.565	-0.110	0.170
-317.012	-26.798	-0.209	0.122
-315.997	190.294	0.178	0.266
-314.983	706.373	-0.037	-0.097
-313.968	800.000	-0.036	0.158
-312.953	-22.303	0.380	0.230
-311.939	638.708	-0.063	-0.159
-310.924	-38.163	-0.088	0.047
-309.910	-200.000	0.053	0.335
-308.895	-139.637	-0.192	-0.020
-307.880	-200.000	-0.041	-0.263
-306.866	292.225	0.164	0.297
-305.851	674.649	0.068	0.175
-304.837	-154.922	-0.388	0.026
-303.822	-0.073	0.226	-0.160
-302.807	-185.145	0.259	-0.004
-301.793	-45.985	-0.191	-0.094
-300.778	-135.705	-0.288	-0.034
-299.764	15.218	-0.112	0.087
-298.749	-200.000	-0.013	0.285
-297.735	-120.797	-0.137	-0.023
-296.720	-200.000	-0.024	-0.299
-295.705	-98.031	0.126	0.032
-294.691	800.000	-0.100	-0.288
-293.676	-200.000	-0.003	-0.279
-292.662	9.990	-0.309	0.234
-291.647	-90.724	0.144	0.041
-290.632	-28.375	-0.233	0.134
-289.618	-200.000	0.088	-0.559
-288.603	67.074	-0.130	0.132
-287.589	-84.134	0.266	0.084
-286.574	75.282	0.074	-0.078
-285.559	-45.187	-0.417	-0.206
-284.545	-141.970	0.384	-0.038
-283.530	126.675	0.081	-0.102
-282.516	-68.584	-0.180	0.069
-281.501	28.746	-0.144	0.121
-280.486	63.240	-0.045	0.045
-279.472	322.401	0.065	-0.124
-278.457	-82.909	-0.157	0.050
-277.443	-200.000	-0.042	-0.228
-276.428	-153.116	-0.055	-0.004
-275.413	2.335	-0.166	-0.119
-274.399	-155.702	-0.121	-0.008
-273.384	-200.000	-0.006	0.089
-272.370	-200.000	0.009	-0.084
-271.355	-200.000	-0.006	-0.040
-270.340	28.888	-0.145	-0.122
-269.326	800.000	-0.053	-0.164
-268.311	77.637	-0.127	0.135
-267.297	40.183	0.214	0.191
-266.282	86.778	0.191	-0.210
-265.267	-36.724	0.116	0.062
-264.253	-38.527	0.177	-0.093
-263.238	-190.237	0.207	0.002
-262.224	-61.575	-0.069	0.029
-261.209	778.347	0.083	-0.225
-260.195	-19.446	-0.138	0.085
-259.180	-200.000	-0.101	-0.445
-258.165	-149.522	-0.419	-0.033
-257.151	352.711	0.136	-0.268
-256.136	-200.000	-0.015	0.076
-255.122	13.492	0.288	0.223
-254.107	800.000	0.010	-0.035
-253.092	182.175	-0.188	-0.275
-252.078	148.214	-0.087	-0.117
-251.063	-200.000	-0.026	0.209
-250.049	-25.844	-0.250	-0.147
-249.034	56.862	-0.170	-0.165
-248.019	-200.000	0.051	-0.346
-247.005	157.993	0.178	-0.246
-245.990	15.617	0.065	0.051
-244.976	376.707	-0.145	0.294
-243.961	38.108	0.107	0.095
-242.946	800.000	-0.062	-0.191
-241.932	-200.000	-0.006	0.218
-240.917	160.134	-0.077	-0.107
-239.903	-19.111	-0.097	0.060
-238.888	-141.661	0.041	-0.004
-237.873	29.556	-0.153	-0.130
-236.859	599.293	-0.048	0.119
-235.844	-153.222	0.069	-0.005
-234.830	535.798	0.183	-0.433
-233.815	-200.000	-0.043	-0.327
-232.800	344.283	0.067	-0.130
-231.786	-200.000	0.045	-0.230
-230.771	-6.494	0.145	0.098
-229.757	-80.181	-0.302	0.100
-228.742	25.369	0.207	0.171
-227.727	-62.695	0.242	0.100
-226.713	-200.000	0.030	-0.180
-225.698	15.600	0.229	-0.179
-224.684	-200.000	-0.055	-0.495
-223.669	372.023	-0.142	-0.286
-222.655	-200.000	-0.014	0.300
-221.640	64.204	0.123	0.123
-220.625	-96.970	0.223	-0.058
-219.611	-200.000	-0.039	0.188
-218.596	-76.363	0.377	-0.132
-217.582	123.553	-0.087	-0.108
-216.567	-33.397	-0.254	-0.139
-215.552	-200.000	0.029	-0.351
-214.538	12.390	0.111	0.085
-213.523	-200.000	0.128	-0.001
-212.509	-142.260	-0.024	-0.002
-211.494	-200.000	0.004	-0.020
-210.479	-70.846	0.384	-0.144
-209.465	-88.563	0.180	0.053
-208.450	-200.000	0.037	-0.584
-207.436	483.612	0.093	-0.209
-206.421	-39.364	0.351	0.183
-205.406	-115.333	-0.191	0.036
-204.392	488.145	-0.077	-0.176
-203.377	324.544	-0.052	0.098
-202.363	-120.855	0.025	0.004
-201.348	-141.628	0.371	0.037
-200.333	-200.000	0.011	-0.085
-199.319	800.000	-0.037	-0.105
-198.304	-3.124	-0.116	0.080
-197.290	-97.866	-0.377	-0.097
-196.275	-200.000	-0.015	0.507
-195.260	-144.354	-0.093	-0.009
-194.246	61.065	-0.106	-0.104
-193.231	510.894	-0.047	0.107
-192.217	-200.000	-0.028	0.185
-191.202	71.468	0.157	0.161
-190.187	-55.782	-0.282	0.125
-189.173	-52.792	0.188	0.086
-188.158	-200.000	-0.056	0.313
-187.144	230.156	-0.043	0.069
-186.129	-1.903	-0.206	-0.144
-185.114	-40.637	0.016	0.008
-184.100	353.561	-0.211	0.415
-183.085	310.959	-0.174	-0.323
-182.071	739.873	-0.136	0.362
-181.056	160.022	0.176	-0.243
-180.042	565.601	-0.071	0.170
-179.027	-162.758	0.257	0.012
-178.012	429.716	0.118	0.254
-176.998	389.704	0.060	0.123
-175.983	800.000	0.033	-0.139
-174.969	69.613	-0.186	0.190
-173.954	800.000	-0.111	-0.363
-172.939	179.032	0.013	-0.019
-171.925	-161.153	0.171	-0.009
-170.910	-95.536	0.373	0.099
-169.896	-114.185	-0.175	0.034
-168.881	800.000	0.034	0.127
-167.866	130.499	-0.071	-0.090
-166.852	17.193	-0.071	-0.056
-165.837	-20.444	-0.071	-0.043
-164.823	-108.046	0.366	-0.079
-163.808	10.961	-0.186	0.141
-162.793	-33.370	-0.161	0.088
-161.779	-5.342	0.239	0.163
-160.764	-200.000	0.043	-0.385
-159.750	800.000	0.067	-0.187
-158.735	307.258	0.209	0.385
-157.720	342.511	-0.066	0.128
-156.706	-200.000	0.013	0.115
-155.691	-200.000	-0.025	0.245
-154.677	601.220	-0.065	0.161
-153.662	-200.000	-0.016	0.406
-152.647	-200.000	-0.023	0.269
-151.633	227.136	0.077	-0.124
-150.618	800.000	-0.076	0.235
-149.604	133.276	0.173	-0.222
-148.589	-189.184	-0.266	-0.003
-147.574	21.479	-0.307	0.247
-146.560	89.843	-0.076	-0.084
-145.545	176.601	-0.084	-0.121
-144.531	-75.780	0.199	-0.070
-143.516	171.911	0.057	0.081
-142.502	279.301	0.219	0.388
-141.487	70.107	0.178	0.182
-140.472	-200.000	-0.074	0.335
-139.458	316.706	-0.125	-0.234
-138.443	-174.108	-0.046	0.001
-137.429	-109.139	0.370	-0.078
-136.414	800.000	0.025	0.087
-135.399	-143.453	0.109	-0.010
-134.385	782.722	0.073	-0.197
-133.370	42.034	-0.123	0.110
-132.356	-200.000	0.017	0.158
-131.341	-116.737	-0.126	-0.023
-130.326	-72.578	0.350	-0.128
-129.312	646.400	0.090	0.226
-128.297	-134.629	0.315	0.038
-127.283	-124.077	0.037	-0.006
-126.268	146.277	0.105	-0.139
-125.253	46.308	0.248	-0.227
-124.239	-108.357	0.323	-0.069
-123.224	-47.529	0.232	0.112
-122.210	274.975	0.009	-0.016
