DTS Sentinel unit serial number:	SN413079Multiplexer serial number:	ORYXHardware model number:	OX4-SRSoftware version number:	ORYX F/W v4.00 Oryx Data Collector v3.7.2.0data status	okinstallation	princeton_trtdifferential loss correction	single-endedforward channel	channel 2reverse channel	N/Adate	2019/09/11time	21:49:11forward acquisition time	60.00reverse acquisition time	0.00gamma	496.2192k internal	0.2325k external	0.2325temperature offset calibration	1.0069default loss term (dB/km)	0.3790temperature slope calibration	1.0000multiplexer offset coefficient	1.0000multiplexer slope coefficient	1.0000fibre end	0.00T internal ref (°C)	35.69T ext. ref 1 (°C)	1.70T ext. ref 2 (°C)	29.91length (m)	temperature (°C)	Stokes	anti-Stokes-747.200	468.137	-0.127	0.287
-746.185	133.627	-0.122	-0.159
-745.171	-200.000	-0.023	-0.189
-744.156	800.000	-0.065	0.213
-743.142	307.377	0.071	0.133
-742.127	800.000	-0.082	0.350
-741.112	800.000	-0.042	-0.134
-740.098	-74.404	0.237	0.086
-739.083	77.437	0.077	-0.083
-738.069	-91.888	-0.336	0.096
-737.054	-200.000	0.004	0.149
-736.039	-132.482	-0.070	0.009
-735.025	50.798	-0.094	0.090
-734.010	14.776	-0.280	-0.221
-732.996	195.276	-0.068	-0.104
-731.981	-148.895	-0.090	-0.007
-730.966	-200.000	0.060	-0.281
-729.952	472.616	-0.129	0.293
-728.937	396.961	0.057	0.120
-727.923	-117.214	-0.039	0.007
-726.908	27.132	-0.397	-0.336
-725.894	800.000	0.049	0.169
-724.879	31.426	-0.105	-0.091
-723.864	244.676	-0.086	-0.146
-722.850	-75.385	-0.349	-0.125
-721.835	-93.817	0.328	-0.091
-720.821	800.000	0.042	-0.121
-719.806	-76.427	0.295	0.105
-718.791	-31.586	-0.061	0.034
-717.777	-200.000	-0.040	-0.278
-716.762	-127.936	-0.028	0.004
-715.748	800.000	0.025	0.083
-714.733	238.458	-0.028	-0.047
-713.718	12.261	0.145	-0.113
-712.704	-14.400	-0.168	-0.109
-711.689	-176.456	0.344	0.009
-710.675	146.509	-0.166	0.225
-709.660	-200.000	0.092	-0.582
-708.645	81.866	0.296	-0.323
-707.631	300.760	0.032	0.059
-706.616	201.497	-0.042	0.065
-705.602	-52.691	-0.286	0.133
-704.587	87.042	-0.108	-0.121
-703.572	-127.209	0.211	0.031
-702.558	-82.685	-0.243	-0.079
-701.543	-106.529	-0.093	0.021
-700.529	38.320	-0.340	0.305
-699.514	-97.939	0.364	-0.095
-698.499	46.984	-0.365	0.342
-697.485	15.391	0.087	0.069
-696.470	-111.157	0.021	0.004
-695.456	-97.005	0.408	0.108
-694.441	-84.834	-0.486	0.154
-693.426	-200.000	0.029	-0.205
-692.412	26.031	0.101	0.085
-691.397	39.443	-0.107	-0.097
-690.383	-78.738	-0.256	0.088
-689.368	-200.000	0.043	-0.203
-688.354	-21.989	0.254	0.155
-687.339	-120.680	-0.205	-0.035
-686.324	-90.024	0.113	0.033
-685.310	800.000	-0.132	-0.396
-684.295	800.000	0.016	-0.050
-683.281	108.819	0.092	-0.110
-682.266	-200.000	-0.062	-0.275
-681.251	800.000	-0.080	-0.315
-680.237	800.000	-0.032	-0.111
-679.222	-13.525	0.147	-0.096
-678.208	95.466	0.310	-0.356
-677.193	172.305	0.195	0.282
-676.178	-3.093	0.445	-0.312
-675.164	800.000	0.074	0.250
-674.149	800.000	-0.039	0.149
-673.135	-51.104	-0.219	-0.104
-672.120	-200.000	0.009	0.151
-671.105	800.000	-0.065	-0.186
-670.091	800.000	-0.050	0.148
-669.076	-48.078	-0.217	0.105
-668.062	-200.000	-0.051	-0.471
-667.047	-157.309	0.096	0.006
-666.032	800.000	-0.082	-0.321
-665.018	800.000	-0.038	0.110
-664.003	-181.216	0.138	0.003
-662.989	-200.000	-0.005	-0.081
-661.974	391.574	0.007	-0.014
-660.959	227.386	-0.071	0.116
-659.945	-4.435	0.190	0.132
-658.930	-200.000	0.014	0.113
-657.916	-82.694	-0.383	0.125
-656.901	-59.824	0.135	0.058
-655.886	-200.000	0.014	-0.395
-654.872	30.642	-0.050	-0.043
-653.857	-104.604	0.066	0.015
-652.843	-18.250	-0.334	-0.210
-651.828	800.000	0.037	-0.150
-650.814	-35.639	0.163	-0.089
-649.799	-100.365	0.493	0.123
-648.784	252.761	0.038	0.064
-647.770	800.000	0.069	0.274
-646.755	451.042	-0.084	0.187
-645.741	47.896	0.189	-0.177
-644.726	800.000	-0.037	-0.128
-643.711	-200.000	-0.004	0.048
-642.697	-165.870	0.102	-0.004
-641.682	27.996	0.109	0.092
-640.668	35.162	-0.226	-0.199
-639.653	84.244	0.350	-0.384
-638.638	-200.000	-0.034	-0.318
-637.624	-94.917	0.244	-0.066
-636.609	34.980	0.277	-0.243
-635.595	60.381	-0.009	-0.009
-634.580	-200.000	0.032	0.226
-633.565	-200.000	0.046	0.276
-632.551	-75.304	-0.143	-0.051
-631.536	-4.488	-0.152	0.106
-630.522	60.790	0.200	-0.200
-629.507	-200.000	0.010	0.174
-628.492	-200.000	0.025	-0.237
-627.478	772.934	0.075	-0.204
-626.463	-200.000	-0.007	-0.270
-625.449	-200.000	0.027	0.151
-624.434	140.963	0.095	-0.125
-623.419	71.375	0.152	-0.158
-622.405	-176.322	-0.309	0.008
-621.390	800.000	0.052	-0.186
-620.376	-200.000	-0.027	-0.177
-619.361	-39.364	-0.252	-0.133
-618.346	-173.291	-0.274	0.008
-617.332	-200.000	-0.024	-0.319
-616.317	-200.000	0.009	0.276
-615.303	459.537	0.068	-0.153
-614.288	545.315	-0.155	-0.371
-613.273	-200.000	-0.028	-0.366
-612.259	181.444	0.122	-0.180
-611.244	-200.000	-0.031	0.187
-610.230	81.900	0.076	0.083
-609.215	800.000	0.059	-0.241
-608.201	-98.603	0.131	0.034
-607.186	-56.505	-0.166	0.074
-606.171	343.160	0.065	-0.129
-605.157	52.683	-0.074	-0.071
-604.142	-80.153	0.374	0.126
-603.128	-77.016	0.246	-0.086
-602.113	42.275	-0.219	0.199
-601.098	333.508	0.050	0.096
-600.084	-142.038	-0.329	0.033
-599.069	-200.000	-0.010	-0.278
-598.055	179.675	-0.146	0.214
-597.040	151.441	0.123	0.168
-596.025	-200.000	-0.009	0.099
-595.011	-37.752	-0.358	0.191
-593.996	6.042	0.155	-0.115
-592.982	-121.744	0.153	-0.025
-591.967	302.189	0.072	0.133
-590.952	-7.930	-0.048	-0.033
-589.938	-129.451	0.151	-0.021
-588.923	-178.071	0.165	0.004
-587.909	117.278	-0.373	-0.460
-586.894	800.000	-0.039	-0.117
-585.879	-200.000	-0.002	0.171
-584.865	-200.000	0.007	0.034
-583.850	800.000	0.069	0.220
-582.836	570.471	0.054	0.133
-581.821	-53.433	-0.217	0.100
-580.806	199.902	0.294	-0.452
-579.792	-136.093	-0.165	0.019
-578.777	-71.468	-0.166	0.062
-577.763	391.677	-0.049	-0.101
-576.748	-2.219	-0.096	-0.068
-575.733	-69.074	-0.248	0.096
-574.719	-86.976	0.067	-0.021
-573.704	355.211	-0.195	-0.390
-572.690	88.144	-0.095	0.105
-571.675	667.573	0.157	-0.408
-570.661	-22.225	0.245	-0.149
-569.646	-200.000	0.003	0.161
-568.631	538.410	0.083	-0.199
-567.617	93.094	0.299	-0.339
-566.602	160.399	-0.120	0.167
-565.588	138.090	0.138	0.182
-564.573	754.700	0.017	0.047
-563.558	-200.000	-0.011	0.145
-562.544	-106.923	-0.138	-0.031
-561.529	-93.554	0.077	-0.021
-560.515	-200.000	-0.000	-0.219
-559.500	-167.580	-0.202	0.008
-558.485	-120.306	-0.223	-0.038
-557.471	-200.000	-0.011	0.059
-556.456	42.814	0.154	-0.141
-555.442	4.088	0.100	-0.073
-554.427	-112.532	-0.218	-0.044
-553.412	223.173	-0.193	-0.312
-552.398	-200.000	-0.001	-0.052
-551.383	18.585	0.035	0.028
-550.369	-152.324	0.065	0.005
-549.354	-36.472	0.345	-0.186
-548.339	55.428	-0.078	-0.076
-547.325	800.000	0.080	0.253
-546.310	138.823	0.082	0.107
-545.296	190.623	-0.197	0.297
-544.281	-24.840	-0.017	-0.010
-543.266	-127.827	0.090	-0.013
-542.252	49.950	0.034	0.032
-541.237	-200.000	0.041	-0.239
-540.223	181.766	-0.094	-0.139
-539.208	103.859	0.041	-0.048
-538.193	-50.380	-0.234	-0.111
-537.179	-194.032	-0.297	-0.002
-536.164	-200.000	0.028	-0.199
-535.150	-20.798	-0.169	0.104
-534.135	-121.510	0.339	-0.056
-533.121	632.355	0.106	-0.269
-532.106	110.812	-0.067	0.081
-531.091	95.980	-0.174	0.199
-530.077	-200.000	0.014	-0.212
-529.062	405.441	0.062	-0.131
-528.048	-118.783	0.263	0.046
-527.033	-44.963	-0.134	-0.067
-526.018	-1.559	0.275	0.194
-525.004	-24.675	-0.068	0.041
-523.989	115.340	0.317	-0.387
-522.975	-68.142	-0.086	0.034
-521.960	-153.275	-0.205	-0.014
-520.945	-31.084	-0.086	-0.049
-519.931	-200.000	0.002	0.168
-518.916	-115.163	0.186	0.035
-517.902	505.999	0.107	-0.249
-516.887	-14.679	-0.100	-0.064
-515.872	27.056	-0.182	0.153
-514.858	-65.370	0.160	-0.064
-513.843	-96.879	0.338	0.089
-512.829	1.970	-0.134	-0.097
-511.814	44.300	-0.031	-0.029
-510.799	-200.000	0.057	-0.338
-509.785	-200.000	0.029	0.133
-508.770	800.000	0.044	-0.147
-507.756	-150.537	-0.197	-0.015
-506.741	26.991	0.254	0.213
-505.726	-157.092	0.135	-0.008
-504.712	-162.987	0.133	0.006
-503.697	-200.000	0.040	-0.238
-502.683	-109.344	-0.354	-0.075
-501.668	211.606	-0.073	0.115
-500.653	649.932	-0.095	0.243
-499.639	-20.601	0.288	0.177
-498.624	-119.294	0.257	0.045
-497.610	-139.800	0.254	-0.027
-496.595	-200.000	0.004	-0.278
-495.581	654.143	-0.009	0.024
-494.566	-200.000	-0.035	0.180
-493.551	182.704	0.149	-0.219
-492.537	800.000	0.061	0.258
-491.522	21.688	0.133	0.109
-490.508	-200.000	-0.031	-0.198
-489.493	102.019	-0.145	-0.169
-488.478	73.439	0.073	0.077
-487.464	47.884	0.104	-0.097
-486.449	-94.288	0.166	-0.045
-485.435	-200.000	0.025	-0.156
-484.420	-1.931	0.080	-0.056
-483.405	81.696	-0.217	-0.235
-482.391	-200.000	-0.025	0.171
-481.376	800.000	-0.122	-0.370
-480.362	-132.107	0.248	-0.032
-479.347	93.661	-0.084	-0.096
-478.332	-5.240	-0.336	0.230
-477.318	-96.651	0.261	0.069
-476.303	-94.562	-0.042	0.011
-475.289	-49.240	0.262	-0.125
-474.274	247.296	-0.097	-0.164
-473.259	-200.000	-0.016	0.328
-472.245	-138.624	-0.185	-0.020
-471.230	668.099	-0.080	-0.207
-470.216	-171.296	-0.179	0.006
-469.201	-165.368	-0.354	-0.016
-468.186	-122.109	0.185	0.030
-467.172	414.440	-0.084	0.178
-466.157	71.414	0.196	0.203
-465.143	-105.177	-0.057	-0.013
-464.128	-21.778	-0.319	-0.194
-463.113	155.217	-0.081	-0.111
-462.099	105.510	-0.252	0.298
-461.084	-200.000	0.032	0.241
-460.070	367.472	-0.096	0.194
-459.055	800.000	0.032	-0.117
-458.040	-154.968	0.137	0.009
-457.026	-41.970	-0.015	0.007
-456.011	126.388	0.074	-0.093
-454.997	-22.253	-0.078	-0.047
-453.982	16.641	-0.187	-0.147
-452.968	-81.113	-0.194	0.064
-451.953	-136.201	-0.387	0.045
-450.938	-98.748	-0.277	0.070
-449.924	503.258	0.058	-0.133
-448.909	439.917	-0.142	0.310
-447.895	-118.432	0.395	0.070
-446.880	18.001	-0.134	0.107
-445.865	-160.818	0.382	-0.020
-444.851	-17.565	-0.143	-0.089
-443.836	-167.415	-0.150	-0.006
-442.822	63.179	-0.291	0.290
-441.807	-29.629	0.069	-0.039
-440.792	-52.927	0.095	-0.043
-439.778	-200.000	0.031	0.246
-438.763	53.172	0.240	0.229
-437.749	628.039	0.055	-0.139
-436.734	403.435	-0.066	-0.139
-435.719	-47.314	0.222	-0.108
-434.705	-138.974	-0.216	0.023
-433.690	-27.007	0.163	0.095
-432.676	-112.781	-0.261	-0.052
-431.661	-27.838	-0.267	0.154
-430.646	-200.000	0.021	-0.196
-429.632	-200.000	-0.004	-0.073
-428.617	-140.140	0.210	0.022
-427.603	100.652	-0.318	-0.368
-426.588	-79.311	-0.262	-0.089
-425.573	-200.000	0.085	-0.439
-424.559	800.000	0.060	-0.180
-423.544	-99.005	0.033	-0.008
-422.530	800.000	-0.129	0.484
-421.515	-24.915	0.042	0.025
-420.500	-157.779	-0.142	0.008
-419.486	-67.230	-0.229	0.090
-418.471	-11.838	-0.080	0.052
-417.457	544.394	0.104	0.249
-416.442	16.962	0.149	-0.118
-415.428	-168.148	-0.328	-0.013
-414.413	-70.646	-0.191	0.072
-413.398	-200.000	0.031	0.155
-412.384	-200.000	0.109	0.477
-411.369	91.284	0.293	-0.328
-410.355	-200.000	0.027	-0.134
-409.340	621.020	-0.120	0.300
-408.325	-89.034	0.229	-0.067
-407.311	-44.709	-0.139	0.069
-406.296	93.301	-0.186	0.210
-405.282	-13.972	0.284	-0.183
-404.267	217.577	0.070	-0.111
-403.252	800.000	-0.112	-0.402
-402.238	-79.145	-0.387	0.131
-401.223	697.102	-0.166	-0.435
-400.209	-200.000	0.037	-0.352
-399.194	-200.000	-0.003	0.259
-398.179	723.206	-0.051	0.134
-397.165	54.678	0.198	0.190
-396.150	0.681	0.317	0.226
-395.136	476.592	0.040	-0.089
-394.121	88.751	-0.317	0.351
-393.106	363.335	-0.057	0.114
-392.092	-12.795	-0.136	-0.088
-391.077	-169.297	0.217	-0.008
-390.063	-187.969	0.133	-0.002
-389.048	-200.000	0.002	-0.187
-388.033	800.000	0.035	-0.106
-387.019	-27.845	-0.307	0.177
-386.004	190.266	0.047	-0.071
-384.990	-3.163	0.140	-0.097
-383.975	11.387	0.196	0.149
-382.960	-98.293	-0.032	0.008
-381.946	-200.000	0.051	0.506
-380.931	-128.949	0.130	-0.018
-379.917	74.156	-0.236	-0.246
-378.902	-200.000	-0.023	0.125
-377.888	-129.120	-0.262	0.036
-376.873	-131.559	-0.285	0.037
-375.858	38.688	-0.443	0.393
-374.844	534.534	-0.120	-0.283
-373.829	-86.761	0.213	0.065
-372.815	-200.000	0.005	0.058
-371.800	-200.000	0.027	0.251
-370.785	114.713	-0.032	-0.039
-369.771	-124.293	0.038	0.006
-368.756	-22.528	-0.102	0.061
-367.742	227.151	0.087	0.141
-366.727	800.000	-0.030	-0.088
-365.712	800.000	0.157	-0.449
-364.698	-66.013	-0.211	-0.084
-363.683	84.886	0.258	0.281
-362.669	-78.477	0.267	0.091
-361.654	-200.000	-0.090	-0.529
-360.639	110.550	0.268	-0.321
-359.625	0.845	-0.235	-0.167
-358.610	-126.079	0.276	0.041
-357.596	-97.680	-0.212	0.055
-356.581	65.418	0.199	0.200
-355.566	666.120	0.141	-0.363
-354.552	-130.771	0.133	-0.018
-353.537	114.595	0.125	-0.151
-352.523	96.509	-0.236	0.268
-351.508	-34.532	-0.200	0.109
-350.493	263.072	-0.153	0.264
-349.479	-119.152	0.157	-0.027
-348.464	-52.107	0.055	-0.025
-347.450	204.943	-0.056	0.086
-346.435	-200.000	0.052	0.361
-345.420	80.826	0.017	-0.018
-344.406	159.580	0.047	0.065
-343.391	-50.286	0.047	0.022
-342.377	-106.986	0.173	-0.038
-341.362	44.871	-0.352	0.322
-340.348	114.209	0.238	-0.288
-339.333	120.502	0.211	0.260
-338.318	-200.000	-0.068	0.423
-337.304	50.892	-0.124	-0.117
-336.289	-58.355	-0.113	0.049
-335.275	52.311	0.179	0.170
-334.260	-200.000	0.334	-0.001
-333.245	256.803	0.078	0.132
-332.231	37.893	-0.103	0.091
-331.216	114.967	-0.281	-0.341
-330.202	-191.680	-0.038	-0.000
-329.187	237.029	-0.146	0.241
-328.172	704.523	-0.059	0.155
-327.158	203.430	-0.070	-0.107
-326.143	-34.249	-0.255	-0.139
-325.129	-112.212	-0.450	0.090
-324.114	74.285	-0.039	-0.041
-323.099	800.000	-0.044	0.151
-322.085	-200.000	0.048	-0.314
-321.070	64.250	-0.259	-0.259
-320.056	333.346	0.143	-0.274
-319.041	-185.006	0.157	0.002
-318.026	-100.564	-0.192	0.047
-317.012	-148.519	0.175	0.014
-315.997	2.351	-0.128	0.092
-314.983	366.667	0.009	-0.018
-313.968	55.327	0.138	0.132
-312.953	-200.000	-0.020	0.159
-311.939	-86.032	-0.246	0.075
-310.924	-200.000	0.019	0.291
-309.910	526.174	-0.056	0.132
-308.895	4.598	0.218	-0.159
-307.880	-162.715	0.105	-0.005
-306.866	-200.000	0.005	-0.148
-305.851	-200.000	0.034	-0.211
-304.837	800.000	0.040	0.135
-303.822	12.395	0.119	0.091
-302.807	-99.534	0.468	-0.117
-301.793	-110.927	-0.390	-0.080
-300.778	585.554	0.079	0.193
-299.764	-103.284	-0.152	0.036
-298.749	58.222	-0.156	-0.151
-297.735	-152.458	-0.155	-0.011
-296.720	211.900	0.112	-0.175
-295.705	-200.000	-0.063	-0.358
-294.691	293.220	0.124	-0.225
-293.676	-82.078	-0.258	-0.083
-292.662	800.000	-0.084	0.246
-291.647	-59.764	0.368	0.156
-290.632	358.176	0.179	0.354
-289.618	-68.061	-0.126	-0.049
-288.603	-79.504	-0.176	0.059
-287.589	-130.530	0.700	0.094
-286.574	411.965	-0.127	0.267
-285.559	156.257	-0.069	-0.095
-284.545	758.972	-0.048	0.129
-283.530	-200.000	0.007	-0.099
-282.516	800.000	-0.058	0.241
-281.501	-99.188	-0.368	0.092
-280.486	-95.410	0.114	0.030
-279.472	800.000	-0.088	0.332
-278.457	-19.180	0.427	-0.263
-277.443	-65.537	-0.256	0.102
-276.428	-77.428	-0.258	-0.089
-275.413	0.624	0.234	0.166
-274.399	-84.934	0.277	-0.086
-273.384	-116.718	0.151	-0.028
-272.370	-128.146	0.122	0.017
-271.355	-129.288	0.012	-0.002
-270.340	-200.000	0.003	0.132
-269.326	-20.350	0.096	0.058
-268.311	-102.448	0.130	0.031
-267.297	-142.171	0.126	-0.012
-266.282	30.768	-0.269	-0.228
-265.267	800.000	-0.078	0.261
-264.253	122.242	-0.146	0.181
-263.238	-200.000	0.013	-0.247
-262.224	-50.216	-0.155	0.073
-261.209	134.587	0.185	0.238
-260.195	-96.179	0.226	-0.059
-259.180	-200.000	-0.027	-0.136
-258.165	800.000	-0.106	-0.339
-257.151	277.130	0.117	-0.206
-256.136	105.876	0.087	0.102
-255.122	-124.379	0.371	-0.057
-254.107	703.612	0.054	-0.141
-253.092	708.886	0.076	0.198
-252.078	-156.832	0.357	-0.022
-251.063	-200.000	-0.062	-0.342
-250.049	-200.000	-0.017	-0.108
-249.034	142.745	-0.069	-0.091
-248.019	-96.353	0.093	0.024
-247.005	-34.844	0.257	0.139
-245.990	-200.000	-0.015	0.342
-244.976	325.803	0.155	0.294
-243.961	136.279	-0.159	0.205
-242.946	279.936	-0.120	0.211
-241.932	-200.000	-0.031	0.382
-240.917	692.892	-0.095	0.248
-239.903	-167.507	-0.081	0.003
-238.888	800.000	0.074	-0.217
-237.873	800.000	0.068	0.201
-236.859	-67.401	-0.115	0.045
-235.844	-200.000	0.021	-0.267
-234.830	800.000	0.046	0.142
-233.815	288.729	-0.109	0.195
-232.800	623.637	0.067	0.167
-231.786	-110.679	0.083	-0.017
-230.771	694.675	0.069	0.180
-229.757	58.578	-0.252	0.245
-228.742	-200.000	0.078	0.354
-227.727	800.000	-0.038	0.143
-226.713	60.950	-0.147	-0.145
-225.698	-200.000	0.007	0.064
-224.684	133.748	0.142	0.182
-223.669	-136.073	-0.196	-0.023
-222.655	-200.000	-0.010	-0.308
-221.640	-84.689	-0.212	0.066
-220.625	-128.733	-0.295	-0.041
-219.611	479.724	0.031	-0.071
-218.596	-200.000	0.001	-0.062
-217.582	800.000	0.086	0.319
-216.567	-200.000	-0.003	-0.120
-215.552	-100.710	0.449	-0.109
-214.538	-2.946	0.153	0.105
-213.523	800.000	-0.092	-0.299
-212.509	-3.717	-0.424	0.291
-211.494	-34.253	-0.030	-0.016
-210.479	-88.832	-0.186	0.055
-209.465	-96.667	-0.200	0.052
-208.450	-163.094	0.325	-0.016
-207.436	93.217	0.214	0.239
-206.421	-54.331	-0.247	-0.111
-205.406	-98.151	0.071	-0.018
-204.392	65.354	-0.190	-0.190
-203.377	1.326	-0.268	0.190
-202.363	137.675	0.137	0.177
-201.348	-47.728	-0.031	0.015
-200.333	212.799	0.056	-0.088
-199.319	-70.710	-0.148	0.055
-198.304	800.000	0.049	-0.143
-197.290	-200.000	0.103	-0.450
-196.275	-200.000	0.023	0.390
-195.260	-59.052	0.184	0.079
-194.246	-200.000	0.010	0.051
-193.231	-38.803	-0.119	-0.062
-192.217	152.244	-0.108	0.146
-191.202	-93.978	-0.454	-0.123
-190.187	-45.462	-0.169	-0.083
-189.173	-200.000	-0.013	0.127
-188.158	101.358	0.082	-0.094
-187.144	178.995	-0.097	-0.140
-186.129	-21.954	0.255	-0.153
-185.114	-31.980	0.473	0.261
-184.100	-90.836	0.125	0.036
-183.085	102.988	0.191	0.221
-182.071	-200.000	0.056	0.280
-181.056	-6.370	0.254	0.171
-180.042	463.372	0.172	0.378
-179.027	-52.263	0.128	-0.058
-178.012	-28.506	-0.041	0.023
-176.998	2.375	0.208	0.148
-175.983	800.000	0.049	-0.139
-174.969	-23.216	-0.197	-0.117
-173.954	139.353	-0.127	-0.165
-172.939	-59.371	-0.127	0.054
-171.925	94.883	-0.163	0.183
-170.910	153.237	-0.217	-0.293
-169.896	-104.045	0.291	0.067
-168.881	-200.000	-0.000	-0.231
-167.866	685.115	0.109	0.280
-166.852	-79.760	-0.322	0.107
-165.837	-82.252	0.267	-0.086
-164.823	-34.234	0.343	0.186
-163.808	-54.228	-0.247	-0.111
-162.793	3.575	-0.354	-0.255
-161.779	-107.374	0.258	0.056
-160.764	112.510	0.120	-0.143
-159.750	-100.396	0.244	-0.060
-158.735	-75.220	-0.143	-0.050
-157.720	280.584	0.045	-0.080
-156.706	161.599	0.161	-0.222
-155.691	800.000	-0.029	-0.082
-154.677	-128.106	-0.447	-0.063
-153.662	-200.000	-0.025	-0.149
-152.647	-10.732	0.173	-0.113
-151.633	347.524	-0.182	0.354
-150.618	581.484	-0.025	-0.061
-149.604	250.072	-0.180	-0.302
-148.589	-59.491	-0.249	0.105
-147.574	-12.206	0.199	-0.128
-146.560	-200.000	0.014	0.259
-145.545	217.695	0.133	0.209
-144.531	50.699	0.059	-0.055
-143.516	-37.234	0.067	-0.035
-142.502	-200.000	0.034	-0.159
-141.487	-17.122	-0.135	-0.084
-140.472	-48.811	-0.218	-0.103
-139.458	-76.102	0.158	-0.055
-138.443	-129.232	0.091	0.013
-137.429	119.650	-0.073	0.089
-136.414	-52.053	0.046	0.021
-135.399	-140.917	-0.131	0.013
-134.385	-200.000	0.058	-0.258
-133.370	219.632	-0.102	0.161
-132.356	167.272	0.101	0.141
-131.341	93.291	-0.048	0.054
-130.326	-200.000	0.034	0.456
-129.312	-83.543	0.306	0.097
-128.297	-200.000	0.025	-0.252
-127.283	-138.450	0.123	-0.013
-126.268	-102.063	-0.255	0.061
-125.253	-80.201	-0.200	-0.066
-124.239	585.978	0.075	0.182
-123.224	-77.028	0.336	0.116
-122.210	57.240	-0.074	-0.071
-121.195	74.169	0.077	0.080
