DTS Sentinel unit serial number:	SN413079Multiplexer serial number:	ORYXHardware model number:	OX4-SRSoftware version number:	ORYX F/W v4.00 Oryx Data Collector v3.7.2.0data status	okinstallation	princeton_trtdifferential loss correction	single-endedforward channel	channel 2reverse channel	N/Adate	2019/09/12time	08:05:10forward acquisition time	60.00reverse acquisition time	0.00gamma	496.2192k internal	0.2319k external	0.2319temperature offset calibration	1.0065default loss term (dB/km)	0.3790temperature slope calibration	1.0000multiplexer offset coefficient	1.0000multiplexer slope coefficient	1.0000fibre end	0.00T internal ref (°C)	33.12T ext. ref 1 (°C)	1.67T ext. ref 2 (°C)	29.64length (m)	temperature (°C)	Stokes	anti-Stokes-747.200	800.000	0.057	0.190
-746.185	-168.064	-0.227	0.009
-745.171	123.868	-0.039	-0.049
-744.156	35.267	-0.150	0.133
-743.142	206.572	-0.258	0.406
-742.127	-14.408	0.145	0.094
-741.112	-107.595	-0.212	-0.047
-740.098	-200.000	-0.009	0.220
-739.083	-15.651	-0.231	-0.149
-738.069	60.618	0.084	0.084
-737.054	301.221	0.075	0.141
-736.039	57.788	-0.139	-0.137
-735.025	-182.689	0.299	-0.005
-734.010	49.027	0.037	-0.035
-732.996	-200.000	-0.063	-0.333
-731.981	-200.000	0.034	0.270
-730.966	218.297	-0.061	0.098
-729.952	-56.689	-0.075	0.034
-728.937	-153.369	-0.394	0.028
-727.923	15.439	0.112	0.089
-726.908	-120.628	0.211	0.036
-725.894	800.000	-0.027	0.120
-724.879	-200.000	-0.015	-0.093
-723.864	-46.433	0.058	-0.029
-722.850	73.693	0.084	0.089
-721.835	800.000	-0.007	0.028
-720.821	-37.662	0.223	-0.120
-719.806	500.377	0.114	0.265
-718.791	-126.016	-0.485	-0.074
-717.777	339.611	-0.135	0.265
-716.762	-162.145	-0.436	0.022
-715.748	-200.000	-0.017	0.330
-714.733	800.000	0.066	-0.220
-713.718	-200.000	0.032	-0.281
-712.704	-100.472	0.239	-0.060
-711.689	42.484	-0.381	-0.350
-710.675	-57.583	0.111	-0.049
-709.660	-102.944	0.446	-0.107
-708.645	-200.000	-0.059	0.285
-707.631	-105.582	-0.245	0.056
-706.616	800.000	0.019	0.054
-705.602	-6.864	-0.218	-0.149
-704.587	-9.442	-0.074	0.050
-703.572	-120.419	-0.089	-0.015
-702.558	297.482	0.054	-0.101
-701.543	652.266	-0.082	0.213
-700.529	800.000	-0.064	-0.184
-699.514	-13.581	0.264	0.173
-698.499	-123.913	-0.583	0.093
-697.485	324.027	0.032	-0.062
-696.470	-148.090	0.046	0.004
-695.456	-67.565	0.220	0.087
-694.441	51.871	0.094	0.090
-693.426	-97.688	-0.268	0.070
-692.412	164.387	-0.190	0.270
-691.397	-145.758	0.378	0.034
-690.383	-106.067	0.220	0.050
-689.368	119.626	0.145	0.182
-688.354	800.000	0.039	-0.161
-687.339	-200.000	0.081	-0.477
-686.324	53.942	-0.071	-0.069
-685.310	-3.492	0.087	0.061
-684.295	471.919	-0.084	-0.191
-683.281	20.834	0.195	-0.159
-682.266	-74.009	-0.015	-0.005
-681.251	-159.689	0.260	-0.014
-680.237	-86.942	-0.105	-0.032
-679.222	-59.523	0.286	-0.124
-678.208	800.000	-0.119	0.352
-677.193	12.972	-0.152	-0.119
-676.178	44.468	-0.244	-0.226
-675.164	-96.447	0.273	0.073
-674.149	120.157	-0.330	-0.413
-673.135	-86.420	-0.365	-0.113
-672.120	-39.667	-0.304	-0.160
-671.105	-150.483	0.220	-0.017
-670.091	-145.586	0.263	0.024
-669.076	-107.824	-0.245	-0.054
-668.062	-200.000	0.063	-0.308
-667.047	72.153	-0.114	0.120
-666.032	-200.000	-0.048	-0.334
-665.018	-43.841	0.063	0.032
-664.003	41.234	0.234	-0.213
-662.989	184.126	0.101	0.151
-661.974	98.697	0.065	-0.075
-660.959	-200.000	-0.049	-0.445
-659.945	800.000	0.090	0.291
-658.930	800.000	-0.065	0.261
-657.916	34.320	0.147	-0.129
-656.901	-135.087	-0.237	0.029
-655.886	-200.000	-0.020	0.406
-654.872	313.310	-0.188	0.357
-653.857	-132.735	-0.168	0.022
-652.843	88.766	0.081	0.091
-651.828	451.944	-0.165	-0.367
-650.814	122.929	-0.180	0.227
-649.799	-64.745	-0.388	-0.159
-648.784	381.416	-0.183	-0.379
-647.770	-200.000	-0.001	0.190
-646.755	-24.069	-0.161	-0.097
-645.741	-173.141	0.125	-0.004
-644.726	-134.469	-0.340	0.042
-643.711	140.935	-0.024	0.032
-642.697	174.823	-0.056	0.082
-641.682	-16.793	0.176	-0.112
-640.668	150.758	0.207	-0.283
-639.653	130.504	0.153	0.197
-638.638	-50.437	0.078	-0.037
-637.624	800.000	-0.071	-0.210
-636.609	531.152	-0.062	-0.148
-635.595	800.000	-0.046	0.130
-634.580	-38.170	0.168	-0.090
-633.565	353.032	-0.203	0.405
-632.551	-200.000	-0.011	0.142
-631.536	-80.581	-0.225	0.076
-630.522	205.869	-0.144	-0.225
-629.507	187.519	0.008	-0.011
-628.492	-76.720	-0.145	-0.051
-627.478	-6.834	-0.312	-0.214
-626.463	14.551	0.162	0.128
-625.449	-169.455	-0.217	0.008
-624.434	-141.344	0.114	0.012
-623.419	-200.000	-0.075	0.381
-622.405	426.868	-0.165	0.359
-621.390	-93.066	0.238	0.067
-620.376	-123.838	0.224	0.036
-619.361	739.948	-0.086	-0.233
-618.346	271.197	0.130	0.230
-617.332	92.408	-0.262	-0.298
-616.317	-37.693	0.170	0.091
-615.303	-200.000	-0.020	-0.178
-614.288	-107.437	0.085	0.019
-613.273	305.313	-0.057	0.106
-612.259	800.000	-0.065	0.217
-611.244	157.127	-0.073	-0.102
-610.230	-200.000	0.007	0.333
-609.215	90.986	0.147	0.166
-608.201	212.862	-0.125	-0.198
-607.186	-145.445	-0.300	0.027
-606.171	31.726	0.133	-0.115
-605.157	-48.338	-0.331	-0.160
-604.142	-102.599	0.424	-0.102
-603.128	274.297	-0.184	-0.328
-602.113	-4.846	-0.226	-0.157
-601.098	-76.710	-0.268	-0.094
-600.084	-200.000	-0.011	0.168
-599.069	-138.809	0.345	0.038
-598.055	800.000	0.110	-0.340
-597.040	220.362	-0.094	-0.151
-596.025	-100.956	-0.247	0.061
-595.011	528.870	0.071	-0.170
-593.996	-60.652	0.204	-0.087
-592.982	-200.000	-0.037	0.253
-591.967	-185.898	0.281	0.004
-590.952	-79.788	-0.189	0.064
-589.938	0.462	0.219	-0.158
-588.923	128.277	0.111	-0.142
-587.909	-120.805	-0.307	0.052
-586.894	33.802	-0.114	-0.100
-585.879	645.524	0.054	-0.138
-584.865	-31.595	-0.263	0.149
-583.850	43.116	-0.117	0.108
-582.836	-200.000	-0.028	-0.200
-581.821	-200.000	-0.015	-0.133
-580.806	-118.535	0.377	0.067
-579.792	0.529	-0.219	-0.157
-578.777	-200.000	0.051	-0.590
-577.763	-28.970	0.041	-0.023
-576.748	219.052	0.054	0.087
-575.733	-61.089	0.273	-0.116
-574.719	100.684	-0.179	-0.209
-573.704	-79.632	0.042	-0.014
-572.690	163.667	-0.096	0.135
-571.675	106.443	-0.185	-0.220
-570.661	-11.161	0.106	0.070
-569.646	307.888	0.157	-0.295
-568.631	53.900	0.063	0.060
-567.617	-77.198	-0.109	0.038
-566.602	-74.840	0.434	0.156
-565.588	91.866	-0.129	0.146
-564.573	515.032	-0.153	-0.359
-563.558	71.193	0.175	0.182
-562.544	-9.784	-0.172	-0.115
-561.529	76.229	-0.160	0.171
-560.515	490.482	-0.059	-0.136
-559.500	-1.432	0.128	0.091
-558.485	-153.365	0.359	-0.025
-557.471	-106.135	0.109	0.025
-556.456	-1.212	0.186	0.132
-555.442	-35.059	-0.199	0.109
-554.427	232.502	0.041	-0.068
-553.412	461.131	0.073	-0.163
-552.398	495.047	-0.185	0.426
-551.383	149.344	0.215	0.292
-550.369	587.343	-0.067	0.165
-549.354	35.324	0.202	0.178
-548.339	-200.000	0.004	-0.024
-547.325	379.092	-0.062	-0.128
-546.310	-199.700	-0.174	-0.001
-545.296	-96.607	-0.099	-0.026
-544.281	-138.458	0.396	-0.044
-543.266	-89.726	-0.187	0.055
-542.252	154.893	0.093	0.128
-541.237	125.129	-0.119	-0.150
-540.223	114.924	-0.158	0.193
-539.208	91.649	-0.225	0.254
-538.193	217.494	-0.009	-0.014
-537.179	-200.000	-0.010	0.209
-536.164	-110.510	0.135	-0.028
-535.150	34.562	0.243	-0.213
-534.135	149.475	-0.049	-0.067
-533.121	183.382	-0.093	-0.138
-532.106	366.328	-0.207	-0.419
-531.091	-93.630	-0.110	0.031
-530.077	-200.000	0.037	0.299
-529.062	590.310	0.101	0.249
-528.048	24.761	-0.256	0.213
-527.033	601.749	-0.130	-0.325
-526.018	299.020	0.099	0.184
-525.004	190.632	-0.114	0.172
-523.989	442.395	0.044	0.098
-522.975	800.000	0.175	0.497
-521.960	177.646	0.125	-0.182
-520.945	392.464	-0.129	0.269
-519.931	-57.055	-0.090	0.040
-518.916	471.152	-0.016	0.036
-517.902	83.417	-0.144	0.157
-516.887	105.214	-0.168	-0.199
-515.872	-200.000	-0.031	0.448
-514.858	-96.163	0.107	-0.028
-513.843	-200.000	0.000	0.258
-512.829	78.140	-0.097	0.104
-511.814	-67.631	0.066	0.026
-510.799	-130.689	-0.266	0.036
-509.785	-156.619	-0.105	-0.007
-508.770	-84.277	0.159	0.050
-507.756	-28.522	0.485	-0.280
-506.741	-187.490	0.251	-0.003
-505.726	63.818	-0.033	0.034
-504.712	-200.000	0.053	-0.318
-503.697	-200.000	0.036	0.193
-502.683	87.290	-0.105	-0.117
-501.668	-120.106	0.109	-0.019
-500.653	20.886	0.097	-0.079
-499.639	-200.000	0.007	0.479
-498.624	-104.964	-0.378	-0.087
-497.610	-21.464	0.176	-0.107
-496.595	-200.000	0.040	0.333
-495.581	245.896	-0.069	0.117
-494.566	114.920	-0.081	-0.099
-493.551	-42.203	0.363	-0.186
-492.537	-60.431	0.279	-0.119
-491.522	422.521	0.067	0.144
-490.508	-12.957	0.249	-0.162
-489.493	20.173	0.028	-0.022
-488.478	-200.000	-0.034	0.262
-487.464	-23.275	-0.217	0.131
-486.449	-87.535	-0.306	-0.093
-485.435	-2.543	-0.238	-0.167
-484.420	800.000	0.054	0.221
-483.405	70.740	0.214	-0.222
-482.391	-134.033	-0.176	-0.022
-481.376	25.474	0.189	-0.158
-480.362	9.266	-0.077	-0.058
-479.347	800.000	-0.054	0.168
-478.332	467.046	-0.042	-0.094
-477.318	-162.049	-0.262	-0.013
-476.303	-50.425	0.435	-0.206
-475.289	-9.135	-0.191	0.128
-474.274	131.781	0.174	-0.225
-473.259	-57.704	0.171	-0.075
-472.245	-200.000	-0.051	0.336
-471.230	-200.000	0.002	0.027
-470.216	276.281	0.018	-0.032
-469.201	-95.016	0.306	0.083
-468.186	-70.194	0.155	0.059
-467.172	-39.985	0.255	-0.133
-466.157	-9.781	0.055	0.036
-465.143	-32.881	-0.369	-0.205
-464.128	295.341	0.144	-0.264
-463.113	27.984	-0.095	-0.080
-462.099	-80.759	0.065	-0.022
-461.084	-28.167	0.083	-0.048
-460.070	-66.367	0.291	-0.116
-459.055	800.000	0.044	-0.161
-458.040	374.053	0.133	-0.270
-457.026	-166.333	0.363	0.015
-456.011	120.073	0.143	0.177
-454.997	-128.819	-0.085	-0.012
-453.982	800.000	0.065	-0.182
-452.968	-115.348	0.089	-0.017
-451.953	-154.781	-0.153	0.010
-450.938	321.104	-0.118	0.225
-449.924	-200.000	0.007	0.166
-448.909	-200.000	0.039	0.182
-447.895	-33.107	0.031	0.017
-446.880	260.100	0.089	0.154
-445.865	-200.000	0.037	-0.349
-444.851	444.765	-0.031	0.067
-443.836	-120.042	0.182	0.031
-442.822	-200.000	0.058	-0.264
-441.807	-55.954	0.090	-0.040
-440.792	-200.000	-0.005	0.156
-439.778	-162.712	0.211	-0.010
-438.763	-13.903	0.378	-0.244
-437.749	156.433	-0.130	0.180
-436.734	44.040	-0.114	0.104
-435.719	179.367	0.197	0.287
-434.705	213.652	0.130	-0.205
-433.690	-71.627	-0.225	0.084
-432.676	-22.761	0.329	0.198
-431.661	255.502	-0.149	0.255
-430.646	1.269	-0.134	0.096
-429.632	-150.409	-0.121	-0.009
-428.617	51.709	-0.168	-0.160
-427.603	15.701	0.063	-0.049
-426.588	436.188	-0.036	-0.078
-425.573	83.515	0.100	0.109
-424.559	-5.054	-0.019	0.013
-423.544	-92.990	-0.081	0.023
-422.530	76.087	-0.173	-0.183
-421.515	-68.556	-0.134	-0.052
-420.500	543.475	0.113	-0.270
-419.486	800.000	0.060	-0.219
-418.471	-8.130	-0.233	0.157
-417.457	-101.050	-0.204	0.050
-416.442	800.000	0.042	-0.134
-415.428	372.366	-0.157	-0.318
-414.413	42.743	0.034	0.031
-413.398	32.997	-0.303	0.262
-412.384	425.212	0.013	0.027
-411.369	-18.736	0.148	-0.092
-410.355	-200.000	-0.035	-0.203
-409.340	-99.131	0.160	-0.040
-408.325	-35.044	-0.165	-0.090
-407.311	800.000	0.121	-0.415
-406.296	91.853	-0.121	0.136
-405.282	-200.000	0.041	-0.376
-404.267	-200.000	0.031	0.224
-403.252	-200.000	0.022	0.197
-402.238	340.912	-0.154	-0.300
-401.223	-79.787	-0.325	0.109
-400.209	-200.000	-0.041	0.368
-399.194	42.590	-0.229	0.208
-398.179	98.746	0.114	-0.131
-397.165	-186.343	0.213	-0.003
-396.150	800.000	-0.035	0.134
-395.136	329.870	0.028	0.054
-394.121	257.503	0.115	-0.197
-393.106	800.000	-0.078	0.249
-392.092	15.694	0.069	0.054
-391.077	-115.681	-0.309	-0.058
-390.063	114.989	-0.071	0.087
-389.048	-161.577	0.442	-0.023
-388.033	306.769	-0.033	-0.062
-387.019	-47.561	-0.302	-0.146
-386.004	-12.225	0.137	-0.089
-384.990	93.172	-0.124	-0.140
-383.975	220.899	0.201	0.321
-382.960	143.572	0.230	0.306
-381.946	-16.163	-0.136	0.086
-380.931	-103.844	0.421	0.098
-379.917	800.000	0.048	0.132
-378.902	-200.000	-0.068	-0.303
-377.888	-56.553	0.245	-0.108
-376.873	-200.000	-0.024	0.309
-375.858	-144.264	-0.227	0.021
-374.844	101.438	-0.012	0.013
-373.829	104.777	0.026	0.030
-372.815	-53.018	0.269	0.123
-371.800	-200.000	-0.133	0.001
-370.785	772.934	0.170	-0.463
-369.771	-27.858	-0.109	0.063
-368.756	-117.513	-0.111	0.020
-367.742	800.000	-0.078	-0.287
-366.727	30.904	-0.317	-0.271
-365.712	307.319	0.095	-0.176
-364.698	84.474	-0.210	-0.229
-363.683	-72.082	-0.282	-0.104
-362.669	-36.620	0.164	-0.088
-361.654	800.000	-0.073	-0.250
-360.639	585.153	-0.018	0.043
-359.625	-139.724	0.062	-0.007
-358.610	333.697	0.070	0.134
-357.596	481.947	0.263	0.595
-356.581	-188.470	0.127	-0.002
-355.566	80.578	0.199	-0.213
-354.552	-46.494	0.357	0.174
-353.537	42.910	0.372	-0.338
-352.523	-92.125	-0.102	0.029
-351.508	713.495	-0.104	-0.275
-350.493	21.139	0.171	-0.138
-349.479	402.017	-0.165	-0.345
-348.464	-71.691	0.296	0.110
-347.450	36.085	0.179	0.157
-346.435	-88.723	0.224	-0.066
-345.420	800.000	-0.019	-0.069
-344.406	-157.910	-0.196	-0.012
-343.391	67.013	-0.088	-0.089
-342.377	-130.967	-0.171	-0.023
-341.362	-119.460	-0.381	-0.066
-340.348	-200.000	-0.060	-0.376
-339.333	-200.000	-0.005	-0.148
-338.318	683.801	0.083	-0.216
-337.304	-95.737	0.283	-0.075
-336.289	223.569	0.145	0.233
-335.275	28.796	0.278	-0.234
-334.260	359.803	-0.067	-0.134
-333.245	-200.000	0.046	0.303
-332.231	-200.000	-0.230	-0.001
-331.216	-27.716	-0.114	-0.066
-330.202	62.253	-0.309	-0.307
-329.187	-167.964	-0.122	-0.005
-328.172	-200.000	0.030	-0.362
-327.158	-128.210	-0.328	-0.047
-326.143	109.623	0.119	0.142
-325.129	-34.929	0.156	0.085
-324.114	423.978	0.206	0.440
-323.099	-200.000	0.008	0.040
-322.085	266.430	-0.030	-0.052
-321.070	-7.100	0.087	-0.058
-320.056	-7.811	-0.208	0.140
-319.041	393.903	0.130	0.269
-318.026	619.184	-0.086	-0.214
-317.012	-176.132	-0.238	-0.006
-315.997	127.577	-0.066	-0.083
-314.983	147.636	-0.096	0.128
-313.968	-83.534	-0.088	0.028
-312.953	297.017	0.142	0.259
-311.939	-132.974	-0.192	0.024
-310.924	800.000	0.038	-0.130
-309.910	22.254	0.098	-0.079
-308.895	-122.955	-0.163	-0.026
-307.880	-200.000	0.020	0.280
-306.866	373.101	0.108	0.219
-305.851	167.238	-0.052	-0.074
-304.837	17.759	0.223	-0.176
-303.822	-74.929	0.295	-0.105
-302.807	-200.000	-0.018	0.198
-301.793	-59.302	0.363	0.155
-300.778	800.000	0.080	0.253
-299.764	-100.004	0.163	0.041
-298.749	141.333	-0.230	-0.302
-297.735	-162.992	0.309	0.015
-296.720	800.000	-0.079	0.310
-295.705	-134.307	-0.287	-0.035
-294.691	182.894	-0.120	0.175
-293.676	726.689	-0.054	-0.144
-292.662	468.460	-0.131	0.292
-291.647	-200.000	-0.076	0.343
-290.632	16.492	0.313	-0.246
-289.618	421.306	0.043	0.091
-288.603	-13.738	0.370	0.238
-287.589	77.195	-0.234	0.247
-286.574	591.929	-0.032	0.078
-285.559	1.877	-0.412	-0.295
-284.545	-85.417	0.168	-0.052
-283.530	-165.947	0.245	0.010
-282.516	-200.000	0.038	-0.235
-281.501	1.505	0.330	0.236
-280.486	-54.225	0.131	-0.059
-279.472	-173.935	0.419	-0.012
-278.457	573.900	0.085	0.206
-277.443	-103.354	-0.346	-0.081
-276.428	-200.000	-0.021	-0.175
-275.413	-14.240	0.038	-0.024
-274.399	255.548	0.202	-0.343
-273.384	111.777	-0.074	0.089
-272.370	-39.583	0.318	0.165
-271.355	800.000	0.020	-0.061
-270.340	232.341	0.091	0.148
-269.326	-200.000	-0.040	0.342
-268.311	101.051	-0.109	-0.125
-267.297	-88.648	0.122	0.036
-266.282	70.373	0.173	-0.178
-265.267	-33.547	-0.130	-0.071
-264.253	80.270	-0.258	0.275
-263.238	-21.820	-0.396	0.239
-262.224	-85.715	-0.132	-0.041
-261.209	-144.336	0.192	0.018
-260.195	680.192	-0.106	0.275
-259.180	-65.671	0.352	0.140
-258.165	464.186	0.122	0.271
-257.151	279.186	-0.008	-0.014
-256.136	224.105	-0.096	0.153
-255.122	43.402	-0.313	0.283
-254.107	-139.812	-0.369	-0.039
-253.092	103.969	-0.095	-0.111
-252.078	617.805	0.098	-0.244
-251.063	-200.000	0.003	-0.188
-250.049	364.108	0.135	-0.270
-249.034	-53.671	0.322	-0.146
-248.019	-14.718	-0.221	0.141
-247.005	471.773	0.059	-0.133
-245.990	-74.364	0.160	0.057
-244.976	800.000	0.106	-0.312
-243.961	363.608	0.051	-0.102
-242.946	-200.000	0.002	-0.055
-241.932	-73.139	-0.145	-0.053
-240.917	220.791	0.049	0.077
-239.903	91.723	-0.140	-0.156
-238.888	8.395	-0.322	0.240
-237.873	4.031	-0.152	-0.110
-236.859	-200.000	0.033	0.154
-235.844	66.220	-0.100	-0.100
-234.830	-67.952	-0.428	-0.165
-233.815	222.154	-0.091	0.145
-232.800	-9.869	0.347	0.229
-231.786	-88.056	-0.534	-0.159
-230.771	25.991	-0.158	0.131
-229.757	800.000	0.137	-0.391
-228.742	-200.000	0.020	0.225
-227.727	44.536	0.281	0.256
-226.713	11.602	0.205	-0.156
-225.698	-111.840	0.348	0.070
-224.684	60.455	0.100	-0.098
-223.669	244.497	0.320	-0.533
-222.655	204.470	0.008	0.012
-221.640	167.435	-0.053	-0.074
-220.625	84.906	0.225	-0.244
-219.611	-200.000	-0.021	0.311
-218.596	-109.849	0.277	0.058
-217.582	-4.657	0.283	0.193
-216.567	-83.445	-0.086	-0.027
-215.552	-27.062	-0.150	0.087
-214.538	-200.000	0.001	-0.246
-213.523	800.000	0.045	0.147
-212.509	169.411	-0.072	0.101
-211.494	20.202	0.130	-0.104
-210.479	-200.000	-0.020	0.296
-209.465	-66.160	-0.170	-0.067
-208.450	-157.454	0.208	-0.012
-207.436	686.585	0.100	0.258
-206.421	70.663	-0.208	-0.213
-205.406	-31.455	0.448	0.250
-204.392	53.402	-0.151	0.143
-203.377	-82.136	0.123	0.040
-202.363	8.065	-0.219	-0.163
-201.348	-3.126	0.335	-0.231
-200.333	-152.764	-0.207	0.015
-199.319	304.797	0.021	0.039
-198.304	-16.122	-0.174	0.110
-197.290	-62.459	-0.244	-0.100
-196.275	-140.763	0.148	0.015
-195.260	-37.698	-0.108	0.057
-194.246	0.156	-0.087	0.062
-193.231	12.093	-0.216	0.165
-192.217	-101.337	0.112	-0.027
-191.202	-160.428	-0.447	-0.024
-190.187	-97.804	0.270	-0.069
-189.173	354.833	0.065	-0.129
-188.158	-24.904	0.165	0.097
-187.144	-200.000	0.024	-0.106
-186.129	78.053	0.176	0.186
-185.114	82.650	0.044	0.048
-184.100	-61.677	-0.380	0.158
-183.085	-38.815	-0.163	-0.085
-182.071	212.175	-0.058	0.090
-181.056	-154.284	-0.198	0.013
-180.042	246.493	-0.061	-0.101
-179.027	210.937	0.007	-0.011
-178.012	-200.000	0.115	0.526
-176.998	-200.000	-0.008	0.097
-175.983	65.317	-0.235	-0.235
-174.969	-200.000	-0.009	0.084
-173.954	-120.989	-0.515	-0.086
-172.939	274.862	-0.179	0.314
-171.925	-200.000	0.036	0.202
-170.910	-88.092	0.152	-0.045
-169.896	-145.445	-0.387	0.034
-168.881	-32.419	-0.167	0.092
-167.866	17.164	-0.062	-0.049
-166.852	-139.766	-0.213	-0.022
-165.837	265.743	0.120	-0.208
-164.823	-89.424	0.235	-0.068
-163.808	-88.405	0.485	-0.143
-162.793	67.948	0.109	-0.111
-161.779	30.447	-0.114	0.097
-160.764	463.068	0.118	0.261
-159.750	5.454	-0.292	-0.213
-158.735	386.424	0.082	-0.167
-157.720	42.936	0.183	-0.165
-156.706	-127.147	-0.412	-0.060
-155.691	181.574	-0.066	0.096
-154.677	-77.092	0.137	0.047
-153.662	17.395	-0.492	0.386
-152.647	-200.000	0.017	-0.190
-151.633	-106.724	-0.331	0.073
-150.618	-76.747	-0.210	0.073
-149.604	16.166	-0.162	-0.126
-148.589	28.315	0.095	0.079
-147.574	-12.809	-0.240	-0.155
-146.560	-62.567	0.305	-0.125
-145.545	-200.000	0.057	0.368
-144.531	237.285	0.131	-0.215
-143.516	-37.903	0.130	-0.068
-142.502	-187.821	-0.276	-0.004
-141.487	262.784	-0.064	0.109
-140.472	683.599	-0.110	-0.283
-139.458	-200.000	-0.013	-0.156
-138.443	-98.991	0.156	0.039
-137.429	-37.762	0.042	0.022
-136.414	-31.410	0.184	-0.102
-135.399	-128.045	-0.035	-0.005
-134.385	74.109	0.099	0.102
-133.370	-200.000	0.003	-0.082
-132.356	-200.000	0.012	0.081
-131.341	-101.601	0.311	0.074
-130.326	-72.742	0.221	0.081
-129.312	222.672	0.213	-0.339
-128.297	237.079	-0.116	-0.190
-127.283	152.800	-0.302	-0.407
-126.268	800.000	-0.119	-0.328
-125.253	-14.628	0.053	0.034
-124.239	170.152	-0.118	0.166
-123.224	800.000	0.098	-0.346
-122.210	125.742	-0.206	-0.257
-121.195	-174.855	0.052	-0.001
