DTS Sentinel unit serial number:	SN413079Multiplexer serial number:	ORYXHardware model number:	OX4-SRSoftware version number:	ORYX F/W v4.00 Oryx Data Collector v3.7.2.0data status	okinstallation	princeton_trtdifferential loss correction	single-endedforward channel	channel 2reverse channel	N/Adate	2019/09/16time	18:51:35forward acquisition time	60.00reverse acquisition time	0.00gamma	496.2192k internal	0.2322k external	0.2322temperature offset calibration	0.9965default loss term (dB/km)	0.3790temperature slope calibration	1.0000multiplexer offset coefficient	1.0000multiplexer slope coefficient	1.0000fibre end	0.00T internal ref (°C)	35.89T ext. ref 1 (°C)	0.06T ext. ref 2 (°C)	29.21length (m)	temperature (°C)	Stokes	anti-Stokes-747.200	-38.155	0.139	-0.074
-746.185	-200.000	0.005	0.288
-745.171	-106.579	-0.299	0.067
-744.156	-200.000	-0.059	0.403
-743.142	-167.786	0.073	-0.003
-742.127	-200.000	0.020	0.235
-741.112	67.321	0.182	-0.188
-740.098	800.000	0.073	0.255
-739.083	93.328	0.221	-0.252
-738.069	-200.000	0.006	0.391
-737.054	800.000	-0.050	0.186
-736.039	77.201	-0.284	0.305
-735.025	-20.591	-0.101	-0.063
-734.010	454.851	-0.058	-0.131
-732.996	73.639	-0.177	-0.187
-731.981	-42.725	-0.290	0.149
-730.966	419.983	0.123	-0.265
-729.952	-20.510	0.143	-0.089
-728.937	-42.726	-0.014	-0.007
-727.923	800.000	0.082	-0.272
-726.908	-200.000	0.108	-0.000
-725.894	305.700	-0.190	0.356
-724.879	314.104	-0.040	-0.076
-723.864	73.852	0.098	-0.103
-722.850	-27.991	0.273	-0.159
-721.835	-79.942	-0.290	0.098
-720.821	381.520	-0.092	0.190
-719.806	-200.000	-0.043	0.300
-718.791	31.724	-0.370	0.322
-717.777	-112.805	0.182	-0.036
-716.762	-47.294	-0.242	0.119
-715.748	-75.471	-0.045	-0.016
-714.733	-200.000	0.033	-0.153
-713.718	800.000	-0.046	-0.153
-712.704	11.198	-0.138	0.107
-711.689	-125.044	0.211	0.033
-710.675	18.095	0.088	-0.071
-709.660	-200.000	0.017	-0.124
-708.645	-9.359	-0.066	0.045
-707.631	5.535	0.178	-0.132
-706.616	-200.000	-0.064	0.296
-705.602	21.250	0.031	0.025
-704.587	-200.000	-0.033	-0.229
-703.572	-200.000	-0.008	0.122
-702.558	-98.514	-0.128	-0.033
-701.543	-38.573	-0.133	-0.071
-700.529	35.469	-0.063	0.055
-699.514	124.055	-0.089	-0.113
-698.499	-159.710	0.140	-0.008
-697.485	76.972	0.114	-0.122
-696.470	-105.862	-0.466	0.106
-695.456	-12.946	-0.227	0.149
-694.441	-66.361	0.354	-0.142
-693.426	32.179	-0.082	0.072
-692.412	-142.159	-0.317	-0.032
-691.397	-3.321	0.093	0.066
-690.383	-115.359	0.539	-0.103
-689.368	800.000	-0.072	0.264
-688.354	-200.000	0.004	0.218
-687.339	84.368	0.198	0.218
-686.324	3.138	-0.182	0.134
-685.310	-48.671	-0.426	-0.206
-684.295	-15.570	0.119	-0.077
-683.281	800.000	0.013	-0.041
-682.266	800.000	-0.049	-0.156
-681.251	-99.944	0.199	0.050
-680.237	-54.608	-0.246	-0.112
-679.222	-65.939	0.197	-0.079
-678.208	185.279	0.034	0.051
-677.193	25.518	-0.277	-0.232
-676.178	-13.151	-0.274	0.179
-675.164	-200.000	0.037	0.485
-674.149	-171.865	-0.619	0.020
-673.135	704.013	0.074	0.197
-672.120	73.722	-0.193	0.204
-671.105	31.926	0.078	-0.068
-670.091	-200.000	0.033	-0.314
-669.076	676.140	-0.047	0.124
-668.062	29.158	-0.147	-0.126
-667.047	-200.000	0.037	0.295
-666.032	-149.213	0.335	-0.027
-665.018	-140.889	-0.213	-0.022
-664.003	-200.000	-0.015	0.175
-662.989	69.318	0.047	0.048
-661.974	-200.000	0.050	-0.307
-660.959	82.173	-0.069	0.075
-659.945	-200.000	0.006	0.061
-658.930	-200.000	-0.037	0.266
-657.916	-196.121	-0.309	-0.002
-656.901	117.196	-0.170	-0.211
-655.886	-200.000	-0.027	-0.485
-654.872	-26.912	0.241	0.142
-653.857	-56.127	-0.087	-0.039
-652.843	-48.952	-0.229	-0.110
-651.828	17.636	-0.093	0.074
-650.814	-200.000	-0.048	-0.277
-649.799	24.762	-0.170	0.142
-648.784	800.000	0.039	-0.108
-647.770	-200.000	0.005	-0.026
-646.755	-200.000	0.033	-0.162
-645.741	-10.294	0.190	0.127
-644.726	265.847	0.038	0.067
-643.711	154.727	-0.100	-0.139
-642.697	-128.192	-0.079	0.011
-641.682	-28.842	0.143	-0.083
-640.668	22.269	0.341	-0.280
-639.653	108.818	0.160	0.193
-638.638	-200.000	-0.007	-0.232
-637.624	97.138	0.245	-0.283
-636.609	-10.252	-0.145	0.097
-635.595	-34.412	0.310	0.171
-634.580	-200.000	0.007	0.281
-633.565	183.066	-0.171	-0.253
-632.551	57.067	0.059	0.057
-631.536	615.423	-0.094	0.237
-630.522	-109.885	0.318	0.067
-629.507	800.000	0.037	0.111
-628.492	-138.361	0.361	0.040
-627.478	352.625	-0.021	-0.042
-626.463	-84.230	0.298	-0.095
-625.449	-108.165	0.477	-0.104
-624.434	369.787	0.112	-0.228
-623.419	-200.000	0.030	-0.199
-622.405	59.505	-0.056	-0.056
-621.390	-123.200	-0.312	-0.050
-620.376	-66.227	0.195	-0.078
-619.361	51.789	-0.345	-0.330
-618.346	-200.000	0.004	0.236
-617.332	221.194	-0.093	0.150
-616.317	-23.596	0.219	0.132
-615.303	-83.960	0.237	0.076
-614.288	110.058	0.252	0.304
-613.273	-200.000	0.020	-0.094
-612.259	136.224	0.028	0.037
-611.244	-200.000	-0.085	-0.455
-610.230	-40.698	-0.190	-0.099
-609.215	-200.000	0.059	0.279
-608.201	-179.118	-0.339	0.008
-607.186	800.000	0.012	-0.047
-606.171	234.920	-0.122	-0.203
-605.157	3.166	0.154	-0.113
-604.142	-200.000	0.036	-0.207
-603.128	800.000	0.043	0.152
-602.113	-90.640	-0.120	-0.035
-601.098	-110.523	-0.083	0.017
-600.084	342.516	-0.110	0.217
-599.069	-200.000	-0.060	-0.332
-598.055	735.026	0.100	0.268
-597.040	594.844	0.052	-0.129
-596.025	18.961	-0.016	0.013
-595.011	-200.000	-0.031	-0.276
-593.996	-91.097	-0.299	0.086
-592.982	-18.651	0.146	-0.091
-591.967	53.796	-0.169	-0.163
-590.952	138.420	-0.032	0.042
-589.938	214.049	-0.105	-0.168
-588.923	-127.515	-0.150	0.022
-587.909	93.145	0.100	0.114
-586.894	-200.000	0.051	-0.364
-585.879	208.945	-0.049	0.077
-584.865	-18.091	0.118	-0.074
-583.850	526.926	-0.048	-0.113
-582.836	-200.000	-0.012	0.156
-581.821	23.744	-0.268	-0.221
-580.806	27.206	0.168	0.142
-579.792	800.000	0.069	-0.272
-578.777	22.938	0.141	-0.116
-577.763	-200.000	-0.043	-0.234
-576.748	-200.000	-0.016	-0.305
-575.733	681.995	0.069	0.180
-574.719	587.676	-0.151	-0.372
-573.704	459.917	0.069	-0.153
-572.690	-172.725	-0.242	0.008
-571.675	-58.966	0.113	0.049
-570.661	-200.000	0.001	0.102
-569.646	-200.000	-0.018	-0.283
-568.631	234.265	-0.059	0.097
-567.617	50.410	0.240	-0.228
-566.602	-10.528	0.295	-0.196
-565.588	-8.473	-0.253	0.171
-564.573	76.766	-0.121	0.129
-563.558	-200.000	0.038	-0.219
-562.544	9.323	-0.189	0.143
-561.529	-44.592	0.050	0.025
-560.515	-66.150	-0.417	0.167
-559.500	-200.000	-0.050	-0.279
-558.485	58.295	0.209	-0.206
-557.471	-84.510	-0.278	0.088
-556.456	800.000	0.063	0.231
-555.442	102.066	0.114	0.134
-554.427	140.991	0.071	-0.094
-553.412	42.422	0.245	0.223
-552.398	429.765	0.050	0.108
-551.383	-200.000	0.018	-0.228
-550.369	-200.000	-0.006	0.265
-549.354	-36.758	0.085	0.046
-548.339	-200.000	0.013	-0.353
-547.325	-31.943	0.135	0.076
-546.310	800.000	0.034	0.115
-545.296	132.698	-0.066	0.085
-544.281	-42.026	0.068	-0.035
-543.266	-19.509	-0.369	0.229
-542.252	-200.000	-0.008	-0.146
-541.237	22.654	-0.200	-0.164
-540.223	-51.587	0.316	-0.148
-539.208	-200.000	0.025	0.109
-538.193	336.029	-0.146	-0.285
-537.179	-70.444	0.275	-0.104
-536.164	-121.681	0.099	-0.016
-535.150	60.954	-0.137	-0.136
-534.135	-8.992	-0.227	-0.152
-533.121	-152.521	-0.144	0.010
-532.106	800.000	0.082	0.310
-531.091	800.000	0.120	0.379
-530.077	800.000	0.087	0.277
-529.062	800.000	-0.079	0.310
-528.048	-28.949	0.059	-0.034
-527.033	599.130	0.081	0.201
-526.018	800.000	0.069	-0.191
-525.004	257.829	-0.161	0.278
-523.989	-156.308	0.164	0.010
-522.975	634.299	0.092	0.234
-521.960	497.023	-0.049	-0.114
-520.945	-44.247	0.172	0.086
-519.931	-39.296	-0.317	-0.166
-518.916	-32.159	-0.062	0.035
-517.902	10.220	-0.162	-0.123
-516.887	620.445	0.102	0.257
-515.872	286.424	0.112	0.202
-514.858	-174.689	0.070	0.002
-513.843	-23.792	-0.136	0.082
-512.829	-20.621	0.205	0.126
-511.814	-82.465	0.180	-0.059
-510.799	800.000	-0.101	-0.300
-509.785	-110.472	0.370	0.077
-508.770	-62.795	-0.163	-0.068
-507.756	-30.338	-0.120	-0.068
-506.741	763.093	-0.067	-0.181
-505.726	-8.668	0.232	0.156
-504.712	-8.690	0.204	0.137
-503.697	187.672	0.173	-0.258
-502.683	-200.000	0.009	-0.204
-501.668	-55.017	0.167	0.075
-500.653	-100.995	-0.247	-0.061
-499.639	-200.000	-0.027	-0.210
-498.624	676.772	0.062	-0.161
-497.610	-42.830	-0.209	-0.106
-496.595	-0.949	-0.086	-0.061
-495.581	-123.970	-0.150	0.024
-494.566	-151.378	-0.266	0.020
-493.551	-115.258	-0.280	0.053
-492.537	-164.519	-0.067	0.003
-491.522	-5.792	-0.152	-0.104
-490.508	-86.031	-0.046	0.014
-489.493	295.118	-0.097	0.178
-488.478	231.825	-0.195	-0.320
-487.464	173.191	-0.165	0.237
-486.449	800.000	-0.039	-0.148
-485.435	-200.000	0.034	-0.316
-484.420	36.133	0.050	-0.044
-483.405	-200.000	-0.038	0.213
-482.391	-32.879	-0.285	0.158
-481.376	40.404	0.312	-0.281
-480.362	28.682	-0.242	-0.205
-479.347	547.703	-0.101	0.242
-478.332	130.008	0.102	0.130
-477.318	-157.502	0.068	-0.004
-476.303	553.102	-0.057	-0.136
-475.289	-32.244	-0.183	0.102
-474.274	132.267	0.037	-0.047
-473.259	244.349	-0.110	-0.185
-472.245	800.000	0.050	0.151
-471.230	-15.189	0.173	0.111
-470.216	-82.133	0.058	0.019
-469.201	642.540	-0.044	0.112
-468.186	-94.874	-0.394	0.107
-467.172	32.420	-0.073	0.063
-466.157	526.583	0.075	0.177
-465.143	800.000	-0.036	0.131
-464.128	-200.000	0.052	-0.417
-463.113	75.661	-0.061	-0.065
-462.099	586.047	-0.103	0.253
-461.084	409.322	0.163	-0.345
-460.070	-148.338	-0.138	0.011
-459.055	-18.612	0.366	-0.228
-458.040	-81.594	-0.256	0.084
-457.026	-200.000	0.012	0.188
-456.011	28.490	-0.204	-0.172
-454.997	146.474	-0.140	0.188
-453.982	-200.000	-0.025	-0.152
-452.968	299.681	-0.076	0.140
-451.953	-85.579	-0.268	0.083
-450.938	-36.468	-0.263	-0.141
-449.924	800.000	0.029	-0.086
-448.909	-200.000	0.024	0.240
-447.895	-200.000	-0.033	0.429
-446.880	800.000	-0.041	-0.118
-445.865	84.385	0.099	0.108
-444.851	-27.213	-0.320	0.186
-443.836	-92.257	0.171	-0.048
-442.822	-200.000	0.002	0.191
-441.807	99.313	-0.010	-0.012
-440.792	-200.000	-0.024	0.330
-439.778	24.523	0.058	0.048
-438.763	-155.392	0.121	-0.008
-437.749	-154.046	0.143	0.010
-436.734	172.779	0.129	0.185
-435.719	192.483	-0.014	0.021
-434.705	502.425	-0.133	0.306
-433.690	-33.504	-0.055	-0.030
-432.676	800.000	0.055	-0.203
-431.661	-93.194	0.128	0.036
-430.646	602.780	-0.113	-0.281
-429.632	-165.653	-0.074	-0.003
-428.617	-200.000	-0.005	-0.095
-427.603	-200.000	-0.035	-0.192
-426.588	652.465	0.115	-0.294
-425.573	130.348	0.040	0.051
-424.559	-200.000	0.024	0.114
-423.544	-157.960	0.321	0.019
-422.530	331.411	0.128	0.247
-421.515	128.554	-0.288	-0.366
-420.500	-200.000	0.052	0.231
-419.486	-106.099	0.331	0.074
-418.471	800.000	0.045	0.123
-417.457	383.412	0.060	0.124
-416.442	-93.407	-0.531	-0.147
-415.428	9.839	-0.041	-0.031
-414.413	792.173	-0.113	-0.311
-413.398	-168.742	0.242	-0.009
-412.384	-96.091	0.190	0.050
-411.369	25.018	0.039	0.032
-410.355	-15.703	0.151	0.096
-409.340	800.000	-0.084	0.262
-408.325	-7.203	-0.144	0.097
-407.311	-0.626	0.283	-0.200
-406.296	307.536	-0.097	-0.181
-405.282	146.790	-0.087	0.117
-404.267	-200.000	-0.012	-0.187
-403.252	-161.956	0.490	0.025
-402.238	-169.651	0.161	0.006
-401.223	-200.000	-0.060	0.283
-400.209	316.904	-0.059	0.111
-399.194	149.796	-0.083	0.113
-398.179	-81.591	0.254	-0.083
-397.165	-200.000	0.002	0.027
-396.150	-107.567	-0.118	0.026
-395.136	-150.488	-0.341	-0.026
-394.121	-7.359	-0.229	0.154
-393.106	-200.000	0.002	0.175
-392.092	-120.794	-0.211	-0.035
-391.077	-200.000	0.041	0.371
-390.063	283.896	-0.194	0.348
-389.048	-200.000	0.020	0.127
-388.033	-200.000	0.006	0.263
-387.019	-27.100	0.261	0.152
-386.004	59.737	-0.272	-0.267
-384.990	283.973	0.022	0.039
-383.975	37.419	-0.297	0.263
-382.960	-200.000	0.001	-0.072
-381.946	117.562	-0.323	-0.396
-380.931	-200.000	0.023	-0.189
-379.917	208.688	-0.137	-0.213
-378.902	721.710	0.077	0.205
-377.888	-65.543	-0.099	0.040
-376.873	-200.000	-0.005	-0.159
-375.858	-159.632	0.100	0.006
-374.844	86.944	0.169	-0.185
-373.829	-200.000	-0.018	-0.413
-372.815	657.936	0.112	-0.286
-371.800	-83.307	-0.100	-0.032
-370.785	-4.341	-0.199	0.137
-369.771	800.000	0.135	-0.389
-368.756	-24.662	-0.065	0.039
-367.742	520.228	0.101	0.236
-366.727	-24.182	0.213	-0.127
-365.712	-151.661	-0.046	-0.003
-364.698	-200.000	-0.011	0.219
-363.683	242.451	-0.101	-0.168
-362.669	-18.052	-0.218	0.136
-361.654	13.056	-0.133	0.102
-360.639	144.869	0.067	0.090
-359.625	-200.000	0.009	0.248
-358.610	800.000	-0.136	0.407
-357.596	-200.000	0.009	0.080
-356.581	93.107	-0.141	-0.159
-355.566	-32.813	0.066	0.037
-354.552	-200.000	0.031	0.167
-353.537	800.000	0.042	0.161
-352.523	-181.746	0.454	-0.009
-351.508	-200.000	0.038	0.183
-350.493	347.822	0.174	0.342
-349.479	681.210	0.025	0.064
-348.464	-200.000	-0.050	-0.427
-347.450	-63.794	-0.149	-0.061
-346.435	-73.596	0.190	-0.069
-345.420	-23.958	0.340	-0.202
-344.406	-53.699	0.160	0.073
-343.391	292.236	-0.072	-0.131
-342.377	800.000	0.032	-0.090
-341.362	94.293	0.114	0.129
-340.348	-200.000	0.041	0.283
-339.333	22.251	0.184	-0.150
-338.318	-68.669	0.153	-0.059
-337.304	-200.000	0.038	0.269
-336.289	152.909	-0.087	0.119
-335.275	-30.760	0.148	-0.083
-334.260	-4.930	0.115	-0.079
-333.245	35.273	0.056	-0.049
-332.231	137.256	-0.077	0.101
-331.216	122.536	-0.095	0.118
-330.202	-119.607	0.092	0.016
-329.187	-69.691	-0.194	0.074
-328.172	-200.000	0.008	0.078
-327.158	800.000	0.046	0.144
-326.143	-127.621	-0.077	-0.011
-325.129	800.000	-0.047	-0.170
-324.114	-200.000	-0.076	-0.530
-323.099	-111.318	0.190	0.039
-322.085	-200.000	0.019	0.085
-321.070	-200.000	-0.012	-0.345
-320.056	-71.869	-0.488	-0.181
-319.041	751.720	-0.133	-0.358
-318.026	-200.000	0.011	-0.090
-317.012	-155.844	-0.139	0.009
-315.997	-138.468	0.094	-0.010
-314.983	-200.000	-0.005	-0.100
-313.968	-56.538	-0.087	0.038
-312.953	9.728	0.141	-0.106
-311.939	-112.122	-0.257	0.051
-310.924	-200.000	-0.008	0.119
-309.910	70.764	-0.098	-0.101
-308.895	-200.000	-0.017	0.306
-307.880	-28.171	-0.237	-0.136
-306.866	38.900	-0.116	0.103
-305.851	335.007	0.070	-0.134
-304.837	-195.469	-0.277	-0.002
-303.822	-18.499	0.200	0.124
-302.807	-132.738	0.369	0.047
-301.793	-91.263	0.252	-0.072
-300.778	-59.810	0.055	0.023
-299.764	349.902	-0.198	0.389
-298.749	-200.000	-0.017	-0.079
-297.735	566.755	-0.027	0.066
-296.720	63.608	-0.148	0.147
-295.705	357.610	-0.162	0.320
-294.691	120.041	0.270	-0.333
-293.676	139.767	0.236	-0.309
-292.662	25.739	0.220	-0.182
-291.647	-99.989	0.255	0.063
-290.632	800.000	-0.033	-0.112
-289.618	-123.825	0.273	-0.043
-288.603	221.806	0.067	0.107
-287.589	-200.000	-0.189	0.001
-286.574	-200.000	-0.019	-0.181
-285.559	-52.151	-0.239	-0.110
-284.545	-139.077	-0.223	-0.024
-283.530	82.102	-0.066	0.071
-282.516	800.000	0.077	0.300
-281.501	85.233	-0.063	-0.069
-280.486	-101.721	0.158	-0.038
-279.472	148.712	-0.019	0.025
-278.457	-200.000	0.054	0.367
-277.443	-200.000	-0.048	0.287
-276.428	-92.339	0.214	-0.060
-275.413	-200.000	-0.011	0.185
-274.399	44.746	-0.104	0.095
-273.384	-2.016	-0.254	-0.177
-272.370	800.000	-0.023	-0.092
-271.355	-87.821	-0.145	0.043
-270.340	129.638	-0.118	-0.150
-269.326	-200.000	-0.053	-0.341
-268.311	31.640	0.479	0.408
-267.297	19.193	0.117	-0.093
-266.282	-200.000	0.000	0.009
-265.267	-113.305	0.125	0.024
-264.253	152.280	0.180	-0.244
-263.238	89.104	-0.081	0.089
-262.224	-86.357	-0.201	-0.061
-261.209	173.834	0.070	-0.101
-260.195	209.673	-0.177	0.276
-259.180	398.799	-0.080	0.166
-258.165	18.375	-0.141	0.111
-257.151	-122.262	0.148	-0.024
-256.136	-85.052	0.269	-0.083
-255.122	-117.782	0.154	-0.027
-254.107	800.000	-0.012	0.042
-253.092	-101.735	0.200	0.048
-252.078	35.870	-0.087	-0.076
-251.063	-200.000	-0.004	0.082
-250.049	-0.425	-0.340	-0.239
-249.034	44.545	0.056	-0.051
-248.019	-56.806	0.074	-0.032
-247.005	85.555	0.155	-0.169
-245.990	305.734	-0.101	0.185
-244.976	-200.000	-0.012	0.134
-243.961	15.189	0.162	0.126
-242.946	-44.174	-0.271	0.135
-241.932	-79.837	-0.292	-0.097
-240.917	64.247	0.085	0.085
-239.903	184.399	0.084	-0.124
-238.888	-150.309	0.246	-0.019
-237.873	-99.106	0.107	0.027
-236.859	20.040	0.047	0.037
-235.844	191.815	-0.244	0.364
-234.830	-141.118	-0.034	0.003
-233.815	-200.000	-0.055	-0.268
-232.800	136.671	0.093	-0.121
-231.786	-108.930	-0.163	-0.035
-230.771	46.553	0.049	0.045
-229.757	124.863	-0.140	0.175
-228.742	-20.334	-0.100	0.061
-227.727	-100.050	0.056	0.014
-226.713	-68.420	-0.076	0.029
-225.698	262.065	0.129	-0.222
-224.684	-147.835	0.229	-0.019
-223.669	333.916	-0.097	0.185
-222.655	278.763	-0.106	0.187
-221.640	-3.067	-0.133	0.092
-220.625	-121.959	0.290	-0.047
-219.611	81.975	-0.120	0.129
-218.596	48.595	-0.070	0.065
-217.582	-96.367	-0.103	-0.027
-216.567	-128.443	-0.400	0.056
-215.552	36.167	0.129	-0.112
-214.538	-41.485	-0.173	-0.088
-213.523	-77.390	0.367	-0.126
-212.509	374.890	0.096	0.194
-211.494	144.830	-0.092	-0.122
-210.479	27.936	0.076	0.063
-209.465	105.422	-0.080	0.094
-208.450	-200.000	-0.052	-0.252
-207.436	-200.000	0.037	-0.259
-206.421	-200.000	-0.029	-0.568
-205.406	107.410	-0.124	-0.146
-204.392	185.292	-0.046	-0.067
-203.377	-41.665	-0.165	0.084
-202.363	25.587	-0.150	-0.124
-201.348	-21.175	0.199	-0.120
-200.333	-200.000	-0.012	0.072
-199.319	395.045	0.031	0.064
-198.304	-10.578	0.184	0.121
-197.290	102.503	0.168	0.194
-196.275	-200.000	0.005	-0.127
-195.260	79.469	0.091	0.096
-194.246	-57.506	0.026	-0.011
-193.231	92.912	0.247	0.275
-192.217	71.294	-0.212	-0.217
-191.202	-62.605	-0.075	0.031
-190.187	476.701	0.092	-0.205
-189.173	214.169	-0.191	0.299
-188.158	69.072	-0.285	-0.289
-187.144	135.245	0.186	0.239
-186.129	599.025	-0.044	0.108
-185.114	-27.624	0.160	0.092
-184.100	-156.920	0.212	0.013
-183.085	-200.000	0.008	-0.141
-182.071	115.823	-0.122	-0.147
-181.056	-16.498	0.144	-0.090
-180.042	-85.476	-0.116	-0.036
-179.027	-84.609	0.170	0.053
-178.012	-33.621	0.109	0.060
-176.998	800.000	-0.081	-0.234
-175.983	-9.231	0.250	-0.165
-174.969	301.559	0.043	0.078
-173.954	-32.234	-0.155	-0.085
-172.939	-16.095	0.132	0.083
-171.925	681.892	-0.083	-0.215
-170.910	33.760	-0.087	0.075
-169.896	53.321	0.143	-0.136
-168.881	57.241	-0.148	-0.143
-167.866	-120.230	-0.124	0.021
-166.852	-112.282	-0.162	0.032
-165.837	60.025	0.145	0.142
-164.823	106.676	-0.106	0.124
-163.808	-0.189	0.199	0.140
-162.793	164.980	0.320	0.446
-161.779	526.228	0.091	-0.212
-160.764	-6.120	0.158	0.107
-159.750	-119.457	-0.220	0.038
-158.735	-200.000	0.001	-0.131
-157.720	103.845	-0.156	0.181
-156.706	-200.000	0.030	0.238
-155.691	800.000	-0.053	0.174
-154.677	800.000	0.036	0.135
-153.662	-86.914	-0.099	0.030
-152.647	416.808	0.107	0.225
-151.633	291.397	-0.040	0.072
-150.618	-48.829	-0.051	0.024
-149.604	-77.088	0.188	0.065
-148.589	-200.000	-0.038	0.195
-147.574	-43.887	0.320	0.159
-146.560	800.000	-0.120	-0.457
-145.545	-167.847	-0.178	-0.007
-144.531	554.260	-0.039	0.092
-143.516	108.301	-0.120	0.141
-142.502	800.000	0.043	0.157
-141.487	-61.113	-0.265	-0.110
-140.472	778.042	-0.091	0.246
-139.458	-130.674	0.114	-0.015
-138.443	-37.695	-0.146	0.077
-137.429	317.727	-0.293	0.548
-136.414	-92.299	0.124	0.035
-135.399	73.916	0.251	-0.259
-134.385	-140.261	0.242	-0.025
-133.370	248.935	-0.110	0.185
-132.356	-1.479	0.180	-0.125
-131.341	-9.382	0.164	0.108
-130.326	19.453	0.144	-0.114
-129.312	-57.451	0.363	0.157
-128.297	253.031	-0.102	0.172
-127.283	-200.000	-0.050	0.359
-126.268	66.078	0.276	0.276
-125.253	-50.284	-0.250	0.116
-124.239	800.000	-0.071	0.301
-123.224	146.348	0.244	-0.322
-122.210	-136.303	0.220	0.025
-121.195	350.733	0.049	-0.096
-120.180	-71.688	0.058	-0.021
