DTS Sentinel unit serial number:	SN413079Multiplexer serial number:	ORYXHardware model number:	OX4-SRSoftware version number:	ORYX F/W v4.00 Oryx Data Collector v3.7.2.0data status	okinstallation	princeton_trtdifferential loss correction	single-endedforward channel	channel 2reverse channel	N/Adate	2019/09/14time	16:31:35forward acquisition time	60.00reverse acquisition time	0.00gamma	496.2192k internal	0.2307k external	0.2307temperature offset calibration	1.0128default loss term (dB/km)	0.3790temperature slope calibration	1.0000multiplexer offset coefficient	1.0000multiplexer slope coefficient	1.0000fibre end	0.00T internal ref (°C)	38.00T ext. ref 1 (°C)	5.05T ext. ref 2 (°C)	33.83length (m)	temperature (°C)	Stokes	anti-Stokes-747.200	-200.000	0.001	0.110
-746.185	4.513	0.178	0.133
-745.171	800.000	0.035	0.152
-744.156	800.000	0.097	0.313
-743.142	160.827	-0.103	0.147
-742.127	-136.657	0.494	-0.058
-741.112	158.897	0.094	-0.132
-740.098	-200.000	0.020	0.246
-739.083	191.867	-0.058	0.089
-738.069	118.847	0.082	0.103
-737.054	800.000	0.068	-0.206
-736.039	-200.000	-0.098	-0.709
-735.025	-29.109	-0.222	-0.129
-734.010	-140.866	-0.287	-0.030
-732.996	-124.555	-0.406	-0.064
-731.981	-200.000	0.043	-0.359
-730.966	800.000	-0.073	0.274
-729.952	800.000	-0.082	0.290
-728.937	7.633	-0.263	0.200
-727.923	800.000	-0.066	-0.261
-726.908	116.708	0.209	0.261
-725.894	-200.000	0.008	-0.057
-724.879	800.000	0.060	-0.171
-723.864	272.917	-0.030	0.053
-722.850	-200.000	-0.021	-0.273
-721.835	253.262	-0.072	-0.125
-720.821	-86.756	-0.192	-0.060
-719.806	-44.962	0.095	-0.048
-718.791	-128.853	-0.203	-0.029
-717.777	-14.002	-0.358	0.235
-716.762	-200.000	-0.011	0.227
-715.748	-200.000	0.035	-0.214
-714.733	284.143	-0.265	0.484
-713.718	4.918	0.436	0.326
-712.704	-200.000	-0.046	-0.230
-711.689	800.000	0.115	-0.345
-710.675	-63.199	0.186	-0.078
-709.660	-111.914	0.495	0.101
-708.645	-45.358	-0.253	0.127
-707.631	-94.471	0.188	0.052
-706.616	-200.000	-0.014	-0.158
-705.602	800.000	0.059	-0.219
-704.587	-147.400	-0.174	-0.015
-703.572	-61.282	-0.317	0.135
-702.558	319.668	0.293	-0.565
-701.543	-161.730	0.081	0.004
-700.529	-54.677	-0.045	-0.021
-699.514	71.055	0.145	-0.153
-698.499	-109.646	0.130	-0.028
-697.485	-200.000	-0.019	0.303
-696.470	656.342	-0.149	-0.388
-695.456	-7.535	-0.213	0.146
-694.441	-25.804	0.071	0.043
-693.426	-200.000	0.029	0.207
-692.412	-69.610	-0.313	-0.121
-691.397	-147.313	-0.276	-0.024
-690.383	-17.484	0.062	-0.039
-689.368	-200.000	-0.003	-0.057
-688.354	26.381	0.242	-0.205
-687.339	16.300	-0.302	0.242
-686.324	26.510	-0.242	0.206
-685.310	316.577	-0.053	-0.101
-684.295	-200.000	-0.062	-0.356
-683.281	204.748	0.085	-0.133
-682.266	10.102	0.129	-0.100
-681.251	72.083	-0.133	0.141
-680.237	800.000	-0.071	-0.244
-679.222	338.331	-0.140	-0.277
-678.208	-200.000	-0.063	-0.000
-677.193	-200.000	-0.028	-0.135
-676.178	-200.000	-0.037	0.200
-675.164	800.000	-0.062	-0.255
-674.149	-176.249	0.246	0.007
-673.135	175.972	-0.180	0.265
-672.120	-96.214	0.231	0.062
-671.105	-155.781	-0.118	-0.008
-670.091	350.390	0.082	-0.165
-669.076	800.000	-0.082	0.334
-668.062	397.661	0.055	-0.117
-667.047	766.202	0.091	-0.250
-666.032	-20.831	0.097	0.060
-665.018	-137.016	0.439	0.051
-664.003	-90.406	0.095	-0.028
-662.989	52.180	-0.160	-0.155
-661.974	33.291	0.192	0.169
-660.959	147.635	-0.357	-0.487
-659.945	50.690	0.087	-0.083
-658.930	-200.000	-0.007	0.281
-657.916	80.558	-0.182	-0.199
-656.901	-200.000	-0.066	0.338
-655.886	16.203	0.297	0.237
-654.872	-26.498	0.151	0.090
-653.857	86.779	0.142	-0.159
-652.843	-53.806	0.263	0.122
-651.828	-95.555	-0.137	0.037
-650.814	-200.000	0.011	0.214
-649.799	12.719	0.253	0.198
-648.784	464.380	0.015	0.034
-647.770	-100.734	0.163	-0.041
-646.755	-161.722	0.081	0.004
-645.741	-79.533	-0.152	-0.052
-644.726	-91.735	0.356	0.102
-643.711	162.233	0.216	0.307
-642.697	-200.000	0.041	0.202
-641.682	-200.000	0.011	0.120
-640.668	800.000	0.095	-0.344
-639.653	800.000	-0.096	-0.417
-638.638	-183.237	-0.539	-0.010
-637.624	-118.343	0.223	0.040
-636.609	199.252	-0.276	-0.428
-635.595	800.000	0.095	-0.327
-634.580	206.533	0.254	-0.401
-633.565	-40.953	0.092	0.048
-632.551	-165.622	0.171	-0.008
-631.536	-200.000	0.012	0.360
-630.522	12.307	-0.188	0.146
-629.507	317.484	0.176	-0.337
-628.492	800.000	0.033	-0.139
-627.478	-130.017	0.034	0.005
-626.463	-127.477	0.170	0.025
-625.449	-7.259	-0.244	0.167
-624.434	117.479	0.142	-0.177
-623.419	-71.145	0.112	0.043
-622.405	445.124	-0.175	-0.389
-621.390	251.799	-0.107	0.185
-620.376	146.571	0.245	0.334
-619.361	128.626	-0.110	-0.141
-618.346	-119.462	0.133	-0.023
-617.332	6.501	0.206	-0.155
-616.317	-117.785	-0.392	0.071
-615.303	-114.100	0.220	-0.043
-614.288	-84.966	0.447	-0.142
-613.273	-64.385	-0.128	0.052
-612.259	-200.000	-0.040	0.225
-611.244	160.791	0.094	-0.133
-610.230	-191.919	-0.291	0.003
-609.215	-200.000	-0.047	0.318
-608.201	-35.880	-0.197	0.108
-607.186	-27.899	0.183	-0.107
-606.171	104.003	0.089	-0.106
-605.157	31.500	0.204	0.177
-604.142	181.023	0.072	0.107
-603.128	223.343	0.083	-0.135
-602.113	111.471	-0.143	0.175
-601.098	-168.877	-0.066	0.003
-600.084	-85.622	0.323	0.101
-599.069	-134.712	-0.314	-0.039
-598.055	-200.000	-0.013	-0.176
-597.040	-79.427	-0.234	0.080
-596.025	133.394	-0.183	0.239
-595.011	-200.000	0.022	-0.117
-593.996	-174.113	-0.320	-0.009
-592.982	-148.880	0.263	-0.022
-591.967	176.869	-0.113	-0.166
-590.952	800.000	0.032	-0.106
-589.938	-200.000	-0.032	0.447
-588.923	-15.175	-0.179	0.116
-587.909	20.471	0.302	0.247
-586.894	-200.000	0.059	-0.608
-585.879	505.978	0.116	-0.272
-584.865	800.000	-0.129	0.397
-583.850	-131.890	-0.309	0.041
-582.836	305.367	-0.089	-0.167
-581.821	-44.324	-0.133	-0.067
-580.806	800.000	-0.026	0.110
-579.792	800.000	-0.093	-0.298
-578.777	103.276	0.020	-0.024
-577.763	52.725	-0.225	-0.217
-576.748	-20.380	-0.267	0.166
-575.733	-200.000	-0.029	-0.378
-574.719	-25.387	-0.287	-0.171
-573.704	-48.252	0.340	-0.165
-572.690	800.000	0.062	-0.173
-571.675	61.789	-0.114	-0.115
-570.661	-200.000	0.019	0.211
-569.646	-47.412	0.357	-0.175
-568.631	-200.000	-0.023	0.110
-567.617	-200.000	0.027	0.281
-566.602	-61.964	0.157	-0.066
-565.588	-146.799	-0.301	-0.026
-564.573	24.899	0.157	0.132
-563.558	-98.547	-0.141	0.036
-562.544	-50.802	-0.178	0.084
-561.529	-200.000	0.045	-0.296
-560.515	-77.742	-0.019	-0.007
-559.500	352.846	-0.075	0.151
-558.485	408.077	-0.082	0.175
-557.471	28.278	0.207	0.176
-556.456	366.316	0.228	-0.464
-555.442	800.000	0.098	-0.277
-554.427	438.757	0.016	-0.036
-553.412	54.658	-0.259	0.252
-552.398	-103.876	-0.297	-0.070
-551.383	-200.000	0.103	-0.615
-550.369	-110.551	-0.206	0.043
-549.354	-121.272	-0.050	-0.008
-548.339	800.000	0.084	0.313
-547.325	-200.000	-0.061	-0.295
-546.310	27.076	0.094	-0.079
-545.296	-33.620	-0.053	0.029
-544.281	52.996	0.115	-0.111
-543.266	38.555	-0.124	0.111
-542.252	-115.239	0.183	-0.035
-541.237	244.818	-0.129	-0.220
-540.223	39.386	-0.123	-0.111
-539.208	800.000	0.091	-0.356
-538.193	-123.913	-0.257	-0.041
-537.179	-200.000	0.002	0.170
-536.164	-40.255	-0.056	0.029
-535.150	-114.710	0.279	-0.054
-534.135	-28.296	0.231	0.134
-533.121	27.356	0.097	-0.083
-532.106	-15.436	0.384	-0.248
-531.091	41.214	0.126	0.115
-530.077	261.492	-0.128	0.224
-529.062	91.165	-0.174	0.197
-528.048	10.868	-0.248	-0.191
-527.033	-5.606	-0.046	0.031
-526.018	-18.418	-0.131	-0.083
-525.004	81.473	-0.075	-0.082
-523.989	-5.800	0.202	-0.139
-522.975	-200.000	-0.046	-0.265
-521.960	-165.627	-0.119	0.005
-520.945	-33.115	0.127	0.071
-519.931	-148.362	-0.156	-0.013
-518.916	-101.722	0.261	-0.064
-517.902	800.000	-0.015	0.056
-516.887	609.761	-0.090	0.227
-515.872	78.921	0.095	0.102
-514.858	101.913	-0.165	-0.194
-513.843	29.981	-0.080	-0.069
-512.829	-125.567	-0.172	0.026
-511.814	-78.398	-0.031	0.011
-510.799	-77.058	-0.196	0.069
-509.785	-97.011	0.065	-0.017
-508.770	320.523	0.043	0.083
-507.756	800.000	-0.017	0.069
-506.741	-157.623	-0.115	-0.007
-505.726	-43.774	-0.179	0.091
-504.712	-1.987	-0.106	-0.075
-503.697	74.181	-0.198	0.209
-502.683	-105.190	-0.146	-0.033
-501.668	357.650	0.131	-0.263
-500.653	180.084	0.067	-0.099
-499.639	-49.176	0.207	0.100
-498.624	255.353	-0.180	0.310
-497.610	-132.479	0.107	0.014
-496.595	722.996	0.032	-0.086
-495.581	101.735	0.088	0.103
-494.566	-200.000	0.067	0.300
-493.551	-57.185	0.173	0.077
-492.537	-87.090	-0.307	0.094
-491.522	-200.000	-0.007	0.035
-490.508	5.082	-0.166	-0.123
-489.493	2.894	0.173	-0.126
-488.478	180.530	0.111	0.164
-487.464	-74.883	0.092	-0.033
-486.449	573.027	0.084	-0.207
-485.435	-104.771	-0.257	0.060
-484.420	-60.487	-0.114	-0.049
-483.405	622.384	-0.101	-0.256
-482.391	-96.872	-0.223	0.059
-481.376	73.738	0.231	-0.244
-480.362	30.392	-0.035	-0.030
-479.347	384.131	0.052	0.108
-478.332	66.558	0.106	0.108
-477.318	-183.489	-0.230	0.004
-476.303	-122.121	0.213	0.035
-475.289	-200.000	-0.067	-0.303
-474.274	15.662	-0.180	-0.142
-473.259	-138.649	0.195	-0.022
-472.245	-68.848	-0.040	0.016
-471.230	-132.273	0.289	-0.038
-470.216	-200.000	0.004	0.303
-469.201	-200.000	0.064	-0.304
-468.186	428.529	-0.082	-0.178
-467.172	-37.158	-0.048	0.026
-466.157	-200.000	-0.095	-0.495
-465.143	-38.305	0.223	-0.119
-464.128	380.234	0.102	0.211
-463.113	-116.781	0.051	-0.009
-462.099	-138.946	0.239	0.026
-461.084	-134.216	-0.139	0.017
-460.070	-200.000	0.004	0.073
-459.055	123.216	0.169	0.213
-458.040	-49.647	-0.154	-0.074
-457.026	-28.903	-0.143	0.083
-456.011	75.555	0.122	0.129
-454.997	-184.479	-0.245	-0.004
-453.982	421.345	0.150	0.323
-452.968	-61.197	0.155	-0.066
-451.953	-174.553	-0.177	0.005
-450.938	-200.000	-0.018	-0.191
-449.924	-34.681	0.223	0.123
-448.909	4.431	-0.208	0.153
-447.895	-66.676	-0.434	0.173
-446.880	-98.391	-0.060	-0.015
-445.865	-60.426	0.164	0.070
-444.851	192.739	0.099	-0.150
-443.836	800.000	0.063	0.216
-442.822	-200.000	-0.004	-0.215
-441.807	203.256	-0.164	-0.255
-440.792	47.418	0.237	-0.222
-439.778	-98.300	-0.135	0.035
-438.763	48.974	0.180	-0.170
-437.749	-9.589	-0.210	-0.141
-436.734	-200.000	0.078	0.453
-435.719	138.577	-0.067	0.088
-434.705	73.898	-0.138	0.145
-433.690	-200.000	-0.035	-0.258
-432.676	800.000	0.081	-0.268
-431.661	-9.739	0.049	-0.033
-430.646	-99.399	0.158	0.040
-429.632	-98.434	0.167	-0.043
-428.617	-116.171	0.158	0.030
-427.603	202.548	0.060	-0.093
-426.588	256.306	-0.201	-0.346
-425.573	-200.000	0.023	0.258
-424.559	142.339	0.282	0.375
-423.544	-98.478	-0.229	0.059
-422.530	-40.074	0.102	0.053
-421.515	-111.946	0.337	0.068
-420.500	-200.000	0.035	0.180
-419.486	-200.000	0.021	-0.399
-418.471	581.603	0.075	0.185
-417.457	-145.166	0.080	0.007
-416.442	-0.305	0.161	0.115
-415.428	800.000	0.067	-0.221
-414.413	107.849	-0.110	-0.131
-413.398	-142.395	0.345	0.034
-412.384	800.000	-0.051	-0.193
-411.369	-45.226	0.177	-0.088
-410.355	-200.000	-0.064	-0.393
-409.340	603.275	0.036	-0.089
-408.325	-62.613	-0.138	0.057
-407.311	-80.698	0.445	0.148
-406.296	-200.000	0.011	0.076
-405.282	126.070	0.091	0.115
-404.267	-200.000	-0.003	0.135
-403.252	477.432	-0.057	-0.129
-402.238	-200.000	0.013	-0.096
-401.223	-138.336	-0.273	-0.030
-400.209	-200.000	0.005	0.158
-399.194	800.000	-0.039	-0.167
-398.179	-200.000	-0.019	0.182
-397.165	-10.467	-0.055	0.036
-396.150	-200.000	-0.016	0.116
-395.136	36.272	-0.236	0.209
-394.121	-88.438	0.114	-0.034
-393.106	-172.488	0.204	-0.006
-392.092	170.807	0.042	0.060
-391.077	-200.000	0.023	0.128
-390.063	-119.452	0.082	-0.014
-389.048	101.136	0.219	0.256
-388.033	-139.554	-0.154	0.016
-387.019	93.011	-0.161	-0.182
-386.004	800.000	-0.028	0.097
-384.990	-51.458	0.072	-0.034
-383.975	-125.563	0.071	-0.011
-382.960	-200.000	0.001	0.102
-381.946	-115.752	0.155	0.029
-380.931	57.235	-0.223	0.218
-379.917	74.903	-0.122	0.129
-378.902	-200.000	-0.049	0.315
-377.888	698.140	0.062	0.162
-376.873	379.630	-0.092	-0.190
-375.858	-109.295	-0.151	0.032
-374.844	-6.299	0.213	-0.146
-373.829	-200.000	0.013	0.178
-372.815	-61.582	-0.222	-0.094
-371.800	-55.438	0.278	0.125
-370.785	86.727	-0.058	0.064
-369.771	-61.116	0.061	0.026
-368.756	-84.304	-0.178	0.056
-367.742	229.800	-0.182	0.298
-366.727	-68.598	0.239	-0.093
-365.712	-121.967	-0.291	-0.048
-364.698	-96.370	-0.434	0.115
-363.683	-11.440	-0.171	-0.113
-362.669	-56.941	0.332	0.147
-361.654	656.267	-0.206	-0.529
-360.639	-101.677	0.166	0.040
-359.625	-160.491	-0.116	0.006
-358.610	-200.000	0.038	0.290
-357.596	334.755	0.086	0.166
-356.581	-200.000	0.003	-0.042
-355.566	800.000	0.097	0.336
-354.552	800.000	-0.083	0.294
-353.537	272.017	0.129	-0.227
-352.523	-129.460	0.368	0.051
-351.508	-145.944	-0.615	-0.055
-350.493	166.511	-0.230	-0.327
-349.479	800.000	0.051	-0.204
-348.464	52.180	-0.211	0.201
-347.450	574.649	-0.100	-0.244
-346.435	-127.071	-0.252	0.037
-345.420	73.383	-0.074	0.078
-344.406	144.088	-0.136	-0.182
-343.391	304.571	-0.117	0.218
-342.377	86.186	0.074	-0.081
-341.362	800.000	0.015	-0.060
-340.348	-93.242	0.396	0.110
-339.333	544.483	0.102	-0.245
-338.318	202.358	-0.087	0.135
-337.304	-102.356	-0.200	-0.048
-336.289	-200.000	-0.023	-0.148
-335.275	-112.954	-0.413	-0.082
-334.260	-42.760	-0.103	-0.052
-333.245	-23.630	0.168	0.101
-332.231	800.000	-0.086	0.358
-331.216	-81.668	-0.133	0.044
-330.202	-104.939	0.204	0.047
-329.187	-200.000	0.003	-0.248
-328.172	-35.573	-0.332	-0.180
-327.158	800.000	0.091	-0.291
-326.143	263.253	-0.072	-0.125
-325.129	-200.000	-0.001	0.199
-324.114	289.229	0.194	0.352
-323.099	158.281	-0.112	0.155
-322.085	-2.658	0.301	0.210
-321.070	87.061	-0.083	0.092
-320.056	-200.000	0.010	-0.258
-319.041	-22.224	-0.090	-0.055
-318.026	-172.948	-0.030	0.001
-317.012	-146.621	-0.195	0.017
-315.997	209.826	0.074	-0.116
-314.983	512.982	-0.059	0.138
-313.968	81.587	-0.250	-0.270
-312.953	-34.768	-0.164	0.090
-311.939	-92.900	-0.211	0.059
-310.924	558.965	-0.020	0.047
-309.910	-83.847	-0.273	0.087
-308.895	363.212	0.189	-0.379
-307.880	800.000	-0.034	0.137
-306.866	408.671	-0.124	0.263
-305.851	324.478	-0.119	0.227
-304.837	53.160	-0.129	0.123
-303.822	-46.634	0.037	0.018
-302.807	56.734	-0.105	-0.102
-301.793	81.776	-0.147	0.159
-300.778	-200.000	0.037	0.281
-299.764	606.609	-0.018	0.044
-298.749	800.000	0.068	0.286
-297.735	762.401	0.077	0.209
-296.720	-138.989	0.189	-0.020
-295.705	-53.408	-0.083	0.038
-294.691	-200.000	0.009	0.179
-293.676	-200.000	-0.051	0.300
-292.662	320.900	-0.120	0.229
-291.647	-155.764	0.071	-0.005
-290.632	-11.161	-0.153	-0.101
-289.618	-200.000	0.060	-0.277
-288.603	57.967	0.019	0.019
-287.589	800.000	-0.054	-0.160
-286.574	-36.151	0.323	0.174
-285.559	146.496	0.141	-0.189
-284.545	-200.000	-0.017	-0.267
-283.530	-200.000	0.076	-0.380
-282.516	-200.000	0.042	-0.312
-281.501	-134.003	0.259	-0.032
-280.486	253.091	-0.117	-0.199
-279.472	701.837	-0.090	-0.238
-278.457	61.040	-0.085	-0.084
-277.443	-98.926	0.080	0.020
-276.428	251.878	0.104	0.176
-275.413	-200.000	0.069	0.342
-274.399	-200.000	0.052	0.307
-273.384	-200.000	0.027	0.197
-272.370	322.618	0.012	0.022
-271.355	-39.798	-0.174	0.091
-270.340	-200.000	0.018	-0.239
-269.326	-200.000	0.009	-0.166
-268.311	-200.000	0.005	0.313
-267.297	-98.910	0.220	0.056
-266.282	-196.075	0.402	0.003
-265.267	-200.000	0.003	0.076
-264.253	14.726	0.229	0.179
-263.238	796.375	-0.054	-0.148
-262.224	259.854	-0.284	-0.490
-261.209	-12.851	0.101	0.066
-260.195	-110.100	0.171	-0.036
-259.180	234.236	0.050	0.082
-258.165	-154.555	-0.129	0.009
-257.151	-81.652	0.067	-0.022
-256.136	-98.836	-0.178	0.045
-255.122	-118.172	-0.267	-0.048
-254.107	107.344	0.230	0.272
-253.092	-112.386	0.163	-0.033
-252.078	-200.000	0.076	-0.456
-251.063	-85.085	0.340	0.106
-250.049	-179.948	0.098	-0.002
-249.034	497.889	0.105	-0.242
-248.019	-162.759	0.709	-0.035
-247.005	-200.000	0.018	0.115
-245.990	-20.067	0.257	-0.158
-244.976	-46.763	0.050	0.025
-243.961	-63.003	-0.198	-0.082
-242.946	-134.127	0.151	-0.019
-241.932	57.389	-0.136	0.132
-240.917	5.060	0.049	0.036
-239.903	-200.000	-0.002	-0.233
-238.888	-200.000	0.009	0.051
-237.873	-199.945	-0.210	-0.001
-236.859	235.543	-0.037	-0.061
-235.844	744.113	-0.101	0.272
-234.830	20.533	0.109	0.088
-233.815	73.250	-0.118	0.123
-232.800	-49.755	0.278	-0.131
-231.786	800.000	-0.059	0.235
-230.771	9.915	0.183	-0.139
-229.757	410.638	0.032	-0.068
-228.742	-150.535	-0.032	-0.002
-227.727	-114.029	-0.098	-0.019
-226.713	36.375	0.310	0.272
-225.698	-73.691	-0.079	-0.029
-224.684	227.312	-0.371	0.600
-223.669	-45.159	0.153	0.076
-222.655	15.482	-0.129	0.101
-221.640	107.009	0.146	0.172
-220.625	-156.141	0.351	-0.022
-219.611	-200.000	-0.015	-0.156
-218.596	-138.316	0.433	0.048
-217.582	194.276	0.021	-0.031
-216.567	298.174	-0.053	-0.098
-215.552	-25.166	0.397	-0.234
-214.538	-78.942	0.081	0.027
-213.523	76.698	-0.089	0.094
-212.509	428.714	-0.101	0.217
-211.494	-149.433	0.096	-0.008
-210.479	-2.226	-0.093	0.065
-209.465	-28.281	-0.227	-0.131
-208.450	-200.000	0.028	0.231
-207.436	-123.002	0.125	0.020
-206.421	-200.000	0.068	-0.298
-205.406	360.723	-0.156	-0.311
-204.392	-95.926	0.099	0.026
-203.377	-2.575	0.132	-0.092
-202.363	204.960	0.023	-0.035
-201.348	29.028	0.056	0.047
-200.333	-189.169	-0.130	0.002
-199.319	-15.900	0.262	0.166
-198.304	800.000	-0.062	0.264
-197.290	-134.967	-0.084	0.010
-196.275	-130.103	0.131	-0.018
-195.260	365.013	0.134	0.269
-194.246	-35.840	0.141	-0.076
-193.231	44.826	0.095	0.087
-192.217	-54.662	-0.209	0.094
-191.202	800.000	-0.063	-0.174
-190.187	-200.000	-0.003	0.026
-189.173	-186.429	0.280	0.004
-188.158	187.812	0.107	0.159
-187.144	-32.234	-0.322	-0.179
-186.129	-200.000	0.063	-0.350
-185.114	-101.880	-0.062	-0.015
-184.100	-200.000	-0.028	0.135
-183.085	-171.441	-0.071	0.002
-182.071	-101.622	-0.461	0.111
-181.056	-200.000	-0.021	-0.109
-180.042	130.159	-0.108	0.137
-179.027	-200.000	0.051	0.262
-178.012	370.718	0.034	0.068
-176.998	-152.815	-0.416	-0.029
-175.983	-10.894	-0.218	-0.143
-174.969	-200.000	-0.010	-0.112
-173.954	-88.844	0.281	0.083
-172.939	-14.114	-0.082	0.052
-171.925	-101.091	0.279	0.068
-170.910	147.619	0.128	-0.171
-169.896	-28.190	0.333	-0.191
-168.881	800.000	-0.074	0.312
-167.866	-33.355	0.110	-0.061
-166.852	-152.710	-0.201	0.014
-165.837	-62.961	-0.273	0.112
-164.823	-45.203	-0.329	0.162
-163.808	27.997	0.090	0.076
-162.793	800.000	-0.060	0.258
-161.779	298.697	-0.046	-0.085
-160.764	-200.000	-0.009	0.207
-159.750	224.085	0.240	-0.385
-158.735	-18.532	-0.090	0.056
-157.720	333.059	-0.158	-0.303
-156.706	-200.000	0.005	-0.062
-155.691	-186.578	-0.217	-0.003
-154.677	-133.116	0.034	-0.004
-153.662	-107.908	-0.207	0.045
-152.647	-5.004	-0.042	-0.029
-151.633	-68.397	-0.233	-0.090
-150.618	-6.247	0.366	0.248
-149.604	800.000	-0.089	-0.311
-148.589	83.025	-0.023	0.025
-147.574	-57.300	0.182	0.080
-146.560	-95.963	0.353	0.093
-145.545	390.868	0.022	-0.045
-144.531	-0.448	-0.233	0.164
-143.516	-6.168	-0.206	0.140
-142.502	134.403	0.156	0.200
-141.487	54.641	0.116	-0.111
-140.472	-200.000	-0.026	0.125
-139.458	-149.656	0.152	0.012
-138.443	-132.352	0.246	0.032
-137.429	299.634	0.156	0.285
-136.414	-63.623	-0.251	0.102
-135.399	-47.031	0.254	-0.123
-134.385	178.305	-0.131	-0.189
-133.370	-200.000	0.062	0.475
-132.356	800.000	-0.022	-0.060
-131.341	-131.069	-0.174	-0.023
-130.326	800.000	0.025	0.107
-129.312	125.148	0.218	0.272
-128.297	-112.452	-0.104	-0.021
-127.283	109.687	-0.202	-0.240
-126.268	-200.000	-0.032	-0.294
-125.253	-69.615	0.079	0.030
-124.239	-200.000	-0.008	0.052
-123.224	51.295	-0.281	0.265
-122.210	-88.839	0.252	0.074
