DTS Sentinel unit serial number:	SN413079Multiplexer serial number:	ORYXHardware model number:	OX4-SRSoftware version number:	ORYX F/W v4.00 Oryx Data Collector v3.7.2.0data status	okinstallation	princeton_trtdifferential loss correction	single-endedforward channel	channel 2reverse channel	N/Adate	2019/09/16time	03:15:34forward acquisition time	60.00reverse acquisition time	0.00gamma	496.2192k internal	0.2334k external	0.2334temperature offset calibration	0.9970default loss term (dB/km)	0.3790temperature slope calibration	1.0000multiplexer offset coefficient	1.0000multiplexer slope coefficient	1.0000fibre end	0.00T internal ref (°C)	27.75T ext. ref 1 (°C)	10.50T ext. ref 2 (°C)	22.00length (m)	temperature (°C)	Stokes	anti-Stokes-747.200	-144.319	0.060	-0.006
-746.185	-59.140	0.016	0.007
-745.171	25.945	-0.189	0.158
-744.156	-62.854	-0.413	-0.172
-743.142	-89.483	0.216	0.064
-742.127	556.642	0.081	0.195
-741.112	-119.932	0.303	-0.052
-740.098	-150.550	-0.084	-0.006
-739.083	-200.000	0.034	0.235
-738.069	800.000	0.074	0.284
-737.054	130.590	-0.131	-0.169
-736.039	-118.517	-0.328	0.058
-735.025	-124.790	0.062	0.010
-734.010	-77.568	-0.351	-0.122
-732.996	655.216	-0.055	0.141
-731.981	-60.359	-0.239	0.102
-730.966	117.933	-0.233	0.288
-729.952	48.936	-0.166	0.156
-728.937	89.870	-0.097	-0.109
-727.923	-132.014	-0.242	0.032
-726.908	800.000	-0.071	0.292
-725.894	-128.410	-0.275	-0.039
-724.879	-200.000	0.006	0.108
-723.864	153.443	0.124	-0.171
-722.850	-103.975	0.224	-0.052
-721.835	580.600	-0.059	0.146
-720.821	82.700	-0.154	0.168
-719.806	25.100	-0.054	-0.045
-718.791	-104.911	-0.271	-0.063
-717.777	200.833	0.223	0.344
-716.762	-53.671	-0.136	0.062
-715.748	-145.766	0.354	-0.032
-714.733	100.475	0.030	0.034
-713.718	108.308	-0.134	0.161
-712.704	2.745	-0.270	0.197
-711.689	800.000	0.032	0.101
-710.675	800.000	-0.102	-0.303
-709.660	-149.940	0.251	0.020
-708.645	7.626	-0.344	0.258
-707.631	2.640	-0.262	-0.190
-706.616	403.820	-0.091	-0.192
-705.602	68.981	-0.154	0.159
-704.587	-200.000	0.023	-0.127
-703.572	-70.720	-0.151	0.057
-702.558	-149.828	0.231	-0.018
-701.543	800.000	-0.111	-0.368
-700.529	-90.434	-0.143	0.042
-699.514	119.718	0.165	0.205
-698.499	92.739	-0.072	0.082
-697.485	-42.854	0.288	0.147
-696.470	149.147	0.224	0.304
-695.456	279.297	0.198	0.354
-694.441	80.060	0.081	-0.088
-693.426	128.121	0.179	0.229
-692.412	-117.889	0.136	-0.025
-691.397	-39.142	0.068	-0.036
-690.383	-200.000	0.045	-0.328
-689.368	-200.000	-0.047	-0.282
-688.354	47.711	-0.214	0.200
-687.339	-200.000	0.026	-0.281
-686.324	800.000	0.082	-0.306
-685.310	-200.000	-0.034	-0.359
-684.295	-200.000	-0.013	0.307
-683.281	-163.603	0.256	0.012
-682.266	-200.000	0.006	-0.089
-681.251	143.107	0.242	-0.323
-680.237	-159.942	0.085	-0.005
-679.222	2.880	0.120	-0.087
-678.208	25.659	0.223	0.186
-677.193	71.253	0.032	-0.033
-676.178	-81.476	0.391	0.129
-675.164	164.466	-0.205	-0.290
-674.149	-200.000	0.001	-0.082
-673.135	-112.538	0.156	0.031
-672.120	139.744	0.145	-0.192
-671.105	-104.452	-0.040	0.009
-670.091	-200.000	0.017	0.125
-669.076	204.201	0.052	0.081
-668.062	-61.103	0.200	-0.085
-667.047	-200.000	0.048	-0.216
-666.032	158.539	-0.053	0.074
-665.018	-200.000	0.026	-0.487
-664.003	15.955	0.167	-0.132
-662.989	-121.487	-0.078	-0.013
-661.974	800.000	-0.044	0.163
-660.959	88.080	0.220	-0.245
-659.945	204.167	0.088	0.136
-658.930	-158.045	0.075	0.004
-657.916	800.000	0.127	-0.438
-656.901	800.000	0.007	-0.020
-655.886	250.422	-0.074	-0.126
-654.872	-26.650	0.282	0.166
-653.857	53.090	-0.105	-0.100
-652.843	800.000	0.074	0.214
-651.828	800.000	-0.023	-0.087
-650.814	497.674	0.119	0.275
-649.799	-68.535	-0.383	-0.149
-648.784	800.000	-0.059	0.208
-647.770	-200.000	0.028	-0.208
-646.755	800.000	-0.044	-0.136
-645.741	-106.340	0.167	-0.037
-644.726	-200.000	-0.030	-0.143
-643.711	135.326	-0.142	0.185
-642.697	-47.170	0.158	0.077
-641.682	-46.928	-0.251	-0.123
-640.668	186.360	0.071	0.105
-639.653	61.740	-0.140	-0.139
-638.638	-200.000	0.034	0.230
-637.624	-40.163	0.134	0.070
-636.609	-9.367	0.184	0.123
-635.595	394.036	-0.092	-0.191
-634.580	64.217	-0.020	-0.020
-633.565	456.848	-0.038	-0.084
-632.551	142.713	0.190	-0.252
-631.536	800.000	-0.044	-0.162
-630.522	800.000	0.040	0.148
-629.507	628.258	0.107	-0.271
-628.492	28.384	-0.302	0.256
-627.478	-200.000	-0.019	0.262
-626.463	10.589	0.098	0.075
-625.449	81.520	0.152	0.164
-624.434	-200.000	0.025	0.203
-623.419	-75.665	-0.029	-0.010
-622.405	-200.000	-0.019	-0.114
-621.390	-200.000	0.003	-0.056
-620.376	175.226	0.138	-0.200
-619.361	-103.248	-0.343	-0.081
-618.346	90.727	-0.072	0.080
-617.332	-32.702	0.402	0.224
-616.317	-200.000	-0.115	0.600
-615.303	757.087	0.132	0.357
-614.288	-200.000	0.025	-0.564
-613.273	-200.000	0.041	-0.298
-612.259	-200.000	0.042	-0.334
-611.244	-154.246	-0.060	0.004
-610.230	-40.962	-0.277	-0.143
-609.215	17.809	0.211	0.168
-608.201	665.192	-0.046	-0.120
-607.186	-81.655	0.036	-0.012
-606.171	26.094	-0.265	-0.221
-605.157	-7.527	0.069	0.046
-604.142	800.000	-0.066	0.247
-603.128	153.897	0.032	0.043
-602.113	-127.201	0.057	0.008
-601.098	171.039	-0.097	-0.139
-600.084	-87.261	-0.247	0.075
-599.069	21.818	0.105	0.085
-598.055	9.749	0.120	0.091
-597.040	163.998	-0.160	-0.225
-596.025	340.615	-0.188	-0.368
-595.011	-200.000	0.088	0.000
-593.996	-118.699	-0.079	-0.014
-592.982	680.459	0.037	-0.097
-591.967	-72.051	-0.062	0.023
-590.952	-200.000	0.077	0.424
-589.938	-37.598	0.235	-0.125
-588.923	-104.598	0.297	-0.068
-587.909	118.441	-0.149	0.183
-586.894	-27.366	0.104	-0.060
-585.879	60.445	0.153	-0.151
-584.865	178.158	-0.110	-0.160
-583.850	101.852	-0.163	0.189
-582.836	-200.000	0.002	-0.125
-581.821	-141.620	0.328	-0.033
-580.806	-100.481	0.246	0.061
-579.792	11.376	0.300	0.230
-578.777	-200.000	-0.029	-0.139
-577.763	-6.282	0.025	-0.017
-576.748	111.499	-0.075	-0.091
-575.733	-72.532	-0.373	-0.138
-574.719	159.072	-0.226	0.313
-573.704	149.987	-0.070	-0.095
-572.690	84.119	0.142	-0.155
-571.675	800.000	0.046	0.134
-570.661	273.670	-0.104	-0.184
-569.646	-75.049	-0.232	-0.083
-568.631	-200.000	0.011	0.282
-567.617	244.833	-0.066	-0.111
-566.602	-185.895	0.466	-0.007
-565.588	-200.000	-0.028	0.230
-564.573	127.728	-0.168	-0.213
-563.558	-81.564	0.382	0.125
-562.544	-200.000	-0.001	0.126
-561.529	89.757	-0.139	-0.155
-560.515	8.361	0.325	0.244
-559.500	-200.000	-0.039	-0.459
-558.485	-83.796	-0.296	-0.094
-557.471	-131.737	-0.209	0.027
-556.456	800.000	0.096	-0.394
-555.442	337.450	0.039	-0.076
-554.427	800.000	-0.045	-0.161
-553.412	266.653	0.159	0.277
-552.398	-143.316	-0.278	0.027
-551.383	715.658	-0.126	-0.334
-550.369	135.473	-0.142	0.184
-549.354	132.100	0.268	0.344
-548.339	-200.000	-0.004	-0.130
-547.325	24.539	-0.168	-0.139
-546.310	515.818	-0.054	-0.125
-545.296	109.025	-0.211	-0.251
-544.281	121.017	-0.218	0.270
-543.266	-200.000	-0.029	-0.456
-542.252	800.000	0.045	-0.175
-541.237	-172.061	-0.236	-0.008
-540.223	25.173	0.021	-0.018
-539.208	-91.795	0.329	-0.093
-538.193	-93.814	-0.267	0.073
-537.179	800.000	-0.051	0.150
-536.164	800.000	0.021	-0.074
-535.150	-81.396	0.027	0.009
-534.135	-200.000	0.024	0.164
-533.121	-17.521	-0.082	0.051
-532.106	-8.886	0.129	0.086
-531.091	71.094	-0.085	-0.087
-530.077	20.470	0.101	-0.082
-529.062	19.365	-0.214	-0.171
-528.048	-18.713	0.177	-0.110
-527.033	-136.271	-0.156	0.018
-526.018	572.587	0.059	-0.143
-525.004	-138.636	-0.315	0.034
-523.989	800.000	0.068	0.191
-522.975	-200.000	-0.016	-0.193
-521.960	-200.000	0.010	0.070
-520.945	15.243	-0.106	-0.083
-519.931	-24.378	0.079	0.047
-518.916	103.469	0.146	-0.171
-517.902	-5.031	0.166	0.114
-516.887	-103.175	-0.185	-0.044
-515.872	411.316	0.007	0.015
-514.858	-115.067	0.358	0.068
-513.843	-29.332	-0.360	-0.205
-512.829	-24.544	-0.091	-0.054
-511.814	-200.000	0.004	0.357
-510.799	-111.530	0.058	-0.012
-509.785	-92.463	-0.172	-0.048
-508.770	-110.580	0.171	0.035
-507.756	144.401	-0.064	-0.085
-506.741	-24.509	0.203	-0.120
-505.726	-28.648	0.170	0.098
-504.712	800.000	0.061	0.207
-503.697	233.992	0.106	-0.174
-502.683	-9.475	-0.037	0.024
-501.668	-159.064	0.396	0.022
-500.653	-81.729	-0.271	-0.089
-499.639	-64.021	0.211	0.086
-498.624	-159.092	-0.238	-0.013
-497.610	800.000	-0.036	-0.131
-496.595	-113.910	-0.339	0.065
-495.581	122.920	-0.272	-0.339
-494.566	248.692	0.012	-0.021
-493.551	147.906	-0.168	0.225
-492.537	-96.506	0.300	-0.079
-491.522	114.842	-0.246	0.299
-490.508	-200.000	0.070	-0.433
-489.493	-92.350	0.109	-0.030
-488.478	-0.884	-0.151	-0.107
-487.464	26.823	0.198	-0.165
-486.449	613.132	0.057	0.142
-485.435	-37.347	-0.210	-0.112
-484.420	-52.486	0.416	-0.191
-483.405	-77.809	0.153	-0.053
-482.391	-73.238	-0.196	-0.071
-481.376	425.599	0.066	0.142
-480.362	-173.793	-0.360	0.011
-479.347	90.503	-0.044	0.049
-478.332	334.380	0.135	0.261
-477.318	-200.000	-0.008	-0.073
-476.303	-72.747	0.295	0.108
-475.289	-200.000	-0.038	-0.330
-474.274	58.991	0.269	-0.263
-473.259	179.583	-0.049	-0.071
-472.245	-36.622	-0.150	-0.080
-471.230	153.361	0.311	-0.423
-470.216	-200.000	-0.027	0.236
-469.201	-86.134	0.301	-0.092
-468.186	-75.937	0.301	-0.106
-467.172	-77.758	-0.433	-0.149
-466.157	-172.803	-0.233	0.007
-465.143	-200.000	0.007	-0.050
-464.128	82.562	0.083	-0.090
-463.113	-136.013	0.091	-0.011
-462.099	-117.072	0.246	0.045
-461.084	-45.202	-0.253	0.125
-460.070	-74.637	0.210	0.075
-459.055	136.449	-0.130	0.169
-458.040	-58.149	0.021	0.009
-457.026	-142.515	-0.171	-0.017
-456.011	-136.374	0.234	0.027
-454.997	-106.432	-0.225	-0.050
-453.982	62.958	-0.164	0.163
-452.968	19.135	-0.123	0.098
-451.953	29.494	0.180	0.152
-450.938	93.276	-0.036	0.040
-449.924	-25.927	0.147	-0.086
-448.909	800.000	-0.050	-0.149
-447.895	-200.000	0.016	0.102
-446.880	413.793	-0.037	0.078
-445.865	-200.000	-0.023	0.185
-444.851	82.771	0.099	0.107
-443.836	-122.171	0.098	-0.016
-442.822	-43.547	-0.352	-0.177
-441.807	-51.642	0.218	-0.101
-440.792	800.000	-0.046	0.176
-439.778	-83.149	-0.076	-0.024
-438.763	-200.000	0.021	0.274
-437.749	90.230	0.127	-0.141
-436.734	-200.000	-0.001	0.061
-435.719	108.490	-0.240	-0.285
-434.705	800.000	-0.076	-0.221
-433.690	-6.404	0.116	-0.078
-432.676	-155.304	-0.205	0.013
-431.661	-132.574	-0.266	0.034
-430.646	-175.959	0.059	-0.002
-429.632	3.209	-0.131	-0.095
-428.617	-48.536	0.074	-0.035
-427.603	-200.000	0.035	-0.200
-426.588	-99.760	-0.133	0.033
-425.573	-81.751	-0.342	-0.111
-424.559	129.212	-0.148	0.188
-423.544	126.475	0.087	0.110
-422.530	-126.367	0.230	0.034
-421.515	-64.515	-0.085	-0.034
-420.500	-49.674	0.116	0.055
-419.486	-200.000	0.019	-0.115
-418.471	165.794	0.154	-0.216
-417.457	73.550	0.091	0.094
-416.442	58.598	0.282	-0.275
-415.428	-200.000	0.036	-0.290
-414.413	48.080	-0.212	0.196
-413.398	-200.000	-0.019	-0.111
-412.384	-200.000	0.038	0.409
-411.369	545.571	-0.179	0.424
-410.355	-200.000	-0.039	-0.291
-409.340	-14.144	-0.427	-0.273
-408.325	800.000	0.009	-0.027
-407.311	91.778	0.115	0.129
-406.296	37.710	0.082	-0.072
-405.282	569.459	0.054	-0.129
-404.267	41.396	0.108	0.097
-403.252	108.971	-0.108	0.128
-402.238	100.501	-0.024	-0.028
-401.223	287.453	0.059	-0.105
-400.209	40.598	-0.181	-0.162
-399.194	-177.132	-0.112	0.003
-398.179	297.706	-0.060	0.109
-397.165	288.723	0.100	0.180
-396.150	42.111	-0.146	0.131
-395.136	543.950	0.080	-0.188
-394.121	130.292	0.089	0.113
-393.106	742.692	0.016	0.042
-392.092	182.282	0.129	0.188
-391.077	-123.902	-0.094	0.015
-390.063	-59.108	-0.188	0.080
-389.048	-106.221	-0.179	-0.040
-388.033	-200.000	0.006	0.303
-387.019	-82.784	-0.442	0.142
-386.004	181.156	-0.132	0.193
-384.990	800.000	0.060	0.169
-383.975	-73.382	-0.423	-0.153
-382.960	800.000	0.052	0.148
-381.946	259.166	0.062	-0.106
-380.931	-200.000	-0.042	0.285
-379.917	23.016	-0.187	-0.152
-378.902	-62.139	0.339	0.140
-377.888	-115.341	-0.311	0.058
-376.873	-200.000	-0.023	0.208
-375.858	-200.000	0.012	-0.163
-374.844	425.415	-0.355	-0.757
-373.829	730.325	0.058	-0.153
-372.815	-95.612	-0.209	0.056
-371.800	11.587	0.218	0.166
-370.785	-41.001	-0.155	0.079
-369.771	451.128	0.080	0.174
-368.756	13.567	-0.192	0.147
-367.742	657.065	-0.016	-0.042
-366.727	-117.539	-0.327	0.059
-365.712	-134.179	0.191	0.023
-364.698	-83.499	0.205	0.065
-363.683	800.000	0.202	0.566
-362.669	393.746	-0.041	0.084
-361.654	-200.000	0.000	-0.174
-360.639	-148.860	0.245	-0.020
-359.625	-54.607	-0.059	-0.026
-358.610	181.049	-0.076	-0.111
-357.596	76.117	0.205	-0.215
-356.581	321.696	0.119	-0.223
-355.566	-14.012	0.156	0.100
-354.552	481.439	-0.064	-0.144
-353.537	-186.166	-0.221	-0.003
-352.523	-125.394	-0.225	0.034
-351.508	128.635	0.140	0.176
-350.493	-98.989	0.229	-0.058
-349.479	-167.009	-0.222	-0.009
-348.464	521.224	-0.027	-0.064
-347.450	-98.997	0.196	0.049
-346.435	-60.183	0.207	0.087
-345.420	-200.000	0.035	-0.197
-344.406	86.707	0.287	0.313
-343.391	54.593	0.193	-0.184
-342.377	-193.863	0.185	-0.002
-341.362	8.215	0.212	-0.158
-340.348	-200.000	-0.000	0.297
-339.333	-76.666	0.386	0.134
-338.318	800.000	-0.097	0.320
-337.304	22.558	0.365	-0.295
-336.289	478.949	-0.195	0.437
-335.275	563.527	0.057	-0.135
-334.260	-18.157	0.217	-0.134
-333.245	384.731	0.091	-0.186
-332.231	370.894	-0.078	0.157
-331.216	296.278	-0.063	0.115
-330.202	-200.000	0.017	-0.229
-329.187	-200.000	0.003	0.350
-328.172	-108.377	0.295	-0.063
-327.158	159.340	-0.113	0.156
-326.143	-105.207	-0.171	-0.039
-325.129	-74.727	-0.165	0.059
-324.114	314.762	-0.128	0.238
-323.099	53.180	-0.068	0.064
-322.085	-186.379	0.205	0.003
-321.070	800.000	0.107	-0.354
-320.056	387.937	-0.075	-0.153
-319.041	-105.515	-0.236	0.053
-318.026	-69.432	0.187	-0.071
-317.012	70.563	-0.151	0.154
-315.997	-200.000	-0.015	0.305
-314.983	163.907	-0.095	0.132
-313.968	-138.612	-0.269	-0.029
-312.953	43.923	0.173	0.156
-311.939	387.437	-0.179	0.365
-310.924	42.169	0.231	-0.208
-309.910	207.767	0.158	-0.243
-308.895	524.048	0.076	-0.178
-307.880	-200.000	-0.023	0.170
-306.866	-127.607	-0.187	0.027
-305.851	112.796	0.232	-0.277
-304.837	12.106	-0.127	0.096
-303.822	115.380	0.090	0.108
-302.807	-79.198	0.279	-0.093
-301.793	43.735	-0.250	0.226
-300.778	-160.433	0.080	0.004
-299.764	134.572	-0.199	0.255
-298.749	-200.000	0.467	-0.001
-297.735	13.731	-0.131	0.100
-296.720	19.162	-0.256	0.203
-295.705	-200.000	0.008	0.183
-294.691	2.626	-0.253	0.181
-293.676	-200.000	-0.036	-0.235
-292.662	5.848	0.154	-0.113
-291.647	800.000	0.057	0.244
-290.632	-82.611	0.140	-0.045
-289.618	272.039	-0.160	0.278
-288.603	800.000	0.091	0.309
-287.589	226.505	0.131	-0.209
-286.574	-88.236	-0.212	0.063
-285.559	800.000	0.048	0.141
-284.545	42.862	0.068	0.061
-283.530	-101.453	0.135	0.032
-282.516	-181.446	-0.396	-0.008
-281.501	-194.351	0.248	-0.002
-280.486	9.129	-0.283	0.211
-279.472	-24.931	0.193	-0.113
-278.457	273.346	-0.078	-0.136
-277.443	-66.185	-0.423	-0.166
-276.428	800.000	-0.066	0.203
-275.413	-105.830	0.468	0.104
-274.399	-95.821	-0.251	-0.066
-273.384	-200.000	0.051	0.296
-272.370	800.000	0.058	0.170
-271.355	-200.000	-0.123	0.001
-270.340	800.000	-0.079	0.265
-269.326	-197.241	0.253	0.002
-268.311	221.470	0.222	-0.352
-267.297	-45.576	0.092	0.045
-266.282	-70.087	-0.223	0.084
-265.267	-45.493	-0.159	0.078
-264.253	800.000	-0.048	0.202
-263.238	31.772	-0.267	-0.227
-262.224	-22.007	-0.038	-0.023
-261.209	159.422	0.128	0.176
-260.195	-200.000	0.019	-0.191
-259.180	-66.976	0.170	-0.066
-258.165	-146.884	0.102	0.009
-257.151	-200.000	-0.033	-0.225
-256.136	-200.000	-0.068	0.367
-255.122	-74.338	0.198	0.071
-254.107	-115.848	0.262	-0.048
-253.092	18.999	-0.201	-0.159
-252.078	-200.000	-0.035	-0.452
-251.063	-98.727	-0.201	0.051
-250.049	81.166	-0.187	0.200
-249.034	800.000	-0.039	0.141
-248.019	800.000	-0.037	-0.143
-247.005	-42.787	0.133	-0.067
-245.990	96.420	-0.202	-0.227
-244.976	-200.000	-0.003	-0.152
-243.961	70.965	0.155	-0.158
-242.946	-133.480	0.130	-0.016
-241.932	-15.910	-0.147	-0.092
-240.917	-85.005	-0.386	-0.119
-239.903	137.735	0.138	-0.178
-238.888	-131.314	0.196	-0.026
-237.873	-67.706	-0.169	0.065
-236.859	-137.817	0.038	-0.004
-235.844	-20.977	-0.080	0.049
-234.830	-171.432	-0.272	-0.009
-233.815	141.051	0.062	0.081
-232.800	-144.328	0.221	0.020
-231.786	-200.000	0.015	0.119
-230.771	-168.205	0.407	0.016
-229.757	366.596	0.073	-0.145
-228.742	-129.287	-0.420	0.058
-227.727	-91.992	-0.191	0.053
-226.713	-66.692	0.181	0.071
-225.698	-87.527	-0.017	0.005
-224.684	-70.707	-0.145	0.054
-223.669	-35.595	0.023	0.012
-222.655	-200.000	0.002	-0.067
-221.640	-35.559	-0.267	0.143
-220.625	577.504	0.043	-0.104
-219.611	-78.750	0.169	-0.057
-218.596	167.940	0.061	0.086
-217.582	5.898	0.289	-0.211
-216.567	-178.441	0.106	-0.002
-215.552	-120.078	0.262	0.044
-214.538	709.319	-0.046	0.119
-213.523	1.908	-0.098	0.069
-212.509	-113.767	-0.304	-0.058
-211.494	63.240	0.087	-0.086
-210.479	-16.938	0.454	0.282
-209.465	-54.504	0.184	0.082
-208.450	13.074	0.070	-0.053
-207.436	-92.160	0.104	0.029
-206.421	80.654	-0.083	-0.088
-205.406	339.532	0.081	-0.155
-204.392	-30.302	-0.142	-0.079
-203.377	-106.579	-0.045	-0.010
-202.363	-38.668	-0.161	-0.084
-201.348	29.785	-0.329	0.276
-200.333	-101.803	0.352	0.084
-199.319	39.036	0.182	-0.160
-198.304	21.188	0.131	0.105
-197.290	800.000	0.019	0.080
-196.275	481.209	0.149	0.333
-195.260	800.000	0.058	0.160
-194.246	-103.953	0.297	0.068
-193.231	447.218	0.214	-0.464
-192.217	-200.000	0.028	-0.303
-191.202	800.000	-0.037	-0.127
-190.187	586.890	-0.130	-0.316
-189.173	-16.441	-0.244	0.152
-188.158	3.701	-0.114	0.082
-187.144	-200.000	-0.027	0.137
-186.129	-5.526	-0.118	0.080
-185.114	-39.338	0.284	0.147
-184.100	800.000	-0.090	0.289
-183.085	95.203	-0.096	0.108
-182.071	15.160	-0.098	-0.075
-181.056	-200.000	0.021	0.268
-180.042	188.277	-0.105	0.154
-179.027	-17.254	-0.215	-0.133
-178.012	127.719	0.107	-0.134
-176.998	800.000	-0.077	-0.305
-175.983	-200.000	0.072	0.434
-174.969	800.000	-0.008	0.024
-173.954	-109.026	0.269	-0.056
-172.939	-147.301	0.059	0.005
-171.925	-35.438	0.023	0.012
-170.910	35.234	-0.158	-0.136
-169.896	-93.043	0.238	-0.065
-168.881	-43.277	0.062	-0.031
-167.866	296.586	0.059	-0.105
-166.852	27.700	0.199	0.165
-165.837	49.009	-0.152	-0.140
-164.823	57.863	0.084	-0.081
-163.808	-80.758	0.084	0.028
-162.793	222.245	0.151	0.239
-161.779	-200.000	-0.020	0.207
-160.764	374.931	-0.098	0.196
-159.750	253.272	-0.082	-0.137
-158.735	-200.000	-0.029	-0.644
-157.720	-16.981	0.299	-0.186
-156.706	-200.000	0.002	0.115
-155.691	-200.000	0.000	-0.156
-154.677	-200.000	0.030	0.333
-153.662	-200.000	-0.050	-0.295
-152.647	-32.487	0.137	0.075
-151.633	412.787	0.056	0.118
-150.618	-27.741	0.410	0.234
-149.604	21.463	-0.059	0.047
-148.589	-72.381	0.092	0.033
-147.574	163.490	-0.121	-0.167
-146.560	-31.715	0.068	-0.037
-145.545	45.987	0.041	-0.037
-144.531	-200.000	0.017	0.201
-143.516	48.969	0.131	0.121
-142.502	-106.193	0.098	0.022
-141.487	209.957	0.111	0.172
-140.472	-200.000	0.006	-0.028
-139.458	96.690	-0.132	0.148
-138.443	256.484	0.245	-0.413
-137.429	47.953	0.098	0.090
-136.414	33.957	0.283	0.242
-135.399	404.840	-0.040	-0.084
-134.385	135.618	-0.110	-0.141
-133.370	34.799	-0.231	0.198
-132.356	36.829	-0.068	-0.059
-131.341	-102.128	-0.120	0.028
-130.326	-119.684	0.289	0.049
-129.312	342.175	0.088	0.169
-128.297	100.887	-0.184	-0.210
-127.283	-24.135	-0.312	-0.183
-126.268	-200.000	-0.042	-0.282
-125.253	800.000	-0.008	-0.031
-124.239	-110.811	0.205	-0.041
-123.224	1.060	0.044	0.031
-122.210	248.379	0.189	0.313
-121.195	-5.508	-0.110	-0.074
-120.180	-200.000	-0.008	0.118
