DTS Sentinel unit serial number:	SN413079Multiplexer serial number:	ORYXHardware model number:	OX4-SRSoftware version number:	ORYX F/W v4.00 Oryx Data Collector v3.7.2.0data status	okinstallation	princeton_trtdifferential loss correction	single-endedforward channel	channel 2reverse channel	N/Adate	2019/09/12time	10:05:11forward acquisition time	60.00reverse acquisition time	0.00gamma	496.2192k internal	0.2314k external	0.2314temperature offset calibration	1.0067default loss term (dB/km)	0.3790temperature slope calibration	1.0000multiplexer offset coefficient	1.0000multiplexer slope coefficient	1.0000fibre end	0.00T internal ref (°C)	36.31T ext. ref 1 (°C)	1.86T ext. ref 2 (°C)	33.24length (m)	temperature (°C)	Stokes	anti-Stokes-747.200	-145.587	0.143	0.013
-746.185	-31.833	-0.492	0.279
-745.171	41.299	-0.103	0.095
-744.156	800.000	0.120	0.400
-743.142	-173.128	0.187	-0.006
-742.127	-200.000	0.044	0.417
-741.112	252.447	0.129	0.222
-740.098	-200.000	-0.019	0.203
-739.083	-89.708	-0.119	0.035
-738.069	527.223	-0.168	0.401
-737.054	-34.776	0.087	0.048
-736.039	86.699	-0.216	-0.242
-735.025	-48.068	0.196	-0.096
-734.010	6.570	-0.279	0.210
-732.996	800.000	-0.034	-0.115
-731.981	-153.583	-0.277	-0.019
-730.966	-86.247	-0.486	-0.152
-729.952	55.857	-0.244	0.240
-728.937	800.000	-0.089	-0.263
-727.923	196.071	-0.144	0.223
-726.908	-106.045	-0.215	0.049
-725.894	243.236	-0.059	-0.100
-724.879	-70.756	0.240	-0.092
-723.864	-200.000	-0.001	-0.130
-722.850	800.000	-0.057	0.225
-721.835	-140.591	-0.152	-0.016
-720.821	-87.913	-0.221	-0.067
-719.806	224.115	-0.110	-0.179
-718.791	322.747	-0.119	-0.229
-717.777	-11.197	0.226	-0.151
-716.762	89.383	-0.122	0.138
-715.748	-21.864	0.191	0.117
-714.733	-3.172	-0.074	-0.053
-713.718	-51.917	0.094	-0.044
-712.704	-48.735	-0.275	-0.133
-711.689	17.775	0.102	-0.082
-710.675	-9.675	0.127	0.086
-709.660	109.074	-0.102	0.124
-708.645	131.741	0.083	-0.108
-707.631	-5.673	0.113	-0.078
-706.616	-166.401	0.396	-0.017
-705.602	-200.000	-0.032	-0.366
-704.587	-83.779	-0.213	0.069
-703.572	-121.606	0.037	-0.006
-702.558	540.897	0.057	-0.137
-701.543	800.000	-0.057	-0.216
-700.529	246.551	0.222	0.379
-699.514	-78.847	0.371	-0.128
-698.499	-87.748	-0.423	0.129
-697.485	800.000	0.129	0.440
-696.470	-200.000	0.206	0.001
-695.456	-200.000	-0.030	-0.511
-694.441	266.874	-0.164	-0.290
-693.426	83.760	-0.113	0.125
-692.412	-200.000	-0.035	0.414
-691.397	13.120	0.193	0.151
-690.383	-200.000	0.042	-0.226
-689.368	-200.000	-0.043	-0.255
-688.354	-200.000	0.010	-0.535
-687.339	621.674	-0.060	-0.152
-686.324	-200.000	-0.005	-0.189
-685.310	-200.000	-0.022	0.307
-684.295	-49.792	0.286	0.137
-683.281	24.276	0.160	0.134
-682.266	237.228	-0.070	-0.118
-681.251	-8.853	-0.051	-0.035
-680.237	676.541	-0.183	-0.481
-679.222	56.922	0.198	0.195
-678.208	2.186	-0.143	-0.105
-677.193	-200.000	-0.011	-0.061
-676.178	-169.870	-0.130	0.005
-675.164	-29.531	-0.157	-0.091
-674.149	294.655	-0.116	-0.214
-673.135	42.676	0.163	-0.150
-672.120	309.073	-0.109	0.206
-671.105	-107.476	0.091	-0.020
-670.091	125.990	-0.188	-0.241
-669.076	-183.703	-0.253	0.004
-668.062	-141.063	0.238	0.025
-667.047	425.860	0.071	0.154
-666.032	-83.019	-0.207	-0.068
-665.018	31.628	-0.276	-0.240
-664.003	79.248	0.096	-0.104
-662.989	-104.413	-0.140	-0.033
-661.974	-76.176	0.341	-0.122
-660.959	10.128	0.286	-0.219
-659.945	429.508	0.004	0.009
-658.930	800.000	0.009	-0.036
-657.916	-200.000	0.046	-0.441
-656.901	-178.702	0.177	-0.004
-655.886	352.554	0.101	0.202
-654.872	800.000	0.050	0.186
-653.857	-140.976	0.326	0.034
-652.843	-7.027	-0.149	0.102
-651.828	-49.473	-0.437	0.210
-650.814	-200.000	-0.021	0.164
-649.799	-105.588	-0.276	-0.063
-648.784	254.159	-0.078	0.134
-647.770	-60.735	-0.125	0.053
-646.755	35.320	0.206	0.182
-645.741	718.853	-0.090	-0.241
-644.726	154.177	-0.309	-0.428
-643.711	332.478	-0.018	-0.035
-642.697	71.227	0.346	0.362
-641.682	-51.273	-0.275	-0.130
-640.668	-166.711	0.211	0.009
-639.653	-164.502	0.169	-0.008
-638.638	-85.041	0.166	-0.053
-637.624	416.205	0.061	0.131
-636.609	364.132	-0.065	-0.132
-635.595	120.126	0.093	0.116
-634.580	3.373	0.068	0.050
-633.565	-149.813	0.315	-0.025
-632.551	-186.200	0.246	0.004
-631.536	-80.996	0.164	-0.055
-630.522	-107.754	0.424	-0.093
-629.507	-175.277	-0.204	-0.006
-628.492	111.303	-0.044	0.054
-627.478	262.359	0.093	0.164
-626.463	-200.000	-0.006	-0.298
-625.449	182.917	0.125	0.186
-624.434	-33.681	-0.072	0.040
-623.419	-89.669	-0.298	0.088
-622.405	3.996	0.220	0.162
-621.390	-200.000	0.002	0.076
-620.376	326.837	-0.064	-0.123
-619.361	-42.622	0.164	0.084
-618.346	-183.118	-0.452	0.008
-617.332	160.139	0.125	-0.176
-616.317	-96.398	0.244	0.065
-615.303	-37.130	0.305	-0.165
-614.288	-200.000	0.002	-0.050
-613.273	320.709	-0.136	0.260
-612.259	-52.509	-0.319	-0.149
-611.244	-183.444	-0.295	0.005
-610.230	474.152	-0.183	0.417
-609.215	456.648	0.110	0.246
-608.201	390.226	-0.071	-0.147
-607.186	-12.521	-0.269	-0.177
-606.171	800.000	-0.028	-0.084
-605.157	-36.604	-0.275	-0.149
-604.142	-110.718	-0.238	0.050
-603.128	800.000	0.027	-0.106
-602.113	-3.393	0.247	0.174
-601.098	800.000	-0.040	0.124
-600.084	15.330	-0.197	0.156
-599.069	75.130	-0.214	0.227
-598.055	-136.528	-0.370	0.043
-597.040	146.245	-0.088	0.119
-596.025	-200.000	-0.047	-0.390
-595.011	9.181	-0.175	-0.133
-593.996	-200.000	-0.000	0.078
-592.982	-146.050	-0.059	-0.005
-591.967	-130.249	0.352	0.048
-590.952	-200.000	0.007	0.160
-589.938	-25.437	0.142	-0.085
-588.923	23.885	0.278	-0.231
-587.909	45.791	-0.073	-0.068
-586.894	-200.000	0.008	-0.078
-585.879	-103.248	0.442	0.105
-584.865	69.488	-0.139	0.145
-583.850	-18.112	-0.127	0.080
-582.836	97.679	0.227	-0.263
-581.821	118.248	0.171	-0.212
-580.806	-123.099	0.107	0.017
-579.792	-53.398	0.054	0.025
-578.777	67.722	0.277	-0.285
-577.763	287.261	0.067	-0.122
-576.748	-200.000	-0.028	-0.298
-575.733	-89.074	0.241	0.072
-574.719	-63.295	-0.329	-0.137
-573.704	25.931	-0.043	-0.036
-572.690	787.839	-0.057	0.159
-571.675	-22.177	-0.091	0.056
-570.661	410.927	0.113	0.242
-569.646	-166.404	-0.367	-0.016
-568.631	399.472	-0.063	0.133
-567.617	477.761	0.067	-0.153
-566.602	126.422	0.147	0.188
-565.588	-200.000	0.065	0.357
-564.573	-69.219	0.139	-0.054
-563.558	96.948	-0.162	0.187
-562.544	35.536	-0.306	-0.270
-561.529	-200.000	-0.045	-0.229
-560.515	254.491	0.142	-0.244
-559.500	93.273	-0.266	-0.303
-558.485	36.112	0.097	0.086
-557.471	5.456	-0.244	-0.182
-556.456	-0.738	0.123	-0.088
-555.442	800.000	0.035	-0.125
-554.427	-55.352	0.118	-0.053
-553.412	754.020	-0.177	-0.482
-552.398	92.850	0.150	0.170
-551.383	121.710	0.180	0.225
-550.369	-2.963	-0.174	0.122
-549.354	-115.097	-0.157	-0.030
-548.339	-16.389	-0.131	-0.084
-547.325	233.163	-0.049	0.082
-546.310	-143.213	0.120	-0.012
-545.296	-200.000	-0.026	-0.160
-544.281	-76.571	-0.019	0.007
-543.266	10.484	-0.096	0.074
-542.252	115.234	0.179	-0.220
-541.237	-200.000	-0.056	-0.434
-540.223	-102.536	0.320	0.077
-539.208	-56.152	0.140	-0.063
-538.193	-200.000	0.076	0.369
-537.179	-200.000	-0.026	0.269
-536.164	87.121	-0.115	-0.128
-535.150	-62.592	-0.271	0.113
-534.135	150.624	-0.106	-0.144
-533.121	184.595	0.064	-0.096
-532.106	800.000	-0.050	0.155
-531.091	-200.000	-0.004	0.067
-530.077	691.936	0.046	-0.122
-529.062	-110.169	0.061	0.013
-528.048	158.249	0.182	-0.254
-527.033	397.805	-0.140	-0.294
-526.018	515.440	-0.018	-0.042
-525.004	31.901	0.349	-0.302
-523.989	236.886	-0.090	-0.150
-522.975	702.380	-0.018	-0.049
-521.960	-98.939	0.393	-0.100
-520.945	14.095	-0.220	0.172
-519.931	95.922	-0.171	-0.197
-518.916	109.483	-0.104	-0.126
-517.902	-127.595	0.233	-0.034
-516.887	-111.980	-0.216	0.044
-515.872	-200.000	-0.030	0.166
-514.858	40.468	-0.168	-0.152
-513.843	-200.000	-0.001	0.093
-512.829	-8.208	0.075	-0.051
-511.814	-84.563	-0.133	0.042
-510.799	800.000	0.063	0.218
-509.785	800.000	-0.082	-0.297
-508.770	-200.000	-0.005	-0.025
-507.756	-141.222	0.249	0.025
-506.741	175.053	0.114	0.166
-505.726	24.906	-0.197	0.164
-504.712	800.000	0.044	-0.126
-503.697	10.769	0.203	0.156
-502.683	-75.395	0.141	-0.050
-501.668	-200.000	0.002	-0.017
-500.653	-200.000	0.039	-0.270
-499.639	800.000	-0.050	-0.143
-498.624	54.840	-0.113	-0.109
-497.610	102.049	0.297	-0.348
-496.595	83.943	-0.193	0.212
-495.581	122.671	-0.106	-0.133
-494.566	80.976	-0.109	-0.119
-493.551	-78.228	0.121	-0.042
-492.537	-0.425	0.182	-0.130
-491.522	800.000	0.125	0.524
-490.508	-200.000	0.004	-0.053
-489.493	28.522	-0.139	-0.118
-488.478	-200.000	0.004	-0.071
-487.464	231.716	-0.125	-0.206
-486.449	-200.000	0.004	-0.291
-485.435	701.876	0.087	0.229
-484.420	388.309	-0.113	0.234
-483.405	431.757	-0.036	-0.077
-482.391	17.841	0.143	-0.115
-481.376	96.590	-0.187	-0.215
-480.362	-200.000	0.003	0.106
-479.347	-84.463	-0.360	0.114
-478.332	-13.292	0.041	0.026
-477.318	73.471	0.022	0.023
-476.303	386.712	-0.044	-0.091
-475.289	-128.858	-0.145	-0.021
-474.274	22.526	0.104	0.085
-473.259	93.235	-0.103	-0.117
-472.245	59.229	0.233	-0.230
-471.230	800.000	0.072	-0.259
-470.216	-160.862	0.144	0.008
-469.201	497.106	-0.036	-0.083
-468.186	-200.000	0.044	0.219
-467.172	-200.000	0.010	0.175
-466.157	-97.007	0.195	0.051
-465.143	7.000	-0.072	0.054
-464.128	26.431	0.052	0.044
-463.113	21.189	0.269	-0.219
-462.099	-199.950	-0.368	0.002
-461.084	-200.000	0.015	0.384
-460.070	707.937	-0.085	-0.225
-459.055	-181.331	0.344	0.007
-458.040	99.382	-0.072	-0.084
-457.026	304.340	0.013	0.024
-456.011	689.795	-0.096	0.252
-454.997	-13.572	-0.322	-0.209
-453.982	96.046	-0.067	0.076
-452.968	194.769	0.066	0.100
-451.953	748.261	-0.151	0.409
-450.938	82.145	-0.170	0.185
-449.924	114.156	-0.186	-0.227
-448.909	800.000	-0.014	0.041
-447.895	124.476	0.073	-0.092
-446.880	147.432	-0.024	0.032
-445.865	238.721	-0.105	-0.175
-444.851	233.128	0.097	0.160
-443.836	54.827	-0.246	0.238
-442.822	152.870	-0.115	0.158
-441.807	-15.937	-0.201	-0.128
-440.792	-61.425	0.288	-0.121
-439.778	-58.990	0.119	0.052
-438.763	121.532	0.149	-0.186
-437.749	39.765	-0.209	0.188
-436.734	-4.938	0.186	-0.128
-435.719	158.755	-0.087	0.121
-434.705	-158.756	-0.094	-0.005
-433.690	56.004	0.114	0.110
-432.676	-89.368	-0.088	0.026
-431.661	5.528	-0.121	-0.089
-430.646	-96.699	0.165	-0.044
-429.632	18.953	-0.203	-0.163
-428.617	151.138	-0.139	0.189
-427.603	18.208	-0.166	-0.132
-426.588	-195.012	0.237	-0.002
-425.573	157.741	0.058	0.080
-424.559	-1.017	-0.110	0.078
-423.544	800.000	-0.076	0.241
-422.530	10.779	-0.063	-0.048
-421.515	800.000	0.019	0.072
-420.500	-65.721	0.034	0.014
-419.486	-43.742	-0.236	0.119
-418.471	526.332	0.063	-0.148
-417.457	-4.775	0.266	0.184
-416.442	112.975	-0.102	-0.124
-415.428	-92.447	0.068	-0.019
-414.413	800.000	-0.148	0.415
-413.398	-200.000	-0.008	-0.327
-412.384	-200.000	0.028	-0.237
-411.369	503.807	-0.081	-0.188
-410.355	92.354	0.171	0.193
-409.340	-200.000	0.024	-0.279
-408.325	-18.270	-0.255	0.160
-407.311	-200.000	-0.053	0.318
-406.296	-93.207	0.123	-0.034
-405.282	459.581	0.072	0.161
-404.267	-93.670	-0.311	-0.086
-403.252	46.834	0.132	0.123
-402.238	-49.254	0.060	0.028
-401.223	-48.034	0.041	0.020
-400.209	594.725	-0.077	-0.191
-399.194	536.631	0.188	-0.447
-398.179	796.259	-0.100	0.276
-397.165	300.176	0.017	0.031
-396.150	-27.839	-0.438	0.254
-395.136	17.666	0.057	-0.045
-394.121	800.000	-0.028	-0.083
-393.106	7.614	0.247	-0.185
-392.092	198.197	0.216	-0.330
-391.077	314.418	0.169	-0.318
-390.063	-104.120	-0.061	-0.014
-389.048	438.501	-0.111	0.241
-388.033	253.748	0.027	-0.046
-387.019	175.707	0.157	-0.228
-386.004	17.854	-0.263	0.210
-384.990	-45.309	-0.279	0.138
-383.975	192.421	0.166	0.251
-382.960	-58.604	0.423	-0.183
-381.946	54.527	0.172	0.166
-380.931	16.622	-0.231	-0.182
-379.917	-50.030	0.240	-0.114
-378.902	133.324	-0.110	0.142
-377.888	-14.683	-0.136	-0.087
-376.873	88.406	0.156	-0.173
-375.858	-51.692	-0.109	-0.051
-374.844	-103.004	-0.233	0.055
-373.829	35.052	-0.280	-0.245
-372.815	316.835	-0.126	0.237
-371.800	99.769	0.213	0.246
-370.785	-200.000	-0.026	0.177
-369.771	142.422	0.065	0.086
-368.756	-200.000	-0.030	0.175
-367.742	135.020	-0.148	-0.192
-366.727	-153.962	0.014	0.001
-365.712	800.000	-0.099	0.341
-364.698	11.791	-0.174	0.134
-363.683	-82.127	-0.178	-0.058
-362.669	-94.269	0.063	-0.017
-361.654	121.822	0.106	0.132
-360.639	-122.154	0.306	0.050
-359.625	230.232	0.136	-0.223
-358.610	-120.106	0.349	-0.060
-357.596	144.797	-0.173	-0.231
-356.581	800.000	-0.027	-0.085
-355.566	-130.608	-0.469	0.063
-354.552	49.929	-0.076	0.071
-353.537	453.699	0.105	0.232
-352.523	-147.385	-0.138	-0.012
-351.508	-200.000	-0.012	0.139
-350.493	-137.021	-0.250	0.029
-349.479	-32.705	0.225	-0.125
-348.464	-122.888	-0.249	-0.040
-347.450	721.475	0.047	-0.124
-346.435	54.451	-0.118	-0.113
-345.420	800.000	0.047	0.155
-344.406	613.745	-0.075	0.188
-343.391	55.625	0.219	-0.212
-342.377	11.224	-0.351	-0.268
-341.362	-62.383	0.441	0.183
-340.348	-30.457	0.036	-0.021
-339.333	-53.752	-0.135	0.062
-338.318	-134.049	-0.165	0.020
-337.304	72.406	-0.310	-0.322
-336.289	-200.000	0.026	-0.209
-335.275	65.226	-0.112	-0.113
-334.260	-141.201	0.087	0.009
-333.245	402.080	0.048	0.100
-332.231	-149.250	-0.212	-0.017
-331.216	-126.768	0.024	-0.004
-330.202	364.555	-0.004	0.009
-329.187	-20.605	0.032	0.020
-328.172	-74.639	-0.450	0.161
-327.158	-200.000	-0.026	-0.148
-326.143	-88.255	0.294	-0.088
-325.129	34.276	-0.312	0.272
-324.114	43.519	0.050	0.045
-323.099	537.761	0.109	-0.258
-322.085	309.737	0.010	0.019
-321.070	-22.282	0.259	-0.156
-320.056	352.416	0.039	-0.078
-319.041	-200.000	0.023	0.319
-318.026	-111.908	0.299	0.060
-317.012	-90.276	-0.082	-0.024
-315.997	-130.014	0.326	-0.044
-314.983	-48.421	-0.490	0.235
-313.968	-200.000	0.042	-0.249
-312.953	163.020	0.192	0.269
-311.939	-74.019	-0.158	-0.057
-310.924	17.183	0.274	-0.216
-309.910	-41.300	0.256	-0.131
-308.895	-112.584	-0.207	-0.041
-307.880	57.015	-0.139	0.135
-306.866	-200.000	0.068	0.451
-305.851	-200.000	0.011	0.229
-304.837	107.401	-0.154	0.182
-303.822	208.668	0.099	-0.154
-302.807	493.638	0.089	-0.202
-301.793	-11.689	-0.252	-0.165
-300.778	60.298	0.225	0.222
-299.764	-200.000	0.003	0.169
-298.749	-36.556	0.320	-0.171
-297.735	-200.000	-0.024	-0.235
-296.720	-200.000	0.024	-0.140
-295.705	800.000	-0.084	0.329
-294.691	-131.973	-0.336	-0.044
-293.676	1.975	0.251	0.180
-292.662	800.000	0.013	0.054
-291.647	229.055	0.188	-0.305
-290.632	-200.000	0.011	0.240
-289.618	114.000	0.144	0.174
-288.603	104.324	0.037	0.044
-287.589	70.795	-0.078	0.080
-286.574	-200.000	-0.049	0.311
-285.559	-121.780	0.267	0.044
-284.545	244.182	-0.057	0.096
-283.530	-73.268	0.282	0.103
-282.516	264.499	0.141	-0.245
-281.501	-200.000	-0.027	0.223
-280.486	-136.257	0.159	-0.018
-279.472	800.000	-0.047	-0.187
-278.457	-28.997	0.025	-0.014
-277.443	800.000	-0.048	-0.196
-276.428	-12.881	-0.101	0.066
-275.413	-200.000	-0.041	0.182
-274.399	-158.655	0.339	0.019
-273.384	514.733	0.045	0.104
-272.370	-51.544	0.180	0.084
-271.355	-6.750	-0.253	0.171
-270.340	-22.635	-0.204	0.123
-269.326	268.466	-0.133	0.232
-268.311	44.025	-0.062	-0.056
-267.297	800.000	-0.102	0.304
-266.282	97.763	-0.239	0.273
-265.267	263.608	-0.121	-0.209
-264.253	800.000	0.089	-0.337
-263.238	-8.836	0.406	0.271
-262.224	15.947	-0.137	-0.107
-261.209	582.199	-0.046	-0.113
-260.195	280.404	0.089	0.158
-259.180	-200.000	-0.059	-0.321
-258.165	-200.000	0.006	-0.585
-257.151	-157.875	0.389	0.023
-256.136	415.509	-0.039	-0.084
-255.122	459.524	0.051	-0.113
-254.107	567.458	0.102	0.247
-253.092	-114.514	-0.300	-0.057
-252.078	-74.201	-0.322	-0.116
-251.063	93.274	0.267	0.300
-250.049	-59.569	-0.158	-0.068
-249.034	800.000	-0.056	0.186
-248.019	-162.384	-0.256	-0.013
-247.005	62.282	0.123	-0.122
-245.990	-161.712	-0.345	0.017
-244.976	-82.993	-0.050	0.016
-243.961	800.000	0.019	0.069
-242.946	-125.324	-0.185	-0.028
-241.932	30.021	0.252	-0.214
-240.917	-89.896	0.177	-0.051
-239.903	-200.000	-0.015	0.126
-238.888	389.531	-0.152	0.313
-237.873	-69.819	-0.142	-0.054
-236.859	94.925	0.032	-0.037
-235.844	67.594	0.093	0.094
-234.830	117.727	-0.120	0.147
-233.815	-200.000	-0.025	-0.201
-232.800	439.757	-0.144	0.312
-231.786	748.581	0.102	0.273
-230.771	85.287	0.252	0.274
-229.757	-18.960	0.039	0.024
-228.742	250.452	-0.092	0.155
-227.727	-88.622	-0.287	-0.085
-226.713	-200.000	-0.060	0.295
-225.698	-74.502	0.367	-0.131
-224.684	101.319	0.187	0.216
-223.669	-200.000	-0.031	-0.215
-222.655	-40.263	0.127	0.066
-221.640	-106.024	0.174	0.039
-220.625	38.471	-0.072	0.064
-219.611	-98.741	-0.203	-0.051
-218.596	-8.956	0.138	-0.092
-217.582	76.974	0.111	-0.117
-216.567	94.706	-0.169	-0.191
-215.552	-50.526	0.206	-0.097
-214.538	800.000	-0.110	0.322
-213.523	53.076	-0.130	-0.124
-212.509	-200.000	-0.010	0.164
-211.494	-200.000	-0.080	-0.450
-210.479	276.087	0.123	-0.217
-209.465	-200.000	0.022	-0.106
-208.450	469.826	0.086	0.192
-207.436	-41.982	-0.017	0.009
-206.421	-163.363	0.293	-0.014
-205.406	-50.385	0.235	0.110
-204.392	137.008	-0.332	-0.431
-203.377	-89.661	-0.041	-0.012
-202.363	-89.491	-0.310	-0.090
-201.348	-200.000	0.031	0.199
-200.333	472.652	0.048	0.108
-199.319	124.020	-0.190	0.236
-198.304	-111.223	-0.128	0.026
-197.290	-77.732	0.261	0.090
-196.275	-200.000	-0.040	-0.307
-195.260	98.841	-0.095	0.109
-194.246	265.327	0.074	0.128
-193.231	197.259	0.151	0.229
-192.217	-88.620	0.140	0.041
-191.202	-200.000	0.042	0.278
-190.187	69.608	-0.327	-0.334
-189.173	86.491	-0.078	0.085
-188.158	800.000	-0.025	0.086
-187.144	-19.894	-0.134	-0.082
-186.129	654.108	-0.082	-0.208
-185.114	-200.000	0.033	-0.205
-184.100	433.598	0.203	0.438
-183.085	-200.000	-0.002	0.111
-182.071	-186.388	-0.329	-0.005
-181.056	180.769	0.110	0.160
-180.042	404.606	0.036	0.075
-179.027	-200.000	-0.033	-0.219
-178.012	-98.333	0.328	-0.083
-176.998	221.850	-0.246	0.393
-175.983	800.000	0.093	-0.272
-174.969	-104.701	0.305	0.070
-173.954	-158.463	0.342	0.020
-172.939	0.189	0.376	-0.266
-171.925	755.861	-0.018	0.047
-170.910	-58.304	-0.074	0.032
-169.896	800.000	0.081	-0.292
-168.881	-39.759	-0.216	-0.112
-167.866	-7.852	0.048	0.032
-166.852	-200.000	-0.028	-0.185
-165.837	-10.233	0.322	0.212
-164.823	-55.549	0.130	0.058
-163.808	728.871	0.011	-0.029
-162.793	34.281	-0.364	0.315
-161.779	493.688	0.108	0.246
-160.764	-200.000	0.044	0.191
-159.750	-61.212	0.363	-0.152
-158.735	536.883	-0.021	-0.048
-157.720	-114.320	0.283	-0.054
-156.706	326.852	-0.157	-0.298
-155.691	-200.000	0.015	0.147
-154.677	-127.404	0.445	0.064
-153.662	-200.000	0.004	0.187
-152.647	64.000	0.124	-0.123
-151.633	-128.691	-0.240	-0.034
-150.618	-200.000	-0.016	-0.094
-149.604	-200.000	-0.016	-0.169
-148.589	18.679	0.042	0.033
-147.574	393.532	0.187	0.385
-146.560	-200.000	0.010	-0.112
-145.545	-10.322	-0.062	-0.041
-144.531	-49.521	0.265	0.125
-143.516	62.901	-0.191	-0.190
-142.502	-200.000	-0.052	-0.328
-141.487	24.145	0.094	0.077
-140.472	-82.428	-0.233	-0.075
-139.458	-78.301	0.075	-0.025
-138.443	-200.000	0.059	0.381
-137.429	800.000	-0.032	-0.120
-136.414	-88.629	-0.346	-0.102
-135.399	-97.315	0.225	0.058
-134.385	800.000	-0.092	0.271
-133.370	800.000	0.097	0.333
-132.356	715.886	-0.037	-0.098
-131.341	-200.000	-0.023	-0.148
-130.326	-155.460	-0.281	-0.018
-129.312	72.241	-0.198	0.205
-128.297	-124.238	-0.111	0.017
-127.283	33.928	-0.095	0.082
-126.268	-185.343	0.168	-0.003
-125.253	102.167	0.059	-0.068
-124.239	-200.000	0.038	0.227
-123.224	258.436	-0.017	-0.030
-122.210	272.976	-0.085	-0.149
-121.195	25.156	-0.258	-0.212
-120.180	101.812	0.202	-0.233
