DTS Sentinel unit serial number:	SN413079Multiplexer serial number:	ORYXHardware model number:	OX4-SRSoftware version number:	ORYX F/W v4.00 Oryx Data Collector v3.7.2.0data status	okinstallation	princeton_trtdifferential loss correction	single-endedforward channel	channel 2reverse channel	N/Adate	2019/09/12time	15:53:10forward acquisition time	60.00reverse acquisition time	0.00gamma	496.2192k internal	0.2307k external	0.2307temperature offset calibration	1.0104default loss term (dB/km)	0.3790temperature slope calibration	1.0000multiplexer offset coefficient	1.0000multiplexer slope coefficient	1.0000fibre end	0.00T internal ref (°C)	39.41T ext. ref 1 (°C)	2.47T ext. ref 2 (°C)	32.33length (m)	temperature (°C)	Stokes	anti-Stokes-747.200	-105.714	-0.070	-0.016
-746.185	144.848	0.064	0.087
-745.171	-54.984	-0.325	0.149
-744.156	-200.000	0.000	0.240
-743.142	-90.562	0.352	0.104
-742.127	800.000	0.041	0.172
-741.112	64.603	-0.156	0.160
-740.098	111.700	-0.099	0.122
-739.083	-173.098	0.309	-0.010
-738.069	-122.932	0.147	-0.024
-737.054	-79.795	-0.031	-0.011
-736.039	162.648	0.064	-0.091
-735.025	-200.000	0.010	0.239
-734.010	-140.723	-0.165	0.017
-732.996	-89.456	-0.889	-0.266
-731.981	96.826	-0.094	-0.109
-730.966	160.089	-0.118	0.167
-729.952	77.490	0.093	-0.101
-728.937	141.962	0.066	0.089
-727.923	-116.480	-0.263	0.049
-726.908	25.303	-0.126	-0.107
-725.894	-200.000	-0.055	-0.333
-724.879	67.257	-0.145	-0.150
-723.864	560.754	0.133	0.327
-722.850	-57.693	0.157	-0.070
-721.835	-200.000	-0.049	-0.329
-720.821	33.622	-0.215	-0.190
-719.806	273.115	-0.128	-0.229
-718.791	-34.723	-0.177	-0.098
-717.777	-0.245	-0.171	0.124
-716.762	405.653	-0.168	-0.361
-715.748	600.568	0.045	-0.113
-714.733	219.183	0.224	-0.364
-713.718	-70.701	0.068	0.026
-712.704	-108.988	-0.280	-0.061
-711.689	-9.602	-0.161	0.109
-710.675	-200.000	0.044	0.247
-709.660	800.000	0.016	0.055
-708.645	-75.057	0.157	0.057
-707.631	86.368	-0.096	0.107
-706.616	800.000	0.042	0.125
-705.602	-200.000	-0.007	-0.060
-704.587	800.000	0.041	0.165
-703.572	-33.114	-0.102	0.057
-702.558	78.169	-0.147	0.159
-701.543	-95.260	0.275	-0.075
-700.529	-70.465	0.129	0.050
-699.514	-200.000	-0.071	-0.431
-698.499	-25.855	0.084	0.050
-697.485	-200.000	0.027	0.142
-696.470	-200.000	0.040	0.395
-695.456	-69.222	0.096	0.037
-694.441	213.005	-0.165	0.264
-693.426	-83.587	0.057	-0.018
-692.412	-41.420	-0.180	0.094
-691.397	-50.486	-0.166	-0.080
-690.383	-200.000	0.012	-0.164
-689.368	-75.744	0.291	0.105
-688.354	-200.000	0.015	-0.296
-687.339	-200.000	-0.052	-0.454
-686.324	71.369	-0.234	0.246
-685.310	26.962	-0.245	-0.209
-684.295	-42.349	0.239	0.124
-683.281	-105.164	0.136	-0.031
-682.266	-49.029	0.126	-0.061
-681.251	-34.424	0.399	-0.222
-680.237	-61.115	-0.449	-0.192
-679.222	119.809	-0.083	-0.105
-678.208	800.000	0.097	-0.292
-677.193	-106.080	0.150	0.034
-676.178	-19.776	-0.345	0.216
-675.164	167.859	-0.020	0.029
-674.149	20.457	0.255	0.209
-673.135	45.054	-0.168	0.157
-672.120	-200.000	-0.018	0.276
-671.105	-85.550	0.437	-0.138
-670.091	447.865	0.071	-0.158
-669.076	-68.834	-0.297	-0.116
-668.062	360.795	0.105	0.214
-667.047	-200.000	-0.012	0.071
-666.032	123.552	0.135	-0.171
-665.018	-200.000	-0.011	0.157
-664.003	26.477	0.080	0.068
-662.989	177.760	-0.028	-0.041
-661.974	-133.006	0.174	0.022
-660.959	12.087	-0.296	0.231
-659.945	-138.931	0.189	-0.021
-658.930	63.790	-0.192	0.195
-657.916	136.365	-0.139	0.184
-656.901	-200.000	0.030	0.196
-655.886	337.223	-0.102	-0.201
-654.872	58.978	0.103	0.102
-653.857	368.790	-0.158	-0.324
-652.843	6.489	0.036	0.027
-651.828	133.829	-0.199	-0.261
-650.814	249.146	0.056	0.096
-649.799	93.840	0.086	0.099
-648.784	-200.000	-0.092	0.454
-647.770	-158.500	-0.203	-0.012
-646.755	31.531	-0.037	0.032
-645.741	111.030	-0.221	0.269
-644.726	175.866	-0.218	-0.320
-643.711	-101.535	0.167	0.041
-642.697	-150.766	0.186	-0.014
-641.682	-200.000	0.035	0.179
-640.668	221.981	-0.131	-0.214
-639.653	-161.610	0.169	-0.009
-638.638	-200.000	-0.039	-0.228
-637.624	482.726	-0.161	0.370
-636.609	800.000	-0.109	0.313
-635.595	351.971	-0.049	0.098
-634.580	-172.281	0.333	0.011
-633.565	-6.604	-0.111	-0.076
-632.551	-16.862	-0.158	-0.101
-631.536	-78.250	-0.159	-0.055
-630.522	-54.074	0.228	-0.105
-629.507	67.719	-0.036	0.038
-628.492	277.335	0.079	-0.142
-627.478	-79.452	0.103	-0.035
-626.463	-90.942	-0.278	-0.081
-625.449	4.304	0.241	-0.179
-624.434	251.189	0.124	0.213
-623.419	-74.798	0.203	0.074
-622.405	-200.000	-0.013	0.060
-621.390	800.000	-0.106	0.340
-620.376	-91.841	-0.085	-0.024
-619.361	45.662	-0.088	-0.082
-618.346	-200.000	0.032	-0.141
-617.332	-134.674	-0.250	0.031
-616.317	437.072	0.047	-0.104
-615.303	800.000	0.125	0.408
-614.288	-200.000	-0.068	0.373
-613.273	144.974	0.093	-0.126
-612.259	-200.000	0.005	-0.051
-611.244	255.906	0.153	-0.266
-610.230	251.202	-0.119	-0.205
-609.215	800.000	0.060	-0.210
-608.201	800.000	-0.071	0.260
-607.186	1.018	0.077	-0.056
-606.171	79.648	0.153	0.166
-605.157	38.203	-0.141	0.127
-604.142	-19.097	0.431	0.271
-603.128	214.612	0.109	-0.175
-602.113	141.413	-0.140	0.187
-601.098	-94.627	0.161	0.044
-600.084	23.857	-0.056	0.047
-599.069	90.758	-0.115	0.131
-598.055	247.107	-0.043	-0.073
-597.040	115.133	0.070	0.086
-596.025	382.674	0.106	-0.220
-595.011	7.971	-0.147	-0.111
-593.996	6.080	0.226	-0.169
-592.982	-8.271	-0.061	0.042
-591.967	-200.000	-0.032	0.256
-590.952	24.919	0.155	0.130
-589.938	264.829	0.126	-0.222
-588.923	800.000	0.075	0.294
-587.909	19.380	0.181	0.147
-586.894	-109.927	0.069	-0.015
-585.879	800.000	-0.122	0.392
-584.865	132.310	-0.159	-0.207
-583.850	130.652	-0.083	0.107
-582.836	800.000	-0.045	-0.162
-581.821	800.000	-0.095	-0.294
-580.806	42.041	0.126	-0.116
-579.792	800.000	0.022	-0.095
-578.777	362.428	-0.091	-0.184
-577.763	-200.000	-0.029	-0.199
-576.748	83.347	-0.309	-0.340
-575.733	-38.241	-0.093	-0.050
-574.719	-129.301	0.109	0.015
-573.704	45.153	-0.181	0.169
-572.690	147.833	0.080	0.109
-571.675	160.395	-0.140	0.197
-570.661	-57.733	0.189	0.084
-569.646	-200.000	-0.044	-0.576
-568.631	-200.000	0.010	-0.123
-567.617	-75.799	-0.234	0.084
-566.602	-98.321	-0.518	0.134
-565.588	-28.029	0.131	-0.076
-564.573	26.426	-0.188	-0.159
-563.558	96.591	0.110	0.127
-562.544	132.591	-0.110	-0.143
-561.529	190.971	0.065	-0.099
-560.515	3.472	0.285	-0.210
-559.500	24.315	-0.315	0.263
-558.485	265.502	0.112	0.196
-557.471	-51.083	0.181	0.086
-556.456	226.011	0.042	0.070
-555.442	-51.776	-0.116	0.054
-554.427	26.171	-0.019	0.016
-553.412	800.000	0.069	0.207
-552.398	-83.179	-0.155	0.050
-551.383	19.487	0.230	-0.187
-550.369	277.966	0.029	0.053
-549.354	602.243	-0.040	-0.100
-548.339	-158.505	0.089	-0.005
-547.325	-35.591	0.155	-0.085
-546.310	-84.858	-0.400	-0.127
-545.296	-200.000	0.018	-0.171
-544.281	101.044	0.176	0.207
-543.266	800.000	0.068	0.193
-542.252	-114.240	-0.110	0.021
-541.237	149.630	0.178	0.243
-540.223	-86.413	-0.275	-0.085
-539.208	-200.000	0.039	-0.221
-538.193	-11.577	-0.053	-0.035
-537.179	129.068	0.163	0.209
-536.164	134.208	-0.044	0.057
-535.150	800.000	-0.075	-0.270
-534.135	189.415	0.067	-0.101
-533.121	800.000	-0.035	0.098
-532.106	27.628	-0.109	-0.093
-531.091	-185.076	0.270	0.004
-530.077	-44.472	0.236	0.119
-529.062	129.877	-0.076	-0.099
-528.048	-32.697	-0.115	0.064
-527.033	362.538	0.035	0.071
-526.018	-200.000	0.022	-0.344
-525.004	265.811	-0.016	0.027
-523.989	-174.996	0.479	-0.013
-522.975	27.688	0.181	-0.154
-521.960	-200.000	-0.028	0.125
-520.945	145.878	-0.184	-0.249
-519.931	-107.088	-0.284	-0.063
-518.916	250.641	-0.115	-0.197
-517.902	-31.454	0.124	-0.070
-516.887	-32.799	-0.061	-0.034
-515.872	9.729	-0.145	-0.111
-514.858	83.410	-0.162	-0.178
-513.843	-194.568	-0.186	-0.001
-512.829	-112.188	0.057	0.012
-511.814	403.800	0.094	0.199
-510.799	11.442	0.132	0.102
-509.785	-101.007	0.406	0.100
-508.770	-200.000	0.006	-0.049
-507.756	-200.000	0.021	-0.167
-506.741	-140.363	0.054	-0.006
-505.726	31.668	0.316	0.273
-504.712	24.042	0.257	0.214
-503.697	-100.440	0.103	-0.026
-502.683	800.000	0.026	0.072
-501.668	-4.363	-0.203	-0.141
-500.653	800.000	-0.068	0.223
-499.639	-128.532	0.290	-0.041
-498.624	127.892	-0.262	0.336
-497.610	-109.019	-0.151	0.032
-496.595	91.135	0.329	0.372
-495.581	-147.299	-0.156	0.013
-494.566	-189.438	-0.400	0.005
-493.551	-200.000	-0.014	-0.122
-492.537	-0.653	-0.178	0.127
-491.522	452.308	-0.016	0.036
-490.508	-113.475	0.101	0.020
-489.493	-156.500	0.196	-0.012
-488.478	421.023	0.117	0.252
-487.464	-76.494	0.309	-0.109
-486.449	-176.333	0.126	-0.003
-485.435	186.570	0.096	-0.145
-484.420	-200.000	0.006	-0.302
-483.405	-200.000	0.003	0.145
-482.391	-112.400	-0.192	-0.039
-481.376	30.515	-0.305	-0.262
-480.362	106.402	0.169	-0.202
-479.347	-128.837	-0.080	0.011
-478.332	517.378	0.045	-0.106
-477.318	-93.601	-0.208	0.058
-476.303	10.413	0.214	-0.164
-475.289	-200.000	-0.008	-0.229
-474.274	-200.000	-0.013	-0.317
-473.259	286.504	0.051	-0.093
-472.245	-200.000	-0.002	-0.135
-471.230	641.815	0.026	0.067
-470.216	715.175	-0.007	0.019
-469.201	-126.550	0.093	-0.014
-468.186	-174.452	-0.158	0.005
-467.172	15.795	-0.037	-0.030
-466.157	-200.000	0.032	-0.245
-465.143	-115.685	-0.108	0.020
-464.128	800.000	0.059	-0.255
-463.113	800.000	0.030	-0.084
-462.099	-58.574	-0.169	0.074
-461.084	52.267	0.107	-0.103
-460.070	800.000	0.062	0.257
-459.055	437.520	-0.023	-0.051
-458.040	-200.000	0.012	0.265
-457.026	-68.586	0.085	-0.033
-456.011	24.132	0.078	-0.065
-454.997	62.950	0.012	-0.012
-453.982	742.177	-0.083	0.225
-452.968	-141.862	-0.096	-0.010
-451.953	47.253	-0.036	-0.034
-450.938	119.647	-0.107	-0.134
-449.924	-121.830	-0.349	-0.058
-448.909	800.000	-0.021	0.083
-447.895	-77.138	-0.251	0.088
-446.880	800.000	-0.022	-0.072
-445.865	10.161	0.335	-0.256
-444.851	119.505	-0.151	-0.188
-443.836	-34.496	-0.150	-0.083
-442.822	119.539	0.229	0.286
-441.807	-101.595	-0.253	0.062
-440.792	226.026	-0.119	-0.194
-439.778	-200.000	-0.020	0.163
-438.763	800.000	0.064	-0.217
-437.749	800.000	0.064	-0.272
-436.734	800.000	-0.062	-0.174
-435.719	362.903	0.144	-0.291
-434.705	-74.713	0.359	-0.129
-433.690	-200.000	-0.018	0.202
-432.676	-75.834	0.101	0.036
-431.661	165.525	-0.190	-0.270
-430.646	-104.129	0.153	-0.036
-429.632	94.372	0.084	0.096
-428.617	800.000	-0.067	0.204
-427.603	16.324	0.365	0.289
-426.588	-71.734	0.112	-0.042
-425.573	-74.553	0.196	-0.071
-424.559	-200.000	0.008	0.109
-423.544	60.033	0.189	-0.188
-422.530	-36.400	0.178	-0.096
-421.515	800.000	-0.050	-0.152
-420.500	97.625	0.050	-0.057
-419.486	-200.000	0.022	-0.291
-418.471	81.597	0.163	-0.177
-417.457	218.799	0.104	0.167
-416.442	-0.752	-0.166	-0.118
-415.428	18.338	-0.271	0.217
-414.413	800.000	-0.069	0.303
-413.398	24.415	0.028	0.023
-412.384	-200.000	0.036	-0.198
-411.369	494.523	-0.123	-0.283
-410.355	-52.411	-0.026	0.012
-409.340	-200.000	-0.011	0.064
-408.325	-29.630	-0.146	0.084
-407.311	74.464	-0.237	0.250
-406.296	-107.297	0.074	-0.016
-405.282	117.870	0.195	0.240
-404.267	-66.345	0.162	-0.065
-403.252	133.803	-0.040	-0.052
-402.238	-200.000	0.036	0.383
-401.223	-200.000	0.014	-0.182
-400.209	-107.185	-0.202	-0.045
-399.194	-38.047	-0.079	-0.042
-398.179	-200.000	0.029	0.416
-397.165	-18.907	-0.178	-0.111
-396.150	-21.111	0.167	0.103
-395.136	-200.000	0.001	0.067
-394.121	-123.429	0.171	-0.027
-393.106	-51.913	0.309	0.144
-392.092	800.000	0.068	0.198
-391.077	-200.000	0.024	-0.117
-390.063	-145.313	0.121	0.011
-389.048	-93.930	-0.008	0.002
-388.033	-22.414	-0.193	0.117
-387.019	-37.221	-0.236	-0.127
-386.004	-45.181	-0.202	0.101
-384.990	17.750	0.039	-0.031
-383.975	166.838	0.069	0.099
-382.960	-106.979	-0.386	0.086
-381.946	307.294	0.096	-0.179
-380.931	493.334	-0.061	-0.140
-379.917	-200.000	0.009	0.078
-378.902	800.000	-0.069	0.190
-377.888	-43.022	0.197	0.100
-376.873	222.441	0.231	-0.373
-375.858	-74.691	-0.290	-0.104
-374.844	-16.160	-0.080	-0.051
-373.829	437.100	-0.034	0.074
-372.815	288.533	0.014	-0.026
-371.800	11.184	0.147	0.112
-370.785	13.236	-0.172	-0.133
-369.771	246.310	0.082	0.138
-368.756	800.000	0.119	0.368
-367.742	-21.416	0.283	0.173
-366.727	87.009	-0.163	0.181
-365.712	-200.000	-0.008	-0.117
-364.698	-200.000	0.007	0.034
-363.683	-199.353	-0.141	-0.001
-362.669	-42.386	0.242	0.123
-361.654	-18.077	0.166	-0.104
-360.639	21.919	0.253	-0.207
-359.625	284.014	-0.144	-0.260
-358.610	800.000	-0.045	-0.158
-357.596	450.424	0.098	0.216
-356.581	82.806	-0.109	-0.119
-355.566	800.000	0.038	0.163
-354.552	800.000	-0.079	0.333
-353.537	-130.637	-0.268	-0.036
-352.523	-31.908	-0.205	-0.115
-351.508	-58.979	-0.226	0.098
-350.493	800.000	-0.061	0.215
-349.479	-174.451	-0.196	0.006
-348.464	-151.912	-0.271	0.020
-347.450	397.100	0.082	-0.171
-346.435	37.568	0.408	-0.362
-345.420	489.821	0.095	-0.217
-344.406	800.000	-0.089	-0.274
-343.391	-127.287	0.187	-0.027
-342.377	28.930	0.174	0.147
-341.362	-185.880	-0.249	-0.004
-340.348	-139.707	-0.249	0.027
-339.333	2.199	-0.146	-0.105
-338.318	800.000	-0.130	0.534
-337.304	-163.101	-0.396	0.019
-336.289	731.960	-0.049	-0.132
-335.275	-175.066	-0.149	0.004
-334.260	-200.000	0.009	-0.138
-333.245	-200.000	-0.033	0.305
-332.231	504.977	-0.042	0.098
-331.216	162.120	0.129	-0.181
-330.202	-123.827	0.098	-0.015
-329.187	65.106	0.275	-0.278
-328.172	29.553	-0.310	0.264
-327.158	800.000	-0.014	-0.052
-326.143	444.412	0.130	0.286
-325.129	-46.229	-0.223	0.110
-324.114	-200.000	-0.009	-0.271
-323.099	163.486	0.007	-0.009
-322.085	-105.787	0.124	0.028
-321.070	-200.000	0.043	-0.227
-320.056	-200.000	-0.001	-0.259
-319.041	-23.084	0.202	-0.121
-318.026	308.254	0.056	-0.105
-317.012	-98.680	0.399	0.102
-315.997	-53.984	0.167	-0.076
-314.983	-200.000	-0.009	0.254
-313.968	-41.250	-0.225	0.116
-312.953	9.444	0.073	-0.056
-311.939	724.979	0.054	0.144
-310.924	-102.632	0.129	0.031
-309.910	-160.429	0.215	0.012
-308.895	800.000	0.077	0.259
-307.880	760.968	-0.113	-0.306
-306.866	505.966	0.059	-0.136
-305.851	-59.700	-0.249	-0.107
-304.837	-77.545	-0.223	-0.077
-303.822	-200.000	-0.019	-0.131
-302.807	223.815	0.066	-0.106
-301.793	437.906	0.092	0.199
-300.778	-199.195	-0.334	-0.002
-299.764	800.000	0.118	0.349
-298.749	105.386	-0.085	0.100
-297.735	-200.000	-0.015	-0.125
-296.720	-200.000	0.025	0.171
-295.705	-170.693	0.312	0.011
-294.691	127.672	-0.053	-0.067
-293.676	149.168	-0.235	-0.318
-292.662	-34.967	-0.119	0.065
-291.647	174.196	0.014	-0.020
-290.632	800.000	-0.069	0.254
-289.618	467.765	0.196	0.439
-288.603	252.626	0.168	0.285
-287.589	-200.000	0.013	-0.263
-286.574	449.729	0.155	0.343
-285.559	-41.828	0.117	0.060
-284.545	11.326	0.128	0.098
-283.530	734.020	-0.041	-0.110
-282.516	800.000	-0.058	0.240
-281.501	530.838	-0.029	-0.068
-280.486	-56.247	0.163	0.072
-279.472	29.733	0.226	0.192
-278.457	360.636	0.038	0.075
-277.443	800.000	-0.056	-0.214
-276.428	-94.151	0.282	0.077
-275.413	-200.000	0.007	-0.143
-274.399	-81.954	-0.069	0.022
-273.384	-84.526	-0.059	0.019
-272.370	144.521	0.071	-0.095
-271.355	477.139	-0.016	-0.035
-270.340	-137.161	-0.051	0.006
-269.326	-186.480	-0.564	-0.008
-268.311	-11.846	-0.275	-0.180
-267.297	-103.607	0.231	0.054
-266.282	1.976	-0.175	-0.126
-265.267	-200.000	0.031	-0.604
-264.253	279.853	0.047	-0.084
-263.238	-64.676	0.255	0.103
-262.224	44.197	-0.219	0.200
-261.209	-200.000	0.005	0.034
-260.195	-21.199	0.155	0.094
-259.180	-25.669	-0.133	-0.078
-258.165	32.501	0.327	0.282
-257.151	53.993	-0.270	0.259
-256.136	218.527	-0.157	-0.250
-255.122	104.417	0.080	0.094
-254.107	68.192	-0.210	0.214
-253.092	745.987	-0.021	0.056
-252.078	107.472	-0.038	-0.045
-251.063	800.000	0.062	0.222
-250.049	-200.000	-0.013	-0.207
-249.034	72.542	-0.065	0.068
-248.019	-104.620	-0.322	-0.074
-247.005	103.301	0.109	-0.127
-245.990	9.088	-0.321	-0.242
-244.976	-200.000	-0.037	-0.321
-243.961	-106.436	0.322	0.072
-242.946	-33.071	-0.259	-0.143
-241.932	-200.000	-0.002	-0.216
-240.917	-150.233	0.196	0.015
-239.903	21.396	-0.057	0.046
-238.888	58.944	0.055	0.054
-237.873	458.774	-0.124	-0.275
-236.859	153.863	0.226	-0.309
-235.844	800.000	-0.093	-0.270
-234.830	800.000	0.070	-0.210
-233.815	-21.225	0.308	-0.188
-232.800	81.656	-0.048	-0.052
-231.786	-200.000	0.046	0.320
-230.771	9.742	0.280	0.211
-229.757	-97.880	-0.228	-0.059
-228.742	800.000	-0.022	0.081
-227.727	249.251	-0.096	0.163
-226.713	-27.426	0.127	-0.074
-225.698	-200.000	0.007	0.172
-224.684	332.206	0.034	-0.066
-223.669	-17.677	-0.370	-0.232
-222.655	-200.000	0.020	0.114
-221.640	800.000	-0.187	-0.610
-220.625	-200.000	0.042	-0.320
-219.611	-23.464	0.353	-0.211
-218.596	-200.000	0.029	0.399
-217.582	21.081	-0.298	0.241
-216.567	-200.000	-0.030	0.190
-215.552	-85.944	0.306	0.094
-214.538	800.000	0.061	0.255
-213.523	800.000	-0.011	0.039
-212.509	-200.000	-0.004	-0.029
-211.494	53.775	-0.169	0.161
-210.479	-200.000	-0.016	-0.085
-209.465	-107.707	-0.204	-0.044
-208.450	151.648	0.190	0.258
-207.436	800.000	-0.054	0.169
-206.421	-92.175	-0.150	0.042
-205.406	80.297	-0.216	0.232
-204.392	-151.274	0.186	-0.014
-203.377	-200.000	0.084	0.455
-202.363	800.000	0.070	0.219
-201.348	198.172	-0.035	-0.054
-200.333	160.037	-0.104	0.145
-199.319	-142.014	-0.223	0.022
-198.304	-149.182	0.527	-0.042
-197.290	11.968	-0.201	-0.154
-196.275	102.419	-0.248	0.289
-195.260	-200.000	-0.049	-0.227
-194.246	-200.000	0.059	0.259
-193.231	154.996	0.162	-0.222
-192.217	-101.386	-0.195	-0.047
-191.202	670.716	0.038	-0.097
-190.187	-92.689	0.338	0.094
-189.173	-117.110	0.244	0.044
-188.158	-32.650	0.112	-0.062
-187.144	800.000	0.045	-0.174
-186.129	-200.000	-0.010	-0.287
-185.114	-70.065	-0.054	-0.020
-184.100	-200.000	-0.032	0.370
-183.085	296.190	0.076	0.139
-182.071	-42.963	-0.101	-0.051
-181.056	110.876	0.151	-0.180
-180.042	-200.000	0.039	-0.223
-179.027	-171.511	0.602	-0.020
-178.012	-21.623	0.193	0.117
-176.998	-200.000	0.005	0.041
-175.983	-200.000	-0.001	0.363
-174.969	-75.669	-0.206	-0.073
-173.954	2.110	-0.231	0.166
-172.939	-173.505	-0.203	-0.006
-171.925	190.709	-0.122	-0.182
-170.910	800.000	0.043	-0.172
-169.896	-129.306	0.202	0.028
-168.881	-162.631	-0.200	0.010
-167.866	-34.067	-0.250	-0.137
-166.852	-96.605	-0.072	-0.019
-165.837	-173.987	0.384	0.011
-164.823	-200.000	0.000	0.173
-163.808	72.478	0.105	0.108
-162.793	-43.147	0.277	0.140
-161.779	-67.953	-0.248	-0.096
-160.764	800.000	-0.055	-0.157
-159.750	-187.269	-0.267	-0.004
-158.735	-200.000	0.081	-0.000
-157.720	-141.989	-0.207	-0.021
-156.706	-89.494	0.069	0.020
-155.691	-200.000	-0.007	-0.067
-154.677	-28.698	0.079	0.045
-153.662	-140.483	-0.507	-0.052
-152.647	11.462	0.165	0.126
-151.633	-52.485	-0.154	-0.071
-150.618	40.841	-0.067	-0.060
-149.604	14.422	0.082	0.064
-148.589	-43.548	-0.076	0.038
-147.574	-32.632	0.383	0.212
-146.560	-200.000	0.063	-0.303
-145.545	800.000	-0.070	-0.253
-144.531	314.147	-0.043	-0.081
-143.516	310.838	-0.076	-0.142
-142.502	800.000	-0.044	0.182
-141.487	58.837	0.160	-0.157
-140.472	-21.806	0.367	0.222
-139.458	-76.408	0.256	0.090
-138.443	-18.543	0.100	-0.062
-137.429	-12.059	-0.039	0.025
-136.414	87.228	-0.049	0.054
-135.399	-67.711	-0.182	-0.071
-134.385	-200.000	0.038	0.196
-133.370	-122.033	0.037	-0.006
-132.356	-132.677	0.216	0.027
-131.341	-110.766	-0.126	0.026
-130.326	243.048	0.085	-0.141
-129.312	-185.417	0.114	0.002
-128.297	171.503	0.019	0.028
-127.283	-200.000	0.044	-0.301
-126.268	4.815	0.300	0.219
-125.253	-200.000	0.016	-0.072
-124.239	-200.000	-0.084	-0.455
-123.224	266.295	0.027	-0.046
-122.210	-38.286	0.148	0.078
-121.195	-88.408	0.058	-0.017
