DTS Sentinel unit serial number:	SN413079Multiplexer serial number:	ORYXHardware model number:	OX4-SRSoftware version number:	ORYX F/W v4.00 Oryx Data Collector v3.7.2.0data status	okinstallation	princeton_trtdifferential loss correction	single-endedforward channel	channel 2reverse channel	N/Adate	2019/09/17time	14:31:34forward acquisition time	60.00reverse acquisition time	0.00gamma	496.2192k internal	0.2313k external	0.2313temperature offset calibration	0.9986default loss term (dB/km)	0.3790temperature slope calibration	1.0000multiplexer offset coefficient	1.0000multiplexer slope coefficient	1.0000fibre end	0.00T internal ref (°C)	36.50T ext. ref 1 (°C)	0.40T ext. ref 2 (°C)	33.57length (m)	temperature (°C)	Stokes	anti-Stokes-747.200	59.998	0.114	-0.115
-746.185	-200.000	-0.092	0.546
-745.171	-149.396	0.188	0.015
-744.156	-200.000	0.003	0.366
-743.142	-32.714	0.130	0.073
-742.127	160.653	0.047	0.067
-741.112	-55.283	0.161	0.073
-740.098	-85.321	0.239	0.076
-739.083	-200.000	0.048	-0.325
-738.069	52.249	-0.080	0.077
-737.054	379.297	0.053	0.110
-736.039	-200.000	-0.004	0.112
-735.025	-185.865	-0.315	-0.005
-734.010	-56.750	-0.295	0.132
-732.996	143.315	-0.083	-0.112
-731.981	-21.678	0.035	-0.021
-730.966	20.881	0.463	-0.381
-729.952	-29.416	-0.190	-0.110
-728.937	800.000	-0.018	0.067
-727.923	800.000	0.021	0.091
-726.908	658.296	-0.085	-0.223
-725.894	279.239	-0.028	0.050
-724.879	-29.657	0.103	0.059
-723.864	-200.000	-0.043	-0.480
-722.850	-91.858	0.236	0.068
-721.835	-42.358	-0.165	0.085
-720.821	737.919	-0.043	-0.118
-719.806	50.392	-0.232	-0.222
-718.791	-88.833	0.149	0.045
-717.777	158.069	0.252	-0.354
-716.762	72.797	-0.198	-0.210
-715.748	695.264	-0.130	-0.346
-714.733	-10.469	0.274	-0.184
-713.718	53.670	-0.214	-0.208
-712.704	460.739	-0.011	0.025
-711.689	-121.108	0.029	0.005
-710.675	-25.018	-0.028	0.017
-709.660	40.628	-0.175	0.160
-708.645	-177.097	0.088	-0.002
-707.631	-200.000	0.014	0.084
-706.616	202.529	0.202	-0.316
-705.602	-49.619	0.533	-0.257
-704.587	-200.000	-0.013	0.087
-703.572	-73.008	-0.165	-0.061
-702.558	-114.050	0.202	0.040
-701.543	-39.599	-0.136	-0.072
-700.529	-50.299	0.262	0.125
-699.514	-200.000	0.002	-0.093
-698.499	-200.000	0.009	0.122
-697.485	229.264	0.104	0.172
-696.470	22.222	-0.203	-0.168
-695.456	-200.000	-0.055	-0.334
-694.441	-129.873	0.202	0.028
-693.426	800.000	0.035	-0.109
-692.412	-38.680	-0.258	0.138
-691.397	41.362	0.213	-0.195
-690.383	-200.000	0.006	-0.258
-689.368	84.324	-0.092	0.102
-688.354	423.281	-0.211	0.459
-687.339	-200.000	-0.034	-0.326
-686.324	-39.304	-0.324	-0.172
-685.310	97.347	-0.186	0.216
-684.295	-104.087	-0.102	0.024
-683.281	28.302	0.269	-0.230
-682.266	-78.294	0.126	-0.044
-681.251	-200.000	0.027	-0.495
-680.237	220.182	0.186	0.301
-679.222	800.000	0.061	0.200
-678.208	-52.059	-0.361	-0.170
-677.193	132.434	-0.161	0.210
-676.178	35.034	-0.093	0.083
-675.164	-27.569	0.287	-0.169
-674.149	415.798	-0.165	0.356
-673.135	411.301	0.043	-0.092
-672.120	-21.074	0.099	0.061
-671.105	89.316	0.096	0.109
-670.091	-200.000	0.032	-0.161
-669.076	800.000	-0.059	-0.244
-668.062	-118.014	-0.093	0.017
-667.047	-200.000	-0.057	-0.267
-666.032	140.427	0.104	0.138
-665.018	-76.622	-0.049	0.017
-664.003	-200.000	0.089	-0.396
-662.989	114.871	-0.152	-0.187
-661.974	-13.106	-0.300	-0.197
-660.959	138.319	-0.112	-0.149
-659.945	44.838	-0.072	0.067
-658.930	-48.906	0.366	-0.177
-657.916	115.406	0.168	-0.207
-656.901	363.100	0.182	0.370
-655.886	226.920	-0.025	-0.042
-654.872	-60.593	0.331	0.142
-653.857	58.545	0.174	0.173
-652.843	-200.000	0.029	-0.160
-651.828	-0.435	0.214	0.154
-650.814	-200.000	-0.001	0.061
-649.799	52.293	-0.274	-0.264
-648.784	-38.402	-0.094	0.050
-647.770	-8.193	-0.041	0.028
-646.755	-155.239	0.153	-0.010
-645.741	-200.000	0.001	0.086
-644.726	25.692	0.015	-0.013
-643.711	113.648	0.069	0.085
-642.697	-16.574	0.219	-0.140
-641.682	255.148	-0.173	-0.299
-640.668	-97.847	0.225	-0.059
-639.653	156.502	0.125	-0.174
-638.638	720.284	0.062	0.166
-637.624	800.000	-0.065	-0.250
-636.609	622.117	-0.142	-0.361
-635.595	214.936	0.077	0.124
-634.580	-28.330	0.293	-0.171
-633.565	-140.453	0.042	0.004
-632.551	-173.201	0.413	-0.013
-631.536	-200.000	0.016	0.229
-630.522	-46.124	0.283	0.141
-629.507	-200.000	0.034	0.155
-628.492	121.274	-0.294	-0.369
-627.478	-99.686	0.171	-0.043
-626.463	478.077	-0.043	-0.099
-625.449	31.143	0.254	-0.220
-624.434	-200.000	-0.009	-0.106
-623.419	-61.387	-0.083	0.035
-622.405	-200.000	0.008	-0.093
-621.390	187.286	-0.051	0.077
-620.376	336.119	0.103	0.201
-619.361	-7.224	0.085	0.058
-618.346	-149.081	0.258	-0.021
-617.332	-200.000	-0.043	-0.303
-616.317	314.382	0.045	0.086
-615.303	2.654	-0.202	-0.147
-614.288	134.423	-0.109	0.142
-613.273	-113.134	0.153	-0.030
-612.259	-200.000	0.011	-0.312
-611.244	80.911	-0.213	-0.232
-610.230	-85.682	0.277	-0.087
-609.215	-200.000	-0.000	-0.147
-608.201	-59.829	0.206	0.089
-607.186	-109.881	-0.223	-0.047
-606.171	-141.976	0.150	-0.015
-605.157	-200.000	0.025	-0.191
-604.142	-88.497	-0.035	-0.010
-603.128	5.536	0.211	-0.157
-602.113	-200.000	0.041	-0.212
-601.098	-83.905	-0.011	0.004
-600.084	-85.249	-0.113	0.036
-599.069	69.267	-0.076	0.079
-598.055	-43.338	-0.187	0.095
-597.040	-68.906	0.087	0.034
-596.025	54.066	-0.274	0.266
-595.011	-73.284	0.327	0.121
-593.996	-151.352	-0.097	0.007
-592.982	294.203	-0.157	0.289
-591.967	88.191	-0.106	-0.119
-590.952	148.972	-0.224	-0.306
-589.938	800.000	0.048	-0.193
-588.923	-54.679	0.185	0.084
-587.909	173.469	-0.133	0.194
-586.894	199.191	-0.238	-0.367
-585.879	97.753	-0.286	0.331
-584.865	-19.617	0.168	0.105
-583.850	-30.193	0.191	-0.109
-582.836	252.814	0.090	0.155
-581.821	-0.366	-0.160	-0.115
-580.806	-80.941	-0.220	0.073
-579.792	-55.460	0.317	-0.143
-578.777	-103.357	0.135	0.032
-577.763	-177.762	0.183	-0.004
-576.748	-200.000	0.025	0.327
-575.733	-200.000	0.037	-0.177
-574.719	-82.385	0.223	-0.073
-573.704	-68.160	-0.303	0.119
-572.690	121.575	-0.167	0.210
-571.675	-13.701	-0.258	0.168
-570.661	162.777	0.149	-0.211
-569.646	-148.460	-0.218	-0.018
-568.631	708.273	0.155	-0.412
-567.617	-200.000	0.032	0.224
-566.602	-92.865	0.142	0.040
-565.588	-13.843	0.295	0.192
-564.573	-11.073	-0.233	0.155
-563.558	21.980	0.244	0.201
-562.544	-139.929	-0.411	0.044
-561.529	-77.813	-0.222	-0.077
-560.515	-58.525	0.018	-0.008
-559.500	-94.945	0.259	-0.070
-558.485	543.982	-0.114	0.274
-557.471	235.352	-0.060	-0.099
-556.456	-20.223	0.244	-0.151
-555.442	-127.343	-0.207	0.030
-554.427	32.447	-0.262	-0.228
-553.412	-70.445	0.200	-0.076
-552.398	165.284	-0.176	0.250
-551.383	-72.555	-0.279	0.104
-550.369	540.529	-0.107	-0.257
-549.354	73.436	-0.344	-0.362
-548.339	-29.109	0.223	-0.129
-547.325	-115.903	0.170	-0.032
-546.310	-11.793	0.213	-0.141
-545.296	-112.808	-0.267	-0.053
-544.281	-93.511	-0.223	0.062
-543.266	-124.092	0.161	0.025
-542.252	121.958	-0.116	0.145
-541.237	-23.901	-0.254	-0.153
-540.223	-160.165	-0.190	-0.010
-539.208	800.000	0.073	-0.232
-538.193	-112.423	-0.163	-0.033
-537.179	-200.000	0.025	0.162
-536.164	17.005	-0.303	-0.242
-535.150	-200.000	-0.017	0.258
-534.135	-110.702	0.094	-0.020
-533.121	-38.936	0.311	-0.165
-532.106	239.173	0.103	-0.173
-531.091	-105.360	-0.164	0.038
-530.077	800.000	0.086	-0.354
-529.062	50.670	-0.259	0.247
-528.048	-200.000	0.058	-0.309
-527.033	-67.471	0.293	0.116
-526.018	-97.333	-0.235	0.062
-525.004	180.377	0.045	0.066
-523.989	119.089	0.315	0.392
-522.975	-48.610	-0.467	-0.226
-521.960	-105.791	0.208	-0.047
-520.945	721.517	-0.064	-0.171
-519.931	-74.259	0.233	-0.085
-518.916	-12.629	-0.134	-0.088
-517.902	74.432	0.183	-0.193
-516.887	3.619	0.106	0.078
-515.872	313.893	0.213	-0.403
-514.858	377.041	-0.154	-0.317
-513.843	-200.000	-0.011	0.176
-512.829	-96.967	0.311	0.082
-511.814	-200.000	-0.012	0.232
-510.799	-66.045	-0.273	0.109
-509.785	-87.919	-0.366	0.111
-508.770	143.383	0.107	0.144
-507.756	218.151	0.274	-0.439
-506.741	-200.000	-0.000	-0.063
-505.726	109.431	-0.113	-0.136
-504.712	-7.733	-0.112	-0.076
-503.697	188.605	0.076	-0.114
-502.683	18.640	0.205	-0.165
-501.668	-5.550	0.308	0.212
-500.653	-6.056	0.119	-0.082
-499.639	800.000	0.049	0.185
-498.624	4.392	0.062	-0.046
-497.610	144.148	-0.093	0.125
-496.595	102.980	-0.123	0.145
-495.581	800.000	0.029	-0.096
-494.566	-64.422	-0.369	-0.151
-493.551	269.129	0.095	0.168
-492.537	800.000	0.038	-0.145
-491.522	19.537	-0.264	0.213
-490.508	33.909	-0.171	0.149
-489.493	227.751	-0.245	-0.400
-488.478	-70.116	-0.327	-0.125
-487.464	4.657	-0.216	0.159
-486.449	-90.969	0.254	0.073
-485.435	355.434	-0.035	-0.069
-484.420	58.007	0.179	0.176
-483.405	-83.968	-0.264	0.084
-482.391	66.373	0.383	-0.391
-481.376	-24.552	-0.143	0.085
-480.362	800.000	0.071	0.236
-479.347	-86.632	-0.287	0.088
-478.332	294.310	-0.103	-0.188
-477.318	62.038	-0.242	-0.242
-476.303	-200.000	0.000	-0.009
-475.289	298.013	-0.086	-0.159
-474.274	671.014	0.075	-0.195
-473.259	800.000	0.072	-0.244
-472.245	53.771	-0.085	-0.082
-471.230	-163.480	-0.227	-0.011
-470.216	163.702	0.206	0.290
-469.201	800.000	-0.101	-0.356
-468.186	7.112	0.044	0.033
-467.172	192.330	0.049	0.074
-466.157	-200.000	0.005	-0.073
-465.143	16.072	0.242	0.192
-464.128	68.488	-0.084	-0.087
-463.113	-200.000	0.005	-0.227
-462.099	40.004	-0.144	0.130
-461.084	45.372	-0.237	-0.219
-460.070	103.634	-0.114	0.134
-459.055	73.425	-0.126	-0.132
-458.040	48.333	-0.096	-0.091
-457.026	61.887	0.267	-0.267
-456.011	93.524	0.042	-0.048
-454.997	-89.608	0.100	0.030
-453.982	-46.738	-0.269	0.132
-452.968	800.000	0.079	0.290
-451.953	76.364	0.233	0.247
-450.938	-55.695	-0.230	0.103
-449.924	-33.241	-0.228	-0.127
-448.909	495.647	-0.191	0.439
-447.895	140.988	0.158	-0.210
-446.880	4.202	0.372	0.273
-445.865	-172.265	0.300	-0.010
-444.851	-5.444	0.190	-0.130
-443.836	-12.163	-0.143	0.094
-442.822	-53.328	-0.265	-0.122
-441.807	-160.680	-0.226	-0.012
-440.792	65.129	0.077	-0.078
-439.778	-200.000	-0.005	0.085
-438.763	-46.118	-0.171	-0.085
-437.749	-24.879	-0.244	0.145
-436.734	-124.909	0.138	-0.021
-435.719	500.686	-0.093	0.216
-434.705	230.757	0.030	0.050
-433.690	53.397	-0.343	0.329
-432.676	-191.666	0.179	0.002
-431.661	-200.000	-0.005	0.059
-430.646	138.671	0.113	-0.148
-429.632	-200.000	-0.014	-0.311
-428.617	63.205	0.065	-0.065
-427.603	-38.611	-0.181	-0.096
-426.588	-89.782	0.265	0.078
-425.573	2.775	-0.284	-0.206
-424.559	80.662	0.279	0.301
-423.544	190.369	0.085	-0.129
-422.530	60.564	-0.127	0.126
-421.515	-95.093	-0.104	-0.028
-420.500	800.000	-0.086	0.316
-419.486	-108.968	-0.142	0.030
-418.471	187.545	0.171	-0.256
-417.457	33.054	0.208	0.181
-416.442	210.747	0.152	0.238
-415.428	-200.000	-0.083	0.452
-414.413	139.807	0.215	0.284
-413.398	8.156	0.045	0.034
-412.384	-175.559	0.175	0.005
-411.369	-81.325	0.220	-0.073
-410.355	-11.361	-0.107	0.071
-409.340	592.578	0.069	0.170
-408.325	-49.780	0.062	0.029
-407.311	800.000	-0.022	-0.085
-406.296	552.199	-0.130	0.312
-405.282	800.000	0.045	-0.144
-404.267	-25.190	-0.174	-0.103
-403.252	-10.287	0.345	0.229
-402.238	372.389	-0.034	0.068
-401.223	-25.541	-0.028	0.016
-400.209	102.617	0.032	-0.037
-399.194	-200.000	-0.002	0.019
-398.179	-115.186	-0.214	-0.041
-397.165	-126.013	0.180	-0.027
-396.150	-20.478	0.151	0.093
-395.136	43.107	-0.109	0.099
-394.121	199.106	-0.056	-0.085
-393.106	9.871	-0.227	0.172
-392.092	-35.831	-0.137	0.074
-391.077	800.000	-0.046	0.144
-390.063	-107.999	0.268	0.058
-389.048	-200.000	0.015	0.071
-388.033	-44.441	0.218	0.109
-387.019	32.109	0.061	0.052
-386.004	-200.000	-0.031	-0.185
-384.990	-200.000	-0.002	0.027
-383.975	-200.000	0.007	-0.159
-382.960	171.626	-0.096	-0.138
-381.946	-43.721	-0.367	0.185
-380.931	-158.518	0.080	0.005
-379.917	40.443	0.078	-0.070
-378.902	-158.272	0.127	0.007
-377.888	-200.000	0.008	0.090
-376.873	-61.548	0.208	-0.088
-375.858	-200.000	0.002	-0.192
-374.844	-119.755	0.243	0.042
-373.829	156.363	0.344	-0.474
-372.815	-54.555	0.358	-0.162
-371.800	800.000	-0.079	0.281
-370.785	-200.000	0.041	-0.197
-369.771	800.000	0.015	0.045
-368.756	-200.000	-0.032	0.172
-367.742	-73.937	0.326	0.118
-366.727	-92.394	0.271	0.076
-365.712	-198.359	0.232	-0.001
-364.698	222.198	-0.104	-0.166
-363.683	173.188	-0.182	0.263
-362.669	-40.640	-0.168	0.087
-361.654	-105.918	-0.358	-0.081
-360.639	535.491	-0.024	-0.057
-359.625	-129.852	-0.262	0.036
-358.610	-71.938	0.297	-0.111
-357.596	-21.823	0.069	-0.042
-356.581	114.247	-0.159	-0.193
-355.566	800.000	0.083	-0.312
-354.552	348.457	-0.112	-0.220
-353.537	800.000	0.026	0.074
-352.523	242.110	-0.113	-0.189
-351.508	470.076	-0.083	-0.187
-350.493	26.166	0.123	-0.103
-349.479	224.155	-0.104	0.168
-348.464	196.761	-0.113	-0.172
-347.450	-91.229	0.154	0.044
-346.435	-78.121	-0.425	-0.146
-345.420	-151.094	0.142	0.011
-344.406	213.531	-0.109	0.171
-343.391	-200.000	-0.019	0.297
-342.377	344.725	-0.009	-0.018
-341.362	-92.008	-0.218	0.062
-340.348	-28.008	0.024	-0.014
-339.333	-97.007	-0.182	-0.047
-338.318	133.903	-0.232	0.300
-337.304	286.520	-0.156	0.282
-336.289	-135.745	-0.151	-0.018
-335.275	-92.970	0.289	-0.080
-334.260	800.000	0.027	-0.082
-333.245	103.745	0.138	0.161
-332.231	-168.875	-0.206	0.008
-331.216	-3.870	-0.049	-0.034
-330.202	-89.444	-0.201	0.059
-329.187	-5.469	0.307	0.210
-328.172	-200.000	0.078	0.492
-327.158	800.000	0.044	-0.141
-326.143	288.153	-0.039	0.070
-325.129	-39.966	-0.163	0.085
-324.114	-36.909	-0.408	-0.219
-323.099	319.077	-0.057	-0.107
-322.085	-107.475	0.095	-0.021
-321.070	-46.568	0.256	0.125
-320.056	-132.111	-0.207	-0.027
-319.041	-149.338	-0.183	0.015
-318.026	-91.023	0.276	-0.079
-317.012	800.000	0.020	0.074
-315.997	-55.019	-0.192	0.086
-314.983	-200.000	0.014	0.141
-313.968	119.575	-0.072	-0.089
-312.953	-138.082	0.099	-0.011
-311.939	2.243	-0.035	0.025
-310.924	-200.000	-0.033	-0.155
-309.910	100.197	0.143	0.165
-308.895	13.026	0.126	-0.097
-307.880	503.813	-0.152	0.351
-306.866	-200.000	0.020	-0.291
-305.851	40.254	-0.123	0.111
-304.837	16.122	0.160	-0.125
-303.822	800.000	0.101	-0.285
-302.807	-200.000	0.019	0.133
-301.793	-200.000	0.003	0.145
-300.778	73.819	0.055	-0.058
-299.764	-200.000	0.047	-0.260
-298.749	-24.964	0.249	0.147
-297.735	74.848	0.071	-0.075
-296.720	107.781	-0.148	-0.175
-295.705	152.744	-0.124	-0.169
-294.691	-200.000	-0.013	0.377
-293.676	-200.000	0.014	0.216
-292.662	651.396	-0.070	0.180
-291.647	626.952	-0.015	0.037
-290.632	85.561	-0.242	0.264
-289.618	204.102	0.089	0.137
-288.603	64.258	0.178	0.178
-287.589	42.777	0.103	-0.094
-286.574	-127.990	-0.156	0.022
-285.559	800.000	0.036	-0.127
-284.545	-8.421	-0.452	0.303
-283.530	800.000	0.088	-0.353
-282.516	-99.653	0.156	-0.039
-281.501	-46.563	0.059	-0.029
-280.486	-41.101	-0.131	0.067
-279.472	157.380	0.249	-0.343
-278.457	142.388	0.247	0.327
-277.443	-26.167	-0.232	0.136
-276.428	-61.849	-0.168	-0.070
-275.413	54.980	0.261	-0.251
-274.399	-65.997	-0.158	0.063
-273.384	25.945	0.381	0.316
-272.370	-148.525	-0.443	-0.036
-271.355	800.000	0.054	-0.177
-270.340	-168.555	-0.375	0.014
-269.326	800.000	0.109	-0.304
-268.311	-128.241	0.062	0.009
-267.297	564.311	0.072	0.173
-266.282	55.323	-0.131	-0.126
-265.267	-23.296	0.444	0.266
-264.253	-5.389	-0.165	-0.113
-263.238	12.339	-0.050	0.038
-262.224	800.000	-0.098	0.370
-261.209	-73.169	0.108	0.039
-260.195	-31.289	0.184	-0.103
-259.180	723.293	-0.012	0.033
-258.165	29.844	0.112	0.095
-257.151	-65.336	-0.184	-0.074
-256.136	-200.000	-0.021	-0.149
-255.122	-200.000	0.018	-0.180
-254.107	-36.034	-0.055	0.030
-253.092	-111.952	-0.309	-0.062
-252.078	-131.969	-0.119	-0.015
-251.063	178.802	-0.101	0.146
-250.049	-167.136	-0.272	-0.011
-249.034	-108.161	-0.126	-0.027
-248.019	-72.019	0.102	-0.038
-247.005	-70.693	0.100	0.038
-245.990	-84.702	-0.173	0.054
-244.976	-11.614	0.571	0.373
-243.961	263.274	0.174	0.300
-242.946	503.867	-0.105	-0.241
-241.932	800.000	0.091	-0.343
-240.917	33.686	0.176	0.152
-239.903	-148.292	-0.152	-0.012
-238.888	-158.584	-0.500	0.029
-237.873	-164.303	0.140	0.006
-236.859	800.000	0.174	-0.517
-235.844	-53.149	-0.287	-0.131
-234.830	-101.042	0.192	-0.047
-233.815	-200.000	0.006	0.123
-232.800	-75.194	0.206	-0.073
-231.786	197.861	-0.116	0.176
-230.771	-71.447	-0.185	-0.069
-229.757	-18.121	0.170	-0.106
-228.742	34.048	0.073	-0.064
-227.727	-103.792	0.192	-0.045
-226.713	188.025	-0.189	-0.280
-225.698	538.554	0.135	0.318
-224.684	476.022	-0.099	0.222
-223.669	260.490	0.124	0.213
-222.655	43.121	-0.051	-0.046
-221.640	800.000	-0.093	-0.301
-220.625	-35.786	0.238	0.128
-219.611	281.211	-0.031	-0.054
-218.596	-39.317	0.282	0.147
-217.582	61.119	-0.097	0.096
-216.567	3.432	0.216	0.156
-215.552	800.000	0.057	-0.168
-214.538	478.777	-0.039	0.087
-213.523	-115.523	0.150	0.028
-212.509	-200.000	-0.042	0.420
-211.494	-200.000	-0.050	-0.388
-210.479	49.252	0.140	-0.130
-209.465	256.265	0.131	0.223
-208.450	-200.000	0.006	-0.062
-207.436	783.724	0.119	-0.323
-206.421	342.710	-0.068	-0.132
-205.406	-200.000	0.015	0.172
-204.392	363.605	-0.097	0.194
-203.377	800.000	-0.090	-0.311
-202.363	-124.534	0.139	0.022
-201.348	75.729	0.177	0.186
-200.333	-200.000	-0.001	0.145
-199.319	-200.000	-0.012	-0.110
-198.304	-200.000	-0.003	-0.158
-197.290	800.000	-0.100	-0.277
-196.275	800.000	-0.078	0.239
-195.260	800.000	-0.042	0.169
-194.246	-200.000	0.017	-0.164
-193.231	57.029	0.139	0.135
-192.217	-200.000	0.097	0.461
-191.202	-200.000	0.026	-0.130
-190.187	32.623	-0.208	-0.178
-189.173	-91.569	-0.373	0.105
-188.158	-102.966	0.423	-0.100
-187.144	-200.000	-0.036	-0.510
-186.129	-34.534	-0.372	0.202
-185.114	14.978	0.529	0.411
-184.100	70.780	0.091	0.093
-183.085	313.114	0.107	0.200
-182.071	-200.000	0.048	0.228
-181.056	800.000	0.038	0.123
-180.042	-100.842	0.202	0.049
-179.027	-160.740	-0.262	-0.014
-178.012	575.033	-0.024	0.059
-176.998	127.737	-0.050	0.063
-175.983	-145.184	-0.221	-0.020
-174.969	-141.567	-0.425	-0.043
-173.954	-33.021	-0.382	0.210
-172.939	-26.524	0.264	0.153
-171.925	-80.696	-0.182	0.060
-170.910	126.654	-0.050	0.063
-169.896	197.853	-0.129	0.196
-168.881	-57.489	0.276	-0.120
-167.866	43.195	0.124	-0.112
-166.852	-48.215	-0.203	0.097
-165.837	62.586	0.153	0.152
-164.823	51.096	0.197	-0.186
-163.808	-200.000	-0.026	-0.230
-162.793	-119.767	0.206	-0.035
-161.779	-27.882	0.153	0.088
-160.764	-114.808	0.382	0.072
-159.750	-117.486	0.090	-0.016
-158.735	96.304	0.094	-0.107
-157.720	206.884	0.095	-0.146
-156.706	-5.885	0.238	0.162
-155.691	-11.038	-0.175	0.114
-154.677	-55.293	-0.315	0.140
-153.662	-200.000	0.005	0.046
-152.647	-136.885	0.248	-0.028
-151.633	-31.962	-0.167	-0.092
-150.618	-59.412	-0.094	-0.040
-149.604	121.030	-0.048	0.059
-148.589	-18.558	0.253	0.157
-147.574	-62.610	0.086	-0.035
-146.560	135.981	0.007	0.009
-145.545	396.949	0.069	0.142
-144.531	-158.914	0.247	-0.014
-143.516	-200.000	-0.013	0.190
-142.502	-200.000	0.010	0.189
-141.487	169.417	-0.083	0.117
-140.472	286.801	0.109	-0.195
-139.458	-200.000	-0.053	-0.327
-138.443	-63.427	-0.144	-0.059
-137.429	-200.000	-0.002	0.206
-136.414	568.187	-0.206	0.496
-135.399	-112.595	0.113	-0.022
-134.385	-24.485	0.091	0.053
-133.370	800.000	-0.061	0.221
-132.356	-170.553	0.116	0.004
-131.341	81.393	0.170	-0.182
-130.326	-178.899	-0.271	-0.006
-129.312	-200.000	-0.022	-0.104
-128.297	263.687	-0.091	0.157
-127.283	206.140	0.101	0.155
-126.268	39.035	-0.270	-0.239
-125.253	-200.000	-0.017	-0.194
-124.239	-200.000	0.021	-0.102
-123.224	118.780	-0.059	0.072
-122.210	-70.448	-0.424	0.159
-121.195	286.152	-0.102	0.183
-120.180	746.700	-0.100	0.267
