DTS Sentinel unit serial number:	SN413079Multiplexer serial number:	ORYXHardware model number:	OX4-SRSoftware version number:	ORYX F/W v4.00 Oryx Data Collector v3.7.2.0data status	okinstallation	princeton_trtdifferential loss correction	single-endedforward channel	channel 2reverse channel	N/Adate	2019/09/16time	15:15:34forward acquisition time	60.00reverse acquisition time	0.00gamma	496.2192k internal	0.2299k external	0.2299temperature offset calibration	0.9939default loss term (dB/km)	0.3790temperature slope calibration	1.0000multiplexer offset coefficient	1.0000multiplexer slope coefficient	1.0000fibre end	0.00T internal ref (°C)	41.06T ext. ref 1 (°C)	14.57T ext. ref 2 (°C)	36.55length (m)	temperature (°C)	Stokes	anti-Stokes-747.200	800.000	-0.080	-0.229
-746.185	-200.000	0.050	-0.320
-745.171	-17.737	-0.082	0.052
-744.156	-200.000	-0.002	0.228
-743.142	-200.000	0.042	0.347
-742.127	-18.412	0.118	0.075
-741.112	-9.343	0.278	-0.189
-740.098	-116.345	-0.186	-0.035
-739.083	800.000	0.016	0.050
-738.069	-200.000	-0.011	0.160
-737.054	464.626	0.043	0.097
-736.039	364.818	-0.046	0.094
-735.025	58.116	0.175	0.174
-734.010	-59.848	-0.255	0.111
-732.996	-200.000	-0.004	0.349
-731.981	800.000	-0.044	0.144
-730.966	-106.365	-0.361	-0.082
-729.952	-4.501	-0.203	0.143
-728.937	800.000	0.091	-0.403
-727.923	-118.732	-0.259	-0.047
-726.908	-67.151	-0.204	0.082
-725.894	-101.038	-0.091	0.023
-724.879	179.409	0.049	0.073
-723.864	800.000	-0.116	-0.386
-722.850	139.055	0.137	-0.183
-721.835	690.597	-0.098	-0.262
-720.821	-62.343	0.150	-0.064
-719.806	11.513	0.062	-0.049
-718.791	-113.098	0.404	-0.081
-717.777	800.000	-0.040	0.151
-716.762	-200.000	-0.001	-0.065
-715.748	-48.724	-0.127	-0.062
-714.733	-200.000	-0.010	-0.150
-713.718	800.000	-0.042	-0.147
-712.704	800.000	0.091	-0.400
-711.689	-109.634	-0.203	-0.044
-710.675	-55.817	-0.215	-0.098
-709.660	-200.000	-0.013	-0.160
-708.645	-200.000	-0.021	-0.225
-707.631	254.654	-0.139	0.242
-706.616	32.967	0.236	0.208
-705.602	157.858	0.026	0.037
-704.587	44.062	-0.331	0.309
-703.572	-17.026	0.302	-0.194
-702.558	800.000	0.024	0.098
-701.543	62.115	0.308	-0.313
-700.529	133.709	0.048	-0.063
-699.514	315.144	-0.181	0.347
-698.499	-33.606	0.077	0.043
-697.485	800.000	0.059	-0.249
-696.470	-200.000	-0.042	-0.241
-695.456	-157.496	0.225	-0.014
-694.441	-5.482	-0.178	0.124
-693.426	-141.236	-0.141	0.015
-692.412	800.000	0.004	0.014
-691.397	-110.278	0.313	-0.066
-690.383	-61.989	0.205	0.087
-689.368	344.816	0.173	0.345
-688.354	-73.066	-0.393	-0.147
-687.339	120.211	-0.152	-0.192
-686.324	348.704	-0.057	-0.114
-685.310	-101.285	0.366	0.091
-684.295	105.101	-0.298	0.358
-683.281	-200.000	0.016	-0.197
-682.266	-200.000	-0.012	-0.281
-681.251	-200.000	-0.018	0.285
-680.237	-137.709	0.495	-0.057
-679.222	247.925	-0.026	0.045
-678.208	800.000	-0.088	-0.265
-677.193	-93.597	-0.260	-0.073
-676.178	800.000	-0.064	0.232
-675.164	778.806	-0.129	0.359
-674.149	-8.609	-0.359	0.245
-673.135	322.499	-0.021	0.040
-672.120	67.566	0.099	0.103
-671.105	-200.000	0.029	-0.144
-670.091	800.000	0.015	0.048
-669.076	-114.427	-0.179	0.035
-668.062	-37.425	0.363	-0.197
-667.047	-160.362	-0.164	-0.009
-666.032	6.654	0.125	-0.095
-665.018	104.038	-0.314	-0.376
-664.003	91.358	0.195	-0.223
-662.989	-82.468	0.201	-0.067
-661.974	-152.339	-0.347	0.025
-660.959	-57.384	0.031	-0.014
-659.945	-199.389	-0.238	-0.001
-658.930	-200.000	-0.089	-0.400
-657.916	-120.125	0.138	-0.024
-656.901	3.098	0.093	-0.069
-655.886	-166.958	-0.305	-0.013
-654.872	-17.993	0.218	-0.139
-653.857	-107.759	0.090	0.020
-652.843	-91.513	-0.176	-0.051
-651.828	-143.330	0.325	0.032
-650.814	-101.258	-0.156	-0.039
-649.799	314.084	0.245	-0.468
-648.784	-145.287	-0.144	0.013
-647.770	-200.000	0.006	0.195
-646.755	-200.000	0.035	-0.321
-645.741	-200.000	-0.018	0.237
-644.726	14.067	-0.016	-0.013
-643.711	800.000	-0.044	-0.127
-642.697	-89.067	-0.176	-0.053
-641.682	-200.000	-0.029	-0.190
-640.668	-91.193	0.423	-0.123
-639.653	-91.677	0.082	-0.024
-638.638	27.356	-0.050	-0.042
-637.624	113.385	0.312	-0.385
-636.609	174.399	0.175	-0.258
-635.595	133.506	-0.100	0.132
-634.580	-41.381	-0.212	0.111
-633.565	-23.799	0.164	-0.100
-632.551	2.154	-0.125	0.092
-631.536	177.098	0.158	-0.234
-630.522	78.615	0.202	-0.219
-629.507	-42.380	-0.135	-0.070
-628.492	-95.883	-0.295	-0.080
-627.478	134.441	0.039	-0.051
-626.463	129.531	0.142	0.184
-625.449	-51.689	-0.108	-0.051
-624.434	800.000	0.067	-0.272
-623.419	-44.533	-0.118	-0.060
-622.405	800.000	-0.098	0.327
-621.390	562.241	0.068	0.167
-620.376	-24.681	0.104	-0.063
-619.361	-98.044	0.146	0.038
-618.346	-111.520	-0.399	0.082
-617.332	-104.659	-0.249	-0.058
-616.317	-200.000	0.224	0.000
-615.303	47.115	0.305	-0.288
-614.288	230.546	-0.163	0.271
-613.273	-76.380	-0.050	-0.018
-612.259	41.397	0.174	-0.160
-611.244	579.776	0.148	-0.369
-610.230	-200.000	0.012	-0.250
-609.215	153.889	0.173	-0.241
-608.201	66.069	-0.080	-0.083
-607.186	-103.193	0.120	0.029
-606.171	-86.852	-0.134	-0.042
-605.157	-200.000	0.059	0.301
-604.142	248.373	-0.091	-0.156
-603.128	193.421	-0.125	0.192
-602.113	791.366	-0.018	-0.051
-601.098	168.202	-0.092	0.133
-600.084	-200.000	-0.106	0.000
-599.069	-0.166	-0.041	0.030
-598.055	-200.000	-0.023	-0.276
-597.040	142.108	0.122	-0.165
-596.025	-158.918	-0.332	0.019
-595.011	800.000	0.128	0.361
-593.996	232.932	0.196	-0.326
-592.982	275.455	-0.095	0.171
-591.967	42.559	0.117	-0.108
-590.952	377.789	-0.144	-0.298
-589.938	48.983	0.158	-0.151
-588.923	-102.964	-0.424	-0.102
-587.909	72.657	-0.051	0.054
-586.894	-67.863	-0.095	0.038
-585.879	-102.977	-0.142	0.034
-584.865	-114.563	-0.183	0.036
-583.850	-27.754	0.041	-0.024
-582.836	290.566	0.124	-0.229
-581.821	26.173	0.241	0.204
-580.806	-200.000	-0.019	0.203
-579.792	305.930	0.141	0.265
-578.777	-126.767	-0.354	-0.053
-577.763	727.242	0.013	-0.034
-576.748	-116.443	0.153	0.029
-575.733	-200.000	0.032	-0.248
-574.719	800.000	-0.113	-0.401
-573.704	75.076	0.261	0.279
-572.690	173.917	0.031	0.045
-571.675	14.547	0.314	0.248
-570.661	46.415	0.084	0.079
-569.646	-190.970	-0.131	0.001
-568.631	800.000	-0.072	-0.306
-567.617	-47.905	0.255	0.125
-566.602	-15.514	0.246	-0.159
-565.588	22.339	-0.130	0.108
-564.573	-200.000	-0.001	0.098
-563.558	800.000	0.069	0.245
-562.544	800.000	0.156	0.574
-561.529	295.652	-0.106	0.197
-560.515	800.000	0.069	-0.280
-559.500	-190.929	-0.120	-0.001
-558.485	292.716	0.124	-0.229
-557.471	679.752	0.087	0.230
-556.456	170.736	-0.174	0.253
-555.442	210.392	-0.159	0.254
-554.427	-131.415	-0.322	0.043
-553.412	-200.000	0.002	0.175
-552.398	-83.058	-0.374	0.122
-551.383	-161.710	-0.404	-0.021
-550.369	-101.460	-0.406	0.100
-549.354	-64.738	-0.192	-0.079
-548.339	0.221	-0.110	-0.079
-547.325	800.000	0.054	0.181
-546.310	294.158	0.137	0.254
-545.296	-33.190	-0.173	-0.097
-544.281	-109.955	0.134	-0.028
-543.266	119.127	-0.022	-0.027
-542.252	-89.134	0.142	0.042
-541.237	-100.116	-0.091	0.023
-540.223	-105.382	-0.340	-0.078
-539.208	-127.146	0.261	-0.039
-538.193	-200.000	0.038	-0.293
-537.179	-200.000	0.037	-0.233
-536.164	-200.000	0.003	-0.206
-535.150	-200.000	0.013	-0.157
-534.135	135.256	-0.065	0.086
-533.121	378.132	-0.033	0.068
-532.106	111.609	-0.029	0.035
-531.091	-53.775	0.151	0.070
-530.077	-181.794	0.202	0.004
-529.062	-142.338	-0.069	0.007
-528.048	20.198	0.046	0.038
-527.033	-134.765	0.282	0.035
-526.018	463.778	0.055	0.124
-525.004	800.000	-0.006	-0.025
-523.989	-87.653	0.117	0.036
-522.975	481.924	-0.084	-0.193
-521.960	-36.623	-0.369	-0.201
-520.945	800.000	0.042	-0.178
-519.931	165.548	0.054	-0.077
-518.916	-73.085	-0.220	0.082
-517.902	-200.000	0.002	-0.056
-516.887	-81.566	-0.177	0.059
-515.872	-200.000	-0.043	0.245
-514.858	33.423	0.260	0.229
-513.843	334.065	-0.141	0.275
-512.829	800.000	0.060	-0.181
-511.814	6.451	-0.148	-0.111
-510.799	-73.000	0.296	0.110
-509.785	146.754	0.118	0.161
-508.770	-41.901	0.172	0.089
-507.756	-110.309	-0.145	0.030
-506.741	-200.000	0.038	-0.192
-505.726	436.173	-0.163	-0.358
-504.712	-126.414	0.066	0.010
-503.697	187.075	-0.145	-0.218
-502.683	-200.000	0.440	0.000
-501.668	800.000	0.055	0.155
-500.653	96.530	-0.049	-0.057
-499.639	-65.004	0.156	-0.064
-498.624	136.189	0.050	-0.067
-497.610	-106.299	-0.080	-0.018
-496.595	-200.000	0.037	-0.173
-495.581	236.068	0.078	0.131
-494.566	-134.993	-0.396	0.048
-493.551	-200.000	0.041	-0.232
-492.537	800.000	-0.089	-0.315
-491.522	-13.435	0.308	-0.202
-490.508	-57.844	-0.255	-0.112
-489.493	60.511	0.085	-0.085
-488.478	-183.421	0.552	0.010
-487.464	220.435	-0.257	0.417
-486.449	500.349	-0.191	0.444
-485.435	632.145	0.078	0.200
-484.420	394.485	0.136	0.287
-483.405	-200.000	-0.035	0.158
-482.391	120.164	-0.154	-0.193
-481.376	800.000	0.043	0.170
-480.362	-18.048	0.270	-0.171
-479.347	-200.000	-0.013	0.167
-478.332	-112.102	-0.262	0.053
-477.318	-200.000	0.032	0.188
-476.303	137.288	0.070	0.092
-475.289	800.000	0.097	0.330
-474.274	146.446	0.225	0.304
-473.259	83.959	-0.303	-0.334
-472.245	-16.148	0.165	0.106
-471.230	-15.405	0.390	0.252
-470.216	-67.912	0.091	-0.036
-469.201	800.000	-0.082	-0.306
-468.186	50.387	-0.232	-0.221
-467.172	150.645	0.129	-0.177
-466.157	3.739	-0.095	-0.070
-465.143	-37.992	-0.255	0.137
-464.128	800.000	0.048	-0.191
-463.113	-200.000	-0.012	-0.060
-462.099	142.585	-0.141	-0.189
-461.084	-2.086	0.168	0.119
-460.070	-76.175	-0.304	0.108
-459.055	212.911	-0.184	-0.293
-458.040	23.765	0.051	0.042
-457.026	-27.886	-0.147	0.086
-456.011	-22.547	0.401	0.245
-454.997	353.517	-0.065	0.131
-453.982	-158.483	0.115	0.007
-452.968	-144.279	0.442	-0.042
-451.953	-200.000	0.008	0.176
-450.938	-71.936	-0.289	0.109
-449.924	800.000	-0.013	0.042
-448.909	27.882	-0.256	-0.218
-447.895	586.989	-0.050	-0.123
-446.880	-59.689	0.230	0.100
-445.865	-200.000	0.023	-0.335
-444.851	90.558	-0.108	-0.122
-443.836	-161.939	0.164	0.008
-442.822	-129.862	-0.306	-0.042
-441.807	29.737	0.211	0.181
-440.792	-200.000	0.030	0.303
-439.778	-169.686	0.189	-0.007
-438.763	4.165	0.236	0.174
-437.749	-127.572	-0.212	0.031
-436.734	-200.000	0.031	-0.190
-435.719	-32.025	0.188	-0.106
-434.705	-200.000	0.064	0.374
-433.690	-41.228	-0.124	0.065
-432.676	176.058	0.093	0.136
-431.661	-200.000	0.002	0.130
-430.646	-200.000	-0.034	-0.287
-429.632	425.872	-0.082	-0.178
-428.617	527.588	0.080	-0.190
-427.603	-20.640	-0.121	0.075
-426.588	139.657	-0.075	0.100
-425.573	-94.767	-0.408	-0.112
-424.559	-200.000	0.011	-0.348
-423.544	-200.000	0.029	0.166
-422.530	-31.344	-0.086	0.049
-421.515	800.000	-0.095	-0.281
-420.500	-101.641	0.177	-0.043
-419.486	101.568	-0.080	-0.094
-418.471	-143.205	-0.135	-0.013
-417.457	-13.582	-0.147	-0.096
-416.442	327.175	-0.166	0.320
-415.428	-100.993	-0.170	-0.042
-414.413	-200.000	0.072	0.336
-413.398	-132.167	-0.224	-0.029
-412.384	267.697	-0.086	-0.152
-411.369	64.613	-0.305	0.310
-410.355	653.766	-0.118	0.304
-409.340	-63.464	0.119	0.049
-408.325	-184.280	-0.166	-0.003
-407.311	76.815	-0.255	-0.272
-406.296	-200.000	0.029	0.265
-405.282	-200.000	-0.004	0.102
-404.267	69.901	0.116	-0.121
-403.252	322.925	-0.083	-0.159
-402.238	-28.085	-0.266	-0.155
-401.223	-126.203	-0.326	0.049
-400.209	-21.605	0.300	0.184
-399.194	-176.233	0.143	0.004
-398.179	340.525	-0.160	0.314
-397.165	800.000	0.025	-0.109
-396.150	-200.000	0.043	0.204
-395.136	-119.046	-0.216	-0.038
-394.121	144.410	-0.159	0.214
-393.106	354.136	-0.059	-0.119
-392.092	62.958	-0.135	0.136
-391.077	-104.775	0.170	0.039
-390.063	800.000	-0.039	-0.125
-389.048	-128.571	-0.050	0.007
-388.033	279.209	-0.096	0.173
-387.019	572.750	0.113	0.277
-386.004	30.255	-0.249	0.214
-384.990	39.622	-0.123	0.111
-383.975	-32.450	0.193	-0.108
-382.960	-123.440	0.118	-0.019
-381.946	-200.000	-0.016	-0.141
-380.931	-200.000	0.028	-0.348
-379.917	-38.118	0.286	-0.153
-378.902	68.242	-0.225	0.232
-377.888	-135.454	-0.162	0.019
-376.873	106.492	0.137	0.163
-375.858	-200.000	0.061	-0.367
-374.844	4.216	0.292	-0.215
-373.829	800.000	-0.065	-0.265
-372.815	-26.277	0.098	0.058
-371.800	-137.615	0.391	-0.044
-370.785	80.763	0.065	0.070
-369.771	-200.000	-0.057	0.317
-368.756	-82.595	-0.208	0.068
-367.742	144.208	-0.095	-0.128
-366.727	120.946	-0.125	0.156
-365.712	-19.766	0.356	-0.221
-364.698	179.855	-0.245	-0.361
-363.683	455.603	-0.079	-0.176
-362.669	-153.919	-0.092	0.006
-361.654	28.702	-0.165	0.141
-360.639	656.305	0.066	-0.171
-359.625	-200.000	0.079	-0.428
-358.610	98.700	-0.171	-0.198
-357.596	-134.652	-0.200	0.025
-356.581	-56.233	-0.135	-0.060
-355.566	-31.752	-0.092	-0.052
-354.552	176.165	-0.148	-0.215
-353.537	26.844	0.107	0.090
-352.523	419.491	0.128	0.276
-351.508	65.565	-0.041	0.042
-350.493	-200.000	-0.064	-0.321
-349.479	-118.545	-0.100	-0.018
-348.464	-122.399	0.250	-0.041
-347.450	-179.106	0.175	-0.004
-346.435	222.042	0.126	-0.204
-345.420	800.000	-0.069	-0.202
-344.406	800.000	0.011	-0.034
-343.391	-61.988	0.164	-0.069
-342.377	3.911	-0.172	0.126
-341.362	181.497	0.089	-0.131
-340.348	-20.881	0.127	0.078
-339.333	115.017	0.133	0.163
-338.318	800.000	-0.046	0.198
-337.304	-15.754	-0.184	0.118
-336.289	82.490	-0.188	-0.205
-335.275	-8.392	0.015	0.010
-334.260	-59.647	0.203	0.087
-333.245	800.000	-0.109	-0.310
-332.231	78.114	0.160	0.171
-331.216	10.470	0.228	0.174
-330.202	-116.423	0.025	-0.005
-329.187	88.991	0.085	0.095
-328.172	-200.000	0.023	0.189
-327.158	-32.847	0.127	-0.071
-326.143	-84.752	0.260	0.082
-325.129	-59.604	-0.178	0.077
-324.114	-149.914	-0.126	-0.010
-323.099	-88.780	-0.066	-0.020
-322.085	22.324	-0.348	-0.285
-321.070	14.754	-0.088	0.069
-320.056	800.000	-0.028	-0.110
-319.041	246.386	-0.193	-0.327
-318.026	-99.552	0.016	0.004
-317.012	800.000	-0.030	-0.123
-315.997	-200.000	-0.034	0.167
-314.983	-191.666	0.232	-0.002
-313.968	41.431	-0.225	-0.204
-312.953	-24.307	0.262	0.157
-311.939	-51.772	-0.104	0.048
-310.924	69.452	-0.302	0.312
-309.910	800.000	-0.127	0.368
-308.895	-200.000	-0.023	-0.346
-307.880	179.936	-0.039	0.057
-306.866	800.000	-0.075	0.254
-305.851	3.735	0.424	0.311
-304.837	308.288	-0.197	0.368
-303.822	-8.267	-0.243	-0.164
-302.807	-155.013	-0.067	-0.004
-301.793	-24.536	-0.145	-0.087
-300.778	41.555	0.133	0.121
-299.764	-12.667	-0.259	-0.169
-298.749	-200.000	0.006	-0.073
-297.735	98.687	-0.127	0.147
-296.720	-200.000	0.004	-0.061
-295.705	-45.648	-0.282	-0.140
-294.691	379.834	0.057	-0.117
-293.676	-89.342	0.129	0.038
-292.662	800.000	-0.057	-0.164
-291.647	-156.161	0.278	0.018
-290.632	267.862	0.089	0.155
-289.618	-177.114	0.115	0.003
-288.603	-200.000	0.009	0.097
-287.589	-133.826	0.212	0.026
-286.574	30.577	-0.092	0.079
-285.559	-68.633	-0.273	0.106
-284.545	-200.000	0.003	0.166
-283.530	-86.060	0.302	-0.094
-282.516	800.000	0.017	-0.063
-281.501	-64.118	-0.246	-0.100
-280.486	-49.892	0.274	-0.130
-279.472	800.000	-0.028	0.090
-278.457	-74.428	-0.070	-0.025
-277.443	69.274	-0.135	0.139
-276.428	42.280	-0.139	0.127
-275.413	310.383	0.263	0.493
-274.399	139.356	-0.122	0.160
-273.384	5.097	0.211	-0.155
-272.370	-97.088	0.308	-0.081
-271.355	25.829	0.189	0.158
-270.340	143.284	-0.142	-0.190
-269.326	21.100	-0.204	-0.166
-268.311	-16.185	0.286	-0.182
-267.297	-200.000	-0.036	-0.238
-266.282	26.078	0.272	0.227
-265.267	-64.020	0.170	0.070
-264.253	311.654	-0.135	-0.253
-263.238	187.897	-0.084	-0.126
-262.224	37.646	-0.053	-0.048
-261.209	800.000	0.134	-0.375
-260.195	469.220	0.039	-0.087
-259.180	79.714	0.143	-0.153
-258.165	-200.000	0.010	-0.119
-257.151	-199.523	0.304	-0.002
-256.136	-57.309	-0.266	-0.117
-255.122	-126.249	-0.063	0.009
-254.107	-102.737	0.089	0.021
-253.092	278.485	0.060	-0.107
-252.078	-90.160	-0.098	0.029
-251.063	157.830	0.106	-0.146
-250.049	248.125	-0.110	0.187
-249.034	-200.000	-0.003	0.162
-248.019	-200.000	0.025	-0.303
-247.005	-200.000	-0.044	-0.194
-245.990	72.854	0.255	-0.267
-244.976	-68.271	-0.244	0.095
-243.961	-200.000	0.020	0.153
-242.946	-200.000	-0.011	0.074
-241.932	-200.000	-0.046	-0.222
-240.917	-37.390	0.232	0.124
-239.903	-0.564	-0.046	-0.033
-238.888	-109.032	-0.188	0.040
-237.873	-160.640	-0.149	0.008
-236.859	-43.853	0.125	-0.063
-235.844	63.485	-0.196	0.197
-234.830	-74.506	0.466	-0.168
-233.815	-200.000	-0.029	0.177
-232.800	-87.594	0.102	0.031
-231.786	-200.000	0.086	0.428
-230.771	267.523	-0.061	0.107
-229.757	-48.856	-0.177	0.085
-228.742	-33.580	-0.125	-0.069
-227.727	103.294	0.120	0.140
-226.713	198.925	0.139	-0.212
-225.698	-132.956	-0.179	0.023
-224.684	132.084	-0.038	-0.049
-223.669	-127.089	0.289	0.042
-222.655	-55.614	-0.163	-0.073
-221.640	-4.582	0.309	-0.213
-220.625	-186.705	-0.057	0.001
-219.611	124.322	0.207	0.261
-218.596	-200.000	0.019	0.084
-217.582	44.809	0.173	0.159
-216.567	-10.101	0.256	0.170
-215.552	57.726	-0.185	-0.180
-214.538	-94.274	-0.185	-0.051
-213.523	-87.885	-0.094	0.028
-212.509	5.392	0.076	-0.056
-211.494	-200.000	0.040	-0.201
-210.479	144.968	0.267	-0.357
-209.465	2.856	0.165	0.120
-208.450	32.115	0.106	0.092
-207.436	-135.580	-0.185	-0.022
-206.421	-97.305	-0.064	0.017
-205.406	273.788	0.080	0.142
-204.392	474.268	0.163	0.368
-203.377	26.267	0.084	0.070
-202.363	239.192	0.114	0.189
-201.348	-200.000	-0.017	-0.130
-200.333	-100.966	-0.170	0.042
-199.319	-187.594	0.330	0.004
-198.304	-85.839	0.350	0.108
-197.290	-61.399	0.190	0.080
-196.275	29.299	0.195	0.165
-195.260	-2.122	0.127	0.089
-194.246	172.928	0.017	-0.025
-193.231	800.000	0.063	0.191
-192.217	800.000	-0.028	0.090
-191.202	-36.840	0.178	-0.095
-190.187	-200.000	-0.016	0.120
-189.173	-150.543	-0.158	0.012
-188.158	145.487	-0.096	0.128
-187.144	-151.961	-0.200	0.015
-186.129	384.128	-0.142	0.291
-185.114	-71.803	-0.282	0.105
-184.100	-200.000	0.005	-0.185
-183.085	-200.000	-0.056	-0.354
-182.071	-200.000	0.028	-0.155
-181.056	83.591	-0.116	0.126
-180.042	-81.103	-0.162	-0.053
-179.027	557.394	-0.077	-0.186
-178.012	-61.729	-0.328	0.137
-176.998	62.587	0.156	-0.155
-175.983	152.167	0.082	0.112
-174.969	-200.000	-0.060	0.361
-173.954	-200.000	0.017	0.145
-172.939	-110.448	0.115	-0.024
-171.925	-200.000	-0.021	-0.370
-170.910	-200.000	-0.023	0.374
-169.896	-79.292	0.333	0.112
-168.881	-28.795	0.241	-0.138
-167.866	800.000	-0.028	-0.080
-166.852	140.501	0.047	-0.062
-165.837	216.534	-0.086	0.136
-164.823	5.719	0.159	-0.117
-163.808	-49.026	-0.149	-0.071
-162.793	-200.000	0.264	0.001
-161.779	413.280	0.146	0.310
-160.764	69.833	0.357	-0.367
-159.750	-83.949	-0.192	0.061
-158.735	800.000	-0.081	0.256
-157.720	-18.067	0.110	0.069
-156.706	-61.523	-0.131	-0.055
-155.691	-200.000	-0.019	0.167
-154.677	291.789	-0.136	0.247
-153.662	234.011	-0.041	0.067
-152.647	800.000	-0.070	-0.245
-151.633	63.357	-0.059	0.059
-150.618	-20.215	-0.208	0.128
-149.604	-16.396	0.232	-0.147
-148.589	394.404	-0.027	-0.057
-147.574	83.392	-0.167	0.182
-146.560	-200.000	-0.019	0.174
-145.545	-45.321	-0.128	-0.063
-144.531	290.270	-0.082	-0.148
-143.516	-86.490	0.080	0.025
-142.502	-200.000	0.014	-0.248
-141.487	800.000	0.110	-0.359
-140.472	-164.278	-0.128	0.006
-139.458	800.000	-0.140	0.468
-138.443	-31.683	-0.333	-0.186
-137.429	-200.000	0.021	0.172
-136.414	114.466	0.097	0.117
-135.399	-200.000	0.045	0.243
-134.385	-49.118	0.134	0.064
-133.370	175.853	0.067	0.096
-132.356	608.842	0.093	-0.231
-131.341	143.271	0.060	-0.079
-130.326	652.035	-0.080	-0.204
-129.312	-179.373	-0.313	0.007
-128.297	166.841	0.096	0.136
-127.283	800.000	-0.085	0.245
-126.268	-127.234	0.234	-0.034
-125.253	800.000	-0.063	-0.236
-124.239	800.000	0.091	-0.268
-123.224	483.945	0.049	-0.112
-122.210	87.215	-0.342	0.376
