DTS Sentinel unit serial number:	SN413079Multiplexer serial number:	ORYXHardware model number:	OX4-SRSoftware version number:	ORYX F/W v4.00 Oryx Data Collector v3.7.2.0data status	okinstallation	princeton_trtdifferential loss correction	single-endedforward channel	channel 2reverse channel	N/Adate	2019/09/17time	01:55:35forward acquisition time	60.00reverse acquisition time	0.00gamma	496.2192k internal	0.2328k external	0.2328temperature offset calibration	0.9977default loss term (dB/km)	0.3790temperature slope calibration	1.0000multiplexer offset coefficient	1.0000multiplexer slope coefficient	1.0000fibre end	0.00T internal ref (°C)	29.62T ext. ref 1 (°C)	0.13T ext. ref 2 (°C)	24.55length (m)	temperature (°C)	Stokes	anti-Stokes-747.200	74.212	-0.192	0.203
-746.185	-32.363	-0.165	0.093
-745.171	48.121	0.032	0.030
-744.156	-71.158	0.101	0.038
-743.142	182.418	-0.114	0.169
-742.127	212.600	0.137	0.218
-741.112	-102.690	-0.177	-0.043
-740.098	742.706	0.044	0.119
-739.083	-35.030	0.186	-0.102
-738.069	54.104	0.307	0.297
-737.054	-200.000	0.052	0.244
-736.039	629.649	0.087	-0.222
-735.025	-105.056	-0.129	-0.030
-734.010	-161.126	0.243	-0.013
-732.996	-69.586	-0.407	-0.157
-731.981	228.702	0.214	-0.351
-730.966	-144.503	-0.359	-0.033
-729.952	-46.450	-0.310	-0.153
-728.937	-18.694	-0.449	-0.282
-727.923	91.415	-0.109	-0.124
-726.908	-155.964	-0.200	-0.013
-725.894	-41.626	-0.259	-0.134
-724.879	-83.488	-0.119	0.038
-723.864	4.332	0.180	0.133
-722.850	-200.000	-0.005	-0.050
-721.835	-61.809	0.055	-0.023
-720.821	-200.000	-0.024	-0.163
-719.806	-169.670	0.236	-0.009
-718.791	-200.000	0.030	-0.265
-717.777	-161.871	-0.128	-0.007
-716.762	72.087	0.110	0.116
-715.748	250.267	0.033	-0.056
-714.733	-200.000	-0.007	0.036
-713.718	-58.414	0.314	-0.137
-712.704	58.804	-0.061	0.060
-711.689	-72.581	-0.241	-0.089
-710.675	488.764	-0.208	-0.478
-709.660	-200.000	0.019	0.260
-708.645	-122.875	-0.223	0.036
-707.631	720.622	0.075	0.202
-706.616	-200.000	-0.007	-0.149
-705.602	-107.926	-0.292	-0.064
-704.587	251.916	-0.092	0.158
-703.572	-200.000	-0.079	0.365
-702.558	-200.000	-0.024	-0.161
-701.543	-200.000	-0.056	0.256
-700.529	800.000	-0.020	0.072
-699.514	134.046	-0.167	-0.217
-698.499	-49.940	-0.242	-0.116
-697.485	47.047	-0.056	-0.052
-696.470	-7.767	0.190	0.129
-695.456	800.000	0.013	0.039
-694.441	800.000	0.023	0.080
-693.426	800.000	0.056	0.184
-692.412	50.491	0.138	-0.132
-691.397	800.000	0.058	-0.197
-690.383	399.439	0.117	-0.247
-689.368	-20.322	0.140	-0.087
-688.354	-63.716	-0.271	0.112
-687.339	131.174	0.138	0.178
-686.324	-156.328	-0.093	-0.006
-685.310	27.963	-0.411	-0.349
-684.295	-178.906	-0.120	-0.003
-683.281	431.126	-0.069	-0.150
-682.266	-18.846	0.186	0.116
-681.251	-46.509	0.131	0.065
-680.237	-168.117	0.219	0.009
-679.222	97.637	0.230	-0.266
-678.208	107.012	-0.071	-0.085
-677.193	-95.281	0.218	0.059
-676.178	-77.884	-0.222	0.077
-675.164	-200.000	-0.077	-0.443
-674.149	-116.400	-0.381	0.071
-673.135	800.000	-0.031	0.106
-672.120	363.238	0.115	0.232
-671.105	-93.669	-0.160	-0.044
-670.091	-108.998	-0.227	-0.049
-669.076	-13.844	-0.095	0.061
-668.062	47.024	0.269	-0.251
-667.047	-200.000	0.019	0.171
-666.032	-65.603	-0.196	0.079
-665.018	-200.000	0.097	-0.536
-664.003	128.820	0.110	-0.141
-662.989	-92.973	-0.140	-0.039
-661.974	156.228	0.114	0.158
-660.959	-30.195	0.105	0.060
-659.945	158.557	-0.187	-0.261
-658.930	42.864	-0.046	-0.042
-657.916	9.179	-0.055	-0.042
-656.901	87.199	0.053	0.058
-655.886	-126.800	-0.159	0.024
-654.872	800.000	-0.037	0.156
-653.857	400.094	-0.106	-0.223
-652.843	-53.731	-0.054	-0.025
-651.828	173.876	0.123	-0.178
-650.814	570.805	0.039	-0.096
-649.799	198.060	-0.257	-0.394
-648.784	800.000	0.036	0.133
-647.770	117.043	0.089	-0.110
-646.755	219.402	-0.045	-0.072
-645.741	-123.044	-0.052	0.008
-644.726	42.039	0.145	-0.132
-643.711	-46.111	-0.363	-0.179
-642.697	-66.129	-0.170	0.068
-641.682	-172.560	0.362	-0.011
-640.668	-116.230	-0.283	-0.053
-639.653	-200.000	-0.040	0.222
-638.638	-154.271	-0.243	-0.016
-637.624	69.701	-0.158	0.164
-636.609	110.451	-0.122	-0.147
-635.595	102.868	-0.139	-0.164
-634.580	45.589	-0.143	0.132
-633.565	56.211	-0.068	-0.066
-632.551	607.501	0.063	-0.158
-631.536	-85.002	0.450	-0.141
-630.522	-98.009	-0.132	0.034
-629.507	800.000	0.085	0.317
-628.492	-51.320	-0.309	0.145
-627.478	-141.831	0.225	-0.023
-626.463	110.176	-0.167	0.202
-625.449	-6.073	0.170	-0.117
-624.434	-200.000	-0.003	-0.041
-623.419	-131.826	-0.125	-0.016
-622.405	-52.075	0.488	-0.227
-621.390	-120.089	0.341	-0.058
-620.376	123.124	0.169	-0.212
-619.361	-200.000	-0.015	-0.208
-618.346	326.255	-0.114	0.219
-617.332	-35.271	0.087	0.047
-616.317	-43.155	0.029	0.015
-615.303	33.242	-0.185	0.161
-614.288	-200.000	0.002	0.167
-613.273	-97.214	-0.289	0.076
-612.259	800.000	0.037	-0.105
-611.244	138.526	0.045	-0.059
-610.230	-158.551	-0.303	-0.018
-609.215	58.919	0.078	-0.077
-608.201	800.000	-0.020	0.067
-607.186	-142.267	-0.564	0.056
-606.171	-51.277	0.334	-0.157
-605.157	-83.343	-0.307	0.099
-604.142	-104.138	-0.091	0.021
-603.128	-138.035	-0.252	-0.028
-602.113	-200.000	-0.061	0.279
-601.098	412.202	-0.050	0.107
-600.084	8.275	0.185	-0.139
-599.069	800.000	-0.102	-0.345
-598.055	19.432	0.180	-0.145
-597.040	133.262	-0.157	-0.203
-596.025	-79.252	-0.460	-0.156
-595.011	67.442	0.121	-0.123
-593.996	34.524	0.054	-0.047
-592.982	23.305	-0.304	-0.250
-591.967	-9.674	-0.208	-0.139
-590.952	800.000	-0.045	-0.162
-589.938	-102.025	-0.167	-0.040
-588.923	-3.697	-0.171	-0.119
-587.909	164.365	-0.092	-0.130
-586.894	46.968	-0.133	0.124
-585.879	-200.000	-0.004	0.432
-584.865	59.216	-0.188	-0.185
-583.850	311.995	-0.040	0.075
-582.836	-21.809	0.045	-0.027
-581.821	-31.913	-0.136	0.076
-580.806	-200.000	0.003	-0.136
-579.792	-122.714	0.188	0.031
-578.777	183.625	0.236	-0.349
-577.763	-200.000	-0.010	0.121
-576.748	800.000	0.077	-0.218
-575.733	-2.931	-0.153	-0.107
-574.719	603.867	0.084	-0.209
-573.704	-58.262	0.071	-0.031
-572.690	-125.161	0.318	-0.049
-571.675	800.000	0.006	-0.023
-570.661	18.156	0.170	0.135
-569.646	363.163	0.074	0.149
-568.631	-15.853	0.213	0.136
-567.617	319.678	-0.086	0.163
-566.602	65.575	-0.248	-0.251
-565.588	800.000	-0.066	-0.239
-564.573	-200.000	0.009	-0.073
-563.558	-120.972	0.091	-0.015
-562.544	1.836	0.155	0.112
-561.529	150.948	0.145	-0.197
-560.515	41.892	0.154	0.140
-559.500	30.097	0.134	0.115
-558.485	-9.993	-0.270	0.179
-557.471	0.141	-0.187	-0.134
-556.456	-200.000	0.019	-0.375
-555.442	-67.401	0.397	0.156
-554.427	-143.700	-0.250	0.024
-553.412	261.976	-0.004	0.007
-552.398	94.406	-0.151	0.172
-551.383	-76.674	-0.253	0.089
-550.369	-54.628	0.242	-0.109
-549.354	17.075	-0.052	-0.041
-548.339	574.861	-0.220	-0.537
-547.325	-41.845	0.220	0.113
-546.310	86.356	0.009	-0.010
-545.296	80.274	-0.070	0.075
-544.281	-145.321	0.130	-0.012
-543.266	-137.786	-0.175	-0.020
-542.252	233.522	-0.130	0.214
-541.237	800.000	-0.114	-0.375
-540.223	-13.084	0.132	-0.086
-539.208	800.000	-0.048	-0.143
-538.193	-62.240	0.043	0.018
-537.179	-77.498	-0.379	-0.132
-536.164	17.385	0.104	0.082
-535.150	-86.150	-0.202	0.062
-534.135	-99.757	0.160	-0.040
-533.121	401.894	-0.005	-0.011
-532.106	-200.000	-0.016	0.096
-531.091	800.000	-0.045	0.131
-530.077	111.107	-0.108	-0.130
-529.062	-78.758	0.117	0.040
-528.048	800.000	0.052	-0.210
-527.033	-112.334	-0.025	-0.005
-526.018	-57.198	-0.322	0.142
-525.004	89.030	-0.146	-0.163
-523.989	131.260	0.102	-0.131
-522.975	-105.415	0.155	0.035
-521.960	20.530	0.211	-0.171
-520.945	90.409	0.176	-0.197
-519.931	258.853	0.127	-0.219
-518.916	-82.914	0.237	-0.076
-517.902	800.000	0.017	0.067
-516.887	386.507	-0.096	0.197
-515.872	-79.149	0.284	0.096
-514.858	252.989	-0.164	-0.279
-513.843	57.770	-0.292	0.285
-512.829	-200.000	-0.025	0.233
-511.814	552.781	-0.114	-0.274
-510.799	-200.000	-0.051	-0.228
-509.785	86.159	-0.206	0.227
-508.770	-83.537	0.307	0.098
-507.756	800.000	-0.075	0.320
-506.741	-183.538	0.043	0.001
-505.726	491.263	0.098	0.225
-504.712	-168.342	-0.185	0.007
-503.697	33.956	0.241	0.210
-502.683	800.000	-0.082	0.289
-501.668	26.746	0.039	-0.033
-500.653	-110.690	-0.093	0.019
-499.639	-44.948	-0.073	0.036
-498.624	141.412	-0.033	0.044
-497.610	-101.386	-0.358	0.087
-496.595	-200.000	0.011	-0.115
-495.581	-200.000	-0.004	0.141
-494.566	121.281	0.132	-0.163
-493.551	800.000	-0.063	-0.190
-492.537	-139.767	0.205	-0.022
-491.522	-78.681	0.285	-0.097
-490.508	58.088	0.249	0.243
-489.493	65.154	-0.221	0.222
-488.478	367.468	-0.165	-0.333
-487.464	55.296	-0.265	-0.256
-486.449	-200.000	0.009	-0.042
-485.435	-32.978	-0.233	0.129
-484.420	-112.339	0.240	0.048
-483.405	-96.362	-0.142	-0.037
-482.391	98.789	0.075	0.086
-481.376	522.029	-0.070	-0.164
-480.362	220.046	0.109	0.174
-479.347	-200.000	0.000	0.011
-478.332	-68.317	0.187	-0.073
-477.318	-77.297	0.289	0.100
-476.303	65.751	-0.052	0.053
-475.289	800.000	-0.041	-0.119
-474.274	301.288	-0.163	0.300
-473.259	80.122	0.367	-0.394
-472.245	-90.537	0.178	0.051
-471.230	-157.802	0.139	-0.008
-470.216	-200.000	-0.019	0.305
-469.201	-200.000	0.007	-0.045
-468.186	193.005	-0.195	-0.294
-467.172	-30.299	0.065	0.037
-466.157	-162.795	0.082	-0.004
-465.143	-27.076	-0.437	0.254
-464.128	-142.298	0.157	-0.015
-463.113	-200.000	0.006	0.155
-462.099	-15.102	-0.193	0.123
-461.084	5.246	-0.280	-0.206
-460.070	-74.780	0.162	-0.058
-459.055	-3.234	-0.108	0.075
-458.040	-40.652	0.289	0.150
-457.026	82.116	0.195	0.211
-456.011	800.000	0.099	-0.277
-454.997	-5.670	0.240	-0.164
-453.982	-200.000	-0.011	0.129
-452.968	-200.000	-0.097	-0.000
-451.953	77.250	0.038	0.040
-450.938	-18.832	0.139	-0.086
-449.924	200.172	0.068	0.104
-448.909	140.213	-0.176	0.231
-447.895	-22.957	0.203	0.122
-446.880	-113.025	0.300	-0.059
-445.865	511.604	-0.029	-0.067
-444.851	-43.840	0.157	-0.079
-443.836	-60.251	0.122	0.052
-442.822	-161.201	-0.133	0.007
-441.807	800.000	-0.024	-0.106
-440.792	-200.000	0.007	0.034
-439.778	-162.052	-0.213	0.011
-438.763	-15.504	0.070	-0.045
-437.749	-136.996	-0.319	-0.036
-436.734	-110.575	-0.476	-0.098
-435.719	-58.196	0.194	-0.084
-434.705	268.412	-0.119	0.208
-433.690	105.977	-0.074	0.087
-432.676	-178.011	-0.128	-0.003
-431.661	29.584	0.211	0.179
-430.646	-51.383	0.128	0.060
-429.632	-0.872	-0.035	0.025
-428.617	138.873	0.190	-0.249
-427.603	359.426	0.087	0.173
-426.588	-4.370	-0.372	-0.256
-425.573	-20.595	-0.161	-0.098
-424.559	-1.614	-0.295	-0.207
-423.544	608.023	0.082	-0.204
-422.530	356.456	0.002	0.005
-421.515	12.344	-0.207	-0.159
-420.500	81.799	-0.252	0.272
-419.486	-160.482	0.098	-0.005
-418.471	96.438	0.065	-0.074
-417.457	17.926	-0.236	-0.187
-416.442	-24.250	0.156	-0.093
-415.428	-58.490	-0.191	0.083
-414.413	-12.127	0.138	-0.090
-413.398	800.000	0.051	-0.143
-412.384	-200.000	-0.027	0.134
-411.369	-200.000	0.067	0.306
-410.355	-8.064	0.013	0.009
-409.340	200.747	-0.152	-0.232
-408.325	-54.880	-0.125	0.056
-407.311	91.327	-0.218	-0.244
-406.296	-71.231	-0.399	0.149
-405.282	-200.000	0.055	0.264
-404.267	544.424	-0.109	0.259
-403.252	-45.722	0.130	-0.064
-402.238	-200.000	-0.049	-0.265
-401.223	-120.948	0.118	-0.020
-400.209	800.000	0.069	0.260
-399.194	-200.000	-0.027	0.141
-398.179	-200.000	0.031	-0.140
-397.165	68.610	0.158	0.161
-396.150	-176.056	-0.212	0.006
-395.136	800.000	0.053	-0.201
-394.121	-125.330	-0.423	-0.064
-393.106	-28.062	0.269	0.155
-392.092	-79.233	0.122	-0.041
-391.077	408.202	0.027	-0.056
-390.063	-99.723	0.222	0.055
-389.048	-200.000	-0.006	-0.242
-388.033	-108.601	-0.150	-0.032
-387.019	-108.586	0.376	0.080
-386.004	800.000	-0.030	0.108
-384.990	73.251	-0.184	0.191
-383.975	723.167	0.035	-0.091
-382.960	-121.462	-0.028	0.005
-381.946	-22.765	0.258	-0.155
-380.931	-89.506	0.292	0.085
-379.917	55.867	0.062	0.060
-378.902	19.020	-0.231	0.184
-377.888	-113.103	-0.254	-0.050
-376.873	800.000	-0.100	-0.334
-375.858	52.924	0.258	-0.245
-374.844	163.719	0.182	0.254
-373.829	-111.615	-0.145	0.029
-372.815	800.000	0.033	0.116
-371.800	466.514	0.044	-0.099
-370.785	551.921	0.084	-0.201
-369.771	-30.130	-0.101	0.057
-368.756	-200.000	0.020	0.213
-367.742	79.184	0.108	0.115
-366.727	-200.000	-0.007	0.126
-365.712	-18.687	0.291	0.180
-364.698	-38.229	0.089	-0.047
-363.683	-200.000	-0.000	-0.081
-362.669	153.267	0.116	0.158
-361.654	-200.000	0.019	-0.114
-360.639	-90.708	0.243	0.070
-359.625	-30.954	0.260	0.146
-358.610	-144.288	0.261	0.024
-357.596	-3.461	-0.320	-0.221
-356.581	-113.054	-0.019	0.004
-355.566	276.674	0.131	0.232
-354.552	-31.213	-0.063	0.035
-353.537	24.348	-0.087	-0.072
-352.523	-95.311	0.222	0.059
-351.508	-4.987	0.343	-0.234
-350.493	-200.000	-0.035	-0.328
-349.479	-171.178	0.104	-0.003
-348.464	685.361	-0.057	-0.148
-347.450	-200.000	-0.016	-0.199
-346.435	5.942	0.116	-0.085
-345.420	139.876	0.222	0.291
-344.406	-139.735	0.166	0.017
-343.391	-9.478	-0.151	0.100
-342.377	112.462	0.256	0.307
-341.362	800.000	0.066	0.199
-340.348	-200.000	-0.051	-0.236
-339.333	-88.397	0.256	0.076
-338.318	-200.000	-0.004	-0.318
-337.304	39.751	0.223	0.198
-336.289	647.144	-0.062	0.156
-335.275	11.744	-0.336	-0.256
-334.260	145.428	-0.043	-0.058
-333.245	170.280	-0.033	-0.047
-332.231	-113.116	0.368	-0.072
-331.216	-131.003	-0.080	-0.011
-330.202	-158.589	-0.140	0.008
-329.187	-200.000	0.001	0.135
-328.172	-62.585	0.329	-0.136
-327.158	7.086	-0.325	0.241
-326.143	-200.000	0.088	0.000
-325.129	-200.000	-0.054	0.293
-324.114	800.000	-0.023	0.065
-323.099	-99.869	0.094	-0.023
-322.085	140.186	-0.268	-0.350
-321.070	-115.602	-0.247	-0.046
-320.056	800.000	0.046	-0.129
-319.041	-58.828	0.348	-0.149
-318.026	-200.000	-0.029	-0.355
-317.012	435.455	-0.174	-0.376
-315.997	-79.836	0.050	0.017
-314.983	157.201	-0.089	-0.121
-313.968	-26.666	0.340	-0.197
-312.953	-181.679	-0.073	-0.001
-311.939	101.726	-0.212	-0.244
-310.924	800.000	0.015	0.051
-309.910	175.345	-0.245	0.352
-308.895	800.000	0.106	0.322
-307.880	88.924	-0.234	0.258
-306.866	551.516	-0.093	-0.222
-305.851	-68.167	-0.342	-0.132
-304.837	87.938	0.239	-0.263
-303.822	-164.380	-0.282	-0.013
-302.807	-200.000	-0.021	-0.273
-301.793	-161.395	0.264	0.013
-300.778	-44.677	0.221	-0.109
-299.764	631.101	-0.041	0.102
-298.749	247.720	-0.242	0.404
-297.735	-77.269	-0.347	0.120
-296.720	-142.059	0.176	0.017
-295.705	-79.432	-0.303	0.101
-294.691	-50.267	0.074	0.035
-293.676	-134.874	0.230	-0.028
-292.662	-88.508	0.222	-0.065
-291.647	-154.429	0.380	0.025
-290.632	623.486	0.058	0.146
-289.618	-92.359	-0.025	-0.007
-288.603	-200.000	0.023	0.121
-287.589	-108.885	-0.364	-0.077
-286.574	-200.000	0.005	-0.097
-285.559	-200.000	-0.046	0.204
-284.545	-103.062	0.128	-0.030
-283.530	-123.931	0.296	-0.046
-282.516	-109.892	-0.184	-0.038
-281.501	187.845	0.059	0.087
-280.486	800.000	-0.054	0.171
-279.472	-166.880	0.525	0.021
-278.457	359.845	0.039	0.077
-277.443	7.079	-0.234	0.173
-276.428	-21.274	0.177	0.107
-275.413	0.742	-0.175	0.124
-274.399	426.739	-0.167	0.357
-273.384	-200.000	0.006	-0.123
-272.370	254.039	-0.126	0.213
-271.355	676.880	0.115	-0.295
-270.340	-200.000	-0.042	-0.296
-269.326	419.617	-0.076	-0.162
-268.311	153.928	0.165	0.223
-267.297	263.790	0.019	-0.032
-266.282	-200.000	0.017	0.210
-265.267	-200.000	0.015	0.361
-264.253	-91.862	-0.313	-0.088
-263.238	800.000	0.092	-0.321
-262.224	-111.386	-0.344	0.069
-261.209	-200.000	0.058	-0.295
-260.195	-142.101	0.243	0.024
-259.180	-68.105	0.310	0.119
-258.165	800.000	0.102	0.316
-257.151	-200.000	0.031	0.148
-256.136	-81.802	0.110	-0.036
-255.122	-153.970	0.185	-0.012
-254.107	-200.000	0.034	0.240
-253.092	-101.275	-0.433	-0.105
-252.078	800.000	-0.076	-0.322
-251.063	11.109	-0.228	-0.172
-250.049	-92.002	-0.155	0.043
-249.034	506.168	0.089	-0.205
-248.019	-186.728	0.239	-0.003
-247.005	-23.099	-0.294	0.175
-245.990	102.799	-0.152	-0.176
-244.976	64.329	-0.135	0.134
-243.961	-29.744	0.032	0.018
-242.946	-196.165	-0.196	-0.001
-241.932	1.326	-0.064	-0.045
-240.917	800.000	0.030	0.086
-239.903	-200.000	-0.014	0.389
-238.888	-130.687	0.195	0.026
-237.873	39.388	0.216	0.191
-236.859	-4.018	-0.113	-0.077
-235.844	-83.390	0.253	-0.080
-234.830	-33.183	0.194	0.106
-233.815	223.297	0.152	0.242
-232.800	114.708	-0.117	0.141
-231.786	-200.000	-0.020	0.122
-230.771	-200.000	0.012	0.091
-229.757	795.812	0.086	0.233
-228.742	44.242	0.198	0.179
-227.727	800.000	0.064	0.249
-226.713	-200.000	0.024	-0.107
-225.698	-162.002	-0.251	-0.013
-224.684	64.067	0.194	-0.193
-223.669	800.000	0.061	-0.179
-222.655	-13.659	0.067	-0.043
-221.640	288.407	0.068	-0.122
-220.625	372.476	0.060	0.120
-219.611	-171.697	0.367	-0.012
-218.596	-200.000	-0.005	-0.086
-217.582	-200.000	0.026	-0.141
-216.567	766.717	0.023	-0.061
-215.552	794.863	0.183	0.496
-214.538	200.124	-0.038	0.058
-213.523	-70.304	-0.102	-0.038
-212.509	246.773	-0.066	-0.110
-211.494	800.000	0.043	-0.141
-210.479	-17.570	-0.278	-0.172
-209.465	800.000	0.021	-0.085
-208.450	-196.533	-0.091	-0.001
-207.436	-100.053	0.391	0.096
-206.421	-24.718	-0.243	0.142
-205.406	72.485	0.096	0.099
-204.392	113.825	-0.114	0.136
-203.377	-46.052	-0.287	-0.140
-202.363	-51.872	-0.042	0.019
-201.348	2.251	0.220	0.157
-200.333	800.000	0.067	-0.230
-199.319	233.570	0.163	-0.265
-198.304	195.537	0.150	-0.225
-197.290	-52.065	0.234	-0.107
-196.275	-200.000	-0.007	-0.200
-195.260	33.103	-0.229	-0.196
-194.246	352.921	-0.165	0.322
-193.231	-200.000	0.009	0.153
-192.217	-200.000	-0.062	0.403
-191.202	-200.000	-0.004	-0.273
-190.187	-33.400	-0.003	0.001
-189.173	-200.000	0.048	0.259
-188.158	50.341	-0.070	-0.065
-187.144	246.429	-0.049	-0.082
-186.129	81.048	0.219	0.233
-185.114	-36.917	-0.062	0.033
-184.100	-41.417	-0.163	0.083
-183.085	-29.572	0.089	0.050
-182.071	-3.805	-0.162	0.111
-181.056	-200.000	0.044	0.248
-180.042	-7.684	0.150	-0.100
-179.027	-200.000	-0.004	-0.039
-178.012	156.742	0.229	-0.311
-176.998	800.000	0.043	0.168
-175.983	-53.296	-0.399	0.180
-174.969	-128.319	0.125	0.018
-173.954	800.000	0.017	0.052
-172.939	-200.000	0.027	0.166
-171.925	24.882	-0.222	0.182
-170.910	11.761	-0.227	0.172
-169.896	-70.329	0.256	0.096
-168.881	-30.769	0.241	0.134
-167.866	159.036	-0.088	-0.120
-166.852	-117.041	-0.125	-0.022
-165.837	366.948	0.084	0.168
-164.823	50.772	-0.058	0.055
-163.808	-167.844	-0.180	0.007
-162.793	514.976	-0.083	-0.190
-161.779	65.863	-0.129	-0.129
-160.764	-58.330	0.422	0.181
-159.750	-107.806	0.300	0.064
-158.735	-55.767	0.119	-0.053
-157.720	-35.756	0.091	-0.049
-156.706	-200.000	-0.017	-0.130
-155.691	-142.395	0.210	-0.020
-154.677	268.034	-0.075	0.130
-153.662	-114.069	-0.349	-0.067
-152.647	137.159	0.072	0.093
-151.633	-200.000	-0.012	0.223
-150.618	-200.000	0.001	-0.113
-149.604	-52.811	0.178	-0.081
-148.589	-200.000	0.008	0.242
-147.574	-163.674	0.157	-0.007
-146.560	141.967	-0.069	0.090
-145.545	115.673	0.108	0.130
-144.531	-66.720	0.279	-0.109
-143.516	-200.000	-0.056	0.245
-142.502	800.000	-0.095	0.389
-141.487	-200.000	-0.030	0.181
-140.472	670.930	0.037	0.093
-139.458	-75.797	0.130	0.045
-138.443	-191.798	-0.282	-0.003
-137.429	203.200	0.054	-0.083
-136.414	-100.102	0.336	0.082
-135.399	-143.908	0.182	0.017
-134.385	800.000	-0.008	-0.030
-133.370	62.448	0.015	-0.015
-132.356	-98.314	-0.514	-0.130
-131.341	-121.589	0.273	-0.045
-130.326	-15.073	0.289	0.182
-129.312	-28.213	0.242	-0.138
-128.297	63.142	-0.151	-0.149
-127.283	-200.000	0.033	-0.292
-126.268	-161.683	-0.101	-0.005
-125.253	578.605	-0.077	0.185
-124.239	669.769	-0.008	0.020
-123.224	-200.000	0.000	0.167
-122.210	518.072	0.074	-0.171
-121.195	294.838	0.163	0.293
