DTS Sentinel unit serial number:	SN413079Multiplexer serial number:	ORYXHardware model number:	OX4-SRSoftware version number:	ORYX F/W v4.00 Oryx Data Collector v3.7.2.0data status	okinstallation	princeton_trtdifferential loss correction	single-endedforward channel	channel 2reverse channel	N/Adate	2019/09/12time	11:49:11forward acquisition time	60.00reverse acquisition time	0.00gamma	496.2192k internal	0.2300k external	0.2300temperature offset calibration	1.0074default loss term (dB/km)	0.3790temperature slope calibration	1.0000multiplexer offset coefficient	1.0000multiplexer slope coefficient	1.0000fibre end	0.00T internal ref (°C)	39.94T ext. ref 1 (°C)	2.00T ext. ref 2 (°C)	37.80length (m)	temperature (°C)	Stokes	anti-Stokes-747.200	-17.500	0.256	-0.165
-746.185	-46.347	-0.353	-0.177
-745.171	-1.205	-0.213	0.154
-744.156	155.670	0.122	0.171
-743.142	-51.900	-0.496	-0.235
-742.127	127.303	-0.203	0.263
-741.112	800.000	0.083	-0.239
-740.098	-200.000	0.004	-0.122
-739.083	549.505	0.109	0.267
-738.069	129.768	-0.089	-0.116
-737.054	-43.845	0.264	-0.135
-736.039	33.315	-0.193	-0.170
-735.025	800.000	0.049	-0.150
-734.010	170.860	-0.141	0.206
-732.996	-29.882	-0.297	-0.172
-731.981	95.185	-0.047	0.055
-730.966	-32.017	-0.249	-0.142
-729.952	-129.416	-0.181	-0.026
-728.937	176.279	0.107	-0.158
-727.923	105.233	0.230	-0.276
-726.908	-81.178	-0.185	0.062
-725.894	6.457	-0.213	-0.161
-724.879	-144.372	0.261	0.025
-723.864	6.046	-0.151	-0.114
-722.850	179.034	-0.125	-0.186
-721.835	-155.823	-0.110	-0.007
-720.821	167.507	0.188	-0.272
-719.806	-110.587	-0.209	0.044
-718.791	357.362	0.109	0.222
-717.777	-51.525	0.301	0.143
-716.762	-70.883	0.231	-0.089
-715.748	-76.567	0.622	0.223
-714.733	-200.000	0.060	-0.285
-713.718	-51.187	0.225	-0.107
-712.704	208.977	0.116	0.185
-711.689	-61.410	0.081	0.034
-710.675	245.711	0.059	-0.101
-709.660	166.726	-0.211	-0.305
-708.645	800.000	0.032	0.109
-707.631	-105.137	0.246	0.057
-706.616	349.518	0.090	-0.181
-705.602	161.230	0.143	-0.204
-704.587	-200.000	0.042	0.244
-703.572	-16.422	-0.203	-0.131
-702.558	323.698	0.052	-0.102
-701.543	54.678	-0.235	-0.231
-700.529	138.734	-0.114	0.152
-699.514	-35.950	0.223	-0.123
-698.499	304.925	-0.157	0.297
-697.485	-18.337	-0.145	-0.092
-696.470	-125.883	-0.161	0.025
-695.456	-82.022	0.151	-0.050
-694.441	-147.595	0.278	0.024
-693.426	459.804	0.087	-0.198
-692.412	-200.000	-0.028	-0.355
-691.397	-151.036	-0.160	0.012
-690.383	-70.880	-0.184	0.071
-689.368	-76.406	0.068	0.024
-688.354	-200.000	0.078	0.476
-687.339	126.368	-0.174	0.224
-686.324	620.957	0.180	0.462
-685.310	-200.000	0.044	-0.311
-684.295	-92.897	-0.249	0.071
-683.281	62.245	-0.158	-0.161
-682.266	-37.807	-0.108	0.059
-681.251	-200.000	-0.012	0.162
-680.237	-200.000	-0.006	-0.146
-679.222	-26.006	-0.345	-0.207
-678.208	800.000	0.054	0.164
-677.193	-38.792	0.194	-0.104
-676.178	446.430	-0.084	-0.187
-675.164	499.307	-0.112	0.262
-674.149	800.000	-0.075	-0.219
-673.135	-200.000	0.029	-0.261
-672.120	-200.000	-0.016	0.107
-671.105	800.000	0.039	0.138
-670.091	800.000	0.075	0.306
-669.076	-29.490	-0.120	0.070
-668.062	-51.123	-0.192	-0.092
-667.047	-65.904	-0.140	0.057
-666.032	-200.000	-0.046	-0.406
-665.018	-86.396	-0.136	0.043
-664.003	-18.883	0.161	-0.102
-662.989	-88.925	-0.174	0.052
-661.974	-200.000	-0.023	0.203
-660.959	262.251	0.082	-0.145
-659.945	-200.000	0.033	-0.145
-658.930	8.695	-0.311	-0.238
-657.916	-101.859	0.169	-0.042
-656.901	800.000	-0.008	0.028
-655.886	16.878	0.293	-0.236
-654.872	-136.103	-0.110	0.013
-653.857	83.433	-0.069	0.076
-652.843	-200.000	0.033	-0.204
-651.828	800.000	0.017	0.057
-650.814	-80.651	-0.398	0.135
-649.799	-200.000	0.006	-0.070
-648.784	13.402	-0.109	-0.086
-647.770	800.000	-0.082	-0.231
-646.755	28.313	0.193	0.166
-645.741	-82.011	-0.217	0.072
-644.726	308.757	-0.115	0.218
-643.711	-117.567	-0.389	0.071
-642.697	402.497	-0.054	-0.115
-641.682	651.562	-0.028	-0.072
-640.668	-102.391	-0.267	-0.065
-639.653	305.799	0.082	-0.154
-638.638	279.860	-0.100	-0.182
-637.624	-200.000	-0.029	0.212
-636.609	-37.471	0.145	0.079
-635.595	-200.000	-0.040	-0.245
-634.580	-124.614	-0.069	-0.011
-633.565	-56.783	0.149	-0.067
-632.551	171.680	0.060	-0.087
-631.536	-59.379	0.154	-0.067
-630.522	-19.317	-0.045	0.028
-629.507	-100.736	0.062	0.015
-628.492	-200.000	-0.010	0.141
-627.478	-200.000	-0.012	0.089
-626.463	68.776	-0.065	-0.067
-625.449	192.360	-0.143	-0.219
-624.434	-200.000	0.013	-0.100
-623.419	-200.000	-0.026	0.241
-622.405	-200.000	-0.022	0.103
-621.390	16.476	-0.174	0.140
-620.376	-200.000	0.017	0.148
-619.361	-200.000	0.020	0.144
-618.346	-69.206	0.260	-0.101
-617.332	-179.532	0.404	0.009
-616.317	-200.000	0.009	-0.154
-615.303	233.724	-0.099	0.165
-614.288	800.000	-0.070	-0.226
-613.273	102.463	-0.158	-0.187
-612.259	-200.000	0.018	-0.293
-611.244	-128.772	0.091	-0.013
-610.230	260.853	0.069	-0.122
-609.215	-138.882	0.208	-0.023
-608.201	-200.000	0.012	-0.138
-607.186	-16.190	-0.277	0.179
-606.171	-122.802	-0.410	0.067
-605.157	800.000	-0.116	-0.414
-604.142	-43.035	0.237	-0.122
-603.128	91.182	-0.041	-0.046
-602.113	142.123	0.075	0.102
-601.098	172.315	-0.055	-0.080
-600.084	800.000	-0.047	0.196
-599.069	88.847	0.092	-0.103
-598.055	-92.276	-0.297	0.085
-597.040	128.519	-0.139	0.179
-596.025	-165.293	-0.341	0.015
-595.011	70.206	-0.144	0.151
-593.996	233.522	-0.168	-0.281
-592.982	258.676	0.024	-0.041
-591.967	28.267	-0.046	0.039
-590.952	62.425	0.169	-0.171
-589.938	86.419	0.234	-0.262
-588.923	-141.725	0.353	0.036
-587.909	800.000	-0.091	0.263
-586.894	-200.000	-0.045	0.340
-585.879	-66.912	-0.168	0.067
-584.865	347.380	-0.139	0.278
-583.850	-166.073	-0.280	-0.012
-582.836	-45.369	-0.309	0.155
-581.821	-151.034	-0.292	-0.022
-580.806	800.000	-0.011	-0.049
-579.792	463.652	0.159	0.361
-578.777	180.064	0.108	-0.160
-577.763	339.213	-0.050	0.099
-576.748	-200.000	0.071	0.388
-575.733	800.000	0.013	-0.046
-574.719	143.119	-0.084	-0.113
-573.704	54.217	-0.151	0.147
-572.690	-173.653	0.315	0.010
-571.675	-77.282	0.337	0.119
-570.661	323.435	-0.045	-0.087
-569.646	800.000	0.132	0.422
-568.631	-17.045	0.187	0.120
-567.617	-111.758	-0.206	-0.042
-566.602	222.287	-0.082	-0.134
-565.588	-200.000	0.027	-0.277
-564.573	-44.710	-0.138	0.070
-563.558	503.657	0.115	-0.270
-562.544	-37.251	0.022	0.012
-561.529	-27.488	0.069	-0.040
-560.515	-96.044	0.218	0.059
-559.500	-26.535	0.097	-0.058
-558.485	800.000	-0.018	-0.073
-557.471	115.082	-0.111	-0.137
-556.456	-20.794	0.061	0.038
-555.442	18.506	0.111	0.090
-554.427	61.492	-0.019	0.019
-553.412	11.662	-0.046	-0.036
-552.398	800.000	-0.059	0.170
-551.383	-62.626	0.462	-0.194
-550.369	-200.000	-0.028	-0.277
-549.354	-117.913	-0.234	-0.042
-548.339	-200.000	-0.046	0.326
-547.325	355.415	-0.078	-0.158
-546.310	800.000	0.024	-0.105
-545.296	-125.666	0.321	-0.049
-544.281	114.263	0.192	-0.237
-543.266	-200.000	-0.073	-0.000
-542.252	-98.473	-0.215	0.056
-541.237	-200.000	-0.002	0.102
-540.223	-200.000	0.025	0.494
-539.208	-200.000	-0.053	-0.247
-538.193	22.846	-0.230	-0.191
-537.179	311.531	0.108	-0.206
-536.164	800.000	-0.098	0.324
-535.150	-101.387	-0.080	-0.020
-534.135	-200.000	0.002	0.143
-533.121	-38.378	0.218	-0.117
-532.106	-93.377	-0.340	0.095
-531.091	-68.386	-0.198	0.078
-530.077	-174.693	0.261	-0.007
-529.062	-69.478	0.203	-0.079
-528.048	-64.907	0.221	0.090
-527.033	-38.527	0.223	-0.119
-526.018	-121.766	0.058	-0.010
-525.004	-51.561	-0.233	-0.110
-523.989	276.259	0.076	0.136
-522.975	669.217	0.109	0.284
-521.960	-200.000	-0.012	0.110
-520.945	-30.359	-0.326	0.187
-519.931	46.268	-0.113	-0.106
-518.916	200.653	0.144	-0.224
-517.902	56.658	-0.403	0.397
-516.887	5.706	0.189	-0.141
-515.872	-189.410	-0.208	-0.002
-514.858	-60.338	-0.316	0.136
-513.843	241.221	0.099	0.168
-512.829	-200.000	-0.050	0.231
-511.814	-118.999	-0.164	0.029
-510.799	-57.455	0.185	0.082
-509.785	-28.430	0.215	-0.126
-508.770	19.272	0.051	0.041
-507.756	-102.969	0.180	0.043
-506.741	-200.000	0.050	-0.232
-505.726	-90.999	-0.184	-0.053
-504.712	-142.830	-0.161	-0.016
-503.697	327.118	0.142	0.274
-502.683	62.088	-0.106	-0.107
-501.668	-38.028	0.095	0.051
-500.653	-89.685	0.216	-0.064
-499.639	-14.015	0.171	-0.112
-498.624	250.498	-0.078	0.133
-497.610	307.101	-0.116	0.219
-496.595	-178.163	0.264	-0.006
-495.581	-200.000	-0.011	-0.129
-494.566	143.204	0.153	0.205
-493.551	-84.891	0.133	-0.042
-492.537	54.026	0.130	-0.126
-491.522	-200.000	-0.024	0.110
-490.508	-200.000	0.011	0.057
-489.493	-96.410	-0.305	-0.081
-488.478	263.556	-0.160	-0.281
-487.464	15.221	0.142	0.113
-486.449	41.223	-0.130	0.119
-485.435	138.439	-0.164	0.217
-484.420	571.758	-0.055	0.135
-483.405	98.956	0.116	-0.136
-482.391	125.305	0.106	0.135
-481.376	-119.050	-0.259	0.046
-480.362	-109.440	0.430	0.092
-479.347	-32.261	-0.340	0.192
-478.332	-27.315	0.148	-0.087
-477.318	157.298	0.065	-0.091
-476.303	272.767	0.161	-0.286
-475.289	-200.000	-0.012	0.104
-474.274	116.392	-0.088	-0.109
-473.259	-124.078	0.403	0.064
-472.245	800.000	0.099	-0.378
-471.230	45.968	0.123	0.115
-470.216	-31.885	-0.230	0.130
-469.201	800.000	0.045	-0.155
-468.186	-156.830	0.166	0.010
-467.172	-73.949	-0.130	-0.048
-466.157	-27.336	0.177	0.104
-465.143	96.439	0.151	0.174
-464.128	-95.278	0.142	0.038
-463.113	207.626	-0.237	-0.373
-462.099	800.000	0.046	0.130
-461.084	20.117	0.097	-0.079
-460.070	800.000	-0.074	-0.322
-459.055	-18.956	0.245	-0.154
-458.040	-200.000	0.052	-0.364
-457.026	97.974	0.089	-0.103
-456.011	136.319	0.130	0.171
-454.997	-102.562	-0.151	0.036
-453.982	-104.868	0.039	0.009
-452.968	-142.241	-0.396	0.040
-451.953	22.672	-0.142	-0.117
-450.938	-83.940	-0.131	0.042
-449.924	62.569	-0.107	0.108
-448.909	57.229	-0.265	0.260
-447.895	-200.000	-0.021	-0.287
-446.880	186.282	0.064	-0.096
-445.865	1.196	0.125	0.090
-444.851	118.282	-0.312	-0.388
-443.836	-157.357	-0.160	0.010
-442.822	517.422	-0.167	-0.394
-441.807	-200.000	-0.023	-0.103
-440.792	239.263	0.051	0.085
-439.778	-37.530	-0.211	-0.114
-438.763	-200.000	0.006	0.141
-437.749	800.000	-0.112	0.364
-436.734	86.927	0.167	-0.186
-435.719	-50.171	0.214	0.102
-434.705	296.175	0.063	0.117
-433.690	305.919	-0.169	0.317
-432.676	171.806	0.114	0.166
-431.661	254.891	-0.009	-0.016
-430.646	800.000	-0.044	-0.122
-429.632	13.893	0.287	0.225
-428.617	800.000	-0.093	-0.334
-427.603	-24.622	-0.115	0.069
-426.588	-40.237	-0.240	0.126
-425.573	58.649	-0.309	-0.306
-424.559	392.696	0.149	-0.311
-423.544	123.716	-0.289	-0.365
-422.530	53.495	0.056	-0.054
-421.515	-24.425	-0.090	0.054
-420.500	-200.000	0.003	0.066
-419.486	-107.220	-0.045	0.010
-418.471	-68.654	0.162	-0.063
-417.457	-200.000	-0.030	0.400
-416.442	-61.214	-0.141	-0.060
-415.428	41.265	-0.160	0.145
-414.413	8.776	-0.161	-0.122
-413.398	-78.462	0.210	0.072
-412.384	-64.244	-0.111	0.046
-411.369	89.277	-0.113	0.126
-410.355	-130.477	0.112	0.015
-409.340	-200.000	0.006	-0.100
-408.325	291.868	-0.121	-0.222
-407.311	-1.836	0.119	-0.084
-406.296	-66.685	-0.122	-0.049
-405.282	800.000	0.033	-0.136
-404.267	18.247	0.287	-0.231
-403.252	107.306	-0.057	-0.068
-402.238	-56.275	0.328	0.147
-401.223	-120.452	0.209	-0.036
-400.209	800.000	0.021	0.084
-399.194	112.621	-0.196	-0.239
-398.179	-200.000	0.005	-0.307
-397.165	-175.125	0.433	0.012
-396.150	-200.000	0.008	-0.182
-395.136	-38.549	-0.051	0.027
-394.121	734.076	-0.087	0.235
-393.106	-101.170	0.596	0.147
-392.092	347.328	-0.130	0.257
-391.077	118.594	-0.099	-0.123
-390.063	406.545	0.064	0.136
-389.048	188.859	0.074	0.112
-388.033	-158.239	0.456	0.027
-387.019	-30.567	0.277	-0.158
-386.004	-1.383	-0.042	-0.030
-384.990	-50.207	-0.182	-0.086
-383.975	205.673	-0.125	-0.196
-382.960	-183.979	-0.241	-0.004
-381.946	383.080	0.136	-0.282
-380.931	17.791	0.238	-0.190
-379.917	194.322	0.198	-0.301
-378.902	-27.474	-0.278	0.163
-377.888	-80.543	-0.228	0.076
-376.873	-200.000	-0.082	-0.373
-375.858	70.119	0.173	-0.180
-374.844	-32.530	-0.012	-0.007
-373.829	-200.000	0.007	-0.410
-372.815	87.401	-0.194	-0.215
-371.800	13.351	0.235	-0.183
-370.785	-64.148	-0.045	-0.018
-369.771	-200.000	-0.067	-0.416
-368.756	14.226	-0.158	-0.124
-367.742	-200.000	0.002	0.253
-366.727	-176.473	-0.243	0.006
-365.712	-29.681	0.229	-0.132
-364.698	28.702	0.185	0.157
-363.683	36.014	0.206	0.183
-362.669	-130.230	-0.249	0.034
-361.654	-200.000	0.027	-0.197
-360.639	-60.707	-0.087	-0.037
-359.625	-51.015	-0.259	-0.122
-358.610	800.000	0.026	0.081
-357.596	155.636	0.212	-0.293
-356.581	800.000	0.058	-0.249
-355.566	24.972	0.141	0.118
-354.552	-200.000	0.097	0.477
-353.537	-34.587	-0.262	-0.144
-352.523	-126.788	-0.218	0.032
-351.508	449.664	0.108	-0.240
-350.493	800.000	0.040	-0.138
-349.479	-200.000	-0.034	0.197
-348.464	38.036	0.315	0.282
-347.450	-73.148	-0.521	0.192
-346.435	449.829	0.153	0.339
-345.420	93.741	0.074	0.085
-344.406	-200.000	-0.037	-0.404
-343.391	56.283	-0.146	0.142
-342.377	-108.731	-0.306	0.066
-341.362	388.980	0.039	-0.081
-340.348	248.066	0.224	0.381
-339.333	421.676	-0.081	-0.174
-338.318	44.268	-0.178	-0.164
-337.304	800.000	0.033	-0.093
-336.289	97.042	0.166	0.191
-335.275	-115.261	0.172	0.033
-334.260	-21.169	-0.151	-0.093
-333.245	74.634	0.133	0.141
-332.231	-51.459	0.243	-0.114
-331.216	397.323	0.195	0.410
-330.202	-157.135	0.188	-0.011
-329.187	-88.267	-0.392	0.118
-328.172	-0.189	-0.343	-0.245
-327.158	54.769	-0.019	0.019
-326.143	46.985	-0.112	0.104
-325.129	306.007	0.171	0.319
-324.114	-114.601	0.054	0.010
-323.099	-31.461	0.106	-0.060
-322.085	-28.372	-0.195	0.113
-321.070	335.080	0.120	0.233
-320.056	88.498	0.071	-0.079
-319.041	-129.219	0.136	0.019
-318.026	800.000	-0.035	-0.139
-317.012	-116.315	-0.365	-0.068
-315.997	-100.269	-0.015	-0.004
-314.983	356.035	0.013	-0.026
-313.968	266.857	0.071	-0.124
-312.953	527.838	0.122	-0.289
-311.939	-200.000	0.023	-0.213
-310.924	-145.975	-0.231	0.021
-309.910	-162.365	0.180	-0.009
-308.895	-2.120	0.086	-0.060
-307.880	-117.708	0.175	-0.032
-306.866	-40.833	-0.178	-0.093
-305.851	-97.955	0.208	0.054
-304.837	-30.125	0.088	0.050
-303.822	-105.377	0.185	-0.042
-302.807	201.233	-0.197	0.303
-301.793	-170.226	-0.366	-0.013
-300.778	-27.663	-0.038	0.022
-299.764	800.000	-0.041	-0.130
-298.749	66.401	-0.088	-0.090
-297.735	3.376	-0.077	-0.056
-296.720	-102.257	0.226	0.054
-295.705	800.000	-0.037	0.144
-294.691	-47.728	-0.212	-0.103
-293.676	136.661	0.203	0.266
-292.662	-200.000	0.004	0.110
-291.647	140.549	-0.128	0.170
-290.632	19.010	0.217	0.174
-289.618	404.786	0.114	0.241
-288.603	800.000	-0.052	0.168
-287.589	177.615	-0.123	-0.180
-286.574	-50.131	-0.158	0.075
-285.559	-36.196	0.218	0.118
-284.545	-101.523	-0.170	-0.041
-283.530	-36.276	-0.282	-0.152
-282.516	64.428	0.035	-0.035
-281.501	78.038	0.195	0.208
-280.486	-48.105	0.235	-0.114
-279.472	-83.512	-0.291	0.093
-278.457	-200.000	-0.033	0.155
-277.443	36.994	-0.105	-0.093
-276.428	-121.184	0.226	-0.038
-275.413	38.867	0.154	-0.137
-274.399	91.991	-0.122	-0.138
-273.384	-50.607	-0.226	0.107
-272.370	-102.775	-0.173	-0.041
-271.355	-200.000	-0.007	-0.111
-270.340	94.236	-0.061	0.069
-269.326	144.116	0.215	0.287
-268.311	14.501	0.091	-0.071
-267.297	-104.882	0.033	-0.008
-266.282	-200.000	0.032	-0.170
-265.267	-200.000	0.008	-0.080
-264.253	-124.399	0.046	0.007
-263.238	91.306	-0.118	-0.132
-262.224	-76.961	-0.098	-0.034
-261.209	25.160	0.228	-0.190
-260.195	-92.176	0.316	0.089
-259.180	-83.471	0.039	0.013
-258.165	682.221	0.025	0.064
-257.151	-200.000	0.043	0.353
-256.136	800.000	-0.160	-0.545
-255.122	38.850	-0.147	-0.132
-254.107	94.725	-0.241	-0.274
-253.092	51.239	0.324	0.307
-252.078	89.653	-0.267	0.299
-251.063	-200.000	0.033	-0.230
-250.049	-13.495	-0.035	0.022
-249.034	-12.373	-0.306	0.200
-248.019	-200.000	0.011	-0.371
-247.005	-72.447	-0.252	-0.093
-245.990	-200.000	-0.031	-0.288
-244.976	115.185	-0.134	0.163
-243.961	474.695	-0.073	0.166
-242.946	-138.222	-0.207	-0.023
-241.932	-115.816	0.260	-0.049
-240.917	-71.655	-0.208	-0.078
-239.903	317.931	0.114	0.215
-238.888	-43.666	0.187	0.094
-237.873	-200.000	0.028	0.170
-236.859	516.168	-0.075	-0.174
-235.844	-80.065	0.276	0.093
-234.830	110.066	-0.203	-0.243
-233.815	21.399	-0.086	-0.070
-232.800	800.000	-0.068	-0.239
-231.786	800.000	-0.043	-0.169
-230.771	-200.000	-0.031	-0.149
-229.757	251.740	0.097	0.164
-228.742	26.709	0.142	0.119
-227.727	-23.869	-0.067	-0.040
-226.713	-200.000	0.007	0.042
-225.698	-200.000	-0.014	0.198
-224.684	-140.523	0.156	0.016
-223.669	-87.896	-0.210	-0.063
-222.655	398.226	0.099	0.208
-221.640	-100.553	0.193	0.048
-220.625	272.746	0.067	0.118
-219.611	25.930	-0.127	0.106
-218.596	-79.578	0.082	-0.028
-217.582	800.000	-0.081	0.248
-216.567	202.307	-0.160	0.247
-215.552	288.657	0.194	-0.351
-214.538	266.958	-0.044	-0.076
-213.523	-13.503	-0.199	-0.129
-212.509	-7.648	0.225	0.152
-211.494	-60.924	-0.240	0.101
-210.479	-200.000	-0.006	-0.079
-209.465	-69.171	0.365	-0.140
-208.450	-48.780	0.350	0.168
-207.436	-23.043	0.130	-0.078
-206.421	410.098	0.088	0.185
-205.406	151.857	0.180	0.245
-204.392	23.896	-0.390	0.321
-203.377	-21.718	-0.241	0.146
-202.363	-200.000	-0.013	0.476
-201.348	-30.418	-0.157	-0.089
-200.333	-122.760	0.128	-0.021
-199.319	-72.638	-0.119	0.044
-198.304	16.330	-0.207	0.163
-197.290	-68.786	0.394	0.152
-196.275	800.000	-0.059	0.167
-195.260	-192.371	0.417	0.004
-194.246	232.411	-0.110	0.181
-193.231	-200.000	-0.013	0.118
-192.217	-95.943	0.035	-0.009
-191.202	207.786	-0.174	-0.272
-190.187	196.564	0.256	-0.389
-189.173	-81.331	0.193	-0.063
-188.158	-200.000	-0.039	-0.183
-187.144	-34.547	-0.279	0.152
-186.129	-64.652	0.071	0.029
-185.114	-13.830	0.565	0.364
-184.100	156.196	0.114	0.157
-183.085	-23.188	0.127	0.076
-182.071	-200.000	0.007	0.358
-181.056	-200.000	0.008	-0.324
-180.042	-78.290	0.177	0.061
-179.027	179.251	0.068	0.100
-178.012	-122.277	0.035	-0.006
-176.998	90.188	0.054	-0.060
-175.983	115.097	-0.128	-0.156
-174.969	-200.000	0.024	0.237
-173.954	7.489	0.176	0.131
-172.939	800.000	0.045	-0.170
-171.925	-200.000	0.048	-0.251
-170.910	800.000	0.100	-0.315
-169.896	-200.000	0.014	-0.078
-168.881	174.054	-0.109	0.158
-167.866	142.845	0.172	0.228
-166.852	-80.595	0.103	-0.034
-165.837	37.164	0.011	-0.009
-164.823	-105.827	-0.212	-0.048
-163.808	800.000	-0.038	0.159
-162.793	-58.888	-0.177	0.076
-161.779	-123.800	-0.118	0.019
-160.764	-200.000	0.015	0.341
-159.750	192.274	-0.125	-0.188
-158.735	-200.000	-0.034	-0.278
-157.720	-200.000	0.011	-0.268
-156.706	800.000	-0.130	0.411
-155.691	-91.300	-0.160	-0.046
-154.677	-47.847	0.250	0.121
-153.662	92.424	0.170	0.191
-152.647	107.976	0.193	-0.229
-151.633	-200.000	-0.007	0.128
-150.618	-123.056	-0.281	-0.045
-149.604	173.586	0.113	-0.162
-148.589	29.475	-0.245	-0.208
-147.574	-117.625	0.116	-0.021
-146.560	-19.200	-0.088	-0.054
-145.545	-200.000	-0.082	-0.375
-144.531	800.000	-0.022	0.085
-143.516	226.370	-0.088	0.143
-142.502	349.631	-0.067	-0.131
-141.487	19.876	-0.089	-0.072
-140.472	-160.199	-0.345	-0.019
-139.458	-62.004	-0.433	-0.180
-138.443	-77.414	0.381	-0.132
-137.429	-136.213	0.102	-0.012
-136.414	-88.498	0.177	0.053
-135.399	-0.414	-0.045	0.032
-134.385	-106.621	0.262	-0.058
-133.370	46.577	0.370	0.342
-132.356	800.000	-0.084	0.249
-131.341	36.417	0.066	-0.058
-130.326	87.553	0.106	-0.117
-129.312	-51.890	0.106	0.049
-128.297	93.001	0.092	-0.103
-127.283	-37.092	-0.119	0.063
-126.268	102.825	-0.262	0.305
-125.253	-200.000	0.001	-0.016
-124.239	-20.833	0.143	-0.087
-123.224	-200.000	0.037	-0.211
-122.210	-4.467	0.372	0.256
-121.195	496.532	0.114	0.262
