DTS Sentinel unit serial number:	SN413079Multiplexer serial number:	ORYXHardware model number:	OX4-SRSoftware version number:	ORYX F/W v4.00 Oryx Data Collector v3.7.2.0data status	okinstallation	princeton_trtdifferential loss correction	single-endedforward channel	channel 2reverse channel	N/Adate	2019/09/18time	20:47:34forward acquisition time	60.00reverse acquisition time	0.00gamma	496.2192k internal	0.2341k external	0.2341temperature offset calibration	1.0021default loss term (dB/km)	0.3790temperature slope calibration	1.0000multiplexer offset coefficient	1.0000multiplexer slope coefficient	1.0000fibre end	0.00T internal ref (°C)	27.23T ext. ref 1 (°C)	0.86T ext. ref 2 (°C)	18.48length (m)	temperature (°C)	Stokes	anti-Stokes-747.200	-200.000	0.036	-0.331
-746.185	-23.085	-0.136	-0.082
-745.171	46.149	0.225	0.209
-744.156	686.443	-0.045	0.119
-743.142	800.000	-0.129	0.405
-742.127	-43.184	-0.210	0.107
-741.112	347.568	0.100	-0.197
-740.098	-139.414	-0.217	0.023
-739.083	-40.316	-0.146	0.076
-738.069	9.685	-0.131	0.099
-737.054	-73.967	0.383	0.139
-736.039	-48.331	-0.271	-0.131
-735.025	-40.104	-0.049	0.026
-734.010	-200.000	0.044	-0.196
-732.996	385.126	-0.263	-0.543
-731.981	-200.000	-0.021	-0.278
-730.966	286.380	0.177	0.319
-729.952	-109.617	0.026	0.006
-728.937	-200.000	0.003	-0.137
-727.923	800.000	-0.077	-0.244
-726.908	426.479	-0.156	0.337
-725.894	81.095	0.126	0.136
-724.879	574.694	-0.112	0.274
-723.864	-45.069	-0.303	-0.151
-722.850	-110.248	-0.316	-0.066
-721.835	-111.585	-0.601	-0.122
-720.821	-38.970	0.099	0.052
-719.806	-200.000	0.030	0.131
-718.791	20.253	0.042	-0.034
-717.777	800.000	-0.059	0.216
-716.762	-200.000	0.045	-0.450
-715.748	-39.766	-0.044	-0.023
-714.733	800.000	0.074	0.285
-713.718	800.000	-0.077	-0.278
-712.704	-134.710	0.283	-0.034
-711.689	291.983	-0.034	-0.063
-710.675	-79.636	-0.181	-0.061
-709.660	-200.000	-0.027	0.189
-708.645	86.971	0.179	0.198
-707.631	-200.000	0.392	0.002
-706.616	-200.000	0.025	0.271
-705.602	-163.727	-0.116	-0.005
-704.587	-24.205	-0.147	0.088
-703.572	-200.000	0.000	-0.022
-702.558	-99.990	0.195	-0.049
-701.543	-34.200	0.117	0.064
-700.529	387.243	0.208	-0.431
-699.514	1.999	-0.334	-0.241
-698.499	-200.000	0.005	-0.317
-697.485	-77.623	-0.224	-0.078
-696.470	-140.461	-0.024	0.003
-695.456	223.126	-0.125	-0.201
-694.441	69.899	-0.031	0.032
-693.426	-200.000	-0.000	-0.175
-692.412	2.112	-0.131	0.094
-691.397	581.818	0.051	-0.125
-690.383	-200.000	0.051	0.231
-689.368	291.119	0.078	0.143
-688.354	254.585	-0.081	-0.139
-687.339	328.667	-0.164	-0.315
-686.324	-55.990	-0.220	-0.098
-685.310	-119.444	-0.160	-0.028
-684.295	-200.000	-0.026	0.184
-683.281	316.591	-0.089	-0.169
-682.266	-92.962	0.039	0.011
-681.251	-103.548	-0.205	0.048
-680.237	-10.499	0.173	-0.115
-679.222	-96.286	0.141	0.037
-678.208	-200.000	0.035	0.181
-677.193	-200.000	-0.023	-0.122
-676.178	800.000	0.054	-0.209
-675.164	-33.611	-0.344	0.190
-674.149	-200.000	-0.009	0.085
-673.135	112.081	-0.142	-0.171
-672.120	84.314	0.172	-0.187
-671.105	583.373	-0.090	0.221
-670.091	-200.000	0.021	0.261
-669.076	-200.000	-0.003	-0.256
-668.062	40.442	-0.264	-0.237
-667.047	403.283	0.049	0.104
-666.032	123.745	-0.077	-0.097
-665.018	152.670	-0.218	-0.298
-664.003	74.123	0.229	-0.240
-662.989	-129.439	0.040	-0.006
-661.974	-200.000	-0.011	-0.089
-660.959	800.000	0.100	-0.281
-659.945	-83.556	-0.420	-0.134
-658.930	-84.422	0.136	-0.043
-657.916	-200.000	-0.022	-0.279
-656.901	-8.516	0.172	0.116
-655.886	-103.477	0.441	0.104
-654.872	-109.580	-0.183	0.039
-653.857	-81.936	-0.091	-0.030
-652.843	-96.632	0.235	-0.062
-651.828	17.186	-0.042	-0.034
-650.814	-200.000	-0.009	-0.092
-649.799	-171.323	-0.292	0.010
-648.784	396.218	0.056	0.117
-647.770	-159.515	0.462	0.026
-646.755	800.000	-0.029	-0.120
-645.741	-200.000	0.009	-0.290
-644.726	-26.092	0.285	-0.167
-643.711	-124.132	0.323	-0.051
-642.697	-163.735	0.165	0.008
-641.682	37.154	-0.299	0.264
-640.668	588.289	0.110	-0.271
-639.653	-118.480	0.298	-0.053
-638.638	800.000	0.084	-0.239
-637.624	800.000	0.046	-0.141
-636.609	-36.494	0.383	0.206
-635.595	-200.000	0.001	0.111
-634.580	800.000	-0.113	-0.339
-633.565	800.000	-0.054	0.222
-632.551	7.873	-0.310	0.232
-631.536	-6.161	-0.077	0.053
-630.522	253.662	-0.182	0.310
-629.507	21.286	-0.276	-0.224
-628.492	143.650	-0.174	0.232
-627.478	-172.674	0.071	-0.002
-626.463	69.034	-0.128	-0.132
-625.449	-131.794	-0.174	0.023
-624.434	-35.699	0.317	0.171
-623.419	-49.760	-0.230	-0.109
-622.405	-53.261	0.484	0.221
-621.390	130.419	0.235	-0.300
-620.376	33.946	0.098	-0.085
-619.361	-39.845	0.051	0.026
-618.346	63.434	-0.264	-0.264
-617.332	800.000	-0.041	0.118
-616.317	749.629	0.100	0.270
-615.303	103.045	0.119	0.139
-614.288	28.505	-0.363	0.306
-613.273	323.429	0.123	0.234
-612.259	178.225	0.122	0.178
-611.244	-72.200	0.245	0.090
-610.230	800.000	-0.115	-0.399
-609.215	-160.765	-0.247	0.013
-608.201	-200.000	0.039	-0.250
-607.186	-108.024	-0.230	0.050
-606.171	46.296	-0.226	0.209
-605.157	-170.719	0.099	-0.003
-604.142	800.000	0.125	0.354
-603.128	-109.404	-0.129	-0.027
-602.113	-101.668	-0.106	0.026
-601.098	689.298	-0.038	-0.100
-600.084	800.000	0.098	0.319
-599.069	99.466	-0.081	-0.094
-598.055	-154.342	-0.097	-0.007
-597.040	-200.000	0.006	0.070
-596.025	187.848	-0.097	0.144
-595.011	-23.392	0.050	-0.030
-593.996	18.113	0.138	-0.110
-592.982	-68.535	0.147	0.057
-591.967	-200.000	0.021	0.208
-590.952	-13.857	0.254	-0.164
-589.938	129.625	-0.070	0.089
-588.923	-33.138	-0.306	-0.169
-587.909	-126.179	-0.155	0.023
-586.894	168.690	-0.072	-0.102
-585.879	79.521	-0.048	0.051
-584.865	-16.075	0.215	0.136
-583.850	-20.243	-0.029	-0.018
-582.836	3.429	-0.093	-0.067
-581.821	39.711	0.056	-0.050
-580.806	-51.192	0.279	0.130
-579.792	464.680	-0.151	0.336
-578.777	800.000	-0.072	0.218
-577.763	164.894	0.166	0.233
-576.748	396.140	-0.118	0.245
-575.733	25.726	-0.195	-0.161
-574.719	-60.045	0.018	0.008
-573.704	162.522	0.192	-0.269
-572.690	-200.000	-0.051	-0.231
-571.675	56.783	0.232	0.225
-570.661	800.000	0.130	0.393
-569.646	-200.000	-0.035	-0.188
-568.631	200.332	-0.248	0.380
-567.617	-200.000	0.012	-0.215
-566.602	-200.000	-0.046	0.246
-565.588	104.486	-0.206	-0.241
-564.573	207.742	0.180	0.280
-563.558	800.000	-0.036	-0.135
-562.544	260.138	-0.181	-0.311
-561.529	-3.039	0.148	-0.103
-560.515	800.000	0.054	-0.193
-559.500	422.862	-0.097	-0.208
-558.485	113.551	-0.154	-0.186
-557.471	-160.238	-0.061	0.003
-556.456	-200.000	-0.063	-0.371
-555.442	-112.843	-0.096	-0.019
-554.427	-21.919	0.272	-0.164
-553.412	137.269	-0.180	-0.234
-552.398	-83.107	0.112	-0.036
-551.383	71.250	-0.043	0.044
-550.369	800.000	-0.060	-0.187
-549.354	800.000	0.062	0.211
-548.339	-200.000	0.002	-0.375
-547.325	-200.000	0.000	0.063
-546.310	-41.330	-0.207	-0.106
-545.296	100.187	0.105	-0.121
-544.281	53.022	-0.096	0.092
-543.266	-2.448	0.137	0.095
-542.252	139.195	0.228	-0.299
-541.237	172.070	0.242	-0.346
-540.223	-151.050	0.323	-0.024
-539.208	36.393	-0.333	0.292
-538.193	36.781	0.103	-0.091
-537.179	122.071	0.186	0.231
-536.164	-67.844	0.171	0.067
-535.150	115.570	-0.171	0.208
-534.135	-26.416	-0.162	-0.094
-533.121	524.467	-0.092	0.215
-532.106	-155.976	-0.127	0.008
-531.091	-50.843	0.051	0.024
-530.077	-137.881	0.250	-0.028
-529.062	60.882	0.285	-0.281
-528.048	43.833	0.174	-0.159
-527.033	-200.000	0.057	0.269
-526.018	372.730	0.232	0.469
-525.004	-47.428	0.170	-0.082
-523.989	17.533	-0.294	-0.232
-522.975	800.000	-0.057	-0.192
-521.960	358.079	-0.060	-0.118
-520.945	266.593	-0.030	-0.053
-519.931	495.813	0.113	0.259
-518.916	-200.000	0.056	0.255
-517.902	54.227	-0.116	-0.111
-516.887	17.712	0.109	0.086
-515.872	-62.606	-0.018	0.007
-514.858	154.381	0.217	-0.296
-513.843	89.536	-0.207	0.229
-512.829	-97.184	-0.204	0.053
-511.814	-200.000	-0.040	-0.188
-510.799	241.797	0.104	-0.173
-509.785	-133.507	0.111	0.014
-508.770	166.575	0.114	-0.161
-507.756	-108.528	0.101	0.022
-506.741	148.414	0.187	-0.250
-505.726	-99.404	-0.166	0.042
-504.712	56.104	-0.263	-0.254
-503.697	-120.383	0.547	0.092
-502.683	175.029	0.120	-0.172
-501.668	-173.296	-0.437	0.013
-500.653	-129.989	-0.169	0.023
-499.639	-33.615	-0.329	-0.180
-498.624	800.000	-0.031	0.103
-497.610	1.097	0.109	-0.078
-496.595	800.000	0.090	0.277
-495.581	160.895	0.148	-0.206
-494.566	800.000	0.047	-0.169
-493.551	-150.630	0.047	-0.004
-492.537	15.625	-0.376	0.293
-491.522	-59.212	-0.125	-0.054
-490.508	-200.000	-0.008	0.186
-489.493	800.000	0.012	0.041
-488.478	-87.079	-0.250	0.076
-487.464	-74.307	0.329	-0.118
-486.449	348.680	-0.101	-0.198
-485.435	-62.586	-0.316	-0.130
-484.420	-77.896	-0.205	0.070
-483.405	-92.056	0.190	-0.053
-482.391	-200.000	0.000	0.153
-481.376	-200.000	0.104	0.453
-480.362	-200.000	-0.003	-0.032
-479.347	-31.844	0.265	-0.148
-478.332	-127.880	-0.187	0.027
-477.318	-200.000	0.051	0.429
-476.303	-116.659	0.271	-0.049
-475.289	-200.000	-0.036	-0.308
-474.274	-12.998	-0.267	0.172
-473.259	-200.000	-0.057	0.500
-472.245	-60.840	0.064	0.027
-471.230	-53.148	-0.405	0.184
-470.216	-99.097	0.263	0.066
-469.201	31.757	0.103	0.088
-468.186	-120.686	0.074	0.012
-467.172	122.956	-0.091	0.113
-466.157	11.768	-0.170	-0.129
-465.143	69.008	0.122	0.124
-464.128	135.333	0.060	-0.077
-463.113	-200.000	0.042	0.462
-462.099	210.980	-0.068	-0.106
-461.084	-200.000	0.084	0.606
-460.070	-24.300	-0.279	0.165
-459.055	293.180	0.061	0.110
-458.040	-129.278	0.245	-0.034
-457.026	221.659	-0.191	0.305
-456.011	414.588	-0.167	0.352
-454.997	176.084	-0.220	-0.317
-453.982	191.170	0.057	0.086
-452.968	-3.138	0.171	0.118
-451.953	220.607	0.018	0.028
-450.938	-200.000	-0.051	-0.402
-449.924	59.169	0.277	-0.270
-448.909	-200.000	0.050	-0.403
-447.895	-9.009	0.376	0.249
-446.880	-104.319	0.375	0.086
-445.865	-200.000	-0.024	0.243
-444.851	-133.675	-0.147	0.018
-443.836	158.144	-0.205	-0.281
-442.822	800.000	-0.085	-0.322
-441.807	800.000	0.114	0.321
-440.792	29.915	-0.132	0.112
-439.778	155.542	0.072	-0.098
-438.763	-113.782	-0.275	-0.053
-437.749	-35.066	0.342	-0.185
-436.734	-125.759	0.214	-0.032
-435.719	-157.053	-0.104	0.006
-434.705	46.153	0.166	0.152
-433.690	35.612	-0.246	-0.214
-432.676	-199.473	-0.057	-0.000
-431.661	-150.294	0.334	0.026
-430.646	181.057	-0.092	0.134
-429.632	-99.862	-0.145	-0.036
-428.617	800.000	0.041	-0.170
-427.603	-200.000	-0.034	-0.244
-426.588	-200.000	-0.080	0.412
-425.573	1.007	0.274	0.195
-424.559	287.987	0.078	-0.140
-423.544	69.584	0.054	0.055
-422.530	-80.574	-0.152	0.050
-421.515	-142.134	-0.341	-0.033
-420.500	674.552	-0.075	-0.192
-419.486	-100.097	0.218	-0.054
-418.471	-75.255	-0.084	-0.030
-417.457	104.705	-0.161	-0.187
-416.442	-182.721	0.207	0.004
-415.428	25.734	-0.279	-0.230
-414.413	13.421	-0.147	-0.113
-413.398	-5.336	0.085	0.058
-412.384	122.936	-0.182	0.225
-411.369	-58.973	-0.183	0.078
-410.355	321.179	0.047	0.087
-409.340	-200.000	-0.001	0.227
-408.325	800.000	0.072	0.293
-407.311	-20.963	0.060	0.036
-406.296	3.317	-0.331	-0.238
-405.282	206.765	0.245	-0.378
-404.267	-200.000	-0.042	0.319
-403.252	-51.954	0.054	-0.025
-402.238	97.344	-0.111	0.126
-401.223	240.014	-0.011	0.019
-400.209	-200.000	-0.045	0.326
-399.194	20.437	-0.117	-0.093
-398.179	12.516	0.087	-0.067
-397.165	358.453	-0.159	-0.315
-396.150	800.000	-0.054	0.177
-395.136	41.293	0.101	-0.090
-394.121	-200.000	0.015	-0.084
-393.106	748.694	0.065	-0.174
-392.092	-200.000	-0.063	-0.469
-391.077	724.215	0.162	-0.428
-390.063	18.558	0.249	0.197
-389.048	-200.000	0.007	-0.030
-388.033	-200.000	0.085	0.399
-387.019	10.287	-0.235	0.177
-386.004	241.664	0.101	-0.166
-384.990	-200.000	0.034	0.195
-383.975	-126.292	-0.138	0.020
-382.960	-200.000	-0.031	0.325
-381.946	24.201	-0.061	0.050
-380.931	-134.278	-0.280	0.034
-379.917	465.817	0.028	-0.061
-378.902	79.117	-0.127	-0.134
-377.888	696.800	0.040	-0.104
-376.873	231.279	-0.132	0.214
-375.858	800.000	0.135	0.399
-374.844	-200.000	0.014	-0.099
-373.829	-191.966	0.309	-0.003
-372.815	800.000	0.035	0.105
-371.800	-2.259	-0.098	-0.068
-370.785	-200.000	0.031	0.155
-369.771	800.000	-0.075	0.219
-368.756	48.369	-0.097	-0.089
-367.742	800.000	-0.027	-0.109
-366.727	-113.711	-0.270	-0.052
-365.712	156.343	0.133	-0.181
-364.698	-146.753	0.233	0.020
-363.683	800.000	-0.062	0.189
-362.669	-188.742	0.149	0.002
-361.654	-200.000	0.005	0.076
-360.639	187.379	0.217	-0.319
-359.625	2.388	0.066	-0.047
-358.610	99.745	-0.111	-0.126
-357.596	-200.000	-0.003	-0.216
-356.581	75.889	-0.075	0.078
-355.566	28.262	0.211	-0.176
-354.552	-200.000	0.009	0.110
-353.537	-60.935	0.270	-0.113
-352.523	-200.000	0.053	-0.255
-351.508	-200.000	-0.002	0.208
-350.493	60.994	0.160	-0.157
-349.479	57.606	0.145	0.140
-348.464	-72.767	0.467	-0.170
-347.450	-66.887	-0.325	0.127
-346.435	-200.000	-0.010	-0.177
-345.420	5.680	-0.163	-0.119
-344.406	-200.000	0.004	-0.133
-343.391	-44.419	0.094	-0.046
-342.377	-79.553	0.135	-0.045
-341.362	-200.000	-0.019	-0.197
-340.348	322.009	-0.118	-0.221
-339.333	-20.651	0.323	0.196
-338.318	397.056	0.073	0.150
-337.304	564.224	0.137	-0.327
-336.289	40.312	-0.125	-0.111
-335.275	-34.246	-0.276	0.150
-334.260	70.926	0.231	-0.236
-333.245	-200.000	0.005	-0.255
-332.231	2.639	0.065	-0.047
-331.216	-50.377	0.284	-0.132
-330.202	-200.000	0.019	0.204
-329.187	800.000	-0.011	0.046
-328.172	267.267	-0.106	-0.182
-327.158	800.000	0.067	0.239
-326.143	214.965	-0.136	-0.212
-325.129	-200.000	-0.031	0.265
-324.114	800.000	0.083	0.279
-323.099	800.000	0.024	-0.098
-322.085	269.946	-0.190	-0.329
-321.070	-200.000	-0.033	0.199
-320.056	-200.000	0.022	0.194
-319.041	-122.404	-0.235	-0.038
-318.026	174.369	-0.218	0.311
-317.012	-70.411	-0.249	-0.093
-315.997	191.329	0.063	0.093
-314.983	-200.000	-0.020	-0.098
-313.968	800.000	0.046	0.141
-312.953	-151.399	-0.138	-0.010
-311.939	-200.000	-0.004	-0.342
-310.924	713.626	0.144	-0.375
-309.910	-22.428	0.310	0.185
-308.895	-82.487	-0.334	0.107
-307.880	-200.000	0.044	-0.238
-306.866	800.000	-0.085	-0.298
-305.851	-200.000	-0.002	0.252
-304.837	-200.000	-0.037	0.300
-303.822	-200.000	-0.030	-0.247
-302.807	229.637	-0.151	0.242
-301.793	-24.728	-0.148	-0.087
-300.778	-92.123	-0.189	0.053
-299.764	-54.982	0.018	0.008
-298.749	625.696	0.061	-0.152
-297.735	-65.195	-0.066	-0.026
-296.720	-142.929	0.410	-0.039
-295.705	108.115	0.104	-0.122
-294.691	-133.766	-0.342	-0.042
-293.676	180.864	0.067	0.098
-292.662	33.768	0.050	-0.043
-291.647	158.653	-0.155	-0.212
-290.632	800.000	-0.063	0.173
-289.618	-21.153	-0.288	0.174
-288.603	224.812	-0.118	-0.188
-287.589	146.205	-0.071	0.093
-286.574	-136.321	0.415	-0.048
-285.559	316.252	0.164	-0.305
-284.545	-76.979	-0.250	-0.086
-283.530	-200.000	0.040	0.230
-282.516	-170.488	-0.294	0.010
-281.501	-101.192	0.318	-0.077
-280.486	-200.000	0.009	-0.209
-279.472	800.000	-0.126	-0.381
-278.457	118.006	0.298	-0.361
-277.443	-200.000	0.062	-0.000
-276.428	95.946	0.208	-0.234
-275.413	143.071	-0.106	0.138
-274.399	-72.130	-0.083	0.030
-273.384	338.034	-0.081	0.155
-272.370	785.084	-0.036	-0.098
-271.355	-200.000	0.014	-0.130
-270.340	-54.908	-0.210	-0.093
-269.326	2.185	0.302	-0.215
-268.311	-77.762	-0.225	-0.077
-267.297	-145.102	0.044	-0.004
-266.282	174.490	0.063	0.090
-265.267	-63.692	-0.056	-0.023
-264.253	259.919	0.129	0.220
-263.238	-98.118	0.275	0.070
-262.224	-70.117	0.399	-0.149
-261.209	-200.000	0.018	0.197
-260.195	58.077	-0.038	0.036
-259.180	-176.268	0.155	-0.004
-258.165	-136.226	0.169	-0.019
-257.151	38.922	0.218	0.192
-256.136	117.974	0.308	-0.373
-255.122	143.261	-0.092	0.121
-254.107	-57.732	-0.025	0.011
-253.092	-121.838	-0.536	-0.087
-252.078	23.059	0.235	-0.190
-251.063	-200.000	0.008	-0.184
-250.049	30.913	0.076	0.064
-249.034	417.543	0.139	-0.292
-248.019	41.645	0.111	-0.098
-247.005	-58.291	0.248	0.106
-245.990	125.941	0.101	-0.126
-244.976	1.053	0.133	-0.094
-243.961	511.528	-0.107	-0.245
-242.946	-200.000	0.022	0.111
-241.932	33.575	-0.156	0.133
-240.917	-90.501	-0.352	-0.100
-239.903	164.189	-0.183	0.254
-238.888	101.069	0.131	-0.150
-237.873	800.000	0.064	-0.206
-236.859	-200.000	0.043	0.194
-235.844	83.171	-0.187	0.200
-234.830	-35.055	-0.226	0.121
-233.815	169.304	0.149	0.209
-232.800	112.962	0.226	0.270
-231.786	-200.000	-0.066	-0.343
-230.771	45.027	0.067	-0.061
-229.757	684.337	-0.077	0.197
-228.742	-76.200	0.077	0.027
-227.727	272.028	-0.126	-0.218
-226.713	800.000	-0.094	0.326
-225.698	800.000	0.084	-0.235
-224.684	-19.544	-0.232	0.141
-223.669	-96.399	-0.201	0.052
-222.655	-104.269	0.165	0.038
-221.640	61.918	-0.113	-0.110
-220.625	-160.291	-0.431	-0.023
-219.611	-200.000	-0.019	-0.246
-218.596	34.689	0.068	-0.059
-217.582	-81.377	0.039	-0.013
-216.567	100.430	-0.113	-0.129
-215.552	800.000	0.086	0.256
-214.538	214.044	0.067	-0.105
-213.523	-109.766	0.296	0.061
-212.509	-136.722	0.229	0.026
-211.494	-38.144	0.252	-0.131
-210.479	-97.042	-0.404	0.104
-209.465	800.000	-0.054	0.223
-208.450	-200.000	0.018	0.087
-207.436	-33.429	0.020	0.011
-206.421	-79.782	-0.191	-0.063
-205.406	-179.778	-0.252	-0.005
-204.392	-151.350	0.120	0.009
-203.377	800.000	-0.126	0.348
-202.363	315.120	0.114	-0.210
-201.348	-143.797	0.147	-0.014
-200.333	-200.000	-0.015	0.244
-199.319	97.009	-0.166	-0.186
-198.304	350.019	0.155	0.300
-197.290	96.692	-0.243	-0.273
-196.275	-115.583	0.210	-0.039
-195.260	503.477	0.092	-0.209
-194.246	281.533	0.126	0.221
-193.231	-200.000	-0.003	-0.086
-192.217	800.000	0.039	-0.117
-191.202	-139.609	-0.142	0.015
-190.187	-13.363	0.271	0.172
-189.173	-200.000	0.006	0.331
-188.158	-126.539	-0.352	0.051
-187.144	800.000	0.099	0.270
-186.129	-85.967	-0.167	0.051
-185.114	-96.039	0.251	0.066
-184.100	787.658	-0.134	0.362
-183.085	-79.576	0.286	0.095
-182.071	465.204	-0.117	-0.257
-181.056	87.227	-0.172	-0.187
-180.042	800.000	-0.017	-0.065
-179.027	69.352	-0.062	-0.063
-178.012	-43.047	-0.297	0.147
-176.998	107.816	0.135	0.157
-175.983	223.658	-0.091	-0.144
-174.969	-31.081	-0.231	-0.128
-173.954	-58.557	-0.198	0.084
-172.939	-200.000	-0.038	0.262
-171.925	30.504	0.222	-0.186
-170.910	54.235	-0.218	-0.205
-169.896	-19.923	0.117	-0.071
-168.881	153.124	-0.149	0.200
-167.866	96.199	-0.225	0.252
-166.852	76.595	0.153	0.159
-165.837	-23.763	-0.135	0.079
-164.823	-106.814	-0.235	0.051
-163.808	800.000	0.036	0.135
-162.793	-53.613	-0.214	-0.096
-161.779	-200.000	-0.005	0.036
-160.764	103.840	-0.069	-0.080
-159.750	91.033	0.252	0.277
-158.735	-200.000	0.024	0.127
-157.720	-100.674	0.039	-0.009
-156.706	12.149	-0.021	0.016
-155.691	-53.991	-0.192	-0.086
-154.677	-116.243	0.229	-0.042
-153.662	256.331	-0.047	-0.079
-152.647	97.917	-0.036	-0.040
-151.633	-80.857	-0.198	0.064
-150.618	-59.212	-0.266	0.112
-149.604	-21.579	0.302	-0.180
-148.589	800.000	0.060	0.236
-147.574	-103.308	0.292	0.067
-146.560	2.275	0.035	-0.025
-145.545	-137.380	-0.161	0.018
-144.531	122.908	-0.237	-0.290
-143.516	125.728	-0.286	-0.354
-142.502	135.664	-0.134	0.171
-141.487	-35.188	-0.201	-0.107
-140.472	-23.707	0.176	-0.104
-139.458	-76.361	-0.236	-0.081
-138.443	-187.471	0.374	-0.005
-137.429	362.563	0.098	-0.192
-136.414	800.000	0.035	0.126
-135.399	-60.651	0.110	0.046
-134.385	-109.300	0.112	0.023
-133.370	-68.921	-0.461	0.174
-132.356	-200.000	0.008	-0.161
-131.341	250.670	-0.163	-0.271
-130.326	800.000	-0.029	-0.085
-129.312	800.000	-0.026	-0.077
-128.297	-44.666	0.206	0.101
-127.283	246.754	-0.087	0.143
-126.268	252.356	-0.038	0.063
-125.253	-160.367	0.144	0.008
-124.239	528.441	-0.113	0.262
-123.224	328.635	0.116	0.219
-122.210	-165.452	-0.073	0.003
