DTS Sentinel unit serial number:	SN413079Multiplexer serial number:	ORYXHardware model number:	OX4-SRSoftware version number:	ORYX F/W v4.00 Oryx Data Collector v3.7.2.0data status	okinstallation	princeton_trtdifferential loss correction	single-endedforward channel	channel 2reverse channel	N/Adate	2019/09/19time	00:39:35forward acquisition time	60.00reverse acquisition time	0.00gamma	496.2192k internal	0.2352k external	0.2352temperature offset calibration	1.0020default loss term (dB/km)	0.3790temperature slope calibration	1.0000multiplexer offset coefficient	1.0000multiplexer slope coefficient	1.0000fibre end	0.00T internal ref (°C)	22.25T ext. ref 1 (°C)	0.74T ext. ref 2 (°C)	15.36length (m)	temperature (°C)	Stokes	anti-Stokes-747.200	-173.689	0.200	0.006
-746.185	277.004	-0.076	0.135
-745.171	456.839	0.124	0.274
-744.156	109.922	0.013	-0.016
-743.142	89.410	-0.158	0.176
-742.127	800.000	0.141	0.390
-741.112	-111.076	-0.117	0.024
-740.098	783.608	0.082	-0.225
-739.083	152.857	-0.053	-0.072
-738.069	800.000	0.061	0.267
-737.054	9.394	-0.181	0.136
-736.039	404.142	-0.160	-0.337
-735.025	331.767	0.145	0.280
-734.010	127.708	-0.103	-0.131
-732.996	-8.813	-0.131	-0.087
-731.981	-200.000	-0.018	0.119
-730.966	-42.691	0.364	0.185
-729.952	71.891	0.155	-0.161
-728.937	120.251	-0.184	-0.227
-727.923	-71.085	0.235	-0.088
-726.908	291.607	-0.034	-0.061
-725.894	800.000	-0.104	-0.413
-724.879	248.513	0.140	-0.237
-723.864	226.931	-0.026	0.042
-722.850	412.147	-0.194	-0.411
-721.835	78.648	0.180	0.191
-720.821	-200.000	0.023	0.117
-719.806	-200.000	0.011	0.288
-718.791	6.446	-0.204	-0.151
-717.777	-21.795	-0.246	0.149
-716.762	-73.422	0.195	0.071
-715.748	108.965	-0.128	-0.153
-714.733	320.865	-0.066	0.126
-713.718	-200.000	-0.012	0.195
-712.704	-200.000	0.005	0.120
-711.689	800.000	-0.034	0.096
-710.675	59.963	-0.063	0.062
-709.660	-29.322	0.313	-0.178
-708.645	-71.975	-0.222	-0.082
-707.631	-151.898	-0.115	0.008
-706.616	-44.986	-0.118	0.058
-705.602	-60.075	-0.024	0.010
-704.587	-200.000	0.054	-0.364
-703.572	81.489	-0.061	0.066
-702.558	11.167	0.234	-0.178
-701.543	47.343	-0.146	-0.136
-700.529	-5.556	0.259	-0.177
-699.514	800.000	-0.030	0.094
-698.499	-20.889	-0.301	0.184
-697.485	-79.077	-0.363	0.123
-696.470	243.091	0.071	-0.118
-695.456	-38.401	0.151	0.080
-694.441	-123.803	-0.161	0.025
-693.426	-165.340	-0.318	-0.014
-692.412	800.000	-0.069	0.290
-691.397	-144.547	0.214	-0.020
-690.383	-21.265	0.413	0.251
-689.368	-125.271	0.096	-0.015
-688.354	-161.579	-0.203	-0.010
-687.339	-200.000	-0.034	0.269
-686.324	74.064	-0.061	0.064
-685.310	-165.517	-0.064	-0.003
-684.295	800.000	-0.045	0.167
-683.281	-138.362	-0.194	0.021
-682.266	-67.053	-0.353	-0.139
-681.251	27.107	-0.143	0.120
-680.237	-41.286	0.100	0.051
-679.222	264.019	0.206	-0.356
-678.208	232.301	0.081	0.132
-677.193	144.017	0.079	-0.105
-676.178	-200.000	-0.010	0.059
-675.164	-106.905	-0.037	0.008
-674.149	-73.957	-0.073	-0.026
-673.135	-97.904	0.298	0.076
-672.120	-84.625	-0.322	0.101
-671.105	-72.446	0.269	-0.099
-670.091	-200.000	-0.007	0.154
-669.076	312.896	0.177	-0.330
-668.062	27.758	-0.398	-0.333
-667.047	259.288	0.091	-0.156
-666.032	-5.314	-0.160	-0.109
-665.018	-106.824	-0.229	-0.050
-664.003	65.998	-0.108	0.109
-662.989	321.093	-0.145	0.274
-661.974	-200.000	-0.013	0.144
-660.959	800.000	-0.038	-0.121
-659.945	8.133	-0.136	-0.101
-658.930	570.073	-0.124	-0.301
-657.916	445.186	0.020	-0.044
-656.901	203.067	-0.043	0.066
-655.886	225.797	-0.061	-0.099
-654.872	56.669	0.134	-0.130
-653.857	274.054	-0.021	-0.037
-652.843	-115.893	0.344	0.064
-651.828	-84.213	-0.177	-0.056
-650.814	20.358	-0.165	0.133
-649.799	-82.954	0.380	-0.122
-648.784	-119.199	-0.108	0.019
-647.770	800.000	0.019	0.067
-646.755	-88.842	-0.094	-0.028
-645.741	-200.000	-0.064	0.344
-644.726	-46.337	0.303	-0.148
-643.711	800.000	0.020	-0.087
-642.697	113.504	-0.151	0.182
-641.682	26.306	0.131	0.109
-640.668	-107.629	-0.121	0.026
-639.653	407.207	0.135	0.284
-638.638	-19.657	0.260	0.160
-637.624	-98.047	-0.231	-0.059
-636.609	-33.510	0.182	0.100
-635.595	409.529	-0.203	-0.427
-634.580	34.916	0.142	-0.124
-633.565	-12.607	-0.311	-0.202
-632.551	-15.227	0.173	-0.110
-631.536	36.840	-0.134	-0.117
-630.522	45.499	-0.033	-0.030
-629.507	665.952	-0.100	0.257
-628.492	800.000	0.014	-0.045
-627.478	800.000	0.102	0.355
-626.463	-58.687	-0.245	-0.105
-625.449	35.007	0.117	0.102
-624.434	380.849	-0.055	0.112
-623.419	-129.374	-0.281	0.039
-622.405	-200.000	-0.014	0.124
-621.390	6.035	-0.369	-0.271
-620.376	41.526	0.124	0.111
-619.361	65.546	-0.119	-0.120
-618.346	168.945	-0.168	-0.238
-617.332	-200.000	0.029	-0.263
-616.317	-40.126	0.044	-0.023
-615.303	-200.000	0.007	-0.062
-614.288	152.814	0.031	-0.042
-613.273	348.608	0.130	-0.254
-612.259	-200.000	0.083	0.463
-611.244	-28.399	-0.293	-0.168
-610.230	-13.875	0.110	-0.070
-609.215	-200.000	-0.035	-0.544
-608.201	434.753	-0.070	0.150
-607.186	449.941	-0.112	0.245
-606.171	800.000	-0.036	0.130
-605.157	-6.720	0.115	0.078
-604.142	-160.388	-0.040	0.002
-603.128	-28.046	0.446	0.256
-602.113	-200.000	-0.038	0.218
-601.098	240.749	-0.249	-0.412
-600.084	-131.735	0.483	-0.063
-599.069	800.000	-0.102	0.284
-598.055	-100.866	-0.087	0.021
-597.040	106.703	-0.055	-0.065
-596.025	-68.635	-0.340	0.130
-595.011	59.169	0.285	0.278
-593.996	-200.000	0.030	0.359
-592.982	403.059	-0.025	0.052
-591.967	-200.000	-0.007	-0.121
-590.952	-200.000	0.047	0.228
-589.938	-200.000	-0.008	0.155
-588.923	800.000	0.047	-0.142
-587.909	492.183	0.080	-0.181
-586.894	645.111	0.149	-0.376
-585.879	516.476	-0.035	-0.080
-584.865	-148.313	-0.223	-0.018
-583.850	159.378	0.067	0.093
-582.836	98.369	0.175	0.199
-581.821	-200.000	-0.009	-0.262
-580.806	-37.399	0.093	-0.049
-579.792	-200.000	0.001	-0.011
-578.777	-71.170	0.058	0.022
-577.763	170.619	-0.192	-0.273
-576.748	-200.000	0.013	0.228
-575.733	62.857	0.113	-0.112
-574.719	-200.000	0.013	0.220
-573.704	188.823	0.109	-0.162
-572.690	-200.000	0.026	-0.363
-571.675	20.716	-0.373	-0.299
-570.661	79.840	-0.280	0.298
-569.646	155.256	0.146	-0.199
-568.631	-114.633	0.201	-0.038
-567.617	-107.600	0.306	0.066
-566.602	-40.102	-0.296	0.153
-565.588	-74.734	0.137	-0.049
-564.573	-159.495	0.418	0.023
-563.558	-141.323	-0.100	-0.010
-562.544	-116.002	-0.278	0.051
-561.529	800.000	0.019	0.059
-560.515	-200.000	-0.008	-0.169
-559.500	-91.504	0.538	0.152
-558.485	-200.000	-0.022	0.095
-557.471	502.377	-0.078	0.178
-556.456	27.318	0.199	0.165
-555.442	-200.000	-0.058	0.349
-554.427	-42.664	-0.228	-0.115
-553.412	-200.000	0.009	-0.038
-552.398	46.677	-0.181	0.167
-551.383	270.106	-0.258	0.448
-550.369	597.987	0.076	-0.188
-549.354	-58.745	0.254	0.109
-548.339	213.014	-0.074	0.115
-547.325	800.000	0.020	-0.074
-546.310	-175.172	0.118	-0.003
-545.296	-196.862	-0.306	0.002
-544.281	133.791	-0.206	0.264
-543.266	-64.988	0.285	-0.114
-542.252	-200.000	0.007	-0.067
-541.237	800.000	0.127	0.464
-540.223	63.778	-0.270	0.268
-539.208	79.896	-0.081	0.086
-538.193	344.497	-0.169	-0.329
-537.179	-200.000	0.037	-0.337
-536.164	157.221	-0.163	-0.223
-535.150	456.714	-0.040	0.087
-534.135	800.000	0.046	-0.177
-533.121	104.840	0.058	-0.067
-532.106	284.837	0.027	-0.049
-531.091	-25.434	0.070	-0.041
-530.077	-66.728	0.150	0.059
-529.062	-177.288	-0.299	0.007
-528.048	-70.093	-0.256	-0.096
-527.033	-67.691	-0.264	-0.102
-526.018	71.299	0.181	-0.186
-525.004	-1.093	-0.172	0.120
-523.989	-74.704	0.095	0.034
-522.975	-9.531	-0.269	0.178
-521.960	-200.000	0.011	-0.258
-520.945	-51.731	-0.168	0.078
-519.931	-18.518	0.251	0.155
-518.916	-40.648	0.266	-0.136
-517.902	-88.156	-0.054	-0.016
-516.887	38.636	-0.116	-0.102
-515.872	16.061	-0.029	-0.023
-514.858	43.860	0.176	-0.160
-513.843	-200.000	-0.021	-0.256
-512.829	-79.292	-0.599	-0.201
-511.814	-88.084	0.205	-0.061
-510.799	800.000	-0.108	-0.335
-509.785	-124.192	0.323	0.050
-508.770	346.312	-0.138	0.268
-507.756	-200.000	0.002	-0.019
-506.741	717.312	0.130	-0.340
-505.726	6.468	-0.376	-0.276
-504.712	261.649	-0.111	-0.190
-503.697	-46.507	-0.304	-0.147
-502.683	-200.000	-0.053	-0.228
-501.668	446.133	-0.024	0.053
-500.653	-128.529	0.288	0.040
-499.639	-200.000	-0.029	0.217
-498.624	24.150	0.222	-0.181
-497.610	59.200	0.088	-0.085
-496.595	-116.797	-0.352	-0.064
-495.581	-59.327	-0.291	0.123
-494.566	449.124	0.215	0.467
-493.551	-87.532	0.135	-0.040
-492.537	266.078	-0.120	0.207
-491.522	369.973	-0.107	0.214
-490.508	-200.000	-0.011	0.322
-489.493	168.590	-0.206	0.290
-488.478	-200.000	-0.016	-0.136
-487.464	105.630	0.094	-0.109
-486.449	-65.931	-0.295	0.116
-485.435	188.448	-0.117	-0.173
-484.420	-58.442	0.090	0.039
-483.405	-113.786	0.164	-0.031
-482.391	-124.623	-0.109	0.017
-481.376	67.627	0.143	0.144
-480.362	800.000	-0.028	-0.106
-479.347	-112.776	0.303	-0.059
-478.332	-98.800	0.204	-0.051
-477.318	-200.000	0.012	-0.101
-476.303	-200.000	0.015	0.108
-475.289	-134.246	-0.224	0.027
-474.274	315.558	0.113	-0.211
-473.259	800.000	-0.033	0.107
-472.245	-66.941	-0.043	-0.017
-471.230	-154.905	0.053	0.003
-470.216	-200.000	-0.022	0.106
-469.201	-200.000	-0.045	0.328
-468.186	-108.875	-0.395	-0.083
-467.172	-53.510	0.313	0.141
-466.157	34.581	0.149	-0.128
-465.143	-30.179	-0.195	0.109
-464.128	-120.810	-0.286	-0.048
-463.113	-129.211	0.330	-0.045
-462.099	-83.966	0.088	0.028
-461.084	-19.178	0.120	-0.074
-460.070	800.000	0.059	0.170
-459.055	54.184	-0.043	0.041
-458.040	80.610	0.109	0.116
-457.026	-63.669	-0.169	-0.068
-456.011	-200.000	-0.535	0.001
-454.997	41.859	0.153	-0.137
-453.982	-200.000	-0.026	0.157
-452.968	-200.000	-0.005	-0.113
-451.953	-136.282	0.047	-0.005
-450.938	97.710	-0.089	0.101
-449.924	-85.446	0.144	-0.044
-448.909	-61.689	-0.357	-0.148
-447.895	174.277	-0.233	0.333
-446.880	494.730	0.057	0.130
-445.865	266.647	0.133	0.229
-444.851	-52.090	-0.113	0.052
-443.836	224.217	0.147	-0.235
-442.822	288.295	-0.103	-0.183
-441.807	800.000	-0.090	-0.278
-440.792	800.000	0.067	0.266
-439.778	-117.014	-0.272	-0.049
-438.763	-139.813	-0.272	-0.028
-437.749	-22.714	-0.209	0.125
-436.734	298.251	0.111	-0.202
-435.719	-200.000	-0.006	0.081
-434.705	416.676	-0.033	-0.070
-433.690	155.512	-0.092	0.125
-432.676	220.563	-0.244	0.385
-431.661	-200.000	0.187	0.001
-430.646	-14.883	-0.099	0.063
-429.632	269.428	-0.062	0.107
-428.617	268.874	0.071	-0.123
-427.603	-114.446	0.306	-0.058
-426.588	48.577	0.188	-0.173
-425.573	-58.742	-0.388	0.166
-424.559	800.000	-0.077	-0.220
-423.544	-12.714	0.258	-0.166
-422.530	800.000	0.096	0.313
-421.515	-99.497	-0.384	0.095
-420.500	800.000	0.045	-0.188
-419.486	-171.730	-0.214	-0.007
-418.471	-200.000	0.083	-0.382
-417.457	-200.000	0.040	-0.340
-416.442	39.468	-0.146	0.129
-415.428	-15.194	-0.287	0.181
-414.413	-9.919	0.391	-0.256
-413.398	-200.000	-0.022	0.097
-412.384	342.237	-0.151	-0.290
-411.369	-200.000	0.028	-0.309
-410.355	-21.649	-0.180	-0.108
-409.340	-200.000	-0.007	-0.135
-408.325	-78.753	0.143	-0.048
-407.311	-74.981	0.007	-0.002
-406.296	800.000	0.048	0.172
-405.282	-53.782	-0.017	-0.008
-404.267	381.404	0.036	0.073
-403.252	444.689	-0.089	-0.192
-402.238	127.784	0.203	0.254
-401.223	-109.591	0.130	-0.027
-400.209	13.639	-0.185	0.141
-399.194	456.284	-0.232	-0.506
-398.179	-150.899	-0.069	-0.005
-397.165	800.000	-0.118	0.450
-396.150	-200.000	0.055	0.298
-395.136	423.438	-0.041	0.087
-394.121	-51.958	-0.232	-0.106
-393.106	800.000	-0.116	-0.333
-392.092	-200.000	0.069	-0.325
-391.077	556.735	0.099	0.236
-390.063	-22.616	0.123	-0.073
-389.048	-88.061	-0.145	0.043
-388.033	-52.370	-0.154	0.070
-387.019	-69.438	0.150	-0.056
-386.004	-200.000	0.081	-0.417
-384.990	285.735	0.094	0.166
-383.975	-66.190	0.139	0.054
-382.960	800.000	0.092	-0.297
-381.946	-64.344	-0.047	-0.019
-380.931	-101.053	0.309	-0.075
-379.917	-168.878	0.394	0.015
-378.902	-200.000	-0.048	-0.290
-377.888	-200.000	-0.010	0.144
-376.873	-200.000	0.017	0.079
-375.858	-40.676	-0.042	0.021
-374.844	-110.916	0.118	0.024
-373.829	-200.000	0.160	0.001
-372.815	-126.635	0.267	-0.039
-371.800	-103.331	-0.240	-0.056
-370.785	675.284	0.039	-0.100
-369.771	-122.351	-0.129	0.021
-368.756	-127.432	0.247	-0.035
-367.742	-200.000	0.019	-0.393
-366.727	524.771	-0.052	0.119
-365.712	513.862	0.118	-0.270
-364.698	800.000	-0.070	0.217
-363.683	15.697	-0.175	-0.135
-362.669	265.376	0.245	-0.420
-361.654	-83.619	-0.134	0.042
-360.639	718.631	0.045	0.118
-359.625	438.527	-0.127	-0.272
-358.610	105.579	0.096	-0.112
-357.596	-200.000	0.006	0.100
-356.581	-9.740	-0.159	0.104
-355.566	86.582	-0.064	-0.069
-354.552	800.000	0.037	-0.113
-353.537	-93.687	0.139	0.038
-352.523	39.254	0.266	-0.234
-351.508	121.211	-0.088	-0.107
-350.493	-72.874	0.112	0.040
-349.479	-77.767	0.302	-0.102
-348.464	-59.307	0.124	0.052
-347.450	-39.502	0.512	0.263
-346.435	171.389	-0.116	-0.163
-345.420	-25.971	-0.095	-0.055
-344.406	-125.251	0.035	-0.005
-343.391	-200.000	0.004	-0.219
-342.377	72.765	0.199	0.204
-341.362	237.810	-0.072	0.118
-340.348	-71.308	0.027	0.010
-339.333	235.376	-0.117	0.189
-338.318	-50.554	0.234	-0.108
-337.304	86.268	-0.175	0.190
-336.289	-81.215	0.196	-0.063
-335.275	-200.000	-0.007	0.067
-334.260	-19.732	0.119	-0.072
-333.245	567.771	-0.095	0.227
-332.231	180.330	0.132	-0.190
-331.216	73.979	0.124	-0.128
-330.202	-200.000	-0.007	0.199
-329.187	800.000	0.109	0.332
-328.172	-200.000	-0.024	0.277
-327.158	-169.310	-0.034	0.001
-326.143	-200.000	0.002	0.048
-325.129	-44.454	0.138	0.068
-324.114	-200.000	0.037	-0.324
-323.099	800.000	-0.042	0.173
-322.085	-200.000	0.030	-0.193
-321.070	89.803	0.113	-0.124
-320.056	85.683	0.158	-0.171
-319.041	-21.198	-0.196	0.118
-318.026	-200.000	0.073	0.384
-317.012	-148.591	0.204	0.016
-315.997	258.840	-0.066	0.112
-314.983	-200.000	0.005	0.164
-313.968	277.644	0.117	0.204
-312.953	-16.542	-0.232	0.144
-311.939	4.746	0.129	0.093
-310.924	487.755	-0.053	0.119
-309.910	0.380	0.133	0.093
-308.895	-102.516	0.257	0.060
-307.880	-200.000	-0.009	0.484
-306.866	-135.825	-0.167	0.019
-305.851	-200.000	-0.045	0.193
-304.837	-25.106	-0.291	-0.169
-303.822	800.000	-0.051	-0.154
-302.807	800.000	-0.103	0.313
-301.793	282.502	-0.162	-0.284
-300.778	800.000	0.084	-0.298
-299.764	-200.000	0.038	-0.207
-298.749	64.783	0.297	0.294
-297.735	70.319	0.179	0.181
-296.720	-200.000	-0.016	0.172
-295.705	800.000	-0.073	0.231
-294.691	51.499	-0.106	-0.099
-293.676	-200.000	0.005	0.024
-292.662	-200.000	0.012	-0.319
-291.647	-115.885	0.276	-0.051
-290.632	-75.401	-0.189	-0.066
-289.618	-4.140	0.311	-0.211
-288.603	91.338	-0.122	0.134
-287.589	-200.000	0.030	0.486
-286.574	-9.764	0.193	0.126
-285.559	-97.657	-0.271	0.069
-284.545	405.093	-0.075	-0.155
-283.530	-62.157	-0.128	0.052
-282.516	-200.000	0.002	0.517
-281.501	502.500	0.059	0.134
-280.486	354.351	-0.043	0.084
-279.472	50.036	-0.158	0.146
-278.457	-200.000	0.037	0.272
-277.443	-65.506	-0.282	0.111
-276.428	800.000	0.099	-0.395
-275.413	-112.338	0.091	-0.018
-274.399	-200.000	0.004	0.059
-273.384	-200.000	0.039	-0.311
-272.370	25.673	-0.224	-0.183
-271.355	-200.000	-0.082	0.397
-270.340	-200.000	-0.013	0.074
-269.326	-200.000	-0.021	0.348
-268.311	-200.000	-0.028	0.219
-267.297	-29.806	0.131	0.073
-266.282	-9.010	0.306	0.200
-265.267	-41.579	-0.206	0.104
-264.253	-41.506	0.181	-0.091
-263.238	36.272	-0.189	0.163
-262.224	800.000	-0.118	0.330
-261.209	193.627	0.099	-0.146
-260.195	-200.000	0.001	-0.032
-259.180	-114.596	-0.183	0.034
-258.165	-102.970	-0.346	-0.080
-257.151	-15.194	0.034	-0.021
-256.136	231.530	0.047	0.076
-255.122	-15.311	0.087	-0.055
-254.107	30.946	-0.093	0.078
-253.092	800.000	-0.033	-0.122
-252.078	121.970	0.140	0.171
-251.063	-1.786	-0.188	0.129
-250.049	-200.000	0.021	-0.181
-249.034	800.000	-0.124	-0.408
-248.019	-109.577	0.085	-0.017
-247.005	-200.000	-0.042	0.355
-245.990	-10.861	-0.219	-0.142
-244.976	196.222	0.239	0.355
-243.961	-118.608	0.093	-0.016
-242.946	-83.364	0.070	0.022
-241.932	21.815	-0.387	-0.308
-240.917	182.660	-0.085	-0.122
-239.903	216.380	-0.117	0.182
-238.888	-166.931	0.375	0.015
-237.873	-155.626	-0.290	-0.018
-236.859	372.191	-0.044	-0.087
-235.844	-200.000	0.007	-0.110
-234.830	-200.000	-0.008	-0.203
-233.815	-42.456	0.086	0.043
-232.800	271.363	0.032	0.055
-231.786	-200.000	-0.032	-0.189
-230.771	264.493	0.102	0.174
-229.757	-147.373	0.213	0.018
-228.742	-56.555	-0.281	-0.122
-227.727	36.963	-0.083	-0.072
-226.713	38.947	0.227	-0.198
-225.698	-12.581	0.172	0.110
-224.684	237.164	0.051	0.082
-223.669	-31.867	-0.090	-0.049
-222.655	-123.888	0.287	-0.044
-221.640	-200.000	0.028	-0.258
-220.625	13.674	0.095	-0.072
-219.611	242.773	-0.031	0.051
-218.596	100.687	-0.120	-0.137
-217.582	304.733	-0.120	-0.219
-216.567	-84.803	0.151	0.046
-215.552	66.462	-0.045	-0.044
-214.538	-163.325	-0.482	-0.022
-213.523	-60.157	0.173	0.072
-212.509	-200.000	-0.001	-0.159
-211.494	-24.751	-0.093	-0.054
-210.479	-40.357	-0.193	-0.098
-209.465	295.423	0.102	0.182
-208.450	-90.498	-0.435	0.123
-207.436	-55.041	0.435	-0.191
-206.421	91.100	-0.024	-0.027
-205.406	45.628	-0.106	-0.096
-204.392	800.000	-0.073	-0.276
-203.377	304.679	0.099	-0.179
-202.363	458.576	-0.098	0.213
-201.348	-89.540	0.250	-0.072
-200.333	-168.986	0.294	0.011
-199.319	800.000	0.063	0.192
-198.304	-200.000	0.022	-0.162
-197.290	-89.885	0.248	0.071
-196.275	-92.791	-0.177	-0.048
-195.260	67.702	0.133	-0.133
-194.246	-176.414	0.161	0.004
-193.231	319.765	0.024	0.045
-192.217	-123.408	-0.061	0.010
-191.202	-200.000	0.018	-0.276
-190.187	143.068	-0.125	-0.162
-189.173	137.633	-0.305	0.389
-188.158	241.532	-0.190	-0.310
-187.144	3.577	0.219	0.156
-186.129	268.102	-0.018	0.031
-185.114	-200.000	0.016	0.172
-184.100	37.023	0.324	0.280
-183.085	800.000	-0.073	-0.306
-182.071	49.312	0.147	0.135
-181.056	-90.381	-0.307	-0.087
-180.042	800.000	-0.045	0.148
-179.027	-50.991	0.171	0.078
-178.012	-102.974	0.282	-0.065
-176.998	3.710	0.122	0.087
-175.983	800.000	0.132	-0.502
-174.969	602.567	0.095	-0.230
-173.954	-44.302	0.178	-0.087
-172.939	381.799	0.091	0.181
-171.925	-7.783	0.118	0.078
-170.910	213.228	0.092	0.141
-169.896	-154.335	0.198	0.013
-168.881	-28.741	-0.087	0.049
-167.866	104.720	0.067	0.077
-166.852	-200.000	0.019	0.211
-165.837	-104.046	-0.237	0.054
-164.823	243.868	-0.154	0.253
-163.808	145.692	-0.119	0.155
-162.793	-57.366	0.072	-0.031
-161.779	-9.184	-0.443	-0.289
-160.764	-111.412	0.334	-0.066
-159.750	-82.956	-0.079	-0.025
-158.735	-200.000	-0.010	-0.126
-157.720	562.504	0.122	-0.287
-156.706	71.570	0.133	0.134
-155.691	122.019	-0.087	-0.106
-154.677	-200.000	0.323	-0.001
-153.662	-200.000	-0.000	-0.031
-152.647	128.932	0.067	0.084
-151.633	-200.000	-0.022	-0.136
-150.618	-13.893	-0.370	-0.233
-149.604	-45.302	-0.262	-0.127
-148.589	-10.784	-0.097	0.063
-147.574	401.115	0.031	-0.063
-146.560	324.351	-0.034	-0.063
-145.545	-108.346	0.023	0.005
-144.531	-200.000	0.024	-0.442
-143.516	800.000	0.065	0.249
-142.502	101.710	-0.128	0.145
-141.487	-74.533	0.232	-0.082
-140.472	-1.498	0.120	0.083
-139.458	-125.440	0.238	0.035
-138.443	37.328	0.146	-0.126
-137.429	-136.900	0.456	0.051
-136.414	-137.668	0.339	0.037
-135.399	395.612	-0.151	0.308
-134.385	152.001	0.065	-0.086
-133.370	-151.152	0.485	-0.035
-132.356	800.000	0.166	-0.494
-131.341	-128.843	0.196	0.027
-130.326	-192.577	-0.227	-0.002
-129.312	462.664	0.087	0.188
-128.297	800.000	-0.035	0.135
-127.283	-159.485	0.508	-0.028
-126.268	-200.000	-0.058	0.526
-125.253	536.442	0.035	-0.081
-124.239	800.000	-0.060	-0.219
-123.224	92.029	-0.200	-0.220
-122.210	-3.030	0.184	0.125
