DTS Sentinel unit serial number:	SN413079Multiplexer serial number:	ORYXHardware model number:	OX4-SRSoftware version number:	ORYX F/W v4.00 Oryx Data Collector v3.7.2.0data status	okinstallation	princeton_trtdifferential loss correction	single-endedforward channel	channel 2reverse channel	N/Adate	2019/09/16time	00:23:35forward acquisition time	60.00reverse acquisition time	0.00gamma	496.2192k internal	0.2337k external	0.2337temperature offset calibration	0.9956default loss term (dB/km)	0.3790temperature slope calibration	1.0000multiplexer offset coefficient	1.0000multiplexer slope coefficient	1.0000fibre end	0.00T internal ref (°C)	27.62T ext. ref 1 (°C)	9.52T ext. ref 2 (°C)	21.58length (m)	temperature (°C)	Stokes	anti-Stokes-747.200	-200.000	-0.007	0.229
-746.185	-200.000	0.030	0.206
-745.171	-200.000	-0.006	0.309
-744.156	171.877	-0.126	0.182
-743.142	800.000	-0.049	-0.143
-742.127	400.882	-0.190	0.400
-741.112	-11.142	0.233	-0.154
-740.098	-70.535	0.422	0.160
-739.083	-113.623	0.161	-0.032
-738.069	-138.012	-0.121	0.014
-737.054	557.659	-0.077	-0.187
-736.039	-79.035	-0.314	-0.107
-735.025	-54.065	0.258	-0.118
-734.010	-81.178	0.035	0.012
-732.996	31.818	-0.112	-0.096
-731.981	-80.471	-0.256	0.086
-730.966	181.307	-0.091	0.134
-729.952	291.570	-0.185	-0.338
-728.937	128.749	-0.090	0.115
-727.923	-13.423	-0.073	-0.047
-726.908	-42.627	0.124	0.064
-725.894	-77.119	-0.118	0.041
-724.879	35.820	-0.251	-0.221
-723.864	-27.780	-0.245	-0.143
-722.850	-134.617	0.183	-0.022
-721.835	614.121	-0.134	-0.336
-720.821	70.152	0.086	-0.089
-719.806	733.234	0.053	0.143
-718.791	-185.625	0.624	0.009
-717.777	184.569	-0.154	0.230
-716.762	800.000	0.047	-0.163
-715.748	-58.421	0.116	0.051
-714.733	-200.000	0.053	-0.246
-713.718	-200.000	-0.034	-0.394
-712.704	447.418	0.112	-0.247
-711.689	-6.847	-0.035	0.024
-710.675	-74.492	0.277	-0.100
-709.660	-200.000	-0.072	-0.371
-708.645	52.801	0.312	-0.299
-707.631	219.546	-0.184	-0.296
-706.616	-200.000	0.041	-0.194
-705.602	-157.306	-0.185	-0.011
-704.587	-89.421	0.169	-0.050
-703.572	-53.214	0.189	0.087
-702.558	-31.556	0.137	0.077
-701.543	-122.941	-0.070	-0.011
-700.529	-87.635	0.036	0.011
-699.514	103.564	0.095	-0.111
-698.499	-3.820	0.176	0.122
-697.485	-166.131	0.180	-0.008
-696.470	800.000	-0.044	0.148
-695.456	-200.000	-0.009	0.039
-694.441	-200.000	-0.087	-0.396
-693.426	40.002	0.262	-0.236
-692.412	-34.138	0.205	-0.113
-691.397	-200.000	0.058	-0.357
-690.383	-43.832	-0.308	-0.155
-689.368	19.294	-0.097	0.078
-688.354	800.000	-0.067	-0.230
-687.339	138.521	-0.234	-0.308
-686.324	800.000	-0.028	-0.091
-685.310	149.156	-0.103	-0.140
-684.295	27.897	-0.292	-0.246
-683.281	128.843	-0.112	-0.143
-682.266	33.047	0.224	-0.194
-681.251	23.962	-0.390	-0.322
-680.237	800.000	-0.055	-0.224
-679.222	-57.416	0.260	-0.114
-678.208	-1.060	0.279	0.198
-677.193	-68.636	-0.195	0.076
-676.178	49.393	-0.209	0.197
-675.164	525.664	-0.039	-0.091
-674.149	-102.470	-0.196	-0.047
-673.135	-200.000	0.030	-0.149
-672.120	-23.786	-0.060	0.036
-671.105	-171.699	-0.542	0.018
-670.091	-200.000	-0.021	-0.402
-669.076	-89.985	0.186	-0.054
-668.062	800.000	0.044	-0.136
-667.047	-197.287	0.195	0.001
-666.032	2.176	0.141	-0.102
-665.018	-112.865	0.312	-0.062
-664.003	-24.686	0.114	-0.068
-662.989	-33.409	-0.297	0.164
-661.974	-73.660	0.043	0.016
-660.959	-6.795	0.023	-0.016
-659.945	-121.821	-0.418	0.069
-658.930	-43.233	-0.045	0.023
-657.916	-57.408	-0.249	0.109
-656.901	-104.200	0.403	0.094
-655.886	299.605	-0.110	-0.202
-654.872	-47.536	0.159	-0.077
-653.857	-36.015	0.149	0.081
-652.843	-106.529	-0.262	-0.058
-651.828	-11.210	-0.192	0.127
-650.814	21.715	-0.214	-0.175
-649.799	-170.515	0.312	-0.011
-648.784	800.000	0.038	0.108
-647.770	136.237	-0.119	-0.156
-646.755	384.214	-0.066	0.136
-645.741	21.572	0.164	-0.134
-644.726	800.000	0.023	-0.071
-643.711	64.108	-0.161	-0.162
-642.697	-91.229	0.169	0.048
-641.682	-183.477	0.255	0.004
-640.668	88.482	0.052	0.058
-639.653	-111.187	-0.474	0.097
-638.638	8.870	0.152	-0.115
-637.624	-200.000	-0.006	0.058
-636.609	84.913	0.115	0.126
-635.595	153.946	0.069	0.095
-634.580	-21.595	-0.407	0.248
-633.565	653.268	0.103	0.263
-632.551	800.000	0.068	-0.239
-631.536	126.376	-0.203	0.257
-630.522	-200.000	-0.034	0.203
-629.507	-200.000	0.030	0.268
-628.492	-105.557	0.261	-0.059
-627.478	-166.747	0.299	-0.012
-626.463	4.616	0.082	-0.060
-625.449	596.883	0.118	-0.292
-624.434	-200.000	0.027	-0.328
-623.419	800.000	0.043	-0.183
-622.405	45.555	0.031	0.028
-621.390	-200.000	-0.032	0.208
-620.376	800.000	-0.028	0.096
-619.361	-136.007	0.160	0.019
-618.346	627.601	0.061	0.155
-617.332	800.000	0.060	-0.180
-616.317	800.000	-0.045	-0.134
-615.303	-111.014	0.176	0.036
-614.288	10.290	-0.122	0.093
-613.273	-200.000	-0.003	0.045
-612.259	-80.755	-0.268	0.089
-611.244	-19.006	-0.110	0.068
-610.230	470.856	0.055	-0.123
-609.215	800.000	0.012	-0.044
-608.201	430.841	-0.139	0.300
-607.186	93.356	0.186	-0.210
-606.171	107.811	0.133	-0.158
-605.157	-200.000	0.021	-0.248
-604.142	-123.345	0.242	-0.039
-603.128	-44.314	-0.220	-0.110
-602.113	703.907	-0.102	0.268
-601.098	-87.969	-0.175	-0.053
-600.084	-200.000	-0.010	0.077
-599.069	-200.000	0.034	-0.313
-598.055	54.002	0.166	0.159
-597.040	-3.836	-0.221	0.153
-596.025	27.594	0.125	-0.105
-595.011	54.661	0.195	-0.188
-593.996	-9.882	0.301	0.200
-592.982	800.000	-0.079	0.311
-591.967	479.537	-0.109	-0.246
-590.952	-91.304	0.181	0.052
-589.938	-200.000	-0.068	-0.324
-588.923	800.000	0.161	-0.655
-587.909	800.000	-0.144	-0.397
-586.894	245.992	-0.031	-0.052
-585.879	-89.865	0.376	0.110
-584.865	62.421	-0.241	0.240
-583.850	152.905	-0.048	0.066
-582.836	-200.000	0.020	-0.298
-581.821	-5.838	0.123	0.084
-580.806	55.621	-0.179	0.173
-579.792	391.568	-0.056	-0.116
-578.777	388.080	-0.087	-0.179
-577.763	-178.743	0.080	0.002
-576.748	-110.688	-0.114	0.024
-575.733	-66.008	0.317	0.126
-574.719	-48.206	-0.258	0.124
-573.704	-143.555	-0.145	-0.014
-572.690	31.293	0.314	-0.269
-571.675	-146.635	0.397	0.034
-570.661	800.000	0.022	-0.089
-569.646	72.660	-0.069	-0.072
-568.631	-135.287	0.161	0.019
-567.617	-200.000	-0.013	-0.158
-566.602	580.523	0.074	-0.181
-565.588	-36.541	-0.152	0.082
-564.573	42.539	-0.323	-0.293
-563.558	-200.000	0.061	-0.413
-562.544	622.561	0.132	-0.331
-561.529	-27.471	0.215	0.124
-560.515	-200.000	0.044	0.288
-559.500	-58.836	-0.060	-0.026
-558.485	-200.000	0.073	0.324
-557.471	378.892	-0.088	0.179
-556.456	204.389	0.112	0.174
-555.442	-153.206	0.241	0.017
-554.427	-77.145	0.319	0.111
-553.412	119.463	-0.162	-0.200
-552.398	-65.801	-0.128	0.051
-551.383	-81.473	-0.181	0.059
-550.369	123.533	0.036	0.045
-549.354	-133.551	-0.158	-0.020
-548.339	-136.524	-0.150	-0.017
-547.325	-15.287	-0.055	0.035
-546.310	513.127	-0.082	0.191
-545.296	140.421	-0.199	0.262
-544.281	-6.367	-0.442	-0.300
-543.266	118.143	-0.155	-0.191
-542.252	332.112	-0.028	-0.055
-541.237	-171.776	0.203	-0.007
-540.223	-16.791	-0.355	0.223
-539.208	-184.118	0.155	0.003
-538.193	-167.836	-0.216	-0.008
-537.179	78.935	-0.191	-0.203
-536.164	-200.000	-0.014	0.239
-535.150	79.642	-0.094	-0.101
-534.135	-115.801	-0.109	-0.020
-533.121	-49.856	-0.134	0.063
-532.106	-67.086	0.068	0.027
-531.091	-124.828	-0.212	-0.033
-530.077	175.877	0.132	-0.190
-529.062	17.877	0.181	0.144
-528.048	-200.000	-0.041	-0.186
-527.033	12.516	-0.135	0.104
-526.018	160.063	-0.032	0.045
-525.004	197.082	-0.083	0.126
-523.989	-101.435	-0.169	0.041
-522.975	-15.600	-0.291	0.185
-521.960	-200.000	-0.055	-0.269
-520.945	105.967	0.055	0.065
-519.931	351.367	0.093	-0.183
-518.916	800.000	-0.077	0.317
-517.902	14.502	-0.153	0.119
-516.887	609.949	0.140	0.347
-515.872	800.000	-0.116	-0.361
-514.858	-39.564	-0.077	0.040
-513.843	-31.897	0.085	0.048
-512.829	-200.000	0.049	0.448
-511.814	18.134	0.078	-0.062
-510.799	-200.000	-0.003	-0.104
-509.785	-77.205	0.075	0.026
-508.770	-35.488	-0.377	-0.204
-507.756	-112.672	-0.178	0.035
-506.741	28.991	-0.105	-0.089
-505.726	-84.711	0.061	-0.019
-504.712	765.438	-0.071	0.193
-503.697	-92.772	0.523	-0.146
-502.683	800.000	0.019	-0.060
-501.668	39.869	-0.115	-0.103
-500.653	-95.465	0.150	-0.040
-499.639	416.625	-0.123	0.262
-498.624	299.553	-0.074	-0.135
-497.610	419.680	-0.095	0.203
-496.595	301.407	0.112	-0.205
-495.581	-61.084	0.172	-0.072
-494.566	-106.843	0.060	0.013
-493.551	-6.486	-0.338	-0.229
-492.537	-200.000	-0.022	0.179
-491.522	105.132	0.146	-0.171
-490.508	800.000	0.050	0.144
-489.493	278.059	0.139	-0.246
-488.478	-50.460	-0.208	-0.097
-487.464	-51.138	-0.531	-0.248
-486.449	-45.948	-0.126	-0.062
-485.435	800.000	-0.085	0.338
-484.420	79.898	0.031	0.033
-483.405	267.595	-0.072	0.125
-482.391	-30.589	0.068	-0.039
-481.376	-142.401	-0.122	-0.012
-480.362	279.485	-0.179	-0.317
-479.347	379.934	0.066	-0.134
-478.332	-200.000	0.044	0.276
-477.318	-200.000	0.002	-0.218
-476.303	61.739	-0.116	0.115
-475.289	70.882	-0.078	0.080
-474.274	-25.473	-0.075	-0.044
-473.259	310.051	-0.046	-0.086
-472.245	-69.222	0.246	0.094
-471.230	-18.314	-0.230	-0.143
-470.216	-115.801	-0.266	0.049
-469.201	11.516	-0.276	0.211
-468.186	-22.983	0.294	-0.176
-467.172	-200.000	0.010	-0.044
-466.157	-110.717	0.380	-0.078
-465.143	119.529	-0.155	-0.191
-464.128	-200.000	0.006	-0.049
-463.113	-200.000	-0.018	-0.235
-462.099	-0.839	0.118	-0.083
-461.084	-123.124	-0.191	-0.030
-460.070	-97.551	0.029	0.007
-459.055	167.787	-0.136	-0.193
-458.040	306.847	0.230	-0.425
-457.026	-200.000	-0.024	-0.153
-456.011	1.468	0.269	0.192
-454.997	39.953	-0.206	0.184
-453.982	88.180	-0.032	-0.035
-452.968	-36.432	0.064	-0.034
-451.953	-200.000	-0.020	-0.234
-450.938	52.557	0.053	0.050
-449.924	-200.000	-0.045	-0.218
-448.909	-53.217	-0.325	0.148
-447.895	-130.614	-0.167	0.022
-446.880	-200.000	0.039	0.381
-445.865	-147.239	0.440	-0.037
-444.851	-59.090	0.308	-0.132
-443.836	525.704	0.039	0.091
-442.822	53.249	0.049	-0.046
-441.807	-31.725	-0.167	0.093
-440.792	-200.000	0.022	-0.133
-439.778	-200.000	-0.039	-0.433
-438.763	182.211	0.167	-0.245
-437.749	-66.737	-0.138	0.054
-436.734	800.000	0.068	0.196
-435.719	800.000	0.047	-0.144
-434.705	-96.333	-0.208	0.055
-433.690	-72.008	0.234	-0.086
-432.676	311.742	-0.188	0.351
-431.661	-17.157	-0.111	0.069
-430.646	800.000	0.020	0.080
-429.632	-88.154	0.244	0.073
-428.617	110.909	-0.123	0.146
-427.603	-26.556	-0.026	-0.015
-426.588	27.274	-0.208	0.173
-425.573	800.000	0.060	-0.208
-424.559	199.026	0.121	-0.184
-423.544	-2.226	-0.199	-0.139
-422.530	-104.974	0.144	-0.033
-421.515	70.958	0.121	0.124
-420.500	55.794	-0.147	0.142
-419.486	-8.287	0.160	0.107
-418.471	-117.078	-0.166	0.030
-417.457	800.000	0.046	0.133
-416.442	-200.000	0.022	0.224
-415.428	-141.738	-0.216	-0.021
-414.413	-200.000	0.021	0.180
-413.398	17.112	0.136	0.107
-412.384	64.086	0.163	-0.162
-411.369	-43.558	0.042	-0.021
-410.355	-78.379	0.436	-0.148
-409.340	11.591	-0.201	-0.153
-408.325	434.281	-0.041	0.089
-407.311	208.484	0.265	0.410
-406.296	86.708	-0.248	0.271
-405.282	-200.000	0.001	0.079
-404.267	-55.277	0.296	-0.132
-403.252	6.434	-0.277	0.204
-402.238	-148.068	0.326	0.027
-401.223	634.616	0.119	0.299
-400.209	-178.485	0.298	-0.007
-399.194	-93.994	-0.301	0.082
-398.179	-32.970	0.048	-0.026
-397.165	-55.579	0.116	-0.051
-396.150	-107.416	0.040	0.009
-395.136	800.000	-0.045	0.192
-394.121	420.801	-0.056	-0.119
-393.106	-200.000	-0.006	0.112
-392.092	519.851	0.255	-0.591
-391.077	-80.195	0.225	-0.075
-390.063	-108.714	-0.198	-0.042
-389.048	-0.736	-0.107	-0.075
-388.033	277.689	0.151	-0.267
-387.019	800.000	0.073	-0.250
-386.004	-22.374	0.051	0.030
-384.990	16.068	0.294	-0.230
-383.975	-114.693	-0.127	0.024
-382.960	800.000	-0.028	0.104
-381.946	-200.000	-0.001	-0.042
-380.931	3.626	-0.241	0.174
-379.917	800.000	-0.071	-0.230
-378.902	-132.623	-0.129	-0.016
-377.888	-136.589	-0.035	-0.004
-376.873	544.007	-0.080	0.190
-375.858	269.436	0.034	-0.060
-374.844	-19.449	-0.095	0.058
-373.829	220.287	-0.171	-0.272
-372.815	-57.622	0.335	-0.145
-371.800	547.669	0.083	-0.197
-370.785	-200.000	0.040	0.318
-369.771	-55.554	-0.269	0.119
-368.756	-104.785	0.319	-0.073
-367.742	152.317	-0.070	0.095
-366.727	15.094	0.112	0.087
-365.712	230.757	-0.124	0.201
-364.698	-51.988	0.178	0.082
-363.683	319.718	0.105	0.197
-362.669	-111.217	-0.330	0.067
-361.654	-143.043	0.353	0.034
-360.639	132.927	0.018	-0.024
-359.625	-200.000	-0.002	0.047
-358.610	-12.892	0.161	-0.104
-357.596	-60.351	0.093	-0.039
-356.581	-65.541	0.399	0.158
-355.566	132.362	-0.104	0.132
-354.552	-155.838	-0.347	-0.022
-353.537	-137.157	0.146	-0.016
-352.523	68.668	0.175	0.177
-351.508	372.214	-0.180	0.361
-350.493	194.142	0.163	-0.244
-349.479	800.000	-0.200	0.644
-348.464	-200.000	-0.005	-0.167
-347.450	-168.666	-0.286	-0.011
-346.435	108.259	0.050	0.059
-345.420	800.000	-0.064	0.189
-344.406	507.186	0.099	0.227
-343.391	-200.000	0.004	0.174
-342.377	187.255	-0.204	-0.301
-341.362	-48.278	-0.181	-0.086
-340.348	443.353	-0.060	0.129
-339.333	19.748	0.096	0.076
-338.318	-56.489	-0.181	-0.079
-337.304	-100.592	0.386	0.094
-336.289	-200.000	-0.035	-0.155
-335.275	800.000	-0.082	0.233
-334.260	194.669	-0.120	-0.180
-333.245	155.808	0.049	-0.066
-332.231	-200.000	0.015	0.202
-331.216	401.665	-0.112	0.233
-330.202	-132.321	0.121	0.015
-329.187	331.325	-0.149	-0.284
-328.172	191.419	0.150	-0.222
-327.158	667.131	-0.043	-0.110
-326.143	800.000	-0.006	0.021
-325.129	-200.000	0.009	0.242
-324.114	68.984	0.303	0.307
-323.099	75.820	-0.095	0.100
-322.085	66.101	0.294	-0.295
-321.070	-74.039	0.072	0.026
-320.056	293.847	-0.146	-0.264
-319.041	-62.499	-0.233	-0.096
-318.026	-200.000	-0.022	-0.122
-317.012	-134.915	0.197	0.024
-315.997	-200.000	-0.001	0.033
-314.983	343.269	0.029	-0.055
-313.968	800.000	0.019	0.055
-312.953	-189.125	-0.413	0.005
-311.939	166.708	0.105	-0.147
-310.924	-10.523	-0.214	0.140
-309.910	315.937	0.049	0.091
-308.895	-200.000	0.007	0.077
-307.880	-48.094	-0.277	-0.132
-306.866	800.000	-0.021	-0.067
-305.851	-200.000	0.033	0.222
-304.837	617.272	0.029	-0.071
-303.822	-64.410	-0.231	0.093
-302.807	12.533	0.311	-0.237
-301.793	174.876	-0.125	0.178
-300.778	-107.091	0.038	-0.008
-299.764	128.869	-0.066	0.083
-298.749	-102.832	0.106	-0.025
-297.735	-156.694	-0.216	-0.013
-296.720	-26.573	0.311	-0.179
-295.705	-104.084	-0.387	0.089
-294.691	-75.352	0.061	0.022
-293.676	800.000	0.060	0.167
-292.662	-56.824	-0.342	0.149
-291.647	628.265	-0.214	0.533
-290.632	800.000	-0.079	0.226
-289.618	-29.326	-0.111	-0.063
-288.603	-200.000	-0.009	0.167
-287.589	238.884	0.130	0.213
-286.574	-30.856	-0.057	-0.032
-285.559	101.553	-0.264	-0.304
-284.545	800.000	0.059	-0.209
-283.530	-18.757	-0.124	-0.076
-282.516	-74.383	0.105	0.037
-281.501	-9.454	0.181	0.119
-280.486	128.414	-0.298	0.375
-279.472	-200.000	0.037	-0.179
-278.457	-56.308	0.440	-0.193
-277.443	146.418	0.217	-0.287
-276.428	-6.905	-0.071	-0.047
-275.413	-47.895	-0.144	-0.069
-274.399	-140.637	0.493	0.050
-273.384	-171.707	-0.213	-0.007
-272.370	-3.416	-0.083	-0.057
-271.355	-83.689	0.107	0.034
-270.340	-104.586	0.054	-0.012
-269.326	688.101	-0.171	0.442
-268.311	-137.033	0.148	0.017
-267.297	349.061	0.062	0.122
-266.282	-200.000	0.002	-0.212
-265.267	84.534	-0.286	-0.308
-264.253	800.000	-0.068	0.247
-263.238	-70.670	-0.283	0.105
-262.224	-14.782	-0.114	-0.072
-261.209	-117.817	0.325	0.057
-260.195	223.701	0.190	0.303
-259.180	-117.309	0.251	0.045
-258.165	-0.404	-0.040	-0.028
-257.151	255.372	0.062	-0.105
-256.136	-200.000	-0.050	-0.251
-255.122	-200.000	-0.015	0.167
-254.107	800.000	-0.045	0.154
-253.092	-24.462	0.138	-0.081
-252.078	-200.000	-0.002	-0.126
-251.063	-5.902	0.283	-0.191
-250.049	-164.920	0.213	-0.009
-249.034	54.888	-0.031	0.030
-248.019	-70.935	0.149	0.055
-247.005	-30.617	0.382	-0.213
-245.990	-168.298	0.059	-0.002
-244.976	-143.959	-0.156	0.014
-243.961	388.459	-0.107	-0.218
-242.946	102.798	0.160	0.184
-241.932	158.194	0.134	0.183
-240.917	-166.736	0.136	0.006
-239.903	361.241	-0.037	-0.074
-238.888	-45.408	0.131	-0.064
-237.873	244.495	0.045	-0.074
-236.859	-200.000	-0.001	0.230
-235.844	-200.000	-0.003	0.132
-234.830	188.366	-0.127	-0.187
-233.815	6.899	0.146	-0.107
-232.800	-118.448	0.479	-0.084
-231.786	-58.992	-0.083	-0.035
-230.771	-200.000	0.003	-0.103
-229.757	-70.990	0.047	-0.017
-228.742	-22.652	-0.239	0.142
-227.727	-30.572	0.093	0.052
-226.713	-200.000	-0.016	-0.198
-225.698	-107.745	0.269	-0.058
-224.684	21.896	0.436	-0.350
-223.669	-200.000	-0.025	0.429
-222.655	255.614	0.107	-0.181
-221.640	16.458	0.141	-0.110
-220.625	-53.925	-0.385	0.173
-219.611	122.481	0.388	0.478
-218.596	84.744	0.085	-0.092
-217.582	-200.000	-0.022	0.442
-216.567	-77.745	-0.274	-0.093
-215.552	-108.623	0.079	-0.017
-214.538	-119.229	-0.211	-0.036
-213.523	-44.027	0.161	0.080
-212.509	117.699	-0.118	-0.143
-211.494	258.127	0.129	-0.219
-210.479	458.404	-0.134	0.292
-209.465	-200.000	-0.059	-0.275
-208.450	261.762	-0.113	-0.192
-207.436	-157.407	-0.182	0.011
-206.421	-200.000	0.007	-0.290
-205.406	-200.000	-0.006	0.429
-204.392	-19.453	-0.166	0.101
-203.377	5.208	-0.096	0.070
-202.363	-56.540	-0.089	-0.039
-201.348	239.905	0.158	0.258
-200.333	109.753	-0.096	0.113
-199.319	33.624	0.244	0.208
-198.304	461.733	-0.095	0.208
-197.290	774.328	0.087	-0.234
-196.275	-96.465	-0.204	-0.053
-195.260	11.537	-0.293	-0.221
-194.246	800.000	0.174	-0.485
-193.231	35.921	0.239	0.207
-192.217	-108.860	-0.177	0.037
-191.202	800.000	0.095	-0.296
-190.187	143.535	-0.125	0.164
-189.173	-81.955	0.158	-0.051
-188.158	-73.549	0.055	-0.020
-187.144	-25.876	-0.175	-0.101
-186.129	-34.976	-0.357	0.191
-185.114	62.062	-0.175	-0.172
-184.100	-148.700	-0.215	-0.017
-183.085	-200.000	0.076	0.413
-182.071	-115.147	-0.255	0.048
-181.056	800.000	0.060	0.200
-180.042	698.007	-0.063	-0.163
-179.027	800.000	-0.036	-0.136
-178.012	126.187	0.165	0.205
-176.998	-87.993	0.266	0.078
-175.983	-152.682	-0.226	-0.016
-174.969	28.862	0.258	0.215
-173.954	253.954	-0.216	-0.363
-172.939	-200.000	0.006	-0.034
-171.925	405.563	0.121	0.251
-170.910	800.000	-0.126	-0.347
-169.896	-76.760	0.207	-0.071
-168.881	-76.868	-0.472	-0.162
-167.866	64.268	-0.031	0.030
-166.852	-109.832	-0.281	0.058
-165.837	-200.000	-0.008	-0.103
-164.823	113.134	0.167	0.199
-163.808	800.000	-0.035	-0.096
-162.793	-72.268	-0.131	-0.047
-161.779	-80.520	-0.349	-0.114
-160.764	74.239	0.173	-0.178
-159.750	-69.289	0.411	0.155
-158.735	-36.753	-0.138	0.072
-157.720	-200.000	0.041	0.244
-156.706	177.577	-0.077	-0.110
-155.691	323.945	-0.108	-0.202
-154.677	233.577	0.021	-0.033
-153.662	-78.048	0.280	0.095
-152.647	-141.401	0.311	0.031
-151.633	800.000	0.042	-0.169
-150.618	224.440	0.183	0.290
-149.604	180.794	-0.126	-0.181
-148.589	-200.000	-0.022	-0.150
-147.574	-53.076	0.173	-0.078
-146.560	800.000	-0.122	-0.469
-145.545	-59.556	0.143	-0.060
-144.531	223.698	-0.135	0.214
-143.516	800.000	-0.094	0.275
-142.502	-24.819	-0.269	-0.157
-141.487	-200.000	0.012	0.115
-140.472	-200.000	-0.017	0.216
-139.458	-4.899	-0.025	0.017
-138.443	160.727	0.173	-0.237
-137.429	800.000	0.105	-0.371
-136.414	298.024	-0.082	-0.148
-135.399	112.410	-0.203	0.241
-134.385	287.277	0.074	0.130
-133.370	-200.000	0.009	0.062
-132.356	-200.000	0.012	-0.162
-131.341	-72.482	0.150	0.054
-130.326	-95.306	-0.126	0.033
-129.312	-117.859	0.244	0.043
-128.297	-14.534	-0.230	0.145
-127.283	-45.952	-0.065	-0.031
-126.268	-30.044	0.411	0.229
-125.253	-64.557	0.080	0.032
-124.239	-103.566	-0.120	0.028
-123.224	-130.751	-0.161	0.021
-122.210	-200.000	0.095	0.433
