DTS Sentinel unit serial number:	SN413079Multiplexer serial number:	ORYXHardware model number:	OX4-SRSoftware version number:	ORYX F/W v4.00 Oryx Data Collector v3.7.2.0data status	okinstallation	princeton_trtdifferential loss correction	single-endedforward channel	channel 2reverse channel	N/Adate	2019/09/13time	13:27:35forward acquisition time	60.00reverse acquisition time	0.00gamma	496.2192k internal	0.2315k external	0.2315temperature offset calibration	1.0205default loss term (dB/km)	0.3790temperature slope calibration	1.0000multiplexer offset coefficient	1.0000multiplexer slope coefficient	1.0000fibre end	0.00T internal ref (°C)	35.02T ext. ref 1 (°C)	4.57T ext. ref 2 (°C)	31.01length (m)	temperature (°C)	Stokes	anti-Stokes-747.200	-126.372	-0.388	-0.059
-746.185	-153.573	-0.279	-0.020
-745.171	-70.733	0.060	0.023
-744.156	163.121	0.055	0.078
-743.142	84.333	-0.062	0.068
-742.127	164.020	0.081	-0.115
-741.112	42.092	0.050	0.046
-740.098	-148.436	-0.260	0.022
-739.083	-137.842	-0.268	0.030
-738.069	-18.815	0.154	0.097
-737.054	-169.059	0.179	-0.007
-736.039	-58.933	-0.187	-0.082
-735.025	800.000	0.048	0.210
-734.010	679.811	0.030	-0.080
-732.996	180.601	-0.082	0.122
-731.981	-144.697	-0.346	-0.032
-730.966	-196.165	0.243	0.002
-729.952	-200.000	-0.008	-0.271
-728.937	-200.000	0.053	-0.263
-727.923	800.000	-0.089	-0.298
-726.908	-114.790	-0.119	0.023
-725.894	292.863	-0.060	-0.112
-724.879	-72.653	0.122	0.046
-723.864	-21.119	-0.290	0.179
-722.850	188.499	-0.229	-0.346
-721.835	800.000	-0.054	-0.155
-720.821	-15.258	0.225	0.146
-719.806	-200.000	-0.083	-0.421
-718.791	-34.179	-0.131	-0.073
-717.777	-89.849	-0.192	0.057
-716.762	232.705	-0.101	-0.168
-715.748	367.844	0.078	-0.159
-714.733	-61.246	-0.136	-0.058
-713.718	534.836	-0.124	-0.298
-712.704	-200.000	0.037	0.405
-711.689	648.240	-0.118	0.306
-710.675	25.852	-0.152	0.128
-709.660	138.084	-0.154	-0.204
-708.645	225.550	0.092	-0.151
-707.631	-159.200	0.030	-0.002
-706.616	-200.000	0.001	0.191
-705.602	104.018	-0.169	-0.201
-704.587	633.836	0.063	-0.162
-703.572	-200.000	-0.040	0.267
-702.558	251.234	0.175	0.300
-701.543	-200.000	0.022	-0.240
-700.529	-107.219	0.209	-0.047
-699.514	-124.773	-0.316	-0.049
-698.499	136.613	-0.217	-0.287
-697.485	-144.325	0.043	-0.004
-696.470	-200.000	-0.053	-0.315
-695.456	273.002	-0.071	-0.126
-694.441	-68.629	0.176	-0.069
-693.426	-9.662	0.226	0.152
-692.412	443.989	0.031	-0.069
-691.397	-200.000	-0.015	-0.174
-690.383	3.519	-0.085	0.063
-689.368	664.268	0.096	-0.252
-688.354	-42.910	-0.174	0.090
-687.339	-16.232	-0.292	0.187
-686.324	800.000	-0.043	-0.128
-685.310	200.909	-0.157	0.245
-684.295	-200.000	-0.030	-0.443
-683.281	-16.297	0.272	-0.175
-682.266	307.422	-0.147	0.277
-681.251	-182.296	0.201	-0.004
-680.237	70.930	0.098	-0.102
-679.222	159.172	-0.091	-0.129
-678.208	800.000	0.078	-0.226
-677.193	-129.043	0.575	0.081
-676.178	-109.934	0.225	0.048
-675.164	-200.000	-0.017	0.190
-674.149	800.000	-0.051	-0.151
-673.135	137.771	0.144	-0.191
-672.120	24.920	0.257	-0.215
-671.105	39.415	0.006	-0.006
-670.091	-27.242	0.114	0.067
-669.076	-152.236	0.224	0.016
-668.062	-47.784	-0.384	-0.188
-667.047	85.213	-0.201	-0.223
-666.032	-131.614	0.085	-0.011
-665.018	-200.000	-0.008	0.260
-664.003	-157.746	0.382	0.023
-662.989	-192.640	0.359	-0.003
-661.974	463.507	0.049	0.110
-660.959	800.000	-0.050	0.156
-659.945	-120.322	0.178	-0.031
-658.930	-168.140	0.459	0.018
-657.916	48.638	0.019	0.018
-656.901	-36.099	0.387	0.211
-655.886	-57.608	-0.180	0.080
-654.872	-200.000	0.026	-0.136
-653.857	-136.945	0.117	0.014
-652.843	-164.461	0.247	-0.011
-651.828	15.400	0.096	0.076
-650.814	-119.393	-0.377	0.066
-649.799	46.096	0.102	0.096
-648.784	800.000	-0.026	0.106
-647.770	-200.000	0.007	-0.214
-646.755	77.060	-0.241	0.259
-645.741	94.283	-0.228	-0.262
-644.726	-124.071	0.078	0.012
-643.711	-60.168	0.318	0.137
-642.697	-51.059	-0.195	0.092
-641.682	59.896	0.136	0.136
-640.668	-108.107	-0.160	0.035
-639.653	-97.522	0.106	0.028
-638.638	58.426	-0.210	-0.208
-637.624	-165.223	-0.225	-0.010
-636.609	800.000	-0.129	0.490
-635.595	31.067	-0.227	0.196
-634.580	-137.772	0.188	-0.021
-633.565	800.000	-0.055	-0.237
-632.551	-65.625	0.101	-0.041
-631.536	307.115	-0.054	-0.101
-630.522	-134.773	0.212	0.026
-629.507	424.592	0.046	-0.101
-628.492	800.000	0.034	-0.137
-627.478	62.105	0.122	-0.123
-626.463	-137.825	0.257	0.029
-625.449	115.089	-0.080	-0.099
-624.434	20.344	0.206	0.168
-623.419	-200.000	0.040	-0.311
-622.405	-48.196	-0.295	-0.144
-621.390	562.589	-0.038	-0.093
-620.376	-200.000	-0.056	0.268
-619.361	800.000	0.053	0.205
-618.346	140.955	0.102	0.137
-617.332	-49.290	0.194	0.093
-616.317	-200.000	-0.025	0.132
-615.303	800.000	0.051	-0.162
-614.288	-41.823	0.262	0.135
-613.273	-188.014	0.371	0.005
-612.259	-200.000	0.006	0.032
-611.244	462.528	0.108	-0.242
-610.230	49.538	0.192	-0.182
-609.215	-71.754	0.390	0.147
-608.201	-200.000	0.022	-0.102
-607.186	-200.000	-0.001	-0.047
-606.171	-155.006	-0.254	-0.017
-605.157	392.703	-0.070	0.147
-604.142	173.854	-0.109	-0.158
-603.128	-119.537	-0.414	-0.072
-602.113	-32.411	0.017	0.010
-601.098	-129.703	0.303	0.042
-600.084	59.231	-0.057	-0.057
-599.069	146.598	0.188	-0.254
-598.055	-200.000	-0.045	-0.231
-597.040	115.747	-0.249	-0.307
-596.025	-196.836	-0.146	-0.001
-595.011	-124.685	-0.250	0.039
-593.996	226.684	-0.078	-0.128
-592.982	-120.522	0.210	-0.036
-591.967	-21.147	0.269	-0.166
-590.952	-30.868	-0.176	-0.100
-589.938	-200.000	-0.018	-0.115
-588.923	25.979	0.291	0.245
-587.909	-200.000	0.024	0.211
-586.894	-80.864	-0.235	0.079
-585.879	5.645	-0.076	0.057
-584.865	-136.935	-0.282	0.033
-583.850	800.000	-0.042	-0.155
-582.836	800.000	-0.091	0.273
-581.821	-84.610	-0.411	0.130
-580.806	19.828	0.116	-0.094
-579.792	30.021	-0.133	0.114
-578.777	169.553	0.105	-0.151
-577.763	129.629	-0.117	0.150
-576.748	-15.197	0.298	0.192
-575.733	-109.629	-0.234	0.050
-574.719	-68.787	0.254	-0.099
-573.704	167.161	0.219	-0.313
-572.690	149.507	-0.145	-0.198
-571.675	-41.524	-0.215	0.111
-570.661	3.011	-0.185	0.136
-569.646	-45.107	-0.196	0.098
-568.631	505.573	-0.008	-0.019
-567.617	800.000	-0.060	0.218
-566.602	106.549	-0.123	-0.146
-565.588	-200.000	-0.006	0.102
-564.573	146.126	0.040	-0.054
-563.558	-78.004	0.159	-0.055
-562.544	-117.739	-0.134	0.024
-561.529	-22.590	0.184	-0.112
-560.515	800.000	0.028	0.101
-559.500	-122.524	-0.245	-0.040
-558.485	33.360	0.099	0.087
-557.471	-200.000	0.084	-0.541
-556.456	800.000	0.050	-0.153
-555.442	-200.000	-0.011	0.323
-554.427	-104.031	-0.039	0.009
-553.412	279.666	-0.016	-0.029
-552.398	-4.490	-0.381	0.265
-551.383	-200.000	-0.058	-0.306
-550.369	800.000	0.056	0.190
-549.354	-172.868	-0.358	0.011
-548.339	-59.024	-0.186	0.081
-547.325	800.000	0.079	0.278
-546.310	6.223	-0.309	0.231
-545.296	-61.361	0.143	-0.061
-544.281	-200.000	0.095	-0.426
-543.266	133.941	-0.115	0.150
-542.252	-62.452	0.056	0.023
-541.237	35.896	-0.077	0.068
-540.223	-147.238	0.451	-0.039
-539.208	-200.000	-0.024	-0.257
-538.193	153.077	-0.044	-0.061
-537.179	-113.708	-0.170	-0.033
-536.164	-114.526	-0.126	-0.024
-535.150	-200.000	0.009	-0.120
-534.135	-113.900	-0.145	-0.028
-533.121	17.980	-0.039	0.031
-532.106	-200.000	0.016	0.191
-531.091	-124.048	-0.156	-0.025
-530.077	-39.344	0.314	0.166
-529.062	-79.707	0.310	-0.105
-528.048	-28.619	0.098	-0.056
-527.033	226.619	-0.059	0.096
-526.018	8.846	0.296	-0.225
-525.004	800.000	0.057	-0.169
-523.989	707.854	0.042	-0.113
-522.975	-90.899	-0.333	-0.096
-521.960	800.000	0.055	0.229
-520.945	-152.741	-0.215	-0.015
-519.931	489.333	0.171	-0.392
-518.916	800.000	0.067	0.245
-517.902	-97.797	0.176	-0.046
-516.887	-176.661	-0.153	0.004
-515.872	-88.540	0.231	0.069
-514.858	240.929	0.074	-0.125
-513.843	800.000	0.075	0.277
-512.829	-200.000	-0.007	0.198
-511.814	213.894	-0.185	-0.295
-510.799	477.484	-0.059	-0.133
-509.785	39.660	-0.155	0.140
-508.770	-200.000	-0.063	-0.331
-507.756	-114.627	-0.289	-0.056
-506.741	-1.758	-0.258	-0.182
-505.726	800.000	-0.069	-0.235
-504.712	-92.858	-0.479	-0.134
-503.697	-65.351	0.064	-0.026
-502.683	-93.469	-0.104	-0.029
-501.668	-200.000	-0.004	-0.051
-500.653	-164.393	-0.403	-0.018
-499.639	800.000	-0.089	0.300
-498.624	-46.474	-0.248	0.122
-497.610	696.398	0.025	-0.065
-496.595	800.000	0.062	-0.221
-495.581	28.440	0.099	-0.084
-494.566	-121.831	0.151	0.025
-493.551	-200.000	0.000	0.069
-492.537	-200.000	-0.017	-0.155
-491.522	53.796	0.111	-0.107
-490.508	-171.799	-0.431	-0.014
-489.493	192.000	-0.130	0.197
-488.478	800.000	0.053	0.191
-487.464	-200.000	-0.018	-0.121
-486.449	155.417	0.098	0.135
-485.435	66.853	-0.097	-0.099
-484.420	478.861	-0.113	0.256
-483.405	-200.000	-0.045	0.337
-482.391	620.739	-0.030	0.076
-481.376	43.064	0.232	0.212
-480.362	-200.000	0.033	0.470
-479.347	141.486	0.187	-0.248
-478.332	-200.000	-0.021	0.157
-477.318	-200.000	-0.016	-0.270
-476.303	48.764	0.257	0.242
-475.289	-136.750	-0.233	0.027
-474.274	800.000	-0.033	0.114
-473.259	-200.000	-0.002	0.092
-472.245	-137.296	-0.051	0.006
-471.230	-11.391	0.383	0.253
-470.216	-116.779	0.142	-0.026
-469.201	800.000	0.105	0.300
-468.186	800.000	0.037	0.155
-467.172	-45.509	-0.144	-0.072
-466.157	-149.821	0.260	0.020
-465.143	800.000	0.030	-0.121
-464.128	-83.618	-0.492	0.157
-463.113	-200.000	0.017	-0.135
-462.099	-63.439	0.072	0.030
-461.084	-80.963	-0.118	0.039
-460.070	9.230	0.220	-0.166
-459.055	130.792	-0.126	-0.162
-458.040	-200.000	-0.019	0.238
-457.026	800.000	0.059	0.246
-456.011	249.295	0.208	0.353
-454.997	157.739	0.096	-0.133
-453.982	-110.370	-0.104	0.022
-452.968	-98.191	0.186	-0.048
-451.953	-200.000	0.002	0.241
-450.938	-128.329	-0.378	-0.054
-449.924	276.671	0.147	-0.262
-448.909	-200.000	-0.093	0.431
-447.895	800.000	-0.053	0.212
-446.880	430.085	-0.136	0.295
-445.865	-33.821	-0.022	-0.012
-444.851	-137.770	0.228	-0.026
-443.836	87.286	0.004	-0.005
-442.822	-200.000	0.011	-0.361
-441.807	13.997	0.220	0.171
-440.792	57.606	0.070	-0.069
-439.778	613.914	-0.136	-0.342
-438.763	-101.341	0.185	-0.045
-437.749	-200.000	0.020	-0.149
-436.734	-128.413	-0.204	-0.029
-435.719	800.000	-0.119	-0.363
-434.705	4.832	0.410	0.302
-433.690	-29.175	-0.079	0.045
-432.676	349.453	0.028	0.056
-431.661	-28.023	-0.138	-0.080
-430.646	-118.254	-0.189	0.034
-429.632	-121.236	0.172	0.029
-428.617	60.771	-0.098	-0.098
-427.603	-200.000	0.061	0.379
-426.588	32.669	0.376	0.326
-425.573	-57.953	0.333	0.146
-424.559	-29.692	0.158	-0.090
-423.544	-134.992	-0.132	0.016
-422.530	79.612	0.172	0.185
-421.515	362.931	-0.038	-0.076
-420.500	96.538	0.020	-0.023
-419.486	4.001	-0.131	0.096
-418.471	800.000	0.042	0.116
-417.457	370.656	0.092	-0.187
-416.442	-172.540	-0.378	-0.012
-415.428	365.239	0.086	-0.173
-414.413	-200.000	-0.075	-0.606
-413.398	108.061	-0.541	0.645
-412.384	509.879	0.057	0.132
-411.369	460.630	-0.140	0.311
-410.355	800.000	0.091	0.279
-409.340	28.124	0.221	0.186
-408.325	-200.000	0.005	-0.089
-407.311	589.288	-0.173	-0.426
-406.296	-24.207	-0.201	-0.120
-405.282	-200.000	-0.004	-0.251
-404.267	-200.000	0.041	-0.251
-403.252	139.716	-0.066	-0.087
-402.238	-21.998	-0.051	-0.031
-401.223	52.204	-0.168	0.161
-400.209	-200.000	-0.024	0.259
-399.194	80.989	0.167	-0.180
-398.179	235.469	-0.261	-0.432
-397.165	-200.000	0.026	-0.121
-396.150	432.995	0.066	0.144
-395.136	-85.637	0.370	0.115
-394.121	-69.713	-0.074	-0.028
-393.106	-72.907	0.200	-0.074
-392.092	-32.290	-0.353	0.197
-391.077	-153.815	0.255	-0.017
-390.063	-200.000	0.067	-0.367
-389.048	-200.000	0.032	0.255
-388.033	-10.845	-0.215	0.142
-387.019	10.081	-0.172	-0.131
-386.004	-82.021	-0.158	-0.052
-384.990	155.387	-0.164	-0.226
-383.975	-8.819	0.071	0.048
-382.960	113.031	0.047	-0.057
-381.946	-96.768	-0.060	0.016
-380.931	-56.415	-0.184	-0.082
-379.917	261.422	0.129	0.224
-378.902	-28.792	0.211	0.121
-377.888	-85.016	-0.088	0.028
-376.873	800.000	-0.067	0.205
-375.858	-69.181	0.306	-0.118
-374.844	-90.994	0.541	-0.155
-373.829	-22.453	-0.256	0.155
-372.815	-140.016	0.256	0.027
-371.800	-34.012	0.127	-0.070
-370.785	38.396	0.187	0.167
-369.771	202.399	-0.075	0.115
-368.756	800.000	0.052	-0.218
-367.742	54.332	0.096	-0.093
-366.727	-101.118	-0.261	0.064
-365.712	-23.618	-0.300	-0.179
-364.698	-11.955	-0.165	0.108
-363.683	34.008	-0.297	-0.258
-362.669	371.433	-0.198	-0.401
-361.654	-79.987	0.297	-0.099
-360.639	800.000	0.042	-0.169
-359.625	-80.415	-0.050	-0.017
-358.610	-153.207	0.114	-0.008
-357.596	140.740	-0.100	0.132
-356.581	-51.037	-0.107	0.050
-355.566	-123.577	-0.214	-0.034
-354.552	800.000	-0.077	0.328
-353.537	99.807	0.111	0.129
-352.523	20.813	-0.177	-0.143
-351.508	-86.207	0.299	0.092
-350.493	695.575	0.044	-0.116
-349.479	-115.298	0.322	-0.061
-348.464	800.000	0.028	-0.098
-347.450	-132.427	-0.084	-0.011
-346.435	-78.805	0.073	-0.025
-345.420	-62.088	0.109	-0.045
-344.406	-200.000	0.021	0.169
-343.391	-200.000	-0.007	0.297
-342.377	230.770	0.152	0.248
-341.362	800.000	-0.014	0.057
-340.348	-30.167	-0.184	0.104
-339.333	-200.000	-0.006	-0.085
-338.318	-124.772	0.226	0.035
-337.304	-79.562	-0.086	-0.029
-336.289	-200.000	-0.077	0.423
-335.275	342.175	-0.174	0.339
-334.260	-7.567	0.274	-0.185
-333.245	800.000	-0.029	-0.090
-332.231	96.840	-0.106	-0.121
-331.216	-29.783	0.183	-0.104
-330.202	335.738	0.102	-0.197
-329.187	800.000	-0.103	0.304
-328.172	494.428	-0.123	-0.282
-327.158	-200.000	-0.003	0.105
-326.143	22.465	0.108	-0.088
-325.129	-15.593	0.074	-0.047
-324.114	237.748	-0.168	-0.278
-323.099	221.369	-0.164	-0.263
-322.085	800.000	-0.045	0.135
-321.070	46.281	0.245	0.226
-320.056	-171.081	0.231	-0.008
-319.041	309.707	-0.122	-0.227
-318.026	171.949	0.129	-0.185
-317.012	110.910	-0.199	-0.239
-315.997	-16.864	-0.222	-0.140
-314.983	-200.000	0.184	0.000
-313.968	168.805	0.033	0.047
-312.953	-71.752	-0.080	-0.030
-311.939	-200.000	-0.065	-0.299
-310.924	301.443	-0.088	0.162
-309.910	11.836	0.316	0.242
-308.895	-153.659	0.340	0.023
-307.880	-112.523	-0.262	-0.052
-306.866	89.700	-0.182	0.202
-305.851	-7.467	0.102	-0.069
-304.837	-120.376	-0.267	-0.045
-303.822	-8.154	-0.110	-0.074
-302.807	97.819	-0.090	-0.103
-301.793	-59.332	0.172	0.074
-300.778	74.723	0.185	-0.194
-299.764	-102.092	0.292	0.070
-298.749	800.000	-0.056	-0.193
-297.735	512.666	0.065	0.151
-296.720	-34.354	0.116	-0.064
-295.705	-51.890	0.102	-0.047
-294.691	-200.000	-0.048	-0.289
-293.676	-200.000	-0.016	-0.548
-292.662	-178.695	-0.185	0.004
-291.647	-133.569	-0.273	0.034
-290.632	403.746	-0.117	0.245
-289.618	389.438	-0.039	-0.080
-288.603	153.325	0.116	0.158
-287.589	800.000	-0.044	0.190
-286.574	800.000	0.119	-0.391
-285.559	571.849	-0.083	0.201
-284.545	-35.998	-0.394	0.212
-283.530	-200.000	0.009	0.068
-282.516	-200.000	-0.013	0.233
-281.501	-67.654	0.030	-0.012
-280.486	16.947	-0.279	0.220
-279.472	-75.167	0.359	0.128
-278.457	117.249	-0.200	-0.245
-277.443	-169.205	-0.244	-0.009
-276.428	-75.484	0.164	0.058
-275.413	397.528	-0.178	-0.371
-274.399	297.227	0.152	-0.277
-273.384	-53.379	-0.167	-0.076
-272.370	18.662	-0.282	0.225
-271.355	-200.000	0.007	0.037
-270.340	62.146	0.114	0.113
-269.326	800.000	0.095	-0.267
-268.311	-150.683	0.367	-0.028
-267.297	113.141	-0.091	0.110
-266.282	23.645	0.225	0.184
-265.267	13.528	0.209	0.162
-264.253	800.000	-0.048	0.194
-263.238	-79.483	0.145	-0.049
-262.224	-33.663	-0.037	-0.020
-261.209	-50.194	-0.145	0.068
-260.195	-77.911	0.467	-0.160
-259.180	-22.015	-0.323	0.195
-258.165	-42.996	0.192	-0.097
-257.151	12.335	-0.149	-0.114
-256.136	800.000	0.070	-0.275
-255.122	-117.275	-0.366	0.066
-254.107	-150.293	0.392	0.030
-253.092	-200.000	-0.066	-0.353
-252.078	-200.000	-0.008	0.408
-251.063	-200.000	0.040	0.277
-250.049	-35.089	-0.127	0.069
-249.034	-55.670	0.485	-0.216
-248.019	252.745	-0.038	0.065
-247.005	73.280	0.273	-0.284
-245.990	-34.056	0.042	-0.023
-244.976	-130.605	0.329	-0.044
-243.961	-178.334	-0.367	0.009
-242.946	-200.000	0.106	0.606
-241.932	-200.000	0.047	-0.418
-240.917	-77.300	0.134	-0.046
-239.903	118.351	-0.161	0.197
-238.888	53.187	-0.346	0.330
-237.873	235.727	-0.203	-0.334
-236.859	-200.000	0.113	0.000
-235.844	-39.521	0.267	-0.139
-234.830	-196.892	-0.102	0.001
-233.815	-108.249	-0.341	0.073
-232.800	225.360	0.054	0.087
-231.786	219.291	-0.142	0.226
-230.771	-200.000	0.013	-0.233
-229.757	152.174	-0.087	-0.118
-228.742	574.655	0.112	-0.271
-227.727	800.000	-0.037	0.158
-226.713	-128.204	0.214	0.030
-225.698	-118.595	0.190	0.033
-224.684	-200.000	0.007	0.030
-223.669	-200.000	-0.270	0.001
-222.655	800.000	-0.017	0.057
-221.640	-94.850	-0.407	-0.110
-220.625	800.000	-0.039	-0.134
-219.611	-200.000	0.002	-0.149
-218.596	117.320	-0.061	-0.075
-217.582	800.000	0.038	0.141
-216.567	-144.120	0.229	0.021
-215.552	-133.343	-0.232	-0.029
-214.538	115.417	0.185	-0.224
-213.523	-200.000	0.052	-0.271
-212.509	24.320	0.261	0.214
-211.494	15.524	-0.105	0.082
-210.479	743.099	0.073	-0.195
-209.465	800.000	0.176	0.482
-208.450	-200.000	-0.085	-0.399
-207.436	-200.000	0.036	0.239
-206.421	-167.568	0.280	-0.011
-205.406	-44.064	-0.201	0.100
-204.392	-200.000	0.125	-0.644
-203.377	-94.474	0.376	-0.102
-202.363	-200.000	-0.032	-0.247
-201.348	-109.607	0.204	-0.043
-200.333	-67.817	0.144	-0.056
-199.319	-20.805	-0.200	0.121
-198.304	226.167	-0.196	0.316
-197.290	276.710	0.077	-0.136
-196.275	35.219	-0.202	-0.176
-195.260	124.106	0.022	0.028
-194.246	47.390	-0.133	0.123
-193.231	-200.000	0.057	0.280
-192.217	19.882	-0.213	-0.171
-191.202	-33.428	-0.257	0.141
-190.187	28.265	0.108	0.090
-189.173	84.651	0.068	-0.073
-188.158	269.348	0.052	-0.091
-187.144	17.615	-0.115	-0.091
-186.129	-67.111	-0.041	0.016
-185.114	266.758	0.211	-0.365
-184.100	256.009	0.150	-0.255
-183.085	-76.197	-0.145	0.051
-182.071	-145.385	0.255	0.023
-181.056	-162.099	-0.148	0.007
-180.042	-146.120	-0.374	0.033
-179.027	-163.005	0.230	-0.011
-178.012	-28.062	0.082	-0.047
-176.998	-68.296	-0.501	0.193
-175.983	426.895	-0.033	-0.070
-174.969	-28.815	0.165	-0.094
-173.954	235.921	0.089	0.145
-172.939	-200.000	0.054	-0.348
-171.925	-200.000	0.028	-0.372
-170.910	124.051	0.052	0.065
-169.896	800.000	0.116	0.351
-168.881	-144.730	0.266	-0.024
-167.866	75.378	0.088	0.092
-166.852	63.559	-0.028	-0.028
-165.837	143.516	0.363	0.479
-164.823	60.991	-0.159	-0.156
-163.808	39.959	-0.131	0.116
-162.793	34.681	0.179	0.155
-161.779	-69.380	0.090	-0.034
-160.764	84.870	-0.170	0.185
-159.750	605.571	-0.047	-0.115
-158.735	800.000	-0.092	0.305
-157.720	411.888	0.042	0.089
-156.706	-62.508	-0.140	-0.058
-155.691	133.866	0.284	0.365
-154.677	193.421	0.087	0.130
-153.662	0.077	0.149	0.105
-152.647	-125.075	0.337	0.051
-151.633	-19.982	0.404	0.247
-150.618	-9.440	0.379	0.250
-149.604	267.807	-0.159	-0.276
-148.589	86.705	-0.173	0.189
-147.574	-88.198	-0.192	0.057
-146.560	35.988	-0.128	-0.111
-145.545	-83.352	0.273	0.087
-144.531	-35.110	-0.265	0.143
-143.516	800.000	-0.070	-0.209
-142.502	206.998	-0.158	0.244
-141.487	800.000	-0.035	-0.111
-140.472	-8.681	-0.209	0.139
-139.458	800.000	0.051	0.214
-138.443	-112.943	-0.071	0.014
-137.429	-170.998	0.134	0.005
-136.414	-200.000	0.013	0.059
-135.399	-13.277	0.174	-0.112
-134.385	-1.278	0.174	-0.122
-133.370	800.000	0.007	-0.028
-132.356	-139.708	-0.288	-0.030
-131.341	800.000	-0.034	-0.093
-130.326	-77.749	-0.362	-0.124
-129.312	48.515	0.306	0.284
-128.297	-200.000	-0.004	0.488
-127.283	638.409	0.004	-0.009
-126.268	81.216	0.197	0.211
-125.253	-131.965	-0.358	-0.046
-124.239	77.320	0.240	-0.253
-123.224	366.036	0.157	0.314
-122.210	435.962	-0.072	0.156
