DTS Sentinel unit serial number:	SN413079Multiplexer serial number:	ORYXHardware model number:	OX4-SRSoftware version number:	ORYX F/W v4.00 Oryx Data Collector v3.7.2.0data status	okinstallation	princeton_trtdifferential loss correction	single-endedforward channel	channel 2reverse channel	N/Adate	2019/09/18time	21:35:35forward acquisition time	60.00reverse acquisition time	0.00gamma	496.2192k internal	0.2346k external	0.2346temperature offset calibration	1.0018default loss term (dB/km)	0.3790temperature slope calibration	1.0000multiplexer offset coefficient	1.0000multiplexer slope coefficient	1.0000fibre end	0.00T internal ref (°C)	25.12T ext. ref 1 (°C)	0.81T ext. ref 2 (°C)	18.26length (m)	temperature (°C)	Stokes	anti-Stokes-747.200	-200.000	-0.019	0.479
-746.185	800.000	-0.157	0.439
-745.171	47.336	-0.131	0.122
-744.156	11.751	0.060	-0.046
-743.142	800.000	-0.116	-0.321
-742.127	106.392	-0.309	0.366
-741.112	-100.418	0.251	-0.062
-740.098	800.000	-0.080	0.327
-739.083	-200.000	-0.007	0.079
-738.069	179.655	-0.043	0.063
-737.054	226.218	-0.159	-0.257
-736.039	-116.769	-0.285	0.052
-735.025	593.575	-0.008	0.020
-734.010	-41.476	-0.067	-0.034
-732.996	562.206	-0.141	-0.342
-731.981	-200.000	0.019	0.234
-730.966	-113.653	-0.438	-0.085
-729.952	246.455	-0.206	-0.346
-728.937	124.793	-0.038	-0.048
-727.923	148.667	-0.105	-0.142
-726.908	601.163	-0.199	0.494
-725.894	77.058	0.073	-0.077
-724.879	800.000	-0.063	-0.241
-723.864	800.000	0.037	-0.111
-722.850	145.879	-0.297	-0.398
-721.835	20.541	-0.101	0.082
-720.821	117.898	0.050	-0.062
-719.806	1.761	-0.157	-0.113
-718.791	-61.896	0.234	-0.098
-717.777	20.611	0.295	0.238
-716.762	-77.017	0.122	-0.043
-715.748	800.000	-0.082	0.230
-714.733	-200.000	0.002	0.064
-713.718	-200.000	0.014	-0.121
-712.704	54.902	0.114	-0.110
-711.689	-153.917	0.383	0.026
-710.675	284.513	-0.095	0.171
-709.660	-79.235	-0.162	-0.055
-708.645	-113.486	-0.324	-0.063
-707.631	-73.006	0.029	-0.011
-706.616	-200.000	-0.004	-0.390
-705.602	225.833	0.021	0.033
-704.587	381.704	-0.095	-0.194
-703.572	202.305	-0.039	-0.060
-702.558	-200.000	-0.076	0.402
-701.543	-200.000	-0.009	0.125
-700.529	352.622	-0.023	0.045
-699.514	-53.798	0.073	0.033
-698.499	51.981	-0.205	-0.195
-697.485	800.000	-0.056	0.159
-696.470	-71.641	-0.185	-0.069
-695.456	-200.000	0.095	-0.631
-694.441	42.783	-0.033	-0.030
-693.426	322.279	-0.030	0.056
-692.412	-40.911	0.205	0.106
-691.397	-161.169	0.352	-0.018
-690.383	-200.000	-0.034	0.243
-689.368	-200.000	0.034	-0.468
-688.354	-156.229	-0.300	-0.019
-687.339	-48.379	-0.090	0.043
-686.324	700.578	0.052	0.136
-685.310	-200.000	-0.068	0.355
-684.295	392.081	0.150	0.311
-683.281	114.655	-0.199	0.242
-682.266	42.516	-0.082	0.075
-681.251	456.877	-0.022	0.049
-680.237	46.921	0.045	0.041
-679.222	-40.596	0.237	-0.123
-678.208	162.022	0.254	-0.354
-677.193	-200.000	0.061	-0.294
-676.178	-144.025	0.123	0.011
-675.164	-50.089	-0.524	-0.248
-674.149	-200.000	0.031	-0.316
-673.135	-10.713	-0.494	-0.326
-672.120	-200.000	-0.048	-0.299
-671.105	-33.398	0.177	-0.097
-670.091	334.154	-0.086	-0.167
-669.076	-15.559	0.141	-0.090
-668.062	-31.010	-0.247	0.139
-667.047	-200.000	-0.023	0.147
-666.032	-200.000	0.040	-0.426
-665.018	-17.389	0.142	0.089
-664.003	-67.614	0.112	0.044
-662.989	-200.000	-0.031	0.261
-661.974	-46.386	-0.122	0.060
-660.959	-0.989	0.165	0.116
-659.945	-200.000	-0.041	-0.205
-658.930	78.100	-0.296	0.315
-657.916	-59.699	-0.124	0.053
-656.901	82.576	-0.127	-0.138
-655.886	-4.786	-0.209	0.144
-654.872	-110.888	-0.098	-0.020
-653.857	-32.214	0.092	0.051
-652.843	800.000	0.057	0.242
-651.828	800.000	-0.031	-0.132
-650.814	-80.708	-0.159	0.053
-649.799	65.310	0.161	0.162
-648.784	1.527	0.252	0.181
-647.770	-178.198	-0.388	0.009
-646.755	177.699	0.255	-0.370
-645.741	800.000	0.073	-0.262
-644.726	-176.772	-0.150	0.004
-643.711	220.525	-0.078	0.125
-642.697	-119.255	-0.162	0.028
-641.682	239.124	-0.120	-0.200
-640.668	-200.000	0.010	-0.163
-639.653	44.072	0.243	-0.222
-638.638	34.920	-0.110	-0.096
-637.624	432.708	-0.006	-0.012
-636.609	-162.328	-0.163	-0.008
-635.595	800.000	-0.023	0.067
-634.580	800.000	-0.055	-0.166
-633.565	-200.000	-0.019	0.190
-632.551	217.543	0.052	-0.083
-631.536	-200.000	-0.036	-0.267
-630.522	-188.460	-0.223	0.003
-629.507	-200.000	0.028	0.346
-628.492	-123.206	0.326	-0.052
-627.478	162.310	-0.068	-0.094
-626.463	-100.596	0.268	-0.066
-625.449	324.737	0.071	0.135
-624.434	-19.929	-0.187	-0.115
-623.419	448.919	-0.098	-0.216
-622.405	28.866	0.207	0.175
-621.390	-86.836	0.182	-0.055
-620.376	-30.618	-0.198	-0.112
-619.361	-82.411	0.174	-0.056
-618.346	800.000	-0.113	-0.401
-617.332	-91.413	-0.238	0.068
-616.317	501.792	0.051	0.117
-615.303	102.396	-0.150	-0.175
-614.288	-99.556	0.264	-0.066
-613.273	-66.657	-0.253	-0.100
-612.259	61.798	0.238	-0.236
-611.244	-121.176	-0.570	-0.095
-610.230	800.000	0.112	-0.457
-609.215	-200.000	0.028	-0.456
-608.201	-167.733	0.448	0.018
-607.186	800.000	0.036	-0.099
-606.171	800.000	-0.048	-0.153
-605.157	-0.673	0.246	0.174
-604.142	-73.472	-0.104	-0.038
-603.128	-65.257	-0.162	-0.065
-602.113	-200.000	0.062	-0.310
-601.098	-183.299	0.157	0.003
-600.084	800.000	0.061	0.241
-599.069	-200.000	0.038	-0.359
-598.055	-200.000	0.041	0.200
-597.040	-119.723	0.181	0.031
-596.025	348.202	0.097	-0.190
-595.011	381.546	0.068	0.139
-593.996	800.000	0.061	-0.223
-592.982	291.076	-0.183	-0.332
-591.967	-44.631	0.227	-0.113
-590.952	-3.388	0.156	0.108
-589.938	150.341	-0.134	0.181
-588.923	20.404	-0.220	0.177
-587.909	280.053	0.075	0.134
-586.894	17.941	0.197	0.156
-585.879	-83.691	0.333	0.106
-584.865	-200.000	-0.012	-0.103
-583.850	0.071	0.209	-0.148
-582.836	-121.466	0.207	0.034
-581.821	18.892	-0.321	-0.256
-580.806	-81.765	0.072	0.023
-579.792	50.252	0.197	0.185
-578.777	205.342	0.037	-0.058
-577.763	-200.000	0.019	0.115
-576.748	-200.000	-0.166	0.001
-575.733	39.449	-0.221	0.197
-574.719	19.760	-0.044	0.035
-573.704	-48.384	-0.167	0.080
-572.690	800.000	-0.066	0.255
-571.675	-88.196	0.145	-0.043
-570.661	300.631	0.033	0.060
-569.646	87.324	-0.339	-0.372
-568.631	41.310	-0.125	-0.113
-567.617	232.780	-0.247	-0.403
-566.602	61.036	-0.149	0.147
-565.588	-103.023	0.144	0.034
-564.573	800.000	0.079	0.223
-563.558	-12.851	-0.252	0.163
-562.544	13.927	-0.203	-0.157
-561.529	172.784	-0.155	-0.221
-560.515	-88.991	0.039	0.011
-559.500	-144.756	-0.273	0.025
-558.485	75.563	0.133	0.139
-557.471	-89.850	-0.187	-0.054
-556.456	233.340	-0.163	0.266
-555.442	182.964	0.133	0.195
-554.427	-3.500	-0.181	-0.125
-553.412	216.207	-0.305	-0.481
-552.398	-169.216	-0.318	-0.012
-551.383	800.000	0.049	0.203
-550.369	335.837	-0.135	0.260
-549.354	716.898	-0.026	0.068
-548.339	-173.516	0.107	-0.003
-547.325	394.048	-0.029	0.061
-546.310	135.643	0.134	0.173
-545.296	-28.351	0.270	-0.155
-544.281	303.313	-0.183	0.336
-543.266	191.153	0.107	0.160
-542.252	-84.845	-0.032	-0.010
-541.237	-181.958	-0.415	0.008
-540.223	-200.000	-0.022	-0.170
-539.208	327.914	0.120	0.228
-538.193	68.093	0.170	-0.173
-537.179	-20.870	0.172	-0.105
-536.164	-71.631	-0.146	-0.054
-535.150	800.000	0.041	0.157
-534.135	-176.390	0.244	0.006
-533.121	144.416	-0.155	-0.205
-532.106	218.181	-0.138	-0.219
-531.091	-90.451	-0.269	-0.077
-530.077	-50.941	-0.166	-0.077
-529.062	166.142	0.179	-0.252
-528.048	-50.513	0.578	-0.271
-527.033	-200.000	-0.004	0.232
-526.018	54.103	-0.183	-0.174
-525.004	390.666	0.208	-0.428
-523.989	-181.931	-0.194	-0.004
-522.975	147.457	-0.124	0.166
-521.960	372.124	0.174	-0.351
-520.945	-40.210	-0.222	-0.115
-519.931	800.000	-0.017	0.057
-518.916	-12.036	-0.232	-0.151
-517.902	-65.533	0.087	-0.035
-516.887	-41.977	-0.136	-0.069
-515.872	263.258	-0.015	0.025
-514.858	499.417	0.112	0.257
-513.843	-200.000	-0.013	0.223
-512.829	20.685	-0.134	-0.107
-511.814	-12.514	0.193	0.125
-510.799	167.601	0.054	0.076
-509.785	326.062	0.078	0.147
-508.770	-200.000	-0.046	-0.245
-507.756	3.854	-0.306	0.222
-506.741	-29.319	-0.079	-0.045
-505.726	324.700	0.154	0.291
-504.712	609.938	-0.038	-0.095
-503.697	17.579	-0.109	-0.086
-502.683	87.543	-0.281	0.309
-501.668	-200.000	0.113	-0.518
-500.653	-30.836	-0.362	0.202
-499.639	37.137	-0.297	-0.260
-498.624	25.562	-0.293	0.241
-497.610	-107.498	-0.312	-0.068
-496.595	144.380	0.274	0.363
-495.581	167.303	0.035	0.049
-494.566	95.318	0.083	-0.094
-493.551	45.033	0.131	0.120
-492.537	-76.268	0.374	0.131
-491.522	-200.000	-0.003	0.090
-490.508	20.774	-0.187	0.150
-489.493	-88.687	-0.109	-0.032
-488.478	-180.442	0.132	-0.003
-487.464	50.523	0.240	0.224
-486.449	-16.312	-0.272	0.171
-485.435	34.786	0.110	0.095
-484.420	-117.455	0.580	-0.104
-483.405	-200.000	-0.065	-0.284
-482.391	800.000	0.051	0.215
-481.376	566.016	0.184	0.441
-480.362	115.945	0.295	0.358
-479.347	73.510	-0.249	0.258
-478.332	77.507	-0.113	-0.119
-477.318	14.097	0.251	-0.193
-476.303	368.456	-0.042	0.085
-475.289	800.000	-0.047	0.158
-474.274	-30.021	-0.263	-0.148
-473.259	-200.000	0.008	-0.189
-472.245	44.674	-0.197	0.180
-471.230	59.166	-0.267	-0.260
-470.216	291.841	0.143	-0.257
-469.201	-41.685	-0.060	-0.031
-468.186	800.000	0.027	0.081
-467.172	-200.000	-0.050	0.237
-466.157	-200.000	0.004	-0.273
-465.143	-136.271	0.146	-0.017
-464.128	-37.377	0.220	-0.116
-463.113	-158.280	0.480	0.028
-462.099	-148.042	-0.291	0.024
-461.084	-200.000	0.010	0.308
-460.070	800.000	-0.062	0.244
-459.055	-200.000	0.026	0.548
-458.040	170.645	-0.020	0.029
-457.026	800.000	0.098	-0.278
-456.011	89.260	-0.158	0.174
-454.997	-200.000	0.000	-0.113
-453.982	152.702	0.091	-0.122
-452.968	78.924	-0.104	-0.110
-451.953	36.706	0.198	-0.173
-450.938	-48.986	-0.278	-0.131
-449.924	-40.049	-0.319	-0.165
-448.909	-84.202	0.090	-0.028
-447.895	-200.000	0.006	-0.091
-446.880	76.031	0.069	0.072
-445.865	133.511	0.026	0.033
-444.851	-200.000	0.034	-0.254
-443.836	800.000	-0.054	-0.156
-442.822	141.743	-0.066	0.086
-441.807	-67.050	-0.366	-0.143
-440.792	-12.782	-0.116	0.074
-439.778	-68.405	-0.098	0.038
-438.763	-7.381	0.233	0.156
-437.749	-14.504	0.262	-0.166
-436.734	-63.356	-0.137	0.056
-435.719	-88.705	-0.147	-0.043
-434.705	53.045	-0.118	0.112
-433.690	579.878	-0.098	0.237
-432.676	-200.000	0.004	0.097
-431.661	-22.222	-0.053	-0.032
-430.646	85.431	0.088	-0.096
-429.632	-200.000	0.005	-0.022
-428.617	-69.828	-0.279	0.105
-427.603	80.551	0.085	0.090
-426.588	-200.000	-0.024	0.311
-425.573	-53.237	0.147	0.067
-424.559	-77.154	0.207	-0.071
-423.544	532.516	-0.076	-0.178
-422.530	124.358	-0.169	-0.210
-421.515	-200.000	0.003	0.126
-420.500	593.989	0.110	0.268
-419.486	-200.000	-0.054	0.391
-418.471	10.769	-0.134	-0.101
-417.457	335.413	-0.066	-0.126
-416.442	479.643	0.113	-0.252
-415.428	353.518	0.123	0.241
-414.413	800.000	-0.022	0.064
-413.398	800.000	-0.080	0.320
-412.384	-200.000	-0.084	0.542
-411.369	239.224	0.058	0.095
-410.355	-200.000	-0.018	0.293
-409.340	233.914	-0.080	0.129
-408.325	-155.840	0.298	0.019
-407.311	102.020	0.161	0.185
-406.296	-14.577	-0.074	0.047
-405.282	800.000	-0.151	0.566
-404.267	305.977	-0.033	0.060
-403.252	-122.086	-0.101	0.016
-402.238	-200.000	-0.036	0.164
-401.223	178.848	0.114	0.165
-400.209	800.000	0.028	0.086
-399.194	-112.424	0.315	0.062
-398.179	-200.000	-0.058	-0.283
-397.165	-120.191	0.268	-0.045
-396.150	800.000	0.062	0.224
-395.136	800.000	-0.106	-0.376
-394.121	-200.000	0.019	-0.115
-393.106	-200.000	-0.004	0.325
-392.092	-56.412	-0.186	0.082
-391.077	-57.075	-0.098	0.043
-390.063	677.477	-0.057	0.146
-389.048	800.000	0.072	0.253
-388.033	-51.339	-0.479	0.221
-387.019	800.000	-0.053	-0.151
-386.004	-50.152	-0.204	-0.095
-384.990	-16.838	-0.253	-0.158
-383.975	137.672	0.338	-0.436
-382.960	19.430	-0.010	0.008
-381.946	593.067	-0.118	-0.286
-380.931	60.976	0.351	0.343
-379.917	-77.405	0.197	0.068
-378.902	800.000	0.119	0.381
-377.888	-78.635	0.349	0.118
-376.873	404.839	-0.204	0.424
-375.858	103.474	-0.125	-0.145
-374.844	-200.000	-0.009	0.272
-373.829	392.138	0.077	0.158
-372.815	-200.000	0.002	0.394
-371.800	-200.000	-0.022	0.266
-370.785	213.694	0.116	-0.181
-369.771	-68.631	0.161	-0.061
-368.756	-106.234	0.261	-0.058
-367.742	46.266	0.081	-0.074
-366.727	-103.433	-0.260	-0.060
-365.712	487.054	0.117	0.263
-364.698	-200.000	0.005	0.319
-363.683	-200.000	0.016	-0.089
-362.669	201.418	-0.089	-0.134
-361.654	-200.000	0.004	-0.414
-360.639	-50.737	0.138	-0.064
-359.625	800.000	-0.092	0.273
-358.610	-112.179	0.133	0.026
-357.596	-17.166	-0.188	-0.117
-356.581	-26.784	0.137	-0.079
-355.566	-186.352	-0.286	0.004
-354.552	295.340	0.053	-0.095
-353.537	58.039	0.140	-0.135
-352.523	139.189	0.090	0.117
-351.508	800.000	-0.092	0.260
-350.493	17.042	-0.103	0.081
-349.479	-23.727	0.141	-0.083
-348.464	103.414	0.242	-0.280
-347.450	-160.846	0.099	-0.005
-346.435	-92.576	0.249	0.069
-345.420	-94.490	-0.328	-0.088
-344.406	-52.934	-0.272	-0.123
-343.391	-73.133	0.228	-0.082
-342.377	-52.241	0.347	-0.158
-341.362	-12.737	-0.149	-0.095
-340.348	182.300	0.152	-0.220
-339.333	286.543	0.123	-0.218
-338.318	-200.000	-0.173	-0.001
-337.304	-84.807	0.068	0.021
-336.289	-200.000	0.018	0.261
-335.275	143.754	-0.068	-0.089
-334.260	-200.000	0.012	-0.326
-333.245	-182.486	0.235	-0.004
-332.231	4.490	-0.248	0.179
-331.216	-110.497	-0.211	-0.043
-330.202	800.000	0.040	-0.148
-329.187	598.686	-0.099	0.241
-328.172	157.457	-0.178	-0.243
-327.158	-200.000	-0.002	0.175
-326.143	-2.928	0.201	0.138
-325.129	800.000	0.084	-0.325
-324.114	-23.635	0.123	-0.073
-323.099	-125.189	0.281	-0.042
-322.085	-139.621	0.042	0.004
-321.070	90.398	0.110	-0.121
-320.056	290.548	0.129	0.231
-319.041	800.000	-0.164	0.502
-318.026	460.263	-0.070	0.154
-317.012	-20.417	-0.245	-0.148
-315.997	304.589	-0.142	0.260
-314.983	-93.036	0.263	-0.072
-313.968	-200.000	0.056	-0.265
-312.953	400.240	0.065	-0.135
-311.939	-188.426	-0.057	0.001
-310.924	474.153	0.032	-0.071
-309.910	-200.000	0.039	-0.247
-308.895	-200.000	-0.064	0.303
-307.880	800.000	-0.135	0.467
-306.866	-72.721	-0.410	0.149
-305.851	274.548	0.083	-0.144
-304.837	-56.234	0.163	-0.071
-303.822	-79.737	-0.317	0.105
-302.807	-4.649	0.066	0.045
-301.793	29.027	-0.055	0.046
-300.778	310.352	-0.184	0.339
-299.764	114.754	0.179	0.215
-298.749	-49.422	-0.401	0.188
-297.735	136.820	-0.116	0.149
-296.720	36.053	0.195	-0.169
-295.705	46.696	-0.122	0.111
-294.691	1.528	-0.183	0.129
-293.676	800.000	0.048	-0.171
-292.662	800.000	-0.110	0.326
-291.647	-200.000	-0.014	-0.462
-290.632	529.277	0.082	-0.189
-289.618	42.645	0.187	0.168
-288.603	232.382	0.266	-0.429
-287.589	572.799	0.044	-0.105
-286.574	-101.698	-0.192	0.046
-285.559	800.000	0.064	-0.202
-284.545	-200.000	-0.013	-0.187
-283.530	-200.000	-0.017	0.137
-282.516	-48.937	-0.183	-0.086
-281.501	8.988	0.259	0.192
-280.486	-123.605	0.149	-0.023
-279.472	474.549	-0.133	-0.294
-278.457	-200.000	-0.052	-0.282
-277.443	383.119	-0.089	-0.180
-276.428	-111.124	0.379	-0.076
-275.413	419.337	-0.140	0.294
-274.399	-130.859	0.193	-0.025
-273.384	-133.427	-0.288	-0.036
-272.370	142.902	-0.139	0.182
-271.355	185.666	0.114	0.167
-270.340	243.447	-0.087	0.144
-269.326	-44.865	0.143	0.070
-268.311	-65.975	0.276	-0.108
-267.297	335.871	-0.076	-0.145
-266.282	-153.404	0.099	0.007
-265.267	-200.000	-0.009	0.416
-264.253	-110.727	0.053	0.011
-263.238	-22.635	0.109	0.065
-262.224	729.070	0.118	0.310
-261.209	14.936	0.273	0.210
-260.195	800.000	-0.042	-0.127
-259.180	130.503	-0.194	-0.244
-258.165	-73.272	-0.162	-0.058
-257.151	769.732	0.071	-0.188
-256.136	60.338	0.348	0.338
-255.122	179.618	0.040	-0.057
-254.107	-116.892	0.289	0.052
-253.092	-37.627	0.181	0.094
-252.078	-91.558	-0.062	-0.017
-251.063	-200.000	-0.004	0.075
-250.049	-103.156	0.137	-0.032
-249.034	-176.917	0.200	-0.005
-248.019	671.944	-0.065	0.166
-247.005	-200.000	-0.028	-0.123
-245.990	-30.326	-0.241	-0.134
-244.976	-27.847	-0.218	0.124
-243.961	-200.000	-0.005	-0.319
-242.946	-34.963	-0.146	-0.078
-241.932	-200.000	0.006	-0.354
-240.917	-200.000	-0.049	-0.234
-239.903	-77.864	0.113	-0.038
-238.888	-72.189	-0.174	0.063
-237.873	-109.629	-0.101	-0.021
-236.859	151.012	-0.047	-0.062
-235.844	-12.572	0.114	-0.073
-234.830	-82.565	0.106	-0.034
-233.815	9.147	0.125	-0.093
-232.800	-74.370	-0.242	-0.086
-231.786	340.154	0.178	-0.341
-230.771	28.912	0.159	-0.132
-229.757	-41.192	0.074	0.037
-228.742	-200.000	0.029	0.299
-227.727	143.160	0.246	0.321
-226.713	-200.000	0.009	0.270
-225.698	33.487	0.132	-0.112
-224.684	186.312	-0.176	-0.256
-223.669	106.377	0.225	-0.261
-222.655	58.418	-0.180	0.173
-221.640	-80.349	-0.293	0.096
-220.625	800.000	-0.027	-0.089
-219.611	67.394	0.233	-0.233
-218.596	800.000	0.073	-0.273
-217.582	-35.431	0.115	-0.061
-216.567	-72.228	-0.190	0.069
-215.552	-64.973	0.456	0.180
-214.538	-187.114	-0.169	-0.002
-213.523	266.056	-0.153	0.262
-212.509	800.000	-0.101	-0.389
-211.494	-81.990	-0.171	-0.055
-210.479	48.559	0.057	-0.053
-209.465	-151.600	-0.378	0.027
-208.450	-27.127	-0.229	0.131
-207.436	-97.847	0.251	-0.063
-206.421	699.098	0.115	0.296
-205.406	-200.000	0.000	-0.248
-204.392	-200.000	0.055	-0.429
-203.377	-50.967	0.245	-0.112
-202.363	-105.190	0.355	0.079
-201.348	-11.349	0.121	0.078
-200.333	-124.620	-0.072	-0.011
-199.319	15.029	-0.115	-0.088
-198.304	800.000	-0.053	0.155
-197.290	-200.000	0.036	-0.347
-196.275	-132.524	-0.306	0.039
-195.260	-7.634	0.140	0.093
-194.246	-51.565	0.230	0.105
-193.231	-102.371	0.503	-0.118
-192.217	17.237	-0.202	0.157
-191.202	-11.662	-0.272	0.175
-190.187	216.243	-0.101	0.157
-189.173	800.000	-0.065	0.180
-188.158	-200.000	0.090	-0.408
-187.144	72.222	-0.177	0.181
-186.129	56.149	0.234	-0.222
-185.114	-200.000	0.000	0.191
-184.100	737.434	0.033	0.086
-183.085	284.882	-0.179	0.315
-182.071	20.943	0.512	-0.406
-181.056	110.292	-0.041	0.048
-180.042	-68.792	0.230	-0.087
-179.027	10.745	-0.195	-0.146
-178.012	55.878	-0.085	-0.080
-176.998	69.808	-0.244	0.246
-175.983	-77.207	-0.320	-0.109
-174.969	65.261	0.100	-0.099
-173.954	643.393	-0.090	-0.225
-172.939	415.878	0.098	0.204
-171.925	-166.700	-0.192	-0.008
-170.910	489.332	0.105	-0.234
-169.896	136.808	0.226	0.289
-168.881	-200.000	-0.007	0.149
-167.866	-52.251	-0.098	-0.045
-166.852	-73.644	-0.307	-0.109
-165.837	-48.292	0.375	0.177
-164.823	800.000	-0.043	-0.166
-163.808	274.156	0.080	0.138
-162.793	-23.536	0.219	0.128
-161.779	-41.424	0.217	0.109
-160.764	-112.074	-0.157	-0.031
-159.750	-97.903	0.097	-0.024
-158.735	212.202	-0.167	-0.258
-157.720	-200.000	0.044	-0.216
-156.706	-121.796	-0.221	0.036
-155.691	456.445	-0.074	0.161
-154.677	184.796	0.097	-0.141
-153.662	27.043	-0.243	-0.199
-152.647	-96.585	0.206	-0.053
-151.633	91.193	0.066	-0.073
-150.618	800.000	0.022	-0.090
-149.604	55.099	-0.142	-0.134
-148.589	-68.937	0.085	-0.032
-147.574	-34.047	-0.185	0.099
-146.560	-42.976	-0.052	0.026
-145.545	800.000	0.076	0.223
-144.531	-65.893	0.058	0.023
-143.516	-4.902	-0.152	-0.102
-142.502	-200.000	0.026	-0.172
-141.487	29.733	0.091	0.076
-140.472	-4.165	-0.258	-0.175
-139.458	-65.973	0.423	-0.165
-138.443	31.107	-0.073	0.061
-137.429	-104.592	0.335	-0.075
-136.414	55.020	0.268	-0.252
-135.399	-104.373	-0.250	-0.056
-134.385	358.022	0.101	-0.197
-133.370	276.181	0.223	0.387
-132.356	97.390	-0.042	-0.047
-131.341	408.875	-0.088	0.181
-130.326	217.517	0.116	0.180
-129.312	-200.000	0.017	-0.279
-128.297	-111.797	0.051	0.010
-127.283	49.536	0.021	0.019
-126.268	-135.517	0.197	0.023
-125.253	-63.567	-0.299	0.120
-124.239	192.334	-0.092	-0.136
-123.224	168.165	0.117	0.162
-122.210	-87.617	0.202	-0.059
-121.195	41.437	-0.086	0.076
