DTS Sentinel unit serial number:	SN413079Multiplexer serial number:	ORYXHardware model number:	OX4-SRSoftware version number:	ORYX F/W v4.00 Oryx Data Collector v3.7.2.0data status	okinstallation	princeton_trtdifferential loss correction	single-endedforward channel	channel 2reverse channel	N/Adate	2019/09/12time	18:27:49forward acquisition time	15.00reverse acquisition time	0.00gamma	496.2192k internal	0.2324k external	0.2324temperature offset calibration	1.0125default loss term (dB/km)	0.3790temperature slope calibration	1.0000multiplexer offset coefficient	1.0000multiplexer slope coefficient	1.0000fibre end	0.00T internal ref (°C)	33.31T ext. ref 1 (°C)	2.93T ext. ref 2 (°C)	27.90length (m)	temperature (°C)	Stokes	anti-Stokes-747.200	-145.312	-0.767	-0.070
-746.185	-200.000	0.025	0.319
-745.171	-40.250	0.394	0.207
-744.156	20.896	0.376	-0.308
-743.142	-100.625	0.741	0.185
-742.127	177.069	-0.040	-0.059
-741.112	-4.197	-0.058	-0.040
-740.098	481.019	-0.139	0.317
-739.083	203.166	0.320	0.499
-738.069	-33.523	0.495	0.276
-737.054	540.202	-0.334	-0.802
-736.039	-200.000	0.000	0.644
-735.025	-79.271	0.583	-0.199
-734.010	65.981	-0.359	-0.367
-732.996	-97.147	0.506	-0.134
-731.981	-104.107	-0.220	-0.052
-730.966	-71.363	0.449	-0.170
-729.952	119.969	0.707	-0.884
-728.937	-200.000	-0.012	0.466
-727.923	-67.293	0.271	0.107
-726.908	11.933	0.065	-0.051
-725.894	567.946	0.139	-0.341
-724.879	-15.088	-0.560	0.362
-723.864	40.150	0.352	-0.319
-722.850	679.399	0.363	-0.953
-721.835	-13.468	-0.640	0.419
-720.821	69.689	0.302	-0.314
-719.806	483.531	0.094	0.216
-718.791	-163.899	-0.473	-0.022
-717.777	36.925	-0.969	-0.864
-716.762	518.796	-0.270	-0.638
-715.748	-200.000	0.026	0.310
-714.733	65.545	-0.761	0.777
-713.718	800.000	0.252	-0.872
-712.704	-80.410	1.138	-0.383
-711.689	-20.678	0.269	0.166
-710.675	-74.442	0.235	0.086
-709.660	256.008	-0.310	-0.537
-708.645	800.000	-0.221	0.631
-707.631	-65.234	-0.477	-0.194
-706.616	-66.399	0.469	-0.188
-705.602	800.000	0.225	0.728
-704.587	-200.000	-0.058	-0.340
-703.572	-200.000	-0.007	0.419
-702.558	509.525	-0.151	-0.354
-701.543	169.919	-0.393	0.566
-700.529	-200.000	0.066	-0.545
-699.514	-117.918	-0.524	-0.095
-698.499	-3.148	0.539	-0.378
-697.485	-141.608	0.607	-0.062
-696.470	-0.561	-0.624	0.446
-695.456	-129.048	0.711	0.100
-694.441	-200.000	-0.038	0.370
-693.426	404.556	0.260	0.551
-692.412	-15.322	-0.526	-0.339
-691.397	-200.000	-0.023	0.366
-690.383	-200.000	0.102	0.517
-689.368	-200.000	0.024	0.344
-688.354	-116.015	0.347	0.065
-687.339	-130.955	-0.271	-0.037
-686.324	800.000	-0.018	0.079
-685.310	-200.000	0.013	0.079
-684.295	800.000	0.035	0.134
-683.281	800.000	0.267	0.863
-682.266	162.603	0.061	-0.086
-681.251	518.151	-0.046	-0.109
-680.237	4.865	-0.286	0.211
-679.222	-132.313	-0.468	0.061
-678.208	-174.595	-1.119	0.032
-677.193	-111.669	0.469	0.096
-676.178	-39.649	-0.438	0.231
-675.164	43.675	0.358	-0.330
-674.149	179.163	-0.058	-0.085
-673.135	-200.000	0.447	-0.000
-672.120	36.692	0.261	-0.232
-671.105	-200.000	0.008	-0.725
-670.091	405.881	0.197	0.418
-669.076	-103.022	-0.962	-0.230
-668.062	446.072	-0.179	-0.397
-667.047	15.028	-0.457	0.360
-666.032	800.000	0.166	0.543
-665.018	-200.000	-0.131	0.618
-664.003	123.948	-0.537	0.679
-662.989	-125.116	-0.049	-0.008
-661.974	-53.328	-0.500	-0.231
-660.959	-200.000	0.121	1.244
-659.945	65.849	0.601	-0.613
-658.930	344.045	0.086	-0.169
-657.916	-18.796	-0.065	0.041
-656.901	-121.139	-0.371	-0.063
-655.886	-200.000	-0.078	-0.902
-654.872	8.249	-0.169	-0.127
-653.857	800.000	0.127	-0.535
-652.843	112.248	-0.281	0.341
-651.828	-200.000	-0.055	-0.768
-650.814	103.915	0.152	-0.180
-649.799	-129.191	-0.612	0.086
-648.784	151.842	0.495	0.678
-647.770	17.358	-0.726	0.580
-646.755	-23.361	0.086	-0.052
-645.741	-181.237	-0.079	-0.002
-644.726	349.987	-0.281	-0.559
-643.711	-147.495	-0.273	0.023
-642.697	9.659	0.428	0.326
-641.682	800.000	-0.101	0.327
-640.668	64.772	0.395	-0.401
-639.653	-16.418	-0.354	0.225
-638.638	33.411	0.282	0.246
-637.624	-42.937	0.777	0.396
-636.609	34.921	-0.488	-0.430
-635.595	-150.690	-0.430	0.033
-634.580	-200.000	0.047	0.328
-633.565	102.834	0.705	-0.829
-632.551	19.429	-0.704	-0.568
-631.536	-71.299	-0.600	-0.226
-630.522	-85.576	-0.946	-0.296
-629.507	548.725	-0.154	0.371
-628.492	136.204	0.359	-0.470
-627.478	-32.225	-0.154	-0.086
-626.463	89.177	0.155	0.173
-625.449	-157.035	0.143	0.009
-624.434	642.391	0.136	0.349
-623.419	-43.268	0.298	-0.151
-622.405	760.737	0.278	-0.757
-621.390	-51.362	1.113	-0.523
-620.376	85.128	-0.261	0.287
-619.361	146.244	-0.137	-0.185
-618.346	151.362	-0.147	-0.201
-617.332	506.820	-0.193	-0.449
-616.317	143.528	-0.416	0.556
-615.303	12.228	0.894	0.691
-614.288	-17.092	-0.166	0.105
-613.273	-200.000	-0.102	-0.463
-612.259	-82.386	-0.227	0.074
-611.244	-63.907	0.723	-0.297
-610.230	1.617	-0.417	-0.301
-609.215	-80.246	0.772	0.259
-608.201	482.508	-0.086	-0.196
-607.186	-174.525	0.639	-0.018
-606.171	800.000	0.068	0.271
-605.157	-200.000	-0.011	-0.285
-604.142	1.585	-0.281	-0.203
-603.128	-200.000	-0.057	0.570
-602.113	155.150	-0.367	-0.507
-601.098	-200.000	0.044	0.265
-600.084	-79.401	0.463	-0.157
-599.069	-200.000	0.087	-0.592
-598.055	21.429	0.719	-0.587
-597.040	800.000	0.058	-0.196
-596.025	-118.182	0.614	0.110
-595.011	-57.175	-0.654	-0.289
-593.996	-200.000	-0.050	0.697
-592.982	322.069	-0.554	1.058
-591.967	-44.465	-0.626	-0.314
-590.952	231.582	-0.393	0.646
-589.938	-143.151	-0.260	-0.025
-588.923	63.567	-0.276	-0.278
-587.909	-200.000	-0.107	0.480
-586.894	-200.000	0.038	0.287
-585.879	120.216	0.686	-0.854
-584.865	53.988	-0.226	-0.218
-583.850	20.903	-0.492	-0.400
-582.836	-82.579	0.440	0.143
-581.821	800.000	0.192	0.654
-580.806	-162.502	0.688	0.034
-579.792	800.000	-0.036	0.129
-578.777	203.206	-0.250	0.388
-577.763	324.018	-0.310	-0.594
-576.748	103.759	-0.265	-0.313
-575.733	-49.745	-0.573	-0.273
-574.719	470.414	-0.225	0.507
-573.704	254.374	0.439	0.752
-572.690	-200.000	-0.104	-0.641
-571.675	-108.593	-0.829	0.178
-570.661	34.808	0.309	0.271
-569.646	-101.316	-0.276	-0.067
-568.631	-44.494	-0.632	-0.317
-567.617	112.687	0.318	-0.386
-566.602	24.559	0.255	0.211
-565.588	135.583	0.193	0.252
-564.573	322.498	-0.111	0.212
-563.558	-135.036	-0.604	-0.073
-562.544	-118.316	-0.278	0.050
-561.529	-108.778	0.462	0.099
-560.515	104.234	-0.142	-0.168
-559.500	-200.000	-0.078	0.344
-558.485	255.284	0.453	0.778
-557.471	128.244	-0.297	0.378
-556.456	295.449	-0.389	0.714
-555.442	-200.000	-0.016	0.464
-554.427	-200.000	0.113	-0.785
-553.412	-123.381	0.203	0.032
-552.398	-84.958	-0.383	0.120
-551.383	-101.747	-0.305	-0.074
-550.369	25.183	-0.092	-0.077
-549.354	-114.207	0.368	-0.071
-548.339	-173.024	-0.794	0.025
-547.325	100.224	0.512	-0.595
-546.310	-200.000	0.061	0.371
-545.296	54.204	-0.072	-0.069
-544.281	110.526	-0.224	0.269
-543.266	648.337	-0.086	-0.219
-542.252	-73.616	0.333	-0.122
-541.237	-200.000	0.046	0.521
-540.223	800.000	0.190	-0.578
-539.208	139.197	-0.408	-0.538
-538.193	-61.316	-0.508	-0.214
-537.179	34.114	0.348	0.304
-536.164	-76.686	0.335	-0.117
-535.150	-138.493	0.918	-0.101
-534.135	-200.000	0.106	0.650
-533.121	-126.494	-0.921	-0.137
-532.106	-109.149	-0.180	-0.038
-531.091	190.164	-0.274	-0.412
-530.077	-10.949	0.888	0.587
-529.062	14.196	-0.521	0.406
-528.048	59.959	0.209	-0.207
-527.033	53.300	0.546	0.524
-526.018	-107.687	-0.872	-0.191
-525.004	157.171	-0.497	0.688
-523.989	-93.831	-1.237	0.341
-522.975	-20.510	0.732	0.450
-521.960	145.649	-0.293	-0.393
-520.945	-95.824	-0.514	0.137
-519.931	592.437	0.247	-0.611
-518.916	-27.369	-0.417	-0.243
-517.902	240.173	-0.161	-0.268
-516.887	179.515	0.258	-0.378
-515.872	800.000	0.068	0.262
-514.858	-42.248	-0.147	-0.075
-513.843	-200.000	0.192	-0.920
-512.829	538.944	-0.266	0.632
-511.814	396.581	0.202	0.422
-510.799	-134.996	-0.283	-0.034
-509.785	175.384	0.290	0.420
-508.770	-118.599	-0.702	0.124
-507.756	800.000	0.083	0.338
-506.741	-93.598	0.305	0.084
-505.726	217.167	0.127	0.202
-504.712	255.157	0.632	1.082
-503.697	412.205	0.083	0.177
-502.683	-68.057	-0.656	0.256
-501.668	60.188	-0.630	0.623
-500.653	-103.253	-0.448	-0.106
-499.639	578.026	-0.140	-0.342
-498.624	-73.855	-0.379	0.138
-497.610	107.109	0.393	-0.467
-496.595	800.000	-0.098	-0.282
-495.581	221.373	-0.426	0.685
-494.566	-74.079	0.575	-0.208
-493.551	-89.253	-0.836	0.246
-492.537	-62.010	-0.349	-0.146
-491.522	-200.000	-0.019	-0.381
-490.508	-90.876	0.877	-0.252
-489.493	-106.846	-0.574	-0.127
-488.478	127.657	0.404	0.513
-487.464	254.053	0.311	-0.531
-486.449	237.751	0.206	-0.341
-485.435	-200.000	0.020	-0.348
-484.420	-42.227	0.346	-0.176
-483.405	157.699	0.390	0.540
-482.391	-137.302	-1.155	-0.131
-481.376	-86.315	-1.141	-0.351
-480.362	20.598	0.277	0.224
-479.347	169.175	0.217	-0.309
-478.332	703.774	-0.156	-0.410
-477.318	-44.840	0.284	-0.141
-476.303	-154.470	-0.267	-0.018
-475.289	-134.522	-0.591	0.072
-474.274	3.152	-0.144	0.105
-473.259	291.137	-0.120	0.218
-472.245	-200.000	-0.125	-0.661
-471.230	-18.004	0.872	-0.546
-470.216	105.055	-0.275	0.325
-469.201	492.944	0.196	0.449
-468.186	147.575	-0.350	-0.471
-467.172	-200.000	-0.051	0.849
-466.157	13.092	0.585	0.452
-465.143	-71.732	-0.676	-0.252
-464.128	139.856	0.058	-0.076
-463.113	150.535	0.113	0.153
-462.099	-21.034	-0.176	-0.108
-461.084	-131.419	0.559	0.074
-460.070	67.060	-0.050	0.051
-459.055	-200.000	0.177	-0.798
-458.040	-96.465	-0.542	-0.143
-457.026	-88.956	-0.851	0.252
-456.011	-7.999	0.337	0.227
-454.997	80.147	-0.524	-0.562
-453.982	-200.000	-0.064	-0.334
-452.968	-15.024	0.514	-0.329
-451.953	374.381	0.354	0.719
-450.938	-119.409	0.405	0.070
-449.924	451.928	0.238	0.524
-448.909	-30.289	0.756	-0.428
-447.895	584.084	0.426	-1.044
-446.880	6.617	-0.256	-0.190
-445.865	-200.000	-0.029	0.286
-444.851	237.481	-0.011	0.018
-443.836	16.042	-0.439	0.345
-442.822	83.797	0.256	0.278
-441.807	-181.676	-0.580	0.011
-440.792	-67.675	0.497	-0.194
-439.778	283.177	-0.229	-0.409
-438.763	117.031	0.638	0.781
-437.749	212.490	0.455	0.716
-436.734	-163.627	0.411	-0.019
-435.719	-98.489	-0.805	0.205
-434.705	800.000	0.230	0.685
-433.690	-65.708	-0.296	-0.118
-432.676	131.325	-0.217	-0.278
-431.661	424.929	-0.106	-0.227
-430.646	-200.000	0.090	-0.745
-429.632	625.327	-0.143	0.359
-428.617	-51.348	0.408	0.190
-427.603	-95.343	0.614	0.164
-426.588	-200.000	0.030	0.133
-425.573	-200.000	0.010	0.053
-424.559	-16.814	0.188	0.118
-423.544	-121.499	0.609	0.101
-422.530	-83.603	-0.797	0.254
-421.515	-200.000	-0.115	0.565
-420.500	-116.618	0.236	0.043
-419.486	155.402	-0.272	0.374
-418.471	800.000	0.052	-0.220
-417.457	78.343	0.258	0.275
-416.442	-90.288	0.254	-0.074
-415.428	29.558	-0.099	0.084
-414.413	-200.000	0.063	-0.440
-413.398	-159.438	0.185	0.010
-412.384	23.612	0.442	0.362
-411.369	-117.329	0.427	0.077
-410.355	800.000	-0.185	0.583
-409.340	546.808	-0.110	-0.261
-408.325	-21.331	-0.341	0.207
-407.311	77.426	0.335	-0.355
-406.296	-140.600	0.579	-0.060
-405.282	316.010	0.330	-0.620
-404.267	13.335	-0.228	-0.176
-403.252	-167.801	-0.847	-0.033
-402.238	-147.336	0.632	0.053
-401.223	-58.277	-0.557	-0.241
-400.209	245.456	-0.094	-0.158
-399.194	-96.257	-0.418	-0.110
-398.179	-62.747	-0.333	-0.137
-397.165	-12.635	0.363	0.236
-396.150	800.000	0.225	0.646
-395.136	-15.308	0.483	-0.308
-394.121	-37.601	-0.810	-0.430
-393.106	66.785	0.160	-0.162
-392.092	800.000	-0.094	0.271
-391.077	-200.000	0.044	0.233
-390.063	-58.976	0.164	0.071
-389.048	-200.000	0.294	0.000
-388.033	-24.938	0.445	-0.263
-387.019	-154.100	-0.571	-0.039
-386.004	183.572	-0.320	-0.470
-384.990	-5.663	0.338	0.231
-383.975	-99.357	0.862	-0.216
-382.960	-200.000	-0.017	0.677
-381.946	-104.098	0.130	0.030
-380.931	-200.000	-0.106	-0.623
-379.917	6.410	0.246	-0.182
-378.902	-110.688	0.423	-0.087
-377.888	-200.000	-0.250	1.541
-376.873	-32.816	0.837	0.463
-375.858	-200.000	-0.120	0.934
-374.844	-28.365	-0.620	-0.356
-373.829	-200.000	-0.002	-0.267
-372.815	-44.258	0.454	-0.227
-371.800	-200.000	0.007	-0.497
-370.785	226.548	-0.188	-0.303
-369.771	241.458	-0.301	-0.501
-368.756	800.000	0.204	-0.749
-367.742	229.893	-0.315	-0.513
-366.727	429.138	-0.193	0.416
-365.712	370.189	0.133	0.269
-364.698	53.792	0.046	0.044
-363.683	-33.102	0.599	-0.330
-362.669	-53.839	0.219	-0.099
-361.654	-170.940	-1.303	0.044
-360.639	-65.603	-1.019	0.407
-359.625	13.545	0.752	0.581
-358.610	-76.521	-0.602	-0.210
-357.596	-200.000	-0.004	-0.442
-356.581	91.815	0.658	-0.736
-355.566	-200.000	0.250	1.203
-354.552	-94.236	-0.583	-0.158
-353.537	273.673	0.303	0.532
-352.523	-199.219	-0.997	-0.005
-351.508	-200.000	-0.206	-1.094
-350.493	19.085	0.324	0.258
-349.479	-200.000	0.132	-0.612
-348.464	-59.471	-0.722	0.308
-347.450	207.486	-0.411	-0.637
-346.435	55.523	-0.336	0.323
-345.420	12.245	0.246	0.188
-344.406	-7.665	0.368	0.247
-343.391	-132.280	-0.589	-0.076
-342.377	-51.485	0.388	0.180
-341.362	-140.419	-1.060	0.110
-340.348	23.953	-0.405	-0.332
-339.333	-56.890	0.539	-0.237
-338.318	-125.124	0.052	-0.008
-337.304	-36.946	0.645	0.343
-336.289	-70.317	0.879	0.331
-335.275	-63.094	-0.877	0.360
-334.260	-173.548	0.773	0.023
-333.245	-38.447	-0.050	0.026
-332.231	233.860	-0.262	0.429
-331.216	382.513	0.225	-0.459
-330.202	-60.463	0.332	-0.140
-329.187	-46.738	0.325	0.158
-328.172	4.331	-0.475	0.346
-327.158	800.000	-0.099	-0.319
-326.143	267.393	0.621	-1.079
-325.129	-200.000	-0.043	0.286
-324.114	-12.083	0.233	-0.151
-323.099	-67.290	0.684	-0.267
-322.085	239.175	0.379	-0.627
-321.070	61.234	0.135	0.133
-320.056	-68.530	-0.846	0.326
-319.041	-40.009	0.289	0.150
-318.026	-200.000	0.099	0.530
-317.012	283.374	-0.117	-0.209
-315.997	800.000	0.352	-0.991
-314.983	-200.000	0.064	0.769
-313.968	-200.000	0.121	-0.788
-312.953	-67.311	0.675	-0.264
-311.939	800.000	-0.249	0.729
-310.924	-86.900	0.406	0.123
-309.910	107.106	0.472	0.556
-308.895	-75.923	-0.979	0.344
-307.880	-167.963	0.854	0.033
-306.866	-200.000	-0.010	-0.172
-305.851	-200.000	-0.136	-0.627
-304.837	-28.924	-0.750	-0.427
-303.822	-124.554	0.507	-0.078
-302.807	141.736	0.150	-0.197
-301.793	78.325	0.474	0.502
-300.778	633.578	-0.272	0.685
-299.764	-15.078	-0.467	0.297
-298.749	-121.372	-0.306	0.051
-297.735	-200.000	0.132	0.781
-296.720	-66.055	0.306	0.121
-295.705	-200.000	-0.062	-0.487
-294.691	674.492	0.314	-0.808
-293.676	800.000	-0.063	0.181
-292.662	-119.187	-0.461	-0.080
-291.647	-102.808	-0.956	-0.226
-290.632	-46.615	0.952	0.463
-289.618	267.717	-0.229	-0.397
-288.603	-200.000	0.027	-1.028
-287.589	332.600	-0.186	0.356
-286.574	149.396	0.146	-0.196
-285.559	-200.000	0.005	-0.175
-284.545	429.091	0.388	-0.831
-283.530	593.699	-0.379	0.929
-282.516	176.932	0.092	-0.133
-281.501	506.600	0.245	-0.562
-280.486	-24.148	-0.660	-0.391
-279.472	6.988	-0.190	-0.140
-278.457	-200.000	0.023	0.177
-277.443	495.397	0.440	-1.002
-276.428	-200.000	-0.062	0.293
-275.413	-189.717	-0.289	-0.003
-274.399	-108.536	-1.165	-0.248
-273.384	800.000	-0.225	-0.758
-272.370	-200.000	0.246	1.202
-271.355	656.689	-0.165	-0.419
-270.340	39.301	-0.573	0.508
-269.326	-200.000	0.058	-0.416
-268.311	357.899	0.151	-0.299
-267.297	-72.638	-0.453	-0.166
-266.282	63.851	0.346	0.344
-265.267	-98.938	0.255	0.064
-264.253	13.411	0.255	0.196
-263.238	8.827	0.493	-0.368
-262.224	156.494	-0.159	-0.218
-261.209	-158.725	-0.205	-0.012
-260.195	-134.775	1.437	-0.173
-259.180	573.170	0.032	0.077
-258.165	-115.021	0.224	0.042
-257.151	-20.751	0.398	0.242
-256.136	436.745	0.184	-0.398
-255.122	800.000	-0.170	-0.489
-254.107	-200.000	-0.014	-0.323
-253.092	394.623	0.087	-0.180
-252.078	-194.866	-0.781	0.006
-251.063	-144.506	0.140	0.013
-250.049	-67.248	-0.168	0.065
-249.034	136.985	-0.478	0.618
-248.019	490.864	-0.218	0.494
-247.005	151.888	-0.221	0.298
-245.990	262.709	0.162	-0.278
-244.976	431.191	-0.311	0.668
-243.961	28.997	0.540	0.453
-242.946	-148.868	-0.477	0.038
-241.932	800.000	0.087	-0.262
-240.917	314.009	0.176	-0.327
-239.903	497.716	0.280	0.638
-238.888	-123.413	0.311	-0.049
-237.873	-129.588	0.788	0.108
-236.859	-91.283	-0.402	-0.114
-235.844	-139.135	-0.391	0.042
-234.830	34.797	0.331	0.287
-233.815	-12.312	0.368	-0.238
-232.800	40.578	-0.569	-0.507
-231.786	134.741	0.591	-0.759
-230.771	-74.270	0.793	-0.284
-229.757	800.000	0.148	0.614
-228.742	65.759	-0.482	0.484
-227.727	210.728	0.133	-0.207
-226.713	-27.159	0.336	0.194
-225.698	-140.774	0.339	-0.035
-224.684	-141.896	-0.618	0.061
-223.669	-200.000	0.053	0.273
-222.655	284.836	0.145	0.257
-221.640	87.428	-0.315	-0.345
-220.625	800.000	-0.089	-0.278
-219.611	-200.000	0.065	0.719
-218.596	-41.126	0.848	0.433
-217.582	-177.019	-1.177	0.029
-216.567	-200.000	-0.019	-0.236
-215.552	-132.097	-0.582	-0.075
-214.538	-137.368	0.394	0.044
-213.523	248.982	0.031	0.052
-212.509	35.035	-0.287	0.248
-211.494	155.975	0.507	-0.691
-210.479	-113.175	0.505	0.098
-209.465	-135.457	-0.114	-0.013
-208.450	129.749	-0.438	-0.553
-207.436	245.977	-0.687	-1.144
-206.421	-170.566	0.076	0.003
-205.406	800.000	0.203	0.621
-204.392	-176.145	-0.254	-0.007
-203.377	71.981	0.349	-0.359
-202.363	21.683	0.724	-0.583
-201.348	103.525	-0.234	0.271
-200.333	-142.469	-0.628	0.061
-199.319	574.974	-0.102	0.246
-198.304	-200.000	0.015	-0.460
-197.290	175.813	-0.466	-0.667
-196.275	-99.672	1.112	-0.276
-195.260	-66.170	0.519	0.204
-194.246	12.358	0.269	0.205
-193.231	465.140	-0.278	-0.614
-192.217	-200.000	0.055	0.536
-191.202	-33.725	-0.181	-0.099
-190.187	800.000	-0.121	0.469
-189.173	-200.000	0.096	0.518
-188.158	-157.104	1.313	-0.079
-187.144	-70.014	0.288	0.108
-186.129	159.189	-0.167	-0.230
-185.114	204.584	0.433	-0.663
-184.100	142.704	0.379	0.498
-183.085	-30.003	0.580	0.326
-182.071	50.230	0.206	0.192
-181.056	-69.603	-0.751	-0.284
-180.042	74.809	-0.270	-0.281
-179.027	-121.887	-0.162	0.026
-178.012	314.975	0.313	-0.582
-176.998	-174.910	-0.374	-0.010
-175.983	274.804	-0.263	0.460
-174.969	-49.362	0.588	0.277
-173.954	-200.000	-0.054	-0.265
-172.939	77.072	-0.436	0.457
-171.925	137.638	0.561	0.726
-170.910	-112.806	0.742	0.145
-169.896	-200.000	-0.029	-0.400
-168.881	491.074	-0.420	-0.948
-167.866	418.645	-0.257	-0.543
-166.852	36.939	-0.443	0.387
-165.837	-200.000	-0.124	0.699
-164.823	800.000	-0.143	-0.495
-163.808	-100.418	0.433	0.106
-162.793	800.000	-0.069	0.275
-161.779	800.000	-0.212	0.856
-160.764	-3.257	-0.036	0.025
-159.750	-110.285	0.129	0.027
-158.735	-107.816	0.339	0.073
-157.720	-128.655	0.552	0.077
-156.706	86.121	0.286	0.311
-155.691	800.000	0.192	-0.814
-154.677	-50.634	-0.360	-0.167
-153.662	3.116	0.501	0.360
-152.647	-186.654	-0.871	-0.012
-151.633	-200.000	-0.130	0.603
-150.618	-7.662	-1.028	-0.686
-149.604	-188.573	-0.523	0.006
-148.589	-132.672	-0.435	-0.055
-147.574	-58.581	-0.907	0.388
-146.560	-135.772	-0.297	-0.035
-145.545	-18.071	-0.713	-0.440
-144.531	208.302	-0.245	-0.378
-143.516	-147.516	0.158	-0.013
-142.502	-41.928	-0.949	-0.480
-141.487	-77.985	-0.770	-0.262
-140.472	-200.000	0.099	0.538
-139.458	-200.000	0.039	0.306
-138.443	-66.057	-0.159	-0.063
-137.429	555.352	0.088	-0.209
-136.414	1.740	-0.360	0.256
-135.399	-200.000	0.082	-0.998
-134.385	-146.406	-0.493	0.042
-133.370	-39.698	-0.285	0.147
-132.356	92.710	-0.661	-0.735
-131.341	103.546	-0.243	0.281
-130.326	0.245	-0.365	-0.257
-129.312	245.088	0.241	-0.400
-128.297	-200.000	0.030	0.461
-127.283	-60.704	0.316	-0.132
-126.268	-132.069	0.234	-0.030
-125.253	221.410	0.100	0.159
-124.239	-62.695	0.206	0.084
-123.224	800.000	0.179	0.663
-122.210	-154.722	0.476	-0.031
