DTS Sentinel unit serial number:	SN413079Multiplexer serial number:	ORYXHardware model number:	OX4-SRSoftware version number:	ORYX F/W v4.00 Oryx Data Collector v3.7.2.0data status	okinstallation	princeton_trtdifferential loss correction	single-endedforward channel	channel 2reverse channel	N/Adate	2019/09/12time	07:37:10forward acquisition time	60.00reverse acquisition time	0.00gamma	496.2192k internal	0.2322k external	0.2322temperature offset calibration	1.0061default loss term (dB/km)	0.3790temperature slope calibration	1.0000multiplexer offset coefficient	1.0000multiplexer slope coefficient	1.0000fibre end	0.00T internal ref (°C)	32.64T ext. ref 1 (°C)	1.64T ext. ref 2 (°C)	29.21length (m)	temperature (°C)	Stokes	anti-Stokes-747.200	-200.000	-0.020	0.231
-746.185	26.726	0.060	0.051
-745.171	-13.897	0.288	-0.188
-744.156	-200.000	0.022	0.264
-743.142	-77.521	0.321	0.113
-742.127	1.242	0.178	0.129
-741.112	-13.885	0.161	0.105
-740.098	-75.452	-0.231	0.083
-739.083	366.524	0.120	0.245
-738.069	101.094	-0.293	0.344
-737.054	782.761	0.103	-0.284
-736.039	-10.167	-0.283	-0.190
-735.025	-200.000	0.015	0.255
-734.010	349.919	-0.229	-0.457
-732.996	-118.419	-0.267	0.048
-731.981	58.559	0.297	-0.295
-730.966	505.151	-0.030	-0.071
-729.952	72.154	-0.216	-0.228
-728.937	-150.538	-0.394	-0.030
-727.923	-168.867	-0.196	0.007
-726.908	800.000	-0.042	0.133
-725.894	242.800	-0.045	0.076
-724.879	-68.474	0.283	-0.111
-723.864	4.580	-0.171	0.126
-722.850	3.456	-0.117	-0.086
-721.835	-200.000	0.033	0.392
-720.821	-119.172	-0.132	-0.023
-719.806	88.298	-0.129	-0.145
-718.791	800.000	-0.091	-0.292
-717.777	-102.122	-0.279	0.068
-716.762	-38.897	-0.060	-0.032
-715.748	7.932	0.410	0.310
-714.733	18.691	-0.192	0.155
-713.718	261.913	-0.174	0.305
-712.704	-135.482	0.045	0.005
-711.689	197.648	-0.183	-0.282
-710.675	-94.718	-0.344	0.094
-709.660	-71.479	0.146	-0.055
-708.645	28.510	-0.143	-0.122
-707.631	11.727	0.110	0.085
-706.616	377.249	-0.082	0.170
-705.602	194.642	0.084	0.129
-704.587	-200.000	0.009	0.045
-703.572	-200.000	-0.002	-0.136
-702.558	-200.000	0.033	-0.163
-701.543	800.000	-0.074	-0.207
-700.529	-200.000	0.002	0.277
-699.514	-69.093	-0.215	-0.083
-698.499	-200.000	-0.047	-0.279
-697.485	800.000	-0.070	0.209
-696.470	-200.000	0.003	-0.189
-695.456	14.664	-0.168	0.133
-694.441	423.664	-0.195	0.422
-693.426	65.784	0.154	-0.157
-692.412	27.518	0.123	-0.104
-691.397	-200.000	0.038	-0.225
-690.383	216.683	0.142	-0.227
-689.368	-34.111	-0.104	-0.058
-688.354	-95.529	0.040	-0.011
-687.339	13.472	-0.146	0.114
-686.324	149.703	-0.246	-0.336
-685.310	263.687	0.090	-0.157
-684.295	1.673	0.293	0.213
-683.281	-59.209	0.137	-0.059
-682.266	553.926	0.159	-0.387
-681.251	-68.780	0.265	0.103
-680.237	432.963	0.055	0.121
-679.222	27.867	-0.099	-0.084
-678.208	-139.749	-0.218	-0.023
-677.193	162.995	0.078	-0.110
-676.178	81.555	-0.010	-0.011
-675.164	364.964	-0.054	0.109
-674.149	-159.184	-0.122	-0.007
-673.135	-200.000	0.029	0.185
-672.120	-1.110	0.344	-0.245
-671.105	11.651	-0.175	0.135
-670.091	178.014	-0.145	0.212
-669.076	155.221	-0.028	-0.038
-668.062	566.617	0.046	-0.113
-667.047	10.913	-0.279	-0.215
-666.032	-124.850	0.235	-0.037
-665.018	-124.812	-0.171	0.027
-664.003	-68.852	-0.125	0.049
-662.989	24.262	0.083	-0.069
-661.974	103.968	-0.260	-0.308
-660.959	196.386	-0.177	0.272
-659.945	-49.242	0.183	0.088
-658.930	51.391	-0.207	0.198
-657.916	-200.000	0.000	0.063
-656.901	-64.945	-0.195	-0.079
-655.886	92.892	-0.098	0.111
-654.872	-84.564	-0.185	-0.059
-653.857	-200.000	-0.045	-0.311
-652.843	-200.000	-0.029	-0.223
-651.828	232.638	-0.189	0.312
-650.814	-134.654	-0.157	-0.019
-649.799	-57.100	0.228	-0.101
-648.784	344.616	0.086	0.171
-647.770	-20.035	0.045	-0.028
-646.755	23.880	-0.095	0.079
-645.741	-105.366	0.284	0.065
-644.726	-147.419	0.325	-0.028
-643.711	-15.903	-0.189	0.121
-642.697	350.789	0.021	0.042
-641.682	-200.000	0.020	0.113
-640.668	-120.904	-0.089	-0.015
-639.653	-159.770	0.218	0.012
-638.638	-77.115	-0.289	-0.101
-637.624	-133.173	0.054	-0.007
-636.609	-200.000	-0.006	-0.564
-635.595	-200.000	0.002	0.183
-634.580	-200.000	-0.017	-0.086
-633.565	-80.504	-0.483	0.162
-632.551	26.489	0.126	0.106
-631.536	544.515	0.021	-0.050
-630.522	1.766	0.156	0.113
-629.507	-162.691	0.190	0.009
-628.492	-200.000	0.038	0.197
-627.478	183.493	-0.204	-0.304
-626.463	-71.212	-0.088	-0.033
-625.449	-200.000	0.023	0.319
-624.434	114.628	-0.085	0.104
-623.419	-121.015	0.196	-0.033
-622.405	602.530	0.097	0.241
-621.390	800.000	0.098	-0.325
-620.376	715.290	0.072	-0.193
-619.361	-25.308	0.137	0.081
-618.346	169.915	0.116	0.166
-617.332	-62.334	0.301	-0.126
-616.317	-12.184	0.182	0.120
-615.303	-101.709	0.100	0.024
-614.288	-156.814	-0.204	-0.013
-613.273	89.051	-0.047	-0.053
-612.259	-22.807	-0.106	-0.064
-611.244	-141.155	-0.068	0.007
-610.230	154.208	0.089	-0.122
-609.215	604.395	-0.043	-0.107
-608.201	-129.560	-0.205	0.028
-607.186	-200.000	0.013	0.327
-606.171	800.000	-0.016	-0.054
-605.157	-105.280	-0.559	0.128
-604.142	23.840	0.213	-0.176
-603.128	22.310	-0.054	0.044
-602.113	-14.684	-0.105	-0.068
-601.098	-86.803	-0.316	-0.097
-600.084	7.003	0.220	0.165
-599.069	676.924	0.125	0.325
-598.055	-6.557	0.384	-0.263
-597.040	800.000	0.166	-0.617
-596.025	-200.000	-0.006	-0.083
-595.011	684.028	-0.116	0.303
-593.996	-200.000	-0.005	-0.255
-592.982	800.000	-0.042	-0.133
-591.967	-114.102	-0.485	0.094
-590.952	-129.582	-0.242	0.034
-589.938	-200.000	-0.009	0.078
-588.923	-140.050	-0.149	0.016
-587.909	68.858	-0.120	0.124
-586.894	-25.809	0.214	0.127
-585.879	-105.905	-0.306	-0.069
-584.865	-67.207	-0.244	-0.096
-583.850	-200.000	0.050	-0.380
-582.836	-96.791	-0.211	-0.056
-581.821	-37.283	0.194	0.104
-580.806	619.990	0.031	0.078
-579.792	123.457	-0.277	0.349
-578.777	45.288	0.066	0.061
-577.763	383.443	-0.098	0.202
-576.748	800.000	-0.065	-0.272
-575.733	-155.719	0.134	0.009
-574.719	-151.060	0.242	0.018
-573.704	-200.000	0.025	-0.201
-572.690	359.242	0.111	-0.223
-571.675	24.120	0.198	-0.164
-570.661	79.741	0.082	0.088
-569.646	11.194	0.058	0.044
-568.631	662.381	-0.094	-0.243
-567.617	-188.358	0.234	-0.003
-566.602	800.000	-0.062	-0.272
-565.588	-61.812	0.276	-0.116
-564.573	81.083	0.120	-0.130
-563.558	-28.627	-0.181	0.105
-562.544	22.403	-0.051	0.041
-561.529	1.921	0.205	0.148
-560.515	-148.116	-0.237	-0.020
-559.500	-137.421	-0.112	0.013
-558.485	-85.949	-0.051	-0.016
-557.471	-51.085	-0.331	-0.156
-556.456	597.868	0.086	0.214
-555.442	800.000	0.086	0.370
-554.427	-81.867	-0.320	0.105
-553.412	50.210	-0.114	0.108
-552.398	-33.670	-0.214	0.119
-551.383	-150.366	0.102	0.008
-550.369	-171.298	0.087	-0.003
-549.354	-200.000	-0.008	-0.374
-548.339	613.054	-0.061	-0.154
-547.325	-91.110	0.289	-0.083
-546.310	-87.337	0.095	-0.029
-545.296	-28.378	-0.090	0.052
-544.281	249.729	0.175	0.298
-543.266	-0.444	0.151	-0.108
-542.252	180.676	-0.278	-0.408
-541.237	780.854	-0.083	0.229
-540.223	24.182	0.237	-0.196
-539.208	-26.620	0.183	0.107
-538.193	72.129	-0.183	0.191
-537.179	-55.214	-0.267	0.120
-536.164	-21.332	-0.020	-0.012
-535.150	97.026	-0.070	-0.080
-534.135	-71.730	0.186	-0.070
-533.121	358.698	0.041	-0.082
-532.106	-200.000	0.030	-0.416
-531.091	-146.622	-0.264	-0.023
-530.077	-188.859	-0.053	0.001
-529.062	-49.643	0.294	-0.140
-528.048	-58.065	0.206	-0.090
-527.033	666.398	-0.124	0.320
-526.018	319.720	0.014	0.027
-525.004	-200.000	0.019	0.164
-523.989	-108.699	0.047	0.010
-522.975	-115.190	-0.347	0.066
-521.960	-130.303	0.159	-0.022
-520.945	800.000	0.096	0.339
-519.931	105.752	-0.229	0.271
-518.916	-106.971	-0.128	-0.028
-517.902	83.792	0.061	-0.067
-516.887	-8.407	0.033	-0.022
-515.872	800.000	-0.047	-0.193
-514.858	-38.974	-0.214	0.113
-513.843	-49.429	-0.248	-0.118
-512.829	163.513	0.130	0.183
-511.814	-52.469	0.105	-0.048
-510.799	652.357	-0.114	-0.292
-509.785	-25.720	-0.189	0.112
-508.770	68.952	0.030	-0.031
-507.756	-56.119	0.051	-0.023
-506.741	738.226	0.036	0.097
-505.726	136.081	-0.039	-0.051
-504.712	-39.658	0.140	0.074
-503.697	215.743	0.304	0.483
-502.683	13.251	0.106	0.082
-501.668	-44.714	0.116	0.058
-500.653	-82.125	-0.257	0.084
-499.639	-50.959	-0.096	0.045
-498.624	-79.134	0.222	0.075
-497.610	-168.339	-0.329	0.013
-496.595	170.675	-0.085	-0.122
-495.581	-100.891	-0.084	-0.021
-494.566	-200.000	-0.004	-0.200
-493.551	99.367	-0.357	0.413
-492.537	-100.469	-0.747	-0.185
-491.522	-87.589	-0.213	-0.064
-490.508	800.000	0.099	0.410
-489.493	800.000	0.042	-0.118
-488.478	-138.775	-0.196	0.021
-487.464	-154.954	0.201	0.013
-486.449	9.917	-0.206	0.156
-485.435	105.590	0.063	0.074
-484.420	-100.034	-0.183	-0.046
-483.405	800.000	-0.049	-0.176
-482.391	-23.816	-0.239	-0.143
-481.376	-2.880	-0.186	-0.130
-480.362	-200.000	-0.023	0.106
-479.347	-89.961	-0.072	-0.021
-478.332	491.809	0.095	-0.217
-477.318	-29.524	0.275	0.157
-476.303	-85.972	-0.279	-0.086
-475.289	-45.131	-0.086	-0.043
-474.274	-4.573	0.078	-0.054
-473.259	-103.084	0.084	-0.020
-472.245	-8.919	0.252	0.169
-471.230	-178.186	-0.017	-0.000
-470.216	-100.773	0.263	0.065
-469.201	-50.777	-0.255	-0.120
-468.186	-86.966	-0.165	0.050
-467.172	-60.266	0.019	0.008
-466.157	271.962	0.069	0.122
-465.143	800.000	-0.147	-0.417
-464.128	-200.000	-0.037	-0.191
-463.113	800.000	-0.077	0.232
-462.099	-200.000	0.000	0.011
-461.084	-200.000	0.001	-0.080
-460.070	45.031	-0.190	-0.175
-459.055	122.652	-0.087	-0.108
-458.040	106.846	-0.262	-0.311
-457.026	-22.510	0.411	-0.248
-456.011	211.542	-0.011	-0.017
-454.997	27.563	0.193	0.162
-453.982	385.410	0.119	0.246
-452.968	-84.129	-0.186	0.059
-451.953	277.917	-0.204	-0.363
-450.938	800.000	0.123	-0.393
-449.924	667.794	-0.072	0.185
-448.909	-52.450	-0.168	0.077
-447.895	2.769	-0.080	-0.058
-446.880	-200.000	0.061	-0.444
-445.865	-200.000	0.023	-0.278
-444.851	-200.000	-0.249	-0.001
-443.836	-39.804	-0.093	0.049
-442.822	-200.000	0.014	0.122
-441.807	-47.532	-0.302	0.146
-440.792	-200.000	0.023	-0.143
-439.778	-160.928	0.135	-0.007
-438.763	800.000	-0.082	-0.284
-437.749	-55.409	0.023	0.010
-436.734	85.843	0.062	0.068
-435.719	-18.460	0.039	0.024
-434.705	-49.410	0.224	-0.106
-433.690	-200.000	0.021	-0.158
-432.676	-25.998	-0.321	0.189
-431.661	-128.791	0.335	0.047
-430.646	401.077	0.059	0.123
-429.632	497.695	-0.058	-0.132
-428.617	67.710	-0.224	-0.229
-427.603	204.806	0.101	0.156
-426.588	137.629	-0.141	-0.185
-425.573	-64.461	-0.126	0.051
-424.559	-122.875	-0.273	0.044
-423.544	87.062	0.227	0.250
-422.530	18.203	0.252	0.200
-421.515	-121.835	-0.350	-0.058
-420.500	54.751	-0.166	-0.160
-419.486	172.920	0.056	-0.081
-418.471	197.247	0.112	0.171
-417.457	-109.553	-0.148	0.031
-416.442	2.298	0.260	-0.188
-415.428	5.978	0.123	0.091
-414.413	391.114	-0.124	0.257
-413.398	-143.496	0.288	0.027
-412.384	-174.152	0.171	-0.005
-411.369	27.085	-0.098	0.082
-410.355	-181.740	-0.167	-0.003
-409.340	99.140	0.141	-0.162
-408.325	-4.178	-0.320	-0.221
-407.311	158.549	-0.134	-0.185
-406.296	-15.954	-0.185	0.118
-405.282	34.026	0.195	-0.170
-404.267	-9.315	0.074	-0.049
-403.252	318.651	0.140	0.265
-402.238	422.976	-0.034	0.072
-401.223	-157.378	-0.138	-0.008
-400.209	-135.988	-0.286	0.034
-399.194	-113.627	0.133	0.026
-398.179	618.125	0.085	-0.212
-397.165	-67.471	0.034	0.013
-396.150	45.339	-0.273	-0.251
-395.136	-72.950	-0.089	-0.032
-394.121	-105.678	0.105	0.024
-393.106	800.000	-0.039	0.125
-392.092	91.469	0.128	0.143
-391.077	-80.395	-0.053	0.018
-390.063	340.107	-0.074	0.144
-389.048	-200.000	0.014	0.069
-388.033	193.661	0.152	0.230
-387.019	-10.045	0.205	-0.136
-386.004	160.856	0.150	0.209
-384.990	-42.926	0.163	-0.082
-383.975	198.780	0.166	0.253
-382.960	-49.799	-0.063	0.030
-381.946	183.027	0.020	-0.029
-380.931	-51.324	0.171	-0.080
-379.917	-200.000	-0.016	-0.112
-378.902	-59.337	0.292	0.125
-377.888	-59.360	-0.078	-0.033
-376.873	645.553	-0.125	0.317
-375.858	-200.000	0.006	0.126
-374.844	479.790	0.086	0.195
-373.829	-76.676	-0.077	0.027
-372.815	-6.639	0.343	-0.233
-371.800	-153.463	-0.078	0.005
-370.785	46.947	-0.198	0.183
-369.771	-14.600	0.221	0.141
-368.756	-150.773	-0.196	0.015
-367.742	-84.445	0.014	0.004
-366.727	34.301	-0.189	-0.164
-365.712	-7.086	-0.157	-0.106
-364.698	358.331	0.127	0.253
-363.683	-38.175	0.318	0.168
-362.669	-200.000	-0.058	0.360
-361.654	197.703	0.090	0.136
-360.639	249.447	0.105	0.177
-359.625	228.319	-0.026	0.042
-358.610	21.674	0.142	-0.115
-357.596	31.320	0.263	0.225
-356.581	-200.000	-0.011	-0.100
-355.566	-80.377	0.267	0.089
-354.552	229.021	-0.175	0.284
-353.537	-16.446	-0.215	-0.136
-352.523	157.632	-0.061	0.084
-351.508	531.454	-0.127	0.300
-350.493	-128.605	0.332	-0.047
-349.479	-200.000	-0.049	0.249
-348.464	-89.179	-0.226	0.066
-347.450	-27.007	0.319	-0.185
-346.435	189.518	0.135	-0.201
-345.420	-200.000	-0.032	-0.351
-344.406	-58.092	0.321	0.139
-343.391	-70.159	-0.282	0.107
-342.377	191.338	0.099	0.148
-341.362	-42.254	-0.079	-0.040
-340.348	-200.000	-0.062	0.319
-339.333	104.490	0.115	0.135
-338.318	-17.364	-0.175	0.110
-337.304	-40.051	-0.133	0.069
-336.289	14.255	-0.181	0.140
-335.275	86.444	0.196	0.215
-334.260	800.000	0.020	0.078
-333.245	380.068	0.092	0.187
-332.231	800.000	-0.035	-0.131
-331.216	163.426	-0.153	0.214
-330.202	74.543	0.130	0.136
-329.187	219.216	0.130	-0.206
-328.172	-50.591	0.113	0.053
-327.158	800.000	-0.096	0.342
-326.143	-200.000	-0.015	-0.284
-325.129	537.579	0.043	-0.101
-324.114	225.223	-0.121	-0.195
-323.099	-200.000	0.027	-0.150
-322.085	3.330	0.213	0.154
-321.070	800.000	-0.064	0.245
-320.056	346.535	-0.045	-0.088
-319.041	-100.720	0.036	0.009
-318.026	-22.287	0.175	0.105
-317.012	-148.833	0.198	-0.016
-315.997	196.163	-0.050	-0.076
-314.983	31.603	-0.350	0.299
-313.968	-200.000	-0.045	-0.235
-312.953	-200.000	0.021	0.157
-311.939	-37.846	-0.136	-0.072
-310.924	-200.000	-0.041	0.226
-309.910	-16.994	-0.241	-0.151
-308.895	-92.331	-0.082	0.023
-307.880	-79.383	0.176	0.059
-306.866	94.377	0.137	0.154
-305.851	-200.000	0.006	0.034
-304.837	90.165	0.128	-0.142
-303.822	125.304	0.143	-0.179
-302.807	-68.803	0.233	0.089
-301.793	-200.000	-0.011	-0.237
-300.778	800.000	0.043	0.151
-299.764	-23.192	-0.146	-0.087
-298.749	81.233	0.155	0.166
-297.735	774.271	-0.095	-0.257
-296.720	-37.574	-0.048	0.026
-295.705	64.567	0.289	-0.290
-294.691	74.916	0.167	-0.174
-293.676	-200.000	-0.018	-0.361
-292.662	-200.000	0.006	0.082
-291.647	465.934	0.078	-0.174
-290.632	800.000	-0.070	0.258
-289.618	-77.198	-0.186	0.064
-288.603	37.088	-0.125	-0.109
-287.589	547.747	-0.071	0.169
-286.574	565.274	-0.032	-0.076
-285.559	-200.000	-0.073	-0.533
-284.545	-200.000	0.019	-0.200
-283.530	46.567	-0.064	-0.059
-282.516	-24.676	0.287	0.170
-281.501	-76.046	-0.185	-0.065
-280.486	-172.788	0.238	-0.007
-279.472	-20.397	0.216	0.132
-278.457	-84.347	-0.078	0.024
-277.443	146.977	0.107	-0.143
-276.428	573.970	0.096	0.233
-275.413	72.711	0.171	-0.177
-274.399	415.598	-0.094	-0.198
-273.384	800.000	-0.068	-0.249
-272.370	55.339	0.329	-0.316
-271.355	800.000	-0.034	0.144
-270.340	-134.416	-0.105	0.013
-269.326	70.801	0.258	-0.265
-268.311	-77.957	-0.208	-0.071
-267.297	-200.000	0.007	-0.070
-266.282	-44.693	0.025	0.012
-265.267	-152.562	0.115	0.008
-264.253	-38.304	0.097	-0.051
-263.238	-14.154	-0.156	0.100
-262.224	-78.263	-0.230	0.078
-261.209	-45.915	-0.221	-0.108
-260.195	184.716	-0.138	0.202
-259.180	47.412	0.295	-0.272
-258.165	243.951	0.105	-0.175
-257.151	-59.128	0.061	0.026
-256.136	-77.954	-0.207	0.071
-255.122	82.006	0.222	-0.238
-254.107	-92.511	-0.347	0.097
-253.092	79.556	0.165	0.176
-252.078	46.933	-0.183	-0.169
-251.063	-200.000	-0.012	0.059
-250.049	-163.336	0.055	-0.003
-249.034	240.384	0.202	-0.334
-248.019	191.232	-0.076	-0.113
-247.005	33.263	-0.095	-0.082
-245.990	212.549	-0.157	0.246
-244.976	78.559	-0.287	0.304
-243.961	138.391	0.128	0.167
-242.946	192.798	0.075	0.112
-241.932	800.000	-0.141	-0.396
-240.917	-62.100	0.094	0.039
-239.903	-18.841	0.371	-0.229
-238.888	-200.000	0.037	-0.386
-237.873	-141.349	0.260	-0.026
-236.859	-117.619	-0.312	-0.056
-235.844	699.125	-0.102	-0.265
-234.830	-100.964	0.271	0.066
-233.815	-200.000	0.048	0.248
-232.800	70.352	0.062	0.064
-231.786	729.387	-0.074	0.195
-230.771	3.310	0.212	0.153
-229.757	-163.717	-0.225	-0.010
-228.742	-200.000	0.009	0.072
-227.727	-71.991	0.138	-0.051
-226.713	132.710	0.204	0.261
-225.698	177.949	0.109	0.158
-224.684	145.781	-0.079	0.105
-223.669	-200.000	0.039	0.253
-222.655	-75.588	-0.067	0.024
-221.640	-38.753	-0.106	-0.055
-220.625	800.000	0.153	0.420
-219.611	-92.359	-0.124	0.034
-218.596	177.572	0.078	-0.113
-217.582	40.861	0.226	0.202
-216.567	106.413	0.105	0.123
-215.552	220.060	-0.109	-0.173
-214.538	-133.179	-0.188	-0.024
-213.523	148.886	0.017	0.023
-212.509	557.311	-0.143	0.342
-211.494	22.328	0.112	0.090
-210.479	159.870	0.175	-0.242
-209.465	76.498	0.046	0.048
-208.450	-76.340	-0.345	-0.120
-207.436	-200.000	-0.041	-0.248
-206.421	-74.856	0.209	-0.074
-205.406	139.866	-0.103	-0.134
-204.392	221.694	-0.052	0.083
-203.377	456.806	-0.131	-0.287
-202.363	-100.262	0.107	-0.026
-201.348	-2.444	0.135	-0.093
-200.333	-74.738	-0.180	0.064
-199.319	-200.000	0.054	0.498
-198.304	-183.351	0.343	-0.006
-197.290	800.000	-0.063	-0.219
-196.275	-200.000	0.024	-0.373
-195.260	9.209	0.066	-0.049
-194.246	-123.925	-0.194	-0.030
-193.231	-85.493	0.234	-0.072
-192.217	747.049	-0.084	-0.224
-191.202	155.007	0.095	-0.129
-190.187	52.026	-0.101	0.096
-189.173	-91.088	0.090	0.026
-188.158	-158.017	-0.191	0.011
-187.144	800.000	-0.094	-0.317
-186.129	-180.815	0.221	-0.004
-185.114	-117.784	-0.085	0.015
-184.100	113.271	0.198	0.237
-183.085	-200.000	-0.019	-0.150
-182.071	90.790	-0.106	-0.118
-181.056	-118.690	-0.126	-0.022
-180.042	148.502	-0.175	-0.233
-179.027	143.441	0.056	-0.073
-178.012	-66.240	0.145	-0.057
-176.998	-120.677	0.434	-0.072
-175.983	800.000	-0.100	0.297
-174.969	99.086	-0.160	0.183
-173.954	800.000	-0.068	0.203
-172.939	-200.000	-0.025	0.315
-171.925	248.464	-0.061	-0.103
-170.910	-157.774	0.492	-0.029
-169.896	-163.737	0.191	-0.009
-168.881	176.838	0.057	-0.083
-167.866	-42.170	-0.104	-0.052
-166.852	800.000	-0.018	0.071
-165.837	-200.000	-0.003	0.102
-164.823	416.596	0.034	0.071
-163.808	-200.000	0.020	-0.105
-162.793	-48.442	0.173	-0.082
-161.779	10.686	-0.221	0.167
-160.764	-39.997	-0.099	0.051
-159.750	800.000	-0.096	0.269
-158.735	-11.384	0.299	-0.194
-157.720	-78.816	-0.029	-0.010
-156.706	-36.267	-0.129	-0.069
-155.691	-134.040	0.109	-0.013
-154.677	-200.000	-0.039	-0.319
-153.662	167.410	-0.177	0.248
-152.647	-78.458	0.221	0.075
-151.633	587.664	-0.058	0.140
-150.618	-200.000	0.028	-0.243
-149.604	62.644	0.182	0.179
-148.589	-84.492	0.067	0.021
-147.574	-116.724	0.294	-0.053
-146.560	-46.310	-0.198	-0.096
-145.545	136.164	0.246	0.317
-144.531	-43.124	0.236	0.118
-143.516	370.835	0.073	-0.145
-142.502	-121.911	0.193	0.031
-141.487	800.000	-0.053	0.151
-140.472	134.739	0.203	0.260
-139.458	86.942	-0.060	-0.065
-138.443	3.065	0.283	0.203
-137.429	800.000	-0.061	0.214
-136.414	104.259	-0.088	-0.103
-135.399	-200.000	0.016	-0.070
-134.385	586.196	0.093	-0.227
-133.370	-200.000	-0.052	0.250
-132.356	-32.539	-0.365	0.200
-131.341	180.076	-0.056	0.080
-130.326	57.244	-0.277	-0.267
-129.312	-84.898	-0.109	-0.034
-128.297	-37.524	-0.118	-0.062
-127.283	-105.864	0.113	0.025
-126.268	20.168	0.324	0.258
-125.253	-200.000	-0.033	0.365
-124.239	-44.737	-0.273	0.135
-123.224	582.097	0.060	0.145
-122.210	-97.411	-0.319	-0.082
-121.195	-68.035	-0.123	0.047
-120.180	-131.299	-0.300	-0.039
