DTS Sentinel unit serial number:	SN413079Multiplexer serial number:	ORYXHardware model number:	OX4-SRSoftware version number:	ORYX F/W v4.00 Oryx Data Collector v3.7.2.0data status	okinstallation	princeton_trtdifferential loss correction	single-endedforward channel	channel 2reverse channel	N/Adate	2019/09/17time	03:19:35forward acquisition time	60.00reverse acquisition time	0.00gamma	496.2192k internal	0.2326k external	0.2326temperature offset calibration	0.9974default loss term (dB/km)	0.3790temperature slope calibration	1.0000multiplexer offset coefficient	1.0000multiplexer slope coefficient	1.0000fibre end	0.00T internal ref (°C)	30.00T ext. ref 1 (°C)	0.13T ext. ref 2 (°C)	24.89length (m)	temperature (°C)	Stokes	anti-Stokes-747.200	-200.000	0.016	0.355
-746.185	-5.225	0.158	0.110
-745.171	-65.254	-0.153	-0.062
-744.156	-200.000	0.019	0.131
-743.142	-15.119	0.181	0.117
-742.127	44.946	-0.323	0.299
-741.112	-200.000	-0.004	-0.130
-740.098	-120.800	-0.203	0.034
-739.083	-53.754	-0.269	0.124
-738.069	39.477	0.142	-0.128
-737.054	-96.455	0.152	0.041
-736.039	317.124	0.157	0.299
-735.025	-49.942	0.173	-0.083
-734.010	-53.136	-0.393	-0.182
-732.996	-200.000	-0.006	-0.394
-731.981	-200.000	-0.003	0.193
-730.966	134.392	-0.217	0.284
-729.952	-200.000	0.019	0.324
-728.937	-87.375	-0.464	0.142
-727.923	50.663	-0.108	-0.103
-726.908	652.519	0.115	-0.296
-725.894	-117.020	0.478	0.088
-724.879	610.761	-0.106	0.268
-723.864	-137.278	-0.267	-0.031
-722.850	374.202	-0.103	0.212
-721.835	-200.000	0.012	0.142
-720.821	800.000	0.026	-0.100
-719.806	-91.037	-0.048	-0.014
-718.791	-200.000	-0.007	-0.353
-717.777	-55.986	-0.367	-0.165
-716.762	98.398	-0.156	-0.181
-715.748	-114.111	0.136	0.026
-714.733	-200.000	0.002	0.136
-713.718	-38.926	-0.243	-0.129
-712.704	-200.000	0.007	-0.206
-711.689	-131.590	-0.243	0.032
-710.675	800.000	0.034	0.094
-709.660	-138.943	-0.140	-0.015
-708.645	-81.565	-0.326	0.108
-707.631	-200.000	-0.009	0.319
-706.616	24.669	-0.126	0.105
-705.602	-51.242	0.302	-0.143
-704.587	160.099	0.152	-0.213
-703.572	-33.691	0.167	-0.093
-702.558	-200.000	-0.025	0.359
-701.543	-80.529	0.119	-0.040
-700.529	-200.000	0.009	0.118
-699.514	-115.564	-0.142	-0.027
-698.499	138.812	0.104	-0.138
-697.485	502.158	-0.015	-0.036
-696.470	-30.547	0.133	-0.076
-695.456	79.898	-0.237	-0.256
-694.441	-29.098	-0.369	-0.213
-693.426	200.168	0.029	-0.045
-692.412	-200.000	0.027	0.265
-691.397	71.961	-0.090	0.094
-690.383	303.630	-0.074	-0.139
-689.368	516.655	0.045	0.105
-688.354	456.413	-0.118	0.264
-687.339	401.234	-0.168	-0.355
-686.324	362.612	0.179	-0.362
-685.310	6.587	-0.186	0.139
-684.295	68.811	-0.185	-0.191
-683.281	301.626	0.052	0.097
-682.266	449.862	-0.107	0.237
-681.251	12.180	0.141	-0.109
-680.237	61.845	0.178	-0.178
-679.222	115.750	0.065	0.080
-678.208	-117.090	0.095	-0.017
-677.193	123.671	-0.113	-0.143
-676.178	596.035	-0.024	0.059
-675.164	-200.000	-0.003	-0.104
-674.149	643.539	-0.127	-0.327
-673.135	800.000	0.104	-0.324
-672.120	-200.000	0.046	-0.228
-671.105	-46.259	-0.165	-0.082
-670.091	-129.812	0.230	0.032
-669.076	800.000	0.110	0.324
-668.062	26.064	0.106	-0.089
-667.047	105.014	0.239	0.283
-666.032	232.948	-0.165	-0.273
-665.018	392.176	0.138	-0.289
-664.003	-200.000	0.078	-0.405
-662.989	242.064	-0.114	0.191
-661.974	173.913	-0.140	-0.204
-660.959	137.450	-0.169	-0.222
-659.945	-26.983	-0.154	-0.090
-658.930	329.906	0.078	-0.151
-657.916	-87.273	0.147	0.045
-656.901	242.801	0.129	0.218
-655.886	95.815	-0.329	-0.378
-654.872	62.956	-0.135	-0.136
-653.857	-200.000	-0.009	-0.038
-652.843	-200.000	-0.032	-0.293
-651.828	95.018	-0.243	-0.278
-650.814	140.712	0.257	-0.341
-649.799	-42.493	-0.165	-0.084
-648.784	91.326	0.186	0.209
-647.770	-58.618	-0.182	-0.079
-646.755	-200.000	-0.040	-0.326
-645.741	792.049	0.042	0.115
-644.726	800.000	-0.070	0.272
-643.711	-87.508	0.215	0.065
-642.697	-115.643	0.275	0.052
-641.682	72.384	0.230	-0.240
-640.668	-127.378	0.101	-0.015
-639.653	-200.000	0.037	0.234
-638.638	-200.000	0.002	-0.381
-637.624	594.380	-0.094	-0.234
-636.609	214.470	-0.138	0.219
-635.595	-200.000	0.004	0.219
-634.580	-93.930	-0.226	0.063
-633.565	-19.147	-0.223	0.139
-632.551	-114.256	0.300	-0.058
-631.536	91.434	0.056	-0.063
-630.522	113.694	-0.291	-0.355
-629.507	-140.257	-0.436	0.046
-628.492	-103.770	0.311	0.073
-627.478	-200.000	0.003	0.057
-626.463	-83.984	-0.516	0.165
-625.449	-69.446	-0.172	0.066
-624.434	334.202	0.170	0.331
-623.419	136.743	-0.118	-0.155
-622.405	-92.973	-0.084	-0.024
-621.390	50.588	0.113	-0.107
-620.376	259.407	-0.142	-0.246
-619.361	309.081	-0.137	0.257
-618.346	-38.138	-0.156	0.083
-617.332	1.143	0.065	-0.047
-616.317	129.448	0.311	-0.399
-615.303	-200.000	-0.040	-0.238
-614.288	-71.657	-0.079	0.029
-613.273	800.000	0.086	-0.288
-612.259	-200.000	-0.009	0.259
-611.244	35.907	0.335	0.296
-610.230	33.085	-0.211	0.183
-609.215	308.479	-0.062	0.116
-608.201	-200.000	-0.054	0.288
-607.186	33.477	-0.313	0.273
-606.171	132.001	0.076	0.098
-605.157	800.000	-0.168	0.466
-604.142	-26.433	0.086	0.050
-603.128	-130.199	-0.212	-0.029
-602.113	756.084	0.129	-0.350
-601.098	19.310	-0.258	0.208
-600.084	82.256	0.224	0.244
-599.069	437.833	0.117	0.257
-598.055	-12.639	-0.138	0.090
-597.040	-40.425	0.276	0.144
-596.025	67.397	-0.188	-0.193
-595.011	754.673	-0.150	0.406
-593.996	-93.181	0.210	0.059
-592.982	-200.000	-0.009	-0.127
-591.967	800.000	-0.053	-0.208
-590.952	-200.000	0.031	0.323
-589.938	14.159	-0.078	0.061
-588.923	20.268	0.069	-0.056
-587.909	-200.000	-0.027	0.274
-586.894	-33.762	0.122	-0.067
-585.879	-200.000	0.001	-0.091
-584.865	71.094	-0.188	0.196
-583.850	381.786	0.077	0.159
-582.836	200.381	0.234	-0.361
-581.821	-77.416	0.299	0.104
-580.806	755.146	-0.099	-0.269
-579.792	-159.059	0.239	0.014
-578.777	156.484	-0.214	-0.296
-577.763	-161.050	-0.267	-0.014
-576.748	-147.616	-0.331	-0.028
-575.733	-200.000	0.258	-0.001
-574.719	-200.000	-0.042	0.234
-573.704	23.794	0.237	0.196
-572.690	-34.798	-0.066	-0.036
-571.675	-13.939	0.181	0.117
-570.661	-136.594	0.031	0.004
-569.646	-0.386	-0.186	0.133
-568.631	129.587	0.048	-0.061
-567.617	-109.940	-0.113	0.024
-566.602	-200.000	0.008	-0.157
-565.588	-1.346	0.265	0.188
-564.573	800.000	0.058	-0.231
-563.558	-200.000	0.020	-0.154
-562.544	-50.271	-0.526	-0.249
-561.529	202.193	-0.252	-0.390
-560.515	-200.000	-0.082	-0.362
-559.500	-163.995	-0.164	0.008
-558.485	-61.656	0.206	-0.087
-557.471	355.337	0.100	0.200
-556.456	-155.894	-0.481	-0.031
-555.442	306.973	0.114	-0.212
-554.427	-200.000	0.061	0.384
-553.412	254.493	-0.133	0.228
-552.398	157.919	0.201	-0.278
-551.383	223.110	-0.090	0.145
-550.369	-10.950	-0.178	0.118
-549.354	800.000	-0.019	0.077
-548.339	282.556	0.164	0.295
-547.325	123.878	-0.227	-0.286
-546.310	-31.208	-0.256	-0.145
-545.296	-200.000	-0.015	-0.107
-544.281	-200.000	-0.048	-0.231
-543.266	-95.435	0.091	0.025
-542.252	-173.507	-0.183	0.006
-541.237	-84.308	-0.406	-0.129
-540.223	175.025	0.215	0.312
-539.208	-81.173	-0.333	-0.110
-538.193	-200.000	0.055	-0.298
-537.179	800.000	0.125	0.408
-536.164	200.338	-0.135	0.208
-535.150	-114.339	-0.059	-0.011
-534.135	-3.144	-0.199	-0.138
-533.121	472.340	0.089	0.200
-532.106	800.000	-0.033	-0.106
-531.091	800.000	0.041	0.166
-530.077	-200.000	-0.004	-0.473
-529.062	334.827	-0.164	0.318
-528.048	-63.101	0.519	-0.214
-527.033	800.000	0.047	0.179
-526.018	424.461	0.173	0.372
-525.004	-200.000	-0.012	0.083
-523.989	-200.000	-0.011	0.169
-522.975	91.095	-0.206	-0.232
-521.960	-200.000	-0.007	-0.147
-520.945	-103.355	-0.212	-0.050
-519.931	-127.140	-0.420	-0.062
-518.916	-102.827	0.267	0.064
-517.902	-11.958	-0.168	-0.110
-516.887	397.306	0.067	-0.140
-515.872	-103.143	-0.203	0.048
-514.858	-200.000	0.020	0.175
-513.843	-107.216	0.447	-0.098
-512.829	7.550	-0.106	-0.079
-511.814	-5.355	-0.048	0.033
-510.799	-200.000	0.007	-0.310
-509.785	800.000	0.086	0.310
-508.770	-200.000	0.014	0.189
-507.756	79.517	0.038	-0.041
-506.741	-200.000	-0.008	0.194
-505.726	31.153	0.140	0.120
-504.712	-200.000	0.020	0.255
-503.697	-144.464	-0.345	0.032
-502.683	-33.484	0.293	0.162
-501.668	-73.536	-0.168	-0.061
-500.653	-22.200	0.162	-0.098
-499.639	-7.039	0.197	0.134
-498.624	240.367	0.124	0.207
-497.610	-36.678	0.224	0.120
-496.595	-153.696	0.236	0.016
-495.581	320.592	0.061	0.116
-494.566	-200.000	0.007	-0.337
-493.551	12.405	0.290	0.223
-492.537	696.350	0.089	-0.233
-491.522	-200.000	0.012	-0.076
-490.508	-200.000	0.004	-0.023
-489.493	-144.277	-0.073	-0.007
-488.478	625.478	0.111	0.281
-487.464	-99.052	-0.234	0.059
-486.449	-137.971	0.218	-0.024
-485.435	-200.000	0.052	-0.292
-484.420	47.097	-0.235	-0.218
-483.405	47.324	0.172	0.160
-482.391	-128.695	-0.246	0.035
-481.376	648.685	0.099	0.252
-480.362	-200.000	-0.021	0.130
-479.347	132.928	0.076	0.098
-478.332	800.000	0.007	0.029
-477.318	-200.000	0.045	0.321
-476.303	-200.000	0.031	0.292
-475.289	11.837	0.232	0.178
-474.274	-87.610	0.246	0.074
-473.259	-200.000	-0.066	-0.482
-472.245	-91.361	0.170	-0.049
-471.230	-126.372	-0.307	-0.046
-470.216	45.490	0.037	-0.034
-469.201	22.864	-0.142	0.116
-468.186	-200.000	-0.064	0.291
-467.172	-47.828	-0.341	-0.165
-466.157	99.227	-0.169	-0.195
-465.143	-200.000	0.023	0.105
-464.128	-200.000	-0.026	-0.251
-463.113	800.000	-0.084	0.277
-462.099	-200.000	-0.036	-0.226
-461.084	147.276	-0.047	-0.063
-460.070	-141.405	-0.269	-0.027
-459.055	-19.516	0.348	0.215
-458.040	360.504	-0.069	-0.139
-457.026	-25.964	0.065	-0.038
-456.011	231.426	-0.182	0.297
-454.997	800.000	-0.076	0.300
-453.982	216.724	0.037	0.058
-452.968	-166.068	0.224	0.010
-451.953	168.525	0.099	-0.141
-450.938	25.271	0.237	-0.196
-449.924	280.580	0.039	0.070
-448.909	54.928	0.131	0.126
-447.895	-82.026	-0.342	0.111
-446.880	-92.020	0.544	-0.154
-445.865	-28.590	-0.060	0.034
-444.851	136.575	-0.200	0.261
-443.836	-36.212	-0.143	-0.077
-442.822	-57.622	-0.126	-0.055
-441.807	-200.000	-0.038	-0.274
-440.792	640.929	-0.167	-0.423
-439.778	-200.000	0.003	0.033
-438.763	329.994	0.069	0.133
-437.749	-39.918	0.114	-0.059
-436.734	81.472	-0.097	0.104
-435.719	-16.755	0.027	-0.017
-434.705	44.506	0.258	0.236
-433.690	800.000	-0.040	0.170
-432.676	120.280	-0.050	0.062
-431.661	-170.661	0.170	0.006
-430.646	211.524	-0.103	-0.162
-429.632	79.402	0.068	0.073
-428.617	-49.325	0.295	-0.140
-427.603	305.875	-0.171	0.317
-426.588	81.592	0.229	0.247
-425.573	403.892	-0.042	-0.088
-424.559	-71.287	0.250	-0.093
-423.544	-89.979	-0.295	-0.086
-422.530	-141.689	-0.096	0.010
-421.515	50.665	0.097	0.091
-420.500	-122.576	-0.226	0.037
-419.486	-181.819	-0.012	0.000
-418.471	800.000	0.031	0.103
-417.457	-152.613	0.218	0.016
-416.442	92.289	-0.303	-0.340
-415.428	-83.444	-0.198	-0.063
-414.413	-42.836	-0.203	-0.103
-413.398	68.653	0.204	0.209
-412.384	-200.000	-0.046	-0.216
-411.369	219.606	-0.134	0.214
-410.355	75.153	0.137	-0.144
-409.340	-62.641	0.109	0.045
-408.325	101.192	-0.149	0.173
-407.311	-95.617	0.179	-0.048
-406.296	-128.442	0.062	-0.009
-405.282	-49.546	-0.308	-0.146
-404.267	309.391	-0.105	0.196
-403.252	113.406	0.167	-0.201
-402.238	36.095	0.277	-0.243
-401.223	-87.023	-0.025	0.008
-400.209	-200.000	0.015	-0.158
-399.194	3.583	-0.280	-0.203
-398.179	218.489	-0.102	-0.163
-397.165	87.326	-0.143	0.157
-396.150	14.177	0.184	0.143
-395.136	800.000	-0.016	0.060
-394.121	-200.000	-0.001	-0.240
-393.106	800.000	0.019	-0.058
-392.092	-200.000	-0.010	0.315
-391.077	164.750	-0.145	-0.204
-390.063	800.000	0.160	-0.533
-389.048	-79.786	0.086	0.029
-388.033	624.531	-0.054	-0.134
-387.019	621.955	0.137	-0.343
-386.004	-18.321	-0.081	-0.050
-384.990	-69.350	0.131	-0.050
-383.975	-200.000	-0.015	-0.143
-382.960	-200.000	0.017	0.220
-381.946	2.260	-0.158	-0.114
-380.931	341.553	-0.056	-0.109
-379.917	249.735	-0.182	0.307
-378.902	-92.047	0.128	-0.036
-377.888	23.961	-0.127	-0.105
-376.873	476.141	0.051	0.116
-375.858	-200.000	0.020	-0.205
-374.844	-35.454	-0.082	0.044
-373.829	-200.000	0.093	0.468
-372.815	-64.881	0.107	-0.043
-371.800	595.489	-0.199	-0.488
-370.785	46.369	0.118	-0.109
-369.771	-167.022	-0.286	0.012
-368.756	390.292	0.030	-0.062
-367.742	800.000	-0.033	-0.094
-366.727	210.017	0.167	-0.260
-365.712	-25.303	-0.122	0.072
-364.698	399.056	-0.087	-0.181
-363.683	-162.839	-0.270	0.013
-362.669	288.272	0.136	0.245
-361.654	-200.000	-0.005	0.072
-360.639	800.000	-0.066	-0.202
-359.625	172.253	-0.191	-0.272
-358.610	34.409	0.103	0.090
-357.596	-200.000	0.025	-0.130
-356.581	267.192	-0.117	-0.204
-355.566	-200.000	-0.001	0.004
-354.552	-200.000	-0.052	0.271
-353.537	-120.403	-0.077	0.013
-352.523	800.000	-0.035	0.145
-351.508	-200.000	-0.041	0.354
-350.493	-200.000	-0.040	0.475
-349.479	-166.788	0.159	-0.007
-348.464	800.000	-0.067	0.265
-347.450	231.778	-0.026	-0.042
-346.435	166.236	-0.233	-0.327
-345.420	367.085	0.162	0.324
-344.406	-135.188	-0.212	0.025
-343.391	7.503	-0.120	-0.089
-342.377	16.135	0.127	-0.100
-341.362	228.235	-0.086	-0.139
-340.348	337.329	0.180	0.347
-339.333	-142.259	0.258	-0.025
-338.318	311.700	0.173	0.323
-337.304	-49.716	-0.136	0.064
-336.289	78.712	0.199	-0.211
-335.275	-175.355	0.353	-0.010
-334.260	-181.501	-0.203	0.004
-333.245	-60.949	0.150	-0.063
-332.231	46.921	-0.183	0.169
-331.216	-111.738	-0.332	0.067
-330.202	-23.866	-0.219	0.130
-329.187	-200.000	0.033	0.152
-328.172	-17.619	0.193	0.120
-327.158	-55.545	-0.240	-0.107
-326.143	-46.034	0.230	-0.113
-325.129	-117.930	-0.391	-0.070
-324.114	-74.729	0.261	-0.093
-323.099	-117.071	-0.344	0.062
-322.085	433.881	0.073	0.158
-321.070	-14.997	-0.224	0.143
-320.056	-148.054	0.367	0.030
-319.041	800.000	0.027	-0.078
-318.026	604.838	0.044	-0.110
-317.012	-18.076	-0.068	0.042
-315.997	800.000	0.126	-0.409
-314.983	-38.719	0.090	-0.047
-313.968	724.582	0.171	-0.452
-312.953	800.000	0.078	-0.334
-311.939	128.533	0.168	-0.212
-310.924	65.337	0.078	-0.078
-309.910	800.000	-0.065	0.205
-308.895	42.264	0.430	0.387
-307.880	-127.644	-0.314	-0.045
-306.866	186.126	-0.189	0.278
-305.851	2.407	-0.311	-0.223
-304.837	244.215	-0.048	0.080
-303.822	-3.390	-0.205	-0.142
-302.807	-52.881	-0.365	-0.167
-301.793	-48.439	-0.179	0.085
-300.778	133.605	0.065	-0.084
-299.764	-123.189	-0.085	-0.013
-298.749	-200.000	-0.040	-0.238
-297.735	-131.597	-0.179	0.023
-296.720	108.743	0.177	-0.209
-295.705	57.410	-0.204	0.198
-294.691	86.651	-0.152	0.166
-293.676	-93.937	-0.431	-0.117
-292.662	-60.375	0.264	0.111
-291.647	-148.351	-0.327	-0.027
-290.632	40.844	0.199	0.178
-289.618	800.000	-0.062	0.250
-288.603	-73.666	0.265	-0.096
-287.589	-200.000	-0.020	0.255
-286.574	-200.000	-0.015	-0.068
-285.559	-19.303	-0.040	0.025
-284.545	643.221	-0.064	0.161
-283.530	29.523	-0.199	0.168
-282.516	-200.000	0.008	0.058
-281.501	-147.200	0.243	0.021
-280.486	32.858	0.090	-0.077
-279.472	-200.000	0.044	-0.290
-278.457	-128.452	0.145	0.020
-277.443	125.626	-0.061	0.076
-276.428	-79.093	0.278	0.093
-275.413	533.007	-0.182	-0.428
-274.399	446.686	-0.060	-0.130
-273.384	-200.000	-0.057	-0.340
-272.370	278.275	0.086	-0.152
-271.355	99.903	0.125	-0.144
-270.340	22.012	-0.069	-0.056
-269.326	-200.000	0.016	-0.368
-268.311	-200.000	0.010	-0.171
-267.297	-69.743	0.068	-0.026
-266.282	-78.612	-0.076	0.026
-265.267	756.548	-0.011	-0.030
-264.253	18.779	-0.188	0.149
-263.238	800.000	-0.057	-0.192
-262.224	111.647	-0.265	-0.317
-261.209	159.257	-0.114	-0.158
-260.195	65.498	-0.041	0.041
-259.180	-200.000	-0.005	0.330
-258.165	-135.423	-0.056	-0.007
-257.151	54.165	0.067	-0.063
-256.136	34.170	0.228	-0.197
-255.122	-144.233	-0.335	-0.031
-254.107	323.299	-0.067	0.126
-253.092	-200.000	-0.068	-0.000
-252.078	-39.382	-0.063	-0.033
-251.063	-9.234	-0.196	-0.130
-250.049	-3.341	0.433	-0.298
-249.034	-141.544	0.351	-0.035
-248.019	137.007	-0.141	0.182
-247.005	-105.267	0.223	0.050
-245.990	-200.000	-0.032	-0.179
-244.976	383.023	0.015	0.030
-243.961	246.070	-0.130	-0.216
-242.946	61.522	0.123	0.121
-241.932	556.121	0.083	0.198
-240.917	57.461	0.155	-0.149
-239.903	131.362	-0.087	0.110
-238.888	-162.934	0.316	-0.015
-237.873	77.115	0.284	0.298
-236.859	-200.000	0.049	-0.427
-235.844	800.000	0.119	-0.330
-234.830	-60.287	0.282	0.119
-233.815	-200.000	-0.020	-0.120
-232.800	-200.000	-0.057	-0.368
-231.786	792.826	-0.029	-0.079
-230.771	-183.099	0.106	0.002
-229.757	456.974	0.122	-0.268
-228.742	-138.439	0.155	0.017
-227.727	-32.759	-0.358	0.197
-226.713	-126.383	-0.228	0.034
-225.698	-200.000	0.027	-0.156
-224.684	282.186	0.088	0.156
-223.669	179.051	0.110	0.159
-222.655	798.447	0.040	0.110
-221.640	800.000	-0.028	0.115
-220.625	-200.000	-0.048	-0.230
-219.611	-67.663	0.493	0.191
-218.596	179.444	0.125	0.181
-217.582	56.966	-0.318	-0.307
-216.567	169.434	0.054	0.076
-215.552	-200.000	0.001	-0.050
-214.538	-200.000	-0.012	0.353
-213.523	-100.168	0.260	-0.064
-212.509	-200.000	-0.012	-0.294
-211.494	-75.617	0.281	0.098
-210.479	187.440	-0.142	0.210
-209.465	-56.504	0.220	0.096
-208.450	-200.000	0.037	-0.356
-207.436	-34.961	0.268	-0.145
-206.421	800.000	0.104	0.286
-205.406	800.000	-0.061	0.230
-204.392	467.050	0.075	0.167
-203.377	530.805	0.033	0.076
-202.363	-200.000	0.036	-0.157
-201.348	23.328	0.252	0.205
-200.333	-137.444	0.245	0.027
-199.319	76.514	-0.107	0.112
-198.304	104.755	0.095	0.110
-197.290	-200.000	0.038	-0.177
-196.275	-143.819	0.150	-0.014
-195.260	231.640	0.092	-0.149
-194.246	-67.529	-0.292	-0.113
-193.231	-23.233	0.218	-0.130
-192.217	234.400	-0.116	-0.188
-191.202	657.707	-0.103	-0.262
-190.187	154.390	-0.124	-0.168
-189.173	48.075	0.192	0.177
-188.158	114.467	0.185	-0.222
-187.144	-200.000	0.043	-0.191
-186.129	-74.161	-0.198	-0.071
-185.114	197.958	-0.265	0.400
-184.100	-87.021	0.105	0.032
-183.085	796.001	-0.090	-0.245
-182.071	-68.921	0.180	0.069
-181.056	-160.481	-0.162	-0.009
-180.042	800.000	-0.112	-0.330
-179.027	-73.773	0.284	0.102
-178.012	-106.779	-0.289	0.063
-176.998	53.903	0.377	-0.357
-175.983	-147.658	0.140	-0.012
-174.969	-200.000	-0.006	0.239
-173.954	398.425	0.119	0.246
-172.939	-2.937	0.333	-0.230
-171.925	65.224	-0.171	0.171
-170.910	-200.000	0.004	0.460
-169.896	-37.104	0.154	-0.081
-168.881	51.315	0.124	-0.116
-167.866	126.506	0.110	-0.137
-166.852	-200.000	-0.006	-0.031
-165.837	-200.000	-0.022	0.211
-164.823	-125.836	0.196	0.029
-163.808	223.783	-0.105	-0.167
-162.793	-200.000	0.020	0.248
-161.779	619.839	0.051	0.126
-160.764	800.000	0.038	-0.120
-159.750	-88.768	0.262	0.077
-158.735	-65.315	-0.181	-0.072
-157.720	198.272	-0.174	0.262
-156.706	-28.159	-0.097	0.055
-155.691	119.790	0.251	-0.306
-154.677	-200.000	-0.100	0.460
-153.662	-10.402	-0.075	0.049
-152.647	62.535	0.214	0.210
-151.633	800.000	0.004	-0.013
-150.618	-200.000	-0.058	0.284
-149.604	-88.885	-0.258	0.075
-148.589	45.530	-0.070	0.064
-147.574	-55.573	-0.086	-0.038
-146.560	800.000	-0.084	-0.323
-145.545	91.922	-0.125	0.138
-144.531	800.000	0.094	0.319
-143.516	74.706	-0.193	0.200
-142.502	-8.774	0.327	0.216
-141.487	457.940	-0.125	-0.274
-140.472	800.000	-0.054	-0.180
-139.458	-76.887	0.097	0.033
-138.443	537.875	-0.067	-0.157
-137.429	-3.151	-0.318	-0.218
-136.414	4.855	0.102	-0.074
-135.399	-83.993	0.487	0.153
-134.385	-121.438	-0.385	0.063
-133.370	800.000	0.035	0.098
-132.356	199.379	0.115	-0.173
-131.341	800.000	-0.015	-0.045
-130.326	-80.585	-0.056	-0.018
-129.312	-36.345	-0.199	0.105
-128.297	-124.561	-0.192	-0.029
-127.283	-15.726	-0.132	0.083
-126.268	-194.324	-0.170	0.001
-125.253	247.005	0.195	0.324
-124.239	-139.753	0.383	0.040
-123.224	800.000	0.035	-0.139
-122.210	-76.893	-0.133	-0.046
