DTS Sentinel unit serial number:	SN413079Multiplexer serial number:	ORYXHardware model number:	OX4-SRSoftware version number:	ORYX F/W v4.00 Oryx Data Collector v3.7.2.0data status	okinstallation	princeton_trtdifferential loss correction	single-endedforward channel	channel 2reverse channel	N/Adate	2019/09/17time	17:35:35forward acquisition time	60.00reverse acquisition time	0.00gamma	496.2192k internal	0.2289k external	0.2289temperature offset calibration	0.9982default loss term (dB/km)	0.3790temperature slope calibration	1.0000multiplexer offset coefficient	1.0000multiplexer slope coefficient	1.0000fibre end	0.00T internal ref (°C)	43.30T ext. ref 1 (°C)	0.34T ext. ref 2 (°C)	39.09length (m)	temperature (°C)	Stokes	anti-Stokes-747.200	-200.000	0.031	0.207
-746.185	-10.811	0.216	0.146
-745.171	800.000	0.113	0.352
-744.156	-183.390	0.145	-0.003
-743.142	-137.372	0.292	0.034
-742.127	-200.000	-0.039	0.185
-741.112	800.000	0.127	0.365
-740.098	800.000	-0.123	0.484
-739.083	85.128	-0.336	-0.377
-738.069	182.495	-0.052	0.078
-737.054	279.585	-0.125	0.228
-736.039	-200.000	-0.038	-0.185
-735.025	800.000	0.039	0.133
-734.010	-75.659	-0.212	0.077
-732.996	-108.995	-0.311	0.068
-731.981	74.700	0.183	0.198
-730.966	146.337	0.097	0.133
-729.952	199.712	0.171	-0.269
-728.937	241.395	-0.136	-0.233
-727.923	-173.524	-0.329	-0.010
-726.908	-17.308	0.058	0.038
-725.894	389.092	-0.086	0.181
-724.879	-163.208	-0.502	-0.025
-723.864	212.462	-0.083	-0.134
-722.850	-46.283	0.148	-0.074
-721.835	336.644	-0.053	-0.105
-720.821	-66.505	0.277	0.113
-719.806	800.000	0.036	0.154
-718.791	-62.079	0.060	0.026
-717.777	8.017	-0.250	0.192
-716.762	-174.802	0.100	-0.003
-715.748	-200.000	0.051	0.311
-714.733	-60.360	0.205	-0.089
-713.718	51.169	0.107	0.104
-712.704	68.268	0.048	-0.050
-711.689	-39.330	-0.106	-0.057
-710.675	-12.558	-0.237	-0.158
-709.660	-83.805	-0.303	-0.099
-708.645	307.763	0.095	0.181
-707.631	450.509	0.075	-0.170
-706.616	512.355	-0.143	-0.341
-705.602	-85.308	-0.183	-0.058
-704.587	304.930	-0.081	-0.155
-703.572	-20.426	0.119	0.075
-702.558	-74.840	0.261	0.096
-701.543	438.428	-0.136	-0.303
-700.529	386.381	-0.097	-0.204
-699.514	-200.000	-0.070	-0.337
-698.499	310.445	-0.112	-0.214
-697.485	8.952	-0.077	-0.059
-696.470	531.054	-0.199	-0.480
-695.456	25.665	0.237	0.202
-694.441	-79.142	-0.023	0.008
-693.426	212.486	-0.038	-0.062
-692.412	270.183	0.271	0.488
-691.397	794.599	0.082	0.231
-690.383	-55.038	-0.087	0.040
-689.368	36.403	-0.134	0.120
-688.354	-1.648	0.222	-0.160
-687.339	-99.011	-0.212	-0.055
-686.324	-23.818	0.139	0.085
-685.310	800.000	-0.108	0.332
-684.295	293.653	-0.034	0.064
-683.281	-15.951	-0.109	-0.071
-682.266	516.256	0.112	0.268
-681.251	14.948	-0.279	-0.223
-680.237	460.931	0.235	0.534
-679.222	800.000	0.037	-0.115
-678.208	496.379	-0.133	-0.312
-677.193	-174.307	-0.103	-0.003
-676.178	597.230	-0.020	0.050
-675.164	-90.765	0.303	-0.089
-674.149	220.103	0.092	-0.151
-673.135	-133.487	0.295	0.038
-672.120	-23.850	-0.146	0.089
-671.105	57.941	0.105	0.105
-670.091	60.190	0.247	-0.250
-669.076	-200.000	0.188	-0.001
-668.062	-76.886	0.113	-0.040
-667.047	-50.672	0.234	0.112
-666.032	13.367	-0.026	-0.021
-665.018	461.550	0.029	0.066
-664.003	800.000	-0.076	0.259
-662.989	-81.200	-0.212	0.072
-661.974	380.006	-0.068	0.143
-660.959	18.293	0.074	0.060
-659.945	36.173	0.155	0.139
-658.930	80.984	-0.059	0.065
-657.916	240.848	-0.206	-0.350
-656.901	34.082	0.143	-0.127
-655.886	-200.000	-0.022	0.268
-654.872	147.138	0.055	-0.076
-653.857	54.679	0.063	0.062
-652.843	-93.754	-0.046	-0.013
-651.828	800.000	0.049	-0.155
-650.814	22.803	0.296	0.247
-649.799	17.152	-0.119	0.096
-648.784	-200.000	-0.036	0.332
-647.770	429.211	0.079	-0.175
-646.755	-116.008	-0.122	0.023
-645.741	-200.000	0.028	-0.259
-644.726	-53.260	0.146	-0.068
-643.711	-11.262	-0.146	-0.098
-642.697	343.757	-0.129	0.258
-641.682	-200.000	0.033	0.207
-640.668	-37.948	-0.195	-0.105
-639.653	107.570	0.179	-0.217
-638.638	800.000	0.069	0.261
-637.624	-49.164	-0.240	0.117
-636.609	-132.905	0.174	-0.023
-635.595	45.616	-0.152	-0.143
-634.580	-188.936	-0.210	0.003
-633.565	-117.030	0.255	-0.048
-632.551	-200.000	0.006	-0.031
-631.536	-81.149	-0.156	0.053
-630.522	-40.619	0.162	0.086
-629.507	183.847	0.113	0.170
-628.492	-200.000	0.039	0.320
-627.478	-123.411	0.042	-0.007
-626.463	-15.834	-0.118	-0.077
-625.449	14.566	-0.008	-0.006
-624.434	53.463	-0.125	-0.122
-623.419	-1.955	0.125	0.090
-622.405	-35.779	0.086	-0.047
-621.390	23.578	0.141	0.118
-620.376	-109.922	-0.290	0.062
-619.361	-96.269	0.261	0.071
-618.346	142.164	-0.079	-0.107
-617.332	-69.371	-0.309	-0.121
-616.317	50.389	0.131	-0.126
-615.303	-163.145	0.083	-0.004
-614.288	649.688	-0.117	-0.305
-613.273	-67.176	0.267	-0.107
-612.259	-89.846	0.186	0.056
-611.244	348.221	0.126	-0.253
-610.230	-24.940	-0.217	0.132
-609.215	-200.000	-0.039	0.191
-608.201	-200.000	-0.022	0.611
-607.186	800.000	-0.066	0.189
-606.171	-200.000	0.018	-0.277
-605.157	160.586	0.110	-0.157
-604.142	800.000	-0.023	-0.093
-603.128	202.305	0.135	0.212
-602.113	-54.845	-0.051	0.024
-601.098	-200.000	-0.011	-0.375
-600.084	-75.051	0.274	0.100
-599.069	800.000	0.055	0.188
-598.055	-58.132	0.226	-0.100
-597.040	-9.137	-0.183	0.125
-596.025	51.304	-0.110	-0.107
-595.011	123.949	0.076	0.097
-593.996	375.758	0.154	-0.320
-592.982	-83.685	0.157	0.051
-591.967	800.000	-0.083	-0.235
-590.952	-200.000	0.035	0.490
-589.938	-200.000	-0.046	0.254
-588.923	3.447	0.161	0.120
-587.909	122.899	-0.102	0.130
-586.894	51.920	0.282	0.274
-585.879	477.362	0.104	0.241
-584.865	221.175	0.049	-0.081
-583.850	60.137	-0.079	-0.080
-582.836	101.344	-0.070	-0.084
-581.821	71.129	-0.196	-0.207
-580.806	293.713	-0.211	-0.392
-579.792	-200.000	-0.017	-0.313
-578.777	-34.918	-0.157	0.087
-577.763	-116.507	0.225	0.042
-576.748	-111.713	0.097	0.020
-575.733	62.215	0.068	-0.069
-574.719	-102.003	0.126	0.031
-573.704	-200.000	0.027	0.370
-572.690	415.242	0.089	-0.193
-571.675	-200.000	0.001	-0.022
-570.661	-158.019	-0.130	-0.008
-569.646	-200.000	0.012	0.104
-568.631	-45.324	-0.086	0.043
-567.617	-185.186	-0.736	0.012
-566.602	800.000	0.117	0.348
-565.588	-7.782	0.208	0.143
-564.573	-30.098	-0.261	-0.151
-563.558	800.000	-0.070	-0.298
-562.544	-81.200	-0.237	0.080
-561.529	-61.357	-0.305	0.130
-560.515	-78.944	-0.465	0.161
-559.500	-128.443	-0.313	-0.045
-558.485	-200.000	-0.016	-0.142
-557.471	-200.000	0.037	-0.326
-556.456	-8.722	-0.054	0.037
-555.442	-200.000	0.023	0.150
-554.427	-30.192	-0.141	0.082
-553.412	31.001	-0.185	-0.161
-552.398	800.000	-0.070	0.202
-551.383	-110.541	-0.336	-0.071
-550.369	148.752	-0.068	0.094
-549.354	127.611	0.137	0.177
-548.339	137.145	-0.092	0.122
-547.325	30.176	-0.156	0.136
-546.310	-137.214	0.183	0.021
-545.296	107.189	-0.189	-0.229
-544.281	61.145	-0.171	-0.173
-543.266	64.414	0.366	0.375
-542.252	150.537	0.102	0.141
-541.237	180.603	-0.203	-0.303
-540.223	213.473	0.133	-0.214
-539.208	800.000	-0.039	-0.144
-538.193	11.607	0.270	-0.210
-537.179	-165.771	0.208	0.009
-536.164	321.260	0.153	-0.297
-535.150	21.921	0.124	0.102
-534.135	-141.990	0.182	0.018
-533.121	34.496	0.027	0.024
-532.106	537.312	-0.046	-0.112
-531.091	17.301	-0.041	-0.033
-530.077	-48.683	-0.252	0.123
-529.062	-13.462	-0.115	-0.076
-528.048	-200.000	0.015	0.198
-527.033	-24.059	-0.109	0.066
-526.018	160.063	0.124	-0.175
-525.004	-200.000	0.018	-0.182
-523.989	-78.924	0.214	-0.074
-522.975	-200.000	-0.011	0.220
-521.960	-41.555	-0.016	0.009
-520.945	-108.811	0.579	-0.126
-519.931	54.181	-0.182	0.178
-518.916	-93.467	0.104	0.029
-517.902	44.105	0.094	0.088
-516.887	-36.114	-0.046	0.025
-515.872	-159.459	-0.274	0.015
-514.858	15.863	0.112	0.090
-513.843	-200.000	-0.002	-0.309
-512.829	89.696	0.270	0.306
-511.814	-140.673	-0.224	0.024
-510.799	-88.494	0.136	0.041
-509.785	800.000	-0.046	0.136
-508.770	34.157	-0.173	0.154
-507.756	-71.036	0.144	-0.055
-506.741	-136.758	-0.108	0.013
-505.726	-15.551	0.529	-0.343
-504.712	-123.095	0.282	-0.046
-503.697	-49.736	0.145	0.070
-502.683	-1.228	-0.160	0.115
-501.668	-99.920	-0.318	-0.081
-500.653	-95.479	-0.075	0.020
-499.639	402.627	0.148	-0.315
-498.624	800.000	-0.057	-0.193
-497.610	204.845	-0.099	-0.155
-496.595	-200.000	0.004	-0.416
-495.581	-88.173	0.080	0.024
-494.566	-9.336	-0.078	-0.053
-493.551	138.068	-0.083	-0.110
-492.537	13.010	-0.071	-0.056
-491.522	-200.000	0.004	-0.184
-490.508	418.037	0.084	-0.181
-489.493	-200.000	-0.014	0.100
-488.478	-200.000	-0.075	0.419
-487.464	800.000	-0.029	0.082
-486.449	-93.639	0.114	0.032
-485.435	26.665	-0.176	-0.149
-484.420	-31.351	-0.038	-0.022
-483.405	-200.000	0.017	0.243
-482.391	16.394	0.085	-0.068
-481.376	-200.000	0.306	0.001
-480.362	-45.706	0.180	0.091
-479.347	-117.054	0.096	0.018
-478.332	-25.747	0.228	0.136
-477.318	464.760	-0.107	-0.242
-476.303	68.222	0.132	0.137
-475.289	-80.293	0.177	0.060
-474.274	800.000	0.059	0.214
-473.259	-99.893	-0.085	-0.022
-472.245	89.468	0.122	0.138
-471.230	276.742	-0.081	-0.147
-470.216	800.000	-0.012	0.036
-469.201	-33.323	0.387	-0.217
-468.186	-200.000	0.077	-0.389
-467.172	714.250	-0.075	-0.202
-466.157	-147.838	-0.176	0.015
-465.143	-55.482	0.241	-0.109
-464.128	28.671	-0.169	-0.145
-463.113	102.868	-0.147	0.175
-462.099	125.071	0.086	-0.110
-461.084	236.369	0.209	-0.350
-460.070	-171.080	-0.162	-0.006
-459.055	-155.659	-0.432	-0.028
-458.040	-110.519	0.260	-0.055
-457.026	236.771	0.298	-0.500
-456.011	800.000	-0.089	-0.378
-454.997	-109.087	-0.244	-0.053
-453.982	-200.000	-0.075	-0.423
-452.968	-200.000	0.018	-0.369
-451.953	79.392	0.043	0.047
-450.938	-53.114	0.408	0.190
-449.924	269.082	-0.070	0.125
-448.909	-200.000	-0.007	0.335
-447.895	-90.562	0.244	-0.072
-446.880	-84.364	-0.202	-0.065
-445.865	64.088	0.041	-0.042
-444.851	707.097	0.081	0.215
-443.836	-175.894	-0.107	-0.003
-442.822	42.305	0.169	-0.155
-441.807	-61.660	0.294	-0.125
-440.792	800.000	-0.065	-0.270
-439.778	115.905	0.025	-0.031
-438.763	-37.784	-0.177	-0.095
-437.749	800.000	0.062	-0.267
-436.734	15.261	-0.180	-0.143
-435.719	-29.549	-0.036	-0.021
-434.705	67.509	-0.199	0.206
-433.690	283.308	0.088	0.161
-432.676	-40.313	0.193	0.101
-431.661	-1.139	-0.215	-0.154
-430.646	-47.010	-0.210	0.104
-429.632	-200.000	0.016	-0.484
-428.617	800.000	0.010	-0.037
-427.603	-29.590	-0.084	-0.049
-426.588	-168.431	-0.044	-0.002
-425.573	-200.000	0.042	0.229
-424.559	13.381	-0.281	0.220
-423.544	-92.853	-0.150	-0.042
-422.530	330.488	0.091	0.178
-421.515	-200.000	0.011	0.323
-420.500	-76.359	-0.290	0.103
-419.486	82.539	0.139	0.152
-418.471	-47.419	0.254	-0.125
-417.457	-70.093	0.275	-0.106
-416.442	-127.994	-0.136	-0.020
-415.428	-200.000	-0.004	-0.231
-414.413	-200.000	0.002	-0.015
-413.398	32.285	-0.120	0.104
-412.384	147.990	0.190	-0.260
-411.369	-200.000	0.045	0.211
-410.355	5.010	0.121	-0.090
-409.340	-200.000	-0.016	-0.372
-408.325	546.891	0.116	-0.282
-407.311	-100.771	0.264	-0.066
-406.296	-200.000	-0.006	-0.317
-405.282	-105.753	-0.305	0.070
-404.267	-10.544	0.349	0.234
-403.252	800.000	0.096	0.343
-402.238	-87.121	-0.199	0.061
-401.223	-162.265	-0.198	0.010
-400.209	186.800	0.107	-0.162
-399.194	-143.560	0.212	-0.020
-398.179	-200.000	0.004	-0.179
-397.165	-29.119	0.094	-0.055
-396.150	391.071	-0.091	-0.190
-395.136	74.042	0.144	-0.153
-394.121	-5.627	-0.068	0.047
-393.106	250.309	-0.065	-0.111
-392.092	196.784	0.171	0.264
-391.077	85.531	-0.108	-0.120
-390.063	-28.776	0.145	0.084
-389.048	-113.909	-0.380	0.075
-388.033	437.572	-0.072	0.158
-387.019	138.808	-0.264	-0.351
-386.004	64.807	0.168	-0.171
-384.990	479.503	0.103	0.236
-383.975	-154.189	0.058	0.004
-382.960	800.000	-0.074	0.237
-381.946	-98.925	0.147	0.038
-380.931	-57.378	0.082	0.037
-379.917	-60.957	0.204	-0.087
-378.902	-200.000	0.003	0.363
-377.888	110.476	0.139	0.169
-376.873	-143.442	-0.531	0.051
-375.858	52.675	-0.378	-0.365
-374.844	82.022	0.215	-0.235
-373.829	-200.000	0.034	-0.351
-372.815	-200.000	0.018	-0.110
-371.800	-11.415	0.109	-0.072
-370.785	-171.298	-0.155	0.005
-369.771	212.958	-0.077	-0.122
-368.756	-200.000	-0.048	-0.266
-367.742	800.000	-0.055	-0.210
-366.727	-41.108	0.221	0.115
-365.712	-20.992	0.222	-0.138
-364.698	-144.635	-0.279	-0.026
-363.683	-25.503	0.139	0.083
-362.669	-28.517	-0.212	0.123
-361.654	-16.526	0.240	0.153
-360.639	449.184	-0.037	-0.082
-359.625	-188.864	-0.175	0.002
-358.610	-200.000	0.046	-0.252
-357.596	800.000	-0.031	-0.094
-356.581	-200.000	-0.016	0.077
-355.566	-200.000	0.007	0.272
-354.552	42.738	-0.126	-0.115
-353.537	-154.187	-0.414	0.028
-352.523	-200.000	-0.023	0.235
-351.508	-200.000	-0.039	0.212
-350.493	103.218	0.182	0.216
-349.479	124.789	-0.085	0.108
-348.464	121.068	-0.173	0.217
-347.450	-20.997	-0.176	-0.109
-346.435	-200.000	0.016	0.161
-345.420	800.000	-0.019	-0.078
-344.406	193.057	-0.168	0.256
-343.391	-93.052	-0.267	-0.075
-342.377	-200.000	-0.040	0.252
-341.362	230.213	0.130	-0.214
-340.348	-19.338	-0.081	0.051
-339.333	-200.000	0.032	-0.164
-338.318	-14.820	0.288	0.186
-337.304	293.868	0.131	0.241
-336.289	-13.643	-0.091	-0.060
-335.275	-200.000	0.007	-0.044
-334.260	-131.520	-0.061	-0.008
-333.245	715.684	-0.083	-0.223
-332.231	638.933	0.086	0.220
-331.216	85.903	0.172	0.190
-330.202	-200.000	0.029	-0.157
-329.187	800.000	0.044	0.138
-328.172	-200.000	-0.035	0.182
-327.158	21.410	-0.233	0.191
-326.143	431.285	0.009	0.019
-325.129	40.720	-0.148	-0.134
-324.114	111.583	0.188	0.229
-323.099	114.076	0.310	-0.380
-322.085	-200.000	-0.027	-0.194
-321.070	23.688	0.157	0.130
-320.056	-200.000	-0.012	0.312
-319.041	-200.000	-0.024	0.222
-318.026	182.089	-0.080	0.119
-317.012	-53.501	-0.184	0.085
-315.997	-84.043	0.255	-0.082
-314.983	-45.334	0.046	-0.023
-313.968	26.534	0.199	0.168
-312.953	800.000	0.016	-0.056
-311.939	549.154	-0.070	-0.168
-310.924	-200.000	0.002	-0.041
-309.910	-54.186	0.157	0.072
-308.895	-90.669	0.094	-0.027
-307.880	-200.000	0.004	-0.042
-306.866	-184.768	-0.401	0.006
-305.851	119.343	-0.092	0.114
-304.837	-173.382	0.308	0.009
-303.822	64.369	-0.118	0.120
-302.807	32.906	0.232	0.202
-301.793	-46.519	0.092	-0.046
-300.778	800.000	0.047	0.139
-299.764	245.855	0.082	-0.139
-298.749	-200.000	-0.037	-0.187
-297.735	-87.921	0.162	0.049
-296.720	465.444	0.092	-0.208
-295.705	-66.904	0.157	-0.062
-294.691	800.000	-0.012	-0.050
-293.676	800.000	-0.054	-0.154
-292.662	48.193	-0.157	-0.148
-291.647	373.710	-0.039	0.081
-290.632	-42.140	-0.333	-0.171
-289.618	149.522	-0.113	0.154
-288.603	-64.096	-0.091	-0.037
-287.589	218.656	-0.129	-0.208
-286.574	-156.341	-0.121	0.008
-285.559	649.076	-0.049	-0.127
-284.545	-200.000	-0.013	-0.199
-283.530	-112.312	0.202	-0.041
-282.516	87.801	-0.200	0.223
-281.501	-200.000	0.010	-0.145
-280.486	-30.735	-0.168	0.095
-279.472	117.667	-0.175	0.217
-278.457	-154.933	-0.431	0.029
-277.443	23.316	-0.150	0.124
-276.428	273.857	-0.211	0.376
-275.413	191.783	-0.111	0.168
-274.399	-187.233	0.081	0.001
-273.384	205.193	0.103	0.160
-272.370	-188.208	0.052	-0.001
-271.355	26.829	-0.071	0.060
-270.340	203.820	0.105	0.163
-269.326	-200.000	-0.075	-0.486
-268.311	-41.972	-0.160	-0.082
-267.297	-46.230	0.033	-0.016
-266.282	80.923	-0.239	0.259
-265.267	-58.196	0.184	0.080
-264.253	93.707	-0.064	0.073
-263.238	-106.159	-0.299	0.068
-262.224	111.342	0.130	0.157
-261.209	-137.584	-0.315	0.036
-260.195	38.972	0.097	0.087
-259.180	35.022	-0.075	0.066
-258.165	-200.000	0.014	0.184
-257.151	-200.000	-0.075	-0.347
-256.136	-200.000	0.029	0.282
-255.122	-101.582	0.119	-0.029
-254.107	-71.009	0.523	-0.198
-253.092	-108.941	-0.378	-0.081
-252.078	-85.040	-0.201	-0.063
-251.063	-188.974	0.300	0.004
-250.049	17.826	-0.251	-0.201
-249.034	-108.845	0.340	0.073
-248.019	-200.000	-0.002	-0.362
-247.005	-60.250	0.166	0.071
-245.990	13.267	-0.221	-0.172
-244.976	343.789	-0.130	-0.256
-243.961	-100.816	-0.169	-0.042
-242.946	800.000	-0.050	-0.144
-241.932	230.644	0.060	0.099
-240.917	-0.378	-0.120	-0.086
-239.903	-200.000	-0.012	-0.139
-238.888	303.745	0.156	-0.290
-237.873	-17.708	0.265	0.167
-236.859	-99.311	0.134	-0.034
-235.844	345.992	0.115	0.228
-234.830	800.000	0.098	0.422
-233.815	-118.061	-0.044	0.008
-232.800	-200.000	0.010	0.177
-231.786	34.404	0.120	0.105
-230.771	-9.126	-0.176	-0.118
-229.757	231.973	0.161	0.265
-228.742	278.148	0.064	0.114
-227.727	-86.633	-0.177	-0.054
-226.713	-170.832	0.286	0.010
-225.698	-54.112	0.250	0.114
-224.684	-63.212	-0.068	0.028
-223.669	19.578	-0.008	-0.007
-222.655	79.321	0.148	-0.159
-221.640	-17.900	-0.120	-0.076
-220.625	-171.335	0.073	-0.002
-219.611	685.269	-0.151	0.396
-218.596	56.935	0.026	-0.025
-217.582	-60.236	-0.357	0.153
-216.567	-151.270	-0.230	-0.017
-215.552	32.552	0.352	0.306
-214.538	410.299	-0.111	0.236
-213.523	26.838	0.057	-0.048
-212.509	363.603	-0.134	0.271
-211.494	-64.971	0.211	0.086
-210.479	3.123	0.196	-0.143
-209.465	6.766	-0.215	0.161
-208.450	253.281	-0.131	0.224
-207.436	-150.252	0.422	0.033
-206.421	482.604	-0.078	-0.177
-205.406	61.530	-0.136	-0.136
-204.392	-81.963	0.259	0.085
-203.377	69.645	-0.138	-0.142
-202.363	562.732	0.140	-0.339
-201.348	85.414	0.171	-0.189
-200.333	90.835	-0.201	-0.226
-199.319	800.000	0.063	0.223
-198.304	367.654	-0.050	0.101
-197.290	-15.222	0.037	0.024
-196.275	-94.608	0.238	-0.065
-195.260	131.687	-0.159	0.205
-194.246	206.510	0.047	-0.073
-193.231	623.099	-0.167	0.423
-192.217	131.285	-0.140	-0.180
-191.202	65.786	0.185	-0.188
-190.187	57.735	0.091	-0.089
-189.173	457.441	-0.069	0.153
-188.158	800.000	0.131	0.431
-187.144	-200.000	-0.080	-0.496
-186.129	283.722	-0.044	0.079
-185.114	-45.887	-0.235	0.116
-184.100	32.947	-0.115	-0.100
-183.085	-19.076	-0.262	0.163
-182.071	-62.247	0.153	-0.064
-181.056	-136.035	-0.385	0.045
-180.042	-108.867	0.175	0.038
-179.027	-5.201	-0.097	0.067
-178.012	48.878	-0.126	0.118
-176.998	73.596	-0.144	-0.151
-175.983	346.068	-0.097	-0.191
-174.969	434.560	0.104	0.226
-173.954	133.146	0.057	-0.074
-172.939	81.750	0.097	0.105
-171.925	-127.135	-0.263	0.039
-170.910	-15.700	0.390	0.249
-169.896	392.515	0.041	0.085
-168.881	-79.433	0.459	0.155
-167.866	-110.697	0.103	-0.021
-166.852	-170.852	-0.162	0.006
-165.837	604.335	0.112	-0.279
-164.823	459.700	-0.137	-0.305
-163.808	-39.979	0.016	0.008
-162.793	512.145	0.025	0.059
-161.779	183.063	0.092	-0.136
-160.764	-200.000	0.037	0.179
-159.750	800.000	0.044	-0.157
-158.735	-166.140	-0.162	0.007
-157.720	436.266	0.059	0.129
-156.706	-151.322	0.188	0.014
-155.691	413.601	-0.065	0.138
-154.677	455.672	-0.019	0.042
-153.662	-129.737	0.238	0.033
-152.647	551.806	0.134	0.322
-151.633	-186.042	0.307	0.005
-150.618	87.188	0.311	-0.344
-149.604	-12.682	-0.054	0.035
-148.589	-36.099	0.243	0.132
-147.574	800.000	0.132	-0.392
-146.560	-200.000	-0.000	-0.081
-145.545	-32.227	-0.232	0.130
-144.531	42.316	-0.213	0.194
-143.516	-200.000	-0.029	-0.137
-142.502	-200.000	0.017	0.084
-141.487	-89.139	-0.015	0.004
-140.472	-16.146	0.148	0.094
-139.458	85.915	0.137	0.151
-138.443	117.361	0.045	0.056
-137.429	20.749	0.053	0.043
-136.414	-137.713	0.275	0.031
-135.399	-18.295	-0.104	-0.065
-134.385	-4.542	0.250	0.173
-133.370	-200.000	0.032	0.330
-132.356	800.000	-0.038	-0.131
-131.341	144.363	-0.167	-0.223
-130.326	-53.686	0.121	0.055
-129.312	-65.337	-0.366	-0.147
-128.297	-200.000	0.024	-0.291
-127.283	-35.663	0.139	0.076
-126.268	502.146	0.054	-0.124
-125.253	-44.013	-0.090	0.045
-124.239	218.493	-0.037	0.059
-123.224	-200.000	-0.011	-0.120
-122.210	-22.042	-0.358	-0.217
-121.195	-200.000	-0.007	-0.105
-120.180	87.969	-0.200	-0.222
