DTS Sentinel unit serial number:	SN413079Multiplexer serial number:	ORYXHardware model number:	OX4-SRSoftware version number:	ORYX F/W v4.00 Oryx Data Collector v3.7.2.0data status	okinstallation	princeton_trtdifferential loss correction	single-endedforward channel	channel 2reverse channel	N/Adate	2019/09/18time	23:11:34forward acquisition time	60.00reverse acquisition time	0.00gamma	496.2192k internal	0.2349k external	0.2349temperature offset calibration	1.0019default loss term (dB/km)	0.3790temperature slope calibration	1.0000multiplexer offset coefficient	1.0000multiplexer slope coefficient	1.0000fibre end	0.00T internal ref (°C)	23.94T ext. ref 1 (°C)	0.77T ext. ref 2 (°C)	17.39length (m)	temperature (°C)	Stokes	anti-Stokes-747.200	-90.327	-0.294	-0.085
-746.185	57.619	0.253	0.247
-745.171	248.964	0.258	-0.437
-744.156	-138.096	0.010	-0.001
-743.142	16.893	-0.304	0.240
-742.127	731.341	0.088	0.235
-741.112	-36.114	-0.136	0.073
-740.098	75.868	0.099	-0.104
-739.083	542.829	0.036	-0.085
-738.069	457.337	-0.189	0.419
-737.054	62.783	0.170	0.170
-736.039	-50.668	-0.160	0.075
-735.025	41.666	-0.207	-0.187
-734.010	-200.000	0.055	-0.342
-732.996	-10.049	-0.310	-0.205
-731.981	-200.000	0.070	-0.347
-730.966	-100.270	0.201	-0.050
-729.952	-28.401	0.093	-0.054
-728.937	61.605	0.201	-0.200
-727.923	-200.000	-0.096	0.433
-726.908	-25.950	-0.073	0.043
-725.894	-108.828	-0.037	0.008
-724.879	-200.000	-0.029	0.148
-723.864	-200.000	-0.008	-0.082
-722.850	800.000	-0.158	0.435
-721.835	22.111	0.072	0.059
-720.821	195.667	-0.022	0.033
-719.806	-47.573	-0.297	0.144
-718.791	-91.070	-0.255	-0.073
-717.777	103.769	-0.088	-0.103
-716.762	-200.000	-0.005	0.047
-715.748	-2.178	-0.172	-0.121
-714.733	-92.081	0.224	-0.063
-713.718	-200.000	0.039	-0.246
-712.704	800.000	-0.136	-0.385
-711.689	468.699	0.160	-0.359
-710.675	183.343	0.121	0.179
-709.660	101.485	-0.082	0.095
-708.645	-74.865	0.201	0.072
-707.631	48.885	-0.058	-0.055
-706.616	-200.000	-0.057	-0.256
-705.602	-200.000	0.015	-0.216
-704.587	-200.000	-0.024	0.125
-703.572	-49.621	-0.341	0.162
-702.558	98.602	-0.172	-0.198
-701.543	-26.608	0.215	-0.125
-700.529	60.198	0.132	0.130
-699.514	773.025	0.067	-0.181
-698.499	41.503	0.025	-0.022
-697.485	-94.942	-0.058	0.016
-696.470	-200.000	0.001	0.016
-695.456	-200.000	-0.009	-0.103
-694.441	800.000	-0.140	-0.465
-693.426	-52.099	0.132	-0.061
-692.412	-86.475	-0.318	0.097
-691.397	-12.166	-0.046	0.030
-690.383	12.486	0.457	-0.351
-689.368	-71.389	-0.350	0.131
-688.354	-200.000	-0.058	-0.526
-687.339	-18.175	0.122	-0.076
-686.324	103.416	0.164	0.191
-685.310	4.360	0.357	-0.260
-684.295	133.933	-0.122	-0.157
-683.281	-25.881	-0.139	-0.081
-682.266	-200.000	-0.048	-0.216
-681.251	-75.585	-0.113	0.040
-680.237	-17.662	0.188	0.118
-679.222	-7.483	-0.325	-0.219
-678.208	-5.008	-0.207	-0.142
-677.193	-97.077	-0.193	0.050
-676.178	23.470	-0.366	0.300
-675.164	-200.000	0.044	0.255
-674.149	-75.412	-0.256	-0.091
-673.135	405.438	-0.057	0.119
-672.120	800.000	0.030	0.117
-671.105	-78.596	0.434	0.148
-670.091	-169.604	-0.448	0.016
-669.076	-200.000	0.054	-0.277
-668.062	800.000	0.075	0.264
-667.047	800.000	0.047	0.133
-666.032	333.132	0.079	-0.152
-665.018	418.440	0.038	0.081
-664.003	121.165	0.152	-0.189
-662.989	115.888	0.097	0.118
-661.974	311.329	-0.043	-0.081
-660.959	217.907	-0.267	-0.425
-659.945	-152.258	-0.153	0.011
-658.930	-97.689	0.498	-0.128
-657.916	-108.752	0.045	0.010
-656.901	800.000	0.020	-0.078
-655.886	38.261	-0.089	0.079
-654.872	-117.913	0.197	-0.035
-653.857	-200.000	0.001	-0.067
-652.843	796.082	-0.019	-0.051
-651.828	-69.592	-0.159	-0.061
-650.814	71.927	0.153	-0.158
-649.799	218.455	-0.061	-0.098
-648.784	169.323	-0.020	-0.028
-647.770	627.457	-0.045	-0.113
-646.755	-92.644	-0.354	0.099
-645.741	405.372	-0.287	-0.602
-644.726	-74.240	-0.151	0.054
-643.711	-65.083	-0.389	0.156
-642.697	800.000	0.093	0.267
-641.682	172.381	0.100	0.143
-640.668	-159.138	0.152	-0.009
-639.653	256.490	-0.125	0.214
-638.638	800.000	-0.138	-0.402
-637.624	269.929	0.108	-0.189
-636.609	-200.000	0.015	-0.097
-635.595	-98.583	-0.158	0.040
-634.580	-31.911	0.105	0.059
-633.565	-43.626	0.219	-0.110
-632.551	72.733	-0.221	0.229
-631.536	800.000	0.080	0.232
-630.522	-200.000	-0.001	-0.183
-629.507	-200.000	0.008	0.131
-628.492	-98.331	-0.182	-0.046
-627.478	-200.000	0.015	0.251
-626.463	126.093	-0.107	-0.135
-625.449	800.000	0.091	0.255
-624.434	-30.894	-0.065	0.036
-623.419	69.189	-0.322	-0.329
-622.405	-25.585	0.161	0.094
-621.390	-108.857	-0.339	0.072
-620.376	-182.473	-0.248	0.005
-619.361	800.000	0.130	-0.423
-618.346	42.319	-0.395	0.357
-617.332	236.829	0.203	-0.334
-616.317	53.450	-0.073	-0.070
-615.303	-122.687	-0.138	-0.022
-614.288	-37.896	-0.184	0.097
-613.273	648.316	0.019	0.049
-612.259	35.921	-0.224	-0.196
-611.244	800.000	-0.025	0.089
-610.230	748.800	-0.191	0.513
-609.215	800.000	0.112	0.369
-608.201	-6.048	0.106	-0.072
-607.186	800.000	0.129	-0.448
-606.171	-200.000	-0.023	-0.314
-605.157	-10.338	-0.031	-0.020
-604.142	-81.660	0.056	-0.018
-603.128	800.000	-0.186	-0.556
-602.113	84.722	-0.033	-0.036
-601.098	252.836	0.016	-0.027
-600.084	51.484	0.039	0.036
-599.069	-55.211	-0.152	-0.068
-598.055	800.000	0.049	-0.168
-597.040	-200.000	0.028	0.151
-596.025	182.575	-0.054	-0.079
-595.011	-175.694	0.196	0.005
-593.996	181.865	0.180	-0.263
-592.982	99.652	0.081	-0.093
-591.967	326.697	-0.065	-0.123
-590.952	227.876	-0.030	0.048
-589.938	-67.572	-0.208	0.081
-588.923	-200.000	0.004	-0.153
-587.909	-111.656	-0.146	0.029
-586.894	36.415	-0.129	-0.113
-585.879	800.000	-0.093	-0.271
-584.865	-200.000	-0.024	0.262
-583.850	211.753	-0.114	0.178
-582.836	-71.487	0.172	-0.064
-581.821	-50.254	-0.226	-0.106
-580.806	40.075	-0.278	-0.248
-579.792	-60.758	-0.288	0.121
-578.777	172.145	0.142	0.203
-577.763	-88.805	-0.075	0.022
-576.748	800.000	0.024	-0.078
-575.733	-200.000	0.004	-0.122
-574.719	153.506	-0.011	0.014
-573.704	31.439	-0.253	-0.216
-572.690	2.466	-0.298	-0.214
-571.675	-47.722	0.136	0.066
-570.661	125.808	0.122	-0.153
-569.646	89.505	0.116	-0.128
-568.631	-78.735	-0.239	-0.081
-567.617	-60.314	-0.028	-0.012
-566.602	111.893	-0.179	0.214
-565.588	-39.646	-0.117	0.060
-564.573	686.128	0.087	-0.226
-563.558	800.000	0.070	-0.228
-562.544	-178.394	-0.413	0.010
-561.529	-200.000	-0.004	0.205
-560.515	-122.755	0.180	-0.029
-559.500	-18.359	0.212	-0.132
-558.485	-200.000	0.004	-0.090
-557.471	-130.648	0.097	0.013
-556.456	476.035	-0.060	-0.135
-555.442	-155.580	-0.166	-0.011
-554.427	-200.000	-0.006	-0.209
-553.412	-200.000	-0.048	-0.348
-552.398	-68.279	-0.467	-0.180
-551.383	373.237	0.048	0.096
-550.369	-169.155	0.139	0.005
-549.354	238.863	-0.080	0.132
-548.339	-113.459	-0.177	-0.034
-547.325	293.037	-0.065	-0.118
-546.310	800.000	0.028	0.106
-545.296	385.280	0.126	-0.257
-544.281	140.470	-0.095	-0.125
-543.266	-194.004	-0.368	-0.003
-542.252	-78.977	0.090	-0.030
-541.237	252.857	-0.321	0.543
-540.223	-57.018	0.142	-0.062
-539.208	-200.000	-0.002	-0.066
-538.193	130.182	-0.278	-0.353
-537.179	-200.000	-0.050	0.261
-536.164	495.682	0.044	-0.101
-535.150	800.000	-0.114	-0.314
-534.135	-98.755	0.127	-0.032
-533.121	800.000	-0.062	-0.232
-532.106	-155.657	0.288	0.018
-531.091	-32.702	0.081	-0.044
-530.077	-149.301	0.305	-0.024
-529.062	-17.346	-0.183	0.114
-528.048	-168.297	-0.274	-0.010
-527.033	173.010	-0.031	0.044
-526.018	-200.000	0.011	0.277
-525.004	-109.410	0.227	-0.048
-523.989	800.000	-0.072	-0.236
-522.975	67.981	-0.055	-0.056
-521.960	145.492	-0.147	0.195
-520.945	-54.013	-0.188	0.085
-519.931	-200.000	0.008	0.200
-518.916	-200.000	0.093	-0.408
-517.902	-77.362	-0.126	-0.043
-516.887	643.299	-0.060	0.153
-515.872	86.280	0.039	-0.042
-514.858	723.991	-0.044	-0.116
-513.843	124.977	0.101	-0.126
-512.829	-200.000	-0.004	0.207
-511.814	784.528	0.136	0.368
-510.799	167.501	-0.168	0.236
-509.785	370.550	0.014	-0.028
-508.770	-200.000	0.058	-0.264
-507.756	800.000	-0.079	0.220
-506.741	100.747	0.181	-0.208
-505.726	222.994	0.191	-0.305
-504.712	800.000	-0.067	-0.222
-503.697	234.759	-0.094	-0.154
-502.683	72.930	0.362	-0.374
-501.668	-51.331	-0.209	0.097
-500.653	-106.096	-0.012	-0.003
-499.639	-200.000	0.017	0.188
-498.624	-114.929	0.170	0.032
-497.610	-200.000	0.008	0.305
-496.595	-113.637	-0.161	0.031
-495.581	-17.556	-0.119	0.074
-494.566	22.421	0.122	0.099
-493.551	-157.092	0.434	0.026
-492.537	159.443	0.166	0.228
-491.522	800.000	0.034	-0.098
-490.508	-112.174	-0.451	0.090
-489.493	-10.549	0.219	-0.143
-488.478	-200.000	0.005	-0.116
-487.464	-164.233	-0.106	-0.005
-486.449	-177.056	0.224	-0.006
-485.435	-39.847	-0.077	0.040
-484.420	29.260	0.123	0.103
-483.405	445.325	-0.089	0.193
-482.391	-99.642	-0.547	0.136
-481.376	-47.123	0.197	-0.095
-480.362	-31.317	-0.265	0.148
-479.347	800.000	-0.064	0.192
-478.332	-49.294	0.275	-0.130
-477.318	140.104	-0.031	0.040
-476.303	-174.618	0.246	0.007
-475.289	-200.000	0.008	-0.111
-474.274	-73.152	0.094	-0.034
-473.259	504.709	-0.178	0.408
-472.245	-54.960	0.146	-0.065
-471.230	760.550	0.087	0.233
-470.216	-121.866	0.281	-0.046
-469.201	-123.865	-0.046	-0.007
-468.186	54.667	-0.120	-0.114
-467.172	-200.000	0.008	-0.210
-466.157	-64.652	0.270	-0.108
-465.143	-34.640	-0.249	0.135
-464.128	-88.885	-0.184	-0.054
-463.113	-105.937	-0.391	-0.087
-462.099	-22.112	0.121	-0.073
-461.084	92.349	-0.032	-0.036
-460.070	-31.532	-0.228	0.126
-459.055	280.846	-0.098	0.172
-458.040	363.719	0.060	0.119
-457.026	83.302	0.125	-0.135
-456.011	-200.000	-0.019	-0.195
-454.997	-11.199	0.153	-0.099
-453.982	352.244	0.189	-0.369
-452.968	-30.688	0.063	-0.035
-451.953	-124.171	-0.181	-0.028
-450.938	0.198	0.190	0.134
-449.924	-11.073	0.267	-0.174
-448.909	34.631	0.162	0.139
-447.895	-200.000	0.046	0.332
-446.880	56.206	-0.031	0.029
-445.865	-200.000	0.006	-0.114
-444.851	-126.157	-0.270	0.040
-443.836	615.342	0.095	0.234
-442.822	-200.000	-0.024	0.130
-441.807	-200.000	0.016	0.198
-440.792	-117.864	-0.087	0.015
-439.778	670.260	0.112	0.287
-438.763	800.000	0.066	-0.211
-437.749	-178.047	0.156	0.004
-436.734	-73.050	-0.178	0.064
-435.719	330.389	-0.094	0.179
-434.705	-22.657	-0.171	-0.102
-433.690	-200.000	0.010	0.178
-432.676	106.330	-0.065	-0.076
-431.661	292.972	-0.168	-0.302
-430.646	-125.087	-0.103	0.016
-429.632	-200.000	0.022	0.282
-428.617	-200.000	-0.012	0.218
-427.603	-73.821	0.176	-0.063
-426.588	-123.467	0.163	0.026
-425.573	183.511	0.163	0.237
-424.559	492.854	-0.164	0.370
-423.544	23.862	-0.184	-0.150
-422.530	-144.150	0.179	-0.017
-421.515	202.046	-0.099	0.150
-420.500	-103.209	-0.077	-0.018
-419.486	634.053	0.152	-0.381
-418.471	147.064	0.188	0.250
-417.457	-200.000	0.014	0.268
-416.442	79.461	-0.055	0.058
-415.428	60.080	0.115	-0.112
-414.413	612.861	-0.110	0.271
-413.398	-99.880	0.533	-0.131
-412.384	-25.031	0.219	0.128
-411.369	-56.293	0.219	-0.096
-410.355	-200.000	0.032	0.167
-409.340	-200.000	-0.050	-0.224
-408.325	-200.000	0.038	-0.283
-407.311	310.365	0.110	-0.203
-406.296	-39.532	0.184	-0.095
-405.282	679.100	0.101	-0.258
-404.267	442.128	-0.052	-0.113
-403.252	338.480	-0.069	-0.132
-402.238	-128.552	0.276	-0.039
-401.223	-98.572	-0.202	-0.051
-400.209	-78.201	0.272	0.092
-399.194	-92.802	-0.268	-0.074
-398.179	-200.000	0.007	0.108
-397.165	23.317	0.146	-0.118
-396.150	-145.258	-0.180	0.016
-395.136	-62.097	-0.213	0.088
-394.121	133.364	0.110	0.140
-393.106	44.995	0.376	0.341
-392.092	715.363	0.057	0.148
-391.077	-133.183	0.179	-0.022
-390.063	143.401	-0.098	-0.128
-389.048	32.396	-0.046	0.039
-388.033	800.000	0.090	0.354
-387.019	-21.397	0.246	-0.148
-386.004	-60.053	0.414	0.174
-384.990	-167.983	0.198	-0.008
-383.975	88.068	0.073	0.080
-382.960	-171.457	0.301	0.010
-381.946	-28.411	-0.055	0.031
-380.931	12.346	0.323	0.245
-379.917	-200.000	-0.006	0.133
-378.902	-63.827	-0.347	-0.140
-377.888	198.124	-0.136	0.205
-376.873	620.274	-0.062	0.153
-375.858	-63.231	0.095	-0.039
-374.844	186.321	-0.150	0.219
-373.829	-140.075	0.150	-0.016
-372.815	-18.062	0.245	-0.151
-371.800	-55.276	-0.470	-0.208
-370.785	800.000	0.052	0.201
-369.771	83.786	-0.219	-0.235
-368.756	-10.290	0.149	0.097
-367.742	800.000	0.092	-0.370
-366.727	-200.000	-0.033	0.222
-365.712	126.137	0.067	0.083
-364.698	-200.000	0.009	-0.197
-363.683	-56.981	0.349	-0.151
-362.669	193.986	-0.116	0.173
-361.654	-152.740	-0.346	0.024
-360.639	118.998	0.159	0.194
-359.625	-89.647	0.079	-0.023
-358.610	-200.000	-0.046	-0.296
-357.596	800.000	0.038	-0.109
-356.581	-200.000	0.000	0.176
-355.566	284.000	-0.074	0.131
-354.552	-131.552	0.178	0.023
-353.537	-200.000	0.066	-0.367
-352.523	249.758	0.179	0.298
-351.508	310.845	-0.031	0.056
-350.493	-71.437	0.190	0.070
-349.479	800.000	0.079	-0.330
-348.464	173.416	-0.201	-0.285
-347.450	1.142	0.254	0.179
-346.435	372.863	0.115	-0.229
-345.420	800.000	0.085	0.288
-344.406	800.000	0.024	0.089
-343.391	0.554	-0.014	-0.010
-342.377	-78.186	0.127	-0.043
-341.362	18.715	-0.429	0.337
-340.348	7.681	-0.296	0.218
-339.333	800.000	-0.052	0.145
-338.318	9.596	0.202	0.151
-337.304	-64.333	-0.119	0.048
-336.289	-147.020	0.100	0.008
-335.275	283.587	-0.140	-0.246
-334.260	1.179	-0.009	-0.006
-333.245	-43.042	-0.333	-0.166
-332.231	-123.408	0.037	-0.006
-331.216	85.147	-0.079	0.085
-330.202	-58.109	-0.147	0.063
-329.187	-200.000	-0.030	0.385
-328.172	800.000	-0.049	0.192
-327.158	22.655	0.154	-0.124
-326.143	-115.183	0.083	0.016
-325.129	2.332	-0.312	0.222
-324.114	462.730	-0.012	0.026
-323.099	-118.021	0.197	-0.035
-322.085	36.940	-0.294	0.255
-321.070	462.477	-0.058	0.128
-320.056	-200.000	0.018	-0.180
-319.041	-81.558	-0.193	-0.062
-318.026	325.806	-0.123	0.232
-317.012	33.906	-0.199	-0.170
-315.997	35.768	-0.296	0.255
-314.983	-147.424	-0.133	-0.011
-313.968	151.343	-0.080	0.107
-312.953	495.265	0.069	-0.157
-311.939	-6.806	-0.146	-0.097
-310.924	-57.216	0.310	-0.134
-309.910	-32.307	-0.104	0.057
-308.895	125.592	0.178	0.220
-307.880	-200.000	0.051	-0.268
-306.866	229.919	-0.139	-0.224
-305.851	86.457	-0.261	-0.283
-304.837	-162.362	0.150	0.007
-303.822	-47.027	-0.250	0.120
-302.807	-132.692	-0.227	0.029
-301.793	-109.264	-0.367	0.076
-300.778	-80.701	0.204	0.067
-299.764	-33.339	-0.340	-0.185
-298.749	465.296	-0.158	-0.347
-297.735	-200.000	0.326	-0.001
-296.720	-149.775	0.205	0.016
-295.705	106.617	0.172	-0.200
-294.691	220.522	-0.043	-0.067
-293.676	6.634	0.168	-0.123
-292.662	-100.201	0.260	-0.063
-291.647	129.405	-0.138	0.173
-290.632	246.460	0.134	0.221
-289.618	800.000	-0.131	0.355
-288.603	43.456	0.481	-0.431
-287.589	-99.169	-0.176	-0.044
-286.574	-67.140	0.132	0.051
-285.559	294.857	-0.008	0.014
-284.545	-200.000	-0.008	0.219
-283.530	32.243	-0.283	-0.239
-282.516	214.439	0.099	0.153
-281.501	114.721	0.130	0.155
-280.486	173.038	0.054	-0.077
-279.472	-200.000	-0.010	0.204
-278.457	151.692	-0.164	-0.220
-277.443	-175.142	0.111	-0.003
-276.428	-26.614	-0.245	0.141
-275.413	-124.632	0.226	0.034
-274.399	57.313	0.050	-0.048
-273.384	-75.985	0.153	0.053
-272.370	-103.097	0.474	0.110
-271.355	-200.000	0.002	-0.044
-270.340	487.690	-0.098	0.220
-269.326	-108.827	0.431	0.090
-268.311	-30.942	-0.332	0.184
-267.297	-200.000	0.001	0.100
-266.282	-140.019	0.221	-0.023
-265.267	99.505	0.116	-0.132
-264.253	-104.164	0.312	-0.071
-263.238	87.073	0.158	0.171
-262.224	419.358	0.072	0.151
-261.209	800.000	0.076	0.231
-260.195	24.279	-0.266	-0.216
-259.180	26.379	0.179	0.147
-258.165	178.557	-0.070	0.100
-257.151	463.486	-0.029	-0.064
-256.136	-109.386	0.188	0.039
-255.122	1.535	-0.049	-0.034
-254.107	-35.780	0.137	0.073
-253.092	97.449	0.295	0.331
-252.078	176.766	-0.148	0.211
-251.063	203.863	0.138	-0.209
-250.049	53.015	0.129	-0.121
-249.034	752.800	0.040	0.106
-248.019	-17.841	0.388	0.238
-247.005	-51.727	-0.104	0.048
-245.990	179.551	-0.005	0.007
-244.976	-78.646	0.214	0.072
-243.961	-45.102	-0.132	0.064
-242.946	339.074	-0.074	-0.140
-241.932	92.255	-0.048	-0.053
-240.917	33.376	0.234	-0.199
-239.903	-118.054	0.287	0.050
-238.888	-35.422	0.381	-0.203
-237.873	150.563	0.158	-0.210
-236.859	-200.000	0.398	-0.001
-235.844	213.447	0.027	-0.042
-234.830	-181.557	-0.441	0.008
-233.815	-49.576	-0.031	0.014
-232.800	114.024	-0.181	0.216
-231.786	-62.958	0.136	-0.055
-230.771	46.951	-0.206	0.187
-229.757	3.337	0.129	0.092
-228.742	221.877	-0.139	0.219
-227.727	-200.000	0.013	0.128
-226.713	-107.897	-0.178	-0.038
-225.698	800.000	0.135	-0.416
-224.684	-43.746	0.095	0.047
-223.669	-142.994	0.433	0.041
-222.655	-133.144	-0.236	-0.029
-221.640	-200.000	-0.001	0.127
-220.625	-39.953	-0.185	-0.094
-219.611	-35.252	0.042	-0.022
-218.596	-37.975	0.160	-0.083
-217.582	800.000	-0.082	-0.338
-216.567	-103.213	0.035	0.008
-215.552	-200.000	0.025	-0.429
-214.538	800.000	0.058	-0.207
-213.523	531.627	-0.072	0.167
-212.509	-6.156	-0.165	0.110
-211.494	322.787	0.151	0.281
-210.479	800.000	0.109	0.344
-209.465	800.000	-0.060	0.256
-208.450	-84.615	0.073	-0.023
-207.436	800.000	-0.058	-0.216
-206.421	-200.000	0.035	0.245
-205.406	-122.303	-0.165	0.026
-204.392	-151.095	0.184	-0.014
-203.377	5.589	-0.162	-0.117
-202.363	-27.126	-0.030	0.017
-201.348	118.717	-0.159	-0.192
-200.333	-139.376	0.191	-0.020
-199.319	800.000	0.065	-0.234
-198.304	115.385	-0.095	0.113
-197.290	800.000	0.067	0.190
-196.275	-7.086	0.200	-0.133
-195.260	141.368	-0.260	0.337
-194.246	-26.685	0.157	0.090
-193.231	127.986	0.055	-0.069
-192.217	800.000	-0.047	-0.141
-191.202	-13.898	0.177	-0.112
-190.187	3.514	-0.237	-0.169
-189.173	-12.644	-0.280	0.179
-188.158	-141.563	0.200	0.020
-187.144	427.002	0.072	0.152
-186.129	3.485	0.199	-0.142
-185.114	-32.730	-0.261	0.142
-184.100	-113.765	-0.285	0.054
-183.085	800.000	-0.046	-0.166
-182.071	53.307	0.074	0.069
-181.056	-109.552	0.430	0.089
-180.042	167.953	-0.177	-0.245
-179.027	-95.968	0.241	0.063
-178.012	-200.000	-0.029	0.170
-176.998	-26.010	-0.146	0.084
-175.983	438.849	-0.133	-0.284
-174.969	745.630	0.074	0.194
-173.954	50.753	0.018	-0.016
-172.939	-200.000	0.026	0.241
-171.925	-39.874	0.303	-0.155
-170.910	-94.985	0.326	0.086
-169.896	-200.000	-0.035	-0.211
-168.881	-48.540	0.228	0.107
-167.866	-200.000	-0.012	0.136
-166.852	154.017	-0.157	-0.210
-165.837	-34.075	0.173	0.093
-164.823	-179.074	-0.395	0.009
-163.808	-38.445	-0.182	-0.094
-162.793	-123.852	-0.177	-0.027
-161.779	68.379	0.176	0.176
-160.764	578.688	0.118	-0.282
-159.750	800.000	-0.121	-0.341
-158.735	-200.000	0.061	-0.277
-157.720	55.248	-0.287	0.271
-156.706	15.305	-0.237	0.181
-155.691	-119.870	0.511	0.086
-154.677	-145.662	0.365	0.032
-153.662	285.354	-0.071	-0.125
-152.647	-25.130	-0.440	-0.254
-151.633	800.000	-0.041	-0.127
-150.618	472.362	0.024	-0.054
-149.604	4.317	-0.317	0.226
-148.589	77.467	-0.174	-0.181
-147.574	-200.000	0.013	0.270
-146.560	272.447	0.006	0.011
-145.545	-140.735	0.083	-0.008
-144.531	800.000	0.026	0.081
-143.516	-200.000	-0.000	-0.175
-142.502	26.715	-0.262	0.214
-141.487	-48.131	-0.116	0.055
-140.472	-200.000	0.032	-0.172
-139.458	301.724	0.123	0.222
-138.443	-81.120	-0.135	0.044
-137.429	157.886	0.192	0.260
-136.414	-7.350	0.155	-0.102
-135.399	-200.000	0.045	0.267
-134.385	483.914	0.045	-0.100
-133.370	-200.000	0.008	0.100
-132.356	800.000	-0.050	0.185
-131.341	157.728	-0.208	0.281
-130.326	-24.553	-0.137	-0.079
-129.312	18.286	0.187	-0.146
-128.297	-79.564	0.080	0.026
-127.283	800.000	-0.087	0.331
-126.268	16.733	0.476	-0.367
-125.253	800.000	-0.052	0.219
-124.239	81.488	0.216	0.227
-123.224	320.774	0.028	-0.053
-122.210	-200.000	0.071	-0.350
-121.195	-51.001	0.066	0.030
-120.180	-200.000	0.012	0.079
