DTS Sentinel unit serial number:	SN413079Multiplexer serial number:	ORYXHardware model number:	OX4-SRSoftware version number:	ORYX F/W v4.00 Oryx Data Collector v3.7.2.0data status	okinstallation	princeton_trtdifferential loss correction	single-endedforward channel	channel 2reverse channel	N/Adate	2019/09/13time	08:39:34forward acquisition time	60.00reverse acquisition time	0.00gamma	496.2192k internal	0.2332k external	0.2332temperature offset calibration	1.0192default loss term (dB/km)	0.3790temperature slope calibration	1.0000multiplexer offset coefficient	1.0000multiplexer slope coefficient	1.0000fibre end	0.00T internal ref (°C)	27.75T ext. ref 1 (°C)	4.29T ext. ref 2 (°C)	24.71length (m)	temperature (°C)	Stokes	anti-Stokes-747.200	-93.814	0.275	0.076
-746.185	800.000	-0.050	0.146
-745.171	336.664	0.086	0.168
-744.156	38.729	0.223	0.200
-743.142	800.000	-0.005	-0.017
-742.127	-113.086	-0.204	0.041
-741.112	-73.978	0.187	0.068
-740.098	29.968	-0.226	0.194
-739.083	-200.000	-0.022	0.162
-738.069	-56.856	0.052	0.023
-737.054	93.183	-0.096	0.109
-736.039	203.924	-0.174	0.271
-735.025	480.748	0.149	0.340
-734.010	-22.799	-0.353	-0.215
-732.996	-26.679	0.123	0.072
-731.981	705.291	0.052	0.139
-730.966	-189.610	-0.215	-0.002
-729.952	-200.000	-0.073	-0.334
-728.937	-200.000	-0.101	-0.473
-727.923	119.507	-0.340	0.423
-726.908	46.878	-0.120	-0.112
-725.894	-200.000	-0.010	-0.262
-724.879	-113.981	0.207	-0.040
-723.864	-132.917	-0.300	-0.038
-722.850	66.939	0.217	-0.223
-721.835	-25.268	-0.234	-0.139
-720.821	116.367	-0.041	-0.050
-719.806	507.432	0.055	-0.129
-718.791	-156.768	0.194	0.012
-717.777	-20.879	0.403	-0.248
-716.762	-80.271	-0.051	0.017
-715.748	382.387	-0.058	-0.120
-714.733	-139.472	-0.151	-0.016
-713.718	487.050	0.130	0.299
-712.704	800.000	0.113	-0.374
-711.689	800.000	0.070	-0.221
-710.675	-140.432	-0.197	-0.021
-709.660	-84.927	-0.138	0.043
-708.645	-182.835	-0.133	0.002
-707.631	496.638	-0.056	-0.129
-706.616	-95.642	0.224	-0.060
-705.602	26.114	-0.325	0.272
-704.587	-94.418	0.211	0.058
-703.572	0.032	0.107	-0.076
-702.558	142.636	-0.092	0.123
-701.543	800.000	-0.051	-0.172
-700.529	49.130	-0.109	0.103
-699.514	560.541	0.130	0.314
-698.499	-200.000	-0.035	0.317
-697.485	-200.000	-0.009	-0.150
-696.470	69.579	0.083	0.086
-695.456	-200.000	-0.044	-0.221
-694.441	238.050	0.059	-0.099
-693.426	38.671	0.079	-0.071
-692.412	371.267	0.085	0.173
-691.397	-51.951	-0.171	0.080
-690.383	800.000	-0.039	0.155
-689.368	800.000	-0.059	-0.178
-688.354	298.317	-0.134	0.247
-687.339	-200.000	-0.023	-0.181
-686.324	2.402	-0.128	0.093
-685.310	-49.484	0.109	0.052
-684.295	-200.000	-0.040	-0.251
-683.281	-61.439	0.090	0.038
-682.266	-200.000	0.040	0.220
-681.251	-5.152	-0.274	-0.189
-680.237	-147.147	-0.103	-0.009
-679.222	18.776	-0.409	0.328
-678.208	772.456	-0.095	0.259
-677.193	-200.000	-0.502	-0.001
-676.178	800.000	-0.155	-0.484
-675.164	38.782	-0.170	-0.152
-674.149	50.668	0.138	0.131
-673.135	715.594	-0.094	0.249
-672.120	-94.010	-0.167	-0.046
-671.105	389.559	-0.147	-0.305
-670.091	-108.071	0.133	-0.029
-669.076	-200.000	0.068	-0.300
-668.062	-85.855	-0.563	-0.175
-667.047	-60.346	-0.199	0.085
-666.032	48.822	0.040	0.038
-665.018	43.635	0.073	0.067
-664.003	-81.641	0.102	0.034
-662.989	9.567	-0.215	0.164
-661.974	79.996	0.119	-0.129
-660.959	-112.329	-0.064	0.013
-659.945	-119.969	-0.126	-0.022
-658.930	-200.000	0.035	-0.231
-657.916	-194.819	0.176	0.001
-656.901	583.413	0.071	-0.174
-655.886	-200.000	-0.010	0.162
-654.872	-200.000	0.015	0.199
-653.857	-6.459	0.128	-0.088
-652.843	800.000	0.030	-0.114
-651.828	-200.000	0.011	0.345
-650.814	-39.904	-0.272	0.142
-649.799	-113.629	-0.199	0.039
-648.784	0.032	-0.108	-0.077
-647.770	5.985	0.039	-0.029
-646.755	-200.000	0.053	0.236
-645.741	287.755	0.059	0.106
-644.726	199.935	-0.203	0.313
-643.711	158.260	0.141	0.196
-642.697	-13.429	-0.118	-0.077
-641.682	-42.972	-0.413	0.210
-640.668	-17.205	-0.233	0.147
-639.653	-141.562	-0.376	0.038
-638.638	203.753	0.035	0.055
-637.624	144.913	0.114	-0.153
-636.609	19.116	-0.199	-0.160
-635.595	54.269	0.091	0.087
-634.580	-37.558	0.264	0.141
-633.565	105.638	-0.143	-0.170
-632.551	-124.172	0.276	0.043
-631.536	-200.000	0.013	-0.404
-630.522	-21.502	0.136	-0.083
-629.507	-200.000	0.020	0.383
-628.492	19.593	-0.140	0.113
-627.478	-148.232	0.150	-0.012
-626.463	-93.919	-0.117	-0.032
-625.449	308.435	-0.040	0.075
-624.434	640.016	-0.067	-0.171
-623.419	45.062	0.179	0.165
-622.405	102.881	0.079	-0.092
-621.390	202.548	-0.082	-0.126
-620.376	-51.512	0.098	-0.046
-619.361	700.672	-0.108	-0.284
-618.346	342.152	0.037	0.073
-617.332	-200.000	0.045	-0.201
-616.317	800.000	-0.115	0.364
-615.303	-109.009	0.106	-0.023
-614.288	117.088	-0.201	-0.247
-613.273	291.500	0.032	0.059
-612.259	-51.456	0.151	-0.071
-611.244	120.097	-0.087	0.109
-610.230	800.000	-0.059	0.184
-609.215	-200.000	-0.037	-0.213
-608.201	-48.685	0.099	0.048
-607.186	-200.000	-0.034	0.167
-606.171	-200.000	-0.022	0.219
-605.157	-64.218	-0.466	-0.190
-604.142	77.111	0.197	0.209
-603.128	471.304	-0.154	-0.346
-602.113	-79.951	-0.237	0.080
-601.098	45.956	-0.257	-0.238
-600.084	800.000	0.123	-0.348
-599.069	48.614	-0.064	-0.060
-598.055	800.000	0.022	0.088
-597.040	209.225	-0.097	0.152
-596.025	31.344	0.095	0.082
-595.011	294.480	-0.121	0.221
-593.996	21.039	0.059	-0.048
-592.982	-200.000	-0.034	-0.247
-591.967	-3.821	0.206	0.143
-590.952	-68.364	0.154	-0.060
-589.938	174.136	-0.064	-0.093
-588.923	331.788	-0.035	-0.068
-587.909	-106.777	0.179	0.040
-586.894	345.519	-0.120	-0.235
-585.879	-60.579	0.208	-0.088
-584.865	634.084	-0.043	0.109
-583.850	-9.417	0.107	-0.071
-582.836	25.363	0.092	0.076
-581.821	-95.948	-0.224	0.060
-580.806	-49.407	0.063	0.030
-579.792	342.674	0.029	0.057
-578.777	8.993	-0.306	-0.231
-577.763	113.098	0.140	-0.169
-576.748	-200.000	-0.023	0.326
-575.733	-120.965	-0.232	0.039
-574.719	703.311	-0.157	-0.415
-573.704	1.125	-0.221	0.159
-572.690	-103.197	-0.322	0.076
-571.675	-119.161	-0.044	-0.008
-570.661	-30.863	0.088	-0.049
-569.646	-108.704	0.203	0.043
-568.631	-200.000	0.008	0.286
-567.617	-151.784	0.314	-0.023
-566.602	-166.430	0.295	0.012
-565.588	-124.019	0.142	-0.022
-564.573	-69.171	-0.417	0.160
-563.558	-106.444	-0.320	0.071
-562.544	0.170	0.218	-0.155
-561.529	10.243	0.156	-0.119
-560.515	-13.340	0.042	-0.027
-559.500	-153.678	-0.424	0.029
-558.485	121.211	0.125	0.155
-557.471	194.004	0.042	0.063
-556.456	-200.000	0.019	0.300
-555.442	13.465	0.440	0.341
-554.427	-140.985	-0.184	-0.019
-553.412	213.066	-0.169	-0.266
-552.398	800.000	-0.033	0.125
-551.383	-123.918	0.137	0.022
-550.369	-197.582	0.222	0.001
-549.354	7.130	0.146	0.109
-548.339	-63.695	0.140	-0.057
-547.325	464.201	-0.127	-0.283
-546.310	-121.747	-0.212	0.035
-545.296	800.000	-0.046	0.129
-544.281	-64.906	-0.243	-0.098
-543.266	-65.667	-0.364	-0.146
-542.252	-43.951	0.182	0.092
-541.237	-160.753	-0.217	0.011
-540.223	-137.462	0.199	0.022
-539.208	188.368	-0.099	0.148
-538.193	-123.732	-0.395	-0.062
-537.179	190.774	-0.088	0.132
-536.164	-200.000	-0.006	-0.305
-535.150	800.000	-0.029	-0.121
-534.135	-48.751	-0.110	0.053
-533.121	-182.872	0.161	-0.003
-532.106	136.996	0.195	-0.254
-531.091	149.741	-0.132	-0.178
-530.077	-74.539	0.362	-0.130
-529.062	-66.042	-0.148	-0.059
-528.048	48.223	-0.173	-0.161
-527.033	800.000	0.052	-0.177
-526.018	-200.000	-0.041	-0.197
-525.004	394.722	0.029	-0.060
-523.989	-120.582	-0.142	0.024
-522.975	-151.151	0.302	-0.023
-521.960	191.943	0.071	-0.106
-520.945	-180.022	-0.080	-0.002
-519.931	72.712	-0.089	0.093
-518.916	40.285	0.057	-0.051
-517.902	-200.000	-0.004	-0.027
-516.887	289.937	0.075	0.136
-515.872	86.885	-0.208	0.229
-514.858	691.805	0.012	-0.033
-513.843	7.638	-0.109	0.081
-512.829	81.532	-0.094	0.102
-511.814	-200.000	0.006	-0.148
-510.799	14.627	0.180	0.140
-509.785	-34.540	0.148	0.081
-508.770	-15.658	0.202	0.128
-507.756	130.950	0.088	-0.112
-506.741	-99.124	-0.236	0.060
-505.726	-6.169	0.019	0.013
-504.712	96.941	-0.128	0.146
-503.697	-91.772	0.062	0.018
-502.683	-24.327	-0.089	0.053
-501.668	-200.000	-0.004	0.154
-500.653	437.360	0.020	0.044
-499.639	-41.019	-0.279	-0.144
-498.624	104.646	0.094	0.111
-497.610	-27.847	0.178	-0.103
-496.595	-23.481	0.363	-0.217
-495.581	-54.378	0.082	-0.037
-494.566	594.639	-0.047	-0.115
-493.551	-90.527	0.352	-0.102
-492.537	587.949	-0.070	-0.172
-491.522	-10.181	0.225	0.149
-490.508	-86.232	-0.227	-0.070
-489.493	-77.674	0.145	-0.050
-488.478	-200.000	-0.040	-0.209
-487.464	14.228	0.039	0.030
-486.449	-25.005	0.068	0.040
-485.435	-40.602	0.263	-0.136
-484.420	580.999	-0.122	-0.297
-483.405	-200.000	-0.014	-0.223
-482.391	800.000	0.024	0.080
-481.376	12.519	-0.032	0.024
-480.362	210.463	0.099	0.155
-479.347	-200.000	-0.084	0.543
-478.332	-200.000	0.012	0.084
-477.318	800.000	0.095	-0.265
-476.303	277.071	-0.114	-0.201
-475.289	-70.378	0.075	-0.028
-474.274	800.000	0.015	-0.060
-473.259	-61.099	-0.218	0.092
-472.245	800.000	0.061	0.241
-471.230	39.552	0.248	0.222
-470.216	800.000	0.116	0.345
-469.201	-53.570	0.156	-0.071
-468.186	-120.214	-0.331	0.056
-467.172	6.014	-0.250	-0.185
-466.157	-118.554	0.233	-0.041
-465.143	581.048	-0.036	0.088
-464.128	584.203	-0.059	0.144
-463.113	601.792	0.051	0.127
-462.099	-200.000	-0.048	0.224
-461.084	251.961	0.047	0.079
-460.070	800.000	0.078	0.314
-459.055	-183.150	0.285	-0.005
-458.040	-70.441	0.171	0.064
-457.026	-63.780	0.256	-0.104
-456.011	38.059	0.232	-0.205
-454.997	-43.917	0.110	0.055
-453.982	-29.639	0.339	-0.192
-452.968	30.185	-0.135	0.115
-451.953	-133.300	0.060	0.007
-450.938	155.777	0.055	-0.075
-449.924	800.000	0.118	-0.369
-448.909	-158.038	0.126	-0.007
-447.895	124.070	-0.199	0.248
-446.880	-200.000	-0.033	-0.146
-445.865	117.264	-0.073	-0.089
-444.851	346.989	0.084	-0.165
-443.836	219.661	-0.114	0.181
-442.822	30.456	-0.081	-0.069
-441.807	-200.000	-0.068	0.321
-440.792	102.494	0.163	0.189
-439.778	800.000	-0.053	-0.163
-438.763	-115.913	0.230	-0.043
-437.749	211.700	-0.248	-0.388
-436.734	-36.634	0.323	-0.173
-435.719	-136.918	-0.295	-0.034
-434.705	115.420	0.121	-0.147
-433.690	-200.000	0.039	-0.208
-432.676	-200.000	-0.031	-0.137
-431.661	-101.880	-0.359	0.086
-430.646	-83.088	-0.148	0.047
-429.632	-112.222	-0.351	0.070
-428.617	351.035	0.048	0.094
-427.603	-4.865	0.026	0.018
-426.588	626.598	0.056	0.140
-425.573	8.721	-0.120	0.090
-424.559	-58.961	-0.033	-0.014
-423.544	-36.546	-0.379	-0.202
-422.530	-106.824	0.054	0.012
-421.515	83.672	0.125	-0.136
-420.500	-120.536	0.179	0.030
-419.486	800.000	0.061	0.261
-418.471	374.405	0.126	0.255
-417.457	-200.000	-0.042	-0.222
-416.442	-200.000	-0.020	0.135
-415.428	53.542	-0.161	0.153
-414.413	-200.000	-0.015	0.092
-413.398	30.973	0.152	-0.129
-412.384	131.586	-0.270	-0.344
-411.369	-137.627	-0.180	-0.020
-410.355	-0.137	0.138	-0.097
-409.340	-125.993	-0.408	0.061
-408.325	-42.731	0.173	-0.087
-407.311	91.759	0.076	-0.084
-406.296	-200.000	0.007	0.447
-405.282	-79.999	0.200	-0.067
-404.267	-200.000	-0.004	-0.210
-403.252	13.039	-0.184	0.141
-402.238	265.371	0.044	0.076
-401.223	572.083	-0.020	-0.048
-400.209	-132.778	-0.155	0.020
-399.194	-43.978	0.312	0.155
-398.179	-50.629	-0.211	-0.099
-397.165	268.779	0.145	0.252
-396.150	611.570	-0.225	0.558
-395.136	-142.908	-0.093	-0.009
-394.121	-11.803	-0.210	-0.137
-393.106	-200.000	-0.005	-0.162
-392.092	132.844	-0.131	-0.168
-391.077	109.513	-0.047	0.056
-390.063	88.382	0.097	-0.107
-389.048	26.686	-0.314	0.261
-388.033	618.096	-0.054	0.135
-387.019	-200.000	-0.005	-0.034
-386.004	137.106	0.296	0.383
-384.990	49.091	-0.060	-0.056
-383.975	-180.671	-0.276	-0.006
-382.960	145.197	0.148	-0.196
-381.946	-74.729	-0.340	-0.121
-380.931	-2.900	0.308	0.213
-379.917	-175.228	-0.148	0.004
-378.902	-200.000	0.054	-0.259
-377.888	-200.000	0.032	-0.422
-376.873	-53.110	0.214	-0.097
-375.858	8.453	0.198	-0.148
-374.844	-42.995	0.247	-0.124
-373.829	800.000	-0.038	0.136
-372.815	175.668	-0.281	-0.404
-371.800	309.498	-0.117	-0.217
-370.785	48.563	0.180	-0.168
-369.771	-139.714	0.394	0.042
-368.756	79.280	-0.179	0.191
-367.742	-15.967	0.333	-0.210
-366.727	-147.703	0.163	-0.014
-365.712	-119.818	0.301	0.051
-364.698	-105.177	-0.280	0.063
-363.683	500.174	0.091	0.207
-362.669	-83.055	0.333	0.106
-361.654	0.678	0.186	0.132
-360.639	-85.445	0.234	0.072
-359.625	-149.584	0.677	0.053
-358.610	-54.699	-0.294	-0.132
-357.596	444.449	0.128	-0.279
-356.581	-72.514	-0.344	-0.126
-355.566	-200.000	0.062	0.346
-354.552	-55.748	-0.112	-0.049
-353.537	23.737	0.172	-0.140
-352.523	198.507	-0.138	0.209
-351.508	63.485	-0.233	0.231
-350.493	-24.602	0.057	0.034
-349.479	-142.776	0.211	0.020
-348.464	800.000	0.099	0.351
-347.450	-67.489	-0.279	-0.109
-346.435	-102.534	0.297	0.070
-345.420	-26.773	0.259	0.150
-344.406	117.608	0.317	-0.386
-343.391	-58.993	-0.227	-0.097
-342.377	-200.000	-0.017	-0.313
-341.362	-84.010	-0.230	-0.072
-340.348	-99.369	0.190	-0.048
-339.333	297.889	-0.188	0.343
-338.318	-147.048	-0.193	-0.016
-337.304	-12.025	0.179	0.116
-336.289	-143.367	0.045	0.004
-335.275	-53.671	0.041	-0.019
-334.260	680.161	0.085	0.220
-333.245	800.000	-0.072	-0.224
-332.231	-200.000	-0.021	0.198
-331.216	-30.873	-0.117	-0.066
-330.202	800.000	-0.066	-0.239
-329.187	-15.869	-0.098	0.062
-328.172	31.491	0.122	-0.103
-327.158	24.192	0.130	-0.106
-326.143	71.980	-0.063	0.065
-325.129	-134.761	-0.104	0.012
-324.114	81.322	0.299	0.320
-323.099	89.543	0.092	0.101
-322.085	-90.831	-0.157	-0.045
-321.070	-68.992	-0.301	0.115
-320.056	309.104	0.197	0.365
-319.041	-125.365	0.230	-0.035
-318.026	-117.421	-0.233	0.042
-317.012	433.187	0.059	-0.127
-315.997	109.621	0.095	0.112
-314.983	450.986	-0.129	0.282
-313.968	800.000	-0.070	-0.289
-312.953	800.000	-0.052	-0.157
-311.939	-200.000	-0.013	-0.128
-310.924	258.956	-0.122	0.208
-309.910	800.000	0.059	0.191
-308.895	-54.157	-0.379	0.170
-307.880	450.586	0.097	0.212
-306.866	73.592	0.154	0.160
-305.851	-200.000	-0.043	-0.312
-304.837	-179.804	0.159	-0.003
-303.822	-122.288	-0.255	-0.041
-302.807	-200.000	-0.089	-0.458
-301.793	-159.473	0.246	-0.014
-300.778	49.234	-0.254	-0.236
-299.764	-46.981	-0.224	-0.108
-298.749	-136.823	0.246	-0.028
-297.735	322.296	0.101	-0.191
-296.720	-116.299	-0.278	-0.051
-295.705	171.963	-0.233	-0.330
-294.691	800.000	0.117	0.457
-293.676	-200.000	0.004	0.276
-292.662	800.000	0.052	0.216
-291.647	-200.000	0.017	0.319
-290.632	-31.950	0.311	-0.172
-289.618	-200.000	0.001	-0.135
-288.603	-200.000	-0.003	0.271
-287.589	58.198	-0.199	-0.193
-286.574	138.267	-0.074	-0.096
-285.559	-100.504	0.147	-0.036
-284.545	114.447	-0.089	-0.107
-283.530	-163.122	0.170	-0.008
-282.516	-200.000	0.010	-0.044
-281.501	76.733	0.079	0.083
-280.486	-200.000	-0.035	-0.285
-279.472	697.853	-0.026	-0.066
-278.457	-71.977	-0.247	0.091
-277.443	0.134	-0.124	0.087
-276.428	28.824	0.232	0.194
-275.413	-71.096	0.345	-0.128
-274.399	13.717	-0.078	-0.060
-273.384	-24.724	0.309	-0.181
-272.370	158.575	-0.224	0.308
-271.355	-200.000	0.026	-0.182
-270.340	-132.732	0.273	-0.035
-269.326	-83.143	-0.168	0.053
-268.311	33.698	-0.218	0.187
-267.297	-200.000	-0.030	-0.173
-266.282	-23.206	-0.072	0.043
-265.267	62.862	-0.054	0.053
-264.253	725.136	0.128	-0.336
-263.238	133.420	0.323	-0.412
-262.224	-13.213	-0.373	0.239
-261.209	1.668	0.040	0.028
-260.195	-74.155	0.108	-0.039
-259.180	-125.952	0.248	0.037
-258.165	800.000	0.033	0.101
-257.151	645.172	-0.032	-0.080
-256.136	52.185	-0.057	0.053
-255.122	170.959	-0.154	-0.218
-254.107	108.667	-0.328	0.387
-253.092	-200.000	-0.007	0.281
-252.078	-200.000	0.029	0.510
-251.063	252.858	0.113	-0.189
-250.049	-200.000	-0.006	-0.088
-249.034	394.156	-0.080	-0.164
-248.019	64.661	0.128	-0.127
-247.005	102.760	-0.188	-0.218
-245.990	-21.675	-0.203	0.122
-244.976	-65.194	0.029	0.011
-243.961	800.000	0.115	-0.374
-242.946	-71.116	0.230	0.085
-241.932	152.207	-0.282	0.379
-240.917	-200.000	0.019	0.297
-239.903	800.000	-0.069	0.192
-238.888	174.812	0.171	0.244
-237.873	800.000	0.060	0.224
-236.859	-143.095	-0.192	0.018
-235.844	238.767	-0.101	-0.166
-234.830	114.291	-0.051	-0.062
-233.815	160.926	-0.152	-0.209
-232.800	-200.000	-0.038	-0.175
-231.786	-200.000	0.009	-0.122
-230.771	-200.000	-0.036	0.206
-229.757	-200.000	0.004	0.153
-228.742	-200.000	0.032	0.167
-227.727	14.869	-0.388	-0.299
-226.713	-105.394	-0.266	0.060
-225.698	97.654	0.107	0.121
-224.684	800.000	-0.106	-0.299
-223.669	83.451	-0.154	-0.166
-222.655	-66.443	0.296	-0.116
-221.640	800.000	0.055	-0.181
-220.625	225.560	-0.200	0.319
-219.611	-95.269	-0.320	0.085
-218.596	-200.000	0.021	0.109
-217.582	41.718	0.148	0.132
-216.567	416.428	0.070	0.148
-215.552	-149.931	0.354	-0.027
-214.538	-200.000	0.013	0.353
-213.523	-200.000	-0.016	0.350
-212.509	2.543	-0.353	-0.252
-211.494	-119.968	-0.237	-0.040
-210.479	-107.181	0.168	0.036
-209.465	-200.000	-0.030	0.171
-208.450	555.318	-0.114	0.270
-207.436	466.289	-0.052	-0.114
-206.421	324.205	0.050	0.095
-205.406	800.000	-0.113	-0.360
-204.392	226.049	-0.148	0.236
-203.377	-200.000	0.011	0.185
-202.363	-73.832	-0.178	0.064
-201.348	-137.370	-0.131	-0.015
-200.333	408.080	0.118	-0.245
-199.319	0.766	-0.265	0.187
-198.304	-137.354	-0.276	-0.031
-197.290	-166.695	-0.065	-0.003
-196.275	92.950	-0.150	-0.167
-195.260	-38.779	0.129	0.067
-194.246	-9.905	0.115	0.076
-193.231	-93.821	0.267	-0.072
-192.217	-16.622	-0.204	0.127
-191.202	268.882	0.026	0.044
-190.187	-38.198	0.105	-0.055
-189.173	95.685	0.298	-0.335
-188.158	174.208	0.083	0.118
-187.144	-81.354	0.124	0.040
-186.129	800.000	0.078	0.225
-185.114	-35.182	-0.247	0.132
-184.100	471.497	0.105	-0.233
-183.085	197.499	-0.062	0.093
-182.071	-195.227	-0.291	0.002
-181.056	238.117	-0.140	-0.228
-180.042	-46.866	0.216	-0.104
-179.027	129.752	0.154	0.193
-178.012	-168.165	0.219	-0.008
-176.998	-107.335	-0.141	0.031
-175.983	-200.000	0.017	-0.153
-174.969	-10.462	0.143	-0.093
-173.954	-174.776	0.083	0.002
-172.939	-128.208	0.326	0.046
-171.925	-88.861	0.400	0.117
-170.910	800.000	0.108	-0.335
-169.896	-200.000	0.036	-0.380
-168.881	-95.142	-0.093	-0.025
-167.866	800.000	-0.069	-0.248
-166.852	-29.596	0.297	-0.167
-165.837	378.876	0.178	0.358
-164.823	-45.847	0.131	-0.064
-163.808	-59.550	-0.299	-0.126
-162.793	49.814	0.124	-0.115
-161.779	154.275	0.107	-0.144
-160.764	62.673	0.273	-0.268
-159.750	-200.000	-0.032	0.230
-158.735	-123.581	0.222	0.035
-157.720	261.796	0.022	-0.037
-156.706	-200.000	0.017	-0.128
-155.691	-116.399	0.324	-0.059
-154.677	-12.476	-0.183	0.118
-153.662	-77.203	-0.347	-0.119
-152.647	102.068	0.106	0.121
-151.633	95.594	0.061	-0.068
-150.618	226.124	-0.172	0.274
-149.604	-90.340	0.060	0.017
-148.589	297.913	0.039	-0.070
-147.574	-64.000	0.168	-0.067
-146.560	800.000	0.090	0.323
-145.545	-14.124	0.164	-0.104
-144.531	122.575	0.053	-0.065
-143.516	-54.871	-0.114	0.050
-142.502	220.876	0.069	-0.109
-141.487	-25.723	0.093	0.054
-140.472	162.660	-0.083	-0.114
-139.458	-135.564	0.280	-0.033
-138.443	-46.820	-0.256	-0.123
-137.429	-156.188	0.236	-0.015
-136.414	266.428	-0.064	0.110
-135.399	15.710	0.145	0.112
-134.385	423.456	0.088	0.186
-133.370	108.474	-0.253	-0.297
-132.356	47.352	0.125	0.115
-131.341	800.000	0.015	-0.055
-130.326	-172.616	-0.284	0.009
-129.312	73.640	0.142	0.146
-128.297	-200.000	-0.028	0.195
-127.283	-173.323	0.201	0.006
-126.268	-27.104	-0.042	0.024
-125.253	348.933	-0.084	0.163
-124.239	82.787	0.282	-0.301
-123.224	-181.075	0.404	0.008
-122.210	-104.402	0.313	0.071
-121.195	-162.872	0.166	0.008
-120.180	-104.391	0.237	-0.054
