DTS Sentinel unit serial number:	SN413079Multiplexer serial number:	ORYXHardware model number:	OX4-SRSoftware version number:	ORYX F/W v4.00 Oryx Data Collector v3.7.2.0data status	okinstallation	princeton_trtdifferential loss correction	single-endedforward channel	channel 2reverse channel	N/Adate	2019/09/14time	11:59:35forward acquisition time	60.00reverse acquisition time	0.00gamma	496.2192k internal	0.2308k external	0.2308temperature offset calibration	1.0153default loss term (dB/km)	0.3790temperature slope calibration	1.0000multiplexer offset coefficient	1.0000multiplexer slope coefficient	1.0000fibre end	0.00T internal ref (°C)	37.37T ext. ref 1 (°C)	4.66T ext. ref 2 (°C)	35.12length (m)	temperature (°C)	Stokes	anti-Stokes-747.200	73.727	0.060	0.064
-746.185	245.145	-0.097	0.165
-745.171	-200.000	0.008	0.071
-744.156	50.005	-0.255	-0.245
-743.142	800.000	0.075	-0.292
-742.127	800.000	-0.106	0.329
-741.112	-14.055	-0.209	-0.137
-740.098	272.770	-0.055	-0.098
-739.083	-64.328	0.322	-0.133
-738.069	800.000	-0.164	0.486
-737.054	13.240	-0.189	0.149
-736.039	-82.523	-0.207	-0.068
-735.025	-97.144	0.205	0.054
-734.010	-66.437	-0.255	-0.103
-732.996	-92.455	0.089	-0.025
-731.981	30.118	0.291	0.252
-730.966	-125.699	0.466	0.072
-729.952	-175.974	0.049	0.001
-728.937	100.276	-0.169	-0.200
-727.923	72.542	-0.272	-0.288
-726.908	174.181	0.100	0.146
-725.894	-81.836	-0.247	0.082
-724.879	147.082	-0.093	0.127
-723.864	-73.465	0.062	-0.023
-722.850	318.939	-0.081	-0.157
-721.835	-94.249	-0.352	-0.098
-720.821	-53.113	0.280	0.131
-719.806	122.143	0.184	-0.234
-718.791	-44.237	0.235	0.119
-717.777	-23.641	0.159	0.097
-716.762	-171.405	0.156	-0.005
-715.748	125.254	0.053	-0.068
-714.733	-200.000	0.016	0.220
-713.718	166.224	-0.213	0.307
-712.704	-200.000	-0.016	-0.118
-711.689	-133.927	0.172	-0.022
-710.675	372.995	-0.196	0.404
-709.660	-10.806	0.368	-0.247
-708.645	-86.347	-0.109	0.034
-707.631	59.572	-0.087	-0.087
-706.616	184.294	0.272	0.408
-705.602	-200.000	-0.011	0.124
-704.587	42.089	-0.097	0.089
-703.572	-2.921	0.092	-0.065
-702.558	800.000	-0.130	-0.411
-701.543	94.279	-0.089	0.103
-700.529	-145.926	-0.171	0.015
-699.514	368.319	-0.110	-0.226
-698.499	-0.573	0.172	-0.123
-697.485	8.632	0.262	-0.200
-696.470	-87.560	-0.179	0.055
-695.456	-80.429	0.016	-0.005
-694.441	504.894	-0.112	-0.264
-693.426	17.582	-0.208	-0.167
-692.412	-200.000	0.001	0.010
-691.397	800.000	0.076	0.286
-690.383	196.253	0.070	0.108
-689.368	35.142	-0.135	-0.120
-688.354	-24.626	0.119	-0.072
-687.339	66.956	-0.101	-0.105
-686.324	800.000	-0.040	-0.165
-685.310	-15.446	-0.328	0.213
-684.295	-131.123	0.413	-0.056
-683.281	-126.550	0.125	0.019
-682.266	62.973	0.163	-0.165
-681.251	-200.000	0.012	-0.167
-680.237	50.677	-0.208	0.199
-679.222	-31.590	0.154	-0.087
-678.208	-144.036	-0.461	-0.044
-677.193	800.000	-0.060	0.247
-676.178	-200.000	0.024	-0.318
-675.164	-54.010	0.107	0.049
-674.149	-62.478	0.378	-0.159
-673.135	-16.171	0.100	0.065
-672.120	166.645	0.145	0.209
-671.105	6.421	0.081	-0.061
-670.091	-54.740	0.231	0.106
-669.076	800.000	0.022	0.077
-668.062	-83.731	0.088	0.028
-667.047	-35.091	-0.104	0.058
-666.032	-200.000	-0.007	0.063
-665.018	459.901	-0.172	-0.389
-664.003	128.971	-0.148	-0.191
-662.989	269.786	0.102	0.181
-661.974	-200.000	-0.009	-0.128
-660.959	-113.495	-0.224	-0.044
-659.945	-200.000	0.030	-0.434
-658.930	-59.659	-0.335	-0.146
-657.916	800.000	-0.046	0.170
-656.901	-179.526	-0.147	0.003
-655.886	-126.666	-0.203	0.031
-654.872	306.473	-0.063	-0.120
-653.857	-166.661	-0.256	-0.011
-652.843	-137.651	-0.232	-0.026
-651.828	-9.091	-0.257	-0.174
-650.814	-123.196	0.119	0.019
-649.799	-200.000	-0.067	-0.347
-648.784	84.465	0.185	0.205
-647.770	137.053	0.054	0.072
-646.755	330.700	0.063	0.122
-645.741	800.000	-0.040	-0.126
-644.726	-72.333	0.356	-0.134
-643.711	800.000	-0.060	-0.228
-642.697	-200.000	-0.008	-0.127
-641.682	462.459	-0.113	0.256
-640.668	392.821	0.048	0.101
-639.653	773.290	-0.047	-0.129
-638.638	318.925	0.096	-0.184
-637.624	-38.155	0.080	0.043
-636.609	-163.782	-0.175	-0.008
-635.595	126.138	-0.096	0.123
-634.580	228.818	-0.050	-0.082
-633.565	40.610	-0.090	-0.082
-632.551	-200.000	-0.082	-0.411
-631.536	800.000	0.053	-0.203
-630.522	-111.624	-0.272	0.056
-629.507	13.630	0.196	-0.154
-628.492	-126.739	0.216	0.032
-627.478	-148.620	-0.022	0.002
-626.463	144.476	0.247	0.334
-625.449	-120.163	0.150	-0.026
-624.434	-126.219	-0.089	-0.014
-623.419	-69.395	0.272	0.106
-622.405	-90.233	-0.078	0.023
-621.390	22.794	0.150	-0.124
-620.376	-31.188	0.155	0.089
-619.361	800.000	0.067	0.209
-618.346	800.000	0.031	0.121
-617.332	-200.000	0.065	-0.311
-616.317	-200.000	0.008	-0.051
-615.303	-130.731	0.077	-0.010
-614.288	69.128	0.047	0.049
-613.273	107.320	0.180	-0.217
-612.259	-15.434	-0.184	-0.119
-611.244	-179.059	-0.180	-0.004
-610.230	-18.905	0.104	0.066
-609.215	-200.000	0.051	0.385
-608.201	340.156	-0.081	-0.160
-607.186	-129.032	-0.250	-0.035
-606.171	466.275	-0.024	-0.055
-605.157	-2.556	-0.130	-0.092
-604.142	-200.000	0.030	-0.252
-603.128	105.191	0.132	-0.157
-602.113	-20.817	-0.299	-0.185
-601.098	193.713	-0.150	0.229
-600.084	-93.555	-0.358	-0.100
-599.069	-167.696	0.217	-0.009
-598.055	124.747	-0.130	0.165
-597.040	-49.417	-0.184	-0.089
-596.025	96.319	-0.318	-0.367
-595.011	20.154	0.186	0.152
-593.996	63.182	-0.053	-0.054
-592.982	294.850	-0.068	-0.125
-591.967	-162.105	0.053	-0.003
-590.952	-196.445	-0.099	-0.001
-589.938	-200.000	0.003	-0.120
-588.923	21.787	0.251	0.207
-587.909	-142.222	-0.137	0.014
-586.894	-116.199	0.096	-0.018
-585.879	33.351	-0.163	-0.143
-584.865	-200.000	-0.003	-0.019
-583.850	-200.000	0.034	-0.191
-582.836	-58.313	0.063	0.028
-581.821	800.000	-0.014	-0.062
-580.806	-66.364	-0.486	0.195
-579.792	609.166	-0.091	0.229
-578.777	-8.079	0.084	-0.057
-577.763	32.635	-0.147	-0.128
-576.748	800.000	-0.070	0.245
-575.733	436.300	-0.100	0.221
-574.719	59.258	-0.267	-0.265
-573.704	800.000	0.053	-0.229
-572.690	-28.830	-0.122	0.071
-571.675	504.675	0.091	-0.212
-570.661	21.933	0.250	-0.205
-569.646	102.332	-0.158	-0.187
-568.631	-107.406	-0.217	0.048
-567.617	-200.000	0.010	-0.047
-566.602	-75.678	-0.156	-0.056
-565.588	-51.228	0.218	-0.103
-564.573	89.192	0.081	-0.091
-563.558	15.784	0.281	0.223
-562.544	-200.000	-0.061	0.312
-561.529	-192.661	0.272	-0.003
-560.515	112.329	0.124	-0.152
-559.500	-200.000	-0.019	0.247
-558.485	495.223	0.072	-0.167
-557.471	510.376	-0.060	-0.141
-556.456	-200.000	-0.011	0.160
-555.442	25.370	-0.208	-0.175
-554.427	26.823	-0.179	0.151
-553.412	-88.335	0.437	-0.132
-552.398	-1.503	-0.223	-0.159
-551.383	-200.000	0.009	-0.176
-550.369	-70.308	-0.059	-0.023
-549.354	-46.050	-0.092	0.046
-548.339	403.715	-0.138	-0.294
-547.325	293.515	0.096	-0.177
-546.310	-5.668	0.139	0.096
-545.296	617.687	-0.026	0.066
-544.281	334.370	-0.123	0.240
-543.266	-200.000	0.004	0.098
-542.252	-58.944	0.333	-0.145
-541.237	7.748	-0.045	0.034
-540.223	-39.846	0.022	-0.012
-539.208	84.690	-0.178	0.196
-538.193	-21.931	-0.195	0.120
-537.179	260.943	0.062	0.108
-536.164	47.543	-0.080	-0.075
-535.150	26.377	-0.093	0.078
-534.135	800.000	-0.092	0.356
-533.121	-134.925	-0.163	-0.020
-532.106	-8.215	-0.057	-0.039
-531.091	-55.992	-0.242	-0.109
-530.077	202.547	0.184	0.286
-529.062	-45.834	-0.475	0.237
-528.048	-19.585	0.082	-0.051
-527.033	-160.362	-0.345	0.019
-526.018	-99.842	-0.096	-0.024
-525.004	-200.000	-0.024	0.195
-523.989	52.594	0.058	0.056
-522.975	17.110	-0.053	-0.042
-521.960	126.187	0.080	0.102
-520.945	99.423	-0.127	-0.148
-519.931	-86.358	-0.220	-0.068
-518.916	139.145	0.220	0.292
-517.902	-200.000	-0.117	-0.749
-516.887	-200.000	0.043	-0.349
-515.872	-188.573	-0.207	0.003
-514.858	-12.370	-0.148	0.098
-513.843	38.103	0.221	0.198
-512.829	86.334	0.171	-0.190
-511.814	36.530	-0.268	-0.238
-510.799	-58.660	0.247	0.108
-509.785	800.000	0.027	0.095
-508.770	-200.000	-0.052	-0.270
-507.756	-74.136	0.112	-0.041
-506.741	-45.507	-0.297	0.148
-505.726	-43.864	0.212	-0.107
-504.712	163.198	-0.218	-0.308
-503.697	-166.104	0.376	0.016
-502.683	-42.524	0.066	-0.034
-501.668	67.392	0.078	0.080
-500.653	-15.162	-0.219	-0.141
-499.639	-19.907	0.182	-0.113
-498.624	11.202	-0.124	-0.095
-497.610	176.097	0.154	-0.226
-496.595	-94.761	0.389	0.106
-495.581	83.302	-0.100	0.109
-494.566	-3.723	0.101	-0.071
-493.551	10.509	-0.172	0.132
-492.537	-200.000	0.018	-0.256
-491.522	-16.616	0.324	-0.207
-490.508	-200.000	0.011	0.087
-489.493	757.509	-0.163	-0.445
-488.478	-126.774	0.333	0.049
-487.464	-148.213	-0.103	-0.009
-486.449	-98.142	-0.010	0.003
-485.435	-54.002	0.304	-0.139
-484.420	800.000	-0.039	0.157
-483.405	100.263	-0.198	-0.231
-482.391	800.000	0.079	0.247
-481.376	37.647	-0.161	-0.144
-480.362	800.000	-0.032	-0.115
-479.347	-156.765	-0.155	-0.010
-478.332	800.000	-0.029	-0.112
-477.318	124.226	0.108	0.137
-476.303	55.396	0.146	-0.142
-475.289	-28.619	-0.283	0.164
-474.274	230.790	0.034	-0.056
-473.259	800.000	0.062	0.204
-472.245	-36.463	-0.252	0.136
-471.230	800.000	0.028	-0.083
-470.216	-118.210	-0.453	-0.081
-469.201	-111.643	0.249	-0.051
-468.186	334.238	-0.039	-0.076
-467.172	68.436	-0.051	0.053
-466.157	-124.495	0.315	0.049
-465.143	18.788	0.090	0.073
-464.128	42.415	0.099	-0.091
-463.113	-185.764	0.261	0.004
-462.099	567.119	-0.048	0.118
-461.084	-134.879	0.212	-0.026
-460.070	800.000	-0.080	0.273
-459.055	-200.000	0.013	-0.174
-458.040	169.414	-0.135	0.193
-457.026	-78.382	0.304	0.105
-456.011	-113.480	-0.250	0.049
-454.997	-200.000	0.006	0.125
-453.982	21.004	-0.130	0.106
-452.968	-200.000	-0.037	-0.327
-451.953	297.418	-0.113	0.209
-450.938	-200.000	-0.037	-0.196
-449.924	800.000	-0.050	-0.163
-448.909	475.238	0.084	-0.191
-447.895	25.220	0.070	-0.059
-446.880	587.549	-0.154	0.381
-445.865	165.405	-0.004	0.006
-444.851	467.930	-0.098	0.221
-443.836	-99.173	0.105	0.027
-442.822	-25.580	0.175	0.104
-441.807	-22.325	-0.265	0.162
-440.792	-80.174	-0.127	-0.043
-439.778	-175.480	0.076	0.002
-438.763	-66.062	-0.202	-0.081
-437.749	-21.048	0.317	0.195
-436.734	207.650	-0.073	0.114
-435.719	260.178	-0.057	-0.099
-434.705	-21.781	-0.046	-0.028
-433.690	43.225	0.151	-0.138
-432.676	49.959	0.089	-0.084
-431.661	800.000	0.042	-0.130
-430.646	91.060	-0.148	0.166
-429.632	205.697	0.133	0.208
-428.617	-6.390	-0.308	-0.211
-427.603	-200.000	-0.029	-0.253
-426.588	-145.896	0.186	0.017
-425.573	215.615	-0.130	0.208
-424.559	-47.840	-0.215	0.104
-423.544	59.012	-0.135	0.134
-422.530	-200.000	-0.060	-0.315
-421.515	-166.072	-0.215	0.009
-420.500	-200.000	-0.003	0.103
-419.486	-165.520	0.190	0.008
-418.471	-72.695	0.256	0.095
-417.457	-200.000	-0.009	0.139
-416.442	113.836	-0.142	0.173
-415.428	-167.741	0.101	0.004
-414.413	234.253	0.026	0.043
-413.398	-38.474	0.025	0.014
-412.384	-200.000	0.029	0.391
-411.369	352.480	-0.120	0.239
-410.355	210.825	0.116	0.183
-409.340	800.000	0.088	0.301
-408.325	-200.000	-0.017	-0.183
-407.311	-63.893	-0.276	0.113
-406.296	104.531	0.110	-0.130
-405.282	702.848	0.047	-0.125
-404.267	157.418	0.248	0.344
-403.252	800.000	-0.055	-0.230
-402.238	99.791	0.287	-0.334
-401.223	52.269	-0.155	-0.148
-400.209	396.847	0.051	0.106
-399.194	8.296	-0.128	0.096
-398.179	160.581	0.129	-0.181
-397.165	67.335	-0.022	0.023
-396.150	50.518	0.070	-0.067
-395.136	-126.083	0.452	-0.068
-394.121	96.095	0.207	-0.238
-393.106	192.411	-0.260	0.393
-392.092	703.136	-0.107	0.283
-391.077	130.914	0.161	-0.207
-390.063	-66.237	-0.143	-0.057
-389.048	-110.614	-0.178	0.037
-388.033	520.869	0.070	0.166
-387.019	169.002	0.080	-0.115
-386.004	800.000	0.080	-0.256
-384.990	-79.577	-0.136	-0.046
-383.975	-34.184	0.180	-0.099
-382.960	-116.012	-0.115	-0.021
-381.946	-71.091	0.191	0.072
-380.931	-1.424	0.241	-0.170
-379.917	70.082	0.127	0.132
-378.902	-200.000	0.065	0.343
-377.888	-74.916	0.320	0.115
-376.873	-85.028	-0.221	-0.069
-375.858	253.413	0.195	0.333
-374.844	111.966	0.301	0.364
-373.829	-200.000	0.036	0.254
-372.815	-57.433	0.156	0.069
-371.800	-200.000	-0.031	-0.232
-370.785	114.530	0.203	0.247
-369.771	79.113	-0.095	-0.102
-368.756	220.523	-0.114	0.184
-367.742	-99.006	0.128	0.033
-366.727	800.000	-0.137	-0.500
-365.712	205.075	0.067	-0.103
-364.698	100.866	0.141	-0.164
-363.683	164.195	-0.086	-0.122
-362.669	-25.614	0.167	0.099
-361.654	68.256	0.108	-0.110
-360.639	46.995	0.057	-0.053
-359.625	-38.640	0.271	0.144
-358.610	447.693	-0.135	-0.297
-357.596	41.923	0.301	-0.274
-356.581	25.296	0.079	-0.066
-355.566	-71.665	-0.059	0.022
-354.552	40.112	0.193	0.174
-353.537	-200.000	0.072	0.367
-352.523	181.625	-0.193	0.285
-351.508	-153.707	-0.297	0.020
-350.493	444.361	0.083	0.181
-349.479	126.234	-0.132	0.167
-348.464	29.204	0.073	0.062
-347.450	173.058	-0.129	0.186
-346.435	-127.758	0.360	-0.052
-345.420	664.570	-0.055	0.142
-344.406	800.000	0.076	-0.305
-343.391	186.513	0.036	-0.054
-342.377	176.776	0.126	0.184
-341.362	114.607	0.230	-0.280
-340.348	110.859	-0.059	-0.071
-339.333	-63.440	0.191	-0.078
-338.318	-200.000	0.024	-0.120
-337.304	179.831	-0.131	-0.192
-336.289	274.820	0.100	-0.176
-335.275	800.000	0.027	0.117
-334.260	40.512	0.147	-0.133
-333.245	-200.000	0.051	-0.435
-332.231	401.855	0.033	-0.068
-331.216	-10.824	0.262	-0.173
-330.202	9.934	-0.202	0.153
-329.187	-98.129	-0.318	0.082
-328.172	26.052	0.222	-0.185
-327.158	-200.000	0.013	-0.137
-326.143	-200.000	-0.024	0.146
-325.129	-131.854	-0.157	-0.021
-324.114	79.045	0.070	0.075
-323.099	-139.985	-0.440	0.046
-322.085	-200.000	-0.020	0.227
-321.070	-45.775	0.138	0.068
-320.056	-200.000	0.043	0.292
-319.041	86.671	-0.161	-0.178
-318.026	-8.949	0.087	0.059
-317.012	147.867	-0.242	0.326
-315.997	-106.902	-0.163	0.036
-314.983	-129.145	-0.526	0.073
-313.968	800.000	-0.048	0.206
-312.953	-200.000	-0.021	-0.161
-311.939	-200.000	-0.063	0.470
-310.924	159.380	-0.075	-0.104
-309.910	-173.380	0.500	0.015
-308.895	573.458	0.036	0.086
-307.880	-200.000	-0.032	0.190
-306.866	19.216	-0.115	0.092
-305.851	-60.327	0.369	-0.157
-304.837	368.778	0.118	-0.238
-303.822	-46.706	0.099	-0.048
-302.807	546.696	0.137	-0.327
-301.793	-103.176	0.456	0.108
-300.778	104.384	-0.223	0.263
-299.764	-58.915	-0.270	0.117
-298.749	71.493	-0.138	0.143
-297.735	-121.405	-0.230	-0.038
-296.720	-126.139	-0.299	0.045
-295.705	215.737	0.196	0.311
-294.691	-200.000	0.002	0.263
-293.676	-62.099	0.134	0.056
-292.662	-78.744	-0.218	-0.074
-291.647	283.656	-0.104	0.187
-290.632	211.389	0.313	0.492
-289.618	-153.225	-0.204	-0.014
-288.603	143.597	0.009	-0.012
-287.589	-68.862	0.331	-0.128
-286.574	-14.260	-0.203	-0.130
-285.559	-145.486	0.157	-0.014
-284.545	194.122	0.100	0.151
-283.530	-54.588	0.268	-0.121
-282.516	-200.000	0.051	0.246
-281.501	800.000	0.098	0.278
-280.486	276.506	0.120	0.212
-279.472	24.737	-0.182	0.151
-278.457	17.866	0.205	0.163
-277.443	-200.000	-0.009	0.103
-276.428	270.023	-0.052	0.090
-275.413	800.000	0.109	0.314
-274.399	-79.432	-0.089	0.030
-273.384	14.882	0.168	0.131
-272.370	155.034	0.095	0.130
-271.355	-24.577	0.162	0.096
-270.340	341.548	0.061	0.120
-269.326	181.441	0.078	0.115
-268.311	-119.333	0.124	0.021
-267.297	-200.000	0.031	-0.241
-266.282	800.000	-0.061	-0.220
-265.267	487.454	-0.104	-0.236
-264.253	-200.000	0.070	0.362
-263.238	-38.964	0.085	-0.044
-262.224	-30.211	0.116	-0.066
-261.209	-94.522	-0.421	-0.114
-260.195	490.980	-0.149	-0.340
-259.180	-119.026	0.230	0.040
-258.165	-123.512	-0.237	-0.038
-257.151	515.730	-0.061	0.143
-256.136	-12.569	-0.107	0.070
-255.122	-122.197	0.119	0.019
-254.107	292.172	0.062	0.112
-253.092	-200.000	0.002	-0.235
-252.078	56.124	-0.243	0.235
-251.063	256.200	-0.092	-0.158
-250.049	-119.872	-0.193	0.033
-249.034	372.733	0.087	-0.176
-248.019	-94.259	0.185	0.050
-247.005	-143.165	0.183	-0.018
-245.990	31.309	0.053	0.046
-244.976	-14.432	-0.109	0.070
-243.961	-89.484	0.205	0.060
-242.946	327.082	0.096	0.183
-241.932	3.494	-0.096	0.070
-240.917	585.659	0.161	-0.395
-239.903	276.886	-0.074	-0.132
-238.888	371.456	0.109	0.220
-237.873	99.621	0.232	0.267
-236.859	-85.459	-0.369	-0.115
-235.844	-86.471	-0.292	0.089
-234.830	-5.510	0.447	0.305
-233.815	-120.085	-0.451	-0.077
-232.800	800.000	-0.062	-0.228
-231.786	40.103	-0.103	0.092
-230.771	418.577	0.033	0.071
-229.757	-103.379	-0.247	-0.058
-228.742	292.126	0.075	0.136
-227.727	82.579	0.137	0.148
-226.713	-48.328	-0.140	-0.067
-225.698	800.000	0.028	0.113
-224.684	-55.131	0.207	0.093
-223.669	-27.978	0.115	0.066
-222.655	-200.000	-0.063	-0.343
-221.640	-17.434	-0.209	0.131
-220.625	-105.695	-0.257	0.058
-219.611	-200.000	0.025	0.236
-218.596	689.522	-0.103	-0.268
-217.582	-200.000	0.041	-0.182
-216.567	-131.473	-0.183	0.024
-215.552	61.402	-0.152	0.151
-214.538	93.405	-0.086	-0.097
-213.523	-135.360	-0.219	-0.026
-212.509	-15.855	-0.138	-0.087
-211.494	-200.000	0.011	0.234
-210.479	203.522	0.066	-0.102
-209.465	-200.000	-0.005	-0.325
-208.450	-37.520	0.093	0.049
-207.436	-200.000	-0.005	-0.500
-206.421	312.162	-0.170	-0.317
-205.406	-200.000	-0.006	0.109
-204.392	95.160	-0.149	-0.168
-203.377	800.000	-0.060	-0.247
-202.363	-55.019	0.229	-0.102
-201.348	-33.862	-0.341	0.187
-200.333	97.162	-0.208	-0.238
-199.319	-110.518	0.302	0.062
-198.304	-111.248	-0.388	0.079
-197.290	-114.512	-0.219	0.042
-196.275	111.620	0.128	0.154
-195.260	-68.079	0.391	-0.152
-194.246	43.226	0.099	0.090
-193.231	800.000	-0.050	0.200
-192.217	-66.199	0.269	0.107
-191.202	391.103	-0.057	-0.117
-190.187	800.000	-0.013	0.050
-189.173	-21.710	-0.109	0.066
-188.158	168.764	-0.231	0.327
-187.144	61.679	-0.125	0.123
-186.129	17.686	-0.352	-0.279
-185.114	51.979	0.181	-0.171
-184.100	-160.821	0.187	-0.010
-183.085	-138.950	0.305	-0.033
-182.071	160.321	0.104	-0.145
-181.056	-54.556	0.144	-0.065
-180.042	-157.780	0.330	-0.019
-179.027	-13.961	-0.138	-0.088
-178.012	-200.000	0.013	0.137
-176.998	-112.408	-0.076	-0.015
-175.983	70.490	0.057	-0.058
-174.969	52.204	-0.115	0.109
-173.954	50.716	-0.022	0.020
-172.939	-19.767	0.191	-0.117
-171.925	800.000	0.144	0.478
-170.910	-120.939	0.065	-0.011
-169.896	800.000	-0.062	-0.267
-168.881	13.881	-0.306	-0.237
-167.866	-200.000	-0.003	0.337
-166.852	-200.000	-0.018	-0.243
-165.837	-122.106	-0.303	-0.049
-164.823	-134.590	-0.051	0.006
-163.808	79.392	0.069	0.074
-162.793	800.000	0.071	0.211
-161.779	82.824	0.124	-0.134
-160.764	-200.000	-0.030	-0.228
-159.750	800.000	-0.031	-0.117
-158.735	-200.000	0.001	-0.015
-157.720	-119.488	-0.270	0.046
-156.706	-200.000	-0.011	-0.168
-155.691	800.000	0.039	-0.124
-154.677	-134.496	0.191	-0.023
-153.662	-200.000	-0.083	-0.364
-152.647	-58.238	0.367	0.159
-151.633	-81.702	-0.456	-0.149
-150.618	247.492	-0.108	0.181
-149.604	800.000	-0.043	0.144
-148.589	-114.688	0.428	-0.081
-147.574	-125.432	0.382	-0.058
-146.560	-200.000	-0.001	-0.014
-145.545	-116.162	-0.305	-0.056
-144.531	-71.184	-0.111	-0.042
-143.516	-141.843	0.096	-0.010
-142.502	-200.000	0.039	-0.270
-141.487	-163.823	-0.246	-0.011
-140.472	-164.446	0.208	0.009
-139.458	-200.000	-0.005	0.278
-138.443	-200.000	0.006	0.448
-137.429	-29.320	0.090	-0.051
-136.414	800.000	-0.029	0.104
-135.399	-96.014	0.081	-0.021
-134.385	473.202	0.078	-0.175
-133.370	800.000	-0.071	-0.196
-132.356	-62.781	-0.188	-0.077
-131.341	-200.000	-0.031	0.298
-130.326	800.000	0.050	-0.180
-129.312	-200.000	-0.010	0.209
-128.297	-59.024	0.093	0.040
-127.283	-89.637	0.272	-0.079
-126.268	771.625	0.051	-0.139
-125.253	-155.680	-0.182	-0.012
-124.239	800.000	-0.061	0.198
-123.224	-200.000	-0.021	-0.115
-122.210	90.225	-0.138	-0.153
-121.195	-121.541	-0.042	-0.007
