DTS Sentinel unit serial number:	SN413079Multiplexer serial number:	ORYXHardware model number:	OX4-SRSoftware version number:	ORYX F/W v4.00 Oryx Data Collector v3.7.2.0data status	okinstallation	princeton_trtdifferential loss correction	single-endedforward channel	channel 2reverse channel	N/Adate	2019/09/16time	20:43:34forward acquisition time	60.00reverse acquisition time	0.00gamma	496.2192k internal	0.2329k external	0.2329temperature offset calibration	0.9967default loss term (dB/km)	0.3790temperature slope calibration	1.0000multiplexer offset coefficient	1.0000multiplexer slope coefficient	1.0000fibre end	0.00T internal ref (°C)	32.41T ext. ref 1 (°C)	0.07T ext. ref 2 (°C)	26.06length (m)	temperature (°C)	Stokes	anti-Stokes-747.200	-153.337	-0.268	-0.019
-746.185	618.975	-0.074	0.187
-745.171	-13.331	-0.051	-0.033
-744.156	800.000	0.081	0.262
-743.142	7.795	-0.302	-0.228
-742.127	800.000	0.012	-0.053
-741.112	-79.365	0.100	-0.034
-740.098	-61.185	-0.269	0.114
-739.083	-35.195	0.171	0.094
-738.069	523.744	-0.020	0.047
-737.054	-145.140	-0.140	0.013
-736.039	-55.833	-0.281	-0.126
-735.025	-2.009	0.021	0.015
-734.010	800.000	-0.005	0.021
-732.996	-18.863	0.138	-0.086
-731.981	-200.000	0.039	-0.248
-730.966	18.682	0.170	-0.137
-729.952	30.667	-0.153	-0.131
-728.937	56.517	-0.189	-0.185
-727.923	-85.703	0.343	-0.107
-726.908	-17.897	-0.171	-0.108
-725.894	659.598	0.056	-0.145
-724.879	-31.237	0.222	0.126
-723.864	-141.544	-0.286	0.029
-722.850	3.570	-0.136	0.100
-721.835	800.000	-0.123	0.347
-720.821	-200.000	-0.041	0.313
-719.806	260.841	0.023	-0.040
-718.791	246.020	-0.095	-0.161
-717.777	-200.000	-0.016	-0.125
-716.762	272.018	-0.035	-0.062
-715.748	-74.225	-0.323	-0.117
-714.733	122.055	-0.124	-0.156
-713.718	-134.066	-0.247	0.031
-712.704	-31.977	0.152	0.086
-711.689	326.026	-0.111	0.215
-710.675	17.397	-0.202	0.161
-709.660	-29.801	-0.405	0.232
-708.645	278.673	-0.168	0.301
-707.631	-200.000	-0.008	0.074
-706.616	-136.505	0.259	-0.030
-705.602	547.869	0.020	0.049
-704.587	-200.000	-0.020	0.305
-703.572	364.665	-0.092	-0.187
-702.558	-101.906	-0.450	0.109
-701.543	-155.103	0.496	0.033
-700.529	24.640	0.209	0.174
-699.514	-150.128	0.319	-0.025
-698.499	283.272	-0.119	-0.215
-697.485	167.855	-0.231	-0.331
-696.470	-96.484	0.167	-0.044
-695.456	-23.337	-0.015	-0.009
-694.441	-200.000	0.060	0.323
-693.426	-200.000	0.115	-0.000
-692.412	254.884	-0.045	0.078
-691.397	-200.000	-0.015	0.181
-690.383	-144.622	0.461	0.043
-689.368	505.273	-0.202	-0.471
-688.354	-200.000	0.048	-0.377
-687.339	24.674	0.078	-0.065
-686.324	-200.000	0.059	0.295
-685.310	381.256	-0.095	0.195
-684.295	-95.932	0.136	-0.036
-683.281	-60.314	0.055	0.023
-682.266	-138.588	-0.134	-0.015
-681.251	495.338	0.017	-0.039
-680.237	271.239	-0.158	0.280
-679.222	800.000	-0.051	0.180
-678.208	-31.444	-0.303	-0.171
-677.193	80.313	-0.211	-0.228
-676.178	82.450	-0.170	-0.185
-675.164	-200.000	0.092	-0.425
-674.149	-81.684	-0.257	0.085
-673.135	74.545	0.210	0.222
-672.120	86.046	0.126	-0.139
-671.105	-151.455	-0.239	0.018
-670.091	-200.000	0.001	-0.039
-669.076	-129.761	-0.136	-0.019
-668.062	290.691	-0.046	0.084
-667.047	6.607	-0.137	0.102
-666.032	-37.187	-0.205	0.110
-665.018	-200.000	-0.060	-0.348
-664.003	112.887	0.180	0.219
-662.989	111.645	0.145	0.175
-661.974	-200.000	-0.022	-0.175
-660.959	-23.084	-0.026	-0.016
-659.945	88.620	-0.152	0.169
-658.930	-6.057	0.084	0.058
-657.916	100.046	0.164	0.190
-656.901	-200.000	-0.007	-0.085
-655.886	497.963	0.112	-0.258
-654.872	-60.176	0.069	0.030
-653.857	-200.000	0.033	0.205
-652.843	-12.455	-0.229	0.150
-651.828	316.403	-0.134	0.255
-650.814	-29.825	-0.164	-0.094
-649.799	392.840	-0.127	0.266
-648.784	-42.923	0.121	-0.062
-647.770	-199.674	0.200	-0.001
-646.755	181.390	-0.139	0.205
-645.741	800.000	-0.045	0.126
-644.726	-200.000	-0.073	-0.361
-643.711	-80.667	0.140	-0.047
-642.697	-200.000	0.015	0.092
-641.682	800.000	-0.042	-0.120
-640.668	-200.000	-0.056	0.577
-639.653	-31.967	0.210	0.118
-638.638	-90.481	0.235	-0.068
-637.624	-95.405	0.172	-0.046
-636.609	-60.475	0.151	-0.065
-635.595	-173.760	0.344	0.010
-634.580	195.046	0.152	-0.231
-633.565	-147.663	0.308	0.026
-632.551	-115.690	0.040	0.008
-631.536	-182.302	-0.087	-0.002
-630.522	-199.524	0.284	-0.001
-629.507	800.000	-0.016	-0.060
-628.492	317.750	-0.022	-0.041
-627.478	-200.000	0.025	-0.256
-626.463	-60.414	-0.131	-0.056
-625.449	-49.062	0.283	0.136
-624.434	-167.276	0.392	0.016
-623.419	385.742	-0.126	0.260
-622.405	59.083	-0.049	0.048
-621.390	800.000	0.033	0.124
-620.376	201.435	-0.189	0.292
-619.361	315.299	-0.156	-0.296
-618.346	-200.000	0.020	-0.142
-617.332	-119.311	-0.164	-0.029
-616.317	187.888	-0.056	0.084
-615.303	372.545	-0.127	0.259
-614.288	-200.000	-0.025	-0.245
-613.273	259.682	0.029	-0.050
-612.259	28.292	0.118	0.100
-611.244	-200.000	-0.002	-0.312
-610.230	195.079	-0.172	0.262
-609.215	19.582	0.119	0.096
-608.201	8.203	0.199	-0.150
-607.186	649.153	0.051	-0.131
-606.171	289.868	0.148	0.268
-605.157	-200.000	0.016	0.101
-604.142	19.336	0.121	-0.097
-603.128	-108.680	-0.094	0.020
-602.113	-4.812	-0.192	-0.132
-601.098	-146.899	-0.394	0.034
-600.084	-12.837	-0.123	0.081
-599.069	-105.133	0.123	0.028
-598.055	-104.146	0.087	0.020
-597.040	-200.000	-0.001	0.169
-596.025	503.637	-0.054	0.125
-595.011	404.392	0.086	0.181
-593.996	-39.543	0.238	-0.125
-592.982	800.000	0.094	-0.376
-591.967	-16.750	0.090	0.057
-590.952	-200.000	0.011	-0.114
-589.938	676.611	-0.057	-0.149
-588.923	800.000	0.041	-0.178
-587.909	62.575	-0.141	-0.141
-586.894	384.740	0.021	-0.044
-585.879	-200.000	0.015	-0.161
-584.865	-200.000	-0.044	-0.198
-583.850	800.000	0.095	-0.291
-582.836	-80.852	-0.305	0.101
-581.821	84.001	0.116	0.127
-580.806	-28.732	-0.369	0.213
-579.792	-30.101	-0.346	0.197
-578.777	-17.782	0.200	-0.126
-577.763	-37.038	-0.229	-0.123
-576.748	63.473	0.203	-0.204
-575.733	349.370	-0.129	-0.254
-574.719	25.857	-0.072	0.060
-573.704	527.339	0.038	-0.090
-572.690	33.671	0.164	-0.142
-571.675	-145.159	-0.245	0.022
-570.661	528.185	-0.108	-0.255
-569.646	-109.696	0.386	-0.081
-568.631	783.564	-0.151	-0.415
-567.617	-15.123	-0.375	-0.240
-566.602	-114.468	-0.344	0.066
-565.588	210.866	-0.151	-0.238
-564.573	342.335	-0.066	-0.129
-563.558	15.132	0.245	0.192
-562.544	759.754	0.105	0.284
-561.529	796.094	-0.057	0.156
-560.515	76.876	0.044	-0.047
-559.500	75.900	0.081	-0.086
-558.485	-47.428	-0.026	-0.012
-557.471	19.624	-0.217	-0.174
-556.456	-94.358	0.114	0.031
-555.442	8.797	0.113	-0.085
-554.427	-200.000	0.016	0.091
-553.412	800.000	-0.037	-0.129
-552.398	-9.704	-0.180	-0.120
-551.383	-52.939	0.259	-0.119
-550.369	-76.873	0.152	0.053
-549.354	-152.850	0.121	-0.009
-548.339	-152.786	-0.274	0.019
-547.325	-200.000	-0.021	-0.149
-546.310	535.293	-0.124	-0.293
-545.296	-84.068	-0.147	0.047
-544.281	-150.221	-0.092	-0.007
-543.266	399.309	0.048	-0.099
-542.252	69.538	-0.160	-0.164
-541.237	-200.000	0.008	-0.071
-540.223	34.726	-0.055	0.048
-539.208	709.075	-0.101	0.266
-538.193	-22.980	-0.215	-0.130
-537.179	12.667	-0.195	-0.150
-536.164	-111.094	0.117	0.024
-535.150	800.000	0.049	-0.176
-534.135	-160.003	0.101	0.006
-533.121	-123.628	-0.234	-0.037
-532.106	453.749	0.079	-0.174
-531.091	800.000	-0.068	-0.234
-530.077	-46.865	-0.075	-0.037
-529.062	794.515	-0.038	0.103
-528.048	-134.696	-0.134	-0.016
-527.033	-151.895	0.252	0.018
-526.018	-56.391	0.359	-0.159
-525.004	152.107	0.141	-0.193
-523.989	-200.000	0.002	-0.143
-522.975	800.000	0.137	0.416
-521.960	144.470	-0.092	0.123
-520.945	-131.574	-0.054	0.007
-519.931	518.499	0.062	0.145
-518.916	800.000	0.089	0.343
-517.902	-84.357	0.425	-0.134
-516.887	114.811	-0.133	-0.161
-515.872	-89.574	-0.224	0.066
-514.858	128.840	-0.034	-0.044
-513.843	432.643	0.167	0.362
-512.829	-100.601	-0.260	0.064
-511.814	12.843	-0.028	-0.021
-510.799	-83.194	-0.378	0.121
-509.785	-92.809	0.282	-0.079
-508.770	-10.915	-0.156	0.103
-507.756	260.654	0.078	0.135
-506.741	800.000	-0.076	-0.212
-505.726	-9.745	-0.163	0.108
-504.712	-200.000	-0.018	-0.103
-503.697	-80.197	0.158	-0.053
-502.683	-200.000	0.020	0.092
-501.668	-164.487	-0.248	-0.011
-500.653	-32.856	-0.370	-0.205
-499.639	-200.000	0.004	0.092
-498.624	-200.000	0.001	-0.056
-497.610	-1.505	-0.202	0.142
-496.595	-200.000	-0.010	0.121
-495.581	-110.787	0.021	0.004
-494.566	58.164	-0.174	0.170
-493.551	369.801	0.054	0.108
-492.537	-78.486	0.064	0.022
-491.522	252.812	-0.101	0.172
-490.508	-200.000	0.008	0.066
-489.493	239.570	-0.172	-0.285
-488.478	5.494	-0.180	-0.132
-487.464	800.000	-0.094	0.291
-486.449	-27.001	-0.197	-0.114
-485.435	800.000	0.050	-0.169
-484.420	-200.000	-0.068	-0.326
-483.405	-200.000	0.014	-0.176
-482.391	-99.695	0.404	0.101
-481.376	-33.638	-0.209	-0.115
-480.362	-67.007	-0.283	0.112
-479.347	128.862	0.037	0.047
-478.332	-41.273	0.168	-0.086
-477.318	763.590	-0.117	0.318
-476.303	-151.588	-0.282	0.021
-475.289	-200.000	0.003	-0.106
-474.274	-68.683	0.190	0.073
-473.259	69.668	-0.151	-0.155
-472.245	-11.710	-0.021	-0.014
-471.230	-141.665	-0.200	-0.020
-470.216	-200.000	0.012	0.282
-469.201	-67.931	-0.285	-0.111
-468.186	-121.531	-0.025	0.004
-467.172	-200.000	0.023	0.152
-466.157	-26.989	-0.227	0.132
-465.143	636.558	0.042	0.106
-464.128	79.924	0.106	-0.113
-463.113	-61.138	-0.334	-0.141
-462.099	694.090	-0.140	-0.365
-461.084	-200.000	-0.009	-0.074
-460.070	-154.085	-0.287	0.019
-459.055	489.253	0.042	0.097
-458.040	105.924	0.202	-0.238
-457.026	-27.724	0.099	0.057
-456.011	-20.646	0.290	-0.177
-454.997	49.615	0.278	0.261
-453.982	-116.353	-0.025	0.005
-452.968	-133.801	0.317	0.039
-451.953	-46.275	-0.234	-0.115
-450.938	-200.000	-0.045	-0.377
-449.924	362.967	0.017	-0.034
-448.909	246.342	-0.063	-0.105
-447.895	63.899	0.087	-0.087
-446.880	235.139	0.025	-0.040
-445.865	-50.330	-0.205	-0.096
-444.851	-200.000	-0.093	-0.422
-443.836	-172.783	-0.301	0.009
-442.822	-28.265	-0.309	-0.178
-441.807	114.884	-0.110	0.133
-440.792	-200.000	0.036	0.229
-439.778	-90.919	-0.049	-0.014
-438.763	252.063	0.072	0.123
-437.749	-37.159	-0.290	-0.155
-436.734	277.094	-0.086	-0.153
-435.719	-16.519	-0.191	-0.120
-434.705	800.000	-0.142	-0.457
-433.690	225.046	-0.118	0.190
-432.676	154.396	0.102	0.140
-431.661	50.586	-0.077	-0.073
-430.646	143.084	0.150	-0.198
-429.632	-155.745	-0.315	0.020
-428.617	800.000	0.034	-0.138
-427.603	102.639	-0.079	-0.092
-426.588	-174.332	-0.269	0.008
-425.573	-24.906	0.181	-0.107
-424.559	600.889	-0.122	0.301
-423.544	66.850	0.216	-0.218
-422.530	800.000	0.103	0.361
-421.515	326.341	-0.022	-0.042
-420.500	505.480	-0.152	-0.350
-419.486	800.000	0.054	0.184
-418.471	-43.756	-0.100	-0.050
-417.457	-200.000	0.018	0.106
-416.442	-200.000	-0.011	-0.125
-415.428	800.000	0.072	-0.221
-414.413	386.861	-0.082	0.169
-413.398	-113.678	-0.211	-0.041
-412.384	121.049	0.178	-0.221
-411.369	102.082	-0.240	0.279
-410.355	800.000	0.075	0.247
-409.340	422.581	-0.132	0.282
-408.325	-105.380	0.218	0.049
-407.311	-140.857	0.254	0.026
-406.296	272.957	0.042	0.073
-405.282	800.000	0.063	-0.231
-404.267	-54.184	-0.226	0.102
-403.252	-199.815	-0.412	-0.002
-402.238	400.869	0.047	-0.098
-401.223	45.867	0.104	0.095
-400.209	-117.167	0.333	0.060
-399.194	502.699	-0.120	0.275
-398.179	325.505	0.143	-0.272
-397.165	669.318	-0.046	-0.118
-396.150	116.475	0.188	0.229
-395.136	145.438	0.138	-0.184
-394.121	25.869	-0.083	-0.068
-393.106	-79.050	-0.061	-0.020
-392.092	-47.004	0.156	0.075
-391.077	-172.421	0.474	-0.015
-390.063	800.000	-0.076	-0.253
-389.048	-80.728	-0.247	-0.081
-388.033	-91.068	-0.346	0.099
-387.019	-200.000	0.123	0.727
-386.004	2.916	-0.202	0.146
-384.990	-87.411	-0.535	0.161
-383.975	13.935	0.126	0.097
-382.960	31.152	0.301	-0.257
-381.946	83.602	0.234	0.253
-380.931	-44.039	0.415	0.207
-379.917	-200.000	0.051	0.303
-378.902	37.128	0.119	0.105
-377.888	515.485	-0.033	0.075
-376.873	-200.000	-0.083	-0.388
-375.858	-200.000	0.004	-0.223
-374.844	800.000	0.078	0.259
-373.829	-200.000	0.006	0.084
-372.815	-200.000	-0.010	0.199
-371.800	-34.370	0.276	-0.150
-370.785	-15.547	0.148	0.094
-369.771	800.000	0.091	-0.336
-368.756	800.000	0.029	-0.126
-367.742	-143.791	0.310	-0.029
-366.727	-104.258	-0.050	0.011
-365.712	-116.670	-0.083	-0.015
-364.698	-200.000	-0.004	0.067
-363.683	-133.239	-0.309	0.039
-362.669	422.816	0.137	0.292
-361.654	-200.000	0.036	0.255
-360.639	13.297	0.271	0.209
-359.625	-96.857	0.077	0.020
-358.610	-200.000	-0.046	-0.352
-357.596	800.000	-0.040	-0.116
-356.581	386.448	-0.122	-0.250
-355.566	-77.105	0.262	-0.090
-354.552	245.036	-0.134	-0.224
-353.537	506.387	-0.027	-0.061
-352.523	-90.700	-0.074	0.021
-351.508	257.716	-0.113	0.193
-350.493	-141.538	-0.096	0.010
-349.479	-79.224	-0.094	0.032
-348.464	397.752	0.138	0.287
-347.450	-163.139	0.273	-0.013
-346.435	-200.000	-0.029	0.218
-345.420	-10.677	0.150	-0.098
-344.406	204.647	0.302	-0.464
-343.391	-200.000	0.055	0.246
-342.377	62.276	0.063	0.063
-341.362	132.948	-0.116	-0.148
-340.348	206.359	-0.073	0.112
-339.333	4.470	-0.258	0.188
-338.318	-200.000	0.010	0.236
-337.304	-200.000	0.033	-0.330
-336.289	31.634	0.053	-0.045
-335.275	21.005	-0.025	0.020
-334.260	-48.723	0.196	-0.093
-333.245	-36.310	0.167	-0.089
-332.231	286.255	-0.088	-0.158
-331.216	-115.477	-0.087	-0.016
-330.202	125.736	0.102	-0.127
-329.187	-200.000	0.157	0.000
-328.172	100.649	0.100	0.115
-327.158	186.265	0.054	-0.079
-326.143	800.000	-0.041	0.155
-325.129	800.000	-0.061	-0.229
-324.114	-200.000	0.044	-0.370
-323.099	800.000	0.080	0.321
-322.085	-200.000	0.003	-0.137
-321.070	-59.634	-0.237	-0.101
-320.056	74.342	0.173	0.180
-319.041	-200.000	-0.016	0.291
-318.026	-7.311	0.183	-0.123
-317.012	800.000	0.042	-0.165
-315.997	-200.000	0.004	0.149
-314.983	524.796	0.214	-0.499
-313.968	-26.614	-0.218	-0.126
-312.953	-128.649	0.337	0.047
-311.939	-54.033	-0.025	-0.011
-310.924	84.693	0.344	0.373
-309.910	-148.040	-0.121	-0.010
-308.895	-136.277	-0.142	-0.016
-307.880	302.274	0.102	0.187
-306.866	6.163	0.056	-0.041
-305.851	106.332	-0.089	-0.105
-304.837	128.797	-0.165	0.209
-303.822	140.068	-0.010	0.014
-302.807	-3.536	-0.356	-0.245
-301.793	-164.031	0.294	0.014
-300.778	-86.340	0.094	-0.029
-299.764	34.875	-0.134	-0.116
-298.749	800.000	0.067	0.291
-297.735	-17.785	0.277	0.172
-296.720	99.280	-0.174	0.199
-295.705	47.356	-0.197	-0.182
-294.691	-96.315	-0.138	0.036
-293.676	-185.175	0.221	-0.003
-292.662	-63.150	-0.280	0.114
-291.647	800.000	0.083	0.280
-290.632	61.814	-0.118	0.116
-289.618	-142.688	0.110	-0.011
-288.603	95.809	0.179	0.202
-287.589	-143.136	0.404	-0.039
-286.574	100.174	-0.166	-0.191
-285.559	-33.714	0.308	-0.168
-284.545	-12.514	-0.110	-0.071
-283.530	-103.126	-0.106	0.025
-282.516	191.737	-0.208	0.310
-281.501	-200.000	-0.014	-0.108
-280.486	140.787	-0.202	0.264
-279.472	-200.000	0.021	-0.153
-278.457	26.707	-0.210	-0.174
-277.443	-107.195	-0.219	-0.048
-276.428	109.882	-0.060	-0.071
-275.413	-200.000	-0.076	0.502
-274.399	-200.000	0.003	0.103
-273.384	-200.000	0.079	0.369
-272.370	-62.384	-0.264	0.109
-271.355	-200.000	0.085	0.467
-270.340	-200.000	0.006	-0.231
-269.326	29.322	0.118	-0.099
-268.311	-10.496	0.238	0.156
-267.297	-34.692	-0.218	-0.118
-266.282	71.774	-0.179	-0.184
-265.267	-1.917	0.172	-0.119
-264.253	800.000	-0.034	0.108
-263.238	-200.000	0.010	-0.243
-262.224	-200.000	0.030	0.198
-261.209	-10.748	0.116	0.076
-260.195	800.000	-0.088	0.294
-259.180	89.074	0.166	0.183
-258.165	-105.951	0.199	0.044
-257.151	-94.164	-0.158	-0.043
-256.136	-174.533	-0.314	-0.009
-255.122	109.014	-0.248	-0.293
-254.107	-200.000	0.035	-0.173
-253.092	-200.000	-0.003	-0.195
-252.078	-108.133	-0.167	0.036
-251.063	184.874	0.122	0.179
-250.049	162.178	-0.182	-0.252
-249.034	210.734	-0.146	-0.227
-248.019	-200.000	-0.020	-0.354
-247.005	-200.000	-0.017	0.151
-245.990	373.611	0.171	-0.344
-244.976	675.932	-0.032	-0.082
-243.961	29.867	0.203	-0.171
-242.946	16.634	0.043	0.034
-241.932	-66.744	0.113	0.044
-240.917	201.208	-0.134	0.204
-239.903	-142.447	-0.231	0.022
-238.888	-48.356	0.112	-0.054
-237.873	-200.000	-0.040	0.334
-236.859	-200.000	-0.001	-0.037
-235.844	-185.035	0.211	0.003
-234.830	117.746	0.122	0.148
-233.815	800.000	0.028	-0.081
-232.800	-200.000	-0.020	0.154
-231.786	120.131	-0.250	-0.306
-230.771	-47.582	0.282	-0.135
-229.757	-3.879	0.169	-0.116
-228.742	-75.541	-0.277	0.097
-227.727	92.951	-0.112	-0.125
-226.713	-42.043	-0.108	0.054
-225.698	-200.000	-0.002	-0.125
-224.684	13.614	0.188	0.144
-223.669	56.157	-0.030	0.029
-222.655	-200.000	0.036	0.206
-221.640	-200.000	0.022	-0.148
-220.625	382.463	0.178	0.361
-219.611	391.763	0.084	0.172
-218.596	800.000	-0.064	0.266
-217.582	-200.000	0.046	0.430
-216.567	599.907	0.082	-0.201
-215.552	-50.938	0.317	-0.147
-214.538	800.000	0.104	-0.388
-213.523	228.781	-0.064	0.103
-212.509	-34.463	-0.556	-0.301
-211.494	279.744	-0.120	-0.211
-210.479	-157.605	0.354	-0.021
-209.465	168.952	0.120	-0.168
-208.450	62.847	-0.164	0.161
-207.436	343.188	-0.065	0.126
-206.421	474.646	-0.036	0.079
-205.406	144.732	-0.199	0.262
-204.392	-46.445	-0.306	0.148
-203.377	800.000	-0.069	0.197
-202.363	233.249	0.194	-0.315
-201.348	-200.000	0.006	0.303
-200.333	-200.000	0.009	0.039
-199.319	-2.699	-0.161	0.111
-198.304	-200.000	0.021	0.101
-197.290	-158.663	0.299	0.017
-196.275	37.323	-0.273	-0.238
-195.260	-200.000	0.026	0.189
-194.246	140.303	-0.058	-0.075
-193.231	800.000	0.055	0.161
-192.217	-16.225	0.164	-0.103
-191.202	-200.000	-0.037	-0.416
-190.187	371.508	0.087	0.174
-189.173	-78.838	0.327	-0.110
-188.158	255.617	0.070	-0.119
-187.144	-152.083	0.089	0.006
-186.129	-12.927	-0.145	0.093
-185.114	-118.604	0.196	-0.034
-184.100	-145.994	0.231	0.020
-183.085	385.329	0.181	0.367
-182.071	-134.624	-0.275	-0.033
-181.056	-59.705	-0.190	0.080
-180.042	130.086	0.193	0.244
-179.027	591.512	0.039	0.095
-178.012	-200.000	-0.000	0.453
-176.998	296.305	0.224	0.405
-175.983	-200.000	0.005	-0.091
-174.969	-200.000	-0.024	0.204
-173.954	-91.950	0.155	-0.043
-172.939	-28.403	0.107	0.061
-171.925	-20.605	0.359	0.217
-170.910	373.364	0.107	0.214
-169.896	-13.630	0.154	-0.098
-168.881	111.991	-0.336	-0.400
-167.866	-200.000	0.003	0.282
-166.852	589.008	0.068	-0.165
-165.837	-200.000	-0.051	-0.312
-164.823	800.000	-0.020	-0.066
-163.808	311.138	-0.039	-0.073
-162.793	-200.000	0.016	-0.147
-161.779	24.393	-0.140	-0.114
-160.764	-200.000	0.014	0.392
-159.750	446.559	0.071	-0.154
-158.735	-17.625	0.256	-0.159
-157.720	-80.137	0.159	0.053
-156.706	258.517	0.304	0.516
-155.691	-200.000	0.015	0.194
-154.677	-200.000	0.040	-0.317
-153.662	586.105	-0.099	0.241
-152.647	53.572	0.092	-0.087
-151.633	85.926	0.272	0.294
-150.618	294.080	-0.116	0.208
-149.604	2.652	0.280	-0.199
-148.589	-17.261	0.115	0.071
-147.574	-200.000	0.005	0.051
-146.560	92.026	-0.148	0.164
-145.545	28.148	-0.155	-0.129
-144.531	109.149	-0.174	-0.205
-143.516	-7.685	-0.052	0.035
-142.502	-80.682	0.212	0.069
-141.487	628.734	0.036	-0.089
-140.472	-84.344	-0.229	0.071
-139.458	106.343	-0.118	0.137
-138.443	233.960	0.144	0.233
-137.429	200.212	-0.094	0.141
-136.414	-17.949	-0.086	0.053
-135.399	25.909	0.128	0.105
-134.385	-105.049	-0.296	-0.067
-133.370	25.068	-0.272	-0.222
-132.356	60.866	0.082	-0.080
-131.341	800.000	0.067	0.186
-130.326	-59.538	-0.046	0.019
-129.312	-100.788	0.092	-0.022
-128.297	-17.111	0.229	-0.142
-127.283	632.223	-0.013	-0.032
-126.268	800.000	-0.213	-0.733
-125.253	-81.767	-0.173	-0.056
-124.239	-23.545	0.432	-0.255
-123.224	-200.000	-0.014	-0.225
-122.210	800.000	0.026	-0.092
