DTS Sentinel unit serial number:	SN413079Multiplexer serial number:	ORYXHardware model number:	OX4-SRSoftware version number:	ORYX F/W v4.00 Oryx Data Collector v3.7.2.0data status	okinstallation	princeton_trtdifferential loss correction	single-endedforward channel	channel 2reverse channel	N/Adate	2019/09/15time	22:03:35forward acquisition time	60.00reverse acquisition time	0.00gamma	496.2192k internal	0.2335k external	0.2335temperature offset calibration	0.9944default loss term (dB/km)	0.3790temperature slope calibration	1.0000multiplexer offset coefficient	1.0000multiplexer slope coefficient	1.0000fibre end	0.00T internal ref (°C)	29.78T ext. ref 1 (°C)	8.56T ext. ref 2 (°C)	22.95length (m)	temperature (°C)	Stokes	anti-Stokes-747.200	297.047	-0.150	-0.277
-746.185	467.565	-0.131	0.295
-745.171	198.094	0.045	0.069
-744.156	-200.000	-0.048	0.297
-743.142	139.775	0.128	-0.170
-742.127	-200.000	-0.040	0.215
-741.112	31.539	-0.054	0.047
-740.098	-95.330	-0.360	-0.097
-739.083	480.808	0.120	0.274
-738.069	800.000	-0.028	0.116
-737.054	76.510	-0.173	0.184
-736.039	-38.864	-0.210	-0.111
-735.025	-55.106	0.070	0.031
-734.010	-46.843	-0.126	-0.062
-732.996	-6.418	-0.201	-0.138
-731.981	-96.960	0.199	-0.052
-730.966	-200.000	0.029	0.141
-729.952	-200.000	-0.009	-0.050
-728.937	-200.000	0.021	-0.181
-727.923	-71.640	-0.134	-0.050
-726.908	-166.737	-0.257	0.011
-725.894	-120.807	-0.207	0.035
-724.879	-155.951	-0.169	0.011
-723.864	-80.419	-0.321	0.108
-722.850	-33.924	0.315	0.174
-721.835	-90.086	0.168	-0.049
-720.821	-200.000	-0.016	-0.293
-719.806	49.746	-0.070	-0.067
-718.791	-18.202	0.148	-0.093
-717.777	-39.611	0.108	0.057
-716.762	800.000	-0.034	0.125
-715.748	-106.017	-0.236	-0.053
-714.733	-200.000	0.005	-0.252
-713.718	170.025	-0.082	-0.118
-712.704	-101.818	-0.187	0.045
-711.689	72.900	0.184	0.193
-710.675	8.232	-0.110	0.083
-709.660	-10.728	0.132	-0.087
-708.645	-158.568	0.080	-0.005
-707.631	551.627	-0.158	0.380
-706.616	56.551	-0.157	0.154
-705.602	11.343	0.345	0.265
-704.587	-35.126	-0.116	-0.064
-703.572	-149.609	-0.131	-0.010
-702.558	-45.270	-0.118	-0.059
-701.543	169.385	-0.044	-0.064
-700.529	-172.084	0.338	0.011
-699.514	-41.915	0.349	0.180
-698.499	-2.588	0.051	-0.035
-697.485	13.388	-0.306	0.238
-696.470	58.324	-0.220	0.216
-695.456	-200.000	0.013	0.143
-694.441	292.434	0.140	-0.256
-693.426	324.984	-0.091	0.175
-692.412	-29.761	0.176	-0.101
-691.397	-200.000	-0.002	-0.310
-690.383	-71.311	0.121	0.045
-689.368	135.328	-0.134	-0.175
-688.354	217.765	-0.118	-0.189
-687.339	800.000	-0.060	0.199
-686.324	564.708	0.130	0.315
-685.310	-64.794	0.330	-0.134
-684.295	374.980	0.104	-0.213
-683.281	312.188	-0.143	-0.268
-682.266	51.322	-0.287	0.273
-681.251	223.639	0.148	0.240
-680.237	449.578	-0.021	0.045
-679.222	800.000	0.061	-0.255
-678.208	-200.000	-0.019	-0.209
-677.193	-200.000	-0.024	0.133
-676.178	232.824	0.098	-0.162
-675.164	800.000	0.042	0.133
-674.149	79.343	0.082	0.088
-673.135	35.178	-0.443	0.389
-672.120	161.904	-0.122	-0.171
-671.105	-200.000	0.028	-0.145
-670.091	-161.166	-0.068	0.004
-669.076	256.417	-0.200	-0.343
-668.062	-200.000	0.016	-0.325
-667.047	-200.000	0.006	-0.129
-666.032	-111.798	0.309	0.063
-665.018	-200.000	-0.051	0.326
-664.003	-89.597	0.219	-0.064
-662.989	-33.905	-0.115	-0.064
-661.974	106.832	0.193	-0.229
-660.959	-200.000	0.040	-0.254
-659.945	1.184	0.059	-0.042
-658.930	-85.094	0.084	0.026
-657.916	-81.890	0.071	0.023
-656.901	-18.919	0.093	-0.058
-655.886	-87.596	-0.371	-0.112
-654.872	-138.519	-0.312	0.034
-653.857	-200.000	0.007	0.030
-652.843	-86.676	-0.041	-0.013
-651.828	470.117	0.070	-0.157
-650.814	145.247	-0.272	0.364
-649.799	93.738	-0.143	0.162
-648.784	13.138	-0.376	0.292
-647.770	172.770	-0.217	0.313
-646.755	0.565	0.210	-0.150
-645.741	71.181	0.069	-0.071
-644.726	464.481	-0.126	0.281
-643.711	800.000	-0.002	-0.007
-642.697	800.000	-0.095	-0.277
-641.682	-119.842	0.231	0.040
-640.668	800.000	0.138	-0.513
-639.653	-20.528	-0.274	0.168
-638.638	47.974	-0.303	-0.283
-637.624	136.367	0.187	-0.245
-636.609	-52.164	0.056	0.026
-635.595	323.441	-0.095	-0.181
-634.580	-200.000	-0.007	0.107
-633.565	-85.232	0.194	-0.061
-632.551	-126.273	0.210	0.031
-631.536	17.458	-0.173	-0.137
-630.522	-184.741	-0.299	0.005
-629.507	-21.375	-0.131	0.080
-628.492	800.000	0.075	0.209
-627.478	31.507	0.252	-0.217
-626.463	-200.000	0.069	0.343
-625.449	128.129	-0.345	-0.439
-624.434	-200.000	0.008	-0.265
-623.419	-139.559	0.107	-0.011
-622.405	181.494	-0.132	0.194
-621.390	70.027	-0.123	0.127
-620.376	-69.738	0.104	-0.040
-619.361	-136.627	-0.183	0.021
-618.346	-124.973	-0.153	-0.024
-617.332	120.688	0.201	0.249
-616.317	-200.000	-0.002	0.014
-615.303	800.000	0.052	-0.186
-614.288	70.602	-0.262	-0.271
-613.273	-200.000	-0.004	0.023
-612.259	637.298	0.021	0.054
-611.244	121.415	-0.119	-0.148
-610.230	100.919	-0.150	0.174
-609.215	-200.000	0.000	0.029
-608.201	124.258	-0.126	0.158
-607.186	586.857	-0.029	0.072
-606.171	175.215	-0.177	-0.256
-605.157	-200.000	-0.024	0.151
-604.142	-18.949	0.114	-0.071
-603.128	-85.935	-0.082	-0.025
-602.113	-186.373	-0.271	0.004
-601.098	-200.000	-0.069	-0.327
-600.084	-142.016	-0.191	0.019
-599.069	63.611	0.175	-0.176
-598.055	-200.000	-0.029	-0.315
-597.040	-43.367	-0.254	0.128
-596.025	800.000	0.057	0.182
-595.011	-33.029	-0.239	-0.133
-593.996	-54.742	-0.374	-0.169
-592.982	-108.770	-0.314	-0.067
-591.967	166.857	-0.216	0.306
-590.952	313.722	0.031	0.058
-589.938	112.617	0.104	-0.125
-588.923	105.753	-0.112	0.132
-587.909	-131.056	0.168	-0.022
-586.894	465.065	0.107	-0.239
-585.879	490.602	-0.078	-0.177
-584.865	-13.725	-0.195	0.126
-583.850	252.174	0.061	0.104
-582.836	387.287	0.160	-0.331
-581.821	-174.038	0.125	-0.004
-580.806	-166.179	-0.273	0.012
-579.792	-2.064	0.092	-0.065
-578.777	203.408	0.068	-0.105
-577.763	108.055	0.179	0.213
-576.748	-200.000	0.026	0.170
-575.733	767.691	0.190	-0.515
-574.719	4.346	0.191	-0.140
-573.704	427.454	-0.107	0.230
-572.690	-52.325	0.212	0.098
-571.675	19.855	0.028	0.023
-570.661	432.199	-0.111	0.241
-569.646	13.392	0.242	0.187
-568.631	555.948	-0.071	0.172
-567.617	-132.208	0.236	-0.031
-566.602	-70.378	-0.125	0.047
-565.588	33.364	0.255	-0.221
-564.573	136.923	-0.083	-0.108
-563.558	-94.460	0.223	0.061
-562.544	-200.000	0.007	0.076
-561.529	155.556	0.098	-0.135
-560.515	-117.409	0.052	-0.009
-559.500	-51.691	-0.265	-0.123
-558.485	118.484	0.218	-0.268
-557.471	-200.000	0.032	-0.508
-556.456	-70.334	0.130	0.049
-555.442	800.000	0.047	0.196
-554.427	-136.145	-0.047	0.005
-553.412	259.988	-0.059	-0.102
-552.398	368.012	-0.072	-0.145
-551.383	800.000	-0.060	0.249
-550.369	-200.000	-0.039	-0.192
-549.354	-200.000	0.029	-0.224
-548.339	77.198	0.180	-0.190
-547.325	321.609	-0.075	0.143
-546.310	74.012	-0.260	-0.272
-545.296	-128.090	-0.128	-0.018
-544.281	800.000	-0.075	0.293
-543.266	80.957	0.076	-0.082
-542.252	636.119	0.126	-0.318
-541.237	800.000	-0.023	-0.066
-540.223	-155.414	0.172	0.011
-539.208	35.023	-0.118	0.103
-538.193	398.221	-0.056	0.116
-537.179	-159.610	-0.272	0.015
-536.164	-200.000	0.064	0.340
-535.150	-40.930	0.201	-0.104
-534.135	-200.000	0.024	0.189
-533.121	-150.655	0.130	-0.010
-532.106	-66.163	0.384	0.152
-531.091	340.620	-0.043	-0.084
-530.077	-159.927	-0.277	0.015
-529.062	800.000	-0.010	0.032
-528.048	-164.964	0.287	-0.013
-527.033	-165.034	-0.089	-0.004
-526.018	347.992	0.055	0.107
-525.004	-144.742	-0.227	0.021
-523.989	800.000	0.083	-0.310
-522.975	-63.866	-0.234	-0.095
-521.960	-39.692	0.477	0.249
-520.945	166.720	0.216	0.306
-519.931	-143.986	0.196	0.018
-518.916	-65.370	0.163	-0.065
-517.902	-165.697	-0.028	-0.001
-516.887	237.497	-0.118	0.195
-515.872	-52.558	0.111	0.051
-514.858	162.597	-0.215	-0.301
-513.843	-200.000	-0.005	-0.350
-512.829	171.969	0.103	0.148
-511.814	-200.000	-0.008	-0.078
-510.799	-160.794	-0.154	-0.008
-509.785	61.794	0.382	0.378
-508.770	124.694	0.087	-0.109
-507.756	-200.000	-0.005	-0.263
-506.741	-160.009	-0.144	-0.008
-505.726	-9.504	0.150	-0.100
-504.712	-200.000	-0.066	0.326
-503.697	384.329	0.102	0.209
-502.683	-136.700	0.583	0.067
-501.668	90.416	-0.174	0.194
-500.653	7.826	-0.431	0.321
-499.639	23.896	0.165	0.135
-498.624	24.529	0.226	0.186
-497.610	-164.779	-0.262	-0.012
-496.595	-120.458	0.358	0.061
-495.581	-200.000	0.032	0.240
-494.566	800.000	-0.054	-0.151
-493.551	-52.293	-0.307	0.142
-492.537	800.000	-0.047	0.153
-491.522	-123.066	0.221	0.035
-490.508	800.000	0.082	-0.292
-489.493	59.013	0.102	0.100
-488.478	-82.583	-0.238	-0.077
-487.464	-72.169	-0.144	0.053
-486.449	179.248	-0.147	-0.214
-485.435	-200.000	0.025	-0.476
-484.420	72.269	0.031	0.033
-483.405	-95.088	-0.288	0.077
-482.391	-117.961	-0.136	-0.024
-481.376	-34.302	0.210	-0.115
-480.362	321.072	-0.107	-0.202
-479.347	34.380	0.208	0.181
-478.332	-65.579	0.198	-0.079
-477.318	-7.259	0.164	0.110
-476.303	105.280	-0.195	-0.229
-475.289	-111.106	-0.256	0.052
-474.274	359.004	-0.057	-0.113
-473.259	242.020	-0.185	0.307
-472.245	144.995	-0.019	0.025
-471.230	191.632	0.067	0.100
-470.216	800.000	0.122	-0.482
-469.201	26.752	0.073	-0.061
-468.186	83.925	0.034	0.037
-467.172	115.902	0.125	-0.152
-466.157	-200.000	-0.058	-0.325
-465.143	212.982	-0.066	0.104
-464.128	114.312	-0.097	0.118
-463.113	494.602	-0.056	0.129
-462.099	196.350	-0.036	-0.054
-461.084	-200.000	-0.049	-0.395
-460.070	-132.503	-0.094	-0.012
-459.055	-200.000	-0.007	0.222
-458.040	235.202	-0.121	-0.198
-457.026	-200.000	-0.038	0.241
-456.011	-200.000	0.022	0.558
-454.997	-85.154	-0.504	0.157
-453.982	800.000	0.107	0.311
-452.968	67.569	0.217	0.220
-451.953	-200.000	-0.094	-0.414
-450.938	-84.344	-0.192	0.060
-449.924	-105.775	0.076	0.017
-448.909	-38.910	-0.192	-0.100
-447.895	9.908	-0.182	0.137
-446.880	800.000	-0.061	-0.166
-445.865	-200.000	-0.016	0.310
-444.851	-45.704	-0.257	-0.126
-443.836	-115.271	0.100	0.019
-442.822	-67.803	-0.293	-0.114
-441.807	-91.802	-0.054	0.015
-440.792	-62.541	0.148	-0.061
-439.778	-92.755	-0.130	-0.036
-438.763	-200.000	-0.033	-0.216
-437.749	745.876	-0.050	-0.133
-436.734	800.000	-0.060	0.227
-435.719	-106.189	0.210	-0.047
-434.705	-140.106	0.118	0.012
-433.690	245.002	0.152	-0.253
-432.676	-78.007	-0.194	0.066
-431.661	-91.829	0.248	-0.070
-430.646	-28.869	-0.252	-0.144
-429.632	-69.140	-0.068	0.026
-428.617	-200.000	0.024	-0.164
-427.603	228.517	0.205	0.331
-426.588	-19.223	-0.085	0.052
-425.573	13.877	0.322	-0.249
-424.559	800.000	-0.013	0.055
-423.544	-135.238	0.373	0.044
-422.530	-200.000	-0.045	0.226
-421.515	-104.238	0.350	0.081
-420.500	365.119	0.095	0.191
-419.486	-51.306	-0.168	0.078
-418.471	-200.000	-0.019	0.194
-417.457	19.515	0.213	-0.169
-416.442	-57.321	-0.083	0.036
-415.428	-200.000	0.035	-0.328
-414.413	800.000	-0.032	-0.114
-413.398	138.029	-0.163	0.211
-412.384	-200.000	0.011	0.120
-411.369	-3.919	-0.255	0.176
-410.355	222.767	-0.158	0.252
-409.340	800.000	0.026	-0.101
-408.325	800.000	0.041	0.124
-407.311	-90.530	0.306	0.088
-406.296	-34.206	-0.326	-0.178
-405.282	-77.856	0.140	-0.048
-404.267	-68.964	-0.385	-0.147
-403.252	-200.000	-0.007	-0.261
-402.238	-183.125	-0.323	-0.006
-401.223	-200.000	-0.067	-0.314
-400.209	-200.000	0.103	0.496
-399.194	-22.189	-0.411	0.247
-398.179	-109.564	0.250	-0.052
-397.165	27.812	-0.238	0.198
-396.150	-154.435	0.357	0.024
-395.136	-80.213	0.117	0.039
-394.121	71.519	0.220	0.226
-393.106	-200.000	-0.019	0.236
-392.092	196.702	-0.132	-0.199
-391.077	-145.860	-0.247	-0.022
-390.063	510.116	-0.085	-0.197
-389.048	800.000	-0.064	0.211
-388.033	61.046	-0.194	0.191
-387.019	74.272	0.235	0.245
-386.004	276.392	0.062	-0.109
-384.990	-200.000	0.061	-0.287
-383.975	18.968	0.252	-0.200
-382.960	800.000	-0.098	-0.291
-381.946	-140.003	-0.342	-0.036
-380.931	-200.000	0.040	0.329
-379.917	800.000	0.074	-0.292
-378.902	-75.230	-0.263	0.093
-377.888	-142.708	0.412	0.040
-376.873	-200.000	0.044	-0.234
-375.858	141.580	-0.216	-0.284
-374.844	-110.442	0.037	-0.008
-373.829	5.831	0.275	-0.201
-372.815	-52.034	-0.046	0.021
-371.800	-18.087	-0.072	0.045
-370.785	106.245	0.083	-0.098
-369.771	-130.560	-0.277	0.037
-368.756	-126.879	-0.131	0.019
-367.742	-200.000	-0.015	-0.143
-366.727	-200.000	-0.021	-0.110
-365.712	291.628	0.209	-0.376
-364.698	639.536	0.153	-0.386
-363.683	531.060	0.166	-0.388
-362.669	58.635	-0.274	-0.266
-361.654	327.971	0.345	0.656
-360.639	-181.517	-0.387	0.007
-359.625	123.407	-0.175	-0.218
-358.610	800.000	0.052	0.224
-357.596	-33.497	0.484	-0.264
-356.581	-132.627	-0.322	-0.041
-355.566	800.000	-0.063	-0.236
-354.552	200.518	0.190	0.289
-353.537	-130.995	0.306	0.040
-352.523	679.070	-0.156	-0.401
-351.508	38.256	0.346	0.305
-350.493	125.656	0.115	-0.144
-349.479	495.994	0.078	0.178
-348.464	-10.151	0.411	0.270
-347.450	-156.222	-0.060	-0.004
-346.435	308.600	0.168	-0.311
-345.420	10.135	0.072	-0.054
-344.406	-23.947	-0.124	-0.073
-343.391	-200.000	-0.049	-0.487
-342.377	150.217	0.091	-0.122
-341.362	-200.000	-0.025	0.463
-340.348	-85.240	0.021	-0.007
-339.333	-144.545	-0.472	-0.043
-338.318	-200.000	0.044	0.190
-337.304	800.000	0.016	-0.060
-336.289	-200.000	-0.061	0.287
-335.275	68.947	0.193	-0.196
-334.260	-118.812	-0.163	-0.028
-333.245	800.000	0.061	-0.237
-332.231	-200.000	0.010	-0.124
-331.216	-90.241	-0.318	0.091
-330.202	498.783	0.154	-0.351
-329.187	-178.585	-0.196	-0.004
-328.172	-93.143	-0.279	0.077
-327.158	2.165	0.136	0.097
-326.143	-61.226	-0.018	0.007
-325.129	43.392	0.168	0.152
-324.114	165.059	0.096	0.134
-323.099	-200.000	0.004	-0.017
-322.085	-31.868	0.081	0.045
-321.070	-200.000	0.002	0.167
-320.056	-115.632	-0.073	-0.014
-319.041	-21.386	-0.229	0.138
-318.026	21.884	0.175	0.141
-317.012	2.550	-0.203	-0.145
-315.997	-1.835	0.411	0.286
-314.983	-200.000	-0.002	-0.028
-313.968	-14.788	0.255	-0.162
-312.953	9.877	0.041	-0.030
-311.939	58.817	0.017	0.017
-310.924	800.000	0.036	0.098
-309.910	-144.924	-0.395	0.036
-308.895	-19.593	0.186	-0.114
-307.880	40.115	-0.216	-0.192
-306.866	175.463	0.037	0.053
-305.851	52.545	0.122	-0.116
-304.837	-144.277	0.304	0.028
-303.822	85.476	-0.093	-0.101
-302.807	-18.782	0.191	0.117
-301.793	17.876	-0.006	0.005
-300.778	-0.715	0.074	-0.052
-299.764	800.000	-0.056	0.178
-298.749	800.000	0.063	-0.249
-297.735	800.000	0.034	-0.127
-296.720	-42.730	0.349	0.175
-295.705	483.270	-0.091	0.205
-294.691	800.000	-0.078	-0.266
-293.676	-143.396	0.258	0.024
-292.662	-200.000	0.023	0.135
-291.647	-200.000	0.036	0.317
-290.632	-108.334	-0.201	-0.043
-289.618	800.000	-0.084	0.285
-288.603	-166.037	0.222	0.009
-287.589	-117.614	0.006	-0.001
-286.574	-200.000	0.030	-0.217
-285.559	-37.181	0.061	0.032
-284.545	66.401	0.135	-0.135
-283.530	310.094	-0.196	0.361
-282.516	120.791	-0.235	0.288
-281.501	800.000	0.066	0.200
-280.486	246.550	0.085	-0.141
-279.472	37.212	0.052	0.046
-278.457	176.168	-0.047	0.067
-277.443	-200.000	-0.004	0.238
-276.428	20.733	-0.193	-0.154
-275.413	397.520	0.096	-0.198
-274.399	17.614	0.095	-0.074
-273.384	26.459	-0.128	-0.105
-272.370	-31.992	0.056	-0.031
-271.355	47.466	-0.140	0.129
-270.340	66.826	-0.065	-0.065
-269.326	-200.000	0.058	-0.292
-268.311	122.367	0.050	0.062
-267.297	-200.000	0.027	0.157
-266.282	44.077	-0.176	0.159
-265.267	-169.037	-0.418	-0.015
-264.253	-200.000	-0.028	0.189
-263.238	140.562	0.128	0.166
-262.224	800.000	-0.037	-0.118
-261.209	-191.112	0.193	0.002
-260.195	-54.122	0.185	0.083
-259.180	222.421	0.110	0.174
-258.165	100.772	0.203	0.232
-257.151	207.966	0.180	0.277
-256.136	-50.932	-0.120	0.055
-255.122	800.000	0.074	-0.267
-254.107	37.204	0.212	0.185
-253.092	305.477	-0.052	0.094
-252.078	506.545	-0.102	0.233
-251.063	-200.000	-0.004	-0.191
-250.049	-200.000	0.017	0.173
-249.034	664.356	-0.060	0.152
-248.019	800.000	0.043	0.171
-247.005	218.883	-0.063	0.099
-245.990	-26.195	-0.218	-0.126
-244.976	800.000	-0.038	-0.161
-243.961	282.957	0.132	0.234
-242.946	800.000	0.050	0.209
-241.932	465.122	-0.124	-0.273
-240.917	588.747	0.097	0.234
-239.903	143.983	-0.277	0.364
-238.888	290.484	-0.176	0.315
-237.873	-87.053	0.107	-0.032
-236.859	800.000	0.084	-0.265
-235.844	193.699	-0.096	-0.143
-234.830	-70.106	0.139	-0.052
-233.815	-200.000	0.014	-0.072
-232.800	80.196	-0.189	0.201
-231.786	149.286	0.327	-0.436
-230.771	-46.408	0.300	-0.145
-229.757	-40.004	-0.398	-0.204
-228.742	82.117	0.103	0.110
-227.727	-200.000	-0.015	-0.150
-226.713	170.161	0.090	0.126
-225.698	52.816	0.063	0.059
-224.684	-96.130	0.333	-0.087
-223.669	800.000	-0.153	0.472
-222.655	78.126	0.206	-0.217
-221.640	-200.000	0.004	-0.350
-220.625	74.623	-0.263	0.273
-219.611	-122.578	0.125	-0.020
-218.596	122.480	-0.145	0.178
-217.582	788.513	-0.044	0.118
-216.567	49.055	0.226	-0.209
-215.552	-30.328	-0.138	0.077
-214.538	13.678	0.129	0.098
-213.523	-145.384	-0.206	-0.018
-212.509	-19.289	0.141	0.086
-211.494	800.000	0.106	0.354
-210.479	236.224	-0.100	0.162
-209.465	-183.979	-0.370	-0.006
-208.450	-200.000	-0.023	-0.122
-207.436	-159.466	0.355	-0.019
-206.421	336.204	-0.118	-0.225
-205.406	-5.925	-0.182	-0.123
-204.392	-35.663	0.217	-0.116
-203.377	140.328	0.067	0.087
-202.363	-7.924	-0.244	0.162
-201.348	27.211	0.173	-0.143
-200.333	-200.000	-0.002	0.167
-199.319	-200.000	0.023	-0.234
-198.304	-35.180	0.204	-0.109
-197.290	-74.064	0.210	-0.075
-196.275	-200.000	-0.070	-0.305
-195.260	9.116	0.192	-0.143
-194.246	-200.000	-0.002	0.067
-193.231	63.275	0.112	0.110
-192.217	73.734	0.224	-0.231
-191.202	-60.485	-0.069	0.029
-190.187	-200.000	-0.013	-0.128
-189.173	50.078	-0.048	-0.044
-188.158	-21.974	0.131	0.078
-187.144	-60.655	-0.057	0.024
-186.129	32.143	-0.199	-0.168
-185.114	-89.683	-0.266	0.077
-184.100	133.733	-0.022	-0.028
-183.085	-145.081	0.239	0.021
-182.071	800.000	-0.031	0.089
-181.056	-200.000	-0.022	-0.232
-180.042	-200.000	-0.012	0.000
-179.027	800.000	-0.017	-0.062
-178.012	-200.000	0.021	-0.247
-176.998	-189.592	0.181	0.002
-175.983	300.326	-0.262	0.475
-174.969	800.000	0.072	0.227
-173.954	-43.758	-0.145	-0.072
-172.939	-45.095	0.104	0.051
-171.925	-200.000	-0.019	0.193
-170.910	-41.489	-0.289	0.146
-169.896	-67.120	-0.177	0.068
-168.881	0.731	0.057	-0.040
-167.866	123.265	0.147	0.181
-166.852	82.116	-0.218	0.233
-165.837	-17.220	0.242	0.150
-164.823	-200.000	0.000	-0.144
-163.808	-200.000	0.003	0.078
-162.793	-90.764	-0.270	0.076
-161.779	104.866	-0.080	-0.093
-160.764	-119.882	0.287	-0.049
-159.750	-200.000	0.029	0.151
-158.735	-200.000	0.005	0.306
-157.720	-126.368	0.206	0.030
-156.706	800.000	0.095	-0.383
-155.691	257.456	-0.199	-0.335
-154.677	-200.000	-0.012	0.201
-153.662	800.000	0.010	0.036
-152.647	118.487	0.110	-0.133
-151.633	-103.211	0.230	0.053
-150.618	-200.000	-0.024	0.207
-149.604	604.203	-0.037	0.090
-148.589	185.166	-0.061	-0.089
-147.574	-103.411	0.139	0.032
-146.560	800.000	0.063	-0.248
-145.545	-161.924	0.685	0.034
-144.531	-56.455	-0.257	-0.112
-143.516	-128.093	-0.215	-0.030
-142.502	-46.291	-0.215	0.104
-141.487	18.355	0.097	0.076
-140.472	-37.514	0.239	-0.125
-139.458	-200.000	0.032	0.241
-138.443	-24.836	-0.089	-0.052
-137.429	-166.528	-0.334	0.014
-136.414	141.953	-0.088	-0.115
-135.399	-178.732	-0.348	-0.008
-134.385	-200.000	-0.005	0.162
-133.370	-96.711	0.305	-0.079
-132.356	-25.222	-0.114	-0.066
-131.341	-38.226	0.257	0.133
-130.326	-200.000	-0.017	0.269
-129.312	131.148	0.208	-0.262
-128.297	345.234	0.085	0.164
-127.283	-200.000	-0.010	0.232
-126.268	-45.115	0.183	-0.089
-125.253	800.000	0.126	-0.478
-124.239	426.631	0.013	-0.027
-123.224	106.349	-0.084	-0.097
-122.210	-128.865	0.096	-0.013
-121.195	538.575	0.091	-0.211
