DTS Sentinel unit serial number:	SN413079Multiplexer serial number:	ORYXHardware model number:	OX4-SRSoftware version number:	ORYX F/W v4.00 Oryx Data Collector v3.7.2.0data status	okinstallation	princeton_trtdifferential loss correction	single-endedforward channel	channel 2reverse channel	N/Adate	2019/09/18time	01:03:35forward acquisition time	60.00reverse acquisition time	0.00gamma	496.2192k internal	0.2349k external	0.2349temperature offset calibration	0.9986default loss term (dB/km)	0.3790temperature slope calibration	1.0000multiplexer offset coefficient	1.0000multiplexer slope coefficient	1.0000fibre end	0.00T internal ref (°C)	23.25T ext. ref 1 (°C)	0.17T ext. ref 2 (°C)	16.97length (m)	temperature (°C)	Stokes	anti-Stokes-747.200	266.371	0.093	0.163
-746.185	800.000	0.067	0.248
-745.171	-200.000	0.012	0.229
-744.156	800.000	-0.024	0.100
-743.142	800.000	-0.025	-0.079
-742.127	57.596	-0.152	-0.148
-741.112	71.658	0.064	0.067
-740.098	-200.000	-0.045	0.216
-739.083	-39.149	-0.136	0.071
-738.069	83.838	-0.207	-0.226
-737.054	-83.075	0.165	0.053
-736.039	230.466	-0.149	-0.243
-735.025	800.000	-0.101	0.426
-734.010	-200.000	0.088	-0.531
-732.996	-30.338	0.161	0.091
-731.981	-133.613	0.113	0.014
-730.966	21.636	-0.135	-0.109
-729.952	214.483	-0.082	-0.130
-728.937	-46.852	-0.099	-0.048
-727.923	0.355	-0.238	-0.170
-726.908	-42.949	-0.198	0.100
-725.894	414.823	0.072	0.152
-724.879	257.085	-0.094	0.161
-723.864	47.613	-0.046	0.043
-722.850	73.159	-0.232	-0.242
-721.835	308.163	-0.152	-0.283
-720.821	-25.082	-0.295	-0.175
-719.806	800.000	0.093	-0.405
-718.791	57.348	0.278	0.271
-717.777	24.971	-0.123	0.102
-716.762	800.000	0.030	-0.109
-715.748	136.650	0.159	-0.207
-714.733	-43.918	-0.064	0.032
-713.718	-200.000	-0.026	-0.305
-712.704	-64.066	0.450	0.183
-711.689	23.118	0.121	-0.099
-710.675	19.004	-0.124	0.099
-709.660	-10.485	-0.222	-0.147
-708.645	15.741	0.302	-0.237
-707.631	-64.568	-0.094	-0.038
-706.616	800.000	0.039	0.166
-705.602	77.631	0.030	0.032
-704.587	-161.222	-0.122	0.006
-703.572	-108.104	-0.292	0.063
-702.558	-88.335	-0.147	0.044
-701.543	-200.000	0.032	-0.188
-700.529	-200.000	0.036	0.423
-699.514	3.880	-0.078	-0.057
-698.499	-76.730	0.074	-0.026
-697.485	-200.000	0.033	-0.188
-696.470	-60.142	0.024	0.010
-695.456	558.400	0.079	-0.190
-694.441	134.091	-0.113	0.146
-693.426	141.687	0.180	0.237
-692.412	565.292	-0.068	0.165
-691.397	-59.501	-0.419	0.180
-690.383	-14.317	-0.179	-0.115
-689.368	77.481	-0.182	0.193
-688.354	31.311	-0.085	0.073
-687.339	485.227	-0.095	-0.216
-686.324	383.862	-0.081	-0.166
-685.310	-36.650	-0.319	-0.171
-684.295	257.506	0.023	0.040
-683.281	-200.000	0.047	0.290
-682.266	-200.000	-0.014	-0.153
-681.251	800.000	0.021	-0.087
-680.237	-32.720	0.146	0.081
-679.222	586.116	0.113	0.278
-678.208	-135.124	0.351	0.042
-677.193	-57.511	0.237	0.103
-676.178	-91.667	0.200	-0.057
-675.164	-28.208	-0.394	-0.227
-674.149	441.567	-0.084	-0.184
-673.135	93.213	-0.170	0.191
-672.120	-37.556	-0.429	0.228
-671.105	484.947	-0.098	-0.222
-670.091	-188.884	0.117	0.001
-669.076	-43.198	0.213	-0.107
-668.062	-136.743	-0.307	0.035
-667.047	60.524	-0.176	0.174
-666.032	17.510	0.042	0.033
-665.018	-90.672	0.261	-0.075
-664.003	20.365	-0.225	-0.181
-662.989	14.393	-0.202	-0.157
-661.974	-59.281	-0.214	-0.092
-660.959	-112.907	0.243	0.048
-659.945	-61.672	0.055	0.023
-658.930	-18.946	0.191	-0.118
-657.916	3.293	0.257	0.186
-656.901	-0.616	-0.069	-0.049
-655.886	5.056	0.112	-0.082
-654.872	169.455	-0.078	0.111
-653.857	-52.856	0.199	-0.091
-652.843	-9.230	0.346	0.230
-651.828	-200.000	0.083	-0.377
-650.814	137.136	-0.213	-0.277
-649.799	-10.049	-0.183	-0.121
-648.784	252.139	-0.056	-0.095
-647.770	-80.971	0.343	0.113
-646.755	90.057	-0.181	0.201
-645.741	-62.613	-0.027	-0.011
-644.726	-69.135	0.027	-0.010
-643.711	800.000	0.042	-0.176
-642.697	800.000	-0.062	-0.206
-641.682	-200.000	0.078	0.347
-640.668	-94.838	0.216	0.058
-639.653	17.774	0.309	0.245
-638.638	92.251	0.061	-0.068
-637.624	708.709	0.024	-0.062
-636.609	705.593	-0.037	0.096
-635.595	579.243	0.090	-0.219
-634.580	-37.283	-0.176	0.094
-633.565	-146.390	0.124	-0.011
-632.551	48.500	-0.326	-0.303
-631.536	569.301	-0.186	-0.450
-630.522	95.992	-0.222	-0.252
-629.507	93.609	0.091	-0.102
-628.492	800.000	-0.064	-0.208
-627.478	800.000	-0.101	-0.314
-626.463	-126.208	0.027	0.004
-625.449	-2.108	0.138	0.097
-624.434	-200.000	0.021	-0.200
-623.419	-102.530	0.185	-0.044
-622.405	-200.000	-0.017	0.272
-621.390	-200.000	-0.008	-0.135
-620.376	14.656	-0.230	-0.179
-619.361	507.195	0.120	0.276
-618.346	-149.516	0.297	-0.023
-617.332	290.413	0.059	0.106
-616.317	-42.285	0.219	-0.111
-615.303	-105.372	-0.127	-0.029
-614.288	58.130	-0.015	-0.014
-613.273	-200.000	-0.010	-0.316
-612.259	-200.000	-0.010	0.070
-611.244	313.070	-0.148	0.277
-610.230	757.265	0.095	0.254
-609.215	224.995	-0.240	-0.386
-608.201	40.970	-0.152	-0.136
-607.186	187.934	-0.100	0.148
-606.171	-46.805	0.158	0.077
-605.157	-167.455	-0.143	-0.006
-604.142	226.705	0.073	-0.118
-603.128	800.000	0.099	0.365
-602.113	-61.625	-0.150	-0.062
-601.098	800.000	0.122	0.346
-600.084	800.000	-0.088	-0.266
-599.069	122.201	-0.120	-0.149
-598.055	-60.111	0.194	0.082
-597.040	437.292	-0.082	-0.176
-596.025	56.328	-0.087	-0.084
-595.011	-172.277	-0.095	-0.003
-593.996	-200.000	0.020	-0.308
-592.982	-6.600	0.266	-0.180
-591.967	101.195	-0.155	-0.179
-590.952	59.657	-0.237	0.232
-589.938	-6.562	0.170	-0.115
-588.923	-90.275	-0.147	-0.042
-587.909	410.154	0.058	0.122
-586.894	33.149	-0.084	-0.073
-585.879	34.442	0.337	0.292
-584.865	19.303	-0.244	-0.195
-583.850	-165.592	0.187	0.008
-582.836	800.000	0.070	0.273
-581.821	-101.640	-0.374	-0.090
-580.806	22.759	0.147	0.120
-579.792	-14.222	-0.170	0.109
-578.777	7.827	0.166	-0.123
-577.763	-9.415	-0.238	-0.158
-576.748	-103.879	0.187	0.043
-575.733	82.426	-0.130	0.140
-574.719	5.409	-0.193	-0.141
-573.704	-200.000	0.065	0.317
-572.690	-41.193	0.211	-0.108
-571.675	80.115	0.285	0.305
-570.661	351.552	-0.243	-0.477
-569.646	629.887	-0.115	-0.289
-568.631	89.046	0.162	-0.179
-567.617	-86.689	-0.453	0.138
-566.602	200.907	0.153	-0.234
-565.588	13.589	-0.040	-0.031
-564.573	73.834	0.128	0.133
-563.558	91.400	-0.236	0.263
-562.544	-67.522	0.036	-0.014
-561.529	117.576	-0.146	-0.178
-560.515	-200.000	-0.020	0.126
-559.500	-200.000	0.047	0.214
-558.485	-200.000	-0.073	-0.361
-557.471	377.356	-0.088	-0.178
-556.456	800.000	-0.115	-0.457
-555.442	-200.000	0.000	0.321
-554.427	800.000	-0.085	-0.335
-553.412	84.219	0.300	-0.325
-552.398	-200.000	0.011	-0.150
-551.383	148.342	0.113	0.151
-550.369	-114.206	-0.281	-0.054
-549.354	-71.067	-0.178	-0.066
-548.339	-129.749	0.380	0.052
-547.325	65.421	-0.075	-0.075
-546.310	-127.536	0.038	-0.005
-545.296	-15.378	-0.314	0.199
-544.281	-100.480	0.215	-0.053
-543.266	219.348	0.095	0.151
-542.252	-200.000	-0.007	0.212
-541.237	-200.000	0.013	0.100
-540.223	-65.382	0.391	0.156
-539.208	9.783	-0.328	-0.247
-538.193	-47.725	0.129	0.062
-537.179	-101.689	0.167	-0.040
-536.164	91.987	0.103	0.115
-535.150	800.000	-0.065	-0.200
-534.135	336.545	0.263	0.505
-533.121	785.920	-0.017	-0.045
-532.106	381.449	-0.058	-0.118
-531.091	-200.000	-0.036	0.430
-530.077	-42.581	0.218	0.110
-529.062	244.137	-0.184	-0.305
-528.048	195.762	-0.039	0.058
-527.033	595.054	0.093	-0.227
-526.018	143.612	-0.081	-0.107
-525.004	212.950	-0.053	0.082
-523.989	-59.711	-0.290	0.123
-522.975	-122.748	0.505	0.081
-521.960	-154.532	-0.190	0.013
-520.945	800.000	0.093	-0.356
-519.931	-200.000	-0.040	-0.269
-518.916	128.224	-0.100	0.126
-517.902	158.224	0.068	0.094
-516.887	-45.992	0.205	0.100
-515.872	-4.026	-0.016	0.011
-514.858	-4.611	-0.108	0.073
-513.843	-81.131	0.541	-0.177
-512.829	-142.932	0.398	-0.038
-511.814	-127.987	-0.129	-0.018
-510.799	-149.167	0.166	-0.013
-509.785	-86.804	0.420	-0.127
-508.770	-83.432	-0.315	0.100
-507.756	421.378	-0.138	0.292
-506.741	739.758	0.079	0.210
-505.726	220.079	-0.139	0.221
-504.712	114.801	0.125	-0.151
-503.697	17.061	-0.131	0.102
-502.683	304.268	0.120	-0.220
-501.668	164.134	-0.186	-0.259
-500.653	-131.010	0.181	-0.024
-499.639	-47.795	0.120	-0.057
-498.624	-200.000	0.011	-0.072
-497.610	-200.000	-0.003	0.094
-496.595	-169.852	-0.144	0.005
-495.581	-200.000	-0.004	0.132
-494.566	-163.124	-0.058	-0.003
-493.551	-167.746	-0.180	-0.007
-492.537	113.441	0.148	-0.178
-491.522	800.000	0.016	0.065
-490.508	800.000	-0.150	0.436
-489.493	141.727	-0.271	-0.354
-488.478	51.226	0.203	0.190
-487.464	-200.000	0.063	0.421
-486.449	-200.000	0.029	-0.211
-485.435	-86.613	-0.157	-0.048
-484.420	800.000	-0.036	-0.147
-483.405	-112.565	0.215	-0.042
-482.391	-200.000	0.031	0.199
-481.376	-40.567	0.446	-0.229
-480.362	230.337	0.086	0.138
-479.347	261.287	-0.059	-0.100
-478.332	800.000	0.047	-0.197
-477.318	90.076	-0.238	0.263
-476.303	-122.788	-0.128	0.020
-475.289	0.772	0.259	0.183
-474.274	761.368	0.089	-0.239
-473.259	-4.176	-0.297	-0.203
-472.245	-162.731	0.106	-0.005
-471.230	590.736	0.086	-0.210
-470.216	36.587	0.156	0.136
-469.201	-106.642	0.183	0.040
-468.186	-198.788	-0.230	-0.001
-467.172	57.918	0.062	-0.060
-466.157	-13.644	0.261	-0.167
-465.143	-128.726	-0.428	0.060
-464.128	58.731	-0.143	0.139
-463.113	38.352	-0.082	0.072
-462.099	-200.000	-0.019	0.102
-461.084	204.704	0.162	-0.248
-460.070	297.583	0.086	-0.155
-459.055	800.000	-0.044	-0.130
-458.040	174.982	0.040	-0.057
-457.026	-200.000	-0.008	0.099
-456.011	138.130	-0.065	0.084
-454.997	-200.000	-0.046	0.357
-453.982	-200.000	0.009	0.138
-452.968	800.000	0.061	-0.179
-451.953	25.805	-0.131	0.108
-450.938	800.000	-0.053	0.171
-449.924	800.000	0.051	-0.201
-448.909	25.235	-0.259	-0.212
-447.895	-28.367	0.050	-0.029
-446.880	-200.000	0.005	0.036
-445.865	30.210	0.125	-0.105
-444.851	241.484	-0.163	-0.268
-443.836	-200.000	0.005	0.066
-442.822	-200.000	0.041	-0.215
-441.807	50.724	0.055	-0.052
-440.792	-37.598	0.002	-0.001
-439.778	32.561	0.112	-0.096
-438.763	-30.378	-0.083	-0.046
-437.749	800.000	0.046	-0.199
-436.734	129.949	-0.202	0.255
-435.719	-87.783	-0.085	0.025
-434.705	-143.484	-0.286	0.027
-433.690	-12.696	0.142	-0.091
-432.676	108.367	-0.034	-0.040
-431.661	-200.000	0.009	0.211
-430.646	-200.000	-0.016	-0.372
-429.632	6.878	-0.428	-0.314
-428.617	578.929	-0.112	0.270
-427.603	-124.589	-0.267	-0.041
-426.588	7.932	-0.120	0.088
-425.573	-185.460	0.369	0.006
-424.559	-200.000	0.015	0.180
-423.544	-200.000	-0.070	0.363
-422.530	-3.124	0.124	0.085
-421.515	-200.000	-0.009	-0.292
-420.500	-134.031	-0.094	0.012
-419.486	90.140	0.131	0.145
-418.471	-200.000	-0.030	-0.132
-417.457	206.342	0.077	-0.119
-416.442	-200.000	-0.023	-0.107
-415.428	44.763	-0.219	0.199
-414.413	-144.455	-0.269	0.025
-413.398	800.000	-0.037	0.145
-412.384	-133.990	0.211	0.026
-411.369	45.512	0.131	-0.119
-410.355	800.000	-0.053	-0.196
-409.340	153.276	-0.143	0.193
-408.325	119.642	0.081	0.099
-407.311	58.707	-0.091	0.088
-406.296	800.000	-0.063	-0.256
-405.282	-200.000	0.048	-0.219
-404.267	-200.000	0.019	0.289
-403.252	-200.000	-0.032	-0.147
-402.238	-151.547	0.054	0.004
-401.223	-14.096	-0.078	0.050
-400.209	-200.000	-0.032	0.188
-399.194	-200.000	0.006	0.208
-398.179	-200.000	-0.050	0.245
-397.165	130.091	-0.102	-0.129
-396.150	18.406	0.241	0.189
-395.136	129.284	0.111	0.140
-394.121	410.357	-0.170	0.355
-393.106	-200.000	-0.078	0.421
-392.092	-50.863	-0.143	0.066
-391.077	-200.000	-0.051	-0.328
-390.063	125.656	0.185	0.230
-389.048	116.008	0.218	0.263
-388.033	-108.648	-0.373	-0.079
-387.019	610.272	0.103	0.252
-386.004	582.992	-0.063	-0.152
-384.990	800.000	0.075	0.267
-383.975	250.845	0.168	-0.282
-382.960	-42.840	0.025	-0.013
-381.946	82.111	0.197	0.210
-380.931	-200.000	0.092	0.000
-379.917	-18.305	-0.184	-0.113
-378.902	800.000	-0.037	-0.155
-377.888	375.798	0.149	0.299
-376.873	-107.904	0.115	-0.025
-375.858	399.455	-0.121	-0.250
-374.844	57.456	-0.233	0.224
-373.829	-86.933	-0.454	0.136
-372.815	-81.714	-0.352	0.114
-371.800	-200.000	-0.014	0.394
-370.785	565.811	0.126	-0.300
-369.771	-123.653	0.273	-0.043
-368.756	-139.321	-0.156	-0.017
-367.742	13.570	-0.262	0.200
-366.727	-97.732	0.212	0.054
-365.712	142.722	0.081	0.106
-364.698	800.000	0.035	-0.112
-363.683	-5.853	0.142	-0.095
-362.669	800.000	-0.091	-0.278
-361.654	-200.000	-0.003	-0.342
-360.639	-200.000	-0.017	0.339
-359.625	-149.431	-0.125	0.010
-358.610	75.045	-0.294	0.305
-357.596	779.949	-0.051	-0.138
-356.581	11.922	-0.315	-0.238
-355.566	-200.000	0.019	-0.118
-354.552	800.000	0.081	-0.272
-353.537	-200.000	0.016	-0.235
-352.523	-68.339	-0.114	-0.044
-351.508	111.434	-0.147	-0.174
-350.493	199.294	-0.178	-0.269
-349.479	800.000	0.030	0.126
-348.464	-132.640	-0.138	0.017
-347.450	-200.000	0.030	0.146
-346.435	301.248	-0.107	0.194
-345.420	-200.000	0.010	-0.142
-344.406	-146.309	-0.158	-0.014
-343.391	18.215	0.127	0.100
-342.377	-65.171	-0.102	-0.041
-341.362	-71.863	0.260	0.095
-340.348	137.602	0.210	0.270
-339.333	-38.173	-0.274	0.143
-338.318	235.378	-0.065	0.105
-337.304	180.105	-0.150	0.216
-336.289	-191.667	-0.327	-0.003
-335.275	800.000	0.081	0.275
-334.260	-156.900	0.151	-0.009
-333.245	32.429	-0.067	-0.057
-332.231	-200.000	0.014	-0.173
-331.216	-58.793	-0.187	0.080
-330.202	84.284	-0.089	-0.095
-329.187	-65.601	-0.084	0.033
-328.172	390.485	-0.098	0.200
-327.158	480.390	0.068	0.150
-326.143	-23.820	0.242	-0.142
-325.129	-15.456	0.129	-0.081
-324.114	-157.220	0.290	0.017
-323.099	155.578	0.132	-0.179
-322.085	-50.865	0.124	-0.057
-321.070	-200.000	0.009	0.059
-320.056	-72.404	-0.281	-0.102
-319.041	-47.998	-0.227	0.108
-318.026	-139.283	0.356	0.038
-317.012	-123.357	-0.378	0.059
-315.997	-165.178	0.200	0.009
-314.983	329.174	0.082	0.155
-313.968	-142.225	0.138	-0.013
-312.953	-50.171	-0.290	-0.135
-311.939	800.000	-0.009	0.035
-310.924	199.924	0.138	0.207
-309.910	-133.108	-0.158	-0.020
-308.895	800.000	-0.123	-0.349
-307.880	-200.000	0.027	0.162
-306.866	-200.000	0.006	-0.083
-305.851	-101.384	-0.233	0.056
-304.837	-48.666	-0.303	-0.143
-303.822	439.581	0.120	0.258
-302.807	-200.000	-0.057	0.309
-301.793	694.500	-0.059	-0.151
-300.778	800.000	0.049	-0.140
-299.764	-101.922	0.261	-0.062
-298.749	-200.000	-0.033	-0.155
-297.735	-181.440	-0.220	-0.004
-296.720	-171.474	0.043	0.001
-295.705	-61.671	-0.261	0.107
-294.691	79.065	0.140	-0.147
-293.676	-41.541	0.099	-0.050
-292.662	43.968	0.050	0.045
-291.647	46.201	0.151	0.137
-290.632	-200.000	0.043	0.259
-289.618	153.922	0.229	0.307
-288.603	-70.578	-0.352	0.131
-287.589	10.250	-0.239	-0.178
-286.574	519.024	0.122	0.279
-285.559	-48.270	-0.163	0.077
-284.545	124.931	0.180	-0.223
-283.530	344.532	0.107	0.205
-282.516	122.650	-0.027	-0.033
-281.501	-200.000	0.143	-0.617
-280.486	36.853	0.237	-0.206
-279.472	-200.000	-0.001	0.130
-278.457	-99.476	0.122	-0.030
-277.443	-200.000	-0.014	-0.138
-276.428	-41.059	0.189	-0.096
-275.413	-144.070	0.086	0.008
-274.399	-51.905	-0.213	0.097
-273.384	-200.000	-0.006	-0.083
-272.370	-126.076	0.186	-0.027
-271.355	-148.252	0.177	0.014
-270.340	-200.000	0.021	0.326
-269.326	800.000	0.085	0.338
-268.311	-200.000	-0.012	0.172
-267.297	16.016	0.081	0.063
-266.282	-118.012	0.235	0.041
-265.267	280.001	-0.043	0.076
-264.253	-60.928	0.042	0.017
-263.238	421.310	0.081	0.171
-262.224	-96.106	-0.106	0.028
-261.209	-200.000	0.021	-0.309
-260.195	-200.000	-0.016	-0.132
-259.180	21.799	-0.241	0.192
-258.165	-17.525	-0.148	0.091
-257.151	-200.000	-0.046	-0.296
-256.136	-200.000	-0.047	0.264
-255.122	800.000	0.079	0.243
-254.107	0.147	-0.153	0.107
-253.092	800.000	0.104	-0.386
-252.078	156.759	-0.104	0.140
-251.063	800.000	0.009	-0.033
-250.049	800.000	-0.014	0.059
-249.034	203.450	0.148	0.224
-248.019	800.000	0.007	0.023
-247.005	39.437	-0.065	-0.057
-245.990	-17.545	-0.049	-0.030
-244.976	-63.406	0.187	0.075
-243.961	418.357	-0.051	0.107
-242.946	-97.720	0.177	-0.045
-241.932	-5.536	0.184	0.124
-240.917	-89.198	-0.122	-0.035
-239.903	85.360	0.090	0.096
-238.888	597.702	-0.111	0.268
-237.873	-200.000	0.039	-0.240
-236.859	800.000	-0.073	-0.226
-235.844	187.815	0.160	-0.233
-234.830	-200.000	-0.021	0.128
-233.815	-14.243	-0.239	0.151
-232.800	-144.585	0.557	0.050
-231.786	800.000	0.044	-0.141
-230.771	108.807	-0.120	-0.140
-229.757	800.000	0.043	0.162
-228.742	800.000	-0.108	-0.400
-227.727	92.325	0.347	-0.383
-226.713	264.720	0.068	-0.116
-225.698	11.159	-0.152	0.114
-224.684	-108.756	0.042	-0.009
-223.669	-200.000	0.014	0.135
-222.655	601.493	-0.049	-0.119
-221.640	-174.565	-0.193	-0.005
-220.625	800.000	0.072	-0.276
-219.611	800.000	0.056	0.175
-218.596	-200.000	-0.022	-0.155
-217.582	189.858	-0.119	0.175
-216.567	89.968	0.168	-0.184
-215.552	182.518	0.071	-0.103
-214.538	-30.809	0.147	-0.081
-213.523	-10.268	0.261	-0.170
-212.509	800.000	-0.056	0.212
-211.494	19.975	0.230	-0.181
-210.479	-25.123	0.283	0.164
-209.465	-59.498	0.236	0.099
-208.450	107.425	-0.078	-0.091
-207.436	507.492	-0.136	-0.309
-206.421	0.878	0.112	-0.078
-205.406	800.000	0.073	-0.292
-204.392	-200.000	0.002	-0.091
-203.377	-108.411	-0.131	0.028
-202.363	328.528	0.156	-0.293
-201.348	-96.867	0.409	-0.105
-200.333	-18.486	-0.304	0.186
-199.319	-77.231	-0.396	-0.135
-198.304	48.583	-0.093	-0.085
-197.290	-200.000	0.010	-0.073
-196.275	280.286	0.085	-0.148
-195.260	340.955	-0.141	0.270
-194.246	-200.000	0.013	0.173
-193.231	70.015	0.314	-0.317
-192.217	-37.365	-0.266	0.139
-191.202	-64.587	-0.399	0.158
-190.187	445.152	-0.055	0.118
-189.173	37.964	-0.241	0.209
-188.158	-53.321	-0.237	-0.106
-187.144	-149.936	0.458	-0.035
-186.129	-200.000	-0.016	0.132
-185.114	-200.000	-0.041	-0.316
-184.100	-200.000	0.005	-0.243
-183.085	800.000	-0.010	-0.034
-182.071	-34.378	-0.193	0.103
-181.056	-127.570	-0.359	-0.051
-180.042	-200.000	-0.062	0.515
-179.027	-73.501	-0.183	-0.065
-178.012	-56.629	0.270	-0.117
-176.998	59.899	0.447	0.431
-175.983	-200.000	-0.055	0.424
-174.969	-114.761	0.016	0.003
-173.954	-30.692	0.135	0.075
-172.939	-15.732	0.107	-0.066
-171.925	-197.417	-0.133	-0.001
-170.910	800.000	0.029	-0.084
-169.896	800.000	-0.028	0.095
-168.881	502.934	0.075	-0.170
-167.866	-25.957	0.270	-0.155
-166.852	-0.799	-0.144	0.100
-165.837	-56.335	0.247	-0.107
-164.823	-88.815	0.064	0.019
-163.808	800.000	-0.071	0.255
-162.793	-3.308	-0.225	-0.153
-161.779	-193.799	0.099	0.001
-160.764	-121.263	0.162	0.026
-159.750	-106.716	-0.390	-0.085
-158.735	138.257	0.157	0.201
-157.720	-182.701	0.071	0.001
-156.706	-200.000	-0.039	0.312
-155.691	441.907	0.173	0.369
-154.677	-48.761	0.275	0.129
-153.662	261.121	0.026	-0.045
-152.647	-1.812	0.253	-0.174
-151.633	-200.000	-0.003	0.148
-150.618	-74.273	-0.311	-0.110
-149.604	-111.901	0.103	0.020
-148.589	-76.771	-0.421	-0.144
-147.574	-22.570	0.242	-0.143
-146.560	-200.000	-0.061	0.279
-145.545	53.807	0.173	-0.162
-144.531	-51.152	0.085	0.039
-143.516	523.703	-0.195	0.447
-142.502	449.105	0.130	-0.280
-141.487	-200.000	-0.023	0.525
-140.472	73.255	-0.161	0.164
-139.458	800.000	-0.052	0.183
-138.443	36.182	-0.197	0.169
-137.429	538.010	0.063	0.146
-136.414	-62.365	-0.048	0.020
-135.399	-117.154	-0.218	-0.039
-134.385	244.557	0.064	0.106
-133.370	-89.209	-0.116	0.033
-132.356	-22.647	0.072	-0.042
-131.341	-142.894	-0.156	-0.015
-130.326	87.271	-0.043	0.047
-129.312	800.000	0.103	0.280
-128.297	512.940	-0.119	0.270
-127.283	-132.189	-0.171	-0.022
-126.268	-140.899	-0.218	-0.022
-125.253	-200.000	-0.023	0.237
-124.239	226.293	0.067	-0.107
-123.224	-47.544	0.117	0.055
-122.210	27.812	0.085	-0.070
-121.195	-96.946	-0.174	-0.044
