DTS Sentinel unit serial number:	SN413079Multiplexer serial number:	ORYXHardware model number:	OX4-SRSoftware version number:	ORYX F/W v4.00 Oryx Data Collector v3.7.2.0data status	okinstallation	princeton_trtdifferential loss correction	single-endedforward channel	channel 2reverse channel	N/Adate	2019/09/11time	21:05:11forward acquisition time	60.00reverse acquisition time	0.00gamma	496.2192k internal	0.2323k external	0.2323temperature offset calibration	1.0067default loss term (dB/km)	0.3790temperature slope calibration	1.0000multiplexer offset coefficient	1.0000multiplexer slope coefficient	1.0000fibre end	0.00T internal ref (°C)	36.56T ext. ref 1 (°C)	1.68T ext. ref 2 (°C)	30.74length (m)	temperature (°C)	Stokes	anti-Stokes-747.200	-70.684	0.206	0.079
-746.185	-200.000	-0.060	0.282
-745.171	-85.178	0.179	0.056
-744.156	-40.279	-0.193	0.101
-743.142	-200.000	0.008	0.060
-742.127	83.097	0.272	-0.299
-741.112	56.300	0.141	0.139
-740.098	-200.000	0.009	0.121
-739.083	4.543	0.248	0.184
-738.069	-200.000	-0.046	0.463
-737.054	199.351	0.099	0.153
-736.039	632.024	0.034	-0.088
-735.025	2.514	-0.179	-0.131
-734.010	18.658	0.073	-0.059
-732.996	800.000	-0.124	-0.524
-731.981	-41.230	-0.015	0.008
-730.966	-200.000	0.056	-0.360
-729.952	137.527	0.102	-0.135
-728.937	800.000	0.116	-0.349
-727.923	-117.495	0.223	0.041
-726.908	-82.996	-0.252	0.082
-725.894	220.383	-0.098	-0.159
-724.879	320.045	-0.220	-0.422
-723.864	67.409	-0.091	-0.094
-722.850	105.292	0.154	-0.184
-721.835	-129.388	0.124	-0.017
-720.821	800.000	0.043	-0.123
-719.806	302.857	-0.070	0.131
-718.791	800.000	-0.089	0.310
-717.777	-35.700	0.124	-0.068
-716.762	462.414	-0.114	-0.256
-715.748	-20.746	-0.200	-0.124
-714.733	251.675	-0.035	-0.060
-713.718	313.646	-0.108	0.204
-712.704	63.917	-0.082	-0.084
-711.689	-51.814	-0.041	0.019
-710.675	-92.614	-0.206	0.058
-709.660	-200.000	0.010	-0.098
-708.645	-23.543	-0.054	0.032
-707.631	-93.093	0.140	-0.039
-706.616	330.384	0.187	0.363
-705.602	676.729	0.018	0.047
-704.587	-110.751	0.328	0.068
-703.572	360.095	0.044	-0.089
-702.558	-146.228	-0.327	0.029
-701.543	-105.917	0.045	0.010
-700.529	58.407	0.216	0.214
-699.514	-16.696	0.033	0.021
-698.499	800.000	0.113	-0.343
-697.485	-77.384	-0.199	0.070
-696.470	-134.039	0.365	0.046
-695.456	92.313	0.163	0.185
-694.441	20.400	0.204	0.166
-693.426	-72.463	0.074	-0.028
-692.412	-163.589	-0.226	-0.011
-691.397	-200.000	0.017	0.076
-690.383	-40.943	0.088	-0.046
-689.368	-173.976	-0.150	-0.004
-688.354	-123.475	-0.171	0.027
-687.339	69.974	0.256	0.266
-686.324	-57.263	-0.328	-0.145
-685.310	-21.740	0.402	-0.246
-684.295	-61.571	-0.146	-0.062
-683.281	755.165	0.070	-0.191
-682.266	54.089	-0.141	0.137
-681.251	-5.336	0.100	-0.069
-680.237	-200.000	0.023	-0.246
-679.222	-93.747	0.109	-0.030
-678.208	159.551	0.128	-0.180
-677.193	800.000	-0.055	0.170
-676.178	254.567	-0.117	0.201
-675.164	800.000	0.066	-0.266
-674.149	117.947	-0.116	0.144
-673.135	266.022	0.107	0.187
-672.120	407.436	-0.085	-0.182
-671.105	800.000	0.059	-0.174
-670.091	-117.275	-0.034	0.006
-669.076	-200.000	0.044	0.239
-668.062	800.000	-0.019	0.075
-667.047	33.993	0.075	-0.066
-666.032	-126.713	0.305	0.045
-665.018	-176.450	0.342	-0.009
-664.003	-60.196	-0.281	-0.121
-662.989	-86.971	-0.419	-0.129
-661.974	-43.435	-0.286	-0.146
-660.959	-200.000	0.014	-0.083
-659.945	-94.764	0.487	0.133
-658.930	9.307	0.226	0.172
-657.916	332.998	-0.143	-0.279
-656.901	11.166	-0.111	-0.086
-655.886	-97.799	0.462	0.120
-654.872	41.262	-0.162	-0.148
-653.857	514.311	0.080	-0.187
-652.843	-89.062	-0.304	-0.091
-651.828	-55.595	0.369	0.166
-650.814	-140.712	0.111	-0.012
-649.799	-70.468	-0.138	0.053
-648.784	150.223	-0.131	-0.179
-647.770	-6.372	0.084	-0.058
-646.755	231.410	-0.073	-0.121
-645.741	800.000	-0.053	-0.199
-644.726	-67.040	-0.193	-0.077
-643.711	354.486	-0.041	0.083
-642.697	83.965	-0.232	-0.255
-641.682	46.215	0.054	-0.050
-640.668	24.647	0.059	-0.049
-639.653	-200.000	0.002	0.348
-638.638	-39.808	-0.328	0.173
-637.624	-127.091	-0.046	0.007
-636.609	207.942	0.168	0.264
-635.595	-168.243	0.368	0.014
-634.580	-200.000	-0.008	0.300
-633.565	-198.654	0.405	0.002
-632.551	283.571	-0.168	-0.303
-631.536	111.436	-0.261	-0.316
-630.522	-84.449	-0.176	0.056
-629.507	64.640	0.099	-0.101
-628.492	800.000	0.070	0.210
-627.478	800.000	-0.141	0.407
-626.463	800.000	0.088	0.285
-625.449	265.653	0.077	0.135
-624.434	119.384	-0.119	-0.148
-623.419	-200.000	-0.023	0.333
-622.405	73.767	-0.161	-0.170
-621.390	35.233	0.037	-0.033
-620.376	-44.820	-0.193	0.097
-619.361	-154.004	-0.144	-0.010
-618.346	531.909	0.074	0.177
-617.332	155.783	-0.167	0.231
-616.317	-87.475	-0.221	-0.067
-615.303	-94.847	0.161	0.044
-614.288	9.037	-0.276	0.209
-613.273	28.588	-0.279	0.237
-612.259	-46.539	-0.217	0.107
-611.244	-200.000	0.319	0.002
-610.230	48.828	0.130	-0.123
-609.215	-78.078	0.212	0.073
-608.201	-94.008	0.101	0.028
-607.186	800.000	0.047	-0.180
-606.171	35.131	0.309	-0.272
-605.157	229.443	0.054	0.088
-604.142	148.149	0.141	-0.191
-603.128	-200.000	-0.001	0.146
-602.113	-129.045	0.140	0.020
-601.098	-50.611	0.057	0.027
-600.084	-102.670	-0.172	-0.041
-599.069	3.987	0.367	0.270
-598.055	800.000	0.096	0.359
-597.040	-11.549	-0.340	0.224
-596.025	-200.000	0.023	0.177
-595.011	-200.000	-0.000	-0.291
-593.996	800.000	-0.048	-0.160
-592.982	-20.741	0.176	-0.109
-591.967	238.937	0.042	0.069
-590.952	-56.228	-0.180	0.081
-589.938	-61.711	0.097	0.041
-588.923	41.295	-0.232	0.211
-587.909	-48.827	-0.381	0.183
-586.894	-10.397	-0.232	-0.155
-585.879	-200.000	-0.032	0.153
-584.865	-144.107	0.201	-0.019
-583.850	275.995	-0.118	0.211
-582.836	58.558	-0.052	-0.051
-581.821	-18.623	0.380	0.238
-580.806	19.798	-0.168	0.136
-579.792	-200.000	-0.277	-0.001
-578.777	397.724	0.053	0.110
-577.763	-5.962	-0.071	0.049
-576.748	21.789	-0.246	0.201
-575.733	-114.863	0.360	-0.069
-574.719	-119.122	-0.309	-0.054
-573.704	67.850	-0.059	-0.061
-572.690	-52.619	0.226	-0.105
-571.675	-69.017	-0.133	0.051
-570.661	-89.156	-0.295	-0.087
-569.646	414.871	0.058	-0.124
-568.631	354.972	-0.061	0.122
-567.617	348.998	0.201	-0.397
-566.602	-27.408	0.116	0.068
-565.588	-2.119	-0.303	0.214
-564.573	-55.652	0.385	-0.173
-563.558	800.000	0.077	0.272
-562.544	-52.285	-0.292	0.136
-561.529	800.000	0.017	-0.059
-560.515	-120.465	0.076	-0.013
-559.500	-40.438	-0.285	-0.148
-558.485	285.104	0.099	-0.180
-557.471	-200.000	0.005	0.142
-556.456	-165.473	-0.354	0.015
-555.442	44.298	0.285	-0.262
-554.427	-200.000	-0.019	-0.174
-553.412	-167.633	-0.193	0.008
-552.398	-200.000	0.019	-0.155
-551.383	87.712	0.267	-0.296
-550.369	99.235	-0.183	0.212
-549.354	122.045	0.182	0.228
-548.339	339.124	0.113	-0.220
-547.325	-91.805	0.178	-0.051
-546.310	-0.594	0.395	0.281
-545.296	622.734	-0.108	-0.273
-544.281	-200.000	0.007	-0.165
-543.266	-9.761	0.302	0.202
-542.252	-46.030	-0.166	-0.082
-541.237	302.096	0.174	0.323
-540.223	800.000	0.082	-0.334
-539.208	-63.442	-0.102	-0.042
-538.193	-200.000	0.008	-0.326
-537.179	463.916	-0.013	-0.030
-536.164	800.000	-0.025	-0.098
-535.150	175.255	-0.153	0.222
-534.135	348.265	-0.053	-0.105
-533.121	-200.000	-0.027	-0.499
-532.106	-138.323	0.171	-0.019
-531.091	-200.000	0.088	0.397
-530.077	124.533	0.016	0.020
-529.062	670.848	-0.045	-0.118
-528.048	674.581	-0.075	-0.196
-527.033	-177.550	-0.230	0.006
-526.018	-104.862	0.299	0.069
-525.004	113.935	-0.100	0.122
-523.989	-107.150	0.370	-0.082
-522.975	-104.370	0.154	-0.036
-521.960	17.629	0.246	-0.196
-520.945	53.366	-0.227	-0.218
-519.931	-100.228	-0.039	0.010
-518.916	399.216	-0.021	0.043
-517.902	93.984	0.102	0.116
-516.887	-65.604	-0.082	0.033
-515.872	284.328	-0.143	0.258
-514.858	-200.000	0.005	0.111
-513.843	-200.000	-0.009	0.064
-512.829	-3.809	-0.207	0.144
-511.814	-136.891	0.096	0.011
-510.799	282.157	0.202	0.363
-509.785	4.312	-0.113	-0.083
-508.770	-200.000	0.008	-0.042
-507.756	-27.653	0.135	-0.078
-506.741	-82.774	-0.313	0.101
-505.726	1.861	-0.226	0.163
-504.712	-62.707	0.048	0.020
-503.697	-139.184	0.223	0.024
-502.683	66.399	0.059	0.060
-501.668	72.631	-0.118	-0.123
-500.653	-112.719	0.171	0.034
-499.639	-187.380	-0.092	0.001
-498.624	800.000	-0.087	-0.306
-497.610	-200.000	0.031	0.225
-496.595	-31.818	0.148	0.083
-495.581	-22.235	-0.093	0.057
-494.566	-121.166	0.011	0.002
-493.551	-113.179	-0.168	-0.033
-492.537	402.088	-0.105	0.220
-491.522	456.197	-0.066	-0.146
-490.508	272.223	-0.154	-0.272
-489.493	24.097	0.260	0.214
-488.478	318.835	-0.276	0.523
-487.464	-200.000	-0.015	-0.099
-486.449	800.000	0.046	-0.165
-485.435	78.574	-0.142	0.151
-484.420	237.517	-0.076	0.127
-483.405	-116.316	0.367	0.068
-482.391	-35.933	-0.121	-0.065
-481.376	-114.136	-0.012	-0.002
-480.362	10.859	0.031	-0.024
-479.347	-200.000	-0.021	-0.094
-478.332	800.000	0.032	-0.102
-477.318	127.975	-0.134	-0.171
-476.303	-100.419	-0.070	-0.017
-475.289	794.529	-0.053	0.146
-474.274	-128.386	0.145	-0.021
-473.259	-200.000	-0.015	0.152
-472.245	-200.000	-0.032	-0.170
-471.230	-200.000	0.031	0.351
-470.216	800.000	0.078	-0.316
-469.201	132.017	-0.075	0.096
-468.186	-95.775	-0.207	0.055
-467.172	21.946	-0.407	-0.331
-466.157	-200.000	-0.001	-0.020
-465.143	-200.000	-0.023	-0.420
-464.128	146.272	-0.101	-0.135
-463.113	-105.308	-0.262	0.060
-462.099	-97.866	0.186	0.048
-461.084	-99.632	-0.087	-0.022
-460.070	-200.000	-0.011	-0.281
-459.055	800.000	0.043	-0.153
-458.040	119.386	0.096	0.119
-457.026	-104.205	-0.145	0.034
-456.011	-200.000	0.020	0.266
-454.997	-114.677	0.193	-0.037
-453.982	800.000	0.029	-0.115
-452.968	-28.245	0.224	-0.129
-451.953	37.778	-0.196	0.174
-450.938	-137.471	-0.211	-0.024
-449.924	-30.405	-0.053	-0.030
-448.909	-200.000	-0.012	0.098
-447.895	699.075	-0.128	0.336
-446.880	238.603	-0.220	0.364
-445.865	-200.000	0.062	-0.313
-444.851	800.000	-0.127	-0.399
-443.836	398.023	-0.179	0.374
-442.822	800.000	0.144	0.399
-441.807	176.625	-0.143	0.207
-440.792	769.802	-0.055	-0.149
-439.778	258.321	-0.159	0.273
-438.763	-85.101	0.348	0.109
-437.749	55.379	0.057	-0.055
-436.734	-38.973	-0.288	-0.151
-435.719	346.965	0.148	0.291
-434.705	-120.876	0.097	-0.016
-433.690	800.000	0.041	-0.155
-432.676	-200.000	0.024	-0.165
-431.661	-102.656	0.244	0.058
-430.646	-108.043	-0.112	0.024
-429.632	289.442	0.107	-0.194
-428.617	173.706	0.067	-0.097
-427.603	800.000	0.063	0.206
-426.588	800.000	0.041	-0.164
-425.573	-200.000	0.040	-0.268
-424.559	600.906	-0.117	-0.289
-423.544	210.453	0.088	-0.139
-422.530	-63.914	0.228	-0.093
-421.515	42.543	0.074	0.067
-420.500	-104.926	-0.191	-0.044
-419.486	-12.492	-0.187	0.121
-418.471	184.368	0.179	-0.265
-417.457	-144.442	-0.180	-0.017
-416.442	-60.110	0.117	-0.050
-415.428	-39.630	0.348	0.182
-414.413	800.000	-0.025	0.078
-413.398	-200.000	0.005	0.258
-412.384	-47.054	0.213	0.104
-411.369	-108.527	-0.065	-0.014
-410.355	800.000	0.087	-0.312
-409.340	800.000	0.129	0.383
-408.325	185.739	-0.155	-0.230
-407.311	24.384	-0.162	-0.134
-406.296	-86.204	-0.225	-0.069
-405.282	-64.127	0.070	-0.028
-404.267	178.496	0.367	0.535
-403.252	51.219	-0.081	0.077
-402.238	700.376	-0.132	-0.345
-401.223	711.178	0.050	-0.132
-400.209	0.738	-0.233	-0.166
-399.194	-200.000	0.015	-0.346
-398.179	800.000	-0.042	-0.172
-397.165	126.487	-0.172	0.216
-396.150	-200.000	0.094	0.477
-395.136	-121.742	-0.290	0.048
-394.121	179.340	-0.163	0.238
-393.106	-169.779	0.272	0.010
-392.092	-200.000	-0.015	0.213
-391.077	-60.421	0.408	0.173
-390.063	800.000	0.071	-0.253
-389.048	-17.911	-0.094	-0.059
-388.033	179.696	0.110	0.160
-387.019	-99.187	-0.254	-0.064
-386.004	4.366	0.071	0.052
-384.990	362.258	-0.232	-0.463
-383.975	-13.366	0.136	-0.088
-382.960	-72.835	0.276	-0.101
-381.946	-30.541	-0.349	-0.197
-380.931	800.000	-0.010	0.034
-379.917	2.702	-0.043	0.031
-378.902	172.813	-0.117	-0.167
-377.888	-47.126	-0.227	0.110
-376.873	-155.941	0.106	-0.007
-375.858	-3.996	-0.170	-0.117
-374.844	122.648	0.082	0.102
-373.829	-21.787	-0.142	-0.086
-372.815	448.162	-0.089	-0.196
-371.800	-37.863	0.140	0.074
-370.785	800.000	-0.076	-0.216
-369.771	179.021	0.087	-0.127
-368.756	-132.014	-0.336	-0.044
-367.742	-104.331	0.237	0.055
-366.727	510.184	-0.180	-0.416
-365.712	-172.968	0.411	0.013
-364.698	-138.519	-0.133	0.015
-363.683	-200.000	0.010	-0.282
-362.669	-200.000	-0.039	-0.312
-361.654	-56.235	0.135	0.060
-360.639	-200.000	-0.005	0.275
-359.625	-35.255	0.350	0.189
-358.610	332.699	-0.044	0.085
-357.596	-49.865	0.123	-0.058
-356.581	-200.000	-0.005	0.541
-355.566	-168.696	-0.064	0.002
-354.552	712.322	0.115	-0.303
-353.537	27.170	0.141	0.118
-352.523	-34.856	0.180	-0.098
-351.508	-135.690	0.275	0.032
-350.493	-66.027	0.128	0.051
-349.479	-81.552	0.096	-0.031
-348.464	456.714	0.232	-0.513
-347.450	-76.367	0.059	0.021
-346.435	-73.434	0.020	-0.007
-345.420	-23.444	0.062	0.037
-344.406	-104.021	-0.122	0.028
-343.391	128.176	0.130	0.164
-342.377	-45.967	0.135	0.066
-341.362	-1.627	0.097	-0.068
-340.348	69.367	0.293	-0.300
-339.333	659.377	0.079	-0.201
-338.318	4.960	0.223	-0.163
-337.304	-137.021	-0.148	0.017
-336.289	-80.846	0.209	0.069
-335.275	-200.000	0.016	0.108
-334.260	-65.723	-0.188	0.075
-333.245	-200.000	-0.049	0.329
-332.231	-100.540	-0.286	0.070
-331.216	16.995	-0.286	0.225
-330.202	683.512	0.020	0.053
-329.187	-200.000	0.032	-0.164
-328.172	97.366	-0.165	0.189
-327.158	386.435	-0.094	0.193
-326.143	178.489	0.277	-0.402
-325.129	-200.000	-0.041	0.337
-324.114	800.000	-0.123	0.463
-323.099	-200.000	-0.020	-0.289
-322.085	-163.408	-0.201	-0.009
-321.070	-106.349	0.093	0.021
-320.056	130.842	-0.084	0.107
-319.041	-26.884	-0.139	-0.081
-318.026	108.940	0.177	0.210
-317.012	-200.000	0.011	0.071
-315.997	102.332	-0.118	0.137
-314.983	800.000	0.047	-0.203
-313.968	-200.000	-0.052	-0.235
-312.953	67.712	0.022	0.022
-311.939	-69.991	-0.299	0.113
-310.924	-23.541	-0.032	0.019
-309.910	-56.115	-0.187	0.083
-308.895	65.017	-0.179	0.179
-307.880	-13.209	-0.108	0.070
-306.866	523.130	-0.030	0.069
-305.851	-200.000	0.030	-0.225
-304.837	81.481	0.156	0.167
-303.822	-185.310	-0.097	-0.001
-302.807	-93.175	-0.214	-0.059
-301.793	800.000	-0.048	-0.181
-300.778	800.000	-0.027	-0.097
-299.764	-64.820	0.403	0.162
-298.749	-42.098	-0.118	-0.060
-297.735	-134.674	-0.018	0.002
-296.720	386.655	0.015	-0.031
-295.705	235.838	0.023	-0.038
-294.691	156.181	-0.072	-0.098
-293.676	-63.735	0.214	0.087
-292.662	-79.889	-0.078	0.026
-291.647	-79.998	-0.300	-0.100
-290.632	138.245	-0.186	-0.243
-289.618	-127.593	0.094	-0.014
-288.603	-0.632	-0.198	0.139
-287.589	250.602	-0.046	-0.078
-286.574	-114.030	-0.075	-0.014
-285.559	800.000	-0.029	0.117
-284.545	106.026	-0.280	-0.328
-283.530	-200.000	-0.027	-0.150
-282.516	462.774	0.198	0.439
-281.501	-58.658	0.102	-0.044
-280.486	315.872	-0.180	-0.337
-279.472	-105.846	-0.203	0.045
-278.457	-37.755	0.257	0.135
-277.443	148.767	0.177	0.237
-276.428	-63.720	-0.323	0.131
-275.413	612.977	0.106	0.263
-274.399	28.292	0.271	-0.227
-273.384	-184.224	-0.081	0.001
-272.370	138.136	-0.171	-0.223
-271.355	-104.932	0.031	-0.007
-270.340	243.293	0.120	-0.199
-269.326	-135.104	0.084	0.010
-268.311	19.449	0.271	0.216
-267.297	-200.000	0.399	0.000
-266.282	483.814	0.033	0.075
-265.267	30.463	0.285	-0.241
-264.253	-144.095	0.188	-0.017
-263.238	-63.217	-0.247	0.101
-262.224	37.855	-0.282	-0.249
-261.209	-143.517	0.247	-0.023
-260.195	-35.471	0.292	-0.157
-259.180	7.819	0.205	0.152
-258.165	-200.000	-0.022	-0.205
-257.151	325.534	0.028	-0.053
-256.136	436.159	-0.127	0.275
-255.122	85.853	0.170	-0.185
-254.107	800.000	-0.027	0.108
-253.092	178.542	-0.130	-0.189
-252.078	-144.334	0.292	-0.027
-251.063	-77.321	-0.082	-0.028
-250.049	523.102	-0.028	0.066
-249.034	-200.000	0.008	-0.192
-248.019	149.395	-0.172	-0.231
-247.005	-200.000	0.010	0.093
-245.990	181.594	0.203	-0.296
-244.976	262.751	0.143	0.246
-243.961	-200.000	0.020	0.285
-242.946	-82.965	0.486	-0.155
-241.932	105.020	0.133	-0.156
-240.917	-150.558	0.248	0.019
-239.903	800.000	-0.114	0.424
-238.888	149.037	0.176	-0.236
-237.873	-23.197	0.193	-0.115
-236.859	-18.075	0.274	0.170
-235.844	42.900	0.106	-0.096
-234.830	800.000	-0.086	-0.261
-233.815	10.704	0.338	-0.255
-232.800	-36.461	0.199	0.106
-231.786	-197.052	-0.293	-0.002
-230.771	-164.827	0.137	0.006
-229.757	151.128	-0.146	-0.197
-228.742	135.396	0.169	-0.218
-227.727	105.201	0.052	0.061
-226.713	-200.000	0.043	-0.452
-225.698	49.737	-0.223	0.208
-224.684	-33.970	0.157	-0.086
-223.669	45.677	-0.086	0.078
-222.655	-200.000	0.022	-0.153
-221.640	-173.505	0.415	0.012
-220.625	78.208	-0.193	0.204
-219.611	234.008	-0.058	-0.094
-218.596	8.771	0.306	-0.229
-217.582	-97.017	-0.218	-0.057
-216.567	60.399	-0.134	0.131
-215.552	-53.763	0.232	0.105
-214.538	215.170	0.290	0.455
-213.523	-18.829	0.134	0.083
-212.509	-82.270	-0.037	-0.012
-211.494	-200.000	0.044	-0.205
-210.479	-183.315	-0.180	0.003
-209.465	-137.072	-0.144	0.016
-208.450	28.236	-0.269	-0.225
-207.436	-200.000	0.032	-0.295
-206.421	800.000	0.060	0.197
-205.406	-170.275	0.219	0.008
-204.392	435.574	-0.070	0.151
-203.377	205.748	-0.099	-0.152
-202.363	-26.170	0.118	0.068
-201.348	-57.287	-0.217	-0.094
-200.333	104.786	-0.024	0.028
-199.319	218.722	-0.056	-0.088
-198.304	647.080	-0.137	-0.345
-197.290	125.946	-0.143	-0.179
-196.275	428.085	-0.150	-0.321
-195.260	-66.593	-0.303	-0.119
-194.246	-200.000	-0.035	0.155
-193.231	-200.000	-0.039	0.220
-192.217	800.000	-0.016	-0.067
-191.202	800.000	-0.053	0.214
-190.187	44.568	0.146	0.133
-189.173	-56.058	0.091	0.040
-188.158	-11.275	0.191	-0.124
-187.144	-109.250	0.307	0.064
-186.129	48.304	-0.076	0.071
-185.114	251.881	0.031	0.052
-184.100	800.000	-0.066	-0.265
-183.085	481.351	-0.086	-0.193
-182.071	-113.144	-0.170	0.033
-181.056	-23.138	-0.210	0.125
-180.042	-80.712	0.280	0.092
-179.027	-179.391	0.311	-0.007
-178.012	-52.670	-0.202	0.092
-176.998	-200.000	0.033	0.173
-175.983	-46.768	-0.268	0.130
-174.969	-175.762	-0.389	-0.010
-173.954	-1.332	-0.075	0.052
-172.939	191.882	0.092	0.137
-171.925	-100.801	-0.232	0.056
-170.910	-131.304	-0.202	0.026
-169.896	-39.780	0.237	0.122
-168.881	3.300	-0.341	0.245
-167.866	-5.049	0.118	0.080
-166.852	156.629	-0.098	0.133
-165.837	31.211	0.123	-0.104
-164.823	113.613	0.060	0.072
-163.808	-162.306	0.121	-0.006
-162.793	514.330	-0.060	0.139
-161.779	-94.765	-0.049	-0.013
-160.764	3.660	0.251	0.181
-159.750	800.000	-0.094	0.355
-158.735	-58.219	-0.297	0.128
-157.720	-33.963	-0.237	-0.129
-156.706	207.402	0.111	0.171
-155.691	349.017	-0.129	-0.252
-154.677	-121.520	0.050	-0.008
-153.662	39.184	0.184	-0.163
-152.647	-147.175	0.122	0.010
-151.633	800.000	0.098	-0.308
-150.618	-109.779	-0.234	-0.049
-149.604	-88.795	-0.346	0.101
-148.589	798.103	0.071	0.193
-147.574	152.990	-0.096	0.130
-146.560	-200.000	0.022	0.208
-145.545	197.955	-0.103	0.155
-144.531	139.849	0.183	-0.238
-143.516	197.725	0.181	0.273
-142.502	800.000	-0.052	-0.156
-141.487	-200.000	0.050	0.543
-140.472	800.000	0.065	0.188
-139.458	249.962	0.098	0.163
-138.443	-4.363	-0.142	0.097
-137.429	-115.131	-0.247	0.046
-136.414	800.000	0.054	0.183
-135.399	93.799	0.115	0.129
-134.385	800.000	-0.040	0.140
-133.370	-200.000	0.010	0.180
-132.356	-197.007	0.288	0.002
-131.341	-104.739	-0.157	0.036
-130.326	26.032	0.179	-0.148
-129.312	7.011	-0.101	-0.074
-128.297	-143.103	-0.121	-0.012
-127.283	-55.641	0.061	-0.027
-126.268	93.644	-0.165	0.184
-125.253	-200.000	-0.018	0.108
-124.239	315.444	0.172	0.319
-123.224	-47.835	-0.322	0.154
-122.210	-200.000	-0.040	0.184
-121.195	203.479	0.164	-0.251
-120.180	-56.825	0.296	0.129
