DTS Sentinel unit serial number:	SN413079Multiplexer serial number:	ORYXHardware model number:	OX4-SRSoftware version number:	ORYX F/W v4.00 Oryx Data Collector v3.7.2.0data status	okinstallation	princeton_trtdifferential loss correction	single-endedforward channel	channel 2reverse channel	N/Adate	2019/09/17time	15:47:34forward acquisition time	60.00reverse acquisition time	0.00gamma	496.2192k internal	0.2300k external	0.2300temperature offset calibration	0.9982default loss term (dB/km)	0.3790temperature slope calibration	1.0000multiplexer offset coefficient	1.0000multiplexer slope coefficient	1.0000fibre end	0.00T internal ref (°C)	39.09T ext. ref 1 (°C)	0.37T ext. ref 2 (°C)	37.33length (m)	temperature (°C)	Stokes	anti-Stokes-747.200	-38.555	-0.162	-0.087
-746.185	-16.837	-0.120	0.077
-745.171	-108.050	0.117	0.026
-744.156	181.901	-0.112	0.168
-743.142	186.783	0.055	-0.083
-742.127	-35.188	-0.578	0.321
-741.112	572.357	-0.096	0.239
-740.098	136.557	0.034	0.045
-739.083	-0.742	0.244	0.177
-738.069	-200.000	-0.006	0.430
-737.054	-80.892	-0.261	0.088
-736.039	13.461	0.189	-0.149
-735.025	174.996	0.221	0.326
-734.010	754.028	0.088	0.242
-732.996	-103.298	-0.109	0.026
-731.981	-4.103	-0.212	-0.150
-730.966	-200.000	-0.076	0.349
-729.952	-125.827	-0.483	-0.074
-728.937	-75.315	0.099	-0.036
-727.923	800.000	-0.014	-0.058
-726.908	116.233	-0.268	-0.335
-725.894	102.417	-0.153	-0.183
-724.879	56.713	-0.294	0.292
-723.864	205.479	-0.102	0.161
-722.850	63.377	0.195	-0.199
-721.835	-118.302	-0.148	-0.027
-720.821	-139.231	0.428	0.047
-719.806	800.000	-0.065	-0.285
-718.791	-23.651	-0.355	0.217
-717.777	106.799	-0.124	0.150
-716.762	50.597	-0.180	0.174
-715.748	300.726	-0.020	-0.037
-714.733	-44.250	-0.151	0.077
-713.718	326.159	0.165	-0.322
-712.704	104.908	-0.144	-0.173
-711.689	-71.942	0.300	-0.114
-710.675	800.000	0.076	-0.327
-709.660	-46.461	0.168	0.084
-708.645	-200.000	0.020	0.329
-707.631	-200.000	0.060	-0.323
-706.616	-19.135	-0.190	0.120
-705.602	-122.662	0.300	-0.049
-704.587	-98.326	0.183	-0.048
-703.572	696.158	-0.036	0.097
-702.558	-138.013	-0.295	0.033
-701.543	-11.896	-0.246	-0.164
-700.529	-39.301	0.038	0.021
-699.514	-154.990	0.008	0.001
-698.499	310.381	0.099	-0.188
-697.485	-58.081	0.494	-0.219
-696.470	701.908	-0.098	-0.263
-695.456	-157.587	0.193	-0.012
-694.441	22.131	0.111	0.092
-693.426	529.389	0.054	-0.129
-692.412	166.576	-0.163	-0.235
-691.397	800.000	0.118	0.331
-690.383	-51.193	0.361	0.172
-689.368	484.554	0.067	0.156
-688.354	800.000	0.018	-0.062
-687.339	37.626	-0.120	-0.108
-686.324	41.156	-0.113	-0.104
-685.310	-86.036	-0.228	-0.072
-684.295	417.155	0.163	0.354
-683.281	88.150	0.114	-0.128
-682.266	377.185	-0.190	0.396
-681.251	-17.653	-0.081	-0.052
-680.237	205.997	-0.120	0.191
-679.222	-165.199	0.235	-0.011
-678.208	396.120	-0.131	-0.279
-677.193	-200.000	-0.024	0.152
-676.178	126.022	0.143	-0.184
-675.164	56.145	-0.142	0.140
-674.149	-200.000	0.044	-0.326
-673.135	-181.126	0.310	-0.006
-672.120	-66.443	0.079	-0.032
-671.105	800.000	-0.073	-0.222
-670.091	-38.354	0.143	-0.077
-669.076	-15.157	0.094	-0.061
-668.062	800.000	-0.008	0.033
-667.047	417.538	-0.017	-0.038
-666.032	6.839	-0.111	0.084
-665.018	-14.440	0.317	-0.207
-664.003	-39.655	-0.267	-0.142
-662.989	89.938	-0.277	-0.315
-661.974	648.340	0.083	0.215
-660.959	-83.923	0.163	0.053
-659.945	335.193	-0.107	-0.212
-658.930	-38.190	0.294	-0.158
-657.916	127.581	0.093	0.120
-656.901	-200.000	-0.002	0.183
-655.886	-175.359	0.259	0.007
-654.872	-30.801	-0.087	-0.050
-653.857	800.000	-0.088	0.317
-652.843	-75.420	-0.185	-0.067
-651.828	-200.000	-0.013	0.302
-650.814	-192.491	-0.256	-0.002
-649.799	313.836	0.158	0.303
-648.784	800.000	0.082	-0.285
-647.770	-200.000	0.034	-0.184
-646.755	-4.016	0.108	0.076
-645.741	-63.758	-0.455	0.189
-644.726	800.000	0.012	0.052
-643.711	117.251	-0.145	-0.182
-642.697	6.822	-0.080	-0.061
-641.682	800.000	0.037	0.128
-640.668	182.772	-0.144	0.215
-639.653	-83.620	-0.178	-0.058
-638.638	-114.027	0.275	-0.054
-637.624	-119.151	-0.319	0.057
-636.609	30.145	-0.171	-0.148
-635.595	-163.941	0.296	-0.014
-634.580	42.011	0.062	-0.058
-633.565	800.000	0.112	0.391
-632.551	-200.000	0.057	0.260
-631.536	-55.863	0.103	-0.047
-630.522	382.291	0.106	0.221
-629.507	401.577	0.062	-0.132
-628.492	-20.813	-0.158	-0.098
-627.478	349.203	0.098	0.196
-626.463	94.520	-0.178	-0.206
-625.449	368.621	0.141	-0.290
-624.434	-7.797	-0.005	0.003
-623.419	-162.557	0.116	-0.006
-622.405	-15.945	0.241	-0.156
-621.390	-200.000	-0.038	0.315
-620.376	-157.670	-0.259	0.016
-619.361	343.270	-0.108	-0.215
-618.346	-78.684	0.181	-0.063
-617.332	-26.864	0.062	-0.037
-616.317	-40.850	0.135	0.071
-615.303	123.244	-0.190	0.242
-614.288	268.956	0.146	0.261
-613.273	-82.390	0.077	-0.025
-612.259	800.000	0.034	0.152
-611.244	260.035	0.110	0.193
-610.230	-53.512	-0.219	-0.102
-609.215	15.973	0.283	-0.226
-608.201	-200.000	-0.067	-0.328
-607.186	800.000	0.187	-0.670
-606.171	150.493	0.143	-0.197
-605.157	630.256	-0.174	-0.447
-604.142	163.228	-0.302	-0.431
-603.128	-200.000	0.031	0.141
-602.113	18.897	-0.387	-0.314
-601.098	23.421	0.127	0.106
-600.084	-42.874	0.162	0.083
-599.069	-200.000	0.004	-0.152
-598.055	-74.008	0.179	-0.066
-597.040	-73.685	-0.108	-0.040
-596.025	133.555	-0.114	-0.149
-595.011	271.161	-0.022	0.040
-593.996	71.898	0.139	-0.146
-592.982	76.188	-0.093	0.100
-591.967	256.461	0.056	0.098
-590.952	-70.812	-0.352	-0.135
-589.938	-84.372	-0.320	-0.103
-588.923	800.000	-0.144	-0.446
-587.909	164.995	0.302	0.432
-586.894	800.000	0.045	0.172
-585.879	232.356	-0.071	-0.118
-584.865	83.729	-0.248	-0.275
-583.850	-103.124	-0.319	-0.076
-582.836	-200.000	-0.039	-0.261
-581.821	-130.166	-0.179	-0.025
-580.806	-135.326	-0.333	0.040
-579.792	446.179	0.040	0.088
-578.777	342.918	-0.090	-0.178
-577.763	390.135	0.064	0.135
-576.748	-134.104	-0.113	0.014
-575.733	28.421	-0.208	-0.178
-574.719	-152.297	0.368	-0.027
-573.704	103.384	0.213	-0.253
-572.690	57.250	-0.062	0.062
-571.675	39.000	-0.215	0.194
-570.661	-170.178	0.148	0.005
-569.646	-109.940	0.130	-0.027
-568.631	-101.592	0.133	-0.033
-567.617	371.333	0.167	0.343
-566.602	-136.210	-0.220	-0.026
-565.588	491.673	-0.176	-0.408
-564.573	-63.503	-0.221	-0.092
-563.558	-88.522	-0.232	0.070
-562.544	196.548	-0.076	0.118
-561.529	60.380	0.154	0.154
-560.515	40.122	-0.056	0.051
-559.500	14.305	-0.149	0.118
-558.485	423.079	0.077	-0.168
-557.471	118.175	0.136	0.169
-556.456	-106.917	-0.255	0.057
-555.442	-200.000	0.036	-0.196
-554.427	-119.164	0.197	-0.035
-553.412	214.329	-0.080	-0.128
-552.398	-200.000	0.047	-0.257
-551.383	-200.000	-0.019	0.126
-550.369	-106.541	-0.067	-0.015
-549.354	-58.557	0.115	0.050
-548.339	-200.000	0.025	0.179
-547.325	-98.565	0.289	0.075
-546.310	-170.870	0.474	0.016
-545.296	-79.911	0.166	-0.057
-544.281	-200.000	-0.016	0.079
-543.266	62.760	0.212	0.215
-542.252	164.689	0.066	-0.094
-541.237	-190.688	0.101	-0.001
-540.223	673.293	0.119	-0.312
-539.208	615.732	-0.101	-0.257
-538.193	800.000	-0.067	-0.256
-537.179	-107.677	0.241	-0.053
-536.164	4.047	-0.203	-0.150
-535.150	678.482	0.033	-0.086
-534.135	800.000	0.065	-0.237
-533.121	-99.371	0.194	-0.050
-532.106	-124.151	-0.252	-0.040
-531.091	709.156	-0.104	0.277
-530.077	-67.302	0.074	0.029
-529.062	-48.742	0.223	-0.108
-528.048	59.397	0.118	0.117
-527.033	800.000	-0.077	-0.276
-526.018	-133.829	-0.214	-0.027
-525.004	-129.573	-0.111	0.016
-523.989	-200.000	-0.037	0.224
-522.975	273.596	-0.175	0.314
-521.960	-43.504	0.240	0.122
-520.945	21.834	-0.110	-0.091
-519.931	800.000	-0.058	-0.229
-518.916	800.000	-0.055	-0.188
-517.902	-200.000	0.015	0.174
-516.887	-64.718	0.105	-0.043
-515.872	144.613	-0.029	0.040
-514.858	685.323	-0.054	-0.143
-513.843	-200.000	0.083	-0.367
-512.829	473.168	0.087	0.198
-511.814	52.497	0.227	0.219
-510.799	-50.604	0.027	-0.013
-509.785	-61.373	0.365	-0.155
-508.770	420.952	0.065	-0.140
-507.756	179.705	0.119	0.177
-506.741	-96.868	0.127	-0.034
-505.726	-200.000	-0.002	0.239
-504.712	-60.054	-0.161	-0.069
-503.697	-146.017	0.246	-0.022
-502.683	184.489	-0.092	-0.138
-501.668	93.465	-0.134	0.153
-500.653	-60.049	0.143	-0.062
-499.639	-67.838	-0.133	-0.053
-498.624	57.294	-0.031	0.030
-497.610	108.662	-0.152	-0.183
-496.595	154.607	-0.069	0.096
-495.581	-137.170	-0.493	0.057
-494.566	81.115	-0.236	-0.257
-493.551	305.886	0.165	0.309
-492.537	565.718	-0.091	0.223
-491.522	150.853	0.153	0.210
-490.508	-53.969	0.165	0.076
-489.493	-141.756	0.548	-0.056
-488.478	-24.563	0.256	0.154
-487.464	130.976	0.090	-0.116
-486.449	800.000	0.019	0.083
-485.435	-112.030	0.301	0.061
-484.420	-200.000	-0.019	-0.228
-483.405	-117.816	-0.266	0.048
-482.391	77.912	0.210	-0.226
-481.376	133.719	-0.146	-0.191
-480.362	30.978	0.122	0.105
-479.347	372.249	-0.128	-0.263
-478.332	-126.016	-0.163	0.025
-477.318	-148.696	-0.233	0.019
-476.303	236.195	-0.159	-0.266
-475.289	-77.836	-0.034	0.012
-474.274	43.037	-0.142	0.130
-473.259	-138.097	-0.351	-0.039
-472.245	-160.481	0.191	0.010
-471.230	-87.650	-0.066	-0.020
-470.216	-102.960	-0.419	-0.100
-469.201	487.234	0.106	0.244
-468.186	-1.061	-0.129	0.092
-467.172	-36.268	-0.238	0.130
-466.157	-118.678	-0.480	0.085
-465.143	74.848	0.052	-0.055
-464.128	-134.385	-0.435	0.054
-463.113	-27.735	0.216	0.126
-462.099	-83.996	0.208	-0.067
-461.084	-105.751	-0.157	0.036
-460.070	116.577	0.310	0.383
-459.055	-152.813	-0.321	0.023
-458.040	-200.000	0.062	-0.334
-457.026	-200.000	0.022	-0.324
-456.011	-200.000	-0.007	-0.060
-454.997	-200.000	-0.008	0.200
-453.982	-25.660	-0.237	0.141
-452.968	253.972	-0.048	0.083
-451.953	800.000	0.008	-0.031
-450.938	122.358	0.241	-0.304
-449.924	-200.000	0.032	0.207
-448.909	222.303	-0.176	-0.286
-447.895	76.990	0.453	-0.485
-446.880	341.831	-0.104	0.205
-445.865	-68.332	-0.108	-0.042
-444.851	590.940	-0.102	-0.253
-443.836	278.163	-0.164	-0.295
-442.822	-25.028	-0.272	-0.162
-441.807	-200.000	0.018	-0.117
-440.792	-120.287	-0.268	-0.046
-439.778	-200.000	0.026	-0.313
-438.763	653.523	-0.051	0.131
-437.749	439.757	0.122	-0.268
-436.734	29.058	0.179	0.153
-435.719	-200.000	-0.001	0.058
-434.705	508.250	0.117	0.275
-433.690	800.000	0.060	0.232
-432.676	-11.009	-0.283	0.188
-431.661	-200.000	0.039	0.287
-430.646	187.111	0.199	0.299
-429.632	99.513	-0.138	0.161
-428.617	-44.648	0.074	-0.037
-427.603	800.000	0.128	0.383
-426.588	-200.000	-0.037	0.291
-425.573	-58.257	-0.292	0.128
-424.559	800.000	-0.058	-0.227
-423.544	654.126	0.040	0.103
-422.530	-200.000	0.019	-0.176
-421.515	-108.550	0.172	0.037
-420.500	525.672	0.044	0.105
-419.486	-54.562	-0.123	0.056
-418.471	-99.103	-0.295	0.075
-417.457	800.000	0.074	-0.266
-416.442	572.055	-0.081	-0.199
-415.428	82.330	-0.244	0.267
-414.413	-2.383	0.319	-0.225
-413.398	426.940	-0.098	0.213
-412.384	-21.568	-0.111	-0.068
-411.369	73.877	-0.223	-0.236
-410.355	154.134	-0.173	-0.239
-409.340	-1.580	-0.015	0.010
-408.325	-55.700	0.189	0.085
-407.311	800.000	-0.098	0.277
-406.296	-200.000	0.006	0.051
-405.282	324.555	0.142	-0.274
-404.267	4.182	0.264	-0.194
-403.252	-27.410	0.257	0.150
-402.238	-74.513	-0.347	0.126
-401.223	-200.000	-0.015	-0.130
-400.209	261.603	-0.063	0.110
-399.194	79.907	-0.116	-0.126
-398.179	-84.143	-0.394	-0.126
-397.165	-13.284	0.178	0.116
-396.150	-200.000	0.077	0.460
-395.136	-123.036	-0.266	0.043
-394.121	-45.798	0.241	-0.120
-393.106	6.957	0.265	-0.199
-392.092	-25.258	0.182	0.109
-391.077	-165.798	0.049	-0.002
-390.063	612.917	0.065	-0.163
-389.048	-115.616	0.350	-0.066
-388.033	-200.000	0.004	-0.087
-387.019	164.589	-0.214	0.303
-386.004	-52.804	-0.077	-0.036
-384.990	-200.000	0.007	-0.222
-383.975	-175.337	-0.315	0.009
-382.960	239.089	0.193	-0.322
-381.946	-131.253	-0.215	0.029
-380.931	-67.258	0.307	-0.121
-379.917	-112.864	0.078	-0.016
-378.902	-36.215	-0.281	-0.152
-377.888	24.101	0.211	-0.175
-376.873	-66.796	-0.109	-0.043
-375.858	-135.824	0.418	0.050
-374.844	-200.000	0.018	0.093
-373.829	-93.992	0.178	0.049
-372.815	4.921	0.246	0.182
-371.800	127.890	0.208	-0.265
-370.785	244.060	0.135	0.227
-369.771	-200.000	0.026	0.203
-368.756	-200.000	-0.001	0.106
-367.742	800.000	-0.048	0.172
-366.727	-108.794	-0.322	0.069
-365.712	-200.000	-0.039	-0.177
-364.698	469.283	-0.013	-0.029
-363.683	38.146	0.103	0.092
-362.669	-164.216	0.184	-0.009
-361.654	-109.516	-0.209	0.044
-360.639	654.357	0.088	0.228
-359.625	-200.000	-0.034	0.188
-358.610	800.000	0.106	0.397
-357.596	-136.995	-0.125	0.014
-356.581	-112.773	-0.205	-0.041
-355.566	327.683	0.102	0.197
-354.552	800.000	0.032	0.100
-353.537	-200.000	0.040	-0.191
-352.523	69.893	0.070	-0.073
-351.508	73.789	0.169	0.178
-350.493	-200.000	-0.011	0.132
-349.479	211.195	-0.076	-0.120
-348.464	269.508	-0.097	0.171
-347.450	-47.154	-0.165	0.081
-346.435	800.000	-0.051	0.168
-345.420	-52.270	-0.177	-0.082
-344.406	645.552	-0.038	-0.099
-343.391	254.381	0.140	0.241
-342.377	-78.456	0.227	0.078
-341.362	257.387	0.169	0.291
-340.348	-8.877	0.108	-0.073
-339.333	-71.440	-0.177	-0.066
-338.318	48.209	0.182	-0.171
-337.304	800.000	0.086	-0.249
-336.289	-200.000	-0.002	-0.122
-335.275	172.545	-0.148	0.214
-334.260	-55.944	0.105	0.047
-333.245	-93.342	0.090	0.025
-332.231	-54.050	0.212	0.097
-331.216	-200.000	-0.003	-0.079
-330.202	-200.000	-0.005	-0.211
-329.187	-102.507	-0.055	0.013
-328.172	180.453	-0.024	-0.035
-327.158	-200.000	0.008	0.089
-326.143	-200.000	-0.038	0.251
-325.129	352.607	0.145	-0.289
-324.114	-200.000	0.000	0.075
-323.099	-200.000	0.071	0.326
-322.085	2.267	0.168	-0.122
-321.070	10.272	-0.144	0.110
-320.056	-115.270	-0.093	0.018
-319.041	184.847	0.036	0.053
-318.026	-43.301	-0.112	-0.057
-317.012	-177.703	-0.169	0.004
-315.997	-200.000	-0.007	-0.424
-314.983	800.000	0.090	0.276
-313.968	62.783	0.346	0.347
-312.953	-200.000	-0.013	-0.114
-311.939	800.000	0.081	0.236
-310.924	800.000	0.125	0.373
-309.910	-200.000	0.006	0.065
-308.895	8.781	-0.201	0.152
-307.880	593.529	0.033	0.082
-306.866	493.182	-0.042	-0.097
-305.851	496.831	-0.059	-0.137
-304.837	-8.853	0.415	0.279
-303.822	-200.000	0.075	0.522
-302.807	800.000	0.023	-0.079
-301.793	793.325	0.127	0.349
-300.778	19.776	0.244	0.197
-299.764	113.100	-0.057	-0.069
-298.749	-200.000	0.030	0.152
-297.735	-93.198	-0.232	-0.065
-296.720	119.104	-0.247	0.307
-295.705	624.761	-0.036	-0.090
-294.691	65.203	-0.284	-0.287
-293.676	-48.139	-0.082	-0.040
-292.662	-23.410	0.149	0.090
-291.647	333.486	0.075	-0.145
-290.632	-81.873	-0.371	-0.122
-289.618	-7.247	-0.197	-0.134
-288.603	-200.000	0.025	-0.131
-287.589	-36.352	-0.183	0.099
-286.574	800.000	0.094	-0.260
-285.559	-13.808	-0.097	0.063
-284.545	-200.000	0.052	0.402
-283.530	-22.218	-0.038	0.023
-282.516	-72.727	-0.186	-0.069
-281.501	684.709	-0.130	0.341
-280.486	260.397	0.117	0.202
-279.472	-55.425	-0.372	-0.167
-278.457	186.688	-0.223	-0.332
-277.443	-1.821	0.113	-0.080
-276.428	-200.000	-0.009	0.092
-275.413	-200.000	-0.048	0.447
-274.399	-73.168	-0.183	0.067
-273.384	93.401	-0.200	-0.227
-272.370	-101.826	0.245	-0.059
-271.355	73.968	0.216	0.227
-270.340	-200.000	0.037	-0.460
-269.326	100.253	0.061	0.071
-268.311	-26.025	-0.211	0.124
-267.297	16.675	0.174	0.138
-266.282	-157.153	0.065	0.004
-265.267	38.658	-0.339	-0.302
-264.253	87.820	-0.133	0.148
-263.238	128.615	-0.090	-0.115
-262.224	28.062	0.196	-0.166
-261.209	92.030	0.046	0.052
-260.195	80.582	0.245	0.264
-259.180	96.648	0.318	-0.364
-258.165	121.158	0.169	-0.210
-257.151	-110.656	0.240	-0.050
-256.136	18.292	0.156	-0.124
-255.122	-200.000	0.009	0.052
-254.107	-54.502	0.057	0.026
-253.092	9.840	-0.284	-0.216
-252.078	-127.190	-0.331	0.048
-251.063	-200.000	0.030	-0.373
-250.049	-23.039	-0.172	0.104
-249.034	-185.718	0.161	-0.002
-248.019	525.470	0.114	0.268
-247.005	193.129	0.152	-0.229
-245.990	24.616	-0.052	0.043
-244.976	-134.411	0.101	0.012
-243.961	15.959	-0.184	0.145
-242.946	42.416	0.191	-0.174
-241.932	-168.021	0.123	-0.005
-240.917	-166.869	-0.222	0.009
-239.903	-200.000	0.016	-0.109
-238.888	88.248	-0.125	-0.139
-237.873	800.000	0.044	-0.161
-236.859	-200.000	0.024	0.285
-235.844	800.000	-0.061	0.202
-234.830	-124.176	0.134	-0.021
-233.815	520.271	0.099	0.232
-232.800	55.814	0.095	0.092
-231.786	28.785	-0.211	0.178
-230.771	-35.116	-0.200	-0.109
-229.757	201.279	-0.146	-0.224
-228.742	-120.734	-0.234	-0.039
-227.727	269.180	-0.096	0.168
-226.713	-200.000	-0.008	0.253
-225.698	14.610	0.194	0.151
-224.684	78.317	-0.115	-0.122
-223.669	659.029	-0.015	0.040
-222.655	-200.000	0.042	-0.317
-221.640	215.669	0.106	-0.168
-220.625	46.276	-0.100	0.093
-219.611	-131.796	0.153	0.020
-218.596	800.000	-0.033	0.137
-217.582	-86.299	0.139	0.043
-216.567	-59.065	0.246	-0.106
-215.552	3.710	0.062	-0.046
-214.538	151.082	0.148	0.201
-213.523	-89.263	-0.283	-0.083
-212.509	0.413	-0.209	0.149
-211.494	263.606	0.159	0.276
-210.479	-111.675	0.103	0.021
-209.465	-87.208	0.251	0.076
-208.450	-126.801	-0.340	0.050
-207.436	30.084	-0.174	-0.148
-206.421	-130.705	0.136	-0.018
-205.406	418.481	-0.033	-0.071
-204.392	587.145	-0.117	-0.288
-203.377	-72.671	-0.297	-0.109
-202.363	334.768	-0.073	0.141
-201.348	495.514	0.008	-0.019
-200.333	120.207	0.076	-0.095
-199.319	800.000	0.026	0.076
-198.304	-51.428	0.264	0.123
-197.290	-142.177	0.132	-0.013
-196.275	-39.692	0.298	0.156
-195.260	-121.865	-0.242	-0.040
-194.246	171.278	-0.126	0.180
-193.231	-78.584	-0.170	0.058
-192.217	-200.000	0.012	0.255
-191.202	-88.942	0.153	-0.045
-190.187	800.000	0.079	-0.258
-189.173	173.908	0.022	0.031
-188.158	-200.000	-0.032	-0.295
-187.144	-40.906	0.244	-0.126
-186.129	-200.000	-0.025	0.427
-185.114	-150.368	-0.297	0.023
-184.100	-168.936	-0.106	0.004
-183.085	489.199	-0.107	-0.244
-182.071	-87.036	-0.125	0.038
-181.056	8.866	0.215	-0.162
-180.042	-26.097	-0.049	0.029
-179.027	167.748	0.244	0.346
-178.012	-38.057	-0.312	-0.165
-176.998	90.100	0.223	0.249
-175.983	-73.009	-0.150	-0.055
-174.969	118.943	0.176	-0.217
-173.954	195.645	0.111	-0.169
-172.939	237.726	0.162	-0.269
-171.925	-99.451	-0.101	-0.025
-170.910	116.622	0.198	0.242
-169.896	12.089	-0.088	-0.068
-168.881	-0.481	0.237	-0.168
-167.866	-122.787	0.246	-0.040
-166.852	114.713	0.156	0.190
-165.837	-43.618	-0.289	-0.145
-164.823	-200.000	0.004	-0.315
-163.808	-200.000	0.036	0.324
-162.793	-107.561	-0.106	0.023
-161.779	-127.312	-0.091	-0.013
-160.764	-100.535	0.560	-0.138
-159.750	48.965	-0.085	0.080
-158.735	151.912	-0.035	0.047
-157.720	-115.305	0.299	-0.056
-156.706	-200.000	0.001	-0.290
-155.691	800.000	-0.098	0.421
-154.677	60.991	-0.204	-0.202
-153.662	-160.526	0.171	-0.009
-152.647	-200.000	0.011	0.386
-151.633	37.315	0.225	0.199
-150.618	302.865	0.152	0.281
-149.604	-51.958	0.115	0.053
-148.589	800.000	-0.100	-0.348
-147.574	-152.622	-0.124	0.009
-146.560	68.449	-0.138	-0.141
-145.545	-200.000	-0.051	-0.389
-144.531	-36.189	-0.488	0.262
-143.516	-90.160	-0.047	-0.014
-142.502	267.171	-0.065	0.114
-141.487	-146.576	-0.169	0.015
-140.472	-7.065	0.194	-0.131
-139.458	119.456	-0.217	0.268
-138.443	-56.375	0.286	-0.127
-137.429	462.661	0.109	0.243
-136.414	-73.724	0.139	0.050
-135.399	800.000	-0.028	-0.103
-134.385	-14.766	0.264	0.169
-133.370	-200.000	0.001	-0.219
-132.356	-200.000	-0.057	-0.293
-131.341	-81.985	-0.090	-0.029
-130.326	-200.000	-0.006	-0.194
-129.312	-59.869	-0.387	-0.165
-128.297	278.920	-0.148	0.263
-127.283	-200.000	-0.043	0.320
-126.268	-200.000	0.017	0.163
-125.253	136.146	-0.114	-0.147
-124.239	-200.000	0.047	-0.255
-123.224	384.389	-0.065	-0.134
-122.210	653.799	0.210	0.536
-121.195	-41.773	0.161	-0.082
