DTS Sentinel unit serial number:	SN413079Multiplexer serial number:	ORYXHardware model number:	OX4-SRSoftware version number:	ORYX F/W v4.00 Oryx Data Collector v3.7.2.0data status	okinstallation	princeton_trtdifferential loss correction	single-endedforward channel	channel 2reverse channel	N/Adate	2019/09/14time	22:23:35forward acquisition time	60.00reverse acquisition time	0.00gamma	496.2192k internal	0.2323k external	0.2323temperature offset calibration	1.0064default loss term (dB/km)	0.3790temperature slope calibration	1.0000multiplexer offset coefficient	1.0000multiplexer slope coefficient	1.0000fibre end	0.00T internal ref (°C)	32.58T ext. ref 1 (°C)	4.70T ext. ref 2 (°C)	27.58length (m)	temperature (°C)	Stokes	anti-Stokes-747.200	251.134	0.049	0.084
-746.185	-188.446	-0.101	0.001
-745.171	800.000	0.053	-0.189
-744.156	-60.846	-0.189	-0.081
-743.142	-93.070	-0.199	-0.056
-742.127	78.261	-0.006	0.007
-741.112	800.000	-0.037	0.147
-740.098	-188.565	0.126	0.002
-739.083	-71.649	0.093	0.035
-738.069	178.431	0.087	-0.128
-737.054	-98.395	-0.198	0.051
-736.039	-67.213	-0.087	-0.035
-735.025	-128.245	0.316	0.046
-734.010	-86.638	-0.241	0.074
-732.996	146.806	-0.111	-0.150
-731.981	-71.970	-0.071	-0.026
-730.966	-8.838	0.157	-0.106
-729.952	800.000	-0.033	-0.142
-728.937	85.125	-0.139	-0.154
-727.923	-32.099	-0.216	0.122
-726.908	-200.000	0.001	0.274
-725.894	355.001	-0.090	0.181
-724.879	61.757	0.185	-0.185
-723.864	-54.552	-0.186	-0.085
-722.850	46.519	0.293	-0.274
-721.835	-12.602	-0.136	-0.090
-720.821	454.768	-0.098	0.218
-719.806	-200.000	-0.009	0.122
-718.791	227.320	-0.087	0.143
-717.777	-200.000	0.014	0.069
-716.762	147.259	-0.086	0.117
-715.748	-78.532	-0.188	-0.065
-714.733	-121.854	0.105	-0.017
-713.718	-129.449	-0.198	0.028
-712.704	19.425	0.175	0.142
-711.689	-200.000	-0.012	0.063
-710.675	-102.347	0.437	0.106
-709.660	800.000	0.039	0.130
-708.645	325.732	-0.078	0.150
-707.631	-100.827	-0.033	-0.008
-706.616	201.730	0.080	0.124
-705.602	24.801	-0.096	0.080
-704.587	56.213	0.094	-0.092
-703.572	-69.940	0.261	0.100
-702.558	119.650	0.175	0.219
-701.543	4.641	0.089	-0.066
-700.529	517.500	0.036	-0.084
-699.514	-49.945	0.134	0.064
-698.499	-200.000	-0.048	0.290
-697.485	-200.000	-0.004	-0.076
-696.470	-196.277	-0.289	-0.002
-695.456	17.250	-0.205	-0.164
-694.441	57.766	-0.143	-0.141
-693.426	727.678	-0.021	-0.057
-692.412	-200.000	-0.015	0.252
-691.397	-53.189	0.114	0.053
-690.383	-104.166	0.046	-0.011
-689.368	29.998	-0.192	0.165
-688.354	-200.000	0.006	-0.037
-687.339	-115.521	0.116	0.022
-686.324	168.233	0.116	-0.167
-685.310	-200.000	0.018	0.208
-684.295	196.364	-0.129	0.198
-683.281	-200.000	0.004	0.032
-682.266	126.782	-0.067	-0.086
-681.251	-200.000	0.019	0.134
-680.237	-4.469	-0.025	0.017
-679.222	164.792	-0.063	0.089
-678.208	112.555	0.136	-0.165
-677.193	318.789	0.163	0.311
-676.178	-55.100	-0.038	-0.017
-675.164	800.000	0.056	-0.205
-674.149	270.318	-0.092	-0.163
-673.135	-5.612	-0.146	0.101
-672.120	-200.000	0.021	-0.151
-671.105	12.500	0.083	-0.065
-670.091	-106.185	-0.310	0.070
-669.076	72.259	0.112	-0.117
-668.062	-200.000	-0.012	0.086
-667.047	-126.334	-0.189	-0.028
-666.032	-147.246	0.141	-0.012
-665.018	-101.211	-0.159	-0.039
-664.003	-78.791	-0.204	0.070
-662.989	123.249	0.125	0.158
-661.974	-178.711	-0.197	-0.005
-660.959	-95.856	-0.224	-0.060
-659.945	262.491	-0.039	-0.067
-658.930	-172.806	-0.235	0.007
-657.916	-150.935	-0.134	-0.010
-656.901	580.262	0.062	0.154
-655.886	-200.000	0.006	0.065
-654.872	800.000	0.102	-0.309
-653.857	138.263	-0.061	0.081
-652.843	-200.000	-0.005	0.077
-651.828	-200.000	-0.078	-0.347
-650.814	-93.213	0.190	-0.053
-649.799	-155.330	-0.106	-0.007
-648.784	-155.422	0.272	-0.018
-647.770	-21.381	-0.334	0.205
-646.755	-88.229	0.191	-0.058
-645.741	-76.152	0.237	0.084
-644.726	85.880	0.249	-0.276
-643.711	-200.000	-0.053	-0.243
-642.697	-152.954	0.056	0.004
-641.682	-73.662	0.057	-0.021
-640.668	-120.611	0.167	-0.028
-639.653	-55.512	-0.225	0.101
-638.638	800.000	0.139	-0.404
-637.624	186.490	0.141	-0.211
-636.609	800.000	-0.030	-0.131
-635.595	-165.147	-0.248	0.011
-634.580	9.023	-0.250	-0.190
-633.565	-200.000	0.000	-0.224
-632.551	-123.958	0.142	0.023
-631.536	214.071	0.022	-0.035
-630.522	-19.344	0.118	0.073
-629.507	-200.000	0.012	-0.134
-628.492	327.221	-0.127	-0.244
-627.478	108.864	0.160	0.192
-626.463	-200.000	-0.036	-0.324
-625.449	27.073	-0.307	0.259
-624.434	-200.000	0.036	0.353
-623.419	142.449	0.084	0.112
-622.405	-1.556	-0.308	0.218
-621.390	-39.339	0.074	-0.039
-620.376	-62.957	-0.367	-0.153
-619.361	587.468	-0.105	-0.260
-618.346	800.000	0.038	-0.129
-617.332	-200.000	0.019	-0.247
-616.317	-200.000	0.038	0.211
-615.303	-200.000	-0.025	0.190
-614.288	-148.652	0.052	0.004
-613.273	-34.354	0.209	-0.115
-612.259	103.804	-0.073	-0.086
-611.244	-10.629	-0.372	0.248
-610.230	-200.000	0.025	0.208
-609.215	-200.000	-0.014	-0.214
-608.201	-77.984	-0.115	-0.040
-607.186	11.880	-0.032	0.025
-606.171	-19.106	-0.195	-0.122
-605.157	21.047	0.050	0.041
-604.142	144.926	0.097	-0.130
-603.128	157.005	0.043	-0.060
-602.113	-117.127	0.116	0.021
-601.098	722.334	0.034	-0.092
-600.084	291.999	0.060	0.110
-599.069	-67.683	-0.155	-0.061
-598.055	-14.525	-0.165	0.107
-597.040	-4.614	-0.428	0.296
-596.025	-2.337	0.165	0.116
-595.011	-20.564	0.146	0.090
-593.996	-200.000	-0.009	0.082
-592.982	209.465	-0.151	-0.237
-591.967	38.736	-0.061	-0.055
-590.952	-200.000	-0.088	-0.429
-589.938	72.656	0.110	0.115
-588.923	-38.276	0.331	0.176
-587.909	56.457	-0.176	0.172
-586.894	241.237	-0.130	0.217
-585.879	18.674	-0.079	-0.063
-584.865	800.000	0.081	0.230
-583.850	86.495	-0.190	0.210
-582.836	-179.427	0.333	0.007
-581.821	-200.000	-0.003	-0.177
-580.806	740.800	0.109	-0.294
-579.792	35.002	-0.348	-0.306
-578.777	800.000	0.189	-0.529
-577.763	800.000	-0.096	0.285
-576.748	800.000	-0.030	-0.090
-575.733	-200.000	0.007	0.277
-574.719	-161.424	0.044	0.002
-573.704	44.478	0.258	-0.237
-572.690	79.718	0.086	0.093
-571.675	-200.000	-0.030	0.416
-570.661	69.357	0.059	0.061
-569.646	-200.000	0.081	-0.522
-568.631	183.534	-0.203	0.300
-567.617	-200.000	0.012	0.402
-566.602	11.520	0.095	-0.073
-565.588	-99.221	0.272	0.069
-564.573	-63.320	0.118	0.049
-563.558	-179.351	-0.304	-0.007
-562.544	-26.499	-0.260	-0.153
-561.529	-158.984	-0.323	0.018
-560.515	800.000	-0.096	0.267
-559.500	481.183	0.105	-0.239
-558.485	-200.000	0.049	-0.350
-557.471	26.624	-0.204	0.172
-556.456	445.044	-0.069	0.151
-555.442	800.000	0.059	0.214
-554.427	-43.706	-0.405	-0.205
-553.412	800.000	0.043	-0.126
-552.398	-200.000	0.014	-0.320
-551.383	169.411	-0.179	-0.255
-550.369	-90.127	-0.096	0.028
-549.354	29.515	0.262	0.223
-548.339	50.054	0.047	-0.044
-547.325	-110.721	0.351	0.073
-546.310	101.001	0.103	0.120
-545.296	800.000	0.053	0.209
-544.281	-200.000	-0.037	0.260
-543.266	-38.389	0.354	-0.188
-542.252	356.376	0.065	0.130
-541.237	196.812	0.061	0.093
-540.223	6.030	0.015	0.011
-539.208	-200.000	0.008	-0.093
-538.193	-86.425	-0.476	0.146
-537.179	-121.299	-0.114	0.019
-536.164	-200.000	0.000	-0.160
-535.150	-63.812	-0.285	-0.117
-534.135	651.404	0.055	0.141
-533.121	57.471	-0.095	-0.093
-532.106	-200.000	0.007	-0.489
-531.091	-57.828	-0.243	-0.107
-530.077	90.811	0.169	-0.189
-529.062	-200.000	-0.022	-0.411
-528.048	18.819	0.098	-0.079
-527.033	193.169	-0.087	-0.131
-526.018	192.358	0.089	0.134
-525.004	38.293	-0.165	0.147
-523.989	-42.874	-0.209	-0.106
-522.975	800.000	0.113	-0.360
-521.960	-40.454	-0.204	-0.106
-520.945	-35.431	-0.181	0.098
-519.931	34.992	0.246	-0.216
-518.916	228.083	0.099	-0.161
-517.902	0.691	0.238	-0.171
-516.887	800.000	0.030	-0.111
-515.872	-200.000	-0.023	0.115
-514.858	-99.453	-0.118	0.030
-513.843	-200.000	0.017	-0.116
-512.829	800.000	-0.026	0.105
-511.814	-22.097	-0.110	0.067
-510.799	71.737	0.174	-0.180
-509.785	-200.000	-0.041	-0.233
-508.770	-200.000	-0.022	0.235
-507.756	53.756	-0.200	0.192
-506.741	-173.171	0.294	0.009
-505.726	800.000	0.035	-0.140
-504.712	140.148	-0.086	0.114
-503.697	-96.412	-0.101	0.027
-502.683	-200.000	-0.002	0.017
-501.668	281.069	0.105	0.187
-500.653	22.859	0.283	0.232
-499.639	-200.000	-0.000	0.035
-498.624	800.000	-0.076	-0.226
-497.610	197.888	-0.214	0.327
-496.595	800.000	0.073	-0.268
-495.581	42.328	-0.213	-0.194
-494.566	800.000	-0.017	-0.050
-493.551	-200.000	0.004	-0.172
-492.537	-60.581	-0.102	-0.043
-491.522	296.334	-0.111	-0.204
-490.508	35.921	-0.223	0.196
-489.493	426.149	0.122	0.263
-488.478	-200.000	-0.020	0.143
-487.464	-96.026	0.312	0.083
-486.449	446.976	-0.010	0.021
-485.435	3.419	-0.114	0.083
-484.420	385.628	-0.175	0.360
-483.405	800.000	0.019	0.070
-482.391	-170.986	-0.181	-0.006
-481.376	-116.094	-0.294	0.055
-480.362	149.654	0.136	0.184
-479.347	800.000	0.030	-0.117
-478.332	-76.283	-0.241	0.085
-477.318	42.240	0.192	0.174
-476.303	306.886	0.050	0.093
-475.289	411.435	0.035	0.073
-474.274	569.717	-0.113	-0.274
-473.259	-200.000	-0.013	0.116
-472.245	-104.137	-0.071	0.017
-471.230	83.331	0.121	0.132
-470.216	-30.337	-0.491	-0.278
-469.201	5.762	-0.366	-0.270
-468.186	-101.787	-0.199	-0.048
-467.172	312.723	-0.059	0.111
-466.157	-189.996	-0.085	-0.001
-465.143	-87.418	-0.247	-0.075
-464.128	-84.030	0.189	0.060
-463.113	273.007	-0.116	0.205
-462.099	-126.692	0.013	-0.002
-461.084	-22.247	0.434	0.263
-460.070	-93.607	0.036	-0.010
-459.055	145.584	0.099	0.133
-458.040	-43.698	-0.067	0.033
-457.026	-200.000	0.220	-0.000
-456.011	-166.464	0.091	0.004
-454.997	-174.184	-0.258	0.007
-453.982	-129.612	0.182	0.025
-452.968	-200.000	-0.039	0.344
-451.953	-153.547	-0.292	0.020
-450.938	192.214	0.064	-0.096
-449.924	-200.000	0.020	0.268
-448.909	55.372	0.031	0.030
-447.895	800.000	0.105	0.437
-446.880	-17.831	-0.079	0.049
-445.865	155.399	-0.089	-0.123
-444.851	-115.750	0.425	0.079
-443.836	-94.811	-0.130	-0.035
-442.822	-162.759	-0.409	-0.020
-441.807	-200.000	0.015	0.101
-440.792	4.876	-0.330	0.242
-439.778	-34.063	-0.416	0.228
-438.763	55.354	0.193	-0.186
-437.749	800.000	0.089	-0.258
-436.734	-44.457	0.152	-0.076
-435.719	506.932	0.167	-0.386
-434.705	166.680	-0.091	-0.129
-433.690	-125.708	0.074	0.011
-432.676	-33.022	-0.113	0.063
-431.661	118.513	-0.110	-0.135
-430.646	-138.781	0.250	-0.027
-429.632	-36.246	-0.345	0.186
-428.617	-108.402	0.222	-0.048
-427.603	170.147	0.046	-0.065
-426.588	687.705	0.077	0.200
-425.573	414.722	0.128	-0.272
-424.559	108.105	0.144	0.172
-423.544	-33.924	-0.355	-0.195
-422.530	-115.468	-0.080	0.015
-421.515	-200.000	-0.013	0.064
-420.500	-195.376	0.290	0.002
-419.486	553.411	0.108	-0.259
-418.471	-24.555	-0.162	0.096
-417.457	-58.686	-0.326	-0.141
-416.442	-181.794	0.446	0.009
-415.428	-78.443	0.039	-0.013
-414.413	-2.291	0.157	-0.110
-413.398	71.460	-0.112	0.116
-412.384	800.000	0.099	-0.421
-411.369	22.655	-0.085	-0.070
-410.355	267.046	-0.216	0.376
-409.340	800.000	0.015	0.063
-408.325	-200.000	0.014	-0.207
-407.311	-100.836	0.271	0.066
-406.296	-20.584	0.107	-0.065
-405.282	47.157	-0.186	-0.172
-404.267	800.000	-0.075	0.244
-403.252	-68.162	0.065	-0.025
-402.238	-57.984	0.158	-0.069
-401.223	-200.000	0.035	-0.172
-400.209	-33.419	0.219	0.121
-399.194	573.407	-0.125	0.303
-398.179	-200.000	0.017	-0.101
-397.165	242.943	-0.041	-0.069
-396.150	-200.000	-0.015	-0.243
-395.136	-24.384	0.296	0.176
-394.121	11.029	0.089	-0.068
-393.106	37.330	0.113	-0.100
-392.092	-105.090	-0.407	0.093
-391.077	94.229	0.118	0.134
-390.063	416.174	0.114	0.241
-389.048	-200.000	0.028	0.154
-388.033	5.682	-0.240	0.176
-387.019	94.913	0.147	-0.166
-386.004	383.879	-0.101	-0.206
-384.990	800.000	-0.074	0.229
-383.975	-52.809	-0.186	-0.085
-382.960	-131.635	-0.393	0.051
-381.946	800.000	0.035	-0.116
-380.931	-200.000	-0.020	0.142
-379.917	123.862	0.052	-0.065
-378.902	-75.937	0.235	0.083
-377.888	418.286	-0.059	-0.126
-376.873	-29.500	0.262	-0.149
-375.858	56.177	-0.150	0.145
-374.844	800.000	-0.067	0.220
-373.829	-98.363	-0.366	0.093
-372.815	-55.994	0.169	-0.075
-371.800	-200.000	0.012	0.201
-370.785	800.000	0.111	0.443
-369.771	-3.499	-0.259	0.179
-368.756	-91.439	0.214	0.061
-367.742	-77.752	-0.094	-0.032
-366.727	800.000	0.049	0.181
-365.712	7.386	0.153	0.114
-364.698	698.309	-0.082	-0.216
-363.683	800.000	-0.044	0.138
-362.669	129.828	0.120	0.153
-361.654	245.300	-0.248	-0.415
-360.639	310.637	0.089	-0.165
-359.625	-122.294	0.241	0.039
-358.610	-200.000	0.001	0.041
-357.596	153.440	0.117	-0.159
-356.581	-99.718	0.418	0.104
-355.566	155.065	-0.163	0.223
-354.552	-200.000	-0.018	0.133
-353.537	-15.601	0.183	-0.116
-352.523	-2.755	-0.362	-0.252
-351.508	163.889	-0.122	0.171
-350.493	-135.213	-0.054	0.006
-349.479	-65.675	-0.276	-0.110
-348.464	-200.000	0.013	0.137
-347.450	-170.020	0.203	-0.007
-346.435	123.651	0.277	0.346
-345.420	-12.523	0.326	-0.211
-344.406	-127.076	0.228	0.033
-343.391	-31.837	0.069	0.039
-342.377	-200.000	0.008	0.133
-341.362	-72.564	0.228	-0.084
-340.348	-200.000	-0.011	-0.253
-339.333	-200.000	0.050	0.288
-338.318	-200.000	-0.039	-0.180
-337.304	1.865	-0.212	0.152
-336.289	-77.459	-0.184	-0.063
-335.275	166.752	-0.008	-0.011
-334.260	-200.000	0.069	-0.595
-333.245	5.049	-0.142	-0.104
-332.231	-92.042	-0.230	-0.065
-331.216	-46.248	-0.179	-0.088
-330.202	260.073	0.042	-0.073
-329.187	800.000	0.036	-0.112
-328.172	-87.836	-0.168	-0.050
-327.158	26.741	0.127	0.106
-326.143	125.265	0.114	-0.143
-325.129	-174.896	0.077	0.002
-324.114	-200.000	0.018	0.213
-323.099	-177.159	-0.057	0.001
-322.085	143.194	0.158	0.209
-321.070	-86.414	0.127	0.039
-320.056	-200.000	-0.003	0.100
-319.041	-138.484	-0.074	-0.008
-318.026	-97.465	0.072	-0.019
-317.012	2.081	0.457	0.328
-315.997	-200.000	-0.051	-0.375
-314.983	260.886	0.102	-0.174
-313.968	-100.252	-0.430	-0.106
-312.953	-200.000	0.014	-0.366
-311.939	-170.763	-0.363	0.012
-310.924	-49.498	0.098	-0.046
-309.910	-200.000	-0.134	0.000
-308.895	151.009	-0.169	-0.229
-307.880	800.000	-0.065	-0.202
-306.866	401.939	0.159	-0.331
-305.851	275.768	-0.072	-0.126
-304.837	19.881	-0.098	0.078
-303.822	-155.101	-0.101	-0.007
-302.807	-171.148	0.033	-0.001
-301.793	-99.871	0.221	0.055
-300.778	494.299	-0.039	0.089
-299.764	-62.630	-0.219	0.090
-298.749	211.392	0.148	-0.230
-297.735	-133.932	-0.207	-0.025
-296.720	67.052	-0.111	-0.112
-295.705	-29.611	0.181	0.103
-294.691	-75.244	0.232	-0.082
-293.676	497.544	0.069	0.158
-292.662	114.856	0.201	0.244
-291.647	104.415	0.037	0.043
-290.632	31.297	-0.338	-0.288
-289.618	-200.000	-0.017	-0.123
-288.603	768.619	-0.092	-0.247
-287.589	512.281	-0.119	-0.275
-286.574	-23.700	-0.071	-0.042
-285.559	2.901	0.036	0.026
-284.545	-106.115	-0.351	0.078
-283.530	476.231	-0.092	0.206
-282.516	145.690	0.122	-0.163
-281.501	633.971	0.106	-0.266
-280.486	316.461	-0.011	-0.020
-279.472	-102.488	0.050	-0.012
-278.457	26.733	-0.074	0.062
-277.443	122.140	-0.133	-0.165
-276.428	54.045	-0.060	-0.057
-275.413	-51.400	-0.246	0.114
-274.399	15.250	0.038	-0.030
-273.384	-200.000	-0.019	0.260
-272.370	126.097	0.110	-0.138
-271.355	40.759	-0.152	-0.136
-270.340	-48.827	0.213	-0.101
-269.326	43.898	-0.109	0.099
-268.311	68.189	0.138	0.140
-267.297	149.786	0.173	0.232
-266.282	242.818	0.071	-0.117
-265.267	-162.303	-0.206	-0.010
-264.253	-71.424	0.257	0.095
-263.238	683.422	0.013	-0.035
-262.224	-95.654	0.111	0.029
-261.209	-126.340	-0.132	0.020
-260.195	43.025	-0.095	-0.086
-259.180	-24.831	0.344	0.202
-258.165	608.437	0.107	0.263
-257.151	-200.000	-0.055	0.241
-256.136	-38.525	-0.328	0.172
-255.122	-156.049	0.141	0.009
-254.107	-43.569	0.268	-0.134
-253.092	-55.643	-0.242	0.107
-252.078	646.805	0.120	0.304
-251.063	-86.675	0.247	-0.075
-250.049	37.203	-0.198	0.174
-249.034	116.885	-0.187	-0.228
-248.019	-3.495	0.260	-0.179
-247.005	265.751	0.082	-0.142
-245.990	70.603	0.157	0.161
-244.976	-200.000	0.015	-0.089
-243.961	-16.207	0.227	0.143
-242.946	-60.921	0.309	-0.130
-241.932	-93.348	-0.372	0.102
-240.917	-200.000	-0.026	0.169
-239.903	188.088	0.008	0.011
-238.888	39.033	0.178	0.158
-237.873	92.249	-0.215	-0.240
-236.859	-52.474	0.155	-0.071
-235.844	-200.000	0.000	0.341
-234.830	-55.959	-0.155	-0.069
-233.815	1.092	-0.101	-0.072
-232.800	-200.000	0.050	-0.273
-231.786	-46.635	-0.165	0.080
-230.771	-87.615	0.211	0.063
-229.757	-36.173	-0.142	0.076
-228.742	339.645	-0.143	0.276
-227.727	-200.000	0.031	0.195
-226.713	168.017	-0.105	0.148
-225.698	-184.745	-0.295	0.005
-224.684	-157.747	0.243	-0.014
-223.669	111.073	-0.116	-0.139
-222.655	123.681	0.172	-0.214
-221.640	560.488	0.134	0.321
-220.625	10.825	-0.325	0.246
-219.611	-32.846	-0.176	0.097
-218.596	1.970	0.077	-0.055
-217.582	205.159	-0.108	-0.166
-216.567	102.789	0.140	0.162
-215.552	-200.000	-0.035	0.409
-214.538	83.671	-0.076	0.082
-213.523	-200.000	0.030	-0.255
-212.509	46.717	0.078	0.072
-211.494	305.328	0.068	-0.124
-210.479	520.697	-0.046	0.107
-209.465	159.123	0.219	-0.301
-208.450	-32.744	-0.152	-0.084
-207.436	800.000	0.053	0.157
-206.421	-135.075	0.285	-0.034
-205.406	-200.000	-0.009	0.062
-204.392	-200.000	0.004	-0.147
-203.377	800.000	-0.017	0.057
-202.363	-105.759	0.560	0.125
-201.348	800.000	0.052	-0.157
-200.333	-200.000	-0.039	-0.176
-199.319	73.661	-0.088	0.091
-198.304	-131.286	0.167	-0.022
-197.290	228.358	-0.171	0.276
-196.275	-165.374	0.245	0.011
-195.260	-104.486	-0.078	0.018
-194.246	800.000	-0.007	-0.023
-193.231	156.292	-0.138	0.188
-192.217	-127.366	0.293	-0.042
-191.202	21.392	0.224	0.180
-190.187	-179.463	-0.283	-0.006
-189.173	15.990	0.263	0.205
-188.158	215.826	-0.107	-0.168
-187.144	-92.939	0.093	-0.026
-186.129	113.570	-0.102	0.122
-185.114	-98.081	0.512	-0.130
-184.100	800.000	0.098	0.375
-183.085	-200.000	0.006	-0.428
-182.071	9.131	0.180	-0.134
-181.056	-35.178	-0.178	-0.096
-180.042	-134.037	-0.083	0.010
-179.027	-167.870	0.262	-0.010
-178.012	-10.275	-0.030	0.019
-176.998	35.236	-0.075	0.065
-175.983	-200.000	0.005	0.075
-174.969	-183.408	0.644	0.011
-173.954	-200.000	0.036	-0.199
-172.939	-200.000	-0.015	0.110
-171.925	-200.000	-0.038	-0.266
-170.910	220.401	-0.128	-0.203
-169.896	-36.365	0.343	-0.183
-168.881	8.004	-0.173	0.128
-167.866	117.351	-0.120	-0.146
-166.852	-15.783	-0.102	0.064
-165.837	-3.828	0.241	0.165
-164.823	737.876	-0.080	-0.211
-163.808	-146.896	0.120	0.010
-162.793	-52.423	-0.160	-0.073
-161.779	239.428	0.235	0.386
-160.764	-200.000	-0.004	0.121
-159.750	-164.252	-0.253	-0.011
-158.735	-7.272	0.134	0.090
-157.720	6.729	0.267	0.196
-156.706	135.409	-0.043	0.055
-155.691	-196.915	0.125	-0.001
-154.677	-58.437	0.134	-0.057
-153.662	800.000	-0.017	0.072
-152.647	18.670	0.063	0.050
-151.633	196.604	0.143	0.215
-150.618	-111.388	0.310	-0.062
-149.604	1.312	-0.143	-0.101
-148.589	800.000	0.013	-0.053
-147.574	75.628	0.098	-0.102
-146.560	276.403	0.061	-0.107
-145.545	146.655	-0.080	-0.107
-144.531	54.161	0.181	0.172
-143.516	119.561	-0.057	-0.070
-142.502	-30.437	0.292	0.163
-141.487	-74.304	0.049	-0.017
-140.472	757.688	0.085	0.228
-139.458	-200.000	0.003	-0.270
-138.443	-200.000	0.028	-0.209
-137.429	-98.746	-0.304	0.076
-136.414	-163.217	0.384	-0.018
-135.399	138.616	-0.202	0.262
-134.385	-58.959	0.071	0.030
-133.370	374.020	0.068	-0.136
-132.356	-0.564	0.302	0.211
-131.341	-80.365	0.133	0.044
-130.326	7.232	-0.128	-0.094
-129.312	-107.953	0.115	0.025
-128.297	-51.723	-0.247	-0.113
-127.283	369.161	0.217	-0.433
-126.268	-120.386	0.025	0.004
-125.253	-200.000	-0.003	-0.206
-124.239	-200.000	-0.023	-0.179
-123.224	101.496	-0.013	-0.015
-122.210	-187.523	0.412	0.005
-121.195	166.617	0.159	0.222
-120.180	232.637	-0.023	-0.037
