DTS Sentinel unit serial number:	SN413079Multiplexer serial number:	ORYXHardware model number:	OX4-SRSoftware version number:	ORYX F/W v4.00 Oryx Data Collector v3.7.2.0data status	okinstallation	princeton_trtdifferential loss correction	single-endedforward channel	channel 2reverse channel	N/Adate	2019/09/14time	10:27:35forward acquisition time	60.00reverse acquisition time	0.00gamma	496.2192k internal	0.2316k external	0.2316temperature offset calibration	1.0139default loss term (dB/km)	0.3790temperature slope calibration	1.0000multiplexer offset coefficient	1.0000multiplexer slope coefficient	1.0000fibre end	0.00T internal ref (°C)	34.62T ext. ref 1 (°C)	4.18T ext. ref 2 (°C)	32.75length (m)	temperature (°C)	Stokes	anti-Stokes-747.200	314.887	-0.042	0.081
-746.185	-176.291	-0.111	-0.003
-745.171	-127.447	0.106	0.016
-744.156	96.037	-0.255	0.295
-743.142	-42.363	0.412	-0.213
-742.127	-41.437	-0.267	0.139
-741.112	800.000	0.110	-0.418
-740.098	418.024	0.190	0.410
-739.083	-89.938	-0.153	-0.045
-738.069	-61.189	-0.164	0.070
-737.054	44.274	0.167	-0.155
-736.039	-200.000	-0.014	0.195
-735.025	50.695	-0.222	0.213
-734.010	27.234	0.141	-0.120
-732.996	66.851	0.123	-0.127
-731.981	63.603	-0.291	-0.295
-730.966	63.540	-0.206	-0.209
-729.952	-200.000	-0.001	0.277
-728.937	-36.916	-0.303	0.164
-727.923	246.515	-0.142	-0.243
-726.908	-200.000	0.023	-0.120
-725.894	-200.000	-0.056	-0.250
-724.879	-10.728	0.157	0.105
-723.864	-42.264	-0.140	-0.072
-722.850	83.398	-0.092	-0.101
-721.835	-112.669	0.032	0.006
-720.821	-200.000	0.027	0.165
-719.806	-200.000	0.034	0.160
-718.791	50.549	-0.256	-0.245
-717.777	215.441	0.198	-0.318
-716.762	800.000	-0.012	0.037
-715.748	70.638	-0.438	0.459
-714.733	-200.000	0.016	-0.112
-713.718	800.000	-0.054	0.162
-712.704	26.038	-0.144	0.121
-711.689	240.202	0.053	-0.089
-710.675	-58.707	-0.297	-0.130
-709.660	800.000	0.016	-0.048
-708.645	-53.839	0.102	0.047
-707.631	232.622	-0.095	0.158
-706.616	11.182	-0.051	0.040
-705.602	662.763	0.084	-0.218
-704.587	172.234	0.058	-0.084
-703.572	-86.612	-0.189	-0.058
-702.558	615.717	0.102	-0.260
-701.543	-4.993	0.322	-0.225
-700.529	-130.531	-0.309	0.042
-699.514	217.002	-0.034	0.055
-698.499	-200.000	-0.010	0.147
-697.485	-11.853	0.157	-0.104
-696.470	48.236	0.258	0.244
-695.456	-47.564	0.103	-0.051
-694.441	-169.907	0.052	-0.002
-693.426	455.554	-0.111	0.248
-692.412	3.204	-0.190	0.140
-691.397	-87.200	-0.055	-0.017
-690.383	800.000	0.013	-0.038
-689.368	-138.267	0.062	-0.007
-688.354	56.507	0.161	-0.158
-687.339	118.003	0.155	-0.193
-686.324	-200.000	-0.014	0.278
-685.310	201.081	0.059	0.092
-684.295	-74.094	0.085	-0.031
-683.281	-98.826	0.032	-0.008
-682.266	470.433	-0.241	-0.547
-681.251	-200.000	-0.035	-0.438
-680.237	315.380	-0.124	0.236
-679.222	-141.769	-0.284	-0.029
-678.208	-100.323	0.088	-0.022
-677.193	-200.000	-0.060	-0.000
-676.178	-200.000	0.021	-0.315
-675.164	191.488	0.106	-0.161
-674.149	-200.000	-0.010	-0.383
-673.135	-148.065	0.222	0.019
-672.120	301.709	0.056	-0.105
-671.105	-200.000	-0.054	-0.264
-670.091	794.069	-0.061	-0.168
-669.076	800.000	-0.069	-0.219
-668.062	-200.000	-0.057	-0.595
-667.047	-200.000	-0.464	0.001
-666.032	453.949	0.171	-0.383
-665.018	90.218	-0.169	-0.191
-664.003	271.568	0.091	0.162
-662.989	-69.428	0.085	0.033
-661.974	318.339	0.099	0.190
-660.959	-125.108	0.113	-0.017
-659.945	-47.239	0.234	0.115
-658.930	-9.523	0.246	-0.166
-657.916	-200.000	-0.077	0.341
-656.901	-118.449	0.530	0.095
-655.886	-167.499	0.163	0.007
-654.872	-121.462	-0.147	0.025
-653.857	-189.298	-0.320	-0.004
-652.843	322.738	-0.062	0.120
-651.828	-123.216	0.054	0.009
-650.814	-137.401	-0.298	-0.034
-649.799	-67.846	0.039	0.015
-648.784	415.290	0.110	0.236
-647.770	55.958	-0.167	-0.163
-646.755	165.554	-0.119	-0.170
-645.741	-75.774	0.066	0.024
-644.726	-35.923	-0.221	-0.121
-643.711	574.523	-0.061	-0.151
-642.697	-199.652	0.524	0.003
-641.682	-56.461	-0.208	-0.093
-640.668	291.931	-0.194	-0.356
-639.653	800.000	0.019	0.069
-638.638	-117.949	0.130	0.023
-637.624	-176.185	-0.164	0.004
-636.609	-116.108	0.338	-0.063
-635.595	607.258	0.117	0.294
-634.580	-89.227	0.313	-0.093
-633.565	81.618	0.123	-0.134
-632.551	-79.521	0.100	0.034
-631.536	228.962	-0.068	0.111
-630.522	-176.762	-0.210	0.005
-629.507	143.816	0.077	0.104
-628.492	-200.000	-0.024	-0.224
-627.478	-166.909	-0.119	0.005
-626.463	-138.625	0.272	-0.030
-625.449	-93.098	-0.271	0.076
-624.434	-29.186	0.058	-0.033
-623.419	-12.083	0.281	-0.186
-622.405	-117.823	-0.183	-0.033
-621.390	260.778	-0.041	0.071
-620.376	101.349	0.247	0.290
-619.361	-200.000	0.026	-0.315
-618.346	800.000	0.041	0.125
-617.332	-127.351	-0.471	0.069
-616.317	-118.435	0.143	-0.025
-615.303	146.866	-0.179	-0.243
-614.288	-86.301	-0.215	0.067
-613.273	-43.276	0.173	-0.088
-612.259	-34.448	-0.248	0.137
-611.244	-126.256	-0.209	-0.031
-610.230	-2.046	-0.148	-0.105
-609.215	157.997	-0.282	0.394
-608.201	-200.000	-0.003	0.126
-607.186	-144.771	0.113	0.010
-606.171	-62.228	-0.298	0.125
-605.157	800.000	0.046	-0.151
-604.142	-200.000	-0.049	0.241
-603.128	27.031	-0.289	-0.244
-602.113	86.254	0.116	-0.129
-601.098	49.234	-0.145	0.138
-600.084	-133.443	0.146	0.018
-599.069	-87.606	-0.309	-0.094
-598.055	-71.832	0.423	-0.159
-597.040	513.051	0.052	0.123
-596.025	-87.447	0.041	-0.013
-595.011	-200.000	0.015	0.459
-593.996	-200.000	-0.084	0.484
-592.982	-104.120	-0.248	0.058
-591.967	-158.182	0.338	0.020
-590.952	30.173	-0.244	0.209
-589.938	252.027	-0.215	0.369
-588.923	132.427	-0.095	0.123
-587.909	-43.745	-0.013	-0.007
-586.894	-144.566	0.124	-0.012
-585.879	-58.409	0.110	-0.048
-584.865	88.053	0.382	-0.427
-583.850	-62.774	-0.211	-0.088
-582.836	57.481	0.245	-0.241
-581.821	-98.951	-0.335	0.086
-580.806	-134.857	-0.187	-0.023
-579.792	26.182	0.111	0.094
-578.777	-130.161	0.154	-0.021
-577.763	214.884	0.155	0.247
-576.748	19.765	0.082	0.066
-575.733	-36.833	-0.136	0.073
-574.719	-41.416	0.003	0.002
-573.704	9.450	0.162	0.124
-572.690	-61.364	0.115	0.049
-571.675	-78.259	0.231	-0.080
-570.661	708.401	-0.088	0.235
-569.646	5.591	0.243	0.181
-568.631	-86.404	0.277	-0.086
-567.617	-44.172	-0.296	0.150
-566.602	49.827	0.278	-0.263
-565.588	-184.288	-0.244	0.004
-564.573	-200.000	-0.000	0.008
-563.558	-63.110	-0.246	0.102
-562.544	-187.416	-0.304	-0.004
-561.529	-54.636	-0.159	0.072
-560.515	-26.195	-0.367	-0.217
-559.500	-162.679	0.332	0.016
-558.485	172.479	0.023	0.033
-557.471	-44.485	-0.078	-0.039
-556.456	95.934	0.125	0.144
-555.442	-200.000	0.012	0.124
-554.427	36.336	-0.302	0.268
-553.412	27.358	-0.166	-0.141
-552.398	28.677	0.375	0.319
-551.383	-9.928	0.196	-0.131
-550.369	31.107	0.153	-0.132
-549.354	19.615	-0.090	-0.073
-548.339	530.865	0.035	-0.083
-547.325	-56.097	-0.277	0.124
-546.310	-90.942	-0.201	0.058
-545.296	198.295	0.093	-0.143
-544.281	800.000	-0.069	-0.239
-543.266	-98.203	0.064	0.017
-542.252	-200.000	-0.053	-0.323
-541.237	800.000	0.093	-0.405
-540.223	-24.178	-0.248	0.149
-539.208	140.920	0.176	-0.234
-538.193	-73.812	0.014	-0.005
-537.179	-121.717	0.180	0.030
-536.164	509.511	0.174	-0.407
-535.150	-200.000	-0.042	-0.202
-534.135	280.504	-0.218	-0.392
-533.121	281.779	-0.262	-0.471
-532.106	800.000	-0.023	-0.081
-531.091	64.142	0.107	-0.108
-530.077	-65.086	0.349	0.141
-529.062	-200.000	-0.022	-0.220
-528.048	-105.791	-0.183	0.042
-527.033	365.086	-0.087	-0.175
-526.018	-196.513	0.299	-0.002
-525.004	-163.672	0.079	0.004
-523.989	-200.000	0.016	-0.352
-522.975	800.000	-0.143	-0.426
-521.960	-136.418	-0.223	0.026
-520.945	20.520	-0.206	-0.167
-519.931	94.980	-0.083	-0.094
-518.916	-200.000	-0.010	-0.615
-517.902	134.126	-0.239	-0.311
-516.887	-150.085	0.561	-0.044
-515.872	420.591	0.076	-0.164
-514.858	-112.353	0.194	0.039
-513.843	320.760	0.107	-0.203
-512.829	36.013	-0.105	-0.093
-511.814	464.647	0.110	0.248
-510.799	61.207	0.276	-0.276
-509.785	200.139	0.176	0.271
-508.770	-200.000	-0.027	-0.147
-507.756	112.925	-0.209	-0.254
-506.741	-56.462	0.199	-0.089
-505.726	-110.647	0.376	-0.078
-504.712	-200.000	0.040	-0.254
-503.697	-142.085	0.355	0.035
-502.683	-104.630	-0.438	0.101
-501.668	659.980	-0.083	-0.215
-500.653	800.000	0.024	-0.097
-499.639	-200.000	0.002	0.338
-498.624	-200.000	-0.033	-0.181
-497.610	800.000	0.043	-0.185
-496.595	-15.156	-0.293	0.188
-495.581	-200.000	-0.020	-0.180
-494.566	359.659	0.046	-0.091
-493.551	359.043	-0.043	-0.086
-492.537	77.416	-0.218	0.233
-491.522	-200.000	-0.007	0.111
-490.508	369.042	0.081	-0.164
-489.493	124.540	-0.251	0.317
-488.478	133.461	0.208	0.270
-487.464	-29.971	0.186	0.106
-486.449	-200.000	-0.060	-0.355
-485.435	-200.000	0.035	0.513
-484.420	-200.000	0.023	0.177
-483.405	446.129	-0.122	0.269
-482.391	-158.824	-0.138	0.008
-481.376	167.709	0.098	-0.140
-480.362	35.141	0.023	0.020
-479.347	-200.000	0.008	0.146
-478.332	-6.000	-0.121	0.083
-477.318	-88.547	-0.186	0.056
-476.303	800.000	-0.105	0.326
-475.289	15.454	-0.189	-0.148
-474.274	197.692	0.095	0.146
-473.259	-200.000	-0.006	0.082
-472.245	135.158	0.256	0.333
-471.230	-25.633	-0.232	-0.137
-470.216	-147.977	-0.342	0.029
-469.201	-121.196	0.455	-0.076
-468.186	121.245	0.037	0.046
-467.172	-52.182	0.310	-0.144
-466.157	-115.549	0.298	-0.056
-465.143	-13.862	0.125	-0.081
-464.128	37.297	0.088	0.078
-463.113	800.000	0.080	-0.322
-462.099	-129.300	-0.131	-0.018
-461.084	23.409	-0.112	-0.093
-460.070	-65.576	-0.396	-0.159
-459.055	-57.463	-0.123	-0.054
-458.040	793.451	0.137	-0.376
-457.026	31.003	-0.361	-0.310
-456.011	800.000	-0.058	-0.198
-454.997	-57.594	-0.280	0.123
-453.982	-200.000	0.012	0.119
-452.968	255.603	-0.089	-0.153
-451.953	24.765	-0.115	-0.096
-450.938	19.517	0.221	-0.178
-449.924	-10.366	-0.157	-0.104
-448.909	760.730	-0.063	0.171
-447.895	-127.224	-0.281	0.041
-446.880	13.726	-0.073	-0.057
-445.865	117.944	-0.052	0.064
-444.851	67.133	0.089	0.091
-443.836	800.000	0.065	-0.240
-442.822	56.293	-0.097	0.094
-441.807	415.890	0.118	0.252
-440.792	413.437	-0.017	-0.035
-439.778	12.957	-0.166	0.128
-438.763	374.844	0.014	-0.029
-437.749	-132.617	0.190	-0.024
-436.734	141.317	-0.105	-0.140
-435.719	151.107	0.111	-0.151
-434.705	70.613	0.095	-0.099
-433.690	-22.307	-0.008	0.005
-432.676	-132.249	0.160	-0.021
-431.661	-188.245	-0.120	0.002
-430.646	-88.906	-0.393	-0.117
-429.632	800.000	0.065	0.188
-428.617	-76.847	-0.417	0.146
-427.603	415.951	-0.098	0.210
-426.588	784.993	0.092	0.251
-425.573	31.383	-0.205	0.176
-424.559	16.089	-0.230	-0.181
-423.544	-200.000	-0.033	-0.361
-422.530	-88.785	0.165	-0.049
-421.515	800.000	-0.045	0.157
-420.500	364.969	0.036	0.074
-419.486	-21.928	0.016	-0.009
-418.471	501.163	0.095	0.220
-417.457	197.147	-0.028	-0.043
-416.442	205.610	0.084	0.131
-415.428	-200.000	-0.015	-0.098
-414.413	800.000	-0.046	0.175
-413.398	-116.163	-0.118	0.022
-412.384	-6.926	0.055	-0.037
-411.369	56.733	-0.090	0.087
-410.355	-200.000	-0.013	0.216
-409.340	-200.000	-0.015	-0.271
-408.325	46.303	-0.283	0.263
-407.311	330.123	0.065	-0.125
-406.296	102.858	0.226	0.264
-405.282	-27.518	-0.411	0.239
-404.267	397.374	-0.048	0.101
-403.252	237.654	0.040	-0.066
-402.238	-150.845	0.422	0.032
-401.223	-200.000	0.011	0.086
-400.209	-125.371	0.075	-0.011
-399.194	327.339	-0.064	-0.122
-398.179	-125.852	-0.179	0.027
-397.165	125.709	0.137	-0.173
-396.150	52.735	-0.081	-0.077
-395.136	211.327	0.048	-0.076
-394.121	-129.613	0.135	0.019
-393.106	-77.700	0.165	-0.057
-392.092	800.000	0.012	0.038
-391.077	-139.738	-0.309	-0.033
-390.063	-17.504	0.110	-0.069
-389.048	155.025	0.085	0.116
-388.033	17.236	-0.282	-0.223
-387.019	784.092	-0.104	0.284
-386.004	-137.978	0.231	-0.026
-384.990	-181.063	-0.473	-0.009
-383.975	-45.379	0.268	0.133
-382.960	296.447	-0.049	0.091
-381.946	109.324	-0.110	-0.132
-380.931	-19.623	0.065	0.040
-379.917	10.591	0.117	-0.089
-378.902	800.000	0.075	-0.208
-377.888	-19.763	-0.096	-0.059
-376.873	-51.193	0.084	-0.039
-375.858	-83.363	-0.069	0.022
-374.844	-179.565	0.336	0.007
-373.829	382.291	-0.104	-0.213
-372.815	141.151	-0.053	-0.071
-371.800	21.659	0.248	0.201
-370.785	-117.904	0.170	0.030
-369.771	428.773	0.104	0.225
-368.756	38.599	0.188	0.167
-367.742	-191.489	0.439	-0.004
-366.727	725.553	0.054	0.144
-365.712	-200.000	0.011	0.182
-364.698	101.438	-0.032	-0.038
-363.683	-12.499	-0.050	-0.033
-362.669	-153.591	-0.114	-0.008
-361.654	477.539	-0.145	0.327
-360.639	440.087	0.069	-0.150
-359.625	-85.304	0.152	0.047
-358.610	651.489	-0.122	0.313
-357.596	800.000	-0.098	0.324
-356.581	161.702	0.229	0.319
-355.566	800.000	-0.129	0.440
-354.552	-74.092	0.046	0.017
-353.537	-12.059	0.075	-0.049
-352.523	131.930	0.090	-0.115
-351.508	-91.523	-0.354	0.101
-350.493	73.230	0.072	-0.075
-349.479	-116.906	0.318	-0.058
-348.464	288.840	0.048	-0.086
-347.450	92.188	-0.049	0.056
-346.435	52.266	0.134	-0.128
-345.420	-182.181	0.138	0.003
-344.406	-80.642	0.092	-0.031
-343.391	749.663	-0.114	0.305
-342.377	49.951	-0.380	-0.357
-341.362	-74.869	0.354	0.127
-340.348	800.000	-0.047	0.142
-339.333	-77.832	-0.191	0.066
-338.318	5.299	-0.105	-0.077
-337.304	239.479	-0.052	0.087
-336.289	535.875	-0.071	-0.168
-335.275	-28.380	-0.130	0.075
-334.260	-61.753	0.020	-0.008
-333.245	380.681	-0.060	0.122
-332.231	-200.000	0.008	0.396
-331.216	-26.197	0.212	-0.124
-330.202	-173.076	0.335	0.010
-329.187	-50.568	-0.265	0.125
-328.172	380.510	-0.038	-0.078
-327.158	101.348	-0.033	0.038
-326.143	682.572	0.162	0.422
-325.129	-47.405	-0.140	-0.068
-324.114	800.000	-0.060	-0.183
-323.099	219.854	0.163	-0.260
-322.085	41.110	0.115	0.104
-321.070	83.624	-0.074	0.080
-320.056	-200.000	0.086	-0.444
-319.041	-200.000	0.032	0.305
-318.026	800.000	0.054	0.196
-317.012	-41.169	-0.274	-0.141
-315.997	-200.000	0.028	-0.123
-314.983	335.777	-0.104	-0.202
-313.968	468.780	0.055	0.123
-312.953	-200.000	-0.039	0.183
-311.939	34.188	0.304	0.264
-310.924	-81.880	0.149	0.048
-309.910	-200.000	0.103	0.000
-308.895	-117.474	0.123	-0.022
-307.880	430.219	-0.096	-0.207
-306.866	-89.300	-0.312	-0.092
-305.851	126.977	0.153	0.193
-304.837	280.460	-0.101	0.181
-303.822	-36.313	-0.057	-0.031
-302.807	365.769	-0.155	0.311
-301.793	30.734	0.172	-0.147
-300.778	164.588	0.132	0.185
-299.764	-129.196	-0.152	0.021
-298.749	-12.744	0.236	-0.153
-297.735	-78.482	0.130	0.044
-296.720	37.599	0.074	-0.066
-295.705	2.964	0.147	-0.106
-294.691	-81.490	-0.222	-0.073
-293.676	645.419	0.080	0.203
-292.662	31.124	-0.095	-0.081
-291.647	21.127	-0.212	0.171
-290.632	361.129	-0.068	-0.135
-289.618	-23.661	-0.167	0.100
-288.603	-102.662	0.167	0.040
-287.589	-83.955	-0.224	-0.071
-286.574	237.523	-0.103	0.171
-285.559	268.430	-0.156	-0.273
-284.545	800.000	0.042	0.173
-283.530	-200.000	-0.010	0.320
-282.516	-84.524	0.105	-0.033
-281.501	176.394	-0.122	0.176
-280.486	-59.727	0.175	-0.074
-279.472	-105.525	0.109	0.025
-278.457	183.022	0.179	0.263
-277.443	-170.161	0.233	0.008
-276.428	414.254	0.140	-0.296
-275.413	13.944	-0.249	0.193
-274.399	109.732	0.087	0.104
-273.384	-82.372	-0.359	0.116
-272.370	-200.000	0.004	-0.081
-271.355	167.602	0.132	0.187
-270.340	79.442	-0.203	0.216
-269.326	-200.000	-0.025	-0.130
-268.311	800.000	-0.056	-0.209
-267.297	-36.258	0.173	-0.093
-266.282	800.000	0.025	0.069
-265.267	-200.000	0.018	0.172
-264.253	-200.000	-0.000	-0.050
-263.238	-16.435	-0.179	-0.113
-262.224	207.813	-0.118	0.183
-261.209	-45.597	0.369	0.182
-260.195	-200.000	-0.016	-0.170
-259.180	-164.894	-0.201	0.009
-258.165	8.518	0.292	-0.218
-257.151	75.790	0.143	-0.151
-256.136	242.874	0.075	0.124
-255.122	-200.000	-0.028	-0.174
-254.107	353.432	-0.095	-0.187
-253.092	-156.765	-0.254	-0.016
-252.078	-24.522	0.030	-0.018
-251.063	-200.000	-0.023	0.278
-250.049	-200.000	0.059	-0.288
-249.034	-75.106	0.296	0.105
-248.019	379.362	-0.061	-0.124
-247.005	-42.229	-0.310	-0.158
-245.990	317.432	-0.083	-0.156
-244.976	-86.137	0.095	-0.029
-243.961	105.727	-0.211	-0.248
-242.946	84.683	-0.166	0.180
-241.932	-56.496	0.314	-0.139
-240.917	-35.846	0.264	0.142
-239.903	-135.052	-0.186	-0.022
-238.888	389.169	-0.014	-0.028
-237.873	287.025	0.049	0.088
-236.859	43.877	-0.306	0.278
-235.844	800.000	0.030	0.090
-234.830	446.038	-0.094	-0.204
-233.815	128.162	-0.088	-0.111
-232.800	-200.000	-0.022	-0.153
-231.786	-200.000	-0.044	0.228
-230.771	-50.563	0.199	0.093
-229.757	750.887	0.054	0.146
-228.742	232.448	0.144	0.235
-227.727	269.785	-0.051	-0.089
-226.713	-76.595	-0.104	0.036
-225.698	-53.226	0.265	0.121
-224.684	-120.319	-0.491	-0.083
-223.669	-70.985	-0.148	0.055
-222.655	32.360	-0.078	-0.067
-221.640	-0.649	-0.035	0.025
-220.625	-83.165	0.374	-0.119
-219.611	38.143	0.282	0.249
-218.596	-24.589	0.259	0.153
-217.582	-200.000	0.009	-0.059
-216.567	71.231	0.050	-0.052
-215.552	614.082	0.031	0.076
-214.538	800.000	0.023	0.077
-213.523	583.707	-0.139	0.339
-212.509	11.101	-0.149	-0.113
-211.494	114.235	-0.217	0.262
-210.479	-98.229	0.140	-0.036
-209.465	555.163	-0.071	0.169
-208.450	-68.596	-0.236	0.091
-207.436	-130.330	0.408	0.055
-206.421	-45.720	0.174	-0.085
-205.406	800.000	0.086	-0.270
-204.392	17.060	-0.186	-0.146
-203.377	632.834	-0.018	0.045
-202.363	800.000	-0.148	0.472
-201.348	-50.291	0.118	-0.055
-200.333	185.759	0.045	0.067
-199.319	105.583	0.157	-0.184
-198.304	-39.368	0.233	0.121
-197.290	154.692	0.184	-0.251
-196.275	154.458	-0.215	-0.293
-195.260	-66.927	0.270	-0.106
-194.246	188.507	0.078	0.116
-193.231	-19.981	-0.296	-0.181
-192.217	-200.000	-0.020	0.278
-191.202	-74.468	-0.068	-0.024
-190.187	-3.120	0.163	0.113
-189.173	20.832	-0.216	0.173
-188.158	23.602	0.336	-0.274
-187.144	-200.000	-0.061	-0.294
-186.129	524.928	0.099	0.231
-185.114	138.758	0.137	-0.178
-184.100	-84.790	-0.416	0.130
-183.085	360.115	0.050	0.099
-182.071	170.250	0.122	-0.174
-181.056	258.647	-0.084	0.144
-180.042	800.000	0.046	0.157
-179.027	-86.773	0.256	0.078
-178.012	92.961	0.063	-0.071
-176.998	-43.699	0.160	0.080
-175.983	113.853	-0.249	-0.299
-174.969	212.885	-0.138	-0.216
-173.954	-162.928	-0.169	-0.008
-172.939	101.977	-0.144	-0.166
-171.925	-135.142	0.193	-0.023
-170.910	-22.888	0.144	-0.086
-169.896	-112.264	-0.142	-0.028
-168.881	800.000	0.025	-0.083
-167.866	104.310	0.134	-0.157
-166.852	-200.000	-0.004	-0.198
-165.837	48.705	0.160	0.148
-164.823	16.907	0.256	0.201
-163.808	7.546	0.199	0.147
-162.793	84.802	0.225	-0.244
-161.779	-23.455	0.225	-0.134
-160.764	-51.373	0.112	-0.052
-159.750	-39.215	-0.251	0.131
-158.735	-5.413	-0.220	0.149
-157.720	312.454	-0.164	0.304
-156.706	800.000	-0.074	-0.205
-155.691	288.128	0.040	-0.071
-154.677	130.681	0.132	0.168
-153.662	-79.767	-0.279	-0.093
-152.647	-22.059	0.171	-0.103
-151.633	-200.000	-0.031	-0.212
-150.618	800.000	0.021	0.080
-149.604	521.558	0.038	0.087
-148.589	-59.559	0.347	-0.147
-147.574	58.291	0.317	-0.307
-146.560	562.038	0.182	-0.435
-145.545	-184.105	0.318	0.005
-144.531	800.000	0.064	0.205
-143.516	49.512	-0.154	0.143
-142.502	-99.114	0.176	0.044
-141.487	221.104	0.115	-0.183
-140.472	-75.145	0.044	0.015
-139.458	98.801	-0.085	0.097
-138.443	153.383	-0.072	0.097
-137.429	-65.633	0.309	-0.123
-136.414	14.759	0.141	0.109
-135.399	35.550	0.384	-0.334
-134.385	800.000	-0.152	-0.416
-133.370	-54.366	-0.433	-0.194
-132.356	-200.000	-0.169	-0.000
-131.341	-200.000	-0.003	0.204
-130.326	-200.000	0.079	0.371
-129.312	-200.000	-0.001	0.117
-128.297	232.949	-0.126	0.205
-127.283	-36.471	-0.165	-0.088
-126.268	260.782	0.162	0.277
-125.253	-78.651	0.275	-0.093
-124.239	451.033	-0.090	0.196
-123.224	-3.409	0.151	0.104
-122.210	-88.678	0.159	-0.047
-121.195	-168.310	0.250	0.010
-120.180	-200.000	-0.003	0.034
