DTS Sentinel unit serial number:	SN413079Multiplexer serial number:	ORYXHardware model number:	OX4-SRSoftware version number:	ORYX F/W v4.00 Oryx Data Collector v3.7.2.0data status	okinstallation	princeton_trtdifferential loss correction	single-endedforward channel	channel 2reverse channel	N/Adate	2019/09/18time	09:27:35forward acquisition time	60.00reverse acquisition time	0.00gamma	496.2192k internal	0.2337k external	0.2337temperature offset calibration	0.9977default loss term (dB/km)	0.3790temperature slope calibration	1.0000multiplexer offset coefficient	1.0000multiplexer slope coefficient	1.0000fibre end	0.00T internal ref (°C)	26.27T ext. ref 1 (°C)	0.27T ext. ref 2 (°C)	23.35length (m)	temperature (°C)	Stokes	anti-Stokes-747.200	527.342	0.148	0.351
-746.185	-119.052	-0.255	-0.045
-745.171	-102.213	-0.270	-0.065
-744.156	-200.000	-0.008	-0.260
-743.142	-200.000	0.045	-0.201
-742.127	-53.174	-0.146	0.067
-741.112	-72.143	-0.247	0.092
-740.098	800.000	-0.072	0.244
-739.083	33.342	-0.155	-0.135
-738.069	-119.008	-0.367	0.065
-737.054	800.000	-0.111	-0.458
-736.039	-86.192	-0.117	0.036
-735.025	91.196	0.042	0.047
-734.010	800.000	-0.153	-0.437
-732.996	8.282	0.113	-0.085
-731.981	-200.000	-0.105	-0.000
-730.966	24.538	0.146	0.121
-729.952	-200.000	-0.034	-0.182
-728.937	-21.552	0.089	-0.054
-727.923	-200.000	-0.024	-0.153
-726.908	-30.402	-0.103	-0.059
-725.894	177.013	0.200	-0.292
-724.879	34.891	-0.083	0.073
-723.864	-12.036	0.213	-0.140
-722.850	49.205	-0.262	0.247
-721.835	-200.000	0.029	-0.190
-720.821	-48.992	0.099	0.047
-719.806	-84.648	0.074	0.023
-718.791	-151.404	0.224	-0.017
-717.777	-200.000	0.014	0.076
-716.762	190.697	0.246	-0.370
-715.748	127.932	-0.080	0.102
-714.733	47.068	0.136	0.127
-713.718	280.793	-0.137	-0.246
-712.704	-200.000	-0.029	-0.170
-711.689	251.050	-0.104	0.177
-710.675	101.864	0.342	-0.400
-709.660	15.740	0.089	0.070
-708.645	-121.402	0.340	0.057
-707.631	-6.110	-0.224	-0.153
-706.616	-51.142	-0.162	-0.076
-705.602	301.099	0.073	-0.136
-704.587	-49.100	-0.086	0.041
-703.572	80.623	0.311	-0.336
-702.558	100.900	0.116	0.135
-701.543	-138.131	-0.168	0.019
-700.529	-70.353	-0.166	0.063
-699.514	-200.000	0.021	0.144
-698.499	-200.000	0.020	-0.177
-697.485	24.156	0.337	0.279
-696.470	-97.228	-0.192	0.050
-695.456	-37.581	0.152	-0.081
-694.441	-18.567	0.264	0.165
-693.426	-94.059	0.064	0.018
-692.412	-200.000	-0.021	-0.137
-691.397	112.202	0.051	-0.062
-690.383	107.029	-0.130	0.155
-689.368	-56.090	-0.029	-0.013
-688.354	134.791	-0.182	-0.236
-687.339	-135.287	0.110	-0.013
-686.324	-44.407	-0.378	-0.189
-685.310	-200.000	0.034	0.199
-684.295	-135.696	0.353	0.042
-683.281	-47.174	0.159	0.078
-682.266	-119.413	-0.268	-0.047
-681.251	281.396	-0.079	-0.141
-680.237	-200.000	0.013	0.160
-679.222	-200.000	0.040	0.000
-678.208	-36.046	-0.275	-0.149
-677.193	-123.087	-0.539	-0.087
-676.178	-121.880	-0.175	-0.029
-675.164	-115.617	-0.107	-0.020
-674.149	-33.850	0.184	0.101
-673.135	-200.000	0.016	-0.120
-672.120	416.250	0.074	0.159
-671.105	-119.015	0.167	0.029
-670.091	-67.306	-0.158	-0.062
-669.076	203.493	-0.102	-0.158
-668.062	-147.235	0.093	0.008
-667.047	-200.000	-0.008	-0.079
-666.032	-37.351	-0.197	0.105
-665.018	800.000	-0.069	0.259
-664.003	-200.000	0.010	0.112
-662.989	800.000	-0.076	-0.225
-661.974	19.376	-0.193	-0.155
-660.959	-19.696	-0.140	0.087
-659.945	-200.000	0.033	-0.500
-658.930	-83.146	0.095	0.031
-657.916	-22.352	-0.096	-0.058
-656.901	235.688	0.082	-0.136
-655.886	-43.915	-0.261	0.131
-654.872	139.355	-0.120	0.157
-653.857	-90.233	-0.202	-0.059
-652.843	-160.577	0.144	-0.008
-651.828	-200.000	0.043	-0.197
-650.814	30.127	-0.072	-0.062
-649.799	-200.000	0.059	0.348
-648.784	-68.895	-0.073	0.028
-647.770	767.451	-0.091	-0.248
-646.755	110.831	-0.217	0.261
-645.741	-200.000	0.429	0.000
-644.726	-120.350	0.060	-0.010
-643.711	265.841	-0.040	0.070
-642.697	198.111	0.099	0.151
-641.682	-32.655	0.186	0.104
-640.668	-200.000	0.017	0.173
-639.653	-200.000	-0.014	-0.254
-638.638	238.770	0.091	0.151
-637.624	550.308	-0.018	-0.042
-636.609	-148.048	-0.177	0.015
-635.595	297.868	-0.097	0.178
-634.580	-200.000	-0.040	-0.214
-633.565	-11.231	0.147	-0.097
-632.551	210.739	-0.071	-0.112
-631.536	230.084	0.129	-0.210
-630.522	-45.204	0.157	0.078
-629.507	-101.524	-0.077	0.019
-628.492	800.000	0.021	0.086
-627.478	134.449	0.193	0.250
-626.463	148.226	0.216	0.291
-625.449	224.740	-0.220	-0.356
-624.434	182.487	0.241	-0.355
-623.419	365.567	-0.149	-0.299
-622.405	-134.204	-0.400	-0.049
-621.390	-200.000	-0.100	-0.690
-620.376	90.345	-0.231	-0.258
-619.361	-172.152	0.252	-0.008
-618.346	780.435	-0.098	-0.268
-617.332	-95.701	-0.335	0.089
-616.317	254.236	-0.171	-0.292
-615.303	-32.197	-0.137	0.076
-614.288	242.591	-0.122	-0.204
-613.273	-2.927	-0.104	0.073
-612.259	-136.424	0.122	-0.014
-611.244	325.141	0.143	-0.273
-610.230	753.393	0.067	-0.181
-609.215	192.286	-0.049	0.074
-608.201	800.000	-0.032	0.109
-607.186	-71.834	-0.274	-0.102
-606.171	45.423	0.111	0.102
-605.157	584.981	-0.135	-0.331
-604.142	1.772	0.067	0.049
-603.128	-86.031	-0.171	-0.053
-602.113	-200.000	0.018	-0.242
-601.098	34.771	-0.351	-0.306
-600.084	-200.000	0.018	0.106
-599.069	13.611	-0.189	0.147
-598.055	-55.458	0.215	0.096
-597.040	-67.655	-0.228	-0.089
-596.025	-17.390	0.091	-0.057
-595.011	800.000	-0.063	-0.203
-593.996	322.222	0.042	0.080
-592.982	103.902	0.122	0.144
-591.967	193.749	0.203	0.307
-590.952	40.489	0.177	-0.159
-589.938	-150.319	0.099	0.008
-588.923	-37.983	-0.262	0.139
-587.909	-200.000	-0.000	0.516
-586.894	-200.000	-0.150	-0.000
-585.879	-200.000	-0.014	-0.297
-584.865	430.086	-0.145	-0.313
-583.850	-200.000	-0.092	0.566
-582.836	800.000	-0.068	-0.198
-581.821	-91.983	-0.334	0.094
-580.806	-107.077	-0.237	0.052
-579.792	-200.000	0.039	0.409
-578.777	111.356	-0.124	-0.149
-577.763	-200.000	-0.022	-0.223
-576.748	791.811	0.086	-0.235
-575.733	-93.485	-0.195	-0.054
-574.719	140.359	0.171	0.225
-573.704	-151.278	-0.391	0.029
-572.690	-29.462	-0.193	-0.110
-571.675	-84.686	-0.300	0.094
-570.661	286.676	0.055	-0.100
-569.646	508.069	-0.129	0.299
-568.631	-118.651	0.244	-0.043
-567.617	-200.000	-0.004	-0.124
-566.602	-200.000	-0.004	-0.026
-565.588	-200.000	-0.021	-0.321
-564.573	49.660	0.186	0.174
-563.558	-26.495	0.132	-0.077
-562.544	-65.371	0.160	0.064
-561.529	7.226	-0.424	-0.315
-560.515	153.398	0.081	-0.110
-559.500	-89.603	-0.251	-0.074
-558.485	-200.000	0.008	-0.057
-557.471	-200.000	-0.055	0.248
-556.456	-200.000	-0.042	-0.379
-555.442	-53.901	-0.084	-0.038
-554.427	-35.176	0.059	-0.032
-553.412	-200.000	-0.039	0.467
-552.398	40.050	0.174	-0.156
-551.383	123.526	-0.082	-0.102
-550.369	28.989	-0.032	-0.027
-549.354	-200.000	-0.004	0.092
-548.339	80.362	-0.073	0.079
-547.325	161.824	0.111	0.154
-546.310	739.208	0.067	-0.179
-545.296	-34.624	-0.463	-0.252
-544.281	-67.707	0.303	-0.118
-543.266	800.000	-0.037	-0.105
-542.252	238.141	-0.095	-0.157
-541.237	800.000	-0.104	0.437
-540.223	79.373	-0.082	-0.087
-539.208	-145.631	-0.191	-0.017
-538.193	-40.413	-0.094	0.049
-537.179	64.823	0.149	-0.150
-536.164	-200.000	0.023	0.275
-535.150	800.000	-0.029	0.095
-534.135	800.000	-0.055	-0.176
-533.121	-200.000	0.060	-0.501
-532.106	404.221	-0.065	0.137
-531.091	9.024	-0.130	-0.098
-530.077	-200.000	0.020	-0.180
-529.062	-74.942	-0.120	-0.043
-528.048	-66.791	0.079	-0.031
-527.033	800.000	-0.039	0.130
-526.018	-200.000	-0.015	0.129
-525.004	-200.000	-0.027	-0.177
-523.989	800.000	-0.093	-0.301
-522.975	58.108	0.092	0.090
-521.960	-143.766	-0.191	0.018
-520.945	25.044	0.146	-0.121
-519.931	-167.344	-0.034	0.001
-518.916	-69.483	0.126	0.048
-517.902	218.961	0.204	0.324
-516.887	159.612	-0.107	-0.148
-515.872	8.521	-0.210	0.157
-514.858	-110.866	0.130	0.027
-513.843	-154.664	0.040	-0.003
-512.829	51.585	-0.145	0.137
-511.814	64.524	-0.216	0.217
-510.799	800.000	0.089	-0.264
-509.785	800.000	-0.035	0.142
-508.770	154.535	0.136	0.186
-507.756	730.105	-0.001	0.002
-506.741	-102.292	-0.406	-0.097
-505.726	-8.104	-0.421	-0.282
-504.712	39.496	0.108	-0.096
-503.697	5.662	0.217	0.160
-502.683	-6.789	-0.284	0.192
-501.668	83.457	-0.033	-0.035
-500.653	-200.000	0.039	0.442
-499.639	99.449	0.064	-0.074
-498.624	-127.205	-0.297	0.043
-497.610	-125.089	0.271	-0.041
-496.595	112.836	-0.107	0.128
-495.581	-8.338	-0.179	-0.120
-494.566	800.000	-0.120	-0.351
-493.551	-200.000	0.007	0.037
-492.537	68.598	-0.027	-0.027
-491.522	800.000	-0.117	-0.449
-490.508	800.000	-0.030	-0.111
-489.493	-200.000	-0.005	0.103
-488.478	111.025	0.118	-0.141
-487.464	-158.169	-0.109	-0.006
-486.449	800.000	-0.050	-0.197
-485.435	-83.798	0.188	0.060
-484.420	-79.387	-0.153	-0.052
-483.405	-12.498	0.297	0.193
-482.391	511.725	-0.032	0.074
-481.376	-122.888	0.115	-0.018
-480.362	-200.000	-0.252	0.001
-479.347	800.000	-0.025	-0.080
-478.332	404.481	0.089	0.186
-477.318	315.539	0.068	0.128
-476.303	441.458	0.033	-0.073
-475.289	797.078	-0.141	0.385
-474.274	-180.911	-0.164	0.003
-473.259	-200.000	-0.048	-0.330
-472.245	-200.000	0.087	0.479
-471.230	-200.000	-0.215	-0.000
-470.216	114.159	0.086	0.104
-469.201	-200.000	0.034	0.162
-468.186	-200.000	-0.045	-0.200
-467.172	199.393	-0.107	0.163
-466.157	-131.170	-0.160	-0.021
-465.143	-67.199	-0.335	0.131
-464.128	80.158	0.131	-0.140
-463.113	170.894	0.217	-0.309
-462.099	-200.000	0.011	-0.130
-461.084	-146.587	-0.254	-0.022
-460.070	-58.089	0.245	0.106
-459.055	-200.000	0.004	0.203
-458.040	198.394	0.064	0.098
-457.026	57.261	0.177	0.172
-456.011	160.447	-0.294	0.407
-454.997	67.554	0.209	-0.212
-453.982	-114.178	0.186	0.036
-452.968	800.000	0.067	-0.242
-451.953	151.015	0.031	-0.041
-450.938	54.635	-0.427	0.409
-449.924	-143.354	-0.050	-0.005
-448.909	-101.584	0.228	0.055
-447.895	186.463	-0.078	0.115
-446.880	-200.000	0.052	-0.284
-445.865	-98.912	-0.202	-0.051
-444.851	118.072	0.157	-0.192
-443.836	63.552	0.175	-0.175
-442.822	73.989	0.389	-0.405
-441.807	-200.000	-0.042	-0.315
-440.792	-200.000	0.039	-0.415
-439.778	554.185	0.184	-0.439
-438.763	-26.774	0.062	0.036
-437.749	-22.228	0.226	-0.136
-436.734	135.082	0.205	0.264
-435.719	-69.854	-0.191	-0.072
-434.705	148.659	-0.109	-0.146
-433.690	-110.763	0.118	0.024
-432.676	61.714	0.069	-0.068
-431.661	-93.317	-0.372	0.102
-430.646	-37.643	0.259	0.137
-429.632	800.000	0.068	-0.215
-428.617	-2.087	0.058	-0.040
-427.603	-200.000	0.035	0.315
-426.588	150.233	-0.175	0.236
-425.573	-7.648	0.058	0.039
-424.559	800.000	0.050	-0.177
-423.544	-70.169	-0.035	-0.013
-422.530	-200.000	0.021	-0.112
-421.515	441.808	-0.096	-0.209
-420.500	-121.972	0.314	-0.051
-419.486	-128.398	-0.284	-0.040
-418.471	142.891	0.167	-0.220
-417.457	-200.000	0.015	0.095
-416.442	-38.385	-0.100	-0.053
-415.428	-97.799	0.208	-0.053
-414.413	419.260	0.254	0.540
-413.398	153.698	0.062	0.084
-412.384	800.000	-0.080	0.231
-411.369	106.996	0.043	0.051
-410.355	-94.579	0.457	-0.123
-409.340	417.244	0.043	-0.090
-408.325	-61.373	0.128	-0.053
-407.311	-200.000	0.050	0.260
-406.296	-200.000	-0.026	0.121
-405.282	46.997	-0.248	-0.228
-404.267	81.906	0.131	0.141
-403.252	-200.000	-0.006	-0.159
-402.238	247.509	-0.170	0.284
-401.223	-72.245	0.156	0.057
-400.209	-200.000	0.002	-0.134
-399.194	-124.644	0.063	0.010
-398.179	-200.000	0.026	-0.121
-397.165	795.163	-0.091	0.248
-396.150	800.000	-0.111	0.315
-395.136	-81.041	0.072	0.024
-394.121	-80.053	0.219	-0.073
-393.106	29.457	-0.166	-0.140
-392.092	24.184	0.254	-0.207
-391.077	-53.081	0.212	0.096
-390.063	-31.479	0.215	0.119
-389.048	-77.359	0.174	-0.060
-388.033	57.506	0.119	0.115
-387.019	418.662	0.103	0.219
-386.004	-148.182	0.116	-0.009
-384.990	67.050	0.189	-0.190
-383.975	-46.566	0.315	0.153
-382.960	-8.749	-0.287	-0.191
-381.946	99.628	-0.113	0.129
-380.931	14.998	0.156	0.121
-379.917	800.000	-0.082	0.229
-378.902	-73.523	-0.085	0.031
-377.888	166.349	-0.236	0.331
-376.873	-200.000	0.036	0.415
-375.858	210.719	0.105	0.163
-374.844	-16.731	0.113	-0.071
-373.829	-200.000	0.021	-0.115
-372.815	-43.202	0.213	-0.107
-371.800	42.303	-0.083	0.074
-370.785	-35.011	-0.124	-0.067
-369.771	-67.865	0.282	0.109
-368.756	-0.009	0.138	0.097
-367.742	-11.097	0.153	-0.100
-366.727	-76.182	0.315	-0.110
-365.712	-200.000	0.020	-0.315
-364.698	123.675	-0.153	-0.190
-363.683	172.638	0.152	-0.216
-362.669	-78.083	-0.226	0.077
-361.654	162.281	0.164	0.228
-360.639	-111.851	-0.227	0.045
-359.625	354.661	0.069	0.136
-358.610	-162.241	-0.242	-0.012
-357.596	107.251	-0.087	-0.103
-356.581	-200.000	-0.001	-0.111
-355.566	2.701	-0.466	-0.334
-354.552	-64.364	0.310	0.125
-353.537	-200.000	0.013	0.348
-352.523	-93.069	-0.192	0.053
-351.508	-95.428	0.025	-0.007
-350.493	18.714	-0.163	0.129
-349.479	-134.725	-0.269	-0.032
-348.464	-106.217	-0.316	-0.070
-347.450	-200.000	-0.006	0.408
-346.435	-60.166	0.218	0.092
-345.420	452.843	0.037	-0.081
-344.406	800.000	0.084	0.300
-343.391	-100.574	-0.194	0.047
-342.377	114.953	-0.040	-0.048
-341.362	-94.735	0.134	0.036
-340.348	-32.387	-0.077	-0.043
-339.333	-124.782	0.238	-0.036
-338.318	-23.840	0.079	-0.047
-337.304	-105.410	0.103	-0.023
-336.289	-118.528	-0.083	-0.014
-335.275	-200.000	-0.009	0.063
-334.260	-200.000	-0.016	0.251
-333.245	-92.762	-0.232	-0.064
-332.231	-76.409	0.365	-0.127
-331.216	22.268	-0.288	-0.232
-330.202	501.238	-0.101	-0.230
-329.187	-200.000	-0.008	0.044
-328.172	161.376	0.096	-0.133
-327.158	-27.391	0.136	0.078
-326.143	-43.735	0.128	-0.064
-325.129	-58.582	-0.171	-0.073
-324.114	-38.168	-0.061	-0.032
-323.099	386.215	-0.156	0.318
-322.085	86.170	-0.255	0.277
-321.070	-143.522	-0.034	-0.003
-320.056	-21.372	0.112	-0.067
-319.041	310.496	0.217	0.402
-318.026	-99.339	0.246	-0.061
-317.012	87.838	0.088	0.096
-315.997	-5.870	0.399	-0.270
-314.983	-65.548	-0.303	0.120
-313.968	-44.316	-0.271	0.134
-312.953	45.965	-0.213	-0.195
-311.939	-102.576	0.119	-0.028
-310.924	-126.704	-0.203	0.030
-309.910	-62.031	-0.283	0.117
-308.895	34.316	-0.096	0.083
-307.880	418.543	-0.096	-0.203
-306.866	-19.831	-0.155	0.095
-305.851	-58.400	0.086	0.037
-304.837	311.055	-0.139	0.257
-303.822	195.162	-0.202	0.303
-302.807	-90.168	-0.041	-0.012
-301.793	503.948	-0.153	-0.349
-300.778	334.759	-0.126	0.240
-299.764	-159.341	-0.238	-0.013
-298.749	-200.000	0.041	0.237
-297.735	112.738	0.098	0.117
-296.720	110.380	-0.201	-0.239
-295.705	800.000	-0.081	-0.324
-294.691	271.167	-0.052	0.090
-293.676	28.694	0.244	0.204
-292.662	800.000	0.050	0.212
-291.647	138.116	-0.135	0.175
-290.632	180.075	-0.263	0.381
-289.618	55.398	-0.157	-0.150
-288.603	155.248	0.014	-0.019
-287.589	2.361	0.129	0.092
-286.574	331.682	0.188	0.357
-285.559	-11.080	0.079	0.051
-284.545	-154.401	-0.119	0.008
-283.530	121.042	-0.154	0.189
-282.516	194.678	0.090	-0.135
-281.501	800.000	0.096	-0.395
-280.486	-200.000	-0.026	-0.145
-279.472	-109.135	0.348	-0.073
-278.457	-12.013	-0.179	-0.116
-277.443	263.439	0.163	-0.279
-276.428	-134.864	-0.143	-0.017
-275.413	-7.295	-0.129	0.086
-274.399	387.579	0.188	0.383
-273.384	645.314	-0.096	0.241
-272.370	-188.959	-0.221	-0.003
-271.355	189.421	0.203	0.300
-270.340	-14.391	0.178	-0.113
-269.326	800.000	-0.058	0.179
-268.311	235.354	-0.243	-0.395
-267.297	-3.865	0.297	-0.203
-266.282	15.923	-0.105	0.082
-265.267	68.771	0.196	-0.199
-264.253	66.626	-0.319	-0.320
-263.238	-15.738	0.463	0.291
-262.224	-200.000	-0.028	0.339
-261.209	596.745	0.058	-0.142
-260.195	186.365	0.184	0.269
-259.180	87.187	0.013	-0.014
-258.165	800.000	0.080	0.241
-257.151	-40.253	0.057	0.029
-256.136	-200.000	-0.011	0.054
-255.122	564.535	-0.148	0.354
-254.107	174.134	-0.033	0.047
-253.092	-11.184	0.211	0.137
-252.078	-50.116	-0.152	0.071
-251.063	800.000	0.009	-0.031
-250.049	-51.378	0.349	0.161
-249.034	-100.807	0.101	0.025
-248.019	-119.378	0.240	0.041
-247.005	-37.682	0.194	0.102
-245.990	-68.900	0.505	0.192
-244.976	392.386	0.023	-0.047
-243.961	-145.791	-0.222	0.019
-242.946	42.473	-0.227	-0.204
-241.932	-180.073	-0.261	-0.005
-240.917	98.252	-0.126	-0.143
-239.903	-8.964	0.125	-0.083
-238.888	-200.000	-0.037	0.166
-237.873	-27.948	0.227	-0.129
-236.859	-9.768	-0.182	0.119
-235.844	800.000	-0.122	-0.340
-234.830	800.000	0.080	-0.217
-233.815	-9.630	0.234	-0.153
-232.800	800.000	0.086	0.299
-231.786	-200.000	-0.018	-0.136
-230.771	-200.000	0.060	-0.422
-229.757	-17.364	-0.253	0.156
-228.742	475.192	-0.050	-0.111
-227.727	112.402	-0.135	-0.161
-226.713	-112.156	0.274	0.054
-225.698	284.006	-0.038	0.068
-224.684	366.330	0.140	0.277
-223.669	-130.921	-0.167	0.022
-222.655	31.839	0.095	0.081
-221.640	800.000	0.129	0.355
-220.625	32.026	0.224	0.190
-219.611	-200.000	-0.015	0.173
-218.596	-89.537	-0.224	0.065
-217.582	218.084	0.070	-0.110
-216.567	-200.000	-0.023	-0.185
-215.552	-98.199	0.244	-0.062
-214.538	-134.103	-0.196	0.024
-213.523	99.396	-0.027	0.031
-212.509	115.047	0.167	-0.200
-211.494	-83.282	0.258	-0.082
-210.479	-62.782	-0.154	-0.063
-209.465	800.000	-0.049	0.158
-208.450	-184.086	-0.161	-0.003
-207.436	199.369	0.208	0.313
-206.421	109.314	0.037	-0.043
-205.406	298.632	0.084	0.152
-204.392	-165.343	0.147	-0.006
-203.377	298.930	-0.040	0.072
-202.363	-27.445	0.087	-0.050
-201.348	137.847	0.131	0.169
-200.333	323.768	-0.127	-0.238
-199.319	800.000	-0.042	-0.120
-198.304	-200.000	0.017	0.220
-197.290	84.877	-0.134	-0.145
-196.275	178.799	0.170	0.244
-195.260	-94.810	-0.160	-0.043
-194.246	273.040	-0.052	0.091
-193.231	-167.244	0.150	0.006
-192.217	-89.796	0.338	-0.097
-191.202	-200.000	0.036	-0.220
-190.187	-46.355	0.323	0.156
-189.173	800.000	-0.071	0.296
-188.158	-157.099	0.080	0.005
-187.144	-200.000	0.032	0.174
-186.129	-55.266	0.216	-0.095
-185.114	252.213	-0.099	-0.166
-184.100	-59.504	-0.085	-0.036
-183.085	153.118	0.067	-0.091
-182.071	-200.000	-0.073	-0.355
-181.056	-120.119	0.154	0.026
-180.042	800.000	-0.141	-0.386
-179.027	-187.947	-0.084	0.001
-178.012	-135.336	0.133	0.016
-176.998	-200.000	-0.022	-0.218
-175.983	37.772	-0.171	-0.149
-174.969	54.223	-0.268	-0.253
-173.954	-51.956	-0.091	0.042
-172.939	106.626	-0.058	0.068
-171.925	-200.000	0.031	0.196
-170.910	-16.988	-0.293	-0.181
-169.896	-57.858	0.173	0.074
-168.881	17.035	0.204	0.159
-167.866	28.816	0.191	0.158
-166.852	130.272	-0.028	0.035
-165.837	-200.000	0.020	-0.198
-164.823	-200.000	-0.004	-0.316
-163.808	-37.170	0.212	-0.111
-162.793	765.537	-0.051	0.135
-161.779	-94.611	-0.109	0.029
-160.764	-32.978	0.232	-0.127
-159.750	260.648	0.067	0.113
-158.735	80.318	0.160	0.169
-157.720	37.912	0.258	-0.225
-156.706	-88.092	0.220	0.065
-155.691	-200.000	0.042	0.323
-154.677	-64.547	0.037	0.015
-153.662	3.075	0.174	-0.124
-152.647	800.000	-0.093	-0.299
-151.633	104.640	0.140	-0.162
-150.618	635.348	-0.082	-0.203
-149.604	-29.189	0.186	0.104
-148.589	-131.692	-0.173	-0.022
-147.574	10.582	-0.206	0.154
-146.560	-2.751	0.087	0.059
-145.545	51.858	-0.137	-0.128
-144.531	-101.616	-0.266	-0.063
-143.516	188.190	0.135	0.198
-142.502	800.000	-0.065	-0.223
-141.487	97.559	0.088	-0.099
-140.472	-200.000	-0.004	0.085
-139.458	800.000	0.090	0.286
-138.443	-200.000	0.013	-0.135
-137.429	197.186	-0.102	-0.152
-136.414	30.657	0.025	-0.021
-135.399	92.600	-0.087	0.096
-134.385	800.000	-0.064	0.263
-133.370	-200.000	0.010	-0.170
-132.356	-200.000	-0.020	-0.199
-131.341	600.851	-0.117	0.286
-130.326	347.999	-0.151	0.291
-129.312	-151.792	-0.191	-0.014
-128.297	-200.000	0.014	0.346
-127.283	110.183	-0.166	0.196
-126.268	68.930	-0.134	0.135
-125.253	714.273	-0.109	0.284
-124.239	-174.358	-0.090	0.003
-123.224	-95.847	0.372	-0.097
-122.210	-63.681	-0.280	-0.112
