DTS Sentinel unit serial number:	SN413079Multiplexer serial number:	ORYXHardware model number:	OX4-SRSoftware version number:	ORYX F/W v4.00 Oryx Data Collector v3.7.2.0data status	okinstallation	princeton_trtdifferential loss correction	single-endedforward channel	channel 2reverse channel	N/Adate	2019/09/16time	02:11:35forward acquisition time	60.00reverse acquisition time	0.00gamma	496.2192k internal	0.2335k external	0.2335temperature offset calibration	0.9970default loss term (dB/km)	0.3790temperature slope calibration	1.0000multiplexer offset coefficient	1.0000multiplexer slope coefficient	1.0000fibre end	0.00T internal ref (°C)	27.50T ext. ref 1 (°C)	10.15T ext. ref 2 (°C)	22.50length (m)	temperature (°C)	Stokes	anti-Stokes-747.200	-30.947	0.058	0.033
-746.185	21.131	0.070	-0.057
-745.171	26.542	0.085	0.072
-744.156	-120.568	0.351	-0.060
-743.142	-91.807	0.175	0.050
-742.127	-98.799	-0.094	0.024
-741.112	-200.000	-0.003	-0.148
-740.098	-3.197	-0.222	0.156
-739.083	-200.000	0.015	0.171
-738.069	25.944	-0.225	0.189
-737.054	73.436	-0.208	-0.219
-736.039	24.596	-0.255	-0.212
-735.025	125.271	0.233	0.295
-734.010	-120.418	-0.068	0.012
-732.996	-106.438	-0.272	0.061
-731.981	-5.598	0.041	-0.028
-730.966	-45.979	-0.391	-0.194
-729.952	-94.109	-0.153	-0.042
-728.937	151.510	-0.032	0.043
-727.923	-200.000	0.028	-0.255
-726.908	-113.048	0.224	-0.044
-725.894	114.968	-0.080	0.098
-724.879	800.000	0.079	0.237
-723.864	-19.458	0.202	0.125
-722.850	800.000	0.102	0.300
-721.835	8.656	-0.087	-0.066
-720.821	-66.184	-0.127	0.051
-719.806	800.000	-0.027	-0.113
-718.791	-39.118	0.362	-0.191
-717.777	479.677	0.141	-0.322
-716.762	800.000	0.035	-0.152
-715.748	-151.171	-0.155	-0.012
-714.733	-200.000	-0.015	-0.080
-713.718	-4.045	0.221	0.154
-712.704	-137.856	-0.392	0.044
-711.689	162.274	-0.103	-0.145
-710.675	55.154	0.108	-0.105
-709.660	31.070	-0.198	0.171
-708.645	375.258	-0.158	0.323
-707.631	-134.164	0.340	-0.042
-706.616	195.873	-0.109	-0.166
-705.602	800.000	-0.029	0.122
-704.587	31.620	-0.233	-0.201
-703.572	437.862	-0.048	-0.104
-702.558	-56.972	-0.115	0.051
-701.543	-78.926	-0.155	0.053
-700.529	107.246	0.060	0.072
-699.514	-67.557	-0.036	0.014
-698.499	-127.410	0.259	-0.038
-697.485	-89.390	-0.137	-0.041
-696.470	63.868	0.076	-0.077
-695.456	2.096	0.138	-0.100
-694.441	800.000	0.062	-0.176
-693.426	800.000	0.056	-0.209
-692.412	-93.240	-0.013	0.004
-691.397	-173.592	0.086	-0.003
-690.383	-200.000	-0.028	-0.401
-689.368	800.000	-0.025	0.090
-688.354	689.661	-0.098	0.257
-687.339	-20.956	-0.262	0.161
-686.324	-200.000	-0.033	-0.206
-685.310	108.518	0.222	-0.265
-684.295	-40.462	-0.266	-0.139
-683.281	94.488	0.060	0.069
-682.266	-200.000	-0.008	0.071
-681.251	-59.393	0.137	-0.059
-680.237	26.965	-0.103	-0.086
-679.222	14.607	-0.209	-0.163
-678.208	800.000	-0.047	0.137
-677.193	467.389	-0.146	0.327
-676.178	56.047	0.238	-0.231
-675.164	36.839	-0.244	-0.216
-674.149	-200.000	-0.009	-0.278
-673.135	52.307	-0.187	-0.178
-672.120	-76.125	0.270	-0.096
-671.105	331.742	-0.066	-0.127
-670.091	-65.002	-0.387	-0.156
-669.076	-82.328	-0.129	0.042
-668.062	800.000	-0.051	0.196
-667.047	-112.408	-0.170	0.034
-666.032	-111.501	0.143	-0.029
-665.018	-200.000	0.012	0.181
-664.003	-137.543	0.110	0.012
-662.989	87.241	-0.108	0.120
-661.974	-200.000	-0.002	-0.309
-660.959	31.361	-0.231	0.199
-659.945	-73.516	0.115	-0.042
-658.930	-16.343	-0.219	-0.139
-657.916	-59.541	0.218	0.094
-656.901	-200.000	-0.023	-0.183
-655.886	-200.000	0.033	-0.211
-654.872	36.396	-0.267	0.236
-653.857	424.624	-0.104	-0.223
-652.843	-58.129	-0.258	0.112
-651.828	-200.000	-0.043	0.203
-650.814	-200.000	-0.013	-0.196
-649.799	44.147	-0.181	-0.166
-648.784	457.619	0.074	0.164
-647.770	-128.713	0.092	-0.013
-646.755	-145.649	0.266	0.024
-645.741	150.397	-0.109	0.149
-644.726	177.380	-0.162	-0.237
-643.711	-56.508	-0.274	0.121
-642.697	800.000	-0.046	-0.142
-641.682	800.000	-0.042	0.178
-640.668	-50.094	-0.255	-0.121
-639.653	-200.000	0.034	0.188
-638.638	800.000	0.033	-0.107
-637.624	800.000	-0.060	-0.252
-636.609	667.017	-0.145	0.375
-635.595	-77.000	-0.109	-0.038
-634.580	-128.629	-0.355	0.050
-633.565	-11.452	0.287	0.189
-632.551	-200.000	0.082	0.410
-631.536	15.370	-0.018	-0.014
-630.522	-93.864	-0.082	-0.022
-629.507	-200.000	-0.059	-0.418
-628.492	28.036	0.156	0.132
-627.478	230.066	-0.250	0.409
-626.463	-127.835	-0.002	0.000
-625.449	146.011	0.324	-0.435
-624.434	169.081	0.143	0.204
-623.419	-200.000	-0.024	0.172
-622.405	-89.524	-0.411	0.121
-621.390	592.063	-0.158	0.391
-620.376	-68.317	-0.120	-0.047
-619.361	149.944	0.111	0.150
-618.346	-46.853	-0.215	0.105
-617.332	-170.972	0.136	0.005
-616.317	413.743	-0.168	0.358
-615.303	-77.966	-0.370	-0.128
-614.288	-178.119	-0.405	0.010
-613.273	800.000	-0.097	0.296
-612.259	-120.251	0.570	-0.097
-611.244	800.000	-0.046	0.174
-610.230	-102.331	-0.174	0.042
-609.215	142.849	0.268	-0.356
-608.201	-148.028	-0.446	0.037
-607.186	6.506	-0.266	0.198
-606.171	-123.432	0.158	-0.025
-605.157	-19.430	-0.225	0.140
-604.142	10.003	-0.189	0.144
-603.128	-23.056	0.324	0.195
-602.113	-31.366	0.028	-0.016
-601.098	49.252	0.200	0.188
-600.084	45.289	-0.107	-0.099
-599.069	635.707	0.033	0.083
-598.055	146.289	-0.229	-0.307
-597.040	800.000	-0.030	-0.095
-596.025	70.812	0.101	-0.104
-595.011	-85.371	0.091	-0.028
-593.996	-154.521	-0.466	0.031
-592.982	800.000	-0.027	-0.077
-591.967	-95.664	0.303	0.081
-590.952	-16.241	0.383	0.243
-589.938	-114.233	-0.217	-0.042
-588.923	800.000	-0.011	-0.045
-587.909	-21.085	-0.120	-0.073
-586.894	-64.500	0.231	0.094
-585.879	-105.752	0.149	0.034
-584.865	-200.000	-0.070	0.359
-583.850	-14.920	0.166	0.107
-582.836	17.449	0.311	-0.247
-581.821	-180.581	-0.393	-0.008
-580.806	13.284	0.292	-0.226
-579.792	192.440	-0.226	0.340
-578.777	800.000	-0.066	-0.254
-577.763	-17.385	-0.322	0.202
-576.748	-117.655	-0.186	0.034
-575.733	173.867	-0.271	-0.391
-574.719	758.374	0.078	-0.210
-573.704	229.626	-0.105	-0.172
-572.690	-79.120	-0.361	-0.122
-571.675	507.039	0.049	-0.113
-570.661	-90.963	0.319	0.092
-569.646	218.004	0.073	0.117
-568.631	-52.920	-0.208	-0.095
-567.617	800.000	-0.084	-0.348
-566.602	-100.363	-0.161	-0.040
-565.588	-200.000	-0.002	-0.226
-564.573	-76.571	0.148	0.052
-563.558	55.294	0.163	0.157
-562.544	111.103	0.164	0.197
-561.529	800.000	0.103	-0.337
-560.515	-131.422	0.046	-0.006
-559.500	31.030	-0.084	-0.072
-558.485	-96.626	-0.377	-0.099
-557.471	-35.794	0.146	0.079
-556.456	-83.598	0.251	-0.080
-555.442	-77.416	0.295	0.102
-554.427	8.948	-0.135	0.102
-553.412	39.129	0.227	0.203
-552.398	-95.684	-0.274	-0.073
-551.383	-1.036	-0.174	0.123
-550.369	322.167	-0.212	-0.403
-549.354	-151.364	-0.340	-0.025
-548.339	-92.821	-0.072	0.020
-547.325	800.000	-0.058	0.245
-546.310	227.711	-0.039	-0.064
-545.296	-130.961	0.212	0.028
-544.281	-75.295	-0.461	0.164
-543.266	-183.016	-0.129	-0.002
-542.252	-200.000	0.028	-0.163
-541.237	-82.146	-0.176	0.057
-540.223	800.000	0.030	0.118
-539.208	800.000	0.023	-0.062
-538.193	484.393	0.082	-0.186
-537.179	-200.000	-0.035	-0.206
-536.164	-96.061	0.230	0.061
-535.150	-72.138	0.203	-0.075
-534.135	260.341	0.135	0.232
-533.121	20.067	0.341	0.274
-532.106	-187.937	-0.059	0.001
-531.091	-200.000	-0.034	0.210
-530.077	200.577	0.082	0.126
-529.062	-50.470	-0.125	-0.059
-528.048	39.229	0.197	-0.176
-527.033	302.284	-0.074	-0.137
-526.018	-57.268	0.412	-0.181
-525.004	-20.410	0.215	-0.132
-523.989	81.237	-0.266	-0.286
-522.975	476.986	0.050	-0.112
-521.960	275.744	-0.030	0.054
-520.945	-5.336	0.114	0.078
-519.931	412.967	-0.202	-0.428
-518.916	-16.828	-0.099	-0.062
-517.902	54.790	0.154	0.148
-516.887	-200.000	0.024	0.147
-515.872	-163.248	0.040	-0.002
-514.858	285.705	-0.119	0.213
-513.843	706.961	-0.060	0.157
-512.829	-31.993	0.195	0.109
-511.814	-200.000	-0.028	-0.378
-510.799	800.000	-0.052	0.149
-509.785	56.494	0.133	0.129
-508.770	-90.377	-0.399	0.115
-507.756	56.028	-0.103	-0.100
-506.741	-200.000	0.014	-0.153
-505.726	800.000	0.059	-0.167
-504.712	-154.301	0.225	0.015
-503.697	-200.000	0.063	-0.296
-502.683	-73.232	0.246	-0.090
-501.668	-19.700	-0.318	-0.196
-500.653	-156.116	0.263	-0.017
-499.639	-121.986	0.418	-0.068
-498.624	800.000	0.027	0.116
-497.610	800.000	0.009	0.026
-496.595	-200.000	0.030	-0.206
-495.581	244.914	-0.119	-0.200
-494.566	-118.166	0.155	0.028
-493.551	97.681	0.033	-0.038
-492.537	108.474	0.039	-0.046
-491.522	100.904	0.301	-0.348
-490.508	6.484	0.095	0.070
-489.493	-200.000	0.002	-0.044
-488.478	800.000	0.048	-0.134
-487.464	84.060	-0.054	0.059
-486.449	-200.000	0.007	-0.178
-485.435	136.183	-0.143	0.186
-484.420	26.123	-0.292	-0.242
-483.405	800.000	0.049	-0.182
-482.391	-44.032	-0.305	-0.152
-481.376	-120.099	0.389	-0.066
-480.362	-200.000	0.014	0.080
-479.347	-2.397	-0.165	-0.115
-478.332	-109.094	-0.255	-0.054
-477.318	-68.811	-0.300	0.115
-476.303	-105.335	0.371	-0.084
-475.289	312.269	0.077	0.144
-474.274	-27.568	0.441	-0.255
-473.259	-200.000	0.014	0.104
-472.245	-84.385	0.253	-0.079
-471.230	609.002	-0.068	0.168
-470.216	30.994	0.286	0.244
-469.201	-22.105	-0.335	-0.202
-468.186	-200.000	-0.021	0.128
-467.172	32.596	-0.297	-0.255
-466.157	104.350	-0.224	0.262
-465.143	-40.465	-0.239	-0.123
-464.128	-77.960	0.371	-0.127
-463.113	282.885	0.115	0.206
-462.099	-99.772	-0.374	-0.093
-461.084	-200.000	0.036	0.160
-460.070	97.113	-0.163	-0.185
-459.055	-25.290	0.170	0.100
-458.040	178.947	-0.020	0.029
-457.026	339.543	-0.058	0.112
-456.011	338.035	0.128	-0.247
-454.997	297.915	-0.032	-0.059
-453.982	67.332	0.244	-0.247
-452.968	-200.000	-0.053	-0.388
-451.953	-200.000	0.103	0.000
-450.938	436.032	-0.035	0.076
-449.924	-200.000	0.036	-0.249
-448.909	27.395	0.114	0.095
-447.895	-200.000	0.009	-0.110
-446.880	66.835	0.095	-0.096
-445.865	-200.000	0.014	0.093
-444.851	166.610	-0.099	-0.139
-443.836	-20.330	0.021	-0.013
-442.822	-13.781	-0.171	0.110
-441.807	-82.177	0.186	0.060
-440.792	-30.983	0.379	0.212
-439.778	-13.815	-0.107	0.069
-438.763	248.331	-0.092	0.155
-437.749	-151.364	-0.430	-0.032
-436.734	-48.079	0.367	-0.176
-435.719	-0.816	-0.241	0.169
-434.705	-7.952	0.134	0.089
-433.690	-51.039	-0.050	0.023
-432.676	36.028	0.279	0.244
-431.661	-132.641	-0.186	0.024
-430.646	339.388	-0.079	-0.153
-429.632	-111.143	-0.135	-0.027
-428.617	-134.877	-0.280	-0.034
-427.603	57.499	-0.232	0.225
-426.588	-32.347	-0.483	0.268
-425.573	-159.423	-0.218	0.012
-424.559	58.921	-0.074	0.073
-423.544	27.221	-0.252	0.210
-422.530	662.398	0.106	-0.272
-421.515	118.118	-0.047	-0.058
-420.500	474.889	-0.090	0.202
-419.486	-96.129	0.434	0.114
-418.471	197.920	0.259	0.392
-417.457	-40.049	0.052	0.027
-416.442	-89.070	0.289	0.085
-415.428	800.000	-0.011	-0.041
-414.413	6.686	-0.183	0.135
-413.398	-14.727	-0.062	0.040
-412.384	523.317	0.130	0.303
-411.369	-39.940	-0.026	0.013
-410.355	-200.000	-0.027	0.223
-409.340	-162.921	0.377	-0.018
-408.325	-200.000	0.019	0.425
-407.311	800.000	-0.037	0.115
-406.296	378.267	0.044	-0.090
-405.282	-200.000	0.026	0.158
-404.267	-129.177	-0.333	0.046
-403.252	572.002	0.064	0.154
-402.238	156.942	-0.178	0.245
-401.223	-200.000	-0.021	0.296
-400.209	18.946	-0.404	-0.321
-399.194	-134.881	-0.066	-0.008
-398.179	-126.451	0.289	0.043
-397.165	-97.450	-0.267	0.069
-396.150	-56.862	-0.206	-0.090
-395.136	112.031	-0.115	0.138
-394.121	-200.000	0.024	0.156
-393.106	-78.501	0.323	-0.110
-392.092	-42.817	0.115	0.058
-391.077	800.000	0.078	-0.217
-390.063	69.455	-0.182	0.185
-389.048	-116.039	-0.147	-0.027
-388.033	174.295	-0.052	-0.074
-387.019	509.514	0.178	0.410
-386.004	-123.078	-0.076	-0.012
-384.990	117.749	0.104	-0.127
-383.975	369.692	-0.176	0.354
-382.960	800.000	-0.022	0.095
-381.946	690.005	-0.076	-0.198
-380.931	800.000	0.068	-0.251
-379.917	468.621	-0.023	0.051
-378.902	-110.008	-0.231	0.048
-377.888	800.000	0.011	0.039
-376.873	33.023	0.056	0.048
-375.858	-199.973	-0.025	-0.000
-374.844	-123.320	-0.386	0.061
-373.829	-6.075	0.073	-0.049
-372.815	340.422	-0.103	0.198
-371.800	-54.400	0.155	0.069
-370.785	-200.000	-0.018	0.210
-369.771	-200.000	0.020	0.521
-368.756	195.820	0.108	-0.162
-367.742	-49.074	-0.071	0.034
-366.727	-200.000	0.015	0.126
-365.712	-200.000	-0.003	-0.141
-364.698	-14.639	-0.136	0.086
-363.683	-200.000	0.032	0.275
-362.669	-200.000	0.029	-0.235
-361.654	-200.000	-0.038	0.365
-360.639	-5.788	0.200	0.136
-359.625	120.472	0.130	0.159
-358.610	-200.000	-0.012	-0.278
-357.596	41.612	0.212	-0.190
-356.581	-76.180	-0.030	0.011
-355.566	59.229	-0.177	-0.173
-354.552	224.669	0.133	0.213
-353.537	-103.316	-0.267	-0.062
-352.523	-138.598	0.137	0.015
-351.508	60.345	-0.358	0.351
-350.493	800.000	-0.088	0.241
-349.479	-20.699	0.212	-0.129
-348.464	-1.111	-0.141	-0.099
-347.450	-42.593	0.135	-0.068
-346.435	-91.673	-0.246	0.069
-345.420	-169.255	0.220	0.008
-344.406	183.394	-0.163	0.239
-343.391	800.000	-0.081	0.241
-342.377	-8.334	-0.115	-0.077
-341.362	-123.063	-0.242	0.038
-340.348	154.328	0.168	-0.228
-339.333	-96.145	0.243	0.064
-338.318	221.537	0.031	0.049
-337.304	-61.663	-0.091	0.038
-336.289	-200.000	-0.015	0.297
-335.275	-46.078	0.337	-0.164
-334.260	-49.236	0.368	0.174
-333.245	270.689	-0.032	0.055
-332.231	800.000	0.014	0.057
-331.216	47.072	-0.081	-0.074
-330.202	13.131	0.143	-0.109
-329.187	203.058	-0.120	-0.184
-328.172	-200.000	0.041	-0.338
-327.158	50.600	-0.337	-0.315
-326.143	-37.448	0.059	0.031
-325.129	800.000	-0.017	0.058
-324.114	12.387	0.342	0.260
-323.099	191.914	0.214	0.319
-322.085	-86.709	-0.095	0.029
-321.070	-14.135	-0.150	-0.096
-320.056	-117.297	-0.242	0.043
-319.041	-200.000	0.043	-0.237
-318.026	800.000	0.088	-0.363
-317.012	127.223	0.042	0.053
-315.997	429.004	0.141	-0.302
-314.983	633.996	-0.026	-0.066
-313.968	800.000	0.065	-0.180
-312.953	-48.232	-0.350	-0.167
-311.939	800.000	-0.079	0.286
-310.924	800.000	-0.032	0.116
-309.910	183.817	0.146	0.213
-308.895	104.289	0.300	-0.349
-307.880	20.846	-0.353	-0.282
-306.866	52.016	-0.101	0.095
-305.851	-157.472	0.084	0.005
-304.837	-200.000	0.001	0.069
-303.822	95.234	0.162	0.182
-302.807	45.977	-0.078	-0.072
-301.793	-200.000	0.010	0.065
-300.778	-94.925	0.148	0.039
-299.764	-109.147	-0.226	0.047
-298.749	-128.911	0.232	0.032
-297.735	109.297	0.176	-0.208
-296.720	-200.000	0.027	-0.166
-295.705	-1.181	0.096	0.067
-294.691	89.006	-0.025	-0.027
-293.676	48.955	0.241	-0.223
-292.662	-200.000	-0.010	-0.084
-291.647	-108.363	0.261	0.056
-290.632	-62.658	0.083	0.034
-289.618	-185.494	0.211	-0.003
-288.603	-31.651	0.213	-0.118
-287.589	565.856	0.040	0.097
-286.574	95.249	0.158	-0.178
-285.559	-57.952	-0.240	0.103
-284.545	103.617	0.187	0.217
-283.530	-102.803	0.291	0.068
-282.516	291.747	0.068	0.122
-281.501	800.000	0.049	0.181
-280.486	-50.885	-0.102	-0.047
-279.472	-72.962	0.408	-0.148
-278.457	-70.130	0.180	-0.068
-277.443	22.706	0.115	0.093
-276.428	800.000	-0.070	-0.238
-275.413	-176.076	-0.076	-0.002
-274.399	-27.463	-0.144	0.083
-273.384	117.457	0.150	-0.182
-272.370	800.000	0.036	-0.122
-271.355	-61.588	-0.143	-0.059
-270.340	800.000	0.084	-0.269
-269.326	610.266	-0.081	0.200
-268.311	789.419	0.065	0.177
-267.297	-200.000	-0.017	0.296
-266.282	-200.000	-0.010	-0.180
-265.267	800.000	-0.039	-0.158
-264.253	-126.285	0.348	-0.051
-263.238	327.372	-0.160	-0.303
-262.224	211.899	-0.046	0.072
-261.209	-132.556	0.267	-0.034
-260.195	46.187	0.246	-0.225
-259.180	189.081	-0.149	0.220
-258.165	351.662	-0.136	0.265
-257.151	-200.000	0.015	-0.082
-256.136	-200.000	0.047	-0.277
-255.122	159.632	0.082	0.112
-254.107	-54.008	0.171	-0.077
-253.092	-6.028	0.147	0.099
-252.078	800.000	0.051	0.149
-251.063	87.596	0.199	0.217
-250.049	-88.029	0.531	-0.157
-249.034	-27.051	-0.113	-0.065
-248.019	800.000	0.117	0.431
-247.005	-53.583	-0.105	0.047
-245.990	-200.000	0.020	0.214
-244.976	-200.000	-0.024	-0.111
-243.961	800.000	0.036	-0.144
-242.946	800.000	-0.104	0.352
-241.932	225.298	0.098	-0.156
-240.917	-200.000	-0.054	-0.243
-239.903	507.324	-0.129	-0.295
-238.888	51.102	-0.218	-0.204
-237.873	24.889	-0.055	-0.045
-236.859	-82.545	-0.278	-0.089
-235.844	-200.000	-0.029	-0.414
-234.830	800.000	-0.092	-0.259
-233.815	-200.000	-0.051	-0.367
-232.800	800.000	-0.087	-0.256
-231.786	118.168	-0.221	0.269
-230.771	174.746	0.075	0.107
-229.757	-102.874	-0.447	0.105
-228.742	22.554	-0.139	0.112
-227.727	-96.580	0.197	-0.051
-226.713	271.949	-0.028	-0.048
-225.698	-70.117	0.223	-0.083
-224.684	-97.802	-0.421	-0.107
-223.669	98.388	0.192	0.218
-222.655	800.000	0.042	-0.155
-221.640	-200.000	-0.007	-0.124
-220.625	618.975	-0.059	-0.146
-219.611	89.516	-0.113	0.124
-218.596	-200.000	0.007	0.194
-217.582	87.865	-0.128	0.140
-216.567	150.815	0.289	0.387
-215.552	-108.904	-0.312	0.066
-214.538	525.265	-0.074	0.172
-213.523	-200.000	-0.036	0.185
-212.509	105.318	0.087	-0.101
-211.494	-34.721	-0.154	0.083
-210.479	-33.844	0.265	-0.144
-209.465	30.371	0.431	0.362
-208.450	-26.653	-0.151	0.087
-207.436	231.832	-0.199	0.321
-206.421	158.076	0.062	0.085
-205.406	66.857	-0.124	-0.124
-204.392	183.865	-0.034	-0.049
-203.377	-98.100	0.128	0.032
-202.363	-0.638	0.169	-0.118
-201.348	24.059	0.132	-0.107
-200.333	-200.000	0.007	-0.359
-199.319	800.000	0.028	0.087
-198.304	81.492	-0.155	-0.165
-197.290	153.978	-0.113	0.152
-196.275	-169.749	0.261	-0.009
-195.260	-131.775	0.438	-0.056
-194.246	-53.179	0.430	-0.194
-193.231	-135.105	0.174	0.021
-192.217	-185.258	-0.140	-0.002
-191.202	800.000	-0.098	-0.351
-190.187	-102.919	0.055	-0.013
-189.173	243.493	0.200	-0.330
-188.158	56.737	0.210	-0.201
-187.144	-46.202	-0.072	-0.035
-186.129	-90.956	-0.215	0.061
-185.114	69.693	-0.333	-0.337
-184.100	-200.000	0.054	-0.251
-183.085	-7.501	0.375	0.249
-182.071	108.141	-0.024	-0.029
-181.056	-200.000	0.013	-0.148
-180.042	-106.665	0.236	-0.052
-179.027	-68.735	-0.293	-0.111
-178.012	-13.998	0.292	-0.185
-176.998	70.490	-0.218	0.221
-175.983	-200.000	0.011	0.190
-174.969	-12.697	0.228	-0.146
-173.954	701.084	0.061	-0.158
-172.939	-45.544	-0.193	-0.094
-171.925	298.630	-0.077	0.139
-170.910	-163.051	0.127	-0.006
-169.896	800.000	0.062	-0.197
-168.881	127.531	0.149	-0.186
-167.866	747.836	-0.094	-0.248
-166.852	-116.530	-0.282	-0.051
-165.837	365.428	0.153	-0.302
-164.823	356.383	-0.053	0.105
-163.808	422.882	-0.082	0.172
-162.793	23.205	-0.053	-0.042
-161.779	-200.000	0.045	-0.429
-160.764	147.031	-0.142	-0.187
-159.750	-200.000	0.011	0.131
-158.735	-120.337	-0.328	0.055
-157.720	198.020	0.216	0.324
-156.706	242.883	-0.044	0.072
-155.691	800.000	0.078	0.228
-154.677	328.088	0.066	0.124
-153.662	-92.513	-0.097	-0.027
-152.647	800.000	0.023	0.090
-151.633	78.345	-0.069	-0.072
-150.618	-87.021	-0.224	0.067
-149.604	-2.540	-0.184	0.127
-148.589	-200.000	-0.039	0.215
-147.574	-60.166	-0.129	0.054
-146.560	-115.532	0.341	0.063
-145.545	31.850	0.005	0.004
-144.531	300.123	0.051	0.092
-143.516	674.166	0.083	-0.212
-142.502	-7.485	-0.147	0.098
-141.487	253.805	0.256	0.429
-140.472	800.000	-0.060	0.168
-139.458	-200.000	-0.196	0.000
-138.443	156.352	-0.324	-0.438
-137.429	-200.000	0.003	-0.064
-136.414	800.000	-0.038	-0.106
-135.399	-84.624	0.135	-0.042
-134.385	470.841	0.070	0.153
-133.370	37.910	0.258	0.225
-132.356	137.436	-0.183	0.235
-131.341	-140.383	0.151	-0.015
-130.326	-53.803	-0.235	0.105
-129.312	-63.969	0.161	-0.065
-128.297	59.665	-0.163	-0.158
-127.283	248.257	-0.094	-0.156
-126.268	132.249	0.133	0.168
-125.253	-200.000	-0.006	0.270
-124.239	-41.673	0.237	-0.119
-123.224	-200.000	-0.005	-0.046
-122.210	800.000	0.064	0.266
-121.195	178.302	-0.157	0.225
