DTS Sentinel unit serial number:	SN413079Multiplexer serial number:	ORYXHardware model number:	OX4-SRSoftware version number:	ORYX F/W v4.00 Oryx Data Collector v3.7.2.0data status	okinstallation	princeton_trtdifferential loss correction	single-endedforward channel	channel 2reverse channel	N/Adate	2019/09/13time	09:27:34forward acquisition time	60.00reverse acquisition time	0.00gamma	496.2192k internal	0.2327k external	0.2327temperature offset calibration	1.0195default loss term (dB/km)	0.3790temperature slope calibration	1.0000multiplexer offset coefficient	1.0000multiplexer slope coefficient	1.0000fibre end	0.00T internal ref (°C)	29.41T ext. ref 1 (°C)	4.41T ext. ref 2 (°C)	26.26length (m)	temperature (°C)	Stokes	anti-Stokes-747.200	92.817	0.098	0.112
-746.185	121.111	-0.164	0.205
-745.171	445.147	0.075	0.165
-744.156	127.893	-0.137	-0.176
-743.142	-70.966	-0.333	0.126
-742.127	-75.660	0.309	0.111
-741.112	-45.842	-0.157	-0.078
-740.098	-136.316	-0.179	0.021
-739.083	-18.387	0.140	-0.088
-738.069	-68.526	-0.178	0.069
-737.054	535.007	-0.088	-0.211
-736.039	800.000	0.032	-0.126
-735.025	-200.000	-0.036	0.300
-734.010	-200.000	0.035	-0.303
-732.996	-200.000	-0.037	-0.231
-731.981	-200.000	0.019	-0.156
-730.966	-83.762	-0.179	0.057
-729.952	-19.798	-0.126	0.078
-728.937	43.423	-0.179	0.165
-727.923	-80.898	-0.391	0.131
-726.908	-50.190	-0.487	-0.232
-725.894	277.137	-0.174	0.311
-724.879	18.858	-0.185	-0.150
-723.864	-180.050	-0.223	0.005
-722.850	-122.797	-0.196	0.032
-721.835	-200.000	-0.043	0.201
-720.821	22.958	-0.244	0.201
-719.806	-35.191	-0.160	0.088
-718.791	800.000	0.058	-0.200
-717.777	800.000	-0.063	-0.187
-716.762	172.898	-0.012	0.017
-715.748	800.000	-0.096	-0.299
-714.733	125.780	0.243	-0.309
-713.718	-200.000	-0.228	0.000
-712.704	52.057	-0.174	0.167
-711.689	-45.917	-0.090	0.045
-710.675	800.000	-0.101	0.317
-709.660	-170.318	0.231	0.008
-708.645	-200.000	0.014	0.355
-707.631	92.931	-0.158	-0.179
-706.616	175.875	-0.070	-0.102
-705.602	53.904	-0.055	-0.053
-704.587	-31.027	-0.206	-0.117
-703.572	64.822	0.047	-0.048
-702.558	34.457	-0.147	-0.129
-701.543	-32.103	-0.198	0.112
-700.529	309.034	0.139	-0.261
-699.514	21.945	0.162	-0.133
-698.499	121.231	0.253	-0.317
-697.485	70.382	0.142	0.147
-696.470	-8.748	0.122	0.082
-695.456	630.416	-0.040	-0.101
-694.441	-110.843	-0.136	0.028
-693.426	-200.000	-0.126	-0.588
-692.412	64.501	-0.091	-0.092
-691.397	424.694	-0.114	-0.247
-690.383	77.600	0.183	0.196
-689.368	800.000	-0.123	0.440
-688.354	28.609	-0.064	0.054
-687.339	202.407	0.050	-0.077
-686.324	172.477	-0.143	0.207
-685.310	-19.292	-0.252	-0.157
-684.295	-13.841	0.179	-0.116
-683.281	-13.258	0.101	-0.066
-682.266	-187.982	-0.426	0.006
-681.251	-53.409	-0.255	-0.117
-680.237	-200.000	0.048	-0.216
-679.222	800.000	0.055	-0.195
-678.208	92.211	-0.303	0.343
-677.193	-200.000	0.015	-0.230
-676.178	128.004	0.137	-0.175
-675.164	-147.546	-0.336	-0.028
-674.149	-165.114	-0.115	-0.005
-673.135	-115.323	-0.063	0.012
-672.120	-36.084	-0.151	0.082
-671.105	14.027	0.252	0.197
-670.091	122.250	-0.093	-0.116
-669.076	-133.618	0.271	-0.034
-668.062	84.541	0.004	-0.005
-667.047	13.831	0.362	-0.283
-666.032	-148.685	-0.173	0.014
-665.018	-140.241	-0.337	0.035
-664.003	121.571	-0.245	-0.307
-662.989	-16.875	-0.091	0.058
-661.974	-200.000	0.027	0.416
-660.959	-24.513	0.040	-0.024
-659.945	800.000	-0.082	-0.249
-658.930	562.090	0.112	0.272
-657.916	541.286	-0.087	0.207
-656.901	180.034	-0.206	0.304
-655.886	329.085	-0.062	0.121
-654.872	-118.279	0.038	-0.007
-653.857	-97.713	0.245	-0.064
-652.843	55.077	0.121	-0.117
-651.828	800.000	0.113	-0.374
-650.814	800.000	0.090	0.268
-649.799	78.814	0.258	0.277
-648.784	-115.272	-0.339	-0.064
-647.770	-95.384	0.227	-0.061
-646.755	-100.079	-0.238	0.060
-645.741	242.551	0.162	-0.273
-644.726	800.000	-0.045	0.142
-643.711	-200.000	-0.004	-0.117
-642.697	-73.415	-0.164	0.060
-641.682	106.838	-0.201	-0.239
-640.668	136.917	0.087	-0.114
-639.653	-43.190	-0.119	0.060
-638.638	-200.000	-0.046	0.353
-637.624	129.052	0.133	-0.170
-636.609	-171.841	0.488	0.016
-635.595	-200.000	-0.002	-0.407
-634.580	71.968	-0.053	-0.055
-633.565	-52.352	0.136	-0.063
-632.551	-81.248	-0.131	-0.043
-631.536	800.000	0.053	-0.154
-630.522	-75.453	-0.134	0.048
-629.507	600.308	0.091	0.226
-628.492	-167.948	0.196	-0.008
-627.478	-13.794	-0.325	-0.211
-626.463	-63.521	0.333	-0.137
-625.449	467.862	-0.081	-0.183
-624.434	-123.663	-0.461	0.073
-623.419	611.636	-0.063	0.159
-622.405	44.659	0.119	-0.109
-621.390	800.000	0.038	0.123
-620.376	147.374	0.006	-0.008
-619.361	385.229	-0.086	0.179
-618.346	-200.000	0.005	0.158
-617.332	800.000	-0.128	-0.453
-616.317	-119.663	0.206	0.036
-615.303	48.948	-0.231	0.217
-614.288	-157.840	0.182	0.011
-613.273	-58.461	0.279	0.121
-612.259	-200.000	0.026	-0.162
-611.244	2.732	-0.076	-0.056
-610.230	268.086	0.018	-0.032
-609.215	35.846	0.175	0.154
-608.201	162.576	0.193	-0.272
-607.186	-120.222	-0.144	0.025
-606.171	-108.469	0.153	0.033
-605.157	304.730	-0.112	-0.208
-604.142	-101.014	0.321	-0.079
-603.128	-97.341	-0.145	-0.038
-602.113	271.453	-0.083	-0.147
-601.098	-200.000	0.027	-0.202
-600.084	495.067	-0.152	-0.351
-599.069	-39.946	-0.174	-0.091
-598.055	-91.672	0.182	-0.052
-597.040	311.062	-0.033	0.062
-596.025	-200.000	-0.003	-0.253
-595.011	800.000	-0.089	-0.277
-593.996	77.088	0.037	-0.039
-592.982	-148.856	-0.348	0.028
-591.967	-13.317	0.220	0.143
-590.952	56.561	0.109	0.106
-589.938	800.000	-0.117	0.384
-588.923	84.068	-0.152	0.167
-587.909	-200.000	-0.038	0.195
-586.894	-151.646	0.483	-0.036
-585.879	224.715	-0.083	0.135
-584.865	-200.000	-0.028	0.204
-583.850	-143.515	-0.238	0.023
-582.836	694.684	0.085	0.224
-581.821	-124.560	0.394	-0.061
-580.806	-163.221	-0.360	-0.017
-579.792	-82.090	0.224	-0.073
-578.777	-200.000	-0.045	-0.260
-577.763	-189.834	-0.053	0.001
-576.748	-200.000	0.025	-0.164
-575.733	32.498	0.070	0.061
-574.719	-33.112	-0.194	0.108
-573.704	-139.056	0.049	0.005
-572.690	-42.453	-0.037	-0.019
-571.675	-77.304	0.051	0.018
-570.661	741.773	-0.061	0.164
-569.646	-195.011	-0.560	-0.004
-568.631	-200.000	0.001	-0.022
-567.617	-90.068	0.156	-0.046
-566.602	-47.899	0.121	0.059
-565.588	80.916	0.022	-0.024
-564.573	119.557	0.279	0.346
-563.558	313.419	0.158	0.298
-562.544	231.700	-0.117	0.191
-561.529	137.253	-0.118	0.154
-560.515	-200.000	0.029	-0.229
-559.500	-24.821	0.245	0.146
-558.485	-121.631	-0.326	-0.054
-557.471	-61.010	-0.312	0.132
-556.456	59.901	0.166	-0.164
-555.442	13.799	0.113	0.088
-554.427	-114.807	-0.163	0.031
-553.412	-200.000	-0.010	-0.042
-552.398	-15.797	0.271	0.173
-551.383	800.000	-0.033	-0.120
-550.369	32.611	0.214	0.185
-549.354	11.978	-0.179	0.137
-548.339	-79.767	-0.381	-0.128
-547.325	-97.128	0.321	-0.084
-546.310	-104.794	0.357	0.082
-545.296	-76.944	0.325	-0.113
-544.281	114.448	0.102	-0.124
-543.266	-79.879	-0.341	0.115
-542.252	-25.472	-0.303	0.179
-541.237	7.914	-0.263	-0.197
-540.223	-25.008	0.534	-0.317
-539.208	129.153	-0.059	0.075
-538.193	56.625	0.107	0.104
-537.179	-101.727	0.211	0.051
-536.164	-200.000	-0.077	-0.448
-535.150	-13.851	-0.287	0.185
-534.135	552.093	0.097	-0.234
-533.121	-104.200	-0.164	-0.038
-532.106	-200.000	-0.014	0.151
-531.091	94.134	0.086	0.098
-530.077	800.000	0.034	0.102
-529.062	-200.000	0.062	-0.309
-528.048	-15.119	-0.317	-0.203
-527.033	-45.841	0.205	0.101
-526.018	318.279	-0.108	0.204
-525.004	-141.319	-0.229	-0.023
-523.989	463.948	-0.074	-0.166
-522.975	-74.968	0.229	0.082
-521.960	-51.541	-0.230	-0.107
-520.945	-200.000	-0.010	0.307
-519.931	542.997	0.110	-0.263
-518.916	-62.643	-0.193	0.080
-517.902	81.041	-0.172	0.186
-516.887	-200.000	-0.004	0.116
-515.872	575.136	0.041	-0.100
-514.858	-120.130	-0.302	-0.052
-513.843	-200.000	0.005	0.266
-512.829	-200.000	0.025	-0.215
-511.814	496.798	-0.014	-0.032
-510.799	-25.920	0.063	-0.037
-509.785	800.000	-0.054	-0.151
-508.770	-200.000	0.059	0.434
-507.756	545.726	0.027	0.064
-506.741	25.589	-0.080	0.066
-505.726	79.541	-0.332	-0.356
-504.712	433.446	-0.096	-0.208
-503.697	14.807	-0.164	-0.128
-502.683	-200.000	0.029	-0.206
-501.668	489.901	-0.037	-0.084
-500.653	-190.949	-0.282	-0.003
-499.639	-200.000	0.017	0.149
-498.624	-66.761	0.162	0.064
-497.610	118.770	-0.195	-0.241
-496.595	-154.404	-0.217	0.015
-495.581	-157.489	-0.076	-0.005
-494.566	-80.545	-0.316	-0.105
-493.551	28.123	0.148	0.125
-492.537	-112.765	0.293	0.058
-491.522	-200.000	0.003	-0.195
-490.508	-64.760	0.283	-0.114
-489.493	800.000	0.043	-0.123
-488.478	-85.495	-0.301	0.094
-487.464	342.108	0.065	-0.126
-486.449	204.229	-0.319	-0.494
-485.435	-200.000	0.023	-0.327
-484.420	26.072	-0.270	0.225
-483.405	-181.007	0.375	-0.008
-482.391	-20.297	0.595	-0.365
-481.376	-150.828	0.097	-0.007
-480.362	800.000	0.124	0.360
-479.347	-200.000	-0.040	0.300
-478.332	190.730	-0.175	-0.263
-477.318	-159.334	-0.088	0.005
-476.303	-67.683	-0.125	-0.049
-475.289	-162.043	0.237	0.012
-474.274	-122.405	0.630	0.102
-473.259	-148.194	-0.452	0.037
-472.245	-200.000	0.009	-0.412
-471.230	-27.177	-0.188	-0.109
-470.216	173.822	-0.178	0.256
-469.201	800.000	0.027	-0.075
-468.186	22.204	0.272	-0.221
-467.172	520.187	0.143	-0.334
-466.157	-86.101	-0.156	-0.048
-465.143	-161.095	-0.228	0.012
-464.128	-200.000	0.028	0.322
-463.113	-89.018	-0.347	-0.102
-462.099	-200.000	-0.035	0.226
-461.084	-200.000	0.019	0.107
-460.070	447.680	-0.131	-0.287
-459.055	-30.455	-0.083	-0.047
-458.040	800.000	0.039	0.123
-457.026	221.683	0.052	0.084
-456.011	44.308	0.396	-0.362
-454.997	-72.801	0.325	0.119
-453.982	-192.214	-0.451	-0.004
-452.968	-200.000	0.009	0.258
-451.953	20.060	-0.171	-0.137
-450.938	133.208	0.199	-0.257
-449.924	198.958	-0.079	0.120
-448.909	196.011	0.051	0.077
-447.895	-122.098	0.164	0.027
-446.880	67.372	-0.045	0.046
-445.865	-134.384	0.199	0.024
-444.851	-138.689	0.070	0.008
-443.836	-32.295	0.014	-0.008
-442.822	33.395	0.104	0.090
-441.807	11.133	-0.109	0.083
-440.792	-200.000	-0.033	0.186
-439.778	-78.140	-0.139	0.048
-438.763	-164.379	0.053	0.002
-437.749	800.000	0.020	0.077
-436.734	-22.812	-0.046	-0.028
-435.719	800.000	0.033	0.101
-434.705	-56.950	-0.261	-0.115
-433.690	-30.646	0.211	-0.119
-432.676	-63.985	-0.215	0.087
-431.661	-69.990	-0.185	0.070
-430.646	170.916	-0.043	0.061
-429.632	-54.994	0.134	-0.060
-428.617	-117.525	-0.374	-0.067
-427.603	80.560	0.039	0.042
-426.588	180.295	0.142	-0.208
-425.573	-25.984	-0.128	-0.075
-424.559	129.438	-0.164	0.209
-423.544	546.271	-0.027	0.064
-422.530	800.000	0.071	0.221
-421.515	421.742	0.116	0.248
-420.500	-102.370	0.214	0.051
-419.486	125.794	-0.015	0.019
-418.471	-200.000	-0.022	0.201
-417.457	3.297	-0.162	-0.117
-416.442	264.972	0.091	-0.158
-415.428	363.418	-0.079	0.158
-414.413	-95.524	-0.309	-0.083
-413.398	64.973	0.150	-0.150
-412.384	75.092	-0.055	0.058
-411.369	55.298	-0.288	0.277
-410.355	800.000	-0.121	0.379
-409.340	800.000	0.053	0.173
-408.325	-56.614	0.036	-0.016
-407.311	155.042	0.010	-0.014
-406.296	-55.486	-0.158	-0.070
-405.282	-200.000	-0.023	-0.177
-404.267	39.796	-0.154	-0.138
-403.252	-97.650	0.187	-0.048
-402.238	-148.782	-0.002	0.000
-401.223	-7.468	0.128	-0.086
-400.209	-95.435	0.248	0.066
-399.194	294.294	0.065	0.118
-398.179	-68.377	0.099	-0.038
-397.165	4.111	0.267	0.194
-396.150	-6.554	0.277	0.188
-395.136	800.000	-0.135	-0.384
-394.121	757.050	-0.045	-0.121
-393.106	-97.057	0.246	-0.064
-392.092	-11.193	-0.072	0.047
-391.077	36.102	-0.311	-0.272
-390.063	168.555	-0.099	0.141
-389.048	-116.820	-0.271	-0.049
-388.033	800.000	-0.024	0.087
-387.019	286.602	0.074	-0.134
-386.004	-196.173	-0.243	0.002
-384.990	36.338	-0.176	0.155
-383.975	800.000	0.028	-0.101
-382.960	-95.470	0.450	0.120
-381.946	609.549	0.144	-0.357
-380.931	564.653	0.030	0.073
-379.917	-83.488	0.202	0.064
-378.902	158.512	0.146	-0.202
-377.888	-200.000	-0.107	-0.000
-376.873	800.000	0.070	-0.260
-375.858	477.496	-0.077	0.173
-374.844	-24.372	-0.197	-0.117
-373.829	-61.002	-0.306	0.129
-372.815	-100.744	0.116	-0.028
-371.800	-40.566	0.277	0.143
-370.785	687.386	-0.096	0.248
-369.771	-200.000	0.019	0.188
-368.756	10.725	0.116	0.088
-367.742	800.000	0.051	0.158
-366.727	54.286	-0.143	-0.137
-365.712	-99.787	-0.094	-0.023
-364.698	-56.982	-0.227	-0.100
-363.683	-118.229	0.079	-0.014
-362.669	-200.000	0.004	-0.281
-361.654	800.000	0.095	0.284
-360.639	60.744	0.179	0.176
-359.625	167.690	-0.171	-0.241
-358.610	-59.666	-0.206	-0.088
-357.596	24.921	-0.126	0.104
-356.581	-50.443	-0.403	-0.189
-355.566	27.212	0.044	0.037
-354.552	-200.000	-0.042	0.187
-353.537	-68.913	0.249	0.096
-352.523	768.862	-0.138	-0.373
-351.508	-200.000	0.027	-0.180
-350.493	491.243	0.047	-0.106
-349.479	271.426	0.155	-0.271
-348.464	222.679	-0.094	-0.151
-347.450	-116.589	0.181	0.033
-346.435	-200.000	-0.080	0.368
-345.420	76.403	-0.230	0.242
-344.406	-173.169	-0.131	-0.004
-343.391	-125.684	-0.399	0.060
-342.377	87.779	0.195	0.215
-341.362	800.000	-0.031	-0.130
-340.348	350.342	-0.117	-0.230
-339.333	283.593	-0.067	-0.119
-338.318	389.444	-0.111	0.229
-337.304	689.664	0.110	0.284
-336.289	-55.917	-0.111	0.049
-335.275	86.888	0.234	0.256
-334.260	63.796	0.399	0.397
-333.245	-200.000	-0.044	-0.232
-332.231	-24.600	0.386	-0.228
-331.216	188.954	0.079	0.117
-330.202	-200.000	0.022	-0.108
-329.187	61.466	0.016	0.016
-328.172	-200.000	-0.050	-0.306
-327.158	-38.365	-0.027	-0.014
-326.143	-57.081	-0.161	-0.070
-325.129	-200.000	-0.009	-0.151
-324.114	-200.000	-0.001	0.251
-323.099	268.917	-0.146	-0.253
-322.085	100.772	0.184	-0.212
-321.070	-20.268	0.359	0.219
-320.056	-58.366	0.267	-0.115
-319.041	73.218	0.046	0.048
-318.026	420.910	0.127	-0.270
-317.012	-91.259	0.467	0.133
-315.997	542.851	-0.054	-0.128
-314.983	167.578	-0.155	-0.219
-313.968	-131.351	0.189	-0.025
-312.953	-61.838	0.181	-0.075
-311.939	88.979	-0.155	0.171
-310.924	800.000	-0.101	-0.400
-309.910	-200.000	-0.013	0.129
-308.895	-133.010	-0.156	-0.020
-307.880	-136.505	0.392	0.045
-306.866	-129.796	0.185	0.025
-305.851	97.174	-0.254	0.289
-304.837	8.574	0.212	0.158
-303.822	-200.000	-0.005	-0.065
-302.807	-109.712	-0.306	-0.064
-301.793	17.517	0.181	-0.143
-300.778	800.000	0.150	-0.475
-299.764	-179.697	-0.111	0.002
-298.749	-91.670	0.242	-0.068
-297.735	-200.000	0.031	0.239
-296.720	-43.197	0.167	-0.084
-295.705	639.734	-0.067	-0.170
-294.691	-59.220	-0.076	-0.032
-293.676	83.998	0.238	0.258
-292.662	-97.002	0.358	-0.093
-291.647	-166.888	0.204	0.008
-290.632	800.000	-0.036	-0.137
-289.618	-200.000	0.055	0.267
-288.603	-200.000	0.001	0.207
-287.589	-36.357	-0.141	0.075
-286.574	80.838	0.118	-0.126
-285.559	-88.387	-0.229	0.068
-284.545	627.682	0.137	0.343
-283.530	-12.698	-0.248	-0.160
-282.516	-59.038	0.126	0.054
-281.501	-142.003	0.217	0.021
-280.486	800.000	-0.033	-0.125
-279.472	-5.057	-0.138	0.094
-278.457	-21.160	0.150	0.091
-277.443	-64.468	-0.241	0.097
-276.428	11.295	0.104	0.079
-275.413	800.000	-0.106	-0.314
-274.399	59.929	-0.111	0.109
-273.384	-18.325	-0.300	-0.186
-272.370	556.998	-0.101	0.241
-271.355	800.000	-0.064	-0.192
-270.340	133.494	-0.065	0.084
-269.326	-95.568	-0.333	0.088
-268.311	318.696	0.039	0.074
-267.297	-6.867	0.185	-0.124
-266.282	20.212	0.227	0.181
-265.267	-17.181	0.282	0.176
-264.253	161.847	0.134	0.185
-263.238	800.000	0.081	-0.237
-262.224	-86.728	-0.306	0.093
-261.209	-200.000	0.015	0.147
-260.195	-200.000	0.024	0.108
-259.180	207.456	0.055	0.086
-258.165	-69.097	-0.254	0.097
-257.151	23.494	-0.049	0.039
-256.136	89.573	-0.188	0.208
-255.122	196.449	-0.082	0.124
-254.107	-200.000	0.017	0.394
-253.092	-200.000	0.021	-0.178
-252.078	157.089	0.167	-0.228
-251.063	-160.444	0.319	0.017
-250.049	286.982	-0.136	-0.243
-249.034	385.086	0.047	-0.095
-248.019	-87.069	-0.436	-0.131
-247.005	275.933	0.127	0.223
-245.990	-12.115	-0.210	-0.136
-244.976	-200.000	-0.039	0.199
-243.961	-40.867	-0.092	-0.047
-242.946	800.000	0.095	-0.292
-241.932	-200.000	-0.027	0.370
-240.917	-200.000	-0.010	0.158
-239.903	-15.310	0.338	0.214
-238.888	800.000	-0.097	-0.337
-237.873	242.759	-0.080	-0.132
-236.859	-10.870	0.137	-0.089
-235.844	800.000	-0.074	-0.250
-234.830	-200.000	-0.015	0.226
-233.815	458.356	0.055	0.122
-232.800	131.376	0.106	-0.134
-231.786	800.000	-0.075	0.308
-230.771	-29.445	0.478	-0.270
-229.757	-172.402	0.140	-0.004
-228.742	182.261	-0.090	-0.131
-227.727	61.294	-0.202	0.198
-226.713	-135.350	-0.386	-0.046
-225.698	371.043	-0.057	-0.115
-224.684	-200.000	-0.030	-0.000
-223.669	301.565	-0.233	0.426
-222.655	-121.367	-0.343	-0.056
-221.640	-69.559	0.139	0.053
-220.625	110.403	-0.237	0.282
-219.611	122.989	0.181	0.224
-218.596	-158.888	-0.090	0.005
-217.582	674.797	0.042	-0.109
-216.567	124.214	-0.083	-0.103
-215.552	159.295	0.144	-0.198
-214.538	800.000	0.025	-0.076
-213.523	-77.574	0.439	-0.150
-212.509	800.000	-0.111	-0.429
-211.494	186.134	0.115	-0.169
-210.479	275.624	-0.147	-0.258
-209.465	-131.271	-0.194	0.025
-208.450	26.765	-0.204	0.169
-207.436	615.883	0.086	-0.212
-206.421	-200.000	-0.014	-0.128
-205.406	-37.805	-0.066	0.035
-204.392	572.599	-0.112	0.269
-203.377	-111.636	-0.134	-0.027
-202.363	309.943	0.156	0.288
-201.348	-200.000	0.030	-0.170
-200.333	297.734	0.124	-0.226
-199.319	-45.682	0.263	-0.128
-198.304	-94.384	0.319	-0.086
-197.290	-200.000	-0.020	0.141
-196.275	-200.000	-0.041	0.343
-195.260	518.133	0.052	-0.121
-194.246	772.321	0.037	0.100
-193.231	-137.101	0.074	0.008
-192.217	-200.000	-0.020	0.159
-191.202	6.807	-0.141	0.104
-190.187	-86.411	-0.182	-0.055
-189.173	525.456	0.111	0.259
-188.158	6.363	0.061	0.045
-187.144	-120.300	-0.148	-0.025
-186.129	800.000	-0.059	0.164
-185.114	334.424	-0.057	-0.109
-184.100	800.000	0.090	0.275
-183.085	-95.399	0.225	-0.060
-182.071	800.000	0.088	-0.316
-181.056	-49.166	0.076	-0.036
-180.042	100.368	0.198	0.227
-179.027	-92.229	0.396	0.110
-178.012	-93.738	-0.327	-0.089
-176.998	-20.869	0.172	-0.104
-175.983	-109.602	-0.115	-0.024
-174.969	781.701	-0.033	-0.090
-173.954	-200.000	0.032	-0.147
-172.939	63.996	-0.169	0.167
-171.925	-200.000	0.010	-0.262
-170.910	43.482	0.215	0.194
-169.896	800.000	-0.063	0.185
-168.881	800.000	-0.115	0.413
-167.866	-165.204	-0.177	-0.008
-166.852	73.202	-0.170	0.175
-165.837	-102.374	0.336	0.079
-164.823	-71.453	-0.321	0.119
-163.808	131.406	0.135	0.171
-162.793	-87.186	-0.047	-0.014
-161.779	-103.703	0.325	0.075
-160.764	-66.801	0.198	-0.077
-159.750	119.946	-0.100	0.122
-158.735	-199.343	-0.123	0.001
-157.720	22.840	0.028	-0.022
-156.706	778.959	0.075	-0.202
-155.691	-108.054	0.179	-0.038
-154.677	-130.258	0.109	-0.015
-153.662	180.281	-0.347	0.501
-152.647	450.279	0.095	-0.206
-151.633	7.629	0.061	0.045
-150.618	44.138	-0.110	-0.099
-149.604	-27.256	0.075	-0.043
-148.589	-82.886	0.147	-0.047
-147.574	-200.000	0.067	-0.389
-146.560	-39.695	0.274	-0.141
-145.545	6.449	-0.049	-0.036
-144.531	160.025	-0.145	0.199
-143.516	82.902	-0.298	-0.319
-142.502	161.062	-0.115	-0.159
-141.487	-74.501	-0.143	0.051
-140.472	-40.324	0.301	-0.154
-139.458	-176.340	0.219	-0.006
-138.443	-60.953	0.134	-0.056
-137.429	33.743	-0.326	0.279
-136.414	800.000	-0.038	0.108
-135.399	-78.735	0.401	0.135
-134.385	139.293	-0.157	-0.203
-133.370	319.910	-0.015	0.027
-132.356	-104.825	-0.162	-0.037
-131.341	13.204	-0.462	-0.352
-130.326	136.464	-0.119	0.153
-129.312	-121.516	0.174	-0.028
-128.297	800.000	-0.033	0.093
-127.283	30.195	-0.110	0.093
-126.268	31.502	-0.196	-0.165
-125.253	-11.244	0.328	-0.213
-124.239	-112.323	0.226	-0.044
-123.224	88.012	-0.194	0.211
-122.210	-110.504	0.290	0.059
