DTS Sentinel unit serial number:	SN413079Multiplexer serial number:	ORYXHardware model number:	OX4-SRSoftware version number:	ORYX F/W v4.00 Oryx Data Collector v3.7.2.0data status	okinstallation	princeton_trtdifferential loss correction	single-endedforward channel	channel 2reverse channel	N/Adate	2019/09/17time	08:51:35forward acquisition time	60.00reverse acquisition time	0.00gamma	496.2192k internal	0.2331k external	0.2331temperature offset calibration	0.9976default loss term (dB/km)	0.3790temperature slope calibration	1.0000multiplexer offset coefficient	1.0000multiplexer slope coefficient	1.0000fibre end	0.00T internal ref (°C)	27.87T ext. ref 1 (°C)	0.13T ext. ref 2 (°C)	23.51length (m)	temperature (°C)	Stokes	anti-Stokes-747.200	55.444	-0.188	-0.183
-746.185	194.355	0.109	0.166
-745.171	54.873	0.208	0.202
-744.156	23.176	-0.535	0.442
-743.142	-102.752	-0.380	0.091
-742.127	-200.000	0.015	0.401
-741.112	-24.105	0.095	-0.057
-740.098	40.203	0.164	0.149
-739.083	-200.000	-0.000	0.152
-738.069	-43.118	-0.330	-0.168
-737.054	392.842	-0.138	-0.289
-736.039	712.899	-0.068	-0.182
-735.025	63.532	0.173	-0.175
-734.010	17.009	-0.306	-0.243
-732.996	255.803	-0.119	-0.205
-731.981	78.669	-0.109	0.118
-730.966	202.375	0.117	-0.182
-729.952	-29.068	-0.198	0.114
-728.937	-21.422	-0.204	-0.125
-727.923	354.669	-0.079	0.158
-726.908	109.951	0.089	-0.108
-725.894	366.617	-0.167	-0.339
-724.879	-7.311	-0.288	-0.196
-723.864	187.212	-0.056	-0.084
-722.850	207.431	-0.056	0.088
-721.835	390.235	0.117	0.243
-720.821	-200.000	0.081	-0.396
-719.806	-84.903	-0.159	-0.050
-718.791	-86.996	0.295	0.090
-717.777	800.000	0.054	0.189
-716.762	-38.821	-0.111	0.059
-715.748	-79.331	0.155	-0.053
-714.733	-200.000	0.017	-0.221
-713.718	-54.395	-0.112	0.051
-712.704	-200.000	0.029	0.170
-711.689	106.682	0.202	0.241
-710.675	-200.000	0.042	-0.203
-709.660	47.673	0.241	0.226
-708.645	36.018	0.037	-0.033
-707.631	2.093	-0.111	-0.081
-706.616	255.855	-0.064	-0.111
-705.602	-149.883	0.364	0.029
-704.587	557.591	0.107	0.259
-703.572	397.656	0.145	0.305
-702.558	-121.030	0.314	0.053
-701.543	-86.635	-0.228	-0.070
-700.529	-200.000	0.024	-0.162
-699.514	-92.366	0.578	0.164
-698.499	258.021	0.069	-0.119
-697.485	-200.000	-0.281	0.000
-696.470	-140.718	0.414	0.043
-695.456	288.005	-0.144	0.263
-694.441	-64.515	-0.115	-0.047
-693.426	-20.641	0.262	-0.162
-692.412	151.607	-0.110	0.151
-691.397	460.745	0.073	-0.163
-690.383	463.132	-0.053	0.118
-689.368	-68.780	0.281	0.109
-688.354	62.212	-0.331	-0.332
-687.339	-107.594	-0.089	-0.019
-686.324	8.030	0.233	-0.176
-685.310	800.000	0.050	-0.211
-684.295	-200.000	-0.086	-0.398
-683.281	-7.630	-0.053	-0.036
-682.266	-166.689	-0.121	0.005
-681.251	473.862	0.150	-0.340
-680.237	124.281	-0.214	-0.270
-679.222	538.804	0.082	0.195
-678.208	120.446	0.168	0.210
-677.193	800.000	0.027	0.103
-676.178	232.702	-0.068	0.112
-675.164	15.091	0.280	-0.220
-674.149	554.773	0.157	0.379
-673.135	-111.368	-0.144	-0.029
-672.120	-69.582	-0.270	-0.104
-671.105	111.581	-0.173	-0.209
-670.091	800.000	-0.083	0.261
-669.076	800.000	0.067	-0.287
-668.062	800.000	-0.056	-0.183
-667.047	-200.000	-0.013	-0.198
-666.032	19.342	-0.093	0.075
-665.018	-101.229	-0.283	-0.069
-664.003	99.669	0.108	-0.125
-662.989	-102.704	0.165	0.039
-661.974	40.563	0.224	0.202
-660.959	800.000	0.123	0.398
-659.945	-200.000	-0.036	-0.251
-658.930	278.665	0.109	0.196
-657.916	-143.315	0.211	0.020
-656.901	-200.000	-0.007	-0.072
-655.886	75.448	0.082	-0.086
-654.872	-37.489	0.376	0.201
-653.857	800.000	-0.086	-0.255
-652.843	109.439	0.192	-0.230
-651.828	-37.602	0.255	-0.136
-650.814	29.116	0.283	0.241
-649.799	-200.000	0.004	-0.191
-648.784	82.585	-0.220	0.240
-647.770	219.092	-0.229	-0.368
-646.755	123.084	0.220	-0.277
-645.741	759.432	0.049	0.134
-644.726	-47.084	0.045	0.022
-643.711	-200.000	0.039	0.238
-642.697	-128.692	-0.215	-0.030
-641.682	-189.585	-0.027	-0.000
-640.668	-117.752	-0.102	0.018
-639.653	-41.806	0.144	-0.074
-638.638	-60.485	0.171	0.073
-637.624	-40.793	0.015	0.008
-636.609	-74.734	-0.305	0.110
-635.595	64.379	-0.114	-0.115
-634.580	-200.000	-0.020	0.235
-633.565	-31.159	-0.132	-0.075
-632.551	-61.242	-0.413	-0.174
-631.536	-166.940	0.238	0.010
-630.522	5.621	-0.189	0.140
-629.507	800.000	0.141	0.437
-628.492	-8.573	-0.217	0.146
-627.478	326.324	-0.013	0.025
-626.463	524.287	-0.039	0.091
-625.449	302.530	0.118	0.218
-624.434	-200.000	-0.006	0.106
-623.419	-121.311	-0.103	-0.017
-622.405	9.194	-0.109	-0.083
-621.390	-83.492	0.329	0.105
-620.376	160.072	0.089	-0.124
-619.361	800.000	-0.050	-0.218
-618.346	-200.000	-0.009	0.311
-617.332	-171.722	-0.473	0.016
-616.317	195.017	0.096	-0.146
-615.303	173.217	0.204	0.294
-614.288	255.722	-0.242	0.416
-613.273	555.038	0.042	-0.102
-612.259	-200.000	-0.007	0.042
-611.244	800.000	0.054	0.183
-610.230	-133.830	-0.475	-0.059
-609.215	175.429	-0.028	0.040
-608.201	-83.657	0.207	-0.066
-607.186	354.990	-0.060	-0.118
-606.171	800.000	-0.076	-0.252
-605.157	-104.983	-0.305	0.070
-604.142	-200.000	0.004	-0.126
-603.128	173.369	0.046	0.067
-602.113	228.376	0.319	-0.519
-601.098	-72.504	-0.309	0.114
-600.084	-118.960	-0.323	-0.057
-599.069	-91.257	0.383	-0.110
-598.055	-35.644	-0.270	0.147
-597.040	-200.000	-0.011	-0.285
-596.025	230.562	0.061	-0.099
-595.011	82.894	-0.058	-0.063
-593.996	-52.626	-0.296	0.137
-592.982	74.086	0.011	0.012
-591.967	-142.936	0.284	0.028
-590.952	-65.697	0.171	-0.069
-589.938	-139.290	0.109	0.012
-588.923	226.849	-0.034	0.056
-587.909	-170.566	-0.177	-0.006
-586.894	-128.226	-0.268	0.038
-585.879	-200.000	-0.011	0.169
-584.865	-79.019	-0.121	-0.041
-583.850	-38.277	0.086	0.045
-582.836	-137.188	-0.455	-0.052
-581.821	800.000	0.101	0.338
-580.806	-13.599	-0.270	0.175
-579.792	295.938	0.099	-0.182
-578.777	124.935	0.252	0.317
-577.763	-142.065	-0.171	-0.017
-576.748	-9.682	0.319	0.212
-575.733	-111.475	-0.125	-0.025
-574.719	103.481	0.332	-0.390
-573.704	-2.498	-0.078	-0.055
-572.690	200.635	-0.062	0.096
-571.675	132.557	0.235	0.303
-570.661	-58.559	0.204	0.088
-569.646	-131.217	0.444	0.059
-568.631	-2.127	-0.241	-0.169
-567.617	800.000	-0.065	0.194
-566.602	-200.000	-0.048	0.315
-565.588	-25.151	0.201	-0.119
-564.573	-35.177	0.163	0.088
-563.558	12.445	0.320	-0.246
-562.544	-127.106	-0.261	-0.038
-561.529	431.038	0.139	-0.301
-560.515	-200.000	0.021	0.392
-559.500	-130.016	-0.238	0.032
-558.485	-58.920	0.397	0.172
-557.471	149.967	0.167	-0.226
-556.456	800.000	-0.083	-0.341
-555.442	3.221	-0.272	0.198
-554.427	-23.066	-0.348	0.209
-553.412	189.050	0.054	-0.080
-552.398	-113.574	-0.111	0.022
-551.383	800.000	-0.033	-0.144
-550.369	175.614	-0.162	-0.234
-549.354	-19.280	0.104	-0.064
-548.339	-128.712	-0.286	0.040
-547.325	-77.248	-0.300	-0.104
-546.310	-200.000	-0.018	0.487
-545.296	-15.610	0.045	-0.029
-544.281	-92.797	0.248	-0.069
-543.266	89.568	0.085	-0.095
-542.252	-200.000	0.030	0.167
-541.237	63.733	0.236	-0.237
-540.223	-163.448	0.097	-0.005
-539.208	-91.350	-0.120	-0.034
-538.193	-200.000	-0.021	0.164
-537.179	305.726	-0.183	-0.340
-536.164	-3.766	0.107	0.074
-535.150	554.713	-0.026	0.062
-534.135	-68.146	-0.118	-0.046
-533.121	16.172	0.107	0.085
-532.106	112.205	-0.091	-0.109
-531.091	-11.007	-0.088	0.058
-530.077	-200.000	-0.030	0.178
-529.062	800.000	0.157	-0.543
-528.048	342.795	0.143	-0.280
-527.033	52.210	0.071	0.067
-526.018	-2.535	0.422	0.295
-525.004	289.317	0.043	-0.078
-523.989	-82.186	-0.331	-0.107
-522.975	-64.158	-0.072	-0.029
-521.960	-164.291	-0.132	0.006
-520.945	-39.532	0.075	-0.039
-519.931	-200.000	0.079	0.499
-518.916	800.000	0.034	0.124
-517.902	12.529	-0.343	0.264
-516.887	800.000	-0.057	-0.212
-515.872	-90.687	-0.149	0.043
-514.858	-200.000	0.007	0.209
-513.843	-200.000	0.006	-0.051
-512.829	300.642	-0.067	-0.123
-511.814	416.441	-0.044	-0.094
-510.799	-158.954	-0.137	-0.008
-509.785	228.798	-0.061	-0.099
-508.770	240.401	0.249	0.414
-507.756	-15.623	0.124	-0.079
-506.741	-200.000	0.046	0.234
-505.726	98.221	-0.223	0.256
-504.712	-200.000	-0.102	0.537
-503.697	-54.333	0.224	-0.101
-502.683	99.258	0.108	-0.124
-501.668	299.164	-0.030	0.055
-500.653	-97.370	-0.413	-0.107
-499.639	800.000	0.076	0.262
-498.624	-82.870	-0.099	0.032
-497.610	-134.420	-0.232	0.028
-496.595	-200.000	0.019	0.093
-495.581	800.000	0.059	-0.216
-494.566	-39.861	-0.161	0.084
-493.551	-14.431	0.183	-0.118
-492.537	180.692	0.301	-0.440
-491.522	213.181	0.080	0.126
-490.508	43.421	0.351	0.319
-489.493	-170.772	-0.148	-0.005
-488.478	-52.245	-0.171	0.079
-487.464	-200.000	0.038	-0.187
-486.449	41.483	-0.070	0.063
-485.435	194.397	0.114	0.172
-484.420	61.915	0.066	0.065
-483.405	300.501	-0.082	0.151
-482.391	48.298	0.053	0.050
-481.376	-200.000	-0.018	-0.318
-480.362	800.000	-0.079	0.222
-479.347	-69.924	-0.304	0.115
-478.332	-200.000	-0.035	-0.287
-477.318	40.247	0.198	-0.177
-476.303	-71.118	-0.340	-0.127
-475.289	800.000	-0.070	-0.303
-474.274	-200.000	-0.004	0.184
-473.259	-200.000	0.015	0.304
-472.245	-11.576	-0.275	-0.180
-471.230	-200.000	-0.093	-0.435
-470.216	-92.621	-0.041	0.012
-469.201	-9.558	-0.226	-0.150
-468.186	27.662	0.345	-0.289
-467.172	216.388	-0.060	0.095
-466.157	-102.661	-0.345	0.082
-465.143	-109.808	-0.185	0.039
-464.128	-150.572	0.149	0.011
-463.113	52.898	-0.064	-0.061
-462.099	-73.571	-0.182	0.066
-461.084	20.328	0.057	-0.046
-460.070	-20.592	0.153	-0.093
-459.055	-104.098	-0.072	0.017
-458.040	52.877	-0.214	-0.204
-457.026	23.919	0.225	-0.184
-456.011	-200.000	-0.034	0.196
-454.997	64.772	-0.146	0.146
-453.982	314.296	0.102	-0.192
-452.968	18.524	-0.193	-0.153
-451.953	406.625	0.020	0.043
-450.938	48.227	-0.180	0.168
-449.924	78.598	0.303	-0.322
-448.909	-127.589	-0.147	-0.021
-447.895	-16.743	-0.136	-0.086
-446.880	-125.991	-0.401	0.060
-445.865	303.116	0.272	-0.501
-444.851	-180.999	-0.370	0.007
-443.836	50.771	0.144	-0.136
-442.822	127.646	0.165	-0.208
-441.807	-97.040	-0.472	-0.123
-440.792	-200.000	0.003	0.021
-439.778	-200.000	0.007	0.054
-438.763	-9.828	-0.252	-0.167
-437.749	-200.000	0.024	0.208
-436.734	-7.169	0.164	0.110
-435.719	-200.000	-0.066	0.417
-434.705	-46.075	0.119	0.058
-433.690	53.341	0.137	-0.131
-432.676	-200.000	0.014	0.244
-431.661	23.376	0.220	-0.180
-430.646	800.000	0.006	0.022
-429.632	255.068	0.031	-0.053
-428.617	17.892	-0.278	-0.220
-427.603	418.068	0.088	0.187
-426.588	-200.000	0.012	0.179
-425.573	-114.013	0.045	-0.009
-424.559	-67.820	0.295	-0.114
-423.544	792.128	-0.033	-0.091
-422.530	-113.513	0.501	0.097
-421.515	362.004	-0.174	-0.346
-420.500	599.258	0.148	-0.366
-419.486	243.978	0.164	0.274
-418.471	98.927	0.088	-0.101
-417.457	-200.000	0.009	-0.106
-416.442	188.481	-0.038	0.056
-415.428	-11.908	0.106	-0.069
-414.413	-99.657	0.166	-0.041
-413.398	-13.853	0.109	-0.070
-412.384	-144.663	0.260	-0.024
-411.369	-94.214	0.307	-0.083
-410.355	800.000	-0.056	-0.239
-409.340	124.956	-0.095	0.119
-408.325	-150.993	-0.394	0.030
-407.311	-200.000	-0.020	-0.203
-406.296	800.000	-0.049	0.209
-405.282	800.000	0.077	0.255
-404.267	-30.397	0.093	-0.052
-403.252	65.642	-0.093	0.094
-402.238	138.834	0.161	-0.210
-401.223	261.672	0.080	-0.137
-400.209	67.029	-0.168	-0.170
-399.194	-200.000	-0.009	-0.154
-398.179	-200.000	-0.004	0.107
-397.165	382.604	0.057	0.117
-396.150	-10.986	-0.280	-0.184
-395.136	-134.093	-0.110	0.013
-394.121	-200.000	0.005	-0.054
-393.106	-65.431	-0.207	-0.082
-392.092	-162.836	0.436	-0.021
-391.077	354.545	-0.143	0.283
-390.063	603.415	0.095	-0.234
-389.048	-53.738	0.192	0.087
-388.033	-23.767	0.247	0.147
-387.019	347.078	-0.270	0.528
-386.004	-118.591	0.147	-0.026
-384.990	-65.503	0.346	0.138
-383.975	89.513	-0.146	-0.162
-382.960	-165.475	0.132	0.006
-381.946	-80.968	0.155	0.051
-380.931	91.415	0.143	-0.160
-379.917	222.273	0.050	0.079
-378.902	-91.755	-0.042	0.012
-377.888	-52.066	-0.296	-0.136
-376.873	-0.623	0.098	-0.069
-375.858	369.538	0.070	0.141
-374.844	800.000	0.064	0.186
-373.829	800.000	-0.107	0.318
-372.815	559.708	0.114	-0.272
-371.800	-34.289	-0.061	-0.033
-370.785	-200.000	-0.008	0.409
-369.771	-149.915	-0.198	-0.015
-368.756	800.000	-0.057	-0.221
-367.742	800.000	-0.035	-0.149
-366.727	-200.000	-0.026	-0.266
-365.712	15.823	0.226	-0.176
-364.698	-200.000	-0.060	-0.387
-363.683	533.607	-0.104	-0.243
-362.669	296.481	-0.128	0.232
-361.654	-162.249	0.296	0.015
-360.639	-102.032	0.106	0.025
-359.625	155.518	-0.139	-0.189
-358.610	-200.000	0.007	-0.137
-357.596	114.153	0.070	0.084
-356.581	800.000	0.022	-0.071
-355.566	-95.002	0.185	-0.050
-354.552	-200.000	0.007	-0.153
-353.537	107.953	-0.152	0.180
-352.523	-168.199	0.281	0.011
-351.508	-200.000	-0.018	-0.085
-350.493	800.000	-0.075	-0.211
-349.479	-200.000	-0.048	0.257
-348.464	-62.111	0.411	-0.170
-347.450	-79.046	-0.221	-0.074
-346.435	-9.448	-0.348	-0.230
-345.420	800.000	0.059	-0.214
-344.406	800.000	-0.035	0.138
-343.391	-200.000	0.080	0.348
-342.377	-144.147	0.206	-0.019
-341.362	-200.000	0.010	-0.134
-340.348	99.934	0.159	-0.183
-339.333	-106.683	-0.210	0.046
-338.318	-76.693	-0.107	-0.037
-337.304	-200.000	0.007	-0.130
-336.289	-200.000	0.053	-0.286
-335.275	-200.000	-0.021	0.391
-334.260	82.620	-0.167	-0.180
-333.245	-200.000	0.002	-0.052
-332.231	-200.000	0.017	-0.141
-331.216	-200.000	-0.005	0.026
-330.202	45.246	0.085	-0.077
-329.187	31.150	-0.243	-0.207
-328.172	-118.765	0.093	0.016
-327.158	-80.511	-0.202	0.067
-326.143	42.013	0.174	0.157
-325.129	800.000	0.015	-0.050
-324.114	498.578	0.186	-0.423
-323.099	-200.000	-0.003	-0.204
-322.085	127.592	-0.087	-0.110
-321.070	800.000	-0.072	-0.283
-320.056	-47.186	-0.286	0.138
-319.041	350.677	0.027	-0.054
-318.026	800.000	-0.108	0.315
-317.012	-47.036	-0.080	0.039
-315.997	-140.483	0.354	-0.036
-314.983	-87.940	0.158	-0.047
-313.968	192.910	0.172	0.257
-312.953	-5.373	-0.186	-0.126
-311.939	800.000	0.049	0.184
-310.924	800.000	0.039	0.141
-309.910	-32.530	-0.060	0.033
-308.895	-66.036	0.551	-0.218
-307.880	-200.000	0.012	0.100
-306.866	-81.017	0.038	0.012
-305.851	-182.029	-0.283	0.005
-304.837	-1.177	-0.528	0.369
-303.822	93.128	-0.174	-0.194
-302.807	-75.320	0.200	0.070
-301.793	-24.522	-0.392	0.231
-300.778	800.000	0.065	0.269
-299.764	58.014	0.247	-0.239
-298.749	59.864	0.163	-0.159
-297.735	31.800	0.087	-0.074
-296.720	-200.000	-0.034	-0.254
-295.705	25.929	-0.278	0.229
-294.691	241.031	-0.181	0.299
-293.676	130.491	0.100	0.127
-292.662	-45.685	0.368	-0.180
-291.647	-121.276	0.168	-0.028
-290.632	-136.596	-0.361	-0.041
-289.618	-25.996	-0.118	0.069
-288.603	115.671	-0.097	-0.117
-287.589	-200.000	0.042	0.214
-286.574	-71.758	-0.138	0.051
-285.559	52.120	0.185	0.174
-284.545	-39.798	0.170	0.088
-283.530	604.523	-0.026	-0.063
-282.516	24.713	0.110	-0.090
-281.501	-86.975	0.207	0.062
-280.486	1.676	-0.092	-0.065
-279.472	161.959	-0.130	-0.180
-278.457	58.784	0.132	-0.128
-277.443	800.000	0.074	-0.234
-276.428	-51.798	0.443	0.204
-275.413	31.022	0.304	0.257
-274.399	-54.794	0.156	0.070
-273.384	100.559	0.104	0.120
-272.370	-175.138	-0.147	-0.004
-271.355	448.418	0.082	-0.179
-270.340	678.407	0.128	-0.328
-269.326	42.728	-0.302	0.272
-268.311	-11.606	0.300	0.194
-267.297	-114.901	-0.270	0.051
-266.282	56.917	0.082	-0.079
-265.267	129.731	0.174	-0.220
-264.253	-44.995	-0.432	-0.213
-263.238	-84.658	-0.314	0.098
-262.224	217.117	-0.041	0.064
-261.209	-200.000	0.043	-0.219
-260.195	-45.179	0.170	0.083
-259.180	-146.885	0.346	-0.029
-258.165	600.321	-0.133	-0.327
-257.151	-200.000	-0.018	0.134
-256.136	-3.933	-0.307	-0.210
-255.122	-79.741	0.179	0.059
-254.107	800.000	-0.103	0.371
-253.092	-92.190	0.116	-0.032
-252.078	-200.000	-0.001	0.288
-251.063	27.011	0.067	-0.055
-250.049	34.380	0.129	-0.112
-249.034	23.607	-0.080	-0.065
-248.019	-62.789	-0.324	-0.133
-247.005	189.543	0.078	0.116
-245.990	162.495	0.216	0.299
-244.976	-200.000	0.010	0.145
-243.961	-119.259	-0.131	0.023
-242.946	-200.000	-0.061	-0.319
-241.932	190.898	-0.172	0.256
-240.917	800.000	-0.022	0.084
-239.903	-105.223	0.314	0.071
-238.888	800.000	0.040	0.117
-237.873	27.677	0.259	0.216
-236.859	236.682	-0.082	0.134
-235.844	-200.000	-0.054	-0.291
-234.830	800.000	-0.069	0.221
-233.815	-127.667	0.497	0.071
-232.800	-38.354	0.409	0.214
-231.786	-57.078	0.201	-0.087
-230.771	-49.032	-0.297	-0.140
-229.757	-179.174	0.303	0.007
-228.742	-200.000	-0.022	0.381
-227.727	36.575	-0.136	-0.119
-226.713	-53.227	-0.176	0.080
-225.698	42.074	0.176	0.157
-224.684	64.469	0.216	0.215
-223.669	254.998	0.056	0.094
-222.655	-200.000	0.024	0.279
-221.640	800.000	0.021	0.077
-220.625	421.089	-0.035	0.073
-219.611	-200.000	0.001	0.242
-218.596	-134.272	-0.184	-0.022
-217.582	-200.000	-0.022	0.216
-216.567	-16.482	-0.362	0.226
-215.552	-44.205	-0.208	-0.103
-214.538	-160.985	0.105	0.005
-213.523	28.280	0.129	-0.108
-212.509	-200.000	-0.001	-0.095
-211.494	-99.960	0.228	-0.056
-210.479	-106.720	-0.250	-0.055
-209.465	-107.434	0.106	-0.023
-208.450	208.490	-0.022	0.034
-207.436	-200.000	0.024	0.134
-206.421	-181.091	0.425	-0.008
-205.406	-15.292	0.319	0.201
-204.392	49.219	-0.210	0.194
-203.377	45.976	-0.131	-0.119
-202.363	-47.692	-0.254	0.121
-201.348	-80.373	-0.294	-0.097
-200.333	-105.564	0.080	0.018
-199.319	126.122	-0.285	-0.356
-198.304	-200.000	0.005	-0.103
-197.290	-83.448	0.054	0.017
-196.275	31.641	-0.115	0.097
-195.260	112.678	-0.140	-0.167
-194.246	226.240	-0.035	-0.056
-193.231	-200.000	0.021	-0.194
-192.217	220.941	0.089	0.141
-191.202	-200.000	-0.046	0.295
-190.187	-200.000	0.053	0.498
-189.173	670.198	0.059	-0.150
-188.158	399.055	-0.152	0.313
-187.144	283.878	0.244	-0.432
-186.129	-83.728	-0.134	-0.042
-185.114	-200.000	0.056	-0.340
-184.100	-200.000	0.006	0.133
-183.085	423.062	0.138	0.292
-182.071	800.000	0.075	-0.280
-181.056	288.864	0.121	-0.217
-180.042	-200.000	-0.007	-0.162
-179.027	800.000	0.099	0.289
-178.012	800.000	0.050	0.159
-176.998	-72.230	0.379	0.138
-175.983	-200.000	0.045	-0.311
-174.969	590.290	-0.027	0.065
-173.954	118.132	0.125	-0.152
-172.939	-33.983	-0.151	-0.082
-171.925	-64.994	-0.312	-0.124
-170.910	95.868	0.161	-0.181
-169.896	91.870	0.142	-0.157
-168.881	422.652	0.063	0.133
-167.866	255.242	0.083	-0.140
-166.852	280.426	0.056	-0.098
-165.837	800.000	0.027	0.074
-164.823	-30.176	0.101	-0.056
-163.808	-104.628	0.302	-0.068
-162.793	31.472	-0.070	-0.059
-161.779	800.000	0.027	-0.081
-160.764	220.079	-0.087	0.137
-159.750	-19.148	-0.151	-0.092
-158.735	14.431	0.114	0.087
-157.720	-107.727	0.108	0.023
-156.706	-167.763	-0.226	-0.009
-155.691	-87.579	0.134	0.040
-154.677	-131.187	0.124	-0.016
-153.662	-200.000	-0.027	0.183
-152.647	-123.402	-0.212	-0.033
-151.633	-10.315	-0.113	-0.074
-150.618	800.000	-0.056	0.224
-149.604	283.242	0.111	-0.195
-148.589	-20.915	0.230	0.138
-147.574	196.496	0.060	-0.090
-146.560	-54.677	0.174	0.077
-145.545	-200.000	-0.008	0.080
-144.531	-114.370	-0.210	-0.040
-143.516	-180.794	-0.161	0.003
-142.502	93.354	0.054	-0.061
-141.487	7.271	-0.255	-0.187
-140.472	-200.000	-0.039	-0.191
-139.458	37.669	-0.104	0.091
-138.443	-126.454	0.157	-0.023
-137.429	-90.976	0.136	-0.038
-136.414	-20.853	-0.482	0.290
-135.399	35.811	0.168	-0.145
-134.385	409.194	0.204	0.425
-133.370	-184.896	0.283	0.004
-132.356	-104.726	0.382	-0.086
-131.341	-91.349	-0.325	-0.091
-130.326	-200.000	-0.026	0.162
-129.312	13.436	0.070	-0.053
-128.297	-200.000	0.048	-0.265
-127.283	-137.395	0.122	-0.014
-126.268	-36.424	-0.426	0.225
-125.253	-200.000	-0.005	0.024
-124.239	-200.000	-0.032	0.206
-123.224	129.751	0.102	0.128
-122.210	28.150	-0.142	-0.118
-121.195	44.588	0.151	0.137
