DTS Sentinel unit serial number:	SN413079Multiplexer serial number:	ORYXHardware model number:	OX4-SRSoftware version number:	ORYX F/W v4.00 Oryx Data Collector v3.7.2.0data status	okinstallation	princeton_trtdifferential loss correction	single-endedforward channel	channel 2reverse channel	N/Adate	2019/09/13time	19:51:35forward acquisition time	60.00reverse acquisition time	0.00gamma	496.2192k internal	0.2332k external	0.2332temperature offset calibration	1.0137default loss term (dB/km)	0.3790temperature slope calibration	1.0000multiplexer offset coefficient	1.0000multiplexer slope coefficient	1.0000fibre end	0.00T internal ref (°C)	30.03T ext. ref 1 (°C)	3.31T ext. ref 2 (°C)	24.21length (m)	temperature (°C)	Stokes	anti-Stokes-747.200	-173.312	0.186	-0.006
-746.185	612.179	0.026	-0.067
-745.171	800.000	-0.051	-0.151
-744.156	-15.518	-0.036	-0.023
-743.142	-129.444	-0.023	-0.003
-742.127	800.000	-0.040	0.125
-741.112	800.000	0.102	0.332
-740.098	15.839	0.217	0.172
-739.083	-200.000	-0.012	-0.059
-738.069	132.440	-0.219	0.284
-737.054	184.673	-0.093	0.138
-736.039	-66.770	-0.488	0.194
-735.025	800.000	-0.064	-0.179
-734.010	-19.949	-0.259	-0.161
-732.996	60.375	-0.304	0.303
-731.981	800.000	-0.059	0.254
-730.966	-161.858	0.342	0.017
-729.952	110.744	-0.160	-0.194
-728.937	171.132	-0.215	-0.310
-727.923	88.236	-0.100	0.112
-726.908	-200.000	0.006	-0.131
-725.894	-130.153	-0.086	0.012
-724.879	800.000	0.034	0.129
-723.864	-200.000	0.099	-0.626
-722.850	-200.000	-0.053	-0.353
-721.835	-76.113	0.146	-0.052
-720.821	142.975	0.161	-0.215
-719.806	-33.139	-0.296	-0.165
-718.791	-17.255	0.160	-0.101
-717.777	-14.244	-0.054	-0.035
-716.762	536.969	-0.027	0.065
-715.748	160.552	-0.176	0.247
-714.733	-82.822	0.050	-0.016
-713.718	-200.000	-0.050	0.325
-712.704	-149.210	-0.309	0.025
-711.689	-21.171	-0.381	-0.234
-710.675	-58.444	0.207	0.091
-709.660	-39.909	-0.047	-0.025
-708.645	73.444	-0.161	-0.169
-707.631	770.630	-0.011	0.031
-706.616	197.964	-0.180	-0.277
-705.602	291.754	0.188	0.344
-704.587	800.000	0.044	-0.151
-703.572	725.498	0.152	0.408
-702.558	179.613	-0.257	0.378
-701.543	30.074	-0.132	0.113
-700.529	574.762	-0.084	-0.206
-699.514	-101.269	-0.234	0.057
-698.499	5.947	0.140	0.104
-697.485	553.337	0.009	-0.023
-696.470	-200.000	-0.050	-0.288
-695.456	234.332	0.065	0.108
-694.441	498.210	0.046	-0.107
-693.426	800.000	-0.081	-0.248
-692.412	86.208	0.069	-0.077
-691.397	-18.151	0.333	0.209
-690.383	-200.000	0.035	0.250
-689.368	-102.734	-0.215	0.051
-688.354	800.000	0.017	-0.053
-687.339	-200.000	0.017	-0.175
-686.324	-109.338	0.161	-0.034
-685.310	-54.780	0.032	-0.014
-684.295	-200.000	-0.014	-0.065
-683.281	800.000	-0.052	0.211
-682.266	800.000	-0.022	-0.066
-681.251	71.330	0.179	0.187
-680.237	800.000	0.063	0.224
-679.222	71.122	0.108	-0.112
-678.208	-200.000	0.034	-0.448
-677.193	-200.000	-0.039	-0.474
-676.178	-30.761	-0.086	0.049
-675.164	-135.245	-0.372	-0.045
-674.149	-18.339	-0.268	-0.168
-673.135	-200.000	0.012	0.148
-672.120	132.890	-0.142	0.184
-671.105	467.468	0.181	-0.408
-670.091	-35.915	0.127	0.069
-669.076	-101.836	-0.082	-0.020
-668.062	142.049	-0.211	-0.280
-667.047	-101.471	0.195	-0.048
-666.032	115.696	0.208	-0.256
-665.018	-168.445	-0.271	0.010
-664.003	-200.000	0.012	0.116
-662.989	323.724	0.089	-0.170
-661.974	-67.401	0.086	0.034
-660.959	212.362	-0.169	0.267
-659.945	-147.117	0.124	0.011
-658.930	518.925	-0.097	-0.228
-657.916	-58.972	0.149	-0.064
-656.901	16.106	-0.084	0.066
-655.886	-6.475	-0.082	-0.056
-654.872	-200.000	0.005	0.036
-653.857	-156.613	-0.225	-0.014
-652.843	800.000	-0.124	0.465
-651.828	-25.812	0.202	-0.119
-650.814	-183.571	0.467	0.008
-649.799	-200.000	-0.002	-0.057
-648.784	21.067	0.192	0.156
-647.770	-60.086	-0.420	-0.180
-646.755	-200.000	0.006	-0.138
-645.741	156.630	0.135	-0.187
-644.726	2.004	-0.185	-0.134
-643.711	87.884	0.165	-0.183
-642.697	110.420	-0.262	0.315
-641.682	800.000	-0.080	0.330
-640.668	288.351	0.058	0.106
-639.653	-36.036	-0.390	-0.211
-638.638	139.528	0.094	-0.124
-637.624	-143.121	0.104	0.010
-636.609	-200.000	-0.018	-0.155
-635.595	-53.094	0.343	-0.158
-634.580	-200.000	0.041	-0.187
-633.565	-96.557	-0.297	0.078
-632.551	-101.349	-0.312	0.076
-631.536	437.228	-0.047	-0.103
-630.522	97.767	0.355	0.409
-629.507	-95.788	0.379	-0.101
-628.492	159.128	-0.106	0.148
-627.478	-15.793	-0.279	0.178
-626.463	778.613	-0.021	0.059
-625.449	535.624	0.093	0.221
-624.434	-200.000	0.022	-0.250
-623.419	-28.650	0.039	-0.022
-622.405	4.626	0.171	-0.125
-621.390	-200.000	0.002	-0.183
-620.376	35.788	0.278	-0.245
-619.361	-114.480	-0.232	-0.045
-618.346	40.840	0.127	0.115
-617.332	-5.958	-0.301	-0.206
-616.317	-200.000	0.065	-0.435
-615.303	-200.000	0.011	-0.268
-614.288	800.000	-0.065	-0.250
-613.273	-144.066	0.263	0.025
-612.259	429.089	-0.104	-0.226
-611.244	-200.000	-0.012	0.143
-610.230	112.257	0.098	-0.119
-609.215	291.761	0.132	0.241
-608.201	800.000	0.054	0.160
-607.186	-200.000	-0.018	-0.371
-606.171	447.125	0.030	-0.065
-605.157	-200.000	0.037	-0.260
-604.142	-97.329	-0.364	0.095
-603.128	611.436	-0.067	-0.169
-602.113	-200.000	0.066	-0.332
-601.098	85.821	0.116	-0.128
-600.084	226.824	-0.042	0.069
-599.069	237.255	0.017	-0.028
-598.055	-36.888	-0.135	-0.072
-597.040	-46.679	0.164	-0.080
-596.025	-104.720	-0.219	0.050
-595.011	-7.463	-0.136	-0.092
-593.996	-200.000	-0.040	0.355
-592.982	700.674	0.042	0.110
-591.967	-50.392	0.322	-0.152
-590.952	-72.598	0.152	0.056
-589.938	-122.619	0.250	-0.041
-588.923	-49.013	0.179	-0.086
-587.909	-105.069	-0.191	-0.044
-586.894	371.363	-0.094	0.190
-585.879	-53.114	-0.386	-0.177
-584.865	-89.226	0.266	-0.078
-583.850	484.387	-0.077	0.176
-582.836	800.000	-0.031	-0.089
-581.821	800.000	0.044	-0.161
-580.806	289.891	-0.074	-0.134
-579.792	-11.731	-0.142	0.093
-578.777	161.852	-0.242	0.339
-577.763	21.015	0.052	0.042
-576.748	282.890	-0.107	0.191
-575.733	-200.000	-0.346	-0.001
-574.719	118.275	0.228	-0.282
-573.704	-143.515	-0.252	-0.024
-572.690	-154.079	-0.447	0.030
-571.675	-99.732	-0.309	0.077
-570.661	-152.435	0.284	0.020
-569.646	288.303	-0.114	0.207
-568.631	326.223	0.120	-0.230
-567.617	-143.515	-0.136	0.013
-566.602	-4.696	0.033	0.023
-565.588	174.686	0.165	0.239
-564.573	-15.456	-0.209	-0.133
-563.558	83.659	-0.139	-0.151
-562.544	800.000	0.139	0.396
-561.529	800.000	-0.088	0.284
-560.515	87.760	-0.173	0.191
-559.500	-7.821	-0.232	0.156
-558.485	-200.000	0.005	-0.173
-557.471	-120.508	0.178	-0.030
-556.456	-200.000	-0.007	0.247
-555.442	163.520	0.137	-0.193
-554.427	-72.543	0.082	0.030
-553.412	158.665	0.088	-0.122
-552.398	231.484	0.133	0.217
-551.383	800.000	-0.032	0.130
-550.369	-200.000	-0.022	-0.355
-549.354	-128.831	-0.240	0.034
-548.339	-165.183	-0.126	0.006
-547.325	78.350	-0.074	-0.079
-546.310	234.585	-0.152	-0.251
-545.296	174.400	0.119	0.172
-544.281	-88.556	0.222	-0.066
-543.266	-200.000	0.046	0.319
-542.252	35.027	0.275	0.240
-541.237	-56.327	-0.239	0.106
-540.223	-123.896	0.310	-0.049
-539.208	131.636	0.199	0.255
-538.193	-17.275	-0.077	0.048
-537.179	-200.000	-0.001	0.065
-536.164	-73.655	0.122	-0.044
-535.150	-50.485	-0.161	-0.076
-534.135	259.645	0.063	0.109
-533.121	330.545	-0.017	0.034
-532.106	-81.018	0.248	-0.082
-531.091	800.000	-0.076	-0.247
-530.077	208.391	-0.164	-0.257
-529.062	53.294	-0.220	-0.210
-528.048	102.209	0.123	0.143
-527.033	8.514	0.291	-0.218
-526.018	-85.583	0.476	0.148
-525.004	-69.885	0.128	0.049
-523.989	615.175	-0.153	0.383
-522.975	-69.408	0.253	-0.097
-521.960	-200.000	-0.018	-0.235
-520.945	-39.596	0.139	0.072
-519.931	96.348	-0.034	0.039
-518.916	336.207	-0.099	0.193
-517.902	474.810	0.055	-0.123
-516.887	-22.139	-0.111	0.067
-515.872	800.000	0.024	0.075
-514.858	-200.000	-0.037	0.221
-513.843	-66.442	0.289	-0.115
-512.829	221.782	-0.170	0.273
-511.814	-122.838	-0.284	-0.046
-510.799	175.871	-0.072	0.104
-509.785	-91.245	-0.175	-0.050
-508.770	-65.292	-0.637	-0.256
-507.756	611.742	-0.100	-0.248
-506.741	-44.555	-0.064	-0.032
-505.726	419.069	0.068	-0.145
-504.712	-171.388	-0.444	-0.015
-503.697	-132.451	0.252	-0.032
-502.683	-200.000	-0.015	-0.188
-501.668	-200.000	-0.014	-0.155
-500.653	275.765	0.169	0.299
-499.639	85.516	0.167	0.183
-498.624	800.000	0.069	0.232
-497.610	46.235	0.186	0.172
-496.595	114.661	-0.172	0.209
-495.581	-178.929	-0.379	0.009
-494.566	-161.938	-0.090	-0.005
-493.551	800.000	0.096	-0.267
-492.537	-142.806	-0.246	-0.024
-491.522	389.169	0.182	0.375
-490.508	143.650	-0.041	-0.054
-489.493	99.063	0.225	-0.259
-488.478	-40.568	0.348	-0.180
-487.464	-200.000	0.021	0.184
-486.449	-51.906	-0.286	-0.132
-485.435	-113.050	-0.238	-0.047
-484.420	-149.794	0.460	0.036
-483.405	-37.408	0.056	-0.030
-482.391	-111.099	0.159	0.033
-481.376	314.031	-0.044	-0.082
-480.362	800.000	0.049	0.161
-479.347	800.000	-0.089	0.349
-478.332	357.228	-0.044	0.087
-477.318	-17.018	0.194	-0.122
-476.303	-92.404	0.181	0.051
-475.289	76.162	0.277	0.292
-474.274	21.674	-0.159	-0.129
-473.259	-2.735	-0.117	-0.081
-472.245	234.615	-0.118	-0.193
-471.230	-200.000	-0.010	-0.136
-470.216	559.139	-0.193	-0.463
-469.201	36.397	-0.197	0.173
-468.186	51.618	0.099	0.094
-467.172	110.744	0.269	0.322
-466.157	-104.560	0.160	-0.037
-465.143	193.270	0.289	-0.435
-464.128	-66.016	0.288	-0.114
-463.113	-151.956	-0.240	-0.017
-462.099	-104.658	0.096	-0.022
-461.084	-200.000	-0.032	-0.439
-460.070	800.000	0.122	0.369
-459.055	136.184	-0.135	0.175
-458.040	57.791	-0.123	-0.119
-457.026	-112.543	-0.228	0.045
-456.011	608.130	-0.133	-0.329
-454.997	-37.432	-0.122	0.065
-453.982	-7.643	0.148	-0.100
-452.968	800.000	0.128	-0.393
-451.953	20.642	0.362	-0.292
-450.938	-76.401	-0.219	0.077
-449.924	-28.039	-0.104	0.060
-448.909	-165.565	-0.331	0.014
-447.895	-200.000	0.025	0.351
-446.880	62.493	-0.156	-0.155
-445.865	760.604	-0.083	-0.225
-444.851	160.335	-0.199	-0.276
-443.836	-161.370	-0.065	-0.003
-442.822	-200.000	-0.007	0.114
-441.807	-200.000	0.000	-0.294
-440.792	52.545	-0.081	0.077
-439.778	292.364	0.052	-0.094
-438.763	50.480	-0.135	0.127
-437.749	12.561	0.217	-0.167
-436.734	800.000	-0.070	0.220
-435.719	-150.393	0.242	-0.018
-434.705	-200.000	0.000	0.032
-433.690	174.699	-0.124	0.179
-432.676	313.999	-0.221	-0.414
-431.661	37.423	0.166	0.146
-430.646	1.157	0.211	0.150
-429.632	800.000	-0.049	-0.143
-428.617	102.718	0.122	0.142
-427.603	32.228	-0.008	-0.007
-426.588	-126.344	0.180	-0.027
-425.573	63.619	-0.215	0.214
-424.559	70.788	-0.131	0.135
-423.544	-140.013	-0.282	0.030
-422.530	-60.387	0.028	-0.012
-421.515	800.000	-0.089	-0.304
-420.500	-200.000	-0.018	0.122
-419.486	800.000	0.031	-0.117
-418.471	44.652	-0.229	0.209
-417.457	10.959	-0.116	0.088
-416.442	800.000	-0.060	0.214
-415.428	26.068	-0.270	-0.224
-414.413	645.656	0.190	0.481
-413.398	-25.521	0.141	-0.083
-412.384	-110.507	0.218	0.045
-411.369	800.000	-0.018	-0.061
-410.355	-36.088	-0.275	-0.148
-409.340	-163.600	-0.252	-0.012
-408.325	-61.916	0.088	-0.036
-407.311	-181.232	0.221	0.004
-406.296	-200.000	0.073	0.323
-405.282	104.432	0.199	-0.232
-404.267	132.808	0.067	-0.085
-403.252	47.552	0.122	0.113
-402.238	-200.000	-0.006	0.025
-401.223	800.000	0.041	0.159
-400.209	299.447	-0.112	-0.204
-399.194	-57.352	0.476	-0.208
-398.179	-200.000	-0.023	0.256
-397.165	-71.064	-0.073	-0.027
-396.150	-153.969	0.018	-0.001
-395.136	-84.122	0.257	0.081
-394.121	459.707	-0.074	-0.164
-393.106	-102.911	0.244	0.058
-392.092	50.179	0.156	0.146
-391.077	-8.139	-0.147	-0.098
-390.063	-81.911	0.180	-0.058
-389.048	257.582	0.078	-0.134
-388.033	-200.000	-0.013	-0.128
-387.019	-7.874	-0.256	0.171
-386.004	-104.288	0.193	-0.044
-384.990	612.253	-0.083	0.206
-383.975	-69.426	0.228	-0.087
-382.960	800.000	-0.013	0.039
-381.946	-186.028	-0.410	-0.006
-380.931	-200.000	-0.019	0.137
-379.917	102.003	-0.020	-0.023
-378.902	-112.680	-0.137	-0.027
-377.888	188.288	-0.243	-0.361
-376.873	-200.000	0.166	0.000
-375.858	-200.000	0.010	-0.218
-374.844	-183.808	0.332	-0.006
-373.829	179.673	0.186	0.270
-372.815	559.567	0.107	0.256
-371.800	-200.000	0.005	-0.103
-370.785	-9.534	0.145	0.096
-369.771	-79.163	-0.135	0.045
-368.756	-152.151	0.346	-0.025
-367.742	-200.000	0.015	-0.177
-366.727	-55.932	0.339	-0.150
-365.712	-136.170	0.190	0.022
-364.698	169.000	-0.218	-0.308
-363.683	-26.897	-0.080	0.046
-362.669	-147.205	0.236	-0.020
-361.654	-126.127	0.105	0.016
-360.639	-98.659	-0.088	0.022
-359.625	-31.503	0.406	0.226
-358.610	93.856	0.066	0.074
-357.596	-200.000	-0.026	0.483
-356.581	-177.653	0.323	0.008
-355.566	-13.977	0.138	-0.088
-354.552	800.000	0.092	0.370
-353.537	-141.447	-0.239	0.024
-352.523	43.113	0.076	0.068
-351.508	800.000	-0.176	0.522
-350.493	-111.532	-0.302	0.061
-349.479	-193.108	-0.128	0.001
-348.464	-72.684	0.276	-0.101
-347.450	340.495	-0.105	-0.203
-346.435	-46.311	0.413	0.201
-345.420	800.000	-0.047	0.204
-344.406	-142.545	-0.120	-0.012
-343.391	14.307	0.043	-0.033
-342.377	105.376	-0.074	0.086
-341.362	95.245	-0.175	-0.197
-340.348	-125.231	-0.353	0.053
-339.333	-97.487	0.349	0.090
-338.318	347.814	0.067	-0.130
-337.304	-133.355	-0.129	-0.016
-336.289	-66.634	-0.084	-0.033
-335.275	-200.000	0.011	0.161
-334.260	800.000	0.056	0.153
-333.245	-9.891	0.303	-0.199
-332.231	-39.600	0.146	-0.076
-331.216	6.960	-0.276	0.204
-330.202	-137.807	-0.060	-0.007
-329.187	-200.000	-0.078	0.345
-328.172	434.929	-0.097	0.209
-327.158	-105.627	0.126	-0.028
-326.143	42.605	-0.189	-0.170
-325.129	-11.783	0.398	-0.259
-324.114	-163.496	0.100	-0.005
-323.099	-200.000	0.003	0.111
-322.085	-138.062	-0.260	0.029
-321.070	-28.316	-0.389	0.222
-320.056	-164.739	-0.172	-0.008
-319.041	800.000	0.047	-0.161
-318.026	712.506	0.049	0.130
-317.012	-200.000	-0.014	0.412
-315.997	90.462	0.011	0.012
-314.983	260.942	0.145	0.248
-313.968	-90.852	0.123	0.035
-312.953	-184.344	-0.168	-0.003
-311.939	-200.000	-0.022	-0.102
-310.924	-200.000	-0.062	0.485
-309.910	-200.000	-0.001	0.337
-308.895	-93.829	0.117	-0.032
-307.880	-33.234	-0.136	-0.074
-306.866	427.016	0.033	0.071
-305.851	-200.000	0.052	0.430
-304.837	800.000	0.050	-0.150
-303.822	-200.000	-0.019	0.114
-302.807	-200.000	0.000	0.110
-301.793	139.531	-0.170	-0.221
-300.778	142.040	0.097	-0.127
-299.764	-133.647	-0.344	-0.043
-298.749	-200.000	0.042	-0.475
-297.735	-40.552	0.217	0.112
-296.720	800.000	0.031	-0.107
-295.705	166.800	-0.249	0.349
-294.691	131.794	-0.031	0.040
-293.676	402.741	0.049	0.101
-292.662	-200.000	-0.003	-0.256
-291.647	13.743	0.259	-0.199
-290.632	-11.281	-0.068	0.044
-289.618	-44.275	0.096	-0.048
-288.603	-115.567	-0.057	-0.011
-287.589	90.388	-0.085	-0.094
-286.574	593.091	-0.133	-0.325
-285.559	-200.000	-0.008	-0.214
-284.545	-52.554	0.233	-0.106
-283.530	189.857	0.031	-0.047
-282.516	-69.648	0.053	0.020
-281.501	460.238	-0.137	-0.302
-280.486	0.313	0.162	0.114
-279.472	-200.000	-0.009	0.053
-278.457	-200.000	0.020	-0.107
-277.443	207.971	-0.158	0.244
-276.428	-163.938	0.214	-0.010
-275.413	543.912	-0.192	-0.453
-274.399	-65.975	-0.334	0.132
-273.384	15.088	0.186	0.144
-272.370	-75.796	-0.155	-0.054
-271.355	395.599	-0.101	-0.207
-270.340	-200.000	-0.002	0.051
-269.326	-30.486	0.224	-0.125
-268.311	90.604	0.253	-0.279
-267.297	45.160	0.183	-0.166
-266.282	201.409	0.080	-0.121
-265.267	507.012	0.029	0.065
-264.253	800.000	-0.083	0.330
-263.238	-200.000	0.053	0.510
-262.224	-15.210	0.143	-0.090
-261.209	251.393	0.090	-0.151
-260.195	711.121	0.063	0.165
-259.180	800.000	-0.107	-0.397
-258.165	-135.157	-0.062	0.007
-257.151	-200.000	0.016	-0.183
-256.136	363.032	-0.015	0.030
-255.122	-200.000	-0.008	0.076
-254.107	205.557	-0.094	-0.145
-253.092	-43.159	-0.234	0.117
-252.078	-105.507	0.270	-0.060
-251.063	303.932	0.043	-0.080
-250.049	175.534	-0.191	-0.273
-249.034	-200.000	0.005	-0.053
-248.019	-174.238	0.069	-0.002
-247.005	160.587	-0.145	0.200
-245.990	-113.019	0.170	0.033
-244.976	-200.000	-0.008	0.111
-243.961	571.507	-0.078	-0.189
-242.946	-3.371	0.064	0.044
-241.932	440.089	-0.186	-0.400
-240.917	-3.127	0.149	0.102
-239.903	-24.245	-0.309	0.182
-238.888	-200.000	0.012	-0.314
-237.873	564.211	0.040	-0.095
-236.859	246.244	-0.129	0.214
-235.844	-104.427	0.326	0.074
-234.830	-47.258	0.219	-0.105
-233.815	227.969	-0.051	-0.083
-232.800	56.238	-0.097	0.093
-231.786	-200.000	-0.093	0.401
-230.771	-45.097	0.121	0.059
-229.757	553.533	-0.067	0.159
-228.742	153.907	0.115	0.156
-227.727	-200.000	0.021	0.237
-226.713	-200.000	-0.044	0.272
-225.698	-200.000	0.008	-0.277
-224.684	-45.004	0.112	-0.055
-223.669	160.943	-0.223	0.307
-222.655	446.797	0.077	0.166
-221.640	97.805	0.145	0.165
-220.625	-133.541	-0.279	0.034
-219.611	-51.239	-0.167	-0.077
-218.596	-14.665	-0.102	0.064
-217.582	-91.002	0.323	-0.091
-216.567	-61.199	-0.220	0.092
-215.552	0.048	-0.177	0.124
-214.538	291.418	0.131	-0.235
-213.523	163.833	-0.179	-0.248
-212.509	-165.473	-0.149	0.006
-211.494	32.418	0.171	0.145
-210.479	-118.959	0.196	0.034
-209.465	-104.872	0.230	0.052
-208.450	733.542	-0.047	0.124
-207.436	420.437	-0.016	-0.034
-206.421	-88.959	-0.055	0.016
-205.406	-200.000	0.073	-0.373
-204.392	-200.000	0.008	-0.193
-203.377	-200.000	-0.008	-0.210
-202.363	-200.000	0.019	-0.089
-201.348	-165.648	0.277	0.012
-200.333	-200.000	0.039	-0.336
-199.319	-200.000	-0.008	0.080
-198.304	-200.000	0.030	0.204
-197.290	262.033	0.127	0.217
-196.275	153.933	-0.035	-0.047
-195.260	248.184	0.062	0.103
-194.246	-200.000	-0.053	0.305
-193.231	4.828	-0.215	0.155
-192.217	32.328	-0.273	0.232
-191.202	242.443	-0.098	0.161
-190.187	-18.362	-0.241	-0.148
-189.173	-200.000	-0.085	-0.366
-188.158	-50.101	-0.063	-0.029
-187.144	-101.370	0.180	-0.043
-186.129	4.017	0.223	-0.161
-185.114	-200.000	-0.019	0.327
-184.100	151.033	-0.035	0.047
-183.085	-191.978	-0.254	-0.002
-182.071	-92.348	-0.347	0.096
-181.056	-200.000	-0.010	-0.262
-180.042	143.135	0.127	-0.167
-179.027	-200.000	-0.018	-0.167
-178.012	-32.373	-0.081	-0.044
-176.998	-83.617	-0.342	-0.107
-175.983	-193.749	0.344	0.003
-174.969	-200.000	-0.036	0.190
-173.954	416.952	0.141	0.297
-172.939	0.101	0.101	-0.070
-171.925	-65.678	0.318	0.126
-170.910	204.534	0.053	-0.081
-169.896	-67.090	0.186	-0.072
-168.881	583.913	-0.097	0.234
-167.866	444.238	0.080	-0.172
-166.852	41.934	-0.268	0.239
-165.837	-7.880	0.202	0.134
-164.823	766.041	-0.017	0.046
-163.808	-55.556	0.205	0.091
-162.793	-159.383	-0.346	-0.019
-161.779	-30.383	-0.138	0.077
-160.764	-200.000	-0.017	0.090
-159.750	-112.605	0.221	0.043
-158.735	-200.000	0.035	0.177
-157.720	-115.073	-0.083	-0.016
-156.706	-199.508	0.156	-0.001
-155.691	800.000	-0.060	-0.232
-154.677	-120.629	-0.364	-0.061
-153.662	253.850	-0.093	-0.156
-152.647	327.444	-0.092	-0.173
-151.633	276.492	0.135	-0.236
-150.618	489.257	0.055	0.123
-149.604	-200.000	-0.026	0.216
-148.589	298.574	0.094	0.169
-147.574	-54.067	0.126	-0.056
-146.560	-200.000	0.041	-0.205
-145.545	228.958	0.124	-0.198
-144.531	-144.660	-0.230	-0.021
-143.516	150.686	-0.115	0.153
-142.502	-200.000	-0.001	0.033
-141.487	-200.000	-0.012	0.158
-140.472	-11.403	-0.043	-0.028
-139.458	-7.332	0.186	0.124
-138.443	296.618	-0.162	0.293
-137.429	-88.936	0.250	-0.073
-136.414	50.165	0.265	0.246
-135.399	302.140	0.093	0.170
-134.385	-200.000	-0.004	0.254
-133.370	93.465	0.295	-0.328
-132.356	-135.703	0.338	0.039
-131.341	-121.646	0.077	0.013
-130.326	-200.000	0.012	0.144
-129.312	348.510	0.180	0.349
-128.297	-36.103	0.212	0.113
-127.283	97.853	-0.202	0.228
-126.268	-200.000	0.006	0.174
-125.253	31.945	0.117	0.099
-124.239	2.212	-0.116	0.083
-123.224	-200.000	0.002	0.260
-122.210	339.966	0.039	0.074
