DTS Sentinel unit serial number:	SN413079Multiplexer serial number:	ORYXHardware model number:	OX4-SRSoftware version number:	ORYX F/W v4.00 Oryx Data Collector v3.7.2.0data status	okinstallation	princeton_trtdifferential loss correction	single-endedforward channel	channel 2reverse channel	N/Adate	2019/09/10time	16:05:11forward acquisition time	60.00reverse acquisition time	0.00gamma	496.2192k internal	0.2307k external	0.2307temperature offset calibration	0.9934default loss term (dB/km)	0.3790temperature slope calibration	1.0000multiplexer offset coefficient	1.0000multiplexer slope coefficient	1.0000fibre end	0.00T internal ref (°C)	38.30T ext. ref 1 (°C)	-0.25T ext. ref 2 (°C)	32.38length (m)	temperature (°C)	Stokes	anti-Stokes-747.200	-10.567	-0.251	0.169
-746.185	180.550	-0.120	0.180
-745.171	452.234	-0.082	0.184
-744.156	16.588	0.290	0.233
-743.142	-134.496	0.282	-0.035
-742.127	113.407	-0.281	0.347
-741.112	-91.580	-0.063	0.018
-740.098	-124.638	0.177	0.028
-739.083	800.000	0.017	-0.053
-738.069	44.909	-0.256	0.239
-737.054	443.243	-0.034	-0.077
-736.039	-107.255	-0.294	-0.066
-735.025	361.830	0.020	0.040
-734.010	-200.000	-0.031	-0.181
-732.996	432.391	-0.089	0.197
-731.981	-107.173	0.271	0.061
-730.966	11.244	-0.222	0.173
-729.952	-1.598	-0.299	0.214
-728.937	-115.264	-0.125	-0.024
-727.923	-139.662	0.154	-0.017
-726.908	-200.000	-0.019	-0.167
-725.894	-200.000	0.007	0.064
-724.879	800.000	0.014	0.053
-723.864	-8.921	0.184	0.125
-722.850	-39.026	0.289	-0.155
-721.835	45.024	-0.061	0.058
-720.821	33.553	0.233	-0.205
-719.806	800.000	-0.026	0.111
-718.791	-200.000	-0.060	-0.279
-717.777	-65.603	-0.529	-0.216
-716.762	-141.960	0.316	-0.032
-715.748	109.521	0.265	0.323
-714.733	-26.397	-0.195	-0.116
-713.718	-162.963	-0.315	-0.016
-712.704	235.983	-0.102	-0.171
-711.689	-121.085	0.188	0.032
-710.675	-166.652	0.016	-0.001
-709.660	-151.635	0.146	0.011
-708.645	5.524	-0.233	0.175
-707.631	30.060	0.214	-0.185
-706.616	1.996	-0.201	-0.147
-705.602	-200.000	-0.015	0.119
-704.587	228.214	0.063	-0.104
-703.572	800.000	-0.105	-0.299
-702.558	631.211	-0.114	0.294
-701.543	46.467	0.232	0.218
-700.529	800.000	0.116	-0.376
-699.514	-16.805	-0.188	0.121
-698.499	212.821	-0.058	-0.093
-697.485	62.423	-0.125	0.126
-696.470	-200.000	0.010	-0.275
-695.456	-200.000	-0.019	-0.363
-694.441	-183.362	0.106	-0.002
-693.426	-47.530	0.093	0.046
-692.412	800.000	-0.062	0.175
-691.397	12.554	-0.196	0.154
-690.383	-29.026	-0.090	-0.052
-689.368	363.805	-0.031	0.063
-688.354	-135.763	-0.308	0.037
-687.339	-8.674	0.181	-0.123
-686.324	292.323	0.075	-0.138
-685.310	800.000	-0.052	0.194
-684.295	-87.660	0.382	0.117
-683.281	-67.344	0.119	0.048
-682.266	72.042	-0.335	-0.353
-681.251	-52.764	-0.078	0.037
-680.237	800.000	-0.042	-0.176
-679.222	-15.962	0.147	0.095
-678.208	-96.910	-0.130	-0.035
-677.193	5.375	-0.085	0.064
-676.178	-126.499	-0.235	0.035
-675.164	52.988	-0.128	-0.124
-674.149	-117.537	0.241	0.044
-673.135	-133.489	0.152	0.019
-672.120	-44.496	0.313	0.159
-671.105	71.298	-0.124	0.131
-670.091	-200.000	-0.044	0.220
-669.076	-200.000	-0.032	-0.272
-668.062	22.843	-0.083	0.069
-667.047	194.916	0.055	-0.084
-666.032	-200.000	0.025	0.164
-665.018	354.335	0.147	0.296
-664.003	-200.000	-0.044	0.339
-662.989	-200.000	0.023	-0.306
-661.974	216.195	-0.062	-0.100
-660.959	-96.281	-0.314	-0.084
-659.945	-200.000	0.115	-0.521
-658.930	-125.828	0.043	-0.007
-657.916	-101.946	0.365	0.089
-656.901	-36.540	-0.412	0.225
-655.886	206.316	0.109	0.173
-654.872	67.796	-0.159	-0.165
-653.857	-10.667	-0.262	-0.176
-652.843	-200.000	-0.097	-0.435
-651.828	1.687	-0.133	0.097
-650.814	-52.687	-0.233	-0.109
-649.799	70.660	-0.340	-0.357
-648.784	291.163	-0.054	-0.100
-647.770	-128.721	-0.103	-0.015
-646.755	-190.674	0.089	0.001
-645.741	-200.000	-0.010	-0.050
-644.726	47.382	-0.333	-0.315
-643.711	-46.776	0.259	-0.128
-642.697	-136.647	0.347	0.041
-641.682	-200.000	0.001	-0.009
-640.668	-126.576	0.223	-0.033
-639.653	633.394	0.052	0.133
-638.638	322.566	0.044	-0.085
-637.624	-65.740	0.216	-0.088
-636.609	800.000	-0.022	-0.078
-635.595	-200.000	-0.022	0.246
-634.580	-92.999	-0.216	0.061
-633.565	-144.432	0.113	0.011
-632.551	272.136	0.178	-0.319
-631.536	-2.292	-0.255	-0.181
-630.522	-0.186	-0.065	0.047
-629.507	-72.444	-0.238	-0.089
-628.492	-14.627	0.080	-0.052
-627.478	19.924	0.038	0.031
-626.463	-97.647	-0.200	-0.053
-625.449	800.000	-0.030	-0.087
-624.434	201.996	-0.131	0.204
-623.419	232.721	-0.153	0.254
-622.405	-49.932	0.197	0.094
-621.390	800.000	-0.052	0.148
-620.376	-200.000	-0.110	-0.493
-619.361	143.397	-0.184	0.248
-618.346	137.096	-0.128	0.169
-617.332	-200.000	-0.024	0.203
-616.317	-59.758	0.054	0.024
-615.303	-200.000	-0.037	0.206
-614.288	800.000	0.120	-0.450
-613.273	800.000	-0.030	-0.124
-612.259	-13.075	0.116	-0.076
-611.244	171.902	-0.100	-0.145
-610.230	563.007	-0.074	-0.181
-609.215	-129.768	-0.136	-0.019
-608.201	33.057	0.193	0.169
-607.186	-200.000	0.031	-0.166
-606.171	-59.168	0.302	0.132
-605.157	-129.678	-0.286	0.040
-604.142	-17.270	-0.023	-0.015
-603.128	66.827	-0.051	0.052
-602.113	800.000	-0.069	-0.258
-601.098	278.403	0.212	0.383
-600.084	-200.000	0.009	0.223
-599.069	53.532	0.065	0.063
-598.055	-4.331	0.127	0.089
-597.040	501.135	-0.191	0.445
-596.025	800.000	0.055	-0.227
-595.011	170.947	-0.243	-0.353
-593.996	800.000	0.064	-0.266
-592.982	120.165	0.145	0.182
-591.967	-200.000	0.026	0.357
-590.952	-94.951	0.183	0.050
-589.938	177.176	-0.016	0.024
-588.923	212.020	0.102	-0.163
-587.909	-200.000	-0.267	0.000
-586.894	324.717	-0.265	-0.512
-585.879	-200.000	0.010	-0.273
-584.865	800.000	0.061	-0.251
-583.850	-200.000	-0.025	-0.236
-582.836	-200.000	-0.003	0.101
-581.821	-73.061	-0.273	0.101
-580.806	-19.356	-0.093	-0.058
-579.792	-200.000	-0.001	0.240
-578.777	281.853	-0.016	0.029
-577.763	66.414	-0.165	0.169
-576.748	-200.000	-0.003	-0.079
-575.733	-200.000	-0.033	0.176
-574.719	-200.000	0.002	-0.145
-573.704	168.464	0.120	-0.173
-572.690	28.011	0.343	0.292
-571.675	268.939	-0.031	0.055
-570.661	169.812	-0.070	-0.102
-569.646	-79.919	0.213	0.072
-568.631	-200.000	-0.021	0.261
-567.617	173.666	-0.236	0.344
-566.602	-200.000	0.023	-0.108
-565.588	-74.979	0.083	-0.030
-564.573	-129.071	-0.236	-0.033
-563.558	73.058	0.182	-0.192
-562.544	800.000	-0.046	0.188
-561.529	-57.360	-0.271	0.120
-560.515	-69.838	0.058	0.022
-559.500	40.222	-0.135	0.122
-558.485	-0.277	-0.149	0.107
-557.471	-200.000	-0.110	-0.600
-556.456	-88.854	-0.168	-0.050
-555.442	175.070	0.044	-0.064
-554.427	-200.000	0.064	-0.392
-553.412	14.653	0.324	0.256
-552.398	-74.901	-0.360	0.130
-551.383	-40.467	0.111	-0.058
-550.369	800.000	0.078	-0.216
-549.354	-200.000	-0.019	-0.352
-548.339	-200.000	-0.003	-0.303
-547.325	800.000	0.067	-0.271
-546.310	-90.641	-0.332	-0.097
-545.296	-200.000	0.013	-0.101
-544.281	-200.000	0.001	-0.116
-543.266	-2.881	0.171	-0.121
-542.252	-92.914	0.161	0.045
-541.237	-31.571	0.035	0.020
-540.223	-138.705	-0.164	-0.018
-539.208	717.303	-0.029	0.076
-538.193	2.617	0.373	-0.273
-537.179	-200.000	-0.031	0.186
-536.164	40.823	0.070	0.063
-535.150	254.386	-0.207	-0.357
-534.135	-158.967	0.156	0.009
-533.121	-200.000	0.004	-0.050
-532.106	-92.724	0.257	-0.073
-531.091	-38.560	-0.212	0.113
-530.077	-26.094	-0.096	0.057
-529.062	-55.556	0.170	-0.077
-528.048	-200.000	0.013	-0.061
-527.033	-200.000	-0.005	-0.076
-526.018	-200.000	-0.006	-0.250
-525.004	-102.341	-0.086	0.021
-523.989	-117.571	0.051	0.009
-522.975	-4.140	-0.278	-0.194
-521.960	-200.000	-0.040	0.262
-520.945	800.000	0.081	0.246
-519.931	302.985	0.089	0.166
-518.916	-200.000	-0.017	0.103
-517.902	800.000	0.049	-0.214
-516.887	26.238	0.275	0.231
-515.872	-200.000	-0.028	0.266
-514.858	65.985	-0.036	-0.037
-513.843	-90.376	0.315	0.092
-512.829	-74.462	-0.126	-0.046
-511.814	128.138	-0.082	0.105
-510.799	571.156	-0.072	-0.175
-509.785	-17.580	0.054	-0.034
-508.770	270.323	0.141	-0.250
-507.756	-93.253	-0.231	0.065
-506.741	21.150	-0.133	-0.109
-505.726	-106.014	0.240	0.055
-504.712	-119.843	-0.168	-0.029
-503.697	-28.012	0.077	0.045
-502.683	-4.284	0.353	0.246
-501.668	-200.000	-0.014	0.342
-500.653	-90.482	0.308	0.090
-499.639	183.402	-0.236	-0.352
-498.624	8.404	-0.330	-0.250
-497.610	800.000	0.104	0.299
-496.595	27.930	0.340	0.289
-495.581	-99.383	-0.349	-0.089
-494.566	-85.734	0.098	0.030
-493.551	120.199	0.052	0.065
-492.537	800.000	0.071	-0.262
-491.522	-73.524	0.251	-0.092
-490.508	67.635	0.050	-0.052
-489.493	104.021	0.051	-0.060
-488.478	653.917	-0.112	0.289
-487.464	800.000	-0.064	0.238
-486.449	169.323	0.088	0.126
-485.435	-103.018	-0.369	0.088
-484.420	-27.889	0.246	0.143
-483.405	189.896	-0.113	-0.170
-482.391	117.126	0.234	-0.290
-481.376	501.456	-0.088	0.205
-480.362	-34.620	-0.082	-0.045
-479.347	-200.000	-0.019	-0.314
-478.332	20.636	0.256	-0.208
-477.318	-200.000	-0.002	0.101
-476.303	70.964	-0.099	-0.103
-475.289	152.727	-0.020	0.027
-474.274	33.367	0.055	-0.048
-473.259	140.594	0.271	0.360
-472.245	157.670	0.187	0.261
-471.230	-200.000	0.164	-0.000
-470.216	26.720	-0.110	-0.093
-469.201	-72.095	-0.091	0.034
-468.186	394.741	0.169	-0.354
-467.172	-100.011	0.261	-0.065
-466.157	221.252	-0.085	-0.137
-465.143	-7.105	0.253	0.173
-464.128	-200.000	-0.025	-0.214
-463.113	-200.000	0.012	-0.182
-462.099	-200.000	-0.002	0.064
-461.084	-200.000	0.017	-0.331
-460.070	-82.426	0.092	-0.030
-459.055	74.885	0.065	0.069
-458.040	-200.000	0.010	0.190
-457.026	6.173	0.397	0.296
-456.011	27.405	-0.118	0.100
-454.997	800.000	0.027	0.108
-453.982	-200.000	-0.035	-0.294
-452.968	-38.985	0.269	-0.142
-451.953	800.000	0.079	0.223
-450.938	-121.010	0.423	0.071
-449.924	202.970	0.117	0.181
-448.909	725.456	0.019	0.052
-447.895	-94.928	-0.249	-0.068
-446.880	124.731	0.309	0.391
-445.865	-150.815	0.225	-0.017
-444.851	85.016	0.271	-0.299
-443.836	83.488	-0.060	-0.066
-442.822	77.882	0.107	-0.114
-441.807	-77.143	-0.331	0.116
-440.792	-106.045	-0.469	-0.106
-439.778	-156.538	-0.225	0.014
-438.763	-72.088	-0.139	0.052
-437.749	-132.544	-0.315	-0.041
-436.734	296.049	0.137	-0.251
-435.719	127.570	0.215	-0.274
-434.705	800.000	0.034	-0.108
-433.690	125.601	0.163	-0.206
-432.676	66.640	-0.089	0.091
-431.661	800.000	-0.023	-0.064
-430.646	97.054	0.174	0.200
-429.632	-100.892	0.068	0.017
-428.617	-68.784	-0.302	0.117
-427.603	-56.037	0.243	-0.109
-426.588	189.834	0.142	-0.214
-425.573	-15.600	0.138	-0.088
-424.559	-34.930	-0.186	0.102
-423.544	-61.794	0.145	-0.061
-422.530	800.000	0.064	-0.205
-421.515	-127.410	0.121	-0.018
-420.500	80.541	-0.166	-0.180
-419.486	-44.696	0.137	0.069
-418.471	445.603	-0.038	0.084
-417.457	598.375	0.108	0.270
-416.442	-36.962	0.081	-0.044
-415.428	-21.879	-0.238	-0.145
-414.413	-46.970	0.061	0.030
-413.398	14.870	0.168	0.132
-412.384	800.000	-0.068	0.189
-411.369	-148.097	-0.288	-0.024
-410.355	227.401	0.093	0.152
-409.340	657.653	-0.032	-0.082
-408.325	-134.886	-0.445	0.054
-407.311	-40.989	-0.282	-0.146
-406.296	-20.574	0.184	0.114
-405.282	-63.017	-0.083	0.034
-404.267	-49.641	0.086	-0.041
-403.252	-200.000	0.020	0.297
-402.238	-1.754	0.205	-0.144
-401.223	-11.317	-0.430	0.284
-400.209	17.061	0.083	0.066
-399.194	-35.069	-0.297	-0.162
-398.179	37.103	0.191	0.170
-397.165	-132.497	-0.078	0.010
-396.150	167.450	0.129	0.183
-395.136	-173.229	-0.342	0.010
-394.121	-200.000	-0.012	-0.403
-393.106	15.046	-0.059	-0.047
-392.092	-6.286	-0.227	-0.155
-391.077	684.684	0.168	0.440
-390.063	-200.000	0.018	-0.165
-389.048	48.555	-0.053	-0.050
-388.033	49.576	0.202	0.191
-387.019	154.009	-0.284	0.390
-386.004	-200.000	0.013	-0.100
-384.990	111.886	0.037	-0.045
-383.975	-200.000	0.012	-0.059
-382.960	-5.330	-0.259	-0.178
-381.946	97.187	0.071	-0.082
-380.931	112.655	-0.191	-0.232
-379.917	-200.000	0.017	0.245
-378.902	-89.258	-0.103	-0.030
-377.888	-133.794	0.081	0.010
-376.873	-110.710	-0.347	0.072
-375.858	-200.000	0.068	0.299
-374.844	359.220	0.079	0.159
-373.829	-122.496	-0.482	0.079
-372.815	-113.680	-0.445	0.087
-371.800	-200.000	-0.002	-0.118
-370.785	119.535	0.161	0.200
-369.771	-51.330	-0.083	-0.039
-368.756	-141.677	0.254	-0.026
-367.742	-157.620	-0.237	-0.014
-366.727	-200.000	0.007	0.098
-365.712	-20.153	0.040	0.025
-364.698	173.835	-0.133	0.193
-363.683	118.613	-0.063	0.078
-362.669	-200.000	0.006	-0.046
-361.654	578.036	0.109	0.267
-360.639	-200.000	0.051	0.230
-359.625	-49.994	0.307	0.146
-358.610	-116.122	-0.308	-0.057
-357.596	800.000	0.081	-0.266
-356.581	800.000	0.040	-0.112
-355.566	119.802	-0.163	-0.202
-354.552	203.121	-0.170	-0.263
-353.537	-137.433	0.414	0.047
-352.523	-72.302	-0.131	0.049
-351.508	66.022	0.047	-0.048
-350.493	-114.709	-0.314	-0.060
-349.479	18.917	0.374	0.300
-348.464	-99.053	-0.251	-0.064
-347.450	-200.000	0.003	-0.245
-346.435	637.936	0.210	0.534
-345.420	-66.203	-0.143	0.057
-344.406	-200.000	0.314	0.001
-343.391	382.753	-0.148	-0.305
-342.377	82.231	0.243	-0.263
-341.362	-98.779	0.155	0.039
-340.348	-102.457	-0.249	0.060
-339.333	-200.000	-0.010	0.049
-338.318	-41.182	-0.136	-0.070
-337.304	186.899	-0.072	-0.107
-336.289	214.910	0.339	0.538
-335.275	47.791	0.126	-0.118
-334.260	-6.903	0.078	-0.053
-333.245	124.851	0.139	-0.175
-332.231	800.000	0.071	-0.252
-331.216	-26.160	0.138	0.081
-330.202	-127.838	-0.191	0.028
-329.187	13.682	0.168	0.130
-328.172	132.682	0.233	0.300
-327.158	-10.959	-0.124	-0.082
-326.143	108.268	0.130	-0.155
-325.129	-137.797	0.278	0.031
-324.114	178.067	0.184	0.269
-323.099	-150.397	-0.138	0.011
-322.085	23.771	-0.307	0.253
-321.070	-153.757	-0.073	-0.005
-320.056	37.021	-0.131	-0.116
-319.041	-28.709	0.222	0.128
-318.026	-85.269	0.090	0.028
-317.012	-200.000	-0.034	-0.332
-315.997	-94.017	-0.370	-0.101
-314.983	-145.970	-0.467	0.041
-313.968	-43.092	-0.318	0.161
-312.953	92.959	-0.331	-0.373
-311.939	334.073	0.200	-0.387
-310.924	-3.880	0.144	-0.100
-309.910	-187.823	-0.040	-0.001
-308.895	-8.330	0.058	0.039
-307.880	-200.000	0.040	0.473
-306.866	203.596	0.029	-0.045
-305.851	-106.209	0.198	-0.044
-304.837	-51.362	0.060	-0.028
-303.822	-6.862	0.309	-0.210
-302.807	207.869	0.103	-0.161
-301.793	361.912	0.097	0.194
-300.778	-200.000	-0.036	0.250
-299.764	-48.568	-0.316	-0.152
-298.749	-200.000	0.034	-0.172
-297.735	-155.511	0.330	-0.021
-296.720	83.580	-0.203	0.221
-295.705	44.649	-0.090	0.083
-294.691	-18.688	0.158	0.098
-293.676	221.132	-0.010	-0.016
-292.662	-29.891	0.077	0.044
-291.647	40.367	-0.180	0.162
-290.632	-200.000	-0.024	-0.248
-289.618	800.000	0.028	-0.114
-288.603	-93.791	-0.353	-0.097
-287.589	127.445	0.264	0.335
-286.574	800.000	-0.021	-0.090
-285.559	-170.106	0.132	0.005
-284.545	-164.286	-0.287	-0.013
-283.530	-107.353	-0.167	-0.037
-282.516	37.166	-0.266	-0.235
-281.501	-200.000	0.168	0.001
-280.486	800.000	0.080	-0.306
-279.472	712.939	-0.060	0.159
-278.457	-91.949	0.470	0.133
-277.443	800.000	0.078	0.291
-276.428	-200.000	0.015	-0.210
-275.413	342.591	0.071	0.139
-274.399	800.000	0.042	0.181
-273.384	-200.000	0.006	-0.431
-272.370	244.084	-0.201	-0.337
-271.355	-194.345	0.341	0.003
-270.340	182.437	0.177	0.261
-269.326	690.640	-0.103	-0.270
-268.311	618.817	0.109	-0.273
-267.297	-89.383	-0.180	0.053
-266.282	-34.391	-0.156	0.086
-265.267	-11.623	-0.420	0.276
-264.253	-200.000	0.017	0.220
-263.238	43.706	0.098	0.089
-262.224	-90.113	-0.240	-0.070
-261.209	800.000	-0.046	0.149
-260.195	-55.281	-0.254	0.114
-259.180	-68.185	-0.192	0.075
-258.165	-100.975	0.211	0.052
-257.151	-200.000	0.042	-0.325
-256.136	49.491	0.041	-0.039
-255.122	-84.086	0.403	0.128
-254.107	2.534	0.157	0.113
-253.092	13.999	0.088	0.069
-252.078	-69.098	0.236	-0.090
-251.063	-200.000	-0.025	-0.218
-250.049	38.320	-0.049	-0.043
-249.034	-200.000	-0.046	0.301
-248.019	-90.584	0.154	-0.044
-247.005	800.000	-0.033	0.134
-245.990	-200.000	0.002	0.169
-244.976	156.468	-0.340	0.469
-243.961	-200.000	0.044	-0.272
-242.946	89.554	0.299	0.332
-241.932	-37.916	-0.224	0.119
-240.917	-49.746	-0.451	-0.214
-239.903	-45.008	0.350	0.174
-238.888	422.096	0.108	0.232
-237.873	-200.000	-0.013	0.068
-236.859	-59.117	0.146	-0.063
-235.844	-16.190	0.157	-0.099
-234.830	-200.000	0.015	-0.346
-233.815	-121.410	-0.147	-0.024
-232.800	-30.922	0.364	-0.205
-231.786	33.019	-0.283	0.244
-230.771	-143.443	0.080	-0.008
-229.757	-198.493	-0.305	-0.002
-228.742	200.559	0.140	0.214
-227.727	-5.901	0.306	0.209
-226.713	435.704	-0.093	0.202
-225.698	311.061	0.175	0.327
-224.684	-112.999	-0.551	0.109
-223.669	-112.639	-0.018	-0.004
-222.655	800.000	-0.039	0.118
-221.640	-156.986	0.084	0.005
-220.625	80.585	0.105	-0.112
-219.611	-46.895	-0.253	0.123
-218.596	-96.675	0.170	0.045
-217.582	-28.954	-0.195	0.112
-216.567	127.701	0.117	0.148
-215.552	-12.720	0.136	0.088
-214.538	800.000	-0.077	-0.212
-213.523	-200.000	0.003	-0.142
-212.509	-112.592	0.566	0.112
-211.494	-200.000	-0.026	-0.222
-210.479	-94.049	-0.340	0.093
-209.465	-22.850	-0.058	0.035
-208.450	-145.348	0.154	0.014
-207.436	-46.040	-0.324	0.159
-206.421	-200.000	-0.020	0.230
-205.406	-140.847	-0.131	-0.013
-204.392	-33.721	0.191	-0.105
-203.377	-43.053	-0.241	0.121
-202.363	-2.374	0.231	-0.162
-201.348	-159.230	-0.256	-0.014
-200.333	800.000	-0.057	-0.160
-199.319	-200.000	0.029	0.140
-198.304	-103.124	0.256	0.060
-197.290	139.275	0.095	0.125
-196.275	-23.043	-0.363	0.218
-195.260	-21.639	-0.039	-0.024
-194.246	-13.696	0.266	-0.172
-193.231	-200.000	0.021	-0.197
-192.217	-200.000	-0.025	-0.122
-191.202	202.393	-0.099	-0.152
-190.187	103.958	0.073	-0.086
-189.173	-130.670	0.211	-0.028
-188.158	-200.000	0.035	-0.202
-187.144	-20.857	0.230	0.140
-186.129	-200.000	-0.013	-0.115
-185.114	89.112	0.119	0.132
-184.100	173.945	0.094	0.135
-183.085	-75.937	0.088	-0.031
-182.071	800.000	-0.035	0.097
-181.056	148.374	0.112	-0.151
-180.042	93.562	0.161	0.181
-179.027	-200.000	-0.158	-0.001
-178.012	800.000	-0.075	-0.296
-176.998	-130.933	-0.294	-0.039
-175.983	249.932	-0.043	-0.072
-174.969	339.104	-0.125	-0.243
-173.954	199.231	-0.201	-0.307
-172.939	255.929	-0.060	-0.103
-171.925	21.397	0.184	0.149
-170.910	800.000	-0.029	0.080
-169.896	189.085	-0.142	-0.212
-168.881	225.250	-0.139	0.223
-167.866	800.000	-0.061	0.190
-166.852	-68.608	0.146	-0.056
-165.837	132.591	0.297	-0.381
-164.823	-151.055	-0.312	0.023
-163.808	8.410	-0.063	0.047
-162.793	147.090	0.073	0.098
-161.779	-21.043	0.308	0.187
-160.764	79.592	-0.045	0.048
-159.750	-200.000	-0.022	-0.169
-158.735	-12.934	0.248	0.161
-157.720	-9.182	0.028	-0.018
-156.706	800.000	-0.056	0.171
-155.691	-200.000	0.046	0.366
-154.677	-104.464	-0.086	0.020
-153.662	-114.099	-0.377	0.072
-152.647	-200.000	-0.048	-0.287
-151.633	-123.892	-0.067	0.010
-150.618	33.123	0.358	0.309
-149.604	800.000	0.067	-0.251
-148.589	-113.428	-0.158	-0.031
-147.574	49.093	-0.110	-0.103
-146.560	20.086	0.100	0.080
-145.545	103.812	0.051	0.060
-144.531	-200.000	-0.005	-0.092
-143.516	-95.067	0.287	-0.077
-142.502	147.817	0.134	0.179
-141.487	407.509	0.063	-0.132
-140.472	-79.862	-0.229	0.077
-139.458	26.297	0.074	0.062
-138.443	-200.000	0.006	-0.205
-137.429	-54.718	-0.200	0.090
-136.414	-15.222	0.186	0.118
-135.399	-200.000	0.037	0.255
-134.385	-29.280	-0.146	-0.083
-133.370	-200.000	0.017	0.155
-132.356	800.000	0.105	0.345
-131.341	800.000	0.096	0.279
-130.326	-105.592	0.209	-0.047
-129.312	-169.553	0.178	-0.006
-128.297	-85.911	-0.086	-0.026
-127.283	-99.528	-0.163	0.041
-126.268	-200.000	-0.000	0.120
-125.253	317.927	-0.143	-0.269
-124.239	-200.000	-0.022	0.160
-123.224	-22.165	0.042	-0.025
-122.210	-200.000	-0.022	-0.163
-121.195	90.117	0.178	0.197
