DTS Sentinel unit serial number:	SN413079Multiplexer serial number:	ORYXHardware model number:	OX4-SRSoftware version number:	ORYX F/W v4.00 Oryx Data Collector v3.7.2.0data status	okinstallation	princeton_trtdifferential loss correction	single-endedforward channel	channel 2reverse channel	N/Adate	2019/09/12time	15:57:11forward acquisition time	60.00reverse acquisition time	0.00gamma	496.2192k internal	0.2309k external	0.2309temperature offset calibration	1.0104default loss term (dB/km)	0.3790temperature slope calibration	1.0000multiplexer offset coefficient	1.0000multiplexer slope coefficient	1.0000fibre end	0.00T internal ref (°C)	39.20T ext. ref 1 (°C)	2.48T ext. ref 2 (°C)	32.18length (m)	temperature (°C)	Stokes	anti-Stokes-747.200	-74.182	0.315	-0.116
-746.185	-32.987	0.070	0.039
-745.171	-70.140	0.271	0.105
-744.156	-107.611	-0.113	-0.025
-743.142	433.579	0.088	0.194
-742.127	140.673	-0.085	-0.114
-741.112	392.133	-0.165	0.347
-740.098	-200.000	0.013	-0.178
-739.083	-84.547	0.317	0.102
-738.069	800.000	-0.023	0.102
-737.054	-57.073	0.407	-0.182
-736.039	280.825	0.145	-0.264
-735.025	-71.929	0.192	-0.072
-734.010	117.950	-0.223	-0.279
-732.996	-200.000	-0.027	-0.340
-731.981	64.512	-0.178	-0.182
-730.966	-6.426	0.209	-0.145
-729.952	153.622	-0.068	-0.094
-728.937	31.349	-0.063	-0.055
-727.923	340.693	-0.104	0.207
-726.908	800.000	0.033	0.106
-725.894	-33.024	0.251	-0.141
-724.879	800.000	-0.055	-0.204
-723.864	-102.312	0.075	-0.018
-722.850	65.120	0.093	-0.095
-721.835	703.874	-0.117	-0.313
-720.821	-200.000	0.074	-0.614
-719.806	-200.000	0.038	0.210
-718.791	-200.000	0.039	0.444
-717.777	257.669	-0.172	-0.301
-716.762	203.721	0.019	-0.030
-715.748	272.993	-0.045	-0.080
-714.733	603.588	-0.052	0.131
-713.718	800.000	-0.045	-0.132
-712.704	-168.562	-0.289	-0.011
-711.689	1.037	0.173	-0.126
-710.675	-200.000	-0.059	-0.266
-709.660	-200.000	-0.046	-0.209
-708.645	-200.000	-0.029	-0.147
-707.631	487.085	0.020	-0.046
-706.616	-200.000	-0.016	0.083
-705.602	-2.448	-0.220	-0.156
-704.587	22.754	-0.020	0.016
-703.572	-120.076	0.139	0.024
-702.558	-30.082	-0.222	0.128
-701.543	150.727	-0.213	-0.294
-700.529	-149.037	0.205	0.017
-699.514	-135.553	0.080	0.010
-698.499	21.141	-0.225	-0.185
-697.485	800.000	-0.086	0.318
-696.470	800.000	-0.038	0.134
-695.456	-69.484	-0.148	-0.058
-694.441	800.000	-0.083	-0.346
-693.426	-96.664	-0.068	-0.018
-692.412	-78.415	0.128	0.044
-691.397	138.931	-0.223	-0.297
-690.383	393.353	-0.030	-0.064
-689.368	800.000	-0.037	0.107
-688.354	33.699	0.346	-0.305
-687.339	-200.000	0.007	0.295
-686.324	292.215	-0.053	-0.098
-685.310	-2.418	-0.243	0.172
-684.295	26.295	-0.279	-0.236
-683.281	-200.000	0.020	-0.447
-682.266	107.158	0.040	-0.048
-681.251	760.439	-0.041	-0.113
-680.237	69.865	-0.070	-0.073
-679.222	800.000	-0.097	-0.307
-678.208	800.000	-0.052	-0.226
-677.193	-77.089	0.192	0.068
-676.178	-37.742	-0.230	0.124
-675.164	62.906	0.048	0.049
-674.149	313.761	-0.094	0.179
-673.135	-171.946	-0.326	-0.011
-672.120	-152.311	0.031	-0.002
-671.105	-150.742	-0.178	-0.014
-670.091	-200.000	-0.010	0.077
-669.076	356.875	-0.158	0.318
-668.062	-38.673	-0.305	0.163
-667.047	-27.393	0.063	0.037
-666.032	800.000	-0.021	0.065
-665.018	-96.140	-0.122	-0.033
-664.003	239.142	-0.218	0.367
-662.989	-200.000	-0.016	-0.195
-661.974	-200.000	-0.007	-0.253
-660.959	29.688	-0.052	0.045
-659.945	65.642	-0.106	-0.109
-658.930	-200.000	-0.001	0.023
-657.916	-170.275	-0.231	0.008
-656.901	419.066	-0.141	0.304
-655.886	-38.117	-0.305	0.164
-654.872	-200.000	-0.011	-0.083
-653.857	-101.909	-0.114	0.028
-652.843	540.385	0.121	0.292
-651.828	800.000	-0.056	-0.184
-650.814	-200.000	-0.029	0.150
-649.799	-22.258	-0.238	-0.146
-648.784	70.211	-0.083	-0.086
-647.770	755.617	0.089	0.245
-646.755	-133.725	0.153	-0.019
-645.741	-54.063	-0.230	-0.106
-644.726	-32.809	0.143	-0.080
-643.711	-200.000	-0.004	-0.256
-642.697	-76.635	0.228	-0.081
-641.682	-200.000	0.005	-0.044
-640.668	398.056	-0.159	-0.336
-639.653	62.907	0.041	0.042
-638.638	-176.392	-0.115	-0.003
-637.624	-200.000	-0.001	0.093
-636.609	-172.383	0.305	-0.010
-635.595	113.176	0.111	-0.136
-634.580	-54.022	-0.076	-0.035
-633.565	-182.231	-0.382	0.007
-632.551	-92.627	-0.265	-0.075
-631.536	30.693	-0.120	0.104
-630.522	800.000	0.139	0.500
-629.507	47.873	-0.176	-0.167
-628.492	678.857	-0.105	-0.275
-627.478	143.855	-0.093	-0.125
-626.463	-90.728	0.233	-0.068
-625.449	800.000	0.044	-0.191
-624.434	373.595	0.019	-0.038
-623.419	-200.000	0.029	-0.171
-622.405	639.177	0.184	-0.474
-621.390	129.087	0.111	0.143
-620.376	590.310	0.149	0.372
-619.361	77.880	-0.266	0.287
-618.346	-98.200	-0.149	-0.039
-617.332	778.693	-0.056	-0.154
-616.317	-111.652	0.183	-0.037
-615.303	54.804	-0.160	0.156
-614.288	-91.412	0.166	-0.048
-613.273	-200.000	-0.015	-0.140
-612.259	-200.000	0.001	0.067
-611.244	365.134	0.102	0.208
-610.230	167.772	-0.037	0.054
-609.215	-13.564	0.305	0.200
-608.201	-78.747	0.208	-0.072
-607.186	-65.799	-0.334	-0.135
-606.171	0.287	0.172	-0.124
-605.157	-88.615	-0.180	-0.054
-604.142	35.039	-0.074	0.065
-603.128	-107.419	-0.128	-0.028
-602.113	12.604	-0.202	0.158
-601.098	-43.004	0.266	0.136
-600.084	-200.000	0.014	0.100
-599.069	175.909	0.257	-0.376
-598.055	-200.000	-0.002	0.098
-597.040	-66.967	0.546	0.218
-596.025	-48.940	-0.183	-0.089
-595.011	66.960	-0.268	-0.276
-593.996	120.281	-0.047	0.059
-592.982	172.137	-0.180	0.261
-591.967	-200.000	0.004	0.241
-590.952	-13.867	0.234	0.153
-589.938	-130.776	-0.064	-0.009
-588.923	10.739	0.180	-0.139
-587.909	-117.082	0.072	-0.013
-586.894	558.205	-0.103	0.250
-585.879	-200.000	0.039	-0.369
-584.865	19.130	-0.053	-0.043
-583.850	800.000	0.036	0.150
-582.836	191.907	-0.087	-0.132
-581.821	132.407	-0.095	-0.123
-580.806	9.884	-0.243	0.186
-579.792	800.000	-0.082	0.287
-578.777	800.000	-0.029	0.105
-577.763	800.000	-0.078	0.253
-576.748	-102.366	0.217	0.052
-575.733	110.345	0.037	0.045
-574.719	88.641	-0.134	-0.151
-573.704	-4.953	0.090	0.062
-572.690	-51.927	0.112	-0.053
-571.675	800.000	0.076	0.285
-570.661	-137.428	0.243	-0.028
-569.646	18.224	-0.328	-0.264
-568.631	229.285	-0.160	0.264
-567.617	472.877	-0.026	-0.060
-566.602	-27.596	0.173	0.101
-565.588	259.829	-0.035	0.060
-564.573	90.623	-0.190	-0.214
-563.558	-112.257	-0.159	-0.032
-562.544	-23.778	0.135	0.082
-561.529	137.821	0.192	-0.253
-560.515	800.000	0.075	0.250
-559.500	-55.331	-0.236	-0.107
-558.485	320.480	-0.086	-0.164
-557.471	-21.552	-0.166	-0.102
-556.456	-124.243	-0.103	-0.016
-555.442	211.184	-0.174	0.276
-554.427	172.364	0.101	0.147
-553.412	508.746	-0.043	-0.102
-552.398	35.501	0.092	0.082
-551.383	-116.752	0.294	-0.054
-550.369	-118.453	0.364	0.065
-549.354	-200.000	0.023	-0.139
-548.339	-124.369	-0.090	0.014
-547.325	-132.163	0.110	0.014
-546.310	172.699	-0.061	0.088
-545.296	-200.000	-0.006	0.286
-544.281	29.406	-0.166	-0.143
-543.266	-200.000	-0.008	-0.162
-542.252	-24.045	-0.163	0.098
-541.237	79.655	0.072	0.077
-540.223	-42.941	0.065	0.033
-539.208	-94.663	0.197	-0.054
-538.193	145.210	0.152	-0.205
-537.179	-27.432	0.244	-0.143
-536.164	-50.865	0.056	0.027
-535.150	-33.686	0.208	0.116
-534.135	-78.861	0.230	0.079
-533.121	-200.000	-0.013	0.220
-532.106	239.902	0.127	0.213
-531.091	128.937	-0.087	0.112
-530.077	293.315	0.025	-0.045
-529.062	800.000	0.152	-0.441
-528.048	-139.711	-0.359	-0.038
-527.033	-200.000	0.044	-0.354
-526.018	359.407	0.076	0.153
-525.004	-33.736	-0.118	-0.066
-523.989	-41.819	0.198	-0.102
-522.975	-35.870	0.191	0.104
-521.960	-71.197	0.364	-0.138
-520.945	5.093	-0.170	-0.126
-519.931	-121.115	0.013	-0.002
-518.916	-200.000	-0.066	-0.345
-517.902	-48.854	-0.208	0.100
-516.887	147.024	0.062	0.084
-515.872	-200.000	-0.036	-0.261
-514.858	800.000	-0.107	-0.357
-513.843	175.983	-0.213	-0.312
-512.829	16.487	0.259	0.206
-511.814	317.051	-0.125	-0.238
-510.799	-31.646	-0.276	-0.156
-509.785	-39.600	-0.199	-0.105
-508.770	-120.905	0.210	-0.036
-507.756	109.982	0.108	-0.130
-506.741	319.855	-0.055	0.105
-505.726	-73.323	-0.190	0.070
-504.712	-94.095	-0.105	0.029
-503.697	324.407	-0.058	0.111
-502.683	-169.898	-0.153	-0.006
-501.668	800.000	-0.023	0.101
-500.653	-109.242	-0.132	0.028
-499.639	-103.482	0.203	-0.048
-498.624	323.348	0.104	0.199
-497.610	117.714	-0.212	0.262
-496.595	122.272	-0.291	0.365
-495.581	411.499	-0.051	0.109
-494.566	-187.553	-0.218	0.003
-493.551	153.414	-0.225	-0.310
-492.537	-26.453	0.198	0.117
-491.522	44.318	-0.055	-0.051
-490.508	161.135	-0.066	0.093
-489.493	-200.000	0.036	0.250
-488.478	-200.000	0.003	-0.091
-487.464	299.331	-0.097	-0.180
-486.449	83.330	-0.241	-0.264
-485.435	0.699	-0.292	0.210
-484.420	-119.390	0.414	-0.072
-483.405	91.367	0.216	0.244
-482.391	-31.828	0.232	0.131
-481.376	-55.907	0.184	0.083
-480.362	800.000	0.023	0.086
-479.347	-10.414	0.144	0.096
-478.332	84.522	-0.127	0.139
-477.318	-200.000	0.023	-0.125
-476.303	662.073	0.096	-0.248
-475.289	-63.501	0.111	0.046
-474.274	-200.000	0.022	-0.139
-473.259	136.600	-0.112	-0.147
-472.245	132.344	-0.109	0.141
-471.230	-14.376	0.267	0.173
-470.216	800.000	0.043	0.142
-469.201	-52.020	0.211	0.099
-468.186	-200.000	0.053	0.254
-467.172	-80.521	-0.228	0.077
-466.157	246.208	0.090	0.152
-465.143	88.725	0.345	0.385
-464.128	-60.284	-0.367	0.157
-463.113	401.164	-0.035	0.074
-462.099	-200.000	0.042	0.235
-461.084	800.000	-0.068	0.294
-460.070	378.413	-0.033	-0.068
-459.055	3.938	0.256	-0.188
-458.040	-12.557	0.169	-0.111
-457.026	800.000	-0.063	-0.229
-456.011	-106.359	-0.250	-0.056
-454.997	1.848	0.167	-0.121
-453.982	179.547	0.037	-0.055
-452.968	25.081	0.166	-0.138
-451.953	800.000	0.069	-0.264
-450.938	-33.127	-0.164	0.091
-449.924	44.590	0.204	0.188
-448.909	229.825	0.277	0.454
-447.895	66.169	0.055	-0.056
-446.880	-112.577	0.335	0.067
-445.865	-200.000	0.053	0.331
-444.851	-65.895	-0.195	-0.078
-443.836	557.062	-0.023	-0.057
-442.822	-52.079	0.159	-0.074
-441.807	800.000	-0.109	0.331
-440.792	-200.000	-0.007	0.270
-439.778	-10.925	-0.320	-0.212
-438.763	132.137	0.364	0.471
-437.749	0.227	0.233	-0.167
-436.734	237.695	-0.137	-0.228
-435.719	-200.000	0.052	0.230
-434.705	40.501	-0.253	-0.229
-433.690	278.071	-0.027	-0.048
-432.676	-117.799	-0.208	0.037
-431.661	68.922	-0.279	-0.287
-430.646	-129.502	0.124	-0.017
-429.632	-14.610	-0.247	-0.159
-428.617	70.750	-0.254	0.264
-427.603	195.785	0.122	0.186
-426.588	-147.460	-0.187	0.016
-425.573	232.803	-0.083	0.138
-424.559	7.356	0.081	0.061
-423.544	14.460	0.174	0.136
-422.530	800.000	-0.108	0.336
-421.515	62.524	-0.312	-0.313
-420.500	-33.301	0.108	-0.060
-419.486	113.463	-0.245	0.298
-418.471	-55.707	0.195	0.087
-417.457	23.874	-0.115	0.095
-416.442	77.076	-0.224	-0.239
-415.428	-102.920	0.009	-0.002
-414.413	-0.450	0.122	-0.087
-413.398	-200.000	-0.046	0.269
-412.384	-74.251	-0.143	0.052
-411.369	-79.502	0.434	-0.147
-410.355	-78.307	0.063	0.022
-409.340	-200.000	0.042	0.247
-408.325	-200.000	-0.086	-0.401
-407.311	163.605	0.078	-0.110
-406.296	89.200	-0.134	-0.149
-405.282	265.532	0.163	0.286
-404.267	800.000	-0.045	-0.158
-403.252	-48.141	-0.087	0.042
-402.238	-91.967	-0.268	-0.076
-401.223	649.044	0.037	0.094
-400.209	-29.668	-0.205	-0.117
-399.194	800.000	-0.120	-0.518
-398.179	-3.623	-0.326	-0.227
-397.165	-20.765	0.211	0.130
-396.150	91.313	-0.045	-0.051
-395.136	800.000	-0.017	0.065
-394.121	-86.333	-0.198	-0.061
-393.106	268.422	-0.100	0.176
-392.092	313.939	0.139	0.261
-391.077	-138.152	0.098	-0.011
-390.063	-200.000	-0.027	0.163
-389.048	106.694	-0.272	0.324
-388.033	277.091	0.024	-0.043
-387.019	78.745	0.196	0.210
-386.004	-16.668	-0.191	-0.121
-384.990	7.671	-0.487	-0.365
-383.975	540.280	-0.042	0.101
-382.960	800.000	0.045	-0.147
-381.946	485.268	0.064	-0.146
-380.931	-165.018	0.079	0.004
-379.917	43.634	-0.338	0.310
-378.902	520.552	-0.135	0.316
-377.888	83.074	0.220	-0.240
-376.873	-50.332	0.099	0.047
-375.858	42.211	-0.151	-0.137
-374.844	-200.000	0.045	-0.198
-373.829	23.583	0.090	-0.074
-372.815	800.000	-0.134	-0.416
-371.800	105.764	0.158	-0.187
-370.785	-113.072	0.290	-0.057
-369.771	317.827	-0.092	-0.175
-368.756	2.577	-0.061	-0.045
-367.742	-53.761	-0.118	0.054
-366.727	-200.000	-0.016	-0.150
-365.712	800.000	-0.149	-0.439
-364.698	183.205	0.115	0.170
-363.683	540.892	0.044	-0.105
-362.669	-188.776	-0.161	-0.002
-361.654	-102.802	-0.143	-0.034
-360.639	-200.000	0.033	-0.164
-359.625	-70.934	-0.241	-0.091
-358.610	-141.838	-0.233	-0.023
-357.596	726.834	0.125	-0.334
-356.581	-15.244	-0.098	-0.063
-355.566	-200.000	-0.000	-0.151
-354.552	709.094	0.134	0.355
-353.537	-120.778	-0.368	-0.062
-352.523	-41.545	-0.141	-0.072
-351.508	-199.653	0.387	-0.002
-350.493	157.614	-0.197	0.273
-349.479	-17.880	0.136	0.085
-348.464	-114.301	0.392	-0.076
-347.450	-169.674	0.141	-0.005
-346.435	-30.116	-0.075	-0.043
-345.420	-15.851	0.143	-0.091
-344.406	8.779	-0.296	-0.223
-343.391	-76.221	-0.151	-0.053
-342.377	-135.878	0.332	-0.039
-341.362	-106.784	-0.211	-0.047
-340.348	-43.948	-0.145	-0.073
-339.333	-94.126	0.221	-0.060
-338.318	632.126	-0.112	-0.284
-337.304	800.000	0.116	-0.483
-336.289	9.654	-0.156	-0.118
-335.275	46.410	-0.091	-0.084
-334.260	-200.000	0.005	0.259
-333.245	-94.718	0.219	-0.060
-332.231	260.147	0.159	-0.275
-331.216	-9.256	-0.313	0.209
-330.202	10.227	-0.037	-0.028
-329.187	588.255	-0.084	0.206
-328.172	314.178	0.122	0.230
-327.158	-200.000	0.023	-0.110
-326.143	643.422	-0.077	0.196
-325.129	-118.119	0.072	-0.013
-324.114	800.000	-0.087	-0.309
-323.099	800.000	0.028	-0.111
-322.085	-200.000	0.057	0.256
-321.070	33.281	0.133	-0.115
-320.056	-200.000	-0.009	0.150
-319.041	26.254	0.125	0.105
-318.026	341.247	-0.042	-0.083
-317.012	310.257	0.167	0.312
-315.997	47.116	0.073	0.068
-314.983	-59.410	-0.310	-0.133
-313.968	667.786	-0.060	0.155
-312.953	-25.937	0.170	-0.100
-311.939	-200.000	0.005	-0.224
-310.924	-37.895	-0.075	0.040
-309.910	-200.000	-0.005	-0.233
-308.895	-52.323	0.200	-0.092
-307.880	-62.439	0.262	-0.109
-306.866	-200.000	-0.002	-0.101
-305.851	44.670	-0.145	-0.133
-304.837	-56.170	-0.159	0.071
-303.822	-200.000	-0.006	0.108
-302.807	-18.312	-0.161	0.101
-301.793	30.395	0.268	-0.229
-300.778	-200.000	0.020	0.159
-299.764	358.763	0.025	-0.051
-298.749	99.455	-0.174	0.201
-297.735	-59.227	0.184	0.079
-296.720	-104.551	0.318	0.073
-295.705	-74.800	0.118	-0.042
-294.691	800.000	0.010	-0.028
-293.676	240.321	-0.080	-0.133
-292.662	369.827	-0.046	0.093
-291.647	12.808	-0.182	0.140
-290.632	-26.595	0.246	0.144
-289.618	229.577	-0.159	-0.259
-288.603	800.000	0.030	0.126
-287.589	20.373	0.101	-0.082
-286.574	484.751	0.164	0.373
-285.559	-20.383	-0.126	-0.077
-284.545	-200.000	-0.015	-0.119
-283.530	379.574	-0.056	0.114
-282.516	-126.114	0.223	0.033
-281.501	88.092	-0.102	0.113
-280.486	-108.410	0.256	0.055
-279.472	800.000	0.044	0.178
-278.457	-34.419	-0.244	0.133
-277.443	267.758	0.054	0.095
-276.428	158.213	0.125	-0.174
-275.413	-200.000	-0.004	0.221
-274.399	257.056	-0.097	0.167
-273.384	-200.000	-0.008	-0.077
-272.370	-29.848	-0.221	0.126
-271.355	-77.037	0.144	-0.050
-270.340	19.164	-0.037	0.029
-269.326	-51.075	-0.207	0.097
-268.311	112.255	0.083	0.100
-267.297	199.379	-0.130	-0.198
-266.282	-43.244	0.304	-0.154
-265.267	-200.000	0.035	0.304
-264.253	-43.370	0.093	0.047
-263.238	-200.000	0.038	-0.315
-262.224	-168.552	0.470	-0.018
-261.209	-29.666	-0.035	-0.020
-260.195	75.356	0.229	-0.241
-259.180	-82.903	0.111	0.036
-258.165	-200.000	0.033	0.188
-257.151	-99.221	-0.073	0.019
-256.136	-20.195	0.222	-0.136
-255.122	-67.408	0.352	0.138
-254.107	34.500	0.094	-0.082
-253.092	-32.740	-0.320	-0.177
-252.078	378.485	-0.164	-0.333
-251.063	284.605	-0.070	0.126
-250.049	236.999	0.172	0.285
-249.034	296.779	-0.090	0.165
-248.019	563.295	0.077	0.187
-247.005	285.736	0.059	-0.106
-245.990	69.016	-0.287	-0.294
-244.976	-10.175	-0.205	0.136
-243.961	-135.356	0.213	-0.025
-242.946	188.952	-0.031	0.047
-241.932	800.000	-0.014	0.042
-240.917	56.881	0.143	0.139
-239.903	-123.379	0.147	0.023
-238.888	-9.380	0.147	-0.098
-237.873	175.843	-0.080	-0.116
-236.859	-43.777	0.069	-0.034
-235.844	-200.000	-0.001	-0.191
-234.830	-69.075	0.239	0.092
-233.815	236.587	-0.126	0.208
-232.800	432.812	0.097	0.210
-231.786	-22.818	0.225	0.135
-230.771	-80.127	0.109	-0.036
-229.757	456.845	0.035	0.078
-228.742	-200.000	0.009	0.213
-227.727	403.199	0.051	0.106
-226.713	-200.000	-0.011	-0.052
-225.698	-200.000	0.001	-0.230
-224.684	-16.321	-0.125	-0.079
-223.669	-200.000	0.021	0.105
-222.655	-200.000	-0.019	-0.123
-221.640	99.736	-0.062	-0.071
-220.625	16.949	0.176	0.139
-219.611	-38.802	-0.239	0.126
-218.596	-178.609	-0.186	0.004
-217.582	-41.301	-0.287	0.147
-216.567	-200.000	0.029	0.426
-215.552	552.883	-0.055	-0.133
-214.538	90.474	-0.237	-0.264
-213.523	-40.828	0.086	-0.044
-212.509	26.292	-0.307	0.255
-211.494	-200.000	-0.041	-0.295
-210.479	117.057	-0.091	-0.111
-209.465	213.359	0.087	0.137
-208.450	-109.524	-0.090	-0.019
-207.436	635.278	-0.066	-0.166
-206.421	-65.066	0.249	-0.100
-205.406	-154.090	-0.333	-0.022
-204.392	338.221	0.072	-0.138
-203.377	-56.237	-0.067	0.029
-202.363	46.197	0.202	-0.186
-201.348	-188.182	0.203	-0.003
-200.333	49.712	-0.046	0.043
-199.319	-200.000	-0.074	0.329
-198.304	-145.897	0.442	0.039
-197.290	80.805	-0.036	-0.038
-196.275	-200.000	0.026	0.163
-195.260	-200.000	0.006	0.152
-194.246	800.000	0.021	0.075
-193.231	-200.000	0.005	-0.024
-192.217	-94.898	-0.135	-0.036
-191.202	-56.955	-0.255	-0.112
-190.187	-45.747	0.337	0.165
-189.173	-200.000	0.065	0.310
-188.158	800.000	0.135	-0.392
-187.144	118.430	-0.267	0.328
-186.129	-113.776	-0.336	0.065
-185.114	800.000	0.078	-0.328
-184.100	-102.052	-0.174	-0.042
-183.085	-49.818	0.386	0.182
-182.071	459.135	-0.086	-0.190
-181.056	800.000	0.087	-0.336
-180.042	34.632	-0.079	-0.068
-179.027	129.587	0.092	0.117
-178.012	583.973	-0.097	-0.236
-176.998	192.774	0.135	0.202
-175.983	-200.000	0.016	0.111
-174.969	57.998	0.125	-0.122
-173.954	-163.900	0.203	-0.009
-172.939	-62.728	-0.175	-0.072
-171.925	-10.321	-0.292	-0.193
-170.910	631.528	-0.131	0.331
-169.896	-26.907	0.093	-0.054
-168.881	441.618	-0.129	0.281
-167.866	-88.243	0.403	-0.120
-166.852	-200.000	-0.008	0.168
-165.837	-200.000	0.005	0.351
-164.823	56.613	-0.065	-0.063
-163.808	-200.000	0.055	-0.358
-162.793	-94.318	0.085	-0.023
-161.779	-59.073	-0.255	0.109
-160.764	254.034	0.161	-0.274
-159.750	-27.592	-0.138	0.079
-158.735	328.194	0.014	-0.027
-157.720	129.386	-0.174	-0.221
-156.706	-200.000	0.029	-0.303
-155.691	131.125	-0.176	0.225
-154.677	-62.932	-0.373	0.153
-153.662	-10.436	0.304	0.200
-152.647	800.000	0.066	-0.227
-151.633	-111.712	0.208	0.042
-150.618	-55.473	-0.074	0.033
-149.604	756.454	-0.121	0.326
-148.589	156.351	-0.030	0.041
-147.574	-88.912	-0.144	-0.042
-146.560	-111.720	-0.208	-0.042
-145.545	306.924	-0.111	-0.204
-144.531	-111.157	0.379	-0.077
-143.516	-0.027	0.176	0.124
-142.502	202.356	0.060	-0.092
-141.487	800.000	0.128	0.365
-140.472	206.270	-0.291	-0.449
-139.458	-71.694	-0.124	-0.046
-138.443	292.280	0.115	0.209
-137.429	682.895	-0.047	-0.121
-136.414	-200.000	0.002	-0.021
-135.399	-200.000	0.040	0.180
-134.385	52.775	-0.200	-0.190
-133.370	-200.000	0.045	-0.217
-132.356	-161.376	0.494	0.025
-131.341	-200.000	0.061	0.388
-130.326	271.571	0.072	0.126
-129.312	-52.438	-0.055	0.025
-128.297	382.999	-0.099	0.201
-127.283	187.659	-0.051	0.076
-126.268	800.000	-0.068	0.218
-125.253	-6.536	0.305	0.206
-124.239	5.919	-0.278	-0.204
-123.224	56.923	0.178	0.172
-122.210	-200.000	-0.091	0.446
