DTS Sentinel unit serial number:	SN413079Multiplexer serial number:	ORYXHardware model number:	OX4-SRSoftware version number:	ORYX F/W v4.00 Oryx Data Collector v3.7.2.0data status	okinstallation	princeton_trtdifferential loss correction	single-endedforward channel	channel 2reverse channel	N/Adate	2019/09/16time	00:07:34forward acquisition time	60.00reverse acquisition time	0.00gamma	496.2192k internal	0.2337k external	0.2337temperature offset calibration	0.9959default loss term (dB/km)	0.3790temperature slope calibration	1.0000multiplexer offset coefficient	1.0000multiplexer slope coefficient	1.0000fibre end	0.00T internal ref (°C)	27.78T ext. ref 1 (°C)	9.41T ext. ref 2 (°C)	21.75length (m)	temperature (°C)	Stokes	anti-Stokes-747.200	127.730	0.103	0.131
-746.185	240.087	0.050	0.084
-745.171	289.928	-0.125	0.228
-744.156	13.493	0.071	-0.055
-743.142	-200.000	0.013	0.091
-742.127	-83.415	-0.288	-0.093
-741.112	-153.297	0.262	0.018
-740.098	141.928	-0.028	0.037
-739.083	90.177	-0.168	0.189
-738.069	196.825	0.064	-0.097
-737.054	-87.675	-0.088	-0.027
-736.039	-83.701	-0.513	0.164
-735.025	60.642	0.145	0.144
-734.010	196.451	-0.109	-0.167
-732.996	-135.332	-0.205	0.025
-731.981	108.307	0.061	-0.073
-730.966	-200.000	0.056	-0.276
-729.952	-44.000	-0.031	-0.015
-728.937	-200.000	0.002	0.155
-727.923	171.369	-0.064	0.092
-726.908	-28.689	-0.379	-0.219
-725.894	55.304	-0.409	0.396
-724.879	-92.819	0.294	0.082
-723.864	-6.577	-0.432	0.295
-722.850	565.632	-0.122	-0.296
-721.835	51.335	0.198	-0.189
-720.821	115.854	0.204	-0.250
-719.806	100.860	-0.105	0.122
-718.791	800.000	0.091	-0.388
-717.777	-17.125	-0.132	0.084
-716.762	-22.278	0.358	-0.218
-715.748	-118.856	0.165	0.029
-714.733	181.748	0.149	0.220
-713.718	-160.737	-0.055	-0.003
-712.704	-161.160	-0.173	-0.009
-711.689	31.364	-0.098	0.084
-710.675	256.923	-0.104	0.180
-709.660	118.098	0.095	-0.117
-708.645	-6.218	-0.245	-0.168
-707.631	800.000	0.033	-0.098
-706.616	800.000	-0.041	-0.178
-705.602	273.976	-0.056	-0.100
-704.587	800.000	0.064	-0.211
-703.572	65.774	-0.149	-0.152
-702.558	-200.000	-0.079	-0.517
-701.543	-24.733	0.314	-0.187
-700.529	320.150	0.068	0.130
-699.514	-90.360	-0.177	-0.052
-698.499	-75.330	-0.022	-0.008
-697.485	-82.582	-0.389	-0.126
-696.470	-80.802	0.253	0.084
-695.456	239.534	-0.196	-0.327
-694.441	-200.000	0.013	0.121
-693.426	-200.000	-0.032	0.354
-692.412	800.000	0.095	-0.300
-691.397	800.000	0.116	-0.377
-690.383	92.319	0.085	-0.096
-689.368	183.498	0.191	0.283
-688.354	599.291	-0.135	0.335
-687.339	-64.915	0.208	-0.084
-686.324	66.499	-0.186	0.189
-685.310	37.599	0.043	-0.039
-684.295	-200.000	-0.011	-0.053
-683.281	-172.645	-0.352	-0.011
-682.266	800.000	-0.048	0.210
-681.251	-200.000	-0.008	-0.575
-680.237	109.047	-0.182	0.218
-679.222	73.274	-0.224	-0.235
-678.208	-38.328	-0.284	0.150
-677.193	55.409	-0.141	0.137
-676.178	11.747	0.263	-0.202
-675.164	-200.000	0.029	-0.370
-674.149	-134.840	0.228	-0.028
-673.135	-50.632	-0.266	0.125
-672.120	-130.331	0.140	-0.019
-671.105	-200.000	-0.004	0.179
-670.091	800.000	-0.122	-0.341
-669.076	328.317	-0.033	0.064
-668.062	800.000	-0.042	-0.176
-667.047	110.369	-0.049	0.059
-666.032	235.483	0.091	-0.150
-665.018	800.000	-0.110	-0.308
-664.003	-4.796	-0.179	0.123
-662.989	18.060	0.230	-0.184
-661.974	-20.652	-0.180	0.111
-660.959	181.232	-0.090	-0.132
-659.945	280.913	-0.271	-0.486
-658.930	-12.775	0.024	-0.016
-657.916	-28.133	-0.173	0.100
-656.901	84.103	-0.184	0.201
-655.886	234.901	-0.129	0.214
-654.872	117.655	-0.092	-0.113
-653.857	-163.666	-0.240	-0.011
-652.843	-96.802	0.054	0.014
-651.828	-200.000	0.043	-0.455
-650.814	-111.616	-0.328	-0.067
-649.799	-3.046	0.371	-0.259
-648.784	-29.521	0.308	-0.176
-647.770	800.000	-0.061	-0.230
-646.755	457.082	0.169	-0.376
-645.741	-200.000	0.020	0.133
-644.726	90.709	-0.065	-0.073
-643.711	-149.138	0.040	0.003
-642.697	384.985	-0.181	-0.373
-641.682	146.993	-0.023	-0.031
-640.668	-87.087	0.129	-0.039
-639.653	-2.198	-0.364	-0.255
-638.638	800.000	0.022	-0.087
-637.624	800.000	-0.049	0.170
-636.609	-168.371	0.304	-0.012
-635.595	46.133	0.140	-0.130
-634.580	-78.920	-0.637	0.217
-633.565	-200.000	0.016	-0.389
-632.551	-72.217	-0.418	-0.155
-631.536	132.328	0.114	-0.147
-630.522	-79.356	-0.250	-0.084
-629.507	304.784	-0.140	0.259
-628.492	340.820	-0.058	-0.113
-627.478	258.569	0.035	0.060
-626.463	352.048	0.020	-0.039
-625.449	54.329	0.151	0.145
-624.434	-65.438	-0.375	0.151
-623.419	224.646	-0.162	0.262
-622.405	-3.243	-0.189	-0.132
-621.390	21.450	0.187	-0.152
-620.376	-86.443	-0.330	0.101
-619.361	-19.779	-0.324	-0.200
-618.346	47.172	-0.036	-0.033
-617.332	-63.462	-0.210	0.086
-616.317	158.315	-0.062	0.085
-615.303	84.022	0.220	-0.240
-614.288	-200.000	0.011	-0.363
-613.273	-20.181	0.052	-0.032
-612.259	-200.000	-0.080	-0.371
-611.244	399.516	-0.081	-0.169
-610.230	-182.858	0.266	0.005
-609.215	-87.201	-0.227	-0.069
-608.201	-200.000	0.019	0.239
-607.186	-25.914	0.214	0.126
-606.171	-35.882	0.329	0.178
-605.157	74.458	-0.072	0.075
-604.142	-22.127	-0.294	0.178
-603.128	73.682	-0.067	0.071
-602.113	-105.127	0.084	-0.019
-601.098	179.526	0.066	-0.097
-600.084	119.463	-0.077	0.095
-599.069	17.072	-0.082	0.065
-598.055	11.446	-0.315	0.241
-597.040	74.430	0.104	0.109
-596.025	-121.454	-0.125	-0.021
-595.011	-190.353	0.233	-0.003
-593.996	39.537	-0.153	0.137
-592.982	-122.562	-0.209	0.034
-591.967	176.358	-0.104	0.150
-590.952	-16.599	-0.253	0.160
-589.938	701.417	0.044	0.115
-588.923	-200.000	0.016	-0.147
-587.909	-83.412	0.039	0.012
-586.894	-107.934	-0.109	-0.024
-585.879	-44.039	0.077	-0.039
-584.865	5.428	-0.214	-0.157
-583.850	2.628	-0.136	-0.098
-582.836	-124.665	0.282	0.044
-581.821	-107.907	-0.377	-0.082
-580.806	-16.927	0.083	0.052
-579.792	102.126	0.152	0.177
-578.777	-200.000	-0.046	-0.260
-577.763	390.994	-0.160	-0.332
-576.748	491.279	0.106	0.243
-575.733	16.318	0.158	0.124
-574.719	800.000	-0.060	-0.210
-573.704	1.102	-0.134	-0.096
-572.690	-149.914	0.196	0.015
-571.675	-200.000	-0.010	-0.174
-570.661	102.910	-0.208	-0.243
-569.646	-200.000	-0.026	0.225
-568.631	-58.930	-0.135	-0.058
-567.617	-78.963	-0.338	0.115
-566.602	-119.058	0.145	-0.025
-565.588	-43.169	0.020	-0.010
-564.573	-200.000	-0.006	0.033
-563.558	-200.000	0.051	0.320
-562.544	-103.940	-0.158	-0.037
-561.529	86.537	0.315	0.346
-560.515	682.061	0.025	0.066
-559.500	800.000	-0.033	0.096
-558.485	-144.817	-0.252	-0.023
-557.471	103.054	-0.114	-0.133
-556.456	-135.639	0.102	-0.012
-555.442	800.000	-0.013	0.050
-554.427	-200.000	0.048	0.252
-553.412	474.520	-0.232	0.521
-552.398	129.951	0.072	-0.092
-551.383	125.717	-0.089	0.112
-550.369	-200.000	0.009	0.049
-549.354	37.635	-0.129	0.114
-548.339	52.604	0.157	-0.149
-547.325	589.804	-0.118	-0.290
-546.310	223.864	-0.167	0.269
-545.296	-52.490	0.118	-0.054
-544.281	13.309	-0.296	-0.228
-543.266	-200.000	0.008	0.241
-542.252	53.909	0.250	-0.239
-541.237	-162.740	-0.223	0.011
-540.223	800.000	-0.057	0.207
-539.208	95.546	0.134	0.152
-538.193	-200.000	-0.018	0.133
-537.179	20.430	-0.261	0.210
-536.164	21.928	-0.035	0.028
-535.150	-133.253	0.286	-0.036
-534.135	800.000	-0.081	-0.348
-533.121	-85.165	-0.085	-0.026
-532.106	-159.278	-0.115	-0.006
-531.091	147.035	0.294	-0.393
-530.077	-174.323	-0.118	0.003
-529.062	508.010	-0.173	-0.399
-528.048	-69.054	0.345	-0.132
-527.033	221.563	0.160	-0.257
-526.018	23.547	-0.134	0.109
-525.004	-46.352	0.135	-0.066
-523.989	168.006	-0.209	-0.296
-522.975	155.696	0.118	-0.162
-521.960	-79.601	0.259	0.087
-520.945	-158.286	-0.389	0.023
-519.931	-19.407	0.221	-0.136
-518.916	800.000	0.101	-0.392
-517.902	345.208	-0.057	-0.111
-516.887	24.219	-0.228	0.187
-515.872	800.000	0.043	-0.125
-514.858	469.167	-0.086	-0.191
-513.843	-200.000	-0.001	0.031
-512.829	203.371	0.156	-0.240
-511.814	111.594	-0.102	-0.123
-510.799	320.175	-0.067	0.127
-509.785	-29.925	0.207	0.117
-508.770	-30.032	0.159	-0.090
-507.756	-50.350	0.113	-0.053
-506.741	-53.246	-0.186	-0.085
-505.726	-103.700	-0.310	0.072
-504.712	713.764	0.077	-0.202
-503.697	-76.171	-0.327	0.115
-502.683	-200.000	-0.022	-0.317
-501.668	-116.578	-0.223	0.041
-500.653	-200.000	0.039	0.319
-499.639	-200.000	0.011	0.232
-498.624	-18.827	0.186	-0.115
-497.610	-200.000	0.007	0.078
-496.595	-3.855	-0.104	0.072
-495.581	604.596	-0.040	0.099
-494.566	553.749	0.117	-0.280
-493.551	-15.024	0.355	-0.226
-492.537	-200.000	0.050	-0.307
-491.522	-128.527	0.137	0.019
-490.508	-91.763	-0.242	-0.068
-489.493	-200.000	0.005	0.191
-488.478	-73.409	-0.454	0.165
-487.464	800.000	0.023	0.089
-486.449	99.517	0.152	-0.175
-485.435	-200.000	0.078	0.428
-484.420	16.708	0.236	0.186
-483.405	154.467	-0.018	-0.025
-482.391	-200.000	-0.016	0.100
-481.376	57.775	-0.051	-0.050
-480.362	-160.611	-0.187	-0.010
-479.347	-200.000	0.038	-0.167
-478.332	509.667	-0.004	0.008
-477.318	38.559	0.273	0.242
-476.303	35.727	0.087	-0.076
-475.289	22.167	-0.088	-0.071
-474.274	159.939	0.078	-0.108
-473.259	66.243	0.185	-0.187
-472.245	-200.000	0.000	0.136
-471.230	25.427	-0.161	-0.133
-470.216	133.827	0.189	-0.243
-469.201	800.000	0.051	-0.177
-468.186	6.165	-0.200	-0.148
-467.172	315.941	0.075	-0.140
-466.157	260.837	-0.055	0.095
-465.143	-63.446	-0.423	-0.173
-464.128	20.927	0.440	0.354
-463.113	-200.000	-0.252	0.001
-462.099	490.551	0.089	0.203
-461.084	-15.837	-0.217	0.137
-460.070	24.049	0.216	0.177
-459.055	800.000	0.071	0.250
-458.040	-7.822	0.178	0.119
-457.026	800.000	0.063	0.244
-456.011	43.020	-0.242	0.220
-454.997	800.000	0.073	0.239
-453.982	800.000	0.089	0.333
-452.968	-21.767	0.180	-0.109
-451.953	397.016	-0.082	-0.171
-450.938	-85.897	0.168	0.052
-449.924	800.000	0.071	0.208
-448.909	280.432	0.103	-0.183
-447.895	-93.702	0.227	-0.062
-446.880	-141.320	0.053	0.005
-445.865	91.113	0.123	0.137
-444.851	-148.324	-0.164	-0.013
-443.836	-67.815	-0.097	0.038
-442.822	450.886	0.021	-0.046
-441.807	-200.000	0.004	-0.083
-440.792	800.000	0.075	0.299
-439.778	-141.686	-0.064	-0.006
-438.763	-1.358	0.482	0.338
-437.749	597.305	0.017	0.042
-436.734	-116.718	0.202	-0.037
-435.719	12.096	0.310	0.237
-434.705	-117.395	-0.149	-0.027
-433.690	5.481	0.200	-0.146
-432.676	-29.320	0.168	0.095
-431.661	-117.497	0.308	-0.055
-430.646	-155.602	-0.391	-0.025
-429.632	-200.000	-0.013	-0.291
-428.617	-103.155	-0.296	-0.069
-427.603	-49.392	-0.122	-0.058
-426.588	-48.137	0.460	-0.220
-425.573	-69.608	0.278	0.105
-424.559	106.753	0.146	0.171
-423.544	-87.730	0.237	-0.071
-422.530	139.616	0.191	0.250
-421.515	-200.000	0.022	-0.153
-420.500	284.754	-0.016	0.028
-419.486	-200.000	0.062	-0.378
-418.471	386.147	0.066	-0.136
-417.457	-138.038	0.094	-0.010
-416.442	-200.000	0.011	-0.055
-415.428	187.714	0.056	0.082
-414.413	-147.399	0.152	0.013
-413.398	-92.099	-0.130	0.037
-412.384	192.808	0.083	-0.124
-411.369	-200.000	0.020	-0.124
-410.355	-16.304	0.076	0.048
-409.340	786.252	0.056	-0.153
-408.325	800.000	-0.032	0.115
-407.311	-194.497	0.165	-0.001
-406.296	592.066	0.038	-0.094
-405.282	-200.000	-0.053	0.251
-404.267	-105.407	-0.183	0.041
-403.252	66.028	0.103	-0.104
-402.238	-133.376	-0.074	-0.009
-401.223	-148.315	0.129	-0.010
-400.209	800.000	-0.038	-0.127
-399.194	-200.000	-0.007	0.257
-398.179	-53.549	0.172	-0.078
-397.165	-79.944	-0.325	0.108
-396.150	-10.463	0.170	-0.112
-395.136	-78.911	-0.171	-0.058
-394.121	148.451	-0.245	0.327
-393.106	232.353	-0.077	0.125
-392.092	82.700	-0.124	-0.133
-391.077	760.343	-0.064	-0.172
-390.063	800.000	-0.061	-0.241
-389.048	-200.000	0.001	0.373
-388.033	100.522	0.306	-0.352
-387.019	-100.063	0.106	0.026
-386.004	-200.000	0.021	0.187
-384.990	-200.000	0.010	0.110
-383.975	-8.781	0.158	-0.105
-382.960	-37.575	0.011	0.006
-381.946	509.988	-0.131	-0.302
-380.931	198.504	0.289	-0.438
-379.917	-48.547	-0.208	0.099
-378.902	800.000	-0.036	0.144
-377.888	-48.117	-0.234	0.112
-376.873	800.000	0.022	0.087
-375.858	-200.000	0.003	0.092
-374.844	211.982	0.119	-0.185
-373.829	60.622	0.208	0.204
-372.815	370.032	-0.106	-0.212
-371.800	-103.505	-0.411	-0.096
-370.785	68.879	0.124	-0.126
-369.771	214.718	0.082	-0.128
-368.756	800.000	0.045	-0.126
-367.742	-68.734	0.222	0.085
-366.727	73.383	-0.191	0.198
-365.712	-102.557	-0.148	-0.035
-364.698	-123.789	-0.189	-0.030
-363.683	-163.909	-0.254	-0.012
-362.669	5.597	0.200	0.146
-361.654	-97.916	0.035	0.009
-360.639	66.078	-0.285	-0.286
-359.625	-75.385	0.236	0.083
-358.610	-68.921	0.015	-0.006
-357.596	-117.393	0.037	-0.007
-356.581	31.400	0.188	0.160
-355.566	-1.581	0.065	0.045
-354.552	447.897	-0.060	-0.132
-353.537	-31.052	0.392	-0.219
-352.523	-200.000	-0.023	-0.114
-351.508	-44.857	-0.160	-0.079
-350.493	-105.747	-0.245	0.055
-349.479	-137.025	0.201	-0.023
-348.464	112.756	-0.165	-0.197
-347.450	-108.479	0.248	0.053
-346.435	17.461	0.295	0.232
-345.420	800.000	-0.067	0.218
-344.406	-200.000	0.010	-0.057
-343.391	-54.520	0.282	0.126
-342.377	370.553	-0.098	-0.196
-341.362	16.577	-0.118	0.092
-340.348	119.329	0.262	-0.321
-339.333	388.547	-0.030	0.062
-338.318	-200.000	0.018	0.440
-337.304	-102.356	0.037	0.009
-336.289	-200.000	-0.043	-0.264
-335.275	-200.000	0.028	0.231
-334.260	-200.000	-0.258	0.001
-333.245	800.000	0.037	-0.155
-332.231	-124.017	0.170	0.026
-331.216	94.525	0.135	0.152
-330.202	21.867	0.228	0.183
-329.187	-15.977	0.101	-0.063
-328.172	-200.000	0.040	0.340
-327.158	236.552	0.071	-0.116
-326.143	588.759	0.054	0.132
-325.129	329.916	0.047	0.090
-324.114	1.071	-0.042	-0.030
-323.099	112.122	-0.111	-0.132
-322.085	-200.000	0.024	-0.146
-321.070	609.383	-0.054	-0.132
-320.056	-200.000	0.013	0.122
-319.041	800.000	0.042	0.177
-318.026	82.682	0.039	0.042
-317.012	-13.040	0.159	-0.102
-315.997	-200.000	0.033	-0.194
-314.983	49.223	-0.168	-0.156
-313.968	93.320	-0.218	0.243
-312.953	-63.460	-0.129	-0.053
-311.939	-200.000	0.045	0.424
-310.924	728.822	-0.059	0.156
-309.910	-20.743	-0.274	0.166
-308.895	-71.239	-0.060	0.022
-307.880	11.339	-0.124	0.093
-306.866	203.072	-0.023	-0.035
-305.851	-200.000	-0.011	0.125
-304.837	331.549	0.311	0.592
-303.822	-56.262	-0.158	0.069
-302.807	800.000	-0.112	0.474
-301.793	137.768	-0.059	0.076
-300.778	-200.000	0.033	-0.285
-299.764	-29.800	-0.246	-0.138
-298.749	128.094	-0.027	-0.034
-297.735	-54.911	-0.127	0.057
-296.720	-15.167	-0.142	-0.090
-295.705	-200.000	0.072	0.473
-294.691	-200.000	-0.018	0.090
-293.676	191.688	0.039	-0.057
-292.662	-46.566	-0.347	0.168
-291.647	42.203	-0.136	0.122
-290.632	1.192	-0.075	-0.053
-289.618	346.245	0.055	0.106
-288.603	-110.883	0.046	-0.009
-287.589	-8.784	0.365	-0.241
-286.574	-200.000	-0.065	0.400
-285.559	51.902	0.187	0.175
-284.545	-117.130	0.160	-0.029
-283.530	772.670	-0.032	-0.086
-282.516	-4.212	-0.253	0.173
-281.501	-200.000	0.020	0.155
-280.486	-92.052	0.062	0.017
-279.472	26.901	0.253	0.209
-278.457	-94.931	0.052	-0.014
-277.443	-81.500	0.159	-0.051
-276.428	441.602	0.158	-0.341
-275.413	-133.453	0.333	0.041
-274.399	127.438	-0.171	-0.214
-273.384	44.598	-0.231	0.210
-272.370	-65.838	0.295	-0.116
-271.355	-200.000	-0.036	-0.170
-270.340	104.740	-0.071	0.082
-269.326	-141.586	-0.488	0.049
-268.311	13.896	0.078	0.060
-267.297	-97.462	-0.145	-0.037
-266.282	-200.000	-0.071	-0.418
-265.267	-129.158	0.155	0.021
-264.253	187.126	0.067	0.098
-263.238	-200.000	0.005	0.158
-262.224	316.463	-0.126	0.235
-261.209	-152.089	0.534	-0.038
-260.195	-161.170	0.207	0.011
-259.180	-24.223	0.302	-0.177
-258.165	-200.000	0.013	0.228
-257.151	-135.758	0.287	0.033
-256.136	65.146	-0.186	-0.185
-255.122	-68.301	-0.129	-0.049
-254.107	-106.831	0.222	0.048
-253.092	-78.596	0.188	-0.063
-252.078	-117.314	-0.253	0.045
-251.063	-66.313	-0.209	-0.082
-250.049	800.000	-0.048	-0.206
-249.034	282.421	-0.108	-0.191
-248.019	-160.626	-0.356	0.019
-247.005	5.961	-0.045	0.033
-245.990	-71.383	0.213	0.079
-244.976	179.263	0.064	0.092
-243.961	117.588	-0.131	-0.159
-242.946	29.939	-0.246	-0.207
-241.932	46.774	0.090	-0.083
-240.917	82.761	0.124	-0.133
-239.903	81.294	-0.457	0.486
-238.888	800.000	-0.084	0.287
-237.873	57.925	-0.110	0.106
-236.859	-80.730	-0.389	-0.127
-235.844	160.427	0.115	-0.158
-234.830	181.898	0.066	0.096
-233.815	194.515	0.274	0.409
-232.800	-47.513	-0.103	0.049
-231.786	259.271	-0.074	-0.125
-230.771	-170.152	0.233	-0.008
-229.757	800.000	0.196	0.550
-228.742	-65.899	0.135	0.053
-227.727	-200.000	-0.034	0.280
-226.713	80.256	0.230	0.243
-225.698	615.329	-0.025	-0.062
-224.684	-84.434	-0.350	0.109
-223.669	-118.900	0.056	0.010
-222.655	-200.000	-0.007	0.065
-221.640	37.430	-0.246	-0.214
-220.625	-117.714	-0.056	0.010
-219.611	800.000	-0.074	0.205
-218.596	-200.000	0.006	-0.098
-217.582	-104.733	0.091	0.021
-216.567	-166.091	-0.184	-0.008
-215.552	800.000	-0.101	-0.308
-214.538	-100.923	-0.515	-0.124
-213.523	-51.374	0.463	0.213
-212.509	103.103	-0.238	0.274
-211.494	-146.302	0.155	0.013
-210.479	67.325	0.190	0.191
-209.465	-32.184	-0.219	0.120
-208.450	-78.182	0.107	-0.036
-207.436	431.365	0.078	-0.167
-206.421	-82.067	0.223	-0.072
-205.406	57.256	-0.123	-0.118
-204.392	504.357	0.037	-0.084
-203.377	-200.000	-0.031	0.163
-202.363	45.172	0.290	-0.262
-201.348	326.058	-0.085	0.160
-200.333	271.984	0.043	-0.074
-199.319	-200.000	0.030	0.202
-198.304	76.049	-0.017	0.017
-197.290	-200.000	-0.035	-0.277
-196.275	285.239	-0.075	0.132
-195.260	85.802	-0.315	-0.341
-194.246	-52.557	0.151	-0.069
-193.231	-5.894	0.112	0.075
-192.217	31.511	-0.083	-0.070
-191.202	55.081	-0.201	-0.191
-190.187	-99.063	0.345	-0.086
-189.173	-200.000	0.075	0.610
-188.158	-48.324	0.333	0.158
-187.144	26.641	-0.126	-0.103
-186.129	23.035	0.076	0.062
-185.114	-200.000	-0.025	-0.121
-184.100	-86.707	0.051	-0.015
-183.085	74.945	-0.219	0.227
-182.071	112.090	-0.038	-0.045
-181.056	-131.977	0.204	-0.026
-180.042	-5.091	0.093	0.063
-179.027	651.635	0.121	-0.303
-178.012	-200.000	0.019	-0.156
-176.998	-136.116	-0.064	0.007
-175.983	-8.624	-0.274	-0.181
-174.969	-113.301	0.195	0.038
-173.954	-200.000	-0.016	0.102
-172.939	181.431	0.255	0.368
-171.925	163.097	0.116	-0.159
-170.910	-115.505	0.182	-0.034
-169.896	-52.326	-0.261	-0.118
-168.881	53.156	0.129	-0.121
-167.866	-145.789	0.114	0.010
-166.852	800.000	-0.186	-0.630
-165.837	-101.792	0.153	-0.036
-164.823	-7.896	-0.229	-0.152
-163.808	-11.422	0.303	0.196
-162.793	55.573	-0.060	0.057
-161.779	-91.490	0.140	0.039
-160.764	800.000	0.109	-0.353
-159.750	-153.128	0.037	0.003
-158.735	-43.930	0.063	0.031
-157.720	70.862	-0.202	-0.205
-156.706	800.000	-0.040	0.140
-155.691	523.184	0.105	-0.242
-154.677	47.541	-0.264	-0.242
-153.662	60.382	-0.090	0.087
-152.647	-122.622	-0.228	0.036
-151.633	-101.006	-0.166	-0.040
-150.618	-49.179	-0.204	-0.096
-149.604	137.463	-0.178	-0.228
-148.589	412.597	-0.111	0.231
-147.574	253.637	-0.133	0.223
-146.560	74.435	0.067	-0.069
-145.545	-200.000	-0.052	-0.424
-144.531	460.527	0.114	-0.248
-143.516	73.149	-0.026	0.027
-142.502	-29.572	0.200	0.112
-141.487	-46.212	0.287	0.139
-140.472	-100.318	0.178	0.043
-139.458	-200.000	-0.007	-0.163
-138.443	-123.523	-0.174	0.027
-137.429	-43.686	0.227	0.112
-136.414	800.000	-0.031	0.130
-135.399	34.362	0.260	-0.223
-134.385	697.113	-0.145	0.372
-133.370	-97.805	-0.364	-0.092
-132.356	-39.760	-0.298	0.153
-131.341	-200.000	-0.011	-0.057
-130.326	211.831	0.223	-0.344
-129.312	113.304	0.137	-0.163
-128.297	50.633	-0.200	-0.185
-127.283	261.627	0.029	-0.049
-126.268	284.159	-0.389	0.686
-125.253	85.382	0.173	-0.186
-124.239	-74.633	0.350	-0.123
-123.224	-69.413	-0.454	-0.171
-122.210	800.000	-0.101	0.294
-121.195	-166.527	-0.280	0.011
-120.180	0.125	0.103	0.072
