DTS Sentinel unit serial number:	SN413079Multiplexer serial number:	ORYXHardware model number:	OX4-SRSoftware version number:	ORYX F/W v4.00 Oryx Data Collector v3.7.2.0data status	okinstallation	princeton_trtdifferential loss correction	single-endedforward channel	channel 2reverse channel	N/Adate	2019/09/12time	22:03:35forward acquisition time	60.00reverse acquisition time	0.00gamma	496.2192k internal	0.2330k external	0.2330temperature offset calibration	1.0175default loss term (dB/km)	0.3790temperature slope calibration	1.0000multiplexer offset coefficient	1.0000multiplexer slope coefficient	1.0000fibre end	0.00T internal ref (°C)	30.02T ext. ref 1 (°C)	3.76T ext. ref 2 (°C)	24.59length (m)	temperature (°C)	Stokes	anti-Stokes-747.200	267.905	0.183	-0.323
-746.185	485.936	-0.089	0.205
-745.171	204.121	-0.085	-0.133
-744.156	463.264	0.024	0.054
-743.142	-74.247	0.148	-0.054
-742.127	-200.000	0.022	-0.148
-741.112	88.137	-0.211	0.236
-740.098	158.102	0.289	0.404
-739.083	-200.000	0.005	0.176
-738.069	-103.311	0.246	-0.058
-737.054	-200.000	-0.076	-0.418
-736.039	-200.000	0.027	0.146
-735.025	-163.388	0.172	0.008
-734.010	-165.317	-0.471	-0.021
-732.996	326.928	-0.169	0.325
-731.981	-104.332	-0.038	-0.009
-730.966	82.146	-0.071	0.078
-729.952	129.668	0.071	-0.092
-728.937	-140.705	-0.307	-0.032
-727.923	392.681	-0.070	0.147
-726.908	-200.000	0.004	0.084
-725.894	800.000	0.014	0.046
-724.879	800.000	-0.105	0.298
-723.864	800.000	0.086	-0.304
-722.850	255.856	-0.077	-0.132
-721.835	-86.696	-0.148	-0.045
-720.821	22.672	0.058	0.048
-719.806	-130.714	0.247	-0.033
-718.791	-119.175	0.104	0.018
-717.777	-6.802	0.250	0.171
-716.762	15.306	-0.136	-0.107
-715.748	-48.102	-0.360	0.175
-714.733	800.000	0.038	-0.167
-713.718	800.000	0.042	-0.123
-712.704	-175.446	-0.176	0.005
-711.689	-103.666	0.308	-0.073
-710.675	-200.000	-0.046	0.225
-709.660	26.167	-0.254	-0.213
-708.645	-90.170	0.186	-0.054
-707.631	-154.012	-0.099	0.007
-706.616	-200.000	0.031	0.308
-705.602	50.640	-0.094	-0.090
-704.587	800.000	-0.073	0.236
-703.572	-93.362	-0.144	0.040
-702.558	-200.000	0.004	0.037
-701.543	-200.000	-0.004	-0.267
-700.529	800.000	-0.004	-0.014
-699.514	-20.356	0.240	-0.148
-698.499	627.565	-0.116	-0.295
-697.485	-200.000	0.028	-0.149
-696.470	-14.629	-0.241	-0.156
-695.456	-134.679	0.332	-0.041
-694.441	28.441	-0.058	-0.050
-693.426	-200.000	-0.042	-0.222
-692.412	28.821	0.267	-0.228
-691.397	-200.000	-0.269	0.001
-690.383	-200.000	-0.012	0.089
-689.368	594.462	-0.051	0.127
-688.354	409.059	0.054	-0.116
-687.339	-200.000	-0.022	-0.163
-686.324	-60.791	0.132	0.056
-685.310	-150.103	0.206	0.016
-684.295	462.001	-0.045	0.101
-683.281	43.184	0.220	-0.202
-682.266	225.354	0.029	0.047
-681.251	-12.155	0.166	0.109
-680.237	-84.150	-0.061	0.019
-679.222	-200.000	0.018	0.117
-678.208	-200.000	-0.011	0.072
-677.193	161.263	-0.229	-0.322
-676.178	83.997	-0.106	-0.116
-675.164	197.571	-0.120	-0.184
-674.149	-200.000	-0.001	-0.367
-673.135	109.002	0.125	-0.150
-672.120	488.609	0.037	0.085
-671.105	87.497	-0.123	0.137
-670.091	-105.193	-0.373	-0.085
-669.076	-105.905	-0.035	-0.008
-668.062	-200.000	-0.030	0.184
-667.047	-200.000	0.038	-0.246
-666.032	73.616	0.046	0.049
-665.018	161.603	-0.059	-0.083
-664.003	636.447	0.068	-0.174
-662.989	-102.756	-0.119	0.029
-661.974	-75.192	-0.226	-0.081
-660.959	224.906	0.060	-0.098
-659.945	-166.806	-0.116	-0.005
-658.930	-200.000	0.014	-0.091
-657.916	-200.000	0.009	-0.069
-656.901	271.431	-0.189	-0.334
-655.886	800.000	0.108	0.453
-654.872	197.699	0.097	-0.149
-653.857	344.343	-0.177	0.349
-652.843	-79.691	0.160	-0.054
-651.828	83.141	-0.309	-0.338
-650.814	800.000	0.074	-0.251
-649.799	15.830	0.339	0.267
-648.784	39.624	0.058	-0.052
-647.770	385.414	-0.046	0.094
-646.755	800.000	0.042	-0.148
-645.741	-200.000	-0.021	-0.347
-644.726	800.000	-0.012	-0.046
-643.711	-200.000	-0.011	-0.221
-642.697	129.902	-0.224	-0.287
-641.682	93.493	-0.123	0.139
-640.668	-200.000	0.018	-0.091
-639.653	196.560	0.141	-0.215
-638.638	117.282	-0.098	0.120
-637.624	17.218	-0.152	0.121
-636.609	38.431	0.171	-0.152
-635.595	115.868	-0.103	0.127
-634.580	-34.688	0.083	-0.046
-633.565	800.000	-0.092	-0.289
-632.551	-12.298	0.333	0.218
-631.536	-71.822	-0.406	-0.151
-630.522	40.164	-0.114	-0.103
-629.507	104.509	0.174	0.206
-628.492	-68.748	0.031	0.012
-627.478	800.000	-0.076	-0.304
-626.463	-200.000	0.014	-0.366
-625.449	-200.000	-0.007	0.193
-624.434	-33.428	-0.154	-0.085
-623.419	-200.000	-0.053	-0.294
-622.405	37.994	-0.117	-0.104
-621.390	104.646	-0.111	-0.132
-620.376	800.000	0.040	0.157
-619.361	-65.882	-0.177	-0.071
-618.346	-76.586	0.102	0.036
-617.332	-200.000	-0.014	0.376
-616.317	-78.046	-0.271	0.093
-615.303	-152.272	-0.188	0.014
-614.288	-200.000	0.025	-0.147
-613.273	3.218	0.069	-0.050
-612.259	-116.089	-0.184	-0.034
-611.244	227.682	-0.045	-0.074
-610.230	57.867	0.024	-0.024
-609.215	-82.589	-0.139	-0.045
-608.201	-99.444	0.006	0.001
-607.186	-154.772	0.231	-0.015
-606.171	-162.844	-0.327	0.016
-605.157	92.627	-0.181	-0.205
-604.142	-20.899	0.122	0.075
-603.128	-200.000	0.001	-0.107
-602.113	47.325	-0.183	0.170
-601.098	121.519	-0.249	0.311
-600.084	-200.000	0.008	0.185
-599.069	56.429	0.061	-0.059
-598.055	-131.422	-0.017	0.002
-597.040	-16.322	-0.371	-0.236
-596.025	116.350	0.059	-0.073
-595.011	-14.265	-0.285	-0.184
-593.996	-47.295	0.140	-0.068
-592.982	-46.890	-0.443	0.217
-591.967	800.000	-0.023	0.087
-590.952	161.353	-0.127	0.178
-589.938	256.105	-0.087	0.150
-588.923	633.525	-0.074	-0.186
-587.909	-31.658	0.312	0.175
-586.894	-17.887	-0.246	-0.154
-585.879	-95.975	0.334	0.089
-584.865	-99.140	-0.294	0.075
-583.850	384.486	-0.079	0.163
-582.836	20.818	-0.073	0.059
-581.821	800.000	-0.031	-0.123
-580.806	-26.437	0.052	0.030
-579.792	51.385	-0.187	0.178
-578.777	420.644	-0.114	0.243
-577.763	61.965	-0.193	0.193
-576.748	-172.458	-0.129	0.004
-575.733	-146.346	-0.360	0.032
-574.719	179.765	0.180	-0.264
-573.704	83.063	0.235	-0.255
-572.690	-91.802	-0.350	0.099
-571.675	-112.378	-0.039	-0.008
-570.661	667.321	0.056	-0.146
-569.646	-43.981	-0.323	0.162
-568.631	800.000	0.015	-0.052
-567.617	204.156	0.156	0.242
-566.602	188.433	0.035	-0.052
-565.588	0.538	-0.241	0.172
-564.573	-88.007	0.199	-0.060
-563.558	-200.000	0.059	0.329
-562.544	-200.000	-0.018	0.087
-561.529	122.213	-0.041	-0.051
-560.515	151.524	0.195	-0.266
-559.500	1.818	-0.320	0.231
-558.485	-200.000	0.007	0.412
-557.471	-91.789	-0.261	0.074
-556.456	243.665	0.146	0.244
-555.442	180.227	-0.089	-0.130
-554.427	-159.312	0.142	-0.008
-553.412	-200.000	0.054	-0.270
-552.398	800.000	0.079	-0.318
-551.383	469.099	-0.090	-0.203
-550.369	-105.027	-0.177	-0.040
-549.354	-200.000	-0.008	0.168
-548.339	-116.628	0.233	-0.043
-547.325	-107.901	0.183	0.040
-546.310	20.397	-0.110	-0.088
-545.296	-141.635	-0.063	-0.006
-544.281	800.000	-0.036	-0.153
-543.266	-61.974	0.164	-0.068
-542.252	-75.284	-0.196	0.070
-541.237	57.142	-0.161	-0.157
-540.223	-143.099	0.490	-0.047
-539.208	43.348	-0.061	-0.055
-538.193	800.000	-0.077	0.213
-537.179	51.751	0.266	0.253
-536.164	455.389	0.007	0.017
-535.150	-35.486	-0.148	-0.080
-534.135	-76.463	-0.225	-0.079
-533.121	-200.000	-0.000	0.227
-532.106	-200.000	-0.021	0.119
-531.091	-13.650	0.115	0.074
-530.077	19.631	0.068	-0.054
-529.062	-99.208	0.489	0.123
-528.048	-107.816	-0.234	0.051
-527.033	-48.240	-0.309	-0.149
-526.018	728.718	-0.112	-0.298
-525.004	-200.000	-0.039	-0.272
-523.989	800.000	-0.061	0.224
-522.975	-91.034	0.156	-0.045
-521.960	387.567	-0.114	0.236
-520.945	-93.411	-0.054	-0.015
-519.931	133.520	0.155	0.200
-518.916	47.334	0.269	-0.250
-517.902	-167.923	0.415	0.016
-516.887	-106.860	0.398	-0.088
-515.872	-116.763	0.097	-0.018
-514.858	800.000	-0.081	-0.286
-513.843	-200.000	-0.002	-0.355
-512.829	-109.834	0.149	-0.031
-511.814	-152.562	0.194	-0.014
-510.799	-50.810	0.144	-0.068
-509.785	8.587	0.209	-0.157
-508.770	189.293	-0.175	-0.262
-507.756	-148.740	0.052	0.004
-506.741	-200.000	0.022	0.113
-505.726	-200.000	0.147	-0.001
-504.712	-115.951	0.126	-0.024
-503.697	-54.565	0.234	0.106
-502.683	800.000	-0.027	0.117
-501.668	481.255	0.016	0.035
-500.653	312.429	0.138	-0.258
-499.639	89.724	0.034	-0.038
-498.624	-137.629	0.126	0.014
-497.610	-94.901	0.273	-0.074
-496.595	-200.000	0.003	0.307
-495.581	-52.045	-0.098	0.045
-494.566	-200.000	-0.009	-0.056
-493.551	-141.982	-0.183	0.018
-492.537	-9.523	0.195	-0.130
-491.522	-200.000	-0.057	0.000
-490.508	166.448	0.081	-0.115
-489.493	-153.578	-0.150	-0.010
-488.478	800.000	0.082	0.284
-487.464	353.442	-0.158	-0.313
-486.449	-124.875	-0.179	-0.028
-485.435	146.448	0.270	-0.362
-484.420	-42.572	-0.152	0.077
-483.405	446.525	-0.076	0.167
-482.391	800.000	-0.013	-0.055
-481.376	-103.078	0.340	-0.080
-480.362	100.984	-0.036	0.041
-479.347	800.000	-0.049	0.185
-478.332	-2.928	-0.219	0.152
-477.318	800.000	-0.152	0.522
-476.303	-1.256	0.283	0.199
-475.289	-68.953	0.112	-0.043
-474.274	69.727	0.197	0.202
-473.259	-125.644	-0.244	0.037
-472.245	-6.086	0.114	-0.078
-471.230	-30.627	-0.097	-0.055
-470.216	800.000	-0.008	-0.028
-469.201	76.652	-0.044	0.047
-468.186	800.000	0.094	-0.302
-467.172	270.186	0.110	-0.193
-466.157	70.876	0.098	0.101
-465.143	344.737	0.027	-0.053
-464.128	-200.000	-0.000	-0.162
-463.113	444.342	0.108	0.236
-462.099	63.594	0.154	-0.154
-461.084	8.387	-0.120	0.090
-460.070	800.000	0.032	-0.123
-459.055	209.008	-0.044	-0.069
-458.040	138.542	0.048	-0.063
-457.026	-33.221	-0.255	0.141
-456.011	264.801	-0.185	-0.322
-454.997	-200.000	0.046	0.301
-453.982	163.754	-0.097	-0.135
-452.968	-115.299	0.123	-0.023
-451.953	800.000	0.100	0.361
-450.938	-110.312	0.428	-0.089
-449.924	-200.000	0.011	0.090
-448.909	-65.571	0.233	-0.093
-447.895	-100.501	0.186	-0.046
-446.880	-75.393	0.213	0.076
-445.865	-161.556	0.280	0.014
-444.851	329.722	-0.083	-0.159
-443.836	53.143	-0.151	-0.144
-442.822	800.000	-0.111	0.351
-441.807	-138.836	-0.163	-0.018
-440.792	-109.853	0.350	0.073
-439.778	-49.586	0.290	-0.137
-438.763	16.091	-0.205	0.161
-437.749	308.778	-0.144	-0.268
-436.734	-183.269	0.080	-0.001
-435.719	3.937	0.127	-0.093
-434.705	800.000	0.087	0.322
-433.690	15.063	-0.179	-0.140
-432.676	-17.004	-0.087	-0.055
-431.661	74.050	-0.126	-0.131
-430.646	385.595	0.119	-0.244
-429.632	-200.000	-0.007	0.297
-428.617	124.365	0.156	-0.195
-427.603	277.906	-0.085	0.151
-426.588	64.816	0.124	-0.125
-425.573	-200.000	-0.036	0.360
-424.559	-200.000	-0.056	0.255
-423.544	56.528	-0.225	0.218
-422.530	-46.011	0.368	-0.180
-421.515	303.495	-0.108	-0.200
-420.500	800.000	-0.014	0.058
-419.486	-59.750	-0.189	0.081
-418.471	-101.286	0.232	0.056
-417.457	-91.972	0.169	0.048
-416.442	-82.029	-0.139	-0.045
-415.428	-74.343	-0.054	-0.019
-414.413	-90.991	0.301	-0.086
-413.398	-68.609	-0.381	-0.147
-412.384	-40.307	0.059	-0.031
-411.369	-28.220	-0.181	0.104
-410.355	-174.508	-0.325	-0.009
-409.340	800.000	0.044	0.131
-408.325	183.565	-0.197	0.290
-407.311	73.337	0.238	0.247
-406.296	-200.000	0.044	-0.214
-405.282	-125.115	-0.263	-0.040
-404.267	-34.616	-0.104	0.057
-403.252	214.470	-0.119	-0.187
-402.238	291.089	0.138	0.248
-401.223	-101.803	-0.301	0.072
-400.209	150.753	0.116	-0.157
-399.194	79.908	0.076	0.081
-398.179	-61.860	0.179	0.074
-397.165	-33.742	-0.214	-0.117
-396.150	30.758	-0.191	-0.162
-395.136	139.507	0.153	0.200
-394.121	107.952	-0.079	-0.093
-393.106	352.205	0.079	-0.156
-392.092	-200.000	-0.029	0.149
-391.077	-174.877	-0.194	-0.005
-390.063	800.000	0.093	0.326
-389.048	38.782	0.244	0.216
-388.033	-158.122	0.225	-0.013
-387.019	800.000	0.055	-0.158
-386.004	-122.736	-0.302	-0.049
-384.990	-144.395	-0.356	0.033
-383.975	-156.598	0.112	-0.007
-382.960	10.561	-0.167	-0.126
-381.946	75.446	0.196	-0.205
-380.931	-12.760	0.290	0.188
-379.917	800.000	0.068	-0.232
-378.902	106.927	0.071	0.084
-377.888	-39.965	0.363	-0.188
-376.873	-168.953	0.636	0.024
-375.858	-184.748	0.257	-0.004
-374.844	-200.000	-0.023	0.444
-373.829	262.945	0.099	0.171
-372.815	51.830	-0.243	-0.229
-371.800	800.000	0.021	-0.083
-370.785	108.890	-0.166	-0.197
-369.771	800.000	-0.103	-0.291
-368.756	-15.857	0.164	0.103
-367.742	60.668	0.088	-0.086
-366.727	-39.351	-0.017	-0.009
-365.712	-85.485	0.225	-0.069
-364.698	-36.671	0.208	-0.111
-363.683	-140.854	0.423	-0.043
-362.669	-115.485	0.281	0.052
-361.654	73.602	-0.079	-0.082
-360.639	266.667	-0.130	0.225
-359.625	-118.330	-0.575	-0.101
-358.610	-200.000	0.026	0.129
-357.596	260.652	-0.143	-0.246
-356.581	134.774	-0.083	0.106
-355.566	-200.000	-0.009	-0.080
-354.552	226.663	0.102	0.163
-353.537	-19.541	0.126	-0.078
-352.523	-141.442	-0.143	0.014
-351.508	-34.822	0.175	-0.095
-350.493	47.421	-0.097	0.090
-349.479	-15.613	0.085	-0.054
-348.464	374.788	-0.097	-0.195
-347.450	-67.015	0.234	0.092
-346.435	85.738	0.131	0.143
-345.420	226.390	0.030	0.048
-344.406	800.000	-0.053	0.203
-343.391	-200.000	0.053	0.466
-342.377	64.949	-0.038	0.038
-341.362	215.957	0.079	-0.125
-340.348	166.208	-0.108	0.152
-339.333	5.407	0.090	-0.066
-338.318	121.157	-0.035	-0.043
-337.304	2.550	0.023	0.017
-336.289	-7.905	0.192	-0.128
-335.275	230.668	0.039	-0.063
-334.260	296.257	-0.107	-0.194
-333.245	0.935	0.107	-0.076
-332.231	800.000	-0.066	-0.183
-331.216	-200.000	-0.066	0.351
-330.202	-102.542	-0.226	-0.054
-329.187	462.037	-0.132	-0.292
-328.172	-35.388	-0.103	-0.056
-327.158	-45.010	-0.222	0.109
-326.143	-88.717	0.189	0.056
-325.129	-65.128	-0.511	-0.204
-324.114	800.000	-0.022	-0.074
-323.099	800.000	-0.062	0.204
-322.085	181.199	0.051	-0.074
-321.070	800.000	0.024	-0.079
-320.056	161.354	-0.118	-0.163
-319.041	-25.116	-0.314	-0.184
-318.026	12.209	-0.233	0.178
-317.012	91.594	-0.265	-0.294
-315.997	159.601	-0.222	0.306
-314.983	800.000	0.096	0.406
-313.968	479.398	-0.062	-0.139
-312.953	55.372	-0.089	-0.085
-311.939	800.000	-0.127	-0.359
-310.924	721.105	-0.084	0.222
-309.910	-9.360	0.215	0.142
-308.895	-200.000	0.042	-0.360
-307.880	69.969	0.138	0.141
-306.866	309.839	-0.212	0.392
-305.851	-149.744	0.264	0.021
-304.837	-6.200	0.174	-0.118
-303.822	-110.222	0.372	0.077
-302.807	-200.000	0.016	0.086
-301.793	-200.000	0.057	-0.263
-300.778	0.547	0.010	0.007
-299.764	800.000	0.044	0.165
-298.749	-200.000	0.128	0.702
-297.735	-110.201	-0.207	-0.043
-296.720	-27.405	-0.095	-0.055
-295.705	264.590	0.192	-0.331
-294.691	246.690	-0.025	-0.042
-293.676	800.000	0.077	0.287
-292.662	7.004	0.246	-0.182
-291.647	290.028	-0.059	-0.106
-290.632	91.584	-0.169	-0.188
-289.618	422.229	-0.174	-0.370
-288.603	-18.360	0.396	-0.245
-287.589	-7.458	-0.120	0.080
-286.574	101.672	-0.012	0.013
-285.559	102.407	0.062	0.071
-284.545	514.816	-0.074	0.170
-283.530	103.736	0.101	0.117
-282.516	219.405	0.169	0.268
-281.501	-200.000	0.002	0.503
-280.486	800.000	0.077	-0.287
-279.472	-48.710	0.203	-0.096
-278.457	57.721	-0.108	0.105
-277.443	21.997	-0.233	0.188
-276.428	800.000	-0.072	0.209
-275.413	139.901	0.141	0.184
-274.399	800.000	0.027	-0.100
-273.384	-22.794	0.100	0.060
-272.370	128.587	0.199	-0.251
-271.355	109.933	0.192	-0.228
-270.340	111.306	-0.018	0.021
-269.326	-62.874	-0.402	-0.164
-268.311	172.203	0.057	0.082
-267.297	-114.436	-0.231	-0.044
-266.282	257.574	-0.119	-0.202
-265.267	-65.219	0.443	-0.177
-264.253	-20.939	0.124	0.075
-263.238	-51.510	-0.195	0.090
-262.224	25.534	-0.239	-0.197
-261.209	636.627	0.097	-0.243
-260.195	-200.000	-0.006	0.337
-259.180	159.207	-0.154	0.212
-258.165	-142.196	-0.213	0.021
-257.151	-117.068	-0.194	0.035
-256.136	200.784	0.214	-0.326
-255.122	-112.294	-0.098	0.019
-254.107	597.930	0.192	0.469
-253.092	-41.236	0.239	0.122
-252.078	367.234	-0.121	0.241
-251.063	-174.623	-0.388	-0.011
-250.049	692.251	0.057	-0.148
-249.034	-112.905	0.103	-0.020
-248.019	-15.886	-0.065	-0.041
-247.005	-93.379	0.203	-0.056
-245.990	-200.000	-0.001	0.028
-244.976	-96.664	0.259	-0.067
-243.961	800.000	-0.080	0.219
-242.946	68.718	0.230	-0.233
-241.932	-200.000	-0.014	-0.073
-240.917	-43.833	-0.301	-0.150
-239.903	-200.000	-0.014	-0.131
-238.888	-27.628	0.126	0.072
-237.873	-69.797	-0.127	0.048
-236.859	497.554	-0.037	0.083
-235.844	-59.324	-0.188	-0.080
-234.830	-200.000	0.005	0.050
-233.815	341.017	-0.193	0.372
-232.800	-137.593	0.239	-0.027
-231.786	95.278	0.154	0.173
-230.771	-1.391	-0.089	-0.062
-229.757	-185.779	-0.306	-0.005
-228.742	367.084	0.037	-0.073
-227.727	72.432	-0.201	0.207
-226.713	-30.509	0.190	0.106
-225.698	-5.721	0.351	0.237
-224.684	-12.974	-0.254	0.163
-223.669	77.249	0.363	-0.381
-222.655	229.322	0.198	0.319
-221.640	88.180	-0.241	0.263
-220.625	-161.278	-0.210	-0.011
-219.611	128.252	-0.117	-0.146
-218.596	246.888	-0.094	-0.157
-217.582	121.194	0.100	-0.122
-216.567	7.824	-0.197	-0.145
-215.552	180.750	0.155	0.225
-214.538	-200.000	-0.122	0.000
-213.523	800.000	-0.143	0.404
-212.509	-200.000	-0.011	0.068
-211.494	150.717	0.130	0.175
-210.479	306.047	0.176	0.322
-209.465	566.875	0.118	-0.281
-208.450	-200.000	0.037	0.193
-207.436	-109.792	0.179	0.037
-206.421	800.000	0.072	-0.238
-205.406	-200.000	-0.011	-0.079
-204.392	82.382	-0.196	0.209
-203.377	131.400	0.180	0.228
-202.363	62.912	-0.332	-0.327
-201.348	-3.972	-0.169	-0.116
-200.333	-127.414	-0.077	-0.011
-199.319	-200.000	-0.081	-0.611
-198.304	-81.364	-0.290	0.094
-197.290	-174.024	0.136	0.004
-196.275	-200.000	-0.039	-0.229
-195.260	-200.000	-0.002	0.025
-194.246	-200.000	0.010	0.186
-193.231	-41.077	-0.269	0.137
-192.217	-200.000	-0.038	0.187
-191.202	-200.000	-0.058	0.407
-190.187	-175.794	-0.149	0.004
-189.173	-107.586	0.227	-0.049
-188.158	-149.946	0.057	0.004
-187.144	426.899	-0.037	-0.079
-186.129	800.000	0.059	0.227
-185.114	-1.367	0.073	-0.051
-184.100	-200.000	-0.033	0.303
-183.085	-34.708	-0.264	0.142
-182.071	-192.116	0.102	-0.001
-181.056	-200.000	0.000	0.080
-180.042	800.000	-0.150	-0.441
-179.027	-200.000	-0.026	0.290
-178.012	75.940	0.067	-0.070
-176.998	-32.539	-0.165	0.091
-175.983	20.824	0.115	0.092
-174.969	13.713	0.113	0.086
-173.954	-200.000	-0.062	-0.343
-172.939	-170.565	-0.362	0.012
-171.925	94.011	0.153	-0.171
-170.910	565.743	0.044	-0.106
-169.896	-200.000	0.017	0.253
-168.881	255.266	0.255	-0.431
-167.866	-16.959	-0.136	0.084
-166.852	-51.990	0.282	0.129
-165.837	47.888	0.244	-0.224
-164.823	-47.098	-0.217	-0.104
-163.808	-46.730	0.266	-0.128
-162.793	-200.000	0.000	-0.220
-161.779	391.352	-0.122	-0.249
-160.764	-52.807	-0.191	-0.087
-159.750	800.000	0.033	-0.138
-158.735	-200.000	0.007	-0.050
-157.720	800.000	0.016	0.066
-156.706	-151.005	0.085	0.006
-155.691	-163.454	0.430	0.020
-154.677	102.651	-0.029	0.034
-153.662	-126.233	0.271	0.040
-152.647	113.391	-0.088	0.105
-151.633	-200.000	0.045	-0.199
-150.618	524.885	-0.209	-0.483
-149.604	-96.984	-0.085	0.022
-148.589	119.410	0.130	0.158
-147.574	23.137	-0.182	-0.147
-146.560	-116.466	-0.126	-0.023
-145.545	5.394	-0.275	-0.200
-144.531	113.819	0.112	-0.133
-143.516	448.388	-0.079	0.172
-142.502	-21.021	0.162	0.097
-141.487	9.704	0.153	0.114
-140.472	2.344	-0.112	-0.079
-139.458	260.977	0.172	0.292
-138.443	-200.000	-0.006	-0.165
-137.429	12.784	0.083	-0.063
-136.414	55.889	0.307	-0.292
-135.399	-97.631	0.173	-0.044
-134.385	-79.273	0.339	0.113
-133.370	326.893	0.113	-0.212
-132.356	411.659	0.008	-0.017
-131.341	-20.434	0.214	0.130
-130.326	-15.246	-0.401	-0.252
-129.312	378.572	-0.140	-0.283
-128.297	-200.000	0.014	0.255
-127.283	800.000	0.031	-0.085
-126.268	-8.240	0.231	-0.153
-125.253	752.611	0.044	-0.116
-124.239	-118.781	0.288	0.050
-123.224	193.018	0.122	-0.181
-122.210	-116.873	-0.188	0.034
