DTS Sentinel unit serial number:	SN413079Multiplexer serial number:	ORYXHardware model number:	OX4-SRSoftware version number:	ORYX F/W v4.00 Oryx Data Collector v3.7.2.0data status	okinstallation	princeton_trtdifferential loss correction	single-endedforward channel	channel 2reverse channel	N/Adate	2019/09/10time	21:41:10forward acquisition time	60.00reverse acquisition time	0.00gamma	496.2192k internal	0.2330k external	0.2330temperature offset calibration	0.9944default loss term (dB/km)	0.3790temperature slope calibration	1.0000multiplexer offset coefficient	1.0000multiplexer slope coefficient	1.0000fibre end	0.00T internal ref (°C)	30.97T ext. ref 1 (°C)	-0.30T ext. ref 2 (°C)	24.26length (m)	temperature (°C)	Stokes	anti-Stokes-747.200	-78.150	-0.251	0.087
-746.185	800.000	0.049	0.193
-745.171	176.242	-0.258	-0.378
-744.156	800.000	-0.053	-0.176
-743.142	87.815	-0.176	0.196
-742.127	-83.410	-0.246	0.079
-741.112	23.327	-0.338	-0.279
-740.098	800.000	0.100	0.320
-739.083	261.892	-0.085	0.148
-738.069	-200.000	0.015	0.251
-737.054	755.050	-0.116	0.315
-736.039	163.509	-0.161	-0.228
-735.025	-130.761	-0.044	-0.006
-734.010	-55.107	0.266	0.120
-732.996	800.000	-0.085	-0.372
-731.981	-88.151	-0.174	-0.052
-730.966	72.207	-0.248	0.260
-729.952	5.124	-0.288	-0.214
-728.937	43.119	-0.198	-0.182
-727.923	-200.000	-0.001	-0.022
-726.908	-200.000	0.044	0.250
-725.894	800.000	0.061	0.250
-724.879	73.684	0.246	0.259
-723.864	800.000	-0.034	-0.127
-722.850	42.517	-0.143	0.131
-721.835	-3.392	-0.059	0.042
-720.821	10.251	-0.308	-0.236
-719.806	-200.000	0.047	-0.360
-718.791	-91.766	-0.530	-0.152
-717.777	-200.000	-0.019	-0.242
-716.762	325.845	0.036	-0.070
-715.748	-200.000	0.046	-0.306
-714.733	-200.000	-0.077	-0.469
-713.718	10.296	0.301	-0.231
-712.704	77.583	0.336	-0.360
-711.689	-69.510	-0.538	-0.207
-710.675	4.459	-0.232	-0.171
-709.660	38.374	-0.153	-0.137
-708.645	-141.628	0.246	-0.025
-707.631	192.184	0.170	-0.259
-706.616	800.000	-0.105	-0.436
-705.602	-130.912	-0.157	-0.021
-704.587	202.404	0.198	0.308
-703.572	-108.065	0.264	-0.058
-702.558	307.464	0.148	-0.276
-701.543	115.113	-0.197	0.241
-700.529	-21.941	-0.165	-0.101
-699.514	2.961	-0.220	-0.161
-698.499	-200.000	0.032	0.229
-697.485	-200.000	-0.002	-0.100
-696.470	85.455	0.156	0.172
-695.456	-200.000	-0.005	-0.254
-694.441	-97.600	0.104	-0.027
-693.426	-95.866	0.236	0.063
-692.412	648.648	-0.092	0.237
-691.397	56.861	-0.162	-0.159
-690.383	-89.762	-0.460	-0.135
-689.368	226.260	0.138	-0.224
-688.354	-74.877	-0.400	-0.144
-687.339	-69.788	0.180	-0.069
-686.324	-200.000	0.007	0.404
-685.310	-107.597	0.112	0.025
-684.295	38.223	0.316	0.282
-683.281	25.841	0.198	0.165
-682.266	45.776	-0.350	-0.325
-681.251	-154.983	0.223	-0.015
-680.237	-74.756	-0.265	-0.096
-679.222	-157.274	-0.133	-0.008
-678.208	-148.225	-0.081	-0.007
-677.193	-114.455	0.197	0.038
-676.178	114.767	-0.186	0.228
-675.164	281.989	0.057	-0.103
-674.149	-153.218	-0.088	0.006
-673.135	-90.244	-0.192	0.056
-672.120	-65.550	-0.132	0.053
-671.105	253.844	-0.061	-0.104
-670.091	602.138	0.121	0.303
-669.076	800.000	-0.113	-0.357
-668.062	-200.000	0.080	-0.358
-667.047	124.405	-0.138	-0.175
-666.032	73.198	0.054	0.056
-665.018	-101.550	0.243	0.059
-664.003	459.440	0.093	0.207
-662.989	-154.166	-0.383	0.026
-661.974	579.764	0.014	0.035
-660.959	578.058	0.090	-0.220
-659.945	-120.858	-0.487	-0.082
-658.930	428.263	-0.045	-0.097
-657.916	-200.000	0.371	-0.000
-656.901	-35.486	-0.243	0.133
-655.886	-25.834	0.164	-0.097
-654.872	15.941	-0.097	0.076
-653.857	-200.000	-0.023	0.264
-652.843	101.267	-0.073	0.086
-651.828	-200.000	-0.049	-0.321
-650.814	-111.397	0.219	0.045
-649.799	176.574	-0.143	-0.209
-648.784	-119.987	-0.345	-0.059
-647.770	-76.972	0.194	0.068
-646.755	417.481	0.093	-0.199
-645.741	23.573	-0.148	-0.122
-644.726	800.000	-0.028	-0.107
-643.711	530.083	0.066	0.156
-642.697	475.456	0.074	-0.167
-641.682	403.582	0.033	-0.070
-640.668	-128.516	-0.113	-0.016
-639.653	-170.488	-0.254	0.009
-638.638	223.813	0.022	0.036
-637.624	-200.000	-0.364	0.000
-636.609	800.000	0.050	-0.164
-635.595	-200.000	0.076	-0.341
-634.580	-65.939	-0.232	-0.093
-633.565	625.515	0.139	-0.352
-632.551	44.197	-0.031	0.029
-631.536	154.932	0.030	0.042
-630.522	-97.815	-0.166	-0.043
-629.507	-116.387	-0.296	0.055
-628.492	-118.443	0.056	-0.010
-627.478	-112.043	0.052	-0.010
-626.463	109.980	-0.042	-0.051
-625.449	-36.992	-0.063	0.034
-624.434	215.183	-0.151	0.240
-623.419	-11.483	0.292	0.192
-622.405	156.976	0.146	0.203
-621.390	800.000	-0.031	-0.092
-620.376	93.677	-0.189	-0.214
-619.361	-138.321	-0.346	-0.038
-618.346	-200.000	0.000	0.249
-617.332	121.323	-0.062	-0.078
-616.317	800.000	0.033	0.121
-615.303	800.000	-0.030	0.097
-614.288	79.951	0.058	-0.062
-613.273	-200.000	0.068	-0.431
-612.259	-13.770	0.101	0.065
-611.244	-200.000	-0.008	0.170
-610.230	800.000	0.012	-0.048
-609.215	66.005	0.129	0.132
-608.201	29.296	0.224	0.191
-607.186	-23.975	0.162	-0.097
-606.171	800.000	-0.016	-0.067
-605.157	190.414	0.039	0.058
-604.142	-200.000	-0.013	0.104
-603.128	-28.629	0.220	-0.127
-602.113	-149.883	-0.402	0.032
-601.098	1.855	0.230	-0.166
-600.084	-200.000	0.027	0.321
-599.069	-200.000	-0.029	0.331
-598.055	128.579	0.074	0.094
-597.040	-21.144	0.156	-0.095
-596.025	-200.000	-0.001	-0.258
-595.011	-132.155	0.455	0.059
-593.996	800.000	-0.030	0.121
-592.982	-125.602	0.337	-0.051
-591.967	250.154	0.115	0.195
-590.952	182.420	-0.221	-0.326
-589.938	-81.508	-0.208	-0.069
-588.923	-96.097	0.041	0.011
-587.909	612.241	0.076	0.190
-586.894	-16.293	-0.173	0.110
-585.879	487.894	0.022	-0.051
-584.865	40.209	-0.104	-0.093
-583.850	800.000	0.069	0.191
-582.836	-87.022	-0.230	-0.070
-581.821	-124.549	0.243	-0.038
-580.806	-46.766	-0.179	-0.088
-579.792	-98.038	-0.269	-0.069
-578.777	-178.288	0.182	0.004
-577.763	47.414	0.199	-0.186
-576.748	-26.732	-0.251	-0.147
-575.733	-84.042	-0.259	-0.082
-574.719	206.831	0.014	0.022
-573.704	800.000	0.100	-0.311
-572.690	-172.455	0.337	-0.011
-571.675	52.060	-0.174	-0.165
-570.661	256.898	0.177	-0.303
-569.646	15.998	-0.116	-0.091
-568.631	800.000	0.104	0.289
-567.617	-72.622	0.104	-0.038
-566.602	800.000	0.063	-0.222
-565.588	37.120	0.226	0.200
-564.573	93.929	0.216	-0.244
-563.558	-119.690	-0.345	-0.060
-562.544	-1.942	-0.294	0.207
-561.529	178.023	-0.066	-0.096
-560.515	490.724	-0.048	0.110
-559.500	-45.113	0.318	0.158
-558.485	337.893	0.157	0.305
-557.471	-200.000	0.046	0.277
-556.456	-200.000	0.062	0.334
-555.442	108.095	0.167	-0.199
-554.427	-123.864	0.192	-0.030
-553.412	258.250	-0.161	-0.276
-552.398	-91.862	-0.156	0.044
-551.383	101.969	-0.053	0.061
-550.369	-132.292	-0.202	-0.026
-549.354	800.000	0.047	0.137
-548.339	-72.738	-0.122	0.045
-547.325	-157.188	0.163	0.010
-546.310	161.676	-0.219	0.306
-545.296	74.666	0.252	-0.265
-544.281	682.520	-0.094	0.244
-543.266	-109.737	-0.477	-0.100
-542.252	178.505	0.105	-0.153
-541.237	84.647	0.184	0.201
-540.223	45.089	-0.116	-0.107
-539.208	340.304	-0.087	-0.169
-538.193	388.229	0.144	-0.297
-537.179	-31.252	-0.121	-0.068
-536.164	334.532	-0.070	-0.136
-535.150	-14.867	0.104	0.066
-534.135	800.000	-0.067	0.215
-533.121	-200.000	0.017	0.127
-532.106	187.116	0.243	-0.362
-531.091	-44.494	-0.103	-0.051
-530.077	-40.446	-0.156	0.081
-529.062	-136.189	0.129	0.015
-528.048	-7.958	0.232	-0.156
-527.033	-105.516	-0.047	-0.011
-526.018	-136.233	0.212	0.025
-525.004	147.922	-0.163	0.219
-523.989	205.626	0.138	-0.214
-522.975	800.000	0.085	-0.286
-521.960	800.000	-0.064	0.239
-520.945	-9.074	0.469	0.314
-519.931	-91.646	0.398	0.113
-518.916	-22.188	0.105	0.064
-517.902	134.644	-0.233	0.302
-516.887	132.609	-0.164	0.211
-515.872	800.000	-0.034	-0.097
-514.858	538.265	-0.060	0.141
-513.843	800.000	0.042	0.169
-512.829	-200.000	-0.036	-0.315
-511.814	155.099	0.218	-0.300
-510.799	-112.795	0.221	0.044
-509.785	800.000	0.029	-0.081
-508.770	310.355	-0.102	0.190
-507.756	-76.729	0.063	0.022
-506.741	98.154	-0.122	-0.140
-505.726	38.025	0.264	-0.234
-504.712	-104.637	0.144	-0.033
-503.697	-200.000	0.061	0.303
-502.683	129.026	0.141	0.179
-501.668	-200.000	-0.064	0.306
-500.653	-13.147	-0.183	-0.119
-499.639	339.871	-0.021	0.040
-498.624	99.963	-0.065	0.075
-497.610	699.750	-0.067	0.175
-496.595	172.445	-0.177	0.254
-495.581	-200.000	-0.013	0.183
-494.566	60.713	-0.244	-0.241
-493.551	77.587	0.129	-0.137
-492.537	-126.383	0.308	0.046
-491.522	-200.000	0.032	-0.231
-490.508	-200.000	0.014	0.198
-489.493	-41.364	0.272	-0.140
-488.478	23.581	-0.029	-0.024
-487.464	-9.457	-0.223	0.148
-486.449	-95.470	-0.185	0.050
-485.435	-66.885	-0.282	0.111
-484.420	-200.000	0.027	0.122
-483.405	56.706	0.122	-0.119
-482.391	528.393	0.015	0.035
-481.376	83.724	0.240	-0.261
-480.362	-200.000	-0.007	-0.103
-479.347	164.619	-0.212	0.298
-478.332	-80.012	0.393	-0.132
-477.318	605.102	0.065	0.161
-476.303	-200.000	-0.004	0.104
-475.289	-200.000	0.039	0.226
-474.274	89.388	-0.067	0.074
-473.259	108.855	-0.094	-0.112
-472.245	-55.243	0.095	-0.042
-471.230	147.133	0.115	-0.154
-470.216	-89.031	0.056	0.017
-469.201	-149.926	0.379	0.029
-468.186	800.000	-0.017	0.073
-467.172	-200.000	-0.007	-0.351
-466.157	39.108	-0.145	0.129
-465.143	-64.758	-0.169	0.068
-464.128	241.753	-0.079	0.131
-463.113	480.676	0.099	-0.223
-462.099	-14.743	0.276	-0.177
-461.084	-200.000	0.034	-0.304
-460.070	-200.000	0.007	-0.033
-459.055	-152.483	0.387	-0.028
-458.040	-183.636	-0.144	0.002
-457.026	-200.000	-0.083	0.395
-456.011	-151.765	0.179	-0.013
-454.997	-43.022	0.233	-0.117
-453.982	-147.120	-0.372	0.032
-452.968	-51.486	0.209	-0.097
-451.953	-112.263	-0.443	0.088
-450.938	368.278	0.081	-0.163
-449.924	-43.530	0.042	-0.021
-448.909	-56.822	-0.176	0.078
-447.895	-200.000	0.033	-0.193
-446.880	-200.000	0.019	-0.150
-445.865	95.923	-0.099	0.112
-444.851	-63.238	-0.133	0.055
-443.836	-200.000	0.003	-0.327
-442.822	800.000	0.077	-0.267
-441.807	800.000	0.085	-0.251
-440.792	800.000	0.039	0.117
-439.778	-156.382	0.115	-0.007
-438.763	800.000	0.057	-0.220
-437.749	800.000	-0.029	-0.083
-436.734	666.941	0.054	0.138
-435.719	579.765	-0.067	-0.164
-434.705	22.531	0.071	-0.057
-433.690	-200.000	-0.020	0.105
-432.676	35.844	-0.229	0.200
-431.661	-162.894	-0.115	-0.006
-430.646	-20.351	0.244	0.149
-429.632	98.465	0.088	0.101
-428.617	-76.257	-0.147	-0.052
-427.603	-200.000	0.026	-0.142
-426.588	318.404	-0.074	-0.140
-425.573	-63.981	0.191	-0.078
-424.559	191.014	0.104	0.156
-423.544	-95.510	0.146	0.039
-422.530	-152.967	-0.229	-0.016
-421.515	325.957	0.114	-0.217
-420.500	-90.213	0.186	0.054
-419.486	-200.000	0.022	0.230
-418.471	-69.502	0.417	-0.159
-417.457	-94.470	-0.141	-0.038
-416.442	283.881	-0.076	-0.135
-415.428	800.000	-0.093	-0.272
-414.413	-117.113	-0.347	-0.063
-413.398	-120.015	-0.218	0.037
-412.384	110.567	-0.129	-0.154
-411.369	531.704	0.090	-0.212
-410.355	19.887	-0.101	-0.081
-409.340	203.039	-0.026	0.040
-408.325	185.907	0.130	0.192
-407.311	331.061	-0.103	0.196
-406.296	-159.548	-0.153	0.008
-405.282	-18.601	-0.115	0.072
-404.267	577.442	-0.147	0.357
-403.252	800.000	0.041	0.123
-402.238	-83.206	0.276	-0.088
-401.223	-42.731	-0.190	0.096
-400.209	192.363	0.154	0.230
-399.194	14.700	-0.196	0.152
-398.179	-71.997	-0.184	0.068
-397.165	-200.000	0.008	0.142
-396.150	543.874	0.081	-0.193
-395.136	-184.405	0.123	-0.002
-394.121	-200.000	0.001	0.115
-393.106	-200.000	0.016	0.137
-392.092	-42.485	0.102	-0.052
-391.077	-200.000	-0.033	0.000
-390.063	186.324	0.129	0.190
-389.048	208.595	-0.156	-0.242
-388.033	50.266	-0.198	0.185
-387.019	82.549	0.080	-0.086
-386.004	388.624	0.148	0.304
-384.990	-92.078	0.271	0.076
-383.975	-48.738	-0.066	0.031
-382.960	681.337	0.106	-0.274
-381.946	-200.000	0.037	-0.164
-380.931	-200.000	0.060	0.270
-379.917	-116.650	-0.208	-0.038
-378.902	800.000	0.055	0.167
-377.888	-200.000	0.040	0.407
-376.873	661.025	0.056	0.143
-375.858	181.481	-0.110	0.160
-374.844	30.075	0.044	-0.037
-373.829	-200.000	0.021	-0.253
-372.815	323.165	0.022	0.042
-371.800	-200.000	-0.024	0.228
-370.785	198.535	-0.297	-0.451
-369.771	-64.950	0.184	0.074
-368.756	-75.205	-0.381	-0.135
-367.742	57.010	-0.251	0.243
-366.727	-47.641	0.142	0.068
-365.712	326.023	-0.047	-0.090
-364.698	-79.274	-0.088	0.030
-363.683	41.937	-0.188	-0.170
-362.669	-200.000	-0.014	-0.087
-361.654	800.000	0.080	0.324
-360.639	-29.187	0.250	-0.142
-359.625	-200.000	0.003	-0.093
-358.610	-200.000	-0.066	-0.348
-357.596	64.631	-0.461	0.461
-356.581	-200.000	-0.018	-0.168
-355.566	-73.582	-0.078	-0.028
-354.552	81.263	0.305	-0.327
-353.537	-143.221	-0.430	-0.041
-352.523	-175.374	-0.133	-0.004
-351.508	-182.124	0.439	-0.008
-350.493	257.188	0.064	-0.109
-349.479	-126.142	-0.274	-0.041
-348.464	-60.234	-0.106	-0.045
-347.450	-123.118	0.327	0.052
-346.435	465.050	-0.123	0.274
-345.420	47.861	0.138	0.128
-344.406	60.614	0.100	-0.098
-343.391	-62.102	-0.206	-0.085
-342.377	-31.496	-0.179	-0.100
-341.362	-70.276	0.131	0.049
-340.348	415.349	0.056	0.119
-339.333	800.000	-0.105	-0.291
-338.318	3.621	-0.086	-0.062
-337.304	-136.848	-0.149	-0.017
-336.289	162.941	0.141	0.196
-335.275	-200.000	0.055	0.298
-334.260	-64.903	0.081	0.032
-333.245	800.000	-0.057	0.158
-332.231	-139.710	0.285	-0.030
-331.216	800.000	-0.102	0.286
-330.202	800.000	0.060	-0.220
-329.187	-117.005	-0.156	0.028
-328.172	-105.522	0.341	0.077
-327.158	-200.000	-0.023	0.119
-326.143	800.000	0.112	-0.321
-325.129	-200.000	0.024	0.206
-324.114	88.718	0.083	-0.092
-323.099	28.905	-0.322	0.270
-322.085	-60.734	0.137	0.057
-321.070	-2.908	0.104	-0.072
-320.056	71.944	-0.112	-0.115
-319.041	97.410	-0.105	-0.119
-318.026	289.471	-0.141	-0.253
-317.012	277.665	0.090	-0.159
-315.997	404.597	-0.098	-0.205
-314.983	800.000	0.025	0.072
-313.968	353.207	-0.032	0.062
-312.953	36.405	0.360	-0.314
-311.939	790.720	-0.184	-0.499
-310.924	-144.221	-0.212	-0.020
-309.910	310.529	0.156	-0.288
-308.895	-149.419	0.267	0.021
-307.880	-200.000	-0.016	0.309
-306.866	-63.252	0.172	-0.070
-305.851	225.818	0.172	0.276
-304.837	800.000	0.111	0.417
-303.822	-200.000	-0.032	0.227
-302.807	800.000	-0.066	0.188
-301.793	24.653	-0.185	0.151
-300.778	14.912	0.133	0.103
-299.764	-200.000	0.020	0.224
-298.749	-36.675	0.317	0.168
-297.735	-200.000	-0.004	-0.062
-296.720	113.109	-0.260	-0.312
-295.705	66.419	-0.324	0.326
-294.691	-200.000	-0.064	-0.335
-293.676	-20.623	-0.194	-0.118
-292.662	-200.000	-0.083	0.533
-291.647	3.370	-0.159	0.114
-290.632	106.969	-0.193	-0.227
-289.618	-30.946	0.315	-0.176
-288.603	-14.339	-0.176	0.112
-287.589	179.967	-0.172	0.249
-286.574	119.354	-0.100	0.123
-285.559	-98.729	0.073	0.018
-284.545	-76.375	-0.290	-0.101
-283.530	-61.511	-0.194	-0.080
-282.516	-14.418	-0.275	0.175
-281.501	-167.953	0.319	-0.012
-280.486	800.000	-0.065	-0.255
-279.472	294.550	-0.047	-0.085
-278.457	23.368	-0.338	0.274
-277.443	298.810	-0.150	-0.273
-276.428	800.000	-0.047	-0.177
-275.413	-200.000	-0.031	0.213
-274.399	800.000	-0.102	-0.321
-273.384	-149.888	-0.173	-0.013
-272.370	-200.000	-0.004	-0.022
-271.355	-87.806	0.304	0.091
-270.340	102.220	0.183	-0.211
-269.326	46.263	-0.221	0.202
-268.311	-200.000	-0.048	0.407
-267.297	109.661	-0.239	0.283
-266.282	-0.669	-0.075	0.053
-265.267	130.634	-0.078	-0.099
-264.253	48.395	0.168	-0.155
-263.238	-24.832	0.132	-0.078
-262.224	162.097	-0.090	-0.125
-261.209	-200.000	0.019	-0.394
-260.195	-74.250	0.210	0.075
-259.180	800.000	-0.038	0.149
-258.165	-31.291	0.164	-0.091
-257.151	17.945	-0.075	0.059
-256.136	355.233	0.048	-0.095
-255.122	431.054	0.037	-0.079
-254.107	332.125	0.104	-0.198
-253.092	-33.693	-0.390	-0.213
-252.078	-135.109	-0.026	-0.003
-251.063	68.078	0.042	0.043
-250.049	-200.000	-0.062	0.337
-249.034	63.614	0.313	0.310
-248.019	800.000	-0.072	-0.281
-247.005	800.000	0.035	0.101
-245.990	283.379	-0.117	0.207
-244.976	-79.053	0.168	-0.056
-243.961	-200.000	-0.020	-0.157
-242.946	401.611	0.082	0.170
-241.932	-200.000	-0.015	0.095
-240.917	-69.058	0.507	-0.193
-239.903	52.301	-0.209	-0.197
-238.888	-150.145	0.189	-0.014
-237.873	28.174	0.166	-0.138
-236.859	409.684	-0.054	0.114
-235.844	-200.000	-0.012	-0.202
-234.830	-38.317	0.181	0.095
-233.815	75.576	0.074	0.077
-232.800	-144.289	0.404	-0.037
-231.786	125.134	0.207	-0.258
-230.771	47.376	-0.149	0.137
-229.757	-200.000	0.037	0.239
-228.742	402.663	0.075	0.155
-227.727	-179.368	-0.183	0.004
-226.713	-97.508	-0.280	-0.072
-225.698	15.936	0.217	-0.169
-224.684	-23.839	0.261	-0.154
-223.669	-137.743	-0.283	-0.031
-222.655	-3.856	0.174	0.119
-221.640	244.490	-0.090	-0.149
-220.625	794.203	0.112	0.305
-219.611	123.661	0.099	0.122
-218.596	188.778	0.142	0.209
-217.582	-200.000	0.014	-0.105
-216.567	366.966	0.150	0.298
-215.552	193.066	0.134	0.200
-214.538	-127.126	-0.422	-0.061
-213.523	207.632	0.079	-0.122
-212.509	169.113	0.075	-0.105
-211.494	20.053	0.337	-0.268
-210.479	-142.583	-0.159	-0.015
-209.465	127.134	-0.261	-0.326
-208.450	-200.000	-0.015	0.302
-207.436	234.708	-0.167	-0.272
-206.421	-200.000	-0.009	0.201
-205.406	180.211	0.084	0.122
-204.392	-117.796	-0.252	0.045
-203.377	-64.275	0.203	-0.081
-202.363	-200.000	0.001	-0.063
-201.348	80.291	-0.079	0.084
-200.333	-122.730	-0.217	0.035
-199.319	37.894	0.090	0.079
-198.304	-74.615	0.071	-0.025
-197.290	-83.172	-0.129	-0.041
-196.275	-113.837	-0.103	0.020
-195.260	-122.804	0.344	0.055
-194.246	292.673	-0.035	0.062
-193.231	-14.660	-0.068	-0.043
-192.217	-134.991	0.196	0.023
-191.202	-17.252	0.048	0.030
-190.187	800.000	-0.103	0.297
-189.173	477.737	-0.064	0.142
-188.158	-19.443	-0.149	0.091
-187.144	-200.000	-0.021	-0.222
-186.129	101.278	0.285	-0.327
-185.114	212.174	0.093	-0.144
-184.100	69.615	-0.100	0.102
-183.085	308.330	0.045	0.082
-182.071	40.917	-0.167	-0.149
-181.056	-1.780	-0.415	0.288
-180.042	-28.317	0.075	-0.043
-179.027	-70.311	-0.124	-0.046
-178.012	-58.183	0.198	0.085
-176.998	190.332	-0.151	0.223
-175.983	-174.425	0.379	-0.011
-174.969	-99.958	0.285	-0.070
-173.954	-61.772	0.235	-0.097
-172.939	-91.263	-0.306	0.086
-171.925	-186.735	-0.145	0.002
-170.910	-24.189	0.103	-0.061
-169.896	-27.204	-0.102	0.059
-168.881	-200.000	-0.059	-0.339
-167.866	-21.556	-0.224	-0.134
-166.852	-200.000	-0.013	-0.273
-165.837	656.680	-0.131	-0.330
-164.823	-40.006	0.042	-0.022
-163.808	-114.280	0.438	0.083
-162.793	-53.626	0.184	0.083
-161.779	245.390	-0.136	-0.226
-160.764	64.577	-0.116	-0.115
-159.750	687.788	0.088	-0.226
-158.735	-200.000	0.070	0.464
-157.720	-200.000	-0.028	0.285
-156.706	-107.594	-0.452	0.097
-155.691	-200.000	-0.028	0.201
-154.677	-150.071	-0.320	-0.024
-153.662	-110.906	-0.221	0.045
-152.647	242.775	0.061	0.100
-151.633	9.323	0.156	-0.116
-150.618	-77.842	-0.433	0.147
-149.604	43.328	0.137	0.123
-148.589	35.671	0.303	0.262
-147.574	-114.713	0.354	0.067
-146.560	24.109	0.159	0.129
-145.545	172.018	0.032	-0.046
-144.531	1.427	0.061	0.043
-143.516	-62.969	-0.136	-0.055
-142.502	-49.172	0.098	-0.046
-141.487	-200.000	-0.018	0.079
-140.472	-70.986	-0.155	0.057
-139.458	105.057	-0.082	-0.095
-138.443	-55.838	-0.164	-0.072
-137.429	106.287	0.107	-0.124
-136.414	-63.274	-0.186	0.075
-135.399	800.000	-0.054	-0.148
-134.385	-119.970	-0.505	-0.085
-133.370	-34.433	-0.253	0.136
-132.356	16.628	0.030	0.023
-131.341	-85.479	-0.313	-0.096
-130.326	-144.350	0.295	0.027
-129.312	-82.891	-0.137	-0.043
-128.297	-200.000	-0.031	0.247
-127.283	36.840	0.105	0.091
-126.268	-69.797	0.134	0.050
-125.253	-7.333	-0.279	0.186
-124.239	525.178	0.046	0.106
-123.224	71.149	0.179	-0.183
-122.210	-200.000	-0.008	0.367
