DTS Sentinel unit serial number:	SN413079Multiplexer serial number:	ORYXHardware model number:	OX4-SRSoftware version number:	ORYX F/W v4.00 Oryx Data Collector v3.7.2.0data status	okinstallation	princeton_trtdifferential loss correction	single-endedforward channel	channel 2reverse channel	N/Adate	2019/09/12time	19:44:49forward acquisition time	15.00reverse acquisition time	0.00gamma	496.2192k internal	0.2327k external	0.2327temperature offset calibration	1.0157default loss term (dB/km)	0.3790temperature slope calibration	1.0000multiplexer offset coefficient	1.0000multiplexer slope coefficient	1.0000fibre end	0.00T internal ref (°C)	32.00T ext. ref 1 (°C)	3.51T ext. ref 2 (°C)	26.68length (m)	temperature (°C)	Stokes	anti-Stokes-747.200	-100.931	-0.588	-0.146
-746.185	-154.534	0.617	-0.042
-745.171	67.606	0.616	-0.634
-744.156	-25.472	-0.443	0.264
-743.142	-200.000	0.017	-0.733
-742.127	-70.105	0.139	-0.053
-741.112	-5.370	-0.721	-0.499
-740.098	-200.000	0.032	0.377
-739.083	292.671	-0.169	-0.311
-738.069	-83.977	-0.412	-0.132
-737.054	-133.491	-0.488	-0.062
-736.039	-135.014	-0.463	0.056
-735.025	371.539	0.125	-0.255
-734.010	-74.052	-0.853	0.312
-732.996	800.000	0.114	-0.374
-731.981	-50.310	-0.911	-0.434
-730.966	800.000	0.045	0.152
-729.952	800.000	0.200	-0.583
-728.937	-200.000	0.043	0.589
-727.923	-178.018	1.308	0.031
-726.908	73.656	-0.282	0.298
-725.894	-166.197	-0.382	0.016
-724.879	-93.890	-0.822	0.228
-723.864	-60.587	0.296	-0.126
-722.850	160.787	-0.069	-0.096
-721.835	800.000	-0.088	-0.261
-720.821	141.329	0.308	-0.411
-719.806	-90.863	-0.237	0.069
-718.791	149.555	-0.558	0.762
-717.777	-78.025	-0.358	-0.124
-716.762	-200.000	0.024	0.122
-715.748	-200.000	0.030	0.528
-714.733	287.587	0.431	0.785
-713.718	700.679	0.375	-0.995
-712.704	180.827	0.692	-1.024
-711.689	-200.000	0.232	-0.001
-710.675	553.856	-0.338	0.818
-709.660	-200.000	0.104	0.665
-708.645	-200.000	0.076	-0.833
-707.631	-73.604	-0.427	-0.157
-706.616	14.467	0.156	-0.122
-705.602	-4.857	-0.099	0.069
-704.587	-76.115	0.243	0.086
-703.572	-86.423	-0.284	0.088
-702.558	-5.460	0.247	0.171
-701.543	-118.198	0.753	-0.135
-700.529	-86.741	-1.100	-0.339
-699.514	-200.000	-0.043	-0.656
-698.499	-200.000	-0.038	-0.477
-697.485	-200.000	-0.044	0.554
-696.470	-24.584	-0.148	-0.088
-695.456	-200.000	-0.152	0.922
-694.441	-114.665	-0.669	0.129
-693.426	-93.890	0.299	0.083
-692.412	10.610	0.420	-0.322
-691.397	-1.282	-0.249	-0.177
-690.383	251.337	-0.279	-0.478
-689.368	-200.000	-0.057	0.273
-688.354	77.617	0.263	0.282
-687.339	91.125	0.228	0.257
-686.324	800.000	-0.262	0.928
-685.310	272.844	-0.406	-0.722
-684.295	5.781	0.249	-0.186
-683.281	-24.999	0.598	-0.357
-682.266	11.072	-0.476	-0.366
-681.251	342.041	-0.320	0.629
-680.237	130.623	-0.905	-1.167
-679.222	166.416	0.613	0.874
-678.208	-140.204	-1.062	-0.112
-677.193	-89.633	-0.292	-0.086
-676.178	137.539	-0.407	0.536
-675.164	-200.000	0.010	-0.202
-674.149	-5.511	-0.836	0.577
-673.135	131.177	0.423	-0.547
-672.120	209.592	0.412	-0.650
-671.105	148.113	-0.454	0.615
-670.091	-83.429	0.622	-0.200
-669.076	-152.143	0.272	-0.020
-668.062	-200.000	-0.128	0.621
-667.047	-79.070	0.882	0.301
-666.032	218.648	-0.286	-0.459
-665.018	197.133	0.271	0.416
-664.003	800.000	0.042	0.140
-662.989	-15.468	-0.327	0.210
-661.974	-117.602	-0.816	0.148
-660.959	246.561	0.259	0.440
-659.945	-140.165	-1.026	-0.108
-658.930	800.000	-0.040	0.111
-657.916	339.297	0.365	0.714
-656.901	42.109	0.071	-0.064
-655.886	134.598	-0.123	0.160
-654.872	59.263	-0.205	-0.203
-653.857	-95.982	0.377	0.101
-652.843	-4.040	-0.502	-0.349
-651.828	800.000	0.181	-0.706
-650.814	-91.880	-1.077	0.307
-649.799	261.654	-0.359	-0.624
-648.784	-200.000	-0.002	-0.218
-647.770	206.727	0.132	0.207
-646.755	-25.077	0.541	0.322
-645.741	131.198	0.495	-0.638
-644.726	-63.666	0.752	0.310
-643.711	-53.282	0.559	-0.257
-642.697	-171.642	-0.753	-0.025
-641.682	-5.972	-0.547	-0.376
-640.668	-119.841	0.090	0.016
-639.653	16.278	-0.390	-0.309
-638.638	244.268	0.264	-0.445
-637.624	-2.688	-0.530	0.372
-636.609	-67.232	-0.504	0.199
-635.595	53.735	-0.084	0.081
-634.580	633.515	0.132	-0.336
-633.565	276.723	-0.371	0.661
-632.551	47.125	-0.098	-0.092
-631.536	-200.000	-0.096	-1.035
-630.522	800.000	-0.301	-1.115
-629.507	-200.000	0.022	-0.286
-628.492	112.365	-0.266	-0.323
-627.478	-178.728	-0.640	0.015
-626.463	-56.992	-0.501	0.222
-625.449	165.406	0.086	-0.122
-624.434	-25.562	-0.141	0.083
-623.419	220.023	0.301	-0.484
-622.405	14.416	0.638	0.499
-621.390	719.015	0.262	0.698
-620.376	-148.155	-0.791	-0.066
-619.361	-200.000	-0.038	0.580
-618.346	-200.000	-0.147	0.699
-617.332	-200.000	-0.207	0.987
-616.317	-64.441	-0.279	0.114
-615.303	240.477	-0.410	0.686
-614.288	-86.796	-0.242	-0.074
-613.273	37.343	0.175	-0.156
-612.259	724.375	0.198	-0.530
-611.244	54.463	-0.417	-0.403
-610.230	-42.255	0.434	0.222
-609.215	146.582	-0.072	0.098
-608.201	-186.030	0.201	0.003
-607.186	-200.000	0.043	0.211
-606.171	-5.587	0.336	0.231
-605.157	331.192	0.231	-0.447
-604.142	-62.595	0.324	-0.135
-603.128	-200.000	0.019	-0.334
-602.113	206.924	-0.067	-0.104
-601.098	124.546	0.081	-0.102
-600.084	15.225	0.513	0.403
-599.069	-200.000	0.112	0.503
-598.055	-139.765	-0.280	-0.030
-597.040	-200.000	-0.141	0.651
-596.025	800.000	-0.327	-1.049
-595.011	428.501	-0.369	0.799
-593.996	342.510	-0.096	-0.188
-592.982	-200.000	-0.008	-0.644
-591.967	-131.279	-0.263	-0.035
-590.952	7.300	-0.277	-0.207
-589.938	-103.633	0.265	0.062
-588.923	-92.600	0.270	-0.076
-587.909	-63.115	-0.149	-0.062
-586.894	13.944	-0.104	-0.081
-585.879	-138.172	0.333	-0.037
-584.865	401.729	0.215	0.453
-583.850	114.178	0.676	-0.824
-582.836	474.594	-0.185	-0.418
-581.821	-76.875	-0.066	-0.023
-580.806	-200.000	0.010	-0.155
-579.792	-14.300	0.130	-0.084
-578.777	-125.840	0.647	0.098
-577.763	72.675	0.352	0.368
-576.748	-59.707	-0.748	-0.321
-575.733	-161.511	0.527	-0.027
-574.719	179.044	-0.304	0.445
-573.704	-93.973	0.698	-0.192
-572.690	-200.000	-0.123	-0.737
-571.675	690.589	-0.200	0.523
-570.661	-200.000	0.053	0.469
-569.646	-177.833	-0.201	-0.005
-568.631	51.087	-0.130	0.123
-567.617	800.000	0.158	-0.450
-566.602	-92.290	0.481	-0.136
-565.588	-45.984	-0.384	-0.190
-564.573	307.998	0.230	0.430
-563.558	-28.760	0.227	-0.131
-562.544	-192.386	0.578	-0.005
-561.529	-7.392	-0.262	-0.178
-560.515	-89.644	-0.104	-0.031
-559.500	334.767	-0.113	-0.218
-558.485	-200.000	0.058	-0.472
-557.471	-156.887	-0.181	-0.011
-556.456	-117.227	0.784	0.143
-555.442	-90.524	-0.169	-0.049
-554.427	-58.861	-0.540	-0.234
-553.412	-9.730	-0.725	-0.484
-552.398	800.000	0.039	0.145
-551.383	-23.114	-0.312	-0.188
-550.369	-62.165	-0.336	0.140
-549.354	205.344	-0.220	-0.342
-548.339	-91.367	-0.052	-0.015
-547.325	-200.000	-0.005	0.181
-546.310	-9.398	0.875	0.584
-545.296	-29.802	0.714	-0.407
-544.281	193.204	-0.632	0.956
-543.266	167.709	-0.265	-0.376
-542.252	563.733	0.122	0.296
-541.237	14.993	0.140	-0.109
-540.223	77.364	-0.094	-0.100
-539.208	-81.253	-0.734	0.242
-538.193	800.000	0.153	0.599
-537.179	-93.326	0.592	-0.164
-536.164	-127.290	-1.144	-0.167
-535.150	429.901	0.138	0.299
-534.135	764.794	-0.174	-0.472
-533.121	424.825	-0.264	0.569
-532.106	-200.000	0.020	0.770
-531.091	31.631	0.578	-0.497
-530.077	-31.169	0.531	0.299
-529.062	157.847	0.512	-0.710
-528.048	-154.949	0.134	-0.009
-527.033	-123.387	-0.473	0.075
-526.018	8.546	-0.379	-0.285
-525.004	-200.000	0.075	0.646
-523.989	-150.585	0.358	0.027
-522.975	-62.827	0.854	0.353
-521.960	326.239	0.104	-0.199
-520.945	-200.000	-0.050	0.232
-519.931	800.000	0.258	0.859
-518.916	339.463	0.291	0.568
-517.902	-111.070	-0.801	0.164
-516.887	84.090	-0.577	0.630
-515.872	-52.611	0.994	0.459
-514.858	13.845	0.604	0.470
-513.843	-171.348	-0.321	0.011
-512.829	44.791	-0.310	-0.285
-511.814	-200.000	0.123	-0.785
-510.799	-200.000	-0.050	-0.308
-509.785	800.000	0.047	0.199
-508.770	-78.197	-0.591	0.203
-507.756	353.872	0.105	0.208
-506.741	-92.785	0.225	-0.063
-505.726	-200.000	-0.029	0.167
-504.712	-21.778	0.518	0.315
-503.697	-11.120	1.251	0.824
-502.683	-121.424	0.155	0.026
-501.668	271.404	-0.519	-0.912
-500.653	-25.529	-0.857	-0.505
-499.639	800.000	-0.156	0.641
-498.624	248.767	-0.168	-0.285
-497.610	75.693	-0.139	0.147
-496.595	-200.000	-0.002	0.289
-495.581	16.240	-0.150	-0.119
-494.566	500.569	-0.491	-1.131
-493.551	275.525	0.273	-0.483
-492.537	800.000	0.181	-0.622
-491.522	-9.342	-0.511	-0.341
-490.508	136.056	0.350	-0.455
-489.493	-200.000	-0.032	-0.237
-488.478	-200.000	0.038	0.524
-487.464	800.000	0.146	0.445
-486.449	441.501	0.073	-0.160
-485.435	498.413	0.362	0.833
-484.420	-114.560	-0.346	-0.066
-483.405	-140.274	-0.595	0.062
-482.391	-49.015	0.628	0.300
-481.376	728.957	0.286	0.762
-480.362	800.000	0.143	-0.472
-479.347	-129.431	-0.727	-0.101
-478.332	16.907	-0.152	0.120
-477.318	113.149	0.241	-0.292
-476.303	-10.289	0.354	0.234
-475.289	-108.364	0.316	-0.068
-474.274	-85.229	0.210	0.065
-473.259	800.000	-0.036	0.146
-472.245	-34.663	-1.228	-0.670
-471.230	-144.232	1.105	-0.103
-470.216	703.761	-0.119	-0.312
-469.201	240.899	-0.164	0.274
-468.186	800.000	-0.308	1.198
-467.172	-200.000	0.049	-0.378
-466.157	431.909	0.133	0.289
-465.143	-22.183	0.316	-0.191
-464.128	-107.456	0.903	0.198
-463.113	-41.409	0.283	0.145
-462.099	-41.911	0.701	-0.358
-461.084	-200.000	0.065	-1.414
-460.070	-200.000	0.051	0.756
-459.055	800.000	0.084	-0.310
-458.040	800.000	-0.131	-0.436
-457.026	454.190	-0.352	-0.776
-456.011	-142.317	-0.296	-0.029
-454.997	-200.000	0.051	0.818
-453.982	660.535	0.348	-0.894
-452.968	-22.732	0.134	0.081
-451.953	-59.213	-0.526	0.226
-450.938	-53.867	0.364	0.166
-449.924	-95.596	-0.814	-0.217
-448.909	-23.694	-0.188	-0.112
-447.895	-165.215	-1.075	-0.047
-446.880	-103.552	0.998	0.234
-445.865	800.000	0.390	-1.184
-444.851	-200.000	0.025	0.849
-443.836	471.244	0.107	0.239
-442.822	-200.000	-0.112	-1.098
-441.807	255.590	-0.739	-1.263
-440.792	256.331	0.475	-0.812
-439.778	-40.678	-0.456	0.235
-438.763	-200.000	-0.002	0.081
-437.749	-73.822	-0.488	0.177
-436.734	-200.000	-0.037	-0.238
-435.719	17.826	0.244	0.194
-434.705	-96.154	0.647	-0.171
-433.690	11.908	-0.074	0.057
-432.676	800.000	-0.064	-0.264
-431.661	-122.972	-0.684	0.110
-430.646	7.291	-0.461	0.343
-429.632	505.106	-0.270	0.622
-428.617	-71.306	0.586	-0.219
-427.603	198.495	0.257	0.392
-426.588	2.137	-0.337	-0.243
-425.573	800.000	0.038	0.140
-424.559	-110.148	0.414	-0.086
-423.544	-166.398	0.524	0.022
-422.530	-200.000	-0.011	-0.241
-421.515	22.322	-0.699	0.569
-420.500	-200.000	0.035	0.484
-419.486	127.175	-0.187	-0.236
-418.471	-200.000	0.001	0.013
-417.457	52.475	-0.424	-0.403
-416.442	-32.856	0.145	-0.080
-415.428	1.007	0.113	0.081
-414.413	-200.000	-0.083	0.469
-413.398	-120.449	-0.434	0.073
-412.384	-200.000	0.041	-0.612
-411.369	34.501	0.273	0.238
-410.355	-200.000	0.069	0.503
-409.340	-97.652	-0.609	-0.157
-408.325	-144.218	-0.209	-0.019
-407.311	-52.303	0.105	-0.048
-406.296	-80.164	0.130	0.043
-405.282	-42.190	0.409	-0.208
-404.267	-100.109	-0.385	-0.095
-403.252	800.000	-0.148	0.597
-402.238	-107.297	-0.599	-0.131
-401.223	280.782	-0.351	0.625
-400.209	-71.570	0.323	-0.120
-399.194	-200.000	-0.049	-0.399
-398.179	200.960	-0.312	-0.477
-397.165	313.728	-0.233	0.435
-396.150	342.232	0.129	0.250
-395.136	-200.000	0.053	0.602
-394.121	65.053	-0.245	0.246
-393.106	-200.000	-0.047	-0.385
-392.092	216.966	-0.434	0.687
-391.077	-200.000	0.044	0.344
-390.063	-200.000	0.043	-0.347
-389.048	91.075	0.233	0.260
-388.033	60.659	0.504	0.497
-387.019	15.410	-0.189	-0.148
-386.004	148.082	-0.419	0.562
-384.990	-200.000	-0.210	0.921
-383.975	-141.248	0.793	0.080
-382.960	800.000	0.342	-1.086
-381.946	-2.135	-0.256	-0.179
-380.931	4.027	0.401	0.291
-379.917	-200.000	-0.060	0.878
-378.902	800.000	0.070	-0.204
-377.888	109.219	0.206	0.245
-376.873	-125.417	0.953	-0.144
-375.858	-116.329	0.770	0.142
-374.844	-17.458	-0.345	0.215
-373.829	800.000	-0.215	0.606
-372.815	-18.734	-0.145	0.090
-371.800	-132.704	-0.487	0.062
-370.785	546.051	-0.223	0.530
-369.771	-55.978	-0.288	-0.128
-368.756	379.347	-0.219	-0.446
-367.742	656.369	0.164	-0.419
-366.727	-72.175	0.410	0.151
-365.712	-200.000	0.109	0.831
-364.698	60.036	-0.514	-0.504
-363.683	-5.470	0.644	0.439
-362.669	-56.706	0.548	-0.241
-361.654	190.409	0.448	0.669
-360.639	-104.837	-0.160	-0.036
-359.625	-200.000	-0.026	-0.497
-358.610	318.293	0.176	-0.332
-357.596	-200.000	-0.157	-1.026
-356.581	137.101	0.273	-0.354
-355.566	141.680	-0.330	0.435
-354.552	94.347	0.317	0.357
-353.537	168.901	0.375	-0.530
-352.523	-17.968	-0.292	-0.182
-351.508	312.136	-0.118	-0.220
-350.493	-135.156	-0.675	-0.081
-349.479	-44.699	0.187	0.093
-348.464	800.000	-0.199	0.590
-347.450	800.000	-0.138	-0.399
-346.435	800.000	-0.303	-1.010
-345.420	46.993	0.155	-0.143
-344.406	-200.000	-0.007	0.104
-343.391	101.795	0.303	0.351
-342.377	800.000	-0.153	-0.424
-341.362	135.867	-0.333	-0.431
-340.348	192.995	-0.074	0.112
-339.333	137.522	-0.141	0.183
-338.318	800.000	-0.186	-0.727
-337.304	-200.000	0.118	-0.882
-336.289	-56.877	-0.201	0.088
-335.275	-200.000	0.072	0.329
-334.260	246.361	-0.141	0.236
-333.245	132.810	-0.177	-0.227
-332.231	-159.845	0.846	-0.046
-331.216	115.843	-0.598	-0.726
-330.202	-32.812	-0.279	0.154
-329.187	800.000	0.093	0.365
-328.172	49.438	-0.203	0.189
-327.158	37.728	0.402	-0.354
-326.143	322.595	0.068	0.129
-325.129	26.943	0.473	0.394
-324.114	52.093	-0.206	0.195
-323.099	420.667	0.345	0.734
-322.085	800.000	0.204	-0.819
-321.070	104.519	-0.051	0.059
-320.056	348.462	-0.379	0.742
-319.041	124.835	0.903	-1.127
-318.026	532.619	0.241	0.566
-317.012	-141.816	0.208	-0.021
-315.997	92.325	-0.848	0.948
-314.983	509.142	0.044	0.101
-313.968	22.263	-0.574	-0.465
-312.953	800.000	-0.026	-0.106
-311.939	800.000	-0.164	0.621
-310.924	-200.000	-0.017	-1.573
-309.910	-200.000	-0.140	-0.638
-308.895	-141.353	-0.793	0.080
-307.880	800.000	0.215	0.916
-306.866	399.096	-0.144	-0.299
-305.851	-200.000	0.057	-0.721
-304.837	-121.489	-0.658	-0.108
-303.822	23.113	0.513	0.417
-302.807	800.000	0.183	0.575
-301.793	800.000	-0.129	-0.443
-300.778	339.220	-0.074	-0.143
-299.764	800.000	0.221	0.736
-298.749	-200.000	-0.110	-0.525
-297.735	-37.721	0.891	-0.470
-296.720	-7.460	0.191	0.128
-295.705	-28.058	-0.377	-0.216
-294.691	-97.691	-0.158	0.041
-293.676	115.954	0.266	0.323
-292.662	-154.315	0.131	-0.009
-291.647	3.428	-0.322	0.232
-290.632	-1.288	0.753	-0.526
-289.618	-71.571	0.547	0.203
-288.603	676.446	-0.272	0.701
-287.589	-200.000	-0.105	0.561
-286.574	-130.586	0.263	-0.035
-285.559	137.037	0.293	0.380
-284.545	-4.901	-0.780	-0.533
-283.530	-102.570	0.516	0.122
-282.516	5.105	-0.552	0.403
-281.501	9.608	-0.685	0.514
-280.486	-184.680	0.377	-0.006
-279.472	657.674	0.372	0.947
-278.457	-146.835	-0.163	0.014
-277.443	374.726	0.128	-0.259
-276.428	800.000	-0.090	0.285
-275.413	5.821	0.419	0.307
-274.399	365.221	-0.266	0.530
-273.384	-52.541	-0.492	-0.225
-272.370	-169.590	-1.551	0.056
-271.355	-39.074	0.701	0.365
-270.340	-75.672	-0.554	0.195
-269.326	221.455	0.357	0.568
-268.311	-200.000	0.122	-0.812
-267.297	-127.071	0.205	-0.030
-266.282	-24.209	0.221	0.131
-265.267	43.917	-0.340	-0.308
-264.253	785.772	0.258	0.700
-263.238	19.895	0.349	0.278
-262.224	-200.000	-0.093	1.051
-261.209	-200.000	-0.043	0.234
-260.195	-164.936	0.673	-0.030
-259.180	-200.000	0.078	-0.564
-258.165	74.641	0.564	-0.587
-257.151	-69.662	0.427	-0.161
-256.136	106.020	-0.468	-0.548
-255.122	-200.000	0.014	0.095
-254.107	169.407	-0.177	0.250
-253.092	-81.743	0.778	0.252
-252.078	800.000	-0.168	-0.716
-251.063	-102.135	0.662	0.158
-250.049	-107.736	-0.578	-0.125
-249.034	-200.000	0.067	0.535
-248.019	221.334	0.058	-0.093
-247.005	649.969	0.208	-0.527
-245.990	800.000	-0.244	-0.709
-244.976	245.698	0.206	-0.342
-243.961	709.301	-0.091	-0.238
-242.946	124.598	-0.546	0.679
-241.932	-200.000	-0.027	-0.348
-240.917	-112.442	0.985	0.195
-239.903	-91.368	0.504	0.143
-238.888	33.605	-0.747	0.642
-237.873	-200.000	0.033	-0.785
-236.859	291.949	-0.156	-0.281
-235.844	-166.662	0.602	0.025
-234.830	-9.162	0.173	0.114
-233.815	268.442	-0.485	0.840
-232.800	185.897	0.294	0.432
-231.786	18.522	0.582	-0.460
-230.771	-23.235	-0.181	-0.107
-229.757	377.354	-0.227	0.458
-228.742	-200.000	0.030	-0.397
-227.727	-200.000	0.041	0.673
-226.713	-26.520	-0.533	0.308
-225.698	800.000	-0.201	-0.577
-224.684	64.823	0.502	-0.501
-223.669	-200.000	-0.190	-1.093
-222.655	124.384	0.121	0.150
-221.640	-200.000	-0.052	0.470
-220.625	-200.000	0.078	-0.437
-219.611	41.310	0.305	-0.272
-218.596	800.000	-0.240	-0.761
-217.582	162.580	-0.478	-0.662
-216.567	-200.000	-0.004	-0.459
-215.552	334.131	-0.152	-0.291
-214.538	9.455	0.405	0.302
-213.523	10.296	-0.515	-0.387
-212.509	209.520	-0.121	-0.187
-211.494	121.850	0.177	0.218
-210.479	-3.177	-0.058	0.040
-209.465	130.554	0.283	-0.358
-208.450	41.933	0.329	-0.295
-207.436	800.000	0.160	0.583
-206.421	40.168	-0.386	0.342
-205.406	-91.757	0.498	0.140
-204.392	800.000	0.182	0.682
-203.377	96.856	-0.604	-0.684
-202.363	-165.390	0.300	0.013
-201.348	663.990	0.505	1.286
-200.333	-8.135	-0.375	0.249
-199.319	-86.248	-0.117	0.035
-198.304	-85.428	-0.332	-0.102
-197.290	-75.407	-0.281	-0.099
-196.275	-200.000	-0.058	-0.908
-195.260	-200.000	0.041	0.404
-194.246	202.693	0.221	-0.337
-193.231	-200.000	-0.396	-0.001
-192.217	76.805	-0.653	0.684
-191.202	115.877	0.074	0.089
-190.187	-132.809	-0.687	-0.087
-189.173	134.241	-0.344	0.439
-188.158	-200.000	-0.026	0.924
-187.144	-44.176	0.336	0.166
-186.129	377.096	-0.128	-0.258
-185.114	-200.000	-0.108	0.519
-184.100	257.237	-0.193	-0.328
-183.085	20.869	0.413	0.330
-182.071	-200.000	0.018	-0.298
-181.056	800.000	0.088	0.265
-180.042	-200.000	-0.065	-0.360
-179.027	426.058	0.062	0.132
-178.012	-200.000	-0.133	-0.609
-176.998	627.194	-0.333	-0.830
-175.983	-53.574	-0.377	0.170
-174.969	800.000	-0.150	-0.642
-173.954	-200.000	-0.054	-0.651
-172.939	-200.000	0.052	-0.804
-171.925	-13.870	0.453	-0.289
-170.910	-103.519	-0.640	-0.148
-169.896	231.870	0.263	-0.426
-168.881	-114.699	0.464	-0.087
-167.866	200.371	0.271	0.411
-166.852	0.925	0.648	-0.458
-165.837	758.154	0.155	0.414
-164.823	-169.419	-0.477	0.017
-163.808	141.583	0.554	0.724
-162.793	284.793	0.490	0.869
-161.779	800.000	-0.256	-0.813
-160.764	361.725	-0.091	-0.180
-159.750	800.000	-0.270	1.071
-158.735	45.780	0.566	0.515
-157.720	-143.833	0.718	-0.067
-156.706	-134.909	-0.702	0.084
-155.691	43.767	0.243	0.219
-154.677	-82.368	-0.506	0.162
-153.662	-191.485	0.454	0.005
-152.647	68.842	-0.214	0.216
-151.633	-6.464	-0.308	-0.207
-150.618	370.773	0.467	0.934
-149.604	329.076	-0.615	-1.164
-148.589	513.496	0.154	0.354
-147.574	-200.000	-0.045	-0.392
-146.560	78.211	0.673	-0.707
-145.545	670.969	0.219	0.559
-144.531	396.480	0.239	0.492
-143.516	201.459	0.236	0.358
-142.502	-200.000	-0.120	-0.846
-141.487	-94.335	-0.155	-0.042
-140.472	571.963	-0.377	-0.905
-139.458	800.000	-0.142	-0.427
-138.443	-50.639	-0.955	-0.443
-137.429	-34.998	-0.433	0.232
-136.414	534.235	-0.169	0.393
-135.399	800.000	0.054	-0.178
-134.385	-45.957	-0.811	-0.394
-133.370	164.628	0.282	-0.391
-132.356	45.951	0.114	0.104
-131.341	-200.000	0.122	-0.976
-130.326	-6.088	0.141	-0.095
-129.312	292.497	-0.244	0.437
-128.297	-6.082	-0.379	-0.255
-127.283	-149.590	-0.691	-0.054
-126.268	-200.000	-0.176	-0.000
-125.253	31.828	-0.096	-0.082
-124.239	679.210	0.175	0.449
-123.224	-165.607	0.245	-0.010
-122.210	60.485	0.396	0.386
-121.195	1.600	-1.011	-0.716
