DTS Sentinel unit serial number:	SN413079Multiplexer serial number:	ORYXHardware model number:	OX4-SRSoftware version number:	ORYX F/W v4.00 Oryx Data Collector v3.7.2.0data status	okinstallation	princeton_trtdifferential loss correction	single-endedforward channel	channel 2reverse channel	N/Adate	2019/09/14time	01:47:35forward acquisition time	60.00reverse acquisition time	0.00gamma	496.2192k internal	0.2337k external	0.2337temperature offset calibration	1.0128default loss term (dB/km)	0.3790temperature slope calibration	1.0000multiplexer offset coefficient	1.0000multiplexer slope coefficient	1.0000fibre end	0.00T internal ref (°C)	26.44T ext. ref 1 (°C)	3.21T ext. ref 2 (°C)	21.47length (m)	temperature (°C)	Stokes	anti-Stokes-747.200	-132.089	0.169	0.022
-746.185	800.000	0.041	-0.126
-745.171	-200.000	-0.040	-0.241
-744.156	800.000	0.090	0.284
-743.142	-79.549	0.237	0.080
-742.127	-130.638	-0.219	-0.030
-741.112	800.000	0.011	0.042
-740.098	23.958	0.215	0.178
-739.083	-92.124	-0.155	-0.044
-738.069	200.364	-0.066	-0.102
-737.054	-200.000	0.039	0.314
-736.039	-19.477	-0.368	0.229
-735.025	-200.000	0.037	0.279
-734.010	-143.511	-0.310	0.030
-732.996	-200.000	-0.022	-0.518
-731.981	-0.323	-0.097	0.069
-730.966	-87.885	-0.110	-0.033
-729.952	-80.947	0.188	-0.062
-728.937	-19.438	-0.497	-0.309
-727.923	-97.008	0.221	-0.058
-726.908	-200.000	-0.051	-0.337
-725.894	21.510	-0.303	-0.247
-724.879	148.911	-0.054	0.073
-723.864	246.424	-0.143	-0.242
-722.850	752.890	0.010	-0.028
-721.835	51.744	-0.119	-0.114
-720.821	51.417	0.156	0.149
-719.806	312.840	-0.184	0.346
-718.791	51.718	-0.132	-0.126
-717.777	-200.000	0.011	-0.070
-716.762	33.173	-0.085	-0.074
-715.748	800.000	0.063	-0.189
-714.733	800.000	0.049	0.206
-713.718	22.927	-0.150	-0.123
-712.704	-123.285	-0.201	-0.032
-711.689	-200.000	-0.481	-0.002
-710.675	657.693	0.065	-0.168
-709.660	-200.000	0.034	0.164
-708.645	315.571	0.199	0.376
-707.631	-200.000	-0.022	-0.124
-706.616	438.097	0.152	-0.332
-705.602	43.955	0.214	0.197
-704.587	-93.650	0.241	-0.067
-703.572	800.000	-0.142	-0.568
-702.558	233.353	0.097	-0.160
-701.543	-52.829	-0.273	0.126
-700.529	-74.723	0.245	-0.088
-699.514	38.479	-0.082	-0.073
-698.499	-144.148	-0.087	-0.008
-697.485	49.079	-0.101	-0.095
-696.470	-81.855	0.318	0.104
-695.456	12.804	-0.216	0.167
-694.441	-29.114	-0.374	-0.215
-693.426	-76.780	0.173	0.061
-692.412	-200.000	-0.011	-0.064
-691.397	456.922	0.059	0.131
-690.383	790.257	0.043	-0.117
-689.368	125.894	-0.120	-0.152
-688.354	-139.743	-0.402	-0.043
-687.339	144.960	0.180	0.241
-686.324	-100.108	0.206	0.051
-685.310	-50.140	-0.258	-0.122
-684.295	94.555	-0.144	-0.164
-683.281	255.873	-0.057	0.098
-682.266	-123.867	-0.180	-0.028
-681.251	-73.887	0.358	-0.130
-680.237	56.736	-0.137	0.134
-679.222	-138.192	0.131	0.015
-678.208	800.000	0.048	0.136
-677.193	-41.485	0.064	0.033
-676.178	-183.843	-0.019	-0.000
-675.164	-55.983	-0.072	0.032
-674.149	-92.024	-0.188	0.053
-673.135	-44.764	0.520	-0.260
-672.120	277.995	0.188	0.335
-671.105	123.415	0.127	0.159
-670.091	-200.000	0.016	-0.368
-669.076	-200.000	-0.014	0.247
-668.062	38.250	-0.241	0.215
-667.047	800.000	0.036	-0.133
-666.032	481.179	-0.063	0.142
-665.018	-66.003	-0.243	0.097
-664.003	-71.778	0.396	0.148
-662.989	-29.011	0.340	0.195
-661.974	-56.126	0.092	-0.041
-660.959	-200.000	0.009	0.151
-659.945	800.000	0.014	0.053
-658.930	-200.000	-0.035	-0.295
-657.916	-31.687	-0.156	0.088
-656.901	-12.391	-0.253	0.165
-655.886	134.903	0.147	-0.191
-654.872	-66.830	-0.527	0.209
-653.857	-200.000	0.007	0.156
-652.843	94.615	0.025	-0.028
-651.828	34.511	-0.134	-0.117
-650.814	-52.228	-0.265	-0.123
-649.799	-71.259	-0.035	0.013
-648.784	-76.850	0.114	-0.040
-647.770	32.393	0.372	0.321
-646.755	-165.738	-0.158	0.007
-645.741	228.501	-0.011	-0.018
-644.726	-200.000	-0.032	-0.357
-643.711	-55.558	0.258	0.115
-642.697	-49.105	0.358	0.171
-641.682	108.883	-0.115	0.138
-640.668	77.622	-0.161	-0.172
-639.653	-73.910	-0.124	0.045
-638.638	-200.000	-0.007	0.147
-637.624	201.247	0.134	0.207
-636.609	215.802	-0.116	0.184
-635.595	-4.677	0.032	0.022
-634.580	239.243	0.157	-0.261
-633.565	416.084	-0.088	0.188
-632.551	43.716	-0.167	-0.152
-631.536	143.889	0.087	-0.116
-630.522	-200.000	-0.014	0.075
-629.507	-200.000	0.037	-0.218
-628.492	294.505	0.138	-0.252
-627.478	-162.324	0.453	0.023
-626.463	-154.710	0.221	-0.015
-625.449	77.370	-0.293	-0.311
-624.434	-200.000	-0.049	-0.287
-623.419	584.494	-0.118	-0.290
-622.405	800.000	-0.059	-0.193
-621.390	-88.669	-0.064	-0.019
-620.376	20.961	0.473	0.383
-619.361	74.666	-0.232	0.244
-618.346	-103.179	0.070	0.016
-617.332	-41.471	-0.205	0.105
-616.317	-43.148	0.035	-0.018
-615.303	-94.933	-0.300	-0.081
-614.288	-200.000	0.021	0.133
-613.273	173.351	-0.116	0.167
-612.259	-31.535	-0.121	-0.068
-611.244	-145.101	0.355	-0.032
-610.230	-150.233	0.200	0.015
-609.215	16.148	0.165	-0.130
-608.201	-128.393	-0.498	0.071
-607.186	-103.267	-0.303	-0.071
-606.171	320.575	-0.143	0.271
-605.157	64.088	-0.135	-0.136
-604.142	418.793	0.086	0.185
-603.128	-56.691	-0.251	-0.111
-602.113	104.253	-0.075	-0.088
-601.098	-25.780	0.301	0.177
-600.084	29.755	0.131	-0.111
-599.069	-179.199	0.313	0.007
-598.055	-76.336	0.252	0.088
-597.040	146.183	0.121	0.162
-596.025	-73.022	0.110	-0.040
-595.011	-200.000	0.158	-0.001
-593.996	274.497	0.192	0.340
-592.982	800.000	0.059	0.169
-591.967	3.718	-0.237	0.172
-590.952	-45.777	-0.440	0.217
-589.938	93.388	-0.235	-0.265
-588.923	800.000	-0.038	-0.113
-587.909	-80.554	0.115	-0.038
-586.894	-42.572	-0.133	0.067
-585.879	-133.181	0.322	0.041
-584.865	338.871	-0.047	-0.092
-583.850	-200.000	-0.009	0.215
-582.836	-76.869	0.332	0.116
-581.821	-200.000	-0.008	-0.038
-580.806	181.017	-0.204	0.299
-579.792	175.747	0.085	0.123
-578.777	-200.000	0.032	-0.300
-577.763	103.325	-0.109	-0.127
-576.748	-118.647	-0.382	-0.067
-575.733	768.615	0.058	-0.158
-574.719	261.617	0.109	-0.187
-573.704	160.664	-0.188	-0.261
-572.690	35.668	-0.138	0.121
-571.675	4.479	-0.154	0.113
-570.661	-68.078	0.242	0.094
-569.646	428.903	-0.135	0.290
-568.631	39.581	-0.165	-0.147
-567.617	146.174	-0.190	0.254
-566.602	99.673	0.111	-0.128
-565.588	267.102	0.047	-0.083
-564.573	36.243	-0.064	0.056
-563.558	800.000	-0.080	0.270
-562.544	-66.911	0.190	-0.075
-561.529	-77.645	-0.288	0.099
-560.515	-200.000	0.014	-0.499
-559.500	800.000	-0.062	-0.246
-558.485	68.978	0.156	0.160
-557.471	34.653	-0.101	-0.088
-556.456	800.000	-0.049	-0.157
-555.442	12.132	0.323	0.248
-554.427	501.178	0.102	0.236
-553.412	-107.575	0.379	0.083
-552.398	167.841	-0.215	0.304
-551.383	-116.251	-0.021	0.004
-550.369	-200.000	-0.012	0.189
-549.354	7.838	0.221	0.165
-548.339	-120.150	0.387	-0.066
-547.325	9.648	-0.148	0.111
-546.310	42.712	-0.134	-0.122
-545.296	800.000	-0.103	0.299
-544.281	90.319	-0.133	0.149
-543.266	-171.601	-0.077	0.003
-542.252	-44.885	0.201	0.100
-541.237	-32.653	0.113	-0.063
-540.223	-70.206	0.042	-0.016
-539.208	-58.320	0.069	0.030
-538.193	-200.000	-0.044	-0.218
-537.179	159.284	-0.355	-0.491
-536.164	266.773	-0.116	-0.202
-535.150	-111.167	0.085	0.017
-534.135	-185.417	0.342	-0.005
-533.121	222.489	0.246	-0.394
-532.106	-90.036	-0.129	0.037
-531.091	-60.815	0.016	-0.007
-530.077	141.198	0.163	0.215
-529.062	196.352	-0.124	-0.188
-528.048	200.722	-0.073	0.112
-527.033	578.819	-0.034	-0.083
-526.018	37.613	0.131	0.116
-525.004	-155.432	-0.140	-0.009
-523.989	-110.588	-0.503	-0.104
-522.975	-24.759	0.133	-0.079
-521.960	-34.144	0.321	-0.175
-520.945	541.219	-0.059	-0.141
-519.931	-172.272	-0.218	0.007
-518.916	594.976	0.078	-0.192
-517.902	-27.474	-0.308	0.178
-516.887	-200.000	-0.006	0.124
-515.872	-200.000	0.024	-0.132
-514.858	56.533	0.270	0.262
-513.843	193.002	0.109	-0.164
-512.829	-59.187	-0.233	-0.100
-511.814	-22.045	-0.256	-0.155
-510.799	714.913	-0.055	-0.144
-509.785	-200.000	-0.011	-0.167
-508.770	282.459	0.105	0.188
-507.756	-200.000	0.049	0.336
-506.741	-200.000	0.011	0.168
-505.726	800.000	0.030	0.101
-504.712	-200.000	0.029	0.573
-503.697	-200.000	0.022	-0.142
-502.683	514.333	0.081	-0.188
-501.668	156.072	-0.076	-0.104
-500.653	307.767	-0.092	-0.171
-499.639	-155.027	0.141	0.009
-498.624	800.000	-0.037	0.140
-497.610	-200.000	-0.017	0.076
-496.595	338.790	-0.044	-0.084
-495.581	-147.952	0.171	-0.014
-494.566	124.780	-0.244	-0.305
-493.551	-173.603	0.154	0.005
-492.537	540.105	-0.031	-0.074
-491.522	312.383	0.120	-0.224
-490.508	-64.536	0.248	0.100
-489.493	-164.370	0.039	0.002
-488.478	-16.563	-0.201	-0.126
-487.464	-47.694	-0.084	0.041
-486.449	-114.440	-0.174	0.033
-485.435	30.137	0.068	-0.058
-484.420	-155.062	-0.530	0.035
-483.405	72.584	-0.053	-0.055
-482.391	-105.867	-0.298	-0.067
-481.376	131.207	-0.136	-0.174
-480.362	-126.145	0.222	0.033
-479.347	-91.578	-0.099	-0.028
-478.332	3.685	0.338	-0.245
-477.318	0.357	-0.143	-0.101
-476.303	-154.238	0.162	0.011
-475.289	-0.858	-0.069	-0.048
-474.274	-200.000	-0.004	-0.180
-473.259	-200.000	0.021	-0.213
-472.245	84.413	0.131	0.142
-471.230	89.564	0.158	0.175
-470.216	20.485	0.098	0.079
-469.201	-62.333	0.097	0.040
-468.186	-19.384	0.158	-0.097
-467.172	415.974	-0.021	0.044
-466.157	-12.958	-0.191	0.124
-465.143	-149.188	-0.148	-0.012
-464.128	307.399	-0.085	0.157
-463.113	-200.000	0.031	0.435
-462.099	199.718	-0.094	0.143
-461.084	-94.307	-0.209	0.057
-460.070	-3.102	0.306	-0.212
-459.055	-137.337	0.184	0.021
-458.040	-73.440	0.191	0.069
-457.026	-200.000	-0.045	-0.216
-456.011	647.438	0.049	-0.125
-454.997	98.015	-0.111	-0.126
-453.982	72.953	-0.049	0.051
-452.968	-200.000	0.001	-0.016
-451.953	-39.519	-0.086	0.045
-450.938	-152.794	0.356	0.025
-449.924	-22.538	-0.263	0.158
-448.909	-3.656	0.515	-0.355
-447.895	-200.000	-0.030	0.217
-446.880	-200.000	0.076	-0.400
-445.865	-200.000	-0.045	-0.365
-444.851	-38.377	-0.424	0.223
-443.836	-200.000	0.006	-0.103
-442.822	-66.273	-0.113	-0.045
-441.807	-157.951	-0.165	0.010
-440.792	72.208	0.105	-0.108
-439.778	-51.603	0.378	0.175
-438.763	-18.476	-0.180	-0.112
-437.749	-200.000	0.027	0.274
-436.734	-149.890	0.178	-0.014
-435.719	217.289	-0.234	-0.370
-434.705	230.790	0.158	0.257
-433.690	-103.267	-0.208	-0.049
-432.676	-168.589	-0.366	-0.014
-431.661	-163.477	-0.356	0.017
-430.646	163.546	-0.170	0.237
-429.632	-200.000	0.006	0.202
-428.617	2.649	-0.224	0.161
-427.603	27.681	-0.117	-0.097
-426.588	-121.168	0.232	-0.038
-425.573	110.616	0.032	0.038
-424.559	110.422	-0.256	0.305
-423.544	46.884	-0.277	0.255
-422.530	-39.167	0.344	0.179
-421.515	175.286	0.126	0.181
-420.500	10.456	0.077	-0.058
-419.486	-40.503	0.229	-0.118
-418.471	-25.400	-0.184	-0.108
-417.457	-200.000	0.046	-0.277
-416.442	-2.862	-0.135	0.093
-415.428	29.617	0.107	-0.090
-414.413	-200.000	-0.006	-0.039
-413.398	800.000	0.031	-0.126
-412.384	208.811	-0.141	0.219
-411.369	-88.854	0.304	0.089
-410.355	739.951	0.029	0.076
-409.340	-91.855	-0.257	-0.072
-408.325	-200.000	0.092	0.439
-407.311	-200.000	0.022	-0.388
-406.296	229.932	-0.060	0.097
-405.282	211.586	-0.193	0.301
-404.267	390.098	-0.132	-0.270
-403.252	-28.962	-0.234	0.133
-402.238	800.000	0.083	-0.266
-401.223	218.325	0.216	0.341
-400.209	-5.434	-0.157	-0.107
-399.194	-200.000	-0.018	0.422
-398.179	384.505	-0.090	0.184
-397.165	800.000	-0.036	0.126
-396.150	-81.986	-0.237	0.077
-395.136	-17.331	-0.044	0.028
-394.121	583.178	-0.010	0.024
-393.106	-31.595	-0.413	-0.229
-392.092	-66.115	0.110	0.043
-391.077	-21.426	0.320	0.194
-390.063	-150.874	0.397	0.030
-389.048	38.924	0.121	0.107
-388.033	199.856	0.030	-0.046
-387.019	-194.547	-0.076	0.001
-386.004	481.140	-0.043	0.097
-384.990	-30.697	0.424	-0.237
-383.975	800.000	0.039	0.130
-382.960	-200.000	-0.029	0.160
-381.946	-200.000	-0.010	-0.107
-380.931	-141.888	-0.208	-0.021
-379.917	-81.487	-0.106	0.035
-378.902	116.933	-0.220	0.267
-377.888	-200.000	-0.052	-0.462
-376.873	800.000	0.097	-0.276
-375.858	22.960	-0.068	-0.055
-374.844	-31.296	0.078	-0.043
-373.829	172.022	-0.166	-0.235
-372.815	41.869	-0.164	0.147
-371.800	-66.649	0.182	-0.071
-370.785	653.362	0.051	-0.129
-369.771	800.000	-0.056	0.197
-368.756	-64.931	-0.320	0.128
-367.742	-123.660	-0.370	0.058
-366.727	800.000	-0.014	0.042
-365.712	-200.000	0.029	0.223
-364.698	-79.103	0.226	-0.076
-363.683	-96.602	-0.202	0.053
-362.669	603.422	-0.099	0.244
-361.654	95.287	-0.105	0.118
-360.639	122.418	0.111	0.137
-359.625	116.729	0.163	0.198
-358.610	-192.002	0.248	0.002
-357.596	-200.000	-0.004	-0.067
-356.581	-108.240	0.076	0.016
-355.566	524.992	-0.075	0.174
-354.552	-170.137	0.296	0.010
-353.537	386.477	-0.060	-0.123
-352.523	-1.822	0.183	0.127
-351.508	-200.000	-0.012	-0.071
-350.493	-200.000	-0.000	0.143
-349.479	139.522	0.139	0.181
-348.464	96.848	-0.138	-0.156
-347.450	583.089	0.006	-0.014
-346.435	-136.532	-0.290	-0.033
-345.420	-200.000	0.007	-0.156
-344.406	800.000	0.033	0.105
-343.391	77.741	0.136	-0.143
-342.377	-149.087	-0.394	-0.031
-341.362	488.949	-0.068	-0.153
-340.348	24.344	0.039	0.032
-339.333	-44.412	0.220	0.109
-338.318	-139.238	-0.245	0.026
-337.304	-8.844	0.035	-0.023
-336.289	-82.498	0.210	-0.067
-335.275	102.647	0.083	-0.096
-334.260	677.459	-0.093	0.239
-333.245	96.780	-0.156	-0.177
-332.231	-200.000	-0.084	-0.455
-331.216	-9.036	-0.268	-0.177
-330.202	87.287	0.199	0.218
-329.187	-126.117	0.086	0.013
-328.172	-153.480	-0.258	0.018
-327.158	-200.000	-0.042	-0.235
-326.143	44.295	0.201	-0.182
-325.129	-39.946	-0.088	-0.045
-324.114	49.383	-0.100	-0.093
-323.099	237.031	0.060	-0.098
-322.085	424.685	-0.179	0.380
-321.070	-200.000	-0.075	-0.417
-320.056	-200.000	-0.044	-0.275
-319.041	31.494	0.085	0.072
-318.026	-105.740	0.364	0.081
-317.012	338.436	0.124	-0.238
-315.997	-200.000	0.019	-0.419
-314.983	-98.023	-0.105	0.027
-313.968	-20.136	-0.237	-0.144
-312.953	-200.000	0.025	-0.136
-311.939	-75.472	0.208	-0.073
-310.924	483.887	0.013	-0.029
-309.910	-37.031	-0.373	-0.197
-308.895	419.609	-0.101	0.213
-307.880	-76.225	0.223	0.078
-306.866	-200.000	0.009	-0.236
-305.851	358.041	-0.043	-0.085
-304.837	41.903	-0.058	0.052
-303.822	-113.501	0.035	0.007
-302.807	800.000	0.090	-0.252
-301.793	-69.974	0.218	-0.082
-300.778	-200.000	0.058	0.272
-299.764	-118.625	-0.535	0.093
-298.749	54.255	0.232	0.220
-297.735	-200.000	0.020	0.461
-296.720	-103.894	-0.554	-0.128
-295.705	800.000	0.036	-0.127
-294.691	610.505	0.124	0.306
-293.676	669.949	0.193	-0.492
-292.662	-111.727	-0.068	-0.014
-291.647	800.000	0.041	-0.142
-290.632	-110.174	0.179	0.037
-289.618	-174.495	0.352	0.010
-288.603	-24.779	0.257	-0.150
-287.589	-49.141	0.193	-0.091
-286.574	358.566	0.130	0.256
-285.559	-71.615	0.154	0.057
-284.545	118.200	-0.023	0.028
-283.530	798.306	0.085	0.232
-282.516	-132.421	-0.096	0.012
-281.501	-55.451	0.091	0.040
-280.486	-142.504	0.206	-0.020
-279.472	-200.000	-0.003	0.179
-278.457	800.000	-0.016	-0.066
-277.443	198.075	-0.070	-0.105
-276.428	-34.659	0.129	0.069
-275.413	800.000	-0.140	-0.434
-274.399	-200.000	0.028	-0.197
-273.384	-129.428	-0.347	0.047
-272.370	-92.973	-0.093	-0.026
-271.355	106.628	0.193	0.226
-270.340	-117.127	-0.102	0.018
-269.326	221.591	0.050	0.078
-268.311	-200.000	-0.003	-0.022
-267.297	-200.000	0.025	0.165
-266.282	138.648	0.082	-0.106
-265.267	-200.000	-0.012	0.128
-264.253	24.530	-0.179	0.146
-263.238	-173.543	-0.381	0.011
-262.224	800.000	0.121	0.363
-261.209	800.000	-0.057	-0.154
-260.195	67.965	0.026	-0.026
-259.180	186.510	-0.245	-0.359
-258.165	-200.000	0.032	-0.211
-257.151	-200.000	-0.023	-0.152
-256.136	-109.443	0.023	0.005
-255.122	-111.949	0.180	-0.036
-254.107	231.039	0.047	0.076
-253.092	39.052	-0.289	0.254
-252.078	47.654	0.155	0.142
-251.063	-20.068	0.035	-0.021
-250.049	-200.000	-0.012	0.118
-249.034	800.000	-0.068	0.202
-248.019	93.101	-0.047	0.052
-247.005	-200.000	-0.038	-0.458
-245.990	800.000	0.100	-0.293
-244.976	108.033	0.379	-0.445
-243.961	800.000	0.158	-0.548
-242.946	167.870	-0.117	-0.164
-241.932	-9.313	-0.070	-0.046
-240.917	382.488	-0.136	0.276
-239.903	255.174	0.232	0.391
-238.888	-33.831	0.133	-0.072
-237.873	21.727	0.176	0.141
-236.859	-120.684	0.310	-0.052
-235.844	294.543	0.070	-0.127
-234.830	291.950	-0.079	-0.141
-233.815	270.421	0.049	-0.085
-232.800	61.716	0.182	-0.178
-231.786	24.718	-0.045	0.037
-230.771	-181.740	0.392	-0.007
-229.757	-96.242	-0.450	0.117
-228.742	150.202	-0.045	0.060
-227.727	228.734	-0.180	0.288
-226.713	232.196	-0.055	0.089
-225.698	577.522	-0.050	-0.120
-224.684	-200.000	-0.040	0.264
-223.669	124.391	0.120	0.149
-222.655	-53.885	0.182	-0.082
-221.640	-200.000	0.067	-0.359
-220.625	-200.000	0.000	-0.006
-219.611	-147.462	-0.110	0.009
-218.596	497.384	0.038	-0.085
-217.582	520.735	0.178	-0.410
-216.567	274.797	0.117	-0.203
-215.552	-25.255	0.126	0.073
-214.538	45.296	-0.248	0.225
-213.523	-18.943	-0.148	-0.091
-212.509	49.974	-0.141	-0.131
-211.494	662.791	0.066	-0.168
-210.479	239.322	0.087	-0.142
-209.465	202.146	0.234	0.355
-208.450	210.550	-0.044	0.069
-207.436	800.000	0.045	-0.171
-206.421	-152.846	0.081	0.006
-205.406	-141.256	0.205	-0.020
-204.392	-82.457	0.119	-0.038
-203.377	398.446	-0.077	0.158
-202.363	9.875	-0.261	0.195
-201.348	800.000	0.024	-0.083
-200.333	-189.667	-0.171	0.002
-199.319	147.250	0.226	0.299
-198.304	-121.916	-0.438	-0.071
-197.290	-200.000	-0.017	-0.335
-196.275	-26.536	-0.139	-0.080
-195.260	-51.786	0.148	-0.067
-194.246	18.679	0.205	-0.161
-193.231	672.767	-0.046	-0.117
-192.217	141.490	-0.137	0.178
-191.202	-200.000	0.020	0.197
-190.187	137.923	0.068	0.087
-189.173	3.692	-0.212	0.152
-188.158	-106.268	-0.258	0.057
-187.144	-57.540	0.432	0.186
-186.129	-88.027	-0.136	-0.040
-185.114	320.006	-0.023	-0.043
-184.100	340.882	-0.120	-0.231
-183.085	800.000	-0.072	-0.233
-182.071	-200.000	0.015	-0.082
-181.056	80.143	-0.105	0.111
-180.042	-109.257	-0.161	0.034
-179.027	219.731	-0.133	0.209
-178.012	196.900	0.124	-0.186
-176.998	-105.474	-0.150	0.033
-175.983	-200.000	-0.009	-0.222
-174.969	800.000	0.037	-0.107
-173.954	29.751	0.214	-0.179
-172.939	23.474	0.161	-0.130
-171.925	485.380	-0.110	0.245
-170.910	-118.874	-0.204	-0.035
-169.896	-107.696	0.239	0.051
-168.881	96.575	0.202	0.227
-167.866	-27.171	-0.023	0.013
-166.852	-159.831	-0.179	-0.010
-165.837	232.725	-0.111	0.179
-164.823	132.041	-0.266	0.336
-163.808	684.961	0.079	0.203
-162.793	-112.205	-0.214	0.042
-161.779	168.252	0.284	0.397
-160.764	-200.000	-0.041	-0.464
-159.750	-92.248	0.281	-0.078
-158.735	800.000	0.113	0.461
-157.720	-123.083	0.490	0.077
-156.706	-200.000	0.028	0.173
-155.691	402.659	-0.167	0.344
-154.677	-91.309	-0.126	-0.035
-153.662	525.902	0.078	-0.181
-152.647	-26.078	0.203	0.117
-151.633	-60.191	0.256	0.107
-150.618	-31.516	-0.128	-0.070
-149.604	-147.040	-0.044	0.004
-148.589	-200.000	0.076	-0.425
-147.574	-124.256	-0.268	-0.041
-146.560	-140.444	0.185	-0.019
-145.545	-172.117	-0.347	-0.011
-144.531	63.186	0.135	0.133
-143.516	-159.081	-0.032	0.002
-142.502	800.000	-0.063	0.251
-141.487	1.921	-0.497	0.352
-140.472	-184.453	-0.373	-0.006
-139.458	285.946	0.111	0.196
-138.443	506.586	-0.176	0.399
-137.429	39.303	-0.209	0.184
-136.414	44.494	-0.313	-0.282
-135.399	245.360	-0.146	0.241
-134.385	97.535	0.239	0.269
-133.370	-126.515	0.223	0.032
-132.356	347.641	-0.093	-0.179
-131.341	-200.000	0.026	-0.126
-130.326	89.856	-0.126	-0.137
-129.312	-70.871	0.253	0.093
-128.297	48.434	0.189	0.173
-127.283	-10.625	-0.594	0.385
-126.268	50.697	0.102	0.095
-125.253	-169.134	0.208	-0.008
-124.239	-128.171	0.459	-0.064
-123.224	129.372	0.050	0.063
-122.210	800.000	-0.020	0.080
-121.195	44.739	-0.129	0.116
