DTS Sentinel unit serial number:	SN413079Multiplexer serial number:	ORYXHardware model number:	OX4-SRSoftware version number:	ORYX F/W v4.00 Oryx Data Collector v3.7.2.0data status	okinstallation	princeton_trtdifferential loss correction	single-endedforward channel	channel 2reverse channel	N/Adate	2019/09/15time	12:07:34forward acquisition time	60.00reverse acquisition time	0.00gamma	496.2192k internal	0.2314k external	0.2314temperature offset calibration	1.0016default loss term (dB/km)	0.3790temperature slope calibration	1.0000multiplexer offset coefficient	1.0000multiplexer slope coefficient	1.0000fibre end	0.00T internal ref (°C)	34.52T ext. ref 1 (°C)	5.04T ext. ref 2 (°C)	30.86length (m)	temperature (°C)	Stokes	anti-Stokes-747.200	17.559	0.062	-0.050
-746.185	-123.238	-0.391	-0.063
-745.171	38.710	0.131	-0.118
-744.156	-53.378	-0.242	0.112
-743.142	-200.000	0.001	-0.042
-742.127	-7.153	-0.132	-0.091
-741.112	-87.845	-0.166	0.051
-740.098	313.640	-0.064	0.122
-739.083	-89.418	0.209	-0.062
-738.069	-200.000	0.008	0.108
-737.054	-87.869	0.317	0.097
-736.039	44.861	-0.200	-0.186
-735.025	-200.000	0.028	0.155
-734.010	40.609	-0.204	-0.186
-732.996	-200.000	-0.043	-0.254
-731.981	800.000	0.075	0.249
-730.966	690.446	0.020	0.053
-729.952	-53.709	-0.113	0.052
-728.937	94.548	0.101	-0.116
-727.923	-200.000	0.000	0.281
-726.908	376.397	-0.031	0.064
-725.894	140.271	-0.104	0.139
-724.879	516.099	-0.226	-0.536
-723.864	-29.777	0.261	-0.151
-722.850	218.206	0.148	-0.239
-721.835	800.000	-0.022	0.085
-720.821	-96.029	-0.119	-0.032
-719.806	-101.832	-0.435	0.107
-718.791	-47.447	-0.084	0.042
-717.777	800.000	-0.031	0.105
-716.762	-80.808	0.061	-0.021
-715.748	134.339	0.141	0.185
-714.733	-6.388	-0.161	-0.111
-713.718	8.295	0.208	-0.158
-712.704	366.131	0.100	-0.205
-711.689	-5.755	0.091	0.063
-710.675	-154.041	0.393	0.027
-709.660	58.367	0.135	-0.134
-708.645	-52.066	-0.474	-0.223
-707.631	800.000	0.087	-0.276
-706.616	-191.898	0.148	-0.001
-705.602	107.950	-0.061	0.073
-704.587	-200.000	-0.278	-0.001
-703.572	55.067	-0.045	-0.044
-702.558	-7.430	-0.231	0.158
-701.543	-164.849	-0.289	-0.013
-700.529	257.080	0.070	0.123
-699.514	-3.080	0.248	0.175
-698.499	57.262	-0.081	0.080
-697.485	161.387	0.037	-0.052
-696.470	415.891	0.118	-0.256
-695.456	29.419	-0.030	-0.026
-694.441	31.497	-0.209	0.182
-693.426	85.091	0.035	-0.038
-692.412	158.079	-0.166	0.233
-691.397	42.286	0.071	-0.065
-690.383	-123.204	-0.321	0.052
-689.368	-200.000	-0.005	0.256
-688.354	-138.520	0.135	0.015
-687.339	-200.000	-0.020	-0.223
-686.324	-200.000	-0.041	-0.202
-685.310	216.659	0.202	-0.324
-684.295	376.315	-0.128	0.264
-683.281	-38.411	-0.128	-0.069
-682.266	-47.415	0.115	0.057
-681.251	-118.272	0.118	0.021
-680.237	-113.204	-0.087	-0.017
-679.222	265.649	0.028	0.049
-678.208	70.779	-0.201	0.210
-677.193	-78.128	-0.255	0.089
-676.178	-200.000	0.004	0.247
-675.164	720.271	-0.126	0.338
-674.149	-178.686	-0.031	-0.001
-673.135	670.868	0.096	0.252
-672.120	678.777	0.085	-0.223
-671.105	-80.196	-0.206	-0.070
-670.091	159.101	-0.091	-0.128
-669.076	-200.000	-0.048	0.220
-668.062	116.516	-0.109	0.135
-667.047	-144.685	-0.107	-0.010
-666.032	6.048	0.306	-0.229
-665.018	800.000	0.056	-0.215
-664.003	378.962	0.047	-0.098
-662.989	-33.357	-0.147	-0.082
-661.974	60.073	-0.089	0.089
-660.959	354.585	0.029	-0.058
-659.945	110.691	-0.191	0.232
-658.930	-57.491	0.097	-0.043
-657.916	-22.840	0.045	0.027
-656.901	48.264	0.085	0.080
-655.886	800.000	-0.090	0.314
-654.872	-113.420	0.431	-0.085
-653.857	-166.424	-0.186	0.008
-652.843	17.409	0.262	-0.210
-651.828	-63.666	-0.043	-0.018
-650.814	-129.419	0.300	0.042
-649.799	15.548	0.086	0.068
-648.784	-91.527	-0.162	0.047
-647.770	152.530	0.136	-0.188
-646.755	800.000	-0.021	-0.092
-645.741	-0.218	0.032	-0.023
-644.726	-159.403	0.214	-0.012
-643.711	800.000	-0.030	0.129
-642.697	251.964	0.040	0.068
-641.682	-40.443	0.119	0.062
-640.668	167.149	0.081	-0.116
-639.653	-200.000	-0.009	0.306
-638.638	33.678	-0.260	0.228
-637.624	11.422	-0.082	0.063
-636.609	47.174	0.067	0.063
-635.595	179.242	0.046	-0.067
-634.580	-76.351	-0.400	-0.142
-633.565	-173.293	0.121	0.004
-632.551	270.630	0.078	-0.138
-631.536	-94.825	0.224	0.061
-630.522	-168.252	-0.421	0.016
-629.507	-200.000	-0.029	-0.193
-628.492	-30.849	0.317	0.181
-627.478	-200.000	-0.018	-0.358
-626.463	20.528	-0.225	0.184
-625.449	81.677	-0.102	-0.111
-624.434	-16.705	-0.002	-0.001
-623.419	93.693	-0.126	-0.145
-622.405	-148.526	-0.290	-0.024
-621.390	-21.944	-0.121	0.074
-620.376	56.297	-0.212	0.208
-619.361	-78.336	0.060	0.021
-618.346	800.000	0.050	-0.207
-617.332	104.041	-0.080	0.095
-616.317	-128.112	0.301	0.043
-615.303	580.077	-0.027	0.066
-614.288	253.732	-0.086	-0.147
-613.273	232.020	-0.071	-0.117
-612.259	87.032	0.142	-0.158
-611.244	180.703	0.125	0.185
-610.230	-12.953	-0.113	-0.074
-609.215	-116.810	-0.364	0.067
-608.201	-200.000	-0.001	-0.302
-607.186	800.000	0.040	-0.128
-606.171	-126.526	0.223	-0.033
-605.157	-71.006	0.365	-0.138
-604.142	800.000	0.059	0.204
-603.128	-200.000	0.063	0.327
-602.113	444.132	-0.099	0.219
-601.098	25.556	0.065	-0.054
-600.084	301.384	0.018	-0.033
-599.069	-77.321	-0.190	-0.067
-598.055	-178.947	0.263	-0.006
-597.040	358.716	0.031	-0.062
-596.025	-60.563	0.174	-0.074
-595.011	-135.763	0.142	-0.017
-593.996	-166.293	0.235	-0.010
-592.982	-87.699	-0.242	0.074
-591.967	371.505	0.076	0.155
-590.952	800.000	-0.056	-0.206
-589.938	-200.000	-0.058	-0.309
-588.923	736.834	0.070	-0.189
-587.909	-84.920	0.262	0.083
-586.894	800.000	-0.069	0.206
-585.879	-127.178	0.223	-0.033
-584.865	800.000	-0.078	-0.334
-583.850	-177.688	0.203	-0.005
-582.836	95.565	0.097	0.111
-581.821	800.000	-0.017	-0.068
-580.806	-80.589	0.459	0.154
-579.792	-168.730	0.223	-0.009
-578.777	362.451	0.278	0.562
-577.763	-38.943	-0.294	0.156
-576.748	-177.941	0.038	0.001
-575.733	800.000	0.075	-0.269
-574.719	800.000	0.047	0.142
-573.704	800.000	-0.055	-0.208
-572.690	-200.000	0.021	-0.144
-571.675	800.000	-0.036	0.106
-570.661	190.530	0.067	-0.102
-569.646	185.849	0.060	-0.090
-568.631	-57.965	-0.102	-0.045
-567.617	-200.000	0.008	-0.116
-566.602	85.162	-0.164	0.181
-565.588	437.800	0.103	0.226
-564.573	-91.923	-0.158	0.045
-563.558	199.791	-0.201	-0.310
-562.544	-200.000	-0.031	-0.334
-561.529	133.851	-0.144	-0.187
-560.515	-40.444	-0.188	-0.098
-559.500	210.922	-0.128	0.202
-558.485	-141.322	-0.329	-0.034
-557.471	-200.000	0.013	0.162
-556.456	692.421	0.117	-0.307
-555.442	-200.000	-0.021	0.230
-554.427	-200.000	0.011	0.188
-553.412	519.080	0.081	0.190
-552.398	-197.566	-0.218	0.001
-551.383	543.930	0.086	0.207
-550.369	-200.000	-0.050	-0.236
-549.354	636.818	0.030	-0.077
-548.339	-54.009	-0.343	0.157
-547.325	-15.489	-0.153	0.098
-546.310	86.242	-0.145	-0.161
-545.296	800.000	-0.102	-0.402
-544.281	-112.244	-0.210	-0.042
-543.266	36.940	-0.071	-0.063
-542.252	-79.964	-0.007	-0.002
-541.237	-38.028	-0.234	0.125
-540.223	139.087	-0.103	-0.136
-539.208	656.630	0.082	-0.211
-538.193	164.574	0.039	0.055
-537.179	-38.217	0.336	0.179
-536.164	475.452	0.175	0.397
-535.150	290.703	0.058	-0.106
-534.135	95.109	0.221	0.253
-533.121	80.209	0.050	-0.054
-532.106	755.762	0.099	0.269
-531.091	-48.231	-0.269	-0.130
-530.077	-18.630	0.368	-0.231
-529.062	-21.286	0.281	-0.172
-528.048	134.627	-0.076	0.099
-527.033	188.583	-0.158	-0.238
-526.018	-200.000	0.011	-0.272
-525.004	800.000	-0.090	0.285
-523.989	-132.237	-0.223	-0.029
-522.975	-57.758	-0.159	-0.070
-521.960	-91.330	-0.404	0.116
-520.945	-200.000	0.024	-0.238
-519.931	575.849	0.144	-0.353
-518.916	-108.685	-0.050	0.011
-517.902	-133.066	0.404	-0.051
-516.887	34.921	-0.140	-0.123
-515.872	-200.000	-0.003	-0.118
-514.858	-144.352	-0.322	0.030
-513.843	67.671	-0.118	-0.121
-512.829	158.850	0.167	-0.234
-511.814	-200.000	0.033	-0.171
-510.799	396.133	-0.068	-0.142
-509.785	-11.611	0.198	0.130
-508.770	65.566	-0.301	-0.306
-507.756	-109.297	0.144	0.031
-506.741	-67.715	0.353	0.139
-505.726	-200.000	0.013	0.271
-504.712	31.551	0.069	0.059
-503.697	698.902	0.055	0.145
-502.683	168.834	-0.086	0.123
-501.668	122.315	-0.171	-0.215
-500.653	800.000	-0.008	-0.027
-499.639	-200.000	0.010	0.289
-498.624	-20.804	-0.140	0.086
-497.610	-200.000	0.101	0.595
-496.595	-11.381	-0.210	-0.139
-495.581	-86.763	0.136	-0.042
-494.566	800.000	-0.038	0.141
-493.551	-200.000	-0.006	0.194
-492.537	213.713	-0.051	-0.080
-491.522	169.009	-0.203	-0.291
-490.508	90.165	0.129	-0.145
-489.493	241.410	-0.216	0.362
-488.478	800.000	-0.036	0.143
-487.464	-200.000	0.011	-0.059
-486.449	561.997	-0.109	0.265
-485.435	800.000	-0.129	0.366
-484.420	800.000	-0.031	-0.095
-483.405	-142.297	-0.145	0.014
-482.391	53.223	-0.052	-0.050
-481.376	144.651	-0.102	-0.137
-480.362	-200.000	0.022	0.412
-479.347	679.913	0.009	0.023
-478.332	218.870	-0.082	-0.132
-477.318	-55.148	0.698	0.315
-476.303	304.186	0.034	0.064
-475.289	230.389	-0.187	-0.307
-474.274	-98.680	0.297	-0.076
-473.259	265.250	-0.079	-0.138
-472.245	800.000	-0.033	-0.099
-471.230	52.888	0.094	0.090
-470.216	-16.851	-0.147	-0.093
-469.201	-45.234	0.183	0.091
-468.186	208.687	-0.023	0.035
-467.172	18.244	0.062	0.050
-466.157	19.150	-0.069	-0.055
-465.143	26.462	0.370	-0.310
-464.128	-102.325	-0.277	-0.067
-463.113	151.790	-0.051	0.070
-462.099	374.068	0.087	0.178
-461.084	164.981	-0.105	0.148
-460.070	-200.000	0.001	0.191
-459.055	195.240	0.106	0.161
-458.040	671.178	0.156	-0.406
-457.026	-48.748	0.249	-0.120
-456.011	273.431	0.180	0.319
-454.997	-27.621	0.344	0.200
-453.982	250.309	-0.072	0.123
-452.968	-39.981	-0.273	-0.142
-451.953	-183.931	-0.155	0.003
-450.938	-60.135	-0.454	0.194
-449.924	33.445	-0.177	-0.154
-448.909	12.370	-0.267	0.206
-447.895	-200.000	0.012	0.062
-446.880	34.885	0.283	0.248
-445.865	-94.698	-0.146	-0.040
-444.851	469.933	0.132	-0.297
-443.836	-72.203	0.136	-0.051
-442.822	-200.000	0.041	0.283
-441.807	224.122	0.203	-0.328
-440.792	-200.000	-0.016	-0.259
-439.778	-24.183	0.089	-0.053
-438.763	-72.567	0.216	0.080
-437.749	-14.667	0.095	-0.061
-436.734	800.000	0.132	0.388
-435.719	524.294	-0.019	-0.044
-434.705	800.000	-0.025	-0.105
-433.690	192.110	-0.083	-0.125
-432.676	-48.964	-0.225	0.108
-431.661	800.000	0.015	0.043
-430.646	800.000	-0.092	0.336
-429.632	-45.492	0.296	0.147
-428.617	-109.356	-0.289	-0.061
-427.603	-200.000	0.045	-0.257
-426.588	-95.323	-0.135	-0.036
-425.573	-200.000	0.028	-0.137
-424.559	32.054	0.197	-0.170
-423.544	-9.287	0.273	0.182
-422.530	-74.848	0.292	0.105
-421.515	-67.300	-0.236	-0.093
-420.500	-74.534	0.174	-0.063
-419.486	2.222	-0.063	-0.045
-418.471	-200.000	-0.039	-0.198
-417.457	-200.000	-0.060	0.275
-416.442	-200.000	0.036	0.269
-415.428	-200.000	0.028	-0.358
-414.413	14.234	-0.306	-0.239
-413.398	-200.000	-0.076	-0.354
-412.384	176.937	-0.139	-0.203
-411.369	-11.158	0.117	-0.077
-410.355	-200.000	0.020	0.432
-409.340	-200.000	-0.011	-0.072
-408.325	-45.257	0.248	0.123
-407.311	-18.815	0.259	0.161
-406.296	-91.672	-0.429	0.122
-405.282	252.829	-0.065	0.112
-404.267	800.000	-0.030	0.098
-403.252	-15.454	-0.107	-0.068
-402.238	32.676	0.142	0.123
-401.223	-200.000	-0.055	0.253
-400.209	111.599	-0.022	0.026
-399.194	-121.768	0.122	0.020
-398.179	669.616	0.112	0.291
-397.165	-200.000	0.053	0.357
-396.150	740.298	-0.069	0.184
-395.136	26.364	0.168	0.141
-394.121	800.000	-0.054	-0.152
-393.106	-77.692	0.067	0.023
-392.092	185.798	0.098	0.146
-391.077	-200.000	0.039	0.248
-390.063	-200.000	-0.014	0.187
-389.048	-1.264	-0.180	-0.127
-388.033	-50.386	0.272	-0.128
-387.019	174.487	-0.248	-0.359
-386.004	160.561	0.214	-0.298
-384.990	-200.000	-0.007	-0.248
-383.975	-43.844	0.080	0.040
-382.960	-200.000	-0.009	-0.061
-381.946	-46.705	0.212	-0.104
-380.931	-161.429	-0.228	-0.012
-379.917	800.000	0.064	-0.211
-378.902	-200.000	-0.033	0.161
-377.888	277.250	0.066	0.117
-376.873	47.924	-0.251	-0.234
-375.858	-90.230	0.151	0.044
-374.844	15.458	0.168	0.132
-373.829	800.000	0.170	-0.568
-372.815	266.225	-0.169	0.294
-371.800	134.859	-0.002	0.003
-370.785	556.396	-0.066	-0.160
-369.771	-76.330	0.112	-0.039
-368.756	20.571	-0.223	-0.180
-367.742	-164.424	-0.448	-0.020
-366.727	11.428	-0.241	-0.184
-365.712	31.860	-0.095	-0.082
-364.698	-200.000	0.022	0.240
-363.683	-142.798	-0.200	-0.019
-362.669	-200.000	0.034	0.172
-361.654	-200.000	-0.009	0.245
-360.639	156.990	0.122	0.169
-359.625	187.703	-0.057	-0.085
-358.610	-13.307	0.169	0.110
-357.596	375.663	-0.132	0.269
-356.581	-200.000	0.014	0.174
-355.566	-81.710	-0.217	0.071
-354.552	353.877	-0.098	0.194
-353.537	6.818	0.047	0.035
-352.523	-35.760	-0.176	0.095
-351.508	605.855	0.073	0.182
-350.493	67.589	0.311	0.317
-349.479	-179.466	-0.143	0.003
-348.464	-200.000	-0.007	0.044
-347.450	-200.000	0.046	-0.220
-346.435	-156.460	0.292	0.018
-345.420	75.600	0.105	0.110
-344.406	-137.811	-0.274	-0.031
-343.391	199.617	0.027	0.042
-342.377	303.022	-0.093	0.172
-341.362	741.538	-0.141	-0.379
-340.348	-200.000	-0.008	-0.157
-339.333	364.347	0.100	-0.200
-338.318	-164.882	0.105	0.005
-337.304	800.000	-0.073	0.237
-336.289	-62.621	0.132	-0.055
-335.275	-43.141	0.079	-0.040
-334.260	641.946	-0.119	-0.302
-333.245	32.010	0.116	0.100
-332.231	-83.576	0.113	-0.036
-331.216	85.069	0.035	0.038
-330.202	-147.445	-0.163	0.014
-329.187	784.170	-0.127	-0.348
-328.172	-12.986	-0.031	-0.020
-327.158	-167.134	-0.179	-0.007
-326.143	87.785	-0.247	0.273
-325.129	-3.860	-0.144	-0.099
-324.114	-78.001	-0.100	0.034
-323.099	41.740	-0.187	0.169
-322.085	108.019	-0.196	0.232
-321.070	212.942	-0.045	-0.071
-320.056	-40.590	-0.158	-0.082
-319.041	61.896	-0.129	0.128
-318.026	-13.073	0.095	-0.062
-317.012	588.524	-0.169	-0.415
-315.997	-16.163	0.190	-0.120
-314.983	165.697	0.102	0.143
-313.968	188.497	-0.088	0.131
-312.953	6.610	0.048	-0.036
-311.939	-96.727	-0.308	-0.081
-310.924	-41.298	0.216	-0.111
-309.910	-14.514	0.143	0.091
-308.895	-144.274	-0.236	-0.022
-307.880	140.128	0.064	0.084
-306.866	-200.000	-0.011	-0.254
-305.851	-36.366	-0.404	0.217
-304.837	72.382	0.146	-0.152
-303.822	-86.781	-0.273	-0.083
-302.807	-5.235	-0.120	0.082
-301.793	-33.642	-0.032	-0.018
-300.778	-129.890	0.237	0.032
-299.764	-60.960	-0.366	0.154
-298.749	347.831	0.088	0.172
-297.735	110.620	-0.038	-0.045
-296.720	563.587	-0.080	0.192
-295.705	300.254	-0.014	-0.026
-294.691	632.939	-0.064	0.161
-293.676	92.469	-0.139	0.156
-292.662	800.000	-0.078	-0.240
-291.647	51.292	0.178	-0.168
-290.632	-48.864	-0.073	-0.035
-289.618	25.654	0.050	0.041
-288.603	102.286	0.228	0.265
-287.589	-150.727	0.255	-0.019
-286.574	426.258	0.123	-0.264
-285.559	-73.884	0.077	0.028
-284.545	-200.000	0.063	-0.331
-283.530	-71.011	-0.338	-0.127
-282.516	-200.000	-0.113	-0.554
-281.501	-34.324	0.450	-0.246
-280.486	-60.883	0.252	-0.106
-279.472	-50.403	0.195	0.091
-278.457	80.548	-0.226	0.242
-277.443	153.415	0.269	0.367
-276.428	152.594	-0.059	0.081
-275.413	-56.474	-0.063	-0.028
-274.399	800.000	0.070	-0.198
-273.384	800.000	0.031	0.132
-272.370	-169.524	0.225	0.008
-271.355	-159.057	0.301	-0.017
-270.340	-95.136	-0.017	-0.005
-269.326	-99.105	0.323	-0.081
-268.311	-20.468	-0.251	-0.154
-267.297	350.797	-0.077	0.151
-266.282	93.995	-0.181	-0.205
-265.267	340.616	0.091	-0.176
-264.253	-106.814	0.212	0.047
-263.238	531.351	0.122	0.288
-262.224	-102.051	0.197	0.047
-261.209	-200.000	0.025	-0.257
-260.195	-83.788	0.288	-0.091
-259.180	196.374	-0.158	0.239
-258.165	800.000	-0.045	-0.162
-257.151	514.781	-0.031	-0.073
-256.136	-73.261	-0.135	-0.049
-255.122	24.796	0.059	-0.048
-254.107	800.000	0.116	-0.401
-253.092	-129.934	-0.163	-0.022
-252.078	-28.972	-0.168	0.096
-251.063	-111.726	-0.328	-0.066
-250.049	47.409	-0.028	-0.026
-249.034	41.336	0.190	0.171
-248.019	-58.654	0.208	0.090
-247.005	-200.000	0.004	0.124
-245.990	-156.452	0.260	-0.016
-244.976	74.953	-0.099	-0.103
-243.961	15.096	-0.149	0.116
-242.946	-86.965	0.173	0.052
-241.932	18.726	-0.159	0.127
-240.917	-65.736	0.163	0.065
-239.903	223.638	-0.098	-0.157
-238.888	-45.114	0.193	-0.095
-237.873	-60.307	0.281	-0.119
-236.859	-167.059	0.225	-0.009
-235.844	-32.952	0.196	-0.108
-234.830	-200.000	0.000	-0.026
-233.815	100.092	-0.269	-0.310
-232.800	174.895	-0.067	-0.096
-231.786	-200.000	-0.000	0.263
-230.771	-89.300	0.181	0.053
-229.757	149.474	0.153	0.206
-228.742	155.676	0.039	0.053
-227.727	-6.814	-0.408	0.276
-226.713	-30.256	0.305	0.172
-225.698	-92.495	-0.096	-0.027
-224.684	-56.490	-0.016	0.007
-223.669	-200.000	0.011	-0.056
-222.655	132.239	-0.156	-0.199
-221.640	70.120	0.036	0.037
-220.625	117.008	0.175	-0.214
-219.611	369.089	0.109	-0.218
-218.596	361.731	-0.032	-0.063
-217.582	323.553	-0.147	0.278
-216.567	56.281	0.103	-0.099
-215.552	800.000	-0.127	0.384
-214.538	15.323	0.159	0.124
-213.523	-200.000	0.042	0.214
-212.509	383.393	0.148	0.303
-211.494	5.167	0.158	0.116
-210.479	-200.000	0.025	0.231
-209.465	238.213	0.033	-0.055
-208.450	800.000	-0.023	-0.083
-207.436	-58.404	-0.121	0.052
-206.421	-200.000	0.000	0.220
-205.406	800.000	-0.049	-0.180
-204.392	-200.000	-0.009	0.073
-203.377	-111.736	-0.157	-0.032
-202.363	165.436	-0.147	-0.207
-201.348	-200.000	0.011	-0.108
-200.333	38.240	-0.248	0.219
-199.319	39.244	0.298	-0.265
-198.304	-76.522	0.234	0.082
-197.290	-107.243	0.215	0.047
-196.275	15.560	0.214	-0.167
-195.260	-156.908	-0.270	-0.016
-194.246	-134.162	0.210	-0.026
-193.231	215.621	-0.150	-0.237
-192.217	-167.157	-0.260	0.010
-191.202	-3.021	-0.216	0.150
-190.187	-200.000	0.024	-0.146
-189.173	-200.000	-0.003	-0.264
-188.158	-7.748	0.153	-0.103
-187.144	-88.786	0.170	0.050
-186.129	800.000	-0.035	0.146
-185.114	-104.605	-0.235	0.054
-184.100	-136.215	-0.137	-0.016
-183.085	-135.754	-0.312	0.037
-182.071	-200.000	-0.006	0.262
-181.056	-6.670	0.100	-0.067
-180.042	364.145	-0.099	-0.197
-179.027	178.566	-0.085	0.124
-178.012	192.121	0.124	-0.185
-176.998	-1.857	0.074	0.052
-175.983	80.668	-0.274	0.293
-174.969	-200.000	-0.061	-0.493
-173.954	-172.343	-0.096	-0.003
-172.939	-5.501	0.360	-0.245
-171.925	110.385	0.175	0.208
-170.910	-154.242	0.561	-0.037
-169.896	-67.133	0.339	0.132
-168.881	-28.161	-0.229	0.131
-167.866	15.116	0.151	-0.117
-166.852	73.358	-0.249	0.258
-165.837	-153.462	-0.419	-0.029
-164.823	150.312	-0.200	-0.269
-163.808	10.889	0.027	-0.020
-162.793	-40.868	-0.072	0.037
-161.779	141.392	0.087	-0.114
-160.764	103.585	0.056	0.065
-159.750	-90.344	-0.247	-0.071
-158.735	-77.003	0.140	0.048
-157.720	-200.000	0.071	0.314
-156.706	17.800	-0.138	0.109
-155.691	-200.000	0.109	-0.495
-154.677	4.655	-0.101	-0.073
-153.662	777.009	0.123	-0.333
-152.647	-200.000	0.018	0.252
-151.633	-200.000	-0.006	0.204
-150.618	-163.722	0.115	0.005
-149.604	800.000	0.055	-0.165
-148.589	112.308	-0.043	-0.052
-147.574	-200.000	-0.034	0.261
-146.560	-200.000	-0.011	0.095
-145.545	563.054	0.035	-0.084
-144.531	52.935	0.217	-0.205
-143.516	118.552	0.137	-0.168
-142.502	-200.000	-0.005	-0.068
-141.487	800.000	0.050	0.170
-140.472	-200.000	-0.070	-0.307
-139.458	8.609	0.162	-0.121
-138.443	-32.193	0.109	0.060
-137.429	-23.111	0.042	0.025
-136.414	706.998	-0.160	0.419
-135.399	-200.000	0.001	0.119
-134.385	67.765	0.241	-0.243
-133.370	-154.243	-0.110	-0.007
-132.356	-114.996	-0.114	-0.021
-131.341	214.656	-0.112	0.176
-130.326	-28.448	0.143	-0.082
-129.312	486.832	0.019	-0.042
-128.297	-200.000	0.050	0.316
-127.283	800.000	0.043	-0.161
-126.268	25.753	-0.219	0.181
-125.253	423.484	0.064	-0.136
-124.239	-200.000	-0.018	0.190
-123.224	-6.998	0.212	0.142
-122.210	417.188	-0.086	0.182
-121.195	-157.653	-0.267	-0.016
