DTS Sentinel unit serial number:	SN413079Multiplexer serial number:	ORYXHardware model number:	OX4-SRSoftware version number:	ORYX F/W v4.00 Oryx Data Collector v3.7.2.0data status	okinstallation	princeton_trtdifferential loss correction	single-endedforward channel	channel 2reverse channel	N/Adate	2019/09/15time	03:35:35forward acquisition time	60.00reverse acquisition time	0.00gamma	496.2192k internal	0.2326k external	0.2326temperature offset calibration	1.0033default loss term (dB/km)	0.3790temperature slope calibration	1.0000multiplexer offset coefficient	1.0000multiplexer slope coefficient	1.0000fibre end	0.00T internal ref (°C)	31.00T ext. ref 1 (°C)	4.61T ext. ref 2 (°C)	25.81length (m)	temperature (°C)	Stokes	anti-Stokes-747.200	800.000	-0.061	-0.193
-746.185	-117.397	-0.268	0.049
-745.171	366.886	-0.086	0.174
-744.156	206.595	0.145	0.227
-743.142	-125.436	0.299	-0.046
-742.127	403.432	0.143	0.304
-741.112	25.571	0.185	0.156
-740.098	88.341	-0.021	-0.023
-739.083	164.893	0.134	-0.190
-738.069	237.178	0.098	0.163
-737.054	-133.106	0.310	0.040
-736.039	-165.222	0.210	0.009
-735.025	7.295	0.219	-0.165
-734.010	99.966	-0.172	-0.201
-732.996	800.000	0.125	-0.408
-731.981	342.859	-0.050	0.098
-730.966	-20.828	-0.123	0.076
-729.952	6.945	-0.194	-0.146
-728.937	-171.801	0.408	-0.013
-727.923	625.739	-0.049	-0.125
-726.908	6.205	-0.192	0.143
-725.894	56.026	-0.037	0.036
-724.879	-200.000	0.018	-0.496
-723.864	-200.000	0.021	-0.123
-722.850	-119.046	-0.285	-0.050
-721.835	342.996	-0.082	-0.161
-720.821	208.921	0.188	-0.296
-719.806	131.991	0.160	0.208
-718.791	-200.000	-0.027	-0.374
-717.777	630.022	-0.085	-0.215
-716.762	-200.000	0.070	-0.321
-715.748	-1.132	-0.101	0.072
-714.733	-6.516	0.159	-0.109
-713.718	-200.000	0.115	-0.589
-712.704	-151.494	0.227	0.017
-711.689	2.832	0.317	-0.232
-710.675	43.825	-0.152	-0.140
-709.660	-107.343	0.489	0.108
-708.645	347.130	-0.066	0.130
-707.631	56.373	-0.237	0.232
-706.616	-168.454	-0.446	-0.017
-705.602	114.641	0.187	-0.230
-704.587	92.504	0.168	-0.191
-703.572	-200.000	0.009	-0.088
-702.558	-95.933	0.330	0.089
-701.543	-200.000	-0.003	-0.142
-700.529	-62.619	-0.148	0.062
-699.514	-5.012	0.128	-0.088
-698.499	-61.668	-0.366	-0.154
-697.485	-200.000	-0.036	-0.203
-696.470	-50.701	-0.057	0.027
-695.456	-89.643	0.211	-0.062
-694.441	145.229	0.100	-0.135
-693.426	133.563	0.252	0.328
-692.412	800.000	-0.074	-0.216
-691.397	-74.118	-0.103	-0.038
-690.383	-200.000	-0.104	-0.474
-689.368	-78.486	0.531	0.183
-688.354	-58.180	0.085	0.037
-687.339	77.550	-0.289	-0.309
-686.324	-200.000	0.007	0.143
-685.310	31.823	-0.180	-0.156
-684.295	800.000	0.037	-0.118
-683.281	-60.794	-0.189	0.081
-682.266	-94.285	-0.109	-0.030
-681.251	98.648	-0.110	-0.127
-680.237	-21.908	0.398	0.243
-679.222	-142.916	-0.246	0.024
-678.208	-56.115	-0.215	-0.096
-677.193	69.022	0.085	-0.088
-676.178	-200.000	-0.103	-0.491
-675.164	654.457	-0.118	0.305
-674.149	-154.575	0.217	0.015
-673.135	-164.431	0.110	-0.005
-672.120	800.000	-0.024	-0.105
-671.105	101.229	0.249	-0.291
-670.091	-200.000	-0.047	-0.434
-669.076	-67.644	-0.406	-0.160
-668.062	-184.105	-0.061	-0.001
-667.047	104.592	0.073	-0.087
-666.032	-60.386	-0.266	-0.114
-665.018	415.148	0.142	-0.304
-664.003	84.054	-0.125	-0.137
-662.989	-118.550	0.073	-0.013
-661.974	800.000	-0.123	-0.542
-660.959	4.467	-0.259	-0.191
-659.945	-200.000	-0.051	-0.294
-658.930	517.932	0.042	-0.098
-657.916	549.726	0.083	0.200
-656.901	459.490	-0.057	0.128
-655.886	5.370	0.153	0.114
-654.872	25.894	-0.316	-0.265
-653.857	738.104	-0.036	-0.096
-652.843	-200.000	-0.017	-0.225
-651.828	-200.000	0.106	-0.486
-650.814	349.594	0.033	-0.066
-649.799	-170.368	-0.144	0.005
-648.784	-200.000	-0.045	-0.200
-647.770	192.154	0.090	0.136
-646.755	200.624	-0.065	-0.101
-645.741	161.803	0.276	-0.388
-644.726	359.539	-0.128	0.257
-643.711	-200.000	0.017	0.227
-642.697	520.570	-0.089	0.209
-641.682	194.946	0.187	-0.286
-640.668	-34.033	0.037	0.020
-639.653	-25.081	0.094	-0.056
-638.638	-200.000	0.021	-0.236
-637.624	-200.000	-0.048	-0.234
-636.609	-158.847	0.303	0.017
-635.595	38.232	-0.156	0.140
-634.580	66.454	0.086	0.088
-633.565	-101.879	0.214	-0.052
-632.551	-178.022	-0.150	-0.004
-631.536	-4.138	0.206	-0.144
-630.522	-90.521	0.234	-0.068
-629.507	-74.906	-0.313	0.113
-628.492	800.000	0.040	0.172
-627.478	800.000	-0.029	0.099
-626.463	-14.893	-0.309	0.199
-625.449	24.202	0.185	0.153
-624.434	59.364	0.119	-0.117
-623.419	126.706	-0.065	-0.082
-622.405	-8.085	-0.357	-0.242
-621.390	20.606	-0.142	0.115
-620.376	-159.260	0.084	0.005
-619.361	-132.063	-0.258	-0.034
-618.346	45.768	0.323	0.300
-617.332	66.910	-0.278	-0.284
-616.317	65.647	0.262	-0.266
-615.303	800.000	0.057	-0.187
-614.288	-44.530	0.178	-0.090
-613.273	-25.202	-0.237	0.141
-612.259	583.112	-0.037	-0.090
-611.244	55.185	-0.330	-0.320
-610.230	-184.982	0.234	0.004
-609.215	-124.117	-0.253	0.040
-608.201	-110.908	0.073	-0.015
-607.186	-200.000	-0.038	0.195
-606.171	-200.000	0.005	0.179
-605.157	59.167	0.166	-0.164
-604.142	-4.965	0.142	-0.098
-603.128	567.747	-0.126	0.307
-602.113	695.249	0.111	0.292
-601.098	-96.062	0.244	0.065
-600.084	-76.198	0.208	0.073
-599.069	-68.163	0.350	0.137
-598.055	800.000	-0.117	0.339
-597.040	-81.933	-0.072	0.024
-596.025	-200.000	-0.071	-0.479
-595.011	-200.000	-0.010	-0.306
-593.996	800.000	-0.049	0.150
-592.982	-38.967	0.199	-0.105
-591.967	733.492	-0.144	-0.387
-590.952	-43.047	0.253	-0.129
-589.938	34.811	0.307	0.269
-588.923	25.788	0.196	-0.163
-587.909	-172.687	-0.306	0.010
-586.894	60.740	-0.252	-0.250
-585.879	-200.000	0.007	0.035
-584.865	467.605	-0.106	0.238
-583.850	-200.000	0.195	-0.001
-582.836	691.003	0.047	0.124
-581.821	-25.665	-0.049	-0.029
-580.806	269.805	0.102	-0.180
-579.792	12.257	0.152	0.117
-578.777	-200.000	-0.018	0.166
-577.763	23.818	0.071	0.058
-576.748	137.216	-0.244	0.320
-575.733	173.669	-0.225	0.326
-574.719	-132.923	-0.189	0.024
-573.704	591.363	-0.063	0.155
-572.690	41.384	0.226	0.205
-571.675	37.279	0.126	-0.112
-570.661	-41.827	-0.220	0.113
-569.646	-138.795	-0.128	-0.014
-568.631	557.502	0.048	-0.117
-567.617	670.788	0.076	0.197
-566.602	-155.109	-0.178	-0.012
-565.588	263.626	0.128	0.224
-564.573	-190.452	-0.203	-0.002
-563.558	44.318	-0.098	-0.090
-562.544	-106.421	-0.405	0.091
-561.529	122.916	-0.130	0.163
-560.515	-124.285	-0.184	0.029
-559.500	-200.000	-0.008	-0.129
-558.485	-80.720	-0.095	0.032
-557.471	89.830	0.181	-0.203
-556.456	337.273	0.096	-0.186
-555.442	-46.701	0.162	0.079
-554.427	408.831	0.158	-0.336
-553.412	-112.392	0.191	-0.038
-552.398	-200.000	-0.002	-0.144
-551.383	552.025	-0.035	0.085
-550.369	-200.000	0.031	0.174
-549.354	65.404	-0.248	0.252
-548.339	10.479	-0.252	-0.192
-547.325	739.918	0.063	-0.169
-546.310	31.468	0.148	-0.127
-545.296	-200.000	-0.028	0.151
-544.281	800.000	-0.037	0.104
-543.266	-47.254	-0.444	0.216
-542.252	-103.421	-0.297	0.070
-541.237	213.687	-0.094	-0.149
-540.223	-200.000	-0.006	0.088
-539.208	401.854	-0.179	0.376
-538.193	88.623	-0.253	-0.282
-537.179	-39.527	-0.144	-0.076
-536.164	-200.000	0.001	0.026
-535.150	-200.000	-0.007	-0.206
-534.135	131.708	0.161	0.207
-533.121	25.259	-0.213	0.177
-532.106	-154.718	0.235	0.016
-531.091	-140.843	-0.170	-0.018
-530.077	1.930	0.127	0.091
-529.062	800.000	0.029	-0.081
-528.048	800.000	-0.055	-0.205
-527.033	-200.000	0.012	0.093
-526.018	-36.621	0.242	-0.130
-525.004	50.545	0.236	0.224
-523.989	9.812	0.379	-0.288
-522.975	488.121	0.110	-0.251
-521.960	30.996	0.163	0.140
-520.945	800.000	-0.032	0.119
-519.931	370.524	0.076	0.153
-518.916	-21.713	-0.029	0.018
-517.902	260.911	0.143	0.247
-516.887	800.000	0.091	0.273
-515.872	-100.274	0.306	0.076
-514.858	-147.091	-0.191	0.016
-513.843	-200.000	-0.033	0.402
-512.829	427.886	0.034	-0.074
-511.814	800.000	0.108	-0.337
-510.799	14.532	0.177	-0.138
-509.785	800.000	0.069	0.288
-508.770	-200.000	-0.026	0.129
-507.756	-151.674	-0.155	0.011
-506.741	32.723	0.210	-0.182
-505.726	-158.972	-0.136	0.008
-504.712	800.000	-0.045	-0.194
-503.697	-11.522	-0.155	0.102
-502.683	299.855	-0.060	0.110
-501.668	800.000	0.054	0.178
-500.653	311.202	-0.080	-0.150
-499.639	779.138	-0.096	-0.262
-498.624	-150.230	-0.173	0.013
-497.610	-154.083	-0.114	0.008
-496.595	-200.000	0.019	0.131
-495.581	-48.898	0.198	0.095
-494.566	-148.305	0.329	-0.027
-493.551	-86.364	-0.183	0.056
-492.537	51.705	0.106	-0.101
-491.522	-59.293	0.010	-0.004
-490.508	-200.000	-0.032	-0.290
-489.493	-154.773	0.199	-0.013
-488.478	-46.944	-0.062	-0.030
-487.464	127.348	0.048	-0.061
-486.449	404.951	0.184	0.388
-485.435	171.393	-0.097	-0.138
-484.420	587.204	-0.079	-0.195
-483.405	-200.000	0.001	0.280
-482.391	136.423	-0.184	0.240
-481.376	159.474	0.196	-0.273
-480.362	-200.000	-0.002	-0.231
-479.347	800.000	-0.087	0.261
-478.332	43.317	-0.142	-0.129
-477.318	109.003	-0.046	-0.054
-476.303	-149.610	0.299	0.024
-475.289	-138.038	-0.199	-0.022
-474.274	412.923	-0.076	0.161
-473.259	228.070	-0.135	-0.220
-472.245	-200.000	0.004	0.210
-471.230	-141.484	0.125	0.013
-470.216	-161.321	0.101	-0.005
-469.201	185.988	0.046	0.068
-468.186	-88.824	-0.081	-0.024
-467.172	471.687	0.039	-0.089
-466.157	-144.506	0.143	-0.013
-465.143	39.270	-0.229	0.205
-464.128	-150.342	0.031	0.002
-463.113	437.309	-0.102	-0.223
-462.099	-200.000	0.006	0.068
-461.084	-122.039	0.254	-0.042
-460.070	57.055	-0.104	-0.101
-459.055	190.253	-0.056	0.084
-458.040	217.224	0.094	-0.150
-457.026	14.922	-0.033	0.025
-456.011	-82.453	0.228	-0.074
-454.997	315.586	-0.061	-0.115
-453.982	39.152	-0.306	0.273
-452.968	-64.763	-0.170	-0.069
-451.953	217.178	0.264	-0.419
-450.938	-104.353	-0.313	-0.072
-449.924	-175.582	0.380	-0.010
-448.909	212.820	0.088	0.138
-447.895	199.440	-0.152	-0.233
-446.880	-174.018	-0.339	-0.010
-445.865	-84.438	-0.092	-0.029
-444.851	122.618	-0.233	0.290
-443.836	-102.834	-0.363	-0.086
-442.822	199.880	0.054	0.083
-441.807	-96.433	-0.146	0.039
-440.792	104.628	0.073	0.085
-439.778	-56.700	0.207	0.091
-438.763	-7.447	0.201	0.136
-437.749	7.638	-0.104	0.077
-436.734	-156.568	0.156	0.010
-435.719	-200.000	-0.017	-0.167
-434.705	49.121	0.210	-0.197
-433.690	110.178	-0.072	0.086
-432.676	-200.000	-0.056	-0.308
-431.661	86.182	-0.024	0.026
-430.646	-28.853	-0.078	-0.045
-429.632	-68.826	0.297	-0.114
-428.617	741.782	-0.075	0.200
-427.603	-68.823	0.204	0.079
-426.588	-81.550	0.096	-0.031
-425.573	-12.513	0.103	0.067
-424.559	-200.000	-0.047	0.291
-423.544	-200.000	0.013	-0.203
-422.530	800.000	-0.062	-0.186
-421.515	800.000	0.092	-0.296
-420.500	96.178	-0.103	0.117
-419.486	89.663	-0.348	0.387
-418.471	-64.772	0.148	-0.060
-417.457	-200.000	0.064	-0.287
-416.442	-76.263	-0.116	0.041
-415.428	500.076	0.041	0.095
-414.413	-141.850	0.406	-0.041
-413.398	-84.907	-0.369	0.115
-412.384	800.000	0.049	0.139
-411.369	-98.136	-0.123	0.032
-410.355	-67.331	-0.253	0.099
-409.340	-200.000	-0.031	-0.267
-408.325	153.394	-0.186	0.254
-407.311	12.112	-0.319	-0.244
-406.296	-200.000	0.102	-0.485
-405.282	-33.879	-0.336	0.184
-404.267	-200.000	-0.061	-0.385
-403.252	-105.014	-0.322	-0.073
-402.238	800.000	-0.073	-0.251
-401.223	-35.910	0.188	-0.101
-400.209	-63.856	0.377	-0.154
-399.194	166.559	0.219	-0.309
-398.179	378.322	-0.055	-0.112
-397.165	-200.000	0.041	0.210
-396.150	-33.701	0.155	-0.085
-395.136	-100.867	0.289	-0.071
-394.121	48.951	0.324	0.302
-393.106	-108.232	0.252	0.054
-392.092	-200.000	-0.004	-0.147
-391.077	-67.689	0.343	-0.134
-390.063	282.391	-0.123	0.219
-389.048	-46.601	0.196	-0.096
-388.033	-136.135	-0.249	-0.029
-387.019	-69.729	-0.292	-0.111
-386.004	-186.808	0.137	-0.002
-384.990	-83.985	-0.193	0.061
-383.975	-128.810	-0.199	-0.028
-382.960	453.768	-0.049	0.109
-381.946	478.238	0.125	0.281
-380.931	-55.765	-0.175	0.078
-379.917	107.906	0.295	0.350
-378.902	579.660	-0.071	-0.173
-377.888	32.239	-0.097	-0.083
-376.873	-200.000	0.019	-0.155
-375.858	-55.777	-0.177	0.079
-374.844	365.638	0.019	0.038
-373.829	68.251	-0.298	0.304
-372.815	159.264	0.028	-0.039
-371.800	-200.000	0.020	-0.214
-370.785	431.247	-0.036	0.078
-369.771	17.939	0.237	-0.188
-368.756	96.215	0.247	-0.281
-367.742	97.221	-0.117	0.133
-366.727	-164.833	-0.253	0.011
-365.712	800.000	-0.072	-0.202
-364.698	10.352	0.201	0.152
-363.683	-200.000	-0.058	-0.270
-362.669	226.293	-0.073	-0.118
-361.654	-19.319	0.064	0.040
-360.639	305.531	0.135	-0.250
-359.625	-47.255	0.103	-0.050
-358.610	-200.000	0.038	0.183
-357.596	-74.406	-0.122	0.044
-356.581	-194.716	-0.456	0.004
-355.566	-65.921	-0.360	-0.143
-354.552	83.062	-0.120	0.130
-353.537	-109.916	0.191	0.040
-352.523	-135.172	-0.209	-0.025
-351.508	-81.090	-0.218	0.072
-350.493	24.394	-0.087	-0.072
-349.479	-45.643	-0.121	0.059
-348.464	-200.000	-0.083	-0.363
-347.450	-63.366	0.094	-0.039
-346.435	-193.795	0.179	-0.002
-345.420	-174.049	-0.142	-0.004
-344.406	-43.496	-0.127	0.064
-343.391	800.000	0.073	-0.212
-342.377	-126.611	0.321	-0.047
-341.362	-15.416	0.051	-0.032
-340.348	-98.769	-0.218	0.055
-339.333	-43.953	0.196	-0.098
-338.318	-72.307	-0.283	0.104
-337.304	-154.277	0.178	0.012
-336.289	-113.476	0.135	-0.026
-335.275	800.000	-0.080	-0.270
-334.260	-138.248	-0.247	0.027
-333.245	-8.490	-0.237	0.158
-332.231	-200.000	-0.014	0.149
-331.216	45.325	0.151	0.138
-330.202	255.090	0.044	-0.075
-329.187	133.673	0.154	0.197
-328.172	386.438	0.076	0.157
-327.158	485.389	0.066	0.149
-326.143	-200.000	-0.001	0.643
-325.129	-1.707	-0.080	0.056
-324.114	-35.696	-0.115	0.062
-323.099	148.399	-0.247	-0.331
-322.085	-77.227	0.189	0.065
-321.070	-133.963	-0.111	0.014
-320.056	12.314	-0.095	-0.072
-319.041	-200.000	0.001	0.056
-318.026	-139.028	0.058	0.006
-317.012	-24.337	-0.115	-0.068
-315.997	12.137	-0.326	0.249
-314.983	257.824	0.029	0.050
-313.968	190.801	0.143	0.213
-312.953	-136.404	-0.179	-0.021
-311.939	-11.506	-0.299	0.195
-310.924	-200.000	0.019	0.321
-309.910	-200.000	0.045	0.215
-308.895	800.000	0.063	0.227
-307.880	35.750	-0.206	0.180
-306.866	-7.125	0.169	-0.114
-305.851	578.155	-0.088	-0.214
-304.837	-59.050	0.117	-0.050
-303.822	-19.063	-0.214	-0.132
-302.807	-65.518	-0.068	-0.027
-301.793	800.000	-0.042	-0.133
-300.778	800.000	0.040	0.160
-299.764	-25.998	0.197	-0.115
-298.749	-73.764	0.203	-0.073
-297.735	-177.575	0.417	0.010
-296.720	-200.000	0.027	-0.169
-295.705	148.204	0.203	0.271
-294.691	-27.333	-0.171	0.099
-293.676	155.584	-0.109	0.149
-292.662	-143.121	-0.180	0.017
-291.647	513.201	-0.057	0.131
-290.632	4.315	0.087	0.063
-289.618	800.000	0.092	0.262
-288.603	-85.015	-0.126	0.039
-287.589	236.571	0.114	0.186
-286.574	800.000	-0.108	0.381
-285.559	18.288	-0.187	0.148
-284.545	-164.541	0.034	0.002
-283.530	62.128	0.161	0.159
-282.516	-200.000	-0.007	-0.098
-281.501	7.569	-0.127	-0.094
-280.486	167.423	-0.115	-0.161
-279.472	32.539	0.099	-0.084
-278.457	-200.000	-0.002	0.053
-277.443	217.722	0.026	-0.041
-276.428	800.000	0.168	0.492
-275.413	282.259	-0.138	-0.244
-274.399	-140.572	0.435	-0.045
-273.384	800.000	0.029	0.095
-272.370	-200.000	-0.037	0.370
-271.355	-14.911	0.211	-0.134
-270.340	-102.620	0.339	0.080
-269.326	-200.000	0.063	-0.438
-268.311	800.000	0.091	-0.270
-267.297	-19.911	0.082	-0.050
-266.282	-53.759	-0.152	-0.069
-265.267	34.422	0.328	-0.283
-264.253	289.898	0.105	0.188
-263.238	56.669	0.085	0.082
-262.224	-63.580	0.099	0.040
-261.209	-81.431	-0.024	0.008
-260.195	-52.009	-0.287	0.132
-259.180	117.051	0.133	-0.162
-258.165	54.034	-0.195	-0.186
-257.151	97.272	0.173	-0.196
-256.136	-10.710	0.353	0.231
-255.122	-129.138	-0.205	-0.028
-254.107	29.616	-0.313	0.264
-253.092	-200.000	0.005	-0.104
-252.078	-65.106	-0.290	0.116
-251.063	-90.942	-0.145	0.041
-250.049	394.522	0.032	-0.066
-249.034	14.413	-0.136	-0.105
-248.019	14.692	0.108	0.083
-247.005	180.018	-0.113	-0.163
-245.990	-200.000	0.018	-0.177
-244.976	-173.720	-0.261	0.008
-243.961	-36.244	-0.166	-0.089
-242.946	-7.695	-0.378	-0.253
-241.932	206.334	0.253	-0.390
-240.917	-126.029	0.109	0.016
-239.903	79.683	0.135	0.144
-238.888	-5.351	-0.213	-0.145
-237.873	-200.000	0.006	0.242
-236.859	74.941	0.058	-0.061
-235.844	800.000	0.049	0.150
-234.830	-200.000	-0.066	-0.337
-233.815	263.262	-0.086	-0.148
-232.800	800.000	0.046	-0.142
-231.786	14.740	0.232	0.179
-230.771	25.435	0.164	0.135
-229.757	281.799	-0.177	-0.313
-228.742	-31.066	-0.145	-0.081
-227.727	-96.278	0.108	0.028
-226.713	34.837	-0.165	0.143
-225.698	117.758	0.166	-0.202
-224.684	-164.380	0.040	-0.002
-223.669	-8.985	0.218	0.144
-222.655	151.913	-0.134	0.180
-221.640	-200.000	0.068	0.299
-220.625	-51.747	-0.231	-0.106
-219.611	219.205	0.157	-0.248
-218.596	-200.000	0.030	0.378
-217.582	49.360	-0.026	-0.024
-216.567	-200.000	0.033	0.144
-215.552	-19.781	-0.425	-0.260
-214.538	611.764	-0.129	-0.319
-213.523	-200.000	-0.033	-0.182
-212.509	40.472	0.145	-0.129
-211.494	-34.464	-0.221	0.120
-210.479	800.000	-0.083	0.293
-209.465	-200.000	-0.034	0.274
-208.450	212.572	0.144	-0.224
-207.436	-200.000	0.026	-0.160
-206.421	70.903	-0.107	0.109
-205.406	-131.533	-0.063	-0.008
-204.392	385.061	0.059	0.120
-203.377	275.734	-0.120	-0.211
-202.363	-194.331	0.281	-0.002
-201.348	15.310	0.051	-0.040
-200.333	800.000	0.106	0.385
-199.319	393.187	-0.045	0.093
-198.304	570.793	0.062	0.149
-197.290	31.959	-0.042	-0.036
-196.275	31.640	0.279	0.237
-195.260	-82.652	0.249	0.080
-194.246	541.153	0.056	-0.133
-193.231	8.902	0.138	0.103
-192.217	-195.097	-0.255	0.002
-191.202	-200.000	0.022	0.155
-190.187	-53.227	0.208	0.094
-189.173	-126.360	0.255	-0.038
-188.158	-22.510	-0.145	0.086
-187.144	-35.263	-0.306	0.165
-186.129	-95.443	0.175	0.046
-185.114	452.030	-0.040	-0.086
-184.100	-24.762	0.165	0.097
-183.085	-28.198	0.091	0.052
-182.071	95.429	-0.077	-0.087
-181.056	378.748	-0.214	-0.432
-180.042	-52.961	-0.173	-0.079
-179.027	-82.106	0.253	-0.081
-178.012	273.356	-0.068	-0.119
-176.998	9.356	-0.145	0.108
-175.983	-56.547	0.293	-0.128
-174.969	-200.000	0.027	0.200
-173.954	-92.304	-0.215	-0.060
-172.939	-107.063	0.151	0.033
-171.925	-200.000	-0.010	0.113
-170.910	-200.000	-0.000	-0.465
-169.896	-124.122	0.204	-0.031
-168.881	-200.000	0.040	-0.178
-167.866	-67.924	0.117	-0.045
-166.852	-130.579	-0.039	0.005
-165.837	-48.578	0.184	0.087
-164.823	800.000	0.130	-0.368
-163.808	48.693	-0.337	-0.312
-162.793	40.042	0.084	0.075
-161.779	70.614	-0.117	-0.119
-160.764	800.000	0.086	0.284
-159.750	-88.148	0.124	-0.037
-158.735	-108.303	0.257	-0.055
-157.720	800.000	0.037	-0.138
-156.706	-200.000	-0.029	0.168
-155.691	52.960	0.125	0.118
-154.677	115.667	-0.052	-0.063
-153.662	278.130	0.060	-0.105
-152.647	-90.710	0.227	-0.065
-151.633	-163.903	0.220	-0.010
-150.618	-5.003	0.017	-0.011
-149.604	-127.409	-0.073	0.011
-148.589	592.021	0.141	-0.342
-147.574	-200.000	0.053	-0.309
-146.560	484.360	0.031	0.070
-145.545	-90.947	0.171	0.048
-144.531	-154.915	-0.350	0.023
-143.516	-9.747	-0.151	0.099
-142.502	-81.481	-0.200	0.065
-141.487	-67.156	-0.409	0.159
-140.472	800.000	-0.132	-0.380
-139.458	453.147	-0.024	-0.053
-138.443	-87.415	-0.229	0.068
-137.429	104.159	-0.162	0.188
-136.414	-129.029	0.207	0.029
-135.399	800.000	-0.068	0.290
-134.385	-58.032	0.287	-0.123
-133.370	83.312	0.170	-0.183
-132.356	510.355	-0.041	-0.094
-131.341	-200.000	0.013	-0.080
-130.326	-200.000	0.012	-0.192
-129.312	800.000	-0.040	-0.164
-128.297	-200.000	-0.023	0.167
-127.283	-76.613	-0.212	-0.073
-126.268	51.318	0.175	-0.164
-125.253	-200.000	0.029	-0.409
-124.239	-200.000	0.022	-0.205
-123.224	-11.008	0.175	0.114
-122.210	-128.544	-0.230	-0.032
-121.195	-92.420	0.312	-0.086
