DTS Sentinel unit serial number:	SN413079Multiplexer serial number:	ORYXHardware model number:	OX4-SRSoftware version number:	ORYX F/W v4.00 Oryx Data Collector v3.7.2.0data status	okinstallation	princeton_trtdifferential loss correction	single-endedforward channel	channel 2reverse channel	N/Adate	2019/09/19time	14:07:35forward acquisition time	60.00reverse acquisition time	0.00gamma	496.2192k internal	0.2325k external	0.2325temperature offset calibration	1.0021default loss term (dB/km)	0.3790temperature slope calibration	1.0000multiplexer offset coefficient	1.0000multiplexer slope coefficient	1.0000fibre end	0.00T internal ref (°C)	31.37T ext. ref 1 (°C)	1.03T ext. ref 2 (°C)	28.66length (m)	temperature (°C)	Stokes	anti-Stokes-747.200	-107.402	0.216	0.048
-746.185	162.577	0.224	0.317
-745.171	50.335	0.084	0.080
-744.156	800.000	-0.065	0.213
-743.142	-83.965	-0.341	-0.109
-742.127	-74.090	-0.419	0.153
-741.112	-47.858	-0.245	-0.120
-740.098	568.914	0.021	-0.052
-739.083	-200.000	0.012	0.107
-738.069	-200.000	-0.014	0.308
-737.054	-112.025	0.344	0.070
-736.039	800.000	0.067	0.279
-735.025	387.084	0.066	-0.137
-734.010	9.652	-0.128	0.098
-732.996	2.649	-0.338	-0.247
-731.981	122.460	-0.021	-0.026
-730.966	-44.713	-0.140	-0.071
-729.952	800.000	-0.123	0.354
-728.937	-46.069	0.154	-0.077
-727.923	277.730	-0.114	0.204
-726.908	43.290	0.261	-0.240
-725.894	306.712	0.034	0.065
-724.879	536.298	-0.126	0.302
-723.864	-110.524	0.167	0.035
-722.850	59.520	0.108	0.108
-721.835	-62.488	0.149	0.062
-720.821	-54.511	-0.131	0.060
-719.806	-88.239	0.412	-0.124
-718.791	-97.872	-0.140	-0.036
-717.777	-131.734	0.258	0.034
-716.762	135.717	-0.180	-0.237
-715.748	-115.060	0.213	-0.041
-714.733	72.698	-0.370	-0.389
-713.718	-200.000	-0.089	-0.470
-712.704	-52.175	0.037	-0.017
-711.689	-122.551	-0.279	0.046
-710.675	-65.921	0.321	0.129
-709.660	-131.198	-0.269	0.036
-708.645	94.580	0.125	0.144
-707.631	-18.335	-0.339	0.214
-706.616	-76.016	0.281	-0.100
-705.602	-110.002	-0.307	-0.065
-704.587	800.000	-0.086	0.301
-703.572	-200.000	0.008	0.036
-702.558	5.232	0.237	0.176
-701.543	709.377	-0.050	-0.134
-700.529	-150.860	0.201	-0.015
-699.514	82.056	0.051	0.056
-698.499	143.627	0.075	-0.101
-697.485	60.896	0.044	0.044
-696.470	175.407	0.088	-0.128
-695.456	31.720	-0.074	0.064
-694.441	800.000	0.048	0.174
-693.426	116.262	-0.185	0.229
-692.412	-66.831	0.319	-0.127
-691.397	159.027	-0.192	0.268
-690.383	762.152	-0.044	0.121
-689.368	53.427	0.061	0.059
-688.354	-67.299	-0.164	0.065
-687.339	-57.434	-0.079	-0.035
-686.324	425.312	-0.089	-0.192
-685.310	-60.334	-0.031	0.013
-684.295	37.262	0.078	-0.069
-683.281	-164.258	0.238	-0.011
-682.266	-99.546	-0.491	-0.124
-681.251	-129.326	-0.233	0.033
-680.237	-106.409	-0.145	-0.033
-679.222	-54.336	0.410	0.187
-678.208	-101.968	0.160	0.039
-677.193	223.392	-0.310	-0.503
-676.178	121.372	-0.242	0.303
-675.164	-200.000	0.109	0.000
-674.149	-184.676	-0.086	-0.001
-673.135	-34.118	0.173	0.096
-672.120	246.364	-0.117	0.199
-671.105	-13.612	0.114	0.074
-670.091	800.000	-0.063	0.208
-669.076	-46.688	-0.257	-0.127
-668.062	401.179	-0.151	-0.319
-667.047	-162.185	-0.410	-0.021
-666.032	-200.000	0.023	0.120
-665.018	-0.874	-0.115	0.082
-664.003	214.455	-0.131	-0.209
-662.989	210.940	-0.068	-0.108
-661.974	715.094	0.113	0.301
-660.959	127.326	-0.113	-0.144
-659.945	121.644	-0.166	-0.208
-658.930	-200.000	0.034	0.212
-657.916	92.094	0.265	0.300
-656.901	-0.260	0.137	0.098
-655.886	-65.235	0.045	-0.018
-654.872	-79.674	0.440	0.149
-653.857	164.349	0.068	0.096
-652.843	517.514	0.044	0.103
-651.828	-62.026	-0.183	0.077
-650.814	-94.738	-0.290	-0.079
-649.799	-200.000	0.034	-0.361
-648.784	-144.408	0.170	-0.016
-647.770	238.155	-0.054	-0.091
-646.755	8.643	0.012	0.009
-645.741	800.000	-0.111	0.333
-644.726	-67.769	-0.083	0.033
-643.711	800.000	0.062	-0.260
-642.697	-152.838	0.167	-0.012
-641.682	-91.063	0.272	-0.079
-640.668	-200.000	-0.050	-0.260
-639.653	7.744	-0.277	-0.208
-638.638	80.907	0.039	-0.042
-637.624	338.748	-0.127	-0.249
-636.609	29.412	-0.144	-0.123
-635.595	-10.350	-0.205	-0.136
-634.580	104.167	-0.184	-0.217
-633.565	-127.945	-0.146	0.021
-632.551	-43.477	-0.053	-0.027
-631.536	-118.594	0.118	-0.021
-630.522	72.945	0.140	0.147
-629.507	368.983	0.148	-0.300
-628.492	413.753	-0.188	0.402
-627.478	-87.761	-0.071	0.022
-626.463	-28.197	-0.287	0.167
-625.449	-99.810	-0.221	-0.056
-624.434	-125.965	0.162	-0.025
-623.419	-90.279	-0.105	-0.031
-622.405	16.818	-0.177	-0.140
-621.390	-102.366	0.108	-0.026
-620.376	-37.149	0.126	0.068
-619.361	17.551	0.141	-0.113
-618.346	800.000	0.028	-0.112
-617.332	4.035	0.266	0.195
-616.317	-15.999	-0.247	0.158
-615.303	251.591	-0.025	-0.043
-614.288	638.306	-0.147	0.374
-613.273	36.820	-0.176	0.156
-612.259	-47.559	-0.156	0.076
-611.244	800.000	0.038	-0.126
-610.230	15.264	0.091	0.072
-609.215	295.788	0.062	0.114
-608.201	-66.757	0.163	0.065
-607.186	800.000	0.084	0.241
-606.171	-200.000	-0.021	0.180
-605.157	-86.991	-0.116	-0.035
-604.142	-113.066	0.045	-0.009
-603.128	461.084	-0.108	-0.241
-602.113	-200.000	-0.002	0.240
-601.098	-136.337	-0.147	0.017
-600.084	494.045	-0.119	0.274
-599.069	267.795	-0.151	0.266
-598.055	-138.242	-0.221	-0.025
-597.040	-87.775	-0.159	0.048
-596.025	121.865	-0.071	0.089
-595.011	800.000	-0.065	-0.197
-593.996	800.000	0.064	-0.217
-592.982	636.292	0.081	0.207
-591.967	273.054	-0.213	-0.377
-590.952	-187.855	0.208	-0.003
-589.938	-171.023	0.126	0.004
-588.923	-120.114	-0.285	-0.049
-587.909	113.486	0.053	0.065
-586.894	800.000	0.043	0.135
-585.879	-47.979	-0.198	-0.096
-584.865	64.625	-0.082	-0.083
-583.850	227.088	0.075	0.122
-582.836	247.402	-0.067	-0.113
-581.821	-200.000	0.008	0.077
-580.806	416.756	-0.086	-0.184
-579.792	104.339	-0.301	0.355
-578.777	-33.994	0.088	0.049
-577.763	-35.668	-0.277	0.151
-576.748	5.655	-0.111	-0.082
-575.733	800.000	-0.082	-0.236
-574.719	-200.000	-0.015	0.093
-573.704	-118.534	0.359	0.064
-572.690	-200.000	-0.029	0.172
-571.675	-36.422	-0.244	0.132
-570.661	-33.026	0.176	-0.098
-569.646	800.000	0.080	-0.273
-568.631	299.906	0.182	0.337
-567.617	-200.000	0.015	0.340
-566.602	-88.817	-0.171	-0.051
-565.588	-200.000	-0.049	-0.270
-564.573	119.645	0.108	0.134
-563.558	-200.000	-0.007	-0.032
-562.544	-23.664	-0.280	-0.168
-561.529	-200.000	0.051	-0.348
-560.515	-200.000	-0.036	-0.158
-559.500	-200.000	-0.049	0.273
-558.485	-103.759	-0.158	-0.037
-557.471	-200.000	-0.023	-0.172
-556.456	78.149	0.107	0.114
-555.442	106.755	-0.191	0.227
-554.427	800.000	0.042	0.135
-553.412	15.863	0.314	-0.247
-552.398	42.257	0.119	0.109
-551.383	190.156	0.092	-0.139
-550.369	-17.594	0.317	-0.200
-549.354	-8.550	0.220	-0.148
-548.339	-89.217	-0.203	-0.060
-547.325	275.501	0.157	-0.278
-546.310	-200.000	-0.017	0.154
-545.296	82.533	-0.251	-0.272
-544.281	153.732	-0.097	0.133
-543.266	126.788	0.253	0.320
-542.252	-200.000	0.055	-0.287
-541.237	511.591	0.081	-0.188
-540.223	12.413	0.133	0.103
-539.208	-95.153	-0.037	0.010
-538.193	67.544	0.196	-0.200
-537.179	-85.685	0.380	-0.118
-536.164	800.000	-0.003	-0.013
-535.150	-200.000	-0.015	-0.281
-534.135	-200.000	-0.030	0.131
-533.121	-64.624	0.130	0.053
-532.106	800.000	0.026	-0.094
-531.091	622.089	0.071	-0.179
-530.077	-200.000	-0.026	0.258
-529.062	800.000	0.049	-0.153
-528.048	-170.986	-0.225	0.008
-527.033	-138.599	0.139	0.015
-526.018	-156.737	-0.210	-0.013
-525.004	257.202	0.168	-0.290
-523.989	186.886	-0.039	0.058
-522.975	-200.000	0.045	-0.254
-521.960	-200.000	0.003	0.117
-520.945	245.243	-0.196	-0.330
-519.931	273.136	0.102	-0.181
-518.916	52.700	-0.033	-0.032
-517.902	800.000	0.072	0.209
-516.887	45.447	0.198	0.183
-515.872	-159.256	0.253	0.014
-514.858	800.000	-0.071	-0.205
-513.843	21.854	0.250	0.204
-512.829	583.327	0.140	0.344
-511.814	800.000	-0.032	0.139
-510.799	-200.000	0.016	0.085
-509.785	453.846	-0.073	0.162
-508.770	800.000	0.008	0.031
-507.756	190.067	-0.176	0.264
-506.741	-182.139	0.167	-0.003
-505.726	63.801	-0.085	0.085
-504.712	247.459	-0.115	0.194
-503.697	10.947	0.194	0.148
-502.683	11.841	-0.287	-0.221
-501.668	474.595	0.177	0.399
-500.653	7.634	0.209	0.157
-499.639	-146.775	-0.243	-0.021
-498.624	-88.932	0.071	0.021
-497.610	103.414	-0.146	0.171
-496.595	182.457	-0.134	-0.197
-495.581	137.451	-0.109	0.142
-494.566	152.618	-0.017	-0.023
-493.551	-200.000	-0.051	0.266
-492.537	-19.513	-0.150	-0.093
-491.522	-36.060	0.135	-0.073
-490.508	112.928	0.089	0.108
-489.493	-86.879	-0.287	-0.088
-488.478	100.790	-0.127	0.148
-487.464	-200.000	-0.013	-0.114
-486.449	-177.706	0.302	-0.007
-485.435	-67.263	-0.170	-0.067
-484.420	-87.676	0.237	0.071
-483.405	-200.000	0.019	-0.269
-482.391	800.000	0.066	-0.195
-481.376	-41.726	-0.257	0.132
-480.362	69.565	-0.114	0.117
-479.347	354.559	-0.094	0.187
-478.332	177.081	-0.151	-0.220
-477.318	-200.000	-0.034	0.332
-476.303	-23.680	0.070	-0.042
-475.289	-72.877	-0.191	-0.070
-474.274	-54.006	0.020	-0.009
-473.259	-61.762	0.128	-0.053
-472.245	373.311	0.096	-0.195
-471.230	59.746	-0.136	0.134
-470.216	-131.754	0.213	-0.028
-469.201	158.748	0.061	0.084
-468.186	-138.926	-0.418	0.045
-467.172	-200.000	-0.015	-0.089
-466.157	-200.000	0.013	-0.250
-465.143	-200.000	-0.003	0.292
-464.128	-17.818	-0.151	0.095
-463.113	64.767	-0.193	-0.194
-462.099	-146.935	-0.482	-0.041
-461.084	-45.498	-0.333	0.165
-460.070	395.820	0.096	0.201
-459.055	7.565	-0.247	-0.184
-458.040	136.133	0.130	-0.169
-457.026	-43.802	0.113	-0.057
-456.011	-90.662	0.143	0.041
-454.997	-200.000	0.021	0.201
-453.982	-40.428	-0.130	-0.068
-452.968	448.443	-0.056	-0.124
-451.953	-5.543	0.117	-0.080
-450.938	100.632	0.163	-0.189
-449.924	86.517	-0.218	-0.240
-448.909	-101.561	0.060	0.015
-447.895	-200.000	0.040	0.399
-446.880	356.865	-0.138	-0.274
-445.865	-200.000	-0.033	-0.203
-444.851	253.501	0.010	-0.017
-443.836	253.086	-0.168	0.287
-442.822	-105.674	0.246	0.056
-441.807	-114.341	-0.319	0.061
-440.792	10.442	0.220	-0.167
-439.778	-200.000	-0.056	0.292
-438.763	-61.491	0.007	0.003
-437.749	37.865	-0.085	-0.075
-436.734	-43.741	0.086	-0.043
-435.719	-8.442	0.151	-0.101
-434.705	800.000	0.027	-0.106
-433.690	65.600	0.182	0.184
-432.676	330.644	0.021	0.040
-431.661	633.010	-0.070	-0.178
-430.646	-134.986	-0.091	0.011
-429.632	94.236	-0.269	-0.304
-428.617	-114.274	0.159	0.031
-427.603	-95.954	0.440	0.117
-426.588	-200.000	-0.032	-0.254
-425.573	800.000	0.048	-0.202
-424.559	-127.291	-0.265	-0.039
-423.544	53.872	-0.321	-0.308
-422.530	-117.698	-0.194	0.035
-421.515	-200.000	-0.035	-0.366
-420.500	-29.346	-0.040	-0.023
-419.486	-154.007	-0.381	0.026
-418.471	730.575	0.155	0.413
-417.457	800.000	-0.072	-0.270
-416.442	-200.000	0.011	-0.227
-415.428	800.000	-0.102	-0.290
-414.413	-200.000	0.022	-0.225
-413.398	31.541	-0.231	-0.197
-412.384	-116.232	-0.093	0.017
-411.369	-159.714	-0.079	-0.004
-410.355	12.205	-0.342	0.263
-409.340	13.604	0.062	0.048
-408.325	800.000	0.050	-0.197
-407.311	330.403	0.078	0.150
-406.296	131.483	0.066	-0.084
-405.282	13.861	-0.255	0.198
-404.267	-66.748	0.160	-0.063
-403.252	800.000	-0.049	-0.188
-402.238	-120.169	0.152	-0.026
-401.223	167.019	-0.132	-0.187
-400.209	89.029	0.155	-0.172
-399.194	-86.447	0.132	0.040
-398.179	800.000	-0.115	-0.357
-397.165	35.342	-0.313	0.273
-396.150	-96.601	-0.231	-0.061
-395.136	-136.927	0.364	0.042
-394.121	50.726	0.171	0.161
-393.106	90.534	-0.179	0.200
-392.092	58.721	-0.092	-0.090
-391.077	278.693	-0.130	0.230
-390.063	630.886	-0.091	0.228
-389.048	592.384	-0.024	0.058
-388.033	-200.000	-0.044	0.306
-387.019	-7.811	0.177	-0.119
-386.004	129.390	-0.065	-0.083
-384.990	103.381	-0.192	-0.224
-383.975	7.859	0.397	-0.296
-382.960	-200.000	0.059	-0.325
-381.946	-65.768	0.295	-0.118
-380.931	-122.136	-0.291	0.048
-379.917	69.733	-0.083	-0.085
-378.902	-100.469	0.088	-0.022
-377.888	150.874	0.197	0.266
-376.873	-172.847	0.297	0.009
-375.858	-120.136	0.190	0.032
-374.844	-154.593	0.231	0.015
-373.829	-200.000	0.018	0.096
-372.815	56.335	0.214	0.207
-371.800	-119.098	0.331	-0.058
-370.785	314.571	0.091	0.170
-369.771	170.265	-0.100	0.143
-368.756	383.703	-0.086	-0.177
-367.742	-24.751	0.022	0.013
-366.727	-111.186	-0.114	-0.023
-365.712	405.395	-0.019	-0.039
-364.698	739.882	-0.060	-0.159
-363.683	400.885	-0.104	0.217
-362.669	-58.272	0.256	-0.111
-361.654	-131.601	-0.212	0.028
-360.639	-111.204	-0.292	-0.059
-359.625	-200.000	0.006	0.028
-358.610	380.309	0.088	0.179
-357.596	118.388	0.137	0.168
-356.581	-200.000	-0.024	0.252
-355.566	186.809	-0.030	0.045
-354.552	13.816	0.246	0.190
-353.537	-188.855	0.446	-0.005
-352.523	-99.665	-0.224	0.056
-351.508	64.503	0.129	-0.129
-350.493	-200.000	0.041	0.199
-349.479	-170.123	0.357	0.013
-348.464	-96.042	-0.180	-0.048
-347.450	208.481	0.140	0.217
-346.435	-200.000	0.042	0.226
-345.420	750.625	0.066	0.178
-344.406	267.448	0.188	0.327
-343.391	166.109	0.197	-0.277
-342.377	-126.905	0.238	0.035
-341.362	-200.000	-0.026	0.118
-340.348	-4.993	-0.087	-0.059
-339.333	800.000	0.023	0.080
-338.318	-1.687	-0.099	0.070
-337.304	-91.963	-0.144	0.041
-336.289	-200.000	0.002	0.088
-335.275	-46.328	0.165	-0.080
-334.260	228.502	-0.087	0.142
-333.245	800.000	-0.069	-0.194
-332.231	72.630	-0.112	-0.116
-331.216	-115.513	-0.135	0.025
-330.202	53.295	0.199	-0.190
-329.187	-200.000	0.000	-0.258
-328.172	-33.702	-0.234	-0.128
-327.158	79.441	0.154	-0.164
-326.143	-95.245	0.168	0.045
-325.129	12.325	0.277	0.212
-324.114	-66.882	0.167	-0.066
-323.099	-84.412	-0.256	0.080
-322.085	30.378	-0.135	0.114
-321.070	439.463	0.041	0.090
-320.056	-78.552	0.285	-0.097
-319.041	5.244	-0.085	-0.062
-318.026	-79.278	0.208	0.070
-317.012	128.136	0.250	-0.315
-315.997	-112.148	-0.118	0.023
-314.983	-23.017	-0.239	-0.143
-313.968	-44.114	0.134	0.067
-312.953	-50.136	0.594	-0.279
-311.939	526.113	0.039	0.090
-310.924	-58.209	-0.173	-0.075
-309.910	-200.000	0.004	-0.163
-308.895	19.672	-0.204	-0.163
-307.880	-18.064	0.186	0.116
-306.866	277.911	-0.124	-0.219
-305.851	-200.000	-0.011	0.124
-304.837	20.487	-0.144	0.115
-303.822	-151.705	-0.165	-0.012
-302.807	-193.837	-0.220	-0.002
-301.793	-147.469	-0.200	-0.017
-300.778	-200.000	0.026	0.256
-299.764	-119.725	-0.108	-0.018
-298.749	-17.259	0.293	0.183
-297.735	351.774	0.071	-0.140
-296.720	308.155	0.091	0.168
-295.705	800.000	0.021	0.062
-294.691	-22.176	-0.247	0.149
-293.676	-101.446	0.289	0.070
-292.662	119.813	-0.134	-0.164
-291.647	113.404	-0.298	-0.359
-290.632	10.735	-0.286	0.216
-289.618	12.087	0.064	-0.049
-288.603	800.000	-0.067	0.271
-287.589	104.230	0.155	-0.180
-286.574	800.000	0.052	0.145
-285.559	19.567	-0.213	0.170
-284.545	-86.179	-0.157	0.048
-283.530	800.000	0.134	0.444
-282.516	34.432	0.152	-0.131
-281.501	-61.441	0.196	0.082
-280.486	-113.776	0.299	0.058
-279.472	513.353	-0.188	-0.435
-278.457	-0.681	-0.135	0.095
-277.443	-66.470	0.303	-0.119
-276.428	464.423	0.148	-0.327
-275.413	-153.773	0.450	0.031
-274.399	7.521	0.124	0.092
-273.384	325.110	-0.057	0.108
-272.370	-65.047	0.200	-0.080
-271.355	276.930	-0.107	-0.189
-270.340	255.233	0.191	-0.324
-269.326	-68.504	-0.311	-0.120
-268.311	-125.536	-0.345	0.052
-267.297	99.009	-0.085	-0.097
-266.282	-66.526	-0.166	-0.065
-265.267	-31.704	0.065	-0.036
-264.253	-78.866	0.300	-0.101
-263.238	-135.135	0.062	0.007
-262.224	-133.399	0.096	-0.012
-261.209	-134.725	-0.102	0.012
-260.195	-113.296	0.175	0.034
-259.180	182.157	0.030	0.044
-258.165	-149.291	0.161	0.013
-257.151	-95.336	-0.093	0.025
-256.136	800.000	-0.122	-0.413
-255.122	114.869	-0.089	0.107
-254.107	116.083	0.057	0.069
-253.092	-59.518	-0.129	0.055
-252.078	-200.000	-0.009	-0.184
-251.063	-78.670	0.257	-0.087
-250.049	800.000	-0.031	0.088
-249.034	-200.000	0.010	0.560
-248.019	98.095	-0.208	0.237
-247.005	165.545	0.117	-0.163
-245.990	572.552	-0.165	-0.399
-244.976	464.025	0.049	-0.108
-243.961	5.220	0.168	0.122
-242.946	657.072	-0.085	0.216
-241.932	143.160	-0.004	0.005
-240.917	335.338	0.037	-0.070
-239.903	-59.652	0.141	-0.060
-238.888	-160.384	0.441	-0.023
-237.873	555.777	0.037	-0.087
-236.859	329.946	-0.119	-0.226
-235.844	19.305	0.162	-0.129
-234.830	-105.673	0.098	-0.022
-233.815	370.534	0.052	0.104
-232.800	182.974	-0.209	-0.305
-231.786	49.277	-0.224	0.208
-230.771	-103.598	-0.147	-0.034
-229.757	73.800	-0.219	-0.227
-228.742	69.278	-0.053	-0.054
-227.727	171.475	0.208	0.295
-226.713	-83.080	-0.135	-0.043
-225.698	800.000	-0.063	-0.203
-224.684	-108.309	-0.435	0.093
-223.669	-98.324	0.206	0.052
-222.655	12.080	0.137	0.104
-221.640	79.839	-0.073	0.078
-220.625	-151.232	-0.259	0.019
-219.611	-11.118	-0.176	0.115
-218.596	-120.689	0.118	0.020
-217.582	-102.595	-0.207	0.049
-216.567	-103.218	-0.132	0.031
-215.552	800.000	-0.024	-0.080
-214.538	-82.533	0.236	0.076
-213.523	151.707	-0.221	0.298
-212.509	15.291	0.134	0.104
-211.494	-10.630	0.031	0.020
-210.479	-200.000	0.001	-0.140
-209.465	75.221	0.190	0.198
-208.450	-200.000	-0.036	0.458
-207.436	-61.131	-0.185	-0.077
-206.421	117.024	-0.093	-0.113
-205.406	278.980	-0.021	-0.036
-204.392	93.505	0.055	0.061
-203.377	-200.000	-0.009	0.131
-202.363	729.207	0.056	0.147
-201.348	-200.000	0.016	-0.142
-200.333	-200.000	0.043	-0.250
-199.319	-41.510	-0.115	-0.058
-198.304	800.000	-0.070	0.279
-197.290	-83.442	-0.097	0.031
-196.275	101.173	-0.120	-0.138
-195.260	800.000	-0.054	-0.202
-194.246	4.527	0.268	0.194
-193.231	167.784	0.061	-0.085
-192.217	-110.263	-0.249	-0.051
-191.202	481.060	0.043	-0.096
-190.187	-43.330	0.303	0.151
-189.173	157.842	0.049	-0.066
-188.158	316.530	0.151	0.282
-187.144	-200.000	-0.022	0.182
-186.129	1.913	-0.198	-0.141
-185.114	64.787	-0.150	-0.150
-184.100	-63.452	-0.217	0.088
-183.085	800.000	0.096	0.263
-182.071	205.197	0.206	0.316
-181.056	-108.626	0.261	-0.055
-180.042	95.822	0.137	-0.154
-179.027	-166.998	0.005	-0.000
-178.012	-69.539	0.048	0.018
-176.998	-63.970	0.284	0.115
-175.983	-1.397	0.328	0.228
-174.969	285.311	-0.221	0.393
-173.954	-124.324	-0.257	0.040
-172.939	585.972	0.061	-0.148
-171.925	-91.989	-0.475	0.133
-170.910	800.000	-0.036	-0.138
-169.896	79.149	0.080	-0.085
-168.881	-13.039	-0.089	-0.057
-167.866	-114.430	0.451	0.086
-166.852	-8.738	0.081	0.054
-165.837	125.729	-0.216	0.269
-164.823	-132.495	0.217	-0.028
-163.808	-59.592	0.176	-0.075
-162.793	265.520	-0.101	-0.174
-161.779	152.949	-0.035	-0.047
-160.764	-200.000	-0.020	-0.151
-159.750	-57.602	0.234	-0.101
-158.735	-30.010	-0.167	0.094
-157.720	800.000	-0.075	0.286
-156.706	185.570	0.191	-0.280
-155.691	800.000	-0.029	0.080
-154.677	-200.000	-0.059	0.285
-153.662	-88.952	0.304	-0.089
-152.647	-181.834	0.163	0.003
-151.633	-131.379	0.383	0.050
-150.618	-185.777	0.144	-0.002
-149.604	-64.507	-0.171	0.068
-148.589	256.482	0.067	-0.113
-147.574	72.088	0.186	-0.191
-146.560	-200.000	0.011	-0.313
-145.545	-120.618	-0.593	0.099
-144.531	280.431	0.137	0.242
-143.516	-12.646	0.208	-0.134
-142.502	-56.590	0.075	0.033
-141.487	-200.000	-0.097	0.537
-140.472	-22.134	0.202	0.121
-139.458	-83.252	-0.243	0.077
-138.443	254.975	0.050	0.085
-137.429	126.037	0.211	0.263
-136.414	12.480	-0.254	-0.193
-135.399	800.000	0.062	-0.252
-134.385	-124.233	-0.324	-0.050
-133.370	-200.000	-0.020	0.544
-132.356	-160.620	-0.159	-0.008
-131.341	40.828	-0.163	0.145
-130.326	281.598	-0.065	-0.115
-129.312	-21.938	-0.300	0.180
-128.297	99.484	0.088	0.100
-127.283	42.436	0.143	-0.128
-126.268	-6.215	-0.032	0.022
-125.253	-125.299	0.123	0.019
-124.239	-200.000	-0.009	0.505
-123.224	181.935	-0.061	0.089
-122.210	348.654	-0.092	0.179
-121.195	-125.959	-0.125	0.019
-120.180	43.386	-0.250	-0.225
