DTS Sentinel unit serial number:	SN413079Multiplexer serial number:	ORYXHardware model number:	OX4-SRSoftware version number:	ORYX F/W v4.00 Oryx Data Collector v3.7.2.0data status	okinstallation	princeton_trtdifferential loss correction	single-endedforward channel	channel 2reverse channel	N/Adate	2019/09/12time	23:07:34forward acquisition time	60.00reverse acquisition time	0.00gamma	496.2192k internal	0.2332k external	0.2332temperature offset calibration	1.0168default loss term (dB/km)	0.3790temperature slope calibration	1.0000multiplexer offset coefficient	1.0000multiplexer slope coefficient	1.0000fibre end	0.00T internal ref (°C)	29.25T ext. ref 1 (°C)	3.72T ext. ref 2 (°C)	23.84length (m)	temperature (°C)	Stokes	anti-Stokes-747.200	-200.000	-0.017	0.163
-746.185	-96.798	-0.138	-0.036
-745.171	-200.000	0.019	-0.270
-744.156	137.766	-0.248	0.327
-743.142	-157.254	-0.383	0.023
-742.127	800.000	0.137	0.544
-741.112	-200.000	0.009	0.085
-740.098	-133.075	0.138	0.018
-739.083	-68.641	-0.031	-0.012
-738.069	-13.553	-0.105	-0.069
-737.054	-45.288	-0.443	-0.221
-736.039	-74.505	-0.226	-0.082
-735.025	800.000	0.093	0.335
-734.010	29.787	0.078	0.067
-732.996	126.507	-0.164	-0.208
-731.981	167.822	-0.081	0.116
-730.966	446.092	-0.095	-0.211
-729.952	4.903	-0.266	0.196
-728.937	62.404	0.068	-0.068
-727.923	-200.000	0.013	-0.323
-726.908	7.106	-0.262	-0.196
-725.894	-47.108	-0.273	-0.134
-724.879	-200.000	-0.025	0.138
-723.864	-135.875	-0.332	-0.039
-722.850	255.427	0.089	-0.153
-721.835	312.923	0.072	-0.136
-720.821	-17.070	-0.096	0.061
-719.806	722.636	0.054	-0.146
-718.791	104.462	0.042	0.050
-717.777	-103.222	-0.146	-0.035
-716.762	232.033	0.052	-0.086
-715.748	-168.898	-0.183	0.007
-714.733	-12.262	0.203	-0.133
-713.718	-102.228	0.280	0.068
-712.704	10.427	-0.203	-0.155
-711.689	-84.258	0.100	-0.032
-710.675	-140.842	-0.382	0.040
-709.660	-56.061	0.212	-0.095
-708.645	253.229	0.013	0.023
-707.631	608.834	-0.018	-0.045
-706.616	-79.285	0.153	-0.052
-705.602	206.306	0.121	-0.189
-704.587	25.149	0.329	0.274
-703.572	14.028	0.214	-0.168
-702.558	326.237	0.111	0.214
-701.543	-183.241	-0.129	-0.002
-700.529	128.354	-0.217	-0.277
-699.514	-36.529	0.150	-0.081
-698.499	800.000	0.027	-0.103
-697.485	-101.951	0.109	-0.026
-696.470	390.463	-0.098	-0.204
-695.456	142.144	-0.177	0.235
-694.441	99.563	0.202	-0.235
-693.426	450.685	-0.038	0.084
-692.412	-200.000	0.006	-0.032
-691.397	193.693	-0.145	-0.220
-690.383	-82.569	-0.535	-0.174
-689.368	-200.000	0.074	0.000
-688.354	-200.000	-0.003	-0.237
-687.339	-200.000	0.029	-0.154
-686.324	97.318	0.082	-0.094
-685.310	-26.794	0.055	-0.032
-684.295	18.342	-0.163	-0.131
-683.281	-74.578	-0.349	0.126
-682.266	-92.767	-0.153	0.043
-681.251	221.425	-0.190	-0.307
-680.237	-56.597	-0.120	-0.053
-679.222	223.504	0.137	-0.223
-678.208	-200.000	0.050	-0.415
-677.193	-70.938	-0.111	0.042
-676.178	333.925	-0.048	0.094
-675.164	78.570	0.186	-0.199
-674.149	-87.447	0.114	-0.035
-673.135	-160.742	0.138	-0.007
-672.120	-52.372	0.408	0.189
-671.105	674.847	0.031	0.082
-670.091	-4.496	-0.216	0.150
-669.076	37.340	-0.315	-0.280
-668.062	800.000	0.030	-0.129
-667.047	-57.702	-0.368	-0.161
-666.032	-200.000	-0.012	-0.114
-665.018	-200.000	-0.086	-0.403
-664.003	65.730	0.109	-0.111
-662.989	120.536	-0.091	-0.114
-661.974	-200.000	0.002	-0.146
-660.959	333.222	-0.055	0.106
-659.945	-124.927	-0.268	-0.041
-658.930	28.410	0.170	-0.144
-657.916	6.661	-0.148	0.110
-656.901	-200.000	0.003	0.160
-655.886	-100.335	-0.415	0.103
-654.872	800.000	-0.052	0.169
-653.857	796.584	-0.026	-0.071
-652.843	586.711	-0.088	-0.218
-651.828	-85.316	-0.289	0.091
-650.814	-33.039	0.041	0.023
-649.799	-116.351	-0.085	-0.016
-648.784	-68.613	0.232	0.090
-647.770	-200.000	0.042	-0.267
-646.755	117.737	0.031	-0.038
-645.741	328.741	-0.131	-0.253
-644.726	800.000	-0.026	0.103
-643.711	-29.920	0.189	0.108
-642.697	167.932	0.180	-0.257
-641.682	-200.000	0.004	-0.075
-640.668	-14.940	0.160	-0.103
-639.653	-150.573	0.227	-0.017
-638.638	91.261	0.204	0.230
-637.624	-50.358	-0.284	-0.134
-636.609	800.000	-0.046	-0.129
-635.595	-52.553	0.215	0.100
-634.580	489.003	0.026	-0.060
-633.565	800.000	0.064	0.267
-632.551	-200.000	-0.003	0.277
-631.536	-123.222	-0.320	0.051
-630.522	179.263	0.172	0.252
-629.507	100.579	-0.145	0.168
-628.492	-55.217	-0.163	-0.073
-627.478	-200.000	-0.042	0.216
-626.463	56.629	-0.056	0.054
-625.449	-82.025	-0.378	0.124
-624.434	-112.328	-0.156	0.031
-623.419	-85.949	0.049	0.015
-622.405	800.000	0.011	0.033
-621.390	241.304	0.268	-0.448
-620.376	-74.634	0.258	-0.093
-619.361	-122.951	-0.082	-0.013
-618.346	12.948	0.247	-0.191
-617.332	65.446	0.055	-0.056
-616.317	46.827	0.098	0.091
-615.303	-26.772	-0.094	0.055
-614.288	-141.019	-0.171	0.018
-613.273	-79.043	0.286	-0.097
-612.259	17.724	0.099	-0.079
-611.244	-11.405	-0.179	-0.118
-610.230	-66.829	-0.206	-0.081
-609.215	-194.720	-0.482	0.004
-608.201	509.485	-0.167	0.388
-607.186	-200.000	0.021	-0.289
-606.171	800.000	0.039	-0.134
-605.157	383.354	0.053	0.110
-604.142	-17.315	-0.230	0.145
-603.128	-14.772	-0.388	-0.250
-602.113	68.183	0.139	0.142
-601.098	-38.492	-0.122	-0.065
-600.084	43.740	-0.203	0.186
-599.069	-11.507	0.223	0.147
-598.055	427.429	-0.009	0.019
-597.040	-172.794	0.596	0.019
-596.025	428.674	0.062	-0.133
-595.011	-82.195	-0.246	-0.080
-593.996	414.750	0.110	-0.235
-592.982	3.409	0.055	0.040
-591.967	-138.780	0.201	0.022
-590.952	-200.000	0.046	0.231
-589.938	800.000	-0.114	0.359
-588.923	-200.000	0.007	-0.330
-587.909	800.000	0.125	-0.441
-586.894	6.823	-0.313	-0.233
-585.879	-50.465	0.150	-0.071
-584.865	-200.000	-0.013	-0.096
-583.850	385.112	0.046	0.095
-582.836	35.254	0.081	0.071
-581.821	479.795	0.026	0.058
-580.806	476.024	-0.106	0.240
-579.792	-89.152	-0.114	-0.034
-578.777	-24.450	0.169	-0.100
-577.763	-200.000	-0.014	-0.101
-576.748	65.382	-0.216	-0.218
-575.733	77.370	0.227	-0.241
-574.719	-200.000	0.055	-0.291
-573.704	-61.800	-0.251	-0.105
-572.690	-169.280	0.247	-0.009
-571.675	-191.861	-0.252	0.002
-570.661	-200.000	0.014	0.157
-569.646	-100.689	-0.278	0.068
-568.631	295.525	0.076	-0.140
-567.617	-117.165	-0.193	-0.035
-566.602	-54.369	-0.372	-0.169
-565.588	-33.096	0.079	0.044
-564.573	-200.000	0.018	-0.153
-563.558	126.958	0.040	-0.050
-562.544	-200.000	0.137	0.001
-561.529	100.056	-0.249	-0.288
-560.515	-200.000	-0.117	-0.000
-559.500	800.000	-0.069	0.225
-558.485	-48.407	-0.244	-0.117
-557.471	-29.995	-0.154	-0.088
-556.456	-75.165	0.100	-0.036
-555.442	43.097	-0.282	-0.257
-554.427	-155.717	0.129	0.008
-553.412	61.996	0.134	0.134
-552.398	116.657	0.042	0.052
-551.383	800.000	-0.040	-0.152
-550.369	-1.808	-0.060	0.042
-549.354	245.258	-0.117	0.197
-548.339	24.457	-0.226	-0.187
-547.325	-135.714	0.275	0.033
-546.310	-121.726	-0.253	-0.042
-545.296	-18.201	-0.173	0.108
-544.281	-80.608	0.057	-0.019
-543.266	-35.545	0.160	-0.087
-542.252	230.034	-0.127	-0.207
-541.237	-155.132	0.213	0.014
-540.223	400.006	0.066	0.138
-539.208	-166.321	-0.228	0.010
-538.193	-81.488	0.279	-0.092
-537.179	-60.635	-0.010	0.004
-536.164	-64.367	-0.287	-0.117
-535.150	-20.353	0.109	0.067
-534.135	-200.000	0.020	0.194
-533.121	-200.000	-0.047	-0.249
-532.106	-21.046	-0.249	-0.152
-531.091	202.271	-0.104	-0.161
-530.077	-22.239	-0.021	0.013
-529.062	800.000	-0.024	0.075
-528.048	-6.898	0.129	-0.087
-527.033	74.264	-0.138	0.145
-526.018	-24.811	0.018	-0.011
-525.004	-103.787	0.052	-0.012
-523.989	-200.000	-0.014	-0.168
-522.975	39.234	-0.289	-0.258
-521.960	-19.603	-0.095	-0.059
-520.945	-132.914	0.417	-0.053
-519.931	17.516	-0.122	0.097
-518.916	-8.713	0.212	0.142
-517.902	-199.561	0.245	-0.001
-516.887	-99.274	-0.111	0.028
-515.872	800.000	0.056	0.164
-514.858	441.388	0.067	-0.146
-513.843	-30.398	0.152	0.086
-512.829	-104.346	-0.079	-0.018
-511.814	80.569	-0.092	0.099
-510.799	-3.362	0.152	-0.105
-509.785	-200.000	0.009	0.209
-508.770	-139.126	-0.109	-0.012
-507.756	112.079	-0.210	-0.253
-506.741	-130.813	-0.359	0.048
-505.726	-200.000	-0.006	-0.161
-504.712	-34.302	0.119	-0.065
-503.697	800.000	-0.089	-0.259
-502.683	-144.937	-0.032	0.003
-501.668	47.322	-0.064	-0.059
-500.653	800.000	0.079	-0.258
-499.639	267.418	0.209	0.364
-498.624	196.804	-0.218	-0.331
-497.610	-27.970	0.190	-0.110
-496.595	403.236	-0.034	0.072
-495.581	-128.309	-0.137	0.019
-494.566	-200.000	0.006	-0.227
-493.551	57.209	0.318	0.309
-492.537	-105.562	0.181	-0.041
-491.522	-87.262	0.111	-0.033
-490.508	-83.708	-0.315	-0.100
-489.493	603.708	-0.230	0.570
-488.478	-117.603	0.274	0.049
-487.464	-172.098	0.182	-0.006
-486.449	-18.838	-0.136	0.085
-485.435	587.668	-0.036	0.089
-484.420	-6.233	-0.149	-0.101
-483.405	-62.334	-0.085	0.035
-482.391	136.719	0.035	0.045
-481.376	-21.016	-0.030	-0.018
-480.362	-195.651	0.279	0.002
-479.347	-200.000	-0.037	-0.238
-478.332	-65.827	0.440	0.175
-477.318	-74.679	0.246	-0.088
-476.303	-200.000	-0.015	-0.377
-475.289	-200.000	-0.002	-0.285
-474.274	30.161	-0.072	0.061
-473.259	-200.000	-0.017	0.404
-472.245	-56.336	0.066	0.029
-471.230	-87.320	-0.368	0.111
-470.216	-94.685	-0.280	0.076
-469.201	-164.146	-0.076	-0.003
-468.186	15.112	-0.136	0.106
-467.172	-69.180	0.112	-0.043
-466.157	-200.000	0.003	-0.063
-465.143	111.327	0.184	-0.221
-464.128	133.526	0.119	0.153
-463.113	12.882	-0.193	0.149
-462.099	67.784	-0.298	-0.303
-461.084	-122.197	0.121	-0.020
-460.070	-105.853	-0.122	0.027
-459.055	123.207	-0.194	-0.242
-458.040	-4.964	0.090	-0.061
-457.026	-139.448	-0.165	-0.018
-456.011	-45.597	-0.301	0.148
-454.997	142.010	0.159	0.210
-453.982	179.008	-0.248	0.360
-452.968	205.780	-0.090	-0.139
-451.953	24.175	0.277	-0.227
-450.938	17.395	0.059	-0.046
-449.924	208.707	-0.283	0.441
-448.909	131.475	0.149	0.191
-447.895	732.598	0.183	0.488
-446.880	-44.212	0.271	0.135
-445.865	7.780	0.085	-0.063
-444.851	-75.526	0.084	-0.030
-443.836	-59.355	-0.331	-0.141
-442.822	800.000	-0.081	0.246
-441.807	-60.719	-0.034	-0.014
-440.792	-45.229	-0.064	-0.031
-439.778	-82.762	0.282	-0.091
-438.763	-200.000	-0.037	0.319
-437.749	-200.000	-0.009	-0.044
-436.734	-200.000	0.023	0.344
-435.719	476.638	-0.132	0.297
-434.705	203.159	-0.110	0.169
-433.690	61.838	0.122	0.121
-432.676	-34.916	0.146	0.079
-431.661	719.596	0.063	-0.167
-430.646	74.170	-0.161	0.168
-429.632	-60.650	0.278	-0.117
-428.617	218.915	-0.081	-0.128
-427.603	728.779	-0.145	0.386
-426.588	49.938	-0.049	-0.046
-425.573	36.789	-0.052	0.045
-424.559	-178.756	0.193	-0.004
-423.544	-28.198	-0.082	0.047
-422.530	-90.988	-0.189	0.054
-421.515	198.296	-0.170	-0.259
-420.500	-13.488	0.221	0.142
-419.486	-200.000	-0.042	-0.338
-418.471	-200.000	-0.034	0.233
-417.457	-200.000	-0.032	-0.258
-416.442	-104.225	-0.196	-0.045
-415.428	-86.671	0.074	0.023
-414.413	-118.590	-0.259	-0.045
-413.398	800.000	0.009	0.027
-412.384	-22.999	-0.214	0.128
-411.369	137.386	0.109	0.142
-410.355	97.927	0.122	-0.139
-409.340	800.000	-0.098	-0.341
-408.325	-200.000	0.011	0.119
-407.311	-174.191	-0.311	0.009
-406.296	-200.000	0.013	-0.140
-405.282	-94.255	0.101	0.027
-404.267	154.220	-0.107	0.146
-403.252	700.870	0.035	-0.090
-402.238	3.670	-0.091	-0.066
-401.223	21.197	0.191	-0.154
-400.209	-83.334	-0.096	-0.030
-399.194	800.000	-0.124	-0.432
-398.179	490.006	-0.149	-0.338
-397.165	31.546	0.058	0.049
-396.150	4.888	-0.125	0.091
-395.136	579.167	-0.096	-0.234
-394.121	94.405	-0.178	-0.200
-393.106	217.974	-0.086	-0.136
-392.092	800.000	0.146	0.490
-391.077	-25.716	0.171	-0.100
-390.063	27.471	-0.131	-0.110
-389.048	69.700	-0.312	-0.319
-388.033	-110.881	0.322	-0.066
-387.019	517.148	0.087	-0.201
-386.004	-116.196	-0.128	-0.024
-384.990	260.650	-0.097	0.166
-383.975	169.697	-0.047	-0.066
-382.960	-200.000	0.048	0.434
-381.946	48.195	0.234	-0.217
-380.931	140.492	-0.179	0.235
-379.917	800.000	-0.149	0.515
-378.902	-191.521	-0.247	0.002
-377.888	-66.304	0.284	-0.112
-376.873	114.387	-0.243	0.294
-375.858	123.099	0.039	-0.048
-374.844	-200.000	0.025	0.390
-373.829	-53.613	-0.335	-0.152
-372.815	-58.586	-0.235	0.101
-371.800	-15.136	-0.183	0.116
-370.785	-52.508	0.098	-0.045
-369.771	23.950	-0.115	0.094
-368.756	-84.035	0.124	0.039
-367.742	800.000	-0.034	-0.097
-366.727	37.210	-0.035	0.030
-365.712	-172.422	0.370	0.012
-364.698	-105.558	-0.334	-0.075
-363.683	800.000	0.050	0.201
-362.669	503.888	0.085	0.194
-361.654	172.628	0.099	0.141
-360.639	-118.324	0.454	-0.080
-359.625	92.383	0.088	0.099
-358.610	576.202	0.110	0.267
-357.596	-97.326	0.241	-0.062
-356.581	-200.000	0.013	-0.321
-355.566	-46.492	-0.077	-0.037
-354.552	-57.341	-0.211	-0.092
-353.537	18.242	0.183	0.145
-352.523	-103.232	0.064	0.015
-351.508	405.142	0.183	0.382
-350.493	4.192	0.169	-0.123
-349.479	800.000	0.019	0.080
-348.464	800.000	-0.088	-0.254
-347.450	42.162	-0.028	-0.025
-346.435	-200.000	0.048	0.291
-345.420	366.646	0.067	-0.133
-344.406	-200.000	0.036	-0.222
-343.391	324.382	-0.027	-0.052
-342.377	33.592	-0.168	0.144
-341.362	133.230	-0.043	-0.055
-340.348	-200.000	0.016	-0.158
-339.333	-200.000	-0.044	0.492
-338.318	83.279	-0.296	0.320
-337.304	-160.694	-0.233	0.012
-336.289	-99.487	0.171	-0.043
-335.275	-191.578	-0.142	0.001
-334.260	82.676	-0.154	0.166
-333.245	219.400	0.140	0.221
-332.231	93.201	-0.092	0.103
-331.216	-200.000	0.001	-0.047
-330.202	-160.988	0.221	0.012
-329.187	102.832	0.174	-0.202
-328.172	194.553	-0.189	0.283
-327.158	800.000	0.078	0.266
-326.143	593.675	0.109	0.267
-325.129	-134.557	0.349	-0.042
-324.114	-13.154	-0.142	-0.092
-323.099	800.000	-0.075	-0.260
-322.085	-149.426	0.152	0.012
-321.070	98.956	-0.084	-0.096
-320.056	800.000	0.074	0.294
-319.041	511.197	-0.147	0.338
-318.026	358.948	-0.084	-0.167
-317.012	-106.005	-0.261	-0.058
-315.997	-48.082	0.148	-0.071
-314.983	55.352	-0.148	0.141
-313.968	40.682	-0.371	0.330
-312.953	-200.000	0.004	0.051
-311.939	-24.909	0.318	0.186
-310.924	123.806	-0.126	-0.156
-309.910	2.095	-0.122	0.087
-308.895	-20.737	-0.133	-0.081
-307.880	-99.093	0.221	0.055
-306.866	-0.064	0.238	0.167
-305.851	-87.283	0.378	-0.113
-304.837	230.652	0.085	-0.138
-303.822	-178.968	0.104	0.002
-302.807	54.568	-0.316	-0.301
-301.793	-28.767	0.135	-0.077
-300.778	-60.052	0.145	-0.061
-299.764	-200.000	0.008	0.079
-298.749	498.092	-0.110	-0.250
-297.735	-38.746	-0.134	0.070
-296.720	458.325	-0.100	-0.220
-295.705	800.000	0.082	-0.246
-294.691	86.832	-0.054	0.059
-293.676	15.458	0.246	0.191
-292.662	49.332	-0.111	0.103
-291.647	-69.252	-0.058	0.022
-290.632	-200.000	0.076	0.370
-289.618	-200.000	0.001	0.134
-288.603	188.890	0.129	-0.191
-287.589	766.216	-0.128	0.343
-286.574	-200.000	0.044	0.260
-285.559	-179.992	0.348	-0.007
-284.545	-133.921	-0.259	-0.032
-283.530	-37.582	-0.205	0.108
-282.516	-74.615	0.282	-0.100
-281.501	-110.246	0.098	0.020
-280.486	-130.584	0.113	-0.015
-279.472	146.928	0.214	0.285
-278.457	-200.000	-0.025	0.341
-277.443	-200.000	-0.024	-0.296
-276.428	-113.907	0.266	-0.051
-275.413	-200.000	-0.019	-0.083
-274.399	-7.895	-0.054	0.036
-273.384	800.000	0.114	0.316
-272.370	800.000	-0.076	-0.233
-271.355	289.360	-0.123	-0.221
-270.340	46.012	-0.167	0.153
-269.326	-152.534	-0.095	-0.007
-268.311	122.527	0.118	-0.146
-267.297	-71.391	0.183	-0.068
-266.282	150.216	0.028	0.038
-265.267	-92.291	-0.290	0.081
-264.253	-200.000	-0.040	-0.287
-263.238	800.000	-0.043	0.186
-262.224	-200.000	0.015	0.267
-261.209	-110.151	0.450	0.093
-260.195	-90.642	0.174	0.050
-259.180	563.352	-0.050	0.120
-258.165	372.747	0.103	0.207
-257.151	252.408	0.067	-0.112
-256.136	52.555	0.155	0.146
-255.122	222.464	-0.116	-0.185
-254.107	800.000	-0.075	0.207
-253.092	63.658	-0.094	-0.094
-252.078	-60.548	0.067	-0.028
-251.063	237.177	0.138	-0.225
-250.049	-120.987	-0.320	0.053
-249.034	-30.987	0.182	-0.101
-248.019	-100.470	-0.144	0.035
-247.005	98.139	0.039	-0.044
-245.990	225.578	0.084	-0.135
-244.976	800.000	-0.130	0.396
-243.961	-113.669	-0.276	-0.053
-242.946	-177.606	-0.299	-0.007
-241.932	-49.431	-0.173	-0.081
-240.917	226.192	0.240	0.384
-239.903	7.746	0.111	-0.082
-238.888	-37.427	0.176	-0.093
-237.873	-89.553	0.256	-0.074
-236.859	-200.000	-0.017	-0.241
-235.844	-197.797	0.112	-0.001
-234.830	800.000	-0.066	-0.206
-233.815	28.875	-0.250	-0.209
-232.800	155.817	-0.191	-0.260
-231.786	5.251	0.247	-0.179
-230.771	-60.873	0.096	-0.040
-229.757	154.017	-0.040	0.054
-228.742	-200.000	0.039	0.178
-227.727	-200.000	0.017	-0.303
-226.713	637.057	0.153	-0.384
-225.698	-155.528	0.132	0.008
-224.684	136.656	-0.169	-0.217
-223.669	74.817	-0.135	-0.140
-222.655	800.000	0.059	0.191
-221.640	-200.000	0.016	-0.078
-220.625	-146.223	0.270	-0.023
-219.611	-16.838	-0.015	-0.009
-218.596	-200.000	0.050	0.215
-217.582	800.000	0.113	-0.345
-216.567	479.183	-0.073	-0.162
-215.552	74.372	0.267	-0.276
-214.538	4.886	0.145	-0.105
-213.523	207.996	-0.128	-0.198
-212.509	-200.000	0.004	0.095
-211.494	587.512	0.053	-0.129
-210.479	800.000	0.126	0.489
-209.465	-200.000	-0.006	0.167
-208.450	200.838	-0.162	-0.246
-207.436	-34.717	0.210	0.113
-206.421	-24.819	0.177	-0.103
-205.406	800.000	0.086	-0.367
-204.392	225.012	0.182	0.290
-203.377	-102.078	0.338	-0.080
-202.363	25.187	-0.323	0.264
-201.348	-54.062	-0.132	0.059
-200.333	101.050	0.180	-0.206
-199.319	202.594	0.083	-0.126
-198.304	-200.000	0.008	-0.163
-197.290	800.000	0.017	0.056
-196.275	800.000	0.048	0.192
-195.260	6.848	0.073	-0.053
-194.246	-174.406	-0.191	0.005
-193.231	-130.533	0.245	-0.033
-192.217	269.638	0.126	-0.218
-191.202	-9.091	0.255	0.168
-190.187	-200.000	-0.014	-0.148
-189.173	-75.865	0.192	0.067
-188.158	-68.657	0.260	0.099
-187.144	-117.524	0.165	-0.029
-186.129	477.837	-0.195	0.435
-185.114	35.561	0.120	-0.104
-184.100	-8.795	-0.217	0.143
-183.085	800.000	0.038	0.104
-182.071	800.000	0.121	-0.474
-181.056	-150.952	0.031	-0.002
-180.042	-200.000	0.001	-0.161
-179.027	800.000	0.059	-0.202
-178.012	-200.000	-0.011	-0.056
-176.998	143.211	0.297	0.389
-175.983	82.279	-0.124	0.133
-174.969	217.060	-0.174	0.272
-173.954	-130.512	0.406	0.054
-172.939	-37.243	-0.070	-0.037
-171.925	800.000	0.051	-0.142
-170.910	-2.090	-0.112	-0.077
-169.896	2.102	-0.083	-0.059
-168.881	-200.000	0.012	0.194
-167.866	-130.683	-0.186	-0.025
-166.852	185.461	0.085	0.124
-165.837	-200.000	0.054	-0.406
-164.823	-200.000	-0.012	-0.124
-163.808	659.996	0.063	0.160
-162.793	305.597	-0.045	0.082
-161.779	41.755	-0.150	-0.133
-160.764	176.704	-0.059	-0.084
-159.750	721.536	0.064	-0.167
-158.735	-200.000	-0.021	-0.138
-157.720	-109.904	0.161	-0.033
-156.706	800.000	0.091	0.274
-155.691	129.787	-0.204	0.256
-154.677	800.000	-0.041	0.126
-153.662	19.676	-0.130	0.103
-152.647	5.606	-0.147	0.107
-151.633	-112.349	0.219	0.043
-150.618	113.247	-0.130	0.155
-149.604	-20.747	0.124	0.075
-148.589	44.905	-0.137	0.124
-147.574	800.000	-0.029	0.119
-146.560	-200.000	0.031	0.314
-145.545	19.017	0.140	0.110
-144.531	66.417	0.126	0.126
-143.516	-77.053	0.177	0.061
-142.502	655.074	0.058	0.146
-141.487	-92.796	-0.139	-0.038
-140.472	-29.765	-0.057	-0.032
-139.458	-88.992	-0.125	-0.036
-138.443	-3.158	0.043	-0.030
-137.429	800.000	-0.055	-0.223
-136.414	-64.399	0.246	0.098
-135.399	116.708	0.068	-0.081
-134.385	-200.000	-0.031	-0.141
-133.370	-200.000	-0.040	0.244
-132.356	188.991	-0.129	0.190
-131.341	-50.126	0.085	-0.040
-130.326	21.697	-0.152	0.122
-129.312	227.310	-0.046	-0.074
-128.297	-8.142	-0.205	0.135
-127.283	-162.769	0.101	0.005
-126.268	51.137	0.178	0.166
-125.253	297.560	0.075	-0.135
-124.239	-107.667	-0.109	-0.023
-123.224	173.132	-0.088	0.124
-122.210	-171.926	-0.197	0.006
-121.195	-52.732	-0.082	0.037
