DTS Sentinel unit serial number:	SN413079Multiplexer serial number:	ORYXHardware model number:	OX4-SRSoftware version number:	ORYX F/W v4.00 Oryx Data Collector v3.7.2.0data status	okinstallation	princeton_trtdifferential loss correction	single-endedforward channel	channel 2reverse channel	N/Adate	2019/09/12time	21:47:34forward acquisition time	60.00reverse acquisition time	0.00gamma	496.2192k internal	0.2329k external	0.2329temperature offset calibration	1.0173default loss term (dB/km)	0.3790temperature slope calibration	1.0000multiplexer offset coefficient	1.0000multiplexer slope coefficient	1.0000fibre end	0.00T internal ref (°C)	30.25T ext. ref 1 (°C)	3.72T ext. ref 2 (°C)	24.84length (m)	temperature (°C)	Stokes	anti-Stokes-747.200	-83.965	0.120	-0.038
-746.185	-66.381	-0.110	0.044
-745.171	633.492	0.036	0.092
-744.156	-98.820	-0.266	0.068
-743.142	60.371	-0.084	0.084
-742.127	-130.082	0.362	-0.050
-741.112	433.703	0.171	-0.374
-740.098	-26.918	-0.174	0.102
-739.083	-174.064	-0.267	0.008
-738.069	-200.000	-0.086	0.396
-737.054	-200.000	-0.009	0.078
-736.039	-195.425	-0.236	-0.002
-735.025	-71.314	0.341	0.129
-734.010	-151.020	-0.094	-0.007
-732.996	-109.373	0.143	0.030
-731.981	800.000	0.071	0.296
-730.966	85.498	0.015	0.017
-729.952	-4.104	-0.160	-0.111
-728.937	-106.370	-0.582	-0.131
-727.923	630.464	-0.019	-0.048
-726.908	34.134	-0.227	0.199
-725.894	51.620	0.141	0.135
-724.879	-200.000	-0.036	0.227
-723.864	-140.303	-0.258	0.027
-722.850	-173.423	0.225	0.007
-721.835	-24.489	0.070	0.042
-720.821	800.000	-0.021	0.078
-719.806	-135.950	-0.199	-0.024
-718.791	107.222	-0.107	-0.128
-717.777	800.000	0.058	-0.165
-716.762	142.312	-0.149	-0.200
-715.748	390.230	-0.130	0.272
-714.733	83.851	0.036	-0.040
-713.718	145.469	-0.155	-0.209
-712.704	364.058	0.075	-0.152
-711.689	78.615	0.042	0.045
-710.675	100.406	0.078	0.091
-709.660	212.795	-0.131	0.208
-708.645	87.205	-0.173	-0.193
-707.631	-59.630	-0.211	0.091
-706.616	-92.949	-0.077	0.022
-705.602	24.312	-0.318	0.264
-704.587	560.561	0.048	0.116
-703.572	-200.000	0.042	0.264
-702.558	-115.837	0.174	-0.033
-701.543	800.000	-0.024	0.083
-700.529	-141.239	0.067	0.007
-699.514	132.037	-0.224	-0.290
-698.499	800.000	0.113	0.321
-697.485	5.852	-0.101	0.075
-696.470	-13.030	0.162	0.106
-695.456	-200.000	-0.035	-0.240
-694.441	-114.958	0.358	-0.068
-693.426	800.000	-0.136	-0.420
-692.412	68.020	0.140	0.144
-691.397	684.174	-0.040	-0.104
-690.383	-160.252	-0.292	-0.016
-689.368	173.441	-0.135	-0.195
-688.354	-78.121	0.213	-0.074
-687.339	162.275	-0.262	-0.369
-686.324	-154.007	0.076	0.005
-685.310	126.912	0.083	-0.106
-684.295	-179.644	-0.150	0.003
-683.281	-22.020	-0.360	0.219
-682.266	-43.687	0.127	0.065
-681.251	228.419	-0.174	0.285
-680.237	-4.383	-0.118	-0.082
-679.222	-200.000	-0.017	-0.336
-678.208	-96.253	-0.197	-0.052
-677.193	477.654	0.057	0.130
-676.178	760.842	-0.138	-0.377
-675.164	-114.278	-0.067	0.013
-674.149	-200.000	0.008	0.341
-673.135	-125.713	-0.079	-0.012
-672.120	319.006	-0.195	0.372
-671.105	-90.589	0.147	0.043
-670.091	-90.549	-0.149	-0.043
-669.076	49.230	-0.193	0.182
-668.062	132.808	-0.142	-0.184
-667.047	-200.000	-0.009	-0.067
-666.032	373.422	0.192	0.393
-665.018	-53.082	0.387	-0.179
-664.003	-105.788	0.216	0.049
-662.989	-200.000	0.005	-0.276
-661.974	1.442	-0.014	0.010
-660.959	9.076	0.107	0.081
-659.945	277.076	0.032	0.058
-658.930	309.012	-0.129	-0.242
-657.916	347.430	0.111	0.219
-656.901	-103.938	0.185	0.043
-655.886	-50.172	0.269	-0.128
-654.872	138.567	-0.170	0.223
-653.857	-160.699	0.203	0.011
-652.843	261.714	0.127	0.220
-651.828	4.891	-0.447	0.330
-650.814	-110.929	0.221	0.046
-649.799	-74.719	0.074	0.027
-648.784	3.102	0.284	-0.207
-647.770	-102.536	-0.148	-0.035
-646.755	58.734	0.218	0.214
-645.741	87.432	0.040	0.045
-644.726	800.000	-0.073	0.225
-643.711	16.250	0.275	-0.218
-642.697	800.000	-0.093	-0.272
-641.682	138.963	0.119	-0.157
-640.668	-5.585	0.092	-0.063
-639.653	-71.594	-0.353	0.132
-638.638	286.602	0.133	0.242
-637.624	539.778	0.022	0.052
-636.609	-11.783	0.232	-0.153
-635.595	800.000	-0.079	-0.245
-634.580	-145.362	0.169	0.015
-633.565	-67.433	0.407	-0.160
-632.551	-200.000	0.016	-0.226
-631.536	-68.670	0.062	0.024
-630.522	-138.445	0.278	0.031
-629.507	237.309	0.087	0.144
-628.492	800.000	0.060	0.216
-627.478	-89.388	-0.101	0.030
-626.463	-200.000	0.016	-0.165
-625.449	505.660	0.056	-0.131
-624.434	63.550	-0.434	0.437
-623.419	-86.810	-0.190	0.058
-622.405	-200.000	-0.013	-0.069
-621.390	-200.000	0.009	-0.197
-620.376	-78.290	0.218	-0.075
-619.361	-131.579	0.118	-0.016
-618.346	-26.834	-0.289	-0.169
-617.332	-200.000	-0.036	0.266
-616.317	162.947	0.005	-0.007
-615.303	45.492	-0.131	-0.121
-614.288	-107.354	0.230	0.051
-613.273	46.184	0.164	-0.152
-612.259	-200.000	-0.032	-0.200
-611.244	391.366	0.066	-0.137
-610.230	-200.000	0.006	0.073
-609.215	800.000	-0.098	-0.283
-608.201	37.816	0.132	-0.118
-607.186	-21.317	-0.248	-0.152
-606.171	-152.235	-0.049	0.004
-605.157	-200.000	0.018	-0.085
-604.142	-87.611	-0.144	0.044
-603.128	-200.000	-0.001	0.059
-602.113	535.654	0.039	0.094
-601.098	-155.968	-0.117	0.007
-600.084	704.352	-0.117	0.309
-599.069	-93.467	-0.207	-0.058
-598.055	6.785	-0.086	-0.064
-597.040	45.540	0.265	-0.245
-596.025	-200.000	0.044	-0.284
-595.011	-45.889	-0.299	-0.148
-593.996	163.396	0.063	0.088
-592.982	-101.902	-0.123	0.030
-591.967	70.485	0.092	-0.095
-590.952	51.589	-0.169	-0.161
-589.938	-151.206	-0.224	0.017
-588.923	-126.631	0.056	0.008
-587.909	-87.748	-0.402	0.121
-586.894	-200.000	-0.054	-0.320
-585.879	414.109	0.118	-0.251
-584.865	-138.770	-0.422	0.046
-583.850	-70.408	0.283	0.107
-582.836	-29.135	-0.226	-0.129
-581.821	206.623	0.076	-0.119
-580.806	-50.281	-0.212	0.100
-579.792	-164.615	0.431	-0.020
-578.777	800.000	0.070	-0.211
-577.763	-51.359	-0.188	-0.088
-576.748	800.000	0.039	-0.146
-575.733	-53.938	-0.161	0.073
-574.719	800.000	0.057	-0.210
-573.704	-124.988	0.082	0.013
-572.690	-47.930	-0.116	0.056
-571.675	-200.000	-0.008	0.077
-570.661	-200.000	-0.048	0.260
-569.646	82.689	0.169	0.184
-568.631	125.130	-0.115	-0.145
-567.617	229.310	-0.135	-0.221
-566.602	-102.223	-0.047	-0.011
-565.588	-75.990	-0.243	0.086
-564.573	-104.221	-0.206	-0.048
-563.558	66.730	-0.124	-0.127
-562.544	-193.997	0.320	-0.003
-561.529	-108.312	0.241	-0.052
-560.515	-200.000	0.013	0.089
-559.500	344.910	-0.037	-0.072
-558.485	425.343	-0.016	-0.034
-557.471	-98.429	0.289	-0.074
-556.456	-62.840	0.152	0.063
-555.442	-2.506	0.264	-0.185
-554.427	587.567	0.117	0.289
-553.412	-3.724	-0.125	0.087
-552.398	79.663	0.056	-0.060
-551.383	-154.629	-0.087	-0.006
-550.369	-57.223	0.247	-0.109
-549.354	-52.889	0.165	-0.076
-548.339	-34.391	-0.456	-0.250
-547.325	-187.567	-0.091	0.001
-546.310	242.948	-0.082	0.137
-545.296	212.665	-0.172	-0.272
-544.281	-133.633	-0.067	0.008
-543.266	-113.493	-0.339	0.066
-542.252	118.588	0.143	0.177
-541.237	-200.000	-0.060	-0.270
-540.223	52.376	0.159	0.152
-539.208	55.682	0.144	0.139
-538.193	69.130	0.104	0.106
-537.179	-200.000	-0.030	-0.269
-536.164	253.735	0.143	-0.244
-535.150	-200.000	0.026	0.510
-534.135	-115.936	-0.195	0.036
-533.121	51.588	-0.241	0.229
-532.106	-62.808	-0.080	0.033
-531.091	761.740	0.147	0.397
-530.077	-124.955	0.065	-0.010
-529.062	-9.588	-0.181	0.121
-528.048	114.781	-0.038	0.047
-527.033	-174.109	0.107	0.003
-526.018	503.920	0.071	-0.165
-525.004	-62.521	-0.214	-0.089
-523.989	85.096	-0.073	-0.080
-522.975	29.090	-0.130	0.110
-521.960	-44.420	-0.296	0.148
-520.945	494.140	0.022	-0.050
-519.931	-82.717	-0.049	-0.016
-518.916	-172.165	0.262	-0.008
-517.902	-74.205	0.143	0.051
-516.887	800.000	0.094	0.350
-515.872	252.487	0.063	0.108
-514.858	-112.128	-0.276	-0.055
-513.843	122.385	-0.175	0.218
-512.829	-59.929	-0.069	0.029
-511.814	-31.853	0.277	0.155
-510.799	-200.000	-0.014	0.066
-509.785	104.314	-0.110	-0.130
-508.770	-200.000	0.020	-0.098
-507.756	-200.000	-0.004	-0.174
-506.741	169.100	0.018	-0.025
-505.726	288.199	-0.085	-0.153
-504.712	-200.000	0.001	-0.137
-503.697	-200.000	0.001	-0.326
-502.683	-0.930	0.179	0.126
-501.668	-101.283	-0.025	-0.006
-500.653	624.586	0.089	0.223
-499.639	-200.000	0.023	0.149
-498.624	-83.855	-0.132	-0.042
-497.610	35.896	0.252	0.221
-496.595	-200.000	-0.053	0.345
-495.581	358.861	-0.174	-0.347
-494.566	-200.000	-0.012	0.239
-493.551	37.769	0.008	-0.007
-492.537	-95.946	0.280	0.074
-491.522	219.298	0.078	0.124
-490.508	-23.343	-0.260	-0.156
-489.493	694.036	-0.035	-0.091
-488.478	246.280	-0.131	-0.220
-487.464	-200.000	0.070	-0.362
-486.449	-39.628	-0.130	0.068
-485.435	-46.417	0.224	-0.110
-484.420	-177.168	-0.208	-0.005
-483.405	-76.645	-0.136	-0.047
-482.391	182.768	0.080	-0.118
-481.376	83.291	-0.106	-0.115
-480.362	-102.599	-0.057	0.014
-479.347	-6.370	0.276	0.188
-478.332	47.863	0.240	0.224
-477.318	18.847	-0.308	-0.246
-476.303	4.976	-0.106	-0.078
-475.289	-88.026	-0.121	0.036
-474.274	202.357	-0.112	0.172
-473.259	-3.199	0.099	0.069
-472.245	160.971	-0.160	-0.223
-471.230	-200.000	0.009	-0.231
-470.216	-24.827	-0.234	-0.138
-469.201	-156.903	-0.191	-0.012
-468.186	-30.123	0.115	-0.065
-467.172	-200.000	0.013	0.122
-466.157	242.803	-0.112	0.187
-465.143	257.579	0.160	0.275
-464.128	800.000	-0.036	0.127
-463.113	538.336	-0.065	0.154
-462.099	224.712	0.173	0.279
-461.084	61.146	0.182	-0.180
-460.070	62.909	-0.054	-0.054
-459.055	-51.084	-0.058	0.027
-458.040	178.821	-0.172	0.251
-457.026	-131.647	-0.228	-0.030
-456.011	268.247	-0.063	0.110
-454.997	-113.547	0.375	0.073
-453.982	-200.000	0.005	-0.180
-452.968	-200.000	-0.007	-0.418
-451.953	-200.000	0.023	0.131
-450.938	-33.690	-0.176	0.097
-449.924	-42.472	0.124	-0.063
-448.909	31.504	0.191	-0.164
-447.895	-200.000	0.061	-0.294
-446.880	33.884	0.224	-0.194
-445.865	800.000	0.071	-0.255
-444.851	215.210	0.062	-0.099
-443.836	-13.069	-0.204	-0.132
-442.822	422.829	-0.050	-0.106
-441.807	800.000	0.026	0.105
-440.792	-162.690	0.182	-0.009
-439.778	-200.000	-0.001	0.160
-438.763	-126.542	-0.062	-0.009
-437.749	-43.414	-0.210	0.105
-436.734	-59.007	-0.159	-0.068
-435.719	515.306	-0.132	0.308
-434.705	-200.000	-0.011	-0.185
-433.690	85.740	-0.274	-0.300
-432.676	533.277	-0.061	-0.143
-431.661	-200.000	0.015	0.080
-430.646	51.144	0.246	0.232
-429.632	800.000	0.082	-0.313
-428.617	-61.678	-0.198	-0.083
-427.603	184.909	-0.071	0.105
-426.588	11.530	0.094	-0.072
-425.573	242.735	-0.292	-0.487
-424.559	-200.000	0.017	-0.217
-423.544	-132.089	0.423	-0.055
-422.530	-200.000	-0.063	-0.289
-421.515	-30.439	-0.377	0.213
-420.500	-200.000	0.012	0.238
-419.486	10.378	0.247	0.187
-418.471	-44.996	-0.177	0.088
-417.457	-153.780	-0.263	-0.018
-416.442	-6.998	-0.048	0.033
-415.428	-101.617	0.150	-0.036
-414.413	-31.291	0.105	-0.059
-413.398	-159.599	-0.275	0.015
-412.384	92.481	-0.048	0.054
-411.369	-83.557	-0.069	-0.022
-410.355	13.260	-0.374	0.288
-409.340	-200.000	0.005	0.194
-408.325	-184.710	0.448	0.007
-407.311	117.703	-0.157	-0.192
-406.296	-42.697	0.158	0.080
-405.282	-200.000	0.009	-0.112
-404.267	-200.000	0.017	-0.291
-403.252	800.000	0.011	-0.036
-402.238	-77.626	-0.113	-0.039
-401.223	-200.000	-0.034	-0.276
-400.209	2.469	-0.349	-0.251
-399.194	148.103	0.078	-0.104
-398.179	399.736	-0.035	0.072
-397.165	800.000	-0.017	-0.050
-396.150	392.594	0.155	0.320
-395.136	103.296	-0.153	-0.178
-394.121	-101.536	-0.177	-0.043
-393.106	294.351	0.087	-0.158
-392.092	800.000	-0.042	0.161
-391.077	-24.958	0.274	0.162
-390.063	-200.000	-0.099	0.544
-389.048	224.859	-0.105	-0.168
-388.033	69.632	0.172	0.176
-387.019	-44.701	-0.130	-0.064
-386.004	8.729	-0.056	0.042
-384.990	-5.133	0.064	0.043
-383.975	-80.222	0.298	0.099
-382.960	67.985	0.177	0.180
-381.946	-200.000	-0.001	0.237
-380.931	-200.000	0.002	-0.355
-379.917	-71.776	-0.236	-0.087
-378.902	-119.273	0.305	-0.053
-377.888	-27.517	0.062	0.036
-376.873	-65.119	0.158	0.063
-375.858	170.327	0.025	0.036
-374.844	-5.669	-0.203	-0.138
-373.829	-126.183	-0.236	-0.035
-372.815	330.614	0.032	-0.062
-371.800	800.000	-0.054	-0.155
-370.785	103.756	0.071	0.082
-369.771	290.795	-0.059	0.106
-368.756	-54.682	-0.372	-0.167
-367.742	-158.589	0.241	0.014
-366.727	159.153	-0.020	0.027
-365.712	-23.371	0.305	0.182
-364.698	75.946	-0.131	-0.138
-363.683	-62.296	0.155	-0.064
-362.669	-153.106	0.023	-0.002
-361.654	-106.477	-0.078	-0.017
-360.639	-129.239	0.208	-0.029
-359.625	57.610	-0.265	-0.257
-358.610	-200.000	-0.035	-0.266
-357.596	6.121	0.078	0.058
-356.581	736.226	0.040	-0.108
-355.566	-112.496	-0.067	0.013
-354.552	-200.000	0.012	0.139
-353.537	-160.831	-0.093	-0.005
-352.523	204.799	-0.114	-0.175
-351.508	-200.000	0.011	0.225
-350.493	-80.585	-0.105	-0.035
-349.479	650.293	0.069	-0.175
-348.464	-9.664	-0.091	0.060
-347.450	-53.294	-0.243	-0.110
-346.435	-155.206	-0.305	-0.020
-345.420	-0.063	-0.118	0.084
-344.406	-85.948	-0.309	-0.095
-343.391	-28.502	0.181	0.104
-342.377	-200.000	0.005	0.201
-341.362	122.318	-0.132	-0.163
-340.348	800.000	0.048	-0.192
-339.333	411.512	0.183	0.385
-338.318	452.009	-0.078	0.172
-337.304	424.480	-0.053	0.113
-336.289	-83.809	0.144	0.046
-335.275	-200.000	-0.044	0.238
-334.260	208.579	-0.280	0.434
-333.245	-33.048	0.174	0.096
-332.231	-109.810	0.187	-0.039
-331.216	616.485	-0.093	0.230
-330.202	-68.311	-0.097	0.037
-329.187	-52.326	0.293	-0.135
-328.172	295.347	0.056	-0.101
-327.158	86.129	0.083	0.091
-326.143	26.716	-0.107	0.089
-325.129	800.000	0.116	-0.322
-324.114	-25.322	0.075	-0.044
-323.099	-200.000	0.037	0.241
-322.085	-200.000	0.006	0.158
-321.070	800.000	-0.071	0.230
-320.056	-123.863	-0.461	0.072
-319.041	73.994	0.063	-0.066
-318.026	-200.000	0.048	0.248
-317.012	800.000	0.034	0.116
-315.997	-37.728	-0.203	-0.107
-314.983	-154.254	-0.175	-0.012
-313.968	-9.823	0.158	0.104
-312.953	-167.933	-0.179	-0.007
-311.939	-8.605	0.105	0.070
-310.924	-80.020	0.017	-0.006
-309.910	-108.540	0.145	-0.031
-308.895	114.388	-0.178	0.215
-307.880	-26.240	0.112	-0.065
-306.866	-200.000	-0.002	0.046
-305.851	168.379	0.149	-0.210
-304.837	11.777	0.382	-0.290
-303.822	-200.000	0.060	-0.293
-302.807	151.551	0.106	-0.143
-301.793	-27.260	-0.021	0.012
-300.778	-145.643	-0.181	-0.016
-299.764	265.912	-0.075	0.130
-298.749	800.000	-0.050	0.170
-297.735	-200.000	0.064	-0.304
-296.720	-34.326	-0.217	-0.118
-295.705	-47.757	0.367	-0.176
-294.691	121.372	-0.082	0.101
-293.676	-150.230	-0.110	-0.008
-292.662	-200.000	-0.004	0.050
-291.647	800.000	0.024	0.088
-290.632	88.399	-0.152	0.167
-289.618	800.000	0.087	-0.298
-288.603	-28.328	-0.172	0.098
-287.589	705.716	0.101	0.265
-286.574	-20.444	0.279	0.170
-285.559	-50.732	-0.222	0.103
-284.545	-80.015	0.141	0.047
-283.530	394.600	0.067	-0.138
-282.516	129.725	-0.175	0.222
-281.501	-200.000	-0.025	0.132
-280.486	-200.000	0.048	0.258
-279.472	-26.188	0.190	0.111
-278.457	-91.860	-0.284	0.080
-277.443	-40.914	-0.079	0.040
-276.428	293.695	0.151	-0.273
-275.413	-29.829	-0.144	-0.081
-274.399	800.000	-0.047	0.145
-273.384	-14.318	0.192	-0.123
-272.370	365.311	-0.052	-0.103
-271.355	-101.591	0.229	-0.055
-270.340	12.466	0.093	0.071
-269.326	291.650	0.145	-0.261
-268.311	-200.000	0.046	-0.259
-267.297	103.966	-0.231	-0.269
-266.282	-60.551	0.292	-0.123
-265.267	132.883	-0.112	0.143
-264.253	194.107	-0.173	0.258
-263.238	-38.357	-0.184	-0.096
-262.224	-132.356	0.117	0.015
-261.209	272.576	-0.016	-0.028
-260.195	-111.803	-0.206	0.041
-259.180	-14.943	0.310	0.197
-258.165	414.607	-0.012	0.025
-257.151	-200.000	0.004	0.054
-256.136	137.724	-0.362	-0.468
-255.122	-22.566	0.185	-0.111
-254.107	62.337	0.253	-0.250
-253.092	-180.040	-0.282	-0.006
-252.078	800.000	-0.066	0.196
-251.063	9.635	-0.211	0.158
-250.049	-96.464	-0.207	0.054
-249.034	-72.120	0.233	-0.086
-248.019	18.408	0.071	0.056
-247.005	-200.000	0.008	0.193
-245.990	-46.666	0.283	-0.137
-244.976	-11.174	-0.135	-0.088
-243.961	74.297	0.201	0.209
-242.946	-55.508	0.426	-0.188
-241.932	-200.000	-0.018	0.110
-240.917	64.793	0.169	0.168
-239.903	125.915	-0.173	-0.216
-238.888	800.000	0.042	-0.126
-237.873	673.251	-0.038	-0.097
-236.859	271.218	0.035	0.061
-235.844	56.627	0.227	0.218
-234.830	-55.528	0.309	0.137
-233.815	51.054	-0.123	-0.115
-232.800	164.006	-0.188	-0.261
-231.786	344.403	0.099	0.191
-230.771	-33.110	0.060	0.033
-229.757	-95.406	0.108	0.029
-228.742	-200.000	-0.024	0.115
-227.727	-200.000	-0.008	-0.148
-226.713	-20.099	-0.230	0.140
-225.698	-200.000	-0.012	0.061
-224.684	-200.000	0.031	0.176
-223.669	-34.805	0.025	0.013
-222.655	86.922	-0.033	0.036
-221.640	26.041	0.141	0.116
-220.625	292.503	0.174	0.313
-219.611	286.389	0.148	0.264
-218.596	-150.378	-0.172	-0.013
-217.582	-200.000	-0.003	-0.034
-216.567	-200.000	-0.006	0.146
-215.552	291.795	-0.119	0.214
-214.538	-99.711	0.048	-0.012
-213.523	453.921	-0.020	-0.044
-212.509	-58.871	-0.084	-0.036
-211.494	227.102	-0.182	0.291
-210.479	-68.251	-0.356	0.137
-209.465	-66.960	0.188	-0.073
-208.450	800.000	0.068	0.191
-207.436	800.000	0.057	-0.244
-206.421	-48.853	0.427	0.202
-205.406	-200.000	0.086	0.399
-204.392	522.383	0.038	-0.088
-203.377	-96.348	0.150	-0.039
-202.363	-101.972	-0.323	-0.077
-201.348	-33.465	0.112	-0.061
-200.333	-200.000	-0.032	-0.261
-199.319	-78.488	0.060	0.020
-198.304	-61.394	0.306	-0.127
-197.290	-146.719	0.320	-0.027
-196.275	-200.000	-0.022	-0.233
-195.260	-135.371	0.372	-0.044
-194.246	-69.207	-0.255	-0.097
-193.231	-170.716	-0.253	-0.009
-192.217	201.953	0.085	-0.129
-191.202	-200.000	-0.022	-0.130
-190.187	-200.000	0.001	-0.120
-189.173	-117.118	0.060	-0.011
-188.158	-28.548	0.096	-0.054
-187.144	800.000	-0.074	0.283
-186.129	255.396	0.185	0.312
-185.114	116.524	-0.127	-0.153
-184.100	16.795	-0.181	0.141
-183.085	-56.706	0.189	-0.083
-182.071	629.816	0.049	-0.123
-181.056	108.629	-0.165	0.195
-180.042	-99.066	0.049	-0.012
-179.027	-137.317	0.061	0.007
-178.012	515.599	-0.038	0.086
-176.998	-63.393	-0.167	0.068
-175.983	-200.000	-0.016	0.255
-174.969	47.102	-0.142	0.130
-173.954	443.298	-0.038	-0.082
-172.939	-200.000	0.058	-0.351
-171.925	-200.000	0.061	0.305
-170.910	-85.343	0.089	0.027
-169.896	-89.593	-0.133	0.039
-168.881	708.449	0.078	0.202
-167.866	175.031	0.218	0.311
-166.852	-66.343	0.510	-0.200
-165.837	87.124	-0.080	-0.087
-164.823	30.709	-0.044	-0.037
-163.808	-89.084	0.175	0.051
-162.793	-200.000	-0.037	0.216
-161.779	-75.358	0.172	-0.060
-160.764	380.707	-0.114	-0.231
-159.750	-110.238	0.396	-0.081
-158.735	-118.255	-0.022	0.004
-157.720	607.733	0.056	-0.137
-156.706	-40.166	0.083	0.042
-155.691	83.112	0.015	0.016
-154.677	-200.000	-0.045	0.307
-153.662	-57.894	0.192	0.082
-152.647	800.000	-0.089	0.278
-151.633	-200.000	0.030	0.244
-150.618	-96.584	-0.158	0.041
-149.604	61.388	0.336	-0.329
-148.589	99.926	0.140	-0.160
-147.574	-7.722	0.307	-0.204
-146.560	-111.179	-0.244	-0.049
-145.545	-200.000	0.005	-0.305
-144.531	-109.771	0.050	-0.010
-143.516	-60.065	-0.145	-0.061
-142.502	-140.009	-0.442	-0.046
-141.487	11.245	-0.070	-0.052
-140.472	800.000	-0.024	-0.070
-139.458	-200.000	-0.002	0.177
-138.443	35.245	-0.147	0.127
-137.429	28.057	0.273	-0.226
-136.414	800.000	-0.088	-0.313
-135.399	191.889	-0.181	0.269
-134.385	-39.662	0.187	-0.096
-133.370	414.387	-0.041	-0.086
-132.356	-62.220	0.169	-0.069
-131.341	-200.000	-0.009	0.063
-130.326	-126.139	-0.143	-0.021
-129.312	4.545	-0.088	-0.063
-128.297	-200.000	-0.019	-0.176
-127.283	-120.182	-0.174	0.029
-126.268	-55.684	0.191	0.084
-125.253	107.787	0.123	-0.144
-124.239	199.817	-0.115	0.174
-123.224	-120.888	0.135	0.022
-122.210	-85.099	0.099	-0.031
