DTS Sentinel unit serial number:	SN413079Multiplexer serial number:	ORYXHardware model number:	OX4-SRSoftware version number:	ORYX F/W v4.00 Oryx Data Collector v3.7.2.0data status	okinstallation	princeton_trtdifferential loss correction	single-endedforward channel	channel 2reverse channel	N/Adate	2019/09/19time	09:03:35forward acquisition time	60.00reverse acquisition time	0.00gamma	496.2192k internal	0.2352k external	0.2352temperature offset calibration	0.9998default loss term (dB/km)	0.3790temperature slope calibration	1.0000multiplexer offset coefficient	1.0000multiplexer slope coefficient	1.0000fibre end	0.00T internal ref (°C)	21.61T ext. ref 1 (°C)	0.60T ext. ref 2 (°C)	18.44length (m)	temperature (°C)	Stokes	anti-Stokes-747.200	-91.935	-0.156	0.044
-746.185	-31.323	-0.245	-0.138
-745.171	8.402	0.374	-0.280
-744.156	-75.025	-0.342	0.122
-743.142	-200.000	-0.013	-0.101
-742.127	-200.000	0.002	0.056
-741.112	50.752	-0.194	-0.183
-740.098	-86.576	-0.317	-0.097
-739.083	-200.000	-0.133	-0.000
-738.069	-7.963	-0.083	0.056
-737.054	332.847	0.151	0.291
-736.039	82.177	-0.318	-0.343
-735.025	-200.000	-0.030	0.166
-734.010	-99.593	-0.550	-0.138
-732.996	339.000	-0.078	0.151
-731.981	-187.486	-0.232	-0.003
-730.966	-200.000	0.006	0.161
-729.952	86.194	0.129	0.141
-728.937	-60.947	0.120	-0.051
-727.923	-200.000	0.006	-0.074
-726.908	800.000	-0.103	-0.351
-725.894	-87.740	-0.387	-0.116
-724.879	101.816	-0.167	0.194
-723.864	362.803	0.036	-0.073
-722.850	433.047	-0.113	0.244
-721.835	-200.000	0.003	-0.281
-720.821	-15.681	-0.188	-0.120
-719.806	4.988	-0.241	-0.177
-718.791	-200.000	0.010	-0.283
-717.777	62.443	0.045	-0.045
-716.762	-200.000	-0.005	-0.499
-715.748	-13.370	0.120	-0.077
-714.733	-81.477	0.392	0.128
-713.718	110.124	-0.112	-0.134
-712.704	-147.152	-0.283	0.024
-711.689	166.546	-0.148	-0.208
-710.675	-158.227	-0.296	-0.017
-709.660	-113.931	-0.354	-0.068
-708.645	-133.345	0.252	0.032
-707.631	800.000	0.040	-0.161
-706.616	-135.033	0.178	0.021
-705.602	240.380	-0.174	-0.289
-704.587	90.690	0.233	-0.260
-703.572	151.348	0.098	0.133
-702.558	-200.000	-0.001	-0.113
-701.543	65.460	-0.133	-0.134
-700.529	-113.027	0.110	0.022
-699.514	-200.000	0.030	-0.224
-698.499	182.183	-0.153	0.225
-697.485	-133.273	0.130	0.016
-696.470	-37.555	0.232	-0.123
-695.456	312.808	-0.144	0.269
-694.441	-57.926	-0.229	0.099
-693.426	-58.931	-0.360	0.155
-692.412	-200.000	-0.060	0.312
-691.397	-160.980	0.077	0.004
-690.383	-100.347	0.169	0.042
-689.368	-45.031	-0.035	-0.017
-688.354	800.000	-0.044	-0.152
-687.339	-12.709	0.330	-0.214
-686.324	-167.232	0.269	-0.011
-685.310	-85.131	-0.538	0.167
-684.295	-200.000	-0.011	0.101
-683.281	-162.184	0.007	0.000
-682.266	212.229	-0.066	0.104
-681.251	-200.000	-0.009	0.123
-680.237	140.896	0.141	-0.185
-679.222	-143.033	-0.293	-0.028
-678.208	98.178	-0.061	-0.070
-677.193	-88.837	-0.497	0.147
-676.178	234.796	0.071	-0.117
-675.164	107.921	-0.170	0.201
-674.149	-200.000	-0.066	-0.459
-673.135	34.274	0.141	0.123
-672.120	151.289	-0.177	0.239
-671.105	222.083	0.045	-0.072
-670.091	-21.569	0.077	0.046
-669.076	-200.000	0.039	0.179
-668.062	-108.353	-0.228	-0.049
-667.047	-1.386	-0.312	0.219
-666.032	534.151	-0.073	-0.171
-665.018	-200.000	0.026	-0.411
-664.003	-37.534	-0.169	-0.090
-662.989	-200.000	-0.038	0.297
-661.974	276.800	0.149	-0.263
-660.959	-200.000	0.035	0.296
-659.945	777.118	0.120	-0.326
-658.930	495.154	-0.070	0.161
-657.916	-68.093	0.364	-0.141
-656.901	-19.265	-0.047	0.029
-655.886	-100.052	0.252	0.062
-654.872	740.705	-0.053	0.140
-653.857	800.000	0.044	-0.123
-652.843	-64.534	0.372	-0.150
-651.828	28.693	-0.199	-0.167
-650.814	290.305	0.111	0.200
-649.799	-200.000	-0.006	0.041
-648.784	-200.000	-0.006	-0.311
-647.770	-28.077	-0.424	-0.244
-646.755	800.000	0.042	0.176
-645.741	657.375	-0.069	-0.176
-644.726	142.339	0.083	0.109
-643.711	31.724	-0.236	-0.202
-642.697	-200.000	-0.053	0.304
-641.682	353.785	0.140	-0.277
-640.668	-0.964	0.125	-0.088
-639.653	-125.602	0.412	-0.062
-638.638	-57.260	0.189	-0.083
-637.624	6.017	-0.336	-0.247
-636.609	-81.332	-0.327	-0.107
-635.595	-200.000	0.013	-0.075
-634.580	-48.494	-0.331	-0.158
-633.565	72.354	0.215	0.222
-632.551	143.901	0.103	0.137
-631.536	-58.085	-0.236	-0.102
-630.522	-38.270	-0.133	-0.070
-629.507	-200.000	0.043	0.230
-628.492	-84.627	-0.277	0.087
-627.478	28.605	0.053	-0.045
-626.463	800.000	0.062	-0.206
-625.449	2.466	-0.126	-0.091
-624.434	-83.111	-0.130	0.041
-623.419	-200.000	0.007	-0.140
-622.405	512.387	-0.123	-0.285
-621.390	-81.663	-0.238	-0.077
-620.376	-132.636	-0.127	-0.016
-619.361	-200.000	0.048	0.311
-618.346	-179.697	0.119	0.003
-617.332	260.165	0.147	-0.252
-616.317	-36.207	-0.318	0.170
-615.303	-19.447	0.294	0.181
-614.288	483.395	0.115	-0.260
-613.273	-117.242	-0.341	0.062
-612.259	-61.750	0.198	0.082
-611.244	800.000	-0.098	-0.300
-610.230	152.357	-0.200	-0.271
-609.215	-51.365	0.040	0.018
-608.201	486.165	-0.115	-0.259
-607.186	-162.606	-0.325	-0.016
-606.171	-200.000	0.003	-0.202
-605.157	-67.444	-0.053	-0.021
-604.142	66.713	0.141	0.142
-603.128	-78.951	0.327	-0.110
-602.113	198.792	0.197	-0.299
-601.098	137.756	0.086	0.111
-600.084	-200.000	0.069	-0.325
-599.069	-165.322	-0.150	0.007
-598.055	-200.000	0.005	-0.105
-597.040	72.753	0.184	-0.190
-596.025	8.771	0.177	0.133
-595.011	2.274	0.112	-0.080
-593.996	146.846	0.101	0.135
-592.982	800.000	-0.072	-0.224
-591.967	-52.801	-0.194	-0.089
-590.952	395.516	-0.103	-0.213
-589.938	94.371	-0.093	-0.105
-588.923	107.765	-0.196	-0.232
-587.909	-73.348	-0.277	-0.101
-586.894	-200.000	-0.003	0.106
-585.879	370.645	-0.111	-0.223
-584.865	-71.387	0.269	0.100
-583.850	43.363	-0.165	-0.149
-582.836	800.000	0.060	-0.203
-581.821	-200.000	-0.043	0.197
-580.806	-103.666	0.050	-0.012
-579.792	-200.000	-0.001	-0.192
-578.777	347.641	0.055	0.108
-577.763	800.000	-0.026	0.073
-576.748	-49.978	0.280	-0.132
-575.733	800.000	0.044	-0.134
-574.719	-200.000	0.004	-0.081
-573.704	-46.353	-0.182	-0.089
-572.690	-83.677	-0.142	0.045
-571.675	800.000	0.064	0.228
-570.661	81.379	-0.059	0.064
-569.646	-33.442	0.252	-0.138
-568.631	-156.168	-0.342	-0.021
-567.617	524.611	-0.064	0.149
-566.602	-200.000	0.008	-0.053
-565.588	61.191	0.105	-0.104
-564.573	-145.308	-0.308	-0.028
-563.558	-200.000	0.104	0.471
-562.544	-135.347	-0.040	0.005
-561.529	69.324	0.179	0.182
-560.515	367.112	-0.068	-0.137
-559.500	144.621	-0.084	0.111
-558.485	-200.000	0.023	-0.271
-557.471	382.966	0.185	0.376
-556.456	800.000	-0.061	0.260
-555.442	-200.000	-0.054	0.298
-554.427	178.213	-0.243	-0.351
-553.412	-173.898	0.288	-0.008
-552.398	-81.799	-0.337	-0.109
-551.383	309.473	0.193	0.358
-550.369	-5.252	-0.028	0.019
-549.354	476.771	-0.093	-0.208
-548.339	19.686	-0.208	-0.166
-547.325	-23.389	-0.299	-0.178
-546.310	-200.000	-0.005	-0.070
-545.296	-48.849	0.388	-0.184
-544.281	-143.703	0.050	-0.005
-543.266	174.007	0.134	0.192
-542.252	-200.000	-0.061	0.421
-541.237	800.000	0.114	-0.330
-540.223	-103.167	-0.214	-0.050
-539.208	-200.000	0.008	-0.091
-538.193	-200.000	-0.021	-0.202
-537.179	-200.000	0.005	-0.114
-536.164	181.123	0.113	0.165
-535.150	-161.452	-0.149	0.008
-534.135	-200.000	0.004	0.091
-533.121	62.105	0.267	0.263
-532.106	-200.000	0.066	-0.339
-531.091	298.984	-0.125	0.228
-530.077	-50.037	0.044	-0.021
-529.062	-73.914	0.278	-0.100
-528.048	130.267	-0.070	-0.088
-527.033	-26.395	-0.057	-0.033
-526.018	-51.974	0.415	0.191
-525.004	-136.369	0.084	0.010
-523.989	-194.829	-0.098	0.001
-522.975	15.422	0.101	-0.078
-521.960	-142.324	-0.045	-0.004
-520.945	101.360	0.141	0.162
-519.931	-133.950	-0.204	-0.025
-518.916	145.066	0.144	0.191
-517.902	-33.695	-0.278	-0.152
-516.887	-7.103	-0.210	0.141
-515.872	598.770	-0.101	0.247
-514.858	79.410	-0.230	0.244
-513.843	-150.148	-0.213	0.016
-512.829	231.160	-0.098	-0.159
-511.814	800.000	0.065	0.200
-510.799	-142.043	-0.262	-0.026
-509.785	-41.640	-0.080	0.041
-508.770	180.660	-0.217	0.314
-507.756	0.080	-0.175	-0.123
-506.741	-28.179	-0.057	-0.033
-505.726	-116.005	0.143	-0.026
-504.712	-66.524	-0.109	-0.043
-503.697	-200.000	-0.006	-0.145
-502.683	789.635	0.032	0.087
-501.668	-153.767	-0.046	0.003
-500.653	36.381	0.264	-0.230
-499.639	10.875	-0.118	0.089
-498.624	-11.975	0.077	0.050
-497.610	-170.189	-0.140	-0.005
-496.595	200.809	0.134	-0.203
-495.581	63.233	0.124	0.123
-494.566	168.370	-0.103	0.145
-493.551	239.275	-0.015	0.025
-492.537	693.662	-0.063	-0.163
-491.522	520.237	-0.068	0.156
-490.508	702.000	0.073	-0.191
-489.493	-132.117	0.581	-0.075
-488.478	23.342	-0.275	-0.223
-487.464	800.000	0.088	-0.289
-486.449	-183.496	0.406	-0.007
-485.435	-200.000	-0.012	-0.207
-484.420	-134.511	0.146	-0.018
-483.405	167.788	0.155	-0.218
-482.391	-63.970	0.333	-0.134
-481.376	-38.112	-0.324	-0.170
-480.362	-155.385	0.370	-0.024
-479.347	66.712	-0.206	-0.206
-478.332	2.931	0.019	0.014
-477.318	-75.190	0.111	-0.039
-476.303	393.543	-0.068	-0.140
-475.289	116.361	-0.098	0.118
-474.274	-113.309	-0.191	0.037
-473.259	-160.448	-0.179	-0.009
-472.245	145.446	0.057	-0.075
-471.230	800.000	0.081	-0.317
-470.216	249.212	-0.245	-0.409
-469.201	-152.148	-0.344	-0.025
-468.186	-146.455	0.145	0.012
-467.172	-13.331	0.215	0.138
-466.157	118.363	-0.155	-0.189
-465.143	78.177	0.033	0.035
-464.128	-105.299	-0.146	0.033
-463.113	800.000	0.087	0.252
-462.099	4.390	0.174	-0.126
-461.084	-36.840	-0.071	-0.038
-460.070	177.880	0.033	-0.047
-459.055	3.801	-0.312	-0.225
-458.040	74.320	-0.396	-0.411
-457.026	-112.692	0.113	-0.022
-456.011	-200.000	-0.051	-0.286
-454.997	800.000	0.059	-0.215
-453.982	-24.637	-0.178	0.104
-452.968	-200.000	-0.032	0.147
-451.953	-200.000	-0.024	0.158
-450.938	1.797	-0.097	0.069
-449.924	-102.453	-0.249	-0.059
-448.909	-27.121	-0.261	-0.150
-447.895	-157.213	0.190	-0.011
-446.880	-160.503	-0.087	0.005
-445.865	245.421	0.077	0.127
-444.851	-87.791	-0.359	0.107
-443.836	-200.000	-0.007	-0.153
-442.822	800.000	0.059	0.193
-441.807	328.809	-0.030	0.057
-440.792	632.610	-0.060	0.150
-439.778	-47.163	0.167	0.080
-438.763	774.717	0.151	0.406
-437.749	-184.227	0.157	0.003
-436.734	398.062	0.080	0.165
-435.719	-8.614	-0.119	0.079
-434.705	-55.643	0.053	-0.024
-433.690	-16.007	0.257	0.161
-432.676	69.189	-0.181	-0.183
-431.661	1.302	-0.244	0.173
-430.646	97.969	0.251	-0.285
-429.632	117.758	0.103	0.125
-428.617	-14.695	-0.047	0.030
-427.603	106.057	-0.346	-0.403
-426.588	-41.629	0.093	0.047
-425.573	-200.000	-0.175	0.000
-424.559	-200.000	0.002	0.024
-423.544	-200.000	0.013	0.126
-422.530	-185.632	-0.209	-0.003
-421.515	-200.000	0.003	0.409
-420.500	372.812	0.108	0.217
-419.486	193.897	0.185	0.276
-418.471	-4.588	-0.022	0.015
-417.457	-200.000	0.081	0.429
-416.442	-35.273	-0.038	0.020
-415.428	89.423	-0.203	-0.223
-414.413	24.632	0.258	0.210
-413.398	173.710	-0.030	0.043
-412.384	-200.000	0.051	0.245
-411.369	-200.000	-0.007	0.260
-410.355	-45.782	0.238	-0.116
-409.340	281.765	-0.065	-0.115
-408.325	52.494	0.151	-0.142
-407.311	682.379	-0.072	0.185
-406.296	-44.893	0.088	0.043
-405.282	-131.683	-0.316	-0.041
-404.267	43.227	-0.304	-0.273
-403.252	800.000	-0.031	-0.117
-402.238	531.789	-0.033	0.077
-401.223	-200.000	-0.020	0.254
-400.209	-91.412	0.204	-0.057
-399.194	-200.000	0.044	-0.275
-398.179	492.557	-0.029	0.066
-397.165	-39.351	-0.508	0.262
-396.150	-103.259	-0.013	0.003
-395.136	-200.000	-0.027	0.396
-394.121	-82.679	-0.400	0.127
-393.106	-119.505	0.195	0.033
-392.092	-92.562	0.052	-0.014
-391.077	73.055	0.198	-0.203
-390.063	25.674	-0.233	0.191
-389.048	-200.000	0.046	0.210
-388.033	134.465	0.077	0.098
-387.019	-200.000	0.037	-0.206
-386.004	800.000	0.037	-0.109
-384.990	-143.699	0.247	0.023
-383.975	2.116	-0.132	-0.093
-382.960	67.439	-0.154	-0.155
-381.946	-152.780	-0.229	-0.016
-380.931	13.332	-0.233	0.178
-379.917	-92.030	0.284	-0.079
-378.902	275.971	-0.067	-0.117
-377.888	-58.534	-0.099	-0.042
-376.873	-81.669	-0.058	-0.019
-375.858	114.789	-0.044	0.053
-374.844	800.000	0.104	0.395
-373.829	44.510	-0.239	0.216
-372.815	217.084	-0.176	0.275
-371.800	276.395	-0.076	-0.132
-370.785	21.164	0.027	0.022
-369.771	97.928	-0.270	0.305
-368.756	27.951	0.245	0.203
-367.742	413.907	0.049	0.103
-366.727	-87.736	0.310	-0.092
-365.712	-53.032	0.280	0.126
-364.698	81.620	-0.137	0.146
-363.683	-30.922	0.217	-0.121
-362.669	-14.265	-0.104	0.066
-361.654	560.003	-0.025	0.060
-360.639	14.995	-0.068	0.052
-359.625	-168.283	0.168	0.006
-358.610	223.201	-0.050	-0.078
-357.596	224.787	0.067	0.107
-356.581	-200.000	-0.038	0.196
-355.566	-102.968	-0.389	-0.091
-354.552	800.000	0.032	0.101
-353.537	-131.349	-0.146	-0.019
-352.523	62.493	-0.092	0.091
-351.508	-12.501	0.111	-0.071
-350.493	-200.000	0.003	0.018
-349.479	800.000	0.096	0.275
-348.464	-54.353	-0.163	0.072
-347.450	-135.619	0.275	0.032
-346.435	753.738	-0.006	0.017
-345.420	-90.568	0.134	0.038
-344.406	678.356	-0.069	0.176
-343.391	62.200	0.062	-0.060
-342.377	-56.273	-0.287	-0.125
-341.362	-21.361	0.152	-0.091
-340.348	85.946	0.155	0.167
-339.333	286.546	-0.072	-0.128
-338.318	-115.891	0.373	-0.068
-337.304	161.274	-0.151	-0.207
-336.289	-200.000	0.015	0.230
-335.275	13.339	-0.208	-0.159
-334.260	-200.000	0.047	0.380
-333.245	-188.496	0.231	0.003
-332.231	-200.000	-0.001	-0.125
-331.216	339.854	-0.127	0.242
-330.202	-200.000	0.019	0.442
-329.187	250.378	0.071	-0.119
-328.172	-117.382	-0.285	0.051
-327.158	18.197	0.138	-0.108
-326.143	17.761	-0.121	-0.094
-325.129	-187.942	0.186	-0.002
-324.114	73.685	-0.176	0.181
-323.099	-18.745	-0.217	0.133
-322.085	-139.904	0.220	-0.023
-321.070	31.126	0.178	0.150
-320.056	-29.354	-0.233	0.131
-319.041	-75.224	0.243	0.085
-318.026	-98.989	-0.147	-0.037
-317.012	-73.640	0.370	0.132
-315.997	285.847	0.083	-0.146
-314.983	-62.728	0.198	0.080
-313.968	800.000	-0.020	0.084
-312.953	-200.000	0.023	-0.267
-311.939	-37.204	-0.210	-0.110
-310.924	43.409	-0.245	0.220
-309.910	-104.988	0.202	-0.046
-308.895	-34.427	-0.056	-0.030
-307.880	235.437	0.191	-0.309
-306.866	-200.000	-0.088	0.552
-305.851	94.465	-0.082	-0.091
-304.837	-37.553	0.008	-0.004
-303.822	-200.000	-0.013	0.257
-302.807	51.275	0.151	-0.140
-301.793	56.553	-0.133	0.127
-300.778	-21.349	-0.116	-0.069
-299.764	-200.000	-0.021	0.163
-298.749	366.222	-0.129	0.254
-297.735	64.157	-0.094	0.093
-296.720	418.374	-0.130	0.272
-295.705	75.458	-0.056	-0.058
-294.691	155.993	0.203	0.275
-293.676	261.151	-0.087	-0.147
-292.662	-106.228	0.164	0.036
-291.647	800.000	0.056	-0.239
-290.632	25.336	0.237	-0.193
-289.618	-13.278	0.019	0.012
-288.603	654.492	0.052	0.131
-287.589	-58.263	0.380	-0.162
-286.574	-17.887	-0.176	0.108
-285.559	800.000	0.084	0.335
-284.545	-18.274	0.205	0.125
-283.530	335.899	-0.127	0.242
-282.516	-167.776	0.261	0.010
-281.501	210.007	0.074	0.113
-280.486	-112.282	-0.125	0.024
-279.472	-155.752	0.119	0.007
-278.457	135.976	-0.087	-0.111
-277.443	-183.549	-0.107	0.002
-276.428	-80.477	-0.296	-0.097
-275.413	49.627	-0.101	0.093
-274.399	800.000	0.059	-0.196
-273.384	-30.295	0.107	0.060
-272.370	27.209	0.160	-0.131
-271.355	41.715	0.169	0.150
-270.340	417.077	0.138	-0.288
-269.326	-200.000	0.023	0.184
-268.311	-31.429	0.290	-0.160
-267.297	182.008	0.101	-0.146
-266.282	800.000	-0.028	0.090
-265.267	183.878	0.089	-0.129
-264.253	-200.000	0.016	-0.078
-263.238	800.000	0.088	0.249
-262.224	-200.000	0.050	-0.323
-261.209	-42.223	0.073	0.037
-260.195	617.114	0.057	-0.141
-259.180	-14.357	0.445	0.281
-258.165	704.837	-0.102	0.264
-257.151	-92.569	0.316	0.087
-256.136	327.476	-0.163	-0.306
-255.122	597.032	0.036	-0.087
-254.107	-200.000	0.033	0.305
-253.092	-149.462	-0.311	-0.024
-252.078	-200.000	0.048	-0.217
-251.063	-71.029	0.304	0.112
-250.049	800.000	-0.043	0.152
-249.034	800.000	-0.081	-0.234
-248.019	-16.645	-0.426	0.264
-247.005	-39.179	0.206	0.106
-245.990	-23.363	0.610	0.358
-244.976	-64.262	-0.108	0.043
-243.961	96.303	0.079	-0.089
-242.946	-3.385	0.121	0.082
-241.932	800.000	0.058	0.199
-240.917	800.000	-0.116	-0.450
-239.903	-200.000	0.021	0.142
-238.888	-200.000	0.064	-0.337
-237.873	-44.892	-0.075	-0.036
-236.859	-200.000	-0.042	-0.193
-235.844	310.618	0.184	-0.336
-234.830	800.000	0.100	-0.424
-233.815	-152.661	-0.232	-0.016
-232.800	-99.445	0.362	0.089
-231.786	-63.225	0.236	0.095
-230.771	-54.079	0.384	0.171
-229.757	800.000	0.030	0.080
-228.742	-180.357	-0.125	0.003
-227.727	-100.217	0.189	-0.046
-226.713	180.079	-0.031	0.044
-225.698	800.000	0.134	0.488
-224.684	-14.469	-0.295	-0.186
-223.669	-64.558	0.250	-0.099
-222.655	157.353	-0.055	-0.075
-221.640	-33.401	0.149	-0.081
-220.625	155.834	-0.171	0.230
-219.611	-200.000	-0.006	0.126
-218.596	-125.580	-0.346	0.051
-217.582	632.443	0.120	-0.297
-216.567	800.000	0.076	-0.302
-215.552	-200.000	-0.010	0.242
-214.538	-200.000	0.015	-0.294
-213.523	518.444	0.088	-0.202
-212.509	-169.278	-0.112	0.004
-211.494	-109.054	-0.235	-0.049
-210.479	138.767	-0.133	-0.171
-209.465	-40.001	0.207	-0.105
-208.450	20.908	-0.098	-0.077
-207.436	-166.454	0.167	-0.007
-206.421	-200.000	-0.002	0.185
-205.406	-200.000	0.041	-0.175
-204.392	-60.772	0.118	0.049
-203.377	-95.552	0.375	0.098
-202.363	-35.295	-0.317	-0.169
-201.348	800.000	-0.048	0.165
-200.333	-32.475	0.101	0.055
-199.319	319.442	-0.086	0.160
-198.304	-19.386	-0.119	-0.072
-197.290	-109.610	-0.071	-0.015
-196.275	800.000	0.039	-0.124
-195.260	-41.313	-0.106	0.053
-194.246	-86.079	-0.222	0.067
-193.231	-200.000	-0.001	0.296
-192.217	340.404	0.165	-0.315
-191.202	800.000	-0.049	-0.196
-190.187	800.000	-0.095	-0.279
-189.173	-200.000	0.068	0.382
-188.158	-83.006	0.184	0.058
-187.144	800.000	0.057	0.196
-186.129	-200.000	0.021	0.226
-185.114	730.861	0.106	0.277
-184.100	-118.644	-0.191	0.033
-183.085	-141.876	0.160	-0.016
-182.071	90.290	-0.029	-0.032
-181.056	85.261	0.135	-0.145
-180.042	33.697	0.206	0.174
-179.027	-39.860	-0.462	0.235
-178.012	-200.000	0.014	-0.219
-176.998	-200.000	-0.019	0.122
-175.983	-20.046	0.088	-0.053
-174.969	-55.523	0.199	-0.087
-173.954	104.271	-0.095	-0.109
-172.939	-200.000	-0.001	-0.023
-171.925	-200.000	-0.002	0.135
-170.910	207.410	0.157	0.238
-169.896	245.386	0.138	-0.226
-168.881	-200.000	-0.051	-0.224
-167.866	437.683	-0.132	-0.281
-166.852	-123.750	0.193	0.030
-165.837	14.755	-0.064	0.049
-164.823	-18.941	-0.127	-0.077
-163.808	-166.234	-0.392	-0.016
-162.793	-25.262	0.137	-0.079
-161.779	271.320	-0.106	-0.182
-160.764	800.000	0.074	-0.232
-159.750	161.901	0.120	0.163
-158.735	185.833	0.090	0.131
-157.720	-130.359	0.374	-0.050
-156.706	126.478	-0.118	0.146
-155.691	-85.312	0.331	0.101
-154.677	-82.351	-0.177	0.056
-153.662	-56.073	0.222	0.096
-152.647	204.361	-0.084	0.127
-151.633	800.000	0.158	-0.424
-150.618	-15.240	0.211	-0.132
-149.604	800.000	-0.048	0.167
-148.589	382.298	0.124	0.249
-147.574	-134.736	-0.110	0.013
-146.560	28.617	0.247	-0.204
-145.545	-127.612	-0.445	-0.063
-144.531	-112.637	0.143	0.028
-143.516	761.849	0.051	0.135
-142.502	800.000	0.055	0.208
-141.487	-22.748	-0.183	0.107
-140.472	-110.229	0.013	-0.003
-139.458	-15.198	0.178	0.111
-138.443	-47.591	0.173	0.082
-137.429	-18.465	0.239	0.145
-136.414	539.815	-0.060	0.139
-135.399	779.417	-0.046	-0.123
-134.385	170.410	-0.165	-0.230
-133.370	88.084	-0.258	-0.279
-132.356	34.789	-0.113	0.096
-131.341	-144.672	-0.106	0.010
-130.326	6.966	-0.062	-0.045
-129.312	-77.068	0.407	-0.138
-128.297	800.000	0.099	-0.333
-127.283	-12.117	-0.197	0.125
-126.268	-200.000	-0.012	0.234
-125.253	-131.533	-0.334	0.043
-124.239	-101.022	0.376	-0.090
-123.224	-104.180	-0.169	0.038
-122.210	-136.637	-0.274	0.031
