DTS Sentinel unit serial number:	SN413079Multiplexer serial number:	ORYXHardware model number:	OX4-SRSoftware version number:	ORYX F/W v4.00 Oryx Data Collector v3.7.2.0data status	okinstallation	princeton_trtdifferential loss correction	single-endedforward channel	channel 2reverse channel	N/Adate	2019/09/13time	04:39:34forward acquisition time	60.00reverse acquisition time	0.00gamma	496.2192k internal	0.2336k external	0.2336temperature offset calibration	1.0193default loss term (dB/km)	0.3790temperature slope calibration	1.0000multiplexer offset coefficient	1.0000multiplexer slope coefficient	1.0000fibre end	0.00T internal ref (°C)	26.62T ext. ref 1 (°C)	4.06T ext. ref 2 (°C)	21.22length (m)	temperature (°C)	Stokes	anti-Stokes-747.200	-200.000	0.009	0.107
-746.185	92.441	-0.150	-0.170
-745.171	-30.324	-0.259	0.148
-744.156	-82.405	0.462	0.151
-743.142	93.782	-0.109	0.124
-742.127	-200.000	-0.032	0.153
-741.112	484.625	-0.059	-0.135
-740.098	-130.563	-0.442	0.060
-739.083	-104.203	0.146	0.034
-738.069	-7.312	-0.261	-0.178
-737.054	-167.018	0.286	0.012
-736.039	436.634	-0.036	-0.079
-735.025	-128.582	0.169	0.024
-734.010	586.956	0.107	-0.265
-732.996	-200.000	0.004	-0.181
-731.981	-72.745	0.264	-0.098
-730.966	578.323	-0.012	-0.029
-729.952	91.424	-0.161	-0.181
-728.937	478.644	0.065	-0.147
-727.923	-128.817	-0.241	-0.034
-726.908	800.000	0.098	-0.271
-725.894	800.000	-0.196	-0.558
-724.879	-87.593	0.266	0.081
-723.864	-200.000	-0.056	0.249
-722.850	1.963	0.180	-0.130
-721.835	800.000	-0.064	-0.241
-720.821	153.791	-0.167	0.230
-719.806	162.958	0.115	-0.161
-718.791	-38.047	0.144	0.077
-717.777	185.703	-0.084	0.126
-716.762	800.000	-0.028	-0.088
-715.748	221.341	-0.086	-0.139
-714.733	162.291	-0.128	-0.179
-713.718	347.777	0.084	-0.166
-712.704	772.607	0.117	0.319
-711.689	-25.217	-0.115	0.069
-710.675	440.838	0.069	0.151
-709.660	-40.632	0.258	-0.134
-708.645	-99.913	-0.426	0.107
-707.631	-72.357	-0.003	-0.001
-706.616	-56.767	0.191	0.085
-705.602	124.030	0.189	-0.238
-704.587	800.000	0.095	-0.270
-703.572	168.227	0.082	0.117
-702.558	-193.089	-0.034	-0.000
-701.543	-27.255	-0.247	-0.144
-700.529	-38.315	-0.075	0.040
-699.514	-143.799	-0.133	0.013
-698.499	730.073	0.055	0.147
-697.485	800.000	-0.106	0.328
-696.470	97.855	0.133	-0.154
-695.456	764.412	-0.028	0.075
-694.441	-200.000	-0.059	-0.586
-693.426	4.674	-0.151	-0.111
-692.412	9.992	0.182	0.139
-691.397	78.542	-0.165	0.177
-690.383	-200.000	-0.066	0.385
-689.368	72.821	-0.356	0.372
-688.354	415.484	-0.235	0.501
-687.339	-1.109	-0.141	0.100
-686.324	-200.000	-0.002	-0.088
-685.310	-200.000	-0.066	-0.350
-684.295	137.380	0.244	-0.320
-683.281	-108.700	0.118	-0.025
-682.266	-200.000	-0.030	-0.325
-681.251	254.536	0.078	0.135
-680.237	-200.000	0.001	-0.053
-679.222	-18.202	0.202	0.127
-678.208	800.000	-0.130	-0.366
-677.193	-200.000	0.025	-0.126
-676.178	136.985	-0.149	-0.195
-675.164	-117.564	-0.182	-0.033
-674.149	-102.737	0.247	0.059
-673.135	41.459	0.205	0.185
-672.120	550.999	-0.109	0.262
-671.105	800.000	-0.043	-0.167
-670.091	-80.137	0.120	0.040
-669.076	678.180	0.145	0.378
-668.062	-53.197	-0.048	-0.022
-667.047	470.760	-0.074	-0.168
-666.032	348.584	-0.165	-0.325
-665.018	-54.330	-0.390	-0.177
-664.003	-200.000	-0.020	-0.201
-662.989	41.685	-0.108	0.098
-661.974	-60.864	0.435	-0.184
-660.959	148.414	-0.125	-0.169
-659.945	355.409	-0.014	-0.028
-658.930	23.422	0.296	-0.243
-657.916	800.000	-0.021	0.080
-656.901	-128.448	-0.173	-0.025
-655.886	513.866	0.132	0.307
-654.872	-13.713	-0.150	0.097
-653.857	61.987	-0.144	-0.143
-652.843	-117.901	-0.132	0.024
-651.828	800.000	-0.061	-0.186
-650.814	800.000	0.038	0.112
-649.799	224.057	0.151	0.245
-648.784	800.000	0.019	0.057
-647.770	297.194	-0.103	-0.190
-646.755	126.327	0.115	0.146
-645.741	66.464	-0.208	-0.211
-644.726	99.347	0.118	-0.137
-643.711	-18.168	-0.283	-0.177
-642.697	272.717	0.088	-0.156
-641.682	745.060	0.082	0.220
-640.668	69.430	-0.251	0.258
-639.653	442.155	0.057	-0.125
-638.638	105.142	0.027	-0.032
-637.624	-200.000	-0.024	-0.170
-636.609	709.285	-0.002	0.005
-635.595	-200.000	0.140	0.000
-634.580	-200.000	0.021	-0.500
-633.565	112.453	-0.151	0.183
-632.551	-200.000	0.002	0.201
-631.536	51.398	-0.152	0.144
-630.522	157.352	0.241	-0.333
-629.507	543.002	-0.135	-0.322
-628.492	-74.119	0.115	0.042
-627.478	-152.690	-0.323	-0.023
-626.463	243.070	0.190	-0.318
-625.449	-56.454	-0.179	-0.079
-624.434	-73.447	-0.217	-0.079
-623.419	-200.000	-0.073	0.431
-622.405	141.151	-0.182	0.241
-621.390	412.081	0.129	0.274
-620.376	19.135	-0.025	-0.020
-619.361	800.000	-0.002	-0.006
-618.346	-200.000	-0.012	0.214
-617.332	800.000	-0.081	-0.296
-616.317	56.097	-0.074	-0.071
-615.303	-200.000	0.038	-0.247
-614.288	-117.910	-0.340	0.061
-613.273	800.000	-0.082	0.354
-612.259	-200.000	0.000	-0.323
-611.244	800.000	-0.009	0.031
-610.230	96.959	-0.110	-0.126
-609.215	-54.450	-0.165	0.075
-608.201	-200.000	-0.142	-0.001
-607.186	106.174	0.161	0.191
-606.171	154.652	-0.068	0.094
-605.157	-147.459	-0.179	0.015
-604.142	40.513	-0.148	0.133
-603.128	-104.220	0.143	-0.033
-602.113	85.736	0.145	0.159
-601.098	-76.797	-0.099	0.035
-600.084	-107.222	-0.127	-0.028
-599.069	-54.532	0.467	0.211
-598.055	124.637	0.084	0.105
-597.040	-101.637	-0.113	-0.027
-596.025	-91.154	-0.251	0.072
-595.011	-117.577	0.121	0.022
-593.996	-169.736	-0.247	-0.009
-592.982	574.663	0.129	-0.315
-591.967	-200.000	0.011	-0.231
-590.952	429.733	0.039	0.084
-589.938	-122.689	-0.300	0.048
-588.923	-88.991	-0.273	0.081
-587.909	274.482	-0.162	0.287
-586.894	30.429	0.070	0.060
-585.879	-200.000	0.011	0.239
-584.865	-200.000	0.013	0.083
-583.850	-115.537	-0.294	0.055
-582.836	5.072	0.080	0.059
-581.821	-200.000	0.010	-0.337
-580.806	-34.599	0.168	-0.092
-579.792	8.806	0.334	0.251
-578.777	656.317	0.100	0.258
-577.763	-44.851	-0.139	0.069
-576.748	-200.000	0.054	-0.309
-575.733	-102.152	0.083	0.020
-574.719	203.372	0.080	-0.123
-573.704	339.118	0.151	0.293
-572.690	1.024	-0.206	-0.147
-571.675	-71.239	0.393	-0.147
-570.661	262.247	0.078	0.135
-569.646	-200.000	0.024	-0.255
-568.631	205.068	0.137	-0.212
-567.617	792.577	-0.086	0.237
-566.602	-122.998	-0.250	-0.040
-565.588	-116.166	-0.283	0.052
-564.573	45.935	-0.080	0.073
-563.558	31.864	0.194	-0.167
-562.544	-200.000	0.040	-0.256
-561.529	49.051	0.092	-0.086
-560.515	-3.573	-0.160	-0.111
-559.500	800.000	0.049	-0.213
-558.485	-200.000	0.051	-0.312
-557.471	302.551	0.062	-0.115
-556.456	655.828	-0.146	0.373
-555.442	-12.880	0.141	0.092
-554.427	-200.000	0.044	-0.434
-553.412	-200.000	0.021	-0.106
-552.398	-14.041	0.126	0.081
-551.383	72.106	-0.048	-0.050
-550.369	-200.000	0.022	-0.270
-549.354	153.794	0.099	-0.136
-548.339	-13.711	-0.336	-0.217
-547.325	-101.622	-0.189	0.046
-546.310	-94.238	0.222	-0.061
-545.296	496.589	-0.083	0.190
-544.281	49.452	0.221	0.207
-543.266	70.831	-0.211	0.217
-542.252	106.585	-0.073	0.086
-541.237	-200.000	-0.011	-0.099
-540.223	800.000	-0.061	0.183
-539.208	-12.755	0.058	-0.037
-538.193	416.097	0.069	-0.146
-537.179	191.049	-0.094	-0.140
-536.164	363.787	0.044	0.088
-535.150	37.740	-0.166	-0.147
-534.135	-200.000	-0.007	-0.071
-533.121	-200.000	0.001	0.147
-532.106	-200.000	-0.017	-0.162
-531.091	93.947	0.306	-0.346
-530.077	129.382	0.158	0.201
-529.062	-153.317	-0.173	0.012
-528.048	-23.916	0.162	-0.097
-527.033	-200.000	-0.024	-0.155
-526.018	-79.516	0.154	-0.052
-525.004	-81.378	0.153	-0.050
-523.989	790.290	-0.125	-0.343
-522.975	-117.337	0.025	-0.004
-521.960	-112.059	0.157	0.031
-520.945	66.829	-0.210	-0.213
-519.931	139.963	0.076	0.100
-518.916	101.063	-0.210	-0.243
-517.902	-200.000	-0.007	0.184
-516.887	86.411	0.129	-0.142
-515.872	-54.926	0.154	-0.069
-514.858	-52.951	-0.256	0.117
-513.843	113.008	-0.162	0.195
-512.829	-200.000	-0.016	0.449
-511.814	800.000	0.054	-0.206
-510.799	105.560	-0.137	0.161
-509.785	-84.378	-0.099	-0.031
-508.770	204.652	0.028	0.044
-507.756	281.523	0.072	0.129
-506.741	-200.000	-0.037	0.291
-505.726	219.449	0.091	-0.145
-504.712	-109.018	0.243	-0.052
-503.697	471.023	0.098	0.220
-502.683	-107.904	-0.203	-0.044
-501.668	275.349	0.040	-0.071
-500.653	-45.971	0.159	0.078
-499.639	-200.000	0.026	-0.128
-498.624	-35.572	0.102	0.055
-497.610	-134.893	0.172	0.021
-496.595	-87.765	0.245	-0.073
-495.581	-64.524	-0.370	0.149
-494.566	53.663	-0.065	0.062
-493.551	-0.818	0.262	-0.185
-492.537	-200.000	0.004	0.103
-491.522	118.256	-0.223	-0.273
-490.508	-55.589	0.458	0.204
-489.493	-101.132	-0.082	0.020
-488.478	-1.150	0.125	-0.088
-487.464	-3.029	-0.026	-0.018
-486.449	-107.494	-0.211	0.046
-485.435	-11.238	0.090	-0.059
-484.420	-72.578	0.410	0.150
-483.405	-102.151	-0.080	-0.019
-482.391	-129.245	0.118	-0.016
-481.376	541.878	-0.123	-0.290
-480.362	76.323	0.084	-0.088
-479.347	800.000	-0.123	-0.349
-478.332	-15.581	0.078	0.050
-477.318	-176.112	-0.244	-0.006
-476.303	-172.934	0.279	-0.009
-475.289	-138.042	-0.163	0.018
-474.274	-200.000	-0.081	-0.382
-473.259	89.004	-0.100	-0.111
-472.245	-36.243	0.119	0.064
-471.230	43.143	-0.270	0.245
-470.216	-200.000	-0.013	-0.122
-469.201	-77.972	0.143	-0.049
-468.186	295.348	0.039	0.072
-467.172	-129.328	-0.161	0.022
-466.157	48.467	-0.066	-0.061
-465.143	800.000	-0.073	0.230
-464.128	20.873	0.217	-0.175
-463.113	227.561	-0.161	0.260
-462.099	151.668	-0.167	-0.226
-461.084	103.384	0.182	-0.212
-460.070	6.510	-0.033	-0.024
-459.055	56.719	-0.122	-0.118
-458.040	-200.000	-0.005	-0.053
-457.026	632.830	-0.014	-0.034
-456.011	-158.022	-0.180	0.011
-454.997	-200.000	0.025	0.213
-453.982	55.439	0.058	0.055
-452.968	-7.848	-0.042	0.028
-451.953	-90.592	-0.261	-0.075
-450.938	800.000	-0.025	0.089
-449.924	-127.340	-0.127	0.018
-448.909	-31.957	-0.127	0.070
-447.895	-200.000	0.369	0.001
-446.880	-96.846	0.408	-0.106
-445.865	-125.307	-0.281	0.043
-444.851	-117.832	0.311	0.055
-443.836	-129.431	0.140	-0.019
-442.822	-103.100	0.269	0.063
-441.807	17.840	-0.181	-0.143
-440.792	-105.242	0.014	0.003
-439.778	800.000	-0.051	-0.205
-438.763	657.573	0.061	0.155
-437.749	223.765	0.147	-0.235
-436.734	170.390	0.163	0.231
-435.719	-200.000	0.033	0.370
-434.705	-200.000	0.043	0.347
-433.690	108.996	0.174	0.206
-432.676	-200.000	0.059	-0.312
-431.661	438.251	0.147	0.318
-430.646	800.000	-0.017	-0.069
-429.632	-104.167	0.415	-0.096
-428.617	463.330	0.077	-0.170
-427.603	-41.622	-0.322	0.164
-426.588	-200.000	0.008	-0.192
-425.573	-151.236	0.252	0.019
-424.559	182.375	-0.194	-0.284
-423.544	88.125	0.018	0.019
-422.530	20.796	-0.103	-0.083
-421.515	-200.000	0.018	-0.146
-420.500	150.216	-0.176	0.236
-419.486	-200.000	-0.038	-0.244
-418.471	-200.000	0.015	0.290
-417.457	-33.231	0.237	-0.130
-416.442	354.965	0.048	-0.094
-415.428	-115.478	0.176	0.033
-414.413	-12.443	-0.046	0.030
-413.398	-200.000	-0.032	0.321
-412.384	-77.044	-0.191	0.066
-411.369	28.485	-0.334	0.280
-410.355	222.521	-0.167	-0.267
-409.340	272.738	-0.005	-0.008
-408.325	-93.381	-0.146	0.040
-407.311	-189.619	-0.337	-0.004
-406.296	37.852	-0.345	0.304
-405.282	230.050	0.100	0.162
-404.267	1.947	-0.126	0.090
-403.252	91.413	0.170	-0.189
-402.238	279.471	-0.225	0.397
-401.223	-75.388	-0.080	-0.028
-400.209	-106.544	-0.187	0.041
-399.194	388.234	-0.030	-0.062
-398.179	697.788	0.117	0.304
-397.165	-74.432	0.150	0.054
-396.150	150.230	-0.190	0.256
-395.136	-125.883	0.130	0.019
-394.121	-26.627	0.027	-0.016
-393.106	8.799	0.212	0.158
-392.092	288.220	-0.077	-0.137
-391.077	30.780	-0.122	0.103
-390.063	-200.000	0.005	0.220
-389.048	417.941	0.049	0.104
-388.033	-162.529	0.167	-0.008
-387.019	298.099	-0.160	-0.291
-386.004	-165.893	0.171	0.007
-384.990	-65.555	-0.113	0.045
-383.975	-119.946	-0.164	-0.028
-382.960	-200.000	0.007	0.204
-381.946	-200.000	0.007	0.297
-380.931	-200.000	-0.020	0.107
-379.917	-75.319	-0.153	0.054
-378.902	-22.782	0.179	0.107
-377.888	-152.700	0.259	-0.018
-376.873	-79.258	-0.047	0.016
-375.858	-200.000	0.021	-0.096
-374.844	-31.155	0.113	-0.063
-373.829	-43.738	-0.244	-0.122
-372.815	669.152	-0.082	0.209
-371.800	74.098	0.090	-0.093
-370.785	-84.216	-0.221	-0.069
-369.771	6.887	-0.157	-0.115
-368.756	-126.642	-0.356	-0.052
-367.742	-26.244	0.110	0.064
-366.727	-120.759	0.290	0.048
-365.712	548.257	-0.047	0.112
-364.698	-48.583	-0.232	0.110
-363.683	143.300	0.182	0.239
-362.669	-83.469	-0.327	0.104
-361.654	-104.719	0.283	0.065
-360.639	67.893	-0.166	0.168
-359.625	-166.596	-0.310	0.013
-358.610	750.853	0.013	0.035
-357.596	-155.053	-0.222	0.014
-356.581	175.849	0.238	0.341
-355.566	-200.000	0.071	0.408
-354.552	297.344	-0.089	-0.162
-353.537	-200.000	-0.024	0.129
-352.523	414.482	0.075	-0.158
-351.508	-200.000	-0.004	-0.268
-350.493	-200.000	-0.025	0.177
-349.479	-109.404	0.286	0.060
-348.464	-141.826	-0.196	0.019
-347.450	-200.000	0.038	-0.185
-346.435	37.463	-0.159	0.139
-345.420	-0.599	0.085	0.059
-344.406	275.021	0.121	0.212
-343.391	248.330	0.073	0.122
-342.377	18.702	0.217	0.171
-341.362	800.000	0.030	0.120
-340.348	68.549	0.181	0.184
-339.333	-13.628	0.147	0.094
-338.318	6.700	-0.136	-0.100
-337.304	124.009	-0.083	-0.103
-336.289	706.946	-0.121	0.315
-335.275	136.474	-0.151	-0.195
-334.260	265.617	-0.104	-0.179
-333.245	232.516	0.116	-0.189
-332.231	165.839	0.136	0.190
-331.216	10.839	0.159	0.120
-330.202	129.410	-0.151	-0.191
-329.187	-126.271	0.123	-0.018
-328.172	712.239	-0.077	0.201
-327.158	-37.736	0.206	0.109
-326.143	570.795	0.028	0.067
-325.129	800.000	0.048	-0.158
-324.114	-26.126	-0.202	-0.117
-323.099	800.000	-0.057	0.161
-322.085	495.293	-0.133	0.303
-321.070	135.300	0.109	-0.140
-320.056	-99.008	-0.168	-0.042
-319.041	-200.000	-0.063	0.414
-318.026	55.107	0.170	0.162
-317.012	-95.061	-0.248	0.066
-315.997	408.926	0.094	-0.198
-314.983	-145.055	0.257	0.023
-313.968	-200.000	-0.006	-0.198
-312.953	301.863	0.094	0.171
-311.939	17.455	-0.157	0.124
-310.924	-55.134	-0.297	0.132
-309.910	144.950	-0.142	-0.188
-308.895	800.000	-0.162	-0.497
-307.880	800.000	0.086	-0.294
-306.866	44.177	0.102	0.092
-305.851	178.370	0.089	-0.128
-304.837	-200.000	0.029	0.490
-303.822	-200.000	0.016	-0.153
-302.807	800.000	0.088	-0.261
-301.793	-121.272	0.150	0.025
-300.778	43.080	0.096	-0.087
-299.764	-129.152	-0.181	0.025
-298.749	800.000	-0.028	-0.105
-297.735	-85.205	-0.105	-0.032
-296.720	-68.309	0.274	-0.105
-295.705	289.366	-0.214	-0.383
-294.691	-115.134	-0.170	-0.032
-293.676	-118.383	-0.234	0.041
-292.662	40.113	-0.462	-0.410
-291.647	361.514	0.063	0.124
-290.632	-15.434	-0.335	0.211
-289.618	267.472	0.156	0.269
-288.603	800.000	0.073	-0.248
-287.589	800.000	0.078	-0.319
-286.574	249.365	0.074	-0.123
-285.559	-9.125	-0.122	-0.081
-284.545	76.550	0.238	-0.249
-283.530	185.389	0.306	0.448
-282.516	-45.939	-0.240	-0.117
-281.501	174.543	-0.118	-0.168
-280.486	333.857	-0.108	0.206
-279.472	-1.447	-0.024	-0.017
-278.457	13.267	-0.154	0.117
-277.443	202.310	-0.125	-0.190
-276.428	514.888	0.144	-0.332
-275.413	403.128	0.129	-0.268
-274.399	66.654	0.170	-0.171
-273.384	148.255	0.107	0.143
-272.370	242.488	-0.109	0.180
-271.355	-200.000	0.029	-0.165
-270.340	38.880	-0.197	0.173
-269.326	114.242	0.182	0.219
-268.311	-200.000	0.018	-0.087
-267.297	-200.000	-0.002	-0.242
-266.282	-139.314	-0.099	-0.011
-265.267	-124.498	-0.237	-0.036
-264.253	-200.000	-0.017	-0.149
-263.238	800.000	0.056	-0.238
-262.224	489.052	0.105	0.236
-261.209	-80.387	-0.243	-0.080
-260.195	-92.571	-0.168	0.046
-259.180	124.085	0.167	0.207
-258.165	6.678	-0.156	0.114
-257.151	26.959	0.202	-0.167
-256.136	403.406	-0.029	0.059
-255.122	-125.561	-0.232	0.035
-254.107	108.205	0.308	0.362
-253.092	160.486	-0.069	-0.095
-252.078	100.498	0.077	-0.088
-251.063	-3.275	0.267	-0.183
-250.049	142.006	0.131	-0.172
-249.034	-47.064	0.027	0.013
-248.019	-200.000	-0.001	-0.125
-247.005	-95.658	-0.304	0.080
-245.990	0.640	-0.044	0.031
-244.976	-200.000	0.062	0.468
-243.961	520.392	0.063	-0.145
-242.946	123.539	-0.123	0.152
-241.932	-200.000	0.048	-0.240
-240.917	171.457	0.082	0.117
-239.903	95.176	0.063	0.070
-238.888	-118.252	0.273	0.048
-237.873	800.000	0.110	0.346
-236.859	-146.317	0.203	-0.017
-235.844	-200.000	-0.002	0.424
-234.830	9.501	0.359	-0.268
-233.815	671.548	-0.048	-0.122
-232.800	800.000	0.104	-0.291
-231.786	-121.745	0.146	-0.024
-230.771	142.531	0.186	0.243
-229.757	-200.000	0.041	0.263
-228.742	800.000	0.063	0.184
-227.727	-118.010	0.062	-0.011
-226.713	419.893	0.110	0.232
-225.698	-125.614	-0.216	0.032
-224.684	-83.427	-0.365	0.115
-223.669	35.298	0.286	0.247
-222.655	-118.614	-0.308	0.054
-221.640	-200.000	-0.002	-0.074
-220.625	57.839	-0.151	0.145
-219.611	83.205	-0.231	0.247
-218.596	216.250	-0.196	-0.307
-217.582	-33.159	0.119	-0.065
-216.567	-11.979	-0.035	-0.023
-215.552	-200.000	0.051	-0.257
-214.538	-75.963	-0.239	-0.083
-213.523	-200.000	-0.059	0.384
-212.509	800.000	0.143	-0.388
-211.494	800.000	-0.022	-0.080
-210.479	800.000	0.016	-0.047
-209.465	-73.591	0.120	0.043
-208.450	800.000	0.053	-0.148
-207.436	-145.135	-0.134	0.012
-206.421	-200.000	0.018	0.184
-205.406	145.709	0.286	-0.377
-204.392	178.092	0.211	0.303
-203.377	-200.000	-0.018	-0.178
-202.363	-156.199	0.410	-0.025
-201.348	800.000	0.026	-0.087
-200.333	-115.945	-0.241	-0.044
-199.319	559.864	0.112	0.266
-198.304	-184.607	-0.346	0.005
-197.290	-200.000	0.050	0.231
-196.275	-25.491	0.150	-0.087
-195.260	344.424	-0.116	0.223
-194.246	-115.351	0.050	0.009
-193.231	402.835	0.115	0.237
-192.217	-116.836	-0.052	-0.009
-191.202	800.000	0.064	0.210
-190.187	-151.295	-0.202	-0.015
-189.173	-200.000	0.037	-0.191
-188.158	-8.602	-0.179	0.118
-187.144	-200.000	0.032	-0.340
-186.129	53.599	0.104	-0.098
-185.114	206.102	0.135	0.206
-184.100	-147.885	0.423	-0.035
-183.085	800.000	0.011	-0.033
-182.071	59.386	0.103	-0.099
-181.056	-51.919	-0.152	0.070
-180.042	29.287	0.104	-0.087
-179.027	-137.001	-0.063	0.007
-178.012	94.977	0.110	-0.123
-176.998	315.747	-0.155	-0.288
-175.983	800.000	0.096	-0.371
-174.969	800.000	0.041	-0.174
-173.954	-28.060	0.374	-0.212
-172.939	97.993	0.302	-0.342
-171.925	-93.428	-0.296	0.081
-170.910	2.064	0.154	-0.109
-169.896	-200.000	-0.011	0.062
-168.881	800.000	0.031	-0.122
-167.866	-53.628	0.067	0.030
-166.852	800.000	0.039	0.164
-165.837	-80.082	-0.237	-0.078
-164.823	-35.037	0.392	-0.210
-163.808	800.000	0.038	-0.102
-162.793	315.678	0.192	-0.356
-161.779	800.000	-0.044	0.122
-160.764	-146.092	0.197	-0.017
-159.750	-81.136	0.006	-0.002
-158.735	161.339	-0.018	-0.025
-157.720	87.333	-0.125	0.136
-156.706	-200.000	-0.020	0.131
-155.691	800.000	-0.028	0.096
-154.677	66.424	-0.082	0.082
-153.662	-162.146	0.310	-0.015
-152.647	124.604	-0.288	-0.355
-151.633	-73.710	0.105	0.038
-150.618	173.995	0.199	0.282
-149.604	143.717	0.272	0.356
-148.589	-67.750	-0.177	0.068
-147.574	285.132	-0.151	-0.267
-146.560	-86.678	-0.212	-0.064
-145.545	-62.566	0.278	0.113
-144.531	506.559	-0.077	0.175
-143.516	-56.696	-0.254	-0.110
-142.502	-200.000	0.010	0.067
-141.487	197.809	0.174	-0.260
-140.472	19.684	0.132	-0.104
-139.458	-200.000	0.039	-0.208
-138.443	263.007	0.153	0.261
-137.429	800.000	-0.061	0.187
-136.414	-149.393	0.255	-0.020
-135.399	-93.622	-0.084	-0.023
-134.385	-122.750	0.210	0.033
-133.370	-200.000	-0.007	-0.050
-132.356	-162.942	0.224	0.011
-131.341	800.000	-0.144	0.578
-130.326	-17.400	-0.032	0.020
-129.312	127.493	0.211	-0.262
-128.297	-200.000	-0.037	0.162
-127.283	421.510	0.147	0.309
-126.268	102.958	-0.149	0.171
-125.253	-156.931	0.188	-0.011
-124.239	69.083	-0.267	0.269
-123.224	-173.857	0.240	-0.007
-122.210	-200.000	0.037	-0.166
-121.195	413.774	-0.136	0.284
