DTS Sentinel unit serial number:	SN413079Multiplexer serial number:	ORYXHardware model number:	OX4-SRSoftware version number:	ORYX F/W v4.00 Oryx Data Collector v3.7.2.0data status	okinstallation	princeton_trtdifferential loss correction	single-endedforward channel	channel 2reverse channel	N/Adate	2019/09/15time	04:31:35forward acquisition time	60.00reverse acquisition time	0.00gamma	496.2192k internal	0.2325k external	0.2325temperature offset calibration	1.0027default loss term (dB/km)	0.3790temperature slope calibration	1.0000multiplexer offset coefficient	1.0000multiplexer slope coefficient	1.0000fibre end	0.00T internal ref (°C)	30.87T ext. ref 1 (°C)	4.65T ext. ref 2 (°C)	25.48length (m)	temperature (°C)	Stokes	anti-Stokes-747.200	446.216	0.091	-0.201
-746.185	25.319	0.175	0.147
-745.171	-200.000	0.054	-0.337
-744.156	290.284	-0.112	0.205
-743.142	33.965	-0.080	0.070
-742.127	556.720	-0.088	0.215
-741.112	-200.000	-0.026	0.532
-740.098	56.456	-0.158	0.155
-739.083	-200.000	0.077	0.343
-738.069	-148.628	0.199	0.016
-737.054	-200.000	0.013	-0.391
-736.039	-149.908	-0.283	-0.022
-735.025	85.040	-0.125	0.139
-734.010	60.508	0.073	0.073
-732.996	118.994	-0.254	-0.317
-731.981	-200.000	0.036	-0.241
-730.966	-194.476	0.109	-0.001
-729.952	29.881	-0.146	-0.125
-728.937	-200.000	-0.004	-0.197
-727.923	-108.518	-0.383	-0.083
-726.908	-106.721	-0.165	-0.037
-725.894	-146.964	-0.486	-0.042
-724.879	79.951	0.138	-0.149
-723.864	123.139	-0.086	0.108
-722.850	-200.000	-0.013	0.075
-721.835	1.244	-0.157	-0.114
-720.821	146.312	0.189	-0.256
-719.806	-200.000	-0.093	-0.434
-718.791	673.376	0.075	-0.195
-717.777	-200.000	0.045	-0.200
-716.762	-48.492	0.135	0.065
-715.748	-160.338	0.267	-0.014
-714.733	-147.623	-0.236	0.020
-713.718	9.234	0.125	0.095
-712.704	38.558	-0.074	0.066
-711.689	-160.449	0.267	0.014
-710.675	800.000	-0.105	-0.303
-709.660	-8.670	0.226	-0.153
-708.645	-200.000	-0.008	-0.194
-707.631	-28.926	-0.092	0.053
-706.616	46.452	-0.232	-0.217
-705.602	-129.071	-0.275	0.039
-704.587	-65.141	0.114	-0.046
-703.572	-83.515	0.215	0.069
-702.558	-200.000	0.031	0.288
-701.543	352.925	-0.204	-0.407
-700.529	800.000	0.009	-0.031
-699.514	-52.744	0.059	0.027
-698.499	-43.059	-0.211	-0.108
-697.485	-200.000	-0.120	-0.001
-696.470	318.109	0.118	-0.225
-695.456	-200.000	0.026	-0.268
-694.441	-200.000	0.005	-0.039
-693.426	-200.000	-0.029	-0.130
-692.412	-200.000	-0.004	0.051
-691.397	498.959	0.101	0.234
-690.383	70.677	0.158	-0.165
-689.368	349.128	0.067	0.132
-688.354	800.000	0.044	0.141
-687.339	-200.000	0.024	0.194
-686.324	-167.767	0.231	-0.009
-685.310	-200.000	-0.033	-0.153
-684.295	-59.014	0.182	-0.079
-683.281	67.880	-0.059	0.060
-682.266	-200.000	0.014	-0.086
-681.251	-72.425	0.289	-0.108
-680.237	772.168	-0.119	0.327
-679.222	474.546	-0.011	-0.026
-678.208	142.598	0.134	0.179
-677.193	-200.000	-0.020	-0.344
-676.178	-200.000	0.061	-0.339
-675.164	381.244	0.135	-0.278
-674.149	261.700	-0.168	-0.292
-673.135	-200.000	0.050	-0.294
-672.120	113.950	0.167	0.205
-671.105	150.396	0.176	-0.241
-670.091	-107.311	-0.354	0.078
-669.076	-42.884	-0.302	-0.154
-668.062	195.685	-0.069	0.105
-667.047	-200.000	0.034	0.177
-666.032	-32.237	-0.258	-0.145
-665.018	216.810	-0.113	0.181
-664.003	-200.000	-0.007	0.132
-662.989	-123.673	0.280	-0.045
-661.974	153.190	0.073	0.100
-660.959	239.753	0.057	-0.096
-659.945	-180.828	-0.036	-0.001
-658.930	-200.000	-0.039	-0.209
-657.916	800.000	-0.062	-0.208
-656.901	-164.414	0.166	0.008
-655.886	-189.378	-0.164	0.002
-654.872	-141.778	0.242	0.024
-653.857	-72.569	-0.069	0.026
-652.843	-55.019	-0.295	-0.134
-651.828	-64.144	-0.203	-0.083
-650.814	129.380	0.136	-0.174
-649.799	-122.673	-0.278	0.045
-648.784	-66.403	0.057	0.023
-647.770	-61.333	-0.325	0.138
-646.755	-23.767	-0.244	-0.147
-645.741	369.972	0.043	0.088
-644.726	68.793	-0.251	0.259
-643.711	-75.923	-0.133	-0.047
-642.697	320.284	0.113	0.215
-641.682	-200.000	0.004	0.081
-640.668	54.782	-0.142	-0.138
-639.653	36.482	0.204	-0.181
-638.638	-86.231	-0.231	-0.072
-637.624	-200.000	0.014	0.138
-636.609	-88.427	-0.211	0.063
-635.595	203.421	-0.124	-0.192
-634.580	-64.253	-0.116	-0.047
-633.565	643.765	-0.029	0.074
-632.551	-178.316	-0.268	0.006
-631.536	414.163	-0.052	-0.112
-630.522	-101.315	0.056	0.014
-629.507	-70.923	0.355	0.134
-628.492	266.796	0.054	0.096
-627.478	222.492	0.042	-0.067
-626.463	-149.438	0.163	0.013
-625.449	-97.469	-0.271	-0.071
-624.434	641.527	-0.048	0.124
-623.419	800.000	-0.094	-0.392
-622.405	406.248	-0.047	0.099
-621.390	-121.397	-0.360	-0.060
-620.376	800.000	0.037	0.112
-619.361	203.690	0.127	0.197
-618.346	262.041	-0.005	0.009
-617.332	-200.000	0.059	-0.381
-616.317	800.000	0.031	0.096
-615.303	-121.742	0.200	0.033
-614.288	-200.000	-0.021	0.113
-613.273	-73.613	0.144	-0.053
-612.259	298.016	-0.033	0.060
-611.244	625.464	-0.040	0.101
-610.230	-76.936	0.172	0.060
-609.215	-165.821	0.275	0.012
-608.201	21.780	0.076	0.062
-607.186	-200.000	0.014	-0.324
-606.171	-68.687	-0.040	-0.016
-605.157	10.493	-0.249	-0.190
-604.142	-57.398	-0.047	-0.021
-603.128	-153.430	0.362	-0.025
-602.113	-101.854	0.390	0.095
-601.098	-119.208	-0.035	0.006
-600.084	69.325	-0.114	-0.117
-599.069	-42.667	-0.166	0.085
-598.055	524.614	0.163	0.384
-597.040	-140.015	0.144	-0.015
-596.025	651.405	-0.145	-0.372
-595.011	463.680	0.087	0.195
-593.996	306.900	0.067	0.126
-592.982	-200.000	-0.010	0.318
-591.967	-127.427	0.229	-0.033
-590.952	-200.000	0.040	0.260
-589.938	52.130	-0.236	0.225
-588.923	124.265	-0.116	0.147
-587.909	800.000	-0.031	0.090
-586.894	-78.465	-0.101	0.035
-585.879	19.243	0.096	0.077
-584.865	-54.632	-0.385	-0.175
-583.850	45.378	-0.216	-0.200
-582.836	800.000	-0.035	-0.098
-581.821	65.347	0.130	0.132
-580.806	-155.648	-0.191	0.012
-579.792	27.430	-0.173	-0.146
-578.777	-131.276	0.045	-0.006
-577.763	153.966	0.100	-0.138
-576.748	203.893	0.075	-0.117
-575.733	-131.528	-0.346	0.046
-574.719	800.000	-0.036	-0.116
-573.704	530.694	-0.106	-0.251
-572.690	268.435	0.050	0.088
-571.675	153.936	-0.051	-0.071
-570.661	-200.000	0.051	-0.377
-569.646	-134.100	-0.098	-0.012
-568.631	284.152	0.126	0.228
-567.617	265.890	-0.247	-0.432
-566.602	-200.000	0.048	-0.215
-565.588	260.841	0.047	0.081
-564.573	32.904	0.040	0.034
-563.558	-111.368	0.238	-0.049
-562.544	800.000	0.137	-0.384
-561.529	-96.173	0.297	-0.079
-560.515	-104.219	0.437	0.102
-559.500	800.000	0.022	-0.081
-558.485	97.507	0.115	0.132
-557.471	-100.446	0.137	0.034
-556.456	-101.511	-0.095	0.023
-555.442	-200.000	-0.046	-0.202
-554.427	-68.202	-0.186	-0.073
-553.412	-18.488	0.234	-0.146
-552.398	-164.276	-0.526	0.024
-551.383	-200.000	0.051	-0.338
-550.369	445.891	-0.054	0.119
-549.354	111.281	0.094	-0.114
-548.339	-1.844	-0.121	-0.085
-547.325	-10.157	-0.064	0.042
-546.310	-200.000	0.014	0.150
-545.296	124.413	0.118	-0.149
-544.281	76.060	-0.279	-0.296
-543.266	0.438	0.224	-0.160
-542.252	-137.097	-0.262	-0.030
-541.237	800.000	-0.092	0.254
-540.223	-140.867	0.315	-0.032
-539.208	-89.084	-0.247	-0.073
-538.193	-83.803	-0.291	0.093
-537.179	-149.545	0.301	0.024
-536.164	137.377	0.095	-0.125
-535.150	-96.338	-0.256	0.068
-534.135	800.000	-0.008	-0.029
-533.121	126.081	0.098	-0.124
-532.106	-7.452	-0.123	-0.084
-531.091	-76.628	-0.148	-0.052
-530.077	-200.000	-0.014	0.086
-529.062	-48.349	-0.261	0.126
-528.048	-200.000	0.045	0.307
-527.033	-200.000	-0.008	0.220
-526.018	-36.091	0.232	-0.126
-525.004	-93.717	0.102	-0.028
-523.989	-101.281	0.297	0.073
-522.975	-23.242	0.138	0.083
-521.960	800.000	-0.069	-0.255
-520.945	-200.000	0.033	-0.268
-519.931	120.837	-0.092	0.114
-518.916	89.423	0.307	0.343
-517.902	690.071	-0.084	-0.219
-516.887	-200.000	-0.037	0.437
-515.872	41.811	-0.068	-0.061
-514.858	-200.000	-0.011	0.116
-513.843	800.000	-0.106	-0.409
-512.829	20.712	-0.089	-0.072
-511.814	210.243	0.103	-0.161
-510.799	33.062	-0.114	-0.098
-509.785	130.380	-0.131	0.167
-508.770	112.726	-0.112	0.136
-507.756	-200.000	0.032	-0.228
-506.741	332.831	-0.104	0.201
-505.726	-38.927	0.216	0.113
-504.712	113.858	-0.123	0.150
-503.697	-158.761	-0.096	-0.005
-502.683	800.000	-0.064	0.230
-501.668	-77.331	0.165	0.057
-500.653	-200.000	-0.010	0.221
-499.639	100.843	0.089	-0.103
-498.624	-74.036	-0.450	-0.163
-497.610	282.682	0.046	0.082
-496.595	33.607	0.170	0.147
-495.581	-76.173	-0.115	0.040
-494.566	800.000	-0.047	0.172
-493.551	260.625	-0.085	0.147
-492.537	-200.000	0.063	-0.282
-491.522	27.316	-0.471	-0.396
-490.508	454.457	0.196	-0.434
-489.493	-168.469	0.481	-0.018
-488.478	479.350	0.103	0.232
-487.464	-72.690	-0.148	-0.054
-486.449	-200.000	-0.012	0.192
-485.435	-68.352	0.144	0.056
-484.420	299.763	-0.202	0.371
-483.405	608.695	-0.041	0.101
-482.391	-86.904	-0.253	0.077
-481.376	-200.000	0.006	-0.090
-480.362	-6.615	-0.148	0.101
-479.347	37.166	-0.331	0.292
-478.332	160.740	-0.140	-0.196
-477.318	-130.024	0.381	0.052
-476.303	-187.226	0.332	0.005
-475.289	-200.000	0.007	0.178
-474.274	163.499	-0.119	-0.167
-473.259	418.735	-0.096	-0.206
-472.245	-21.270	-0.059	0.036
-471.230	-54.035	-0.250	0.114
-470.216	333.404	-0.104	-0.201
-469.201	-200.000	-0.022	-0.209
-468.186	-156.491	-0.235	0.015
-467.172	-61.552	-0.298	-0.125
-466.157	447.629	-0.068	-0.150
-465.143	643.814	-0.039	0.100
-464.128	800.000	0.032	-0.137
-463.113	-192.146	0.061	-0.001
-462.099	398.179	0.078	0.163
-461.084	88.785	0.133	0.148
-460.070	-118.878	-0.103	0.018
-459.055	-92.017	-0.196	0.055
-458.040	65.177	-0.083	-0.083
-457.026	111.251	-0.215	0.258
-456.011	403.801	-0.066	0.139
-454.997	153.255	-0.169	-0.230
-453.982	99.959	0.402	0.464
-452.968	-8.583	-0.344	0.231
-451.953	30.914	0.071	0.061
-450.938	-200.000	-0.016	-0.101
-449.924	-200.000	-0.003	-0.013
-448.909	-151.904	0.179	-0.013
-447.895	-116.593	-0.159	0.029
-446.880	-53.822	0.046	0.021
-445.865	25.398	-0.091	-0.076
-444.851	-72.683	0.204	-0.075
-443.836	79.589	-0.031	0.033
-442.822	-93.552	0.309	0.085
-441.807	81.394	-0.068	0.073
-440.792	-46.722	0.114	0.056
-439.778	-43.492	0.240	-0.121
-438.763	14.974	0.177	0.138
-437.749	316.865	0.098	0.184
-436.734	-42.351	-0.174	0.088
-435.719	117.194	0.058	0.071
-434.705	260.385	0.112	-0.194
-433.690	29.016	-0.232	-0.196
-432.676	-149.242	-0.188	0.015
-431.661	-57.435	-0.251	0.110
-430.646	-4.033	0.084	-0.058
-429.632	109.967	-0.202	-0.242
-428.617	104.300	0.129	-0.152
-427.603	800.000	0.071	0.263
-426.588	-200.000	-0.055	0.298
-425.573	-161.763	-0.083	-0.004
-424.559	65.204	-0.174	0.175
-423.544	-200.000	0.039	0.375
-422.530	-200.000	-0.045	-0.255
-421.515	-158.213	-0.432	-0.025
-420.500	-118.442	-0.296	0.052
-419.486	-49.080	0.134	0.064
-418.471	-82.910	0.134	0.043
-417.457	771.858	-0.132	-0.358
-416.442	-84.600	-0.097	-0.030
-415.428	-71.819	0.298	-0.111
-414.413	59.946	-0.079	-0.078
-413.398	-200.000	-0.009	0.162
-412.384	-97.066	0.080	0.021
-411.369	36.060	0.235	-0.206
-410.355	-200.000	-0.001	-0.014
-409.340	-34.072	0.134	0.073
-408.325	800.000	-0.086	0.314
-407.311	-60.851	-0.172	0.072
-406.296	154.964	0.082	0.112
-405.282	-7.216	0.207	0.140
-404.267	405.971	0.136	0.286
-403.252	800.000	0.051	0.181
-402.238	-52.470	-0.056	-0.026
-401.223	-200.000	-0.013	0.176
-400.209	-74.872	0.098	0.035
-399.194	475.898	0.220	-0.496
-398.179	423.052	0.013	0.028
-397.165	-200.000	-0.203	0.001
-396.150	93.368	-0.031	0.035
-395.136	-178.632	0.205	-0.005
-394.121	-125.016	-0.384	-0.059
-393.106	-139.779	0.329	0.035
-392.092	-200.000	0.342	-0.001
-391.077	61.227	-0.056	-0.055
-390.063	800.000	0.055	0.174
-389.048	722.871	0.043	0.115
-388.033	352.133	0.056	-0.110
-387.019	-13.566	-0.098	-0.063
-386.004	-200.000	0.002	0.068
-384.990	81.203	0.090	-0.097
-383.975	515.374	0.142	-0.329
-382.960	91.035	-0.132	-0.147
-381.946	196.563	-0.141	0.214
-380.931	107.419	0.236	0.279
-379.917	-179.489	0.197	-0.004
-378.902	302.748	-0.175	0.322
-377.888	189.141	-0.127	0.189
-376.873	-200.000	0.005	0.231
-375.858	-85.041	0.360	-0.112
-374.844	-6.500	-0.225	-0.153
-373.829	-20.319	-0.162	-0.099
-372.815	-92.198	-0.486	0.136
-371.800	415.963	-0.260	0.551
-370.785	-200.000	-0.025	-0.180
-369.771	-107.536	-0.093	0.020
-368.756	455.947	-0.109	-0.240
-367.742	166.784	-0.199	0.281
-366.727	-1.137	0.182	0.128
-365.712	-97.435	0.412	-0.107
-364.698	194.614	-0.189	-0.285
-363.683	266.893	0.146	-0.253
-362.669	-200.000	0.101	0.490
-361.654	-200.000	0.021	-0.262
-360.639	101.868	-0.179	0.208
-359.625	-100.699	0.308	0.075
-358.610	299.690	0.066	-0.120
-357.596	252.929	-0.103	-0.174
-356.581	-150.574	-0.087	0.007
-355.566	474.378	-0.104	0.234
-354.552	800.000	-0.005	-0.015
-353.537	-74.944	0.216	-0.077
-352.523	314.646	0.023	-0.042
-351.508	418.308	-0.118	-0.251
-350.493	121.559	0.238	0.295
-349.479	-200.000	0.082	-0.378
-348.464	-7.575	-0.095	-0.064
-347.450	-200.000	0.019	-0.153
-346.435	-200.000	0.050	-0.254
-345.420	-33.849	-0.125	0.068
-344.406	-200.000	-0.035	0.156
-343.391	800.000	-0.027	-0.089
-342.377	461.868	-0.118	-0.262
-341.362	103.400	-0.158	0.184
-340.348	-200.000	0.030	0.275
-339.333	-11.600	-0.130	0.085
-338.318	49.609	-0.234	0.219
-337.304	-78.098	-0.174	0.059
-336.289	-200.000	-0.027	-0.262
-335.275	800.000	-0.124	0.377
-334.260	160.097	0.141	-0.195
-333.245	-200.000	-0.038	0.286
-332.231	710.211	0.066	-0.174
-331.216	-84.963	-0.420	0.131
-330.202	-200.000	-0.022	0.137
-329.187	-54.046	0.191	-0.086
-328.172	571.402	0.070	-0.169
-327.158	800.000	0.072	-0.239
-326.143	196.764	0.045	-0.068
-325.129	-34.829	0.186	0.101
-324.114	209.866	0.022	0.034
-323.099	-200.000	-0.047	-0.375
-322.085	-149.209	-0.035	-0.003
-321.070	302.389	-0.123	0.226
-320.056	577.132	-0.040	0.098
-319.041	70.079	0.287	0.294
-318.026	-148.505	-0.301	-0.024
-317.012	45.154	0.124	0.113
-315.997	107.250	-0.169	-0.200
-314.983	-3.639	-0.110	0.076
-313.968	475.308	0.147	0.330
-312.953	-140.821	0.248	0.025
-311.939	-71.279	0.211	0.079
-310.924	41.476	0.208	-0.187
-309.910	-200.000	0.031	-0.269
-308.895	-130.889	0.311	-0.041
-307.880	-200.000	0.034	-0.309
-306.866	800.000	0.055	-0.163
-305.851	736.640	-0.037	-0.099
-304.837	800.000	0.015	0.047
-303.822	-200.000	0.048	0.221
-302.807	151.335	0.088	-0.119
-301.793	-200.000	-0.039	-0.230
-300.778	-115.458	-0.152	-0.028
-299.764	363.924	0.157	0.314
-298.749	105.793	0.253	0.297
-297.735	-123.610	-0.107	-0.017
-296.720	-71.116	0.321	0.120
-295.705	63.935	0.160	0.160
-294.691	800.000	-0.049	0.171
-293.676	-200.000	-0.011	-0.106
-292.662	800.000	0.084	-0.229
-291.647	-200.000	-0.042	0.296
-290.632	-94.341	-0.371	0.101
-289.618	-181.680	0.090	-0.002
-288.603	800.000	0.100	0.283
-287.589	-106.141	0.288	0.064
-286.574	-105.722	-0.191	0.043
-285.559	-36.768	-0.106	0.057
-284.545	-153.476	-0.134	0.009
-283.530	214.106	0.220	-0.345
-282.516	800.000	0.027	0.096
-281.501	72.026	-0.055	0.057
-280.486	-22.960	0.119	0.071
-279.472	-17.171	0.327	-0.204
-278.457	-200.000	-0.047	-0.225
-277.443	-14.714	0.281	-0.179
-276.428	-94.759	0.150	0.040
-275.413	30.239	0.367	0.310
-274.399	12.706	-0.197	-0.150
-273.384	2.449	-0.247	-0.177
-272.370	-78.607	-0.118	0.040
-271.355	-172.231	0.194	-0.006
-270.340	-34.608	-0.099	-0.054
-269.326	20.267	0.263	-0.211
-268.311	-47.655	0.085	-0.041
-267.297	120.091	0.039	0.048
-266.282	-95.956	-0.129	0.034
-265.267	47.724	-0.112	-0.103
-264.253	-99.314	-0.069	0.017
-263.238	502.998	0.061	0.139
-262.224	-23.267	0.031	0.018
-261.209	-71.191	0.128	0.048
-260.195	-39.945	0.333	-0.172
-259.180	-84.481	-0.271	0.085
-258.165	313.734	-0.151	0.281
-257.151	-200.000	0.044	-0.197
-256.136	166.197	-0.091	-0.127
-255.122	64.822	-0.057	0.057
-254.107	-200.000	-0.006	-0.061
-253.092	47.950	0.200	0.185
-252.078	-200.000	-0.009	0.245
-251.063	-84.002	0.460	-0.145
-250.049	-65.784	0.054	-0.021
-249.034	-24.630	-0.238	-0.140
-248.019	-60.403	0.334	-0.140
-247.005	164.750	0.074	-0.104
-245.990	121.923	-0.098	0.121
-244.976	-58.792	0.133	-0.057
-243.961	222.782	0.059	0.095
-242.946	-140.174	-0.305	-0.032
-241.932	294.078	0.064	-0.115
-240.917	4.630	0.213	-0.154
-239.903	-200.000	0.068	-0.299
-238.888	-42.977	-0.246	-0.123
-237.873	190.590	-0.126	-0.187
-236.859	-200.000	0.075	-0.546
-235.844	-148.900	0.111	-0.009
-234.830	-122.602	-0.217	-0.035
-233.815	209.022	-0.053	0.081
-232.800	-200.000	0.026	0.131
-231.786	-93.095	-0.275	-0.076
-230.771	122.523	-0.138	0.171
-229.757	122.792	0.084	-0.104
-228.742	392.819	0.103	0.212
-227.727	800.000	0.053	-0.198
-226.713	109.773	-0.174	-0.206
-225.698	89.113	0.115	-0.127
-224.684	-122.897	-0.397	-0.063
-223.669	-142.790	0.150	0.014
-222.655	-172.756	-0.228	-0.007
-221.640	-200.000	-0.035	0.300
-220.625	230.669	0.088	-0.143
-219.611	51.584	-0.294	-0.276
-218.596	-33.294	0.343	-0.188
-217.582	115.426	0.079	0.096
-216.567	13.878	0.154	-0.118
-215.552	40.851	0.260	-0.232
-214.538	-200.000	0.025	-0.111
-213.523	155.331	0.200	-0.272
-212.509	800.000	0.052	-0.197
-211.494	174.676	0.111	0.159
-210.479	-95.074	0.128	-0.034
-209.465	22.604	-0.104	-0.084
-208.450	503.993	-0.111	-0.254
-207.436	110.167	-0.020	0.024
-206.421	725.873	-0.048	0.126
-205.406	800.000	-0.042	-0.130
-204.392	-200.000	0.057	0.274
-203.377	-140.752	0.278	0.028
-202.363	160.161	0.098	-0.135
-201.348	-33.229	-0.115	-0.063
-200.333	169.678	-0.168	0.237
-199.319	-73.850	-0.175	-0.063
-198.304	-73.917	0.120	0.043
-197.290	38.931	0.061	0.054
-196.275	671.935	0.119	-0.306
-195.260	54.303	-0.173	-0.165
-194.246	-83.722	-0.247	-0.078
-193.231	-144.811	0.061	0.005
-192.217	136.993	0.119	0.154
-191.202	-59.854	-0.203	-0.086
-190.187	-94.688	0.114	-0.031
-189.173	-58.181	0.303	0.131
-188.158	-33.333	0.160	-0.088
-187.144	-42.065	0.285	0.144
-186.129	-47.948	0.011	0.005
-185.114	389.240	-0.059	0.121
-184.100	800.000	-0.112	0.468
-183.085	-200.000	-0.007	0.088
-182.071	-77.751	0.228	0.078
-181.056	800.000	0.020	-0.075
-180.042	-134.901	0.164	0.020
-179.027	494.064	0.113	0.256
-178.012	-26.954	0.384	0.221
-176.998	0.117	0.053	0.037
-175.983	500.927	-0.115	-0.262
-174.969	314.127	0.067	-0.125
-173.954	134.083	0.143	0.182
-172.939	9.267	0.152	0.113
-171.925	633.909	0.078	0.196
-170.910	81.406	-0.227	0.242
-169.896	258.410	-0.121	-0.206
-168.881	230.866	0.031	0.050
-167.866	408.183	-0.105	-0.218
-166.852	-200.000	0.021	0.195
-165.837	4.408	-0.258	-0.187
-164.823	-65.433	0.132	-0.052
-163.808	-200.000	0.072	0.346
-162.793	-200.000	0.025	0.252
-161.779	-60.873	-0.247	0.103
-160.764	-200.000	0.019	-0.168
-159.750	-84.892	0.289	0.089
-158.735	48.516	0.218	0.202
-157.720	345.881	0.054	-0.105
-156.706	-59.314	-0.191	0.081
-155.691	-200.000	0.088	-0.449
-154.677	78.378	-0.281	-0.296
-153.662	56.327	-0.029	-0.028
-152.647	800.000	-0.017	0.065
-151.633	-89.946	-0.154	-0.044
-150.618	-39.886	-0.058	0.030
-149.604	-81.066	0.175	-0.057
-148.589	15.036	-0.119	0.092
-147.574	-144.394	-0.265	-0.024
-146.560	800.000	-0.086	-0.307
-145.545	-46.930	-0.177	0.085
-144.531	236.422	-0.053	0.087
-143.516	501.825	0.111	-0.254
-142.502	-200.000	0.014	0.331
-141.487	-84.246	-0.151	0.047
-140.472	800.000	0.142	0.388
-139.458	316.502	-0.141	-0.262
-138.443	-162.422	-0.125	0.006
-137.429	-161.597	0.401	-0.020
-136.414	-10.367	-0.182	-0.119
-135.399	-58.647	-0.173	-0.074
-134.385	298.568	0.025	0.045
-133.370	-200.000	-0.005	0.115
-132.356	134.398	-0.126	-0.161
-131.341	-11.958	-0.085	-0.055
-130.326	-42.940	0.219	0.109
-129.312	-186.130	0.355	0.005
-128.297	-17.541	0.082	0.051
-127.283	31.691	0.359	-0.304
-126.268	67.652	-0.158	0.159
-125.253	-5.315	0.117	-0.079
-124.239	-12.542	0.249	-0.160
-123.224	-200.000	0.016	-0.123
-122.210	13.244	-0.143	0.109
