DTS Sentinel unit serial number:	SN413079Multiplexer serial number:	ORYXHardware model number:	OX4-SRSoftware version number:	ORYX F/W v4.00 Oryx Data Collector v3.7.2.0data status	okinstallation	princeton_trtdifferential loss correction	single-endedforward channel	channel 2reverse channel	N/Adate	2019/09/18time	03:35:35forward acquisition time	60.00reverse acquisition time	0.00gamma	496.2192k internal	0.2350k external	0.2350temperature offset calibration	0.9979default loss term (dB/km)	0.3790temperature slope calibration	1.0000multiplexer offset coefficient	1.0000multiplexer slope coefficient	1.0000fibre end	0.00T internal ref (°C)	22.84T ext. ref 1 (°C)	0.17T ext. ref 2 (°C)	17.79length (m)	temperature (°C)	Stokes	anti-Stokes-747.200	56.660	-0.198	0.193
-746.185	800.000	0.071	0.285
-745.171	-172.522	0.185	0.006
-744.156	391.926	0.012	0.024
-743.142	10.121	0.079	0.060
-742.127	388.638	-0.114	0.237
-741.112	-52.287	0.092	-0.043
-740.098	412.679	0.026	0.054
-739.083	63.532	0.392	0.392
-738.069	-113.561	-0.324	0.063
-737.054	-50.878	0.176	0.082
-736.039	171.048	-0.225	-0.323
-735.025	-25.346	-0.312	0.184
-734.010	-53.782	0.275	-0.125
-732.996	555.235	-0.081	-0.195
-731.981	247.051	-0.088	-0.148
-730.966	-200.000	0.012	0.096
-729.952	154.608	-0.149	0.204
-728.937	800.000	0.031	0.091
-727.923	-72.588	0.271	0.100
-726.908	56.660	-0.132	0.128
-725.894	-139.519	0.370	-0.039
-724.879	31.922	-0.189	0.162
-723.864	-200.000	-0.021	-0.295
-722.850	37.162	-0.190	-0.168
-721.835	154.336	-0.058	0.079
-720.821	800.000	-0.076	-0.245
-719.806	800.000	-0.044	-0.146
-718.791	-152.180	-0.453	0.033
-717.777	-128.442	0.410	-0.058
-716.762	-72.017	-0.098	0.036
-715.748	293.433	-0.125	0.228
-714.733	59.567	-0.123	0.121
-713.718	-14.626	-0.245	0.157
-712.704	-200.000	-0.016	0.219
-711.689	-200.000	-0.011	-0.395
-710.675	-2.962	0.195	0.136
-709.660	9.593	-0.164	0.124
-708.645	800.000	-0.118	-0.382
-707.631	-79.161	-0.059	-0.020
-706.616	-200.000	0.015	0.120
-705.602	-200.000	-0.026	-0.303
-704.587	60.341	-0.189	-0.186
-703.572	-93.671	-0.084	-0.023
-702.558	-25.601	-0.137	-0.081
-701.543	-20.755	0.247	0.151
-700.529	-31.495	-0.184	0.103
-699.514	-138.215	-0.083	0.009
-698.499	14.787	0.309	0.241
-697.485	2.084	-0.169	0.122
-696.470	483.485	-0.047	0.106
-695.456	36.668	0.074	-0.065
-694.441	144.687	0.066	0.088
-693.426	-118.156	-0.167	0.030
-692.412	102.539	0.256	0.298
-691.397	-46.455	-0.210	-0.103
-690.383	-200.000	0.002	0.038
-689.368	-85.327	0.044	0.014
-688.354	36.585	0.230	0.202
-687.339	-105.638	-0.118	0.027
-686.324	237.485	-0.097	0.160
-685.310	55.222	-0.008	-0.008
-684.295	43.293	-0.198	-0.180
-683.281	526.348	-0.092	-0.217
-682.266	-133.517	0.050	-0.006
-681.251	277.674	-0.138	0.245
-680.237	-28.925	0.337	-0.193
-679.222	-111.260	0.069	0.014
-678.208	-112.219	0.246	-0.049
-677.193	-200.000	0.041	0.503
-676.178	800.000	0.042	-0.150
-675.164	45.020	0.301	-0.276
-674.149	52.945	0.079	-0.075
-673.135	-69.806	0.121	0.046
-672.120	302.272	0.059	-0.109
-671.105	800.000	0.049	-0.211
-670.091	-174.207	0.096	-0.003
-669.076	-75.477	0.222	0.079
-668.062	800.000	0.015	-0.051
-667.047	136.431	-0.022	-0.029
-666.032	409.748	-0.041	0.087
-665.018	-200.000	0.001	-0.012
-664.003	70.588	-0.185	-0.190
-662.989	-200.000	-0.012	0.099
-661.974	319.256	-0.071	0.133
-660.959	-8.657	0.366	0.245
-659.945	-117.553	0.465	0.083
-658.930	-200.000	0.011	-0.088
-657.916	-47.896	0.098	0.047
-656.901	491.723	0.144	-0.329
-655.886	-141.157	0.078	0.008
-654.872	195.236	-0.156	-0.235
-653.857	-31.843	-0.233	0.130
-652.843	446.641	0.161	0.351
-651.828	-130.285	-0.401	-0.054
-650.814	47.762	0.166	0.154
-649.799	-125.601	-0.242	0.037
-648.784	800.000	-0.032	-0.129
-647.770	-33.888	-0.030	-0.016
-646.755	-176.309	0.086	0.002
-645.741	-49.296	-0.371	-0.176
-644.726	-200.000	0.011	-0.173
-643.711	-144.732	-0.199	-0.018
-642.697	-82.178	0.145	0.047
-641.682	-164.338	0.050	0.002
-640.668	27.461	0.345	-0.289
-639.653	-200.000	-0.004	-0.065
-638.638	75.282	-0.352	-0.369
-637.624	-200.000	0.011	-0.226
-636.609	4.051	-0.242	0.176
-635.595	-136.213	0.206	0.024
-634.580	-62.437	0.281	0.116
-633.565	-200.000	-0.021	0.099
-632.551	-200.000	0.014	-0.155
-631.536	-200.000	-0.006	0.103
-630.522	-106.445	0.207	-0.046
-629.507	-187.455	-0.349	0.005
-628.492	800.000	0.016	0.047
-627.478	300.798	-0.152	-0.278
-626.463	800.000	0.063	-0.269
-625.449	800.000	-0.025	0.073
-624.434	328.190	-0.133	0.254
-623.419	800.000	-0.060	0.173
-622.405	340.181	0.068	0.132
-621.390	22.513	-0.239	-0.194
-620.376	-77.773	0.217	0.075
-619.361	85.285	-0.361	0.393
-618.346	-200.000	-0.009	-0.085
-617.332	-47.396	0.262	0.127
-616.317	-35.463	-0.186	-0.100
-615.303	-136.725	-0.462	0.053
-614.288	133.444	0.240	-0.308
-613.273	-16.500	-0.177	0.112
-612.259	56.986	0.051	0.050
-611.244	71.352	-0.265	-0.273
-610.230	-42.819	-0.083	0.042
-609.215	-15.904	0.080	-0.051
-608.201	11.590	0.230	0.175
-607.186	-139.043	0.415	-0.045
-606.171	-200.000	-0.019	-0.223
-605.157	-200.000	0.000	0.177
-604.142	473.253	-0.046	-0.104
-603.128	-155.589	0.168	0.011
-602.113	-35.784	0.131	-0.071
-601.098	302.731	0.049	-0.089
-600.084	144.218	0.138	0.183
-599.069	-62.873	-0.161	-0.066
-598.055	800.000	-0.049	0.189
-597.040	-161.023	-0.307	-0.016
-596.025	139.311	-0.118	-0.155
-595.011	-10.512	-0.108	0.071
-593.996	-118.058	0.421	-0.075
-592.982	-18.747	-0.159	0.098
-591.967	-11.374	0.206	0.135
-590.952	-56.543	0.098	0.043
-589.938	-5.704	-0.247	0.168
-588.923	-104.261	0.335	-0.077
-587.909	107.630	0.048	-0.057
-586.894	-200.000	0.029	-0.128
-585.879	58.212	0.033	-0.032
-584.865	-200.000	-0.066	0.290
-583.850	-200.000	-0.010	-0.220
-582.836	-45.467	0.144	0.071
-581.821	800.000	-0.035	0.116
-580.806	-20.145	0.260	0.159
-579.792	-23.158	-0.267	-0.159
-578.777	800.000	-0.080	-0.224
-577.763	64.833	0.139	0.139
-576.748	-103.288	-0.144	0.034
-575.733	19.173	-0.145	0.116
-574.719	395.671	-0.110	-0.229
-573.704	-200.000	0.018	-0.197
-572.690	-92.686	-0.230	-0.064
-571.675	28.604	0.198	0.166
-570.661	51.037	0.231	-0.217
-569.646	-200.000	0.026	0.145
-568.631	-112.732	-0.196	-0.039
-567.617	-0.747	-0.083	0.058
-566.602	96.191	-0.173	-0.196
-565.588	-63.769	-0.285	0.116
-564.573	-154.072	-0.301	0.020
-563.558	-147.652	0.178	0.015
-562.544	-200.000	0.002	0.469
-561.529	-90.526	-0.168	0.048
-560.515	41.505	-0.057	0.052
-559.500	-200.000	0.004	-0.434
-558.485	92.956	0.264	-0.296
-557.471	664.380	-0.033	0.084
-556.456	51.183	-0.190	-0.179
-555.442	-74.247	0.158	-0.057
-554.427	-200.000	0.002	0.270
-553.412	-85.513	0.179	0.055
-552.398	800.000	0.049	0.147
-551.383	-27.172	-0.046	-0.027
-550.369	-160.173	0.284	-0.015
-549.354	-7.181	-0.163	0.109
-548.339	-200.000	0.012	0.100
-547.325	-159.183	0.093	0.005
-546.310	800.000	0.066	0.268
-545.296	-92.627	0.139	0.039
-544.281	-42.377	-0.182	-0.092
-543.266	800.000	-0.042	0.144
-542.252	-200.000	-0.013	-0.058
-541.237	87.279	-0.115	-0.126
-540.223	800.000	-0.053	0.153
-539.208	23.186	0.259	0.211
-538.193	-200.000	-0.030	-0.204
-537.179	82.607	-0.197	-0.212
-536.164	800.000	-0.050	0.191
-535.150	-200.000	-0.073	0.362
-534.135	122.270	-0.064	-0.080
-533.121	-73.629	-0.327	0.118
-532.106	-135.558	-0.335	-0.039
-531.091	-200.000	-0.016	0.211
-530.077	-200.000	0.027	0.192
-529.062	-99.226	-0.265	-0.066
-528.048	800.000	-0.074	-0.272
-527.033	-200.000	0.052	0.286
-526.018	-122.675	-0.146	0.023
-525.004	-23.137	-0.245	0.146
-523.989	93.935	-0.190	-0.213
-522.975	2.757	-0.116	0.083
-521.960	800.000	-0.069	0.231
-520.945	-96.433	-0.077	-0.020
-519.931	-75.792	-0.079	-0.028
-518.916	-94.771	0.105	0.028
-517.902	-32.646	0.084	-0.046
-516.887	-94.720	-0.415	-0.112
-515.872	-15.446	0.231	-0.146
-514.858	141.750	-0.039	0.051
-513.843	-25.775	0.082	-0.048
-512.829	83.312	0.052	0.056
-511.814	236.330	0.059	0.096
-510.799	424.378	0.155	-0.330
-509.785	800.000	0.077	0.235
-508.770	-28.610	0.194	0.110
-507.756	-200.000	0.009	-0.066
-506.741	141.321	0.039	0.051
-505.726	-156.770	0.127	0.008
-504.712	-93.144	0.100	0.028
-503.697	236.616	0.092	-0.151
-502.683	154.108	-0.090	-0.123
-501.668	448.335	-0.101	-0.221
-500.653	-57.460	-0.491	0.213
-499.639	184.851	-0.185	-0.271
-498.624	-129.571	0.115	-0.016
-497.610	-44.743	-0.042	-0.021
-496.595	-89.584	-0.406	-0.118
-495.581	105.980	0.042	-0.049
-494.566	55.340	-0.071	-0.068
-493.551	-179.237	-0.370	-0.008
-492.537	296.417	0.017	-0.030
-491.522	-144.115	-0.240	-0.022
-490.508	68.542	-0.165	0.167
-489.493	-12.244	0.193	-0.125
-488.478	447.926	-0.295	-0.642
-487.464	-200.000	0.006	-0.028
-486.449	-200.000	-0.012	0.081
-485.435	-168.287	-0.270	0.010
-484.420	284.989	0.115	0.205
-483.405	174.476	-0.269	0.385
-482.391	-200.000	0.004	0.092
-481.376	221.786	-0.084	0.134
-480.362	78.122	-0.222	-0.234
-479.347	-53.359	0.277	0.126
-478.332	-87.052	-0.169	0.051
-477.318	29.707	0.209	-0.176
-476.303	-200.000	-0.006	-0.050
-475.289	-103.210	0.359	-0.084
-474.274	160.240	-0.106	-0.146
-473.259	418.103	-0.124	0.262
-472.245	-179.901	-0.288	-0.006
-471.230	800.000	0.110	-0.347
-470.216	15.042	0.066	0.051
-469.201	5.462	0.197	0.144
-468.186	-33.473	0.397	-0.216
-467.172	258.457	0.029	-0.050
-466.157	239.764	0.173	-0.284
-465.143	800.000	0.084	-0.334
-464.128	129.871	-0.106	-0.134
-463.113	-41.395	0.112	0.057
-462.099	-167.569	-0.513	-0.020
-461.084	-200.000	-0.002	-0.241
-460.070	193.714	0.082	0.122
-459.055	69.734	-0.166	-0.169
-458.040	187.175	-0.060	0.088
-457.026	-67.561	-0.259	0.100
-456.011	-69.950	0.128	-0.048
-454.997	-35.616	-0.162	0.087
-453.982	-81.931	0.052	0.017
-452.968	235.533	0.178	0.291
-451.953	-116.734	0.211	0.038
-450.938	800.000	-0.056	-0.196
-449.924	-81.543	-0.272	0.088
-448.909	-200.000	-0.070	0.526
-447.895	-200.000	-0.042	-0.282
-446.880	-200.000	-0.035	0.192
-445.865	-112.415	-0.182	0.036
-444.851	-200.000	-0.034	0.237
-443.836	800.000	0.044	0.173
-442.822	800.000	-0.044	0.156
-441.807	-52.174	0.245	0.112
-440.792	-147.637	-0.138	0.011
-439.778	17.265	-0.105	-0.082
-438.763	175.766	-0.206	-0.294
-437.749	-72.094	-0.381	-0.140
-436.734	-19.924	-0.050	-0.030
-435.719	-83.779	0.101	-0.032
-434.705	103.292	-0.163	0.189
-433.690	31.759	-0.218	0.185
-432.676	17.886	0.151	0.119
-431.661	470.103	-0.078	-0.172
-430.646	115.267	-0.240	-0.289
-429.632	-30.890	0.043	-0.024
-428.617	20.245	0.187	-0.149
-427.603	-124.816	-0.266	0.041
-426.588	490.055	-0.082	-0.185
-425.573	-200.000	0.026	-0.160
-424.559	203.457	-0.089	-0.136
-423.544	92.109	0.208	-0.231
-422.530	80.875	0.264	-0.281
-421.515	50.909	-0.110	-0.103
-420.500	237.803	0.062	-0.102
-419.486	225.352	0.227	0.362
-418.471	-111.863	0.225	0.045
-417.457	169.414	-0.109	0.153
-416.442	-200.000	-0.012	-0.108
-415.428	291.951	-0.071	0.127
-414.413	-26.783	-0.128	0.074
-413.398	800.000	-0.122	-0.471
-412.384	32.796	-0.186	-0.159
-411.369	-200.000	0.062	0.294
-410.355	182.089	-0.100	-0.144
-409.340	-37.801	-0.270	-0.141
-408.325	187.355	0.079	-0.116
-407.311	-134.712	0.287	-0.034
-406.296	-200.000	0.005	-0.213
-405.282	185.390	0.108	0.158
-404.267	-157.763	-0.090	0.005
-403.252	-40.198	0.057	-0.029
-402.238	-144.242	-0.072	0.007
-401.223	30.417	0.081	-0.068
-400.209	-84.665	-0.195	0.061
-399.194	-132.171	0.203	0.026
-398.179	135.665	0.131	-0.167
-397.165	585.271	0.079	0.191
-396.150	321.489	-0.101	0.188
-395.136	-193.087	0.373	0.003
-394.121	134.598	-0.153	-0.196
-393.106	-48.565	0.472	-0.223
-392.092	-18.622	-0.279	-0.171
-391.077	25.115	0.033	-0.027
-390.063	60.904	0.173	-0.169
-389.048	800.000	0.043	0.141
-388.033	47.748	0.076	0.070
-387.019	-200.000	0.002	0.147
-386.004	-108.941	0.393	-0.083
-384.990	206.447	-0.200	-0.307
-383.975	-133.659	0.141	-0.017
-382.960	109.209	0.223	-0.263
-381.946	-134.723	0.376	0.045
-380.931	-125.246	-0.153	0.023
-379.917	-200.000	0.000	0.026
-378.902	-23.880	-0.050	0.030
-377.888	-178.998	-0.052	-0.001
-376.873	688.652	0.019	-0.048
-375.858	48.849	0.272	-0.251
-374.844	120.497	-0.191	0.233
-373.829	292.875	-0.125	0.224
-372.815	-60.249	-0.391	-0.164
-371.800	-200.000	0.057	-0.405
-370.785	144.718	0.078	-0.103
-369.771	800.000	-0.124	0.443
-368.756	671.762	-0.064	0.163
-367.742	403.904	0.259	-0.536
-366.727	-25.986	0.260	0.150
-365.712	328.564	-0.125	-0.237
-364.698	-15.887	0.207	-0.130
-363.683	-200.000	-0.082	0.370
-362.669	-167.281	0.120	0.005
-361.654	362.477	-0.112	-0.220
-360.639	104.351	0.155	-0.180
-359.625	433.579	0.048	-0.103
-358.610	-31.852	-0.248	-0.137
-357.596	-13.340	0.346	0.221
-356.581	699.649	0.055	-0.143
-355.566	800.000	-0.059	0.243
-354.552	-66.170	0.328	-0.129
-353.537	-11.200	0.079	0.051
-352.523	-187.488	-0.395	-0.005
-351.508	177.120	0.036	-0.051
-350.493	-138.689	0.149	-0.016
-349.479	800.000	-0.069	0.243
-348.464	73.311	0.230	-0.236
-347.450	126.016	0.194	-0.241
-346.435	269.275	0.046	-0.079
-345.420	-75.544	0.214	-0.075
-344.406	-117.047	0.196	0.035
-343.391	-90.972	0.216	-0.061
-342.377	426.794	-0.112	-0.238
-341.362	-200.000	0.041	-0.220
-340.348	-200.000	0.090	-0.455
-339.333	591.925	-0.066	-0.161
-338.318	-130.690	-0.347	-0.046
-337.304	291.977	0.171	0.305
-336.289	85.598	0.071	0.076
-335.275	34.636	0.132	0.113
-334.260	-200.000	0.047	-0.308
-333.245	800.000	0.082	0.251
-332.231	-65.842	-0.209	0.082
-331.216	-200.000	-0.022	0.134
-330.202	431.695	0.045	0.095
-329.187	-200.000	-0.009	0.038
-328.172	-78.251	0.185	0.062
-327.158	-5.467	0.294	-0.198
-326.143	80.454	-0.142	-0.150
-325.129	-176.259	0.224	-0.006
-324.114	50.655	-0.278	-0.258
-323.099	-35.980	0.133	0.071
-322.085	55.095	-0.165	-0.157
-321.070	112.278	0.267	-0.317
-320.056	-200.000	0.041	0.207
-319.041	-186.615	0.110	0.002
-318.026	129.697	-0.059	-0.075
-317.012	22.228	-0.019	0.015
-315.997	-200.000	-0.042	0.208
-314.983	-133.129	0.117	-0.015
-313.968	-121.208	0.240	-0.039
-312.953	800.000	0.060	-0.164
-311.939	-200.000	0.015	0.174
-310.924	682.078	-0.088	-0.225
-309.910	-19.482	-0.092	-0.056
-308.895	-28.843	0.118	0.066
-307.880	33.349	-0.207	-0.177
-306.866	-146.543	0.333	0.028
-305.851	245.649	0.127	0.210
-304.837	-88.160	0.335	0.099
-303.822	-136.586	0.110	-0.012
-302.807	-200.000	0.003	0.070
-301.793	-25.690	0.228	0.132
-300.778	-35.447	0.114	0.061
-299.764	-8.264	0.172	0.114
-298.749	800.000	-0.112	0.383
-297.735	-200.000	-0.031	0.274
-296.720	82.521	-0.137	0.146
-295.705	-69.907	-0.087	0.032
-294.691	469.489	-0.057	-0.126
-293.676	-142.333	0.235	0.023
-292.662	73.907	-0.076	-0.078
-291.647	-56.648	-0.224	0.097
-290.632	-106.735	-0.330	-0.072
-289.618	237.536	0.172	0.279
-288.603	799.743	0.092	-0.250
-287.589	-200.000	-0.048	-0.376
-286.574	50.245	0.080	0.074
-285.559	0.620	-0.224	-0.157
-284.545	-160.336	-0.110	0.006
-283.530	-24.427	0.104	0.061
-282.516	-136.327	-0.157	-0.018
-281.501	-200.000	0.008	0.061
-280.486	420.384	0.064	0.135
-279.472	142.205	0.103	0.134
-278.457	52.694	0.226	-0.211
-277.443	310.805	-0.062	0.114
-276.428	-83.204	0.119	-0.037
-275.413	-64.932	0.034	-0.014
-274.399	85.999	0.165	0.178
-273.384	76.625	0.188	0.196
-272.370	466.591	0.070	-0.153
-271.355	222.720	-0.124	-0.196
-270.340	425.806	0.140	-0.296
-269.326	-95.664	-0.296	0.078
-268.311	800.000	-0.010	0.042
-267.297	800.000	-0.036	-0.145
-266.282	800.000	0.058	-0.190
-265.267	-79.216	0.249	-0.083
-264.253	82.075	0.146	-0.155
-263.238	35.270	-0.106	-0.091
-262.224	76.327	0.179	0.186
-261.209	-21.205	-0.195	0.117
-260.195	-158.524	0.305	0.017
-259.180	12.431	-0.342	0.258
-258.165	-107.666	0.082	0.018
-257.151	-107.153	0.115	-0.025
-256.136	800.000	0.048	0.144
-255.122	-123.512	-0.046	-0.007
-254.107	552.827	-0.175	0.412
-253.092	110.185	-0.171	0.202
-252.078	-76.913	-0.111	-0.038
-251.063	-73.472	-0.033	0.012
-250.049	16.920	0.050	-0.039
-249.034	136.807	-0.155	-0.198
-248.019	-35.831	0.381	0.202
-247.005	-161.538	0.147	-0.007
-245.990	235.645	0.188	-0.304
-244.976	-200.000	-0.022	-0.345
-243.961	160.381	-0.127	0.173
-242.946	800.000	0.129	0.454
-241.932	378.543	-0.155	0.310
-240.917	800.000	0.033	0.094
-239.903	500.594	0.069	-0.157
-238.888	-200.000	-0.006	-0.151
-237.873	-29.862	0.141	0.079
-236.859	-200.000	-0.016	-0.162
-235.844	229.305	0.154	0.245
-234.830	800.000	-0.066	0.244
-233.815	-193.146	0.337	-0.003
-232.800	-200.000	-0.013	-0.067
-231.786	252.235	-0.131	-0.219
-230.771	37.874	0.108	-0.094
-229.757	-83.414	-0.341	0.107
-228.742	-119.783	0.058	-0.010
-227.727	-9.891	0.103	0.067
-226.713	241.055	0.110	-0.179
-225.698	731.697	-0.101	0.265
-224.684	-65.840	0.085	0.033
-223.669	-136.402	-0.274	0.031
-222.655	-96.384	-0.218	0.056
-221.640	385.912	0.088	-0.177
-220.625	-170.340	-0.428	0.015
-219.611	-200.000	0.004	0.257
-218.596	-200.000	0.014	0.312
-217.582	-144.775	0.377	-0.034
-216.567	133.152	0.244	0.308
-215.552	194.520	0.075	-0.111
-214.538	-200.000	0.025	0.310
-213.523	-143.755	0.064	-0.006
-212.509	-9.462	0.284	-0.185
-211.494	-81.746	0.127	-0.041
-210.479	192.617	-0.127	0.187
-209.465	-200.000	-0.035	0.392
-208.450	166.191	0.119	0.165
-207.436	-131.389	-0.092	0.012
-206.421	-27.289	0.140	0.079
-205.406	81.040	0.171	0.180
-204.392	-35.407	0.271	-0.144
-203.377	233.841	-0.162	-0.260
-202.363	252.775	0.124	0.206
-201.348	196.620	-0.211	-0.314
-200.333	-45.869	0.267	-0.129
-199.319	-10.247	-0.298	-0.193
-198.304	302.607	0.051	0.091
-197.290	48.470	-0.319	0.292
-196.275	36.082	0.067	-0.058
-195.260	-10.049	-0.349	0.227
-194.246	286.991	0.010	-0.018
-193.231	800.000	0.065	0.185
-192.217	669.033	-0.096	-0.243
-191.202	635.226	-0.105	0.261
-190.187	515.384	0.135	0.307
-189.173	-111.926	0.379	-0.075
-188.158	-200.000	0.024	-0.162
-187.144	301.524	0.096	0.174
-186.129	-18.204	0.123	0.075
-185.114	-55.001	0.250	-0.110
-184.100	127.428	-0.145	0.180
-183.085	800.000	0.089	0.301
-182.071	75.442	0.208	0.214
-181.056	800.000	-0.174	0.623
-180.042	209.726	0.145	0.222
-179.027	380.859	0.082	-0.165
-178.012	329.877	0.149	0.279
-176.998	-179.345	-0.291	0.006
-175.983	183.620	-0.062	-0.089
-174.969	800.000	0.100	-0.322
-173.954	-7.780	0.156	0.103
-172.939	-200.000	-0.047	-0.393
-171.925	40.039	0.345	0.302
-170.910	-88.478	-0.080	-0.023
-169.896	458.010	-0.098	-0.213
-168.881	608.803	-0.012	0.028
-167.866	253.044	-0.061	0.102
-166.852	-127.357	-0.391	0.056
-165.837	259.737	-0.114	0.191
-164.823	22.309	-0.100	0.080
-163.808	800.000	0.067	0.257
-162.793	800.000	0.026	0.103
-161.779	-200.000	-0.026	-0.159
-160.764	256.275	0.022	-0.038
-159.750	-133.737	0.171	0.021
-158.735	-7.595	-0.082	0.054
-157.720	276.821	-0.124	0.216
-156.706	-58.671	0.358	0.151
-155.691	55.153	-0.255	-0.240
-154.677	346.399	-0.168	0.323
-153.662	-171.027	-0.407	-0.014
-152.647	-7.243	-0.093	-0.062
-151.633	514.494	0.167	-0.380
-150.618	-171.062	-0.190	0.006
-149.604	212.795	0.096	-0.147
-148.589	114.163	-0.061	-0.072
-147.574	-40.926	-0.122	0.061
-146.560	-122.986	-0.149	-0.023
-145.545	800.000	-0.105	0.308
-144.531	-27.676	0.228	-0.129
-143.516	143.190	0.174	0.225
-142.502	-138.586	0.246	0.026
-141.487	-20.278	-0.118	0.071
-140.472	560.973	-0.048	-0.112
-139.458	-200.000	0.091	0.000
-138.443	-2.651	-0.213	-0.145
-137.429	254.893	0.051	-0.086
-136.414	182.980	-0.207	0.298
-135.399	-78.528	0.360	0.120
-134.385	-200.000	0.007	-0.091
-133.370	-200.000	0.014	0.169
-132.356	-69.343	0.372	-0.139
-131.341	787.821	-0.068	0.183
-130.326	-52.442	-0.202	0.091
-129.312	-128.708	0.317	-0.044
-128.297	-99.653	0.122	-0.030
-127.283	-163.732	-0.178	0.008
-126.268	-11.016	0.075	-0.048
-125.253	-169.535	-0.130	0.005
-124.239	337.496	0.127	0.241
-123.224	11.904	0.148	0.111
-122.210	-200.000	-0.021	0.436
-121.195	-37.703	0.319	-0.166
-120.180	-54.109	0.231	0.102
