DTS Sentinel unit serial number:	SN413079Multiplexer serial number:	ORYXHardware model number:	OX4-SRSoftware version number:	ORYX F/W v4.00 Oryx Data Collector v3.7.2.0data status	okinstallation	princeton_trtdifferential loss correction	single-endedforward channel	channel 2reverse channel	N/Adate	2019/09/17time	02:31:35forward acquisition time	60.00reverse acquisition time	0.00gamma	496.2192k internal	0.2327k external	0.2327temperature offset calibration	0.9973default loss term (dB/km)	0.3790temperature slope calibration	1.0000multiplexer offset coefficient	1.0000multiplexer slope coefficient	1.0000fibre end	0.00T internal ref (°C)	29.81T ext. ref 1 (°C)	0.12T ext. ref 2 (°C)	24.77length (m)	temperature (°C)	Stokes	anti-Stokes-747.200	-63.250	-0.105	-0.044
-746.185	137.763	-0.320	0.423
-745.171	121.164	0.139	0.174
-744.156	-98.814	0.040	0.010
-743.142	-93.909	0.223	-0.062
-742.127	-18.419	-0.246	0.155
-741.112	800.000	-0.041	0.137
-740.098	518.111	-0.040	0.094
-739.083	-93.701	-0.075	0.021
-738.069	5.501	0.068	0.051
-737.054	28.868	0.309	0.264
-736.039	23.654	-0.097	-0.081
-735.025	142.987	-0.041	-0.055
-734.010	-38.620	-0.396	-0.211
-732.996	403.320	0.091	-0.194
-731.981	9.311	0.145	0.110
-730.966	691.271	-0.072	-0.190
-729.952	-36.312	-0.077	0.042
-728.937	800.000	0.076	-0.303
-727.923	177.944	-0.183	0.269
-726.908	-77.595	-0.190	-0.066
-725.894	800.000	0.038	0.166
-724.879	-128.769	0.089	-0.013
-723.864	550.184	0.141	-0.340
-722.850	-200.000	0.017	-0.207
-721.835	32.374	-0.050	0.043
-720.821	-16.870	0.230	-0.147
-719.806	-111.269	-0.250	0.052
-718.791	-200.000	0.001	-0.170
-717.777	800.000	0.011	-0.040
-716.762	9.250	-0.170	-0.129
-715.748	-200.000	0.014	-0.076
-714.733	-200.000	0.017	-0.329
-713.718	-13.981	0.111	0.072
-712.704	10.200	-0.302	-0.231
-711.689	-200.000	-0.035	0.335
-710.675	-71.326	0.072	-0.027
-709.660	736.867	0.039	0.105
-708.645	800.000	0.052	-0.149
-707.631	-82.109	0.335	-0.110
-706.616	800.000	0.094	0.305
-705.602	-56.059	0.146	-0.065
-704.587	133.810	0.110	0.144
-703.572	-97.612	0.092	-0.024
-702.558	-101.414	0.346	0.085
-701.543	-200.000	-0.038	-0.289
-700.529	-200.000	0.016	0.266
-699.514	-150.949	0.187	0.014
-698.499	103.688	0.219	-0.259
-697.485	-28.785	0.311	0.180
-696.470	-159.932	0.272	-0.015
-695.456	-200.000	0.014	-0.122
-694.441	800.000	-0.118	-0.334
-693.426	-101.633	0.159	-0.039
-692.412	-200.000	-0.055	-0.252
-691.397	-30.090	-0.314	-0.180
-690.383	800.000	0.019	0.059
-689.368	2.303	-0.042	-0.030
-688.354	-50.964	-0.208	0.098
-687.339	77.046	-0.089	-0.095
-686.324	43.634	-0.131	0.121
-685.310	-36.874	0.179	0.096
-684.295	-156.015	0.091	0.006
-683.281	108.193	-0.175	-0.210
-682.266	311.438	-0.139	0.262
-681.251	-103.350	-0.289	0.068
-680.237	56.989	-0.049	0.048
-679.222	146.866	0.147	0.199
-678.208	-70.018	0.349	0.134
-677.193	-200.000	-0.070	0.491
-676.178	-91.127	-0.144	-0.042
-675.164	353.659	0.012	-0.025
-674.149	-20.334	0.195	0.121
-673.135	160.885	0.157	0.220
-672.120	63.350	-0.171	-0.172
-671.105	-131.144	0.173	0.023
-670.091	-111.883	0.104	0.021
-669.076	-22.687	0.217	-0.132
-668.062	-23.299	-0.023	0.014
-667.047	-200.000	-0.033	-0.291
-666.032	-138.553	0.046	0.005
-665.018	196.297	0.103	0.157
-664.003	117.280	0.129	-0.159
-662.989	22.835	0.140	-0.115
-661.974	-200.000	0.003	-0.017
-660.959	106.803	-0.222	-0.264
-659.945	66.305	0.147	-0.150
-658.930	367.479	-0.037	0.075
-657.916	-83.192	-0.157	-0.051
-656.901	-9.895	-0.263	-0.175
-655.886	800.000	-0.052	-0.197
-654.872	-28.093	-0.206	0.120
-653.857	1.411	0.219	0.158
-652.843	-71.438	-0.245	-0.092
-651.828	-200.000	0.004	-0.044
-650.814	238.307	0.225	-0.375
-649.799	-110.449	0.050	-0.011
-648.784	-27.958	0.108	-0.063
-647.770	10.835	-0.142	0.109
-646.755	180.844	-0.084	0.124
-645.741	800.000	0.037	-0.124
-644.726	123.894	-0.114	0.144
-643.711	-200.000	0.059	0.417
-642.697	-28.032	0.050	-0.029
-641.682	-200.000	-0.037	0.191
-640.668	800.000	0.094	-0.319
-639.653	124.120	0.092	0.116
-638.638	800.000	0.072	-0.254
-637.624	181.047	-0.282	-0.416
-636.609	-123.165	-0.108	-0.017
-635.595	-146.814	-0.207	0.018
-634.580	-200.000	0.059	0.293
-633.565	58.708	0.229	-0.226
-632.551	116.956	-0.042	-0.052
-631.536	14.482	0.163	0.127
-630.522	319.685	0.080	0.153
-629.507	82.896	0.108	-0.118
-628.492	77.425	-0.204	-0.217
-627.478	-14.048	-0.161	-0.104
-626.463	-200.000	0.020	0.339
-625.449	171.644	0.142	-0.205
-624.434	-158.121	-0.076	-0.004
-623.419	111.950	0.089	-0.108
-622.405	-19.910	0.236	-0.146
-621.390	-34.442	0.305	-0.168
-620.376	-91.919	-0.173	0.049
-619.361	-23.703	-0.207	0.125
-618.346	800.000	0.028	0.083
-617.332	-187.482	-0.154	-0.002
-616.317	-110.554	0.197	-0.041
-615.303	208.811	-0.165	-0.259
-614.288	-33.916	-0.210	0.116
-613.273	60.948	-0.141	0.140
-612.259	-87.794	-0.178	0.054
-611.244	-50.582	-0.187	-0.088
-610.230	-96.366	0.297	-0.079
-609.215	181.940	-0.134	0.197
-608.201	-151.384	0.245	-0.018
-607.186	800.000	0.074	0.272
-606.171	264.376	0.107	0.186
-605.157	239.654	-0.179	-0.299
-604.142	-200.000	0.037	0.280
-603.128	79.362	-0.177	-0.190
-602.113	-200.000	-0.010	0.064
-601.098	-165.884	-0.258	-0.011
-600.084	800.000	-0.075	-0.303
-599.069	374.570	0.079	-0.160
-598.055	-65.767	-0.132	0.053
-597.040	800.000	-0.080	-0.243
-596.025	-106.998	0.134	-0.030
-595.011	-28.557	0.127	0.073
-593.996	102.330	0.027	-0.032
-592.982	-6.113	0.419	-0.287
-591.967	331.735	-0.058	-0.112
-590.952	479.913	0.081	0.185
-589.938	800.000	-0.055	0.197
-588.923	-80.648	0.253	0.084
-587.909	-24.271	-0.213	0.127
-586.894	70.219	-0.257	-0.266
-585.879	80.503	-0.237	0.255
-584.865	133.568	0.143	0.185
-583.850	-200.000	0.020	-0.169
-582.836	153.637	0.170	0.233
-581.821	-54.232	-0.251	-0.114
-580.806	40.442	-0.175	0.158
-579.792	-200.000	-0.010	-0.052
-578.777	800.000	0.069	0.226
-577.763	-136.951	-0.295	-0.034
-576.748	81.685	0.121	0.131
-575.733	103.548	0.107	0.126
-574.719	125.085	0.121	0.152
-573.704	-34.212	-0.284	0.156
-572.690	-200.000	-0.018	0.157
-571.675	31.690	0.134	-0.116
-570.661	800.000	0.007	-0.028
-569.646	-200.000	-0.014	0.091
-568.631	-139.192	0.059	0.006
-567.617	-200.000	-0.018	-0.136
-566.602	-11.856	0.110	-0.072
-565.588	-200.000	-0.018	0.200
-564.573	-107.397	0.290	-0.064
-563.558	79.611	0.129	0.139
-562.544	605.331	0.069	-0.172
-561.529	-200.000	0.057	-0.405
-560.515	-160.810	-0.182	0.010
-559.500	-200.000	0.009	0.108
-558.485	483.590	0.055	-0.125
-557.471	-50.248	-0.138	-0.065
-556.456	245.739	0.130	0.219
-555.442	23.878	0.171	0.141
-554.427	-150.747	0.300	-0.023
-553.412	173.213	0.192	-0.277
-552.398	88.276	-0.224	0.249
-551.383	-90.156	-0.155	0.045
-550.369	-200.000	-0.008	-0.043
-549.354	-8.024	-0.241	-0.163
-548.339	143.736	-0.118	0.157
-547.325	-200.000	0.003	0.149
-546.310	41.104	-0.261	0.236
-545.296	229.258	-0.052	-0.085
-544.281	-142.023	-0.237	0.024
-543.266	-23.506	0.183	-0.110
-542.252	-82.733	-0.342	0.111
-541.237	-118.335	-0.324	0.058
-540.223	-102.165	0.129	-0.031
-539.208	17.438	0.101	0.080
-538.193	-25.967	-0.466	-0.274
-537.179	-68.532	0.269	-0.104
-536.164	95.611	-0.159	-0.182
-535.150	-35.014	-0.290	0.158
-534.135	198.504	-0.151	-0.231
-533.121	61.816	-0.164	0.163
-532.106	-200.000	0.003	-0.164
-531.091	309.892	0.088	0.165
-530.077	-131.077	-0.210	0.028
-529.062	-100.088	-0.172	0.043
-528.048	46.466	-0.234	-0.217
-527.033	36.454	0.117	-0.104
-526.018	-200.000	-0.026	-0.238
-525.004	-42.519	-0.136	0.069
-523.989	800.000	0.026	0.077
-522.975	-79.760	0.050	0.017
-521.960	148.152	-0.067	0.091
-520.945	-30.283	-0.269	-0.153
-519.931	167.803	0.188	-0.266
-518.916	-120.559	-0.399	0.068
-517.902	335.663	-0.084	-0.163
-516.887	-84.480	0.133	0.042
-515.872	-143.915	-0.063	-0.006
-514.858	-200.000	0.035	-0.265
-513.843	-4.584	0.208	0.144
-512.829	-200.000	0.003	0.150
-511.814	272.647	0.147	-0.260
-510.799	144.404	-0.131	0.174
-509.785	521.008	-0.030	0.071
-508.770	-91.136	0.313	0.090
-507.756	800.000	0.048	-0.190
-506.741	-51.837	-0.188	0.087
-505.726	-200.000	-0.001	0.198
-504.712	1.317	-0.224	0.160
-503.697	-11.914	0.204	0.134
-502.683	-74.422	-0.388	-0.140
-501.668	-3.865	0.146	-0.101
-500.653	138.916	0.227	0.298
-499.639	102.273	0.229	0.267
-498.624	-115.692	0.149	-0.028
-497.610	-17.077	-0.167	-0.105
-496.595	234.892	-0.046	0.075
-495.581	-200.000	-0.017	-0.227
-494.566	-200.000	-0.062	-0.332
-493.551	-200.000	0.002	0.036
-492.537	-200.000	-0.048	0.252
-491.522	800.000	-0.124	0.459
-490.508	-126.933	0.252	0.037
-489.493	103.472	-0.098	0.115
-488.478	796.804	0.083	-0.229
-487.464	380.735	0.053	-0.109
-486.449	58.097	0.103	-0.101
-485.435	-125.922	0.258	0.039
-484.420	311.591	0.158	0.296
-483.405	322.790	0.050	-0.094
-482.391	10.817	-0.232	-0.177
-481.376	-200.000	-0.002	0.367
-480.362	27.386	0.283	0.238
-479.347	-200.000	0.005	0.249
-478.332	800.000	-0.161	-0.529
-477.318	116.979	0.104	0.127
-476.303	-57.197	-0.249	0.109
-475.289	-144.208	0.298	0.028
-474.274	-200.000	-0.032	0.261
-473.259	-52.191	0.112	-0.052
-472.245	-152.381	0.131	-0.009
-471.230	376.215	0.042	0.086
-470.216	-190.959	0.493	0.005
-469.201	-133.860	-0.205	0.025
-468.186	-111.222	0.190	0.039
-467.172	-135.215	-0.138	0.016
-466.157	-68.410	0.086	-0.033
-465.143	14.338	-0.216	0.168
-464.128	-115.241	0.116	0.022
-463.113	391.786	-0.058	0.120
-462.099	-17.717	0.131	0.082
-461.084	-0.462	-0.135	0.096
-460.070	-200.000	-0.010	-0.130
-459.055	-100.716	-0.355	0.087
-458.040	64.646	0.407	0.410
-457.026	0.414	-0.184	-0.131
-456.011	-65.469	-0.297	0.119
-454.997	-1.699	-0.208	-0.146
-453.982	-58.675	-0.216	-0.093
-452.968	-80.634	-0.084	-0.028
-451.953	31.796	0.160	0.137
-450.938	-94.609	0.031	-0.008
-449.924	-104.193	0.093	0.021
-448.909	18.992	0.374	-0.299
-447.895	41.232	-0.073	0.065
-446.880	-129.577	-0.273	-0.038
-445.865	22.969	0.112	-0.092
-444.851	-58.761	0.332	-0.143
-443.836	-140.855	-0.378	-0.039
-442.822	-200.000	-0.017	-0.269
-441.807	10.970	-0.127	-0.097
-440.792	-10.279	-0.177	-0.117
-439.778	-135.923	0.203	-0.024
-438.763	38.391	-0.120	-0.106
-437.749	-126.306	0.220	0.033
-436.734	60.270	0.086	-0.085
-435.719	-150.337	0.067	0.005
-434.705	316.510	-0.085	0.160
-433.690	68.150	-0.297	0.303
-432.676	134.042	0.090	-0.116
-431.661	92.165	-0.091	0.102
-430.646	7.269	-0.229	0.171
-429.632	-200.000	-0.007	-0.422
-428.617	800.000	0.099	-0.319
-427.603	-105.649	0.147	0.033
-426.588	-1.000	-0.115	0.081
-425.573	351.267	-0.102	-0.201
-424.559	164.479	0.146	-0.205
-423.544	244.496	0.138	-0.231
-422.530	65.828	-0.071	-0.072
-421.515	-88.635	-0.035	0.010
-420.500	-55.602	-0.185	-0.083
-419.486	-156.462	0.229	0.014
-418.471	182.320	0.159	-0.234
-417.457	-100.700	0.115	0.028
-416.442	350.924	-0.082	0.162
-415.428	-40.619	-0.312	0.161
-414.413	-25.119	0.251	0.148
-413.398	-43.422	-0.185	0.093
-412.384	-200.000	0.096	0.418
-411.369	109.464	0.106	0.126
-410.355	160.842	0.146	-0.202
-409.340	-200.000	0.004	-0.381
-408.325	800.000	0.007	0.024
-407.311	-200.000	-0.016	0.082
-406.296	800.000	0.149	0.558
-405.282	-9.817	0.064	-0.043
-404.267	-200.000	-0.017	-0.207
-403.252	-142.990	0.091	-0.009
-402.238	278.411	-0.085	0.151
-401.223	-72.064	-0.132	0.049
-400.209	100.428	0.188	0.217
-399.194	157.435	-0.274	0.378
-398.179	-130.881	0.108	0.014
-397.165	-23.191	0.084	0.050
-396.150	88.575	-0.143	-0.158
-395.136	229.327	0.143	0.232
-394.121	-41.391	-0.205	0.105
-393.106	-36.856	-0.076	0.040
-392.092	-200.000	-0.046	-0.225
-391.077	-121.609	-0.276	-0.046
-390.063	242.201	0.124	-0.207
-389.048	-168.873	0.394	-0.015
-388.033	21.861	0.142	-0.115
-387.019	140.439	0.137	-0.180
-386.004	610.827	0.104	-0.258
-384.990	-16.397	-0.518	-0.327
-383.975	800.000	-0.079	0.247
-382.960	324.451	0.076	-0.145
-381.946	7.449	0.267	0.198
-380.931	-59.835	0.201	0.086
-379.917	47.235	-0.260	-0.240
-378.902	347.371	-0.112	-0.218
-377.888	-180.004	0.400	0.008
-376.873	-200.000	0.006	0.186
-375.858	328.538	0.060	-0.114
-374.844	487.531	0.071	-0.160
-373.829	-12.854	-0.091	0.059
-372.815	341.021	0.134	-0.259
-371.800	168.459	-0.240	0.340
-370.785	174.578	-0.225	-0.324
-369.771	800.000	0.107	-0.320
-368.756	-64.543	0.391	0.158
-367.742	-74.173	-0.163	0.059
-366.727	8.734	0.098	0.073
-365.712	-33.052	0.162	-0.089
-364.698	-184.186	-0.228	-0.004
-363.683	-200.000	-0.005	0.167
-362.669	55.858	0.077	0.074
-361.654	-101.027	-0.181	0.044
-360.639	65.661	-0.111	0.112
-359.625	512.100	-0.091	-0.210
-358.610	-36.080	-0.202	-0.108
-357.596	800.000	0.053	-0.183
-356.581	800.000	-0.010	-0.030
-355.566	800.000	-0.022	-0.080
-354.552	164.493	-0.153	0.214
-353.537	-72.969	0.421	0.154
-352.523	63.088	0.336	-0.334
-351.508	17.017	-0.088	-0.069
-350.493	-48.775	0.064	-0.030
-349.479	170.640	-0.283	-0.402
-348.464	-171.819	-0.044	0.001
-347.450	-73.952	0.338	0.122
-346.435	-168.579	0.276	-0.010
-345.420	800.000	-0.042	-0.163
-344.406	-189.592	-0.345	0.004
-343.391	-4.921	0.159	-0.109
-342.377	800.000	0.036	0.152
-341.362	377.055	0.072	0.146
-340.348	-88.235	0.324	0.096
-339.333	66.911	0.106	-0.107
-338.318	58.633	-0.107	0.105
-337.304	-200.000	0.079	-0.486
-336.289	800.000	0.112	-0.458
-335.275	-200.000	-0.022	0.226
-334.260	-39.699	0.215	-0.112
-333.245	97.111	-0.140	-0.159
-332.231	-200.000	-0.003	0.035
-331.216	-127.183	0.245	-0.036
-330.202	169.611	-0.182	0.258
-329.187	800.000	0.073	0.255
-328.172	135.724	0.246	0.318
-327.158	-200.000	0.004	-0.220
-326.143	-72.886	0.310	-0.113
-325.129	-130.814	-0.159	-0.021
-324.114	-112.481	0.381	-0.076
-323.099	-200.000	0.032	0.217
-322.085	-200.000	0.036	-0.292
-321.070	-24.028	0.097	-0.058
-320.056	-10.895	0.184	0.121
-319.041	184.076	0.090	-0.132
-318.026	-45.004	-0.237	-0.117
-317.012	-107.629	-0.189	0.041
-315.997	110.046	-0.025	-0.030
-314.983	-200.000	0.097	-0.574
-313.968	186.907	-0.097	-0.144
-312.953	-113.426	-0.214	-0.042
-311.939	-124.362	-0.065	-0.010
-310.924	800.000	0.031	-0.109
-309.910	800.000	-0.098	-0.410
-308.895	-141.056	0.194	-0.020
-307.880	800.000	0.077	-0.215
-306.866	800.000	0.054	-0.176
-305.851	-68.571	0.146	-0.056
-304.837	-200.000	-0.015	0.219
-303.822	-114.925	0.244	-0.046
-302.807	-38.891	-0.159	-0.083
-301.793	-57.776	-0.151	-0.066
-300.778	102.644	0.029	0.034
-299.764	769.004	-0.073	0.198
-298.749	265.283	0.108	0.186
-297.735	13.060	-0.243	-0.187
-296.720	-142.310	-0.218	-0.021
-295.705	170.019	0.143	0.203
-294.691	-200.000	0.059	0.441
-293.676	211.428	0.140	0.218
-292.662	-200.000	0.009	0.275
-291.647	257.510	0.126	0.214
-290.632	-97.997	0.240	-0.061
-289.618	87.630	-0.120	-0.131
-288.603	362.440	-0.124	-0.246
-287.589	-131.247	-0.110	0.014
-286.574	-108.177	-0.172	-0.037
-285.559	-16.036	-0.298	0.188
-284.545	38.679	0.288	0.255
-283.530	21.309	0.096	-0.077
-282.516	77.725	-0.142	0.150
-281.501	-75.175	0.199	0.070
-280.486	32.202	0.141	-0.120
-279.472	-47.384	-0.266	0.128
-278.457	-200.000	0.001	-0.094
-277.443	-200.000	0.001	0.318
-276.428	748.614	0.084	0.225
-275.413	-66.851	-0.054	-0.021
-274.399	36.084	0.365	0.318
-273.384	-200.000	0.005	-0.034
-272.370	-153.558	-0.243	-0.017
-271.355	-84.502	-0.159	-0.050
-270.340	35.421	0.061	0.053
-269.326	-72.731	-0.163	0.059
-268.311	-88.779	0.373	0.110
-267.297	-8.625	0.416	0.276
-266.282	800.000	0.091	-0.267
-265.267	301.073	-0.114	-0.208
-264.253	72.622	-0.020	-0.021
-263.238	-32.712	0.183	0.101
-262.224	-97.092	-0.243	0.063
-261.209	135.352	-0.220	-0.282
-260.195	42.848	0.112	0.101
-259.180	0.852	-0.087	0.061
-258.165	-200.000	-0.002	-0.198
-257.151	800.000	-0.093	-0.348
-256.136	-156.825	0.168	0.010
-255.122	-5.162	0.099	0.068
-254.107	-19.989	-0.153	0.093
-253.092	-28.346	-0.237	-0.135
-252.078	-41.044	-0.247	-0.126
-251.063	53.517	-0.210	-0.200
-250.049	184.112	-0.049	-0.071
-249.034	54.593	-0.085	-0.081
-248.019	271.456	-0.176	-0.307
-247.005	104.830	0.242	0.283
-245.990	112.732	0.180	-0.215
-244.976	-33.359	0.173	0.095
-243.961	-33.615	-0.220	0.120
-242.946	-200.000	0.026	-0.114
-241.932	57.272	-0.225	0.218
-240.917	24.921	-0.374	-0.307
-239.903	26.586	-0.312	-0.258
-238.888	-26.170	0.147	-0.085
-237.873	800.000	-0.001	-0.003
-236.859	-31.069	0.141	-0.079
-235.844	-160.743	0.096	0.005
-234.830	-44.418	-0.404	0.200
-233.815	12.349	0.109	0.083
-232.800	800.000	-0.030	0.117
-231.786	-54.080	-0.253	0.114
-230.771	-20.998	-0.135	-0.082
-229.757	27.424	0.009	0.008
-228.742	-51.199	0.197	0.091
-227.727	-96.252	0.254	0.067
-226.713	-140.851	-0.291	-0.030
-225.698	194.982	0.105	-0.157
-224.684	-113.780	0.327	-0.063
-223.669	-91.874	-0.231	0.065
-222.655	-200.000	0.043	0.433
-221.640	158.570	-0.117	-0.160
-220.625	-200.000	0.004	0.208
-219.611	-182.769	-0.308	0.005
-218.596	-200.000	0.027	0.164
-217.582	-80.351	-0.432	0.143
-216.567	13.463	0.174	-0.133
-215.552	164.763	-0.170	0.237
-214.538	-24.665	0.244	0.143
-213.523	800.000	0.127	0.373
-212.509	100.449	-0.218	-0.250
-211.494	-200.000	0.042	-0.330
-210.479	17.838	0.133	0.104
-209.465	240.923	0.232	0.383
-208.450	158.908	-0.165	-0.226
-207.436	437.389	0.185	-0.398
-206.421	-120.326	0.287	-0.048
-205.406	321.005	-0.187	0.351
-204.392	183.876	-0.093	-0.136
-203.377	-114.669	0.028	-0.005
-202.363	800.000	0.058	0.224
-201.348	800.000	-0.008	-0.021
-200.333	-200.000	-0.026	0.294
-199.319	-33.969	0.321	0.174
-198.304	272.691	0.234	-0.408
-197.290	-200.000	0.073	-0.341
-196.275	800.000	-0.032	-0.120
-195.260	-64.954	0.017	0.007
-194.246	36.540	0.136	-0.119
-193.231	259.588	0.136	-0.231
-192.217	-27.927	-0.047	0.027
-191.202	-170.496	0.134	-0.005
-190.187	800.000	0.047	0.168
-189.173	754.276	0.191	0.508
-188.158	311.127	-0.059	-0.109
-187.144	-69.494	-0.037	-0.014
-186.129	800.000	-0.077	0.287
-185.114	-189.638	-0.431	-0.005
-184.100	140.652	0.136	-0.178
-183.085	-37.755	0.227	-0.119
-182.071	-51.088	-0.136	-0.063
-181.056	75.332	0.219	0.228
-180.042	-98.620	0.188	-0.047
-179.027	-13.783	-0.125	0.080
-178.012	800.000	-0.064	0.258
-176.998	-200.000	0.030	0.144
-175.983	-77.973	-0.314	0.107
-174.969	46.425	-0.105	0.096
-173.954	139.844	-0.098	-0.128
-172.939	74.498	0.108	0.112
-171.925	240.153	0.109	-0.178
-170.910	63.873	-0.155	-0.154
-169.896	135.262	0.150	-0.193
-168.881	-142.475	-0.467	0.045
-167.866	656.949	-0.059	-0.151
-166.852	800.000	-0.065	0.239
-165.837	-135.486	-0.080	0.009
-164.823	-130.854	0.090	-0.012
-163.808	508.922	0.082	-0.188
-162.793	-76.098	0.341	0.119
-161.779	696.715	0.063	-0.163
-160.764	351.864	0.021	-0.042
-159.750	45.519	0.127	0.115
-158.735	18.211	0.254	0.200
-157.720	-184.759	-0.172	-0.003
-156.706	3.073	0.188	-0.134
-155.691	223.240	-0.107	-0.170
-154.677	-200.000	-0.035	0.215
-153.662	81.739	-0.267	0.285
-152.647	-200.000	-0.037	0.188
-151.633	-70.007	0.389	0.146
-150.618	-200.000	0.032	-0.288
-149.604	90.038	0.227	-0.250
-148.589	-133.068	-0.192	-0.024
-147.574	-140.039	0.285	-0.030
-146.560	2.418	0.078	-0.056
-145.545	324.113	-0.176	0.332
-144.531	82.311	-0.107	-0.114
-143.516	800.000	-0.145	0.441
-142.502	-185.141	-0.299	-0.005
-141.487	88.586	0.341	0.373
-140.472	-54.836	-0.305	-0.136
-139.458	25.504	0.095	0.078
-138.443	124.395	0.145	0.179
-137.429	-92.727	-0.254	-0.070
-136.414	800.000	-0.036	0.137
-135.399	-159.759	-0.155	0.008
-134.385	94.563	0.063	-0.071
-133.370	-142.922	0.496	0.047
-132.356	40.714	-0.121	0.107
-131.341	73.397	-0.076	0.079
-130.326	35.030	0.061	0.052
-129.312	-113.574	0.197	0.038
-128.297	-75.274	-0.294	0.103
-127.283	46.520	-0.327	0.299
-126.268	75.103	0.166	0.172
-125.253	-76.473	-0.248	0.086
-124.239	-15.074	-0.055	-0.035
-123.224	-200.000	-0.005	0.145
-122.210	-142.462	-0.365	0.035
-121.195	188.588	0.132	0.194
-120.180	-116.879	-0.014	0.003
