DTS Sentinel unit serial number:	SN413079Multiplexer serial number:	ORYXHardware model number:	OX4-SRSoftware version number:	ORYX F/W v4.00 Oryx Data Collector v3.7.2.0data status	okinstallation	princeton_trtdifferential loss correction	single-endedforward channel	channel 2reverse channel	N/Adate	2019/09/14time	16:47:34forward acquisition time	60.00reverse acquisition time	0.00gamma	496.2192k internal	0.2306k external	0.2306temperature offset calibration	1.0120default loss term (dB/km)	0.3790temperature slope calibration	1.0000multiplexer offset coefficient	1.0000multiplexer slope coefficient	1.0000fibre end	0.00T internal ref (°C)	38.00T ext. ref 1 (°C)	5.00T ext. ref 2 (°C)	33.82length (m)	temperature (°C)	Stokes	anti-Stokes-747.200	800.000	-0.125	0.398
-746.185	-13.453	0.163	0.108
-745.171	54.736	0.219	-0.215
-744.156	-38.925	0.025	-0.013
-743.142	24.092	0.041	0.034
-742.127	-169.747	-0.113	-0.004
-741.112	-99.905	0.261	0.066
-740.098	-38.810	0.117	0.063
-739.083	-71.011	0.262	-0.100
-738.069	-72.780	-0.246	0.092
-737.054	-11.222	-0.358	-0.240
-736.039	-116.479	-0.326	-0.061
-735.025	244.329	0.050	0.085
-734.010	800.000	-0.021	0.061
-732.996	-66.157	-0.077	0.031
-731.981	24.578	0.369	-0.311
-730.966	-46.812	-0.431	-0.214
-729.952	-200.000	-0.005	-0.034
-728.937	270.682	-0.131	-0.234
-727.923	151.368	-0.063	0.087
-726.908	6.471	-0.283	-0.213
-725.894	-89.509	-0.452	-0.135
-724.879	-185.759	0.073	-0.001
-723.864	-70.826	0.126	-0.048
-722.850	800.000	0.036	-0.150
-721.835	674.967	0.042	-0.111
-720.821	-128.372	-0.253	0.037
-719.806	78.033	0.112	0.121
-718.791	-109.474	-0.442	-0.095
-717.777	-127.220	0.062	-0.009
-716.762	193.539	-0.104	-0.161
-715.748	-98.825	-0.356	0.092
-714.733	-26.570	0.295	-0.175
-713.718	788.630	-0.036	0.099
-712.704	282.731	0.120	0.218
-711.689	11.102	-0.256	0.199
-710.675	-20.316	-0.156	0.098
-709.660	20.271	-0.597	-0.490
-708.645	-43.198	-0.159	-0.082
-707.631	-32.158	0.438	0.249
-706.616	-28.819	-0.101	-0.059
-705.602	-71.597	0.429	-0.163
-704.587	-71.041	0.128	-0.049
-703.572	-188.351	0.372	0.005
-702.558	-85.865	0.088	-0.028
-701.543	-28.680	-0.098	-0.057
-700.529	26.775	0.204	-0.174
-699.514	-76.691	0.078	0.028
-698.499	-168.628	0.309	0.012
-697.485	217.185	-0.107	0.172
-696.470	-179.847	0.085	0.002
-695.456	606.632	0.052	-0.132
-694.441	22.746	-0.069	0.057
-693.426	260.937	0.185	0.325
-692.412	-200.000	0.030	-0.201
-691.397	-181.409	0.187	0.004
-690.383	800.000	0.039	-0.150
-689.368	-200.000	0.018	-0.186
-688.354	-43.695	-0.121	-0.062
-687.339	470.365	0.099	-0.225
-686.324	-78.305	0.110	0.038
-685.310	800.000	0.080	-0.302
-684.295	-200.000	0.001	0.033
-683.281	-68.082	-0.078	-0.031
-682.266	18.934	0.089	0.073
-681.251	-73.028	0.127	-0.047
-680.237	251.548	-0.145	-0.250
-679.222	290.920	-0.108	0.199
-678.208	-200.000	0.057	0.272
-677.193	324.635	0.057	0.110
-676.178	-6.562	0.213	-0.147
-675.164	56.823	0.111	-0.110
-674.149	429.629	-0.123	-0.269
-673.135	668.871	-0.047	-0.123
-672.120	362.074	-0.061	-0.124
-671.105	-200.000	0.017	0.116
-670.091	42.276	-0.060	-0.055
-669.076	-200.000	0.020	0.432
-668.062	-175.854	0.304	0.008
-667.047	65.038	-0.222	-0.227
-666.032	616.802	-0.083	-0.212
-665.018	77.964	-0.131	-0.141
-664.003	-48.795	-0.110	0.054
-662.989	-118.009	0.146	0.026
-661.974	285.522	0.105	0.193
-660.959	373.483	0.117	0.242
-659.945	497.239	0.035	0.082
-658.930	352.928	0.220	-0.442
-657.916	-180.189	-0.559	-0.012
-656.901	283.214	-0.124	-0.227
-655.886	2.055	-0.206	-0.151
-654.872	-127.655	0.297	-0.044
-653.857	16.763	-0.140	0.113
-652.843	326.353	0.143	-0.277
-651.828	158.708	0.083	-0.118
-650.814	300.594	-0.093	-0.174
-649.799	44.552	-0.176	-0.164
-648.784	208.390	-0.113	-0.180
-647.770	42.874	-0.217	-0.200
-646.755	65.274	0.126	-0.129
-645.741	-60.373	-0.190	0.082
-644.726	173.483	-0.137	-0.200
-643.711	-34.561	0.142	-0.079
-642.697	-61.328	0.290	0.124
-641.682	275.984	0.095	0.171
-640.668	-200.000	0.033	-0.324
-639.653	800.000	-0.032	-0.143
-638.638	462.987	-0.081	0.184
-637.624	-106.122	0.186	0.042
-636.609	387.572	0.035	-0.073
-635.595	-90.832	0.147	0.043
-634.580	-182.222	0.306	0.006
-633.565	-97.968	-0.407	0.106
-632.551	-200.000	-0.001	-0.093
-631.536	-200.000	0.008	-0.133
-630.522	95.222	0.206	-0.237
-629.507	128.336	-0.098	0.127
-628.492	179.028	0.130	-0.193
-627.478	156.802	-0.061	-0.085
-626.463	-101.265	0.225	-0.056
-625.449	108.288	0.129	0.155
-624.434	-200.000	0.037	0.218
-623.419	-69.124	-0.313	0.122
-622.405	-200.000	-0.059	-0.289
-621.390	30.315	0.189	0.163
-620.376	-200.000	0.001	-0.051
-619.361	-200.000	0.026	0.122
-618.346	134.296	0.093	-0.122
-617.332	-21.180	-0.193	-0.120
-616.317	-199.091	-0.301	0.002
-615.303	-200.000	0.072	0.380
-614.288	800.000	0.027	-0.079
-613.273	-21.317	-0.119	0.073
-612.259	-0.422	-0.147	0.105
-611.244	-77.767	0.286	-0.100
-610.230	800.000	0.058	-0.168
-609.215	-139.956	0.166	-0.018
-608.201	-153.173	0.245	0.017
-607.186	-12.642	-0.377	0.249
-606.171	-85.030	0.082	-0.026
-605.157	590.559	-0.139	0.347
-604.142	-200.000	0.009	0.208
-603.128	-153.501	-0.012	0.001
-602.113	-14.634	-0.335	-0.218
-601.098	-106.652	-0.088	-0.020
-600.084	50.564	0.044	0.042
-599.069	104.749	-0.172	0.205
-598.055	-200.000	0.011	-0.073
-597.040	147.914	-0.061	-0.083
-596.025	-167.058	0.269	-0.011
-595.011	-200.000	0.015	-0.083
-593.996	-148.451	-0.185	0.015
-592.982	88.982	0.112	-0.126
-591.967	-102.294	-0.101	0.025
-590.952	-4.904	-0.190	-0.132
-589.938	-110.462	-0.182	0.038
-588.923	59.169	-0.017	-0.017
-587.909	-192.679	-0.413	-0.004
-586.894	-9.471	-0.275	0.186
-585.879	-51.782	-0.142	0.067
-584.865	229.939	-0.008	0.014
-583.850	-200.000	0.031	-0.327
-582.836	342.225	0.155	-0.307
-581.821	800.000	0.051	-0.169
-580.806	-17.970	0.128	-0.081
-579.792	204.440	-0.208	0.326
-578.777	35.088	0.138	-0.122
-577.763	-200.000	0.019	0.160
-576.748	-71.668	-0.121	-0.046
-575.733	-102.308	0.132	0.032
-574.719	-200.000	0.054	-0.298
-573.704	148.999	0.196	-0.268
-572.690	166.903	0.065	-0.093
-571.675	-200.000	-0.024	0.185
-570.661	60.152	0.063	0.063
-569.646	513.899	-0.078	0.185
-568.631	85.464	-0.173	0.192
-567.617	-118.610	0.200	0.036
-566.602	-91.155	-0.041	0.012
-565.588	-50.560	-0.179	-0.085
-564.573	38.948	0.213	-0.192
-563.558	-200.000	0.012	0.187
-562.544	-90.099	0.150	-0.044
-561.529	-8.450	0.059	0.040
-560.515	-74.262	0.475	-0.174
-559.500	-139.113	0.107	-0.012
-558.485	320.038	-0.003	0.005
-557.471	-177.872	-0.361	-0.009
-556.456	800.000	0.057	-0.243
-555.442	640.741	0.062	0.159
-554.427	-4.801	0.159	-0.111
-553.412	-95.710	-0.242	0.065
-552.398	-14.612	-0.284	0.184
-551.383	-57.944	-0.263	-0.116
-550.369	88.053	-0.128	0.143
-549.354	800.000	-0.070	0.201
-548.339	800.000	-0.096	0.383
-547.325	-200.000	-0.006	0.057
-546.310	14.920	-0.238	0.188
-545.296	-200.000	0.015	-0.303
-544.281	-141.530	-0.249	-0.025
-543.266	-200.000	-0.040	0.409
-542.252	-18.965	0.242	0.152
-541.237	32.487	-0.146	0.127
-540.223	-110.668	-0.302	-0.063
-539.208	140.046	-0.071	-0.094
-538.193	-75.279	0.027	0.010
-537.179	170.853	-0.152	-0.220
-536.164	-80.037	0.147	-0.050
-535.150	-117.894	-0.374	-0.068
-534.135	-94.214	-0.225	-0.062
-533.121	-78.276	0.238	-0.082
-532.106	-200.000	-0.017	-0.092
-531.091	-200.000	0.045	0.256
-530.077	800.000	-0.055	0.187
-529.062	-147.389	0.076	-0.007
-528.048	-137.597	-0.072	-0.008
-527.033	106.103	0.071	0.085
-526.018	-61.216	-0.253	0.108
-525.004	258.909	0.159	-0.276
-523.989	-13.060	-0.053	-0.035
-522.975	-90.218	0.320	0.094
-521.960	230.044	0.108	0.178
-520.945	94.092	-0.242	-0.276
-519.931	745.259	-0.039	-0.105
-518.916	-200.000	0.058	0.380
-517.902	98.904	-0.100	-0.116
-516.887	-102.396	0.232	0.056
-515.872	-200.000	-0.000	0.222
-514.858	32.861	0.283	0.247
-513.843	-85.458	-0.032	-0.010
-512.829	-105.583	0.123	-0.028
-511.814	-146.796	0.049	0.004
-510.799	56.627	-0.134	-0.131
-509.785	-31.031	-0.139	-0.079
-508.770	-42.924	-0.068	-0.035
-507.756	-200.000	-0.001	0.138
-506.741	19.664	0.116	-0.094
-505.726	164.293	-0.066	-0.094
-504.712	181.391	-0.197	0.291
-503.697	192.787	-0.210	-0.320
-502.683	263.156	-0.037	-0.064
-501.668	800.000	-0.060	0.182
-500.653	352.212	-0.157	-0.314
-499.639	587.018	-0.033	-0.082
-498.624	-200.000	-0.009	-0.053
-497.610	-32.239	0.320	-0.180
-496.595	12.634	-0.125	-0.097
-495.581	-200.000	0.016	0.349
-494.566	163.743	-0.154	-0.218
-493.551	88.720	0.345	-0.386
-492.537	55.512	-0.144	0.140
-491.522	22.108	-0.111	0.091
-490.508	-1.591	-0.069	0.049
-489.493	-96.468	0.067	-0.018
-488.478	212.237	-0.059	-0.094
-487.464	-71.506	-0.118	-0.044
-486.449	10.903	-0.132	-0.101
-485.435	-108.701	0.450	0.097
-484.420	217.121	-0.149	0.238
-483.405	-134.950	-0.366	-0.045
-482.391	413.314	-0.089	-0.190
-481.376	-163.365	-0.162	-0.008
-480.362	437.252	-0.056	-0.123
-479.347	-37.963	-0.319	0.171
-478.332	800.000	0.011	0.041
-477.318	-12.699	0.307	0.201
-476.303	-200.000	-0.061	0.345
-475.289	-200.000	-0.048	-0.229
-474.274	32.086	-0.204	0.177
-473.259	750.413	0.166	0.451
-472.245	50.593	0.061	0.058
-471.230	-200.000	0.106	-0.789
-470.216	-200.000	-0.018	-0.239
-469.201	-200.000	0.013	0.089
-468.186	-103.975	-0.181	0.043
-467.172	-200.000	-0.032	-0.311
-466.157	170.499	0.051	-0.073
-465.143	87.609	-0.117	-0.131
-464.128	-78.953	0.181	0.062
-463.113	-200.000	0.008	-0.104
-462.099	-162.387	0.582	0.029
-461.084	29.023	-0.206	-0.176
-460.070	-200.000	0.001	-0.131
-459.055	-200.000	0.035	-0.288
-458.040	76.632	-0.022	0.023
-457.026	30.225	-0.057	-0.049
-456.011	358.602	-0.075	0.151
-454.997	15.337	-0.107	0.085
-453.982	-40.726	-0.218	0.113
-452.968	445.453	0.060	-0.132
-451.953	-72.507	-0.433	-0.161
-450.938	-178.124	0.303	0.007
-449.924	146.692	-0.213	0.287
-448.909	46.665	-0.102	0.095
-447.895	-200.000	0.004	-0.047
-446.880	97.254	0.089	0.103
-445.865	365.839	-0.178	0.360
-444.851	-94.565	0.383	-0.105
-443.836	800.000	0.095	0.288
-442.822	302.328	0.103	0.192
-441.807	34.453	-0.069	-0.061
-440.792	64.324	0.246	-0.249
-439.778	42.353	0.399	0.364
-438.763	-75.072	-0.384	-0.138
-437.749	-200.000	-0.030	0.139
-436.734	578.034	0.105	-0.259
-435.719	-32.937	-0.130	0.073
-434.705	111.831	-0.179	-0.217
-433.690	97.642	0.287	-0.332
-432.676	45.237	0.161	-0.149
-431.661	374.990	0.085	0.175
-430.646	800.000	-0.050	0.201
-429.632	-200.000	0.002	-0.056
-428.617	-200.000	-0.036	0.171
-427.603	300.784	-0.106	0.197
-426.588	-200.000	-0.038	-0.217
-425.573	19.457	-0.452	0.365
-424.559	-200.000	0.042	0.186
-423.544	-200.000	0.005	0.090
-422.530	319.329	0.136	-0.260
-421.515	-79.747	-0.314	-0.106
-420.500	147.839	-0.056	0.076
-419.486	-76.607	0.261	-0.092
-418.471	86.349	-0.430	-0.476
-417.457	304.892	-0.115	-0.214
-416.442	16.448	-0.163	-0.129
-415.428	-105.434	0.412	-0.094
-414.413	-200.000	-0.058	-0.279
-413.398	-84.447	-0.337	-0.107
-412.384	168.589	0.057	0.081
-411.369	-200.000	0.044	0.220
-410.355	-107.084	-0.172	-0.038
-409.340	-112.056	-0.241	0.049
-408.325	308.102	-0.171	0.321
-407.311	-200.000	-0.009	0.120
-406.296	-44.531	-0.184	-0.092
-405.282	-200.000	0.012	-0.197
-404.267	800.000	-0.044	0.148
-403.252	-8.292	-0.243	-0.164
-402.238	68.445	0.120	-0.124
-401.223	-200.000	0.021	0.136
-400.209	48.306	0.060	0.056
-399.194	-90.974	-0.298	0.086
-398.179	-200.000	0.004	0.116
-397.165	-200.000	-0.027	0.155
-396.150	111.142	0.234	0.283
-395.136	-200.000	0.006	-0.071
-394.121	-200.000	0.013	0.302
-393.106	-86.827	0.298	0.091
-392.092	275.779	0.075	-0.133
-391.077	-40.585	0.239	-0.124
-390.063	800.000	0.082	-0.286
-389.048	-116.174	0.113	-0.021
-388.033	-200.000	-0.008	0.222
-387.019	349.132	-0.115	-0.228
-386.004	-110.446	-0.354	0.074
-384.990	-200.000	-0.017	-0.138
-383.975	0.477	0.158	-0.114
-382.960	260.837	0.184	0.319
-381.946	-137.632	0.211	0.024
-380.931	-98.369	-0.353	-0.091
-379.917	-16.213	0.286	-0.182
-378.902	62.125	0.069	-0.069
-377.888	-60.324	0.319	0.136
-376.873	-71.161	-0.230	0.086
-375.858	-41.370	0.465	0.240
-374.844	-178.986	-0.230	0.005
-373.829	-195.337	0.169	0.001
-372.815	-68.241	0.231	-0.090
-371.800	-200.000	0.006	0.088
-370.785	-132.582	0.129	0.017
-369.771	-200.000	-0.013	0.155
-368.756	760.888	-0.103	-0.280
-367.742	-72.551	-0.277	0.103
-366.727	-40.952	-0.256	0.133
-365.712	800.000	-0.088	-0.365
-364.698	-200.000	-0.020	-0.243
-363.683	-200.000	0.068	0.558
-362.669	-105.766	0.419	0.095
-361.654	-135.269	0.350	-0.042
-360.639	800.000	-0.114	0.449
-359.625	800.000	-0.080	-0.223
-358.610	-146.806	0.191	0.016
-357.596	47.391	-0.117	-0.110
-356.581	-89.118	0.329	-0.098
-355.566	-200.000	-0.043	0.322
-354.552	800.000	0.041	-0.164
-353.537	44.557	-0.360	-0.332
-352.523	-200.000	-0.024	-0.111
-351.508	-200.000	-0.008	-0.101
-350.493	-200.000	0.022	-0.139
-349.479	-159.240	-0.104	-0.006
-348.464	97.045	-0.156	0.180
-347.450	-200.000	-0.022	-0.423
-346.435	114.956	0.090	-0.110
-345.420	-134.337	0.259	-0.032
-344.406	-161.434	0.442	-0.023
-343.391	-200.000	0.031	0.231
-342.377	625.646	-0.012	0.030
-341.362	-77.339	-0.213	-0.074
-340.348	-69.772	0.154	-0.059
-339.333	248.736	-0.085	0.145
-338.318	271.787	-0.065	0.115
-337.304	213.295	0.102	-0.161
-336.289	162.598	-0.084	0.117
-335.275	-104.279	0.123	0.029
-334.260	800.000	-0.048	-0.138
-333.245	-17.743	0.134	0.084
-332.231	-200.000	0.016	0.138
-331.216	221.882	0.086	0.138
-330.202	-200.000	0.012	0.330
-329.187	-109.292	-0.199	-0.042
-328.172	47.052	0.232	-0.216
-327.158	-200.000	-0.007	0.178
-326.143	206.662	0.031	0.049
-325.129	-200.000	0.016	0.085
-324.114	-21.321	-0.053	-0.032
-323.099	649.661	-0.045	0.115
-322.085	800.000	0.055	-0.203
-321.070	-99.842	0.164	0.041
-320.056	-75.528	-0.269	0.096
-319.041	-140.391	-0.298	-0.031
-318.026	52.613	-0.014	-0.014
-317.012	3.836	-0.120	-0.088
-315.997	-112.778	0.134	-0.027
-314.983	-44.963	0.361	-0.180
-313.968	71.522	0.173	-0.179
-312.953	-200.000	0.005	-0.256
-311.939	66.694	-0.233	-0.237
-310.924	-57.997	0.023	0.010
-309.910	800.000	0.140	-0.463
-308.895	139.159	0.219	0.288
-307.880	193.264	0.217	0.328
-306.866	296.137	0.060	0.110
-305.851	199.532	-0.136	0.209
-304.837	135.041	0.189	-0.245
-303.822	168.406	0.157	0.224
-302.807	-200.000	-0.098	-0.466
-301.793	49.671	-0.097	0.092
-300.778	-52.135	-0.218	0.101
-299.764	-200.000	0.024	0.128
-298.749	-95.202	-0.168	0.045
-297.735	70.665	-0.137	-0.142
-296.720	800.000	0.033	-0.134
-295.705	-94.674	0.387	0.105
-294.691	-200.000	-0.005	0.332
-293.676	-160.719	0.237	-0.013
-292.662	126.018	-0.175	-0.221
-291.647	-84.339	-0.312	0.099
-290.632	101.829	0.051	0.060
-289.618	800.000	0.071	-0.286
-288.603	535.850	-0.075	0.179
-287.589	-200.000	-0.015	-0.101
-286.574	19.485	-0.377	0.303
-285.559	-96.743	-0.146	-0.038
-284.545	-141.931	0.140	-0.014
-283.530	-112.746	-0.132	0.026
-282.516	88.972	0.117	-0.130
-281.501	-94.597	-0.140	0.038
-280.486	-200.000	0.036	-0.208
-279.472	342.859	0.035	0.069
-278.457	-3.902	0.080	0.055
-277.443	-22.375	-0.283	-0.171
-276.428	-87.503	0.070	0.021
-275.413	315.805	-0.031	0.059
-274.399	83.609	0.139	0.152
-273.384	-200.000	-0.016	-0.273
-272.370	-86.918	-0.248	0.075
-271.355	-81.135	0.295	-0.097
-270.340	-94.352	-0.322	0.088
-269.326	-190.405	0.244	-0.003
-268.311	361.674	-0.163	-0.327
-267.297	-181.227	0.225	0.004
-266.282	800.000	0.135	-0.411
-265.267	-74.786	0.162	0.058
-264.253	-200.000	0.007	-0.185
-263.238	-105.933	-0.371	-0.083
-262.224	35.321	0.165	0.144
-261.209	-43.362	0.143	-0.072
-260.195	-200.000	-0.006	0.311
-259.180	-159.575	-0.078	0.004
-258.165	-140.043	-0.506	0.053
-257.151	-123.798	-0.049	-0.008
-256.136	800.000	0.076	-0.223
-255.122	-200.000	-0.038	0.244
-254.107	800.000	-0.073	0.251
-253.092	205.066	0.104	0.161
-252.078	-42.061	0.056	0.029
-251.063	-32.856	0.152	0.084
-250.049	800.000	0.028	-0.091
-249.034	214.819	0.175	-0.276
-248.019	33.343	-0.330	0.286
-247.005	-200.000	-0.006	0.204
-245.990	-24.059	-0.304	0.181
-244.976	-200.000	0.009	0.140
-243.961	203.531	0.070	0.108
-242.946	-90.272	-0.290	0.084
-241.932	-163.356	0.235	-0.011
-240.917	75.015	0.196	0.206
-239.903	-200.000	0.031	-0.161
-238.888	-135.306	0.270	0.032
-237.873	-25.084	0.059	-0.035
-236.859	114.420	0.103	0.125
-235.844	-1.544	0.251	0.176
-234.830	-125.831	-0.272	-0.041
-233.815	-200.000	0.084	-0.464
-232.800	-6.683	0.228	-0.155
-231.786	-142.931	-0.226	-0.022
-230.771	-200.000	0.018	0.202
-229.757	-21.769	0.346	-0.210
-228.742	-200.000	-0.019	-0.291
-227.727	69.587	0.268	0.275
-226.713	-23.661	0.283	-0.169
-225.698	-68.393	-0.257	0.100
-224.684	-27.933	0.135	0.078
-223.669	55.203	0.169	0.163
-222.655	-36.759	0.102	0.054
-221.640	-96.274	0.394	0.104
-220.625	800.000	0.048	-0.199
-219.611	616.630	0.148	0.370
-218.596	560.926	0.006	0.014
-217.582	-42.562	-0.311	-0.158
-216.567	800.000	-0.091	0.342
-215.552	-107.800	0.113	-0.025
-214.538	-200.000	0.006	0.061
-213.523	-200.000	-0.019	0.247
-212.509	631.378	0.130	0.329
-211.494	555.850	0.109	0.263
-210.479	421.403	0.084	-0.179
-209.465	-77.061	0.350	-0.122
-208.450	-46.507	0.079	-0.039
-207.436	403.780	-0.111	-0.232
-206.421	-109.696	0.211	-0.044
-205.406	20.941	0.121	-0.097
-204.392	800.000	0.038	0.145
-203.377	-113.385	-0.541	0.106
-202.363	-118.416	-0.238	0.042
-201.348	-128.610	-0.046	0.006
-200.333	-111.474	-0.134	0.027
-199.319	-2.686	-0.223	-0.155
-198.304	468.780	-0.099	0.221
-197.290	-6.828	-0.276	0.187
-196.275	-200.000	0.010	0.075
-195.260	626.619	0.035	0.087
-194.246	-132.749	-0.317	-0.040
-193.231	800.000	-0.045	0.142
-192.217	-200.000	0.010	-0.150
-191.202	-52.676	0.360	-0.165
-190.187	111.327	0.083	-0.100
-189.173	-140.659	0.280	-0.029
-188.158	-26.728	0.284	0.165
-187.144	-200.000	0.031	0.314
-186.129	220.636	-0.107	-0.171
-185.114	551.296	0.065	-0.154
-184.100	238.643	-0.167	0.276
-183.085	-141.506	-0.272	-0.027
-182.071	47.621	0.140	-0.130
-181.056	-74.285	0.183	-0.066
-180.042	7.337	-0.150	0.112
-179.027	-190.756	0.078	0.001
-178.012	800.000	-0.086	-0.260
-176.998	17.869	0.094	0.074
-175.983	-41.393	-0.293	-0.150
-174.969	-150.971	0.465	0.035
-173.954	-200.000	-0.024	0.112
-172.939	-200.000	0.044	0.207
-171.925	285.866	-0.140	-0.251
-170.910	800.000	-0.059	-0.245
-169.896	-16.335	-0.194	0.122
-168.881	-95.240	-0.296	0.079
-167.866	-171.257	0.399	-0.013
-166.852	-98.246	0.209	0.053
-165.837	-200.000	0.013	0.057
-164.823	-70.504	0.226	0.085
-163.808	-200.000	-0.001	-0.445
-162.793	-60.214	0.360	-0.153
-161.779	-31.891	0.239	-0.133
-160.764	230.091	-0.158	0.257
-159.750	-119.407	0.206	0.036
-158.735	-200.000	0.007	-0.043
-157.720	-141.964	0.172	-0.017
-156.706	-92.729	-0.188	0.052
-155.691	-75.772	0.167	-0.059
-154.677	-165.537	0.094	0.004
-153.662	88.623	0.093	-0.103
-152.647	-128.515	0.256	0.036
-151.633	-104.137	-0.277	0.064
-150.618	-200.000	-0.017	-0.155
-149.604	-131.637	0.167	0.022
-148.589	-19.753	-0.183	-0.113
-147.574	800.000	0.068	-0.230
-146.560	800.000	0.067	0.192
-145.545	-14.557	-0.322	0.206
-144.531	-165.810	-0.217	0.009
-143.516	800.000	0.045	0.153
-142.502	-200.000	0.095	-0.549
-141.487	-35.009	-0.157	-0.085
-140.472	797.574	-0.060	-0.164
-139.458	64.525	-0.099	0.099
-138.443	-97.750	-0.140	-0.036
-137.429	22.419	-0.212	0.172
-136.414	137.752	0.054	0.070
-135.399	-200.000	-0.000	-0.249
-134.385	162.659	-0.170	0.237
-133.370	-44.046	-0.233	-0.116
-132.356	-79.290	-0.284	-0.096
-131.341	6.191	-0.354	-0.261
-130.326	286.730	0.192	-0.345
-129.312	-75.320	0.059	-0.021
-128.297	-200.000	0.057	0.304
-127.283	-77.336	-0.195	-0.067
-126.268	-60.226	0.249	0.105
-125.253	25.521	-0.076	0.063
-124.239	800.000	0.074	0.298
-123.224	-65.802	0.103	0.041
-122.210	135.406	-0.182	0.234
