DTS Sentinel unit serial number:	SN413079Multiplexer serial number:	ORYXHardware model number:	OX4-SRSoftware version number:	ORYX F/W v4.00 Oryx Data Collector v3.7.2.0data status	okinstallation	princeton_trtdifferential loss correction	single-endedforward channel	channel 2reverse channel	N/Adate	2019/09/14time	01:39:34forward acquisition time	60.00reverse acquisition time	0.00gamma	496.2192k internal	0.2338k external	0.2338temperature offset calibration	1.0128default loss term (dB/km)	0.3790temperature slope calibration	1.0000multiplexer offset coefficient	1.0000multiplexer slope coefficient	1.0000fibre end	0.00T internal ref (°C)	26.44T ext. ref 1 (°C)	3.20T ext. ref 2 (°C)	21.47length (m)	temperature (°C)	Stokes	anti-Stokes-747.200	-47.434	0.460	0.224
-746.185	-170.040	-0.064	0.002
-745.171	-24.496	-0.221	-0.132
-744.156	-200.000	0.006	-0.096
-743.142	221.375	-0.086	0.138
-742.127	152.073	-0.195	0.268
-741.112	413.962	0.049	-0.104
-740.098	94.035	0.194	0.220
-739.083	53.616	-0.082	-0.078
-738.069	548.719	-0.129	0.309
-737.054	-160.930	-0.124	-0.007
-736.039	32.435	-0.095	0.083
-735.025	411.246	0.140	0.298
-734.010	800.000	0.102	0.305
-732.996	-71.312	0.200	0.075
-731.981	800.000	0.061	-0.249
-730.966	278.578	-0.080	-0.143
-729.952	-199.537	-0.303	-0.002
-728.937	-200.000	-0.003	0.055
-727.923	626.825	0.099	-0.251
-726.908	38.143	-0.034	-0.030
-725.894	-200.000	0.008	-0.084
-724.879	-59.652	0.167	-0.072
-723.864	-200.000	0.016	-0.355
-722.850	164.359	-0.100	-0.141
-721.835	266.996	0.174	-0.305
-720.821	800.000	-0.088	0.316
-719.806	15.704	-0.190	-0.149
-718.791	-30.338	-0.156	-0.089
-717.777	-200.000	0.018	0.115
-716.762	-47.678	0.266	0.129
-715.748	21.397	0.125	-0.102
-714.733	6.069	-0.257	0.191
-713.718	79.378	0.264	0.284
-712.704	-84.749	-0.129	-0.041
-711.689	800.000	-0.108	-0.306
-710.675	214.216	-0.087	-0.138
-709.660	3.883	0.330	0.242
-708.645	96.397	-0.160	-0.184
-707.631	-22.283	-0.314	0.191
-706.616	-200.000	0.036	-0.315
-705.602	-200.000	-0.008	-0.241
-704.587	307.913	-0.110	0.206
-703.572	681.771	0.129	-0.338
-702.558	-83.718	-0.235	0.075
-701.543	-151.036	-0.127	0.010
-700.529	-153.873	-0.236	-0.016
-699.514	-78.494	0.082	-0.028
-698.499	7.563	-0.181	-0.135
-697.485	290.715	-0.074	0.135
-696.470	-35.809	-0.228	0.124
-695.456	800.000	-0.046	0.171
-694.441	152.558	-0.193	0.264
-693.426	-126.232	-0.254	-0.038
-692.412	80.228	-0.243	0.262
-691.397	517.204	-0.105	-0.245
-690.383	256.149	-0.059	-0.101
-689.368	270.672	0.103	-0.182
-688.354	-68.339	-0.380	-0.148
-687.339	800.000	0.047	-0.141
-686.324	-94.057	-0.294	-0.081
-685.310	222.718	0.060	-0.097
-684.295	-82.090	-0.240	-0.078
-683.281	-131.911	0.133	0.017
-682.266	115.236	-0.208	-0.255
-681.251	335.667	0.148	0.288
-680.237	46.442	-0.256	-0.238
-679.222	800.000	0.037	-0.121
-678.208	-200.000	-0.009	-0.051
-677.193	72.187	0.019	0.020
-676.178	757.976	-0.076	-0.205
-675.164	153.980	-0.054	0.074
-674.149	-109.875	0.165	0.035
-673.135	-42.874	0.106	0.054
-672.120	-61.698	-0.118	-0.050
-671.105	680.612	-0.182	0.473
-670.091	-200.000	0.017	0.239
-669.076	49.431	-0.253	0.239
-668.062	-44.597	0.086	-0.043
-667.047	-172.921	-0.065	-0.002
-666.032	-200.000	0.010	0.062
-665.018	197.316	-0.060	-0.092
-664.003	-167.508	0.231	-0.009
-662.989	-117.563	-0.292	-0.053
-661.974	-200.000	0.061	-0.290
-660.959	-200.000	-0.039	-0.422
-659.945	-140.520	-0.064	0.007
-658.930	334.455	0.038	0.074
-657.916	-136.336	0.264	0.031
-656.901	-148.633	-0.170	0.014
-655.886	-200.000	0.020	-0.199
-654.872	78.396	-0.079	0.084
-653.857	-2.487	0.315	-0.220
-652.843	800.000	0.018	-0.069
-651.828	-116.972	-0.531	0.097
-650.814	-62.155	0.202	-0.084
-649.799	-198.496	0.307	0.002
-648.784	-200.000	0.040	-0.313
-647.770	-43.395	0.195	-0.098
-646.755	-200.000	0.014	0.123
-645.741	265.375	-0.127	-0.221
-644.726	562.260	0.035	-0.084
-643.711	272.495	0.078	-0.138
-642.697	373.552	0.144	0.294
-641.682	-54.233	-0.208	0.094
-640.668	-146.286	-0.227	0.020
-639.653	-67.732	0.080	0.031
-638.638	-200.000	-0.028	-0.246
-637.624	-35.662	0.304	-0.165
-636.609	-200.000	0.010	0.289
-635.595	-42.560	0.147	-0.075
-634.580	-200.000	0.018	0.274
-633.565	740.652	-0.069	-0.186
-632.551	-62.098	-0.453	-0.189
-631.536	-7.833	0.059	0.040
-630.522	-200.000	0.024	0.453
-629.507	-3.140	-0.171	-0.119
-628.492	9.655	-0.031	-0.024
-627.478	-92.917	0.365	0.102
-626.463	215.727	0.219	0.348
-625.449	-71.251	-0.082	-0.031
-624.434	103.748	-0.392	0.460
-623.419	-185.491	-0.202	0.003
-622.405	-200.000	0.029	0.255
-621.390	150.822	-0.177	-0.240
-620.376	-95.522	-0.109	-0.029
-619.361	644.904	0.149	0.381
-618.346	-200.000	-0.025	-0.121
-617.332	26.818	0.095	-0.079
-616.317	-38.076	-0.120	0.064
-615.303	-179.325	0.287	0.006
-614.288	-36.582	0.414	0.222
-613.273	-152.257	0.133	0.010
-612.259	800.000	-0.030	-0.110
-611.244	51.985	-0.268	0.255
-610.230	6.167	0.157	-0.116
-609.215	-79.807	-0.221	0.074
-608.201	-200.000	0.016	-0.215
-607.186	361.012	-0.096	-0.192
-606.171	5.515	0.155	-0.114
-605.157	37.536	0.290	-0.257
-604.142	319.765	0.042	-0.080
-603.128	-59.964	-0.426	0.182
-602.113	800.000	-0.073	0.225
-601.098	-70.696	-0.079	0.030
-600.084	-47.431	-0.133	0.065
-599.069	-53.147	-0.201	-0.092
-598.055	27.448	-0.297	-0.249
-597.040	-88.740	-0.356	0.106
-596.025	-200.000	0.004	0.375
-595.011	-19.460	-0.100	-0.062
-593.996	253.090	-0.174	0.295
-592.982	-132.692	-0.171	-0.022
-591.967	-164.056	0.229	0.011
-590.952	550.385	-0.126	0.300
-589.938	96.847	0.418	-0.478
-588.923	104.789	0.238	-0.279
-587.909	173.461	0.211	-0.304
-586.894	-127.228	0.198	-0.029
-585.879	791.136	0.153	-0.420
-584.865	-78.986	0.165	0.056
-583.850	20.336	-0.065	-0.053
-582.836	679.106	0.081	-0.209
-581.821	800.000	0.037	-0.121
-580.806	244.205	-0.062	-0.104
-579.792	591.499	-0.125	-0.309
-578.777	-78.200	0.206	-0.071
-577.763	89.267	0.200	0.222
-576.748	-200.000	-0.012	-0.115
-575.733	-82.745	0.128	-0.041
-574.719	800.000	-0.072	0.201
-573.704	474.965	-0.036	0.081
-572.690	-200.000	0.043	-0.259
-571.675	800.000	0.072	-0.215
-570.661	87.900	-0.230	-0.254
-569.646	800.000	0.021	-0.079
-568.631	44.879	-0.179	0.165
-567.617	26.633	0.146	0.122
-566.602	-200.000	0.037	-0.171
-565.588	-191.653	-0.275	0.003
-564.573	190.676	0.069	-0.103
-563.558	-95.571	0.321	-0.086
-562.544	-200.000	0.027	0.330
-561.529	-197.966	0.116	-0.001
-560.515	-200.000	-0.015	0.088
-559.500	-0.897	0.265	0.187
-558.485	800.000	0.090	-0.254
-557.471	-148.287	0.293	0.024
-556.456	800.000	-0.056	0.185
-555.442	203.913	0.200	0.309
-554.427	-158.085	-0.197	0.012
-553.412	800.000	-0.035	0.152
-552.398	-115.523	-0.738	-0.138
-551.383	-69.448	-0.087	-0.033
-550.369	86.316	0.067	-0.073
-549.354	-20.828	-0.296	0.181
-548.339	-64.084	-0.035	0.014
-547.325	25.269	-0.274	-0.226
-546.310	800.000	0.031	0.119
-545.296	-200.000	-0.001	-0.103
-544.281	800.000	-0.156	-0.463
-543.266	35.523	0.340	-0.297
-542.252	66.270	0.261	-0.264
-541.237	300.982	0.122	-0.224
-540.223	1.166	-0.272	0.194
-539.208	-200.000	0.004	0.017
-538.193	-200.000	0.048	-0.323
-537.179	-200.000	0.056	-0.266
-536.164	365.933	0.133	0.267
-535.150	1.197	0.100	-0.071
-534.135	292.253	0.027	-0.050
-533.121	-149.639	0.460	0.036
-532.106	-65.469	-0.080	0.032
-531.091	266.715	-0.233	-0.404
-530.077	-200.000	0.018	0.267
-529.062	273.691	0.130	-0.229
-528.048	-200.000	0.023	-0.104
-527.033	404.210	0.131	0.274
-526.018	-155.122	0.360	-0.023
-525.004	-89.597	-0.142	0.042
-523.989	-14.942	-0.165	-0.105
-522.975	-157.040	0.287	-0.017
-521.960	390.559	0.118	0.243
-520.945	800.000	-0.027	0.111
-519.931	408.710	-0.052	-0.110
-518.916	292.338	-0.102	-0.184
-517.902	800.000	-0.082	0.232
-516.887	-200.000	-0.000	-0.066
-515.872	-200.000	0.067	-0.306
-514.858	-84.097	0.137	0.043
-513.843	537.388	0.051	0.121
-512.829	800.000	0.106	0.293
-511.814	-101.351	0.117	0.028
-510.799	16.418	-0.200	-0.157
-509.785	72.930	-0.152	-0.158
-508.770	306.081	-0.027	-0.051
-507.756	604.907	-0.091	0.225
-506.741	-200.000	-0.033	-0.200
-505.726	-200.000	-0.049	-0.313
-504.712	729.731	-0.094	0.249
-503.697	-119.013	-0.125	-0.022
-502.683	-171.782	0.125	0.004
-501.668	800.000	-0.072	-0.220
-500.653	11.157	0.202	-0.154
-499.639	-101.764	-0.127	0.031
-498.624	-31.659	-0.079	0.044
-497.610	-113.504	0.040	-0.008
-496.595	-123.507	0.141	-0.022
-495.581	235.960	-0.144	0.237
-494.566	17.430	0.057	-0.045
-493.551	-17.114	-0.225	-0.141
-492.537	-106.428	0.305	0.068
-491.522	-110.073	-0.159	0.033
-490.508	5.640	-0.317	0.233
-489.493	-96.450	0.429	0.113
-488.478	-200.000	0.134	0.001
-487.464	-60.282	0.058	0.024
-486.449	518.783	-0.129	0.299
-485.435	200.782	-0.098	0.149
-484.420	-19.096	-0.273	0.168
-483.405	-198.495	-0.347	-0.002
-482.391	37.673	-0.239	-0.211
-481.376	-102.412	0.242	0.058
-480.362	90.282	0.312	0.346
-479.347	107.121	-0.170	0.200
-478.332	-90.134	0.152	0.044
-477.318	-82.570	0.140	0.045
-476.303	-200.000	0.004	-0.319
-475.289	47.555	0.124	0.115
-474.274	-17.989	-0.131	0.081
-473.259	-200.000	0.054	-0.620
-472.245	232.287	-0.147	0.239
-471.230	-11.316	-0.377	-0.247
-470.216	-200.000	-0.011	-0.154
-469.201	-200.000	-0.007	-0.045
-468.186	-89.021	-0.159	-0.047
-467.172	-200.000	0.013	0.067
-466.157	149.237	-0.229	0.307
-465.143	-151.516	-0.070	0.005
-464.128	-82.772	0.131	0.042
-463.113	-102.289	-0.262	-0.062
-462.099	-156.427	-0.174	-0.011
-461.084	-200.000	0.018	-0.101
-460.070	-52.545	0.064	-0.029
-459.055	463.529	0.129	0.286
-458.040	-119.077	0.184	-0.032
-457.026	-200.000	0.005	-0.169
-456.011	-126.796	0.051	0.007
-454.997	-200.000	-0.008	0.073
-453.982	-80.740	-0.265	0.088
-452.968	86.091	-0.227	-0.248
-451.953	800.000	0.055	0.152
-450.938	-200.000	-0.008	0.191
-449.924	9.459	-0.113	0.085
-448.909	121.415	0.095	0.118
-447.895	800.000	0.051	-0.198
-446.880	-200.000	-0.008	0.189
-445.865	-24.471	0.139	-0.082
-444.851	-200.000	0.002	0.210
-443.836	35.169	-0.176	-0.153
-442.822	173.358	-0.102	0.146
-441.807	-118.665	-0.264	0.046
-440.792	800.000	0.129	0.477
-439.778	170.891	0.065	0.092
-438.763	117.614	0.079	-0.097
-437.749	-200.000	-0.077	0.357
-436.734	800.000	-0.048	0.164
-435.719	336.971	-0.116	-0.224
-434.705	800.000	-0.036	0.135
-433.690	403.915	-0.112	0.234
-432.676	-153.683	0.460	0.031
-431.661	800.000	-0.083	0.241
-430.646	800.000	0.146	0.401
-429.632	-200.000	-0.042	0.233
-428.617	211.517	-0.034	0.053
-427.603	800.000	0.115	0.401
-426.588	800.000	0.053	-0.187
-425.573	-200.000	-0.022	0.324
-424.559	-200.000	0.022	-0.128
-423.544	-11.996	0.301	-0.196
-422.530	376.152	-0.200	-0.405
-421.515	4.122	0.334	-0.242
-420.500	276.272	-0.249	-0.438
-419.486	-200.000	0.032	-0.299
-418.471	-47.474	0.315	0.152
-417.457	-200.000	0.029	0.265
-416.442	-34.958	-0.170	0.092
-415.428	672.253	0.094	-0.242
-414.413	-200.000	0.006	-0.083
-413.398	-175.617	-0.120	-0.003
-412.384	-88.902	-0.256	-0.075
-411.369	31.755	-0.199	-0.169
-410.355	503.547	0.122	-0.280
-409.340	-200.000	-0.041	0.314
-408.325	266.075	-0.137	-0.238
-407.311	-137.091	0.398	-0.045
-406.296	-14.175	0.163	-0.104
-405.282	-89.073	0.486	0.142
-404.267	9.569	-0.036	-0.027
-403.252	-51.037	-0.143	-0.066
-402.238	-34.899	0.263	0.142
-401.223	-3.000	0.222	0.153
-400.209	404.984	-0.113	0.236
-399.194	-4.415	-0.220	-0.150
-398.179	444.034	-0.161	0.350
-397.165	160.806	-0.220	0.305
-396.150	703.739	0.059	0.153
-395.136	-177.855	-0.445	0.011
-394.121	-200.000	0.035	-0.154
-393.106	-91.710	0.147	0.041
-392.092	72.078	-0.162	0.167
-391.077	49.021	-0.193	0.180
-390.063	-75.185	-0.115	-0.041
-389.048	-48.353	-0.167	-0.080
-388.033	-183.739	0.248	-0.004
-387.019	132.939	-0.233	0.298
-386.004	99.900	-0.217	-0.249
-384.990	282.721	0.013	0.024
-383.975	119.255	0.026	0.032
-382.960	-200.000	-0.076	0.477
-381.946	-105.826	0.295	-0.066
-380.931	-74.273	0.108	0.039
-379.917	800.000	0.048	0.176
-378.902	-27.572	0.250	-0.144
-377.888	-107.510	-0.121	0.026
-376.873	800.000	0.063	0.203
-375.858	-75.915	0.091	0.032
-374.844	-200.000	-0.010	-0.307
-373.829	800.000	0.039	0.135
-372.815	213.417	-0.214	-0.334
-371.800	-8.644	0.166	-0.110
-370.785	-134.919	-0.397	-0.048
-369.771	198.441	0.097	-0.147
-368.756	-193.219	0.193	0.002
-367.742	-52.861	0.292	-0.133
-366.727	-97.851	-0.090	-0.023
-365.712	800.000	-0.130	0.384
-364.698	196.573	0.224	-0.338
-363.683	30.195	-0.167	-0.141
-362.669	389.922	-0.108	-0.222
-361.654	-200.000	-0.025	0.340
-360.639	61.636	0.335	-0.330
-359.625	-102.161	-0.182	-0.043
-358.610	800.000	0.040	0.146
-357.596	800.000	0.047	0.198
-356.581	347.821	0.120	-0.234
-355.566	800.000	-0.095	0.379
-354.552	399.447	0.131	-0.272
-353.537	-200.000	-0.051	-0.230
-352.523	-35.348	-0.449	0.241
-351.508	650.611	0.115	0.290
-350.493	4.303	0.241	0.174
-349.479	-71.120	-0.248	0.092
-348.464	-200.000	-0.005	0.151
-347.450	341.425	0.190	0.366
-346.435	298.508	0.099	0.179
-345.420	-200.000	-0.024	-0.165
-344.406	-104.524	0.287	-0.065
-343.391	417.114	-0.064	0.136
-342.377	169.539	-0.118	-0.166
-341.362	-2.107	0.275	0.191
-340.348	-97.070	0.313	0.081
-339.333	634.898	-0.020	0.050
-338.318	-12.296	0.335	-0.216
-337.304	759.760	-0.062	-0.167
-336.289	-169.306	-0.230	0.008
-335.275	-61.224	0.256	-0.107
-334.260	-200.000	0.035	-0.312
-333.245	614.285	0.061	-0.152
-332.231	800.000	-0.067	0.198
-331.216	800.000	0.084	0.294
-330.202	-193.832	-0.118	-0.001
-329.187	-19.044	-0.302	0.185
-328.172	1.814	0.138	-0.098
-327.158	-0.067	-0.331	-0.233
-326.143	800.000	-0.055	0.150
-325.129	133.919	0.216	0.277
-324.114	800.000	0.063	-0.201
-323.099	-94.437	0.369	-0.099
-322.085	-37.192	0.194	-0.102
-321.070	800.000	-0.084	-0.229
-320.056	10.321	0.180	0.135
-319.041	-200.000	0.011	-0.149
-318.026	-20.965	-0.167	0.101
-317.012	-56.511	-0.074	-0.032
-315.997	217.490	-0.072	-0.113
-314.983	3.244	-0.152	-0.109
-313.968	310.542	-0.037	0.068
-312.953	210.470	-0.146	-0.226
-311.939	-200.000	0.019	-0.110
-310.924	-200.000	0.040	0.201
-309.910	-108.569	0.230	-0.049
-308.895	-200.000	-0.075	-0.626
-307.880	-200.000	0.081	-0.428
-306.866	-200.000	-0.026	0.156
-305.851	800.000	0.019	0.052
-304.837	800.000	-0.041	-0.140
-303.822	-200.000	0.004	-0.192
-302.807	162.036	-0.180	0.249
-301.793	-92.418	-0.250	0.069
-300.778	85.832	0.184	0.200
-299.764	246.386	0.093	0.155
-298.749	-73.212	-0.177	-0.064
-297.735	167.576	0.193	0.270
-296.720	-175.504	0.239	-0.006
-295.705	-65.359	-0.327	0.130
-294.691	800.000	0.027	0.112
-293.676	800.000	-0.079	0.278
-292.662	-30.375	0.163	0.091
-291.647	12.999	-0.180	-0.138
-290.632	-0.166	0.161	0.113
-289.618	800.000	-0.040	-0.143
-288.603	-1.420	0.104	-0.072
-287.589	-109.244	-0.214	0.045
-286.574	-37.801	0.279	-0.146
-285.559	9.339	-0.374	0.279
-284.545	-131.063	0.178	0.023
-283.530	79.636	-0.149	0.157
-282.516	-120.938	0.190	0.032
-281.501	-31.321	0.211	-0.117
-280.486	166.246	-0.082	0.115
-279.472	-121.738	-0.224	0.037
-278.457	540.644	0.084	-0.196
-277.443	-173.424	-0.312	-0.009
-276.428	597.089	-0.036	0.087
-275.413	346.491	-0.070	0.135
-274.399	-48.724	0.157	-0.074
-273.384	789.990	0.076	0.206
-272.370	229.106	-0.106	0.170
-271.355	-141.596	-0.105	-0.010
-270.340	73.796	-0.263	0.272
-269.326	74.480	-0.238	0.247
-268.311	-200.000	-0.013	0.330
-267.297	-93.833	-0.181	-0.049
-266.282	631.467	0.091	-0.226
-265.267	-40.791	-0.322	0.164
-264.253	244.438	0.204	0.337
-263.238	-97.535	0.452	-0.116
-262.224	-25.095	-0.148	0.086
-261.209	45.970	0.217	0.197
-260.195	92.734	0.111	-0.124
-259.180	227.334	-0.164	-0.262
-258.165	800.000	0.111	-0.306
-257.151	212.045	-0.021	-0.033
-256.136	124.709	0.160	-0.198
-255.122	-200.000	0.050	-0.468
-254.107	-121.079	0.111	-0.018
-253.092	62.108	0.207	-0.203
-252.078	-137.891	-0.118	0.013
-251.063	-128.819	-0.147	-0.020
-250.049	1.109	-0.248	0.175
-249.034	321.560	-0.103	0.194
-248.019	-98.262	-0.145	-0.037
-247.005	-178.978	-0.043	0.001
-245.990	-111.364	-0.241	0.048
-244.976	15.523	-0.108	-0.084
-243.961	-24.552	0.173	-0.101
-242.946	6.799	0.056	0.041
-241.932	174.393	-0.169	-0.241
-240.917	491.174	-0.060	-0.135
-239.903	-200.000	0.072	0.327
-238.888	174.653	0.143	0.204
-237.873	-65.188	0.191	0.076
-236.859	800.000	0.048	0.158
-235.844	800.000	0.049	-0.169
-234.830	800.000	-0.022	0.061
-233.815	207.326	-0.092	0.141
-232.800	-92.426	0.076	0.021
-231.786	2.103	0.210	-0.149
-230.771	753.427	-0.098	-0.260
-229.757	-40.148	0.247	-0.126
-228.742	465.157	-0.075	-0.165
-227.727	34.835	-0.085	-0.073
-226.713	98.290	0.181	-0.206
-225.698	-81.704	0.121	0.039
-224.684	-94.915	-0.067	0.018
-223.669	-48.616	-0.247	0.117
-222.655	-86.442	-0.279	-0.084
-221.640	-42.233	0.157	0.079
-220.625	-200.000	-0.012	0.160
-219.611	235.012	-0.028	-0.046
-218.596	-84.986	-0.162	-0.050
-217.582	101.840	0.094	-0.107
-216.567	250.163	-0.071	-0.119
-215.552	-117.829	-0.060	-0.011
-214.538	-77.250	-0.209	0.072
-213.523	-16.686	0.325	0.202
-212.509	800.000	0.056	0.188
-211.494	586.601	-0.048	-0.115
-210.479	-200.000	0.018	-0.275
-209.465	-178.947	0.165	0.004
-208.450	-106.378	0.108	0.024
-207.436	355.700	0.154	-0.301
-206.421	-0.939	-0.232	0.161
-205.406	40.806	-0.257	0.228
-204.392	-121.924	0.303	0.049
-203.377	196.643	-0.194	0.290
-202.363	-68.013	-0.242	-0.093
-201.348	800.000	0.067	0.190
-200.333	-147.025	0.452	0.038
-199.319	-78.047	0.137	0.046
-198.304	-133.693	-0.228	-0.028
-197.290	-136.949	-0.407	-0.046
-196.275	362.734	0.135	-0.266
-195.260	-165.966	-0.202	-0.008
-194.246	-29.031	-0.097	-0.055
-193.231	191.928	0.057	0.084
-192.217	-181.667	0.114	-0.002
-191.202	228.828	-0.111	0.178
-190.187	438.938	-0.092	-0.198
-189.173	-82.144	-0.272	-0.087
-188.158	320.403	-0.091	-0.169
-187.144	-52.867	0.148	-0.067
-186.129	800.000	-0.057	0.158
-185.114	800.000	0.029	-0.118
-184.100	-56.935	-0.173	-0.075
-183.085	31.443	0.346	-0.292
-182.071	-200.000	-0.032	-0.297
-181.056	-101.009	-0.055	0.013
-180.042	63.775	0.081	0.080
-179.027	184.950	0.190	-0.277
-178.012	-49.035	0.004	-0.002
-176.998	92.078	-0.218	-0.241
-175.983	-200.000	-0.012	-0.121
-174.969	-182.507	-0.372	-0.007
-173.954	249.631	0.103	-0.171
-172.939	-108.148	0.217	-0.046
-171.925	-111.244	-0.138	-0.028
-170.910	-14.609	-0.070	-0.044
-169.896	391.791	0.030	-0.062
-168.881	-52.090	-0.244	0.111
-167.866	-74.409	0.122	-0.043
-166.852	-200.000	0.021	-0.266
-165.837	-129.070	0.067	-0.009
-164.823	396.406	0.146	0.298
-163.808	800.000	-0.071	-0.239
-162.793	117.631	0.158	0.190
-161.779	-162.523	0.088	-0.004
-160.764	32.027	0.265	0.224
-159.750	458.132	-0.059	-0.128
-158.735	598.426	0.067	-0.164
-157.720	-200.000	0.022	0.337
-156.706	-200.000	-0.001	0.137
-155.691	-59.700	0.075	-0.032
-154.677	693.352	-0.107	-0.276
-153.662	-200.000	-0.033	0.270
-152.647	112.609	0.170	0.202
-151.633	-83.784	-0.070	-0.022
-150.618	202.271	-0.021	-0.032
-149.604	660.451	-0.068	0.173
-148.589	-149.286	-0.244	0.019
-147.574	800.000	0.066	-0.216
-146.560	495.926	-0.040	-0.091
-145.545	-128.830	-0.171	0.024
-144.531	251.221	0.110	-0.183
-143.516	595.937	0.028	-0.069
-142.502	-200.000	0.014	-0.188
-141.487	286.707	0.058	-0.102
-140.472	-200.000	-0.002	-0.202
-139.458	-96.101	-0.218	0.057
-138.443	117.306	0.121	0.146
-137.429	-98.487	0.382	0.096
-136.414	75.589	0.207	-0.214
-135.399	-53.401	-0.080	0.036
-134.385	-200.000	0.010	-0.291
-133.370	-58.672	0.276	0.117
-132.356	-200.000	0.008	0.396
-131.341	356.968	0.138	0.269
-130.326	627.319	0.157	0.389
-129.312	2.840	0.138	-0.098
-128.297	-200.000	0.037	0.177
-127.283	-53.080	0.105	-0.047
-126.268	130.231	-0.184	0.231
-125.253	-92.394	0.387	0.107
-124.239	7.467	0.177	-0.129
-123.224	-153.868	-0.171	0.011
-122.210	201.912	0.127	0.192
-121.195	248.796	0.088	-0.146
