DTS Sentinel unit serial number:	SN413079Multiplexer serial number:	ORYXHardware model number:	OX4-SRSoftware version number:	ORYX F/W v4.00 Oryx Data Collector v3.7.2.0data status	okinstallation	princeton_trtdifferential loss correction	single-endedforward channel	channel 2reverse channel	N/Adate	2019/09/14time	13:59:34forward acquisition time	60.00reverse acquisition time	0.00gamma	496.2192k internal	0.2305k external	0.2305temperature offset calibration	1.0143default loss term (dB/km)	0.3790temperature slope calibration	1.0000multiplexer offset coefficient	1.0000multiplexer slope coefficient	1.0000fibre end	0.00T internal ref (°C)	37.94T ext. ref 1 (°C)	4.98T ext. ref 2 (°C)	36.53length (m)	temperature (°C)	Stokes	anti-Stokes-747.200	236.239	-0.161	0.272
-746.185	800.000	0.097	0.351
-745.171	800.000	-0.145	0.411
-744.156	-66.907	-0.124	0.050
-743.142	-170.013	0.402	-0.015
-742.127	-1.948	0.074	0.053
-741.112	800.000	0.020	-0.068
-740.098	-165.779	-0.323	-0.014
-739.083	-87.270	0.320	-0.099
-738.069	92.421	-0.095	-0.109
-737.054	60.977	-0.253	-0.255
-736.039	567.267	0.021	0.052
-735.025	-152.997	0.309	-0.022
-734.010	39.277	0.066	0.060
-732.996	11.254	-0.361	0.281
-731.981	708.644	0.075	-0.202
-730.966	70.434	-0.234	-0.247
-729.952	-4.421	-0.266	0.187
-728.937	89.552	0.109	-0.124
-727.923	-61.611	0.054	0.023
-726.908	75.692	0.105	-0.113
-725.894	-80.943	0.243	-0.082
-724.879	15.172	-0.188	0.150
-723.864	-84.529	-0.299	0.096
-722.850	-4.360	-0.439	0.309
-721.835	800.000	0.065	-0.188
-720.821	0.014	0.225	-0.163
-719.806	165.834	-0.126	-0.181
-718.791	-200.000	0.001	-0.083
-717.777	-95.546	-0.114	0.031
-716.762	-65.072	0.158	-0.065
-715.748	-87.252	0.278	-0.086
-714.733	-200.000	-0.059	-0.359
-713.718	789.539	-0.123	0.342
-712.704	246.003	0.202	-0.347
-711.689	-141.370	0.136	-0.014
-710.675	-105.650	-0.105	-0.024
-709.660	-73.571	0.382	0.142
-708.645	-98.025	-0.276	0.072
-707.631	-72.496	0.324	0.122
-706.616	-155.582	0.144	0.009
-705.602	272.158	0.110	0.197
-704.587	-28.234	0.198	0.116
-703.572	-49.101	0.101	-0.049
-702.558	58.078	0.119	0.119
-701.543	800.000	-0.048	-0.146
-700.529	603.436	0.135	0.342
-699.514	-160.740	0.161	0.009
-698.499	477.681	0.115	-0.264
-697.485	800.000	-0.005	-0.019
-696.470	-172.289	-0.336	0.011
-695.456	612.817	0.097	0.246
-694.441	-51.813	0.056	-0.027
-693.426	180.106	-0.021	0.031
-692.412	-55.057	-0.057	0.026
-691.397	11.497	-0.240	-0.187
-690.383	800.000	0.143	-0.504
-689.368	800.000	0.046	-0.150
-688.354	-200.000	0.024	0.264
-687.339	-159.409	-0.338	0.019
-686.324	-200.000	0.015	-0.140
-685.310	-50.517	0.075	0.036
-684.295	249.337	-0.036	0.061
-683.281	103.869	0.071	-0.085
-682.266	-168.173	0.227	-0.009
-681.251	182.463	-0.078	0.117
-680.237	12.794	0.075	-0.059
-679.222	371.295	-0.089	-0.182
-678.208	-200.000	-0.033	-0.167
-677.193	33.190	-0.204	-0.180
-676.178	-200.000	0.040	-0.199
-675.164	-200.000	-0.008	-0.162
-674.149	380.224	-0.137	-0.285
-673.135	-79.734	0.194	-0.066
-672.120	-97.344	0.173	0.046
-671.105	-98.537	-0.343	0.089
-670.091	-200.000	-0.038	-0.750
-669.076	69.445	0.160	0.167
-668.062	21.458	0.243	-0.200
-667.047	800.000	0.116	-0.326
-666.032	75.922	-0.170	0.183
-665.018	286.463	0.188	0.344
-664.003	404.453	-0.070	0.150
-662.989	-200.000	-0.003	-0.120
-661.974	85.731	-0.135	0.150
-660.959	-200.000	-0.007	0.127
-659.945	-89.684	0.072	0.021
-658.930	137.481	-0.203	0.270
-657.916	-107.205	-0.240	-0.054
-656.901	33.097	-0.076	0.066
-655.886	-70.216	-0.265	-0.102
-654.872	107.112	0.156	0.188
-653.857	86.279	-0.090	0.100
-652.843	611.415	-0.093	0.235
-651.828	124.289	-0.074	0.094
-650.814	-102.481	0.191	-0.046
-649.799	-200.000	0.020	-0.179
-648.784	-56.629	0.180	0.081
-647.770	73.255	-0.178	0.189
-646.755	-38.598	0.210	-0.113
-645.741	-200.000	-0.046	-0.368
-644.726	-29.677	-0.151	-0.087
-643.711	-107.497	-0.256	-0.057
-642.697	-3.760	-0.124	-0.087
-641.682	-200.000	-0.034	0.274
-640.668	135.932	-0.099	0.131
-639.653	-96.036	-0.266	-0.072
-638.638	359.200	-0.094	-0.190
-637.624	8.080	0.085	0.064
-636.609	800.000	-0.118	0.403
-635.595	800.000	-0.061	-0.190
-634.580	800.000	-0.039	0.163
-633.565	61.594	0.142	-0.143
-632.551	450.235	-0.205	0.458
-631.536	167.347	-0.035	-0.050
-630.522	249.854	0.145	0.249
-629.507	-200.000	0.002	-0.013
-628.492	-110.692	-0.311	-0.065
-627.478	800.000	-0.051	0.162
-626.463	-200.000	0.016	0.399
-625.449	148.922	0.140	0.191
-624.434	800.000	0.030	-0.106
-623.419	222.714	0.250	-0.408
-622.405	-101.618	0.090	-0.022
-621.390	232.924	0.067	-0.112
-620.376	-70.985	-0.339	-0.129
-619.361	45.437	0.061	-0.057
-618.346	42.094	0.049	-0.045
-617.332	-200.000	-0.035	-0.398
-616.317	264.404	-0.059	-0.104
-615.303	14.421	0.273	0.216
-614.288	-200.000	0.042	-0.190
-613.273	109.444	0.177	0.215
-612.259	-200.000	-0.006	-0.277
-611.244	420.129	-0.083	-0.179
-610.230	800.000	-0.032	-0.135
-609.215	-200.000	-0.003	0.018
-608.201	-176.401	0.143	0.004
-607.186	-200.000	-0.005	0.203
-606.171	734.173	-0.129	0.350
-605.157	-50.189	0.101	-0.048
-604.142	800.000	0.057	0.167
-603.128	-200.000	0.003	0.033
-602.113	122.912	0.051	0.064
-601.098	-200.000	-0.040	0.179
-600.084	7.620	-0.173	-0.131
-599.069	406.132	-0.165	-0.352
-598.055	-200.000	0.034	-0.205
-597.040	-104.517	0.183	0.043
-596.025	57.510	0.179	0.177
-595.011	-106.609	0.458	-0.103
-593.996	-44.804	0.176	-0.089
-592.982	800.000	0.034	0.120
-591.967	-137.543	-0.128	0.015
-590.952	3.842	0.301	-0.222
-589.938	-178.053	-0.183	-0.004
-588.923	-57.966	-0.131	-0.058
-587.909	111.577	0.220	-0.268
-586.894	180.518	-0.043	0.064
-585.879	-200.000	-0.019	0.087
-584.865	138.541	-0.064	0.085
-583.850	71.726	-0.160	0.169
-582.836	800.000	0.065	-0.220
-581.821	124.146	-0.107	-0.136
-580.806	215.888	-0.015	0.025
-579.792	-151.109	0.262	0.020
-578.777	-200.000	-0.024	-0.181
-577.763	-70.732	-0.238	0.091
-576.748	172.547	0.163	-0.237
-575.733	145.269	0.165	0.223
-574.719	-37.811	0.237	-0.128
-573.704	-101.885	-0.090	-0.022
-572.690	-115.306	0.107	0.020
-571.675	-140.587	-0.097	-0.010
-570.661	-132.346	-0.080	0.010
-569.646	-70.226	-0.275	-0.106
-568.631	800.000	-0.094	-0.397
-567.617	-120.274	-0.182	0.031
-566.602	25.508	0.085	0.072
-565.588	359.819	0.062	0.125
-564.573	182.288	-0.060	-0.089
-563.558	800.000	0.058	-0.207
-562.544	-78.950	-0.246	0.085
-561.529	-121.094	0.147	0.025
-560.515	63.263	0.161	-0.163
-559.500	-77.211	0.129	0.045
-558.485	68.187	0.228	0.236
-557.471	50.387	-0.114	-0.108
-556.456	-200.000	0.016	0.075
-555.442	99.043	0.059	0.069
-554.427	120.669	0.285	0.358
-553.412	65.590	-0.112	0.115
-552.398	631.305	0.102	0.260
-551.383	624.541	0.141	-0.359
-550.369	-88.935	-0.209	-0.062
-549.354	103.623	0.287	0.340
-548.339	9.515	0.064	0.049
-547.325	800.000	-0.115	-0.326
-546.310	90.777	-0.082	0.093
-545.296	-200.000	-0.006	0.081
-544.281	-200.000	0.022	0.137
-543.266	-200.000	0.051	-0.280
-542.252	-170.717	0.117	0.004
-541.237	127.397	-0.197	-0.253
-540.223	-200.000	-0.012	-0.162
-539.208	-200.000	0.024	-0.240
-538.193	64.250	-0.186	-0.189
-537.179	-174.625	-0.266	-0.008
-536.164	-28.910	-0.382	-0.221
-535.150	-116.169	-0.175	0.033
-534.135	-99.935	0.368	0.093
-533.121	49.879	0.140	-0.134
-532.106	-182.119	0.309	0.006
-531.091	717.256	0.104	0.278
-530.077	-103.555	-0.280	-0.066
-529.062	800.000	0.083	-0.320
-528.048	516.007	0.067	0.158
-527.033	490.407	0.081	0.188
-526.018	263.349	0.117	-0.206
-525.004	-1.309	0.118	0.084
-523.989	-200.000	0.001	0.266
-522.975	571.733	0.018	-0.043
-521.960	-51.234	-0.156	-0.074
-520.945	-30.311	-0.260	-0.149
-519.931	431.497	0.142	-0.311
-518.916	-200.000	-0.039	-0.264
-517.902	-200.000	0.011	0.176
-516.887	-120.812	-0.231	-0.039
-515.872	142.662	0.119	0.160
-514.858	-200.000	-0.012	0.112
-513.843	589.119	-0.070	0.175
-512.829	171.879	-0.130	-0.188
-511.814	64.754	0.145	0.148
-510.799	800.000	0.082	-0.229
-509.785	8.996	-0.165	0.126
-508.770	-136.009	-0.193	-0.023
-507.756	71.321	-0.277	-0.290
-506.741	-81.764	0.095	-0.031
-505.726	800.000	0.030	-0.090
-504.712	-123.642	0.254	-0.041
-503.697	113.088	0.141	-0.172
-502.683	-172.193	-0.273	-0.009
-501.668	0.937	-0.018	-0.013
-500.653	-64.218	-0.237	0.097
-499.639	234.701	0.351	0.583
-498.624	-200.000	-0.008	0.307
-497.610	-1.241	-0.033	0.024
-496.595	-120.412	0.110	0.019
-495.581	-200.000	-0.061	0.314
-494.566	123.398	-0.225	0.284
-493.551	-103.578	-0.338	0.080
-492.537	35.962	-0.099	0.088
-491.522	709.118	0.039	0.104
-490.508	186.183	0.122	0.183
-489.493	768.014	-0.072	-0.198
-488.478	777.298	-0.085	0.234
-487.464	138.585	-0.161	-0.213
-486.449	-58.418	-0.167	-0.073
-485.435	-200.000	0.042	-0.256
-484.420	-131.566	0.213	0.028
-483.405	-167.281	0.174	0.007
-482.391	179.131	-0.120	-0.177
-481.376	-200.000	0.020	0.263
-480.362	-200.000	0.036	-0.170
-479.347	-173.796	-0.290	-0.009
-478.332	-165.202	-0.185	0.008
-477.318	-200.000	-0.019	0.272
-476.303	-200.000	0.021	0.169
-475.289	48.757	-0.239	0.226
-474.274	-200.000	0.048	0.229
-473.259	458.646	-0.066	0.148
-472.245	-143.763	-0.351	-0.033
-471.230	-102.640	-0.480	-0.115
-470.216	-200.000	0.015	0.186
-469.201	200.720	0.117	0.181
-468.186	192.860	0.058	0.088
-467.172	800.000	0.090	0.337
-466.157	66.951	0.229	-0.235
-465.143	-200.000	-0.037	0.260
-464.128	-200.000	0.173	-0.001
-463.113	-76.374	0.086	0.030
-462.099	-97.175	0.268	0.070
-461.084	-35.397	0.237	-0.130
-460.070	-200.000	-0.015	-0.144
-459.055	-200.000	0.016	-0.220
-458.040	448.696	-0.083	0.184
-457.026	-10.476	0.058	0.038
-456.011	-11.608	0.027	0.018
-454.997	-122.887	0.358	0.058
-453.982	800.000	0.059	-0.257
-452.968	35.943	-0.275	0.243
-451.953	755.843	0.071	0.193
-450.938	800.000	-0.013	0.050
-449.924	800.000	-0.116	0.384
-448.909	81.142	-0.104	0.113
-447.895	-44.612	-0.116	-0.058
-446.880	150.037	0.214	-0.293
-445.865	-200.000	0.076	-0.470
-444.851	-20.957	0.216	0.133
-443.836	101.273	0.081	-0.095
-442.822	-200.000	-0.064	-0.324
-441.807	-118.050	0.387	-0.070
-440.792	-200.000	0.046	0.342
-439.778	-200.000	0.026	-0.161
-438.763	-162.322	-0.315	-0.016
-437.749	800.000	0.024	-0.066
-436.734	284.019	-0.183	0.332
-435.719	-69.146	0.101	0.039
-434.705	161.173	0.083	0.117
-433.690	-125.091	0.192	-0.030
-432.676	85.678	0.285	-0.315
-431.661	28.836	0.152	0.129
-430.646	47.360	0.072	0.067
-429.632	125.720	0.166	-0.211
-428.617	214.292	0.091	-0.144
-427.603	-129.842	-0.134	0.018
-426.588	13.627	0.289	-0.225
-425.573	-70.831	-0.220	0.083
-424.559	-200.000	-0.013	0.199
-423.544	-200.000	0.009	0.200
-422.530	-79.666	0.266	-0.090
-421.515	363.976	-0.124	-0.251
-420.500	-24.358	0.323	0.194
-419.486	-35.848	0.343	-0.187
-418.471	47.739	0.160	-0.150
-417.457	-178.754	0.197	0.005
-416.442	800.000	0.126	0.361
-415.428	432.951	-0.060	-0.130
-414.413	601.340	-0.086	0.215
-413.398	-38.051	0.104	0.055
-412.384	-22.481	-0.282	0.171
-411.369	800.000	0.012	-0.040
-410.355	-80.567	-0.164	-0.055
-409.340	151.638	-0.067	-0.092
-408.325	-200.000	0.062	-0.280
-407.311	329.638	-0.058	-0.111
-406.296	-200.000	-0.028	0.148
-405.282	-1.521	0.093	0.066
-404.267	-42.258	-0.144	0.074
-403.252	800.000	-0.076	-0.277
-402.238	-107.720	0.049	-0.011
-401.223	-169.160	-0.209	0.008
-400.209	-71.621	-0.222	-0.083
-399.194	-100.674	0.077	-0.019
-398.179	184.273	-0.122	-0.181
-397.165	206.612	-0.181	-0.283
-396.150	573.804	-0.037	0.090
-395.136	179.552	-0.228	-0.335
-394.121	-125.999	-0.323	0.049
-393.106	-158.459	-0.585	0.034
-392.092	-143.711	-0.149	0.014
-391.077	182.861	-0.039	-0.058
-390.063	-200.000	0.046	-0.422
-389.048	48.402	0.049	0.046
-388.033	800.000	-0.059	-0.208
-387.019	-35.053	-0.168	-0.092
-386.004	-200.000	-0.007	-0.205
-384.990	73.850	-0.324	0.341
-383.975	-34.623	-0.275	0.151
-382.960	124.050	-0.171	-0.216
-381.946	-145.847	0.204	-0.018
-380.931	369.854	0.062	-0.125
-379.917	-63.548	0.060	0.025
-378.902	86.878	-0.171	-0.190
-377.888	111.433	0.166	0.200
-376.873	113.915	-0.147	0.179
-375.858	-104.888	-0.179	0.041
-374.844	217.619	0.062	0.100
-373.829	-180.287	0.193	-0.004
-372.815	430.366	0.086	0.187
-371.800	-86.450	-0.161	0.049
-370.785	60.757	-0.303	-0.302
-369.771	800.000	-0.079	-0.290
-368.756	-31.541	-0.287	-0.162
-367.742	-54.645	-0.352	0.160
-366.727	138.624	-0.125	0.165
-365.712	470.562	-0.106	0.239
-364.698	-16.553	-0.069	0.044
-363.683	-77.889	0.440	0.152
-362.669	-134.807	0.096	-0.012
-361.654	103.058	0.236	0.277
-360.639	800.000	-0.024	-0.088
-359.625	-200.000	-0.013	0.128
-358.610	-85.682	-0.050	-0.016
-357.596	-200.000	-0.002	0.015
-356.581	-62.890	-0.161	0.067
-355.566	213.944	0.071	-0.112
-354.552	6.490	0.068	0.051
-353.537	180.477	-0.207	0.305
-352.523	50.920	-0.141	0.134
-351.508	-144.675	0.136	-0.013
-350.493	65.401	0.056	0.057
-349.479	614.304	-0.026	0.064
-348.464	800.000	-0.049	-0.180
-347.450	800.000	0.107	0.374
-346.435	-11.600	-0.221	-0.146
-345.420	3.890	-0.175	-0.128
-344.406	408.066	0.075	-0.159
-343.391	-184.050	-0.174	0.003
-342.377	-70.500	0.022	0.008
-341.362	74.142	0.015	0.016
-340.348	-154.250	0.124	-0.008
-339.333	-53.344	-0.187	-0.086
-338.318	-200.000	-0.034	0.187
-337.304	300.909	-0.230	0.426
-336.289	-83.161	0.416	0.134
-335.275	329.793	-0.108	-0.209
-334.260	-39.968	-0.374	0.195
-333.245	-106.926	-0.171	-0.038
-332.231	55.809	-0.146	0.142
-331.216	-72.531	-0.220	0.082
-330.202	-9.369	0.117	0.078
-329.187	-57.848	-0.199	0.087
-328.172	285.991	-0.144	0.260
-327.158	345.015	-0.170	0.335
-326.143	-15.530	-0.156	-0.099
-325.129	145.031	-0.286	-0.383
-324.114	572.472	0.067	-0.162
-323.099	800.000	-0.057	-0.219
-322.085	800.000	0.058	-0.166
-321.070	234.548	0.172	0.285
-320.056	3.589	-0.208	-0.152
-319.041	166.760	-0.207	0.294
-318.026	-103.626	0.259	-0.061
-317.012	63.868	-0.095	0.096
-315.997	-200.000	-0.013	-0.256
-314.983	-200.000	-0.003	0.219
-313.968	-69.782	-0.169	-0.064
-312.953	-102.134	0.366	-0.088
-311.939	-29.817	0.062	0.035
-310.924	309.166	0.134	0.250
-309.910	-200.000	0.001	-0.247
-308.895	-85.436	-0.109	-0.034
-307.880	469.924	0.149	0.334
-306.866	-174.734	-0.422	0.012
-305.851	-200.000	0.043	-0.309
-304.837	-55.150	-0.270	-0.122
-303.822	112.958	0.053	-0.065
-302.807	527.644	-0.031	0.072
-301.793	800.000	0.125	0.387
-300.778	211.206	-0.082	-0.130
-299.764	-70.720	0.343	-0.129
-298.749	-200.000	0.044	-0.248
-297.735	67.915	-0.254	0.260
-296.720	107.208	0.031	-0.037
-295.705	-104.393	0.148	-0.034
-294.691	-200.000	0.015	0.352
-293.676	-148.734	0.209	0.017
-292.662	800.000	0.123	-0.352
-291.647	-41.394	0.234	-0.120
-290.632	-134.502	0.068	-0.008
-289.618	649.096	-0.097	-0.249
-288.603	-45.479	0.363	0.180
-287.589	-200.000	-0.003	-0.186
-286.574	97.317	-0.122	-0.140
-285.559	115.929	0.222	0.271
-284.545	-11.072	-0.149	0.099
-283.530	-34.466	-0.155	0.085
-282.516	-61.585	-0.252	-0.106
-281.501	-131.549	-0.024	-0.003
-280.486	-80.776	0.236	-0.078
-279.472	-140.694	0.483	0.050
-278.457	-54.500	0.161	-0.073
-277.443	-7.477	-0.126	-0.085
-276.428	800.000	0.100	-0.310
-275.413	800.000	0.066	0.249
-274.399	321.023	0.055	-0.104
-273.384	-200.000	0.020	-0.258
-272.370	-103.511	0.288	0.068
-271.355	-47.363	0.120	0.058
-270.340	-123.599	0.143	-0.023
-269.326	133.946	0.258	0.334
-268.311	-70.907	0.274	0.103
-267.297	22.407	0.232	0.189
-266.282	528.241	0.049	-0.115
-265.267	-27.367	0.436	0.253
-264.253	800.000	-0.079	0.224
-263.238	-144.542	0.348	-0.032
-262.224	344.682	0.127	0.249
-261.209	82.108	-0.180	-0.195
-260.195	-37.468	0.098	-0.052
-259.180	606.744	0.018	0.045
-258.165	17.547	-0.384	-0.305
-257.151	-200.000	0.017	-0.237
-256.136	-58.158	-0.205	-0.089
-255.122	141.136	0.047	0.062
-254.107	69.382	-0.095	-0.097
-253.092	-200.000	0.084	0.439
-252.078	-70.621	0.397	-0.150
-251.063	-129.026	-0.224	-0.031
-250.049	-200.000	0.016	0.090
-249.034	-106.952	-0.058	-0.013
-248.019	-71.779	-0.272	-0.101
-247.005	146.536	0.190	0.255
-245.990	-40.409	0.105	-0.054
-244.976	42.539	-0.267	-0.243
-243.961	-64.540	-0.070	-0.029
-242.946	119.849	0.304	0.376
-241.932	54.285	0.102	-0.098
-240.917	-11.790	-0.022	-0.014
-239.903	800.000	-0.048	0.162
-238.888	48.403	0.148	0.139
-237.873	418.392	-0.074	-0.159
-236.859	-49.807	0.166	0.079
-235.844	-79.457	-0.198	0.067
-234.830	800.000	-0.024	0.088
-233.815	-173.107	0.137	-0.004
-232.800	249.139	-0.016	0.026
-231.786	-147.869	0.014	0.001
-230.771	-79.707	0.309	-0.104
-229.757	-67.715	0.067	0.026
-228.742	266.820	0.088	-0.154
-227.727	-176.253	-0.252	-0.007
-226.713	171.950	0.067	0.096
-225.698	-118.819	-0.160	0.028
-224.684	121.369	-0.239	0.297
-223.669	107.193	-0.157	-0.186
-222.655	-119.952	0.392	0.067
-221.640	-42.095	0.021	0.011
-220.625	74.900	0.184	0.194
-219.611	36.581	-0.200	-0.176
-218.596	-50.931	0.237	-0.111
-217.582	150.064	-0.037	-0.050
-216.567	59.883	0.026	0.025
-215.552	543.183	0.030	0.072
-214.538	-117.369	-0.244	0.044
-213.523	-124.677	0.279	0.043
-212.509	-187.678	0.230	0.003
-211.494	663.469	0.094	-0.241
-210.479	-99.653	0.101	-0.025
-209.465	-146.699	0.423	-0.037
-208.450	-68.698	0.242	-0.093
-207.436	40.940	0.167	-0.150
-206.421	-46.644	0.299	-0.146
-205.406	-53.621	0.096	-0.044
-204.392	800.000	-0.064	0.201
-203.377	82.893	-0.200	0.217
-202.363	1.706	-0.091	-0.065
-201.348	-17.448	0.411	-0.258
-200.333	-103.506	0.167	-0.039
-199.319	-79.001	-0.200	-0.068
-198.304	-71.281	-0.233	0.087
-197.290	66.807	0.252	-0.255
-196.275	14.118	0.312	0.242
-195.260	-104.667	-0.018	-0.004
-194.246	-90.973	0.166	0.048
-193.231	-47.971	0.252	-0.121
-192.217	69.125	-0.108	0.110
-191.202	-200.000	-0.019	0.100
-190.187	-2.311	-0.058	0.040
-189.173	-129.437	-0.133	0.018
-188.158	-200.000	0.066	0.296
-187.144	-92.834	-0.320	0.089
-186.129	-61.080	-0.051	-0.021
-185.114	800.000	0.024	0.085
-184.100	-17.042	-0.130	-0.082
-183.085	170.996	-0.057	0.082
-182.071	19.082	0.155	-0.124
-181.056	205.411	-0.006	0.010
-180.042	-50.753	-0.129	-0.060
-179.027	-200.000	0.019	-0.135
-178.012	310.370	-0.172	-0.321
-176.998	-200.000	-0.019	-0.288
-175.983	31.857	0.130	-0.112
-174.969	125.677	-0.220	-0.276
-173.954	141.587	0.107	-0.141
-172.939	-30.838	-0.180	0.102
-171.925	-25.798	-0.013	-0.008
-170.910	-200.000	-0.031	0.365
-169.896	405.326	-0.052	0.109
-168.881	-95.281	-0.082	0.022
-167.866	28.221	-0.147	0.124
-166.852	-200.000	-0.019	-0.172
-165.837	31.976	-0.223	-0.191
-164.823	-200.000	0.002	-0.139
-163.808	398.117	0.175	0.364
-162.793	800.000	0.045	-0.171
-161.779	-22.078	-0.219	-0.132
-160.764	-200.000	-0.001	-0.074
-159.750	231.790	-0.055	-0.090
-158.735	-63.993	0.226	-0.092
-157.720	-124.953	0.093	-0.014
-156.706	468.788	0.013	-0.030
-155.691	-97.783	-0.261	-0.067
-154.677	658.559	0.146	0.374
-153.662	-45.832	-0.212	0.104
-152.647	-200.000	-0.033	-0.217
-151.633	-85.915	-0.089	-0.028
-150.618	166.941	0.099	-0.139
-149.604	263.241	0.084	0.146
-148.589	408.776	-0.115	-0.241
-147.574	62.863	0.139	0.138
-146.560	-50.477	-0.362	0.170
-145.545	-136.148	0.227	0.026
-144.531	-200.000	0.037	-0.163
-143.516	-200.000	0.041	-0.411
-142.502	53.574	-0.304	-0.290
-141.487	120.866	0.260	0.321
-140.472	-75.961	-0.213	0.075
-139.458	800.000	-0.147	-0.421
-138.443	50.374	0.191	0.179
-137.429	-200.000	0.018	-0.100
-136.414	-71.546	0.199	-0.074
-135.399	323.052	0.223	0.423
-134.385	-60.606	0.253	0.107
-133.370	-125.054	-0.123	0.019
-132.356	-93.062	-0.229	-0.063
-131.341	64.792	0.124	0.124
-130.326	-127.784	-0.365	0.052
-129.312	143.416	0.126	-0.167
-128.297	-200.000	-0.041	0.349
-127.283	-200.000	0.012	-0.075
-126.268	49.228	0.251	0.234
-125.253	21.711	0.180	-0.146
-124.239	-200.000	-0.026	-0.170
-123.224	-74.194	0.226	0.081
-122.210	-175.286	0.144	0.004
-121.195	-36.543	0.254	-0.136
