DTS Sentinel unit serial number:	SN413079Multiplexer serial number:	ORYXHardware model number:	OX4-SRSoftware version number:	ORYX F/W v4.00 Oryx Data Collector v3.7.2.0data status	okinstallation	princeton_trtdifferential loss correction	single-endedforward channel	channel 2reverse channel	N/Adate	2019/09/10time	16:01:11forward acquisition time	60.00reverse acquisition time	0.00gamma	496.2192k internal	0.2308k external	0.2308temperature offset calibration	0.9934default loss term (dB/km)	0.3790temperature slope calibration	1.0000multiplexer offset coefficient	1.0000multiplexer slope coefficient	1.0000fibre end	0.00T internal ref (°C)	38.25T ext. ref 1 (°C)	-0.26T ext. ref 2 (°C)	32.46length (m)	temperature (°C)	Stokes	anti-Stokes-747.200	-46.306	0.070	0.035
-746.185	271.701	0.136	0.244
-745.171	-42.955	-0.181	-0.094
-744.156	161.973	-0.122	0.174
-743.142	-45.661	0.227	0.114
-742.127	-200.000	-0.019	0.158
-741.112	-109.205	0.221	-0.048
-740.098	800.000	-0.100	0.318
-739.083	-38.341	-0.222	0.120
-738.069	-200.000	0.060	0.544
-737.054	-59.296	0.198	-0.086
-736.039	141.395	-0.134	-0.181
-735.025	-200.000	0.004	-0.196
-734.010	-24.113	0.287	-0.174
-732.996	800.000	-0.066	-0.259
-731.981	244.723	0.153	0.262
-730.966	101.507	0.108	0.128
-729.952	-81.801	0.306	0.102
-728.937	189.792	0.263	-0.401
-727.923	-47.726	0.076	-0.037
-726.908	-149.455	0.229	0.018
-725.894	69.829	-0.059	0.062
-724.879	-27.522	-0.280	0.165
-723.864	-38.328	0.064	-0.034
-722.850	-69.819	-0.210	0.082
-721.835	206.179	-0.013	0.021
-720.821	-117.828	-0.228	0.042
-719.806	4.050	-0.260	-0.193
-718.791	310.448	-0.072	-0.137
-717.777	259.139	-0.208	0.365
-716.762	-49.429	-0.116	0.056
-715.748	5.855	0.305	0.229
-714.733	-111.280	-0.093	0.019
-713.718	-24.014	0.233	-0.141
-712.704	-200.000	-0.024	0.139
-711.689	621.308	-0.033	-0.085
-710.675	-193.979	-0.240	-0.002
-709.660	-129.656	0.370	-0.052
-708.645	191.256	0.056	0.086
-707.631	-200.000	-0.030	0.274
-706.616	-134.064	-0.052	0.007
-705.602	-83.380	-0.154	-0.050
-704.587	63.799	-0.187	0.191
-703.572	21.511	0.074	0.061
-702.558	-200.000	-0.022	0.217
-701.543	-16.381	0.087	0.056
-700.529	127.197	-0.144	-0.185
-699.514	-83.483	0.166	-0.054
-698.499	-106.556	-0.219	0.050
-697.485	166.529	-0.231	0.332
-696.470	770.170	0.099	-0.273
-695.456	800.000	-0.032	0.115
-694.441	225.723	-0.058	0.095
-693.426	-200.000	-0.029	-0.425
-692.412	500.590	-0.195	0.457
-691.397	-51.951	0.373	-0.176
-690.383	11.324	-0.226	-0.176
-689.368	330.908	0.017	0.033
-688.354	-94.418	-0.180	0.050
-687.339	-200.000	0.063	-0.318
-686.324	-40.838	0.100	0.053
-685.310	-66.078	0.104	0.042
-684.295	-32.629	0.264	0.149
-683.281	55.160	-0.153	-0.150
-682.266	85.452	-0.349	-0.388
-681.251	800.000	-0.050	-0.141
-680.237	-54.333	0.194	-0.089
-679.222	62.199	0.152	-0.154
-678.208	13.418	-0.071	-0.056
-677.193	195.509	0.098	0.150
-676.178	-118.111	0.047	0.009
-675.164	177.213	0.180	0.265
-674.149	70.355	-0.129	-0.135
-673.135	47.131	-0.239	0.226
-672.120	268.808	0.118	-0.209
-671.105	-104.834	-0.113	-0.026
-670.091	113.748	0.223	-0.275
-669.076	-200.000	-0.038	-0.465
-668.062	49.965	-0.253	-0.242
-667.047	5.497	-0.129	0.096
-666.032	74.257	-0.114	-0.121
-665.018	-121.033	0.323	0.055
-664.003	78.362	0.132	0.143
-662.989	800.000	-0.079	0.250
-661.974	-37.534	-0.294	0.159
-660.959	-200.000	0.016	-0.087
-659.945	-74.305	0.061	-0.022
-658.930	-3.164	-0.298	0.210
-657.916	-77.657	0.117	-0.041
-656.901	173.477	-0.205	-0.299
-655.886	-200.000	0.030	0.325
-654.872	-79.064	0.207	-0.071
-653.857	-87.749	0.063	-0.019
-652.843	120.495	0.067	-0.084
-651.828	364.647	-0.093	-0.189
-650.814	-200.000	-0.017	-0.250
-649.799	-144.702	0.193	0.018
-648.784	-145.052	-0.028	0.003
-647.770	-77.296	-0.345	0.121
-646.755	-200.000	-0.014	-0.168
-645.741	-137.681	0.092	0.010
-644.726	204.815	-0.067	-0.106
-643.711	236.630	0.041	-0.068
-642.697	-200.000	-0.022	-0.328
-641.682	-32.631	0.181	0.102
-640.668	-2.052	-0.209	0.149
-639.653	-114.167	0.058	-0.011
-638.638	-39.616	-0.347	-0.184
-637.624	-3.181	0.052	0.037
-636.609	800.000	0.030	-0.096
-635.595	-147.948	-0.167	-0.014
-634.580	-108.243	-0.361	0.079
-633.565	247.243	-0.042	-0.071
-632.551	-36.854	-0.102	-0.055
-631.536	59.034	0.226	0.225
-630.522	102.100	0.153	0.180
-629.507	-182.165	0.128	0.002
-628.492	-131.540	-0.305	-0.041
-627.478	-114.101	0.079	0.015
-626.463	-101.619	-0.090	0.022
-625.449	110.301	0.066	0.081
-624.434	63.556	0.107	0.108
-623.419	-136.508	-0.354	0.042
-622.405	-200.000	-0.005	-0.026
-621.390	-200.000	-0.009	-0.179
-620.376	156.363	-0.253	-0.353
-619.361	-42.704	-0.147	-0.076
-618.346	33.089	0.164	-0.144
-617.332	153.078	0.205	-0.283
-616.317	21.895	0.178	0.147
-615.303	29.645	-0.324	0.279
-614.288	-160.475	0.242	-0.013
-613.273	800.000	-0.066	-0.242
-612.259	13.036	-0.204	-0.160
-611.244	146.883	0.106	-0.144
-610.230	271.437	0.073	0.130
-609.215	186.241	0.167	0.251
-608.201	-117.221	0.300	-0.055
-607.186	-27.162	0.182	-0.107
-606.171	48.729	-0.198	0.188
-605.157	-38.530	0.066	0.035
-604.142	-85.464	0.301	-0.095
-603.128	-90.120	-0.309	-0.091
-602.113	-200.000	-0.005	-0.481
-601.098	63.282	-0.071	-0.072
-600.084	-24.270	-0.258	0.155
-599.069	-120.066	0.204	-0.035
-598.055	-175.708	-0.265	0.007
-597.040	351.021	0.097	-0.195
-596.025	-21.546	-0.335	0.207
-595.011	-169.223	0.101	0.004
-593.996	800.000	-0.045	0.192
-592.982	176.248	-0.090	0.132
-591.967	-57.507	0.249	-0.110
-590.952	406.814	-0.087	0.186
-589.938	707.647	-0.173	-0.461
-588.923	413.296	0.108	0.233
-587.909	-59.113	0.064	-0.028
-586.894	-200.000	0.004	-0.060
-585.879	123.648	-0.279	-0.354
-584.865	140.896	-0.238	-0.318
-583.850	-200.000	-0.005	0.049
-582.836	466.889	0.023	-0.051
-581.821	51.353	0.138	-0.132
-580.806	-1.146	-0.152	-0.108
-579.792	-178.099	0.072	0.002
-578.777	151.577	-0.058	-0.080
-577.763	447.737	0.226	-0.503
-576.748	-97.784	0.121	-0.032
-575.733	-15.355	-0.084	0.054
-574.719	-120.485	-0.325	-0.056
-573.704	-200.000	0.047	-0.281
-572.690	-200.000	0.033	0.161
-571.675	-200.000	0.028	0.339
-570.661	800.000	-0.090	0.301
-569.646	-142.588	-0.348	-0.034
-568.631	-164.632	-0.281	-0.013
-567.617	-95.423	0.249	0.067
-566.602	-155.040	0.328	-0.022
-565.588	-200.000	0.056	0.268
-564.573	-200.000	0.012	0.101
-563.558	74.437	0.156	-0.165
-562.544	800.000	-0.073	-0.203
-561.529	-110.048	-0.248	-0.052
-560.515	-200.000	0.007	-0.387
-559.500	-133.909	0.305	-0.038
-558.485	165.246	-0.195	0.278
-557.471	-103.517	-0.259	-0.061
-556.456	152.704	-0.080	0.111
-555.442	43.643	0.351	0.324
-554.427	-13.946	-0.186	-0.121
-553.412	800.000	0.039	0.112
-552.398	800.000	-0.024	0.092
-551.383	-148.396	0.055	0.005
-550.369	-200.000	0.053	0.323
-549.354	23.288	0.181	0.150
-548.339	181.623	0.201	0.299
-547.325	101.565	0.108	0.127
-546.310	-200.000	0.028	0.221
-545.296	63.916	-0.188	0.191
-544.281	800.000	0.133	0.431
-543.266	-18.071	0.099	0.063
-542.252	-200.000	0.046	-0.256
-541.237	-39.299	0.259	0.137
-540.223	-73.932	0.242	-0.088
-539.208	644.144	-0.015	0.039
-538.193	-200.000	0.025	-0.139
-537.179	272.983	-0.053	-0.095
-536.164	127.363	-0.093	-0.120
-535.150	554.816	-0.078	-0.190
-534.135	-60.324	-0.170	-0.073
-533.121	104.470	-0.161	0.191
-532.106	-14.148	-0.186	0.121
-531.091	-125.225	0.122	-0.019
-530.077	121.859	0.117	-0.148
-529.062	-175.516	-0.165	-0.005
-528.048	-99.768	-0.138	0.035
-527.033	-200.000	-0.006	0.159
-526.018	154.429	0.183	-0.253
-525.004	-192.073	0.342	-0.003
-523.989	-140.070	0.187	-0.020
-522.975	-93.276	0.093	-0.026
-521.960	-200.000	0.030	-0.310
-520.945	379.036	-0.024	-0.049
-519.931	-200.000	-0.004	0.102
-518.916	33.164	0.163	-0.143
-517.902	-138.600	-0.243	-0.027
-516.887	-136.418	0.289	-0.034
-515.872	-46.314	-0.373	0.185
-514.858	-200.000	0.028	-0.220
-513.843	230.526	0.170	0.280
-512.829	-200.000	-0.058	0.301
-511.814	26.926	-0.187	0.158
-510.799	-41.058	-0.311	0.162
-509.785	352.881	0.143	-0.286
-508.770	699.581	-0.044	0.116
-507.756	68.745	-0.193	0.200
-506.741	-96.152	-0.091	0.024
-505.726	45.455	-0.154	0.143
-504.712	178.671	-0.180	0.264
-503.697	-10.311	-0.163	0.109
-502.683	153.210	0.157	-0.216
-501.668	27.678	-0.150	-0.127
-500.653	101.886	0.254	0.299
-499.639	30.514	0.092	0.079
-498.624	753.146	-0.058	0.158
-497.610	-28.855	0.114	-0.066
-496.595	224.181	-0.022	0.035
-495.581	-51.401	-0.268	-0.126
-494.566	182.145	-0.086	-0.127
-493.551	-200.000	0.034	-0.354
-492.537	-34.774	0.177	-0.097
-491.522	771.320	-0.029	-0.079
-490.508	195.726	-0.119	0.182
-489.493	151.228	0.145	0.198
-488.478	-114.326	0.133	-0.026
-487.464	800.000	-0.031	-0.118
-486.449	-115.134	0.247	0.047
-485.435	174.979	0.136	0.199
-484.420	-107.080	0.219	0.049
-483.405	-28.194	0.117	0.068
-482.391	212.136	-0.062	0.099
-481.376	-200.000	-0.029	0.135
-480.362	440.689	0.121	0.266
-479.347	-64.316	-0.061	-0.025
-478.332	-0.198	-0.370	0.265
-477.318	8.055	0.204	-0.154
-476.303	299.652	0.154	0.286
-475.289	-107.403	-0.346	-0.076
-474.274	-95.211	0.259	-0.070
-473.259	-60.061	0.176	0.075
-472.245	-34.548	0.324	0.178
-471.230	119.600	0.156	-0.194
-470.216	160.301	-0.134	-0.187
-469.201	692.141	0.047	0.123
-468.186	800.000	0.065	-0.260
-467.172	91.571	-0.248	-0.281
-466.157	-82.013	-0.345	-0.114
-465.143	-96.426	0.376	0.100
-464.128	800.000	0.147	-0.441
-463.113	-200.000	0.013	0.095
-462.099	-22.146	-0.253	0.155
-461.084	-19.554	0.214	-0.133
-460.070	55.829	0.216	0.211
-459.055	-93.194	0.164	-0.046
-458.040	-127.487	-0.181	-0.026
-457.026	383.243	0.114	0.237
-456.011	279.732	-0.077	0.138
-454.997	-200.000	0.038	-0.229
-453.982	42.257	0.198	-0.181
-452.968	-135.532	0.083	0.010
-451.953	1.558	0.180	-0.130
-450.938	-174.376	-0.577	-0.017
-449.924	-200.000	-0.009	-0.136
-448.909	-167.462	-0.440	0.018
-447.895	800.000	0.053	-0.196
-446.880	-148.479	-0.139	0.011
-445.865	-52.135	-0.223	0.104
-444.851	-126.288	0.167	-0.025
-443.836	-200.000	-0.055	0.244
-442.822	-200.000	-0.012	0.452
-441.807	310.864	0.105	0.197
-440.792	-31.948	-0.339	0.191
-439.778	-200.000	-0.054	0.328
-438.763	-200.000	0.040	0.261
-437.749	800.000	0.127	-0.449
-436.734	6.034	0.172	0.128
-435.719	437.169	-0.148	-0.324
-434.705	152.755	-0.087	-0.119
-433.690	235.461	-0.074	0.123
-432.676	129.436	-0.089	0.114
-431.661	800.000	-0.042	-0.175
-430.646	-8.737	-0.124	0.084
-429.632	146.649	-0.088	-0.119
-428.617	-200.000	-0.020	0.267
-427.603	243.561	-0.119	-0.200
-426.588	68.534	0.103	0.106
-425.573	757.002	0.023	-0.062
-424.559	116.127	-0.221	-0.272
-423.544	234.417	0.267	-0.443
-422.530	-200.000	-0.037	0.186
-421.515	-200.000	-0.024	0.326
-420.500	96.896	-0.280	-0.322
-419.486	-73.696	0.240	-0.088
-418.471	-200.000	-0.011	0.197
-417.457	220.953	-0.162	0.262
-416.442	364.153	-0.144	-0.290
-415.428	99.118	-0.322	0.374
-414.413	104.487	0.095	-0.113
-413.398	800.000	0.041	-0.117
-412.384	317.047	-0.158	-0.299
-411.369	-200.000	-0.005	-0.082
-410.355	-28.593	0.329	0.190
-409.340	-26.672	0.172	0.101
-408.325	-142.460	-0.272	-0.027
-407.311	-112.120	-0.160	-0.032
-406.296	-110.577	0.130	0.027
-405.282	605.647	0.095	-0.237
-404.267	83.273	0.136	-0.149
-403.252	266.726	0.231	-0.405
-402.238	-55.650	-0.316	-0.142
-401.223	-132.698	-0.014	-0.002
-400.209	112.481	0.087	-0.106
-399.194	94.055	-0.061	-0.069
-398.179	-70.998	-0.173	0.065
-397.165	76.604	0.089	-0.095
-396.150	800.000	-0.043	0.128
-395.136	800.000	0.074	-0.253
-394.121	-128.198	0.187	0.027
-393.106	-200.000	0.003	0.485
-392.092	-115.075	-0.248	-0.047
-391.077	800.000	0.085	-0.272
-390.063	-172.370	-0.226	-0.007
-389.048	800.000	0.076	-0.232
-388.033	7.440	0.173	-0.130
-387.019	14.434	0.232	0.182
-386.004	-127.774	0.081	-0.012
-384.990	-200.000	-0.030	-0.248
-383.975	-72.322	-0.085	-0.031
-382.960	-200.000	-0.026	0.402
-381.946	10.268	-0.239	-0.182
-380.931	25.971	-0.190	0.159
-379.917	-55.509	-0.150	0.067
-378.902	536.430	-0.125	0.298
-377.888	-36.286	0.227	0.123
-376.873	349.482	-0.133	0.263
-375.858	-73.780	-0.125	-0.046
-374.844	800.000	0.044	0.153
-373.829	-77.148	-0.177	-0.062
-372.815	-8.193	-0.149	0.101
-371.800	-194.433	0.271	-0.002
-370.785	330.797	-0.070	0.135
-369.771	-200.000	-0.016	0.335
-368.756	800.000	-0.062	0.172
-367.742	-16.702	0.120	-0.076
-366.727	-83.934	0.077	0.024
-365.712	-111.834	0.195	-0.039
-364.698	-89.742	-0.193	-0.057
-363.683	-5.672	0.061	0.042
-362.669	-191.756	0.204	0.002
-361.654	38.462	-0.036	0.032
-360.639	738.752	0.109	-0.293
-359.625	175.545	0.079	-0.115
-358.610	48.345	-0.240	-0.225
-357.596	345.945	-0.052	0.103
-356.581	101.464	0.194	0.227
-355.566	655.703	-0.092	0.236
-354.552	475.147	-0.079	0.178
-353.537	-18.151	-0.080	-0.050
-352.523	523.394	-0.097	-0.228
-351.508	-71.932	-0.051	0.019
-350.493	583.517	-0.041	-0.102
-349.479	800.000	0.031	-0.095
-348.464	-200.000	0.046	0.245
-347.450	-200.000	0.016	-0.159
-346.435	227.905	-0.076	0.124
-345.420	22.675	-0.218	-0.179
-344.406	-92.630	-0.250	0.070
-343.391	-164.705	-0.153	-0.007
-342.377	57.713	0.158	0.155
-341.362	-200.000	-0.025	0.176
-340.348	-101.948	0.071	0.017
-339.333	15.479	0.139	-0.109
-338.318	-94.813	-0.247	-0.067
-337.304	687.168	-0.103	-0.270
-336.289	-25.934	0.040	-0.024
-335.275	-16.136	0.272	0.173
-334.260	185.568	0.154	0.229
-333.245	-200.000	-0.019	-0.113
-332.231	800.000	-0.098	0.323
-331.216	-156.422	0.086	0.005
-330.202	-65.446	-0.382	-0.154
-329.187	-31.143	-0.234	-0.132
-328.172	-61.430	-0.146	-0.062
-327.158	-3.363	-0.327	-0.228
-326.143	507.902	-0.112	-0.260
-325.129	-200.000	0.009	-0.216
-324.114	265.040	-0.090	0.157
-323.099	-65.935	0.230	0.092
-322.085	270.874	0.194	-0.342
-321.070	800.000	0.072	0.258
-320.056	305.053	0.087	0.162
-319.041	-60.826	0.216	0.091
-318.026	-27.685	0.102	-0.059
-317.012	-126.010	0.253	-0.038
-315.997	-17.243	0.224	-0.141
-314.983	424.263	0.019	-0.040
-313.968	83.934	-0.170	-0.185
-312.953	384.078	-0.086	0.177
-311.939	427.739	0.121	-0.261
-310.924	-27.851	0.183	0.106
-309.910	96.443	-0.213	-0.244
-308.895	-118.612	0.398	0.070
-307.880	81.772	-0.314	-0.340
-306.866	-200.000	-0.036	0.332
-305.851	740.168	0.089	0.238
-304.837	283.845	0.025	-0.044
-303.822	-76.127	-0.184	-0.065
-302.807	58.605	0.213	-0.209
-301.793	506.161	0.082	0.190
-300.778	-40.487	0.152	-0.079
-299.764	162.960	0.146	0.205
-298.749	125.606	-0.014	0.018
-297.735	242.651	0.087	-0.145
-296.720	-172.109	0.302	-0.010
-295.705	88.202	-0.197	-0.219
-294.691	646.104	0.134	-0.341
-293.676	-147.164	0.375	0.032
-292.662	73.733	-0.086	0.090
-291.647	-89.985	0.179	0.052
-290.632	130.941	0.207	0.266
-289.618	662.988	-0.109	-0.281
-288.603	140.121	-0.069	-0.091
-287.589	-14.699	0.178	-0.114
-286.574	262.915	0.106	-0.184
-285.559	-200.000	0.018	0.217
-284.545	-151.441	0.205	-0.015
-283.530	664.537	-0.047	0.121
-282.516	177.543	-0.221	0.322
-281.501	108.149	-0.211	-0.252
-280.486	-29.393	0.203	-0.116
-279.472	800.000	-0.050	-0.179
-278.457	-200.000	-0.023	0.248
-277.443	528.673	-0.175	0.412
-276.428	390.730	0.193	0.399
-275.413	800.000	0.053	0.215
-274.399	65.231	0.095	-0.096
-273.384	-200.000	-0.026	-0.174
-272.370	-60.818	-0.253	0.107
-271.355	796.083	-0.044	-0.121
-270.340	-167.358	0.182	0.007
-269.326	475.263	-0.042	-0.094
-268.311	-31.076	0.456	0.256
-267.297	-200.000	0.011	-0.162
-266.282	57.323	-0.108	0.105
-265.267	334.139	-0.105	-0.204
-264.253	-21.497	0.422	-0.257
-263.238	5.514	0.080	0.059
-262.224	-148.816	0.135	-0.011
-261.209	-4.503	0.101	0.069
-260.195	51.891	-0.064	-0.060
-259.180	-111.151	0.067	-0.014
-258.165	-200.000	-0.006	-0.092
-257.151	88.603	-0.233	-0.258
-256.136	254.203	-0.128	-0.219
-255.122	-166.659	-0.274	0.011
-254.107	448.117	-0.110	0.242
-253.092	-103.418	0.382	0.090
-252.078	-44.964	0.054	-0.027
-251.063	-200.000	-0.014	-0.105
-250.049	-18.947	0.083	-0.051
-249.034	-200.000	-0.007	-0.050
-248.019	411.152	0.050	0.105
-247.005	525.787	-0.031	0.073
-245.990	92.355	0.172	-0.193
-244.976	115.421	0.082	-0.099
-243.961	800.000	-0.046	0.162
-242.946	-51.638	-0.255	0.119
-241.932	800.000	0.056	-0.166
-240.917	734.767	-0.072	0.193
-239.903	121.700	0.146	0.181
-238.888	103.933	0.223	-0.262
-237.873	-59.226	-0.108	-0.046
-236.859	-131.515	0.056	0.007
-235.844	502.892	-0.055	0.126
-234.830	800.000	-0.037	0.110
-233.815	595.002	-0.092	-0.226
-232.800	-200.000	-0.045	-0.297
-231.786	441.546	-0.084	-0.183
-230.771	-200.000	0.020	0.269
-229.757	188.672	-0.097	0.144
-228.742	-200.000	0.035	0.184
-227.727	-6.960	0.114	-0.077
-226.713	-60.953	-0.060	0.025
-225.698	-200.000	-0.001	-0.020
-224.684	165.116	-0.164	0.231
-223.669	47.607	-0.035	0.033
-222.655	-34.286	-0.180	-0.098
-221.640	-118.171	-0.040	0.007
-220.625	-39.033	-0.069	0.036
-219.611	-200.000	0.013	0.256
-218.596	44.396	0.182	0.166
-217.582	-55.958	-0.431	-0.191
-216.567	-10.533	0.062	0.041
-215.552	-108.362	-0.154	-0.033
-214.538	-44.216	0.065	-0.032
-213.523	434.085	-0.026	-0.056
-212.509	-9.681	-0.149	0.099
-211.494	-133.494	0.122	-0.015
-210.479	-2.215	0.089	0.063
-209.465	-172.767	-0.332	-0.010
-208.450	80.127	0.065	-0.070
-207.436	366.272	-0.077	0.155
-206.421	-3.737	-0.145	-0.100
-205.406	-132.548	-0.117	0.015
-204.392	683.775	-0.063	0.165
-203.377	-200.000	0.028	-0.209
-202.363	51.613	0.088	-0.083
-201.348	-180.502	0.341	0.007
-200.333	-172.666	-0.060	0.002
-199.319	-44.486	-0.203	-0.101
-198.304	-120.986	0.234	-0.039
-197.290	112.338	-0.095	0.114
-196.275	-83.727	0.368	0.117
-195.260	28.590	-0.031	-0.026
-194.246	28.093	0.145	0.122
-193.231	-150.466	-0.057	0.004
-192.217	-133.234	0.179	0.022
-191.202	300.557	-0.040	-0.074
-190.187	12.991	-0.186	0.143
-189.173	140.281	-0.135	0.178
-188.158	189.818	-0.070	-0.105
-187.144	-63.059	-0.152	0.063
-186.129	56.697	0.172	-0.167
-185.114	44.489	0.168	0.153
-184.100	-85.974	0.258	0.079
-183.085	138.466	0.175	0.229
-182.071	-161.916	0.154	-0.008
-181.056	-200.000	-0.019	0.166
-180.042	666.440	0.161	0.415
-179.027	114.206	-0.154	-0.187
-178.012	-15.646	0.083	-0.053
-176.998	-25.580	0.156	-0.092
-175.983	-200.000	-0.014	-0.088
-174.969	-200.000	0.005	0.301
-173.954	-200.000	-0.017	-0.213
-172.939	87.189	0.223	-0.245
-171.925	337.731	-0.060	0.115
-170.910	530.371	0.122	-0.286
-169.896	-92.622	-0.360	0.100
-168.881	-88.394	0.354	0.105
-167.866	-200.000	0.027	0.237
-166.852	154.622	-0.133	-0.182
-165.837	174.787	-0.052	-0.075
-164.823	-200.000	0.017	-0.239
-163.808	800.000	0.033	0.135
-162.793	-36.097	0.330	0.177
-161.779	105.253	0.128	-0.150
-160.764	-56.939	0.184	0.081
-159.750	-50.921	-0.172	-0.080
-158.735	-200.000	-0.037	-0.342
-157.720	-29.737	0.323	0.183
-156.706	138.627	-0.067	0.087
-155.691	-31.771	-0.220	0.122
-154.677	3.710	-0.277	-0.201
-153.662	27.120	-0.106	-0.088
-152.647	-200.000	0.040	-0.200
-151.633	467.364	0.057	0.128
-150.618	63.794	-0.065	0.065
-149.604	133.609	-0.118	0.151
-148.589	397.572	0.160	-0.333
-147.574	693.657	-0.076	-0.198
-146.560	190.567	-0.109	0.162
-145.545	800.000	-0.056	-0.168
-144.531	210.025	0.114	0.177
-143.516	40.350	0.184	0.164
-142.502	229.629	-0.024	-0.039
-141.487	-26.652	-0.187	-0.109
-140.472	35.417	-0.287	0.250
-139.458	83.570	-0.165	0.179
-138.443	800.000	0.070	0.288
-137.429	800.000	-0.127	0.361
-136.414	15.685	0.160	0.125
-135.399	9.252	-0.118	-0.089
-134.385	264.939	0.141	0.243
-133.370	94.122	0.136	0.154
-132.356	93.533	-0.066	0.074
-131.341	-200.000	-0.055	0.318
-130.326	-52.795	0.252	-0.115
-129.312	-200.000	-0.034	0.230
-128.297	-200.000	-0.004	0.186
-127.283	-200.000	0.009	0.205
-126.268	-200.000	-0.029	-0.480
-125.253	-91.814	0.234	-0.066
-124.239	85.563	-0.137	-0.150
-123.224	65.491	0.248	0.249
-122.210	270.256	-0.039	-0.068
-121.195	-109.266	0.301	0.063
