DTS Sentinel unit serial number:	SN413079Multiplexer serial number:	ORYXHardware model number:	OX4-SRSoftware version number:	ORYX F/W v4.00 Oryx Data Collector v3.7.2.0data status	okinstallation	princeton_trtdifferential loss correction	single-endedforward channel	channel 2reverse channel	N/Adate	2019/09/15time	07:51:35forward acquisition time	60.00reverse acquisition time	0.00gamma	496.2192k internal	0.2325k external	0.2325temperature offset calibration	1.0033default loss term (dB/km)	0.3790temperature slope calibration	1.0000multiplexer offset coefficient	1.0000multiplexer slope coefficient	1.0000fibre end	0.00T internal ref (°C)	30.66T ext. ref 1 (°C)	4.97T ext. ref 2 (°C)	25.88length (m)	temperature (°C)	Stokes	anti-Stokes-747.200	151.089	0.050	-0.069
-746.185	139.139	-0.180	0.238
-745.171	-200.000	-0.029	-0.186
-744.156	65.050	0.095	0.097
-743.142	133.330	-0.110	-0.144
-742.127	-114.619	0.048	0.009
-741.112	-142.504	-0.392	0.039
-740.098	800.000	-0.112	0.463
-739.083	-46.436	0.230	0.114
-738.069	-200.000	-0.039	0.539
-737.054	800.000	0.148	0.517
-736.039	-200.000	-0.026	0.142
-735.025	82.195	0.145	-0.159
-734.010	289.423	-0.091	-0.166
-732.996	-200.000	0.038	-0.427
-731.981	14.167	-0.321	0.252
-730.966	-200.000	-0.023	0.322
-729.952	-59.786	-0.229	-0.099
-728.937	-200.000	-0.067	-0.376
-727.923	338.764	-0.031	-0.060
-726.908	-73.360	-0.235	-0.087
-725.894	800.000	0.124	-0.395
-724.879	-172.754	-0.250	-0.008
-723.864	107.840	0.171	-0.205
-722.850	111.909	0.109	0.132
-721.835	8.632	-0.243	0.184
-720.821	62.233	-0.087	-0.088
-719.806	-200.000	0.028	0.279
-718.791	42.973	-0.236	0.217
-717.777	141.288	-0.082	0.109
-716.762	-200.000	-0.010	-0.133
-715.748	146.694	-0.018	-0.025
-714.733	-143.376	-0.292	-0.028
-713.718	-65.935	-0.333	0.134
-712.704	46.608	-0.224	-0.210
-711.689	-132.805	0.162	-0.021
-710.675	175.216	-0.030	0.043
-709.660	-60.650	-0.339	0.145
-708.645	788.037	0.158	-0.436
-707.631	-55.539	0.115	-0.052
-706.616	-200.000	0.024	0.308
-705.602	-174.300	0.101	-0.003
-704.587	12.102	0.261	-0.202
-703.572	536.613	0.155	0.371
-702.558	-89.969	0.148	-0.044
-701.543	32.035	0.096	-0.083
-700.529	-100.500	0.083	0.021
-699.514	800.000	-0.054	0.161
-698.499	-200.000	-0.045	-0.301
-697.485	-102.407	0.394	-0.095
-696.470	800.000	-0.045	-0.150
-695.456	-58.358	-0.196	-0.086
-694.441	-200.000	0.025	-0.330
-693.426	296.845	-0.102	-0.188
-692.412	-200.000	-0.013	0.157
-691.397	-24.488	-0.365	-0.219
-690.383	232.761	-0.102	0.169
-689.368	-48.229	-0.292	0.142
-688.354	-24.221	0.234	-0.141
-687.339	173.544	0.029	-0.042
-686.324	-103.315	-0.273	-0.065
-685.310	-37.781	-0.363	-0.194
-684.295	6.419	-0.385	0.288
-683.281	-200.000	-0.043	0.375
-682.266	-69.991	-0.073	0.028
-681.251	-200.000	0.004	0.229
-680.237	609.020	0.041	0.103
-679.222	800.000	0.077	0.262
-678.208	-200.000	0.054	-0.298
-677.193	-70.659	0.182	0.069
-676.178	182.502	0.093	0.139
-675.164	-200.000	0.035	0.241
-674.149	-170.650	-0.371	-0.013
-673.135	-12.818	-0.087	0.057
-672.120	76.436	-0.198	0.211
-671.105	-35.429	-0.417	0.228
-670.091	-150.163	-0.161	0.013
-669.076	-200.000	-0.009	-0.281
-668.062	-75.301	0.155	-0.055
-667.047	-8.482	-0.175	0.118
-666.032	-146.222	0.226	0.020
-665.018	-89.690	0.099	0.029
-664.003	-200.000	0.004	-0.478
-662.989	189.311	0.066	-0.099
-661.974	-56.870	-0.201	0.089
-660.959	-60.184	-0.050	-0.022
-659.945	-16.755	-0.083	-0.053
-658.930	-200.000	-0.025	0.292
-657.916	-200.000	-0.028	0.142
-656.901	52.830	0.230	0.221
-655.886	-126.763	-0.228	-0.034
-654.872	643.532	0.128	0.328
-653.857	-108.919	0.093	-0.020
-652.843	-25.004	-0.145	0.086
-651.828	493.880	0.079	0.183
-650.814	-94.735	0.135	-0.037
-649.799	-135.837	0.136	0.016
-648.784	23.931	0.237	-0.197
-647.770	20.852	-0.049	-0.040
-646.755	-148.574	0.157	-0.013
-645.741	-38.326	0.194	0.103
-644.726	202.550	-0.157	-0.243
-643.711	95.166	0.033	-0.037
-642.697	-200.000	0.011	-0.059
-641.682	13.545	-0.274	0.214
-640.668	456.020	-0.077	-0.171
-639.653	61.452	-0.105	-0.105
-638.638	272.529	0.082	-0.146
-637.624	5.033	-0.230	0.170
-636.609	-93.154	0.255	0.071
-635.595	149.709	0.098	-0.133
-634.580	177.513	0.267	-0.391
-633.565	-119.605	0.143	-0.025
-632.551	-25.270	-0.183	-0.109
-631.536	-176.016	-0.140	-0.004
-630.522	-22.395	-0.118	0.072
-629.507	104.458	-0.178	-0.211
-628.492	-83.724	-0.219	-0.070
-627.478	-59.447	0.336	0.145
-626.463	-200.000	-0.039	-0.253
-625.449	-200.000	-0.043	0.211
-624.434	79.237	-0.116	-0.125
-623.419	-200.000	0.029	-0.414
-622.405	-200.000	-0.017	-0.130
-621.390	180.063	-0.161	-0.237
-620.376	78.409	-0.202	-0.216
-619.361	251.725	-0.149	0.255
-618.346	551.071	-0.131	0.315
-617.332	-11.619	-0.134	-0.089
-616.317	-14.181	-0.061	0.040
-615.303	800.000	0.070	0.288
-614.288	-189.586	-0.356	-0.004
-613.273	35.196	0.152	-0.134
-612.259	-140.291	0.023	0.002
-611.244	762.070	0.052	-0.142
-610.230	-37.250	0.237	-0.127
-609.215	142.199	-0.203	-0.271
-608.201	243.574	-0.103	-0.174
-607.186	98.659	0.178	0.206
-606.171	-200.000	-0.002	-0.026
-605.157	70.391	0.175	-0.181
-604.142	-200.000	-0.000	0.318
-603.128	-72.433	0.626	-0.232
-602.113	33.640	-0.116	0.101
-601.098	-165.939	-0.235	-0.010
-600.084	-200.000	0.030	-0.149
-599.069	800.000	0.069	0.267
-598.055	800.000	-0.052	0.217
-597.040	-50.322	0.088	0.042
-596.025	-32.464	0.145	-0.081
-595.011	-23.187	0.044	-0.026
-593.996	-74.631	0.102	0.037
-592.982	-21.079	-0.062	-0.038
-591.967	32.092	-0.310	-0.268
-590.952	157.887	-0.037	-0.052
-589.938	-50.205	-0.179	-0.085
-588.923	-135.701	0.178	0.021
-587.909	-200.000	0.006	-0.124
-586.894	800.000	0.036	-0.149
-585.879	800.000	0.062	-0.204
-584.865	111.130	0.240	0.290
-583.850	140.008	-0.333	-0.440
-582.836	70.926	-0.147	0.153
-581.821	-145.267	-0.240	-0.022
-580.806	393.890	-0.118	-0.247
-579.792	54.346	-0.138	-0.134
-578.777	-200.000	0.077	0.380
-577.763	291.264	-0.020	0.037
-576.748	-72.019	0.137	0.051
-575.733	144.065	-0.077	0.104
-574.719	-143.674	-0.335	0.032
-573.704	-31.177	-0.228	-0.129
-572.690	-200.000	-0.001	-0.213
-571.675	-200.000	-0.026	0.175
-570.661	383.193	0.109	0.224
-569.646	774.419	0.097	0.264
-568.631	-21.644	0.092	-0.056
-567.617	-100.393	-0.423	-0.105
-566.602	-139.895	-0.201	0.021
-565.588	-26.149	0.198	0.117
-564.573	214.606	0.033	-0.053
-563.558	-77.562	-0.161	-0.056
-562.544	-200.000	-0.073	0.452
-561.529	-66.964	0.396	-0.157
-560.515	144.937	-0.114	0.152
-559.500	-130.332	0.249	-0.034
-558.485	-200.000	-0.026	0.270
-557.471	12.751	-0.290	0.224
-556.456	58.272	-0.086	-0.085
-555.442	2.188	0.022	0.016
-554.427	-112.096	0.205	0.041
-553.412	264.012	-0.055	0.096
-552.398	453.756	0.065	-0.144
-551.383	-148.149	-0.332	0.027
-550.369	-160.623	-0.333	0.018
-549.354	-120.183	0.337	0.058
-548.339	-28.523	0.108	0.062
-547.325	-200.000	-0.007	0.048
-546.310	28.933	-0.057	0.048
-545.296	27.470	0.118	0.099
-544.281	-200.000	0.055	0.257
-543.266	108.492	-0.119	0.142
-542.252	-96.166	-0.167	-0.044
-541.237	-11.539	0.145	-0.095
-540.223	-196.201	-0.130	-0.001
-539.208	-200.000	-0.018	-0.329
-538.193	181.147	0.151	-0.222
-537.179	-15.750	0.105	0.067
-536.164	81.546	-0.144	0.156
-535.150	-94.542	0.126	-0.034
-534.135	-58.983	0.213	-0.092
-533.121	-133.289	-0.287	-0.036
-532.106	-77.846	0.158	-0.055
-531.091	-200.000	0.011	-0.174
-530.077	-77.710	-0.111	-0.038
-529.062	800.000	0.035	0.133
-528.048	756.071	-0.028	0.075
-527.033	-40.509	0.314	-0.163
-526.018	800.000	0.015	0.060
-525.004	84.320	-0.104	-0.114
-523.989	54.082	-0.198	-0.190
-522.975	-200.000	0.007	-0.513
-521.960	-200.000	-0.022	0.121
-520.945	800.000	0.067	-0.228
-519.931	-200.000	-0.012	-0.331
-518.916	-65.319	0.192	0.077
-517.902	-66.019	-0.423	0.169
-516.887	270.432	-0.078	0.136
-515.872	-165.700	0.282	-0.012
-514.858	-177.762	-0.165	-0.004
-513.843	800.000	0.010	0.044
-512.829	750.020	-0.051	0.138
-511.814	-96.230	0.537	0.142
-510.799	800.000	-0.032	0.101
-509.785	-29.732	0.300	0.171
-508.770	227.145	-0.117	0.190
-507.756	111.935	0.137	-0.166
-506.741	-200.000	-0.050	0.435
-505.726	174.493	-0.201	-0.291
-504.712	800.000	-0.094	-0.297
-503.697	110.989	-0.040	0.048
-502.683	-1.772	-0.097	-0.068
-501.668	-47.559	0.046	-0.023
-500.653	78.860	0.199	-0.213
-499.639	-154.340	0.377	0.025
-498.624	28.701	-0.430	0.364
-497.610	34.069	0.118	-0.103
-496.595	-14.861	0.167	0.107
-495.581	598.390	0.053	0.131
-494.566	-200.000	-0.048	0.410
-493.551	-57.935	-0.233	0.102
-492.537	-200.000	0.055	-0.379
-491.522	-200.000	-0.003	-0.019
-490.508	200.650	-0.159	0.244
-489.493	-200.000	-0.047	-0.281
-488.478	-200.000	0.069	0.347
-487.464	49.718	-0.362	-0.341
-486.449	-150.132	-0.173	0.013
-485.435	-2.015	-0.289	0.203
-484.420	-135.932	0.097	0.011
-483.405	-61.316	-0.222	0.093
-482.391	-93.052	-0.248	0.069
-481.376	33.637	-0.110	-0.095
-480.362	137.021	0.115	-0.150
-479.347	619.622	0.026	-0.065
-478.332	-200.000	-0.010	-0.626
-477.318	-200.000	-0.005	-0.221
-476.303	-200.000	-0.048	-0.527
-475.289	115.624	-0.100	0.122
-474.274	-200.000	-0.048	0.256
-473.259	153.465	0.050	0.069
-472.245	-200.000	0.041	-0.307
-471.230	21.105	0.142	-0.115
-470.216	-34.576	-0.138	-0.075
-469.201	-148.038	0.185	-0.015
-468.186	-200.000	-0.030	0.247
-467.172	800.000	-0.025	0.080
-466.157	-73.177	-0.227	-0.083
-465.143	-9.735	-0.204	-0.135
-464.128	800.000	0.055	0.183
-463.113	307.557	-0.222	0.412
-462.099	-115.129	0.195	0.037
-461.084	800.000	0.051	-0.156
-460.070	143.030	0.154	0.204
-459.055	-10.730	0.196	0.129
-458.040	-57.865	0.315	0.138
-457.026	-200.000	0.002	-0.119
-456.011	-69.927	-0.273	0.104
-454.997	15.832	0.280	0.220
-453.982	106.352	-0.303	0.359
-452.968	671.710	0.128	0.331
-451.953	317.002	0.107	0.201
-450.938	-27.790	0.135	-0.078
-449.924	69.118	0.117	-0.120
-448.909	-113.804	-0.232	-0.045
-447.895	221.661	0.086	-0.138
-446.880	125.280	0.201	-0.252
-445.865	-34.002	-0.156	-0.086
-444.851	-22.910	0.088	-0.053
-443.836	800.000	0.030	-0.098
-442.822	-200.000	-0.001	0.133
-441.807	-200.000	0.027	-0.135
-440.792	-199.197	-0.387	0.002
-439.778	-200.000	0.001	-0.166
-438.763	-121.427	0.169	0.028
-437.749	-200.000	0.030	0.135
-436.734	-104.911	0.375	-0.086
-435.719	-69.633	-0.021	-0.008
-434.705	86.175	0.197	-0.216
-433.690	-71.368	0.288	0.108
-432.676	93.015	-0.199	0.224
-431.661	427.872	0.088	-0.190
-430.646	-123.925	0.056	-0.009
-429.632	-33.751	-0.137	-0.075
-428.617	436.330	-0.115	0.250
-427.603	-138.110	0.280	0.031
-426.588	-172.827	-0.205	0.006
-425.573	6.124	-0.170	0.125
-424.559	-69.389	0.311	0.119
-423.544	0.632	-0.107	0.077
-422.530	620.131	-0.054	0.136
-421.515	138.838	-0.041	-0.054
-420.500	92.263	-0.111	-0.124
-419.486	52.475	-0.130	0.124
-418.471	23.352	0.085	0.070
-417.457	540.523	0.037	0.088
-416.442	-25.889	-0.143	0.084
-415.428	-200.000	-0.000	0.135
-414.413	-32.294	0.126	0.070
-413.398	-200.000	0.024	0.349
-412.384	-200.000	-0.040	0.190
-411.369	52.640	0.014	0.014
-410.355	-5.362	-0.058	0.040
-409.340	6.284	0.133	0.099
-408.325	199.874	0.068	-0.105
-407.311	277.155	-0.154	0.272
-406.296	-95.230	-0.024	0.007
-405.282	800.000	0.044	0.135
-404.267	-110.340	-0.370	0.077
-403.252	-1.285	-0.267	-0.188
-402.238	-106.524	0.200	0.044
-401.223	800.000	-0.079	0.307
-400.209	-200.000	-0.024	-0.352
-399.194	743.119	-0.119	-0.318
-398.179	158.539	0.058	0.081
-397.165	-61.034	0.133	0.056
-396.150	27.229	-0.243	0.203
-395.136	-29.562	-0.037	-0.021
-394.121	-91.080	-0.050	0.014
-393.106	-63.266	-0.239	0.098
-392.092	-200.000	-0.013	-0.113
-391.077	-120.400	0.134	-0.023
-390.063	52.239	-0.294	-0.279
-389.048	-158.846	0.027	0.002
-388.033	216.527	-0.272	-0.430
-387.019	-200.000	-0.052	-0.296
-386.004	159.114	0.159	-0.219
-384.990	-67.660	-0.277	0.108
-383.975	800.000	-0.017	0.061
-382.960	-200.000	0.025	0.180
-381.946	-132.571	0.401	-0.051
-380.931	-116.756	0.292	-0.053
-379.917	-153.473	-0.275	0.019
-378.902	660.692	0.042	0.109
-377.888	-66.970	-0.369	-0.145
-376.873	-200.000	0.006	-0.106
-375.858	800.000	0.015	-0.053
-374.844	52.430	-0.091	0.086
-373.829	-65.760	-0.357	0.142
-372.815	-170.874	0.171	0.006
-371.800	442.787	0.037	0.080
-370.785	-200.000	0.011	-0.256
-369.771	-196.943	0.323	-0.002
-368.756	-162.167	0.111	0.006
-367.742	-200.000	-0.018	-0.099
-366.727	-160.266	-0.136	0.007
-365.712	-148.469	0.224	-0.018
-364.698	800.000	0.055	0.197
-363.683	-184.233	0.100	-0.002
-362.669	-200.000	-0.067	0.334
-361.654	-84.813	-0.253	0.079
-360.639	217.063	0.252	0.399
-359.625	-75.328	-0.062	-0.022
-358.610	-133.398	0.099	-0.012
-357.596	800.000	-0.080	0.233
-356.581	21.795	-0.102	0.083
-355.566	800.000	0.038	0.123
-354.552	-186.662	-0.224	0.003
-353.537	778.736	0.044	0.118
-352.523	-200.000	0.104	0.454
-351.508	-200.000	-0.033	-0.197
-350.493	34.819	0.178	-0.155
-349.479	-13.771	0.165	-0.106
-348.464	800.000	0.087	0.329
-347.450	81.166	0.105	0.113
-346.435	247.454	0.059	-0.099
-345.420	-200.000	0.011	-0.463
-344.406	434.159	0.063	-0.136
-343.391	188.327	0.233	0.346
-342.377	4.084	0.138	-0.101
-341.362	-6.375	-0.209	0.142
-340.348	523.108	-0.071	-0.166
-339.333	288.597	0.019	-0.034
-338.318	800.000	-0.029	0.089
-337.304	-22.720	0.358	0.214
-336.289	800.000	-0.076	-0.209
-335.275	-81.925	-0.144	0.047
-334.260	-200.000	-0.019	-0.264
-333.245	201.195	0.188	0.287
-332.231	3.384	-0.216	0.157
-331.216	800.000	-0.071	-0.233
-330.202	93.260	0.061	0.068
-329.187	-200.000	-0.075	0.338
-328.172	800.000	0.072	0.296
-327.158	225.595	-0.049	0.078
-326.143	-200.000	0.047	0.348
-325.129	476.974	0.091	-0.205
-324.114	-200.000	-0.021	0.143
-323.099	-200.000	-0.010	-0.118
-322.085	-3.805	-0.297	-0.205
-321.070	-98.097	0.371	-0.095
-320.056	-200.000	0.005	0.064
-319.041	460.276	0.007	0.016
-318.026	800.000	-0.090	0.306
-317.012	69.300	0.098	-0.100
-315.997	-200.000	0.007	0.349
-314.983	-200.000	-0.042	-0.316
-313.968	-61.324	-0.195	0.082
-312.953	293.214	0.114	-0.206
-311.939	516.112	-0.142	-0.328
-310.924	-200.000	0.005	-0.037
-309.910	-176.582	0.263	0.007
-308.895	-67.510	0.244	-0.095
-307.880	-200.000	0.036	-0.479
-306.866	800.000	-0.062	-0.247
-305.851	-120.874	-0.451	-0.075
-304.837	140.482	-0.070	0.091
-303.822	-108.791	-0.061	-0.013
-302.807	-8.880	-0.061	0.040
-301.793	800.000	-0.065	0.210
-300.778	-55.802	0.089	-0.039
-299.764	-115.969	0.234	0.043
-298.749	-70.398	-0.147	-0.055
-297.735	170.378	0.149	0.211
-296.720	409.545	-0.088	0.186
-295.705	-60.978	-0.354	0.148
-294.691	800.000	0.022	0.089
-293.676	-70.852	-0.276	-0.103
-292.662	-154.487	-0.061	-0.004
-291.647	605.938	-0.070	-0.172
-290.632	56.773	0.181	0.175
-289.618	-200.000	0.042	0.210
-288.603	55.369	0.174	-0.167
-287.589	-149.576	0.093	-0.007
-286.574	554.839	0.164	-0.391
-285.559	-111.765	0.190	0.038
-284.545	41.257	0.258	-0.231
-283.530	800.000	-0.030	0.125
-282.516	132.375	0.150	-0.191
-281.501	15.100	0.044	-0.034
-280.486	-57.152	-0.036	0.016
-279.472	729.353	0.095	-0.250
-278.457	800.000	-0.049	-0.164
-277.443	-114.547	0.187	0.036
-276.428	-10.875	-0.614	0.402
-275.413	-200.000	-0.021	-0.263
-274.399	-181.685	-0.373	-0.007
-273.384	361.987	0.146	-0.290
-272.370	0.521	0.086	0.061
-271.355	19.354	0.041	-0.032
-270.340	7.462	-0.234	-0.173
-269.326	800.000	0.068	-0.233
-268.311	-166.367	-0.257	-0.011
-267.297	19.000	0.138	0.109
-266.282	185.051	0.115	-0.169
-265.267	179.245	0.045	0.065
-264.253	24.744	0.119	-0.098
-263.238	216.248	-0.099	-0.156
-262.224	800.000	-0.052	-0.152
-261.209	800.000	0.016	-0.055
-260.195	254.044	-0.060	0.102
-259.180	-41.776	0.259	-0.132
-258.165	-200.000	0.021	-0.161
-257.151	236.300	0.221	-0.361
-256.136	800.000	0.079	0.301
-255.122	-105.633	-0.187	0.042
-254.107	-54.341	-0.321	0.144
-253.092	-16.746	-0.062	-0.039
-252.078	278.500	-0.059	0.104
-251.063	93.101	0.034	-0.038
-250.049	-63.323	0.306	0.125
-249.034	-118.004	-0.107	-0.019
-248.019	512.381	0.119	-0.274
-247.005	79.689	-0.151	-0.161
-245.990	231.769	-0.203	-0.330
-244.976	-20.493	0.361	0.220
-243.961	-18.767	-0.307	0.189
-242.946	-111.339	0.069	-0.014
-241.932	227.874	-0.098	0.158
-240.917	800.000	0.069	0.246
-239.903	309.293	0.047	-0.086
-238.888	9.355	-0.026	-0.020
-237.873	30.235	-0.149	0.126
-236.859	-115.074	0.073	0.014
-235.844	151.213	-0.102	0.137
-234.830	141.728	0.051	0.067
-233.815	-57.943	-0.139	0.060
-232.800	415.482	-0.032	-0.068
-231.786	-90.746	-0.270	0.077
-230.771	-136.575	-0.036	-0.004
-229.757	-140.770	-0.407	-0.042
-228.742	-33.778	0.230	-0.125
-227.727	-22.888	0.293	-0.175
-226.713	137.333	-0.143	0.184
-225.698	146.253	0.211	-0.280
-224.684	-143.945	0.445	0.041
-223.669	800.000	-0.037	-0.145
-222.655	-75.739	0.422	-0.148
-221.640	-76.019	0.038	0.013
-220.625	-98.963	-0.150	0.038
-219.611	86.662	0.184	0.201
-218.596	800.000	-0.066	-0.184
-217.582	344.126	0.065	0.125
-216.567	-33.666	0.145	0.079
-215.552	-133.516	0.349	0.043
-214.538	-74.927	0.375	0.133
-213.523	290.091	0.065	-0.117
-212.509	-61.134	-0.273	0.114
-211.494	800.000	0.048	0.160
-210.479	-80.497	0.427	0.141
-209.465	-32.920	0.224	-0.123
-208.450	91.168	0.061	-0.068
-207.436	-200.000	0.052	0.291
-206.421	800.000	-0.019	-0.058
-205.406	-105.889	0.348	-0.077
-204.392	-25.987	0.295	0.171
-203.377	97.402	-0.174	0.197
-202.363	65.912	-0.059	-0.059
-201.348	-143.662	0.260	-0.024
-200.333	-200.000	0.025	-0.180
-199.319	62.496	0.150	0.148
-198.304	-72.833	0.098	0.036
-197.290	101.523	0.340	-0.391
-196.275	229.831	-0.150	-0.242
-195.260	-63.794	-0.177	0.071
-194.246	-200.000	-0.026	0.322
-193.231	-200.000	-0.019	0.154
-192.217	800.000	-0.042	-0.147
-191.202	43.609	-0.048	-0.044
-190.187	-18.378	-0.266	-0.164
-189.173	-200.000	0.036	-0.175
-188.158	-200.000	-0.030	-0.272
-187.144	-200.000	0.048	0.258
-186.129	-98.240	-0.260	0.066
-185.114	-173.152	-0.127	0.004
-184.100	-79.525	0.376	0.125
-183.085	316.192	0.177	-0.329
-182.071	3.921	0.215	-0.155
-181.056	-57.236	-0.144	0.063
-180.042	-90.502	0.114	-0.032
-179.027	-200.000	-0.021	0.090
-178.012	107.674	0.125	-0.147
-176.998	-111.615	0.278	-0.056
-175.983	-200.000	0.029	0.412
-174.969	173.349	-0.124	0.177
-173.954	-200.000	0.067	0.312
-172.939	-37.186	0.191	-0.101
-171.925	800.000	0.079	0.283
-170.910	-200.000	-0.029	0.175
-169.896	37.125	-0.260	0.227
-168.881	-22.685	-0.231	0.138
-167.866	33.534	-0.074	-0.063
-166.852	-126.258	-0.167	-0.025
-165.837	16.049	0.241	0.187
-164.823	800.000	0.016	-0.058
-163.808	57.456	0.146	-0.140
-162.793	800.000	-0.021	-0.076
-161.779	-157.191	-0.262	-0.016
-160.764	-105.641	-0.307	0.069
-159.750	-19.116	-0.125	-0.077
-158.735	-36.101	-0.386	0.206
-157.720	-8.310	0.078	-0.052
-156.706	-41.011	-0.191	-0.097
-155.691	-200.000	-0.002	0.065
-154.677	5.739	0.135	0.099
-153.662	57.200	0.080	0.077
-152.647	282.463	0.042	-0.074
-151.633	11.399	0.134	-0.102
-150.618	-200.000	0.003	-0.037
-149.604	178.373	0.142	0.204
-148.589	-21.560	0.368	0.221
-147.574	-189.506	0.403	0.005
-146.560	81.434	0.031	0.033
-145.545	603.580	-0.052	0.128
-144.531	509.617	-0.119	0.272
-143.516	73.520	0.130	-0.134
-142.502	181.747	0.186	0.271
-141.487	-200.000	-0.003	0.182
-140.472	502.209	0.007	-0.016
-139.458	51.353	0.201	-0.188
-138.443	-59.057	0.034	-0.014
-137.429	-118.561	-0.430	0.075
-136.414	228.756	0.036	0.058
-135.399	-21.708	0.056	-0.033
-134.385	60.806	0.144	0.141
-133.370	17.363	0.096	0.075
-132.356	50.229	-0.373	0.347
-131.341	613.018	-0.077	0.189
-130.326	261.153	-0.124	-0.211
-129.312	-153.129	-0.307	-0.021
-128.297	-200.000	0.056	0.285
-127.283	-200.000	-0.019	0.267
-126.268	-5.639	-0.064	-0.043
-125.253	162.734	0.328	-0.453
-124.239	4.385	0.378	-0.273
-123.224	-200.000	-0.084	0.560
-122.210	-200.000	0.004	0.023
-121.195	-62.468	-0.087	0.036
