DTS Sentinel unit serial number:	SN413079Multiplexer serial number:	ORYXHardware model number:	OX4-SRSoftware version number:	ORYX F/W v4.00 Oryx Data Collector v3.7.2.0data status	okinstallation	princeton_trtdifferential loss correction	single-endedforward channel	channel 2reverse channel	N/Adate	2019/09/12time	05:13:11forward acquisition time	60.00reverse acquisition time	0.00gamma	496.2192k internal	0.2325k external	0.2325temperature offset calibration	1.0067default loss term (dB/km)	0.3790temperature slope calibration	1.0000multiplexer offset coefficient	1.0000multiplexer slope coefficient	1.0000fibre end	0.00T internal ref (°C)	31.81T ext. ref 1 (°C)	1.63T ext. ref 2 (°C)	27.28length (m)	temperature (°C)	Stokes	anti-Stokes-747.200	11.524	-0.191	-0.148
-746.185	192.110	0.193	0.294
-745.171	74.741	0.210	0.223
-744.156	-69.370	-0.146	-0.056
-743.142	-125.446	-0.162	-0.025
-742.127	-0.281	0.197	0.141
-741.112	-175.983	-0.213	-0.006
-740.098	6.607	0.018	0.014
-739.083	-115.529	0.128	0.024
-738.069	800.000	0.065	-0.189
-737.054	800.000	-0.030	-0.134
-736.039	391.872	0.067	-0.141
-735.025	54.860	0.066	-0.064
-734.010	127.461	-0.067	-0.086
-732.996	-54.080	0.198	0.091
-731.981	-73.571	-0.088	0.033
-730.966	-200.000	-0.009	-0.536
-729.952	-20.494	-0.157	-0.097
-728.937	0.475	0.205	0.148
-727.923	164.437	-0.168	-0.239
-726.908	-119.836	-0.306	0.053
-725.894	-200.000	-0.050	-0.474
-724.879	449.134	-0.204	-0.454
-723.864	-190.431	-0.213	-0.002
-722.850	152.841	-0.112	0.154
-721.835	167.709	0.057	0.082
-720.821	116.293	0.049	0.061
-719.806	800.000	-0.073	-0.247
-718.791	-200.000	-0.011	-0.598
-717.777	-200.000	0.001	-0.296
-716.762	-200.000	-0.017	0.084
-715.748	-108.260	-0.122	-0.027
-714.733	27.684	-0.155	-0.131
-713.718	-138.492	0.129	0.014
-712.704	800.000	-0.043	0.177
-711.689	800.000	-0.078	-0.241
-710.675	149.662	-0.194	-0.265
-709.660	-177.434	-0.292	-0.007
-708.645	618.781	-0.041	-0.104
-707.631	783.391	0.123	-0.340
-706.616	-61.210	0.143	0.061
-705.602	73.044	-0.093	0.097
-704.587	-66.987	0.307	-0.122
-703.572	-128.107	-0.092	-0.013
-702.558	-67.796	0.157	-0.062
-701.543	-200.000	-0.048	0.225
-700.529	-89.241	-0.222	0.066
-699.514	290.434	0.051	0.092
-698.499	58.409	-0.223	0.220
-697.485	-125.194	-0.216	-0.033
-696.470	-108.099	-0.171	0.037
-695.456	262.704	0.142	0.248
-694.441	-140.423	0.317	-0.033
-693.426	157.995	0.199	0.278
-692.412	800.000	-0.047	-0.148
-691.397	-200.000	0.021	-0.118
-690.383	800.000	0.078	-0.296
-689.368	-200.000	-0.212	0.001
-688.354	-200.000	0.009	-0.082
-687.339	82.756	-0.039	0.043
-686.324	-100.954	0.416	0.103
-685.310	50.378	0.087	0.082
-684.295	-200.000	-0.005	0.145
-683.281	-21.165	0.121	0.075
-682.266	604.229	0.203	-0.509
-681.251	49.193	-0.283	0.267
-680.237	561.254	-0.089	-0.217
-679.222	76.204	-0.034	0.036
-678.208	27.915	0.200	-0.170
-677.193	-64.915	-0.306	0.125
-676.178	650.537	0.044	-0.114
-675.164	800.000	-0.083	-0.316
-674.149	-63.140	-0.139	-0.058
-673.135	-119.333	0.308	-0.054
-672.120	-9.737	-0.068	-0.046
-671.105	-200.000	0.017	0.221
-670.091	-7.332	-0.171	0.116
-669.076	-167.478	0.458	0.018
-668.062	-200.000	-0.031	-0.289
-667.047	-133.696	-0.088	-0.011
-666.032	11.391	-0.124	-0.095
-665.018	-45.531	0.245	0.122
-664.003	-100.765	-0.264	-0.065
-662.989	-59.299	0.290	0.125
-661.974	-110.118	0.171	0.036
-660.959	-95.877	-0.057	0.015
-659.945	-200.000	-0.062	0.332
-658.930	-39.493	-0.174	0.092
-657.916	78.811	-0.217	-0.233
-656.901	-200.000	0.030	0.205
-655.886	-41.975	-0.164	-0.084
-654.872	4.991	0.296	-0.219
-653.857	1.005	-0.117	0.084
-652.843	206.660	0.060	0.094
-651.828	800.000	-0.084	0.258
-650.814	333.201	-0.047	-0.091
-649.799	222.115	-0.234	-0.378
-648.784	-200.000	0.012	0.072
-647.770	-78.668	0.052	0.018
-646.755	51.223	0.128	-0.122
-645.741	-115.201	-0.491	0.093
-644.726	-34.907	0.301	-0.165
-643.711	800.000	-0.088	0.300
-642.697	203.923	-0.252	0.392
-641.682	17.105	0.141	-0.113
-640.668	-200.000	-0.028	-0.187
-639.653	216.813	0.122	0.196
-638.638	-60.936	-0.214	0.091
-637.624	-46.353	-0.152	-0.075
-636.609	-62.204	-0.363	0.152
-635.595	-106.581	-0.367	0.082
-634.580	-6.198	0.028	-0.019
-633.565	292.044	-0.122	0.224
-632.551	-79.918	0.207	-0.070
-631.536	800.000	0.108	-0.364
-630.522	-62.124	0.481	0.202
-629.507	-77.812	-0.096	-0.033
-628.492	-182.374	-0.269	-0.005
-627.478	-126.684	0.037	0.005
-626.463	800.000	0.059	-0.260
-625.449	-165.983	0.016	0.001
-624.434	-200.000	-0.044	-0.266
-623.419	-57.193	-0.215	0.095
-622.405	13.273	-0.124	0.097
-621.390	87.843	-0.119	-0.133
-620.376	800.000	0.117	-0.335
-619.361	101.538	0.064	-0.075
-618.346	-200.000	-0.008	-0.128
-617.332	62.907	-0.184	0.185
-616.317	196.657	0.071	0.109
-615.303	677.569	0.060	-0.156
-614.288	29.037	-0.050	-0.043
-613.273	800.000	0.038	-0.112
-612.259	-133.104	-0.380	0.048
-611.244	12.869	-0.124	0.096
-610.230	-11.148	0.240	-0.159
-609.215	42.113	0.387	0.352
-608.201	5.215	-0.309	0.229
-607.186	-88.113	-0.169	-0.051
-606.171	-34.874	-0.140	-0.076
-605.157	-200.000	-0.065	0.343
-604.142	-56.286	-0.056	-0.025
-603.128	351.310	0.159	-0.317
-602.113	800.000	0.069	-0.210
-601.098	800.000	0.070	0.252
-600.084	800.000	0.053	0.192
-599.069	176.772	-0.234	-0.341
-598.055	-27.636	0.193	0.113
-597.040	134.059	0.309	0.402
-596.025	113.132	0.124	0.151
-595.011	-37.171	-0.193	0.104
-593.996	-110.665	-0.243	0.050
-592.982	-200.000	0.002	0.181
-591.967	-166.360	0.296	0.012
-590.952	638.040	-0.094	-0.240
-589.938	18.988	-0.266	-0.214
-588.923	261.162	0.142	-0.246
-587.909	-79.711	-0.190	0.064
-586.894	130.724	-0.120	-0.154
-585.879	203.741	0.086	-0.134
-584.865	-200.000	0.027	-0.261
-583.850	-10.079	-0.224	-0.149
-582.836	-200.000	0.001	0.158
-581.821	-200.000	0.042	-0.232
-580.806	22.699	0.193	0.159
-579.792	221.256	0.066	0.106
-578.777	-100.689	-0.204	0.051
-577.763	-200.000	0.042	-0.185
-576.748	-200.000	-0.013	-0.175
-575.733	79.756	-0.315	-0.340
-574.719	556.965	-0.058	-0.140
-573.704	-200.000	-0.021	-0.172
-572.690	117.137	-0.110	0.136
-571.675	-74.233	-0.182	-0.066
-570.661	7.780	0.224	0.168
-569.646	635.884	-0.162	-0.411
-568.631	122.858	-0.147	-0.184
-567.617	-139.406	-0.178	-0.019
-566.602	-151.270	0.217	-0.016
-565.588	224.267	-0.186	0.301
-564.573	96.991	-0.192	-0.221
-563.558	-35.028	-0.117	0.064
-562.544	-151.738	-0.196	-0.014
-561.529	-88.748	0.174	-0.052
-560.515	-88.328	-0.252	0.076
-559.500	56.597	0.285	-0.277
-558.485	11.575	0.403	-0.309
-557.471	-90.251	0.137	-0.040
-556.456	-68.170	0.224	0.087
-555.442	-78.612	0.129	-0.044
-554.427	66.517	-0.194	-0.197
-553.412	-102.545	0.375	0.090
-552.398	158.809	0.038	0.053
-551.383	-11.005	-0.246	0.163
-550.369	11.952	-0.265	-0.204
-549.354	-116.448	-0.475	0.088
-548.339	-6.178	0.236	-0.161
-547.325	800.000	0.070	0.228
-546.310	254.512	-0.114	-0.196
-545.296	800.000	-0.047	-0.190
-544.281	59.906	0.232	-0.230
-543.266	-70.117	-0.068	-0.026
-542.252	-200.000	-0.014	0.087
-541.237	-118.773	-0.057	0.010
-540.223	800.000	-0.012	0.040
-539.208	-92.633	0.318	-0.089
-538.193	45.951	0.090	-0.083
-537.179	-200.000	0.032	-0.175
-536.164	-29.790	0.205	-0.117
-535.150	275.773	0.083	0.148
-534.135	257.842	0.099	0.170
-533.121	-55.342	-0.303	0.136
-532.106	573.022	0.136	0.331
-531.091	41.986	0.113	-0.102
-530.077	63.587	0.109	-0.110
-529.062	188.137	-0.125	0.187
-528.048	302.369	-0.151	0.279
-527.033	-37.931	0.185	-0.098
-526.018	362.430	0.075	-0.151
-525.004	-200.000	-0.015	-0.203
-523.989	-6.780	0.553	0.376
-522.975	138.401	-0.232	-0.304
-521.960	-16.947	-0.107	0.068
-520.945	397.953	-0.095	-0.199
-519.931	77.565	0.221	-0.235
-518.916	-200.000	0.009	-0.137
-517.902	454.155	0.135	0.300
-516.887	-153.539	0.309	0.021
-515.872	-152.623	0.140	-0.010
-514.858	-166.931	-0.307	-0.013
-513.843	-86.251	0.408	0.126
-512.829	800.000	-0.065	0.244
-511.814	179.844	0.192	-0.281
-510.799	800.000	-0.100	0.403
-509.785	166.285	0.099	0.139
-508.770	338.804	-0.082	0.159
-507.756	-200.000	0.031	0.172
-506.741	15.255	0.237	0.186
-505.726	169.673	-0.059	0.084
-504.712	-200.000	0.013	0.207
-503.697	-9.324	-0.188	-0.126
-502.683	-200.000	-0.028	0.223
-501.668	11.042	-0.083	0.063
-500.653	-4.578	-0.165	0.114
-499.639	-90.968	-0.030	-0.009
-498.624	-200.000	-0.042	-0.275
-497.610	78.934	-0.038	-0.040
-496.595	-200.000	-0.013	0.062
-495.581	-200.000	0.045	-0.293
-494.566	139.668	0.089	-0.117
-493.551	-42.404	-0.146	-0.075
-492.537	-8.463	-0.094	0.063
-491.522	26.693	-0.227	0.190
-490.508	-200.000	-0.084	0.378
-489.493	77.715	-0.192	-0.204
-488.478	85.360	-0.060	0.066
-487.464	-200.000	0.003	-0.175
-486.449	334.331	0.111	-0.214
-485.435	-72.092	-0.096	0.036
-484.420	-86.569	-0.109	0.033
-483.405	311.930	-0.133	-0.249
-482.391	-33.034	-0.078	0.043
-481.376	800.000	0.112	0.319
-480.362	-200.000	-0.139	0.000
-479.347	-76.831	-0.192	0.067
-478.332	-162.734	-0.301	0.015
-477.318	342.453	0.266	-0.520
-476.303	-9.413	-0.125	-0.083
-475.289	277.832	-0.095	-0.169
-474.274	-200.000	0.003	0.211
-473.259	439.673	-0.006	-0.014
-472.245	-200.000	0.064	0.399
-471.230	9.297	0.199	-0.150
-470.216	165.331	0.066	-0.093
-469.201	313.816	-0.138	-0.260
-468.186	227.203	-0.040	0.065
-467.172	-87.464	-0.159	-0.048
-466.157	235.966	0.070	0.115
-465.143	-89.302	-0.011	-0.003
-464.128	-32.673	0.229	0.127
-463.113	800.000	-0.040	0.136
-462.099	-98.693	0.174	0.044
-461.084	-62.220	-0.371	0.154
-460.070	66.266	0.191	-0.194
-459.055	321.726	0.100	0.191
-458.040	579.184	0.096	0.234
-457.026	800.000	-0.106	0.329
-456.011	32.307	0.038	-0.033
-454.997	497.089	-0.118	0.270
-453.982	306.355	-0.138	-0.257
-452.968	800.000	0.023	0.099
-451.953	163.001	0.170	-0.238
-450.938	-50.751	0.145	0.068
-449.924	-164.160	-0.263	-0.012
-448.909	428.570	-0.037	-0.080
-447.895	54.575	0.176	-0.169
-446.880	-150.978	-0.283	-0.021
-445.865	-178.531	-0.127	-0.003
-444.851	-28.495	-0.232	0.134
-443.836	-200.000	0.018	0.135
-442.822	143.939	0.192	0.255
-441.807	-200.000	0.019	0.113
-440.792	-50.692	-0.228	-0.107
-439.778	36.442	-0.475	0.418
-438.763	266.547	0.203	0.353
-437.749	800.000	0.048	-0.140
-436.734	118.594	0.070	-0.086
-435.719	-150.926	-0.252	0.019
-434.705	-45.005	0.182	-0.090
-433.690	-15.151	-0.119	0.076
-432.676	125.338	0.331	-0.416
-431.661	375.415	0.118	-0.241
-430.646	-200.000	-0.006	0.199
-429.632	-200.000	0.012	-0.126
-428.617	-174.394	-0.235	-0.007
-427.603	800.000	0.016	0.049
-426.588	-15.188	0.191	0.122
-425.573	-86.251	-0.169	-0.052
-424.559	-21.613	0.076	-0.046
-423.544	167.802	0.322	-0.456
-422.530	-159.897	-0.162	0.009
-421.515	-125.845	0.232	-0.035
-420.500	199.630	-0.193	0.294
-419.486	191.909	0.068	0.103
-418.471	-200.000	-0.003	-0.027
-417.457	-200.000	0.070	0.410
-416.442	-85.782	-0.041	-0.013
-415.428	666.004	-0.033	-0.086
-414.413	218.146	0.008	-0.013
-413.398	-200.000	0.038	-0.295
-412.384	-164.193	0.198	-0.009
-411.369	-141.890	0.137	-0.014
-410.355	86.270	-0.189	0.208
-409.340	-200.000	0.002	0.157
-408.325	350.247	0.139	0.274
-407.311	127.753	-0.047	0.059
-406.296	13.372	0.052	0.040
-405.282	113.403	-0.061	0.074
-404.267	800.000	0.037	-0.135
-403.252	800.000	0.037	0.160
-402.238	-29.152	0.098	-0.056
-401.223	-200.000	-0.058	0.386
-400.209	-45.521	0.118	0.058
-399.194	-109.294	-0.248	-0.052
-398.179	-200.000	-0.026	0.165
-397.165	-200.000	-0.015	-0.215
-396.150	82.589	-0.251	0.271
-395.136	-200.000	-0.047	-0.218
-394.121	131.555	-0.142	-0.182
-393.106	85.675	0.214	-0.234
-392.092	121.042	0.068	-0.084
-391.077	-200.000	-0.021	0.354
-390.063	11.934	0.210	0.161
-389.048	-200.000	0.036	-0.241
-388.033	385.357	0.108	-0.222
-387.019	566.254	0.039	-0.093
-386.004	-145.320	-0.192	0.017
-384.990	-26.628	0.235	0.137
-383.975	-194.863	0.065	-0.001
-382.960	714.475	-0.119	-0.315
-381.946	148.894	0.172	-0.231
-380.931	168.838	-0.096	0.137
-379.917	375.428	0.058	-0.118
-378.902	314.126	0.143	-0.268
-377.888	-117.769	0.252	0.045
-376.873	-200.000	-0.016	-0.093
-375.858	-200.000	-0.092	0.546
-374.844	353.355	-0.069	0.136
-373.829	-54.439	0.203	-0.092
-372.815	-62.689	0.337	-0.139
-371.800	-54.051	-0.117	-0.053
-370.785	-200.000	0.051	-0.303
-369.771	184.004	-0.271	0.399
-368.756	50.494	-0.158	-0.148
-367.742	-200.000	0.016	-0.307
-366.727	-200.000	0.103	0.000
-365.712	231.825	0.170	-0.277
-364.698	85.263	0.111	-0.121
-363.683	800.000	0.062	0.221
-362.669	-146.551	-0.122	0.011
-361.654	-121.627	-0.307	-0.051
-360.639	-138.256	0.138	0.015
-359.625	243.534	0.124	-0.207
-358.610	-101.438	-0.267	-0.065
-357.596	-34.593	0.289	0.157
-356.581	800.000	0.038	-0.105
-355.566	800.000	-0.052	-0.221
-354.552	-200.000	-0.032	0.415
-353.537	-96.720	0.108	0.028
-352.523	40.790	-0.094	-0.084
-351.508	166.962	-0.087	-0.123
-350.493	-200.000	0.038	-0.336
-349.479	546.213	0.043	0.103
-348.464	800.000	0.062	-0.212
-347.450	-200.000	0.054	-0.509
-346.435	-160.625	-0.501	-0.027
-345.420	-200.000	0.006	-0.239
-344.406	-103.447	0.486	-0.114
-343.391	-200.000	0.016	-0.107
-342.377	-1.797	0.203	0.142
-341.362	-78.659	0.262	0.089
-340.348	-200.000	0.038	-0.507
-339.333	-3.920	-0.102	-0.070
-338.318	-200.000	-0.074	0.345
-337.304	-124.574	-0.171	0.026
-336.289	-36.190	-0.352	0.188
-335.275	-0.358	-0.293	-0.207
-334.260	-127.453	-0.156	-0.023
-333.245	756.357	0.080	0.215
-332.231	-200.000	-0.011	0.329
-331.216	-200.000	-0.011	-0.248
-330.202	-33.308	0.109	-0.060
-329.187	-2.889	-0.139	0.096
-328.172	-200.000	0.017	0.164
-327.158	800.000	-0.071	-0.223
-326.143	-13.553	-0.318	-0.205
-325.129	-120.728	0.155	0.026
-324.114	-143.625	0.060	0.006
-323.099	-129.767	-0.192	-0.026
-322.085	-200.000	0.017	0.350
-321.070	399.838	-0.067	-0.138
-320.056	81.577	0.101	-0.109
-319.041	-200.000	0.003	0.107
-318.026	-200.000	-0.019	-0.099
-317.012	334.295	0.097	-0.187
-315.997	22.130	0.064	-0.052
-314.983	155.116	0.119	-0.163
-313.968	-44.669	0.196	0.097
-312.953	-100.218	-0.154	-0.038
-311.939	-93.637	0.145	0.040
-310.924	800.000	0.038	-0.130
-309.910	-200.000	-0.054	0.250
-308.895	223.642	0.151	0.241
-307.880	219.832	-0.189	-0.300
-306.866	185.620	-0.074	-0.108
-305.851	149.637	0.120	0.161
-304.837	55.701	0.139	0.134
-303.822	-200.000	-0.011	-0.205
-302.807	800.000	-0.061	-0.205
-301.793	49.164	0.106	-0.099
-300.778	326.400	0.035	-0.067
-299.764	125.296	0.055	-0.069
-298.749	-42.530	-0.230	-0.116
-297.735	26.970	0.166	0.138
-296.720	169.181	0.289	0.409
-295.705	-200.000	0.077	0.378
-294.691	-148.332	-0.013	-0.001
-293.676	96.350	-0.139	0.158
-292.662	800.000	-0.072	0.257
-291.647	-200.000	-0.010	-0.049
-290.632	800.000	-0.059	-0.189
-289.618	98.018	0.146	0.167
-288.603	-148.441	-0.129	-0.010
-287.589	-71.510	-0.221	-0.082
-286.574	-63.664	-0.261	-0.106
-285.559	167.268	0.155	0.218
-284.545	414.201	0.021	0.043
-283.530	773.883	-0.171	0.462
-282.516	-116.139	0.140	-0.026
-281.501	63.668	-0.163	-0.162
-280.486	114.518	0.156	0.188
-279.472	36.983	0.219	0.192
-278.457	58.196	0.111	-0.108
-277.443	-200.000	0.054	-0.316
-276.428	-88.442	0.170	0.050
-275.413	800.000	0.048	-0.174
-274.399	800.000	0.033	0.107
-273.384	99.014	-0.299	-0.342
-272.370	-29.265	-0.217	-0.123
-271.355	-42.157	0.218	-0.111
-270.340	-200.000	0.019	-0.397
-269.326	723.835	-0.052	-0.137
-268.311	497.635	0.201	-0.457
-267.297	-175.904	-0.117	-0.003
-266.282	-200.000	-0.006	0.143
-265.267	-200.000	-0.053	0.372
-264.253	142.751	-0.089	-0.117
-263.238	-28.877	0.263	0.150
-262.224	800.000	0.129	0.354
-261.209	600.698	-0.064	-0.158
-260.195	-38.309	0.271	0.142
-259.180	206.528	0.108	-0.166
-258.165	-56.969	0.120	-0.053
-257.151	-61.140	0.206	0.086
-256.136	10.067	0.244	0.184
-255.122	-21.210	0.078	0.047
-254.107	115.909	0.141	-0.171
-253.092	-76.350	0.253	0.088
-252.078	-98.026	0.113	0.029
-251.063	-54.255	-0.178	0.080
-250.049	87.434	-0.215	-0.235
-249.034	470.234	-0.162	0.360
-248.019	203.524	-0.142	0.217
-247.005	50.267	0.174	0.162
-245.990	226.802	-0.057	0.091
-244.976	446.114	-0.098	-0.213
-243.961	800.000	-0.024	-0.094
-242.946	19.136	-0.310	0.246
-241.932	-151.282	-0.141	-0.010
-240.917	303.776	-0.166	0.305
-239.903	-43.139	-0.067	-0.034
-238.888	-200.000	0.012	0.124
-237.873	-200.000	-0.034	0.168
-236.859	73.545	-0.238	-0.247
-235.844	-38.047	-0.220	0.116
-234.830	-151.896	0.248	0.018
-233.815	465.709	0.024	0.054
-232.800	-81.956	0.224	-0.072
-231.786	-98.215	-0.173	0.044
-230.771	-23.429	-0.171	0.101
-229.757	111.535	0.192	0.229
-228.742	-37.382	0.074	0.039
-227.727	327.322	-0.172	0.326
-226.713	-51.871	0.267	0.123
-225.698	-114.901	0.077	-0.014
-224.684	-76.924	0.202	-0.070
-223.669	-39.402	-0.238	-0.123
-222.655	-191.254	-0.187	-0.002
-221.640	201.765	-0.095	0.145
-220.625	800.000	-0.035	0.120
-219.611	341.374	0.179	0.346
-218.596	4.862	0.139	0.101
-217.582	-124.970	-0.108	-0.016
-216.567	-45.701	0.126	-0.061
-215.552	-200.000	-0.007	0.045
-214.538	-58.656	-0.388	-0.166
-213.523	298.335	0.153	0.278
-212.509	-152.839	0.444	-0.031
-211.494	-110.431	-0.383	-0.079
-210.479	143.149	-0.029	-0.038
-209.465	-105.996	0.396	-0.088
-208.450	-68.950	-0.400	0.152
-207.436	116.648	-0.006	0.008
-206.421	800.000	0.123	0.365
-205.406	492.226	0.126	0.284
-204.392	-126.652	0.145	-0.021
-203.377	-173.750	-0.064	0.002
-202.363	-22.945	-0.085	0.051
-201.348	-200.000	-0.008	-0.073
-200.333	-35.057	0.226	0.121
-199.319	232.414	-0.102	-0.165
-198.304	67.760	-0.165	-0.166
-197.290	-200.000	-0.025	0.137
-196.275	-132.553	0.221	0.028
-195.260	60.274	0.100	0.098
-194.246	-92.073	-0.308	0.086
-193.231	-30.000	0.303	0.170
-192.217	-200.000	-0.003	-0.081
-191.202	-34.967	-0.349	-0.188
-190.187	800.000	0.086	0.303
-189.173	92.145	0.288	0.320
-188.158	-200.000	-0.003	-0.250
-187.144	-200.000	-0.003	0.092
-186.129	-111.349	0.360	-0.072
-185.114	-62.261	-0.033	0.014
-184.100	-4.013	0.156	0.107
-183.085	-88.508	-0.120	0.035
-182.071	-67.261	-0.115	0.045
-181.056	-97.805	-0.262	0.067
-180.042	-93.630	0.232	0.063
-179.027	-126.492	0.130	-0.019
-178.012	-127.800	0.319	-0.045
-176.998	-45.490	0.110	-0.054
-175.983	59.639	0.144	-0.140
-174.969	-34.421	0.241	-0.130
-173.954	-71.350	0.182	0.067
-172.939	-200.000	0.025	0.159
-171.925	49.732	0.403	0.375
-170.910	194.798	0.071	-0.106
-169.896	-76.813	0.117	0.040
-168.881	-136.008	-0.360	-0.042
-167.866	-10.337	-0.069	-0.045
-166.852	-71.916	-0.269	-0.099
-165.837	-200.000	0.071	-0.535
-164.823	-79.774	0.438	0.145
-163.808	-125.053	-0.236	0.036
-162.793	197.865	-0.126	-0.189
-161.779	389.930	-0.074	-0.151
-160.764	-200.000	0.032	-0.163
-159.750	-110.429	-0.386	-0.079
-158.735	642.711	0.037	-0.093
-157.720	519.367	0.083	-0.192
-156.706	-80.472	0.259	0.085
-155.691	1.544	-0.255	0.181
-154.677	78.807	-0.286	-0.302
-153.662	-70.310	0.103	0.039
-152.647	94.128	-0.057	0.064
-151.633	75.322	0.075	-0.078
-150.618	-50.690	0.073	-0.034
-149.604	-200.000	0.016	-0.107
-148.589	-44.172	-0.270	-0.134
-147.574	-200.000	0.096	-0.437
-146.560	-200.000	-0.008	-0.067
-145.545	46.322	0.255	-0.233
-144.531	-154.223	0.391	-0.026
-143.516	800.000	0.086	0.279
-142.502	147.372	0.125	-0.166
-141.487	-200.000	0.065	-0.326
-140.472	-200.000	-0.002	-0.144
-139.458	193.655	0.122	-0.182
-138.443	466.071	0.078	0.172
-137.429	-200.000	0.037	0.443
-136.414	-105.538	0.259	-0.058
-135.399	-200.000	0.002	-0.185
-134.385	800.000	0.126	0.372
-133.370	-62.144	0.244	0.100
-132.356	85.428	0.147	-0.159
-131.341	18.605	-0.460	-0.363
-130.326	223.154	0.037	0.058
-129.312	800.000	0.040	0.167
-128.297	-49.111	-0.253	0.119
-127.283	117.244	0.132	-0.160
-126.268	800.000	0.121	0.400
-125.253	-35.332	-0.247	-0.132
-124.239	-200.000	0.000	0.245
-123.224	73.909	0.227	-0.235
-122.210	-169.891	-0.259	0.009
