DTS Sentinel unit serial number:	SN413079Multiplexer serial number:	ORYXHardware model number:	OX4-SRSoftware version number:	ORYX F/W v4.00 Oryx Data Collector v3.7.2.0data status	okinstallation	princeton_trtdifferential loss correction	single-endedforward channel	channel 2reverse channel	N/Adate	2019/09/18time	18:35:35forward acquisition time	60.00reverse acquisition time	0.00gamma	496.2192k internal	0.2310k external	0.2310temperature offset calibration	1.0025default loss term (dB/km)	0.3790temperature slope calibration	1.0000multiplexer offset coefficient	1.0000multiplexer slope coefficient	1.0000fibre end	0.00T internal ref (°C)	38.09T ext. ref 1 (°C)	0.94T ext. ref 2 (°C)	30.15length (m)	temperature (°C)	Stokes	anti-Stokes-747.200	-52.918	0.760	0.355
-746.185	-186.040	0.294	-0.004
-745.171	152.921	-0.119	0.166
-744.156	116.495	0.229	0.286
-743.142	-162.608	0.202	0.010
-742.127	-87.351	-0.126	-0.039
-741.112	800.000	-0.043	0.162
-740.098	514.313	0.079	0.187
-739.083	242.199	0.195	-0.332
-738.069	-200.000	-0.064	-0.585
-737.054	89.124	-0.097	0.109
-736.039	-200.000	-0.000	-0.085
-735.025	-78.393	0.343	-0.119
-734.010	-2.543	-0.134	-0.095
-732.996	10.844	-0.261	-0.202
-731.981	-161.925	0.285	-0.015
-730.966	-80.203	-0.095	0.032
-729.952	27.334	-0.022	-0.019
-728.937	57.807	0.202	-0.201
-727.923	-200.000	0.011	-0.250
-726.908	-71.103	-0.204	0.078
-725.894	-200.000	-0.016	-0.078
-724.879	38.826	0.287	0.260
-723.864	-83.147	0.170	0.055
-722.850	129.758	-0.088	0.114
-721.835	-200.000	0.015	0.256
-720.821	-26.754	-0.143	0.085
-719.806	339.055	-0.076	-0.151
-718.791	225.646	-0.171	-0.282
-717.777	-43.074	-0.199	0.102
-716.762	-87.534	0.185	0.057
-715.748	800.000	-0.094	0.300
-714.733	800.000	0.061	-0.222
-713.718	-184.230	0.030	0.001
-712.704	-114.016	-0.280	-0.055
-711.689	255.530	-0.154	0.269
-710.675	19.962	-0.123	-0.100
-709.660	213.011	-0.233	-0.373
-708.645	-97.708	0.283	0.074
-707.631	-72.896	-0.362	0.135
-706.616	-200.000	-0.172	-0.000
-705.602	249.235	0.139	-0.238
-704.587	433.119	-0.075	0.165
-703.572	800.000	-0.036	-0.133
-702.558	7.747	0.272	0.206
-701.543	-200.000	-0.008	-0.266
-700.529	101.119	-0.092	-0.108
-699.514	-200.000	0.007	-0.074
-698.499	800.000	-0.089	-0.278
-697.485	-41.028	0.073	-0.038
-696.470	-200.000	-0.071	0.354
-695.456	-40.076	-0.136	-0.072
-694.441	85.383	-0.045	0.050
-693.426	-40.751	0.166	0.087
-692.412	-13.038	-0.186	0.123
-691.397	-97.251	-0.045	0.012
-690.383	454.683	-0.133	0.298
-689.368	57.004	0.054	0.053
-688.354	436.532	-0.095	0.210
-687.339	-123.204	0.288	0.047
-686.324	-167.767	0.141	0.006
-685.310	-58.660	-0.146	-0.064
-684.295	-200.000	0.364	0.001
-683.281	590.848	-0.043	-0.107
-682.266	800.000	-0.055	0.196
-681.251	800.000	-0.108	-0.395
-680.237	-132.230	0.113	0.015
-679.222	21.486	-0.010	0.008
-678.208	-200.000	0.021	0.143
-677.193	-131.154	0.093	-0.013
-676.178	64.759	-0.009	-0.009
-675.164	-101.373	0.260	0.064
-674.149	769.387	0.101	0.278
-673.135	-200.000	-0.003	0.240
-672.120	254.801	-0.076	0.132
-671.105	-200.000	-0.168	-0.001
-670.091	-127.588	-0.128	0.019
-669.076	-151.822	-0.253	-0.019
-668.062	11.295	-0.254	0.197
-667.047	-0.864	-0.100	0.071
-666.032	-140.824	-0.232	-0.024
-665.018	-76.581	0.227	0.081
-664.003	-200.000	0.029	-0.147
-662.989	347.020	0.149	-0.297
-661.974	453.329	-0.116	0.261
-660.959	-200.000	-0.018	-0.113
-659.945	5.245	0.176	0.131
-658.930	72.435	0.128	-0.136
-657.916	-106.834	-0.206	0.046
-656.901	800.000	-0.042	-0.140
-655.886	-152.709	0.309	-0.022
-654.872	800.000	-0.054	-0.212
-653.857	-70.404	-0.413	-0.158
-652.843	173.151	-0.149	0.218
-651.828	43.000	0.164	0.152
-650.814	-178.438	-0.464	-0.011
-649.799	800.000	-0.036	0.124
-648.784	-95.187	-0.191	-0.052
-647.770	-130.896	0.241	0.033
-646.755	800.000	-0.096	-0.371
-645.741	-64.773	0.303	0.124
-644.726	143.893	0.141	0.190
-643.711	410.915	-0.091	-0.195
-642.697	683.968	-0.089	-0.236
-641.682	601.367	-0.234	-0.588
-640.668	401.415	-0.107	-0.226
-639.653	-86.731	-0.180	-0.056
-638.638	391.191	0.041	0.087
-637.624	-200.000	0.019	-0.087
-636.609	52.726	0.205	-0.198
-635.595	45.713	0.187	-0.175
-634.580	277.699	0.027	-0.048
-633.565	577.609	-0.050	-0.124
-632.551	-200.000	0.035	0.364
-631.536	31.691	0.285	-0.248
-630.522	49.521	0.053	-0.050
-629.507	-169.225	-0.416	-0.016
-628.492	476.188	-0.150	-0.342
-627.478	15.252	0.206	-0.163
-626.463	-79.771	0.322	-0.110
-625.449	154.892	-0.165	0.229
-624.434	-200.000	-0.039	0.180
-623.419	42.038	-0.154	0.141
-622.405	8.856	0.247	0.189
-621.390	-87.740	-0.240	-0.073
-620.376	-91.262	0.108	-0.031
-619.361	-200.000	-0.037	0.207
-618.346	-200.000	0.005	-0.048
-617.332	0.237	0.240	0.173
-616.317	142.323	0.112	0.151
-615.303	-124.036	0.148	-0.023
-614.288	111.847	-0.099	0.121
-613.273	800.000	-0.077	0.249
-612.259	800.000	-0.028	-0.094
-611.244	244.716	0.168	0.285
-610.230	-200.000	0.049	-0.235
-609.215	619.299	-0.137	-0.348
-608.201	115.574	-0.124	-0.153
-607.186	415.637	-0.059	-0.126
-606.171	78.991	-0.226	0.244
-605.157	-43.779	0.269	0.137
-604.142	-29.840	0.148	0.085
-603.128	-78.410	0.409	0.142
-602.113	117.756	-0.306	0.381
-601.098	-68.659	-0.424	-0.166
-600.084	-128.975	-0.053	-0.008
-599.069	-1.219	-0.045	-0.032
-598.055	-15.258	0.160	-0.103
-597.040	17.782	-0.137	0.110
-596.025	33.103	-0.196	-0.172
-595.011	800.000	0.132	0.373
-593.996	-200.000	0.033	0.254
-592.982	13.191	0.202	0.158
-591.967	22.641	-0.299	-0.247
-590.952	-200.000	0.004	-0.241
-589.938	-76.685	-0.136	-0.048
-588.923	800.000	0.064	0.251
-587.909	-4.496	0.239	-0.167
-586.894	-200.000	-0.036	-0.175
-585.879	-113.029	-0.227	-0.045
-584.865	-200.000	0.015	0.222
-583.850	234.660	0.131	0.218
-582.836	-63.122	-0.296	-0.123
-581.821	88.537	-0.226	-0.254
-580.806	800.000	-0.016	-0.053
-579.792	-29.412	-0.142	0.082
-578.777	140.617	0.116	0.154
-577.763	9.970	-0.072	-0.055
-576.748	-69.276	0.103	0.040
-575.733	800.000	0.077	-0.333
-574.719	800.000	0.053	-0.206
-573.704	63.224	-0.257	-0.259
-572.690	-200.000	-0.006	-0.107
-571.675	200.551	0.192	-0.297
-570.661	562.796	-0.081	0.198
-569.646	-155.930	0.527	-0.034
-568.631	-66.450	0.213	-0.085
-567.617	-122.978	0.154	-0.025
-566.602	40.558	-0.168	0.153
-565.588	-12.255	-0.158	0.104
-564.573	-53.711	-0.257	0.118
-563.558	-110.200	0.249	-0.052
-562.544	-13.501	-0.259	-0.170
-561.529	-200.000	0.035	-0.410
-560.515	16.996	-0.212	0.169
-559.500	-200.000	0.016	-0.151
-558.485	-140.413	0.270	0.028
-557.471	128.963	0.183	0.236
-556.456	128.749	0.030	-0.039
-555.442	-66.445	-0.029	0.012
-554.427	4.392	-0.121	0.090
-553.412	-59.858	0.224	-0.097
-552.398	127.159	0.039	-0.049
-551.383	9.818	-0.183	0.140
-550.369	-200.000	0.053	-0.329
-549.354	128.914	-0.054	0.069
-548.339	120.826	0.026	0.033
-547.325	-126.324	0.154	0.023
-546.310	379.099	-0.095	0.196
-545.296	800.000	-0.054	-0.210
-544.281	-200.000	0.034	0.188
-543.266	-199.105	0.208	-0.001
-542.252	412.170	-0.162	0.348
-541.237	-69.633	0.190	-0.073
-540.223	-105.020	-0.317	0.073
-539.208	6.209	0.506	-0.378
-538.193	800.000	-0.046	-0.177
-537.179	-53.240	0.292	-0.135
-536.164	-38.733	0.203	-0.108
-535.150	-127.852	-0.308	0.045
-534.135	800.000	0.068	-0.275
-533.121	-59.357	0.368	0.160
-532.106	-79.158	0.164	-0.056
-531.091	112.761	0.131	-0.160
-530.077	-200.000	0.005	-0.212
-529.062	247.511	0.088	-0.150
-528.048	-200.000	-0.039	-0.313
-527.033	-132.348	-0.207	-0.027
-526.018	-200.000	0.029	0.223
-525.004	-37.434	-0.319	0.172
-523.989	637.379	0.125	0.319
-522.975	264.774	-0.168	0.294
-521.960	328.075	-0.038	-0.074
-520.945	-57.196	0.192	0.085
-519.931	461.471	0.049	-0.110
-518.916	19.699	0.037	0.030
-517.902	-104.907	0.198	-0.046
-516.887	39.333	0.124	0.112
-515.872	-146.722	-0.230	-0.020
-514.858	95.230	-0.263	-0.302
-513.843	-127.993	0.327	-0.047
-512.829	-53.770	0.123	-0.057
-511.814	-34.372	0.218	-0.120
-510.799	-131.634	0.151	0.020
-509.785	-27.634	0.135	-0.079
-508.770	-200.000	-0.045	0.315
-507.756	800.000	-0.077	0.231
-506.741	-200.000	0.002	0.072
-505.726	-61.196	-0.118	-0.050
-504.712	-37.456	0.091	-0.049
-503.697	-200.000	0.041	-0.304
-502.683	468.068	0.020	0.044
-501.668	14.335	0.142	-0.112
-500.653	55.679	-0.209	-0.204
-499.639	-122.406	-0.264	0.043
-498.624	-36.805	-0.339	-0.183
-497.610	80.499	0.177	-0.192
-496.595	42.044	0.130	0.119
-495.581	86.936	0.010	-0.011
-494.566	111.170	-0.183	-0.222
-493.551	800.000	0.080	0.318
-492.537	800.000	0.045	0.127
-491.522	-200.000	-0.018	0.108
-490.508	-8.362	-0.151	0.102
-489.493	-112.214	-0.252	0.051
-488.478	-200.000	-0.222	-0.000
-487.464	-69.423	-0.456	0.176
-486.449	536.113	-0.086	0.206
-485.435	-103.144	-0.349	-0.083
-484.420	311.305	-0.067	-0.126
-483.405	-200.000	-0.008	0.082
-482.391	243.292	0.090	-0.152
-481.376	-31.249	-0.169	-0.096
-480.362	-74.849	0.177	-0.064
-479.347	-200.000	0.015	-0.192
-478.332	60.339	0.060	-0.060
-477.318	-200.000	-0.006	-0.152
-476.303	87.484	0.087	0.096
-475.289	133.649	0.028	0.036
-474.274	-98.010	-0.103	-0.027
-473.259	800.000	0.042	-0.134
-472.245	-200.000	-0.025	0.160
-471.230	800.000	0.141	0.434
-470.216	35.956	0.140	-0.124
-469.201	-200.000	-0.015	0.301
-468.186	-54.551	-0.231	0.105
-467.172	-107.299	0.340	-0.075
-466.157	216.418	0.052	-0.082
-465.143	-55.767	-0.193	-0.087
-464.128	106.881	0.081	-0.096
-463.113	-200.000	0.063	0.360
-462.099	-4.779	-0.145	0.101
-461.084	-200.000	0.013	0.067
-460.070	180.511	0.125	0.184
-459.055	-200.000	0.011	0.191
-458.040	-200.000	0.031	0.429
-457.026	784.356	-0.134	0.368
-456.011	-200.000	-0.003	0.041
-454.997	800.000	-0.035	0.125
-453.982	-127.088	-0.126	-0.018
-452.968	800.000	0.046	-0.181
-451.953	800.000	0.040	-0.164
-450.938	33.384	0.413	-0.360
-449.924	-29.687	-0.142	-0.081
-448.909	517.891	-0.057	-0.133
-447.895	-57.727	0.079	-0.035
-446.880	550.217	-0.146	-0.351
-445.865	-173.666	0.117	-0.004
-444.851	-56.443	-0.168	0.075
-443.836	800.000	0.043	-0.184
-442.822	646.350	0.140	0.358
-441.807	-159.314	0.226	-0.013
-440.792	-154.398	0.271	0.018
-439.778	-34.224	0.471	-0.259
-438.763	-200.000	-0.007	0.203
-437.749	-60.975	-0.520	0.220
-436.734	-60.770	-0.014	-0.006
-435.719	-200.000	0.046	0.272
-434.705	-124.587	-0.159	-0.025
-433.690	800.000	-0.045	-0.167
-432.676	56.694	-0.043	-0.042
-431.661	262.252	0.206	0.358
-430.646	40.194	-0.092	-0.083
-429.632	-200.000	-0.034	-0.264
-428.617	-200.000	-0.008	-0.074
-427.603	-184.984	0.259	-0.004
-426.588	53.203	0.172	-0.165
-425.573	-146.858	-0.111	0.010
-424.559	583.718	0.100	0.246
-423.544	-55.832	0.306	-0.137
-422.530	-142.812	-0.106	-0.010
-421.515	-79.842	-0.245	0.083
-420.500	234.811	-0.089	0.147
-419.486	-140.803	-0.021	0.002
-418.471	662.883	-0.090	-0.234
-417.457	-15.679	0.254	0.162
-416.442	-200.000	-0.010	-0.405
-415.428	-106.933	-0.316	0.070
-414.413	-42.312	-0.090	0.046
-413.398	-122.192	0.082	0.013
-412.384	-128.406	-0.255	-0.036
-411.369	800.000	0.070	-0.219
-410.355	-200.000	-0.019	-0.101
-409.340	-30.203	-0.102	0.058
-408.325	6.021	-0.316	-0.234
-407.311	-200.000	-0.003	0.245
-406.296	-200.000	-0.036	-0.249
-405.282	189.647	-0.204	-0.306
-404.267	800.000	-0.050	0.154
-403.252	-171.980	0.143	0.005
-402.238	-87.820	-0.256	-0.077
-401.223	-200.000	0.239	0.000
-400.209	-67.736	0.090	-0.035
-399.194	-200.000	0.027	0.174
-398.179	4.524	0.298	0.219
-397.165	-166.958	-0.310	-0.013
-396.150	-155.090	0.334	-0.022
-395.136	-200.000	0.022	-0.114
-394.121	653.349	0.077	-0.198
-393.106	37.528	0.074	-0.065
-392.092	-83.596	-0.105	-0.034
-391.077	-53.015	-0.142	0.066
-390.063	440.716	-0.043	-0.095
-389.048	-200.000	0.010	0.258
-388.033	-49.169	0.244	-0.117
-387.019	221.308	0.071	-0.114
-386.004	-200.000	-0.008	0.181
-384.990	5.505	-0.134	0.099
-383.975	-200.000	-0.024	-0.173
-382.960	26.867	-0.226	0.190
-381.946	800.000	-0.040	0.155
-380.931	291.852	0.045	-0.082
-379.917	800.000	-0.068	0.239
-378.902	215.769	-0.149	0.237
-377.888	103.462	-0.201	0.236
-376.873	-49.419	0.370	-0.177
-375.858	-200.000	-0.002	-0.321
-374.844	-40.007	0.215	0.112
-373.829	800.000	0.082	0.269
-372.815	800.000	0.014	0.060
-371.800	-200.000	-0.007	-0.275
-370.785	-200.000	-0.062	-0.285
-369.771	-200.000	0.010	0.103
-368.756	127.580	0.207	0.263
-367.742	78.169	-0.112	0.120
-366.727	359.257	0.151	0.301
-365.712	605.835	0.112	-0.279
-364.698	-200.000	0.023	-0.337
-363.683	14.953	0.128	0.100
-362.669	165.765	0.101	0.142
-361.654	-72.029	0.221	-0.082
-360.639	-200.000	-0.046	0.430
-359.625	134.850	0.112	-0.146
-358.610	216.120	0.042	0.066
-357.596	-53.294	-0.042	0.019
-356.581	-62.673	0.180	0.075
-355.566	800.000	-0.078	0.318
-354.552	-200.000	-0.007	-0.338
-353.537	419.178	-0.086	0.185
-352.523	-200.000	0.093	0.000
-351.508	231.324	0.043	-0.070
-350.493	-72.710	-0.262	0.097
-349.479	-200.000	-0.047	-0.387
-348.464	-200.000	0.004	-0.300
-347.450	711.742	0.056	0.149
-346.435	225.827	-0.175	0.284
-345.420	800.000	-0.038	0.126
-344.406	800.000	0.037	0.111
-343.391	-200.000	-0.000	0.220
-342.377	-156.894	0.052	0.003
-341.362	-200.000	-0.061	-0.368
-340.348	-114.040	-0.354	-0.068
-339.333	-200.000	0.021	-0.203
-338.318	54.847	0.078	0.075
-337.304	83.280	-0.059	-0.064
-336.289	99.182	0.077	-0.089
-335.275	-200.000	0.015	0.149
-334.260	65.885	0.173	0.175
-333.245	-60.321	0.199	-0.085
-332.231	446.486	-0.092	0.203
-331.216	-128.554	0.100	0.014
-330.202	-108.389	-0.097	0.021
-329.187	35.145	-0.201	0.176
-328.172	60.948	-0.151	-0.150
-327.158	266.591	0.109	-0.189
-326.143	-79.869	0.150	-0.051
-325.129	-97.285	-0.350	0.091
-324.114	691.853	0.043	0.114
-323.099	130.732	-0.082	-0.106
-322.085	800.000	-0.014	-0.061
-321.070	152.521	0.177	-0.242
-320.056	257.862	0.127	-0.218
-319.041	274.763	0.114	-0.203
-318.026	585.299	-0.067	-0.163
-317.012	222.188	-0.190	0.305
-315.997	-19.354	-0.261	-0.162
-314.983	-37.919	0.370	0.196
-313.968	-21.577	-0.190	-0.116
-312.953	-200.000	-0.054	0.304
-311.939	33.639	-0.092	-0.080
-310.924	39.880	0.177	-0.159
-309.910	-200.000	-0.019	0.262
-308.895	-126.858	-0.082	0.012
-307.880	-189.105	0.045	-0.001
-306.866	-153.696	-0.179	-0.012
-305.851	91.586	-0.081	0.091
-304.837	-200.000	-0.050	0.464
-303.822	40.947	-0.150	0.135
-302.807	-200.000	0.019	0.101
-301.793	-153.430	0.162	-0.011
-300.778	-99.421	0.064	-0.016
-299.764	-47.495	-0.110	-0.053
-298.749	-82.359	0.091	0.030
-297.735	-72.145	0.025	0.009
-296.720	183.599	-0.082	-0.121
-295.705	213.933	-0.203	0.321
-294.691	98.941	0.199	0.230
-293.676	-200.000	-0.040	-0.252
-292.662	-95.341	0.197	-0.053
-291.647	708.161	-0.033	0.087
-290.632	-130.383	0.186	-0.025
-289.618	-106.261	0.462	0.103
-288.603	4.716	-0.444	0.325
-287.589	-104.469	-0.150	-0.035
-286.574	-5.447	0.227	0.155
-285.559	-200.000	-0.002	-0.064
-284.545	-36.673	0.137	0.073
-283.530	184.602	0.117	-0.173
-282.516	-10.568	-0.327	0.216
-281.501	800.000	-0.056	0.170
-280.486	79.483	0.073	0.079
-279.472	-15.359	-0.152	0.097
-278.457	-4.522	0.198	0.136
-277.443	-40.483	-0.079	-0.041
-276.428	-125.077	0.192	0.029
-275.413	-90.088	0.164	0.048
-274.399	-51.071	0.243	-0.113
-273.384	-200.000	-0.015	0.116
-272.370	55.063	0.176	-0.169
-271.355	-200.000	0.006	0.224
-270.340	721.646	0.164	0.435
-269.326	-200.000	0.007	0.212
-268.311	-146.517	0.065	0.006
-267.297	800.000	-0.084	-0.317
-266.282	-17.146	0.152	-0.096
-265.267	-29.143	-0.125	0.071
-264.253	49.514	-0.064	-0.060
-263.238	-125.769	-0.217	-0.033
-262.224	800.000	0.021	0.074
-261.209	-147.301	-0.220	-0.019
-260.195	345.927	-0.030	-0.059
-259.180	-200.000	0.036	-0.226
-258.165	-83.743	0.076	-0.024
-257.151	800.000	-0.042	-0.130
-256.136	-113.063	0.244	-0.048
-255.122	-1.803	-0.039	-0.027
-254.107	242.526	0.135	0.226
-253.092	0.926	-0.113	-0.081
-252.078	708.735	0.120	-0.316
-251.063	-200.000	0.032	-0.266
-250.049	518.645	-0.100	-0.234
-249.034	-97.390	-0.164	0.043
-248.019	-31.690	0.097	-0.054
-247.005	711.786	0.039	-0.103
-245.990	314.557	0.002	-0.004
-244.976	-37.919	-0.138	0.073
-243.961	-172.879	-0.187	0.006
-242.946	157.390	-0.080	-0.110
-241.932	-181.953	-0.298	0.006
-240.917	-68.707	0.361	-0.139
-239.903	-200.000	0.033	-0.182
-238.888	169.941	-0.094	-0.134
-237.873	800.000	-0.059	-0.247
-236.859	666.525	-0.074	0.190
-235.844	17.180	0.103	-0.082
-234.830	-147.303	-0.390	0.033
-233.815	800.000	0.010	-0.030
-232.800	343.247	0.039	0.076
-231.786	12.569	0.115	0.088
-230.771	-200.000	0.006	-0.203
-229.757	-121.429	-0.272	-0.045
-228.742	-54.800	0.170	0.076
-227.727	115.783	-0.049	-0.059
-226.713	86.036	-0.171	-0.188
-225.698	-40.924	0.108	-0.056
-224.684	-133.587	-0.265	0.033
-223.669	-23.697	-0.165	-0.098
-222.655	-111.116	0.077	-0.016
-221.640	-40.402	-0.244	-0.126
-220.625	367.093	0.190	-0.382
-219.611	-54.513	0.080	-0.036
-218.596	78.309	0.063	0.067
-217.582	-176.167	-0.199	0.005
-216.567	86.861	-0.100	-0.110
-215.552	106.099	0.059	-0.069
-214.538	77.566	0.175	0.185
-213.523	180.821	-0.083	0.122
-212.509	369.399	0.217	0.436
-211.494	-200.000	0.040	-0.175
-210.479	-47.790	-0.289	-0.139
-209.465	-68.198	0.164	0.064
-208.450	-37.802	0.062	-0.033
-207.436	8.494	0.269	0.201
-206.421	550.230	-0.100	-0.239
-205.406	624.032	0.048	-0.119
-204.392	-152.060	-0.356	0.026
-203.377	44.058	-0.206	-0.188
-202.363	-83.366	-0.108	-0.034
-201.348	252.827	-0.073	-0.124
-200.333	-200.000	-0.008	-0.101
-199.319	-200.000	-0.005	-0.085
-198.304	-200.000	0.015	-0.113
-197.290	800.000	0.046	-0.201
-196.275	197.962	-0.054	0.082
-195.260	99.591	0.087	-0.100
-194.246	424.953	-0.016	-0.034
-193.231	500.135	0.065	0.149
-192.217	800.000	0.111	0.342
-191.202	800.000	0.049	-0.154
-190.187	-200.000	0.029	-0.157
-189.173	-60.338	0.127	-0.054
-188.158	-200.000	-0.010	0.213
-187.144	115.710	-0.132	-0.161
-186.129	-159.501	0.334	0.018
-185.114	-200.000	-0.063	0.489
-184.100	-23.887	-0.280	-0.166
-183.085	145.620	0.132	-0.175
-182.071	-200.000	0.058	0.276
-181.056	-93.143	-0.125	-0.035
-180.042	-133.355	0.285	0.036
-179.027	-161.261	-0.264	-0.014
-178.012	194.631	0.296	0.446
-176.998	97.390	-0.192	0.219
-175.983	106.630	-0.058	0.069
-174.969	-54.738	-0.444	0.199
-173.954	-200.000	0.052	0.332
-172.939	228.125	0.132	-0.214
-171.925	800.000	-0.042	0.125
-170.910	65.579	0.123	0.124
-169.896	730.002	0.057	-0.152
-168.881	-29.804	0.178	0.101
-167.866	349.321	0.034	0.067
-166.852	800.000	0.054	-0.223
-165.837	-83.241	0.172	-0.055
-164.823	-75.049	-0.258	-0.092
-163.808	-200.000	0.099	0.476
-162.793	-200.000	0.014	0.317
-161.779	245.193	0.092	0.153
-160.764	-15.965	0.164	-0.104
-159.750	-115.751	-0.247	0.046
-158.735	-108.790	-0.309	0.066
-157.720	-200.000	0.007	-0.064
-156.706	-183.309	0.017	-0.000
-155.691	30.389	-0.187	-0.159
-154.677	63.310	-0.261	0.260
-153.662	-24.288	-0.206	0.122
-152.647	-17.873	0.137	0.085
-151.633	-113.411	0.214	0.042
-150.618	800.000	0.037	-0.117
-149.604	-29.232	0.317	-0.180
-148.589	216.356	0.120	-0.189
-147.574	-75.084	-0.225	-0.080
-146.560	-109.670	0.134	-0.028
-145.545	283.628	0.014	0.025
-144.531	164.317	-0.303	-0.423
-143.516	24.332	-0.113	-0.093
-142.502	-67.660	0.249	-0.097
-141.487	432.509	-0.137	-0.295
-140.472	-130.242	0.237	-0.032
-139.458	-58.876	0.152	0.065
-138.443	-177.328	0.261	0.006
-137.429	55.239	0.114	0.109
-136.414	401.446	-0.255	0.530
-135.399	374.863	0.028	0.056
-134.385	156.323	0.210	0.288
-133.370	-137.273	0.284	-0.032
-132.356	-146.813	-0.234	0.020
-131.341	175.122	0.069	0.099
-130.326	800.000	-0.022	0.090
-129.312	120.947	-0.142	0.176
-128.297	136.936	0.164	-0.212
-127.283	246.956	-0.082	0.138
-126.268	265.242	0.175	0.303
-125.253	-200.000	-0.036	-0.273
-124.239	544.477	-0.132	-0.313
-123.224	-200.000	0.025	0.253
-122.210	-132.894	-0.247	-0.031
