DTS Sentinel unit serial number:	SN413079Multiplexer serial number:	ORYXHardware model number:	OX4-SRSoftware version number:	ORYX F/W v4.00 Oryx Data Collector v3.7.2.0data status	okinstallation	princeton_trtdifferential loss correction	single-endedforward channel	channel 2reverse channel	N/Adate	2019/09/14time	14:11:35forward acquisition time	60.00reverse acquisition time	0.00gamma	496.2192k internal	0.2302k external	0.2302temperature offset calibration	1.0148default loss term (dB/km)	0.3790temperature slope calibration	1.0000multiplexer offset coefficient	1.0000multiplexer slope coefficient	1.0000fibre end	0.00T internal ref (°C)	38.48T ext. ref 1 (°C)	5.07T ext. ref 2 (°C)	37.14length (m)	temperature (°C)	Stokes	anti-Stokes-747.200	-76.339	0.175	-0.063
-746.185	451.380	-0.169	0.382
-745.171	-184.499	0.144	0.002
-744.156	183.342	-0.088	-0.132
-743.142	116.354	-0.073	0.091
-742.127	-54.921	-0.208	-0.096
-741.112	-19.230	0.128	0.081
-740.098	800.000	0.021	-0.079
-739.083	800.000	0.084	0.295
-738.069	104.541	0.216	0.260
-737.054	-73.819	-0.211	0.078
-736.039	-108.874	-0.169	0.037
-735.025	-152.537	0.266	-0.019
-734.010	68.799	-0.235	-0.246
-732.996	-127.417	-0.188	-0.028
-731.981	-1.844	-0.160	-0.115
-730.966	158.541	-0.034	-0.049
-729.952	137.342	-0.084	0.111
-728.937	-85.758	-0.085	0.027
-727.923	115.297	-0.124	0.155
-726.908	-58.350	0.484	-0.214
-725.894	107.877	-0.097	-0.118
-724.879	-200.000	-0.029	-0.178
-723.864	-101.055	-0.142	-0.035
-722.850	-200.000	0.009	-0.116
-721.835	-4.997	0.052	0.037
-720.821	19.585	0.196	0.161
-719.806	-200.000	0.004	-0.121
-718.791	333.884	-0.105	-0.207
-717.777	-200.000	-0.067	-0.331
-716.762	153.313	0.079	0.110
-715.748	-39.367	0.120	0.064
-714.733	165.984	-0.123	0.178
-713.718	-46.038	-0.110	0.055
-712.704	245.305	0.075	0.128
-711.689	-200.000	0.044	0.209
-710.675	-137.734	-0.164	0.019
-709.660	45.994	0.049	-0.046
-708.645	-106.928	-0.198	0.045
-707.631	388.308	0.143	0.301
-706.616	-200.000	-0.035	0.267
-705.602	197.766	0.119	-0.185
-704.587	171.077	-0.252	-0.368
-703.572	800.000	-0.082	-0.354
-702.558	13.414	0.105	0.082
-701.543	116.911	0.109	0.137
-700.529	-18.337	-0.163	0.103
-699.514	681.595	-0.033	0.087
-698.499	63.370	0.194	0.198
-697.485	-18.978	0.164	-0.104
-696.470	-70.431	-0.457	0.176
-695.456	-62.890	-0.226	-0.095
-694.441	-85.338	-0.192	0.061
-693.426	45.187	-0.073	0.069
-692.412	4.849	-0.108	0.081
-691.397	-20.275	-0.176	-0.110
-690.383	-200.000	0.025	0.143
-689.368	145.115	-0.090	-0.122
-688.354	-27.494	-0.250	0.148
-687.339	206.516	0.162	-0.256
-686.324	-48.025	0.094	0.046
-685.310	-200.000	0.058	0.334
-684.295	-156.689	0.382	-0.024
-683.281	38.616	0.295	-0.267
-682.266	375.900	0.078	0.161
-681.251	25.230	-0.135	0.114
-680.237	-200.000	0.001	-0.222
-679.222	328.286	-0.064	-0.124
-678.208	-152.476	0.126	-0.009
-677.193	-54.004	0.285	-0.132
-676.178	69.356	0.237	-0.248
-675.164	471.043	0.071	0.163
-674.149	-1.644	0.337	0.241
-673.135	-192.730	-0.234	-0.002
-672.120	212.883	-0.072	-0.116
-671.105	367.842	0.023	-0.047
-670.091	99.325	-0.080	0.093
-669.076	243.284	-0.245	0.418
-668.062	27.594	0.079	0.068
-667.047	-4.441	-0.195	0.137
-666.032	371.825	0.165	-0.341
-665.018	543.797	0.106	-0.258
-664.003	207.458	0.068	-0.107
-662.989	131.870	-0.180	0.235
-661.974	-148.394	-0.101	-0.008
-660.959	234.619	-0.138	0.231
-659.945	-160.745	-0.308	-0.017
-658.930	-200.000	-0.003	0.073
-657.916	800.000	0.028	0.112
-656.901	11.572	-0.260	-0.202
-655.886	4.519	0.188	0.140
-654.872	-50.182	0.315	-0.151
-653.857	-200.000	-0.035	-0.289
-652.843	367.135	-0.170	0.348
-651.828	68.690	0.044	0.045
-650.814	-101.073	0.221	-0.055
-649.799	-200.000	-0.065	-0.417
-648.784	-200.000	0.017	-0.126
-647.770	-200.000	-0.058	-0.478
-646.755	-154.299	-0.259	0.018
-645.741	-145.303	0.209	0.019
-644.726	-34.711	0.123	-0.068
-643.711	-18.286	-0.130	0.083
-642.697	632.952	-0.123	-0.316
-641.682	54.461	0.206	-0.201
-640.668	-18.906	-0.158	-0.100
-639.653	-200.000	-0.007	-0.181
-638.638	104.972	-0.226	-0.271
-637.624	-133.749	-0.335	0.042
-636.609	-200.000	-0.042	-0.504
-635.595	800.000	0.048	0.176
-634.580	62.981	-0.132	0.134
-633.565	-136.868	-0.220	0.026
-632.551	-200.000	0.001	-0.189
-631.536	42.121	-0.149	-0.138
-630.522	-95.559	0.066	-0.018
-629.507	-169.021	-0.117	-0.004
-628.492	-138.023	-0.077	-0.009
-627.478	800.000	-0.103	0.314
-626.463	-29.092	0.220	0.128
-625.449	68.081	-0.225	0.233
-624.434	800.000	0.051	-0.165
-623.419	-37.153	0.273	-0.148
-622.405	-200.000	0.002	-0.058
-621.390	-200.000	-0.080	0.394
-620.376	-146.905	-0.113	-0.010
-619.361	15.576	0.118	-0.094
-618.346	-95.373	-0.269	-0.073
-617.332	16.181	0.188	-0.150
-616.317	-200.000	0.011	-0.121
-615.303	225.495	-0.104	0.171
-614.288	800.000	-0.038	0.163
-613.273	-200.000	-0.004	-0.100
-612.259	623.314	-0.064	-0.163
-611.244	-87.950	-0.137	-0.042
-610.230	97.109	0.035	-0.041
-609.215	374.438	0.135	-0.279
-608.201	97.092	-0.303	-0.353
-607.186	-200.000	-0.006	-0.141
-606.171	-118.244	-0.401	0.072
-605.157	-76.828	0.305	0.108
-604.142	62.398	-0.055	-0.056
-603.128	-200.000	-0.017	-0.141
-602.113	71.034	0.120	0.126
-601.098	-144.581	-0.046	0.004
-600.084	-26.942	-0.096	0.057
-599.069	254.472	-0.058	0.100
-598.055	-78.845	0.030	0.010
-597.040	-135.274	0.062	-0.008
-596.025	171.181	-0.172	0.250
-595.011	-187.974	-0.192	-0.003
-593.996	12.507	-0.113	0.088
-592.982	-200.000	-0.052	0.255
-591.967	115.312	-0.255	-0.315
-590.952	-127.763	0.095	-0.014
-589.938	-116.587	-0.285	0.053
-588.923	-28.759	0.197	-0.115
-587.909	-84.236	0.438	0.140
-586.894	-68.461	-0.253	0.099
-585.879	-200.000	-0.026	-0.438
-584.865	-18.491	-0.414	0.262
-583.850	-200.000	-0.044	0.443
-582.836	800.000	-0.083	0.262
-581.821	-97.416	0.162	-0.043
-580.806	-58.714	0.096	-0.042
-579.792	-200.000	0.047	0.422
-578.777	-146.205	0.135	-0.012
-577.763	-84.827	0.446	0.142
-576.748	-200.000	0.044	-0.211
-575.733	94.116	-0.051	-0.059
-574.719	89.573	-0.101	-0.114
-573.704	-80.165	-0.250	0.085
-572.690	-57.076	0.051	0.023
-571.675	800.000	0.057	-0.227
-570.661	50.924	-0.121	0.116
-569.646	-104.586	0.054	-0.013
-568.631	400.327	-0.021	-0.045
-567.617	344.498	0.009	-0.019
-566.602	-200.000	0.001	0.050
-565.588	-4.584	0.284	-0.198
-564.573	-200.000	-0.027	-0.283
-563.558	-110.566	-0.386	-0.081
-562.544	800.000	-0.059	0.191
-561.529	16.193	0.338	-0.270
-560.515	-134.079	0.201	0.025
-559.500	479.488	-0.068	-0.155
-558.485	77.654	0.121	0.131
-557.471	301.663	0.194	0.362
-556.456	-95.377	-0.338	-0.092
-555.442	-103.679	-0.169	-0.040
-554.427	9.361	0.246	-0.188
-553.412	800.000	-0.068	-0.193
-552.398	79.333	-0.183	0.198
-551.383	-40.352	-0.069	-0.036
-550.369	-75.185	-0.139	0.050
-549.354	30.773	0.190	0.164
-548.339	800.000	0.075	0.300
-547.325	-200.000	0.009	0.185
-546.310	-12.040	-0.005	0.003
-545.296	-200.000	0.058	-0.258
-544.281	800.000	-0.078	-0.342
-543.266	-200.000	0.019	0.123
-542.252	-84.798	-0.116	-0.037
-541.237	-200.000	-0.010	-0.179
-540.223	-44.780	-0.149	-0.075
-539.208	170.572	-0.037	-0.054
-538.193	-200.000	-0.010	-0.226
-537.179	526.080	-0.064	0.151
-536.164	-96.289	0.217	-0.058
-535.150	-200.000	0.006	-0.036
-534.135	-47.789	0.135	0.066
-533.121	38.298	-0.118	-0.106
-532.106	-2.773	-0.143	0.101
-531.091	-200.000	-0.025	-0.174
-530.077	430.571	0.009	0.020
-529.062	-14.446	-0.107	0.070
-528.048	-139.164	0.073	-0.008
-527.033	-200.000	-0.005	0.094
-526.018	800.000	0.029	0.097
-525.004	-102.800	0.142	0.034
-523.989	-23.415	-0.164	0.100
-522.975	-200.000	0.002	0.072
-521.960	140.764	0.142	-0.189
-520.945	-159.590	-0.141	0.008
-519.931	13.662	0.198	-0.155
-518.916	-105.169	0.154	-0.036
-517.902	-10.448	0.307	-0.205
-516.887	-200.000	0.052	-0.256
-515.872	-74.887	-0.025	0.009
-514.858	564.520	0.054	0.131
-513.843	82.717	0.145	-0.159
-512.829	-42.926	0.197	-0.101
-511.814	56.372	0.390	0.383
-510.799	67.894	-0.143	-0.148
-509.785	-98.235	-0.231	0.060
-508.770	-200.000	-0.060	0.390
-507.756	-82.940	0.180	-0.059
-506.741	-51.348	-0.215	0.102
-505.726	382.716	-0.108	-0.225
-504.712	-6.247	0.150	-0.104
-503.697	568.299	0.042	-0.103
-502.683	-200.000	-0.073	-0.398
-501.668	-200.000	0.053	-0.396
-500.653	-71.484	0.198	-0.075
-499.639	-58.688	-0.279	-0.122
-498.624	124.582	0.168	-0.213
-497.610	-78.902	0.231	0.079
-496.595	-170.283	-0.168	0.006
-495.581	-105.611	-0.152	0.035
-494.566	481.485	0.066	-0.151
-493.551	102.212	0.125	0.147
-492.537	800.000	0.020	-0.077
-491.522	800.000	0.104	-0.364
-490.508	-200.000	0.011	0.127
-489.493	-23.310	-0.289	0.175
-488.478	-200.000	0.017	-0.316
-487.464	447.977	0.042	0.093
-486.449	11.645	-0.154	0.119
-485.435	-18.551	0.410	0.258
-484.420	178.954	-0.109	0.160
-483.405	207.709	-0.106	-0.167
-482.391	28.633	0.121	-0.103
-481.376	-26.663	0.195	0.115
-480.362	-200.000	-0.068	0.344
-479.347	-33.953	0.284	-0.158
-478.332	419.878	-0.071	-0.153
-477.318	-119.661	0.034	0.006
-476.303	22.271	-0.059	-0.049
-475.289	-15.440	-0.151	-0.097
-474.274	-114.800	-0.249	0.048
-473.259	146.672	0.154	-0.209
-472.245	18.148	0.291	0.234
-471.230	-200.000	-0.037	0.245
-470.216	391.321	-0.097	-0.204
-469.201	-128.218	0.311	-0.045
-468.186	-124.307	0.272	0.043
-467.172	-76.095	-0.198	-0.070
-466.157	-200.000	-0.049	0.237
-465.143	-200.000	-0.010	0.067
-464.128	314.849	-0.158	-0.301
-463.113	-168.223	0.346	-0.013
-462.099	-5.793	-0.169	0.117
-461.084	-200.000	0.297	0.001
-460.070	-109.855	0.323	0.068
-459.055	-23.330	-0.148	-0.090
-458.040	800.000	0.044	0.187
-457.026	-102.392	-0.250	-0.060
-456.011	132.711	-0.110	-0.142
-454.997	519.614	0.064	-0.152
-453.982	33.565	-0.117	0.102
-452.968	-200.000	0.056	-0.254
-451.953	342.909	-0.053	-0.104
-450.938	110.885	0.164	0.198
-449.924	260.733	0.045	0.079
-448.909	191.582	-0.070	0.106
-447.895	-105.348	-0.161	-0.037
-446.880	-200.000	0.006	-0.410
-445.865	800.000	-0.060	0.174
-444.851	-180.749	0.123	0.003
-443.836	178.336	0.101	0.149
-442.822	136.853	0.047	-0.062
-441.807	70.046	-0.051	-0.053
-440.792	-200.000	0.002	0.111
-439.778	158.071	-0.098	-0.137
-438.763	18.354	0.113	-0.091
-437.749	161.801	-0.124	-0.175
-436.734	96.698	-0.116	-0.134
-435.719	-66.820	-0.128	0.051
-434.705	45.775	-0.131	0.122
-433.690	-56.567	0.075	0.033
-432.676	79.648	-0.119	0.129
-431.661	463.676	-0.119	0.268
-430.646	159.806	0.061	0.086
-429.632	-200.000	-0.053	-0.234
-428.617	49.518	-0.133	0.126
-427.603	4.578	-0.227	-0.168
-426.588	405.191	0.094	-0.200
-425.573	320.935	0.119	0.228
-424.559	563.212	-0.037	-0.089
-423.544	79.813	0.163	-0.176
-422.530	688.473	-0.083	-0.217
-421.515	-81.721	0.387	-0.128
-420.500	800.000	0.072	0.204
-419.486	-12.543	0.142	-0.093
-418.471	-103.191	0.384	-0.091
-417.457	-46.844	-0.349	0.172
-416.442	800.000	-0.061	-0.266
-415.428	800.000	0.045	-0.130
-414.413	-200.000	-0.014	-0.078
-413.398	359.031	0.039	0.078
-412.384	110.356	-0.383	0.462
-411.369	-120.041	0.378	0.065
-410.355	194.209	0.245	0.374
-409.340	12.703	-0.139	-0.108
-408.325	-119.312	-0.028	-0.005
-407.311	-64.535	-0.088	-0.036
-406.296	371.664	-0.143	0.291
-405.282	-200.000	-0.022	0.339
-404.267	800.000	0.046	-0.194
-403.252	171.915	-0.142	-0.205
-402.238	800.000	0.044	-0.142
-401.223	-81.768	0.129	-0.042
-400.209	176.672	-0.065	0.096
-399.194	-66.423	-0.099	0.039
-398.179	-40.824	0.227	0.118
-397.165	-85.035	-0.046	-0.015
-396.150	-158.205	0.268	0.016
-395.136	-200.000	0.000	0.044
-394.121	-200.000	-0.037	0.208
-393.106	-114.520	0.243	0.047
-392.092	92.728	-0.332	0.376
-391.077	33.696	0.183	-0.160
-390.063	54.925	-0.201	0.195
-389.048	247.452	-0.134	-0.228
-388.033	371.773	0.132	-0.269
-387.019	154.578	0.073	0.100
-386.004	-72.535	-0.150	0.056
-384.990	800.000	-0.044	-0.151
-383.975	-200.000	-0.008	-0.119
-382.960	-45.299	-0.148	0.074
-381.946	-0.674	0.137	-0.097
-380.931	-200.000	-0.004	0.190
-379.917	-28.463	0.264	-0.153
-378.902	46.630	-0.215	-0.200
-377.888	-200.000	-0.001	-0.139
-376.873	78.340	0.231	-0.247
-375.858	-119.821	-0.162	-0.028
-374.844	74.765	-0.143	0.151
-373.829	-185.848	-0.308	0.005
-372.815	-136.570	0.150	0.017
-371.800	-109.776	0.396	0.084
-370.785	800.000	0.079	-0.264
-369.771	-63.718	-0.167	-0.069
-368.756	-17.989	0.215	0.135
-367.742	-57.043	-0.174	-0.077
-366.727	363.466	-0.132	0.267
-365.712	-112.319	-0.371	0.075
-364.698	354.218	0.034	0.068
-363.683	800.000	-0.052	-0.206
-362.669	254.496	0.071	0.122
-361.654	-129.767	-0.296	0.041
-360.639	800.000	-0.047	-0.147
-359.625	10.433	0.195	0.149
-358.610	137.862	-0.216	0.284
-357.596	32.754	-0.224	0.194
-356.581	-200.000	-0.017	0.163
-355.566	59.409	0.159	-0.157
-354.552	-155.894	0.141	-0.009
-353.537	-200.000	0.046	0.209
-352.523	48.066	0.174	0.163
-351.508	-154.111	0.092	-0.006
-350.493	-200.000	-0.018	0.285
-349.479	31.801	-0.288	0.249
-348.464	-200.000	-0.011	-0.136
-347.450	-176.970	-0.188	0.005
-346.435	630.425	-0.075	0.190
-345.420	221.170	-0.193	0.311
-344.406	-104.539	0.299	0.069
-343.391	-200.000	0.075	0.477
-342.377	-200.000	-0.012	-0.069
-341.362	61.133	0.143	-0.142
-340.348	-34.937	-0.099	-0.054
-339.333	-86.386	-0.527	-0.163
-338.318	195.338	-0.109	0.167
-337.304	-200.000	-0.060	0.269
-336.289	449.652	-0.003	0.008
-335.275	-47.814	0.009	-0.005
-334.260	26.883	-0.041	0.034
-333.245	-169.856	-0.206	0.007
-332.231	121.110	-0.068	0.085
-331.216	40.764	-0.087	0.079
-330.202	20.974	0.199	-0.162
-329.187	175.019	-0.226	0.328
-328.172	-200.000	0.003	0.013
-327.158	800.000	0.020	0.068
-326.143	-71.381	0.283	-0.106
-325.129	800.000	0.051	-0.221
-324.114	-112.857	-0.321	-0.064
-323.099	7.272	0.008	-0.006
-322.085	700.067	0.070	-0.185
-321.070	247.220	0.137	-0.232
-320.056	-6.544	0.320	-0.219
-319.041	-61.237	-0.112	-0.047
-318.026	289.129	-0.096	-0.175
-317.012	-200.000	0.007	0.126
-315.997	-15.500	-0.235	-0.151
-314.983	-83.264	0.020	0.006
-313.968	174.066	-0.092	-0.134
-312.953	-47.164	0.263	-0.129
-311.939	-200.000	0.000	-0.141
-310.924	44.090	-0.135	0.124
-309.910	-61.003	-0.077	0.033
-308.895	-45.601	-0.093	0.046
-307.880	483.504	0.116	0.265
-306.866	42.974	0.193	0.176
-305.851	800.000	0.020	-0.073
-304.837	126.688	0.161	0.205
-303.822	-18.945	-0.122	0.076
-302.807	-200.000	0.029	-0.235
-301.793	29.377	0.049	-0.042
-300.778	-58.783	0.151	0.066
-299.764	-114.744	0.252	-0.048
-298.749	-200.000	-0.018	0.103
-297.735	-66.468	0.191	0.076
-296.720	133.755	0.192	0.248
-295.705	-64.851	-0.279	0.113
-294.691	796.090	-0.069	0.189
-293.676	500.874	-0.032	-0.073
-292.662	800.000	0.092	-0.316
-291.647	-24.193	-0.394	-0.236
-290.632	206.106	0.086	-0.134
-289.618	-5.593	-0.368	0.253
-288.603	-200.000	-0.022	0.117
-287.589	596.238	0.050	-0.125
-286.574	-106.368	-0.094	-0.021
-285.559	259.629	-0.106	-0.183
-284.545	-38.367	-0.288	-0.153
-283.530	-121.310	-0.214	0.036
-282.516	-200.000	-0.021	0.152
-281.501	-200.000	-0.000	-0.250
-280.486	319.879	0.099	-0.188
-279.472	-25.809	-0.230	0.136
-278.457	16.474	0.150	0.118
-277.443	-130.751	0.411	0.055
-276.428	-200.000	-0.013	0.113
-275.413	-66.441	-0.336	0.134
-274.399	-44.719	-0.157	-0.078
-273.384	710.044	0.039	0.104
-272.370	2.244	0.101	0.073
-271.355	-147.312	0.153	-0.013
-270.340	-200.000	-0.019	-0.152
-269.326	317.606	0.155	-0.294
-268.311	-111.732	0.206	-0.042
-267.297	-95.178	-0.149	0.040
-266.282	-53.954	-0.122	0.056
-265.267	-0.054	0.180	-0.128
-264.253	-200.000	-0.001	-0.081
-263.238	273.247	0.131	0.231
-262.224	557.377	0.147	-0.354
-261.209	800.000	-0.065	-0.246
-260.195	55.509	-0.192	-0.185
-259.180	544.875	0.044	-0.106
-258.165	-134.161	0.126	0.016
-257.151	33.448	0.185	-0.160
-256.136	800.000	-0.078	-0.284
-255.122	-58.604	0.136	0.059
-254.107	-17.311	-0.362	0.228
-253.092	-200.000	0.017	0.155
-252.078	-200.000	0.018	0.120
-251.063	35.279	-0.275	0.241
-250.049	-68.944	0.083	0.032
-249.034	-60.871	-0.179	0.076
-248.019	8.651	0.144	-0.109
-247.005	-106.024	-0.230	0.052
-245.990	-58.553	0.074	-0.032
-244.976	64.001	-0.094	0.094
-243.961	-200.000	0.073	-0.330
-242.946	35.426	-0.090	-0.079
-241.932	21.048	0.155	-0.126
-240.917	15.994	-0.271	0.213
-239.903	44.195	-0.169	0.155
-238.888	-181.916	0.177	-0.003
-237.873	-200.000	0.009	0.316
-236.859	37.640	-0.111	0.099
-235.844	-159.291	-0.421	0.024
-234.830	-129.875	-0.377	-0.052
-233.815	-200.000	-0.037	0.186
-232.800	206.052	0.106	0.165
-231.786	-200.000	-0.027	-0.364
-230.771	757.537	-0.014	0.037
-229.757	26.370	-0.161	-0.134
-228.742	211.098	0.181	0.285
-227.727	137.697	-0.075	0.098
-226.713	36.203	0.251	0.221
-225.698	-41.892	0.284	0.146
-224.684	-42.778	0.126	0.064
-223.669	-200.000	-0.013	0.186
-222.655	-200.000	0.022	0.271
-221.640	-200.000	-0.040	0.294
-220.625	732.367	-0.145	0.388
-219.611	93.070	0.117	-0.132
-218.596	800.000	-0.058	0.180
-217.582	170.188	0.199	0.285
-216.567	-82.493	0.163	0.053
-215.552	204.043	0.067	0.104
-214.538	235.758	0.121	0.199
-213.523	-152.919	0.097	0.007
-212.509	-33.735	0.266	0.147
-211.494	-120.742	0.019	0.003
-210.479	330.359	-0.083	0.160
-209.465	-150.784	0.352	-0.027
-208.450	30.332	0.172	-0.147
-207.436	57.013	0.010	-0.009
-206.421	75.430	0.095	-0.100
-205.406	0.220	-0.244	0.174
-204.392	699.196	-0.121	0.317
-203.377	-25.788	-0.201	-0.118
-202.363	-92.914	-0.388	0.108
-201.348	-50.524	-0.066	0.031
-200.333	-53.100	0.055	0.025
-199.319	-102.149	0.212	-0.051
-198.304	-44.437	0.233	-0.117
-197.290	79.572	0.108	-0.116
-196.275	-108.802	0.276	0.059
-195.260	583.901	-0.097	0.237
-194.246	-77.307	0.122	0.042
-193.231	100.621	0.167	-0.193
-192.217	-26.381	0.163	0.095
-191.202	-1.718	-0.077	0.054
-190.187	33.778	0.260	-0.225
-189.173	668.708	-0.051	-0.131
-188.158	-161.698	0.115	0.006
-187.144	-163.208	0.161	0.008
-186.129	104.196	0.171	0.201
-185.114	-200.000	0.002	-0.198
-184.100	0.459	0.280	-0.200
-183.085	800.000	-0.135	0.492
-182.071	-200.000	-0.012	0.305
-181.056	-200.000	-0.031	0.187
-180.042	800.000	-0.042	-0.152
-179.027	-154.642	0.423	-0.028
-178.012	-127.216	0.610	-0.089
-176.998	-117.482	0.259	-0.047
-175.983	-175.577	0.059	-0.002
-174.969	-23.509	0.390	0.233
-173.954	125.366	-0.128	0.160
-172.939	112.247	0.119	-0.143
-171.925	-99.514	-0.262	0.066
-170.910	-20.758	0.186	-0.114
-169.896	-82.688	-0.152	0.049
-168.881	96.682	-0.108	0.123
-167.866	-102.727	0.154	-0.036
-166.852	800.000	-0.010	-0.041
-165.837	170.162	0.202	0.288
-164.823	-33.007	0.163	0.090
-163.808	-80.356	-0.107	0.036
-162.793	50.925	0.203	-0.192
-161.779	49.047	-0.149	-0.139
-160.764	-114.288	-0.541	-0.104
-159.750	-50.423	0.171	-0.080
-158.735	-10.929	-0.362	-0.238
-157.720	-48.422	0.153	0.073
-156.706	-47.235	-0.272	-0.132
-155.691	-115.829	0.397	-0.074
-154.677	161.904	-0.094	-0.130
-153.662	-65.097	-0.218	-0.088
-152.647	125.325	-0.094	0.118
-151.633	101.178	0.122	-0.142
-150.618	-13.400	0.131	-0.085
-149.604	-42.249	0.168	-0.086
-148.589	383.121	0.107	-0.219
-147.574	-90.429	-0.111	0.032
-146.560	322.182	0.104	-0.197
-145.545	479.292	-0.039	-0.088
-144.531	120.413	0.175	-0.217
-143.516	800.000	0.082	0.274
-142.502	800.000	-0.122	0.389
-141.487	-50.941	-0.195	0.091
-140.472	722.409	-0.051	0.134
-139.458	-50.764	0.084	0.040
-138.443	-35.289	-0.080	0.043
-137.429	-23.550	0.070	0.042
-136.414	-84.565	0.108	0.034
-135.399	800.000	-0.057	0.166
-134.385	-200.000	0.043	0.425
-133.370	-95.780	0.190	0.050
-132.356	-23.038	-0.232	-0.139
-131.341	-23.487	0.152	0.091
-130.326	-45.765	0.236	0.116
-129.312	-200.000	0.016	-0.226
-128.297	800.000	0.071	0.296
-127.283	-19.857	-0.194	-0.119
-126.268	-162.594	0.073	0.004
-125.253	-23.409	-0.186	-0.111
-124.239	94.389	-0.142	-0.160
-123.224	800.000	0.082	-0.287
-122.210	166.611	-0.061	0.086
-121.195	585.225	-0.137	0.334
