DTS Sentinel unit serial number:	SN413079Multiplexer serial number:	ORYXHardware model number:	OX4-SRSoftware version number:	ORYX F/W v4.00 Oryx Data Collector v3.7.2.0data status	okinstallation	princeton_trtdifferential loss correction	single-endedforward channel	channel 2reverse channel	N/Adate	2019/09/17time	19:55:35forward acquisition time	60.00reverse acquisition time	0.00gamma	496.2192k internal	0.2328k external	0.2328temperature offset calibration	0.9983default loss term (dB/km)	0.3790temperature slope calibration	1.0000multiplexer offset coefficient	1.0000multiplexer slope coefficient	1.0000fibre end	0.00T internal ref (°C)	33.78T ext. ref 1 (°C)	0.22T ext. ref 2 (°C)	23.11length (m)	temperature (°C)	Stokes	anti-Stokes-747.200	800.000	-0.059	-0.193
-746.185	-15.730	-0.196	-0.126
-745.171	-72.712	-0.117	0.043
-744.156	236.750	0.149	0.248
-743.142	-200.000	-0.020	-0.268
-742.127	-68.369	-0.065	0.025
-741.112	575.786	-0.177	-0.435
-740.098	800.000	0.052	0.177
-739.083	-143.598	0.604	-0.058
-738.069	598.139	-0.107	-0.267
-737.054	-161.748	0.269	0.014
-736.039	127.921	0.044	0.056
-735.025	-91.486	0.197	0.057
-734.010	-200.000	-0.017	-0.139
-732.996	-167.399	-0.162	-0.007
-731.981	-45.684	0.021	0.011
-730.966	-90.977	-0.351	0.102
-729.952	31.197	-0.088	0.076
-728.937	-67.265	-0.207	-0.082
-727.923	490.409	0.159	-0.366
-726.908	323.979	0.054	-0.104
-725.894	660.672	-0.176	0.455
-724.879	87.919	0.049	0.055
-723.864	4.880	-0.161	0.119
-722.850	313.074	-0.189	-0.358
-721.835	-11.033	-0.170	-0.113
-720.821	-200.000	-0.031	0.266
-719.806	-153.381	-0.224	-0.016
-718.791	-200.000	-0.023	-0.236
-717.777	800.000	-0.040	-0.120
-716.762	-164.990	-0.199	-0.009
-715.748	325.657	-0.157	0.302
-714.733	106.948	-0.043	0.052
-713.718	67.428	-0.065	0.066
-712.704	542.282	-0.109	0.261
-711.689	309.973	-0.031	0.058
-710.675	800.000	-0.074	-0.282
-709.660	341.037	0.132	-0.260
-708.645	-200.000	0.013	-0.171
-707.631	-200.000	0.028	0.383
-706.616	800.000	-0.034	0.096
-705.602	-93.287	-0.308	-0.086
-704.587	205.921	-0.145	-0.228
-703.572	603.842	0.063	-0.157
-702.558	800.000	-0.033	0.111
-701.543	0.859	0.173	-0.125
-700.529	-68.915	0.241	0.094
-699.514	-112.365	0.176	0.035
-698.499	-186.247	-0.233	0.003
-697.485	800.000	0.088	-0.277
-696.470	305.649	-0.131	0.244
-695.456	-200.000	0.018	0.128
-694.441	6.506	0.141	0.106
-693.426	-129.426	-0.236	-0.033
-692.412	28.464	-0.090	0.077
-691.397	518.901	0.160	0.377
-690.383	-53.485	0.174	0.080
-689.368	-127.910	0.084	0.012
-688.354	-12.082	0.041	0.027
-687.339	132.281	-0.131	-0.170
-686.324	-83.465	-0.107	-0.034
-685.310	-152.752	-0.148	0.011
-684.295	-81.547	-0.211	0.070
-683.281	-83.772	0.243	0.078
-682.266	112.447	-0.217	-0.264
-681.251	-200.000	-0.071	-0.346
-680.237	800.000	0.077	-0.304
-679.222	-200.000	-0.043	0.211
-678.208	75.748	-0.290	0.308
-677.193	800.000	0.075	-0.220
-676.178	440.008	0.130	-0.285
-675.164	188.365	-0.144	-0.216
-674.149	-125.007	-0.156	-0.024
-673.135	-24.589	-0.189	-0.113
-672.120	-200.000	-0.052	0.235
-671.105	13.637	0.024	-0.018
-670.091	605.973	0.112	0.279
-669.076	187.554	-0.120	-0.179
-668.062	116.004	0.148	-0.182
-667.047	-59.297	-0.110	0.048
-666.032	-200.000	-0.050	-0.406
-665.018	800.000	0.005	-0.015
-664.003	95.585	-0.019	-0.021
-662.989	800.000	0.068	0.229
-661.974	690.581	0.059	-0.156
-660.959	-21.944	0.032	-0.019
-659.945	-25.710	-0.116	-0.069
-658.930	288.778	0.018	0.032
-657.916	-109.271	-0.095	-0.020
-656.901	-200.000	-0.040	-0.204
-655.886	123.164	0.228	0.286
-654.872	390.477	-0.153	0.319
-653.857	-153.828	-0.229	-0.016
-652.843	98.857	0.273	0.316
-651.828	800.000	-0.050	0.215
-650.814	800.000	-0.108	0.309
-649.799	240.939	0.174	0.292
-648.784	315.948	-0.146	-0.277
-647.770	-56.957	0.258	0.114
-646.755	291.147	0.105	0.192
-645.741	800.000	-0.109	0.305
-644.726	336.862	0.114	0.222
-643.711	-186.851	0.181	-0.003
-642.697	421.574	-0.057	0.122
-641.682	-133.326	0.255	0.032
-640.668	-16.330	0.304	-0.194
-639.653	-153.654	-0.026	-0.002
-638.638	-147.771	0.193	0.016
-637.624	-200.000	-0.017	0.319
-636.609	-183.288	0.212	0.004
-635.595	-102.644	0.340	0.081
-634.580	-9.894	-0.158	0.105
-633.565	170.412	-0.108	0.155
-632.551	5.887	0.330	-0.245
-631.536	-82.757	0.114	0.037
-630.522	800.000	-0.114	-0.371
-629.507	-7.443	0.211	0.143
-628.492	122.931	-0.067	-0.084
-627.478	-200.000	0.001	0.117
-626.463	-117.203	-0.074	-0.013
-625.449	-91.421	-0.335	-0.096
-624.434	42.019	0.229	0.209
-623.419	-104.461	-0.269	0.062
-622.405	606.623	-0.066	0.166
-621.390	-200.000	-0.011	-0.301
-620.376	-200.000	-0.038	-0.272
-619.361	-105.501	0.074	0.017
-618.346	-200.000	0.056	0.283
-617.332	-86.648	0.220	0.068
-616.317	-144.235	-0.084	-0.008
-615.303	206.545	0.188	-0.293
-614.288	175.535	-0.129	0.187
-613.273	107.385	-0.082	-0.098
-612.259	-142.271	-0.257	-0.026
-611.244	800.000	0.110	-0.375
-610.230	266.906	0.093	-0.164
-609.215	-77.241	0.073	-0.026
-608.201	-200.000	-0.032	-0.358
-607.186	54.444	-0.283	-0.274
-606.171	800.000	-0.032	-0.108
-605.157	497.601	0.074	-0.170
-604.142	420.680	-0.102	-0.219
-603.128	-200.000	-0.000	0.297
-602.113	-72.715	0.160	0.059
-601.098	-93.455	0.377	-0.105
-600.084	-47.478	-0.206	0.101
-599.069	-72.113	0.132	0.049
-598.055	1.794	0.263	-0.190
-597.040	172.782	-0.072	0.104
-596.025	185.000	-0.223	0.331
-595.011	-77.179	0.114	-0.040
-593.996	57.741	-0.061	-0.060
-592.982	110.106	-0.187	-0.225
-591.967	256.719	0.186	-0.320
-590.952	-200.000	-0.001	0.109
-589.938	87.650	-0.186	0.206
-588.923	38.425	0.182	0.162
-587.909	-77.922	0.226	0.078
-586.894	800.000	-0.042	-0.153
-585.879	-200.000	0.036	0.423
-584.865	-140.603	0.072	-0.007
-583.850	800.000	0.081	-0.291
-582.836	-104.080	-0.223	-0.052
-581.821	29.383	0.106	-0.091
-580.806	570.949	-0.035	-0.085
-579.792	800.000	0.078	-0.316
-578.777	96.324	0.112	-0.129
-577.763	800.000	-0.031	-0.099
-576.748	-200.000	-0.011	-0.170
-575.733	-82.799	0.321	0.104
-574.719	309.220	-0.087	-0.162
-573.704	-200.000	0.012	-0.353
-572.690	-45.163	-0.435	-0.216
-571.675	6.382	0.206	0.153
-570.661	-118.549	-0.541	0.096
-569.646	-200.000	-0.076	0.332
-568.631	129.053	-0.114	-0.145
-567.617	800.000	0.097	-0.361
-566.602	-24.488	-0.095	0.057
-565.588	-200.000	-0.003	0.026
-564.573	21.152	-0.157	-0.128
-563.558	-168.075	0.176	0.007
-562.544	-200.000	-0.047	0.350
-561.529	-200.000	-0.000	0.265
-560.515	800.000	-0.062	0.207
-559.500	100.796	-0.124	0.144
-558.485	-7.302	0.245	-0.166
-557.471	-200.000	0.027	0.261
-556.456	-82.745	0.258	-0.084
-555.442	142.959	0.304	-0.405
-554.427	49.127	-0.093	-0.087
-553.412	-200.000	0.014	-0.104
-552.398	-5.426	-0.164	0.113
-551.383	10.724	-0.073	0.056
-550.369	-200.000	-0.006	0.129
-549.354	88.929	-0.177	0.197
-548.339	-53.349	0.177	0.081
-547.325	-21.038	-0.169	-0.103
-546.310	13.996	-0.174	-0.135
-545.296	-200.000	0.023	-0.168
-544.281	-200.000	-0.035	0.247
-543.266	-200.000	-0.004	0.095
-542.252	179.354	0.141	0.206
-541.237	-116.153	0.209	-0.039
-540.223	39.253	-0.156	-0.140
-539.208	-200.000	0.039	-0.232
-538.193	-81.962	-0.163	-0.053
-537.179	-56.773	0.201	-0.089
-536.164	229.581	-0.130	-0.212
-535.150	400.982	0.058	-0.122
-534.135	325.063	-0.024	-0.046
-533.121	800.000	-0.122	-0.349
-532.106	-168.959	0.234	-0.009
-531.091	52.194	-0.189	0.180
-530.077	504.919	0.087	0.202
-529.062	-175.703	0.050	0.001
-528.048	-200.000	0.016	0.158
-527.033	800.000	-0.027	-0.110
-526.018	-168.327	0.162	-0.006
-525.004	205.438	-0.110	0.171
-523.989	454.423	-0.129	-0.284
-522.975	349.750	-0.143	-0.283
-521.960	-130.070	0.384	0.052
-520.945	-123.701	0.237	0.037
-519.931	-155.543	0.454	-0.029
-518.916	800.000	-0.077	-0.323
-517.902	-147.555	-0.076	-0.006
-516.887	-69.997	0.064	-0.024
-515.872	23.304	0.278	-0.228
-514.858	52.247	-0.166	-0.158
-513.843	1.091	0.095	0.068
-512.829	-185.460	-0.155	-0.002
-511.814	-6.959	0.154	0.104
-510.799	800.000	0.074	-0.210
-509.785	26.404	0.106	0.089
-508.770	37.318	0.378	0.335
-507.756	-200.000	-0.058	-0.356
-506.741	-110.022	0.099	-0.021
-505.726	80.027	-0.080	-0.086
-504.712	381.244	-0.059	0.121
-503.697	-200.000	0.003	-0.185
-502.683	-15.989	-0.069	0.044
-501.668	-200.000	0.059	0.435
-500.653	5.320	-0.353	0.260
-499.639	71.326	-0.147	-0.152
-498.624	47.415	0.059	-0.055
-497.610	94.215	0.259	0.293
-496.595	-7.694	-0.116	-0.078
-495.581	410.507	-0.015	0.031
-494.566	-157.306	-0.104	0.006
-493.551	-7.843	-0.109	0.073
-492.537	260.214	-0.084	-0.145
-491.522	-200.000	0.012	0.128
-490.508	-136.847	0.304	-0.035
-489.493	-200.000	0.004	0.172
-488.478	-200.000	0.007	0.065
-487.464	-88.789	0.159	-0.047
-486.449	-169.566	-0.070	0.003
-485.435	87.795	0.248	-0.274
-484.420	-68.904	-0.204	-0.078
-483.405	-175.293	0.194	0.005
-482.391	699.318	0.070	-0.183
-481.376	-59.382	0.099	0.042
-480.362	-200.000	-0.011	-0.059
-479.347	-11.265	0.196	-0.129
-478.332	-200.000	-0.009	0.100
-477.318	-200.000	-0.031	0.169
-476.303	-39.159	-0.239	-0.125
-475.289	-200.000	-0.032	-0.241
-474.274	-9.413	0.441	-0.294
-473.259	216.037	0.039	0.061
-472.245	-86.601	-0.360	0.110
-471.230	-200.000	0.008	0.179
-470.216	25.719	-0.073	-0.061
-469.201	21.102	0.034	-0.028
-468.186	-200.000	-0.004	0.185
-467.172	37.578	-0.127	0.112
-466.157	-123.355	-0.090	0.014
-465.143	153.895	0.213	-0.291
-464.128	4.907	0.182	-0.133
-463.113	-200.000	0.027	-0.189
-462.099	-87.386	0.084	-0.025
-461.084	-140.753	-0.401	0.041
-460.070	-113.390	-0.191	-0.037
-459.055	743.515	-0.055	0.147
-458.040	800.000	0.115	-0.380
-457.026	36.673	-0.169	0.149
-456.011	-200.000	-0.021	0.171
-454.997	144.583	-0.087	0.115
-453.982	-200.000	-0.057	0.395
-452.968	-135.344	0.252	0.030
-451.953	212.188	0.239	-0.376
-450.938	18.210	-0.197	-0.156
-449.924	134.130	0.118	0.152
-448.909	-73.046	0.354	0.129
-447.895	800.000	-0.099	-0.275
-446.880	800.000	0.123	0.390
-445.865	-133.407	-0.129	0.016
-444.851	114.437	-0.096	0.117
-443.836	-200.000	-0.015	0.360
-442.822	7.786	-0.055	-0.041
-441.807	800.000	-0.044	-0.191
-440.792	29.950	0.095	0.080
-439.778	-200.000	-0.032	-0.486
-438.763	12.349	0.253	0.194
-437.749	-200.000	0.032	-0.153
-436.734	89.640	-0.292	-0.324
-435.719	-43.766	-0.357	0.179
-434.705	461.150	-0.028	-0.063
-433.690	518.252	-0.094	-0.218
-432.676	116.751	-0.207	0.253
-431.661	-124.655	-0.123	0.019
-430.646	-200.000	-0.007	-0.046
-429.632	385.790	0.059	0.122
-428.617	-21.975	-0.188	0.114
-427.603	-74.417	-0.287	0.103
-426.588	74.089	0.199	-0.208
-425.573	-200.000	-0.045	-0.242
-424.559	43.705	-0.307	0.280
-423.544	-200.000	-0.012	-0.205
-422.530	142.550	0.054	-0.071
-421.515	714.564	-0.112	-0.294
-420.500	193.730	-0.080	0.120
-419.486	428.768	0.058	0.125
-418.471	3.084	-0.253	0.183
-417.457	39.676	0.067	0.060
-416.442	-200.000	0.003	0.066
-415.428	92.747	-0.173	-0.195
-414.413	136.244	0.088	0.114
-413.398	-59.814	0.122	-0.052
-412.384	597.748	0.103	-0.254
-411.369	-68.685	0.077	-0.030
-410.355	-200.000	0.077	0.496
-409.340	800.000	0.081	0.252
-408.325	-24.696	-0.213	-0.126
-407.311	66.092	0.070	0.071
-406.296	20.942	0.198	-0.159
-405.282	24.027	0.150	-0.123
-404.267	-117.004	0.239	0.043
-403.252	-200.000	0.003	0.205
-402.238	-200.000	0.055	-0.581
-401.223	498.944	-0.018	-0.040
-400.209	95.586	0.243	-0.276
-399.194	-200.000	0.021	0.128
-398.179	-147.334	0.234	0.020
-397.165	93.131	0.129	0.145
-396.150	-132.649	0.147	0.019
-395.136	257.601	0.089	-0.152
-394.121	-34.689	-0.011	-0.006
-393.106	-36.255	0.148	-0.079
-392.092	800.000	0.040	0.158
-391.077	12.989	0.330	0.254
-390.063	103.652	-0.178	0.208
-389.048	-83.982	-0.094	0.030
-388.033	-21.117	0.100	-0.061
-387.019	800.000	-0.059	-0.206
-386.004	800.000	-0.033	-0.117
-384.990	323.195	-0.053	-0.100
-383.975	-200.000	0.027	-0.202
-382.960	-132.105	-0.411	0.053
-381.946	180.199	-0.207	-0.302
-380.931	49.518	0.135	-0.126
-379.917	-200.000	0.002	-0.014
-378.902	375.756	0.144	-0.293
-377.888	-200.000	0.019	0.121
-376.873	-45.381	0.290	0.143
-375.858	267.224	-0.046	0.079
-374.844	30.483	-0.239	-0.203
-373.829	-86.491	-0.093	-0.028
-372.815	-152.049	-0.592	0.043
-371.800	32.913	0.109	-0.094
-370.785	-23.131	-0.106	-0.063
-369.771	27.043	0.108	-0.090
-368.756	49.766	-0.179	-0.168
-367.742	-5.108	-0.217	-0.148
-366.727	-139.837	-0.079	-0.008
-365.712	352.248	0.209	0.412
-364.698	-200.000	-0.079	0.458
-363.683	-145.851	0.017	-0.001
-362.669	-24.542	0.282	0.166
-361.654	800.000	0.136	-0.455
-360.639	615.343	-0.060	-0.149
-359.625	-176.463	-0.433	0.011
-358.610	800.000	0.045	0.163
-357.596	-45.682	-0.293	0.144
-356.581	-191.088	-0.287	-0.003
-355.566	800.000	0.082	0.339
-354.552	-72.558	0.148	-0.054
-353.537	43.955	0.235	0.213
-352.523	-12.856	-0.143	0.093
-351.508	-146.288	-0.179	-0.016
-350.493	-89.228	-0.185	-0.054
-349.479	359.026	-0.154	-0.305
-348.464	-158.189	-0.299	-0.017
-347.450	-200.000	0.020	-0.136
-346.435	800.000	0.047	0.140
-345.420	-77.823	0.249	-0.085
-344.406	-82.616	-0.165	-0.053
-343.391	-67.810	0.207	0.080
-342.377	172.942	-0.063	0.090
-341.362	-184.808	-0.093	0.001
-340.348	30.310	0.132	-0.112
-339.333	49.056	0.137	-0.128
-338.318	-141.039	0.188	-0.019
-337.304	-130.415	0.246	0.033
-336.289	-200.000	0.028	-0.264
-335.275	-127.194	-0.268	0.039
-334.260	-157.623	-0.078	0.005
-333.245	-200.000	0.017	-0.209
-332.231	-52.820	0.197	-0.090
-331.216	341.134	0.182	-0.353
-330.202	63.689	-0.074	0.074
-329.187	-54.383	0.108	-0.048
-328.172	-52.284	-0.211	-0.097
-327.158	466.719	-0.034	-0.075
-326.143	239.608	0.158	-0.261
-325.129	-50.562	0.326	-0.152
-324.114	51.615	0.218	0.206
-323.099	193.432	-0.184	0.276
-322.085	153.659	-0.260	0.354
-321.070	284.944	0.229	0.409
-320.056	-166.702	-0.094	0.004
-319.041	113.738	-0.098	-0.118
-318.026	11.581	0.288	0.219
-317.012	-100.155	0.268	0.066
-315.997	-21.203	-0.194	0.117
-314.983	-34.821	-0.128	-0.069
-313.968	-52.407	0.153	0.070
-312.953	470.459	0.117	0.261
-311.939	-200.000	-0.010	-0.095
-310.924	197.961	-0.103	0.156
-309.910	-200.000	0.015	0.193
-308.895	-51.471	0.480	0.222
-307.880	792.957	0.021	-0.057
-306.866	305.432	-0.104	-0.192
-305.851	167.550	-0.088	-0.123
-304.837	-200.000	0.032	-0.254
-303.822	21.472	-0.266	0.215
-302.807	50.837	-0.278	-0.261
-301.793	103.506	-0.075	-0.087
-300.778	-75.022	0.258	-0.092
-299.764	175.832	-0.248	0.356
-298.749	800.000	-0.091	-0.319
-297.735	-200.000	0.001	-0.083
-296.720	-95.919	-0.226	-0.060
-295.705	800.000	-0.045	-0.155
-294.691	567.400	-0.101	0.243
-293.676	800.000	0.077	0.262
-292.662	280.164	0.072	0.128
-291.647	200.284	0.116	-0.176
-290.632	-133.834	0.125	-0.015
-289.618	105.665	-0.223	0.261
-288.603	800.000	-0.146	0.427
-287.589	123.645	-0.104	-0.129
-286.574	800.000	-0.119	-0.497
-285.559	-200.000	0.014	-0.076
-284.545	-49.002	-0.153	0.073
-283.530	-159.873	0.161	-0.009
-282.516	-200.000	0.022	0.331
-281.501	-200.000	0.052	0.380
-280.486	435.693	0.129	-0.279
-279.472	237.664	0.141	0.232
-278.457	273.180	0.233	0.407
-277.443	-200.000	-0.010	0.302
-276.428	-200.000	0.059	-0.332
-275.413	-90.561	-0.418	0.120
-274.399	-200.000	0.022	0.162
-273.384	-200.000	-0.015	0.082
-272.370	84.296	-0.066	-0.072
-271.355	13.562	0.127	0.098
-270.340	163.261	0.182	-0.253
-269.326	-83.432	-0.180	-0.057
-268.311	-92.631	0.306	0.085
-267.297	-22.219	-0.029	0.017
-266.282	800.000	0.089	0.275
-265.267	-96.815	0.074	0.019
-264.253	800.000	-0.121	-0.370
-263.238	288.426	0.285	-0.510
-262.224	-92.682	-0.268	-0.074
-261.209	-200.000	0.222	0.001
-260.195	363.575	-0.124	0.247
-259.180	-186.944	0.240	0.003
-258.165	213.615	0.113	0.177
-257.151	-117.306	-0.173	-0.031
-256.136	253.119	-0.075	0.126
-255.122	-1.244	0.065	0.046
-254.107	-200.000	-0.003	0.167
-253.092	18.951	0.059	0.047
-252.078	-4.269	-0.137	0.094
-251.063	66.561	-0.252	-0.253
-250.049	-137.794	-0.294	-0.033
-249.034	800.000	0.059	0.245
-248.019	226.159	0.062	-0.100
-247.005	-200.000	-0.037	-0.197
-245.990	800.000	0.041	0.136
-244.976	44.189	0.107	0.097
-243.961	800.000	0.063	0.197
-242.946	40.548	0.273	0.243
-241.932	142.119	-0.154	-0.202
-240.917	194.926	0.014	0.021
-239.903	-29.382	-0.226	0.128
-238.888	800.000	0.011	-0.033
-237.873	-200.000	0.028	-0.276
-236.859	-200.000	-0.011	-0.272
-235.844	-33.712	-0.187	0.102
-234.830	-200.000	0.058	0.454
-233.815	612.938	-0.063	-0.155
-232.800	800.000	0.070	-0.199
-231.786	203.015	0.200	-0.306
-230.771	301.056	0.051	-0.093
-229.757	3.308	0.341	-0.245
-228.742	50.878	-0.236	-0.221
-227.727	800.000	0.008	-0.029
-226.713	-105.050	-0.319	0.072
-225.698	-33.573	-0.279	0.152
-224.684	15.634	-0.159	-0.124
-223.669	-119.357	-0.233	0.040
-222.655	6.371	0.135	-0.099
-221.640	-147.620	-0.334	0.028
-220.625	-60.763	0.152	-0.063
-219.611	-68.164	-0.298	0.114
-218.596	-141.448	-0.256	0.026
-217.582	-51.683	0.293	-0.135
-216.567	-200.000	-0.013	0.066
-215.552	218.837	-0.075	0.119
-214.538	-100.346	-0.313	-0.077
-213.523	-170.589	-0.299	-0.010
-212.509	35.351	0.253	0.219
-211.494	-78.376	-0.267	-0.090
-210.479	382.423	0.227	0.461
-209.465	393.096	0.046	0.094
-208.450	800.000	-0.088	0.293
-207.436	-200.000	0.040	0.231
-206.421	800.000	0.092	0.317
-205.406	15.415	0.244	-0.189
-204.392	-52.903	-0.099	0.045
-203.377	79.949	-0.161	-0.170
-202.363	82.816	0.202	0.216
-201.348	-130.627	-0.261	-0.035
-200.333	74.883	-0.275	0.286
-199.319	-89.604	0.011	0.003
-198.304	-200.000	0.026	0.126
-197.290	317.350	-0.058	0.108
-196.275	127.119	-0.233	0.291
-195.260	-119.097	-0.382	0.066
-194.246	-200.000	-0.033	0.162
-193.231	107.662	-0.055	0.064
-192.217	-91.051	-0.045	-0.013
-191.202	14.206	-0.136	0.104
-190.187	800.000	-0.050	-0.137
-189.173	504.881	-0.052	-0.119
-188.158	414.028	0.028	0.059
-187.144	3.536	-0.243	-0.174
-186.129	17.491	0.060	-0.047
-185.114	800.000	0.056	0.158
-184.100	-5.188	0.281	-0.190
-183.085	186.087	-0.068	-0.100
-182.071	51.351	0.403	0.377
-181.056	-200.000	0.008	0.454
-180.042	-85.855	0.384	-0.117
-179.027	116.945	-0.172	-0.208
-178.012	3.687	0.226	0.162
-176.998	166.619	-0.019	-0.026
-175.983	-124.757	-0.176	0.027
-174.969	-17.477	0.155	-0.096
-173.954	-48.676	0.297	0.141
-172.939	79.032	0.139	0.147
-171.925	297.418	0.156	-0.283
-170.910	-163.292	-0.359	0.017
-169.896	-94.127	-0.158	0.043
-168.881	3.937	-0.165	0.119
-167.866	-168.422	-0.121	-0.005
-166.852	-200.000	0.004	-0.090
-165.837	386.166	-0.104	0.212
-164.823	-44.847	-0.105	-0.052
-163.808	212.677	-0.093	-0.145
-162.793	134.665	0.120	-0.154
-161.779	-47.644	0.113	0.054
-160.764	-200.000	-0.019	0.138
-159.750	-94.938	0.145	-0.039
-158.735	800.000	-0.031	-0.113
-157.720	800.000	-0.085	-0.247
-156.706	-157.958	0.215	-0.012
-155.691	41.201	-0.245	0.218
-154.677	105.430	-0.108	0.126
-153.662	-60.579	0.258	-0.108
-152.647	-118.345	-0.116	-0.020
-151.633	-200.000	-0.003	0.127
-150.618	-72.214	0.187	-0.068
-149.604	-200.000	-0.025	0.120
-148.589	-200.000	-0.004	0.077
-147.574	-72.115	-0.319	0.117
-146.560	130.883	0.250	-0.316
-145.545	137.772	-0.066	-0.084
-144.531	536.503	0.057	0.132
-143.516	-60.565	-0.381	-0.159
-142.502	-64.520	0.134	-0.054
-141.487	-200.000	0.014	-0.132
-140.472	-159.802	0.132	-0.007
-139.458	-200.000	0.280	0.001
-138.443	-200.000	-0.008	-0.130
-137.429	268.875	-0.112	-0.193
-136.414	-200.000	0.050	0.343
-135.399	-200.000	-0.053	-0.335
-134.385	-200.000	-0.013	0.116
-133.370	-200.000	-0.022	0.130
-132.356	60.683	0.072	-0.071
-131.341	228.018	0.063	-0.101
-130.326	-33.731	0.265	0.144
-129.312	391.099	0.093	-0.190
-128.297	127.463	-0.036	0.046
-127.283	59.536	-0.217	0.211
-126.268	-200.000	-0.057	0.280
-125.253	800.000	-0.061	-0.190
-124.239	800.000	0.053	0.193
-123.224	2.961	-0.188	0.134
-122.210	12.699	0.341	-0.259
-121.195	59.650	0.172	0.167
