DTS Sentinel unit serial number:	SN413079Multiplexer serial number:	ORYXHardware model number:	OX4-SRSoftware version number:	ORYX F/W v4.00 Oryx Data Collector v3.7.2.0data status	okinstallation	princeton_trtdifferential loss correction	single-endedforward channel	channel 2reverse channel	N/Adate	2019/09/11time	21:33:11forward acquisition time	60.00reverse acquisition time	0.00gamma	496.2192k internal	0.2324k external	0.2324temperature offset calibration	1.0070default loss term (dB/km)	0.3790temperature slope calibration	1.0000multiplexer offset coefficient	1.0000multiplexer slope coefficient	1.0000fibre end	0.00T internal ref (°C)	35.95T ext. ref 1 (°C)	1.65T ext. ref 2 (°C)	29.92length (m)	temperature (°C)	Stokes	anti-Stokes-747.200	151.317	-0.056	0.077
-746.185	85.826	0.111	0.123
-745.171	-39.062	0.110	0.059
-744.156	239.384	0.103	0.174
-743.142	356.428	-0.102	-0.205
-742.127	182.076	-0.077	0.115
-741.112	20.466	0.142	-0.116
-740.098	234.132	-0.322	0.536
-739.083	-68.705	0.202	0.079
-738.069	-200.000	-0.059	0.287
-737.054	-96.179	0.218	0.058
-736.039	377.512	-0.046	0.096
-735.025	-200.000	0.013	0.106
-734.010	4.603	-0.130	-0.096
-732.996	800.000	-0.033	-0.114
-731.981	-200.000	-0.003	0.020
-730.966	800.000	0.069	-0.264
-729.952	800.000	-0.143	-0.412
-728.937	179.345	0.136	0.201
-727.923	398.813	0.042	-0.088
-726.908	800.000	-0.052	0.157
-725.894	300.868	0.052	-0.097
-724.879	-200.000	0.011	0.366
-723.864	253.865	-0.135	-0.232
-722.850	648.452	0.048	-0.123
-721.835	20.968	-0.266	-0.218
-720.821	113.282	-0.110	0.134
-719.806	51.496	0.159	-0.152
-718.791	-126.243	0.158	-0.024
-717.777	98.917	0.084	-0.098
-716.762	330.921	0.035	0.068
-715.748	669.653	0.126	0.329
-714.733	353.439	-0.127	0.254
-713.718	-30.617	0.031	0.018
-712.704	-37.122	0.133	0.072
-711.689	-40.497	-0.123	0.065
-710.675	545.818	0.068	0.163
-709.660	15.012	-0.208	-0.164
-708.645	-200.000	0.007	-0.093
-707.631	470.859	-0.094	0.212
-706.616	-193.028	0.333	0.003
-705.602	186.489	0.078	0.116
-704.587	-84.619	0.318	-0.101
-703.572	399.721	-0.036	-0.076
-702.558	-90.114	-0.020	0.006
-701.543	73.237	-0.082	0.086
-700.529	-3.613	0.031	0.022
-699.514	72.600	-0.132	-0.139
-698.499	32.479	0.177	0.154
-697.485	103.887	0.135	0.160
-696.470	83.242	0.079	0.087
-695.456	-200.000	-0.052	-0.401
-694.441	-45.392	0.169	0.084
-693.426	-176.854	-0.379	0.010
-692.412	-200.000	-0.003	-0.027
-691.397	229.277	-0.042	0.069
-690.383	211.624	-0.202	0.320
-689.368	17.784	0.081	-0.065
-688.354	-48.989	-0.253	0.122
-687.339	-198.723	0.136	0.001
-686.324	-122.479	0.416	-0.068
-685.310	83.066	-0.113	0.124
-684.295	69.158	-0.283	0.293
-683.281	77.534	-0.210	-0.225
-682.266	-79.947	0.287	0.097
-681.251	158.163	-0.221	0.308
-680.237	-23.184	-0.179	0.108
-679.222	-52.474	-0.134	0.062
-678.208	-103.172	0.271	-0.065
-677.193	51.881	-0.218	0.209
-676.178	214.223	-0.019	0.031
-675.164	-112.612	-0.490	0.098
-674.149	-56.229	-0.267	0.120
-673.135	-69.088	-0.226	-0.088
-672.120	235.982	0.115	0.191
-671.105	-200.000	-0.006	-0.154
-670.091	110.319	0.236	-0.285
-669.076	-125.510	-0.247	0.038
-668.062	-128.207	0.031	0.004
-667.047	182.037	-0.085	-0.126
-666.032	-200.000	0.010	0.156
-665.018	-111.963	-0.155	0.031
-664.003	-40.485	-0.148	0.077
-662.989	-200.000	0.050	-0.427
-661.974	2.774	0.138	-0.101
-660.959	-127.830	-0.156	0.023
-659.945	-72.720	0.311	-0.115
-658.930	68.059	0.177	-0.182
-657.916	43.676	-0.199	-0.184
-656.901	-200.000	-0.058	-0.305
-655.886	-200.000	-0.033	0.231
-654.872	-200.000	0.073	0.483
-653.857	-89.884	0.072	-0.021
-652.843	759.225	0.140	-0.381
-651.828	-163.856	-0.496	0.023
-650.814	641.900	0.162	0.416
-649.799	-200.000	0.011	0.096
-648.784	-62.073	0.231	0.097
-647.770	-41.028	-0.075	-0.039
-646.755	800.000	0.059	0.189
-645.741	-160.328	0.151	0.008
-644.726	-68.123	-0.188	0.074
-643.711	32.474	-0.098	-0.085
-642.697	-165.579	-0.044	-0.002
-641.682	203.609	-0.172	-0.268
-640.668	665.061	-0.066	0.170
-639.653	55.594	0.031	-0.030
-638.638	-23.476	-0.307	-0.185
-637.624	-152.883	0.123	-0.009
-636.609	468.291	-0.108	-0.243
-635.595	4.600	-0.283	-0.209
-634.580	-200.000	-0.010	0.128
-633.565	-169.062	0.147	0.006
-632.551	27.563	0.104	0.088
-631.536	800.000	-0.003	-0.009
-630.522	-136.005	0.266	0.031
-629.507	46.516	-0.172	0.160
-628.492	-74.472	0.208	0.075
-627.478	-20.253	-0.198	-0.123
-626.463	-99.526	-0.201	0.051
-625.449	157.017	-0.147	0.204
-624.434	-52.891	0.175	0.081
-623.419	538.032	-0.065	0.154
-622.405	-110.137	0.115	-0.024
-621.390	239.417	0.154	-0.257
-620.376	155.990	-0.215	0.298
-619.361	-110.119	0.039	0.008
-618.346	-148.221	-0.161	0.013
-617.332	-200.000	0.026	0.177
-616.317	-80.634	-0.066	-0.022
-615.303	-200.000	-0.068	0.346
-614.288	25.654	-0.112	-0.093
-613.273	793.470	-0.046	0.128
-612.259	800.000	-0.069	0.198
-611.244	800.000	-0.125	0.403
-610.230	-51.288	-0.146	0.069
-609.215	-200.000	-0.042	0.364
-608.201	-200.000	-0.008	0.244
-607.186	-5.514	-0.123	0.085
-606.171	800.000	0.066	-0.251
-605.157	-84.065	-0.350	-0.111
-604.142	-37.344	-0.382	0.205
-603.128	25.327	0.022	0.018
-602.113	-72.080	0.169	-0.063
-601.098	666.330	-0.045	-0.116
-600.084	-26.682	0.195	-0.115
-599.069	417.017	0.096	-0.205
-598.055	297.976	-0.048	-0.088
-597.040	-200.000	-0.030	0.164
-596.025	-77.702	0.121	0.042
-595.011	800.000	0.057	0.188
-593.996	-200.000	0.013	-0.080
-592.982	-126.920	-0.507	0.075
-591.967	81.266	0.213	0.230
-590.952	-4.393	0.279	0.194
-589.938	800.000	0.032	-0.124
-588.923	-91.869	0.179	-0.051
-587.909	501.656	-0.032	-0.075
-586.894	-8.163	0.080	-0.054
-585.879	800.000	-0.101	0.309
-584.865	-174.621	-0.269	-0.008
-583.850	-200.000	0.020	-0.281
-582.836	-72.172	0.257	0.096
-581.821	139.595	-0.094	0.124
-580.806	27.991	0.091	0.077
-579.792	115.162	-0.061	-0.075
-578.777	429.401	0.046	0.100
-577.763	-120.125	0.086	0.015
-576.748	-189.825	-0.237	0.003
-575.733	800.000	0.105	-0.330
-574.719	8.815	0.173	0.131
-573.704	23.836	-0.231	-0.191
-572.690	-135.663	0.347	0.041
-571.675	180.593	0.188	0.276
-570.661	-200.000	0.308	-0.001
-569.646	-200.000	-0.013	-0.392
-568.631	-200.000	-0.061	0.285
-567.617	353.456	0.078	-0.154
-566.602	-112.337	-0.173	-0.035
-565.588	127.696	0.037	0.047
-564.573	96.146	0.161	-0.185
-563.558	-65.076	-0.249	-0.101
-562.544	800.000	0.043	0.121
-561.529	-43.165	0.254	-0.129
-560.515	-200.000	0.029	-0.307
-559.500	65.430	0.309	-0.313
-558.485	-136.669	-0.093	-0.011
-557.471	-67.926	0.134	0.052
-556.456	-92.023	-0.409	-0.116
-555.442	135.958	0.157	-0.205
-554.427	10.591	0.138	-0.105
-553.412	-67.929	-0.040	0.016
-552.398	-81.458	-0.310	-0.102
-551.383	-200.000	0.024	-0.393
-550.369	3.828	0.371	0.271
-549.354	270.497	-0.138	0.243
-548.339	-74.860	-0.140	-0.050
-547.325	461.681	-0.114	0.256
-546.310	-200.000	-0.080	0.430
-545.296	47.290	0.075	-0.070
-544.281	-169.283	-0.358	0.013
-543.266	-109.766	-0.319	-0.067
-542.252	41.540	0.197	0.179
-541.237	40.981	0.269	-0.243
-540.223	-111.953	0.447	0.090
-539.208	186.007	0.101	-0.151
-538.193	320.885	-0.200	0.381
-537.179	800.000	0.078	-0.227
-536.164	800.000	-0.078	-0.223
-535.150	800.000	-0.027	0.116
-534.135	800.000	-0.060	0.235
-533.121	226.313	0.163	0.264
-532.106	-200.000	-0.036	-0.236
-531.091	-122.245	-0.236	0.039
-530.077	-8.926	-0.305	-0.204
-529.062	-200.000	-0.023	-0.125
-528.048	800.000	-0.026	-0.099
-527.033	-65.623	0.367	-0.147
-526.018	64.829	0.213	-0.215
-525.004	-158.140	-0.377	0.022
-523.989	-25.804	0.147	0.087
-522.975	800.000	0.126	0.404
-521.960	180.537	-0.034	-0.050
-520.945	-39.160	0.271	0.143
-519.931	-9.279	0.179	0.120
-518.916	-184.536	-0.084	0.001
-517.902	7.480	-0.185	-0.139
-516.887	800.000	-0.053	-0.149
-515.872	-148.791	0.194	0.016
-514.858	-110.218	-0.196	0.041
-513.843	65.116	-0.226	0.229
-512.829	87.635	-0.327	0.363
-511.814	112.322	0.083	0.101
-510.799	-108.866	0.226	0.048
-509.785	-28.616	0.042	-0.024
-508.770	244.766	0.029	-0.048
-507.756	-160.252	0.346	0.019
-506.741	550.552	-0.080	-0.192
-505.726	-76.188	0.399	-0.141
-504.712	-89.385	0.119	-0.035
-503.697	53.584	-0.131	-0.126
-502.683	272.323	-0.085	-0.149
-501.668	77.308	0.136	0.144
-500.653	-163.805	0.123	-0.006
-499.639	81.771	-0.182	-0.197
-498.624	92.795	0.153	0.172
-497.610	-34.557	-0.081	-0.044
-496.595	159.336	0.110	0.152
-495.581	-200.000	0.020	-0.297
-494.566	-69.780	-0.072	0.027
-493.551	125.827	-0.040	-0.051
-492.537	-8.597	-0.076	-0.051
-491.522	280.064	0.096	0.171
-490.508	-150.728	-0.091	-0.007
-489.493	-84.156	-0.150	-0.047
-488.478	263.684	-0.218	-0.379
-487.464	41.133	0.056	-0.050
-486.449	-12.436	-0.270	0.176
-485.435	-49.166	0.239	0.114
-484.420	-116.340	0.354	0.065
-483.405	276.729	0.137	-0.244
-482.391	-200.000	-0.019	-0.096
-481.376	124.040	0.084	0.105
-480.362	-93.037	-0.382	-0.106
-479.347	7.855	0.111	0.083
-478.332	372.272	0.223	-0.453
-477.318	83.928	0.250	-0.272
-476.303	-185.655	-0.041	0.001
-475.289	-50.220	0.480	-0.227
-474.274	-148.764	0.225	-0.018
-473.259	800.000	-0.151	0.472
-472.245	11.603	0.158	-0.121
-471.230	158.363	0.144	0.200
-470.216	72.668	0.139	0.145
-469.201	-43.981	0.355	-0.178
-468.186	630.675	0.058	0.147
-467.172	91.968	0.242	-0.272
-466.157	139.188	-0.120	-0.157
-465.143	-10.618	0.264	-0.175
-464.128	-49.970	0.138	0.065
-463.113	-64.875	-0.205	-0.083
-462.099	136.601	0.305	-0.397
-461.084	-200.000	0.002	0.008
-460.070	-60.480	0.139	-0.059
-459.055	-200.000	-0.010	-0.213
-458.040	-84.348	0.370	0.117
-457.026	-200.000	-0.038	-0.167
-456.011	-124.018	-0.094	-0.015
-454.997	28.801	-0.309	0.261
-453.982	-59.952	0.268	0.114
-452.968	-200.000	-0.044	-0.238
-451.953	184.155	-0.168	-0.248
-450.938	201.866	0.127	0.195
-449.924	29.104	-0.095	0.080
-448.909	-67.490	0.163	0.064
-447.895	109.343	-0.046	0.055
-446.880	2.821	-0.230	0.166
-445.865	-74.541	0.222	0.080
-444.851	-170.297	-0.079	-0.003
-443.836	151.094	-0.084	-0.114
-442.822	37.031	0.034	-0.030
-441.807	-200.000	0.000	0.240
-440.792	-56.524	-0.188	0.083
-439.778	2.011	-0.132	-0.095
-438.763	-55.850	0.202	0.090
-437.749	109.982	-0.179	-0.214
-436.734	324.751	0.036	-0.068
-435.719	79.892	-0.146	-0.157
-434.705	107.239	-0.062	-0.073
-433.690	-39.557	-0.148	-0.077
-432.676	-72.790	-0.050	0.018
-431.661	-131.096	-0.290	0.039
-430.646	291.898	0.077	-0.140
-429.632	800.000	-0.070	-0.214
-428.617	-124.683	-0.296	-0.046
-427.603	-127.837	0.337	-0.048
-426.588	-172.508	0.156	0.005
-425.573	-200.000	0.058	-0.390
-424.559	-200.000	0.005	-0.050
-423.544	-176.366	-0.012	0.000
-422.530	-200.000	-0.037	-0.279
-421.515	-127.405	0.137	0.020
-420.500	265.977	-0.056	0.098
-419.486	-200.000	0.072	0.370
-418.471	179.170	-0.126	-0.183
-417.457	-158.677	0.326	-0.019
-416.442	-63.485	-0.030	-0.012
-415.428	-98.651	-0.518	-0.132
-414.413	-200.000	0.001	-0.343
-413.398	-200.000	0.010	-0.185
-412.384	618.795	-0.030	-0.076
-411.369	20.006	-0.038	0.030
-410.355	527.383	-0.125	-0.293
-409.340	699.444	0.107	-0.281
-408.325	204.137	-0.069	0.107
-407.311	313.030	0.036	0.068
-406.296	6.022	-0.227	0.168
-405.282	175.849	0.128	0.186
-404.267	-20.236	0.107	-0.066
-403.252	-78.261	0.056	-0.019
-402.238	-125.641	0.309	0.047
-401.223	-54.747	0.098	0.044
-400.209	-101.300	-0.171	0.042
-399.194	254.762	0.024	0.040
-398.179	159.686	0.166	-0.230
-397.165	12.020	0.209	0.160
-396.150	57.130	-0.102	-0.099
-395.136	-200.000	0.029	0.400
-394.121	132.011	-0.015	-0.019
-393.106	486.092	0.130	-0.296
-392.092	339.200	0.132	0.256
-391.077	-31.143	0.106	0.059
-390.063	-87.365	-0.177	0.053
-389.048	-114.486	-0.245	-0.047
-388.033	-200.000	-0.027	0.128
-387.019	66.785	0.025	-0.025
-386.004	-65.235	0.296	0.119
-384.990	-200.000	-0.008	-0.132
-383.975	-200.000	0.022	0.181
-382.960	224.611	0.107	-0.172
-381.946	488.493	-0.042	-0.096
-380.931	-194.902	0.118	0.001
-379.917	-91.282	0.279	0.079
-378.902	144.165	0.045	0.060
-377.888	-61.334	0.077	-0.032
-376.873	-79.767	-0.007	-0.003
-375.858	-145.928	0.413	-0.036
-374.844	46.392	0.187	-0.173
-373.829	800.000	0.035	-0.105
-372.815	-83.084	-0.246	0.079
-371.800	234.583	-0.174	-0.286
-370.785	258.742	-0.054	-0.093
-369.771	-38.420	0.190	-0.100
-368.756	-51.653	0.096	-0.045
-367.742	800.000	0.063	-0.223
-366.727	-200.000	-0.010	-0.237
-365.712	-200.000	-0.087	0.407
-364.698	-200.000	-0.012	0.284
-363.683	-200.000	-0.030	0.176
-362.669	800.000	0.029	-0.092
-361.654	154.338	-0.134	0.182
-360.639	-153.891	0.235	-0.016
-359.625	-101.891	-0.646	-0.155
-358.610	-131.910	-0.145	0.019
-357.596	51.709	0.056	-0.053
-356.581	-192.570	0.276	0.003
-355.566	525.782	0.081	-0.190
-354.552	77.810	0.174	0.184
-353.537	-92.918	-0.306	-0.085
-352.523	71.488	-0.067	-0.069
-351.508	-54.169	0.024	0.011
-350.493	-200.000	0.010	-0.111
-349.479	676.460	0.136	0.350
-348.464	9.703	0.059	-0.044
-347.450	253.603	0.080	0.136
-346.435	44.040	0.314	0.286
-345.420	656.464	-0.123	0.313
-344.406	-46.209	-0.213	-0.104
-343.391	505.122	-0.093	-0.215
-342.377	-200.000	-0.024	-0.185
-341.362	800.000	-0.039	-0.112
-340.348	-187.218	-0.177	0.002
-339.333	132.300	0.117	0.150
-338.318	-200.000	0.085	0.413
-337.304	-137.400	-0.375	-0.042
-336.289	179.584	0.213	0.311
-335.275	16.502	-0.299	-0.235
-334.260	-8.911	0.251	0.167
-333.245	385.618	0.116	0.239
-332.231	-80.966	-0.137	-0.045
-331.216	389.150	0.029	-0.059
-330.202	-93.855	0.324	-0.089
-329.187	-40.652	-0.138	0.071
-328.172	-101.157	-0.158	0.038
-327.158	256.873	0.149	-0.254
-326.143	595.293	0.046	-0.113
-325.129	-85.806	-0.161	-0.050
-324.114	800.000	-0.091	-0.297
-323.099	317.269	0.206	-0.388
-322.085	188.546	-0.056	-0.083
-321.070	17.718	0.177	0.140
-320.056	10.791	-0.200	0.151
-319.041	160.873	-0.070	-0.097
-318.026	20.927	-0.128	0.103
-317.012	717.718	-0.036	-0.094
-315.997	-41.687	-0.243	0.124
-314.983	52.658	0.082	-0.078
-313.968	-200.000	0.026	-0.159
-312.953	91.609	-0.217	0.242
-311.939	-200.000	0.046	0.312
-310.924	30.146	0.078	0.066
-309.910	-200.000	0.002	0.303
-308.895	800.000	0.106	0.405
-307.880	-97.462	0.185	0.048
-306.866	-200.000	-0.032	-0.206
-305.851	-200.000	0.029	-0.195
-304.837	630.813	-0.070	-0.175
-303.822	-200.000	0.023	-0.112
-302.807	-97.222	0.251	0.065
-301.793	27.025	-0.197	0.164
-300.778	800.000	0.064	0.237
-299.764	-128.901	-0.312	0.043
-298.749	689.907	-0.170	0.442
-297.735	-90.267	-0.189	-0.055
-296.720	23.323	0.118	0.096
-295.705	113.625	0.219	0.264
-294.691	-71.811	-0.259	-0.096
-293.676	98.552	-0.227	-0.259
-292.662	-73.559	-0.339	0.123
-291.647	800.000	0.098	0.277
-290.632	800.000	0.071	0.240
-289.618	-14.433	-0.144	-0.092
-288.603	-108.238	-0.099	-0.021
-287.589	-65.149	0.148	-0.059
-286.574	551.657	0.143	0.339
-285.559	-71.358	-0.274	0.102
-284.545	-77.115	-0.483	-0.167
-283.530	-76.104	-0.434	0.152
-282.516	196.829	0.177	0.267
-281.501	-60.959	-0.175	0.073
-280.486	-200.000	0.035	-0.376
-279.472	-7.096	-0.099	-0.066
-278.457	-105.545	-0.652	0.147
-277.443	-17.726	-0.159	0.099
-276.428	-96.239	0.289	0.076
-275.413	-59.721	-0.241	-0.102
-274.399	-30.460	0.199	0.112
-273.384	15.892	-0.202	-0.157
-272.370	6.332	0.365	-0.269
-271.355	359.140	-0.099	-0.195
-270.340	-200.000	0.025	-0.249
-269.326	-63.666	0.363	0.147
-268.311	48.939	0.082	-0.076
-267.297	-200.000	0.020	-0.179
-266.282	-147.024	0.204	-0.017
-265.267	-65.254	0.250	0.100
-264.253	-200.000	-0.051	0.407
-263.238	800.000	0.051	-0.179
-262.224	-200.000	0.018	-0.184
-261.209	-74.762	-0.258	0.092
-260.195	151.871	-0.034	-0.046
-259.180	217.055	0.102	0.162
-258.165	-175.497	-0.120	-0.003
-257.151	24.204	-0.178	-0.145
-256.136	26.154	0.218	0.181
-255.122	429.709	-0.079	0.169
-254.107	-150.739	-0.189	-0.014
-253.092	75.838	0.059	0.061
-252.078	-153.914	-0.030	-0.002
-251.063	147.084	0.078	0.104
-250.049	-118.974	-0.181	0.031
-249.034	-27.033	-0.374	0.216
-248.019	-200.000	0.003	0.299
-247.005	37.435	-0.214	0.188
-245.990	-52.744	0.184	-0.084
-244.976	268.356	-0.029	0.050
-243.961	7.017	-0.251	-0.185
-242.946	-162.615	-0.097	-0.005
-241.932	800.000	-0.091	-0.393
-240.917	-200.000	-0.029	-0.238
-239.903	-172.113	0.384	-0.012
-238.888	-139.720	-0.229	0.024
-237.873	674.199	-0.065	0.168
-236.859	221.573	-0.031	0.049
-235.844	-200.000	0.024	-0.271
-234.830	118.872	0.039	0.048
-233.815	66.602	0.164	0.165
-232.800	-13.954	0.044	-0.028
-231.786	120.137	0.164	0.202
-230.771	440.459	-0.064	0.139
-229.757	-200.000	-0.025	-0.207
-228.742	47.602	-0.055	-0.050
-227.727	16.035	-0.057	-0.044
-226.713	-176.510	0.092	-0.002
-225.698	46.997	0.110	-0.101
-224.684	206.882	0.059	-0.090
-223.669	42.787	-0.167	0.150
-222.655	-141.138	-0.338	0.034
-221.640	-110.417	0.464	0.095
-220.625	168.482	0.171	0.241
-219.611	64.570	-0.235	-0.234
-218.596	-200.000	-0.014	0.073
-217.582	-125.755	-0.376	0.056
-216.567	20.029	0.014	-0.012
-215.552	-20.777	0.391	-0.237
-214.538	210.918	0.097	-0.151
-213.523	-200.000	-0.041	0.222
-212.509	197.337	0.096	0.145
-211.494	98.329	-0.172	0.196
-210.479	-200.000	0.034	-0.198
-209.465	-162.607	0.115	-0.006
-208.450	-3.843	0.143	-0.098
-207.436	-200.000	-0.004	-0.333
-206.421	-200.000	-0.029	-0.202
-205.406	-200.000	0.074	-0.481
-204.392	-47.072	0.204	-0.099
-203.377	231.514	-0.254	0.411
-202.363	21.047	0.161	-0.129
-201.348	-75.906	0.226	0.079
-200.333	-185.372	0.089	0.001
-199.319	53.138	0.266	-0.251
-198.304	-85.535	-0.338	0.104
-197.290	-14.402	-0.446	-0.284
-196.275	-1.663	0.228	0.159
-195.260	-200.000	-0.003	0.318
-194.246	800.000	0.022	0.077
-193.231	-46.366	-0.355	0.173
-192.217	203.408	0.042	-0.064
-191.202	-169.715	-0.344	-0.012
-190.187	-74.086	-0.279	0.100
-189.173	800.000	0.035	-0.111
-188.158	-118.577	-0.109	-0.019
-187.144	331.576	0.136	0.259
-186.129	-70.680	-0.157	-0.059
-185.114	-25.922	0.280	-0.163
-184.100	25.082	-0.166	-0.136
-183.085	-18.830	0.227	-0.140
-182.071	-137.072	0.135	-0.015
-181.056	-74.959	0.489	0.173
-180.042	92.097	-0.252	-0.281
-179.027	-200.000	-0.004	-0.181
-178.012	79.269	0.116	0.123
-176.998	800.000	0.021	-0.089
-175.983	-200.000	0.006	0.188
-174.969	42.933	0.060	-0.054
-173.954	-113.449	-0.044	0.008
-172.939	-200.000	0.011	0.107
-171.925	17.676	0.062	0.049
-170.910	68.697	0.161	0.163
-169.896	33.786	-0.254	0.218
-168.881	-49.075	-0.121	-0.057
-167.866	483.743	0.052	-0.118
-166.852	285.584	-0.043	-0.076
-165.837	-124.703	0.224	0.034
-164.823	-200.000	-0.333	-0.001
-163.808	480.539	-0.080	0.179
-162.793	-192.876	-0.527	-0.005
-161.779	-141.353	0.261	0.026
-160.764	-55.317	0.251	0.111
-159.750	-200.000	0.017	-0.080
-158.735	800.000	0.049	-0.148
-157.720	203.048	0.248	0.378
-156.706	-200.000	-0.030	-0.245
-155.691	-200.000	0.035	0.519
-154.677	-200.000	-0.025	-0.287
-153.662	-200.000	0.063	-0.328
-152.647	-129.170	-0.180	0.025
-151.633	-53.237	-0.089	0.040
-150.618	316.125	0.107	0.198
-149.604	-134.267	0.094	-0.011
-148.589	-92.601	0.228	-0.063
-147.574	800.000	-0.036	0.121
-146.560	-200.000	0.292	-0.001
-145.545	800.000	0.110	-0.378
-144.531	115.968	0.340	-0.410
-143.516	271.954	-0.143	-0.248
-142.502	-62.524	0.240	-0.098
-141.487	47.976	0.167	-0.154
-140.472	144.290	0.125	0.165
-139.458	-17.281	0.254	-0.157
-138.443	800.000	-0.060	-0.168
-137.429	163.840	0.097	0.134
-136.414	-200.000	0.060	0.282
-135.399	-109.365	0.121	-0.025
-134.385	283.340	-0.215	0.381
-133.370	538.584	0.040	-0.094
-132.356	800.000	0.103	-0.363
-131.341	-146.669	-0.242	0.021
-130.326	800.000	0.112	0.356
-129.312	800.000	0.012	-0.033
-128.297	-200.000	-0.030	0.169
-127.283	178.503	-0.064	0.092
-126.268	113.421	0.168	-0.201
-125.253	-14.961	0.344	0.218
-124.239	-124.903	0.090	0.014
-123.224	-9.472	-0.171	-0.113
-122.210	275.170	-0.056	0.098
-121.195	-1.046	0.338	0.236
-120.180	-28.686	-0.082	-0.046
