DTS Sentinel unit serial number:	SN413079Multiplexer serial number:	ORYXHardware model number:	OX4-SRSoftware version number:	ORYX F/W v4.00 Oryx Data Collector v3.7.2.0data status	okinstallation	princeton_trtdifferential loss correction	single-endedforward channel	channel 2reverse channel	N/Adate	2019/09/17time	13:11:35forward acquisition time	60.00reverse acquisition time	0.00gamma	496.2192k internal	0.2318k external	0.2318temperature offset calibration	0.9983default loss term (dB/km)	0.3790temperature slope calibration	1.0000multiplexer offset coefficient	1.0000multiplexer slope coefficient	1.0000fibre end	0.00T internal ref (°C)	33.86T ext. ref 1 (°C)	0.41T ext. ref 2 (°C)	31.78length (m)	temperature (°C)	Stokes	anti-Stokes-747.200	-28.149	-0.202	-0.118
-746.185	-200.000	-0.036	0.562
-745.171	800.000	-0.023	-0.083
-744.156	479.342	-0.157	0.360
-743.142	-90.688	0.248	-0.073
-742.127	-125.357	-0.357	-0.055
-741.112	171.655	-0.287	-0.417
-740.098	-143.151	-0.096	-0.009
-739.083	-18.378	0.381	-0.241
-738.069	-8.954	-0.041	-0.028
-737.054	-200.000	-0.037	0.352
-736.039	-78.320	-0.330	-0.115
-735.025	-28.785	0.150	-0.087
-734.010	-200.000	-0.004	0.283
-732.996	-200.000	-0.057	-0.264
-731.981	129.622	0.082	0.106
-730.966	-16.620	-0.235	-0.151
-729.952	656.585	0.087	-0.226
-728.937	22.970	-0.177	0.147
-727.923	37.986	0.126	0.114
-726.908	-106.805	-0.283	0.063
-725.894	354.815	-0.177	-0.355
-724.879	-200.000	-0.054	0.238
-723.864	-88.867	-0.424	0.127
-722.850	-10.516	-0.315	-0.211
-721.835	645.808	0.095	0.244
-720.821	82.276	-0.144	0.158
-719.806	55.536	-0.048	0.047
-718.791	316.012	-0.037	-0.070
-717.777	-200.000	-0.051	0.294
-716.762	-156.998	-0.234	0.014
-715.748	-62.791	-0.163	0.068
-714.733	20.334	0.241	-0.197
-713.718	-200.000	0.057	-0.500
-712.704	59.556	0.421	-0.420
-711.689	-200.000	0.006	0.216
-710.675	233.716	0.112	-0.187
-709.660	-35.868	0.246	0.135
-708.645	442.011	0.113	-0.251
-707.631	129.252	-0.181	0.233
-706.616	64.200	0.096	0.098
-705.602	-7.125	-0.328	-0.225
-704.587	186.645	0.218	-0.328
-703.572	111.775	0.118	0.144
-702.558	-28.480	-0.221	0.129
-701.543	-90.666	0.228	0.066
-700.529	296.039	0.122	0.226
-699.514	89.336	0.060	-0.067
-698.499	-200.000	-0.106	-0.485
-697.485	-118.213	0.191	0.034
-696.470	-105.371	-0.198	0.046
-695.456	378.869	-0.124	-0.257
-694.441	362.624	-0.120	0.243
-693.426	56.630	-0.155	0.152
-692.412	-195.825	-0.177	0.001
-691.397	-0.651	-0.234	0.168
-690.383	-166.119	-0.058	0.002
-689.368	33.140	-0.354	-0.310
-688.354	115.094	0.032	-0.039
-687.339	-16.042	0.171	-0.110
-686.324	-42.471	-0.204	0.105
-685.310	-200.000	-0.013	0.205
-684.295	800.000	0.105	-0.323
-683.281	-50.040	-0.309	-0.148
-682.266	-84.197	0.192	-0.061
-681.251	-129.920	-0.170	0.024
-680.237	-74.688	0.123	-0.045
-679.222	-200.000	-0.018	0.106
-678.208	58.892	0.120	-0.120
-677.193	70.998	0.069	0.072
-676.178	-82.383	0.051	-0.017
-675.164	272.723	-0.115	-0.205
-674.149	239.467	-0.031	0.052
-673.135	-130.967	0.057	0.008
-672.120	-200.000	0.022	0.188
-671.105	6.809	0.254	-0.191
-670.091	-99.217	0.479	-0.122
-669.076	-31.912	-0.426	-0.241
-668.062	-200.000	-0.011	-0.291
-667.047	95.868	0.155	-0.178
-666.032	54.092	0.091	-0.088
-665.018	-72.112	0.183	-0.069
-664.003	238.114	-0.081	-0.135
-662.989	32.984	-0.127	0.111
-661.974	32.812	0.087	-0.076
-660.959	800.000	-0.063	0.194
-659.945	-200.000	-0.032	-0.325
-658.930	-101.590	-0.174	0.043
-657.916	82.106	-0.079	-0.087
-656.901	-200.000	-0.008	-0.212
-655.886	-200.000	0.014	-0.182
-654.872	-97.828	-0.127	0.033
-653.857	-149.266	-0.087	-0.007
-652.843	-177.038	0.070	0.002
-651.828	800.000	-0.024	-0.096
-650.814	125.531	-0.084	-0.107
-649.799	-60.378	-0.150	0.064
-648.784	-169.908	-0.046	-0.002
-647.770	-92.094	0.044	-0.013
-646.755	-164.657	-0.235	-0.011
-645.741	-29.224	0.191	-0.110
-644.726	-19.164	-0.059	0.037
-643.711	800.000	0.073	-0.251
-642.697	437.723	-0.286	-0.630
-641.682	-1.688	0.351	-0.249
-640.668	-200.000	0.009	0.068
-639.653	-25.533	0.015	0.009
-638.638	716.908	0.125	0.334
-637.624	458.889	-0.035	-0.077
-636.609	173.503	0.156	-0.227
-635.595	-30.425	0.210	-0.120
-634.580	-10.762	-0.259	-0.173
-633.565	-200.000	-0.001	-0.061
-632.551	93.472	0.088	-0.101
-631.536	311.980	0.072	0.137
-630.522	657.718	-0.026	-0.068
-629.507	89.391	0.177	0.199
-628.492	-120.364	0.301	-0.052
-627.478	-88.492	0.248	-0.074
-626.463	-58.210	-0.017	0.007
-625.449	-87.302	-0.144	-0.044
-624.434	-139.264	-0.367	-0.040
-623.419	724.666	-0.130	0.350
-622.405	-200.000	-0.000	-0.079
-621.390	73.518	0.181	-0.191
-620.376	68.491	-0.192	0.198
-619.361	8.077	0.102	-0.077
-618.346	247.549	-0.149	-0.254
-617.332	-200.000	0.077	-0.394
-616.317	233.482	0.182	-0.302
-615.303	800.000	0.033	-0.131
-614.288	46.258	0.241	0.225
-613.273	59.747	-0.045	0.045
-612.259	587.063	0.048	0.119
-611.244	-116.834	-0.100	0.018
-610.230	-200.000	-0.006	0.129
-609.215	-101.615	-0.276	-0.067
-608.201	-53.458	0.190	-0.088
-607.186	-75.032	0.241	-0.087
-606.171	12.806	0.200	0.156
-605.157	-200.000	0.001	-0.117
-604.142	-200.000	0.004	-0.111
-603.128	195.029	-0.235	-0.359
-602.113	-200.000	-0.020	0.133
-601.098	-51.382	0.170	0.080
-600.084	-200.000	0.027	0.187
-599.069	-95.247	0.026	-0.007
-598.055	79.220	-0.212	0.229
-597.040	-83.133	-0.117	0.038
-596.025	-200.000	0.008	0.225
-595.011	-189.890	-0.461	-0.005
-593.996	-19.250	0.219	-0.137
-592.982	79.130	-0.091	-0.098
-591.967	104.941	0.266	0.316
-590.952	-187.902	-0.223	0.003
-589.938	297.804	0.083	-0.153
-588.923	-200.000	0.016	-0.516
-587.909	800.000	0.030	0.108
-586.894	200.109	-0.071	0.109
-585.879	800.000	-0.080	-0.258
-584.865	66.369	0.224	0.229
-583.850	24.265	0.131	0.109
-582.836	87.169	-0.187	-0.208
-581.821	109.547	-0.051	0.061
-580.806	-78.236	-0.180	0.062
-579.792	259.985	0.106	0.183
-578.777	-200.000	-0.044	-0.467
-577.763	-25.561	0.169	-0.100
-576.748	123.712	0.157	0.198
-575.733	107.594	0.156	0.186
-574.719	-200.000	0.049	0.338
-573.704	-143.855	0.200	0.019
-572.690	-104.037	-0.153	-0.036
-571.675	1.237	-0.154	-0.111
-570.661	-28.261	0.105	-0.061
-569.646	800.000	-0.096	0.312
-568.631	-37.533	-0.308	0.165
-567.617	-122.628	0.049	0.008
-566.602	31.585	-0.098	0.085
-565.588	-200.000	0.076	0.364
-564.573	267.673	0.132	0.232
-563.558	-78.492	0.170	-0.058
-562.544	93.674	0.067	-0.077
-561.529	47.385	-0.053	0.050
-560.515	277.877	0.160	-0.287
-559.500	15.505	0.269	0.212
-558.485	800.000	0.110	-0.324
-557.471	-200.000	0.006	-0.344
-556.456	142.932	-0.120	-0.160
-555.442	279.721	0.106	-0.191
-554.427	-200.000	-0.031	0.390
-553.412	-62.294	-0.314	-0.131
-552.398	-11.679	-0.100	-0.066
-551.383	-69.292	-0.268	-0.103
-550.369	6.826	0.105	0.079
-549.354	-43.797	0.166	-0.084
-548.339	-88.436	0.132	-0.040
-547.325	635.572	0.138	-0.352
-546.310	-120.878	0.098	-0.017
-545.296	-140.814	0.178	0.018
-544.281	800.000	0.037	-0.140
-543.266	-108.768	-0.356	-0.077
-542.252	-6.317	-0.115	-0.079
-541.237	-103.781	0.222	0.052
-540.223	-25.795	-0.237	0.140
-539.208	-200.000	0.007	0.077
-538.193	-152.120	0.306	-0.022
-537.179	-200.000	-0.032	0.239
-536.164	-62.336	-0.326	-0.136
-535.150	-20.309	-0.189	0.117
-534.135	-35.477	-0.120	-0.065
-533.121	800.000	-0.031	-0.101
-532.106	800.000	0.101	-0.294
-531.091	-161.905	0.195	0.010
-530.077	-175.152	0.420	0.012
-529.062	-26.651	-0.092	-0.054
-528.048	166.040	-0.102	-0.145
-527.033	127.969	-0.220	0.281
-526.018	-133.070	-0.135	0.017
-525.004	-190.998	-0.144	-0.002
-523.989	-128.700	0.354	0.050
-522.975	-12.081	0.545	0.358
-521.960	5.739	-0.249	0.185
-520.945	800.000	-0.016	-0.065
-519.931	-8.850	-0.211	0.142
-518.916	555.356	-0.022	-0.054
-517.902	-139.242	0.179	-0.019
-516.887	-115.627	0.315	-0.059
-515.872	800.000	-0.053	-0.209
-514.858	203.101	-0.193	-0.299
-513.843	-200.000	-0.026	0.218
-512.829	-115.014	0.030	-0.006
-511.814	800.000	0.057	0.228
-510.799	-13.407	-0.082	-0.053
-509.785	-73.396	-0.275	0.101
-508.770	476.988	0.033	0.076
-507.756	228.317	0.090	-0.147
-506.741	-3.514	-0.280	-0.196
-505.726	-132.082	-0.192	0.025
-504.712	800.000	0.076	0.226
-503.697	119.758	0.054	-0.067
-502.683	-40.837	-0.212	0.110
-501.668	94.197	0.193	-0.219
-500.653	481.744	0.060	0.137
-499.639	-145.501	0.181	0.016
-498.624	-90.641	-0.229	0.066
-497.610	-85.965	-0.309	0.096
-496.595	800.000	0.112	-0.353
-495.581	304.572	0.116	0.216
-494.566	-200.000	-0.008	0.246
-493.551	244.933	-0.178	-0.299
-492.537	-200.000	-0.031	0.285
-491.522	126.621	-0.070	0.088
-490.508	279.462	-0.145	0.260
-489.493	21.798	0.115	0.094
-488.478	-0.119	0.119	0.085
-487.464	168.905	-0.134	0.191
-486.449	403.629	0.067	0.141
-485.435	65.998	-0.155	0.158
-484.420	800.000	0.049	0.159
-483.405	800.000	-0.044	-0.183
-482.391	-23.766	0.275	-0.165
-481.376	-65.288	0.610	-0.246
-480.362	800.000	0.081	-0.293
-479.347	775.313	0.081	0.223
-478.332	268.213	0.057	0.100
-477.318	-41.297	0.093	-0.048
-476.303	-157.822	0.328	-0.019
-475.289	-200.000	-0.022	0.302
-474.274	8.728	0.131	-0.099
-473.259	-200.000	-0.013	-0.160
-472.245	-165.255	0.127	0.006
-471.230	-9.021	0.172	0.115
-470.216	-129.277	0.212	-0.030
-469.201	69.128	0.046	0.048
-468.186	800.000	0.101	-0.359
-467.172	523.840	-0.119	0.280
-466.157	-113.119	-0.180	0.036
-465.143	315.073	-0.126	-0.237
-464.128	-28.814	0.140	0.080
-463.113	-130.243	0.057	0.008
-462.099	-146.695	-0.312	-0.027
-461.084	-200.000	0.014	-0.128
-460.070	-145.870	-0.120	-0.011
-459.055	22.774	-0.070	0.057
-458.040	-200.000	-0.013	-0.180
-457.026	-200.000	-0.047	-0.315
-456.011	-41.500	-0.090	0.047
-454.997	-139.048	-0.296	-0.032
-453.982	-62.305	-0.186	-0.077
-452.968	-29.577	0.388	-0.222
-451.953	40.461	0.291	-0.262
-450.938	-30.754	0.116	0.065
-449.924	189.226	0.134	-0.201
-448.909	-89.208	0.466	-0.138
-447.895	-123.669	-0.233	0.037
-446.880	214.630	-0.065	0.103
-445.865	-200.000	0.006	0.072
-444.851	-200.000	0.031	-0.181
-443.836	-163.946	-0.051	-0.002
-442.822	155.668	0.123	0.170
-441.807	-10.216	0.258	-0.172
-440.792	-200.000	0.005	0.222
-439.778	-65.651	-0.200	-0.080
-438.763	-200.000	0.015	-0.309
-437.749	53.836	-0.128	0.123
-436.734	1.043	0.106	0.076
-435.719	-200.000	0.013	-0.090
-434.705	-168.138	0.544	-0.021
-433.690	-200.000	0.067	0.438
-432.676	-200.000	-0.040	0.270
-431.661	-190.938	-0.281	0.003
-430.646	88.755	-0.110	0.123
-429.632	265.992	0.093	0.161
-428.617	800.000	0.055	-0.155
-427.603	-82.740	-0.105	0.034
-426.588	275.182	-0.087	0.155
-425.573	22.109	0.145	-0.118
-424.559	188.370	0.184	-0.275
-423.544	125.248	0.098	0.124
-422.530	-42.541	-0.211	-0.107
-421.515	-138.717	-0.323	0.035
-420.500	-103.970	0.173	-0.040
-419.486	2.612	0.100	0.073
-418.471	91.148	0.064	0.071
-417.457	-21.902	-0.202	0.123
-416.442	-57.280	0.049	-0.021
-415.428	-90.232	-0.203	-0.059
-414.413	116.678	0.160	0.196
-413.398	347.856	0.133	0.262
-412.384	98.596	-0.191	0.220
-411.369	305.550	0.218	-0.404
-410.355	800.000	-0.073	0.281
-409.340	65.648	0.198	-0.201
-408.325	-200.000	0.031	0.347
-407.311	38.470	-0.085	0.076
-406.296	326.438	0.122	0.233
-405.282	-200.000	-0.022	-0.159
-404.267	-194.218	0.134	-0.001
-403.252	-103.166	0.163	-0.039
-402.238	38.429	0.066	-0.059
-401.223	-22.156	-0.299	-0.181
-400.209	529.438	0.033	0.079
-399.194	189.885	-0.049	0.073
-398.179	-119.359	-0.277	0.048
-397.165	173.347	0.231	0.333
-396.150	-95.275	-0.184	0.049
-395.136	-159.363	0.178	-0.010
-394.121	-200.000	0.006	0.147
-393.106	-109.015	0.043	-0.009
-392.092	-82.265	-0.712	0.231
-391.077	800.000	-0.079	-0.223
-390.063	-78.485	-0.091	-0.031
-389.048	800.000	0.005	0.019
-388.033	-200.000	0.065	0.316
-387.019	736.867	-0.069	-0.184
-386.004	128.246	-0.056	-0.072
-384.990	142.099	0.236	0.313
-383.975	-200.000	0.050	-0.269
-382.960	743.104	0.063	-0.170
-381.946	-150.704	-0.126	0.010
-380.931	-99.109	0.187	-0.047
-379.917	-200.000	-0.037	0.249
-378.902	-127.233	0.184	0.027
-377.888	-200.000	0.018	0.451
-376.873	800.000	-0.089	-0.353
-375.858	16.601	-0.195	0.154
-374.844	-35.739	-0.197	-0.106
-373.829	-140.089	-0.203	0.021
-372.815	-55.815	-0.321	0.143
-371.800	219.687	0.160	-0.256
-370.785	243.402	-0.161	0.269
-369.771	25.548	-0.237	0.197
-368.756	-13.691	0.167	-0.108
-367.742	82.003	-0.075	-0.081
-366.727	66.667	-0.318	0.323
-365.712	59.393	-0.164	-0.161
-364.698	-76.856	-0.105	-0.037
-363.683	-77.813	0.210	0.073
-362.669	204.754	0.163	-0.253
-361.654	-102.336	0.178	-0.043
-360.639	-138.236	-0.445	0.049
-359.625	-136.906	0.089	-0.010
-358.610	136.316	-0.184	-0.239
-357.596	-7.448	-0.187	-0.126
-356.581	90.147	-0.085	0.094
-355.566	-67.153	-0.205	-0.081
-354.552	303.210	-0.117	-0.216
-353.537	-18.790	-0.052	0.032
-352.523	800.000	-0.120	0.377
-351.508	800.000	-0.010	-0.043
-350.493	-200.000	0.006	-0.077
-349.479	233.652	0.066	-0.109
-348.464	-95.249	-0.431	0.116
-347.450	227.890	-0.123	0.200
-346.435	-190.845	-0.224	0.002
-345.420	-200.000	-0.029	-0.141
-344.406	559.126	-0.077	-0.186
-343.391	-200.000	-0.037	0.205
-342.377	-96.735	0.227	0.059
-341.362	19.360	0.083	-0.066
-340.348	41.202	-0.034	0.031
-339.333	-98.381	-0.114	-0.029
-338.318	106.411	-0.122	0.144
-337.304	-86.633	0.347	0.106
-336.289	-118.725	0.291	-0.051
-335.275	-62.454	-0.217	0.090
-334.260	-0.866	0.076	0.054
-333.245	5.346	-0.401	-0.295
-332.231	-74.724	0.177	-0.063
-331.216	-69.978	-0.127	0.048
-330.202	-30.505	0.211	0.119
-329.187	136.735	0.075	-0.097
-328.172	-119.901	0.074	0.013
-327.158	-77.555	0.183	-0.063
-326.143	231.488	0.187	0.306
-325.129	110.506	0.169	-0.202
-324.114	327.515	-0.203	0.387
-323.099	-26.425	0.196	0.115
-322.085	-200.000	0.016	0.188
-321.070	73.050	-0.179	-0.187
-320.056	-74.125	0.106	-0.038
-319.041	672.473	-0.115	0.298
-318.026	800.000	-0.032	-0.132
-317.012	55.751	0.248	-0.240
-315.997	-101.898	-0.376	-0.091
-314.983	-200.000	-0.008	-0.110
-313.968	-200.000	-0.106	-0.495
-312.953	-200.000	-0.006	-0.234
-311.939	800.000	-0.047	0.139
-310.924	181.154	-0.112	0.164
-309.910	-124.146	0.389	-0.061
-308.895	307.264	0.190	-0.352
-307.880	371.196	-0.070	0.141
-306.866	800.000	-0.066	0.227
-305.851	46.590	-0.193	-0.178
-304.837	637.965	0.070	0.177
-303.822	-30.989	-0.021	0.012
-302.807	-78.546	-0.080	0.027
-301.793	-55.375	0.091	0.041
-300.778	-108.416	0.280	-0.060
-299.764	-200.000	-0.032	-0.299
-298.749	-200.000	-0.005	-0.266
-297.735	-47.514	0.154	0.074
-296.720	589.624	0.014	0.034
-295.705	-168.033	0.134	-0.005
-294.691	-17.769	-0.221	0.138
-293.676	-49.099	-0.370	0.176
-292.662	-200.000	-0.043	0.408
-291.647	-200.000	0.012	-0.201
-290.632	-200.000	-0.015	-0.087
-289.618	800.000	-0.013	0.036
-288.603	68.084	0.119	0.121
-287.589	-147.666	-0.113	0.009
-286.574	-200.000	0.052	-0.260
-285.559	800.000	0.043	-0.136
-284.545	753.212	-0.074	-0.200
-283.530	-106.294	-0.301	0.067
-282.516	-119.129	0.113	0.020
-281.501	-3.029	-0.116	0.080
-280.486	-137.531	-0.324	0.036
-279.472	-200.000	-0.022	-0.127
-278.457	-166.514	0.235	0.010
-277.443	-200.000	0.026	-0.203
-276.428	-50.951	0.232	0.108
-275.413	191.976	-0.047	0.071
-274.399	-200.000	0.023	0.306
-273.384	-8.482	0.215	0.144
-272.370	-97.664	0.316	-0.081
-271.355	12.054	0.027	-0.021
-270.340	29.941	0.135	0.114
-269.326	8.291	-0.177	-0.132
-268.311	800.000	0.024	-0.099
-267.297	163.642	-0.069	-0.096
-266.282	800.000	0.047	-0.131
-265.267	-4.497	-0.151	-0.104
-264.253	800.000	0.028	0.114
-263.238	-38.220	0.200	0.105
-262.224	111.854	-0.132	0.158
-261.209	-138.335	0.193	0.021
-260.195	162.547	-0.068	0.095
-259.180	575.121	-0.085	-0.206
-258.165	7.999	0.058	0.043
-257.151	800.000	-0.069	-0.206
-256.136	-41.405	-0.261	0.134
-255.122	-123.642	-0.256	0.040
-254.107	-7.526	-0.066	0.044
-253.092	-200.000	0.024	0.120
-252.078	41.997	0.178	0.160
-251.063	-200.000	-0.047	0.324
-250.049	64.746	-0.383	0.383
-249.034	650.491	0.035	0.089
-248.019	-103.205	0.391	-0.092
-247.005	-200.000	-0.009	-0.160
-245.990	197.820	0.051	-0.078
-244.976	-105.954	0.204	0.046
-243.961	-8.668	-0.174	-0.116
-242.946	-74.049	0.079	-0.028
-241.932	-43.752	0.197	0.099
-240.917	-200.000	0.061	0.308
-239.903	-97.906	-0.186	0.048
-238.888	504.185	-0.056	0.128
-237.873	-200.000	-0.003	0.424
-236.859	3.524	0.392	-0.283
-235.844	306.033	0.123	-0.226
-234.830	-104.713	0.354	-0.081
-233.815	133.984	0.070	-0.090
-232.800	56.493	0.136	-0.131
-231.786	-40.304	0.201	-0.104
-230.771	-134.539	-0.043	0.005
-229.757	54.306	0.056	0.053
-228.742	335.722	0.106	-0.205
-227.727	-81.148	0.328	-0.108
-226.713	219.711	-0.186	0.295
-225.698	-99.451	0.228	-0.057
-224.684	-154.500	-0.203	0.013
-223.669	-200.000	-0.002	-0.109
-222.655	-200.000	-0.037	-0.236
-221.640	26.304	0.237	0.196
-220.625	-101.207	0.319	0.077
-219.611	723.910	0.029	-0.075
-218.596	-55.284	0.215	-0.096
-217.582	474.085	0.126	0.282
-216.567	25.498	0.192	0.158
-215.552	24.740	-0.462	-0.379
-214.538	800.000	-0.021	0.086
-213.523	38.983	0.212	-0.188
-212.509	-200.000	0.019	-0.101
-211.494	81.675	-0.231	0.248
-210.479	-57.553	0.195	0.085
-209.465	45.802	-0.144	0.132
-208.450	-15.212	-0.058	0.036
-207.436	-14.532	-0.309	0.197
-206.421	295.436	0.123	-0.223
-205.406	274.116	-0.111	-0.195
-204.392	156.072	-0.148	-0.202
-203.377	202.410	-0.060	0.091
-202.363	208.407	-0.077	-0.120
-201.348	-200.000	0.027	-0.283
-200.333	-56.457	0.512	0.225
-199.319	-125.341	-0.066	-0.010
-198.304	12.404	0.030	0.023
-197.290	144.414	0.153	-0.202
-196.275	-200.000	0.020	0.353
-195.260	97.842	-0.180	0.205
-194.246	800.000	0.075	-0.228
-193.231	800.000	-0.053	-0.183
-192.217	-107.029	-0.365	-0.080
-191.202	175.758	-0.157	-0.226
-190.187	6.180	-0.086	-0.063
-189.173	445.384	0.065	0.141
-188.158	-122.093	0.186	-0.030
-187.144	-83.740	-0.492	0.155
-186.129	-200.000	0.005	-0.053
-185.114	25.793	-0.197	0.162
-184.100	367.927	-0.125	0.250
-183.085	-200.000	0.006	0.167
-182.071	-142.684	-0.127	0.012
-181.056	-37.700	0.205	-0.108
-180.042	340.531	0.077	0.148
-179.027	21.394	-0.128	0.103
-178.012	-98.998	-0.451	-0.113
-176.998	-89.073	-0.207	-0.060
-175.983	33.214	0.171	-0.147
-174.969	-50.000	-0.435	-0.204
-173.954	328.423	0.055	-0.104
-172.939	-72.774	0.422	0.154
-171.925	107.539	-0.193	-0.228
-170.910	-127.127	-0.169	0.024
-169.896	-42.409	-0.118	-0.060
-168.881	-140.002	0.244	0.025
-167.866	140.307	-0.048	0.063
-166.852	-109.117	-0.004	-0.001
-165.837	91.681	-0.277	-0.309
-164.823	-200.000	0.001	0.027
-163.808	113.018	-0.203	0.243
-162.793	800.000	-0.089	-0.250
-161.779	-200.000	0.052	-0.433
-160.764	800.000	-0.006	-0.019
-159.750	134.272	-0.159	0.204
-158.735	78.706	0.139	0.147
-157.720	800.000	-0.130	0.507
-156.706	-113.316	0.165	0.032
-155.691	-200.000	-0.013	0.194
-154.677	800.000	0.028	-0.107
-153.662	-63.022	0.123	0.050
-152.647	310.415	-0.088	-0.162
-151.633	33.321	0.106	0.091
-150.618	124.186	-0.177	-0.219
-149.604	239.243	0.058	-0.096
-148.589	89.762	0.284	-0.314
-147.574	20.831	-0.243	0.195
-146.560	26.230	0.122	-0.101
-145.545	274.501	-0.081	-0.142
-144.531	271.557	-0.094	-0.163
-143.516	-64.071	-0.274	0.111
-142.502	-37.909	0.209	0.110
-141.487	319.508	-0.074	-0.138
-140.472	73.267	-0.345	0.357
-139.458	-85.725	0.355	-0.109
-138.443	2.076	0.116	-0.083
-137.429	-9.492	-0.321	-0.212
-136.414	-200.000	-0.012	-0.071
-135.399	43.237	-0.176	0.159
-134.385	-46.757	0.220	0.106
-133.370	800.000	-0.067	-0.195
-132.356	800.000	0.058	0.196
-131.341	-200.000	0.056	0.378
-130.326	33.551	-0.095	-0.081
-129.312	-117.061	-0.233	0.042
-128.297	-18.125	-0.295	-0.182
-127.283	-107.394	-0.163	0.035
-126.268	524.644	-0.090	0.208
-125.253	800.000	-0.093	-0.372
-124.239	435.608	-0.039	-0.084
-123.224	67.253	0.128	0.129
-122.210	-20.409	-0.275	0.167
-121.195	35.055	0.167	-0.145
