DTS Sentinel unit serial number:	SN413079Multiplexer serial number:	ORYXHardware model number:	OX4-SRSoftware version number:	ORYX F/W v4.00 Oryx Data Collector v3.7.2.0data status	okinstallation	princeton_trtdifferential loss correction	single-endedforward channel	channel 2reverse channel	N/Adate	2019/09/16time	08:59:35forward acquisition time	60.00reverse acquisition time	0.00gamma	496.2192k internal	0.2325k external	0.2325temperature offset calibration	0.9969default loss term (dB/km)	0.3790temperature slope calibration	1.0000multiplexer offset coefficient	1.0000multiplexer slope coefficient	1.0000fibre end	0.00T internal ref (°C)	30.44T ext. ref 1 (°C)	12.06T ext. ref 2 (°C)	28.15length (m)	temperature (°C)	Stokes	anti-Stokes-747.200	-131.735	-0.397	0.053
-746.185	421.271	-0.150	0.325
-745.171	228.231	0.213	0.350
-744.156	800.000	0.086	-0.341
-743.142	519.549	0.198	-0.469
-742.127	-200.000	0.047	0.340
-741.112	180.867	0.232	-0.344
-740.098	-17.153	-0.436	0.278
-739.083	-200.000	0.022	0.257
-738.069	-200.000	0.018	-0.085
-737.054	-110.385	-0.202	-0.042
-736.039	-30.267	0.141	-0.081
-735.025	88.870	0.144	0.161
-734.010	800.000	-0.094	0.281
-732.996	47.894	0.065	0.061
-731.981	119.664	-0.198	0.248
-730.966	-80.522	-0.047	0.016
-729.952	-152.621	-0.211	0.015
-728.937	-200.000	0.020	0.110
-727.923	-62.129	0.230	-0.097
-726.908	5.599	-0.218	-0.162
-725.894	-200.000	0.046	0.300
-724.879	-155.305	0.151	-0.010
-723.864	391.481	0.134	-0.281
-722.850	-200.000	-0.011	0.059
-721.835	48.339	0.080	-0.075
-720.821	39.060	-0.068	-0.062
-719.806	-200.000	0.012	-0.274
-718.791	14.865	-0.155	0.122
-717.777	648.359	0.095	-0.245
-716.762	55.753	0.190	-0.185
-715.748	-155.591	-0.308	-0.020
-714.733	-67.522	-0.216	0.085
-713.718	114.031	0.041	-0.051
-712.704	572.783	-0.048	0.117
-711.689	800.000	-0.103	0.348
-710.675	231.828	-0.130	-0.215
-709.660	50.586	0.097	0.093
-708.645	-200.000	-0.013	0.096
-707.631	-200.000	0.017	0.271
-706.616	-66.936	-0.141	0.056
-705.602	-200.000	-0.061	-0.328
-704.587	800.000	0.084	0.265
-703.572	291.243	0.130	-0.239
-702.558	35.822	-0.055	-0.049
-701.543	-200.000	-0.025	-0.252
-700.529	-200.000	0.024	-0.135
-699.514	800.000	-0.080	0.228
-698.499	282.948	0.028	0.050
-697.485	-165.499	-0.015	0.001
-696.470	435.077	0.053	-0.116
-695.456	204.008	-0.227	-0.354
-694.441	-121.666	0.237	0.040
-693.426	37.753	-0.125	-0.112
-692.412	-37.936	0.320	0.171
-691.397	-37.390	-0.235	0.126
-690.383	-130.390	0.076	-0.010
-689.368	-97.806	-0.031	-0.008
-688.354	-97.318	-0.219	-0.058
-687.339	-69.546	-0.197	0.076
-686.324	8.912	0.310	-0.235
-685.310	-98.261	-0.427	-0.110
-684.295	-5.965	-0.136	0.094
-683.281	218.438	-0.104	-0.168
-682.266	-200.000	0.009	-0.467
-681.251	3.069	-0.040	0.029
-680.237	-119.815	0.100	-0.017
-679.222	-30.633	0.419	-0.239
-678.208	800.000	-0.036	0.153
-677.193	800.000	0.109	0.437
-676.178	136.424	0.055	0.073
-675.164	-97.630	-0.143	0.037
-674.149	60.490	0.183	0.182
-673.135	-25.937	0.184	0.109
-672.120	182.738	0.229	-0.340
-671.105	376.099	-0.104	0.214
-670.091	-136.210	0.149	0.018
-669.076	-106.902	-0.111	-0.025
-668.062	-174.477	-0.010	-0.000
-667.047	800.000	0.029	-0.116
-666.032	154.082	0.129	0.178
-665.018	92.085	-0.262	-0.297
-664.003	-104.867	0.155	-0.036
-662.989	197.481	0.118	-0.181
-661.974	508.800	0.069	-0.162
-660.959	-120.061	-0.269	0.046
-659.945	-200.000	0.033	-0.194
-658.930	-200.000	0.008	-0.116
-657.916	65.548	-0.078	0.080
-656.901	-22.626	0.261	-0.159
-655.886	-44.162	-0.299	-0.151
-654.872	-132.701	-0.192	-0.025
-653.857	-59.007	0.350	-0.152
-652.843	-145.114	-0.248	-0.023
-651.828	800.000	0.050	0.190
-650.814	85.718	0.074	0.082
-649.799	74.486	0.179	0.189
-648.784	800.000	0.066	-0.190
-647.770	-188.100	0.139	0.002
-646.755	-200.000	-0.038	0.252
-645.741	7.196	0.297	-0.223
-644.726	-200.000	0.015	-0.292
-643.711	-51.425	-0.156	-0.073
-642.697	126.542	-0.248	0.315
-641.682	108.362	0.098	-0.117
-640.668	129.811	-0.142	0.183
-639.653	23.322	-0.164	0.135
-638.638	199.892	0.078	-0.121
-637.624	800.000	0.031	0.100
-636.609	75.556	-0.329	0.349
-635.595	677.032	0.061	0.159
-634.580	-200.000	-0.037	-0.231
-633.565	32.403	0.200	-0.174
-632.551	800.000	0.014	0.054
-631.536	250.529	-0.090	-0.153
-630.522	-35.729	0.218	0.119
-629.507	-56.915	0.218	-0.097
-628.492	-165.629	-0.441	-0.019
-627.478	-140.047	0.307	0.032
-626.463	-82.785	-0.333	0.108
-625.449	-66.829	-0.219	0.087
-624.434	-48.958	0.352	-0.169
-623.419	336.544	-0.083	0.161
-622.405	124.923	0.204	0.258
-621.390	800.000	-0.072	0.199
-620.376	-66.383	0.337	0.135
-619.361	-33.869	-0.258	0.143
-618.346	-38.523	-0.280	-0.149
-617.332	-37.749	-0.307	-0.164
-616.317	-200.000	-0.016	0.154
-615.303	150.426	-0.193	-0.264
-614.288	-111.067	-0.087	-0.018
-613.273	88.212	-0.297	0.331
-612.259	123.490	-0.151	0.190
-611.244	-146.646	-0.136	-0.012
-610.230	-143.241	0.113	-0.011
-609.215	191.238	0.044	-0.066
-608.201	-103.873	0.191	0.045
-607.186	223.783	-0.229	-0.371
-606.171	-43.422	-0.141	0.072
-605.157	-63.269	-0.136	0.056
-604.142	-192.208	0.222	0.002
-603.128	-90.645	-0.277	0.080
-602.113	-200.000	-0.028	-0.192
-601.098	-46.545	0.336	-0.165
-600.084	149.971	-0.144	-0.196
-599.069	40.326	0.247	-0.223
-598.055	-141.618	0.290	-0.029
-597.040	-200.000	0.007	-0.139
-596.025	-200.000	-0.015	0.083
-595.011	-24.060	-0.114	-0.069
-593.996	800.000	0.017	-0.066
-592.982	223.961	0.153	-0.247
-591.967	571.258	-0.116	0.283
-590.952	-100.910	0.296	0.073
-589.938	134.802	0.104	0.136
-588.923	-76.983	0.086	-0.030
-587.909	71.095	-0.083	0.087
-586.894	-82.124	0.266	0.087
-585.879	-7.402	0.108	0.073
-584.865	431.692	-0.113	-0.246
-583.850	800.000	-0.011	-0.031
-582.836	51.994	-0.202	0.193
-581.821	60.835	0.163	-0.162
-580.806	-154.697	-0.094	0.006
-579.792	-57.991	0.024	0.011
-578.777	92.487	-0.066	-0.075
-577.763	-58.442	0.230	0.100
-576.748	-113.397	0.255	-0.050
-575.733	21.168	0.164	-0.134
-574.719	800.000	-0.098	-0.402
-573.704	513.581	-0.070	-0.164
-572.690	78.103	0.159	-0.170
-571.675	-35.530	0.118	-0.064
-570.661	-140.806	-0.205	0.021
-569.646	362.660	0.146	-0.294
-568.631	-169.569	0.146	-0.005
-567.617	800.000	-0.130	0.415
-566.602	800.000	-0.116	0.324
-565.588	-50.070	0.301	-0.143
-564.573	-110.666	-0.427	-0.089
-563.558	161.536	0.210	-0.295
-562.544	-113.680	0.018	-0.004
-561.529	-175.823	-0.245	0.007
-560.515	68.261	0.156	-0.160
-559.500	248.515	-0.144	0.243
-558.485	-60.134	-0.195	0.083
-557.471	-130.557	0.144	-0.020
-556.456	-200.000	0.014	0.283
-555.442	800.000	0.038	0.115
-554.427	18.683	-0.049	0.039
-553.412	-145.122	-0.083	-0.008
-552.398	682.212	0.146	-0.381
-551.383	466.044	-0.136	-0.305
-550.369	375.498	0.068	0.138
-549.354	800.000	-0.058	-0.167
-548.339	-43.600	0.154	0.078
-547.325	213.912	0.162	-0.257
-546.310	326.695	-0.145	0.278
-545.296	-72.372	-0.387	-0.143
-544.281	118.767	-0.205	-0.254
-543.266	-7.851	-0.141	-0.095
-542.252	-200.000	-0.053	-0.254
-541.237	-13.283	-0.126	-0.082
-540.223	-26.614	-0.155	-0.091
-539.208	-170.234	-0.249	0.009
-538.193	-101.676	0.388	0.094
-537.179	800.000	0.090	-0.374
-536.164	-98.031	0.200	-0.051
-535.150	-83.880	-0.190	0.060
-534.135	194.918	-0.033	-0.050
-533.121	-150.825	0.110	0.008
-532.106	77.524	-0.003	-0.004
-531.091	-50.671	0.101	0.048
-530.077	800.000	0.118	0.338
-529.062	-47.024	-0.140	-0.068
-528.048	-130.527	-0.091	0.012
-527.033	331.276	-0.109	-0.211
-526.018	-35.871	0.407	0.220
-525.004	32.935	0.035	-0.030
-523.989	2.075	0.016	-0.011
-522.975	-200.000	0.009	0.088
-521.960	-53.943	0.205	0.093
-520.945	-91.024	-0.275	-0.079
-519.931	-121.055	0.242	-0.041
-518.916	-108.882	-0.176	0.038
-517.902	800.000	0.096	0.326
-516.887	-18.280	0.099	-0.062
-515.872	-199.270	-0.253	0.001
-514.858	100.590	0.040	-0.047
-513.843	-200.000	-0.066	-0.304
-512.829	10.295	-0.316	-0.241
-511.814	-136.897	-0.156	0.018
-510.799	-24.602	0.091	-0.054
-509.785	800.000	0.040	0.171
-508.770	333.380	0.149	0.289
-507.756	-67.778	0.345	0.135
-506.741	-115.339	0.215	-0.041
-505.726	-200.000	-0.038	0.257
-504.712	-57.212	-0.190	-0.084
-503.697	150.374	0.114	-0.155
-502.683	-92.770	0.127	-0.036
-501.668	95.974	0.168	-0.192
-500.653	292.830	-0.098	-0.179
-499.639	594.872	0.146	0.361
-498.624	47.702	0.169	0.157
-497.610	800.000	0.085	0.241
-496.595	-92.894	0.289	-0.081
-495.581	4.051	-0.076	0.056
-494.566	300.577	0.042	0.078
-493.551	-118.958	-0.208	-0.036
-492.537	-200.000	-0.020	-0.149
-491.522	-200.000	0.064	-0.365
-490.508	215.033	0.123	-0.195
-489.493	-200.000	0.000	-0.022
-488.478	-66.873	0.314	0.124
-487.464	-65.993	-0.333	-0.133
-486.449	141.662	-0.143	0.190
-485.435	23.581	0.116	0.096
-484.420	193.553	-0.086	-0.130
-483.405	-41.673	0.254	-0.130
-482.391	-160.500	-0.396	-0.021
-481.376	-25.078	-0.191	0.113
-480.362	-28.829	0.146	0.084
-479.347	-88.629	-0.253	-0.075
-478.332	-90.247	-0.139	-0.040
-477.318	-68.352	-0.244	0.095
-476.303	-20.290	0.138	0.085
-475.289	213.032	0.115	0.181
-474.274	-200.000	0.003	0.073
-473.259	-7.638	-0.138	0.093
-472.245	800.000	0.042	0.132
-471.230	86.558	0.042	-0.046
-470.216	-51.022	0.293	-0.137
-469.201	28.871	-0.223	-0.188
-468.186	-87.014	-0.247	0.075
-467.172	-195.971	-0.232	0.002
-466.157	-106.231	0.217	0.049
-465.143	29.990	-0.138	0.117
-464.128	800.000	0.046	0.170
-463.113	-200.000	0.000	0.101
-462.099	-159.720	-0.208	0.011
-461.084	363.795	0.072	0.144
-460.070	-17.355	-0.232	-0.146
-459.055	-200.000	-0.025	-0.495
-458.040	523.408	-0.101	-0.236
-457.026	-149.780	-0.114	-0.009
-456.011	800.000	-0.057	-0.179
-454.997	465.901	-0.056	-0.125
-453.982	145.985	0.066	0.089
-452.968	213.367	-0.080	-0.126
-451.953	-124.991	0.237	-0.036
-450.938	303.687	0.056	0.104
-449.924	29.594	-0.199	0.169
-448.909	-67.511	-0.127	-0.050
-447.895	80.036	-0.032	-0.034
-446.880	579.529	-0.041	0.101
-445.865	94.390	0.104	-0.117
-444.851	-30.946	0.032	-0.018
-443.836	800.000	-0.083	0.324
-442.822	-34.917	0.076	-0.041
-441.807	224.083	-0.151	-0.243
-440.792	-104.762	-0.130	0.030
-439.778	489.989	0.049	0.112
-438.763	384.296	-0.083	0.170
-437.749	-200.000	0.024	-0.129
-436.734	-47.131	0.106	-0.051
-435.719	328.692	0.134	0.256
-434.705	-67.159	-0.188	-0.074
-433.690	254.170	0.158	-0.269
-432.676	45.188	-0.111	-0.102
-431.661	-176.445	0.278	0.007
-430.646	-16.449	0.141	-0.089
-429.632	533.082	-0.198	0.468
-428.617	7.526	-0.185	0.138
-427.603	266.670	-0.139	-0.242
-426.588	800.000	0.025	0.099
-425.573	136.618	0.092	-0.120
-424.559	328.590	-0.176	0.337
-423.544	800.000	-0.042	0.168
-422.530	-200.000	-0.004	0.107
-421.515	491.554	-0.086	0.197
-420.500	-135.606	-0.257	-0.030
-419.486	-169.406	0.017	0.001
-418.471	172.074	-0.082	0.118
-417.457	130.331	-0.152	0.194
-416.442	-200.000	-0.058	-0.370
-415.428	191.952	-0.050	-0.076
-414.413	-200.000	0.028	-0.234
-413.398	-74.654	-0.367	-0.131
-412.384	196.776	0.076	0.115
-411.369	-99.205	0.274	-0.069
-410.355	214.138	-0.165	0.260
-409.340	526.405	0.073	-0.171
-408.325	464.165	-0.050	-0.112
-407.311	309.513	-0.036	-0.067
-406.296	-114.669	-0.264	0.050
-405.282	-25.134	0.152	0.090
-404.267	-200.000	0.001	-0.240
-403.252	-200.000	0.015	0.124
-402.238	-200.000	0.006	0.104
-401.223	-46.314	-0.115	0.056
-400.209	-40.638	-0.034	-0.017
-399.194	-6.188	0.094	0.064
-398.179	440.120	-0.087	-0.190
-397.165	-150.761	-0.126	0.010
-396.150	-200.000	-0.022	0.167
-395.136	479.458	-0.131	0.295
-394.121	-200.000	0.009	0.080
-393.106	-200.000	0.066	0.356
-392.092	800.000	0.078	0.294
-391.077	272.658	0.214	0.376
-390.063	-78.959	-0.189	-0.064
-389.048	-76.345	0.172	0.060
-388.033	79.963	0.349	-0.373
-387.019	399.640	0.062	0.129
-386.004	-144.889	-0.096	-0.009
-384.990	93.840	-0.135	0.152
-383.975	-117.695	0.078	-0.014
-382.960	800.000	0.047	0.163
-381.946	-200.000	0.045	-0.366
-380.931	53.020	-0.094	-0.089
-379.917	-40.619	-0.091	-0.047
-378.902	-163.531	0.153	-0.007
-377.888	508.963	0.138	-0.319
-376.873	800.000	-0.087	-0.319
-375.858	59.808	-0.110	-0.108
-374.844	8.156	-0.227	0.170
-373.829	-97.577	-0.200	0.052
-372.815	133.263	0.217	-0.279
-371.800	286.888	0.052	0.094
-370.785	-131.686	0.272	-0.036
-369.771	-200.000	-0.066	0.409
-368.756	142.717	-0.212	0.280
-367.742	44.655	0.210	-0.192
-366.727	108.539	0.211	-0.250
-365.712	8.569	-0.248	-0.186
-364.698	89.466	-0.055	-0.061
-363.683	800.000	-0.019	0.072
-362.669	800.000	-0.070	-0.283
-361.654	14.137	0.236	-0.182
-360.639	-178.239	0.148	0.003
-359.625	-30.865	-0.099	-0.056
-358.610	800.000	0.069	-0.211
-357.596	-66.685	0.117	0.046
-356.581	-105.067	-0.170	0.039
-355.566	-55.182	0.336	0.150
-354.552	32.578	0.106	0.091
-353.537	-75.427	0.051	-0.018
-352.523	800.000	-0.068	-0.244
-351.508	120.368	0.077	-0.095
-350.493	-54.045	0.114	0.051
-349.479	280.129	0.092	0.164
-348.464	29.636	-0.149	-0.126
-347.450	-38.017	-0.115	0.061
-346.435	781.347	-0.088	-0.240
-345.420	474.843	-0.091	-0.205
-344.406	67.337	0.118	-0.120
-343.391	-2.473	-0.329	-0.229
-342.377	800.000	0.098	-0.321
-341.362	87.808	0.245	-0.270
-340.348	800.000	-0.045	-0.146
-339.333	396.484	-0.102	0.212
-338.318	-200.000	-0.013	-0.062
-337.304	-97.366	-0.085	0.022
-336.289	-86.984	0.255	0.077
-335.275	293.997	0.108	0.196
-334.260	177.845	-0.152	-0.220
-333.245	-80.662	-0.127	-0.042
-332.231	-20.281	0.242	-0.148
-331.216	-24.910	-0.070	0.041
-330.202	6.420	-0.334	-0.247
-329.187	-152.874	-0.211	-0.015
-328.172	-63.402	0.091	-0.037
-327.158	-115.234	0.373	0.070
-326.143	246.544	0.096	0.161
-325.129	800.000	-0.017	-0.069
-324.114	712.880	-0.113	0.298
-323.099	-11.464	-0.114	0.075
-322.085	-37.908	0.195	-0.103
-321.070	-156.157	0.199	0.012
-320.056	-78.881	-0.291	0.098
-319.041	-125.763	0.263	0.039
-318.026	-200.000	-0.060	-0.365
-317.012	121.474	-0.074	0.092
-315.997	-200.000	0.005	0.386
-314.983	-80.438	0.318	0.105
-313.968	15.178	-0.176	-0.137
-312.953	-120.171	0.244	-0.041
-311.939	800.000	-0.023	0.095
-310.924	-78.288	0.254	-0.087
-309.910	257.175	0.192	0.328
-308.895	-107.141	-0.231	-0.051
-307.880	154.944	0.183	-0.250
-306.866	-164.423	-0.013	0.001
-305.851	-86.292	-0.127	-0.039
-304.837	347.891	-0.105	-0.204
-303.822	16.153	-0.055	-0.043
-302.807	121.098	0.093	0.114
-301.793	-109.905	0.133	-0.028
-300.778	-24.585	-0.223	-0.132
-299.764	63.593	0.085	0.085
-298.749	506.052	-0.147	0.337
-297.735	-111.195	0.067	0.014
-296.720	800.000	0.108	0.320
-295.705	800.000	-0.069	-0.203
-294.691	-64.129	0.198	-0.080
-293.676	-34.750	0.228	0.123
-292.662	-200.000	-0.016	0.096
-291.647	-200.000	0.084	0.438
-290.632	800.000	0.034	-0.101
-289.618	-82.736	-0.246	0.079
-288.603	223.410	0.170	0.272
-287.589	-17.386	-0.384	0.239
-286.574	-68.719	0.089	0.034
-285.559	49.940	0.183	0.171
-284.545	-58.460	0.114	-0.049
-283.530	61.542	-0.193	-0.190
-282.516	-200.000	-0.050	-0.247
-281.501	-200.000	-0.026	-0.239
-280.486	45.738	-0.080	-0.074
-279.472	-51.042	-0.141	-0.066
-278.457	-146.306	-0.155	-0.013
-277.443	-107.278	-0.143	-0.031
-276.428	200.609	-0.231	0.352
-275.413	-16.362	0.052	-0.032
-274.399	525.622	0.101	0.236
-273.384	-120.606	-0.285	-0.048
-272.370	-200.000	0.006	0.111
-271.355	-200.000	-0.025	-0.163
-270.340	-200.000	0.101	-0.467
-269.326	637.294	-0.138	0.347
-268.311	-23.012	0.098	0.059
-267.297	113.040	0.091	-0.109
-266.282	39.160	0.129	-0.115
-265.267	-125.393	-0.012	-0.002
-264.253	800.000	0.101	0.400
-263.238	800.000	-0.105	0.380
-262.224	-66.191	-0.088	-0.035
-261.209	407.383	-0.150	-0.314
-260.195	-116.731	-0.234	-0.043
-259.180	58.107	0.171	0.165
-258.165	-183.027	-0.253	0.004
-257.151	4.442	0.177	0.128
-256.136	800.000	-0.029	-0.092
-255.122	-38.590	0.260	-0.136
-254.107	800.000	-0.035	0.095
-253.092	-146.190	0.225	0.020
-252.078	534.868	0.041	-0.097
-251.063	-200.000	0.015	-0.266
-250.049	-184.949	0.247	0.004
-249.034	153.528	0.111	-0.150
-248.019	-41.650	-0.235	0.120
-247.005	-156.930	-0.300	-0.018
-245.990	800.000	0.024	0.074
-244.976	-101.660	0.313	0.075
-243.961	-5.883	-0.192	-0.130
-242.946	-200.000	0.019	0.356
-241.932	-82.519	0.416	-0.133
-240.917	800.000	0.130	-0.442
-239.903	-200.000	-0.002	0.161
-238.888	-200.000	0.062	0.352
-237.873	800.000	-0.074	0.264
-236.859	157.915	0.048	0.065
-235.844	107.322	-0.175	-0.205
-234.830	30.070	0.087	-0.074
-233.815	-131.900	-0.338	0.044
-232.800	154.244	0.111	0.150
-231.786	-51.312	0.328	0.152
-230.771	107.234	-0.192	0.226
-229.757	401.859	-0.125	0.259
-228.742	163.259	0.125	0.174
-227.727	-50.985	-0.262	0.122
-226.713	-5.640	0.323	0.219
-225.698	335.477	-0.046	0.089
-224.684	7.411	0.247	-0.183
-223.669	55.175	0.115	0.110
-222.655	-119.205	-0.101	0.017
-221.640	629.403	-0.067	0.168
-220.625	-165.118	0.221	0.010
-219.611	174.329	-0.098	-0.140
-218.596	-99.313	-0.424	0.106
-217.582	-139.526	-0.126	0.013
-216.567	-59.633	0.152	0.065
-215.552	16.026	0.282	-0.219
-214.538	132.556	-0.005	-0.007
-213.523	-200.000	0.082	-0.385
-212.509	513.911	0.048	0.111
-211.494	420.283	-0.157	0.333
-210.479	30.052	0.135	-0.114
-209.465	23.715	0.340	0.277
-208.450	-15.562	-0.109	-0.068
-207.436	51.897	0.256	0.241
-206.421	-181.355	0.448	-0.009
-205.406	-14.846	-0.157	-0.100
-204.392	-67.492	0.410	0.159
-203.377	104.684	-0.215	-0.250
-202.363	-200.000	0.014	0.323
-201.348	-144.363	0.234	-0.021
-200.333	800.000	-0.109	0.336
-199.319	-85.979	-0.071	0.022
-198.304	-97.257	0.224	0.058
-197.290	-200.000	-0.037	0.221
-196.275	800.000	0.054	0.206
-195.260	-200.000	0.022	-0.196
-194.246	800.000	-0.074	-0.277
-193.231	800.000	-0.029	0.085
-192.217	800.000	0.103	0.351
-191.202	-157.412	0.092	-0.005
-190.187	173.467	-0.181	-0.258
-189.173	-66.434	0.208	-0.082
-188.158	-120.483	-0.214	0.036
-187.144	-115.176	0.398	0.074
-186.129	-141.267	0.102	0.010
-185.114	-3.942	0.172	-0.118
-184.100	-81.744	-0.235	-0.076
-183.085	-90.137	0.033	-0.009
-182.071	26.931	0.159	0.131
-181.056	-50.802	-0.078	-0.036
-180.042	800.000	0.155	-0.433
-179.027	800.000	-0.048	0.136
-178.012	30.670	-0.354	0.299
-176.998	332.385	0.165	0.314
-175.983	227.450	0.083	-0.133
-174.969	115.799	-0.024	-0.029
-173.954	-101.312	-0.183	-0.044
-172.939	-200.000	-0.034	-0.350
-171.925	522.875	-0.097	-0.224
-170.910	14.185	0.195	0.150
-169.896	239.196	-0.206	0.338
-168.881	94.999	0.039	0.044
-167.866	-200.000	0.044	-0.425
-166.852	800.000	-0.069	0.254
-165.837	-200.000	0.022	0.216
-164.823	3.746	-0.219	-0.158
-163.808	117.776	-0.168	-0.204
-162.793	782.638	0.092	0.249
-161.779	423.633	-0.119	0.252
-160.764	71.023	0.024	0.024
-159.750	800.000	-0.057	-0.172
-158.735	-200.000	-0.045	-0.258
-157.720	-162.997	-0.257	-0.012
-156.706	-200.000	-0.053	-0.240
-155.691	-172.620	-0.343	-0.011
-154.677	441.711	0.145	-0.314
-153.662	-58.108	-0.092	-0.039
-152.647	-78.187	0.171	-0.058
-151.633	46.751	0.185	-0.170
-150.618	58.384	0.146	-0.141
-149.604	-200.000	-0.012	0.113
-148.589	-38.754	-0.062	0.032
-147.574	-59.902	-0.348	0.147
-146.560	27.817	-0.224	-0.186
-145.545	-200.000	-0.032	0.199
-144.531	800.000	-0.092	0.291
-143.516	211.978	-0.080	-0.125
-142.502	199.205	-0.019	0.029
-141.487	-65.318	0.065	-0.026
-140.472	52.055	0.110	0.104
-139.458	30.726	-0.257	0.217
-138.443	-200.000	0.013	0.173
-137.429	269.538	-0.114	-0.197
-136.414	250.984	0.097	0.163
-135.399	111.391	-0.073	-0.087
-134.385	800.000	-0.094	0.380
-133.370	165.946	0.131	-0.182
-132.356	245.387	-0.187	-0.310
-131.341	-94.691	0.226	0.060
-130.326	-200.000	0.085	-0.387
-129.312	800.000	0.093	0.334
-128.297	50.927	-0.240	-0.224
-127.283	14.432	0.296	-0.227
-126.268	800.000	0.050	0.161
-125.253	-8.034	-0.330	-0.219
-124.239	800.000	0.078	-0.304
-123.224	-200.000	0.009	0.121
-122.210	-103.974	-0.074	-0.017
-121.195	161.763	-0.284	-0.391
