DTS Sentinel unit serial number:	SN413079Multiplexer serial number:	ORYXHardware model number:	OX4-SRSoftware version number:	ORYX F/W v4.00 Oryx Data Collector v3.7.2.0data status	okinstallation	princeton_trtdifferential loss correction	single-endedforward channel	channel 2reverse channel	N/Adate	2019/09/16time	13:23:35forward acquisition time	60.00reverse acquisition time	0.00gamma	496.2192k internal	0.2298k external	0.2298temperature offset calibration	0.9939default loss term (dB/km)	0.3790temperature slope calibration	1.0000multiplexer offset coefficient	1.0000multiplexer slope coefficient	1.0000fibre end	0.00T internal ref (°C)	41.50T ext. ref 1 (°C)	13.78T ext. ref 2 (°C)	39.41length (m)	temperature (°C)	Stokes	anti-Stokes-747.200	-133.385	-0.164	-0.021
-746.185	25.883	0.246	0.210
-745.171	140.840	-0.034	-0.046
-744.156	-29.399	-0.204	0.119
-743.142	800.000	0.103	-0.393
-742.127	-200.000	0.033	0.289
-741.112	800.000	-0.073	-0.236
-740.098	609.446	0.151	0.384
-739.083	44.503	0.131	0.123
-738.069	-91.390	0.360	0.105
-737.054	6.677	0.051	-0.038
-736.039	122.374	-0.222	0.283
-735.025	-181.573	0.178	-0.004
-734.010	678.463	0.040	0.106
-732.996	-69.360	0.108	0.042
-731.981	-155.961	0.307	0.020
-730.966	-200.000	-0.003	0.042
-729.952	-42.511	-0.221	0.115
-728.937	-58.517	-0.332	0.147
-727.923	82.436	-0.230	0.254
-726.908	-200.000	-0.018	0.443
-725.894	800.000	-0.097	-0.416
-724.879	800.000	-0.053	-0.201
-723.864	800.000	0.136	0.442
-722.850	-57.432	-0.346	-0.155
-721.835	-63.588	0.021	-0.009
-720.821	91.291	-0.160	-0.183
-719.806	-97.736	-0.318	-0.084
-718.791	-200.000	0.016	0.110
-717.777	98.212	-0.248	-0.291
-716.762	800.000	0.092	-0.362
-715.748	-58.661	0.511	0.226
-714.733	-103.875	-0.094	-0.022
-713.718	242.439	-0.036	-0.062
-712.704	-200.000	-0.021	-0.123
-711.689	105.684	-0.182	0.219
-710.675	-200.000	-0.010	-0.076
-709.660	390.806	-0.130	-0.275
-708.645	800.000	0.067	-0.217
-707.631	274.372	-0.111	-0.201
-706.616	361.800	-0.121	-0.248
-705.602	-53.550	-0.275	0.128
-704.587	77.880	0.284	0.309
-703.572	548.024	0.125	-0.304
-702.558	-67.688	0.218	-0.087
-701.543	48.412	-0.298	0.284
-700.529	63.832	0.396	-0.406
-699.514	135.899	-0.146	0.193
-698.499	29.757	0.096	0.083
-697.485	-78.560	0.175	0.061
-696.470	338.161	0.078	-0.155
-695.456	-87.783	-0.117	-0.036
-694.441	-35.869	0.062	-0.034
-693.426	214.722	-0.168	0.271
-692.412	-3.645	-0.277	0.196
-691.397	43.725	0.282	0.263
-690.383	-31.977	-0.218	0.124
-689.368	-99.854	0.034	0.009
-688.354	-200.000	-0.092	0.000
-687.339	-181.951	-0.129	-0.002
-686.324	-112.852	-0.543	-0.110
-685.310	-25.299	-0.285	-0.172
-684.295	639.728	0.077	-0.199
-683.281	-46.450	0.207	-0.103
-682.266	-80.317	-0.169	0.058
-681.251	-74.855	-0.166	-0.061
-680.237	96.030	0.170	-0.198
-679.222	800.000	0.071	-0.235
-678.208	77.580	-0.120	0.130
-677.193	-88.151	-0.105	0.032
-676.178	390.057	0.076	-0.160
-675.164	46.372	-0.297	-0.280
-674.149	60.283	-0.122	0.123
-673.135	205.294	-0.193	0.305
-672.120	800.000	-0.046	-0.168
-671.105	208.712	-0.159	0.254
-670.091	82.586	-0.211	0.233
-669.076	452.892	-0.061	0.136
-668.062	-200.000	0.018	-0.236
-667.047	6.422	-0.314	0.238
-666.032	-86.968	-0.277	0.086
-665.018	627.885	-0.100	-0.258
-664.003	248.925	-0.015	-0.025
-662.989	-62.525	0.259	0.110
-661.974	668.898	0.026	-0.069
-660.959	101.206	-0.193	-0.228
-659.945	-148.127	-0.097	-0.008
-658.930	-56.737	-0.258	0.116
-657.916	-200.000	0.005	-0.032
-656.901	29.515	-0.202	0.175
-655.886	-200.000	0.101	0.487
-654.872	323.813	-0.090	-0.175
-653.857	-200.000	-0.015	-0.240
-652.843	136.072	-0.185	0.245
-651.828	-170.070	0.095	0.003
-650.814	325.483	0.073	0.141
-649.799	200.091	0.122	-0.190
-648.784	-200.000	-0.015	-0.076
-647.770	67.792	0.130	-0.135
-646.755	-200.000	0.025	0.116
-645.741	403.390	-0.062	-0.133
-644.726	-200.000	0.028	-0.140
-643.711	-178.906	-0.239	0.006
-642.697	-85.656	-0.225	-0.071
-641.682	-27.291	0.174	-0.103
-640.668	-43.917	0.052	0.027
-639.653	121.019	-0.129	0.163
-638.638	-200.000	-0.349	-0.000
-637.624	-74.018	0.169	0.062
-636.609	-200.000	-0.015	0.184
-635.595	-200.000	0.038	0.195
-634.580	-200.000	0.043	-0.251
-633.565	800.000	0.023	-0.081
-632.551	-122.700	-0.188	-0.031
-631.536	-18.532	-0.306	0.194
-630.522	139.712	-0.081	0.108
-629.507	-128.370	-0.095	0.014
-628.492	11.311	0.046	-0.036
-627.478	545.771	0.013	-0.033
-626.463	-91.782	0.104	-0.030
-625.449	-89.296	0.042	0.012
-624.434	800.000	-0.036	0.146
-623.419	-183.912	-0.053	0.001
-622.405	-55.010	0.316	-0.145
-621.390	5.100	-0.064	-0.048
-620.376	-88.592	-0.250	-0.076
-619.361	-121.917	0.343	-0.057
-618.346	99.347	0.113	0.132
-617.332	-73.452	-0.113	-0.042
-616.317	800.000	-0.047	-0.202
-615.303	-125.060	-0.351	-0.055
-614.288	-144.480	0.363	0.034
-613.273	71.751	0.109	0.116
-612.259	800.000	-0.115	-0.442
-611.244	69.055	-0.132	0.138
-610.230	-38.683	-0.113	-0.060
-609.215	-55.442	-0.302	-0.138
-608.201	51.360	0.048	-0.047
-607.186	-200.000	0.016	-0.158
-606.171	800.000	0.090	0.287
-605.157	-97.598	-0.331	0.087
-604.142	-53.529	-0.174	0.081
-603.128	170.839	-0.164	0.238
-602.113	-138.441	0.087	-0.010
-601.098	-200.000	-0.030	0.258
-600.084	-200.000	0.056	-0.279
-599.069	45.334	0.257	-0.241
-598.055	-84.986	0.234	-0.075
-597.040	800.000	0.215	0.735
-596.025	80.558	0.129	0.142
-595.011	-27.883	0.161	-0.095
-593.996	69.456	-0.195	-0.204
-592.982	-155.285	-0.067	-0.004
-591.967	148.508	-0.077	0.105
-590.952	-200.000	-0.001	0.185
-589.938	552.728	-0.092	0.225
-588.923	-131.850	-0.188	0.025
-587.909	-11.164	0.248	0.166
-586.894	800.000	-0.036	0.115
-585.879	23.725	0.110	-0.092
-584.865	-200.000	-0.024	-0.243
-583.850	237.987	-0.149	-0.252
-582.836	-156.719	-0.142	-0.009
-581.821	61.260	0.089	0.089
-580.806	800.000	0.070	-0.297
-579.792	-60.899	0.094	-0.040
-578.777	13.264	-0.124	-0.097
-577.763	522.410	-0.102	0.242
-576.748	63.208	-0.144	0.146
-575.733	-81.038	-0.122	0.041
-574.719	1.863	-0.371	0.271
-573.704	160.522	-0.272	-0.386
-572.690	788.420	-0.085	-0.237
-571.675	-199.942	-0.052	-0.000
-570.661	-103.497	0.243	-0.058
-569.646	-200.000	-0.030	-0.209
-568.631	-18.735	-0.127	-0.080
-567.617	800.000	0.116	0.390
-566.602	-146.472	0.110	-0.010
-565.588	441.680	0.057	0.127
-564.573	60.695	0.008	0.008
-563.558	-78.087	0.004	0.001
-562.544	-88.741	0.125	-0.038
-561.529	800.000	0.069	-0.244
-560.515	-111.281	0.070	0.015
-559.500	-66.659	0.093	0.037
-558.485	-37.983	-0.326	0.176
-557.471	-200.000	-0.023	0.176
-556.456	800.000	-0.024	0.105
-555.442	204.629	-0.231	0.362
-554.427	14.875	-0.154	0.122
-553.412	296.407	-0.171	0.318
-552.398	800.000	0.056	0.233
-551.383	800.000	0.083	-0.288
-550.369	800.000	-0.077	-0.331
-549.354	800.000	0.078	-0.232
-548.339	-200.000	-0.050	-0.247
-547.325	-200.000	0.035	0.177
-546.310	800.000	0.040	-0.165
-545.296	12.709	0.251	0.197
-544.281	236.550	0.166	-0.279
-543.266	699.851	0.034	-0.090
-542.252	-86.229	-0.220	-0.069
-541.237	-71.022	-0.214	-0.082
-540.223	-200.000	0.015	0.187
-539.208	800.000	-0.079	0.227
-538.193	58.582	0.106	-0.106
-537.179	-1.224	0.192	-0.137
-536.164	800.000	-0.073	-0.279
-535.150	23.293	0.208	0.173
-534.135	-43.607	0.129	-0.066
-533.121	-59.647	0.114	-0.049
-532.106	-200.000	-0.079	0.383
-531.091	-72.905	0.356	0.132
-530.077	47.760	-0.066	-0.062
-529.062	-64.806	0.307	-0.126
-528.048	-166.618	0.394	-0.017
-527.033	-0.003	0.212	-0.153
-526.018	239.739	0.078	-0.131
-525.004	-4.213	-0.359	0.252
-523.989	-21.555	0.103	-0.064
-522.975	-188.013	-0.304	-0.004
-521.960	800.000	-0.042	-0.139
-520.945	72.574	-0.203	-0.214
-519.931	62.268	0.165	0.166
-518.916	-153.964	0.136	0.009
-517.902	800.000	-0.027	-0.109
-516.887	800.000	-0.106	0.318
-515.872	-200.000	0.022	0.168
-514.858	30.995	0.227	0.197
-513.843	472.281	-0.165	-0.377
-512.829	20.778	0.152	-0.125
-511.814	-187.896	0.114	0.002
-510.799	-78.983	-0.108	-0.037
-509.785	-159.554	-0.272	0.015
-508.770	-97.913	-0.120	0.031
-507.756	507.974	-0.170	-0.399
-506.741	-12.917	-0.028	0.018
-505.726	-159.216	-0.221	-0.013
-504.712	-49.052	-0.085	0.041
-503.697	-200.000	-0.049	0.396
-502.683	-200.000	-0.049	0.345
-501.668	74.681	-0.108	-0.115
-500.653	152.899	-0.201	0.277
-499.639	-130.964	0.391	0.053
-498.624	-15.917	-0.136	-0.087
-497.610	-26.662	-0.189	-0.112
-496.595	188.135	-0.085	-0.129
-495.581	51.599	0.295	-0.284
-494.566	41.629	-0.091	-0.084
-493.551	-127.468	-0.270	0.040
-492.537	176.849	-0.104	0.154
-491.522	187.734	-0.090	-0.136
-490.508	-108.752	0.208	0.045
-489.493	800.000	0.082	0.242
-488.478	-9.448	0.275	-0.185
-487.464	106.110	0.184	0.220
-486.449	-124.151	-0.571	0.090
-485.435	-200.000	-0.011	-0.095
-484.420	366.971	-0.054	-0.111
-483.405	109.045	0.161	0.195
-482.391	-76.868	-0.068	-0.024
-481.376	24.673	0.112	-0.094
-480.362	-9.327	-0.531	-0.358
-479.347	-200.000	0.017	-0.113
-478.332	-95.529	0.223	-0.060
-477.318	-123.741	-0.342	0.055
-476.303	-200.000	0.042	-0.210
-475.289	-200.000	-0.040	0.258
-474.274	383.236	-0.033	-0.069
-473.259	110.171	-0.064	0.078
-472.245	-85.512	0.141	-0.044
-471.230	-200.000	-0.036	0.197
-470.216	-200.000	0.026	0.163
-469.201	20.350	-0.309	-0.252
-468.186	-200.000	0.039	-0.229
-467.172	194.205	0.158	-0.241
-466.157	-200.000	-0.002	0.142
-465.143	422.409	0.179	-0.388
-464.128	-200.000	-0.009	-0.183
-463.113	355.848	0.072	-0.145
-462.099	-200.000	-0.024	-0.298
-461.084	241.331	-0.067	-0.114
-460.070	-102.783	-0.140	-0.034
-459.055	-82.733	0.388	0.127
-458.040	-66.118	-0.338	0.136
-457.026	-121.290	0.158	0.027
-456.011	212.048	0.120	-0.191
-454.997	1.259	0.079	0.057
-453.982	-146.378	0.218	-0.019
-452.968	25.299	0.202	-0.170
-451.953	800.000	0.045	0.136
-450.938	737.727	0.092	0.249
-449.924	-81.241	0.423	-0.141
-448.909	146.099	0.257	-0.349
-447.895	-200.000	0.081	-0.428
-446.880	-122.629	0.360	0.059
-445.865	-166.225	0.329	-0.014
-444.851	-200.000	-0.016	-0.604
-443.836	-112.180	0.140	-0.028
-442.822	-130.070	-0.224	0.031
-441.807	25.317	0.310	-0.260
-440.792	138.818	0.046	0.061
-439.778	238.904	0.058	0.098
-438.763	279.236	0.101	-0.182
-437.749	664.266	0.024	0.062
-436.734	536.531	0.068	-0.162
-435.719	737.398	0.039	0.106
-434.705	-6.935	-0.114	0.078
-433.690	113.822	0.241	-0.295
-432.676	628.977	0.058	0.147
-431.661	51.621	-0.469	-0.450
-430.646	-90.569	-0.325	0.095
-429.632	-107.392	-0.227	-0.050
-428.617	800.000	0.103	-0.353
-427.603	-86.938	-0.336	0.103
-426.588	-44.292	-0.146	-0.074
-425.573	410.340	0.056	-0.120
-424.559	800.000	-0.057	-0.209
-423.544	-200.000	0.023	0.244
-422.530	56.325	-0.124	0.122
-421.515	43.855	0.057	-0.053
-420.500	800.000	0.091	0.322
-419.486	-200.000	0.005	-0.082
-418.471	259.426	-0.062	0.108
-417.457	-42.749	0.054	-0.028
-416.442	-200.000	0.022	-0.116
-415.428	-47.036	-0.281	0.138
-414.413	-139.560	-0.154	0.017
-413.398	-125.324	-0.009	-0.001
-412.384	612.840	0.047	-0.119
-411.369	-159.507	0.217	0.012
-410.355	-74.514	0.034	-0.012
-409.340	18.611	-0.273	-0.220
-408.325	158.302	0.108	0.151
-407.311	43.740	-0.372	-0.343
-406.296	-97.142	-0.148	-0.039
-405.282	-197.421	0.113	-0.001
-404.267	-153.385	-0.165	-0.012
-403.252	184.114	-0.055	0.082
-402.238	159.367	-0.058	0.081
-401.223	460.875	-0.036	0.080
-400.209	2.035	0.164	-0.119
-399.194	800.000	-0.126	0.362
-398.179	-90.974	-0.053	-0.015
-397.165	34.940	0.251	0.221
-396.150	-112.534	0.382	0.077
-395.136	291.445	-0.104	0.190
-394.121	237.182	-0.087	-0.145
-393.106	-85.424	0.386	-0.121
-392.092	800.000	-0.043	0.144
-391.077	595.613	-0.104	0.258
-390.063	-64.159	0.126	-0.052
-389.048	239.408	0.091	0.153
-388.033	-28.048	0.060	0.035
-387.019	-200.000	-0.030	0.213
-386.004	-200.000	-0.027	0.294
-384.990	-106.085	-0.146	-0.033
-383.975	136.558	0.143	0.188
-382.960	-139.911	-0.111	-0.012
-381.946	-200.000	-0.022	0.297
-380.931	6.372	-0.388	-0.290
-379.917	68.643	-0.162	-0.167
-378.902	119.606	0.194	0.242
-377.888	67.137	-0.021	-0.022
-376.873	-0.401	-0.101	0.072
-375.858	-78.001	-0.214	-0.074
-374.844	-101.246	-0.058	-0.014
-373.829	-7.804	0.053	-0.036
-372.815	111.258	-0.068	-0.083
-371.800	-77.222	0.069	-0.024
-370.785	-73.736	-0.124	0.045
-369.771	25.440	0.179	0.149
-368.756	-70.504	-0.086	-0.033
-367.742	-58.761	-0.180	-0.078
-366.727	-59.733	0.255	-0.110
-365.712	79.018	-0.134	-0.144
-364.698	478.995	0.132	0.300
-363.683	75.152	0.137	-0.146
-362.669	-200.000	-0.002	-0.203
-361.654	-125.696	-0.316	-0.048
-360.639	-27.583	0.025	0.014
-359.625	-200.000	-0.002	-0.367
-358.610	-200.000	0.038	-0.227
-357.596	-106.105	0.309	-0.070
-356.581	-200.000	-0.037	-0.385
-355.566	-75.159	-0.247	-0.089
-354.552	297.905	0.153	0.282
-353.537	800.000	-0.054	-0.189
-352.523	152.570	-0.190	0.261
-351.508	-105.740	0.063	0.014
-350.493	-200.000	0.003	-0.192
-349.479	-119.653	-0.090	-0.016
-348.464	304.480	0.150	0.279
-347.450	249.813	-0.034	-0.059
-346.435	-108.776	0.112	0.024
-345.420	-88.050	0.066	0.020
-344.406	459.083	-0.103	0.231
-343.391	-75.493	-0.183	-0.066
-342.377	329.162	-0.153	0.296
-341.362	-200.000	-0.011	-0.057
-340.348	-97.982	-0.375	-0.097
-339.333	40.864	-0.178	0.161
-338.318	523.518	0.121	0.285
-337.304	325.959	-0.153	-0.295
-336.289	69.033	-0.210	-0.217
-335.275	3.368	-0.164	0.120
-334.260	-200.000	0.003	0.085
-333.245	800.000	-0.071	-0.200
-332.231	-200.000	-0.018	-0.273
-331.216	-172.098	-0.042	0.001
-330.202	-133.666	0.123	0.015
-329.187	-60.161	0.177	-0.076
-328.172	41.973	0.130	-0.118
-327.158	276.457	-0.107	-0.192
-326.143	139.503	0.098	0.130
-325.129	-7.491	0.237	-0.161
-324.114	-200.000	-0.227	-0.000
-323.099	381.290	-0.160	-0.330
-322.085	11.664	-0.300	-0.232
-321.070	-45.822	-0.108	0.054
-320.056	-11.832	-0.212	0.140
-319.041	63.225	0.098	0.099
-318.026	-88.758	0.216	-0.064
-317.012	-21.576	-0.205	0.126
-315.997	470.018	-0.119	-0.269
-314.983	-64.022	-0.142	0.058
-313.968	-200.000	0.045	0.207
-312.953	-79.525	0.253	-0.086
-311.939	107.343	0.094	-0.112
-310.924	-50.807	0.136	-0.064
-309.910	-156.123	-0.019	0.001
-308.895	-1.222	-0.111	-0.079
-307.880	-50.504	0.073	0.034
-306.866	-193.688	0.454	0.004
-305.851	-200.000	0.009	0.312
-304.837	-200.000	0.033	-0.204
-303.822	292.222	-0.060	0.109
-302.807	-110.399	-0.365	-0.076
-301.793	19.864	-0.152	0.123
-300.778	701.957	-0.119	0.314
-299.764	-3.046	0.073	0.051
-298.749	-200.000	-0.015	-0.181
-297.735	89.288	0.199	0.223
-296.720	-1.154	0.110	0.078
-295.705	-200.000	0.003	0.020
-294.691	355.351	0.060	0.121
-293.676	-99.638	-0.508	0.128
-292.662	-64.953	-0.309	0.125
-291.647	36.959	-0.190	-0.169
-290.632	112.944	-0.215	0.261
-289.618	-99.470	0.103	-0.026
-288.603	-38.355	-0.218	0.116
-287.589	800.000	-0.095	0.351
-286.574	-9.159	0.201	0.135
-285.559	326.957	-0.161	-0.309
-284.545	-200.000	0.010	-0.129
-283.530	257.425	-0.095	0.164
-282.516	35.699	-0.163	0.144
-281.501	741.274	-0.059	-0.159
-280.486	-105.971	-0.097	0.022
-279.472	-44.873	-0.316	0.158
-278.457	-133.898	0.708	-0.088
-277.443	543.373	0.149	0.357
-276.428	-200.000	0.052	0.294
-275.413	230.953	0.116	0.190
-274.399	-188.894	0.169	-0.002
-273.384	-10.537	-0.237	0.157
-272.370	40.466	-0.066	-0.059
-271.355	-88.652	0.104	-0.031
-270.340	512.224	-0.100	0.234
-269.326	80.314	0.131	-0.141
-268.311	-66.687	-0.039	-0.016
-267.297	800.000	-0.065	0.200
-266.282	-200.000	-0.030	0.205
-265.267	-52.396	-0.252	-0.117
-264.253	-38.633	-0.364	0.193
-263.238	-99.614	0.395	-0.099
-262.224	246.331	0.073	0.123
-261.209	-23.261	0.232	-0.140
-260.195	-15.563	-0.241	-0.154
-259.180	-56.533	0.109	0.048
-258.165	23.084	0.100	-0.082
-257.151	-200.000	-0.014	0.087
-256.136	95.600	0.039	0.044
-255.122	-67.581	-0.138	0.054
-254.107	141.291	-0.156	-0.206
-253.092	81.305	-0.158	0.171
-252.078	-25.748	0.275	0.163
-251.063	-200.000	0.001	0.180
-250.049	-34.457	0.338	0.185
-249.034	-62.346	0.185	-0.077
-248.019	-200.000	-0.001	0.040
-247.005	-20.076	0.283	-0.175
-245.990	-3.349	-0.169	0.118
-244.976	-77.443	-0.336	-0.117
-243.961	556.881	0.073	0.177
-242.946	-5.815	0.122	-0.084
-241.932	-71.316	0.291	-0.109
-240.917	-62.687	0.155	-0.064
-239.903	363.640	-0.120	0.242
-238.888	-91.007	0.211	-0.061
-237.873	-200.000	0.023	-0.192
-236.859	-200.000	0.065	-0.355
-235.844	-200.000	-0.022	-0.186
-234.830	-176.987	0.340	-0.009
-233.815	470.621	-0.045	-0.102
-232.800	800.000	0.024	0.093
-231.786	40.709	0.191	-0.173
-230.771	42.387	-0.098	-0.090
-229.757	-4.964	0.205	0.141
-228.742	800.000	0.071	-0.220
-227.727	-88.654	0.171	0.051
-226.713	-93.663	-0.108	-0.030
-225.698	-200.000	0.020	-0.119
-224.684	-200.000	-0.050	-0.280
-223.669	-61.092	0.166	0.070
-222.655	-172.974	0.258	-0.008
-221.640	-200.000	-0.087	0.404
-220.625	30.711	-0.068	0.059
-219.611	763.531	0.074	0.200
-218.596	378.869	0.094	-0.192
-217.582	-158.259	0.190	-0.011
-216.567	800.000	-0.026	0.103
-215.552	800.000	-0.050	-0.190
-214.538	647.552	0.085	0.217
-213.523	-38.962	-0.364	0.191
-212.509	800.000	-0.031	-0.087
-211.494	-125.859	0.465	0.070
-210.479	-53.073	-0.167	-0.077
-209.465	-124.608	0.357	0.055
-208.450	193.927	0.174	0.263
-207.436	-107.241	-0.493	-0.108
-206.421	-124.285	0.169	0.026
-205.406	99.562	0.178	-0.206
-204.392	90.612	-0.207	-0.232
-203.377	273.857	0.164	0.290
-202.363	-200.000	-0.083	0.367
-201.348	-200.000	0.029	0.157
-200.333	-43.965	0.210	0.105
-199.319	-90.829	-0.053	-0.015
-198.304	-162.179	0.204	-0.010
-197.290	800.000	0.058	-0.162
-196.275	381.133	0.136	-0.280
-195.260	-6.639	0.219	-0.149
-194.246	42.021	0.059	0.054
-193.231	-200.000	0.035	0.297
-192.217	69.096	0.037	0.038
-191.202	800.000	-0.083	0.245
-190.187	111.738	0.226	0.272
-189.173	82.837	0.189	-0.206
-188.158	-11.817	0.325	0.213
-187.144	-200.000	0.019	0.487
-186.129	-200.000	-0.035	-0.230
-185.114	-119.528	-0.122	0.021
-184.100	-172.346	-0.303	0.010
-183.085	95.376	-0.103	-0.118
-182.071	-118.595	-0.177	0.031
-181.056	-178.876	0.071	-0.002
-180.042	43.084	-0.157	-0.143
-179.027	497.415	-0.102	0.234
-178.012	-61.043	0.194	0.082
-176.998	-71.196	-0.024	0.009
-175.983	-25.109	0.240	0.142
-174.969	-163.642	-0.223	-0.011
-173.954	35.872	-0.069	-0.061
-172.939	-93.397	0.228	0.063
-171.925	-100.789	0.064	-0.016
-170.910	-27.329	-0.292	-0.170
-169.896	800.000	0.064	0.194
-168.881	-148.200	-0.180	-0.015
-167.866	4.242	-0.360	-0.264
-166.852	-82.317	0.060	0.020
-165.837	-23.500	0.294	-0.176
-164.823	421.292	0.109	0.234
-163.808	317.039	0.168	0.317
-162.793	-0.342	0.344	0.244
-161.779	152.447	-0.089	0.122
-160.764	-200.000	-0.003	0.190
-159.750	74.547	0.110	0.116
-158.735	-200.000	0.006	-0.185
-157.720	237.710	-0.050	-0.084
-156.706	80.819	0.111	0.120
-155.691	771.475	0.037	0.102
-154.677	-200.000	-0.033	0.255
-153.662	396.134	0.150	-0.313
-152.647	93.110	0.190	-0.214
-151.633	-200.000	-0.020	-0.306
-150.618	70.831	-0.104	0.107
-149.604	-188.569	-0.297	-0.004
-148.589	608.739	-0.083	0.206
-147.574	-105.536	-0.027	-0.006
-146.560	28.700	0.301	0.254
-145.545	-200.000	-0.037	0.201
-144.531	800.000	0.037	0.108
-143.516	1.068	0.137	0.098
-142.502	-12.876	-0.167	0.109
-141.487	-152.243	0.101	0.007
-140.472	-89.547	-0.396	-0.116
-139.458	-13.085	0.103	-0.067
-138.443	467.850	0.010	-0.023
-137.429	-136.704	-0.131	-0.015
-136.414	93.809	0.233	-0.263
-135.399	24.440	0.199	0.164
-134.385	391.595	0.120	0.249
-133.370	137.657	0.109	0.142
-132.356	800.000	0.033	-0.141
-131.341	456.565	0.141	-0.311
-130.326	800.000	-0.099	0.333
-129.312	-33.714	-0.234	0.128
-128.297	-36.778	-0.027	-0.014
-127.283	4.983	-0.015	-0.011
-126.268	99.479	0.133	0.153
-125.253	-200.000	0.015	0.165
-124.239	176.500	-0.116	-0.167
-123.224	363.413	0.200	0.401
-122.210	262.545	-0.087	0.150
-121.195	-50.561	0.184	0.086
