DTS Sentinel unit serial number:	SN413079Multiplexer serial number:	ORYXHardware model number:	OX4-SRSoftware version number:	ORYX F/W v4.00 Oryx Data Collector v3.7.2.0data status	okinstallation	princeton_trtdifferential loss correction	single-endedforward channel	channel 2reverse channel	N/Adate	2019/09/13time	12:07:35forward acquisition time	60.00reverse acquisition time	0.00gamma	496.2192k internal	0.2316k external	0.2316temperature offset calibration	1.0213default loss term (dB/km)	0.3790temperature slope calibration	1.0000multiplexer offset coefficient	1.0000multiplexer slope coefficient	1.0000fibre end	0.00T internal ref (°C)	33.81T ext. ref 1 (°C)	4.61T ext. ref 2 (°C)	31.33length (m)	temperature (°C)	Stokes	anti-Stokes-747.200	147.922	0.205	-0.280
-746.185	-51.527	-0.174	-0.082
-745.171	800.000	-0.051	0.221
-744.156	800.000	0.022	-0.061
-743.142	-200.000	-0.030	-0.202
-742.127	429.185	-0.148	0.323
-741.112	792.889	0.148	0.412
-740.098	-8.056	-0.110	0.075
-739.083	415.052	0.062	-0.134
-738.069	-156.003	-0.162	-0.010
-737.054	-99.023	0.253	0.065
-736.039	570.899	-0.050	-0.124
-735.025	257.360	-0.033	-0.057
-734.010	-200.000	0.039	-0.536
-732.996	-200.000	0.022	0.273
-731.981	-85.000	0.325	0.103
-730.966	-61.450	0.206	0.088
-729.952	-36.048	-0.225	0.123
-728.937	-166.794	-0.197	0.008
-727.923	82.630	-0.055	-0.061
-726.908	-200.000	0.082	-0.521
-725.894	-120.344	-0.108	0.019
-724.879	-200.000	0.042	0.434
-723.864	-71.907	0.179	-0.067
-722.850	-109.722	0.237	0.051
-721.835	75.141	-0.067	-0.071
-720.821	69.921	-0.167	0.174
-719.806	-200.000	-0.011	0.125
-718.791	-51.287	-0.254	0.120
-717.777	-155.885	0.156	-0.010
-716.762	112.685	-0.119	-0.146
-715.748	264.635	0.147	-0.260
-714.733	-200.000	-0.022	-0.148
-713.718	-98.068	-0.299	0.078
-712.704	780.225	-0.020	-0.056
-711.689	-65.292	-0.024	0.010
-710.675	-64.747	-0.196	-0.080
-709.660	200.673	0.167	-0.260
-708.645	-170.191	-0.123	-0.004
-707.631	368.587	-0.089	0.183
-706.616	-70.214	-0.243	-0.093
-705.602	-79.964	0.168	-0.057
-704.587	-200.000	0.051	-0.310
-703.572	297.630	0.110	-0.204
-702.558	62.308	0.244	0.247
-701.543	-200.000	0.039	0.330
-700.529	-35.221	-0.253	0.139
-699.514	387.099	-0.083	0.174
-698.499	-200.000	0.032	0.197
-697.485	-122.816	0.103	0.017
-696.470	252.518	-0.139	-0.240
-695.456	-200.000	-0.034	-0.173
-694.441	-200.000	0.016	-0.120
-693.426	-134.179	-0.112	-0.014
-692.412	-83.535	0.176	-0.057
-691.397	-5.425	-0.191	-0.133
-690.383	144.808	0.160	-0.216
-689.368	50.966	0.150	-0.143
-688.354	-200.000	0.007	0.080
-687.339	-200.000	-0.038	0.185
-686.324	474.820	0.070	0.159
-685.310	-200.000	-0.002	0.103
-684.295	86.545	-0.404	0.450
-683.281	313.617	-0.116	0.221
-682.266	2.798	-0.090	0.066
-681.251	4.961	-0.307	0.228
-680.237	-133.806	0.311	-0.039
-679.222	-73.392	0.270	0.100
-678.208	-80.389	0.072	-0.024
-677.193	-69.346	-0.178	0.069
-676.178	-146.000	-0.234	-0.021
-675.164	1.808	0.119	-0.087
-674.149	262.878	0.094	0.165
-673.135	800.000	0.124	-0.505
-672.120	-109.605	-0.376	-0.080
-671.105	249.656	0.101	0.174
-670.091	-17.096	-0.157	0.100
-669.076	6.433	0.115	0.086
-668.062	612.747	-0.028	-0.071
-667.047	41.379	-0.076	-0.069
-666.032	-150.612	-0.194	-0.015
-665.018	-200.000	-0.024	-0.210
-664.003	-20.323	0.231	0.144
-662.989	2.278	0.085	0.062
-661.974	-29.608	-0.175	-0.101
-660.959	-200.000	-0.002	-0.065
-659.945	-32.265	0.091	0.051
-658.930	-10.968	0.212	0.141
-657.916	-61.980	0.101	0.043
-656.901	800.000	-0.069	-0.216
-655.886	117.657	0.078	-0.097
-654.872	-200.000	-0.014	-0.241
-653.857	728.054	-0.088	0.237
-652.843	-182.105	0.335	-0.006
-651.828	-139.494	0.265	-0.029
-650.814	14.924	-0.089	-0.070
-649.799	16.881	0.166	0.133
-648.784	-40.645	0.135	0.071
-647.770	-200.000	-0.012	0.118
-646.755	-200.000	-0.006	-0.115
-645.741	-38.016	-0.059	0.032
-644.726	-97.861	0.492	0.128
-643.711	800.000	-0.173	0.487
-642.697	433.762	-0.007	0.016
-641.682	-200.000	-0.008	-0.140
-640.668	800.000	-0.025	-0.081
-639.653	19.933	-0.053	-0.043
-638.638	-49.363	-0.324	0.156
-637.624	292.492	0.141	-0.258
-636.609	247.800	0.107	-0.183
-635.595	-80.800	-0.140	-0.047
-634.580	-108.539	0.214	0.047
-633.565	25.956	-0.057	-0.048
-632.551	-88.325	-0.116	0.035
-631.536	101.798	0.162	0.191
-630.522	-107.988	-0.259	0.057
-629.507	373.369	-0.076	0.156
-628.492	707.184	-0.056	-0.149
-627.478	333.739	-0.059	-0.115
-626.463	-71.592	0.076	0.029
-625.449	-97.775	-0.313	0.082
-624.434	-40.852	-0.223	0.116
-623.419	18.899	-0.125	0.101
-622.405	30.971	0.116	0.100
-621.390	157.090	0.043	0.060
-620.376	-127.029	0.074	0.011
-619.361	35.863	-0.172	0.153
-618.346	-121.522	-0.200	0.033
-617.332	221.151	-0.108	-0.174
-616.317	-157.458	0.118	0.007
-615.303	-80.176	-0.346	0.117
-614.288	-153.230	0.239	0.017
-613.273	12.223	-0.142	-0.110
-612.259	-200.000	-0.043	-0.263
-611.244	-200.000	0.014	0.078
-610.230	-200.000	0.026	0.119
-609.215	-200.000	-0.062	-0.428
-608.201	-94.476	0.130	0.036
-607.186	-70.361	-0.055	-0.021
-606.171	-200.000	0.020	-0.143
-605.157	21.482	0.149	-0.122
-604.142	800.000	-0.017	0.051
-603.128	-200.000	-0.026	-0.169
-602.113	-26.216	-0.210	0.124
-601.098	-51.053	0.362	-0.171
-600.084	-120.169	0.044	0.008
-599.069	-200.000	0.040	-0.239
-598.055	-26.642	-0.075	-0.044
-597.040	6.847	-0.193	-0.145
-596.025	155.597	0.163	-0.226
-595.011	-200.000	0.033	-0.166
-593.996	-200.000	0.001	0.056
-592.982	-26.662	-0.312	0.184
-591.967	-6.831	0.222	0.152
-590.952	133.309	-0.167	-0.218
-589.938	256.179	0.110	-0.191
-588.923	800.000	0.057	0.190
-587.909	-63.068	-0.230	-0.096
-586.894	-200.000	0.023	-0.384
-585.879	-61.777	-0.199	0.084
-584.865	-200.000	0.004	-0.129
-583.850	-200.000	-0.004	0.025
-582.836	731.555	0.064	-0.172
-581.821	-60.855	0.156	-0.066
-580.806	279.928	-0.082	-0.148
-579.792	-200.000	-0.004	0.233
-578.777	29.652	0.222	0.190
-577.763	-200.000	-0.056	0.283
-576.748	45.489	-0.234	0.217
-575.733	-200.000	0.010	0.117
-574.719	-163.987	-0.084	-0.004
-573.704	67.277	-0.344	-0.353
-572.690	200.893	-0.118	-0.182
-571.675	113.126	0.110	-0.135
-570.661	-72.016	-0.404	-0.151
-569.646	-200.000	-0.001	-0.045
-568.631	-200.000	-0.001	-0.178
-567.617	-200.000	0.037	0.190
-566.602	83.511	-0.134	0.147
-565.588	14.167	0.078	-0.061
-564.573	22.781	0.286	-0.236
-563.558	208.593	-0.320	-0.504
-562.544	-142.813	0.497	-0.049
-561.529	800.000	0.025	0.098
-560.515	46.578	0.255	-0.238
-559.500	800.000	-0.085	-0.271
-558.485	-81.884	-0.385	0.127
-557.471	-200.000	0.019	-0.159
-556.456	-200.000	-0.074	0.434
-555.442	-1.447	0.041	-0.029
-554.427	5.362	0.313	-0.232
-553.412	-200.000	-0.009	0.104
-552.398	-200.000	-0.006	-0.052
-551.383	-30.539	0.102	0.058
-550.369	22.846	0.083	0.068
-549.354	800.000	0.132	0.389
-548.339	-82.423	0.136	0.044
-547.325	-200.000	0.014	-0.433
-546.310	96.002	0.028	0.032
-545.296	-73.237	0.395	0.145
-544.281	-62.284	0.379	0.159
-543.266	-0.790	-0.082	0.059
-542.252	-111.466	-0.116	0.024
-541.237	-200.000	-0.013	-0.236
-540.223	-120.632	0.191	-0.032
-539.208	-12.050	0.139	0.091
-538.193	225.251	-0.081	-0.131
-537.179	7.371	0.284	0.213
-536.164	-112.465	-0.256	0.051
-535.150	93.634	0.123	0.140
-534.135	-150.074	-0.121	-0.009
-533.121	39.894	0.065	0.059
-532.106	163.861	-0.095	0.134
-531.091	271.873	-0.187	0.331
-530.077	-16.924	0.165	-0.105
-529.062	237.137	-0.022	-0.037
-528.048	-19.759	-0.177	0.110
-527.033	800.000	0.109	0.442
-526.018	-150.600	-0.278	-0.021
-525.004	-131.921	0.069	-0.009
-523.989	-200.000	-0.007	0.072
-522.975	-42.189	0.130	0.067
-521.960	67.228	0.122	-0.125
-520.945	-50.043	-0.170	-0.081
-519.931	-26.529	-0.108	-0.063
-518.916	-40.614	-0.096	-0.050
-517.902	-76.174	0.141	0.050
-516.887	-200.000	-0.023	-0.173
-515.872	115.914	0.055	0.067
-514.858	-101.526	0.112	-0.027
-513.843	127.572	0.253	-0.322
-512.829	-78.818	-0.114	-0.039
-511.814	625.425	0.067	0.169
-510.799	12.828	0.213	-0.165
-509.785	-22.194	-0.251	0.153
-508.770	-103.153	-0.126	-0.030
-507.756	-101.814	0.252	0.061
-506.741	503.460	-0.129	0.299
-505.726	-35.079	-0.033	0.018
-504.712	-101.560	-0.466	-0.114
-503.697	-139.075	-0.117	-0.013
-502.683	-35.341	-0.131	-0.072
-501.668	-200.000	-0.008	-0.222
-500.653	57.960	0.295	-0.290
-499.639	-124.957	0.086	0.013
-498.624	115.144	0.108	0.133
-497.610	-200.000	0.024	0.160
-496.595	152.013	0.275	-0.376
-495.581	-29.937	0.180	0.103
-494.566	-97.539	0.178	-0.046
-493.551	-62.649	-0.145	0.061
-492.537	753.347	0.024	0.064
-491.522	92.399	-0.167	-0.189
-490.508	-153.061	-0.038	-0.003
-489.493	-156.586	0.438	0.027
-488.478	-200.000	-0.002	-0.133
-487.464	548.543	-0.032	0.076
-486.449	-50.786	0.019	-0.009
-485.435	800.000	0.080	0.325
-484.420	11.715	-0.028	0.022
-483.405	-200.000	0.050	-0.337
-482.391	65.076	0.271	-0.275
-481.376	-19.598	-0.198	-0.123
-480.362	208.159	0.117	-0.184
-479.347	567.186	0.106	-0.259
-478.332	-191.286	-0.230	-0.002
-477.318	-200.000	0.018	-0.086
-476.303	800.000	-0.101	0.352
-475.289	800.000	0.005	-0.015
-474.274	482.055	-0.160	0.365
-473.259	-142.337	-0.215	0.021
-472.245	-73.294	0.035	-0.013
-471.230	-67.035	0.319	0.126
-470.216	-22.789	0.121	0.073
-469.201	38.175	0.117	-0.104
-468.186	282.495	-0.158	-0.283
-467.172	-70.839	-0.327	0.124
-466.157	800.000	0.139	0.402
-465.143	-34.660	-0.367	0.201
-464.128	-123.072	-0.393	-0.063
-463.113	-39.904	-0.070	0.037
-462.099	-102.455	-0.330	0.079
-461.084	-37.321	0.063	0.034
-460.070	-200.000	0.025	-0.254
-459.055	24.215	0.281	-0.233
-458.040	87.112	-0.092	0.102
-457.026	534.924	-0.057	-0.135
-456.011	-160.153	0.192	0.010
-454.997	-200.000	0.013	-0.166
-453.982	37.728	-0.257	0.229
-452.968	-87.333	-0.249	0.076
-451.953	-40.693	0.127	-0.066
-450.938	-196.973	-0.146	0.001
-449.924	-144.411	-0.079	0.007
-448.909	-137.700	0.200	0.022
-447.895	-44.846	-0.140	0.070
-446.880	322.512	0.023	-0.043
-445.865	328.412	0.124	-0.238
-444.851	202.010	-0.114	0.176
-443.836	-92.109	-0.067	0.019
-442.822	29.969	-0.207	-0.177
-441.807	-51.312	-0.297	-0.139
-440.792	350.363	-0.091	0.180
-439.778	86.944	-0.055	0.061
-438.763	54.183	-0.228	-0.219
-437.749	-89.277	0.051	-0.015
-436.734	-22.146	-0.088	0.053
-435.719	296.412	-0.225	0.412
-434.705	-122.310	0.147	0.024
-433.690	-200.000	0.016	-0.367
-432.676	-200.000	0.056	-0.263
-431.661	-44.867	0.223	0.111
-430.646	83.244	0.099	-0.108
-429.632	120.360	0.208	-0.258
-428.617	-200.000	-0.014	-0.080
-427.603	360.358	0.136	-0.272
-426.588	-178.020	-0.122	-0.003
-425.573	87.825	-0.071	0.079
-424.559	-86.252	-0.100	0.031
-423.544	102.719	-0.267	0.312
-422.530	-24.068	0.249	0.149
-421.515	-66.873	-0.107	-0.042
-420.500	-74.984	0.370	0.133
-419.486	30.597	-0.055	0.047
-418.471	-33.692	-0.230	-0.127
-417.457	111.067	-0.097	0.117
-416.442	-133.090	-0.149	0.019
-415.428	-70.435	0.187	-0.071
-414.413	110.754	-0.091	0.109
-413.398	-21.860	-0.133	-0.081
-412.384	800.000	0.022	0.071
-411.369	-200.000	0.073	-0.328
-410.355	166.378	-0.184	-0.261
-409.340	170.336	-0.178	0.254
-408.325	-121.567	0.234	0.039
-407.311	-71.354	0.252	-0.095
-406.296	-112.863	-0.177	0.035
-405.282	-57.116	0.260	0.115
-404.267	-88.356	-0.084	0.025
-403.252	274.978	0.077	0.137
-402.238	256.709	-0.027	0.047
-401.223	-200.000	-0.077	-0.341
-400.209	-2.830	0.146	-0.102
-399.194	260.170	-0.042	-0.072
-398.179	413.519	0.081	0.173
-397.165	216.272	-0.154	0.245
-396.150	419.082	-0.065	-0.139
-395.136	800.000	-0.065	-0.253
-394.121	-60.452	-0.062	-0.026
-393.106	-99.129	-0.318	-0.080
-392.092	190.623	-0.125	-0.188
-391.077	223.794	-0.138	-0.222
-390.063	-78.279	0.063	0.022
-389.048	-200.000	-0.389	-0.000
-388.033	-95.030	-0.360	-0.097
-387.019	-200.000	0.053	-0.276
-386.004	-67.165	0.262	0.103
-384.990	-13.175	0.252	0.164
-383.975	-22.435	-0.104	-0.063
-382.960	32.600	0.261	0.225
-381.946	61.232	0.178	0.177
-380.931	-200.000	0.014	0.202
-379.917	-131.397	0.112	0.015
-378.902	145.203	-0.083	0.111
-377.888	12.727	-0.281	0.217
-376.873	-114.258	-0.252	-0.049
-375.858	282.802	0.124	-0.223
-374.844	462.523	-0.091	0.202
-373.829	3.458	-0.269	-0.196
-372.815	-41.780	0.113	-0.058
-371.800	48.513	-0.176	-0.164
-370.785	-200.000	-0.063	0.283
-369.771	201.585	0.113	-0.174
-368.756	133.388	-0.021	-0.027
-367.742	243.470	0.180	-0.301
-366.727	-69.537	-0.461	-0.176
-365.712	464.876	-0.095	-0.213
-364.698	26.354	-0.171	0.142
-363.683	-52.675	-0.100	0.046
-362.669	126.275	-0.141	0.178
-361.654	177.364	0.067	-0.098
-360.639	-200.000	0.004	-0.092
-359.625	-67.102	0.249	0.098
-358.610	-71.777	0.156	-0.058
-357.596	800.000	0.003	0.009
-356.581	445.900	-0.046	-0.102
-355.566	-200.000	0.007	0.198
-354.552	355.769	0.213	-0.423
-353.537	165.534	0.199	0.280
-352.523	34.488	-0.080	0.070
-351.508	-59.641	0.193	-0.083
-350.493	316.022	-0.044	-0.083
-349.479	-183.010	0.281	-0.005
-348.464	113.330	-0.180	0.218
-347.450	-200.000	-0.008	-0.047
-346.435	-124.232	-0.320	0.050
-345.420	291.935	-0.072	-0.131
-344.406	-200.000	0.007	0.110
-343.391	-115.613	0.228	0.043
-342.377	120.611	-0.146	0.180
-341.362	800.000	-0.029	-0.085
-340.348	461.627	0.090	0.201
-339.333	800.000	0.139	0.454
-338.318	800.000	0.126	0.439
-337.304	348.040	0.073	-0.143
-336.289	-33.989	-0.016	-0.009
-335.275	-200.000	-0.012	0.173
-334.260	364.246	-0.067	0.135
-333.245	-65.000	0.354	-0.142
-332.231	-200.000	-0.083	-0.557
-331.216	-200.000	-0.017	-0.144
-330.202	304.105	0.223	-0.412
-329.187	-133.587	-0.061	0.008
-328.172	-64.579	0.093	-0.038
-327.158	346.840	0.123	-0.241
-326.143	-144.077	-0.345	-0.032
-325.129	-91.834	-0.097	-0.028
-324.114	-200.000	0.006	-0.212
-323.099	-119.870	0.221	-0.038
-322.085	245.123	-0.270	-0.452
-321.070	163.328	0.122	0.171
-320.056	233.888	0.151	-0.248
-319.041	-200.000	-0.002	-0.025
-318.026	-200.000	0.000	0.174
-317.012	-101.112	0.199	-0.049
-315.997	260.034	0.067	-0.115
-314.983	-159.691	0.358	-0.020
-313.968	107.359	-0.015	0.017
-312.953	-42.456	0.151	0.077
-311.939	-200.000	-0.057	-0.364
-310.924	11.696	-0.215	0.165
-309.910	16.515	0.181	0.142
-308.895	-200.000	-0.015	0.176
-307.880	672.398	0.055	-0.141
-306.866	4.832	0.376	0.275
-305.851	800.000	0.004	0.018
-304.837	197.514	0.012	0.018
-303.822	1.711	-0.146	0.105
-302.807	-200.000	0.013	-0.181
-301.793	-36.558	-0.164	0.088
-300.778	-108.991	-0.270	-0.057
-299.764	-70.636	-0.182	0.068
-298.749	671.046	0.119	-0.306
-297.735	-35.763	-0.222	0.120
-296.720	-200.000	0.004	-0.142
-295.705	800.000	0.037	0.156
-294.691	239.421	0.083	-0.138
-293.676	-83.071	0.252	-0.081
-292.662	-200.000	-0.050	0.225
-291.647	139.977	-0.178	0.233
-290.632	-153.853	-0.147	0.010
-289.618	16.117	0.156	0.123
-288.603	234.676	0.036	-0.058
-287.589	54.951	0.178	0.171
-286.574	-99.037	0.065	0.016
-285.559	-82.301	-0.287	-0.093
-284.545	-200.000	-0.015	-0.101
-283.530	-200.000	0.030	-0.190
-282.516	800.000	-0.032	-0.134
-281.501	-12.408	0.067	0.044
-280.486	-115.916	-0.137	-0.025
-279.472	800.000	0.059	-0.249
-278.457	9.440	0.290	0.219
-277.443	191.239	-0.125	-0.188
-276.428	501.019	-0.035	0.081
-275.413	-200.000	0.001	-0.251
-274.399	226.894	-0.133	-0.215
-273.384	-120.728	0.218	0.037
-272.370	-153.880	0.174	-0.012
-271.355	51.976	-0.212	0.201
-270.340	-44.916	0.193	0.096
-269.326	-200.000	-0.013	-0.164
-268.311	-23.571	-0.427	0.254
-267.297	136.093	0.106	0.138
-266.282	-47.152	0.261	-0.127
-265.267	23.705	-0.150	0.123
-264.253	-151.624	-0.207	0.015
-263.238	-2.922	0.099	0.069
-262.224	-95.949	0.243	-0.064
-261.209	38.931	0.069	0.061
-260.195	79.455	-0.079	0.084
-259.180	-22.224	-0.016	-0.009
-258.165	29.025	-0.043	0.036
-257.151	-58.118	0.199	0.086
-256.136	-165.019	-0.187	-0.008
-255.122	-111.481	-0.188	-0.038
-254.107	33.395	-0.118	0.101
-253.092	-200.000	-0.046	-0.365
-252.078	388.118	0.016	-0.032
-251.063	619.046	0.062	0.155
-250.049	653.835	0.012	0.029
-249.034	76.687	-0.183	0.192
-248.019	800.000	0.053	0.178
-247.005	-2.083	0.102	0.071
-245.990	274.404	-0.226	0.398
-244.976	800.000	0.076	0.250
-243.961	-200.000	-0.008	0.043
-242.946	6.905	0.253	0.187
-241.932	108.124	0.036	0.043
-240.917	-23.151	-0.070	0.042
-239.903	-100.513	-0.321	0.079
-238.888	197.096	-0.194	0.294
-237.873	-200.000	0.082	0.000
-236.859	-40.012	-0.173	-0.090
-235.844	-146.874	0.475	-0.041
-234.830	106.737	0.270	0.318
-233.815	-64.965	-0.165	0.066
-232.800	-8.645	-0.077	-0.051
-231.786	468.487	-0.250	0.557
-230.771	-123.008	0.258	-0.041
-229.757	417.621	0.157	-0.333
-228.742	-70.673	-0.149	0.056
-227.727	-7.644	0.254	0.170
-226.713	-132.502	0.084	0.011
-225.698	249.944	-0.212	0.356
-224.684	765.267	-0.061	0.165
-223.669	21.935	-0.204	-0.165
-222.655	-70.627	0.100	0.037
-221.640	-113.731	0.211	0.041
-220.625	-137.025	0.240	0.027
-219.611	102.110	-0.014	-0.017
-218.596	131.176	-0.079	-0.101
-217.582	-200.000	0.038	-0.280
-216.567	36.957	0.428	0.376
-215.552	-80.071	-0.317	0.105
-214.538	525.254	0.026	-0.060
-213.523	-118.233	-0.234	0.041
-212.509	6.413	0.175	0.129
-211.494	-104.145	-0.388	-0.089
-210.479	-132.661	0.260	-0.033
-209.465	-127.500	0.022	-0.003
-208.450	-200.000	-0.015	0.166
-207.436	-35.371	-0.187	-0.101
-206.421	-25.254	0.268	-0.157
-205.406	800.000	-0.064	0.178
-204.392	272.689	-0.095	-0.167
-203.377	-177.456	0.150	-0.004
-202.363	800.000	0.102	-0.331
-201.348	-123.753	0.170	0.027
-200.333	36.411	0.201	0.176
-199.319	-113.227	-0.148	0.029
-198.304	-23.480	-0.262	0.156
-197.290	-144.833	-0.297	-0.027
-196.275	-11.454	-0.231	-0.151
-195.260	127.881	-0.306	0.386
-194.246	27.786	0.145	0.121
-193.231	60.140	-0.102	0.100
-192.217	-200.000	0.032	-0.219
-191.202	272.097	0.071	-0.125
-190.187	-31.385	-0.190	-0.106
-189.173	-116.986	0.125	0.023
-188.158	800.000	-0.009	-0.028
-187.144	-200.000	-0.054	0.378
-186.129	800.000	-0.031	-0.096
-185.114	-42.785	0.283	-0.143
-184.100	-36.309	0.224	0.119
-183.085	184.212	-0.201	0.294
-182.071	201.813	-0.021	0.032
-181.056	94.021	0.216	0.243
-180.042	-29.188	0.515	-0.292
-179.027	-53.364	0.074	-0.033
-178.012	-199.651	0.180	0.001
-176.998	-200.000	-0.003	0.062
-175.983	-2.479	0.234	-0.162
-174.969	-34.841	-0.188	-0.102
-173.954	-200.000	-0.011	0.203
-172.939	22.574	-0.159	-0.129
-171.925	381.746	0.072	-0.147
-170.910	145.813	0.093	-0.124
-169.896	121.184	0.128	0.158
-168.881	156.230	0.300	0.410
-167.866	800.000	-0.097	0.293
-166.852	-138.744	0.332	-0.036
-165.837	-39.668	0.368	-0.191
-164.823	-200.000	-0.008	0.084
-163.808	-155.470	-0.142	0.009
-162.793	-2.650	0.203	0.141
-161.779	-159.728	-0.252	-0.014
-160.764	800.000	0.042	-0.139
-159.750	468.333	0.052	0.116
-158.735	-86.895	0.216	-0.065
-157.720	171.509	-0.130	-0.184
-156.706	-138.343	0.429	0.047
-155.691	224.148	-0.066	-0.105
-154.677	-140.852	-0.129	-0.013
-153.662	22.318	-0.090	-0.073
-152.647	-99.676	-0.095	0.024
-151.633	-200.000	0.038	0.246
-150.618	628.550	-0.071	0.179
-149.604	386.325	0.151	0.308
-148.589	83.033	-0.371	-0.400
-147.574	104.603	-0.060	-0.070
-146.560	-200.000	0.088	-0.416
-145.545	-4.853	-0.424	0.289
-144.531	14.564	0.219	-0.169
-143.516	-93.124	0.222	0.061
-142.502	800.000	0.113	-0.346
-141.487	556.630	-0.081	0.192
-140.472	-200.000	-0.018	0.186
-139.458	504.951	-0.095	0.218
-138.443	800.000	0.134	0.425
-137.429	-200.000	0.005	0.127
-136.414	-200.000	0.017	0.076
-135.399	25.423	-0.144	-0.118
-134.385	-36.986	0.191	-0.101
-133.370	-200.000	0.000	-0.030
-132.356	-59.430	0.058	0.025
-131.341	657.980	-0.055	0.139
-130.326	-117.678	-0.235	0.042
-129.312	-138.225	-0.297	-0.032
-128.297	-200.000	0.080	0.395
-127.283	-37.403	0.129	-0.068
-126.268	143.807	0.087	0.114
-125.253	7.537	-0.072	-0.053
-124.239	-10.134	0.074	-0.048
-123.224	6.007	-0.240	-0.176
-122.210	-89.453	0.178	0.052
-121.195	-157.450	0.298	0.018
