DTS Sentinel unit serial number:	SN413079Multiplexer serial number:	ORYXHardware model number:	OX4-SRSoftware version number:	ORYX F/W v4.00 Oryx Data Collector v3.7.2.0data status	okinstallation	princeton_trtdifferential loss correction	single-endedforward channel	channel 2reverse channel	N/Adate	2019/09/14time	18:43:35forward acquisition time	60.00reverse acquisition time	0.00gamma	496.2192k internal	0.2319k external	0.2319temperature offset calibration	1.0104default loss term (dB/km)	0.3790temperature slope calibration	1.0000multiplexer offset coefficient	1.0000multiplexer slope coefficient	1.0000fibre end	0.00T internal ref (°C)	36.17T ext. ref 1 (°C)	4.93T ext. ref 2 (°C)	29.90length (m)	temperature (°C)	Stokes	anti-Stokes-747.200	69.879	0.191	-0.199
-746.185	202.640	0.097	-0.151
-745.171	-200.000	-0.028	-0.162
-744.156	-65.696	0.249	-0.101
-743.142	-200.000	-0.041	-0.254
-742.127	137.448	0.179	-0.237
-741.112	14.065	-0.034	-0.027
-740.098	-19.187	0.048	0.030
-739.083	-95.588	-0.255	0.069
-738.069	386.761	-0.083	-0.174
-737.054	-34.118	-0.205	0.114
-736.039	-117.612	0.235	0.043
-735.025	-37.924	0.134	0.072
-734.010	-62.039	-0.090	0.038
-732.996	205.520	-0.208	-0.326
-731.981	-115.263	-0.093	-0.018
-730.966	251.128	0.094	0.162
-729.952	-48.376	-0.336	-0.164
-728.937	219.978	-0.065	0.106
-727.923	-14.270	0.247	-0.161
-726.908	800.000	0.029	-0.110
-725.894	-16.834	0.166	0.106
-724.879	-200.000	-0.014	0.181
-723.864	51.012	-0.060	-0.057
-722.850	-200.000	-0.001	-0.146
-721.835	800.000	-0.032	0.128
-720.821	-28.393	-0.358	0.209
-719.806	85.171	-0.267	0.296
-718.791	494.696	-0.133	0.310
-717.777	-68.721	-0.081	0.032
-716.762	552.048	0.109	-0.264
-715.748	-63.670	-0.186	0.077
-714.733	178.791	-0.120	-0.176
-713.718	47.542	0.039	0.037
-712.704	201.405	0.054	0.084
-711.689	-56.200	-0.148	0.067
-710.675	104.436	0.145	0.172
-709.660	44.053	-0.200	-0.185
-708.645	-102.899	0.494	0.119
-707.631	182.872	0.108	0.161
-706.616	411.460	-0.120	-0.257
-705.602	800.000	0.087	-0.263
-704.587	-154.294	-0.277	-0.019
-703.572	800.000	0.129	0.478
-702.558	161.664	-0.127	0.179
-701.543	-50.051	0.120	0.057
-700.529	800.000	-0.053	-0.156
-699.514	-200.000	-0.044	-0.303
-698.499	652.637	0.067	0.174
-697.485	-81.246	-0.318	0.106
-696.470	160.537	-0.040	-0.056
-695.456	-200.000	0.001	0.018
-694.441	-200.000	-0.061	-0.404
-693.426	382.166	-0.159	-0.331
-692.412	-97.791	-0.053	0.014
-691.397	3.712	-0.264	-0.195
-690.383	-140.395	-0.514	-0.054
-689.368	-63.748	-0.354	0.146
-688.354	-109.454	-0.144	0.031
-687.339	800.000	-0.031	-0.113
-686.324	-114.089	-0.408	0.080
-685.310	-200.000	-0.007	-0.245
-684.295	-58.965	0.134	-0.059
-683.281	144.237	0.087	0.117
-682.266	-200.000	-0.037	0.367
-681.251	800.000	-0.053	0.181
-680.237	-162.577	-0.033	-0.002
-679.222	-200.000	-0.047	0.403
-678.208	-72.268	0.336	0.126
-677.193	23.233	-0.188	0.156
-676.178	800.000	0.038	-0.114
-675.164	-108.647	-0.446	-0.096
-674.149	800.000	0.051	-0.199
-673.135	800.000	0.042	-0.120
-672.120	636.447	-0.032	0.082
-671.105	-200.000	0.027	0.196
-670.091	111.687	-0.187	-0.228
-669.076	-88.972	0.050	-0.015
-668.062	332.167	0.090	-0.175
-667.047	-47.047	-0.304	0.150
-666.032	-118.854	0.034	0.006
-665.018	-200.000	-0.006	0.133
-664.003	-129.813	0.216	0.030
-662.989	-114.860	0.375	0.072
-661.974	151.463	-0.019	0.026
-660.959	423.440	-0.039	0.084
-659.945	-200.000	0.030	0.312
-658.930	-64.677	0.565	0.231
-657.916	800.000	0.062	-0.202
-656.901	229.353	-0.085	-0.140
-655.886	90.509	0.105	-0.118
-654.872	-200.000	-0.007	-0.262
-653.857	-68.919	0.079	0.031
-652.843	367.908	-0.138	-0.281
-651.828	-56.336	0.283	-0.127
-650.814	22.707	-0.144	-0.119
-649.799	-44.458	0.100	0.051
-648.784	-8.138	0.223	-0.151
-647.770	7.700	-0.233	0.175
-646.755	-108.571	-0.363	-0.079
-645.741	-93.386	0.204	0.057
-644.726	800.000	-0.136	-0.414
-643.711	-79.643	-0.122	0.042
-642.697	-200.000	-0.007	-0.125
-641.682	-22.798	-0.326	-0.198
-640.668	-53.322	0.143	0.066
-639.653	112.138	-0.181	-0.221
-638.638	-200.000	0.010	0.106
-637.624	-5.379	-0.279	0.193
-636.609	475.531	-0.136	-0.309
-635.595	-200.000	0.068	0.302
-634.580	-200.000	0.026	0.211
-633.565	319.616	-0.043	0.082
-632.551	800.000	0.154	-0.440
-631.536	-124.967	0.225	-0.035
-630.522	800.000	-0.022	-0.066
-629.507	423.578	0.051	-0.111
-628.492	112.646	-0.148	0.180
-627.478	-200.000	-0.014	0.183
-626.463	61.235	0.199	-0.199
-625.449	328.638	0.046	-0.088
-624.434	-192.996	-0.044	0.000
-623.419	-30.958	-0.223	-0.127
-622.405	227.750	0.199	-0.326
-621.390	-74.457	0.281	0.102
-620.376	-200.000	-0.010	0.168
-619.361	-192.531	0.285	0.003
-618.346	-31.379	-0.177	0.100
-617.332	-100.847	0.250	0.062
-616.317	-144.944	-0.215	-0.020
-615.303	-31.396	-0.329	-0.186
-614.288	-105.686	0.128	-0.029
-613.273	-40.444	-0.124	-0.065
-612.259	-143.999	0.209	-0.020
-611.244	-95.915	-0.175	0.047
-610.230	-86.784	0.388	0.119
-609.215	800.000	-0.060	-0.174
-608.201	-200.000	0.022	-0.149
-607.186	-10.231	0.126	-0.084
-606.171	-74.596	-0.103	0.037
-605.157	800.000	-0.052	0.157
-604.142	-87.311	-0.116	-0.035
-603.128	-200.000	0.017	0.215
-602.113	89.008	0.123	-0.138
-601.098	-200.000	0.010	0.070
-600.084	322.003	0.152	-0.291
-599.069	-200.000	0.052	-0.233
-598.055	-86.711	0.102	-0.031
-597.040	-88.589	0.296	-0.089
-596.025	169.737	0.190	-0.273
-595.011	-200.000	0.033	-0.282
-593.996	-200.000	0.042	-0.288
-592.982	108.429	0.045	-0.054
-591.967	-81.077	0.068	0.023
-590.952	800.000	-0.133	-0.498
-589.938	-61.062	0.157	0.067
-588.923	-200.000	-0.013	-0.080
-587.909	-99.140	-0.348	-0.088
-586.894	-82.829	0.332	0.108
-585.879	120.119	-0.125	-0.157
-584.865	800.000	0.024	-0.093
-583.850	-43.807	-0.334	-0.169
-582.836	117.518	0.208	0.257
-581.821	-91.227	-0.289	-0.083
-580.806	800.000	-0.052	0.166
-579.792	198.812	-0.053	0.082
-578.777	453.616	-0.096	0.213
-577.763	-200.000	0.001	-0.084
-576.748	-23.655	-0.006	-0.004
-575.733	-200.000	-0.026	0.226
-574.719	-121.583	0.101	-0.017
-573.704	-112.762	-0.122	0.024
-572.690	-130.210	-0.199	0.027
-571.675	-118.040	-0.284	-0.051
-570.661	455.544	0.039	-0.087
-569.646	-30.465	0.060	0.034
-568.631	-56.826	-0.431	-0.191
-567.617	198.333	-0.233	0.358
-566.602	-95.646	-0.307	0.082
-565.588	152.430	-0.140	0.192
-564.573	-72.006	0.059	-0.022
-563.558	-72.409	0.034	0.013
-562.544	389.686	0.063	0.131
-561.529	583.233	0.064	0.159
-560.515	69.611	0.226	0.234
-559.500	-81.469	0.191	-0.063
-558.485	60.000	-0.111	-0.110
-557.471	-28.515	-0.218	-0.126
-556.456	-32.635	0.265	-0.148
-555.442	402.971	0.103	0.218
-554.427	-200.000	0.069	0.317
-553.412	800.000	0.066	-0.186
-552.398	303.447	-0.037	-0.069
-551.383	-200.000	-0.005	0.144
-550.369	-200.000	0.265	0.000
-549.354	-200.000	0.011	0.224
-548.339	-200.000	-0.038	0.205
-547.325	177.143	0.130	-0.190
-546.310	800.000	0.039	-0.145
-545.296	50.803	0.128	-0.122
-544.281	180.846	-0.171	0.253
-543.266	-200.000	-0.041	-0.199
-542.252	-13.144	0.202	0.132
-541.237	800.000	-0.067	-0.268
-540.223	-101.129	-0.092	-0.023
-539.208	123.778	0.136	-0.171
-538.193	-150.547	0.162	-0.012
-537.179	-152.712	-0.452	0.032
-536.164	-190.938	-0.366	0.004
-535.150	449.237	-0.031	-0.068
-534.135	-115.422	-0.221	0.042
-533.121	-200.000	0.009	0.133
-532.106	-19.590	0.214	0.133
-531.091	8.390	-0.131	0.099
-530.077	146.349	-0.072	-0.097
-529.062	800.000	0.019	0.055
-528.048	41.407	-0.208	-0.189
-527.033	-32.600	0.186	0.104
-526.018	-63.548	0.224	0.092
-525.004	800.000	0.113	-0.432
-523.989	-21.196	0.225	-0.138
-522.975	5.219	-0.078	-0.058
-521.960	-134.735	-0.451	0.055
-520.945	800.000	0.079	-0.317
-519.931	-96.838	-0.176	-0.046
-518.916	469.107	-0.243	0.546
-517.902	-105.469	-0.229	-0.052
-516.887	-34.192	-0.053	0.029
-515.872	800.000	-0.078	0.289
-514.858	88.510	0.113	-0.125
-513.843	33.182	0.058	-0.050
-512.829	6.903	0.324	-0.242
-511.814	83.594	0.153	-0.167
-510.799	-43.726	-0.111	-0.056
-509.785	-200.000	0.041	-0.182
-508.770	6.252	-0.298	0.222
-507.756	-200.000	-0.041	-0.193
-506.741	190.581	0.217	-0.326
-505.726	-200.000	-0.063	-0.313
-504.712	-111.299	-0.124	-0.025
-503.697	-44.111	-0.101	-0.051
-502.683	548.292	-0.175	0.420
-501.668	-64.765	0.191	0.078
-500.653	-166.535	0.101	-0.004
-499.639	-94.132	-0.234	0.064
-498.624	146.168	-0.132	-0.178
-497.610	597.899	0.061	0.151
-496.595	48.221	0.050	0.047
-495.581	568.432	0.076	0.185
-494.566	399.366	0.056	-0.119
-493.551	54.033	0.129	-0.124
-492.537	-57.719	-0.141	0.062
-491.522	-200.000	-0.269	0.001
-490.508	182.213	-0.193	-0.285
-489.493	-74.603	-0.253	-0.091
-488.478	798.984	0.080	-0.221
-487.464	800.000	-0.059	-0.201
-486.449	623.213	0.067	-0.169
-485.435	-119.877	0.269	-0.046
-484.420	800.000	-0.079	-0.337
-483.405	-33.639	0.092	-0.051
-482.391	-65.175	0.406	0.164
-481.376	165.650	-0.427	-0.604
-480.362	-200.000	-0.037	-0.580
-479.347	-200.000	0.055	0.372
-478.332	800.000	-0.097	0.421
-477.318	-200.000	0.032	0.171
-476.303	800.000	0.066	-0.234
-475.289	18.273	-0.104	-0.083
-474.274	800.000	-0.117	0.337
-473.259	800.000	0.069	0.261
-472.245	-7.131	0.348	0.237
-471.230	307.963	0.097	0.182
-470.216	-200.000	0.013	-0.184
-469.201	-90.619	0.337	0.097
-468.186	0.643	0.349	-0.250
-467.172	-200.000	0.014	-0.357
-466.157	-55.168	-0.160	0.072
-465.143	-200.000	0.060	0.317
-464.128	-110.363	-0.502	0.105
-463.113	-122.515	0.140	-0.023
-462.099	198.977	0.046	-0.070
-461.084	-64.758	0.356	0.144
-460.070	800.000	-0.045	0.156
-459.055	-44.036	-0.180	-0.090
-458.040	-44.196	0.326	-0.163
-457.026	800.000	-0.064	-0.250
-456.011	-49.748	0.044	0.021
-454.997	87.485	0.126	0.139
-453.982	-9.331	-0.096	0.064
-452.968	800.000	0.064	0.194
-451.953	-200.000	0.056	-0.361
-450.938	-141.024	-0.071	0.007
-449.924	-98.010	0.316	0.081
-448.909	-127.608	-0.105	0.015
-447.895	-71.685	-0.102	0.038
-446.880	-40.486	0.100	-0.052
-445.865	800.000	-0.040	-0.114
-444.851	681.345	0.129	-0.337
-443.836	-80.314	-0.111	-0.037
-442.822	281.737	0.141	0.253
-441.807	17.164	0.189	-0.150
-440.792	-114.789	-0.200	0.038
-439.778	-133.024	0.317	-0.040
-438.763	-79.906	0.190	-0.064
-437.749	-136.711	0.126	0.014
-436.734	-27.268	0.127	-0.074
-435.719	-200.000	-0.013	-0.192
-434.705	87.852	0.198	0.219
-433.690	243.108	-0.220	0.368
-432.676	128.068	-0.227	-0.289
-431.661	56.408	0.074	0.072
-430.646	-156.918	-0.281	0.017
-429.632	119.096	0.148	0.183
-428.617	217.381	0.026	0.042
-427.603	-200.000	-0.041	-0.195
-426.588	112.632	-0.139	0.168
-425.573	800.000	-0.072	-0.269
-424.559	21.845	0.320	-0.260
-423.544	-200.000	-0.026	-0.191
-422.530	-200.000	0.018	0.106
-421.515	-111.292	-0.156	0.032
-420.500	62.696	0.018	0.018
-419.486	-72.470	0.160	0.059
-418.471	800.000	0.013	0.039
-417.457	-83.103	0.091	-0.029
-416.442	1.012	0.093	0.066
-415.428	-200.000	0.031	-0.175
-414.413	800.000	-0.033	0.101
-413.398	-38.027	-0.006	-0.003
-412.384	81.337	-0.017	0.018
-411.369	-200.000	-0.006	0.122
-410.355	-123.072	0.261	-0.042
-409.340	434.536	-0.059	-0.127
-408.325	551.458	0.081	0.195
-407.311	-81.476	-0.258	-0.085
-406.296	-105.857	-0.268	-0.060
-405.282	-53.127	0.115	-0.053
-404.267	172.555	0.106	-0.152
-403.252	150.175	0.240	0.325
-402.238	150.994	0.110	-0.149
-401.223	32.443	-0.074	-0.064
-400.209	496.892	-0.028	-0.064
-399.194	-200.000	-0.011	0.237
-398.179	800.000	-0.042	0.168
-397.165	168.302	0.188	0.267
-396.150	800.000	-0.106	-0.352
-395.136	-200.000	-0.038	-0.290
-394.121	-82.638	-0.234	0.076
-393.106	-200.000	-0.068	0.409
-392.092	-88.673	-0.134	0.040
-391.077	-200.000	0.003	0.250
-390.063	-62.979	-0.085	-0.035
-389.048	-33.770	0.234	0.129
-388.033	-108.020	0.242	0.052
-387.019	-90.731	0.255	0.074
-386.004	398.172	0.059	0.124
-384.990	122.380	0.164	0.205
-383.975	750.604	-0.065	0.176
-382.960	-34.161	-0.155	-0.085
-381.946	460.669	0.111	0.247
-380.931	-68.203	-0.154	0.060
-379.917	-148.333	-0.208	0.017
-378.902	-95.209	0.199	-0.053
-377.888	250.221	-0.057	0.097
-376.873	-200.000	-0.000	0.164
-375.858	-12.137	0.156	-0.102
-374.844	-114.995	-0.257	-0.049
-373.829	-56.311	0.341	-0.151
-372.815	-103.051	-0.263	0.062
-371.800	-200.000	0.028	-0.151
-370.785	-83.203	-0.246	0.079
-369.771	-1.945	0.065	0.045
-368.756	-62.462	0.126	-0.052
-367.742	154.275	-0.196	-0.268
-366.727	-46.102	0.046	0.022
-365.712	204.455	0.017	0.027
-364.698	-200.000	-0.053	0.489
-363.683	-28.822	-0.320	0.183
-362.669	800.000	-0.050	0.214
-361.654	-98.677	-0.182	0.046
-360.639	21.913	0.303	-0.246
-359.625	800.000	0.035	-0.109
-358.610	-149.544	-0.088	0.007
-357.596	514.018	0.151	-0.352
-356.581	288.680	0.116	0.210
-355.566	5.149	-0.290	0.213
-354.552	800.000	0.081	-0.287
-353.537	-7.201	-0.151	0.102
-352.523	-123.648	0.192	0.030
-351.508	194.140	0.148	0.224
-350.493	-200.000	0.038	0.174
-349.479	24.201	0.337	0.277
-348.464	-136.938	-0.438	-0.050
-347.450	202.219	0.249	-0.383
-346.435	-13.763	-0.278	0.179
-345.420	-36.375	-0.085	0.046
-344.406	-65.501	0.240	0.096
-343.391	79.189	-0.202	0.215
-342.377	77.704	-0.184	-0.195
-341.362	62.888	-0.250	0.249
-340.348	218.121	-0.057	-0.091
-339.333	-4.157	-0.145	-0.100
-338.318	-200.000	0.003	-0.231
-337.304	61.475	-0.059	0.058
-336.289	150.465	-0.092	-0.124
-335.275	-33.073	0.236	-0.130
-334.260	-18.141	0.056	-0.035
-333.245	240.905	0.077	-0.127
-332.231	67.059	0.215	0.218
-331.216	-200.000	0.007	0.204
-330.202	-116.065	0.245	-0.045
-329.187	-67.065	0.275	0.108
-328.172	-136.888	-0.139	-0.016
-327.158	-200.000	-0.041	-0.181
-326.143	800.000	0.064	-0.268
-325.129	56.514	0.148	-0.143
-324.114	-54.604	0.253	-0.114
-323.099	-60.436	0.101	0.043
-322.085	-52.617	-0.189	-0.087
-321.070	-4.291	0.040	0.028
-320.056	48.262	-0.057	0.053
-319.041	92.552	-0.129	-0.144
-318.026	-91.324	-0.471	-0.134
-317.012	-143.537	0.175	-0.017
-315.997	38.269	-0.107	0.095
-314.983	-51.596	-0.423	-0.197
-313.968	-200.000	0.020	-0.209
-312.953	137.933	-0.154	-0.201
-311.939	8.880	-0.205	-0.154
-310.924	132.974	-0.218	-0.280
-309.910	29.764	-0.233	0.197
-308.895	73.393	-0.128	-0.133
-307.880	-47.324	0.141	-0.068
-306.866	-200.000	0.077	-0.480
-305.851	252.446	-0.228	0.386
-304.837	-22.688	-0.266	0.160
-303.822	303.683	0.029	-0.053
-302.807	-52.208	0.208	0.096
-301.793	140.135	0.126	0.165
-300.778	-67.760	-0.112	0.044
-299.764	111.726	-0.109	0.130
-298.749	-75.555	0.237	-0.084
-297.735	220.965	-0.090	0.144
-296.720	-91.146	0.232	-0.066
-295.705	-156.237	0.205	-0.013
-294.691	-128.199	-0.089	-0.013
-293.676	439.277	0.112	0.244
-292.662	-75.035	0.295	0.105
-291.647	-130.268	0.007	-0.001
-290.632	-200.000	-0.003	0.045
-289.618	-139.260	-0.160	0.017
-288.603	31.380	-0.106	-0.091
-287.589	-35.519	0.129	0.069
-286.574	-61.022	0.078	0.033
-285.559	-104.757	0.063	0.014
-284.545	0.088	-0.066	-0.047
-283.530	800.000	0.011	0.042
-282.516	-18.855	-0.039	0.024
-281.501	-128.141	0.401	0.057
-280.486	138.667	-0.238	0.310
-279.472	-200.000	0.012	-0.153
-278.457	-152.806	0.259	0.018
-277.443	-200.000	-0.001	0.080
-276.428	-200.000	-0.008	-0.177
-275.413	-78.825	0.265	-0.090
-274.399	-103.704	0.342	0.079
-273.384	160.150	0.151	-0.210
-272.370	-200.000	0.037	-0.173
-271.355	67.810	-0.201	0.204
-270.340	-100.972	0.102	0.025
-269.326	800.000	-0.042	0.144
-268.311	148.098	0.053	-0.071
-267.297	-113.614	0.060	-0.012
-266.282	-90.570	-0.193	-0.055
-265.267	80.464	0.188	0.201
-264.253	128.915	-0.169	0.214
-263.238	-200.000	-0.116	0.512
-262.224	23.075	-0.076	0.062
-261.209	328.380	0.166	0.317
-260.195	-151.011	-0.315	0.024
-259.180	103.820	-0.110	0.129
-258.165	-200.000	0.008	0.150
-257.151	155.768	-0.069	0.094
-256.136	-53.847	-0.309	-0.140
-255.122	-52.206	-0.416	-0.192
-254.107	64.393	0.064	0.064
-253.092	113.935	-0.127	-0.153
-252.078	771.542	-0.030	0.082
-251.063	-135.479	-0.267	0.032
-250.049	-90.766	-0.184	0.053
-249.034	22.342	-0.140	0.113
-248.019	-200.000	-0.001	-0.462
-247.005	-200.000	-0.006	-0.247
-245.990	800.000	-0.111	0.412
-244.976	-200.000	-0.002	-0.040
-243.961	428.513	-0.102	-0.219
-242.946	107.088	0.070	0.083
-241.932	162.934	0.200	0.278
-240.917	83.513	-0.112	-0.121
-239.903	800.000	0.100	0.360
-238.888	-200.000	0.020	-0.237
-237.873	800.000	-0.048	0.165
-236.859	144.325	-0.111	-0.146
-235.844	159.346	-0.094	-0.129
-234.830	70.849	-0.064	0.066
-233.815	77.569	0.168	-0.177
-232.800	800.000	0.050	-0.209
-231.786	-184.358	0.137	-0.002
-230.771	48.280	-0.133	-0.123
-229.757	149.541	-0.121	0.162
-228.742	-0.057	0.441	0.312
-227.727	742.628	-0.028	-0.075
-226.713	-114.894	0.209	0.039
-225.698	189.954	-0.070	0.104
-224.684	-200.000	-0.019	0.134
-223.669	800.000	-0.109	-0.461
-222.655	-29.832	0.003	0.002
-221.640	-200.000	0.035	0.373
-220.625	-3.153	-0.084	-0.058
-219.611	-200.000	0.047	-0.250
-218.596	131.284	-0.114	0.146
-217.582	800.000	-0.027	0.103
-216.567	-80.109	-0.127	0.042
-215.552	800.000	0.098	0.268
-214.538	-200.000	0.018	0.319
-213.523	-62.261	0.083	-0.034
-212.509	-69.841	0.186	-0.070
-211.494	-89.107	0.076	0.022
-210.479	242.666	0.120	-0.199
-209.465	-129.168	0.122	0.017
-208.450	388.165	0.102	0.208
-207.436	589.603	-0.083	-0.203
-206.421	-200.000	0.028	-0.154
-205.406	-59.039	0.274	0.117
-204.392	203.515	-0.094	0.144
-203.377	-141.876	-0.111	0.011
-202.363	-56.382	0.066	-0.029
-201.348	-89.148	-0.155	0.045
-200.333	179.573	0.248	0.360
-199.319	103.507	0.187	0.217
-198.304	-94.499	-0.165	-0.045
-197.290	-78.011	0.182	0.062
-196.275	-150.679	0.025	0.002
-195.260	-110.686	-0.559	0.114
-194.246	157.734	0.213	0.292
-193.231	19.925	0.135	0.108
-192.217	109.544	0.179	0.212
-191.202	-149.784	0.288	-0.022
-190.187	-115.936	-0.282	0.052
-189.173	800.000	0.016	-0.062
-188.158	-110.049	0.118	-0.025
-187.144	-123.438	0.127	0.020
-186.129	72.057	0.190	-0.195
-185.114	-200.000	-0.029	-0.129
-184.100	642.071	0.069	0.174
-183.085	800.000	-0.063	0.233
-182.071	-76.760	-0.221	-0.076
-181.056	271.353	-0.080	0.140
-180.042	800.000	0.051	0.189
-179.027	-200.000	0.006	-0.144
-178.012	-200.000	-0.005	-0.023
-176.998	21.683	0.078	0.063
-175.983	433.308	-0.016	-0.035
-174.969	-151.480	0.216	-0.016
-173.954	-130.698	-0.205	-0.027
-172.939	800.000	0.049	0.144
-171.925	-200.000	0.042	0.271
-170.910	-200.000	-0.002	0.123
-169.896	-58.208	0.103	-0.044
-168.881	-155.926	-0.040	0.003
-167.866	-154.110	-0.122	-0.008
-166.852	-6.624	0.169	-0.114
-165.837	8.157	-0.149	-0.111
-164.823	-78.841	-0.242	-0.082
-163.808	-77.363	0.217	-0.075
-162.793	-200.000	0.014	-0.450
-161.779	-28.816	0.196	-0.111
-160.764	104.565	-0.117	-0.137
-159.750	69.353	-0.124	0.126
-158.735	-129.630	0.311	0.042
-157.720	-25.339	0.123	-0.072
-156.706	800.000	-0.070	0.269
-155.691	-9.177	-0.240	0.159
-154.677	-54.745	-0.118	0.053
-153.662	-200.000	0.050	0.265
-152.647	-200.000	0.035	-0.315
-151.633	-200.000	-0.029	0.127
-150.618	356.163	-0.158	0.311
-149.604	800.000	0.138	-0.467
-148.589	-45.604	0.123	-0.060
-147.574	-200.000	0.020	0.214
-146.560	-200.000	-0.012	0.293
-145.545	-86.765	-0.373	-0.113
-144.531	273.225	0.098	0.171
-143.516	-15.942	0.280	-0.176
-142.502	-145.190	-0.056	-0.005
-141.487	-200.000	0.022	-0.224
-140.472	-86.575	-0.065	-0.020
-139.458	-117.232	-0.261	0.047
-138.443	-118.818	0.316	0.055
-137.429	-91.655	-0.295	0.083
-136.414	78.627	0.071	0.075
-135.399	-200.000	-0.009	-0.258
-134.385	299.914	0.024	0.044
-133.370	758.672	-0.079	0.212
-132.356	226.039	0.185	-0.297
-131.341	800.000	-0.126	0.359
-130.326	731.737	0.082	0.217
-129.312	20.876	-0.207	0.165
-128.297	111.274	0.113	0.135
-127.283	-200.000	0.006	0.046
-126.268	800.000	0.050	-0.189
-125.253	-163.308	0.051	-0.002
-124.239	-10.470	-0.331	0.217
-123.224	84.815	-0.101	0.109
-122.210	-6.395	-0.421	0.284
-121.195	572.135	-0.056	-0.135
