DTS Sentinel unit serial number:	SN413079Multiplexer serial number:	ORYXHardware model number:	OX4-SRSoftware version number:	ORYX F/W v4.00 Oryx Data Collector v3.7.2.0data status	okinstallation	princeton_trtdifferential loss correction	single-endedforward channel	channel 2reverse channel	N/Adate	2019/09/12time	05:49:11forward acquisition time	60.00reverse acquisition time	0.00gamma	496.2192k internal	0.2325k external	0.2325temperature offset calibration	1.0061default loss term (dB/km)	0.3790temperature slope calibration	1.0000multiplexer offset coefficient	1.0000multiplexer slope coefficient	1.0000fibre end	0.00T internal ref (°C)	32.05T ext. ref 1 (°C)	1.58T ext. ref 2 (°C)	27.50length (m)	temperature (°C)	Stokes	anti-Stokes-747.200	-200.000	-0.085	0.407
-746.185	-200.000	-0.333	-0.001
-745.171	-113.052	0.211	0.042
-744.156	-2.408	-0.366	0.259
-743.142	800.000	-0.126	0.359
-742.127	-200.000	0.059	0.399
-741.112	276.833	-0.041	0.074
-740.098	5.106	-0.590	0.438
-739.083	35.302	-0.174	-0.154
-738.069	67.409	-0.097	0.100
-737.054	-98.203	-0.247	0.064
-736.039	-27.302	-0.077	0.045
-735.025	249.084	0.154	0.264
-734.010	452.942	-0.104	-0.232
-732.996	-200.000	0.004	-0.279
-731.981	345.481	-0.110	-0.217
-730.966	-85.285	-0.263	0.083
-729.952	-198.624	-0.136	-0.001
-728.937	-170.680	-0.456	-0.016
-727.923	56.933	0.083	0.082
-726.908	800.000	0.090	0.288
-725.894	-123.048	-0.241	0.039
-724.879	-23.571	0.267	0.162
-723.864	104.788	-0.035	0.041
-722.850	286.111	-0.028	-0.051
-721.835	1.007	0.236	-0.170
-720.821	-200.000	0.039	-0.385
-719.806	545.778	0.073	-0.175
-718.791	-64.735	0.248	0.101
-717.777	-59.711	-0.333	-0.144
-716.762	480.169	-0.022	0.050
-715.748	442.683	0.094	-0.208
-714.733	-6.464	0.069	-0.047
-713.718	778.673	0.018	-0.049
-712.704	24.231	0.084	0.070
-711.689	800.000	-0.076	-0.272
-710.675	35.133	0.213	-0.188
-709.660	-105.054	-0.245	0.057
-708.645	68.460	-0.123	0.127
-707.631	-200.000	-0.027	0.306
-706.616	800.000	-0.076	0.235
-705.602	65.496	0.114	0.116
-704.587	128.921	0.305	-0.392
-703.572	-172.215	0.134	-0.004
-702.558	-200.000	0.027	-0.311
-701.543	-27.601	0.285	-0.167
-700.529	-200.000	0.005	-0.105
-699.514	-13.922	0.305	0.198
-698.499	-3.154	0.298	-0.209
-697.485	-200.000	0.013	0.317
-696.470	-32.496	0.308	-0.173
-695.456	-200.000	0.041	0.377
-694.441	184.224	-0.104	-0.155
-693.426	-200.000	-0.044	-0.233
-692.412	-156.932	0.132	0.008
-691.397	-6.472	-0.233	-0.160
-690.383	-142.619	-0.188	-0.019
-689.368	-44.199	-0.163	0.083
-688.354	279.281	0.027	0.049
-687.339	-4.558	-0.139	0.096
-686.324	-88.420	0.341	-0.103
-685.310	758.549	-0.039	0.107
-684.295	525.320	0.144	-0.341
-683.281	-19.577	-0.175	0.109
-682.266	-200.000	0.040	-0.181
-681.251	800.000	0.025	-0.106
-680.237	368.436	-0.115	-0.233
-679.222	-1.255	0.199	0.141
-678.208	-200.000	0.020	0.129
-677.193	-104.162	-0.154	-0.036
-676.178	-20.593	0.080	-0.050
-675.164	112.302	0.069	0.084
-674.149	-100.438	0.333	0.083
-673.135	9.934	-0.151	0.115
-672.120	-125.302	0.133	-0.020
-671.105	66.546	-0.253	0.259
-670.091	-90.669	-0.225	0.066
-669.076	301.303	-0.099	-0.184
-668.062	382.156	-0.042	-0.087
-667.047	206.057	-0.084	0.131
-666.032	800.000	0.027	0.084
-665.018	-101.321	0.118	0.029
-664.003	-124.685	0.130	-0.020
-662.989	547.912	0.126	0.304
-661.974	334.707	0.031	-0.061
-660.959	191.867	0.171	0.259
-659.945	-200.000	0.080	0.371
-658.930	-155.229	-0.111	-0.007
-657.916	-200.000	0.005	0.054
-656.901	800.000	0.085	0.283
-655.886	-200.000	0.010	-0.042
-654.872	34.260	0.134	-0.118
-653.857	-200.000	0.021	0.113
-652.843	292.397	0.208	0.381
-651.828	-137.853	-0.148	-0.017
-650.814	-200.000	-0.072	-0.333
-649.799	800.000	-0.033	0.120
-648.784	13.538	0.250	0.195
-647.770	-21.975	-0.238	-0.145
-646.755	-80.534	-0.092	-0.031
-645.741	773.301	-0.077	-0.211
-644.726	410.145	0.138	0.295
-643.711	134.909	-0.103	0.135
-642.697	80.806	-0.261	-0.283
-641.682	125.138	0.204	-0.259
-640.668	-113.489	-0.255	-0.050
-639.653	-200.000	0.004	-0.062
-638.638	170.306	0.223	-0.321
-637.624	-48.522	0.424	0.205
-636.609	275.498	0.181	-0.323
-635.595	-142.708	-0.336	-0.033
-634.580	591.541	-0.077	-0.192
-633.565	-98.126	-0.162	-0.042
-632.551	-69.664	-0.286	0.110
-631.536	157.439	-0.075	0.104
-630.522	800.000	-0.099	0.283
-629.507	-200.000	0.053	-0.376
-628.492	330.863	0.163	-0.316
-627.478	-52.136	0.268	-0.125
-626.463	-200.000	-0.068	0.341
-625.449	474.953	0.143	-0.325
-624.434	18.449	-0.513	-0.412
-623.419	-70.420	-0.354	-0.135
-622.405	-59.293	-0.230	0.099
-621.390	-200.000	-0.042	0.242
-620.376	-30.359	0.138	0.079
-619.361	-138.858	0.252	0.028
-618.346	151.621	0.244	0.334
-617.332	103.729	0.059	0.070
-616.317	-136.419	-0.132	-0.015
-615.303	300.367	0.248	0.460
-614.288	449.483	-0.078	0.173
-613.273	101.800	-0.123	0.144
-612.259	800.000	-0.097	-0.330
-611.244	-53.839	-0.078	-0.036
-610.230	337.852	0.141	0.276
-609.215	-16.366	-0.375	-0.239
-608.201	-94.700	-0.227	0.062
-607.186	-132.962	-0.115	-0.015
-606.171	167.948	0.126	0.180
-605.157	-32.357	0.267	0.150
-604.142	-29.790	0.097	-0.056
-603.128	800.000	0.015	0.057
-602.113	-8.070	0.176	-0.119
-601.098	800.000	-0.019	-0.074
-600.084	-200.000	-0.050	0.232
-599.069	-17.919	0.403	0.254
-598.055	-200.000	-0.015	-0.106
-597.040	-101.499	0.176	-0.043
-596.025	-126.171	0.103	0.016
-595.011	-61.877	0.101	0.043
-593.996	520.793	-0.073	-0.171
-592.982	33.534	0.217	-0.190
-591.967	-2.453	0.240	-0.168
-590.952	312.674	0.018	-0.033
-589.938	-78.309	-0.222	0.076
-588.923	-200.000	-0.004	0.078
-587.909	-89.043	0.270	0.080
-586.894	-75.267	-0.235	-0.084
-585.879	-115.970	0.281	0.053
-584.865	194.650	-0.125	-0.190
-583.850	-200.000	0.017	-0.097
-582.836	-143.532	0.054	-0.005
-581.821	81.081	0.083	0.090
-580.806	83.365	-0.073	-0.080
-579.792	81.946	0.067	-0.072
-578.777	-163.804	0.262	0.012
-577.763	-95.062	-0.348	-0.094
-576.748	800.000	0.136	0.512
-575.733	-18.986	0.361	0.225
-574.719	-55.872	-0.186	-0.083
-573.704	32.495	-0.116	0.100
-572.690	128.264	-0.082	0.105
-571.675	800.000	-0.107	-0.320
-570.661	-90.174	0.155	0.045
-569.646	430.228	0.066	0.142
-568.631	-104.951	0.207	0.048
-567.617	18.311	0.158	-0.127
-566.602	212.673	-0.208	0.329
-565.588	33.461	-0.261	0.227
-564.573	61.283	-0.253	-0.252
-563.558	-0.741	-0.087	-0.062
-562.544	-142.689	0.371	0.036
-561.529	-39.274	0.140	0.074
-560.515	165.407	-0.024	-0.034
-559.500	-136.490	0.317	-0.037
-558.485	-84.743	0.168	0.053
-557.471	49.442	-0.140	-0.132
-556.456	-100.438	0.134	0.033
-555.442	-200.000	0.041	-0.194
-554.427	403.224	0.031	-0.065
-553.412	-200.000	0.006	-0.163
-552.398	381.747	-0.110	-0.225
-551.383	108.723	0.073	0.087
-550.369	-101.187	-0.088	-0.022
-549.354	-164.141	-0.395	-0.018
-548.339	-56.736	0.243	0.108
-547.325	9.582	-0.227	-0.172
-546.310	308.782	-0.063	0.118
-545.296	-24.040	0.215	-0.129
-544.281	250.935	-0.070	-0.119
-543.266	103.562	-0.135	-0.159
-542.252	-117.810	0.182	0.033
-541.237	410.048	-0.065	-0.138
-540.223	-53.611	0.220	0.101
-539.208	-128.202	-0.315	-0.045
-538.193	243.165	-0.140	-0.235
-537.179	800.000	-0.050	0.162
-536.164	215.654	0.193	0.307
-535.150	-200.000	0.006	-0.071
-534.135	-137.117	0.082	-0.009
-533.121	87.846	0.220	-0.244
-532.106	134.058	0.099	0.129
-531.091	299.996	0.160	-0.296
-530.077	250.536	0.089	-0.152
-529.062	-67.716	-0.113	0.044
-528.048	-200.000	-0.022	0.372
-527.033	-200.000	0.016	-0.202
-526.018	-45.615	-0.240	0.119
-525.004	-200.000	-0.099	-0.443
-523.989	121.712	0.116	0.145
-522.975	-8.543	0.300	0.202
-521.960	800.000	-0.046	-0.197
-520.945	242.048	0.036	0.061
-519.931	224.619	-0.103	0.167
-518.916	87.458	-0.136	-0.150
-517.902	11.075	0.200	0.153
-516.887	-96.928	-0.123	0.032
-515.872	17.965	-0.339	-0.270
-514.858	-8.435	0.083	-0.056
-513.843	800.000	0.068	-0.214
-512.829	55.441	-0.125	-0.121
-511.814	-39.637	0.117	-0.061
-510.799	424.208	0.096	0.207
-509.785	542.990	-0.175	-0.418
-508.770	-200.000	-0.052	-0.245
-507.756	-88.820	-0.291	-0.086
-506.741	418.800	-0.074	0.158
-505.726	90.406	-0.177	0.198
-504.712	118.867	-0.218	0.270
-503.697	-83.191	0.306	-0.098
-502.683	-29.833	-0.152	-0.086
-501.668	-200.000	0.009	0.196
-500.653	176.324	0.142	0.206
-499.639	-50.796	-0.037	0.017
-498.624	-17.761	0.174	-0.109
-497.610	-36.761	0.076	-0.041
-496.595	-200.000	0.012	0.373
-495.581	-113.443	0.194	0.038
-494.566	168.539	-0.150	-0.214
-493.551	662.070	-0.119	0.307
-492.537	800.000	-0.078	0.288
-491.522	-151.009	-0.120	0.009
-490.508	-200.000	0.014	-0.077
-489.493	-200.000	-0.003	0.053
-488.478	195.962	0.029	0.045
-487.464	77.010	0.113	-0.120
-486.449	120.323	0.100	0.124
-485.435	420.464	0.036	-0.077
-484.420	305.453	-0.100	-0.185
-483.405	-200.000	0.002	-0.012
-482.391	267.759	-0.194	-0.339
-481.376	-60.353	-0.155	0.066
-480.362	-179.194	0.405	0.009
-479.347	-73.910	0.105	0.038
-478.332	94.937	0.110	-0.125
-477.318	-68.849	0.102	0.039
-476.303	-39.907	-0.317	-0.165
-475.289	-200.000	0.004	-0.101
-474.274	-147.993	-0.415	-0.034
-473.259	-70.364	0.231	-0.088
-472.245	468.887	0.087	-0.196
-471.230	-108.215	0.123	-0.027
-470.216	-28.976	-0.249	0.143
-469.201	280.272	0.066	-0.118
-468.186	-200.000	0.026	-0.262
-467.172	-11.438	0.058	-0.038
-466.157	64.841	0.144	0.145
-465.143	39.995	0.253	0.227
-464.128	42.932	-0.126	0.115
-463.113	15.286	-0.051	0.040
-462.099	-145.001	-0.225	-0.020
-461.084	-200.000	0.081	0.396
-460.070	-41.309	0.373	-0.192
-459.055	239.154	-0.100	0.166
-458.040	-200.000	0.016	0.199
-457.026	-17.759	0.085	-0.054
-456.011	-128.415	-0.015	0.002
-454.997	294.952	0.253	-0.461
-453.982	747.989	-0.114	-0.305
-452.968	-200.000	-0.002	0.084
-451.953	-90.022	0.307	0.089
-450.938	-200.000	-0.010	-0.091
-449.924	-200.000	-0.044	-0.221
-448.909	-85.302	0.072	-0.023
-447.895	268.304	0.117	0.205
-446.880	-110.629	-0.288	-0.059
-445.865	338.827	-0.071	-0.138
-444.851	224.701	0.094	-0.151
-443.836	307.067	0.061	0.113
-442.822	-79.238	-0.125	0.042
-441.807	121.040	0.168	0.209
-440.792	800.000	0.024	0.105
-439.778	231.127	-0.079	0.129
-438.763	800.000	-0.079	-0.243
-437.749	-200.000	-0.073	0.469
-436.734	-200.000	-0.059	0.284
-435.719	800.000	0.064	-0.197
-434.705	11.809	0.154	-0.118
-433.690	-172.785	0.196	-0.006
-432.676	-104.015	-0.424	-0.098
-431.661	-200.000	0.035	-0.169
-430.646	-181.820	0.193	0.004
-429.632	-200.000	-0.037	0.200
-428.617	-76.833	-0.062	0.021
-427.603	800.000	0.034	0.138
-426.588	-62.567	-0.087	-0.036
-425.573	101.959	0.243	-0.283
-424.559	-24.643	0.103	0.061
-423.544	-124.473	-0.251	0.039
-422.530	-88.456	-0.109	-0.032
-421.515	-200.000	0.049	-0.319
-420.500	800.000	0.060	-0.191
-419.486	-44.052	0.169	0.084
-418.471	-67.483	-0.134	-0.052
-417.457	-200.000	-0.014	-0.304
-416.442	-100.470	0.567	-0.140
-415.428	-200.000	-0.057	0.260
-414.413	115.370	-0.170	0.207
-413.398	-27.456	0.146	0.085
-412.384	737.069	0.075	0.200
-411.369	-92.234	-0.259	-0.073
-410.355	-112.990	0.125	-0.025
-409.340	111.484	0.177	-0.212
-408.325	-100.539	-0.139	-0.034
-407.311	800.000	0.114	0.461
-406.296	-27.137	0.172	-0.100
-405.282	159.773	-0.067	-0.093
-404.267	40.153	-0.083	0.074
-403.252	201.629	0.125	-0.192
-402.238	-106.488	-0.309	-0.069
-401.223	-40.266	0.235	0.122
-400.209	751.719	-0.036	0.097
-399.194	100.706	0.128	0.148
-398.179	-200.000	0.002	-0.036
-397.165	79.813	-0.298	0.319
-396.150	-200.000	0.018	-0.170
-395.136	800.000	-0.035	-0.099
-394.121	115.630	-0.302	-0.368
-393.106	220.411	-0.135	-0.215
-392.092	-55.888	-0.110	-0.049
-391.077	-159.962	0.207	0.011
-390.063	289.234	-0.053	-0.096
-389.048	800.000	0.084	0.330
-388.033	162.922	-0.181	0.253
-387.019	-14.036	0.312	-0.201
-386.004	-164.693	-0.062	0.003
-384.990	800.000	0.048	0.164
-383.975	-48.551	0.210	0.100
-382.960	-130.628	-0.564	-0.076
-381.946	191.010	0.071	-0.106
-380.931	-69.574	0.328	-0.125
-379.917	-200.000	0.013	-0.296
-378.902	-1.549	-0.269	0.189
-377.888	-90.286	0.234	-0.068
-376.873	-200.000	0.014	0.129
-375.858	215.326	0.098	-0.154
-374.844	-126.889	0.128	0.019
-373.829	-58.733	0.092	-0.040
-372.815	-64.106	-0.235	0.095
-371.800	-84.616	0.159	-0.050
-370.785	-200.000	0.016	-0.150
-369.771	-125.769	0.033	0.005
-368.756	-40.144	0.087	0.045
-367.742	-69.211	0.239	0.091
-366.727	-200.000	0.053	0.237
-365.712	-200.000	0.033	0.304
-364.698	165.848	-0.137	0.193
-363.683	-200.000	-0.110	0.487
-362.669	-200.000	-0.036	0.314
-361.654	-183.976	0.354	0.006
-360.639	120.475	0.168	0.208
-359.625	46.898	-0.192	0.178
-358.610	-158.844	0.292	0.017
-357.596	509.344	0.006	0.013
-356.581	-0.910	0.262	-0.185
-355.566	-200.000	-0.037	-0.201
-354.552	800.000	0.032	0.108
-353.537	-200.000	-0.071	-0.327
-352.523	800.000	-0.102	0.313
-351.508	-54.785	-0.254	0.114
-350.493	272.146	0.227	0.397
-349.479	-200.000	-0.030	0.262
-348.464	-128.489	-0.377	0.053
-347.450	-200.000	0.036	0.218
-346.435	800.000	0.041	-0.168
-345.420	-200.000	0.024	0.115
-344.406	116.702	-0.002	0.003
-343.391	-5.778	0.146	-0.099
-342.377	465.818	-0.011	-0.026
-341.362	-73.489	0.389	-0.141
-340.348	-126.733	0.144	0.021
-339.333	-2.150	0.147	-0.103
-338.318	-82.762	0.252	0.081
-337.304	-200.000	0.026	-0.120
-336.289	-63.230	-0.301	-0.123
-335.275	800.000	0.011	-0.036
-334.260	800.000	-0.028	0.117
-333.245	-127.708	-0.090	0.013
-332.231	-200.000	0.008	-0.123
-331.216	-31.154	0.077	-0.043
-330.202	-200.000	0.014	-0.127
-329.187	62.776	-0.287	-0.285
-328.172	-200.000	0.023	0.261
-327.158	100.961	-0.201	0.232
-326.143	468.601	-0.066	-0.147
-325.129	27.592	0.545	0.456
-324.114	181.681	-0.060	-0.088
-323.099	8.363	-0.149	-0.111
-322.085	238.429	-0.180	0.297
-321.070	-200.000	-0.032	-0.296
-320.056	800.000	-0.081	-0.233
-319.041	800.000	-0.101	-0.340
-318.026	286.826	-0.123	-0.220
-317.012	271.788	-0.008	-0.013
-315.997	17.260	0.152	-0.119
-314.983	-51.122	-0.222	-0.103
-313.968	-147.969	0.359	0.030
-312.953	-81.753	-0.153	0.050
-311.939	-200.000	0.009	0.182
-310.924	340.138	-0.053	-0.102
-309.910	58.085	-0.075	-0.073
-308.895	-200.000	-0.012	0.061
-307.880	-200.000	-0.012	0.267
-306.866	676.945	-0.076	0.196
-305.851	800.000	-0.022	-0.071
-304.837	43.616	0.228	0.207
-303.822	-48.284	-0.475	-0.227
-302.807	-200.000	-0.005	0.143
-301.793	-60.272	-0.159	0.067
-300.778	-200.000	-0.011	0.153
-299.764	7.302	-0.207	-0.153
-298.749	-71.352	-0.149	0.055
-297.735	291.522	-0.041	-0.075
-296.720	-63.484	0.133	-0.054
-295.705	-141.413	0.167	-0.017
-294.691	774.593	-0.118	0.320
-293.676	-95.626	0.347	-0.092
-292.662	-147.873	-0.140	0.012
-291.647	-60.152	-0.390	-0.165
-290.632	125.227	-0.012	0.015
-289.618	10.955	-0.083	-0.063
-288.603	-200.000	-0.003	0.278
-287.589	-109.602	0.282	0.059
-286.574	-152.944	-0.197	-0.014
-285.559	298.617	-0.168	-0.307
-284.545	158.350	-0.160	-0.221
-283.530	457.223	-0.032	0.070
-282.516	-61.718	-0.358	-0.149
-281.501	-61.838	0.316	-0.131
-280.486	119.128	0.145	-0.178
-279.472	-78.497	-0.151	-0.051
-278.457	66.506	0.114	-0.115
-277.443	146.960	-0.239	0.319
-276.428	-200.000	0.005	-0.466
-275.413	154.889	0.160	0.218
-274.399	195.630	-0.057	-0.085
-273.384	14.645	0.067	-0.051
-272.370	800.000	0.024	0.069
-271.355	230.135	-0.133	-0.216
-270.340	-49.605	-0.049	0.023
-269.326	514.012	-0.047	0.108
-268.311	-20.541	0.028	0.017
-267.297	800.000	0.081	0.347
-266.282	-200.000	-0.014	0.230
-265.267	415.275	0.126	-0.267
-264.253	-173.252	0.089	-0.003
-263.238	-139.385	-0.300	-0.032
-262.224	-40.427	-0.248	0.127
-261.209	-180.132	0.349	-0.007
-260.195	374.754	0.174	0.350
-259.180	-200.000	-0.028	0.400
-258.165	564.209	-0.091	0.219
-257.151	230.496	0.054	0.087
-256.136	-200.000	0.045	-0.241
-255.122	-15.301	0.091	0.058
-254.107	42.009	-0.057	-0.052
-253.092	103.661	0.162	0.188
-252.078	115.004	0.292	-0.353
-251.063	-58.490	-0.166	0.071
-250.049	153.907	-0.081	0.110
-249.034	105.782	0.132	-0.154
-248.019	-100.612	-0.377	0.092
-247.005	417.335	0.118	-0.249
-245.990	800.000	0.055	-0.167
-244.976	800.000	-0.116	-0.323
-243.961	-190.970	0.360	-0.004
-242.946	-200.000	0.015	-0.129
-241.932	-53.921	-0.132	-0.059
-240.917	32.692	-0.188	0.161
-239.903	-200.000	-0.001	-0.102
-238.888	-95.531	0.304	-0.081
-237.873	-14.742	0.197	0.125
-236.859	-200.000	-0.009	0.037
-235.844	-103.424	0.293	-0.068
-234.830	263.078	-0.096	0.164
-233.815	42.952	-0.116	0.104
-232.800	-200.000	0.042	0.238
-231.786	272.650	0.195	-0.341
-230.771	800.000	-0.061	-0.196
-229.757	-200.000	-0.010	0.066
-228.742	48.705	-0.049	-0.046
-227.727	289.245	-0.065	0.116
-226.713	203.497	0.079	-0.121
-225.698	-200.000	-0.188	-0.000
-224.684	-200.000	-0.006	0.140
-223.669	-103.249	-0.150	0.035
-222.655	-9.494	-0.257	0.169
-221.640	-37.067	0.085	-0.045
-220.625	77.858	0.092	0.097
-219.611	-5.731	-0.290	-0.197
-218.596	-2.176	-0.123	-0.085
-217.582	419.296	-0.188	0.397
-216.567	237.583	0.298	-0.488
-215.552	800.000	-0.013	-0.053
-214.538	122.424	-0.100	0.124
-213.523	216.335	0.116	-0.183
-212.509	15.209	-0.182	-0.141
-211.494	-126.367	0.108	0.016
-210.479	-25.189	-0.061	0.036
-209.465	-109.107	-0.237	0.050
-208.450	179.912	0.079	-0.114
-207.436	158.734	-0.215	0.295
-206.421	-102.892	0.355	-0.083
-205.406	24.413	0.162	0.133
-204.392	158.877	-0.065	0.089
-203.377	56.197	-0.174	0.167
-202.363	-200.000	-0.026	-0.126
-201.348	-76.000	0.210	-0.073
-200.333	800.000	0.073	-0.254
-199.319	790.479	0.076	-0.206
-198.304	800.000	0.047	0.163
-197.290	800.000	-0.071	-0.289
-196.275	-133.678	-0.244	-0.030
-195.260	263.287	-0.034	-0.058
-194.246	-200.000	-0.025	-0.197
-193.231	-128.415	-0.133	-0.019
-192.217	-129.697	-0.217	-0.030
-191.202	206.958	0.028	-0.043
-190.187	-44.546	0.292	0.144
-189.173	-200.000	-0.017	-0.459
-188.158	304.838	-0.073	0.134
-187.144	49.579	-0.162	0.150
-186.129	-132.224	-0.058	-0.007
-185.114	376.337	-0.111	-0.223
-184.100	264.979	0.013	-0.022
-183.085	-200.000	-0.026	0.391
-182.071	-51.890	0.171	0.078
-181.056	-116.413	-0.142	-0.026
-180.042	-21.338	-0.437	0.263
-179.027	-139.216	-0.208	-0.022
-178.012	267.771	-0.055	0.095
-176.998	-56.981	0.447	-0.195
-175.983	-65.998	0.031	-0.012
-174.969	58.060	-0.167	0.161
-173.954	-200.000	0.067	0.313
-172.939	-64.339	-0.214	-0.086
-171.925	-114.699	-0.193	-0.036
-170.910	-200.000	0.009	-0.229
-169.896	138.027	0.106	0.137
-168.881	156.759	0.086	-0.117
-167.866	-127.890	0.140	0.020
-166.852	-174.316	0.063	-0.002
-165.837	-109.570	0.320	0.067
-164.823	-69.446	0.118	0.045
-163.808	-10.325	-0.260	0.170
-162.793	360.248	-0.157	0.311
-161.779	-99.348	-0.135	-0.034
-160.764	232.452	-0.238	0.386
-159.750	184.762	0.104	0.152
-158.735	-200.000	0.005	0.100
-157.720	756.039	-0.040	-0.107
-156.706	115.780	-0.104	0.126
-155.691	-26.119	0.354	0.205
-154.677	69.787	-0.176	-0.179
-153.662	-74.337	-0.146	-0.052
-152.647	-200.000	-0.047	0.238
-151.633	298.931	0.118	-0.213
-150.618	-125.790	0.194	0.029
-149.604	-200.000	-0.022	0.219
-148.589	-200.000	0.008	0.076
-147.574	800.000	0.032	-0.096
-146.560	495.611	0.094	-0.213
-145.545	-26.678	-0.196	-0.113
-144.531	-101.269	-0.165	-0.040
-143.516	184.353	0.115	-0.168
-142.502	-200.000	-0.060	-0.276
-141.487	-86.585	0.280	-0.085
-140.472	-200.000	-0.045	0.225
-139.458	-14.370	0.412	-0.262
-138.443	800.000	0.019	0.061
-137.429	107.512	0.144	0.169
-136.414	-182.759	-0.292	-0.005
-135.399	628.855	-0.059	0.147
-134.385	-18.755	-0.139	-0.085
-133.370	-200.000	-0.024	-0.260
-132.356	193.892	-0.249	-0.372
-131.341	-200.000	-0.067	-0.378
-130.326	800.000	0.097	-0.284
-129.312	-200.000	0.010	0.189
-128.297	270.721	0.143	0.248
-127.283	36.426	0.149	0.129
-126.268	800.000	-0.116	-0.353
-125.253	-76.326	0.201	0.070
-124.239	-168.239	0.284	0.011
-123.224	-121.216	-0.410	-0.068
