DTS Sentinel unit serial number:	SN413079Multiplexer serial number:	ORYXHardware model number:	OX4-SRSoftware version number:	ORYX F/W v4.00 Oryx Data Collector v3.7.2.0data status	okinstallation	princeton_trtdifferential loss correction	single-endedforward channel	channel 2reverse channel	N/Adate	2019/09/15time	15:51:34forward acquisition time	60.00reverse acquisition time	0.00gamma	496.2192k internal	0.2289k external	0.2289temperature offset calibration	0.9946default loss term (dB/km)	0.3790temperature slope calibration	1.0000multiplexer offset coefficient	1.0000multiplexer slope coefficient	1.0000fibre end	0.00T internal ref (°C)	42.27T ext. ref 1 (°C)	5.26T ext. ref 2 (°C)	40.20length (m)	temperature (°C)	Stokes	anti-Stokes-747.200	-66.692	-0.169	0.069
-746.185	-200.000	0.023	0.250
-745.171	800.000	-0.014	0.054
-744.156	-83.481	-0.332	0.109
-743.142	-200.000	0.004	-0.156
-742.127	1.620	-0.230	-0.170
-741.112	-108.296	-0.046	0.010
-740.098	-68.425	-0.179	0.071
-739.083	-1.527	-0.139	0.101
-738.069	114.850	0.228	0.285
-737.054	-200.000	0.054	-0.258
-736.039	800.000	-0.075	-0.219
-735.025	285.564	-0.145	0.268
-734.010	800.000	0.109	0.322
-732.996	-48.085	-0.158	-0.078
-731.981	455.327	-0.147	-0.334
-730.966	-51.867	-0.255	0.122
-729.952	-127.793	-0.217	0.032
-728.937	800.000	0.029	0.120
-727.923	-94.913	-0.310	0.086
-726.908	82.391	-0.174	0.193
-725.894	-23.117	0.151	-0.093
-724.879	-152.468	0.105	0.008
-723.864	-23.381	0.255	-0.157
-722.850	-141.784	0.285	0.029
-721.835	308.642	-0.040	-0.077
-720.821	-46.859	-0.171	0.085
-719.806	357.780	-0.101	0.207
-718.791	-164.902	-0.243	-0.011
-717.777	800.000	-0.069	-0.241
-716.762	270.457	-0.097	-0.174
-715.748	-81.150	0.234	-0.079
-714.733	-24.288	0.264	-0.161
-713.718	-11.443	0.248	-0.167
-712.704	-43.769	-0.031	0.016
-711.689	-200.000	0.001	0.011
-710.675	54.999	-0.110	0.109
-709.660	-200.000	-0.021	-0.097
-708.645	-145.711	-0.307	-0.028
-707.631	-82.050	0.229	0.077
-706.616	800.000	0.013	-0.048
-705.602	-96.126	-0.295	0.080
-704.587	-50.109	-0.413	-0.200
-703.572	-110.822	0.299	-0.063
-702.558	-102.219	-0.303	0.075
-701.543	-81.415	0.161	0.054
-700.529	-200.000	0.005	-0.081
-699.514	36.813	0.184	-0.166
-698.499	371.947	-0.077	-0.159
-697.485	13.634	-0.231	0.183
-696.470	29.039	0.054	-0.047
-695.456	800.000	-0.048	0.168
-694.441	274.660	0.207	-0.375
-693.426	-111.034	0.192	0.040
-692.412	335.128	0.007	0.013
-691.397	141.459	-0.034	-0.046
-690.383	20.136	0.106	0.088
-689.368	-200.000	0.017	-0.148
-688.354	-72.899	0.267	0.101
-687.339	133.744	-0.238	0.315
-686.324	-57.757	0.122	-0.055
-685.310	-30.148	0.299	-0.174
-684.295	-200.000	0.055	-0.291
-683.281	-154.110	-0.387	0.027
-682.266	-86.845	-0.104	0.032
-681.251	87.926	-0.254	0.288
-680.237	394.761	-0.016	0.034
-679.222	777.394	-0.046	0.128
-678.208	61.041	-0.196	-0.199
-677.193	-200.000	0.060	-0.544
-676.178	8.645	0.168	0.130
-675.164	-200.000	0.024	0.438
-674.149	800.000	-0.035	0.116
-673.135	800.000	-0.070	-0.298
-672.120	-27.936	-0.051	-0.030
-671.105	-200.000	-0.022	0.129
-670.091	-144.459	-0.470	-0.044
-669.076	355.814	0.102	-0.208
-668.062	800.000	-0.069	-0.247
-667.047	-200.000	-0.050	0.357
-666.032	142.709	0.076	-0.103
-665.018	-200.000	-0.038	0.194
-664.003	-79.584	-0.221	-0.076
-662.989	-200.000	0.005	0.136
-661.974	-193.591	0.405	-0.004
-660.959	-93.959	-0.250	0.070
-659.945	800.000	-0.063	0.217
-658.930	-87.764	-0.207	-0.064
-657.916	-53.944	-0.320	-0.149
-656.901	-119.117	-0.093	-0.017
-655.886	138.341	0.121	-0.162
-654.872	-31.236	-0.112	0.065
-653.857	-99.799	-0.196	0.050
-652.843	-97.735	-0.153	0.041
-651.828	130.317	-0.205	-0.269
-650.814	104.503	-0.083	0.099
-649.799	216.305	-0.063	-0.102
-648.784	-200.000	-0.010	0.257
-647.770	-69.238	0.280	-0.110
-646.755	314.213	-0.117	-0.226
-645.741	-200.000	-0.006	-0.185
-644.726	-200.000	-0.040	-0.263
-643.711	2.465	0.178	-0.132
-642.697	800.000	-0.076	0.242
-641.682	34.155	0.132	0.118
-640.668	-200.000	0.025	0.209
-639.653	-67.104	-0.154	0.062
-638.638	194.492	0.049	-0.076
-637.624	-33.599	-0.223	0.125
-636.609	96.317	0.177	0.206
-635.595	294.294	-0.085	0.158
-634.580	-88.417	-0.086	-0.026
-633.565	800.000	-0.095	0.382
-632.551	558.341	0.060	0.147
-631.536	-94.951	-0.135	-0.037
-630.522	-200.000	-0.020	0.130
-629.507	-67.864	-0.333	-0.133
-628.492	-33.230	-0.213	0.120
-627.478	66.072	-0.111	-0.115
-626.463	-136.602	0.254	0.030
-625.449	28.092	0.052	0.044
-624.434	202.049	-0.095	0.149
-623.419	800.000	-0.021	-0.091
-622.405	-200.000	0.004	-0.050
-621.390	800.000	0.024	0.098
-620.376	-93.433	-0.318	-0.090
-619.361	-45.640	-0.037	-0.019
-618.346	-91.181	0.166	0.049
-617.332	134.920	0.077	-0.103
-616.317	-0.049	0.134	0.097
-615.303	6.904	0.121	-0.092
-614.288	22.436	0.326	0.272
-613.273	245.421	0.017	-0.029
-612.259	-47.264	-0.386	-0.192
-611.244	134.868	0.183	-0.243
-610.230	-79.918	0.320	0.110
-609.215	123.306	-0.141	0.180
-608.201	96.949	0.301	-0.352
-607.186	57.073	-0.089	-0.088
-606.171	-200.000	-0.053	0.290
-605.157	11.072	0.201	0.157
-604.142	350.750	0.116	-0.233
-603.128	800.000	0.029	-0.113
-602.113	-107.821	-0.169	0.038
-601.098	222.826	0.048	0.079
-600.084	34.684	0.055	0.049
-599.069	-59.209	0.197	-0.086
-598.055	416.935	-0.127	0.277
-597.040	-200.000	0.035	0.280
-596.025	-7.983	-0.072	-0.049
-595.011	-43.489	-0.171	0.088
-593.996	-200.000	0.006	0.072
-592.982	40.599	0.113	-0.104
-591.967	13.391	0.339	-0.268
-590.952	-56.541	0.215	0.097
-589.938	285.356	-0.155	-0.285
-588.923	-200.000	-0.016	0.189
-587.909	77.326	-0.119	0.129
-586.894	145.835	-0.172	-0.235
-585.879	291.135	-0.195	0.362
-584.865	-183.774	-0.257	0.004
-583.850	800.000	-0.061	-0.229
-582.836	607.100	0.242	-0.615
-581.821	-200.000	0.024	-0.280
-580.806	-19.043	-0.212	0.134
-579.792	53.278	-0.166	0.162
-578.777	800.000	-0.036	0.134
-577.763	-200.000	-0.035	-0.182
-576.748	-25.094	-0.065	0.039
-575.733	-200.000	0.014	0.375
-574.719	149.618	0.144	0.199
-573.704	-89.434	0.245	-0.074
-572.690	399.561	-0.122	0.261
-571.675	161.115	-0.238	0.339
-570.661	-170.542	-0.280	-0.010
-569.646	404.723	0.065	0.140
-568.631	-95.428	0.086	-0.024
-567.617	-103.832	-0.231	-0.055
-566.602	-40.414	-0.225	-0.119
-565.588	-161.297	0.273	0.014
-564.573	-67.253	0.090	0.036
-563.558	-131.580	0.115	0.015
-562.544	-101.166	0.115	0.029
-561.529	62.587	0.150	-0.153
-560.515	-150.478	-0.334	0.026
-559.500	-200.000	0.065	0.419
-558.485	-200.000	-0.025	-0.300
-557.471	38.892	-0.142	0.129
-556.456	800.000	-0.110	0.376
-555.442	-2.220	0.090	-0.064
-554.427	-6.553	-0.083	0.057
-553.412	34.141	0.027	0.024
-552.398	-200.000	-0.025	0.249
-551.383	-139.879	-0.246	-0.027
-550.369	74.597	0.167	-0.179
-549.354	27.354	-0.312	-0.267
-548.339	-4.766	0.242	0.170
-547.325	-85.305	-0.043	0.014
-546.310	76.355	-0.191	0.206
-545.296	-111.779	0.354	0.073
-544.281	-200.000	-0.043	-0.232
-543.266	43.405	0.194	-0.181
-542.252	-32.094	-0.113	-0.064
-541.237	308.209	0.156	0.296
-540.223	800.000	-0.057	-0.195
-539.208	579.946	-0.141	-0.351
-538.193	-114.310	0.418	-0.082
-537.179	-44.646	0.315	-0.160
-536.164	-34.867	-0.110	0.061
-535.150	181.236	0.136	-0.204
-534.135	-123.743	0.232	0.037
-533.121	315.225	0.099	0.190
-532.106	-170.861	-0.204	-0.007
-531.091	23.372	-0.122	-0.102
-530.077	110.044	0.180	0.219
-529.062	-200.000	-0.025	0.275
-528.048	-200.000	-0.023	-0.214
-527.033	-35.231	-0.123	-0.068
-526.018	-25.858	0.097	-0.058
-525.004	-12.349	0.151	0.100
-523.989	-186.117	-0.180	0.003
-522.975	-200.000	-0.093	0.457
-521.960	-200.000	-0.119	-0.001
-520.945	446.659	-0.113	0.253
-519.931	-158.595	0.150	0.009
-518.916	800.000	-0.041	-0.161
-517.902	-85.255	0.255	-0.081
-516.887	800.000	0.090	0.263
-515.872	98.585	-0.120	-0.140
-514.858	36.190	0.118	0.105
-513.843	-2.790	0.073	0.052
-512.829	-5.389	-0.191	0.133
-511.814	222.334	-0.157	-0.257
-510.799	279.833	-0.094	-0.170
-509.785	-67.562	-0.202	-0.081
-508.770	-200.000	0.014	-0.086
-507.756	395.851	0.094	0.198
-506.741	63.166	-0.260	-0.265
-505.726	-133.808	0.379	-0.048
-504.712	800.000	0.054	-0.175
-503.697	800.000	0.049	0.181
-502.683	-131.548	-0.165	0.022
-501.668	356.966	-0.049	-0.099
-500.653	-128.885	0.165	0.024
-499.639	-31.101	0.186	0.106
-498.624	34.037	-0.275	-0.243
-497.610	-164.637	-0.210	0.010
-496.595	-200.000	-0.003	-0.082
-495.581	32.280	-0.279	0.245
-494.566	-58.798	0.259	-0.114
-493.551	-200.000	-0.004	0.148
-492.537	-99.844	-0.213	-0.054
-491.522	-36.082	-0.248	-0.136
-490.508	340.913	0.093	-0.184
-489.493	800.000	-0.102	-0.321
-488.478	-200.000	0.011	-0.228
-487.464	-51.722	0.369	0.174
-486.449	800.000	-0.043	-0.150
-485.435	-79.607	-0.117	-0.040
-484.420	745.661	0.067	-0.182
-483.405	-190.598	-0.258	-0.003
-482.391	-88.401	0.316	0.096
-481.376	-12.947	-0.378	-0.250
-480.362	-100.981	0.399	-0.099
-479.347	-38.938	0.091	0.048
-478.332	487.744	-0.067	0.155
-477.318	140.348	-0.152	-0.204
-476.303	422.308	-0.111	0.242
-475.289	-200.000	-0.007	-0.081
-474.274	800.000	-0.063	0.271
-473.259	199.173	-0.112	0.174
-472.245	-34.105	-0.314	-0.175
-471.230	800.000	0.045	0.131
-470.216	47.254	-0.099	0.093
-469.201	-200.000	0.024	-0.151
-468.186	800.000	0.053	0.227
-467.172	-2.562	-0.343	-0.244
-466.157	800.000	-0.078	-0.235
-465.143	-134.883	-0.392	0.048
-464.128	158.571	-0.077	-0.108
-463.113	-49.566	0.289	-0.140
-462.099	474.282	-0.099	0.227
-461.084	-132.756	-0.142	0.018
-460.070	172.768	-0.112	-0.164
-459.055	101.329	0.114	-0.134
-458.040	-98.599	0.413	0.107
-457.026	-95.787	0.186	-0.050
-456.011	133.838	-0.177	0.232
-454.997	31.306	0.211	0.184
-453.982	52.441	-0.088	-0.085
-452.968	123.259	-0.063	0.080
-451.953	87.693	0.167	0.187
-450.938	178.367	-0.053	-0.078
-449.924	-200.000	-0.014	0.180
-448.909	-200.000	0.013	-0.201
-447.895	-28.296	-0.065	-0.038
-446.880	-200.000	-0.015	0.186
-445.865	-149.143	-0.304	0.025
-444.851	-200.000	0.001	-0.132
-443.836	277.139	-0.043	0.077
-442.822	800.000	-0.082	-0.270
-441.807	-113.263	-0.454	-0.090
-440.792	-62.697	-0.132	-0.055
-439.778	66.032	0.176	0.181
-438.763	-108.204	0.347	-0.076
-437.749	99.223	-0.168	0.196
-436.734	229.826	-0.255	-0.422
-435.719	-200.000	0.033	-0.280
-434.705	179.449	-0.024	-0.036
-433.690	-38.092	0.143	-0.077
-432.676	82.078	0.134	0.147
-431.661	23.879	0.260	-0.217
-430.646	618.401	-0.119	0.304
-429.632	-90.933	-0.446	0.130
-428.617	1.049	-0.127	-0.092
-427.603	81.520	0.146	0.160
-426.588	-40.148	0.203	-0.107
-425.573	-136.320	0.334	0.039
-424.559	205.552	-0.020	0.031
-423.544	-184.488	0.197	-0.003
-422.530	-59.409	-0.256	0.112
-421.515	110.816	-0.085	0.104
-420.500	531.415	-0.010	0.024
-419.486	52.753	0.090	-0.087
-418.471	-31.251	0.225	0.128
-417.457	-200.000	-0.002	-0.024
-416.442	800.000	-0.077	0.221
-415.428	-155.198	-0.238	0.016
-414.413	23.279	0.384	0.319
-413.398	-17.721	-0.333	0.211
-412.384	11.285	-0.047	-0.036
-411.369	-151.670	-0.259	0.019
-410.355	87.953	0.180	0.202
-409.340	800.000	-0.103	0.428
-408.325	-48.421	-0.118	0.057
-407.311	-77.599	-0.082	0.029
-406.296	-200.000	0.018	0.443
-405.282	70.326	0.113	-0.118
-404.267	8.488	-0.379	0.289
-403.252	6.172	0.061	0.046
-402.238	-3.788	0.143	0.100
-401.223	-58.510	0.102	0.045
-400.209	-69.331	0.140	0.054
-399.194	-200.000	-0.022	-0.226
-398.179	213.397	-0.142	0.226
-397.165	-62.063	0.103	-0.043
-396.150	-200.000	0.035	-0.263
-395.136	66.410	-0.317	-0.326
-394.121	-146.992	-0.099	0.009
-393.106	692.598	-0.140	-0.370
-392.092	-165.180	-0.189	0.008
-391.077	-186.667	-0.206	-0.003
-390.063	-29.953	0.276	0.159
-389.048	-34.432	0.280	0.155
-388.033	10.036	-0.155	0.119
-387.019	-123.249	-0.105	-0.017
-386.004	-170.427	0.457	-0.016
-384.990	-43.762	-0.355	0.180
-383.975	-28.838	0.087	0.050
-382.960	-140.231	-0.227	-0.024
-381.946	-74.333	0.294	0.107
-380.931	-200.000	0.010	0.481
-379.917	-200.000	-0.026	0.328
-378.902	-200.000	-0.035	0.332
-377.888	800.000	-0.007	-0.027
-376.873	-116.211	0.191	0.036
-375.858	-62.743	0.119	0.050
-374.844	19.557	-0.236	0.191
-373.829	-200.000	0.039	0.257
-372.815	800.000	0.126	-0.354
-371.800	238.446	-0.149	0.250
-370.785	-200.000	-0.010	-0.090
-369.771	75.787	0.190	-0.203
-368.756	-63.972	-0.087	0.036
-367.742	-200.000	-0.037	-0.408
-366.727	-157.147	0.225	0.014
-365.712	259.254	0.053	-0.093
-364.698	22.422	-0.180	-0.148
-363.683	215.115	0.115	0.184
-362.669	55.684	-0.126	-0.123
-361.654	800.000	-0.041	-0.158
-360.639	176.587	0.145	-0.212
-359.625	-24.334	0.318	0.191
-358.610	-200.000	0.024	-0.239
-357.596	-93.514	-0.153	-0.043
-356.581	-132.999	-0.236	-0.030
-355.566	800.000	-0.073	-0.294
-354.552	30.673	0.049	0.043
-353.537	73.227	-0.255	-0.269
-352.523	620.122	-0.043	0.109
-351.508	326.911	-0.047	0.092
-350.493	-105.725	-0.131	0.030
-349.479	238.656	0.067	0.113
-348.464	800.000	0.013	-0.044
-347.450	-105.040	-0.263	-0.061
-346.435	96.632	0.151	-0.174
-345.420	89.870	0.095	0.108
-344.406	-200.000	-0.016	0.248
-343.391	44.301	-0.043	0.040
-342.377	12.100	0.083	0.065
-341.362	-95.904	0.116	-0.031
-340.348	37.670	0.060	0.054
-339.333	156.179	0.029	-0.040
-338.318	800.000	0.023	0.063
-337.304	-121.428	-0.099	0.017
-336.289	-200.000	0.011	0.083
-335.275	-1.128	0.199	0.142
-334.260	149.171	0.165	0.226
-333.245	77.270	-0.067	0.071
-332.231	-8.214	-0.192	0.130
-331.216	800.000	-0.094	0.297
-330.202	-200.000	0.009	-0.245
-329.187	306.039	-0.085	0.159
-328.172	-168.073	-0.207	-0.008
-327.158	70.566	0.081	-0.085
-326.143	574.473	-0.063	-0.156
-325.129	11.192	0.114	0.088
-324.114	-200.000	-0.033	0.183
-323.099	-131.735	0.173	0.023
-322.085	-117.184	0.058	-0.011
-321.070	485.046	0.136	-0.312
-320.056	224.052	0.131	-0.214
-319.041	-52.204	0.374	-0.175
-318.026	-132.083	0.163	-0.021
-317.012	366.779	-0.066	0.134
-315.997	206.645	0.165	-0.259
-314.983	48.026	0.308	-0.290
-313.968	382.703	-0.026	0.053
-312.953	-200.000	0.020	0.103
-311.939	505.643	0.069	-0.161
-310.924	-122.244	-0.272	-0.045
-309.910	-154.824	-0.220	-0.015
-308.895	-10.635	0.170	0.113
-307.880	-152.168	-0.053	0.004
-306.866	7.117	-0.124	-0.094
-305.851	-97.187	0.225	-0.059
-304.837	-200.000	-0.023	0.104
-303.822	-44.525	0.099	-0.050
-302.807	-41.509	0.116	-0.060
-301.793	53.528	0.195	0.189
-300.778	-131.126	-0.408	0.055
-299.764	800.000	0.078	-0.281
-298.749	-156.309	0.270	0.017
-297.735	418.795	-0.058	-0.125
-296.720	414.651	0.127	-0.273
-295.705	-27.695	-0.294	0.172
-294.691	-109.874	-0.350	0.074
-293.676	-14.878	0.107	-0.069
-292.662	-200.000	-0.024	0.220
-291.647	-72.598	-0.310	-0.115
-290.632	-17.853	0.130	-0.082
-289.618	26.083	-0.077	-0.064
-288.603	-40.750	-0.136	-0.071
-287.589	-83.923	-0.045	-0.015
-286.574	-128.386	-0.264	0.038
-285.559	11.475	0.218	0.168
-284.545	104.074	-0.034	0.041
-283.530	223.041	-0.202	-0.328
-282.516	228.853	-0.138	-0.226
-281.501	-62.261	-0.249	0.104
-280.486	-200.000	-0.007	0.125
-279.472	800.000	-0.105	-0.422
-278.457	-58.961	-0.185	-0.080
-277.443	758.482	-0.125	0.340
-276.428	-120.571	0.385	0.066
-275.413	244.842	-0.089	-0.150
-274.399	11.189	0.028	0.022
-273.384	800.000	-0.067	-0.219
-272.370	-200.000	-0.006	-0.126
-271.355	-60.649	0.251	-0.107
-270.340	800.000	-0.061	-0.251
-269.326	-200.000	-0.028	-0.232
-268.311	800.000	-0.017	-0.060
-267.297	446.836	0.124	-0.274
-266.282	-80.215	0.249	0.084
-265.267	-40.352	-0.059	-0.031
-264.253	-200.000	0.006	-0.134
-263.238	-200.000	-0.005	0.247
-262.224	-200.000	-0.003	0.305
-261.209	502.325	-0.061	0.142
-260.195	-91.673	-0.226	-0.065
-259.180	-53.037	0.246	-0.114
-258.165	605.952	-0.069	-0.172
-257.151	-62.231	0.174	-0.073
-256.136	52.995	-0.226	-0.217
-255.122	-125.234	0.394	-0.061
-254.107	-200.000	-0.007	0.125
-253.092	-200.000	-0.005	-0.212
-252.078	-18.164	0.091	0.057
-251.063	573.723	-0.132	0.324
-250.049	46.789	0.248	-0.232
-249.034	-200.000	0.004	0.190
-248.019	-200.000	-0.011	-0.188
-247.005	800.000	-0.046	-0.191
-245.990	800.000	-0.069	-0.191
-244.976	-200.000	0.372	0.002
-243.961	29.514	0.184	-0.157
-242.946	287.665	0.123	0.223
-241.932	-112.035	-0.072	0.015
-240.917	-35.415	-0.129	0.070
-239.903	50.700	0.217	-0.207
-238.888	-116.046	0.120	-0.023
-237.873	-22.653	0.147	0.089
-236.859	-150.192	0.169	-0.013
-235.844	40.395	0.063	-0.057
-234.830	-158.115	-0.242	0.014
-233.815	239.717	-0.216	0.361
-232.800	372.906	-0.054	-0.109
-231.786	800.000	-0.052	0.195
-230.771	-200.000	-0.015	0.204
-229.757	650.225	-0.170	0.436
-228.742	-83.641	-0.186	-0.060
-227.727	191.414	0.058	-0.087
-226.713	-178.450	0.141	0.003
-225.698	717.411	0.054	0.145
-224.684	-85.435	0.170	0.053
-223.669	-200.000	0.103	-0.516
-222.655	800.000	-0.052	-0.145
-221.640	133.243	-0.139	-0.180
-220.625	-153.875	0.149	-0.010
-219.611	-33.020	-0.480	-0.267
-218.596	-145.935	0.370	0.033
-217.582	800.000	-0.087	0.302
-216.567	366.705	0.098	0.199
-215.552	-200.000	-0.010	-0.070
-214.538	-91.569	0.272	-0.078
-213.523	-52.892	-0.213	-0.099
-212.509	-200.000	0.004	0.259
-211.494	30.575	0.246	0.212
-210.479	-148.876	-0.398	-0.032
-209.465	-200.000	0.007	0.248
-208.450	110.928	-0.096	-0.116
-207.436	-51.183	-0.120	0.057
-206.421	422.697	0.082	-0.176
-205.406	40.034	0.177	-0.160
-204.392	135.434	0.125	-0.163
-203.377	-200.000	-0.043	0.501
-202.363	525.897	0.086	-0.203
-201.348	64.286	-0.267	-0.270
-200.333	30.365	-0.088	-0.075
-199.319	-139.611	-0.219	-0.023
-198.304	-200.000	0.024	-0.119
-197.290	218.217	0.077	0.123
-196.275	92.897	-0.050	-0.056
-195.260	-133.150	0.181	0.023
-194.246	150.688	0.098	0.134
-193.231	-44.711	-0.286	0.143
-192.217	249.761	0.181	-0.309
-191.202	44.808	-0.068	-0.063
-190.187	-106.926	-0.094	0.021
-189.173	-108.050	0.174	-0.038
-188.158	-200.000	0.032	0.158
-187.144	190.881	-0.245	0.369
-186.129	14.804	0.291	-0.228
-185.114	-110.680	0.220	-0.046
-184.100	-54.571	0.265	-0.120
-183.085	-25.002	0.328	-0.195
-182.071	-200.000	-0.011	0.203
-181.056	-200.000	-0.002	-0.377
-180.042	800.000	-0.062	-0.236
-179.027	800.000	0.019	0.063
-178.012	-200.000	-0.040	0.403
-176.998	456.450	0.247	-0.549
-175.983	66.020	-0.325	0.330
-174.969	-89.251	0.155	0.046
-173.954	-58.543	0.109	-0.048
-172.939	418.489	-0.045	0.095
-171.925	800.000	0.071	0.212
-170.910	-200.000	-0.009	0.288
-169.896	-103.412	-0.008	-0.002
-168.881	24.349	0.081	0.067
-167.866	-200.000	-0.006	-0.216
-166.852	330.310	-0.126	0.242
-165.837	-88.717	-0.122	-0.036
-164.823	-119.998	0.175	-0.030
-163.808	724.651	0.054	-0.145
-162.793	800.000	0.079	-0.251
-161.779	96.754	0.285	0.327
-160.764	85.966	0.158	0.174
-159.750	800.000	0.048	0.151
-158.735	-2.163	0.145	-0.102
-157.720	-162.650	0.358	-0.018
-156.706	47.818	0.173	-0.161
-155.691	359.619	-0.147	-0.295
-154.677	103.746	0.095	-0.111
-153.662	288.497	-0.130	-0.236
-152.647	-200.000	0.038	-0.258
-151.633	-188.190	-0.165	0.002
-150.618	-71.881	0.234	0.087
-149.604	-115.107	-0.243	0.046
-148.589	129.440	0.074	0.095
-147.574	177.203	0.118	0.172
-146.560	-200.000	-0.011	0.121
-145.545	647.724	-0.094	-0.240
-144.531	36.363	0.174	0.153
-143.516	800.000	0.029	-0.087
-142.502	-200.000	0.002	-0.064
-141.487	800.000	-0.055	-0.195
-140.472	-200.000	0.017	-0.148
-139.458	-125.964	-0.299	-0.045
-138.443	-113.512	0.247	0.048
-137.429	-34.053	0.314	-0.173
-136.414	133.072	-0.131	-0.170
-135.399	-200.000	0.033	-0.215
-134.385	-57.395	-0.375	0.165
-133.370	390.766	-0.103	-0.214
-132.356	800.000	-0.049	-0.171
-131.341	208.520	0.155	-0.243
-130.326	-143.606	0.076	-0.007
-129.312	800.000	0.059	-0.194
-128.297	-58.724	-0.187	-0.081
-127.283	109.136	-0.165	-0.198
-126.268	20.947	0.091	0.073
-125.253	-200.000	-0.000	-0.064
-124.239	22.154	-0.489	0.400
-123.224	-50.346	0.163	0.077
-122.210	-42.978	-0.230	-0.117
