DTS Sentinel unit serial number:	SN413079Multiplexer serial number:	ORYXHardware model number:	OX4-SRSoftware version number:	ORYX F/W v4.00 Oryx Data Collector v3.7.2.0data status	okinstallation	princeton_trtdifferential loss correction	single-endedforward channel	channel 2reverse channel	N/Adate	2019/09/18time	06:11:35forward acquisition time	60.00reverse acquisition time	0.00gamma	496.2192k internal	0.2349k external	0.2349temperature offset calibration	0.9984default loss term (dB/km)	0.3790temperature slope calibration	1.0000multiplexer offset coefficient	1.0000multiplexer slope coefficient	1.0000fibre end	0.00T internal ref (°C)	23.19T ext. ref 1 (°C)	0.19T ext. ref 2 (°C)	17.75length (m)	temperature (°C)	Stokes	anti-Stokes-747.200	-117.015	-0.317	0.058
-746.185	698.620	0.057	0.151
-745.171	-200.000	-0.007	0.290
-744.156	-43.257	-0.359	0.181
-743.142	244.091	-0.088	0.147
-742.127	212.113	0.120	0.189
-741.112	-200.000	0.118	0.610
-740.098	43.181	-0.385	0.351
-739.083	214.127	0.323	0.511
-738.069	-200.000	-0.064	0.628
-737.054	-64.258	0.147	0.060
-736.039	-200.000	0.008	0.114
-735.025	-186.070	0.109	0.002
-734.010	-114.133	-0.099	-0.019
-732.996	138.650	0.204	-0.267
-731.981	323.305	-0.119	-0.226
-730.966	-97.759	0.155	-0.040
-729.952	-66.994	0.448	0.176
-728.937	-54.913	-0.031	0.014
-727.923	-40.698	-0.102	-0.053
-726.908	-136.894	-0.243	0.028
-725.894	206.002	0.143	-0.221
-724.879	-26.609	-0.191	0.112
-723.864	-122.749	-0.219	0.035
-722.850	426.063	-0.154	-0.331
-721.835	245.568	0.110	0.186
-720.821	75.215	0.205	-0.215
-719.806	-127.202	0.121	-0.018
-718.791	-54.872	-0.059	0.027
-717.777	-159.084	-0.322	-0.018
-716.762	-129.739	0.036	-0.005
-715.748	-86.120	0.320	0.098
-714.733	-96.586	-0.263	0.069
-713.718	0.599	-0.085	0.061
-712.704	451.216	0.047	0.104
-711.689	-200.000	0.024	0.197
-710.675	-200.000	-0.005	0.066
-709.660	-20.112	0.125	-0.077
-708.645	115.553	-0.139	-0.170
-707.631	-78.925	-0.026	-0.009
-706.616	-200.000	0.017	-0.247
-705.602	-200.000	0.016	0.139
-704.587	164.680	0.105	0.148
-703.572	80.660	0.201	0.216
-702.558	800.000	0.091	-0.391
-701.543	71.849	0.140	-0.145
-700.529	75.675	0.110	0.116
-699.514	-34.227	-0.047	0.025
-698.499	1.075	-0.093	-0.067
-697.485	81.964	-0.060	-0.065
-696.470	-93.568	-0.236	-0.065
-695.456	435.216	0.066	-0.142
-694.441	-176.468	-0.427	-0.011
-693.426	4.408	0.286	-0.209
-692.412	51.037	0.316	-0.299
-691.397	654.194	0.075	0.191
-690.383	-104.730	-0.357	0.082
-689.368	121.334	0.139	-0.173
-688.354	360.431	-0.249	0.497
-687.339	53.118	0.130	-0.124
-686.324	-200.000	-0.035	-0.177
-685.310	230.029	-0.175	-0.286
-684.295	424.724	-0.021	-0.045
-683.281	-144.763	-0.415	0.038
-682.266	-200.000	-0.062	-0.270
-681.251	-200.000	0.047	0.217
-680.237	-149.086	-0.185	0.015
-679.222	568.818	-0.105	-0.253
-678.208	800.000	0.095	0.281
-677.193	-92.443	0.169	0.047
-676.178	-200.000	-0.040	-0.364
-675.164	-58.920	0.092	0.040
-674.149	87.412	0.081	0.089
-673.135	177.078	-0.033	0.048
-672.120	800.000	-0.209	-0.609
-671.105	101.900	0.161	-0.187
-670.091	255.878	-0.103	-0.176
-669.076	-200.000	-0.058	-0.328
-668.062	-24.233	-0.073	-0.044
-667.047	-76.012	0.133	0.047
-666.032	570.361	0.139	-0.338
-665.018	341.184	0.055	0.107
-664.003	800.000	-0.041	0.175
-662.989	-200.000	-0.029	0.142
-661.974	-200.000	-0.003	0.019
-660.959	-103.025	-0.191	0.045
-659.945	-149.822	-0.166	-0.013
-658.930	-148.975	-0.183	0.015
-657.916	-31.643	0.254	-0.142
-656.901	-62.515	0.167	-0.069
-655.886	200.352	-0.031	-0.048
-654.872	800.000	-0.014	-0.041
-653.857	-15.048	-0.101	-0.065
-652.843	372.070	-0.094	0.191
-651.828	298.502	-0.062	0.113
-650.814	78.716	0.058	0.062
-649.799	-200.000	0.010	-0.190
-648.784	-65.893	0.174	-0.069
-647.770	0.810	-0.084	-0.060
-646.755	-200.000	0.048	-0.314
-645.741	283.827	-0.138	-0.247
-644.726	215.868	0.080	-0.127
-643.711	800.000	0.096	-0.326
-642.697	800.000	-0.052	-0.215
-641.682	132.025	0.279	0.357
-640.668	-200.000	-0.006	0.249
-639.653	21.959	-0.402	-0.326
-638.638	-200.000	0.009	-0.085
-637.624	-151.551	-0.199	0.015
-636.609	320.421	0.064	0.122
-635.595	-168.527	0.253	0.010
-634.580	-22.452	0.114	-0.069
-633.565	800.000	0.069	-0.229
-632.551	-115.559	-0.185	0.035
-631.536	-41.248	-0.234	0.120
-630.522	-200.000	0.012	0.114
-629.507	64.101	0.215	0.215
-628.492	-111.631	-0.341	0.069
-627.478	-58.694	-0.364	-0.157
-626.463	-200.000	0.007	0.100
-625.449	277.479	0.180	0.318
-624.434	-200.000	-0.025	-0.153
-623.419	100.437	-0.045	-0.051
-622.405	4.127	-0.174	0.126
-621.390	697.216	0.072	0.189
-620.376	-140.449	-0.166	0.017
-619.361	-148.499	-0.362	-0.029
-618.346	112.346	-0.065	0.079
-617.332	199.382	0.129	0.196
-616.317	187.588	0.204	-0.303
-615.303	358.334	-0.042	0.082
-614.288	-91.013	0.149	-0.042
-613.273	49.642	-0.233	0.218
-612.259	15.615	-0.017	0.013
-611.244	-200.000	0.055	-0.305
-610.230	-200.000	0.005	-0.113
-609.215	-41.757	-0.086	-0.044
-608.201	-69.636	-0.216	0.082
-607.186	-97.313	0.302	0.078
-606.171	23.381	0.129	0.106
-605.157	-200.000	0.100	0.489
-604.142	-64.041	0.227	0.092
-603.128	-135.385	0.348	-0.041
-602.113	183.240	-0.105	-0.155
-601.098	436.785	-0.111	0.241
-600.084	104.750	0.118	0.138
-599.069	70.371	-0.234	0.240
-598.055	-36.461	-0.294	-0.157
-597.040	535.153	0.112	-0.263
-596.025	284.629	0.153	-0.273
-595.011	800.000	-0.082	-0.309
-593.996	800.000	0.148	-0.409
-592.982	263.030	0.051	-0.088
-591.967	-200.000	0.029	-0.168
-590.952	-7.302	-0.117	-0.079
-589.938	170.694	0.014	-0.020
-588.923	-200.000	0.008	0.277
-587.909	23.285	0.122	-0.100
-586.894	52.935	0.253	-0.241
-585.879	16.268	-0.035	-0.027
-584.865	-33.921	-0.186	0.101
-583.850	-99.959	0.061	0.015
-582.836	491.331	-0.064	-0.145
-581.821	489.354	0.072	-0.163
-580.806	147.548	0.150	0.201
-579.792	76.909	-0.152	0.160
-578.777	-70.732	0.067	-0.025
-577.763	395.848	0.082	-0.170
-576.748	264.862	-0.097	-0.167
-575.733	-62.654	-0.289	-0.119
-574.719	19.246	0.192	-0.153
-573.704	800.000	-0.052	0.167
-572.690	-174.058	-0.341	0.010
-571.675	-194.166	-0.115	-0.001
-570.661	-200.000	-0.074	-0.372
-569.646	-200.000	-0.020	-0.141
-568.631	800.000	0.047	0.156
-567.617	-54.487	-0.198	-0.089
-566.602	289.858	-0.207	-0.373
-565.588	-152.949	0.148	0.010
-564.573	196.334	-0.032	-0.048
-563.558	434.015	-0.044	0.094
-562.544	167.136	-0.109	0.154
-561.529	546.745	-0.050	0.120
-560.515	-200.000	-0.044	-0.236
-559.500	379.421	0.068	-0.139
-558.485	91.549	-0.251	0.280
-557.471	-23.294	0.217	-0.129
-556.456	-200.000	0.014	-0.356
-555.442	800.000	-0.128	0.397
-554.427	-144.360	-0.029	-0.003
-553.412	14.400	-0.095	-0.074
-552.398	-24.423	-0.356	-0.211
-551.383	60.353	0.288	0.283
-550.369	201.953	-0.279	-0.427
-549.354	-43.376	-0.313	0.157
-548.339	-142.488	-0.099	-0.010
-547.325	-20.402	-0.230	0.140
-546.310	188.834	0.139	0.206
-545.296	-130.330	-0.053	0.007
-544.281	-200.000	0.011	-0.135
-543.266	-118.310	-0.113	0.020
-542.252	-200.000	-0.028	0.246
-541.237	-200.000	-0.012	0.348
-540.223	-63.291	-0.160	0.065
-539.208	-90.734	0.276	0.079
-538.193	-200.000	0.002	-0.033
-537.179	-50.267	-0.201	-0.094
-536.164	-69.282	0.147	-0.056
-535.150	-29.608	0.237	-0.134
-534.135	-139.239	0.180	-0.019
-533.121	24.066	-0.095	0.078
-532.106	-200.000	-0.005	0.130
-531.091	800.000	0.010	0.031
-530.077	-200.000	-0.004	-0.322
-529.062	92.991	-0.074	-0.083
-528.048	29.569	-0.098	-0.082
-527.033	16.894	-0.190	0.149
-526.018	55.069	-0.066	0.063
-525.004	78.612	-0.345	-0.365
-523.989	-70.744	0.114	-0.043
-522.975	-65.386	-0.233	-0.093
-521.960	-200.000	0.047	0.212
-520.945	53.024	0.113	0.107
-519.931	-89.926	0.227	0.066
-518.916	-66.879	-0.222	0.087
-517.902	9.873	0.285	-0.214
-516.887	-18.814	-0.202	-0.124
-515.872	10.055	0.234	0.176
-514.858	586.927	0.097	-0.237
-513.843	-141.078	0.110	0.011
-512.829	-200.000	0.018	0.242
-511.814	42.451	-0.125	-0.112
-510.799	800.000	-0.033	-0.106
-509.785	210.769	-0.133	-0.207
-508.770	-200.000	0.005	0.096
-507.756	56.330	0.057	-0.055
-506.741	34.710	-0.158	0.137
-505.726	-99.490	0.399	-0.099
-504.712	348.109	0.050	-0.097
-503.697	-200.000	-0.010	0.231
-502.683	-22.605	0.207	-0.124
-501.668	800.000	-0.124	0.406
-500.653	-60.255	0.147	0.062
-499.639	217.389	0.064	0.100
-498.624	74.245	-0.079	-0.082
-497.610	84.542	0.245	0.266
-496.595	67.548	-0.175	0.177
-495.581	-111.797	-0.368	0.074
-494.566	-93.866	0.143	0.039
-493.551	69.514	-0.177	-0.181
-492.537	-36.734	-0.196	0.104
-491.522	381.808	-0.107	0.217
-490.508	43.156	-0.086	-0.077
-489.493	-49.896	0.181	0.085
-488.478	62.106	-0.172	0.170
-487.464	-200.000	-0.041	0.398
-486.449	75.238	-0.170	0.177
-485.435	-169.624	0.111	0.004
-484.420	-200.000	-0.019	-0.152
-483.405	-200.000	-0.027	0.124
-482.391	24.545	-0.215	-0.176
-481.376	-124.818	0.197	-0.030
-480.362	-61.419	-0.104	0.043
-479.347	-81.051	-0.273	0.089
-478.332	63.453	0.382	-0.379
-477.318	81.087	-0.223	-0.238
-476.303	-113.616	-0.241	0.047
-475.289	-200.000	0.012	-0.089
-474.274	10.652	0.193	0.145
-473.259	590.555	0.172	-0.420
-472.245	800.000	0.022	-0.090
-471.230	-168.324	-0.141	-0.005
-470.216	-94.730	0.238	0.064
-469.201	-200.000	0.037	0.175
-468.186	315.373	-0.161	-0.299
-467.172	458.716	-0.032	0.070
-466.157	-200.000	-0.054	0.340
-465.143	492.809	0.017	0.039
-464.128	-138.190	-0.214	0.023
-463.113	-200.000	-0.006	-0.329
-462.099	228.908	-0.047	-0.076
-461.084	-79.365	-0.309	-0.103
-460.070	-164.785	0.366	0.016
-459.055	800.000	0.039	-0.127
-458.040	-200.000	0.019	-0.087
-457.026	-200.000	-0.008	0.223
-456.011	462.376	0.041	0.089
-454.997	112.958	0.149	-0.178
-453.982	180.257	-0.215	-0.312
-452.968	800.000	0.096	-0.359
-451.953	649.734	0.074	0.186
-450.938	-57.977	-0.218	-0.094
-449.924	230.214	-0.081	0.131
-448.909	2.161	0.288	0.205
-447.895	-200.000	0.018	0.219
-446.880	198.351	-0.054	0.082
-445.865	-200.000	0.011	0.151
-444.851	101.195	-0.267	0.307
-443.836	-200.000	-0.037	-0.236
-442.822	-127.547	-0.347	-0.050
-441.807	800.000	-0.050	-0.159
-440.792	89.651	-0.173	0.191
-439.778	-0.575	0.231	-0.162
-438.763	458.139	-0.212	-0.465
-437.749	-200.000	0.039	-0.575
-436.734	273.993	0.048	0.084
-435.719	-7.609	0.287	-0.191
-434.705	-200.000	0.039	0.215
-433.690	-200.000	-0.027	0.304
-432.676	-200.000	-0.046	0.233
-431.661	139.944	0.200	-0.260
-430.646	-92.772	-0.187	0.052
-429.632	-100.369	0.129	0.032
-428.617	362.774	-0.026	0.051
-427.603	232.133	0.175	-0.284
-426.588	-78.830	-0.219	0.074
-425.573	-171.089	0.039	0.001
-424.559	220.229	0.093	0.147
-423.544	-74.035	0.046	-0.016
-422.530	357.981	-0.186	-0.366
-421.515	402.102	-0.032	0.066
-420.500	17.861	0.389	0.305
-419.486	-59.355	-0.212	0.090
-418.471	-66.626	0.322	-0.126
-417.457	302.875	-0.162	0.297
-416.442	-137.291	0.049	0.005
-415.428	-175.896	0.066	0.002
-414.413	-200.000	0.078	0.473
-413.398	-119.411	0.286	0.049
-412.384	-74.925	0.282	-0.100
-411.369	-200.000	-0.006	-0.051
-410.355	-200.000	-0.014	-0.135
-409.340	-80.530	0.058	-0.019
-408.325	-200.000	-0.007	-0.146
-407.311	55.311	0.083	-0.080
-406.296	-181.985	-0.010	-0.000
-405.282	-200.000	0.038	0.185
-404.267	800.000	-0.065	0.251
-403.252	254.217	-0.105	-0.176
-402.238	349.076	0.062	-0.120
-401.223	90.957	-0.049	0.055
-400.209	-200.000	0.034	0.152
-399.194	309.244	0.165	0.305
-398.179	-200.000	-0.014	0.085
-397.165	800.000	0.035	-0.112
-396.150	-34.876	-0.212	-0.114
-395.136	-15.435	0.286	-0.180
-394.121	567.269	-0.083	-0.198
-393.106	-64.626	-0.166	-0.067
-392.092	-34.953	-0.352	-0.189
-391.077	68.929	0.221	-0.223
-390.063	92.170	0.042	0.046
-389.048	187.398	-0.179	0.263
-388.033	688.671	0.063	-0.163
-387.019	-200.000	0.022	0.165
-386.004	-200.000	-0.051	-0.227
-384.990	-50.579	0.360	0.167
-383.975	-200.000	0.032	-0.146
-382.960	61.655	0.317	-0.311
-381.946	800.000	0.083	0.240
-380.931	-8.274	-0.107	-0.071
-379.917	-200.000	-0.026	-0.264
-378.902	77.377	0.231	-0.242
-377.888	-75.105	0.321	0.113
-376.873	-200.000	0.006	-0.178
-375.858	16.122	0.067	-0.052
-374.844	165.513	0.075	-0.105
-373.829	-52.942	0.104	0.047
-372.815	-1.253	-0.180	-0.125
-371.800	-200.000	-0.051	-0.249
-370.785	2.898	-0.187	0.134
-369.771	216.541	-0.142	0.222
-368.756	195.702	-0.283	0.423
-367.742	-58.572	0.148	0.063
-366.727	-200.000	-0.009	0.298
-365.712	166.335	-0.062	-0.087
-364.698	-62.334	-0.120	-0.049
-363.683	53.200	0.156	0.147
-362.669	-9.802	-0.534	0.350
-361.654	84.248	0.053	-0.057
-360.639	-23.797	0.150	-0.089
-359.625	-42.926	0.244	-0.122
-358.610	-200.000	0.003	0.120
-357.596	306.849	0.164	-0.300
-356.581	800.000	-0.092	0.339
-355.566	121.944	-0.073	0.090
-354.552	663.829	-0.063	-0.160
-353.537	407.108	-0.035	0.074
-352.523	2.426	0.274	-0.195
-351.508	97.269	0.041	0.046
-350.493	-90.346	0.085	0.024
-349.479	-101.543	0.130	-0.031
-348.464	-132.546	-0.253	0.032
-347.450	446.779	0.088	-0.191
-346.435	-69.823	-0.070	-0.026
-345.420	232.368	-0.114	-0.183
-344.406	433.762	-0.084	-0.180
-343.391	-28.639	0.209	-0.118
-342.377	-0.266	-0.022	-0.016
-341.362	800.000	-0.038	-0.146
-340.348	-117.045	0.250	0.045
-339.333	166.916	-0.151	0.211
-338.318	225.479	-0.143	0.228
-337.304	-22.279	0.316	-0.188
-336.289	-27.448	0.297	-0.170
-335.275	-155.461	-0.319	0.020
-334.260	30.011	-0.284	-0.238
-333.245	14.533	-0.254	0.195
-332.231	-154.471	0.229	0.015
-331.216	597.749	0.083	-0.202
-330.202	17.904	-0.243	-0.190
-329.187	-152.971	-0.094	0.006
-328.172	202.062	0.095	0.144
-327.158	407.107	0.223	0.463
-326.143	800.000	0.113	0.315
-325.129	-105.843	0.029	-0.006
-324.114	81.986	0.110	-0.117
-323.099	-78.850	-0.361	0.121
-322.085	555.968	0.126	-0.298
-321.070	706.642	0.073	-0.189
-320.056	-122.600	-0.137	0.022
-319.041	17.412	0.109	0.085
-318.026	-80.493	-0.273	-0.090
-317.012	-200.000	0.011	0.208
-315.997	-183.482	0.155	0.003
-314.983	165.662	0.112	-0.156
-313.968	-200.000	0.007	0.105
-312.953	42.595	-0.279	0.249
-311.939	800.000	-0.076	-0.243
-310.924	-162.764	0.321	0.015
-309.910	3.647	-0.144	-0.103
-308.895	-200.000	0.007	-0.354
-307.880	-91.055	0.424	0.120
-306.866	-50.239	0.329	0.153
-305.851	-200.000	0.003	-0.310
-304.837	-17.473	0.157	0.097
-303.822	800.000	-0.060	-0.208
-302.807	-200.000	-0.376	0.001
-301.793	-92.244	0.133	0.037
-300.778	800.000	0.037	0.148
-299.764	-20.320	0.209	0.126
-298.749	-82.683	-0.219	0.070
-297.735	352.940	-0.057	0.112
-296.720	-200.000	-0.038	-0.216
-295.705	-113.282	0.038	-0.007
-294.691	349.391	-0.132	0.257
-293.676	-200.000	0.013	0.067
-292.662	800.000	0.048	0.143
-291.647	800.000	-0.074	-0.263
-290.632	734.077	-0.097	-0.255
-289.618	-82.273	0.140	0.045
-288.603	59.353	0.293	-0.283
-287.589	239.752	-0.050	0.081
-286.574	-74.498	0.471	0.166
-285.559	189.994	-0.104	0.153
-284.545	188.208	0.067	0.099
-283.530	32.877	0.151	0.128
-282.516	800.000	0.009	-0.024
-281.501	-145.736	-0.330	0.029
-280.486	800.000	0.019	-0.050
-279.472	-66.725	0.175	0.068
-278.457	272.440	0.029	-0.050
-277.443	346.499	-0.154	-0.296
-276.428	738.882	0.042	0.112
-275.413	17.835	-0.155	-0.121
-274.399	129.909	0.064	0.080
-273.384	-39.711	0.209	-0.107
-272.370	-26.739	-0.191	0.110
-271.355	169.473	0.181	-0.253
-270.340	800.000	0.120	0.420
-269.326	800.000	0.052	-0.158
-268.311	24.062	0.120	0.097
-267.297	452.180	0.115	0.249
-266.282	-22.527	-0.403	-0.239
-265.267	616.318	0.045	0.110
-264.253	243.445	-0.094	-0.154
-263.238	-200.000	0.000	0.140
-262.224	-200.000	0.007	-0.030
-261.209	310.999	-0.166	0.305
-260.195	48.799	-0.030	0.028
-259.180	187.930	0.255	-0.373
-258.165	-103.095	-0.089	-0.021
-257.151	-5.265	-0.140	-0.094
-256.136	-200.000	-0.012	0.165
-255.122	158.040	-0.135	0.183
-254.107	-97.956	0.213	0.054
-253.092	-200.000	0.028	0.505
-252.078	189.808	0.122	0.180
-251.063	800.000	0.085	0.342
-250.049	29.971	0.147	-0.123
-249.034	-200.000	0.018	0.093
-248.019	552.558	0.038	-0.090
-247.005	-63.320	0.183	0.074
-245.990	141.010	-0.159	-0.206
-244.976	36.602	0.327	-0.283
-243.961	130.168	-0.143	0.180
-242.946	-165.480	0.161	-0.007
-241.932	-46.839	0.055	-0.026
-240.917	106.822	-0.220	-0.255
-239.903	800.000	0.087	-0.269
-238.888	464.325	0.180	-0.395
-237.873	800.000	-0.028	0.093
-236.859	800.000	-0.120	0.369
-235.844	800.000	-0.045	0.159
-234.830	146.887	0.058	0.076
-233.815	291.880	-0.273	0.486
-232.800	-105.558	-0.426	-0.095
-231.786	-74.509	-0.262	0.092
-230.771	-23.827	-0.251	0.147
-229.757	-200.000	0.028	-0.177
-228.742	116.642	-0.236	-0.283
-227.727	-200.000	0.057	0.265
-226.713	-160.114	0.348	0.019
-225.698	800.000	0.025	-0.095
-224.684	35.371	0.185	0.158
-223.669	247.339	0.175	-0.290
-222.655	800.000	-0.039	0.106
-221.640	163.918	0.241	0.332
-220.625	331.069	0.068	0.128
-219.611	12.103	-0.251	0.189
-218.596	712.280	-0.070	0.182
-217.582	-200.000	-0.022	0.101
-216.567	36.255	0.087	0.075
-215.552	-169.646	0.093	-0.003
-214.538	-91.719	-0.218	-0.061
-213.523	800.000	-0.055	0.178
-212.509	-200.000	-0.030	0.489
-211.494	-200.000	-0.133	0.000
-210.479	-12.848	0.183	0.117
-209.465	188.068	0.171	-0.250
-208.450	-200.000	0.014	0.230
-207.436	124.714	0.068	0.084
-206.421	800.000	-0.059	-0.160
-205.406	-13.605	0.029	-0.018
-204.392	-200.000	0.030	-0.149
-203.377	-93.818	0.397	-0.107
-202.363	-19.145	-0.035	-0.021
-201.348	-192.634	-0.086	-0.001
-200.333	-200.000	-0.003	-0.331
-199.319	-34.776	-0.215	-0.115
-198.304	9.364	0.080	-0.059
-197.290	800.000	-0.009	0.029
-196.275	-36.801	0.161	0.085
-195.260	-153.797	0.049	-0.003
-194.246	-200.000	0.058	0.299
-193.231	-155.949	0.022	-0.001
-192.217	630.170	0.093	0.229
-191.202	-75.868	0.187	-0.065
-190.187	-143.842	0.316	0.029
-189.173	-200.000	-0.070	-0.353
-188.158	-64.381	0.129	-0.051
-187.144	540.170	0.125	0.290
-186.129	-49.302	0.104	-0.049
-185.114	-182.039	0.239	0.004
-184.100	-200.000	0.057	-0.310
-183.085	800.000	-0.051	0.163
-182.071	-116.624	-0.074	-0.013
-181.056	800.000	-0.028	0.104
-180.042	-136.486	-0.172	-0.019
-179.027	-139.316	-0.299	0.031
-178.012	644.056	0.072	-0.179
-176.998	-13.790	-0.170	0.108
-175.983	800.000	-0.037	0.118
-174.969	304.501	0.189	0.343
-173.954	475.905	0.086	0.190
-172.939	94.191	0.215	-0.238
-171.925	-116.973	-0.167	0.030
-170.910	28.500	-0.263	-0.218
-169.896	64.697	-0.039	0.038
-168.881	-39.125	-0.118	-0.061
-167.866	-200.000	-0.042	0.316
-166.852	-52.090	-0.050	-0.023
-165.837	-200.000	-0.007	0.166
-164.823	-143.147	0.298	-0.028
-163.808	-117.046	-0.152	0.027
-162.793	-22.640	0.238	0.140
-161.779	257.218	-0.149	-0.250
-160.764	-188.802	-0.240	-0.003
-159.750	132.230	-0.063	-0.079
-158.735	90.192	0.131	-0.144
-157.720	-200.000	0.020	0.466
-156.706	-75.716	0.210	-0.073
-155.691	37.177	-0.106	0.092
-154.677	-200.000	-0.295	-0.000
-153.662	733.135	0.086	-0.226
-152.647	14.122	0.214	-0.163
-151.633	800.000	-0.068	0.291
-150.618	-124.775	-0.184	-0.028
-149.604	126.952	0.152	0.188
-148.589	104.640	-0.071	0.082
-147.574	800.000	0.065	0.236
-146.560	-95.230	0.167	0.044
-145.545	-200.000	0.005	-0.141
-144.531	-124.909	0.356	-0.054
-143.516	72.811	-0.088	0.090
-142.502	800.000	-0.046	-0.176
-141.487	78.313	-0.093	0.097
-140.472	-97.804	-0.130	-0.033
-139.458	800.000	-0.015	0.043
-138.443	-152.201	0.197	0.014
-137.429	-98.746	0.226	0.056
-136.414	-200.000	-0.008	-0.130
-135.399	-125.362	-0.279	-0.042
-134.385	800.000	0.089	0.254
-133.370	-200.000	0.070	-0.377
-132.356	-138.249	0.239	-0.026
-131.341	-200.000	-0.013	-0.076
-130.326	800.000	0.036	-0.138
-129.312	17.201	0.178	-0.137
-128.297	-109.885	0.143	0.029
-127.283	236.096	-0.156	0.252
-126.268	-106.546	-0.344	-0.075
-125.253	57.409	-0.096	0.091
-124.239	81.541	0.171	0.180
-123.224	800.000	-0.042	-0.167
-122.210	454.506	0.123	0.266
-121.195	-128.447	0.137	0.019
