DTS Sentinel unit serial number:	SN413079Multiplexer serial number:	ORYXHardware model number:	OX4-SRSoftware version number:	ORYX F/W v4.00 Oryx Data Collector v3.7.2.0data status	okinstallation	princeton_trtdifferential loss correction	single-endedforward channel	channel 2reverse channel	N/Adate	2019/09/12time	18:33:49forward acquisition time	15.00reverse acquisition time	0.00gamma	496.2192k internal	0.2324k external	0.2324temperature offset calibration	1.0135default loss term (dB/km)	0.3790temperature slope calibration	1.0000multiplexer offset coefficient	1.0000multiplexer slope coefficient	1.0000fibre end	0.00T internal ref (°C)	33.19T ext. ref 1 (°C)	2.96T ext. ref 2 (°C)	27.72length (m)	temperature (°C)	Stokes	anti-Stokes-747.200	11.258	0.666	0.514
-746.185	420.177	0.560	-1.212
-745.171	3.281	-0.501	-0.368
-744.156	-73.566	-0.705	0.259
-743.142	-138.353	-0.778	-0.087
-742.127	14.556	-0.353	-0.278
-741.112	-113.670	0.231	0.045
-740.098	-113.076	-1.193	0.238
-739.083	59.467	-0.625	0.622
-738.069	228.407	0.160	-0.263
-737.054	-120.118	-0.480	-0.083
-736.039	-106.407	-0.936	-0.211
-735.025	-71.005	-0.490	-0.186
-734.010	-1.637	0.543	0.386
-732.996	21.967	-0.100	0.082
-731.981	-117.969	-0.564	0.102
-730.966	170.371	-0.186	0.269
-729.952	237.724	-0.263	-0.440
-728.937	25.532	0.342	-0.287
-727.923	-95.736	0.318	0.086
-726.908	-200.000	0.003	0.536
-725.894	-55.223	-0.050	0.023
-724.879	-200.000	0.098	0.510
-723.864	-166.753	-0.572	0.024
-722.850	-89.559	-0.663	0.196
-721.835	-117.358	0.401	0.073
-720.821	800.000	0.027	-0.099
-719.806	800.000	0.039	-0.121
-718.791	560.392	-0.212	-0.517
-717.777	9.947	0.377	-0.289
-716.762	-181.596	-0.116	0.002
-715.748	-200.000	-0.078	-0.682
-714.733	-90.806	0.501	0.146
-713.718	212.709	0.526	0.837
-712.704	-88.277	0.409	0.123
-711.689	-156.593	-0.622	0.039
-710.675	-200.000	0.099	-1.085
-709.660	335.036	-0.074	0.146
-708.645	-109.248	-0.107	-0.023
-707.631	-5.556	0.611	-0.422
-706.616	36.345	-0.533	0.474
-705.602	-75.530	-0.713	0.256
-704.587	-119.330	-0.407	-0.071
-703.572	534.476	0.238	-0.568
-702.558	800.000	-0.139	-0.590
-701.543	678.662	0.192	0.503
-700.529	31.620	0.716	0.621
-699.514	23.863	-0.412	-0.342
-698.499	-200.000	-0.012	-1.048
-697.485	-25.433	0.427	-0.255
-696.470	394.057	0.293	-0.615
-695.456	514.820	0.299	-0.704
-694.441	31.836	0.082	-0.071
-693.426	-200.000	-0.072	-0.346
-692.412	67.383	-0.466	0.479
-691.397	382.756	-0.269	-0.557
-690.383	91.540	-0.361	-0.409
-689.368	-63.205	-0.240	0.099
-688.354	-153.205	0.265	0.019
-687.339	-126.221	-0.355	-0.053
-686.324	496.284	0.162	-0.376
-685.310	-145.127	0.501	-0.046
-684.295	386.132	0.055	0.115
-683.281	-172.960	-0.825	0.026
-682.266	-200.000	-0.132	-0.631
-681.251	-164.975	0.796	-0.036
-680.237	14.247	-0.436	0.342
-679.222	800.000	-0.136	-0.418
-678.208	-166.652	-0.594	-0.025
-677.193	-165.971	0.252	0.011
-676.178	120.189	-0.090	0.112
-675.164	-18.922	-0.479	-0.300
-674.149	207.316	0.202	0.317
-673.135	-200.000	0.002	-0.139
-672.120	-37.708	-0.608	0.326
-671.105	-200.000	-0.008	-0.371
-670.091	-21.411	-0.481	0.295
-669.076	-142.701	0.460	-0.045
-668.062	-200.000	-0.070	0.350
-667.047	-200.000	-0.035	-1.024
-666.032	71.265	-0.095	0.099
-665.018	-153.062	0.953	0.067
-664.003	-134.175	1.040	-0.129
-662.989	118.185	-0.247	-0.307
-661.974	48.727	0.577	0.545
-660.959	-80.694	-0.582	0.195
-659.945	69.996	-0.055	0.057
-658.930	-200.000	-0.035	-1.041
-657.916	530.617	0.076	0.180
-656.901	800.000	0.160	0.571
-655.886	-200.000	-0.107	0.807
-654.872	-8.524	0.351	0.237
-653.857	-118.621	-0.496	0.088
-652.843	800.000	-0.122	0.497
-651.828	-200.000	0.012	-0.715
-650.814	325.796	-0.292	-0.561
-649.799	800.000	-0.063	0.202
-648.784	-112.424	-0.349	0.070
-647.770	-46.847	-0.443	0.218
-646.755	60.541	0.197	-0.196
-645.741	-27.340	-0.631	0.369
-644.726	-169.530	0.479	0.018
-643.711	211.767	0.454	0.720
-642.697	397.096	0.262	0.550
-641.682	-142.146	0.280	0.028
-640.668	293.764	-0.291	0.534
-639.653	800.000	-0.274	-1.202
-638.638	-151.973	0.471	-0.035
-637.624	-11.323	0.903	0.597
-636.609	-158.427	0.080	-0.005
-635.595	-74.351	-0.559	-0.203
-634.580	-167.025	0.396	-0.016
-633.565	-96.621	-0.767	-0.203
-632.551	39.438	-0.133	-0.119
-631.536	-111.801	-1.634	0.332
-630.522	800.000	-0.096	-0.272
-629.507	-200.000	-0.010	0.255
-628.492	11.829	0.301	0.232
-627.478	57.143	-0.189	0.186
-626.463	213.037	-0.398	0.631
-625.449	96.947	0.292	-0.336
-624.434	800.000	0.138	-0.585
-623.419	-9.376	-0.419	-0.281
-622.405	-79.929	-0.137	0.046
-621.390	-200.000	0.054	-0.434
-620.376	230.324	-0.286	0.470
-619.361	-80.623	0.604	-0.202
-618.346	321.937	-0.104	0.199
-617.332	-41.058	-0.237	-0.123
-616.317	-39.270	-0.493	0.260
-615.303	-124.944	-0.633	-0.098
-614.288	167.008	0.176	0.252
-613.273	9.436	0.282	-0.215
-612.259	178.484	0.195	-0.286
-611.244	-102.595	0.664	-0.159
-610.230	-200.000	0.035	-0.573
-609.215	6.422	0.701	-0.523
-608.201	-90.519	0.359	0.104
-607.186	38.881	0.702	-0.630
-606.171	800.000	0.134	0.557
-605.157	16.189	0.371	0.293
-604.142	44.198	-0.121	-0.112
-603.128	-7.132	-0.719	-0.490
-602.113	651.316	-0.156	-0.401
-601.098	-122.681	-0.978	-0.159
-600.084	154.902	-0.254	-0.350
-599.069	-160.701	0.375	0.020
-598.055	391.035	0.323	0.673
-597.040	202.845	-0.359	0.557
-596.025	328.666	-0.131	-0.252
-595.011	-96.526	-0.359	0.095
-593.996	96.555	-0.489	0.562
-592.982	-200.000	0.024	-0.183
-591.967	800.000	-0.051	0.200
-590.952	31.839	-0.141	0.122
-589.938	800.000	-0.124	-0.376
-588.923	-200.000	0.033	-0.261
-587.909	-146.406	-0.234	-0.021
-586.894	-104.461	-0.109	0.025
-585.879	-137.368	-0.541	0.061
-584.865	-127.456	0.314	-0.046
-583.850	-50.732	-0.964	0.455
-582.836	21.159	-0.710	-0.578
-581.821	-200.000	-0.047	0.509
-580.806	-137.769	-0.409	0.046
-579.792	135.982	0.321	0.419
-578.777	-200.000	-0.009	-0.715
-577.763	83.429	0.171	0.186
-576.748	148.946	0.330	-0.448
-575.733	-57.741	-0.596	-0.262
-574.719	-130.834	0.687	-0.092
-573.704	-93.774	0.907	0.251
-572.690	-71.046	0.216	0.082
-571.675	-9.433	0.426	0.285
-570.661	-61.503	-0.592	0.249
-569.646	91.622	0.236	0.266
-568.631	222.736	-0.192	-0.310
-567.617	800.000	0.051	-0.150
-566.602	-200.000	0.037	0.328
-565.588	-86.663	0.155	0.048
-564.573	572.844	-0.064	-0.157
-563.558	800.000	0.225	0.632
-562.544	26.863	0.146	0.123
-561.529	-63.255	0.314	0.130
-560.515	585.055	-0.129	0.318
-559.500	-166.955	-0.565	0.023
-558.485	-92.056	0.472	-0.134
-557.471	-200.000	-0.105	-0.573
-556.456	532.352	0.370	0.878
-555.442	-51.133	0.343	-0.161
-554.427	-108.842	-0.765	0.164
-553.412	35.358	0.770	0.677
-552.398	-200.000	0.113	0.653
-551.383	86.782	0.720	0.796
-550.369	-200.000	-0.022	0.175
-549.354	396.358	0.048	-0.101
-548.339	-200.000	0.046	-0.505
-547.325	-158.225	0.774	0.045
-546.310	387.799	-0.209	-0.433
-545.296	-38.513	-0.700	-0.371
-544.281	-200.000	-0.115	-0.614
-543.266	-120.522	-0.750	0.127
-542.252	-136.009	0.542	-0.064
-541.237	-156.934	-0.363	0.022
-540.223	-66.237	-0.185	-0.074
-539.208	222.615	0.130	-0.210
-538.193	-8.401	-0.128	0.086
-537.179	-107.793	-0.710	0.155
-536.164	-1.938	0.263	0.185
-535.150	-112.000	-0.939	0.189
-534.135	-200.000	-0.078	0.617
-533.121	-200.000	0.096	-0.428
-532.106	67.696	0.287	-0.293
-531.091	88.959	0.324	0.362
-530.077	33.392	-0.406	0.353
-529.062	-140.454	-0.592	-0.062
-528.048	-113.330	-0.333	0.065
-527.033	54.849	0.485	0.469
-526.018	38.747	0.674	-0.603
-525.004	800.000	-0.046	-0.141
-523.989	268.940	0.115	0.202
-522.975	800.000	-0.170	-0.487
-521.960	-134.792	-1.105	-0.134
-520.945	-164.666	0.496	-0.022
-519.931	-73.751	0.405	0.148
-518.916	-44.843	-0.562	-0.280
-517.902	-126.119	-0.165	-0.025
-516.887	273.841	0.087	0.154
-515.872	202.579	0.697	1.077
-514.858	-200.000	0.004	-0.652
-513.843	-128.432	-0.323	0.046
-512.829	-66.138	-0.548	0.219
-511.814	-156.712	-0.500	0.031
-510.799	22.676	0.296	-0.243
-509.785	104.322	-0.332	0.391
-508.770	-67.761	-0.891	-0.349
-507.756	-17.595	0.514	0.323
-506.741	-165.557	-0.823	0.036
-505.726	13.060	-0.727	-0.562
-504.712	-154.508	-0.282	0.019
-503.697	61.071	0.383	0.380
-502.683	-138.926	-0.849	0.092
-501.668	-200.000	0.010	-0.179
-500.653	14.471	0.711	-0.555
-499.639	-200.000	-0.031	0.761
-498.624	-200.000	-0.019	0.109
-497.610	409.853	-0.266	-0.563
-496.595	-16.788	0.321	-0.203
-495.581	-200.000	0.017	0.432
-494.566	-24.737	-0.444	0.264
-493.551	-133.162	-0.581	0.074
-492.537	-58.800	-0.392	-0.170
-491.522	369.293	0.270	0.546
-490.508	-161.080	0.888	-0.046
-489.493	-107.020	-0.527	-0.116
-488.478	-200.000	-0.050	0.395
-487.464	-102.009	0.617	-0.149
-486.449	-30.034	0.098	-0.056
-485.435	-32.743	-0.475	-0.264
-484.420	800.000	-0.031	-0.089
-483.405	-187.671	-0.872	-0.012
-482.391	-148.099	-0.279	-0.023
-481.376	127.813	-0.731	0.929
-480.362	800.000	-0.255	0.846
-479.347	-78.125	-0.483	0.166
-478.332	11.057	0.452	-0.345
-477.318	800.000	0.063	-0.184
-476.303	-200.000	-0.064	-0.596
-475.289	-11.264	0.641	-0.422
-474.274	149.632	0.183	-0.248
-473.259	-51.354	0.656	-0.307
-472.245	-91.532	0.352	-0.100
-471.230	-87.611	0.116	-0.035
-470.216	36.384	0.105	0.092
-469.201	28.351	0.144	0.121
-468.186	800.000	0.167	-0.590
-467.172	-53.137	0.582	-0.267
-466.157	-105.460	0.440	0.100
-465.143	-34.541	0.150	0.082
-464.128	-91.782	-0.753	-0.214
-463.113	-200.000	-0.067	-0.429
-462.099	81.286	-0.432	-0.466
-461.084	-117.949	-0.784	-0.140
-460.070	-21.803	-0.415	0.252
-459.055	115.144	0.651	0.793
-458.040	-9.874	-0.109	-0.072
-457.026	-143.386	0.374	0.036
-456.011	-63.142	-0.396	0.163
-454.997	-142.860	0.147	-0.014
-453.982	319.775	-0.338	-0.640
-452.968	7.892	-0.388	0.291
-451.953	38.617	0.245	-0.218
-450.938	-4.848	1.212	0.833
-449.924	56.026	-0.485	0.470
-448.909	-7.356	0.648	0.438
-447.895	-81.682	-0.701	-0.229
-446.880	103.614	-0.296	0.347
-445.865	-2.318	0.228	0.160
-444.851	72.797	-0.121	0.126
-443.836	-134.612	-0.066	0.008
-442.822	79.173	0.289	0.309
-441.807	-200.000	0.030	0.165
-440.792	95.601	-0.202	0.230
-439.778	605.490	-0.271	-0.672
-438.763	-25.467	0.454	0.268
-437.749	-135.904	-0.356	0.042
-436.734	-45.051	-0.201	0.100
-435.719	75.873	-0.876	-0.924
-434.705	3.292	-0.384	0.279
-433.690	-200.000	0.031	0.849
-432.676	-43.375	0.191	-0.096
-431.661	-200.000	0.036	0.624
-430.646	-12.345	-0.563	0.367
-429.632	160.922	0.252	0.350
-428.617	15.924	-1.023	-0.803
-427.603	800.000	0.073	0.229
-426.588	800.000	0.063	0.237
-425.573	-171.941	0.280	-0.009
-424.559	-142.673	-0.599	0.058
-423.544	117.189	-0.461	0.564
-422.530	104.328	-0.045	0.053
-421.515	-45.121	0.418	0.207
-420.500	88.498	0.655	-0.726
-419.486	-108.700	-0.320	0.068
-418.471	-103.904	0.634	0.148
-417.457	132.919	-0.584	0.752
-416.442	183.994	0.141	0.208
-415.428	143.274	0.201	0.267
-414.413	247.907	-0.066	0.111
-413.398	-142.207	-0.620	-0.061
-412.384	41.078	-0.279	-0.251
-411.369	-200.000	-0.103	-0.516
-410.355	189.130	-0.262	0.391
-409.340	-109.149	-0.724	-0.153
-408.325	-22.476	0.079	-0.048
-407.311	-127.900	0.177	-0.025
-406.296	-173.484	-1.336	-0.040
-405.282	584.607	-0.287	0.702
-404.267	39.255	-0.487	0.434
-403.252	1.959	-0.450	0.323
-402.238	-12.060	0.445	-0.291
-401.223	-39.638	0.441	0.230
-400.209	41.674	0.593	0.535
-399.194	-59.749	0.346	-0.147
-398.179	800.000	-0.101	-0.356
-397.165	431.775	-0.175	0.377
-396.150	-88.732	0.420	0.124
-395.136	-179.723	0.176	0.004
-394.121	800.000	0.221	-0.609
-393.106	60.038	0.980	0.964
-392.092	-200.000	0.050	-0.248
-391.077	-59.270	-0.312	-0.134
-390.063	318.263	0.119	-0.225
-389.048	-200.000	0.090	-0.834
-388.033	45.687	0.515	-0.474
-387.019	40.379	0.286	0.257
-386.004	-114.287	-0.229	0.044
-384.990	103.630	-0.189	0.221
-383.975	170.797	-0.098	0.139
-382.960	-110.852	-0.218	0.045
-381.946	54.011	-0.169	0.162
-380.931	585.743	-0.253	-0.618
-379.917	164.062	-0.558	-0.782
-378.902	8.993	0.619	-0.465
-377.888	-24.293	0.384	-0.228
-376.873	-200.000	-0.031	0.578
-375.858	129.037	0.505	-0.641
-374.844	-200.000	0.083	0.516
-373.829	209.188	0.414	0.645
-372.815	-26.050	-0.075	0.044
-371.800	800.000	0.113	-0.340
-370.785	2.473	0.192	0.138
-369.771	57.110	0.680	0.660
-368.756	284.211	0.112	0.200
-367.742	37.509	0.900	0.794
-366.727	122.940	0.347	0.432
-365.712	-200.000	0.067	-0.488
-364.698	800.000	0.145	-0.509
-363.683	-200.000	-0.003	0.775
-362.669	800.000	0.214	-0.639
-361.654	800.000	0.258	-0.735
-360.639	-6.209	0.666	-0.452
-359.625	-7.764	0.076	-0.051
-358.610	289.133	-0.225	0.406
-357.596	207.701	0.280	0.435
-356.581	334.177	-0.396	-0.762
-355.566	-200.000	0.059	-0.268
-354.552	-24.702	0.834	-0.493
-353.537	99.708	-0.462	-0.532
-352.523	-140.101	0.382	-0.040
-351.508	61.677	-0.233	0.231
-350.493	603.848	-0.178	-0.439
-349.479	308.132	-0.220	-0.408
-348.464	107.148	-0.210	0.248
-347.450	112.254	0.216	0.259
-346.435	353.611	0.241	0.476
-345.420	-200.000	0.031	0.253
-344.406	93.396	-0.510	-0.573
-343.391	800.000	0.108	-0.366
-342.377	3.917	-0.505	-0.366
-341.362	-200.000	0.004	0.416
-340.348	-117.627	1.043	-0.187
-339.333	-155.619	-0.320	-0.020
-338.318	-49.683	0.475	-0.225
-337.304	-11.506	0.312	-0.204
-336.289	-7.978	0.809	-0.542
-335.275	-50.255	0.373	0.175
-334.260	-68.449	0.140	0.054
-333.245	119.115	0.244	-0.300
-332.231	-200.000	-0.092	0.833
-331.216	-200.000	0.101	0.891
-330.202	-3.929	0.382	0.263
-329.187	52.861	0.145	0.137
-328.172	-15.405	0.579	0.367
-327.158	-200.000	0.041	-1.028
-326.143	-154.332	-0.199	-0.013
-325.129	-44.639	-0.770	-0.382
-324.114	591.297	0.138	-0.338
-323.099	-200.000	0.043	-0.230
-322.085	-140.144	0.409	-0.043
-321.070	-134.146	-1.002	0.123
-320.056	42.961	-0.039	-0.036
-319.041	132.594	0.100	-0.128
-318.026	-33.198	-1.330	0.732
-317.012	-85.467	0.441	0.136
-315.997	344.043	-0.187	0.364
-314.983	-200.000	-0.008	0.683
-313.968	800.000	0.150	-0.518
-312.953	689.683	-0.076	-0.197
-311.939	-103.493	-0.515	0.120
-310.924	93.383	0.454	0.510
-309.910	-200.000	0.141	0.788
-308.895	-200.000	-0.065	0.603
-307.880	195.315	0.216	-0.325
-306.866	-45.190	-0.373	0.184
-305.851	800.000	-0.107	0.324
-304.837	209.762	-0.376	0.585
-303.822	-23.041	-0.475	0.284
-302.807	-200.000	0.027	-0.403
-301.793	3.139	-0.313	-0.226
-300.778	-75.390	0.953	-0.337
-299.764	-200.000	0.075	0.644
-298.749	197.098	0.235	-0.356
-297.735	-200.000	-0.036	0.385
-296.720	-200.000	0.010	0.189
-295.705	-200.000	-0.163	-0.855
-294.691	-22.987	-0.344	0.206
-293.676	-165.254	0.233	0.010
-292.662	-139.952	0.332	0.035
-291.647	48.202	-0.491	-0.455
-290.632	-200.000	-0.080	-0.460
-289.618	-35.309	-0.110	0.059
-288.603	32.463	0.442	-0.379
-287.589	-200.000	-0.025	-0.264
-286.574	-200.000	0.119	-0.808
-285.559	137.511	0.458	-0.594
-284.545	-200.000	0.007	-0.411
-283.530	-200.000	-0.066	0.323
-282.516	800.000	-0.105	-0.416
-281.501	124.696	0.018	0.023
-280.486	-136.385	0.832	0.096
-279.472	-78.124	-0.532	-0.181
-278.457	35.096	0.184	-0.160
-277.443	160.599	-0.304	-0.420
-276.428	-200.000	0.016	-0.414
-275.413	-59.236	-0.616	-0.263
-274.399	19.679	0.444	-0.354
-273.384	209.342	0.153	0.238
-272.370	-82.853	-0.141	0.045
-271.355	250.516	0.031	0.053
-270.340	-160.490	-0.609	0.032
-269.326	247.441	0.181	-0.303
-268.311	141.315	0.122	-0.161
-267.297	-200.000	-0.031	0.232
-266.282	-17.350	0.114	-0.071
-265.267	-200.000	-0.017	-0.562
-264.253	-125.754	-0.642	-0.096
-263.238	-50.248	0.777	-0.364
-262.224	-200.000	0.155	-0.789
-261.209	-200.000	-0.066	-0.517
-260.195	-4.488	-0.245	-0.168
-259.180	-70.423	0.435	0.163
-258.165	2.358	-0.167	0.120
-257.151	90.431	0.370	0.410
-256.136	159.963	-0.511	-0.706
-255.122	-140.063	0.640	-0.067
-254.107	800.000	-0.095	0.274
-253.092	-97.872	0.330	-0.085
-252.078	-96.237	0.715	0.188
-251.063	39.898	-0.123	0.110
-250.049	-200.000	0.077	0.622
-249.034	-200.000	0.006	-0.274
-248.019	-124.975	-0.648	0.099
-247.005	-24.137	0.346	-0.204
-245.990	254.703	0.180	-0.305
-244.976	204.206	0.292	0.447
-243.961	716.377	-0.262	-0.688
-242.946	-148.747	-0.335	0.027
-241.932	-65.753	0.144	-0.057
-240.917	-53.076	-0.296	-0.135
-239.903	-19.336	-0.273	0.168
-238.888	84.674	0.468	-0.508
-237.873	594.730	0.123	0.302
-236.859	780.926	-0.062	0.167
-235.844	-5.510	-0.840	-0.571
-234.830	42.300	0.374	0.337
-233.815	-200.000	-0.189	0.990
-232.800	127.482	0.387	-0.486
-231.786	-122.358	0.551	0.089
-230.771	-200.000	0.046	0.718
-229.757	-124.426	0.432	0.067
-228.742	-54.140	-0.239	-0.108
-227.727	63.940	-0.127	-0.126
-226.713	71.457	0.175	-0.179
-225.698	800.000	-0.255	0.827
-224.684	-200.000	0.161	0.938
-223.669	492.021	-0.186	0.422
-222.655	-10.253	0.288	-0.189
-221.640	40.534	0.460	-0.409
-220.625	-200.000	-0.101	0.545
-219.611	-4.435	-1.002	-0.685
-218.596	785.331	-0.171	-0.464
-217.582	340.496	-0.196	-0.377
-216.567	668.441	-0.307	-0.785
-215.552	-200.000	0.037	-0.220
-214.538	-123.338	-0.450	0.071
-213.523	407.948	-0.213	-0.446
-212.509	-67.867	0.628	0.242
-211.494	-200.000	0.009	0.259
-210.479	-200.000	-0.116	-1.167
-209.465	13.659	0.461	0.354
-208.450	-51.453	0.268	-0.124
-207.436	-185.787	-0.279	-0.004
-206.421	440.075	0.171	0.369
-205.406	53.536	0.773	-0.733
-204.392	395.589	-0.083	0.170
-203.377	-10.424	0.683	0.447
-202.363	204.861	0.362	0.555
-201.348	-7.511	-0.377	0.252
-200.333	-136.679	-0.567	-0.065
-199.319	-159.556	-0.372	-0.020
-198.304	5.236	0.446	0.325
-197.290	-26.988	0.281	-0.162
-196.275	-159.148	0.214	0.012
-195.260	800.000	-0.168	0.469
-194.246	73.201	0.427	-0.441
-193.231	-71.560	0.501	0.185
-192.217	77.874	0.384	0.404
-191.202	45.488	0.515	0.469
-190.187	-200.000	0.140	1.195
-189.173	-200.000	0.107	0.497
-188.158	147.760	-0.498	-0.663
-187.144	108.590	-0.368	0.435
-186.129	-200.000	-0.010	-0.409
-185.114	20.419	-0.663	0.530
-184.100	-82.562	0.809	-0.259
-183.085	-74.357	-0.535	0.191
-182.071	-10.251	0.430	-0.282
-181.056	-71.336	-0.682	0.253
-180.042	-15.381	0.609	-0.385
-179.027	-17.616	0.896	0.556
-178.012	-128.701	0.579	-0.081
-176.998	-200.000	-0.042	0.183
-175.983	74.098	-0.340	-0.352
-174.969	-123.245	0.181	0.029
-173.954	356.247	-0.555	-1.091
-172.939	-59.771	0.504	0.213
-171.925	0.273	0.728	-0.513
-170.910	487.821	-0.074	0.166
-169.896	-161.751	-0.481	0.024
-168.881	-200.000	0.013	-0.173
-167.866	128.571	-0.104	-0.130
-166.852	119.813	0.437	-0.534
-165.837	-167.691	-0.368	-0.014
-164.823	-181.095	0.444	0.009
-163.808	702.810	-0.095	0.246
-162.793	-200.000	-0.016	-0.609
-161.779	54.509	-0.361	0.344
-160.764	82.984	0.138	-0.148
-159.750	43.670	0.098	-0.088
-158.735	-85.119	0.456	0.141
-157.720	-10.041	0.519	-0.340
-156.706	-113.546	0.332	0.064
-155.691	-200.000	-0.075	-0.500
-154.677	76.196	-0.694	-0.725
-153.662	231.323	-0.285	0.461
-152.647	443.335	0.247	-0.533
-151.633	21.993	-0.124	-0.100
-150.618	-114.476	-0.680	-0.129
-149.604	-197.580	0.497	0.003
-148.589	800.000	-0.122	-0.362
-147.574	466.121	-0.038	0.084
-146.560	-200.000	0.019	0.405
-145.545	-73.357	-0.211	-0.076
-144.531	-178.486	-0.421	-0.010
-143.516	-200.000	0.087	-0.503
-142.502	367.993	-0.574	-1.144
-141.487	352.135	0.233	0.455
-140.472	319.033	-0.337	-0.631
-139.458	-50.503	-0.783	-0.364
-138.443	-71.946	-0.545	-0.200
-137.429	-53.239	0.503	-0.228
-136.414	-107.741	0.417	0.090
-135.399	-200.000	0.004	0.776
-134.385	-85.110	-0.154	0.048
-133.370	-14.732	-0.212	0.135
-132.356	-121.832	-0.577	0.094
-131.341	-58.330	-0.328	-0.141
-130.326	-132.118	0.219	0.028
-129.312	-12.791	-0.220	0.141
-128.297	473.385	0.179	0.399
-127.283	147.347	-0.332	-0.441
-126.268	126.992	-0.533	-0.666
-125.253	-79.184	0.314	0.105
-124.239	-76.702	0.689	-0.238
-123.224	277.732	-0.070	0.122
-122.210	-23.793	-0.513	0.303
-121.195	-21.883	0.615	-0.368
