DTS Sentinel unit serial number:	SN413079Multiplexer serial number:	ORYXHardware model number:	OX4-SRSoftware version number:	ORYX F/W v4.00 Oryx Data Collector v3.7.2.0data status	okinstallation	princeton_trtdifferential loss correction	single-endedforward channel	channel 2reverse channel	N/Adate	2019/09/18time	13:23:35forward acquisition time	60.00reverse acquisition time	0.00gamma	496.2192k internal	0.2319k external	0.2319temperature offset calibration	1.0000default loss term (dB/km)	0.3790temperature slope calibration	1.0000multiplexer offset coefficient	1.0000multiplexer slope coefficient	1.0000fibre end	0.00T internal ref (°C)	34.12T ext. ref 1 (°C)	0.60T ext. ref 2 (°C)	29.27length (m)	temperature (°C)	Stokes	anti-Stokes-747.200	92.646	-0.332	-0.379
-746.185	-200.000	0.101	0.490
-745.171	8.973	0.080	-0.061
-744.156	12.162	-0.098	-0.076
-743.142	-9.382	-0.126	-0.085
-742.127	-73.940	-0.194	-0.071
-741.112	35.683	0.152	0.135
-740.098	-75.551	0.412	0.148
-739.083	679.235	0.091	0.239
-738.069	280.257	-0.085	0.153
-737.054	800.000	-0.046	-0.171
-736.039	2.304	-0.285	-0.209
-735.025	572.276	0.124	0.306
-734.010	-71.940	0.390	0.147
-732.996	401.844	-0.191	-0.406
-731.981	48.633	-0.220	-0.208
-730.966	-153.634	-0.190	0.013
-729.952	-165.252	-0.154	0.007
-728.937	23.255	-0.025	-0.021
-727.923	73.827	0.199	-0.211
-726.908	-128.633	0.133	0.019
-725.894	-155.622	0.135	0.009
-724.879	-56.262	0.133	0.060
-723.864	-150.346	0.078	0.006
-722.850	-68.400	-0.204	0.080
-721.835	-45.545	-0.347	-0.174
-720.821	21.951	0.154	-0.127
-719.806	129.494	-0.137	0.177
-718.791	472.697	0.119	0.272
-717.777	800.000	-0.158	-0.570
-716.762	-99.666	-0.104	-0.026
-715.748	617.538	-0.071	-0.181
-714.733	-116.277	0.197	0.037
-713.718	556.005	0.120	-0.292
-712.704	800.000	-0.065	-0.208
-711.689	800.000	0.040	-0.149
-710.675	-187.624	-0.268	0.004
-709.660	800.000	0.123	0.474
-708.645	-124.357	-0.232	-0.037
-707.631	339.524	0.190	0.375
-706.616	-129.876	-0.114	-0.016
-705.602	-94.122	0.253	0.070
-704.587	-200.000	0.007	-0.068
-703.572	-120.867	0.354	-0.060
-702.558	-128.540	0.073	-0.011
-701.543	47.718	0.120	-0.113
-700.529	-200.000	-0.023	-0.289
-699.514	-152.701	-0.112	0.008
-698.499	-200.000	0.012	0.093
-697.485	70.013	-0.149	0.155
-696.470	-151.409	0.184	0.014
-695.456	-200.000	-0.004	-0.118
-694.441	181.553	0.252	0.375
-693.426	54.591	0.259	-0.252
-692.412	-2.228	0.279	0.198
-691.397	-70.724	0.091	0.035
-690.383	393.320	0.024	-0.051
-689.368	-137.774	-0.297	-0.034
-688.354	410.057	-0.080	-0.171
-687.339	-36.607	0.147	0.080
-686.324	800.000	-0.090	-0.329
-685.310	103.702	-0.023	0.028
-684.295	103.297	-0.182	0.215
-683.281	672.224	-0.036	-0.094
-682.266	-200.000	0.028	-0.170
-681.251	-200.000	-0.054	-0.297
-680.237	320.094	0.083	0.159
-679.222	-70.564	-0.140	0.054
-678.208	275.060	-0.304	-0.544
-677.193	566.896	-0.051	0.126
-676.178	-188.739	0.182	0.002
-675.164	-200.000	-0.023	-0.276
-674.149	-200.000	-0.001	-0.083
-673.135	-56.304	0.210	0.094
-672.120	-36.440	-0.152	0.083
-671.105	-61.756	-0.074	0.031
-670.091	800.000	-0.035	-0.136
-669.076	-58.082	0.260	-0.114
-668.062	-200.000	-0.055	0.277
-667.047	220.648	-0.086	-0.139
-666.032	733.024	-0.009	-0.024
-665.018	-94.438	0.364	0.100
-664.003	-200.000	-0.015	0.208
-662.989	-33.654	-0.155	-0.086
-661.974	-200.000	0.005	-0.309
-660.959	12.855	0.125	-0.097
-659.945	245.315	0.142	0.240
-658.930	60.142	0.159	-0.159
-657.916	-125.079	-0.197	0.030
-656.901	-92.484	-0.107	-0.030
-655.886	-36.761	-0.222	0.120
-654.872	-124.025	-0.164	0.026
-653.857	463.682	-0.113	-0.256
-652.843	-66.358	0.200	-0.080
-651.828	-69.869	-0.107	-0.041
-650.814	17.875	0.176	-0.141
-649.799	13.792	-0.080	-0.063
-648.784	-29.815	0.189	0.108
-647.770	104.644	-0.169	-0.201
-646.755	33.352	0.164	-0.143
-645.741	158.343	0.136	-0.190
-644.726	-145.587	0.296	-0.027
-643.711	-99.748	-0.149	-0.038
-642.697	35.333	-0.020	-0.018
-641.682	-200.000	-0.009	0.107
-640.668	-174.570	-0.372	0.011
-639.653	800.000	-0.067	0.221
-638.638	-200.000	0.054	-0.561
-637.624	-200.000	-0.045	-0.241
-636.609	-168.342	0.165	0.006
-635.595	103.769	0.175	-0.207
-634.580	422.459	0.179	0.388
-633.565	272.480	0.140	0.249
-632.551	-200.000	-0.030	-0.280
-631.536	-200.000	0.049	-0.266
-630.522	-144.296	-0.123	-0.012
-629.507	-80.537	-0.217	0.073
-628.492	-31.427	0.179	-0.101
-627.478	-200.000	0.008	-0.090
-626.463	-200.000	0.112	-0.531
-625.449	-80.853	-0.119	-0.040
-624.434	-102.482	-0.429	0.103
-623.419	129.317	-0.088	-0.114
-622.405	800.000	-0.013	-0.043
-621.390	346.299	0.144	0.286
-620.376	11.572	0.274	-0.212
-619.361	-129.571	0.373	0.052
-618.346	-66.094	-0.198	-0.080
-617.332	-200.000	0.074	-0.335
-616.317	585.866	-0.090	-0.223
-615.303	136.544	0.139	0.183
-614.288	800.000	-0.074	-0.265
-613.273	800.000	-0.056	0.177
-612.259	800.000	0.103	0.415
-611.244	-162.954	0.314	0.015
-610.230	-119.641	-0.213	-0.037
-609.215	59.470	-0.244	0.242
-608.201	-180.950	-0.109	-0.002
-607.186	-199.870	0.329	0.002
-606.171	-200.000	-0.018	0.090
-605.157	17.111	-0.032	0.025
-604.142	-79.296	-0.303	0.103
-603.128	800.000	-0.109	-0.339
-602.113	-200.000	0.017	-0.219
-601.098	13.653	-0.136	-0.106
-600.084	208.293	-0.207	-0.326
-599.069	-89.502	-0.072	0.021
-598.055	-154.827	-0.252	-0.017
-597.040	268.751	0.072	-0.127
-596.025	-80.373	0.230	0.077
-595.011	-112.437	-0.221	0.044
-593.996	-200.000	0.015	0.249
-592.982	-137.766	0.268	-0.030
-591.967	177.121	-0.116	0.170
-590.952	-17.011	0.084	0.053
-589.938	-38.054	0.374	-0.200
-588.923	-122.269	0.062	-0.010
-587.909	-200.000	0.036	-0.552
-586.894	727.234	-0.190	-0.510
-585.879	69.656	-0.252	0.261
-584.865	-97.087	-0.055	0.015
-583.850	-12.814	0.096	-0.063
-582.836	111.849	0.239	-0.291
-581.821	90.610	-0.122	0.137
-580.806	-131.377	-0.054	0.007
-579.792	-7.708	-0.325	-0.221
-578.777	-200.000	0.046	-0.473
-577.763	70.449	-0.254	-0.264
-576.748	-154.367	0.140	-0.009
-575.733	-149.341	0.514	0.041
-574.719	-200.000	0.013	0.164
-573.704	26.389	-0.115	-0.097
-572.690	48.084	-0.192	0.180
-571.675	-47.377	-0.035	-0.017
-570.661	35.905	0.094	0.083
-569.646	-200.000	0.052	-0.388
-568.631	114.124	-0.305	0.373
-567.617	-82.484	0.219	0.071
-566.602	-72.160	0.427	-0.159
-565.588	-5.186	0.206	0.142
-564.573	51.728	-0.250	-0.239
-563.558	41.067	-0.106	-0.096
-562.544	308.064	0.046	0.087
-561.529	-118.434	-0.471	0.084
-560.515	-68.375	0.079	-0.031
-559.500	43.297	-0.178	-0.163
-558.485	76.417	-0.278	-0.296
-557.471	-200.000	0.020	-0.296
-556.456	11.387	0.209	-0.161
-555.442	127.694	0.071	0.091
-554.427	-85.444	0.252	0.079
-553.412	-22.144	0.165	0.100
-552.398	-84.308	0.170	0.054
-551.383	79.808	0.156	-0.168
-550.369	-42.359	-0.145	-0.074
-549.354	-107.797	0.151	0.033
-548.339	-114.133	0.085	0.017
-547.325	-80.972	-0.323	0.107
-546.310	-45.547	-0.156	0.077
-545.296	-200.000	0.008	-0.061
-544.281	800.000	-0.043	-0.186
-543.266	800.000	-0.029	-0.122
-542.252	-187.871	0.180	-0.002
-541.237	-200.000	-0.034	0.383
-540.223	15.413	0.112	0.088
-539.208	800.000	0.076	0.330
-538.193	-141.870	-0.459	-0.046
-537.179	-78.249	0.123	0.042
-536.164	-200.000	-0.002	-0.166
-535.150	-200.000	-0.047	-0.233
-534.135	-69.756	0.216	-0.083
-533.121	-100.123	-0.275	0.069
-532.106	40.054	0.096	0.086
-531.091	-41.068	-0.124	0.064
-530.077	-102.553	-0.147	0.035
-529.062	390.580	-0.108	0.225
-528.048	436.503	0.072	0.158
-527.033	128.458	0.214	-0.274
-526.018	37.679	0.060	0.054
-525.004	-200.000	0.035	0.366
-523.989	641.659	-0.071	-0.182
-522.975	800.000	-0.168	-0.577
-521.960	-200.000	0.029	-0.180
-520.945	-200.000	-0.009	0.060
-519.931	-99.663	0.477	-0.120
-518.916	-200.000	0.014	0.488
-517.902	384.028	0.027	0.056
-516.887	-61.830	0.180	-0.076
-515.872	800.000	-0.048	-0.188
-514.858	-124.216	0.330	0.052
-513.843	286.605	0.121	-0.219
-512.829	370.283	-0.043	-0.087
-511.814	-69.796	-0.245	0.094
-510.799	-83.768	-0.201	-0.064
-509.785	-96.431	0.166	0.044
-508.770	800.000	0.010	-0.042
-507.756	-93.416	-0.094	0.026
-506.741	-52.324	-0.273	0.127
-505.726	728.765	-0.085	0.228
-504.712	484.189	-0.121	-0.276
-503.697	-88.886	0.241	0.072
-502.683	-200.000	0.001	-0.100
-501.668	37.088	0.073	-0.065
-500.653	69.939	-0.180	-0.186
-499.639	52.912	0.193	-0.185
-498.624	358.748	0.041	-0.082
-497.610	800.000	-0.025	0.085
-496.595	-149.869	0.142	0.011
-495.581	-200.000	-0.017	0.180
-494.566	-185.125	-0.305	0.005
-493.551	-145.879	0.033	-0.003
-492.537	-200.000	-0.010	-0.186
-491.522	116.300	0.332	-0.407
-490.508	85.408	-0.063	0.069
-489.493	-77.111	-0.353	0.123
-488.478	289.122	-0.065	0.118
-487.464	800.000	0.016	0.070
-486.449	-23.494	-0.090	0.054
-485.435	-52.857	-0.315	0.145
-484.420	299.229	0.045	-0.083
-483.405	-31.493	-0.209	0.117
-482.391	-16.944	0.098	-0.062
-481.376	-39.416	-0.222	0.117
-480.362	91.769	0.135	0.152
-479.347	294.917	0.140	0.257
-478.332	-54.073	0.040	0.018
-477.318	-69.918	-0.205	0.078
-476.303	522.073	0.065	0.152
-475.289	-200.000	0.045	-0.495
-474.274	-13.083	-0.157	-0.102
-473.259	-8.589	0.213	-0.143
-472.245	81.840	-0.095	-0.103
-471.230	-106.647	-0.263	0.059
-470.216	-49.623	-0.347	0.165
-469.201	-200.000	-0.040	0.269
-468.186	-200.000	0.041	0.232
-467.172	-32.898	-0.210	-0.117
-466.157	254.862	0.173	-0.296
-465.143	-23.810	-0.357	-0.214
-464.128	-87.702	-0.085	-0.026
-463.113	-71.530	-0.056	-0.021
-462.099	-151.216	0.119	-0.009
-461.084	-48.895	0.278	0.133
-460.070	180.422	0.138	0.202
-459.055	-146.882	-0.305	0.026
-458.040	-45.746	-0.062	0.031
-457.026	129.763	-0.055	0.070
-456.011	-22.628	0.211	-0.127
-454.997	46.337	-0.086	0.080
-453.982	27.585	0.178	-0.149
-452.968	800.000	-0.018	0.069
-451.953	-200.000	0.004	-0.131
-450.938	-191.526	-0.278	-0.003
-449.924	194.392	0.129	-0.196
-448.909	-89.628	0.108	0.032
-447.895	-66.797	-0.359	-0.142
-446.880	-38.298	-0.237	0.126
-445.865	-200.000	-0.009	0.216
-444.851	800.000	0.068	-0.202
-443.836	-200.000	-0.019	0.175
-442.822	26.386	0.340	0.285
-441.807	589.613	0.010	-0.026
-440.792	-45.385	-0.143	0.071
-439.778	17.307	0.117	-0.093
-438.763	106.161	-0.106	-0.126
-437.749	-200.000	-0.031	0.260
-436.734	-5.840	-0.070	0.048
-435.719	371.637	0.183	-0.372
-434.705	-120.800	0.094	0.016
-433.690	800.000	-0.076	-0.216
-432.676	-200.000	0.014	0.229
-431.661	-18.643	0.132	0.082
-430.646	91.067	-0.174	-0.196
-429.632	-14.510	0.199	-0.128
-428.617	20.271	-0.340	-0.275
-427.603	-120.498	0.270	0.046
-426.588	-8.667	0.410	-0.275
-425.573	-38.417	0.060	0.032
-424.559	-57.518	-0.120	-0.053
-423.544	493.758	0.116	0.266
-422.530	9.320	-0.275	0.207
-421.515	-0.413	-0.030	0.021
-420.500	-74.904	0.214	-0.077
-419.486	-155.444	0.150	0.010
-418.471	-22.495	0.328	-0.198
-417.457	-2.958	-0.099	-0.069
-416.442	800.000	-0.008	0.023
-415.428	-131.966	-0.153	-0.020
-414.413	-60.223	0.198	0.084
-413.398	-65.711	-0.119	-0.048
-412.384	224.409	0.141	0.228
-411.369	95.823	-0.194	0.221
-410.355	-175.045	-0.054	0.002
-409.340	88.305	-0.187	0.208
-408.325	-92.662	-0.175	-0.049
-407.311	155.583	-0.090	0.124
-406.296	800.000	-0.064	0.232
-405.282	-200.000	0.019	0.213
-404.267	-24.199	0.301	-0.180
-403.252	13.727	-0.124	-0.096
-402.238	33.463	-0.226	-0.196
-401.223	-14.303	0.191	0.123
-400.209	-200.000	0.016	0.084
-399.194	275.535	0.072	0.127
-398.179	-89.870	-0.171	0.050
-397.165	97.842	0.240	-0.276
-396.150	-192.255	0.373	-0.004
-395.136	-35.221	-0.173	-0.094
-394.121	274.092	0.079	0.140
-393.106	800.000	0.069	-0.222
-392.092	-200.000	0.007	0.118
-391.077	-5.014	0.187	-0.129
-390.063	-200.000	-0.002	-0.198
-389.048	46.269	0.271	-0.250
-388.033	-180.552	-0.146	0.003
-387.019	165.634	-0.110	0.156
-386.004	-28.332	-0.124	-0.072
-384.990	-135.018	0.300	0.036
-383.975	40.309	-0.112	0.100
-382.960	115.833	0.219	0.268
-381.946	-92.601	-0.308	-0.086
-380.931	-34.639	0.209	0.114
-379.917	20.879	0.222	-0.180
-378.902	-98.471	0.219	-0.056
-377.888	-91.461	-0.275	0.078
-376.873	180.790	0.111	0.163
-375.858	719.256	-0.100	0.265
-374.844	0.617	-0.049	-0.035
-373.829	-40.955	0.327	0.169
-372.815	-71.345	0.359	0.134
-371.800	-32.909	-0.238	-0.132
-370.785	54.232	0.059	0.056
-369.771	-45.343	0.145	0.072
-368.756	497.852	-0.098	0.225
-367.742	-200.000	0.066	0.338
-366.727	-51.796	-0.122	0.056
-365.712	-92.360	0.208	0.058
-364.698	-200.000	0.012	-0.127
-363.683	201.326	0.097	-0.149
-362.669	-16.954	0.079	0.049
-361.654	118.317	0.107	-0.131
-360.639	67.609	0.279	0.284
-359.625	148.531	-0.127	-0.171
-358.610	131.919	0.145	0.186
-357.596	-31.933	0.085	0.048
-356.581	78.210	0.133	0.141
-355.566	406.507	-0.050	-0.106
-354.552	-15.666	-0.202	-0.128
-353.537	190.162	0.050	0.074
-352.523	431.948	0.061	0.132
-351.508	239.666	-0.082	0.137
-350.493	-131.019	-0.107	-0.014
-349.479	240.275	-0.320	-0.532
-348.464	-121.197	0.217	0.036
-347.450	-64.790	0.244	0.099
-346.435	133.589	0.123	0.158
-345.420	4.074	0.098	0.072
-344.406	141.677	-0.089	-0.118
-343.391	439.988	0.083	0.181
-342.377	800.000	0.035	0.112
-341.362	-94.883	-0.309	0.083
-340.348	-200.000	0.007	0.196
-339.333	36.694	-0.157	0.138
-338.318	-200.000	0.046	0.343
-337.304	128.761	0.210	-0.266
-336.289	116.529	-0.115	-0.141
-335.275	606.598	0.128	0.318
-334.260	492.106	-0.077	-0.176
-333.245	69.789	-0.280	0.287
-332.231	-94.303	0.195	-0.053
-331.216	-200.000	0.061	0.358
-330.202	45.434	0.333	0.306
-329.187	-163.784	0.088	-0.004
-328.172	-95.867	-0.222	0.059
-327.158	28.102	-0.214	0.180
-326.143	49.897	0.189	-0.178
-325.129	428.389	0.144	-0.310
-324.114	32.847	-0.184	0.159
-323.099	800.000	0.066	0.260
-322.085	-200.000	-0.042	0.286
-321.070	-52.102	0.120	0.055
-320.056	-71.963	-0.237	0.088
-319.041	100.444	-0.194	0.224
-318.026	-200.000	-0.019	0.189
-317.012	-105.946	0.020	0.004
-315.997	-132.842	0.233	0.030
-314.983	800.000	0.032	-0.125
-313.968	132.193	0.144	-0.185
-312.953	-200.000	0.016	-0.373
-311.939	284.299	-0.062	-0.111
-310.924	-113.580	-0.296	0.058
-309.910	14.715	-0.383	-0.298
-308.895	-200.000	-0.037	-0.261
-307.880	-115.889	0.340	0.063
-306.866	-181.441	-0.044	-0.001
-305.851	185.328	-0.152	0.225
-304.837	148.928	0.038	0.051
-303.822	800.000	0.043	-0.176
-302.807	464.698	0.133	-0.295
-301.793	52.443	0.126	-0.120
-300.778	11.484	0.085	0.064
-299.764	635.124	-0.076	-0.191
-298.749	-1.299	0.296	-0.208
-297.735	-58.144	-0.060	0.026
-296.720	-12.481	0.028	0.018
-295.705	-147.621	-0.162	0.014
-294.691	-154.628	-0.072	0.005
-293.676	211.158	-0.291	-0.455
-292.662	255.879	-0.131	-0.223
-291.647	11.404	-0.090	-0.068
-290.632	-60.169	-0.179	-0.076
-289.618	593.802	-0.140	0.344
-288.603	-173.395	0.112	-0.003
-287.589	222.125	0.067	0.107
-286.574	-87.805	-0.072	0.022
-285.559	-13.692	-0.106	0.068
-284.545	385.938	0.101	-0.206
-283.530	-57.534	-0.195	-0.085
-282.516	800.000	-0.133	0.380
-281.501	-189.729	-0.246	-0.003
-280.486	-200.000	0.061	-0.441
-279.472	-200.000	0.014	0.157
-278.457	-200.000	-0.069	0.312
-277.443	-104.977	-0.273	0.062
-276.428	-82.525	-0.071	0.023
-275.413	-75.964	0.146	-0.051
-274.399	-76.816	0.117	0.041
-273.384	-91.825	0.104	0.029
-272.370	-32.071	-0.278	0.154
-271.355	53.171	0.292	0.278
-270.340	116.151	0.128	0.156
-269.326	800.000	-0.045	0.149
-268.311	177.132	-0.174	0.251
-267.297	-200.000	-0.011	0.115
-266.282	583.182	-0.081	0.197
-265.267	-58.832	0.267	-0.115
-264.253	-200.000	-0.009	-0.093
-263.238	-200.000	-0.030	-0.310
-262.224	701.104	-0.058	0.153
-261.209	18.348	0.091	0.072
-260.195	710.163	-0.072	-0.190
-259.180	15.545	-0.300	0.234
-258.165	-146.714	0.121	-0.010
-257.151	146.978	-0.062	-0.082
-256.136	242.864	0.071	0.118
-255.122	-0.020	0.204	0.144
-254.107	-189.540	-0.320	-0.004
-253.092	-93.818	-0.227	-0.062
-252.078	-200.000	0.124	-0.000
-251.063	-200.000	-0.014	0.098
-250.049	-200.000	0.024	-0.196
-249.034	-200.000	0.084	0.401
-248.019	800.000	0.058	0.206
-247.005	-50.064	0.221	0.104
-245.990	800.000	0.047	-0.157
-244.976	-200.000	-0.084	-0.379
-243.961	-95.275	0.189	0.050
-242.946	-104.946	-0.194	-0.044
-241.932	-132.436	0.208	0.027
-240.917	-200.000	0.026	-0.210
-239.903	412.086	0.115	0.242
-238.888	-200.000	0.005	-0.049
-237.873	204.470	0.073	0.113
-236.859	-200.000	0.002	0.095
-235.844	-48.293	-0.146	-0.070
-234.830	304.769	-0.022	0.041
-233.815	800.000	-0.007	-0.022
-232.800	-58.562	0.106	0.046
-231.786	283.097	-0.035	-0.062
-230.771	-35.897	-0.208	-0.112
-229.757	-177.417	0.153	0.004
-228.742	-14.201	0.130	0.083
-227.727	-200.000	0.073	0.496
-226.713	-75.217	0.339	0.120
-225.698	366.265	-0.091	0.183
-224.684	398.206	0.044	0.091
-223.669	-78.450	0.124	-0.042
-222.655	-151.596	-0.110	0.008
-221.640	-128.266	-0.283	-0.040
-220.625	-0.058	-0.101	-0.071
-219.611	-140.415	-0.329	-0.034
-218.596	-40.027	-0.193	-0.100
-217.582	-200.000	0.034	-0.213
-216.567	-200.000	-0.007	-0.243
-215.552	304.160	0.091	0.167
-214.538	205.122	-0.154	-0.237
-213.523	-200.000	0.027	-0.198
-212.509	-82.694	0.250	0.080
-211.494	-163.150	-0.231	0.011
-210.479	65.991	-0.058	-0.058
-209.465	-67.871	0.065	-0.025
-208.450	-200.000	-0.063	0.298
-207.436	-93.630	0.226	-0.062
-206.421	218.816	0.010	-0.016
-205.406	48.461	0.170	-0.158
-204.392	384.565	-0.124	0.253
-203.377	754.237	-0.098	0.264
-202.363	79.609	0.065	-0.069
-201.348	-200.000	0.020	-0.270
-200.333	-113.943	0.118	-0.023
-199.319	-200.000	-0.035	0.462
-198.304	733.249	0.038	0.102
-197.290	32.330	0.047	0.040
-196.275	83.786	-0.155	-0.167
-195.260	-49.429	0.289	0.136
-194.246	28.060	0.042	-0.035
-193.231	14.791	-0.164	0.127
-192.217	-57.311	0.135	0.059
-191.202	7.847	0.059	-0.044
-190.187	-178.198	0.107	-0.003
-189.173	-200.000	0.005	-0.197
-188.158	-31.637	-0.252	-0.140
-187.144	-98.057	-0.074	-0.019
-186.129	45.835	-0.142	0.130
-185.114	20.531	0.214	0.171
-184.100	-164.827	0.014	0.001
-183.085	594.994	0.024	-0.059
-182.071	-40.896	-0.169	0.087
-181.056	-146.277	-0.359	0.031
-180.042	-153.310	-0.183	-0.013
-179.027	162.986	-0.027	0.038
-178.012	-63.770	0.163	0.066
-176.998	67.777	0.200	0.203
-175.983	-53.849	0.146	0.066
-174.969	-92.630	0.277	-0.077
-173.954	-11.832	-0.221	0.144
-172.939	-68.921	-0.160	-0.061
-171.925	0.034	0.144	0.101
-170.910	-160.904	-0.153	-0.008
-169.896	34.049	0.212	-0.183
-168.881	-185.223	0.124	-0.002
-167.866	139.716	0.044	-0.057
-166.852	-124.785	-0.180	-0.028
-165.837	-200.000	-0.007	-0.072
-164.823	800.000	-0.045	-0.191
-163.808	29.300	0.268	0.225
-162.793	-177.966	0.253	0.006
-161.779	-94.783	-0.399	-0.107
-160.764	101.398	-0.145	-0.167
-159.750	-97.243	-0.387	0.100
-158.735	191.788	0.180	0.268
-157.720	-36.917	-0.223	-0.118
-156.706	800.000	-0.043	0.167
-155.691	27.637	0.265	0.221
-154.677	-70.615	0.276	-0.103
-153.662	-2.593	0.252	-0.174
-152.647	163.516	-0.106	0.147
-151.633	-44.444	-0.149	0.074
-150.618	28.912	0.084	-0.070
-149.604	-200.000	0.028	-0.331
-148.589	-101.958	-0.317	-0.076
-147.574	-137.211	-0.196	-0.022
-146.560	159.517	-0.066	-0.090
-145.545	-89.022	0.180	0.053
-144.531	67.743	-0.160	0.162
-143.516	512.801	-0.022	-0.051
-142.502	-43.154	0.086	0.043
-141.487	576.273	-0.029	-0.070
-140.472	-58.126	-0.218	0.094
-139.458	-17.390	0.200	-0.125
-138.443	284.558	-0.200	0.355
-137.429	-138.898	-0.111	0.012
-136.414	-70.820	0.230	0.086
-135.399	-77.909	0.061	0.021
-134.385	800.000	-0.034	0.099
-133.370	22.951	-0.182	-0.147
-132.356	-22.977	0.279	0.166
-131.341	800.000	-0.073	-0.206
-130.326	470.344	0.084	-0.186
-129.312	43.267	0.168	0.152
-128.297	-14.282	-0.313	0.199
-127.283	78.475	0.204	0.215
-126.268	14.894	-0.133	0.103
-125.253	800.000	0.041	-0.162
-124.239	294.014	0.022	-0.040
-123.224	206.186	0.093	0.143
-122.210	-141.089	0.228	0.023
-121.195	333.366	0.046	0.088
-120.180	258.868	-0.137	0.234
