DTS Sentinel unit serial number:	SN413079Multiplexer serial number:	ORYXHardware model number:	OX4-SRSoftware version number:	ORYX F/W v4.00 Oryx Data Collector v3.7.2.0data status	okinstallation	princeton_trtdifferential loss correction	single-endedforward channel	channel 2reverse channel	N/Adate	2019/09/13time	12:31:35forward acquisition time	60.00reverse acquisition time	0.00gamma	496.2192k internal	0.2315k external	0.2315temperature offset calibration	1.0213default loss term (dB/km)	0.3790temperature slope calibration	1.0000multiplexer offset coefficient	1.0000multiplexer slope coefficient	1.0000fibre end	0.00T internal ref (°C)	34.44T ext. ref 1 (°C)	4.62T ext. ref 2 (°C)	31.80length (m)	temperature (°C)	Stokes	anti-Stokes-747.200	-97.282	-0.273	-0.072
-746.185	-167.615	-0.118	0.005
-745.171	-114.522	0.305	-0.059
-744.156	-200.000	-0.029	0.318
-743.142	-25.429	0.181	-0.109
-742.127	-69.384	0.383	0.149
-741.112	759.108	0.146	-0.401
-740.098	-200.000	0.075	0.448
-739.083	-55.231	0.356	0.162
-738.069	800.000	0.035	0.106
-737.054	-24.634	-0.146	0.088
-736.039	-200.000	0.051	0.246
-735.025	-200.000	0.007	0.044
-734.010	-16.277	-0.261	0.168
-732.996	485.879	-0.117	0.269
-731.981	-96.949	-0.219	0.058
-730.966	-71.444	0.249	-0.094
-729.952	649.350	-0.060	-0.157
-728.937	240.204	0.107	0.180
-727.923	-200.000	0.034	-0.337
-726.908	215.390	-0.267	-0.428
-725.894	574.359	-0.040	0.100
-724.879	2.100	-0.276	-0.202
-723.864	511.833	0.166	-0.391
-722.850	800.000	-0.099	-0.334
-721.835	-79.503	-0.249	-0.085
-720.821	-37.069	-0.212	0.115
-719.806	308.410	-0.088	0.165
-718.791	-200.000	0.034	0.184
-717.777	208.639	0.029	0.046
-716.762	291.757	0.258	-0.476
-715.748	-94.547	-0.140	0.039
-714.733	-59.673	-0.050	0.022
-713.718	-200.000	-0.002	-0.257
-712.704	203.946	0.130	-0.203
-711.689	-132.446	0.212	-0.028
-710.675	273.159	-0.110	0.197
-709.660	412.484	-0.061	0.132
-708.645	1.118	-0.339	-0.246
-707.631	800.000	0.044	-0.158
-706.616	800.000	-0.147	-0.605
-705.602	12.029	0.091	0.071
-704.587	748.936	-0.195	-0.532
-703.572	18.434	-0.221	0.178
-702.558	-124.938	0.305	0.047
-701.543	244.889	0.020	0.034
-700.529	-200.000	-0.005	-0.230
-699.514	-85.649	-0.137	-0.043
-698.499	-200.000	-0.010	0.163
-697.485	-31.292	0.214	-0.122
-696.470	167.198	-0.103	0.148
-695.456	-7.876	-0.152	0.104
-694.441	800.000	-0.093	-0.290
-693.426	3.109	-0.209	0.154
-692.412	-165.427	-0.282	-0.012
-691.397	-200.000	0.037	0.197
-690.383	544.136	0.111	-0.269
-689.368	-77.773	-0.146	0.051
-688.354	-200.000	0.009	0.045
-687.339	-200.000	-0.035	-0.312
-686.324	1.346	0.215	-0.156
-685.310	731.909	0.062	-0.169
-684.295	81.590	-0.049	0.053
-683.281	800.000	-0.064	-0.283
-682.266	157.656	-0.053	-0.075
-681.251	-146.738	0.316	-0.028
-680.237	433.850	-0.155	-0.341
-679.222	-200.000	-0.038	-0.275
-678.208	103.203	-0.171	-0.203
-677.193	-36.224	0.175	-0.095
-676.178	-26.158	-0.079	0.047
-675.164	-56.887	-0.200	0.089
-674.149	800.000	0.080	-0.299
-673.135	24.159	0.208	0.173
-672.120	98.545	-0.064	0.075
-671.105	43.146	-0.215	0.198
-670.091	-174.585	-0.339	0.010
-669.076	-90.756	-0.305	-0.089
-668.062	221.349	-0.075	0.122
-667.047	53.716	-0.357	-0.346
-666.032	800.000	-0.063	0.269
-665.018	-76.781	0.327	-0.116
-664.003	164.036	0.083	0.118
-662.989	-68.081	0.267	0.105
-661.974	-47.499	-0.146	-0.072
-660.959	13.525	0.220	0.173
-659.945	-58.994	0.141	-0.061
-658.930	-42.068	-0.371	0.192
-657.916	-27.212	-0.249	0.146
-656.901	-157.682	0.348	-0.021
-655.886	-200.000	-0.024	0.116
-654.872	240.277	-0.096	-0.162
-653.857	-106.676	0.093	-0.021
-652.843	-200.000	0.006	0.094
-651.828	256.263	-0.255	-0.442
-650.814	614.009	-0.074	-0.186
-649.799	51.695	0.150	-0.144
-648.784	-200.000	0.051	0.271
-647.770	-62.447	-0.369	-0.155
-646.755	107.304	-0.117	-0.140
-645.741	-62.827	-0.238	0.099
-644.726	137.140	-0.034	0.045
-643.711	-9.139	0.117	-0.079
-642.697	-37.297	0.220	-0.119
-641.682	531.305	0.113	-0.269
-640.668	472.319	0.147	0.334
-639.653	44.489	0.114	-0.106
-638.638	31.772	-0.131	-0.114
-637.624	134.231	0.109	0.143
-636.609	-63.520	-0.349	-0.145
-635.595	175.098	-0.219	-0.321
-634.580	-19.611	-0.073	0.045
-633.565	-160.131	0.068	-0.004
-632.551	-83.985	0.189	0.061
-631.536	39.773	-0.118	0.107
-630.522	-64.069	-0.300	0.123
-629.507	-30.582	0.116	-0.067
-628.492	-73.151	0.117	-0.043
-627.478	58.748	-0.066	-0.066
-626.463	-200.000	0.034	-0.170
-625.449	43.013	-0.221	-0.203
-624.434	-200.000	0.012	0.150
-623.419	-200.000	0.000	-0.129
-622.405	800.000	0.068	0.279
-621.390	215.511	0.166	-0.266
-620.376	171.276	-0.153	-0.222
-619.361	800.000	-0.015	-0.051
-618.346	-200.000	-0.027	-0.132
-617.332	21.603	0.108	0.088
-616.317	-200.000	0.001	-0.013
-615.303	337.970	-0.156	-0.305
-614.288	626.424	0.067	-0.170
-613.273	421.865	-0.124	-0.269
-612.259	-14.496	-0.068	0.044
-611.244	-200.000	-0.014	0.119
-610.230	-19.214	0.247	0.155
-609.215	-200.000	-0.015	-0.144
-608.201	-200.000	-0.006	0.058
-607.186	120.077	-0.026	-0.032
-606.171	-14.008	0.033	-0.022
-605.157	181.670	0.083	0.122
-604.142	-44.117	-0.202	-0.102
-603.128	133.547	0.283	-0.368
-602.113	42.898	-0.094	-0.086
-601.098	-112.781	-0.052	0.010
-600.084	800.000	0.063	0.248
-599.069	-114.712	-0.296	0.057
-598.055	107.854	-0.073	-0.088
-597.040	-200.000	0.018	-0.114
-596.025	-35.414	0.227	0.124
-595.011	-200.000	-0.016	-0.454
-593.996	635.168	-0.119	-0.304
-592.982	206.770	0.188	0.294
-591.967	-200.000	-0.023	-0.157
-590.952	102.286	0.124	0.146
-589.938	196.065	-0.092	0.141
-588.923	-3.858	0.363	0.254
-587.909	-71.218	0.134	0.051
-586.894	8.001	0.036	0.027
-585.879	-147.381	-0.229	-0.020
-584.865	75.435	0.139	-0.148
-583.850	6.065	-0.188	-0.140
-582.836	69.496	0.085	-0.088
-581.821	-20.026	-0.156	-0.097
-580.806	345.367	0.102	-0.201
-579.792	-152.840	0.266	0.019
-578.777	9.949	-0.123	-0.094
-577.763	324.306	-0.144	0.277
-576.748	26.658	-0.244	0.206
-575.733	102.583	-0.290	-0.342
-574.719	723.946	0.101	-0.270
-573.704	-59.675	-0.302	-0.130
-572.690	-130.472	-0.386	0.053
-571.675	534.807	0.030	-0.071
-570.661	295.286	0.147	0.271
-569.646	-107.155	0.314	-0.070
-568.631	164.342	0.163	0.231
-567.617	268.825	0.223	-0.393
-566.602	800.000	-0.067	-0.195
-565.588	32.950	0.177	-0.154
-564.573	-200.000	-0.008	0.494
-563.558	-83.416	0.381	-0.123
-562.544	-200.000	-0.030	-0.146
-561.529	136.076	0.242	0.317
-560.515	-39.886	-0.197	0.104
-559.500	-58.670	0.244	-0.106
-558.485	234.184	-0.277	-0.459
-557.471	-198.026	0.126	0.001
-556.456	421.541	-0.125	0.269
-555.442	415.507	-0.128	0.274
-554.427	-33.794	-0.207	-0.115
-553.412	-9.295	-0.321	-0.216
-552.398	494.704	0.140	0.323
-551.383	-98.797	-0.211	0.054
-550.369	81.524	0.022	-0.024
-549.354	131.760	-0.036	-0.047
-548.339	-90.275	-0.143	-0.042
-547.325	98.795	0.081	0.094
-546.310	-200.000	-0.016	0.162
-545.296	476.958	0.079	0.180
-544.281	-57.095	0.062	-0.028
-543.266	-33.438	-0.168	-0.093
-542.252	-38.056	-0.249	0.133
-541.237	-54.525	-0.221	0.101
-540.223	675.893	0.026	0.069
-539.208	-60.947	-0.185	0.079
-538.193	107.107	0.124	-0.149
-537.179	-33.633	-0.325	0.181
-536.164	-200.000	0.013	-0.079
-535.150	-200.000	-0.014	0.239
-534.135	468.364	-0.089	0.201
-533.121	-68.754	-0.229	0.089
-532.106	-73.827	-0.067	-0.025
-531.091	-29.778	0.044	0.025
-530.077	-90.052	-0.171	0.050
-529.062	-95.869	0.364	-0.098
-528.048	-158.410	-0.090	-0.005
-527.033	800.000	0.103	0.308
-526.018	272.886	0.141	-0.250
-525.004	-76.553	-0.037	-0.013
-523.989	-200.000	-0.064	-0.314
-522.975	211.058	0.238	0.377
-521.960	-105.514	0.147	-0.033
-520.945	-4.608	-0.271	0.188
-519.931	228.506	0.066	-0.108
-518.916	-24.774	0.185	-0.111
-517.902	49.260	-0.179	-0.169
-516.887	224.145	0.122	0.198
-515.872	7.633	-0.311	0.234
-514.858	56.837	0.087	0.085
-513.843	139.109	0.211	0.279
-512.829	133.956	-0.108	0.141
-511.814	-35.915	-0.077	-0.042
-510.799	-21.565	0.173	-0.106
-509.785	-139.621	0.136	0.015
-508.770	-135.123	0.205	0.025
-507.756	618.732	0.044	-0.111
-506.741	145.395	-0.078	0.105
-505.726	-81.795	0.247	0.081
-504.712	-144.308	0.329	0.031
-503.697	-13.044	-0.154	0.100
-502.683	-122.855	0.186	-0.030
-501.668	-121.490	-0.216	-0.036
-500.653	678.438	-0.079	0.206
-499.639	66.378	0.221	0.225
-498.624	-76.704	0.122	0.043
-497.610	234.217	0.029	-0.048
-496.595	-145.700	0.156	0.014
-495.581	190.800	0.070	0.106
-494.566	800.000	-0.098	0.397
-493.551	21.228	-0.267	0.217
-492.537	294.676	-0.031	0.057
-491.522	-200.000	0.009	0.156
-490.508	-200.000	-0.023	0.161
-489.493	359.030	0.031	-0.063
-488.478	-165.911	0.293	-0.013
-487.464	136.886	0.190	0.250
-486.449	-111.404	-0.336	-0.069
-485.435	257.682	-0.180	-0.311
-484.420	800.000	0.070	0.216
-483.405	92.633	-0.128	0.145
-482.391	-145.867	-0.305	0.027
-481.376	217.574	0.102	-0.163
-480.362	-200.000	0.026	-0.242
-479.347	-111.466	-0.201	-0.041
-478.332	182.971	0.132	-0.196
-477.318	200.215	-0.100	0.154
-476.303	-200.000	-0.030	-0.268
-475.289	-100.378	-0.267	0.066
-474.274	-124.024	-0.143	0.023
-473.259	-190.964	0.196	0.002
-472.245	27.428	-0.080	-0.067
-471.230	-131.496	0.106	0.014
-470.216	-128.666	-0.375	-0.053
-469.201	121.464	0.099	0.123
-468.186	203.049	0.112	0.174
-467.172	-200.000	0.010	0.277
-466.157	162.715	0.065	0.092
-465.143	-200.000	-0.010	-0.349
-464.128	570.339	0.148	0.361
-463.113	170.839	-0.057	-0.082
-462.099	229.759	-0.161	0.263
-461.084	800.000	-0.045	0.159
-460.070	-29.291	-0.227	-0.130
-459.055	-31.338	-0.071	-0.040
-458.040	-68.255	0.232	-0.091
-457.026	-180.230	0.354	-0.007
-456.011	800.000	-0.065	-0.264
-454.997	-89.140	0.264	-0.078
-453.982	-34.612	-0.079	0.044
-452.968	149.081	0.136	0.185
-451.953	241.803	0.062	-0.104
-450.938	198.164	-0.091	-0.139
-449.924	800.000	0.035	-0.134
-448.909	-113.409	0.168	0.033
-447.895	-118.635	-0.440	0.078
-446.880	-107.432	-0.282	0.062
-445.865	228.538	-0.058	-0.095
-444.851	-30.071	-0.222	0.127
-443.836	285.755	-0.039	-0.070
-442.822	87.059	0.251	0.278
-441.807	59.938	0.219	0.216
-440.792	35.946	-0.113	0.099
-439.778	726.200	0.068	0.181
-438.763	-30.374	-0.161	-0.091
-437.749	265.029	-0.085	-0.148
-436.734	-200.000	0.001	-0.426
-435.719	-27.252	-0.124	0.072
-434.705	-200.000	-0.002	0.126
-433.690	-40.601	0.352	-0.183
-432.676	-50.413	0.211	0.100
-431.661	733.335	-0.077	0.207
-430.646	753.202	-0.072	0.195
-429.632	91.929	-0.284	0.320
-428.617	321.828	0.066	0.126
-427.603	294.451	0.087	0.159
-426.588	-117.247	0.257	0.047
-425.573	-117.532	0.592	0.107
-424.559	-200.000	-0.018	0.198
-423.544	-61.038	0.071	0.030
-422.530	800.000	-0.043	0.159
-421.515	496.470	0.049	0.112
-420.500	341.379	-0.135	0.264
-419.486	-105.832	-0.417	0.094
-418.471	178.309	0.205	0.300
-417.457	346.335	0.085	0.168
-416.442	-200.000	0.006	-0.028
-415.428	249.797	0.204	-0.347
-414.413	46.177	-0.023	0.021
-413.398	-136.693	-0.177	0.020
-412.384	136.641	0.119	-0.155
-411.369	-107.709	-0.134	0.029
-410.355	69.018	0.303	-0.311
-409.340	800.000	-0.010	0.041
-408.325	559.810	0.031	0.075
-407.311	-1.631	-0.153	-0.108
-406.296	-60.237	-0.115	-0.049
-405.282	93.601	0.104	0.118
-404.267	-200.000	0.015	0.076
-403.252	200.647	-0.122	0.188
-402.238	-200.000	-0.007	-0.056
-401.223	301.835	-0.041	0.076
-400.209	-96.936	0.236	-0.062
-399.194	366.630	-0.121	-0.244
-398.179	-104.885	-0.217	-0.050
-397.165	800.000	-0.044	-0.133
-396.150	-152.813	0.162	-0.011
-395.136	800.000	-0.058	0.211
-394.121	-30.059	0.301	-0.171
-393.106	225.186	-0.235	-0.380
-392.092	-164.393	-0.441	0.020
-391.077	-22.821	0.249	-0.150
-390.063	-200.000	0.004	0.226
-389.048	800.000	0.065	-0.214
-388.033	-156.546	-0.112	0.007
-387.019	-200.000	0.021	-0.287
-386.004	-2.904	0.094	0.065
-384.990	-180.219	0.099	0.002
-383.975	-80.810	0.117	-0.039
-382.960	-51.640	0.183	-0.086
-381.946	800.000	0.079	-0.233
-380.931	41.228	-0.153	-0.138
-379.917	-144.632	0.277	0.026
-378.902	-200.000	-0.016	0.173
-377.888	-200.000	-0.054	-0.394
-376.873	9.235	0.224	-0.169
-375.858	46.384	0.257	0.238
-374.844	-200.000	-0.005	0.205
-373.829	2.171	0.321	-0.232
-372.815	95.606	-0.143	-0.163
-371.800	-200.000	-0.028	-0.315
-370.785	-72.379	-0.078	-0.029
-369.771	-70.560	-0.224	-0.085
-368.756	124.977	-0.015	0.019
-367.742	-38.649	0.468	0.247
-366.727	70.015	-0.071	0.074
-365.712	800.000	0.070	0.217
-364.698	-111.697	0.449	0.091
-363.683	-200.000	0.077	-0.344
-362.669	-200.000	-0.014	-0.138
-361.654	-91.660	-0.234	-0.067
-360.639	-171.892	-0.355	-0.012
-359.625	-39.528	-0.127	-0.066
-358.610	-153.259	0.098	0.007
-357.596	800.000	-0.053	-0.153
-356.581	121.157	0.161	-0.200
-355.566	-15.891	-0.250	-0.159
-354.552	800.000	0.074	0.204
-353.537	338.325	0.067	-0.130
-352.523	-200.000	0.015	-0.200
-351.508	-200.000	-0.000	-0.263
-350.493	-200.000	-0.009	-0.244
-349.479	800.000	0.033	0.115
-348.464	68.810	0.098	-0.101
-347.450	-115.128	-0.130	-0.025
-346.435	76.749	-0.143	0.151
-345.420	-105.996	0.407	-0.091
-344.406	85.922	0.175	0.192
-343.391	-82.455	-0.248	-0.080
-342.377	204.287	0.144	-0.223
-341.362	-112.143	-0.235	0.047
-340.348	-200.000	-0.025	-0.219
-339.333	-200.000	-0.001	-0.012
-338.318	-200.000	0.019	0.094
-337.304	-45.141	-0.134	0.067
-336.289	-200.000	-0.015	0.080
-335.275	189.865	0.035	-0.053
-334.260	-200.000	0.035	-0.206
-333.245	-200.000	0.016	-0.411
-332.231	-24.403	-0.250	-0.149
-331.216	-28.561	-0.237	-0.136
-330.202	35.029	0.180	-0.157
-329.187	101.917	0.256	0.298
-328.172	-93.775	0.237	-0.065
-327.158	-200.000	-0.004	0.069
-326.143	800.000	-0.094	-0.323
-325.129	226.440	-0.075	0.122
-324.114	92.086	-0.049	0.055
-323.099	-9.680	0.159	0.106
-322.085	-149.761	-0.203	0.016
-321.070	59.414	-0.202	-0.198
-320.056	337.827	0.149	0.289
-319.041	800.000	0.013	-0.055
-318.026	-200.000	-0.029	0.150
-317.012	800.000	0.017	-0.063
-315.997	-36.533	-0.275	0.148
-314.983	-60.212	0.290	0.123
-313.968	-13.754	-0.271	-0.175
-312.953	-200.000	-0.049	0.436
-311.939	-112.538	-0.172	0.034
-310.924	800.000	0.018	0.074
-309.910	188.421	-0.145	-0.216
-308.895	-200.000	0.067	-0.404
-307.880	-99.387	-0.131	0.033
-306.866	-116.490	0.331	-0.061
-305.851	44.744	0.021	0.019
-304.837	800.000	0.040	0.127
-303.822	175.422	0.184	0.266
-302.807	122.414	-0.299	-0.373
-301.793	271.744	-0.030	0.053
-300.778	-200.000	-0.085	0.575
-299.764	-200.000	-0.011	0.178
-298.749	-200.000	0.053	0.368
-297.735	-162.543	0.272	-0.013
-296.720	227.904	-0.067	-0.109
-295.705	354.127	0.216	-0.428
-294.691	77.264	-0.083	-0.088
-293.676	604.869	-0.069	-0.172
-292.662	-152.786	0.185	-0.013
-291.647	-142.808	-0.162	0.016
-290.632	62.413	-0.139	0.138
-289.618	160.802	-0.025	-0.034
-288.603	15.137	-0.110	0.085
-287.589	140.109	-0.345	-0.453
-286.574	-23.576	-0.167	0.100
-285.559	-144.722	-0.258	0.024
-284.545	64.871	-0.144	0.145
-283.530	-81.085	0.110	-0.036
-282.516	-43.755	0.173	-0.087
-281.501	-200.000	-0.000	-0.086
-280.486	737.693	0.168	-0.448
-279.472	187.354	0.160	-0.238
-278.457	62.199	-0.168	-0.167
-277.443	11.741	-0.229	-0.175
-276.428	800.000	-0.092	0.363
-275.413	25.841	-0.204	0.169
-274.399	-83.259	0.045	-0.014
-273.384	-165.486	0.191	-0.008
-272.370	-53.549	-0.254	0.115
-271.355	-89.982	0.197	0.057
-270.340	-83.041	0.191	-0.061
-269.326	-54.818	-0.214	-0.096
-268.311	-148.867	0.319	0.026
-267.297	131.895	-0.203	0.260
-266.282	34.657	-0.156	0.136
-265.267	144.342	-0.103	0.137
-264.253	602.093	0.092	0.228
-263.238	-148.588	0.044	0.004
-262.224	62.045	0.284	-0.282
-261.209	-200.000	-0.031	0.269
-260.195	38.757	-0.060	0.053
-259.180	-200.000	-0.014	0.188
-258.165	1.339	0.249	0.178
-257.151	505.648	-0.061	-0.140
-256.136	544.810	0.115	-0.273
-255.122	-200.000	0.002	-0.246
-254.107	39.687	-0.144	-0.128
-253.092	19.300	0.135	-0.108
-252.078	128.407	-0.017	0.021
-251.063	42.297	0.133	0.120
-250.049	12.046	-0.231	0.177
-249.034	-200.000	-0.010	-0.161
-248.019	-42.955	0.290	0.146
-247.005	-84.289	-0.148	-0.047
-245.990	25.538	0.240	0.198
-244.976	100.890	-0.052	-0.060
-243.961	-200.000	-0.003	0.099
-242.946	-56.110	0.358	0.158
-241.932	161.281	0.049	-0.068
-240.917	26.476	-0.074	0.062
-239.903	-200.000	0.079	-0.389
-238.888	436.622	0.089	0.193
-237.873	-67.093	0.225	-0.088
-236.859	-200.000	-0.051	-0.235
-235.844	-113.537	-0.060	-0.012
-234.830	670.564	0.122	0.315
-233.815	-85.277	-0.308	0.096
-232.800	-44.556	0.145	0.072
-231.786	14.841	0.235	0.182
-230.771	-43.192	-0.188	0.094
-229.757	-155.109	-0.020	0.001
-228.742	-28.263	-0.073	0.042
-227.727	144.114	0.183	0.243
-226.713	201.777	-0.160	-0.246
-225.698	-68.088	0.151	0.058
-224.684	-200.000	0.046	-0.280
-223.669	-167.029	-0.318	0.013
-222.655	-29.241	0.157	0.089
-221.640	-14.736	-0.371	0.237
-220.625	800.000	-0.031	0.099
-219.611	169.202	-0.120	0.169
-218.596	-200.000	-0.030	-0.244
-217.582	139.119	0.244	-0.319
-216.567	-200.000	0.041	-0.182
-215.552	100.515	-0.126	-0.146
-214.538	-36.925	0.084	0.045
-213.523	-117.753	-0.181	-0.032
-212.509	442.984	-0.101	0.220
-211.494	-167.153	0.121	0.005
-210.479	800.000	0.053	0.170
-209.465	-200.000	-0.036	0.164
-208.450	261.303	0.072	0.124
-207.436	-55.313	-0.259	0.115
-206.421	-200.000	0.014	-0.233
-205.406	104.434	0.156	-0.182
-204.392	-82.378	-0.213	0.069
-203.377	183.288	0.091	-0.134
-202.363	224.943	0.093	-0.149
-201.348	43.179	-0.153	-0.138
-200.333	175.500	-0.185	0.266
-199.319	223.327	-0.131	0.209
-198.304	128.653	-0.301	-0.381
-197.290	99.631	0.312	-0.359
-196.275	-25.561	0.112	-0.065
-195.260	-103.534	-0.148	-0.035
-194.246	-18.702	0.027	-0.017
-193.231	127.663	-0.120	0.151
-192.217	94.204	0.059	0.067
-191.202	-2.669	0.177	0.123
-190.187	-77.381	0.168	-0.058
-189.173	-31.564	-0.160	-0.089
-188.158	-191.159	0.188	-0.002
-187.144	-200.000	0.058	0.361
-186.129	-126.638	0.265	-0.039
-185.114	460.578	-0.056	0.123
-184.100	-156.995	0.093	-0.006
-183.085	-200.000	-0.003	0.163
-182.071	-49.688	0.093	-0.044
-181.056	-146.543	-0.208	0.018
-180.042	0.725	-0.189	-0.134
-179.027	800.000	-0.045	0.153
-178.012	-26.770	0.195	-0.113
-176.998	462.855	-0.126	0.278
-175.983	-98.623	0.151	-0.038
-174.969	-200.000	-0.025	-0.111
-173.954	-0.046	0.294	0.208
-172.939	800.000	-0.059	-0.181
-171.925	471.279	-0.020	0.045
-170.910	-30.735	0.081	-0.045
-169.896	346.464	0.030	0.059
-168.881	34.527	-0.173	-0.150
-167.866	309.753	0.164	0.305
-166.852	74.651	-0.048	0.050
-165.837	-200.000	0.018	0.288
-164.823	294.077	-0.055	0.099
-163.808	-114.737	-0.081	0.015
-162.793	752.388	0.163	-0.435
-161.779	-200.000	-0.011	0.149
-160.764	800.000	-0.052	0.171
-159.750	-98.924	0.145	-0.036
-158.735	-89.273	0.076	0.022
-157.720	-88.620	-0.023	-0.007
-156.706	47.886	0.189	0.175
-155.691	143.730	0.125	-0.165
-154.677	75.106	0.116	-0.121
-153.662	185.831	-0.176	-0.260
-152.647	15.375	-0.362	0.281
-151.633	98.360	0.059	0.068
-150.618	-102.593	0.131	0.031
-149.604	-111.808	-0.319	-0.064
-148.589	601.778	0.106	0.262
-147.574	-114.861	-0.362	0.068
-146.560	-138.079	0.338	0.037
-145.545	-69.655	-0.302	0.114
-144.531	-105.902	0.217	-0.048
-143.516	144.248	0.130	-0.172
-142.502	-13.168	0.218	-0.140
-141.487	60.327	0.274	-0.268
-140.472	130.579	-0.075	-0.095
-139.458	242.054	0.211	-0.349
-138.443	-182.284	-0.146	-0.003
-137.429	734.061	-0.061	0.162
-136.414	-200.000	0.113	0.554
-135.399	-36.740	0.195	-0.104
-134.385	27.333	-0.105	0.087
-133.370	54.089	-0.158	0.151
-132.356	-37.008	-0.175	-0.093
-131.341	-81.725	0.098	0.032
-130.326	-126.580	0.151	-0.022
-129.312	-102.727	-0.295	0.070
-128.297	60.143	-0.117	0.115
-127.283	-12.159	0.287	-0.186
-126.268	-18.014	-0.221	0.137
-125.253	281.955	-0.034	-0.060
-124.239	800.000	0.082	0.267
-123.224	-200.000	0.040	0.181
-122.210	11.778	-0.113	0.086
-121.195	-157.470	-0.210	-0.012
