DTS Sentinel unit serial number:	SN413079Multiplexer serial number:	ORYXHardware model number:	OX4-SRSoftware version number:	ORYX F/W v4.00 Oryx Data Collector v3.7.2.0data status	okinstallation	princeton_trtdifferential loss correction	single-endedforward channel	channel 2reverse channel	N/Adate	2019/09/16time	21:47:35forward acquisition time	60.00reverse acquisition time	0.00gamma	496.2192k internal	0.2328k external	0.2328temperature offset calibration	0.9969default loss term (dB/km)	0.3790temperature slope calibration	1.0000multiplexer offset coefficient	1.0000multiplexer slope coefficient	1.0000fibre end	0.00T internal ref (°C)	31.27T ext. ref 1 (°C)	0.06T ext. ref 2 (°C)	25.58length (m)	temperature (°C)	Stokes	anti-Stokes-747.200	-138.466	-0.227	0.025
-746.185	111.961	0.236	0.288
-745.171	800.000	-0.077	0.263
-744.156	-200.000	0.022	0.186
-743.142	301.642	-0.098	0.182
-742.127	161.648	0.164	0.231
-741.112	-200.000	0.037	-0.183
-740.098	-11.425	-0.321	0.213
-739.083	-200.000	-0.030	-0.277
-738.069	16.508	0.068	0.054
-737.054	-200.000	-0.027	-0.437
-736.039	-153.420	-0.197	-0.014
-735.025	592.178	0.126	0.314
-734.010	-41.781	-0.225	-0.116
-732.996	-200.000	0.012	-0.199
-731.981	298.068	0.085	0.158
-730.966	54.104	-0.216	0.210
-729.952	-44.207	-0.331	-0.167
-728.937	-111.939	-0.182	-0.037
-727.923	-106.115	-0.254	0.057
-726.908	800.000	-0.025	-0.072
-725.894	40.768	-0.181	0.165
-724.879	86.057	-0.057	-0.063
-723.864	-200.000	-0.032	-0.288
-722.850	-102.904	-0.125	-0.030
-721.835	368.013	0.059	-0.121
-720.821	-49.225	-0.060	-0.029
-719.806	697.459	0.053	0.140
-718.791	86.978	0.129	0.143
-717.777	-117.743	-0.263	0.048
-716.762	102.205	0.140	-0.165
-715.748	800.000	0.155	-0.433
-714.733	590.893	-0.177	-0.439
-713.718	108.508	-0.106	0.128
-712.704	0.102	0.250	0.180
-711.689	-200.000	0.039	0.249
-710.675	-3.594	0.274	0.191
-709.660	92.221	0.090	0.103
-708.645	719.477	0.121	-0.325
-707.631	553.455	0.082	-0.198
-706.616	-128.670	0.291	-0.041
-705.602	-89.997	0.301	-0.088
-704.587	334.642	0.155	-0.302
-703.572	-138.986	0.117	-0.013
-702.558	-200.000	-0.025	0.308
-701.543	405.320	-0.144	0.305
-700.529	800.000	0.078	0.231
-699.514	20.365	0.086	-0.070
-698.499	-123.840	-0.401	-0.064
-697.485	-182.771	0.213	-0.004
-696.470	800.000	-0.042	-0.156
-695.456	701.167	-0.057	0.151
-694.441	-62.757	-0.244	0.102
-693.426	800.000	0.076	-0.215
-692.412	800.000	-0.082	-0.265
-691.397	-76.040	0.073	0.026
-690.383	428.330	-0.216	0.468
-689.368	-200.000	-0.009	0.200
-688.354	800.000	-0.097	-0.362
-687.339	-79.434	0.252	0.086
-686.324	-162.690	0.279	0.014
-685.310	423.251	0.026	-0.056
-684.295	-200.000	0.025	-0.279
-683.281	-200.000	-0.002	-0.010
-682.266	-200.000	-0.022	0.307
-681.251	-200.000	-0.058	0.272
-680.237	47.384	-0.200	0.187
-679.222	-76.099	-0.270	0.096
-678.208	800.000	-0.108	-0.387
-677.193	-200.000	0.019	-0.128
-676.178	-67.703	-0.300	0.118
-675.164	130.982	-0.081	-0.105
-674.149	-122.538	0.114	-0.019
-673.135	16.311	-0.146	-0.116
-672.120	154.379	0.201	-0.278
-671.105	-200.000	-0.087	-0.484
-670.091	-200.000	0.015	-0.320
-669.076	-31.705	0.440	-0.248
-668.062	-46.387	-0.225	0.111
-667.047	222.703	-0.131	0.213
-666.032	-200.000	0.008	0.288
-665.018	4.616	-0.280	0.206
-664.003	-200.000	-0.036	-0.268
-662.989	-89.786	-0.286	-0.084
-661.974	-174.303	0.178	0.005
-660.959	-83.718	-0.356	-0.114
-659.945	136.422	-0.301	-0.395
-658.930	-159.078	-0.235	0.013
-657.916	59.327	-0.187	-0.185
-656.901	229.768	0.239	-0.392
-655.886	-51.969	-0.296	0.138
-654.872	7.608	-0.142	-0.107
-653.857	-34.163	0.201	-0.111
-652.843	800.000	-0.182	-0.625
-651.828	8.563	-0.143	0.108
-650.814	67.858	0.170	0.175
-649.799	-25.123	-0.259	0.154
-648.784	-24.964	-0.116	0.069
-647.770	800.000	-0.093	-0.261
-646.755	800.000	-0.126	-0.461
-645.741	800.000	-0.077	0.313
-644.726	-133.116	0.143	0.018
-643.711	88.774	-0.110	0.123
-642.697	-200.000	-0.076	0.431
-641.682	800.000	-0.043	0.154
-640.668	-11.370	0.005	0.003
-639.653	-140.696	-0.324	0.034
-638.638	-200.000	0.089	-0.469
-637.624	-161.018	-0.254	-0.013
-636.609	51.922	-0.070	0.067
-635.595	800.000	-0.179	0.560
-634.580	596.824	0.103	0.255
-633.565	-57.808	0.244	-0.107
-632.551	-17.762	-0.147	0.093
-631.536	27.065	0.299	0.252
-630.522	-200.000	0.034	0.208
-629.507	0.447	-0.147	-0.106
-628.492	175.120	-0.062	0.090
-627.478	33.710	-0.152	0.132
-626.463	236.452	-0.054	-0.090
-625.449	-38.013	-0.115	-0.061
-624.434	772.949	-0.079	0.217
-623.419	800.000	-0.072	-0.301
-622.405	800.000	-0.124	0.370
-621.390	-77.847	0.226	-0.078
-620.376	-31.802	-0.356	0.200
-619.361	578.280	0.178	0.438
-618.346	-155.960	0.420	-0.027
-617.332	119.449	-0.173	-0.215
-616.317	238.610	0.150	-0.250
-615.303	-30.490	-0.183	-0.104
-614.288	37.267	-0.127	-0.113
-613.273	-200.000	0.031	-0.292
-612.259	-121.559	-0.262	0.044
-611.244	-51.158	-0.191	0.090
-610.230	260.137	0.036	0.063
-609.215	-200.000	-0.055	0.284
-608.201	800.000	-0.054	-0.220
-607.186	-130.130	0.085	-0.012
-606.171	-200.000	-0.000	-0.012
-605.157	747.139	-0.108	0.293
-604.142	138.059	0.089	0.117
-603.128	-173.977	-0.201	0.006
-602.113	-200.000	-0.009	-0.384
-601.098	-200.000	0.009	-0.150
-600.084	-110.038	-0.128	0.027
-599.069	-32.382	-0.316	0.176
-598.055	-200.000	0.043	0.274
-597.040	482.093	-0.134	-0.305
-596.025	-89.822	-0.155	-0.046
-595.011	39.088	0.055	-0.049
-593.996	-53.006	-0.171	0.079
-592.982	1.099	0.359	0.258
-591.967	238.067	-0.081	0.135
-590.952	-14.446	-0.081	0.052
-589.938	-56.004	-0.161	-0.072
-588.923	612.440	-0.074	0.184
-587.909	0.592	-0.127	-0.091
-586.894	86.554	0.145	0.160
-585.879	800.000	-0.040	0.134
-584.865	-16.032	0.167	-0.107
-583.850	464.591	-0.263	-0.589
-582.836	-200.000	-0.001	-0.068
-581.821	-200.000	0.001	-0.140
-580.806	-200.000	-0.002	0.037
-579.792	-22.077	-0.259	-0.158
-578.777	-100.099	0.096	-0.024
-577.763	-151.479	-0.310	-0.023
-576.748	-167.591	-0.153	-0.006
-575.733	531.807	0.083	-0.196
-574.719	-200.000	-0.093	-0.508
-573.704	-4.240	-0.106	-0.074
-572.690	-127.590	0.492	-0.071
-571.675	-200.000	-0.049	-0.226
-570.661	800.000	0.043	-0.177
-569.646	-33.876	-0.073	0.040
-568.631	800.000	-0.040	0.138
-567.617	-200.000	-0.030	0.176
-566.602	-23.363	0.187	0.113
-565.588	778.139	-0.115	-0.315
-564.573	166.994	0.061	0.087
-563.558	800.000	-0.040	0.115
-562.544	-200.000	-0.006	0.402
-561.529	757.166	0.087	0.235
-560.515	737.608	-0.110	0.294
-559.500	50.441	-0.137	-0.129
-558.485	-101.092	0.097	0.024
-557.471	-115.591	-0.315	0.059
-556.456	800.000	-0.034	-0.112
-555.442	350.308	-0.080	0.158
-554.427	-32.926	0.133	-0.074
-553.412	154.450	-0.095	-0.130
-552.398	800.000	-0.094	0.310
-551.383	800.000	-0.080	0.266
-550.369	49.797	0.124	-0.117
-549.354	190.802	0.103	0.155
-548.339	297.550	-0.092	0.168
-547.325	-200.000	0.091	0.419
-546.310	-124.113	0.119	0.019
-545.296	549.287	0.058	-0.140
-544.281	-93.915	0.134	-0.037
-543.266	191.548	0.162	0.244
-542.252	-200.000	-0.039	0.197
-541.237	-200.000	0.033	0.238
-540.223	-145.204	-0.547	0.050
-539.208	66.609	0.211	-0.215
-538.193	-46.911	-0.028	-0.014
-537.179	310.324	0.111	0.208
-536.164	171.400	0.098	0.140
-535.150	-68.315	-0.062	-0.024
-534.135	605.807	-0.130	0.323
-533.121	-37.491	-0.120	0.064
-532.106	-68.969	0.298	-0.115
-531.091	77.842	0.305	-0.325
-530.077	-60.573	0.215	-0.091
-529.062	-103.258	-0.184	-0.043
-528.048	32.213	0.160	0.138
-527.033	800.000	0.023	0.071
-526.018	-73.649	-0.333	-0.121
-525.004	-102.322	-0.374	-0.090
-523.989	-37.503	-0.282	-0.150
-522.975	-170.553	0.119	0.004
-521.960	307.829	-0.072	0.135
-520.945	309.043	-0.161	0.301
-519.931	414.965	-0.091	0.193
-518.916	-200.000	-0.003	-0.061
-517.902	34.476	-0.278	-0.242
-516.887	-100.296	-0.267	0.066
-515.872	0.438	0.148	0.106
-514.858	-76.600	0.373	0.131
-513.843	-200.000	0.015	-0.225
-512.829	-174.554	-0.349	-0.010
-511.814	-112.489	0.223	-0.044
-510.799	-101.320	0.186	-0.045
-509.785	-24.917	-0.198	0.117
-508.770	800.000	0.119	0.338
-507.756	-126.027	-0.054	0.008
-506.741	-200.000	-0.026	-0.355
-505.726	68.666	-0.047	-0.048
-504.712	223.806	-0.251	0.404
-503.697	800.000	0.060	-0.171
-502.683	101.543	-0.097	0.113
-501.668	50.411	0.144	0.136
-500.653	-0.226	0.202	-0.143
-499.639	275.827	0.148	-0.261
-498.624	317.012	0.028	0.053
-497.610	-71.338	0.216	0.081
-496.595	-143.091	0.108	0.010
-495.581	-9.779	0.107	0.071
-494.566	224.324	-0.141	0.227
-493.551	-141.699	-0.158	0.016
-492.537	-14.821	0.262	0.168
-491.522	716.985	-0.029	-0.077
-490.508	-130.595	-0.412	0.055
-489.493	-200.000	0.012	-0.093
-488.478	57.489	0.347	-0.338
-487.464	458.638	0.103	0.228
-486.449	-200.000	-0.030	0.194
-485.435	514.930	-0.082	-0.191
-484.420	268.154	-0.204	-0.356
-483.405	88.383	0.069	0.077
-482.391	-200.000	0.011	0.159
-481.376	146.229	0.149	-0.199
-480.362	-82.029	-0.048	0.016
-479.347	-200.000	0.017	-0.130
-478.332	-59.055	-0.160	-0.069
-477.318	-39.113	0.241	-0.126
-476.303	349.803	0.155	-0.306
-475.289	-200.000	-0.001	0.101
-474.274	-26.991	-0.198	0.115
-473.259	-93.814	0.052	-0.014
-472.245	69.803	0.199	0.205
-471.230	-200.000	0.002	-0.014
-470.216	140.879	-0.058	0.076
-469.201	-0.575	-0.132	-0.094
-468.186	-111.177	-0.230	-0.047
-467.172	-26.145	0.330	0.193
-466.157	-200.000	0.054	0.284
-465.143	234.123	0.198	-0.325
-464.128	-64.417	-0.152	0.062
-463.113	-82.723	0.196	0.063
-462.099	-167.711	0.108	0.004
-461.084	171.663	0.029	0.042
-460.070	273.749	0.152	-0.269
-459.055	-159.001	0.336	0.019
-458.040	-200.000	0.082	-0.504
-457.026	800.000	0.120	0.380
-456.011	48.835	-0.127	-0.119
-454.997	-200.000	-0.018	0.133
-453.982	-191.053	0.256	0.003
-452.968	458.862	0.050	0.112
-451.953	-113.832	0.084	-0.016
-450.938	568.028	0.060	-0.145
-449.924	362.114	-0.137	0.273
-448.909	-142.902	-0.189	-0.018
-447.895	0.769	0.175	0.125
-446.880	-200.000	-0.075	0.345
-445.865	-179.655	0.447	-0.010
-444.851	800.000	0.051	-0.200
-443.836	47.866	-0.106	0.099
-442.822	800.000	-0.064	-0.192
-441.807	-59.659	0.211	-0.090
-440.792	-200.000	0.014	0.073
-439.778	-31.499	-0.158	0.089
-438.763	-102.721	0.169	0.040
-437.749	-200.000	0.020	0.140
-436.734	-200.000	0.013	-0.370
-435.719	77.928	0.084	-0.090
-434.705	30.944	-0.205	0.175
-433.690	17.147	-0.325	-0.256
-432.676	-200.000	0.026	0.485
-431.661	-74.503	0.106	0.038
-430.646	458.577	0.050	-0.110
-429.632	252.494	0.149	-0.253
-428.617	89.472	-0.315	0.349
-427.603	-75.255	-0.170	0.060
-426.588	800.000	-0.042	0.165
-425.573	-200.000	-0.040	0.210
-424.559	786.368	-0.046	0.126
-423.544	-134.029	-0.347	0.043
-422.530	0.129	0.412	-0.293
-421.515	646.923	-0.069	0.176
-420.500	-52.782	-0.200	-0.092
-419.486	-117.596	0.086	-0.015
-418.471	13.484	-0.158	-0.122
-417.457	-200.000	-0.030	0.343
-416.442	23.487	0.079	0.065
-415.428	-25.027	-0.040	0.024
-414.413	-30.813	0.041	0.023
-413.398	-24.229	-0.190	0.113
-412.384	274.915	0.094	-0.166
-411.369	-200.000	-0.010	0.114
-410.355	-112.175	-0.177	-0.035
-409.340	-36.865	0.148	-0.079
-408.325	539.803	-0.103	0.244
-407.311	220.234	0.209	0.333
-406.296	281.081	0.147	-0.261
-405.282	-200.000	0.062	-0.293
-404.267	459.129	-0.213	-0.471
-403.252	412.839	0.178	-0.377
-402.238	55.746	-0.325	0.313
-401.223	-10.426	0.122	-0.081
-400.209	-40.401	-0.225	-0.116
-399.194	-200.000	-0.000	0.057
-398.179	75.496	-0.250	0.262
-397.165	800.000	-0.139	-0.419
-396.150	-200.000	-0.003	0.338
-395.136	-200.000	0.011	0.430
-394.121	800.000	0.068	0.285
-393.106	23.573	0.034	0.028
-392.092	400.186	-0.041	0.085
-391.077	-47.709	0.299	0.144
-390.063	-135.381	-0.230	-0.027
-389.048	340.789	0.035	-0.068
-388.033	-130.355	-0.144	0.019
-387.019	-80.568	-0.384	-0.127
-386.004	-5.290	0.223	-0.153
-384.990	-2.407	-0.181	-0.126
-383.975	2.596	-0.240	-0.173
-382.960	-200.000	-0.028	-0.273
-381.946	167.532	-0.169	0.238
-380.931	-17.379	0.139	0.087
-379.917	101.958	0.071	0.082
-378.902	800.000	0.056	-0.191
-377.888	-200.000	0.051	-0.288
-376.873	-150.650	0.343	-0.026
-375.858	-92.925	0.098	0.027
-374.844	567.973	-0.050	-0.120
-373.829	-200.000	-0.019	-0.110
-372.815	369.638	-0.136	-0.274
-371.800	-97.836	-0.463	-0.119
-370.785	67.166	0.295	-0.298
-369.771	-200.000	-0.041	-0.230
-368.756	800.000	0.067	-0.221
-367.742	-200.000	0.016	-0.119
-366.727	-135.044	0.124	0.015
-365.712	-200.000	-0.046	0.348
-364.698	-25.022	0.222	0.131
-363.683	200.812	0.164	-0.250
-362.669	-121.109	0.265	0.044
-361.654	-6.254	-0.300	-0.203
-360.639	-115.369	0.225	0.042
-359.625	800.000	-0.139	-0.390
-358.610	771.947	0.014	0.037
-357.596	-158.049	0.287	-0.017
-356.581	200.898	-0.078	-0.120
-355.566	-200.000	0.056	-0.260
-354.552	23.353	0.013	0.011
-353.537	212.423	-0.138	-0.215
-352.523	800.000	-0.111	-0.350
-351.508	-200.000	0.001	-0.026
-350.493	197.697	0.028	-0.043
-349.479	2.601	0.325	0.233
-348.464	-151.566	-0.367	0.027
-347.450	344.019	0.228	-0.444
-346.435	364.030	0.044	0.087
-345.420	-39.245	-0.188	0.098
-344.406	106.056	-0.048	0.057
-343.391	-200.000	0.007	-0.318
-342.377	-116.953	-0.268	0.049
-341.362	-62.987	-0.195	-0.080
-340.348	378.611	0.117	0.237
-339.333	-200.000	0.071	0.557
-338.318	86.954	-0.247	-0.270
-337.304	-148.129	-0.199	0.016
-336.289	-163.377	0.225	0.011
-335.275	800.000	0.025	0.079
-334.260	-40.824	0.296	0.152
-333.245	16.816	-0.125	0.098
-332.231	-200.000	0.016	0.094
-331.216	-22.240	-0.115	-0.069
-330.202	395.751	0.058	-0.119
-329.187	-200.000	-0.019	0.270
-328.172	-153.667	-0.337	-0.023
-327.158	-135.760	0.209	-0.024
-326.143	227.582	-0.264	0.425
-325.129	19.947	0.108	0.086
-324.114	-200.000	0.017	-0.179
-323.099	800.000	0.038	0.143
-322.085	432.553	-0.027	0.057
-321.070	-200.000	0.088	-0.439
-320.056	-200.000	0.028	-0.184
-319.041	800.000	0.066	0.194
-318.026	-35.194	0.271	-0.146
-317.012	-200.000	0.018	0.183
-315.997	67.586	0.203	0.205
-314.983	-6.899	0.099	-0.067
-313.968	-100.892	-0.124	-0.030
-312.953	240.514	0.272	-0.449
-311.939	-112.288	0.307	-0.061
-310.924	177.551	-0.101	-0.147
-309.910	453.420	0.095	-0.209
-308.895	-1.930	0.088	-0.062
-307.880	-95.851	-0.146	0.039
-306.866	222.306	-0.096	0.154
-305.851	11.846	0.212	0.161
-304.837	-37.900	-0.239	-0.126
-303.822	389.869	0.088	0.180
-302.807	-106.956	-0.049	0.011
-301.793	143.566	-0.093	-0.123
-300.778	800.000	0.079	-0.238
-299.764	-33.623	0.116	-0.063
-298.749	-191.443	0.296	0.003
-297.735	-116.995	0.282	0.051
-296.720	-4.716	-0.183	-0.125
-295.705	239.606	-0.082	0.136
-294.691	-200.000	0.003	-0.075
-293.676	800.000	-0.096	-0.266
-292.662	-42.338	0.277	-0.140
-291.647	-101.959	0.337	0.081
-290.632	-86.851	-0.023	0.007
-289.618	800.000	0.031	0.088
-288.603	70.401	0.123	0.125
-287.589	800.000	-0.111	-0.444
-286.574	-21.623	-0.156	0.094
-285.559	7.448	0.207	0.153
-284.545	81.288	-0.183	-0.195
-283.530	-33.363	-0.138	-0.075
-282.516	485.438	0.137	0.308
-281.501	-45.718	-0.120	0.059
-280.486	-48.461	-0.234	0.112
-279.472	498.175	0.128	-0.291
-278.457	-112.072	0.126	-0.025
-277.443	-83.568	-0.198	0.063
-276.428	122.732	-0.100	-0.124
-275.413	235.016	-0.176	-0.288
-274.399	-100.679	-0.189	-0.046
-273.384	-17.168	-0.210	0.131
-272.370	-200.000	-0.101	-0.000
-271.355	37.406	0.117	-0.103
-270.340	15.205	0.495	0.384
-269.326	-123.776	0.150	-0.023
-268.311	76.860	0.134	-0.141
-267.297	-79.592	-0.258	0.086
-266.282	-41.734	-0.198	-0.101
-265.267	-127.261	0.172	-0.025
-264.253	800.000	0.096	-0.344
-263.238	-78.022	0.422	-0.144
-262.224	454.216	0.150	-0.328
-261.209	-81.674	-0.239	0.078
-260.195	565.245	-0.128	-0.306
-259.180	-200.000	-0.067	-0.418
-258.165	249.893	0.064	0.107
-257.151	-98.781	0.074	0.019
-256.136	523.645	0.047	-0.110
-255.122	-42.890	0.408	0.205
-254.107	128.754	-0.209	-0.264
-253.092	-50.709	-0.100	-0.047
-252.078	134.159	-0.190	-0.244
-251.063	-99.709	-0.091	-0.023
-250.049	-140.795	-0.061	-0.006
-249.034	-144.822	-0.119	0.011
-248.019	5.808	0.348	-0.254
-247.005	800.000	-0.153	0.417
-245.990	-78.409	0.148	-0.050
-244.976	-200.000	0.030	0.418
-243.961	75.789	0.138	-0.144
-242.946	23.112	0.223	0.181
-241.932	-37.547	0.108	0.057
-240.917	36.846	-0.266	0.233
-239.903	225.111	0.180	0.287
-238.888	-200.000	0.001	0.207
-237.873	-28.028	0.136	-0.078
-236.859	-67.925	0.182	-0.070
-235.844	137.132	0.052	0.067
-234.830	146.498	0.083	0.110
-233.815	211.888	-0.027	-0.041
-232.800	800.000	-0.020	-0.067
-231.786	-200.000	-0.030	0.224
-230.771	800.000	0.081	-0.271
-229.757	317.239	-0.042	0.079
-228.742	800.000	0.049	0.193
-227.727	-55.224	-0.355	-0.158
-226.713	-200.000	-0.019	-0.107
-225.698	-95.300	0.146	0.039
-224.684	-105.993	0.188	-0.042
-223.669	300.749	0.172	0.313
-222.655	-108.417	-0.241	-0.051
-221.640	800.000	-0.072	-0.249
-220.625	800.000	-0.017	0.050
-219.611	110.285	0.053	-0.063
-218.596	-200.000	0.010	0.085
-217.582	52.757	0.310	0.293
-216.567	-95.387	0.061	0.016
-215.552	-200.000	-0.005	-0.151
-214.538	800.000	0.080	-0.226
-213.523	-47.268	-0.152	0.073
-212.509	-200.000	-0.016	-0.190
-211.494	800.000	-0.086	0.273
-210.479	780.293	0.079	-0.214
-209.465	325.894	0.077	0.145
-208.450	-88.071	-0.195	-0.058
-207.436	33.094	-0.059	-0.050
-206.421	397.678	-0.154	-0.319
-205.406	555.069	0.126	0.298
-204.392	90.591	0.138	-0.153
-203.377	-200.000	-0.002	-0.168
-202.363	-115.899	0.409	-0.075
-201.348	-200.000	0.010	-0.149
-200.333	247.838	0.042	-0.071
-199.319	-200.000	0.001	0.215
-198.304	338.903	0.122	0.234
-197.290	-15.435	-0.329	-0.208
-196.275	786.411	0.074	-0.199
-195.260	-98.262	0.214	-0.054
-194.246	-102.149	-0.301	-0.071
-193.231	-58.858	-0.243	-0.104
-192.217	-64.864	0.349	-0.139
-191.202	511.704	0.162	-0.372
-190.187	432.991	-0.160	-0.343
-189.173	-200.000	0.019	-0.152
-188.158	-90.105	0.094	-0.027
-187.144	67.232	-0.280	0.282
-186.129	93.526	-0.126	0.141
-185.114	-200.000	-0.001	0.167
-184.100	374.112	-0.168	0.336
-183.085	-134.221	0.495	-0.060
-182.071	172.326	0.085	-0.121
-181.056	-43.742	-0.187	0.093
-180.042	-95.893	0.120	0.031
-179.027	800.000	0.084	0.347
-178.012	-200.000	-0.006	0.077
-176.998	-200.000	-0.007	-0.154
-175.983	-111.639	0.317	0.063
-174.969	-24.446	-0.117	0.069
-173.954	-41.183	0.301	0.153
-172.939	170.468	0.060	-0.085
-171.925	376.105	-0.150	0.302
-170.910	800.000	-0.069	-0.211
-169.896	160.291	-0.084	0.116
-168.881	-130.174	0.435	-0.058
-167.866	-200.000	0.008	0.345
-166.852	-200.000	-0.034	-0.205
-165.837	-156.090	-0.083	0.005
-164.823	-200.000	0.020	-0.132
-163.808	-59.010	-0.139	-0.059
-162.793	-200.000	0.002	-0.055
-161.779	-69.520	0.373	0.141
-160.764	-51.920	-0.105	0.048
-159.750	103.073	-0.208	-0.240
-158.735	12.486	-0.165	0.125
-157.720	2.603	-0.025	-0.018
-156.706	-200.000	0.013	-0.205
-155.691	800.000	-0.027	-0.081
-154.677	-200.000	0.081	0.556
-153.662	-83.784	-0.168	-0.053
-152.647	48.252	0.222	0.205
-151.633	325.551	0.199	0.375
-150.618	-142.746	-0.114	0.011
-149.604	540.486	-0.198	-0.463
-148.589	-200.000	-0.027	0.250
-147.574	627.639	0.012	-0.030
-146.560	196.763	-0.233	0.350
-145.545	16.378	0.323	-0.251
-144.531	-49.144	-0.204	0.096
-143.516	800.000	0.046	-0.130
-142.502	-62.322	0.270	-0.111
-141.487	-80.880	-0.104	0.034
-140.472	-35.658	-0.067	0.036
-139.458	-129.263	0.173	-0.024
-138.443	-138.181	0.163	-0.018
-137.429	800.000	-0.024	0.070
-136.414	-5.201	0.248	-0.168
-135.399	-9.201	0.169	0.111
-134.385	800.000	-0.148	0.470
-133.370	-200.000	-0.011	-0.246
-132.356	800.000	0.064	0.206
-131.341	141.900	0.226	0.295
-130.326	51.605	-0.076	-0.071
-129.312	28.115	-0.234	0.195
-128.297	323.825	0.107	0.201
-127.283	800.000	0.084	0.292
-126.268	295.416	0.061	-0.109
-125.253	-150.503	-0.426	0.032
-124.239	-100.146	-0.125	0.031
-123.224	-76.286	-0.114	-0.039
-122.210	396.823	0.139	-0.286
