DTS Sentinel unit serial number:	SN413079Multiplexer serial number:	ORYXHardware model number:	OX4-SRSoftware version number:	ORYX F/W v4.00 Oryx Data Collector v3.7.2.0data status	okinstallation	princeton_trtdifferential loss correction	single-endedforward channel	channel 2reverse channel	N/Adate	2019/09/14time	15:23:35forward acquisition time	60.00reverse acquisition time	0.00gamma	496.2192k internal	0.2303k external	0.2303temperature offset calibration	1.0146default loss term (dB/km)	0.3790temperature slope calibration	1.0000multiplexer offset coefficient	1.0000multiplexer slope coefficient	1.0000fibre end	0.00T internal ref (°C)	39.02T ext. ref 1 (°C)	5.11T ext. ref 2 (°C)	33.64length (m)	temperature (°C)	Stokes	anti-Stokes-747.200	-200.000	0.034	-0.295
-746.185	350.598	0.149	0.300
-745.171	-200.000	-0.008	0.120
-744.156	-200.000	-0.055	0.394
-743.142	-154.043	0.397	0.027
-742.127	557.546	-0.052	0.129
-741.112	800.000	-0.072	-0.224
-740.098	565.573	-0.145	-0.359
-739.083	-43.031	0.174	-0.090
-738.069	-200.000	0.026	0.341
-737.054	54.119	0.216	0.211
-736.039	62.482	-0.139	0.141
-735.025	-94.237	-0.176	-0.049
-734.010	13.710	-0.100	0.079
-732.996	-119.369	0.342	-0.061
-731.981	196.968	-0.069	-0.107
-730.966	-74.311	0.212	0.078
-729.952	800.000	-0.053	-0.211
-728.937	229.790	-0.143	-0.239
-727.923	37.721	-0.167	0.151
-726.908	-101.780	0.123	-0.030
-725.894	-5.710	-0.113	0.079
-724.879	203.176	0.182	-0.287
-723.864	-200.000	-0.022	0.177
-722.850	678.625	0.100	-0.264
-721.835	800.000	0.027	-0.102
-720.821	-148.377	0.239	-0.020
-719.806	187.913	-0.250	-0.381
-718.791	195.501	-0.153	-0.237
-717.777	-43.143	0.145	-0.075
-716.762	168.826	0.083	-0.120
-715.748	-102.918	0.276	-0.067
-714.733	1.042	0.077	-0.056
-713.718	15.356	0.105	0.084
-712.704	-47.405	0.338	-0.167
-711.689	76.174	-0.131	-0.141
-710.675	800.000	0.051	-0.205
-709.660	-200.000	-0.036	0.220
-708.645	198.181	0.151	-0.235
-707.631	-132.464	0.313	0.041
-706.616	-86.560	0.362	-0.113
-705.602	-27.664	0.250	0.148
-704.587	181.976	0.109	0.163
-703.572	-72.046	0.031	0.012
-702.558	-66.442	-0.076	0.031
-701.543	-139.200	0.192	-0.021
-700.529	-30.783	0.298	-0.171
-699.514	82.724	-0.088	0.097
-698.499	31.614	-0.300	-0.262
-697.485	131.913	-0.190	0.248
-696.470	75.602	-0.091	-0.098
-695.456	-35.008	-0.244	0.135
-694.441	-80.840	-0.157	-0.053
-693.426	68.888	0.114	0.119
-692.412	51.354	-0.118	-0.114
-691.397	-101.758	-0.261	0.064
-690.383	-162.334	0.165	0.008
-689.368	15.286	0.191	-0.152
-688.354	138.092	-0.110	0.146
-687.339	42.918	-0.088	0.082
-686.324	89.671	-0.167	0.189
-685.310	495.362	0.019	-0.044
-684.295	-53.798	0.037	-0.017
-683.281	-200.000	-0.004	0.023
-682.266	800.000	-0.137	0.428
-681.251	-80.474	-0.269	0.091
-680.237	-200.000	0.002	-0.576
-679.222	-200.000	-0.024	-0.204
-678.208	-3.097	0.118	-0.084
-677.193	-200.000	0.077	-0.371
-676.178	12.424	-0.220	-0.172
-675.164	-0.786	0.038	-0.028
-674.149	-67.729	-0.190	-0.076
-673.135	-134.887	-0.167	-0.021
-672.120	-200.000	-0.002	-0.029
-671.105	-200.000	-0.033	-0.183
-670.091	-200.000	0.002	0.009
-669.076	-186.102	-0.327	-0.005
-668.062	-122.995	0.335	0.055
-667.047	161.118	0.141	0.200
-666.032	-55.091	-0.071	0.032
-665.018	207.407	-0.052	0.083
-664.003	-99.457	-0.221	0.056
-662.989	33.383	0.085	0.075
-661.974	484.713	0.119	-0.275
-660.959	-148.632	0.082	-0.007
-659.945	-79.319	-0.187	-0.064
-658.930	216.048	-0.013	0.021
-657.916	-200.000	0.008	-0.169
-656.901	324.190	0.162	-0.315
-655.886	-160.282	0.378	-0.021
-654.872	151.598	0.162	0.224
-653.857	-10.682	-0.061	0.041
-652.843	39.259	0.300	0.272
-651.828	137.598	-0.117	-0.156
-650.814	-200.000	0.017	-0.106
-649.799	-200.000	-0.058	-0.319
-648.784	-110.198	0.196	0.041
-647.770	-99.853	-0.102	0.026
-646.755	443.570	-0.077	0.171
-645.741	77.199	0.144	0.155
-644.726	800.000	0.010	0.040
-643.711	800.000	0.102	0.289
-642.697	18.216	0.297	-0.241
-641.682	-200.000	0.032	0.288
-640.668	-32.736	0.260	-0.147
-639.653	76.756	0.062	-0.067
-638.638	55.821	-0.154	-0.152
-637.624	266.715	-0.029	0.051
-636.609	104.244	-0.282	-0.336
-635.595	759.587	-0.002	0.004
-634.580	295.846	-0.105	-0.194
-633.565	-15.366	-0.371	-0.241
-632.551	-133.261	0.204	0.026
-631.536	800.000	-0.047	-0.201
-630.522	294.553	-0.195	-0.362
-629.507	185.668	-0.063	-0.095
-628.492	800.000	0.076	0.224
-627.478	-200.000	-0.008	0.104
-626.463	-149.364	0.215	-0.017
-625.449	-200.000	-0.044	0.225
-624.434	-157.377	-0.170	0.010
-623.419	7.899	-0.075	-0.057
-622.405	36.938	-0.211	-0.189
-621.390	-7.344	0.262	-0.180
-620.376	-108.194	0.275	0.060
-619.361	264.777	-0.070	0.123
-618.346	-60.287	-0.154	0.066
-617.332	-85.437	0.136	0.043
-616.317	-200.000	-0.021	-0.180
-615.303	271.039	0.135	0.241
-614.288	-200.000	0.018	0.116
-613.273	-90.651	0.048	-0.014
-612.259	-200.000	0.002	0.032
-611.244	-116.401	-0.429	-0.080
-610.230	-200.000	-0.039	-0.294
-609.215	40.100	0.148	-0.135
-608.201	-105.198	-0.366	0.085
-607.186	-111.208	-0.137	0.028
-606.171	-184.124	-0.227	-0.004
-605.157	-90.111	-0.345	0.102
-604.142	-31.089	-0.140	0.080
-603.128	800.000	0.097	0.341
-602.113	8.013	-0.117	-0.089
-601.098	800.000	-0.188	-0.604
-600.084	-112.782	-0.114	-0.023
-599.069	800.000	0.012	0.053
-598.055	112.480	0.138	-0.169
-597.040	-200.000	-0.011	0.142
-596.025	-200.000	0.016	0.192
-595.011	-200.000	0.053	-0.414
-593.996	180.263	-0.025	-0.038
-592.982	-170.372	0.417	-0.015
-591.967	33.367	0.368	-0.324
-590.952	-154.408	0.233	-0.016
-589.938	-130.182	0.095	0.013
-588.923	800.000	-0.042	0.122
-587.909	629.472	0.050	-0.129
-586.894	-104.029	0.171	0.040
-585.879	-200.000	0.008	0.146
-584.865	12.779	-0.266	0.208
-583.850	163.640	-0.018	0.026
-582.836	-97.579	-0.432	0.114
-581.821	800.000	-0.032	0.096
-580.806	-200.000	0.060	0.346
-579.792	-200.000	0.029	0.201
-578.777	-149.413	0.035	0.003
-577.763	800.000	-0.023	0.095
-576.748	170.459	-0.128	0.186
-575.733	6.481	0.353	0.266
-574.719	152.925	-0.038	0.052
-573.704	-143.965	-0.208	-0.020
-572.690	-122.041	-0.111	0.018
-571.675	-200.000	-0.017	-0.152
-570.661	-151.824	-0.374	0.028
-569.646	-74.363	-0.279	0.102
-568.631	800.000	0.013	0.041
-567.617	69.098	-0.059	-0.062
-566.602	-96.900	-0.210	0.056
-565.588	71.476	0.212	0.223
-564.573	78.180	0.368	0.397
-563.558	-108.268	0.320	0.070
-562.544	28.036	0.111	0.094
-561.529	-121.228	0.419	-0.071
-560.515	-200.000	0.028	-0.303
-559.500	-23.330	-0.375	-0.228
-558.485	493.941	0.077	-0.180
-557.471	19.324	-0.235	0.191
-556.456	-82.695	0.141	0.046
-555.442	0.087	0.234	0.169
-554.427	-63.562	0.138	0.057
-553.412	800.000	0.111	-0.339
-552.398	-27.093	0.029	0.017
-551.383	-200.000	-0.033	-0.197
-550.369	322.741	0.060	-0.115
-549.354	516.405	-0.052	-0.124
-548.339	-141.886	-0.426	0.043
-547.325	257.675	0.134	-0.233
-546.310	26.245	-0.100	-0.084
-545.296	48.796	0.183	0.174
-544.281	114.062	0.177	-0.218
-543.266	260.224	-0.104	-0.181
-542.252	800.000	-0.058	-0.180
-541.237	519.092	-0.057	-0.136
-540.223	114.656	-0.137	-0.168
-539.208	-200.000	0.008	-0.214
-538.193	-60.630	0.216	-0.093
-537.179	-63.744	-0.196	0.081
-536.164	-200.000	-0.001	0.224
-535.150	755.423	-0.074	0.203
-534.135	-2.279	0.284	-0.201
-533.121	-194.932	0.016	-0.000
-532.106	-155.510	-0.103	0.007
-531.091	-136.993	-0.196	0.023
-530.077	-154.386	0.245	0.017
-529.062	-61.917	-0.149	-0.063
-528.048	1.348	-0.228	-0.166
-527.033	-200.000	0.003	0.097
-526.018	-17.054	0.231	0.147
-525.004	-1.531	0.137	-0.098
-523.989	-200.000	-0.062	-0.309
-522.975	-158.845	-0.080	0.005
-521.960	22.362	-0.051	-0.042
-520.945	175.851	0.163	0.239
-519.931	215.442	-0.136	-0.219
-518.916	-5.543	0.173	-0.120
-517.902	800.000	0.140	0.444
-516.887	-113.768	-0.184	-0.036
-515.872	-70.446	0.062	-0.024
-514.858	113.701	0.196	0.240
-513.843	-200.000	0.020	0.096
-512.829	510.604	0.099	0.233
-511.814	-8.141	0.162	0.111
-510.799	-9.858	-0.190	0.128
-509.785	800.000	-0.050	0.193
-508.770	-97.131	-0.219	0.058
-507.756	-28.890	0.117	0.068
-506.741	40.539	0.158	0.144
-505.726	-46.103	0.452	0.225
-504.712	-200.000	-0.029	0.220
-503.697	475.970	-0.159	-0.363
-502.683	-61.838	-0.271	0.115
-501.668	112.784	0.157	-0.192
-500.653	125.593	0.112	0.143
-499.639	-85.458	-0.176	-0.055
-498.624	-50.910	0.102	0.049
-497.610	36.578	-0.211	-0.188
-496.595	-85.495	0.161	0.051
-495.581	-200.000	0.000	0.031
-494.566	122.172	-0.050	0.063
-493.551	-180.937	0.341	-0.007
-492.537	62.242	-0.118	0.118
-491.522	439.443	-0.084	-0.186
-490.508	-200.000	-0.073	-0.338
-489.493	-127.885	-0.295	0.043
-488.478	106.906	-0.068	0.082
-487.464	18.428	-0.198	-0.160
-486.449	-200.000	-0.031	-0.337
-485.435	-200.000	-0.019	-0.456
-484.420	89.034	0.211	0.237
-483.405	4.757	0.206	-0.153
-482.391	-125.367	-0.240	0.037
-481.376	-26.333	0.047	0.028
-480.362	176.490	-0.172	0.252
-479.347	-200.000	-0.002	0.384
-478.332	71.460	-0.204	0.214
-477.318	107.068	0.127	-0.152
-476.303	606.287	0.018	-0.046
-475.289	-200.000	-0.210	0.000
-474.274	51.380	0.149	0.143
-473.259	-54.014	0.144	-0.066
-472.245	-57.575	0.094	-0.041
-471.230	24.458	-0.156	-0.130
-470.216	710.605	-0.176	0.471
-469.201	-200.000	0.003	0.206
-468.186	-156.386	0.188	-0.012
-467.172	78.188	-0.155	0.167
-466.157	-55.351	0.224	0.101
-465.143	122.699	0.176	0.222
-464.128	800.000	-0.067	-0.219
-463.113	8.688	-0.428	0.325
-462.099	45.402	-0.202	0.188
-461.084	122.618	0.182	0.229
-460.070	104.800	-0.041	-0.049
-459.055	8.382	-0.069	0.052
-458.040	-200.000	-0.000	0.267
-457.026	-157.723	-0.186	0.011
-456.011	-200.000	0.345	0.001
-454.997	458.951	-0.174	0.390
-453.982	-18.435	-0.178	-0.112
-452.968	-200.000	-0.025	-0.369
-451.953	-200.000	-0.030	0.188
-450.938	15.787	-0.081	0.064
-449.924	-52.833	-0.164	0.076
-448.909	10.860	-0.162	0.125
-447.895	83.363	0.223	0.245
-446.880	72.329	-0.120	0.126
-445.865	211.220	0.106	-0.168
-444.851	149.370	0.105	0.143
-443.836	-45.877	0.336	-0.167
-442.822	269.673	0.105	-0.185
-441.807	-200.000	-0.018	0.332
-440.792	362.634	0.096	0.194
-439.778	-99.589	0.288	-0.073
-438.763	-200.000	0.016	0.145
-437.749	564.765	0.048	-0.117
-436.734	75.781	0.135	-0.144
-435.719	-90.929	-0.193	0.056
-434.705	-200.000	0.029	-0.155
-433.690	-200.000	-0.028	0.152
-432.676	-55.405	0.102	0.046
-431.661	386.562	-0.138	-0.287
-430.646	-88.076	-0.047	0.014
-429.632	-200.000	0.010	-0.133
-428.617	69.963	-0.070	0.072
-427.603	66.519	-0.086	0.088
-426.588	-200.000	0.071	-0.352
-425.573	-200.000	0.050	-0.277
-424.559	-200.000	-0.016	-0.258
-423.544	184.138	0.047	-0.069
-422.530	800.000	-0.055	-0.184
-421.515	-22.530	0.281	0.171
-420.500	-127.140	-0.206	-0.030
-419.486	101.202	0.305	-0.357
-418.471	-34.698	0.093	0.051
-417.457	-148.537	0.151	-0.012
-416.442	-56.247	0.150	0.067
-415.428	-200.000	0.003	-0.226
-414.413	-50.270	-0.117	-0.056
-413.398	170.353	0.052	-0.075
-412.384	71.405	-0.277	0.290
-411.369	-28.660	-0.268	0.155
-410.355	429.302	0.087	0.189
-409.340	609.028	-0.088	-0.221
-408.325	-68.446	-0.324	-0.126
-407.311	22.928	-0.205	0.169
-406.296	800.000	-0.139	0.446
-405.282	-142.128	-0.572	-0.057
-404.267	-108.678	0.073	-0.016
-403.252	-200.000	0.017	0.397
-402.238	-200.000	0.089	0.430
-401.223	603.441	0.008	-0.019
-400.209	-55.569	0.082	0.037
-399.194	-99.565	0.148	-0.037
-398.179	-0.538	0.208	-0.149
-397.165	24.865	0.146	-0.122
-396.150	24.189	-0.180	0.149
-395.136	-99.122	0.422	0.107
-394.121	-200.000	-0.037	-0.178
-393.106	122.009	-0.183	-0.230
-392.092	487.787	0.088	-0.202
-391.077	-80.953	0.235	0.078
-390.063	-61.605	-0.072	0.030
-389.048	213.040	0.126	-0.200
-388.033	800.000	-0.125	-0.398
-387.019	-186.651	-0.221	0.003
-386.004	497.326	0.047	0.109
-384.990	122.315	-0.061	0.076
-383.975	-62.115	0.101	0.042
-382.960	-64.214	-0.367	0.150
-381.946	-200.000	-0.011	0.056
-380.931	111.207	0.210	0.254
-379.917	680.610	0.073	-0.191
-378.902	800.000	0.016	0.051
-377.888	-168.791	-0.250	-0.009
-376.873	-15.470	0.238	-0.153
-375.858	-150.707	0.298	-0.023
-374.844	-99.457	-0.315	-0.080
-373.829	332.298	0.088	-0.172
-372.815	726.564	-0.114	-0.306
-371.800	-42.526	-0.175	-0.089
-370.785	-200.000	-0.013	0.170
-369.771	441.087	0.045	-0.099
-368.756	101.050	-0.192	-0.224
-367.742	-93.052	0.289	-0.081
-366.727	126.325	0.030	0.038
-365.712	-83.331	-0.395	-0.127
-364.698	-73.377	-0.106	0.039
-363.683	149.333	-0.144	-0.196
-362.669	87.328	0.119	-0.133
-361.654	-11.930	-0.097	-0.064
-360.639	-107.429	0.281	-0.062
-359.625	-65.343	0.201	-0.081
-358.610	50.264	-0.134	-0.127
-357.596	632.446	-0.098	-0.249
-356.581	800.000	0.132	-0.382
-355.566	-119.389	-0.470	0.082
-354.552	161.526	-0.138	0.194
-353.537	256.108	-0.066	0.114
-352.523	-200.000	0.038	0.287
-351.508	-104.521	-0.305	-0.071
-350.493	-60.001	-0.171	0.073
-349.479	254.032	-0.053	0.090
-348.464	-7.204	0.245	0.167
-347.450	-136.443	0.313	-0.036
-346.435	-141.676	-0.165	0.017
-345.420	600.510	0.078	-0.194
-344.406	-55.081	-0.165	-0.075
-343.391	800.000	-0.069	0.262
-342.377	9.165	0.011	0.008
-341.362	327.937	0.067	0.130
-340.348	164.273	-0.121	0.172
-339.333	478.722	0.071	0.161
-338.318	-156.048	0.070	-0.004
-337.304	-0.270	0.273	0.194
-336.289	-64.300	0.180	-0.073
-335.275	122.861	-0.209	-0.262
-334.260	800.000	-0.031	0.097
-333.245	169.792	0.125	-0.180
-332.231	-28.961	0.092	-0.053
-331.216	50.949	0.189	0.179
-330.202	49.277	-0.085	-0.080
-329.187	-174.462	-0.161	0.005
-328.172	-141.690	0.140	-0.014
-327.158	-53.395	0.124	0.057
-326.143	446.934	0.204	0.449
-325.129	-78.444	-0.228	0.078
-324.114	-110.458	0.454	0.094
-323.099	-19.662	0.142	-0.088
-322.085	-42.987	-0.365	0.186
-321.070	-133.390	0.103	0.013
-320.056	-17.991	0.150	0.094
-319.041	-46.103	-0.090	0.045
-318.026	-200.000	-0.065	0.362
-317.012	-92.384	-0.241	0.068
-315.997	-111.363	0.256	0.052
-314.983	-200.000	-0.025	0.187
-313.968	83.892	-0.071	-0.078
-312.953	-99.194	0.115	0.029
-311.939	14.917	0.134	0.105
-310.924	610.107	-0.127	0.317
-309.910	130.492	-0.071	-0.091
-308.895	-200.000	0.038	-0.202
-307.880	538.088	-0.126	0.301
-306.866	206.373	0.131	-0.204
-305.851	-18.337	-0.220	0.138
-304.837	-143.510	-0.306	-0.029
-303.822	-93.679	0.204	-0.056
-302.807	545.746	-0.056	0.133
-301.793	18.861	-0.122	0.098
-300.778	52.921	0.156	0.150
-299.764	28.762	-0.104	-0.089
-298.749	-200.000	0.040	0.401
-297.735	-153.779	-0.324	-0.022
-296.720	-130.159	0.265	-0.036
-295.705	76.770	0.150	0.160
-294.691	-1.398	-0.214	-0.151
-293.676	-156.893	0.177	0.011
-292.662	-107.006	0.152	0.034
-291.647	75.708	0.046	-0.048
-290.632	-200.000	0.042	0.271
-289.618	274.023	-0.094	-0.166
-288.603	639.898	-0.036	-0.091
-287.589	800.000	-0.127	-0.432
-286.574	141.742	0.089	0.118
-285.559	-9.978	0.250	-0.166
-284.545	800.000	-0.033	-0.124
-283.530	-200.000	-0.004	-0.122
-282.516	-200.000	-0.069	-0.324
-281.501	-200.000	-0.003	-0.224
-280.486	800.000	0.028	0.088
-279.472	648.319	-0.094	0.241
-278.457	250.155	0.158	-0.268
-277.443	78.152	-0.100	0.106
-276.428	-149.790	0.159	0.012
-275.413	800.000	0.074	0.323
-274.399	-2.289	0.395	-0.277
-273.384	-70.631	0.242	-0.092
-272.370	-85.552	-0.318	0.099
-271.355	310.246	0.031	-0.057
-270.340	-43.189	-0.059	0.030
-269.326	-22.889	-0.120	0.072
-268.311	-69.225	0.418	-0.161
-267.297	6.628	0.278	-0.207
-266.282	-108.963	0.076	-0.016
-265.267	-48.616	-0.285	0.137
-264.253	800.000	0.101	-0.337
-263.238	-24.751	0.279	-0.166
-262.224	-74.189	0.167	0.060
-261.209	133.596	-0.210	0.271
-260.195	-200.000	0.002	-0.017
-259.180	-54.268	-0.256	0.116
-258.165	-177.543	0.098	0.002
-257.151	800.000	0.071	-0.266
-256.136	-200.000	-0.004	-0.284
-255.122	137.871	-0.230	-0.301
-254.107	-200.000	0.010	0.295
-253.092	-21.535	0.063	-0.038
-252.078	188.509	-0.072	-0.107
-251.063	58.121	0.094	-0.092
-250.049	-71.424	0.288	-0.108
-249.034	-200.000	-0.003	0.368
-248.019	96.868	0.108	-0.124
-247.005	800.000	-0.062	0.186
-245.990	383.939	-0.041	0.084
-244.976	203.977	0.275	-0.426
-243.961	800.000	-0.020	0.060
-242.946	169.952	-0.059	0.085
-241.932	364.598	-0.125	0.252
-240.917	158.118	-0.172	-0.238
-239.903	219.680	0.122	0.195
-238.888	-109.368	-0.157	0.033
-237.873	-200.000	0.026	-0.200
-236.859	481.319	0.134	0.305
-235.844	-200.000	0.077	-0.426
-234.830	3.341	0.200	-0.145
-233.815	-200.000	0.008	-0.206
-232.800	-46.918	-0.300	0.147
-231.786	619.841	-0.084	-0.211
-230.771	-200.000	-0.016	0.254
-229.757	703.505	0.062	0.163
-228.742	302.393	0.131	-0.243
-227.727	460.698	-0.169	-0.375
-226.713	761.528	-0.129	-0.349
-225.698	-200.000	-0.021	-0.203
-224.684	-163.520	0.137	-0.007
-223.669	-32.510	0.133	0.074
-222.655	159.069	0.213	-0.296
-221.640	800.000	-0.038	-0.121
-220.625	-75.218	-0.328	-0.117
-219.611	-200.000	0.005	0.378
-218.596	25.062	0.123	0.101
-217.582	-200.000	0.004	-0.098
-216.567	-200.000	-0.004	-0.289
-215.552	25.869	0.218	0.182
-214.538	-200.000	-0.001	0.106
-213.523	236.064	-0.215	0.355
-212.509	-171.977	0.251	-0.008
-211.494	-45.931	0.311	0.153
-210.479	92.246	-0.101	-0.114
-209.465	-53.796	-0.122	-0.055
-208.450	51.396	-0.188	0.179
-207.436	-200.000	-0.028	0.218
-206.421	51.958	-0.249	-0.237
-205.406	119.416	0.150	-0.185
-204.392	8.436	0.190	0.143
-203.377	-200.000	0.024	-0.301
-202.363	19.321	-0.104	-0.083
-201.348	116.056	-0.135	-0.165
-200.333	2.368	-0.184	-0.133
-199.319	143.556	0.103	-0.137
-198.304	-93.504	-0.325	-0.090
-197.290	-200.000	0.004	-0.218
-196.275	-19.026	0.169	-0.105
-195.260	-200.000	0.004	0.188
-194.246	165.482	-0.132	-0.186
-193.231	-44.121	-0.205	-0.103
-192.217	43.769	-0.049	0.045
-191.202	-200.000	0.035	-0.277
-190.187	17.041	0.067	-0.053
-189.173	-170.085	-0.234	-0.008
-188.158	168.985	-0.084	-0.120
-187.144	-145.331	0.422	0.038
-186.129	-75.885	0.019	0.007
-185.114	-200.000	-0.003	-0.066
-184.100	24.587	0.113	0.093
-183.085	-153.539	0.028	-0.002
-182.071	-52.256	-0.111	-0.051
-181.056	132.454	-0.285	0.367
-180.042	-200.000	-0.005	0.040
-179.027	232.457	0.134	0.219
-178.012	-161.409	-0.145	0.007
-176.998	-200.000	0.026	0.268
-175.983	-29.107	0.199	-0.114
-174.969	-24.912	-0.124	-0.073
-173.954	27.500	0.307	-0.257
-172.939	-33.127	0.333	-0.184
-171.925	-200.000	-0.027	0.120
-170.910	257.596	-0.049	-0.083
-169.896	-200.000	-0.016	0.435
-168.881	-52.978	-0.346	0.159
-167.866	334.503	-0.085	-0.164
-166.852	-87.556	-0.202	0.061
-165.837	37.463	0.272	-0.240
-164.823	310.030	0.152	0.284
-163.808	-100.619	-0.110	0.027
-162.793	-48.281	0.328	0.158
-161.779	-200.000	-0.026	0.143
-160.764	-200.000	-0.045	0.211
-159.750	796.498	0.021	0.057
-158.735	321.969	-0.142	-0.270
-157.720	310.602	-0.093	-0.173
-156.706	78.476	-0.028	0.030
-155.691	800.000	-0.065	0.217
-154.677	190.380	0.160	0.239
-153.662	17.577	0.338	0.267
-152.647	57.117	-0.117	0.114
-151.633	-8.694	-0.107	0.071
-150.618	9.307	-0.364	0.274
-149.604	735.396	-0.096	-0.256
-148.589	-200.000	-0.027	0.314
-147.574	51.793	0.294	0.278
-146.560	-18.990	0.227	-0.140
-145.545	50.087	0.289	-0.272
-144.531	192.215	0.342	-0.514
-143.516	179.686	-0.027	0.039
-142.502	158.838	0.115	0.158
-141.487	-200.000	0.004	0.296
-140.472	-160.075	0.312	-0.017
-139.458	-29.335	-0.292	-0.166
-138.443	7.157	0.193	-0.144
-137.429	-28.389	-0.150	-0.086
-136.414	-56.601	-0.151	-0.067
-135.399	58.406	-0.133	0.130
-134.385	137.431	0.078	0.102
-133.370	203.752	0.215	0.330
-132.356	-156.669	-0.139	-0.009
-131.341	800.000	-0.059	0.206
-130.326	-88.373	0.053	0.016
-129.312	-111.595	0.539	-0.109
-128.297	-200.000	-0.038	-0.293
-127.283	800.000	0.030	-0.113
-126.268	340.986	-0.102	-0.198
-125.253	35.149	0.076	-0.067
-124.239	-200.000	0.041	-0.467
-123.224	339.615	-0.117	0.227
-122.210	-144.425	0.222	-0.020
-121.195	207.541	0.136	0.211
-120.180	-199.074	0.105	-0.001
