DTS Sentinel unit serial number:	SN413079Multiplexer serial number:	ORYXHardware model number:	OX4-SRSoftware version number:	ORYX F/W v4.00 Oryx Data Collector v3.7.2.0data status	okinstallation	princeton_trtdifferential loss correction	single-endedforward channel	channel 2reverse channel	N/Adate	2019/09/14time	08:35:35forward acquisition time	60.00reverse acquisition time	0.00gamma	496.2192k internal	0.2330k external	0.2330temperature offset calibration	1.0131default loss term (dB/km)	0.3790temperature slope calibration	1.0000multiplexer offset coefficient	1.0000multiplexer slope coefficient	1.0000fibre end	0.00T internal ref (°C)	28.69T ext. ref 1 (°C)	3.66T ext. ref 2 (°C)	26.12length (m)	temperature (°C)	Stokes	anti-Stokes-747.200	-90.747	0.208	-0.060
-746.185	325.758	-0.192	0.370
-745.171	800.000	0.062	-0.221
-744.156	-106.182	0.141	0.032
-743.142	-200.000	0.019	-0.123
-742.127	86.878	-0.078	-0.087
-741.112	-29.465	0.163	0.094
-740.098	63.283	0.100	0.101
-739.083	800.000	-0.101	-0.317
-738.069	99.510	0.227	-0.265
-737.054	800.000	0.096	0.340
-736.039	-69.479	-0.105	0.041
-735.025	-13.178	0.150	-0.098
-734.010	247.813	-0.032	0.055
-732.996	-83.294	-0.447	-0.145
-731.981	-200.000	-0.016	0.131
-730.966	-67.794	-0.348	0.137
-729.952	283.306	-0.049	0.089
-728.937	463.197	0.086	0.194
-727.923	-170.441	-0.297	0.010
-726.908	-82.989	0.051	-0.016
-725.894	61.616	0.278	-0.278
-724.879	-142.374	-0.147	-0.015
-723.864	-20.853	-0.005	0.003
-722.850	-142.413	-0.380	0.038
-721.835	-25.199	-0.212	-0.127
-720.821	-65.190	0.367	-0.149
-719.806	-134.199	-0.407	-0.051
-718.791	-46.343	0.087	0.043
-717.777	-81.334	-0.087	-0.029
-716.762	-10.550	0.137	-0.091
-715.748	-46.234	-0.150	-0.074
-714.733	230.787	0.122	-0.201
-713.718	-200.000	-0.008	0.048
-712.704	18.142	0.025	-0.020
-711.689	256.231	-0.257	-0.444
-710.675	-21.750	-0.414	-0.253
-709.660	-200.000	0.018	-0.168
-708.645	131.387	0.048	-0.062
-707.631	-200.000	-0.009	-0.196
-706.616	442.139	-0.119	-0.261
-705.602	-89.962	0.078	0.023
-704.587	-200.000	0.053	-0.283
-703.572	-200.000	0.019	0.309
-702.558	800.000	-0.041	-0.121
-701.543	33.862	-0.185	-0.162
-700.529	-42.841	0.183	-0.094
-699.514	-81.774	0.083	-0.027
-698.499	203.066	0.161	-0.250
-697.485	655.016	-0.115	-0.298
-696.470	-161.822	-0.182	-0.009
-695.456	238.509	-0.106	-0.177
-694.441	193.809	-0.177	-0.269
-693.426	462.231	-0.074	-0.165
-692.412	-129.505	-0.449	-0.063
-691.397	-200.000	0.018	0.161
-690.383	37.447	-0.178	0.158
-689.368	22.518	0.232	-0.191
-688.354	800.000	-0.083	-0.296
-687.339	-26.085	0.321	0.190
-686.324	-200.000	-0.050	0.244
-685.310	120.889	-0.307	-0.383
-684.295	21.447	-0.146	-0.119
-683.281	-154.067	0.053	-0.004
-682.266	-150.914	-0.079	-0.006
-681.251	-15.562	-0.329	0.211
-680.237	26.765	-0.221	0.186
-679.222	-0.175	-0.450	0.322
-678.208	703.240	0.093	-0.246
-677.193	53.972	-0.005	-0.005
-676.178	800.000	0.047	0.139
-675.164	713.685	0.116	-0.309
-674.149	26.085	-0.275	0.231
-673.135	3.216	-0.079	0.058
-672.120	-200.000	0.036	-0.179
-671.105	42.927	0.043	-0.040
-670.091	753.482	-0.021	0.058
-669.076	223.801	0.142	0.229
-668.062	-54.841	-0.100	0.045
-667.047	-41.458	0.146	0.075
-666.032	-106.469	0.470	-0.105
-665.018	438.726	0.145	-0.317
-664.003	322.304	-0.112	0.214
-662.989	-176.176	-0.323	0.009
-661.974	-200.000	0.028	-0.315
-660.959	134.407	-0.118	-0.154
-659.945	89.307	-0.075	0.084
-658.930	53.344	-0.199	-0.191
-657.916	-200.000	-0.017	-0.511
-656.901	-77.914	-0.125	0.043
-655.886	800.000	-0.063	0.194
-654.872	-150.903	0.407	0.031
-653.857	-90.204	0.140	0.041
-652.843	-19.495	0.126	-0.078
-651.828	-200.000	0.010	-0.171
-650.814	-57.326	-0.190	0.084
-649.799	-116.817	-0.171	0.031
-648.784	-47.377	-0.413	-0.201
-647.770	-134.003	-0.030	-0.004
-646.755	-99.116	-0.152	0.039
-645.741	-111.886	0.044	-0.009
-644.726	29.953	-0.154	-0.132
-643.711	-24.911	0.041	-0.025
-642.697	-82.771	-0.044	-0.014
-641.682	12.525	-0.147	0.113
-640.668	-200.000	0.030	-0.203
-639.653	57.420	0.323	-0.316
-638.638	149.631	-0.212	0.289
-637.624	-136.211	-0.173	0.020
-636.609	800.000	0.034	-0.123
-635.595	-200.000	0.067	-0.375
-634.580	-3.987	-0.283	-0.197
-633.565	-200.000	0.003	0.072
-632.551	-200.000	-0.040	-0.288
-631.536	-200.000	-0.270	-0.000
-630.522	-200.000	0.003	-0.192
-629.507	-43.761	0.081	0.041
-628.492	-200.000	0.012	0.185
-627.478	13.863	-0.034	-0.027
-626.463	150.642	0.108	-0.146
-625.449	-120.919	0.029	-0.005
-624.434	800.000	0.014	0.047
-623.419	-78.501	0.268	0.092
-622.405	-108.707	-0.207	-0.044
-621.390	38.971	-0.180	0.161
-620.376	114.242	-0.051	0.062
-619.361	-36.548	0.202	0.109
-618.346	90.607	-0.184	0.207
-617.332	-200.000	-0.046	-0.237
-616.317	800.000	-0.153	-0.587
-615.303	197.742	0.115	0.176
-614.288	-200.000	-0.016	-0.083
-613.273	-157.886	0.079	-0.005
-612.259	-77.424	-0.219	-0.076
-611.244	-58.704	-0.276	-0.120
-610.230	-200.000	-0.020	0.267
-609.215	81.486	-0.211	-0.229
-608.201	800.000	-0.065	0.189
-607.186	-159.132	-0.245	0.014
-606.171	182.087	0.197	0.291
-605.157	-200.000	-0.033	-0.206
-604.142	272.431	-0.130	0.231
-603.128	-11.288	-0.111	-0.073
-602.113	-200.000	0.042	0.223
-601.098	473.435	0.047	0.107
-600.084	217.258	-0.006	-0.010
-599.069	76.704	-0.046	-0.049
-598.055	18.272	-0.208	-0.166
-597.040	59.469	-0.333	0.328
-596.025	-200.000	-0.059	0.589
-595.011	-22.070	0.333	0.202
-593.996	-200.000	-0.001	-0.015
-592.982	800.000	0.060	-0.225
-591.967	-151.402	0.114	0.009
-590.952	10.750	-0.155	-0.118
-589.938	67.673	-0.065	-0.066
-588.923	-127.817	-0.139	0.020
-587.909	-7.235	0.072	-0.049
-586.894	800.000	-0.012	0.042
-585.879	76.064	0.142	0.150
-584.865	-200.000	0.035	-0.407
-583.850	-123.101	-0.131	-0.021
-582.836	39.373	-0.186	0.167
-581.821	-78.099	0.063	0.022
-580.806	-55.245	-0.224	0.101
-579.792	-71.958	0.423	-0.157
-578.777	-82.080	-0.245	0.080
-577.763	55.826	0.185	-0.180
-576.748	-98.850	-0.273	0.069
-575.733	-117.225	-0.466	-0.085
-574.719	81.896	-0.004	-0.004
-573.704	135.631	0.043	0.056
-572.690	186.196	-0.133	0.197
-571.675	210.613	0.045	0.071
-570.661	-200.000	0.024	-0.156
-569.646	91.698	0.180	0.202
-568.631	-171.745	0.309	0.010
-567.617	32.958	-0.381	-0.330
-566.602	61.679	-0.120	0.120
-565.588	186.328	-0.124	0.184
-564.573	-200.000	-0.015	-0.099
-563.558	772.367	-0.178	-0.485
-562.544	800.000	-0.087	0.269
-561.529	-200.000	0.020	-0.206
-560.515	-200.000	0.029	-0.214
-559.500	96.385	0.027	-0.031
-558.485	251.217	0.154	-0.262
-557.471	52.710	0.218	0.208
-556.456	-139.281	-0.294	-0.032
-555.442	15.718	0.143	-0.112
-554.427	194.420	-0.127	-0.193
-553.412	-162.240	0.266	-0.013
-552.398	800.000	-0.066	-0.212
-551.383	-53.009	0.070	0.032
-550.369	-49.012	-0.431	-0.206
-549.354	126.875	0.046	0.059
-548.339	-200.000	-0.068	0.317
-547.325	-200.000	-0.015	0.163
-546.310	-35.689	-0.146	0.079
-545.296	94.672	0.130	0.148
-544.281	-200.000	-0.063	-0.307
-543.266	12.386	-0.235	-0.181
-542.252	241.289	0.130	0.217
-541.237	122.748	0.067	0.084
-540.223	312.507	-0.092	-0.173
-539.208	324.288	0.162	0.308
-538.193	-200.000	0.015	-0.182
-537.179	46.100	0.130	-0.120
-536.164	-95.213	0.088	0.024
-535.150	14.150	0.118	0.092
-534.135	78.062	0.036	-0.038
-533.121	-78.386	-0.331	0.113
-532.106	-174.714	-0.102	-0.003
-531.091	-200.000	0.029	-0.154
-530.077	104.023	-0.041	-0.048
-529.062	-67.547	0.124	0.049
-528.048	683.818	0.161	0.420
-527.033	46.526	0.162	-0.150
-526.018	-193.562	0.164	0.001
-525.004	-38.645	-0.294	-0.155
-523.989	-29.440	0.225	0.128
-522.975	203.068	-0.102	-0.158
-521.960	-200.000	0.067	-0.461
-520.945	800.000	-0.043	-0.186
-519.931	333.785	0.028	-0.053
-518.916	-119.504	0.559	0.097
-517.902	800.000	-0.022	0.069
-516.887	731.581	-0.023	-0.060
-515.872	-200.000	-0.010	-0.139
-514.858	83.539	0.193	-0.210
-513.843	54.830	-0.292	0.281
-512.829	-93.983	-0.166	0.046
-511.814	-200.000	-0.072	0.440
-510.799	-44.872	-0.186	0.093
-509.785	-62.451	-0.303	0.126
-508.770	22.945	0.090	-0.074
-507.756	-200.000	-0.032	-0.198
-506.741	-109.972	0.080	0.017
-505.726	129.945	-0.105	0.134
-504.712	-133.313	0.390	0.049
-503.697	164.210	-0.058	-0.081
-502.683	88.723	-0.287	-0.318
-501.668	229.444	0.185	-0.301
-500.653	21.480	0.197	-0.160
-499.639	143.314	0.249	0.330
-498.624	115.055	-0.076	-0.092
-497.610	-157.310	0.156	0.009
-496.595	800.000	0.053	-0.148
-495.581	-96.766	-0.386	0.101
-494.566	-76.514	0.190	0.067
-493.551	46.410	0.099	0.091
-492.537	108.202	0.194	0.231
-491.522	280.031	-0.211	-0.376
-490.508	800.000	-0.080	-0.280
-489.493	707.426	0.024	0.062
-488.478	53.032	-0.104	-0.099
-487.464	-88.737	-0.322	-0.095
-486.449	-98.955	-0.207	-0.052
-485.435	147.355	0.219	-0.294
-484.420	546.188	0.099	-0.236
-483.405	-123.021	0.163	-0.026
-482.391	42.444	-0.278	0.252
-481.376	106.976	-0.125	0.148
-480.362	-22.437	0.278	-0.168
-479.347	-200.000	0.140	0.001
-478.332	-120.870	-0.250	0.042
-477.318	6.803	0.212	0.157
-476.303	556.857	0.023	-0.054
-475.289	-35.630	-0.262	-0.142
-474.274	-129.927	-0.211	0.029
-473.259	-28.745	0.161	0.092
-472.245	105.587	-0.117	-0.138
-471.230	-145.420	0.168	-0.015
-470.216	-200.000	0.020	0.204
-469.201	629.495	-0.045	-0.114
-468.186	4.403	-0.168	0.123
-467.172	-94.681	0.279	0.076
-466.157	162.716	-0.058	-0.081
-465.143	800.000	-0.015	-0.062
-464.128	-38.934	0.130	-0.068
-463.113	-145.743	0.078	0.007
-462.099	536.439	0.055	-0.130
-461.084	-10.487	-0.057	0.038
-460.070	-115.577	0.450	-0.084
-459.055	403.510	-0.037	-0.078
-458.040	-141.604	-0.477	-0.048
-457.026	192.801	0.191	-0.287
-456.011	-86.778	0.296	-0.090
-454.997	-104.293	0.131	-0.030
-453.982	-154.569	-0.334	0.022
-452.968	141.799	-0.048	0.063
-451.953	-116.650	0.214	-0.039
-450.938	-74.401	0.269	-0.097
-449.924	-7.126	-0.110	-0.074
-448.909	800.000	0.043	0.145
-447.895	-56.179	-0.034	0.015
-446.880	538.024	0.125	-0.296
-445.865	-86.894	0.163	-0.049
-444.851	119.584	0.124	0.152
-443.836	174.834	-0.163	-0.234
-442.822	392.916	-0.161	0.334
-441.807	800.000	-0.107	0.355
-440.792	-69.392	0.227	0.087
-439.778	800.000	-0.057	-0.178
-438.763	414.881	0.096	0.203
-437.749	-47.266	0.106	-0.051
-436.734	-95.318	-0.117	-0.031
-435.719	-200.000	-0.066	-0.307
-434.705	9.075	-0.097	-0.073
-433.690	-128.271	0.322	-0.046
-432.676	-156.977	0.245	-0.015
-431.661	800.000	-0.061	0.231
-430.646	-84.775	0.053	-0.017
-429.632	-200.000	-0.000	-0.308
-428.617	-29.133	-0.104	-0.059
-427.603	114.940	-0.109	-0.132
-426.588	166.464	0.086	-0.121
-425.573	106.012	0.116	0.136
-424.559	-1.794	-0.098	0.069
-423.544	-117.099	0.126	0.023
-422.530	332.710	0.026	0.050
-421.515	800.000	0.070	0.222
-420.500	-112.100	0.216	0.043
-419.486	315.245	-0.060	-0.112
-418.471	-200.000	0.003	0.255
-417.457	-200.000	0.014	0.316
-416.442	4.604	-0.217	0.158
-415.428	800.000	-0.023	0.090
-414.413	81.834	-0.164	0.176
-413.398	322.217	0.059	0.112
-412.384	-71.898	0.297	-0.110
-411.369	-12.883	0.149	0.096
-410.355	8.760	0.223	0.167
-409.340	-78.936	0.210	0.071
-408.325	-43.803	0.077	-0.038
-407.311	612.025	0.058	0.145
-406.296	523.056	0.075	-0.174
-405.282	541.969	-0.094	-0.222
-404.267	335.062	0.095	0.183
-403.252	-200.000	0.062	0.338
-402.238	-122.816	-0.449	0.072
-401.223	-85.087	0.158	0.049
-400.209	27.416	0.242	0.202
-399.194	800.000	0.117	0.478
-398.179	-200.000	-0.007	-0.327
-397.165	373.618	0.078	0.158
-396.150	-96.333	0.070	-0.018
-395.136	-186.230	0.129	-0.002
-394.121	800.000	-0.031	0.123
-393.106	121.267	0.114	-0.141
-392.092	-7.981	0.131	0.088
-391.077	198.257	-0.075	-0.115
-390.063	83.880	0.334	-0.362
-389.048	109.787	0.173	0.206
-388.033	265.411	-0.261	0.452
-387.019	-49.553	-0.125	0.059
-386.004	83.205	-0.143	-0.155
-384.990	800.000	-0.082	0.225
-383.975	274.174	-0.113	0.198
-382.960	-15.881	-0.239	0.151
-381.946	4.168	-0.133	0.097
-380.931	24.881	0.108	0.089
-379.917	50.409	-0.158	0.149
-378.902	-53.809	-0.348	0.158
-377.888	465.539	0.065	-0.145
-376.873	338.281	-0.192	-0.372
-375.858	437.380	0.182	-0.394
-374.844	-52.166	-0.176	0.081
-373.829	-117.122	-0.154	-0.028
-372.815	-9.577	0.330	0.218
-371.800	-18.991	0.240	0.148
-370.785	-200.000	-0.052	-0.301
-369.771	-134.382	0.216	-0.026
-368.756	-12.489	0.277	-0.180
-367.742	-57.265	0.178	-0.078
-366.727	566.313	0.069	0.166
-365.712	-21.479	-0.118	0.072
-364.698	-8.184	0.221	-0.148
-363.683	800.000	-0.058	0.249
-362.669	-5.363	0.286	0.195
-361.654	443.468	-0.081	-0.177
-360.639	-18.287	-0.116	0.072
-359.625	-122.798	-0.385	-0.062
-358.610	-75.956	0.146	0.051
-357.596	116.005	-0.121	0.147
-356.581	-77.226	-0.319	0.110
-355.566	33.408	-0.141	-0.121
-354.552	-28.124	0.161	0.092
-353.537	-122.969	-0.155	0.025
-352.523	-200.000	0.010	0.218
-351.508	-16.435	0.133	0.083
-350.493	800.000	-0.022	0.093
-349.479	50.275	0.192	-0.180
-348.464	-127.576	0.217	-0.031
-347.450	-79.662	-0.283	-0.095
-346.435	-113.302	0.190	0.037
-345.420	110.221	-0.091	-0.108
-344.406	-20.971	-0.036	-0.022
-343.391	-200.000	0.038	-0.174
-342.377	85.325	0.215	-0.234
-341.362	-113.954	0.140	0.027
-340.348	165.512	0.208	0.292
-339.333	605.610	0.086	-0.213
-338.318	411.013	0.132	0.277
-337.304	-200.000	0.045	0.354
-336.289	-114.942	0.089	-0.017
-335.275	-81.611	0.108	0.035
-334.260	-51.042	0.415	0.193
-333.245	9.406	0.154	0.115
-332.231	800.000	0.136	0.492
-331.216	-54.244	-0.134	0.060
-330.202	-21.695	0.434	-0.262
-329.187	-139.557	-0.194	0.021
-328.172	-200.000	-0.019	-0.123
-327.158	2.800	0.168	-0.121
-326.143	-200.000	-0.005	0.120
-325.129	-56.066	-0.267	0.118
-324.114	497.323	-0.047	0.108
-323.099	375.644	-0.165	0.333
-322.085	-61.357	0.344	0.143
-321.070	-118.033	0.246	0.044
-320.056	-200.000	0.029	-0.349
-319.041	-200.000	0.054	-0.305
-318.026	-140.596	0.321	-0.033
-317.012	-200.000	0.015	-0.085
-315.997	-48.553	0.166	-0.079
-314.983	275.197	0.185	0.324
-313.968	-16.459	0.322	-0.202
-312.953	-113.187	-0.361	-0.070
-311.939	-200.000	0.007	-0.133
-310.924	172.847	0.144	0.205
-309.910	-200.000	-0.042	0.187
-308.895	800.000	-0.169	0.477
-307.880	31.086	-0.065	0.055
-306.866	-200.000	0.008	0.067
-305.851	-171.282	-0.453	0.015
-304.837	800.000	0.042	0.163
-303.822	28.958	-0.238	-0.200
-302.807	-200.000	0.057	-0.258
-301.793	24.921	-0.035	0.029
-300.778	-153.618	0.210	0.014
-299.764	-90.630	-0.206	0.059
-298.749	800.000	-0.101	-0.330
-297.735	50.527	-0.190	-0.178
-296.720	-25.321	0.204	-0.119
-295.705	-200.000	-0.017	0.075
-294.691	-132.051	-0.203	-0.026
-293.676	274.346	0.115	-0.201
-292.662	119.894	-0.139	0.170
-291.647	-108.254	-0.559	-0.120
-290.632	708.297	-0.035	0.091
-289.618	-114.856	-0.210	-0.040
-288.603	-31.678	-0.152	-0.084
-287.589	-150.572	0.229	-0.017
-286.574	416.766	-0.085	0.180
-285.559	-71.228	-0.166	-0.062
-284.545	308.730	0.175	-0.323
-283.530	-200.000	-0.057	0.374
-282.516	470.747	0.047	-0.103
-281.501	164.250	-0.154	0.215
-280.486	-200.000	-0.049	-0.369
-279.472	55.345	-0.277	0.265
-278.457	800.000	-0.063	0.187
-277.443	-75.347	-0.105	0.037
-276.428	-114.149	0.434	0.083
-275.413	48.383	-0.242	0.224
-274.399	775.065	0.073	0.197
-273.384	120.209	0.130	-0.160
-272.370	-200.000	-0.013	-0.189
-271.355	182.212	-0.154	0.224
-270.340	136.484	0.078	0.101
-269.326	800.000	-0.093	0.271
-268.311	145.886	-0.159	0.211
-267.297	231.545	-0.048	-0.077
-266.282	-19.250	0.199	-0.122
-265.267	643.119	-0.093	0.235
-264.253	800.000	0.076	0.216
-263.238	800.000	-0.045	0.141
-262.224	-149.899	0.135	-0.010
-261.209	-171.983	0.316	0.010
-260.195	-5.074	0.220	-0.150
-259.180	-18.368	-0.121	-0.075
-258.165	-67.214	-0.190	-0.074
-257.151	43.386	-0.349	-0.315
-256.136	100.025	-0.069	0.079
-255.122	258.155	0.103	0.175
-254.107	-200.000	-0.086	-0.389
-253.092	800.000	-0.034	-0.100
-252.078	589.322	-0.046	-0.111
-251.063	247.697	-0.161	0.268
-250.049	800.000	-0.054	0.217
-249.034	-200.000	-0.014	-0.192
-248.019	2.865	-0.135	0.097
-247.005	500.929	-0.053	-0.121
-245.990	-200.000	0.070	0.402
-244.976	-116.442	0.172	-0.031
-243.961	17.230	-0.224	-0.175
-242.946	137.138	0.033	-0.042
-241.932	75.454	0.243	0.253
-240.917	25.731	-0.221	-0.182
-239.903	-200.000	0.044	0.356
-238.888	-144.079	-0.261	-0.024
-237.873	-84.552	0.535	0.166
-236.859	-93.526	-0.064	0.018
-235.844	-87.276	-0.073	0.022
-234.830	-89.344	0.197	-0.057
-233.815	20.699	0.266	-0.213
-232.800	212.055	-0.087	0.135
-231.786	-126.290	0.102	-0.015
-230.771	247.370	-0.068	-0.114
-229.757	27.135	-0.101	0.084
-228.742	-98.938	-0.146	0.037
-227.727	-91.749	-0.076	-0.021
-226.713	237.562	0.092	-0.150
-225.698	633.638	-0.030	0.075
-224.684	-148.958	-0.314	-0.025
-223.669	-67.893	-0.130	-0.050
-222.655	800.000	-0.120	0.337
-221.640	-200.000	-0.019	0.112
-220.625	-200.000	0.015	-0.128
-219.611	61.831	0.248	-0.243
-218.596	800.000	0.033	-0.141
-217.582	-79.680	-0.104	0.035
-216.567	-77.452	-0.138	-0.047
-215.552	-134.642	0.064	-0.008
-214.538	-110.651	-0.293	0.060
-213.523	314.443	0.077	0.142
-212.509	10.476	0.093	0.070
-211.494	-43.260	-0.250	0.125
-210.479	-173.932	-0.222	0.006
-209.465	-200.000	-0.003	0.131
-208.450	-50.595	-0.344	0.160
-207.436	-3.181	-0.050	0.034
-206.421	-71.930	0.214	0.079
-205.406	800.000	-0.077	-0.306
-204.392	800.000	-0.021	0.076
-203.377	-200.000	0.097	-0.422
-202.363	58.773	0.060	-0.058
-201.348	376.466	0.088	-0.177
-200.333	-200.000	-0.019	-0.201
-199.319	-166.945	-0.296	0.012
-198.304	-200.000	-0.012	-0.257
-197.290	-87.138	0.565	-0.169
-196.275	228.049	-0.067	-0.108
-195.260	-36.531	0.187	-0.099
-194.246	337.732	-0.228	-0.438
-193.231	10.091	0.096	0.072
-192.217	-75.852	0.091	0.032
-191.202	112.448	0.216	-0.258
-190.187	100.221	0.239	-0.273
-189.173	-200.000	0.006	0.106
-188.158	-123.316	0.339	-0.053
-187.144	-3.754	0.130	0.089
-186.129	-84.458	0.456	-0.142
-185.114	-143.393	-0.114	-0.011
-184.100	-200.000	0.016	0.185
-183.085	24.066	0.037	-0.030
-182.071	-115.662	0.145	-0.027
-181.056	-84.651	-0.416	0.129
-180.042	-73.561	-0.076	0.027
-179.027	-159.602	0.183	-0.010
-178.012	-175.025	-0.197	-0.005
-176.998	96.509	0.094	0.106
-175.983	-156.675	0.242	0.015
-174.969	55.009	0.334	0.318
-173.954	-41.674	-0.252	-0.127
-172.939	-2.375	0.191	-0.132
-171.925	44.027	0.036	0.033
-170.910	-148.154	-0.371	-0.030
-169.896	800.000	-0.075	0.225
-168.881	290.553	-0.118	0.211
-167.866	-105.346	0.114	0.026
-166.852	800.000	-0.010	0.033
-165.837	800.000	0.158	-0.446
-164.823	200.853	0.074	-0.113
-163.808	-25.149	0.112	-0.065
-162.793	-200.000	-0.027	-0.233
-161.779	800.000	-0.031	0.124
-160.764	800.000	-0.029	-0.080
-159.750	465.822	-0.038	0.084
-158.735	-127.961	-0.125	0.018
-157.720	-105.315	-0.284	-0.064
-156.706	800.000	-0.072	0.205
-155.691	-200.000	-0.006	0.320
-154.677	-200.000	-0.031	-0.184
-153.662	-100.112	0.448	0.110
-152.647	-200.000	0.022	-0.277
-151.633	-108.302	0.319	-0.068
-150.618	209.701	-0.208	-0.321
-149.604	0.032	-0.400	-0.280
-148.589	239.883	-0.128	-0.209
-147.574	-104.881	-0.135	0.030
-146.560	7.247	-0.125	0.092
-145.545	-112.744	-0.231	-0.045
-144.531	-200.000	-0.086	-0.454
-143.516	628.481	0.047	0.118
-142.502	4.611	-0.235	-0.170
-141.487	139.612	0.066	-0.086
-140.472	-60.776	-0.164	-0.068
-139.458	-75.489	0.398	0.139
-138.443	121.634	0.281	0.344
-137.429	-114.880	0.120	0.022
-136.414	95.103	0.206	-0.230
-135.399	29.111	-0.192	-0.160
-134.385	297.019	0.118	-0.213
-133.370	-200.000	0.070	0.436
-132.356	-26.966	-0.106	0.061
-131.341	769.218	0.070	-0.186
-130.326	346.787	0.063	0.122
-129.312	-14.621	0.041	0.026
-128.297	90.643	0.109	-0.119
-127.283	800.000	-0.049	0.183
-126.268	-16.186	0.186	0.116
-125.253	-200.000	-0.024	-0.143
-124.239	11.103	0.251	0.188
-123.224	105.441	0.178	0.207
-122.210	64.039	-0.150	0.148
-121.195	-188.647	0.166	-0.002
