DTS Sentinel unit serial number:	SN413079Multiplexer serial number:	ORYXHardware model number:	OX4-SRSoftware version number:	ORYX F/W v4.00 Oryx Data Collector v3.7.2.0data status	okinstallation	princeton_trtdifferential loss correction	single-endedforward channel	channel 2reverse channel	N/Adate	2019/09/17time	20:15:34forward acquisition time	60.00reverse acquisition time	0.00gamma	496.2192k internal	0.2334k external	0.2334temperature offset calibration	0.9986default loss term (dB/km)	0.3790temperature slope calibration	1.0000multiplexer offset coefficient	1.0000multiplexer slope coefficient	1.0000fibre end	0.00T internal ref (°C)	31.86T ext. ref 1 (°C)	0.22T ext. ref 2 (°C)	22.12length (m)	temperature (°C)	Stokes	anti-Stokes-747.200	-200.000	-0.000	0.120
-746.185	-34.325	-0.339	0.187
-745.171	-85.459	-0.056	-0.017
-744.156	-130.254	-0.255	-0.035
-743.142	25.838	-0.209	-0.175
-742.127	-101.746	-0.424	-0.103
-741.112	55.640	-0.036	0.035
-740.098	-200.000	-0.046	0.255
-739.083	276.838	-0.090	0.162
-738.069	-200.000	-0.035	0.237
-737.054	-200.000	0.006	-0.144
-736.039	-91.333	-0.235	-0.068
-735.025	-200.000	0.054	0.274
-734.010	6.563	-0.190	-0.142
-732.996	20.217	0.098	0.080
-731.981	-129.037	-0.334	-0.047
-730.966	-200.000	-0.021	-0.116
-729.952	-18.162	0.138	-0.087
-728.937	-85.432	-0.187	-0.058
-727.923	11.672	-0.413	-0.318
-726.908	17.718	-0.263	-0.210
-725.894	-200.000	-0.010	-0.061
-724.879	127.541	-0.146	0.186
-723.864	800.000	-0.091	0.295
-722.850	-119.897	0.264	-0.046
-721.835	-200.000	-0.025	-0.204
-720.821	265.704	-0.101	0.176
-719.806	-55.819	0.288	0.129
-718.791	65.857	-0.129	0.131
-717.777	-107.092	-0.152	-0.034
-716.762	-115.233	-0.326	0.062
-715.748	-86.567	-0.129	-0.040
-714.733	121.982	0.056	-0.070
-713.718	442.567	0.026	-0.057
-712.704	-146.256	-0.238	0.021
-711.689	481.381	-0.144	0.328
-710.675	-19.785	-0.232	-0.144
-709.660	-24.003	-0.163	0.098
-708.645	-141.930	0.075	-0.007
-707.631	-114.604	-0.292	0.056
-706.616	-72.726	0.540	0.200
-705.602	-136.564	-0.065	-0.008
-704.587	338.706	-0.076	0.148
-703.572	-200.000	-0.002	0.076
-702.558	-67.694	0.175	-0.069
-701.543	20.728	-0.033	-0.027
-700.529	-57.754	-0.334	-0.147
-699.514	800.000	-0.044	-0.181
-698.499	-200.000	-0.007	0.250
-697.485	74.491	-0.105	0.111
-696.470	-200.000	0.027	-0.220
-695.456	-200.000	0.056	0.274
-694.441	-65.785	-0.077	-0.031
-693.426	-122.994	-0.318	0.051
-692.412	-72.165	0.336	0.125
-691.397	-13.432	-0.232	-0.151
-690.383	-71.928	-0.169	0.063
-689.368	58.763	-0.125	0.123
-688.354	34.673	-0.151	-0.132
-687.339	-6.098	0.164	-0.112
-686.324	800.000	0.074	0.303
-685.310	-42.662	-0.066	0.034
-684.295	-46.472	0.198	0.097
-683.281	800.000	0.031	-0.115
-682.266	-181.749	-0.105	0.002
-681.251	235.185	-0.159	-0.263
-680.237	-200.000	0.016	-0.199
-679.222	-200.000	-0.025	-0.278
-678.208	-106.738	-0.351	0.078
-677.193	-56.496	0.295	-0.131
-676.178	213.846	-0.325	-0.515
-675.164	-65.835	-0.116	-0.047
-674.149	-108.224	-0.119	-0.026
-673.135	-200.000	0.004	-0.244
-672.120	-29.513	-0.083	-0.048
-671.105	800.000	0.036	0.105
-670.091	-136.790	0.337	-0.039
-669.076	149.774	-0.155	-0.211
-668.062	-108.878	-0.191	0.041
-667.047	-95.567	0.178	0.048
-666.032	3.127	0.234	0.170
-665.018	138.321	-0.074	0.097
-664.003	-66.148	-0.204	0.082
-662.989	202.694	-0.132	0.204
-661.974	-200.000	0.054	-0.265
-660.959	315.992	0.073	0.138
-659.945	-145.265	0.173	0.016
-658.930	800.000	0.082	-0.305
-657.916	-200.000	-0.017	0.083
-656.901	147.363	0.269	0.362
-655.886	420.397	0.071	-0.153
-654.872	-14.437	-0.189	-0.122
-653.857	800.000	0.078	-0.259
-652.843	248.960	0.099	-0.168
-651.828	-141.416	0.161	-0.016
-650.814	-31.301	0.296	0.167
-649.799	-200.000	-0.008	-0.136
-648.784	800.000	-0.121	-0.452
-647.770	-120.815	-0.085	0.014
-646.755	-102.989	0.303	-0.072
-645.741	683.228	0.210	-0.548
-644.726	156.984	0.121	-0.167
-643.711	203.743	0.048	0.074
-642.697	-71.456	-0.326	-0.122
-641.682	-200.000	-0.015	0.088
-640.668	800.000	-0.061	-0.251
-639.653	-83.172	-0.085	-0.027
-638.638	-41.838	0.118	0.061
-637.624	-137.154	-0.422	0.048
-636.609	258.277	-0.158	-0.273
-635.595	-181.669	-0.273	0.005
-634.580	-105.619	0.160	0.036
-633.565	800.000	-0.177	0.499
-632.551	-45.632	-0.028	0.014
-631.536	-159.751	0.109	0.006
-630.522	685.676	-0.094	0.245
-629.507	-31.124	0.060	-0.034
-628.492	132.033	0.157	-0.202
-627.478	63.926	-0.066	0.066
-626.463	-200.000	0.010	-0.154
-625.449	800.000	-0.188	-0.523
-624.434	-96.152	-0.140	0.037
-623.419	-88.885	0.294	-0.087
-622.405	-160.463	0.453	-0.024
-621.390	80.722	-0.241	-0.260
-620.376	-118.278	0.232	0.041
-619.361	-90.500	-0.177	-0.051
-618.346	-136.442	-0.341	-0.040
-617.332	-200.000	-0.035	-0.242
-616.317	-200.000	0.110	-0.487
-615.303	-3.552	0.087	0.060
-614.288	152.495	0.165	0.226
-613.273	313.681	-0.194	-0.365
-612.259	-185.137	0.073	-0.001
-611.244	-92.107	-0.317	0.090
-610.230	-91.399	0.253	-0.072
-609.215	51.665	0.122	0.116
-608.201	-62.151	-0.059	-0.025
-607.186	-122.203	0.150	0.025
-606.171	-114.872	0.211	-0.040
-605.157	30.088	-0.173	0.147
-604.142	-13.450	-0.267	-0.173
-603.128	800.000	0.109	-0.319
-602.113	-200.000	0.008	-0.135
-601.098	-200.000	-0.002	0.116
-600.084	-200.000	-0.058	-0.385
-599.069	-13.897	0.213	-0.138
-598.055	27.097	0.259	-0.217
-597.040	-200.000	-0.001	0.085
-596.025	152.062	0.045	-0.061
-595.011	121.200	0.046	-0.058
-593.996	-68.935	-0.052	0.020
-592.982	58.364	0.249	-0.244
-591.967	-54.002	0.429	-0.195
-590.952	-200.000	0.042	-0.186
-589.938	800.000	0.031	0.116
-588.923	-200.000	-0.069	-0.380
-587.909	-200.000	-0.041	0.415
-586.894	302.511	-0.090	0.167
-585.879	73.081	0.151	0.158
-584.865	249.797	0.167	-0.283
-583.850	108.608	-0.158	0.189
-582.836	-200.000	-0.018	-0.177
-581.821	133.891	-0.092	0.120
-580.806	218.859	0.147	-0.235
-579.792	-24.955	0.162	-0.096
-578.777	-63.542	0.267	-0.109
-577.763	219.713	-0.125	-0.200
-576.748	-200.000	0.019	-0.296
-575.733	-123.090	0.264	0.042
-574.719	712.981	-0.052	-0.138
-573.704	-173.094	0.166	0.005
-572.690	800.000	0.085	-0.337
-571.675	407.172	-0.134	-0.282
-570.661	106.706	-0.152	-0.180
-569.646	-200.000	-0.028	0.155
-568.631	-115.189	0.098	0.018
-567.617	-142.169	-0.173	0.017
-566.602	800.000	0.032	0.100
-565.588	-114.939	-0.167	-0.032
-564.573	619.447	0.064	0.160
-563.558	6.291	-0.127	-0.094
-562.544	-49.496	-0.097	0.046
-561.529	231.698	-0.060	0.098
-560.515	-200.000	0.050	0.277
-559.500	-200.000	0.046	0.363
-558.485	612.494	-0.178	0.443
-557.471	104.069	-0.140	0.165
-556.456	-82.777	0.056	0.018
-555.442	-24.187	0.126	-0.075
-554.427	-60.380	0.092	-0.039
-553.412	-200.000	-0.059	0.288
-552.398	166.024	-0.085	0.120
-551.383	-69.553	0.287	-0.110
-550.369	99.978	0.166	-0.192
-549.354	-43.337	0.122	0.061
-548.339	-107.485	0.470	0.103
-547.325	-140.966	-0.205	-0.021
-546.310	-126.238	0.209	0.031
-545.296	-17.824	-0.186	0.117
-544.281	-200.000	0.032	0.319
-543.266	-74.196	-0.437	0.158
-542.252	800.000	0.048	0.161
-541.237	-155.784	-0.295	-0.019
-540.223	-102.445	0.121	0.029
-539.208	800.000	-0.059	-0.168
-538.193	447.375	0.113	0.247
-537.179	-101.369	-0.076	0.018
-536.164	-117.922	-0.100	-0.018
-535.150	-44.588	0.114	0.057
-534.135	-12.820	-0.012	0.008
-533.121	-200.000	0.010	-0.266
-532.106	-141.079	0.098	-0.010
-531.091	660.798	0.035	0.089
-530.077	-21.343	-0.147	0.089
-529.062	-200.000	-0.002	0.026
-528.048	122.802	-0.216	0.269
-527.033	800.000	0.032	0.121
-526.018	108.970	-0.104	0.124
-525.004	24.548	-0.261	0.216
-523.989	-200.000	-0.028	-0.233
-522.975	-200.000	0.028	-0.291
-521.960	241.263	0.182	-0.303
-520.945	-200.000	-0.023	-0.198
-519.931	-99.140	-0.077	0.019
-518.916	-200.000	-0.002	0.206
-517.902	-13.484	-0.177	-0.114
-516.887	181.934	-0.109	-0.160
-515.872	-112.593	-0.294	-0.058
-514.858	262.892	-0.086	0.149
-513.843	-200.000	0.012	-0.295
-512.829	210.423	0.235	-0.367
-511.814	304.018	0.075	0.139
-510.799	177.600	-0.059	0.086
-509.785	800.000	0.020	-0.081
-508.770	423.013	0.126	-0.270
-507.756	-35.635	-0.098	-0.053
-506.741	9.311	-0.105	-0.079
-505.726	-200.000	0.001	0.108
-504.712	-117.048	-0.348	-0.063
-503.697	-23.300	0.237	0.142
-502.683	216.427	0.152	-0.241
-501.668	779.168	-0.094	-0.257
-500.653	35.480	0.105	0.092
-499.639	-200.000	0.056	0.307
-498.624	774.052	-0.056	-0.152
-497.610	314.760	0.159	-0.298
-496.595	800.000	0.030	-0.115
-495.581	22.459	0.439	-0.357
-494.566	-60.139	-0.425	0.181
-493.551	18.013	0.129	-0.102
-492.537	358.137	0.041	0.081
-491.522	585.391	0.066	-0.160
-490.508	161.584	-0.072	0.101
-489.493	38.473	-0.043	0.038
-488.478	-200.000	0.001	-0.205
-487.464	139.047	0.155	-0.203
-486.449	361.140	0.031	-0.063
-485.435	74.910	-0.054	-0.057
-484.420	225.853	-0.170	0.275
-483.405	159.343	0.232	-0.321
-482.391	-0.698	0.092	0.065
-481.376	182.247	0.112	-0.164
-480.362	-18.354	0.102	-0.064
-479.347	-200.000	-0.048	0.242
-478.332	-51.489	0.320	0.149
-477.318	-72.083	-0.304	-0.112
-476.303	187.116	0.139	-0.205
-475.289	-200.000	0.009	-0.096
-474.274	-176.086	-0.200	0.005
-473.259	-200.000	0.061	-0.297
-472.245	-55.083	-0.291	-0.130
-471.230	-62.878	-0.202	0.083
-470.216	-32.973	0.100	-0.055
-469.201	-140.389	-0.159	-0.017
-468.186	-148.171	-0.392	0.032
-467.172	381.684	-0.087	0.177
-466.157	301.786	0.062	0.114
-465.143	-45.970	0.209	-0.103
-464.128	356.893	-0.069	-0.137
-463.113	541.401	-0.190	0.449
-462.099	211.061	0.050	0.078
-461.084	449.046	0.076	-0.167
-460.070	101.774	0.191	0.221
-459.055	-84.321	0.090	0.028
-458.040	-58.634	-0.135	0.058
-457.026	800.000	0.045	-0.127
-456.011	45.006	0.093	0.085
-454.997	-86.404	0.335	-0.102
-453.982	-60.522	-0.118	-0.050
-452.968	-109.546	0.176	0.037
-451.953	800.000	-0.047	-0.151
-450.938	-33.933	-0.091	-0.050
-449.924	-130.577	-0.114	-0.015
-448.909	-19.628	0.079	0.049
-447.895	-200.000	-0.014	0.100
-446.880	52.666	-0.104	-0.099
-445.865	-200.000	0.008	-0.036
-444.851	-200.000	-0.034	0.369
-443.836	-44.328	0.023	0.011
-442.822	-200.000	-0.020	0.259
-441.807	60.312	0.110	-0.108
-440.792	48.008	-0.225	-0.208
-439.778	227.448	-0.123	-0.199
-438.763	218.837	0.091	-0.144
-437.749	-83.726	0.330	0.104
-436.734	-200.000	-0.001	0.053
-435.719	-118.984	-0.126	0.022
-434.705	-38.132	0.262	-0.138
-433.690	72.674	-0.139	0.144
-432.676	-59.769	0.071	-0.030
-431.661	-28.729	0.037	0.021
-430.646	-75.624	0.120	-0.042
-429.632	-200.000	0.025	0.147
-428.617	123.077	-0.177	0.220
-427.603	-35.148	-0.190	-0.103
-426.588	-200.000	0.007	0.075
-425.573	800.000	0.121	-0.344
-424.559	-200.000	-0.085	0.370
-423.544	230.453	0.079	-0.127
-422.530	41.520	-0.160	-0.144
-421.515	-6.145	-0.138	-0.094
-420.500	-64.572	0.238	0.096
-419.486	800.000	-0.074	-0.205
-418.471	800.000	-0.044	-0.182
-417.457	-200.000	-0.029	-0.164
-416.442	-45.916	0.281	-0.138
-415.428	800.000	-0.143	0.431
-414.413	-159.447	-0.337	0.019
-413.398	800.000	0.046	-0.166
-412.384	-100.128	0.168	0.042
-411.369	691.926	-0.139	-0.361
-410.355	-131.557	0.092	-0.012
-409.340	-7.571	0.174	0.116
-408.325	-200.000	0.014	-0.130
-407.311	-13.307	0.186	0.120
-406.296	-75.556	-0.235	-0.083
-405.282	30.197	-0.285	-0.241
-404.267	-113.994	0.189	-0.036
-403.252	301.338	0.212	0.388
-402.238	-6.084	0.125	-0.085
-401.223	800.000	-0.010	0.041
-400.209	800.000	0.052	0.203
-399.194	98.409	-0.081	-0.093
-398.179	800.000	-0.036	-0.116
-397.165	45.071	-0.203	0.185
-396.150	-18.335	-0.048	-0.030
-395.136	245.193	0.113	0.188
-394.121	-126.120	-0.526	0.078
-393.106	26.910	0.165	-0.137
-392.092	-200.000	-0.010	0.189
-391.077	611.137	-0.145	-0.360
-390.063	-127.579	-0.054	0.008
-389.048	-25.002	-0.333	0.196
-388.033	-50.492	0.149	-0.070
-387.019	-99.897	0.256	-0.063
-386.004	149.267	-0.270	0.362
-384.990	-19.900	0.263	-0.161
-383.975	800.000	0.040	-0.149
-382.960	-200.000	0.003	-0.037
-381.946	386.092	0.190	-0.389
-380.931	33.267	-0.364	-0.313
-379.917	360.083	0.076	-0.150
-378.902	-145.602	0.250	0.022
-377.888	14.944	-0.048	0.038
-376.873	11.892	0.295	-0.225
-375.858	-128.241	0.176	-0.025
-374.844	89.095	-0.226	-0.249
-373.829	14.353	-0.197	-0.153
-372.815	8.776	-0.295	0.220
-371.800	800.000	-0.038	0.166
-370.785	-200.000	-0.018	0.469
-369.771	-87.527	0.217	0.065
-368.756	800.000	0.025	0.107
-367.742	79.336	-0.049	-0.052
-366.727	800.000	0.036	-0.134
-365.712	-47.071	-0.314	0.152
-364.698	520.110	-0.119	0.276
-363.683	-84.021	-0.564	0.177
-362.669	-200.000	-0.014	0.136
-361.654	-19.145	-0.085	0.052
-360.639	-157.825	-0.128	-0.008
-359.625	800.000	-0.124	-0.470
-358.610	-200.000	0.009	0.293
-357.596	43.261	-0.055	0.049
-356.581	49.461	-0.037	0.035
-355.566	800.000	0.021	-0.090
-354.552	273.268	-0.300	-0.525
-353.537	-200.000	-0.080	0.441
-352.523	-1.712	0.244	0.170
-351.508	-80.997	-0.286	-0.094
-350.493	106.997	-0.268	0.315
-349.479	800.000	0.022	0.087
-348.464	97.434	-0.091	-0.104
-347.450	-27.799	-0.314	0.180
-346.435	-102.027	-0.408	-0.097
-345.420	-14.410	0.066	0.042
-344.406	-101.213	-0.225	0.054
-343.391	800.000	0.053	0.184
-342.377	-56.702	-0.290	0.127
-341.362	694.697	-0.071	0.184
-340.348	-200.000	0.000	0.162
-339.333	-200.000	-0.004	0.125
-338.318	338.913	-0.117	-0.225
-337.304	-22.012	-0.125	0.075
-336.289	-200.000	0.006	0.033
-335.275	-113.606	-0.181	0.035
-334.260	800.000	0.043	0.117
-333.245	-89.917	0.080	0.023
-332.231	90.782	-0.246	0.273
-331.216	-150.574	0.021	0.002
-330.202	-25.476	-0.125	-0.073
-329.187	800.000	-0.007	-0.022
-328.172	7.093	0.375	0.277
-327.158	273.859	-0.141	0.246
-326.143	-200.000	0.013	-0.190
-325.129	-63.538	-0.463	-0.188
-324.114	800.000	0.082	-0.256
-323.099	800.000	0.058	-0.215
-322.085	110.870	-0.259	-0.308
-321.070	-55.262	-0.357	0.159
-320.056	20.676	-0.085	0.068
-319.041	438.844	0.029	0.062
-318.026	172.281	0.166	0.236
-317.012	-28.241	0.104	0.059
-315.997	-8.556	0.072	-0.048
-314.983	800.000	0.043	0.155
-313.968	-25.858	0.331	0.193
-312.953	-149.107	-0.351	0.028
-311.939	-107.444	0.079	-0.017
-310.924	-72.230	-0.057	-0.021
-309.910	329.066	-0.211	0.400
-308.895	-164.370	-0.290	-0.013
-307.880	-142.335	0.399	-0.039
-306.866	733.042	-0.124	0.329
-305.851	55.738	0.060	0.057
-304.837	-200.000	-0.010	0.150
-303.822	-46.974	0.258	0.125
-302.807	800.000	-0.078	0.224
-301.793	-48.683	-0.295	-0.140
-300.778	-101.731	-0.072	0.017
-299.764	168.264	0.089	-0.125
-298.749	-119.291	0.453	-0.078
-297.735	-27.926	0.148	-0.085
-296.720	173.810	0.193	0.275
-295.705	-149.420	-0.255	-0.020
-294.691	-200.000	-0.014	-0.129
-293.676	-81.907	0.200	0.065
-292.662	800.000	-0.101	-0.347
-291.647	-9.925	-0.006	-0.004
-290.632	800.000	-0.027	0.085
-289.618	-200.000	0.016	-0.376
-288.603	-159.236	-0.207	0.012
-287.589	367.903	-0.080	0.160
-286.574	6.077	-0.070	0.051
-285.559	180.793	0.099	0.143
-284.545	521.069	-0.111	0.256
-283.530	21.528	-0.218	-0.175
-282.516	7.913	0.148	0.110
-281.501	-200.000	0.008	0.320
-280.486	-35.287	0.191	0.102
-279.472	148.917	0.190	-0.254
-278.457	636.022	-0.135	0.339
-277.443	-200.000	0.068	0.358
-276.428	-47.131	-0.031	0.015
-275.413	-4.511	-0.208	0.142
-274.399	800.000	0.123	-0.339
-273.384	775.770	0.042	-0.113
-272.370	241.966	0.195	-0.322
-271.355	-68.539	-0.103	-0.039
-270.340	-200.000	-0.022	0.139
-269.326	571.547	-0.074	0.177
-268.311	-200.000	-0.014	0.113
-267.297	86.682	0.197	0.215
-266.282	-200.000	0.036	0.208
-265.267	44.414	0.058	-0.053
-264.253	106.314	0.223	-0.261
-263.238	122.989	0.086	-0.106
-262.224	17.295	-0.116	-0.091
-261.209	-27.896	0.472	0.270
-260.195	54.703	0.017	-0.016
-259.180	-15.375	-0.166	0.105
-258.165	-14.710	-0.086	-0.054
-257.151	-123.552	-0.306	-0.048
-256.136	800.000	-0.045	0.134
-255.122	88.653	0.163	0.179
-254.107	-134.417	-0.179	0.022
-253.092	-200.000	0.040	0.289
-252.078	-177.499	0.193	-0.005
-251.063	-0.327	0.106	0.074
-250.049	800.000	0.023	0.068
-249.034	139.845	-0.072	0.094
-248.019	800.000	0.103	0.309
-247.005	140.345	-0.243	-0.316
-245.990	224.214	-0.212	0.337
-244.976	18.012	-0.129	0.101
-243.961	286.422	0.152	-0.270
-242.946	800.000	0.034	-0.126
-241.932	4.233	0.237	-0.171
-240.917	80.465	-0.119	-0.126
-239.903	76.179	-0.239	0.249
-238.888	-125.948	0.429	0.064
-237.873	90.492	0.057	-0.062
-236.859	355.729	0.185	-0.363
-235.844	-68.804	-0.235	0.090
-234.830	-200.000	0.029	0.148
-233.815	-200.000	0.032	-0.168
-232.800	-117.272	-0.209	0.037
-231.786	-74.182	-0.059	0.021
-230.771	800.000	0.063	-0.210
-229.757	-156.194	-0.066	-0.004
-228.742	-30.550	-0.334	0.186
-227.727	252.350	-0.085	0.143
-226.713	800.000	-0.057	-0.222
-225.698	-200.000	-0.062	-0.295
-224.684	97.909	0.111	-0.125
-223.669	-47.333	-0.130	-0.062
-222.655	8.999	0.178	0.132
-221.640	-139.930	0.149	0.016
-220.625	190.715	0.067	0.099
-219.611	-63.517	0.453	0.183
-218.596	24.523	-0.099	0.080
-217.582	-130.972	0.280	-0.037
-216.567	-64.735	0.020	-0.008
-215.552	-200.000	0.014	-0.106
-214.538	-0.876	0.185	-0.129
-213.523	-45.549	-0.037	-0.018
-212.509	-146.761	0.314	0.027
-211.494	-200.000	-0.016	0.225
-210.479	-113.439	-0.335	0.065
-209.465	800.000	0.083	0.281
-208.450	613.262	0.067	0.165
-207.436	131.500	-0.080	-0.101
-206.421	46.847	0.238	0.218
-205.406	165.777	0.027	-0.038
-204.392	592.250	-0.123	0.300
-203.377	-192.681	0.256	0.002
-202.363	273.238	0.210	-0.364
-201.348	33.370	-0.217	-0.186
-200.333	142.505	-0.202	-0.264
-199.319	-86.593	-0.064	0.019
-198.304	5.098	-0.226	-0.164
-197.290	-200.000	-0.018	-0.230
-196.275	35.797	0.224	0.194
-195.260	327.399	0.128	-0.241
-194.246	-50.822	0.344	0.159
-193.231	-116.055	-0.258	0.047
-192.217	460.728	0.159	0.348
-191.202	-79.337	0.046	0.015
-190.187	196.894	0.015	-0.022
-189.173	-162.425	0.230	0.011
-188.158	194.112	0.057	0.085
-187.144	-84.438	0.247	-0.077
-186.129	-19.320	0.120	-0.074
-185.114	-200.000	0.011	-0.057
-184.100	324.437	-0.058	0.109
-183.085	-200.000	-0.062	0.362
-182.071	7.111	0.143	-0.105
-181.056	793.732	0.173	0.467
-180.042	-81.876	0.272	0.087
-179.027	-96.396	0.257	-0.067
-178.012	53.978	-0.203	0.192
-176.998	-92.839	0.229	0.063
-175.983	800.000	0.101	0.279
-174.969	392.632	-0.116	0.238
-173.954	-64.489	-0.106	0.042
-172.939	149.834	0.135	0.179
-171.925	-148.774	-0.044	-0.004
-170.910	163.096	-0.086	0.119
-169.896	800.000	-0.070	-0.212
-168.881	-200.000	0.021	0.131
-167.866	146.570	0.190	0.251
-166.852	87.607	0.221	0.241
-165.837	-105.943	-0.289	-0.064
-164.823	-200.000	-0.035	-0.282
-163.808	430.509	-0.108	-0.230
-162.793	-90.984	-0.240	0.068
-161.779	800.000	-0.067	-0.252
-160.764	541.448	-0.090	0.210
-159.750	-198.655	0.521	0.003
-158.735	-51.796	0.291	0.133
-157.720	-200.000	0.005	-0.076
-156.706	-29.444	0.278	-0.156
-155.691	-200.000	0.003	0.134
-154.677	183.482	0.096	-0.139
-153.662	58.013	0.272	0.261
-152.647	121.525	0.052	-0.064
-151.633	353.550	0.175	0.341
-150.618	-62.515	-0.141	0.057
-149.604	-46.855	0.233	-0.112
-148.589	-200.000	-0.054	0.243
-147.574	290.291	-0.143	0.255
-146.560	-200.000	-0.030	0.135
-145.545	-91.302	0.144	-0.040
-144.531	164.811	0.148	0.204
-143.516	-89.794	-0.168	0.048
-142.502	57.149	-0.082	-0.079
-141.487	6.375	-0.081	-0.059
-140.472	261.986	0.066	0.112
-139.458	800.000	-0.134	0.454
-138.443	-90.155	-0.150	-0.043
-137.429	708.629	-0.117	-0.305
-136.414	-144.650	0.165	0.015
-135.399	433.913	0.139	0.296
-134.385	-96.467	-0.237	0.061
-133.370	800.000	0.042	-0.128
-132.356	41.152	-0.109	-0.097
-131.341	232.464	-0.177	0.285
-130.326	800.000	-0.035	0.115
-129.312	-36.393	0.298	0.158
-128.297	-200.000	0.002	-0.086
-127.283	654.443	0.068	0.171
-126.268	92.940	0.090	0.099
-125.253	800.000	-0.022	0.062
-124.239	-200.000	-0.020	-0.304
-123.224	-19.419	0.336	0.204
-122.210	-39.478	0.167	-0.086
-121.195	-200.000	-0.023	0.294
