DTS Sentinel unit serial number:	SN413079Multiplexer serial number:	ORYXHardware model number:	OX4-SRSoftware version number:	ORYX F/W v4.00 Oryx Data Collector v3.7.2.0data status	okinstallation	princeton_trtdifferential loss correction	single-endedforward channel	channel 2reverse channel	N/Adate	2019/09/17time	02:19:34forward acquisition time	60.00reverse acquisition time	0.00gamma	496.2192k internal	0.2327k external	0.2327temperature offset calibration	0.9973default loss term (dB/km)	0.3790temperature slope calibration	1.0000multiplexer offset coefficient	1.0000multiplexer slope coefficient	1.0000fibre end	0.00T internal ref (°C)	29.75T ext. ref 1 (°C)	0.12T ext. ref 2 (°C)	24.70length (m)	temperature (°C)	Stokes	anti-Stokes-747.200	800.000	-0.061	0.174
-746.185	800.000	-0.115	0.407
-745.171	99.292	0.115	-0.135
-744.156	69.033	0.062	0.064
-743.142	603.056	-0.099	0.247
-742.127	286.518	0.010	0.018
-741.112	-156.549	0.375	-0.024
-740.098	-144.553	-0.249	0.023
-739.083	-68.271	0.393	0.154
-738.069	800.000	0.106	0.314
-737.054	-42.143	-0.012	0.006
-736.039	49.848	-0.141	0.134
-735.025	273.061	0.055	0.098
-734.010	-43.907	-0.332	-0.168
-732.996	-86.539	-0.489	-0.151
-731.981	-200.000	0.112	-0.663
-730.966	-200.000	-0.029	-0.160
-729.952	-82.087	-0.381	0.125
-728.937	83.720	-0.212	-0.233
-727.923	-200.000	-0.007	-0.173
-726.908	-200.000	0.040	-0.191
-725.894	800.000	-0.059	0.225
-724.879	133.928	0.101	-0.131
-723.864	-18.547	0.072	0.045
-722.850	-40.766	0.178	0.093
-721.835	-157.657	-0.257	0.015
-720.821	-200.000	0.079	0.465
-719.806	-56.051	-0.268	0.120
-718.791	393.130	-0.087	-0.182
-717.777	-200.000	-0.015	-0.198
-716.762	-85.536	-0.335	-0.105
-715.748	7.877	-0.259	0.195
-714.733	-68.543	-0.194	0.076
-713.718	-8.826	-0.086	0.058
-712.704	19.669	0.085	0.069
-711.689	-135.886	-0.214	0.025
-710.675	229.339	-0.097	0.160
-709.660	-59.579	-0.308	-0.133
-708.645	18.625	-0.253	-0.204
-707.631	520.081	-0.123	-0.290
-706.616	-200.000	-0.006	-0.072
-705.602	140.106	0.274	-0.364
-704.587	800.000	0.044	-0.179
-703.572	-200.000	0.041	-0.515
-702.558	-78.955	-0.177	0.061
-701.543	-53.775	0.283	0.130
-700.529	-0.793	0.284	-0.202
-699.514	73.574	-0.333	-0.351
-698.499	166.251	-0.181	0.258
-697.485	-141.247	0.228	-0.023
-696.470	106.885	0.124	-0.148
-695.456	34.925	0.156	0.138
-694.441	113.472	0.192	0.235
-693.426	-200.000	-0.024	-0.157
-692.412	-80.174	0.195	-0.066
-691.397	-200.000	0.073	-0.326
-690.383	179.746	-0.103	-0.152
-689.368	21.889	0.336	-0.275
-688.354	56.760	-0.136	0.133
-687.339	-200.000	0.029	0.257
-686.324	800.000	-0.071	0.312
-685.310	-175.355	-0.061	0.002
-684.295	24.293	-0.136	-0.113
-683.281	-60.674	-0.228	-0.097
-682.266	161.494	-0.254	-0.357
-681.251	-200.000	0.033	0.184
-680.237	-91.867	-0.274	0.078
-679.222	800.000	0.069	-0.215
-678.208	-200.000	0.011	0.054
-677.193	421.492	-0.097	-0.209
-676.178	253.774	-0.037	0.064
-675.164	800.000	0.028	0.122
-674.149	-200.000	-0.052	-0.372
-673.135	621.122	0.036	-0.090
-672.120	-127.483	0.289	-0.042
-671.105	-200.000	0.019	0.130
-670.091	-141.727	-0.071	-0.007
-669.076	301.865	0.114	0.212
-668.062	-200.000	0.012	-0.135
-667.047	-111.056	-0.080	-0.017
-666.032	-74.340	0.176	0.064
-665.018	152.188	-0.095	0.131
-664.003	182.420	-0.081	0.120
-662.989	-96.171	-0.116	0.031
-661.974	-108.009	0.306	0.067
-660.959	-200.000	0.014	0.117
-659.945	148.041	-0.298	-0.404
-658.930	132.911	0.236	0.306
-657.916	-4.258	-0.156	0.109
-656.901	800.000	0.039	-0.146
-655.886	-10.468	0.195	0.130
-654.872	699.459	0.044	0.117
-653.857	-200.000	0.060	0.273
-652.843	78.676	0.098	0.105
-651.828	-114.794	-0.230	0.044
-650.814	88.116	0.191	-0.213
-649.799	193.115	0.118	-0.180
-648.784	-200.000	0.030	-0.223
-647.770	-82.371	-0.221	-0.072
-646.755	800.000	0.148	-0.428
-645.741	-14.709	0.245	0.158
-644.726	28.627	-0.105	-0.089
-643.711	-1.359	0.276	0.195
-642.697	-12.174	0.174	0.115
-641.682	4.618	-0.249	-0.184
-640.668	133.363	-0.064	0.083
-639.653	-141.741	-0.219	-0.022
-638.638	-63.861	0.165	-0.068
-637.624	-31.677	-0.191	-0.108
-636.609	-200.000	-0.002	0.135
-635.595	0.067	-0.129	0.092
-634.580	43.102	-0.156	0.143
-633.565	-60.580	0.218	0.093
-632.551	-200.000	-0.023	0.118
-631.536	-131.485	-0.206	-0.027
-630.522	-148.998	-0.293	-0.024
-629.507	-29.738	0.117	-0.067
-628.492	68.310	0.216	0.222
-627.478	179.636	-0.185	-0.271
-626.463	-200.000	-0.047	-0.349
-625.449	-55.568	0.205	0.092
-624.434	-29.108	-0.232	0.133
-623.419	800.000	-0.095	0.302
-622.405	-17.179	0.360	0.228
-621.390	-200.000	-0.046	-0.270
-620.376	-200.000	-0.010	-0.131
-619.361	157.613	0.100	0.139
-618.346	-98.304	0.104	-0.027
-617.332	-116.245	0.152	-0.028
-616.317	-7.255	-0.107	-0.073
-615.303	-200.000	0.014	-0.254
-614.288	297.806	-0.137	-0.253
-613.273	800.000	0.021	-0.092
-612.259	-128.814	-0.162	-0.023
-611.244	800.000	-0.133	0.410
-610.230	112.613	-0.067	-0.081
-609.215	-200.000	0.005	0.264
-608.201	-34.929	-0.326	0.179
-607.186	59.644	0.099	0.098
-606.171	595.930	0.112	-0.278
-605.157	-38.671	-0.248	-0.131
-604.142	-38.763	0.317	0.168
-603.128	-200.000	-0.010	0.337
-602.113	32.254	0.086	0.074
-601.098	142.437	0.182	-0.243
-600.084	800.000	0.013	0.049
-599.069	139.043	-0.200	0.263
-598.055	114.519	0.187	-0.228
-597.040	441.531	0.073	0.160
-596.025	-200.000	0.002	-0.042
-595.011	-200.000	0.021	-0.143
-593.996	2.606	-0.132	0.096
-592.982	800.000	0.070	-0.249
-591.967	-200.000	-0.024	0.116
-590.952	80.716	-0.135	-0.146
-589.938	-12.705	-0.041	-0.027
-588.923	-200.000	0.039	0.175
-587.909	-29.985	-0.211	0.121
-586.894	-147.868	-0.336	-0.028
-585.879	-200.000	0.043	-0.367
-584.865	-200.000	-0.016	0.087
-583.850	-99.876	0.218	-0.055
-582.836	1.930	-0.271	-0.196
-581.821	-155.717	-0.095	0.006
-580.806	21.669	-0.181	0.147
-579.792	444.252	0.118	0.260
-578.777	-53.301	0.277	0.127
-577.763	-200.000	-0.026	-0.196
-576.748	55.104	-0.104	-0.101
-575.733	124.737	-0.033	0.042
-574.719	27.093	-0.098	-0.083
-573.704	-131.237	0.304	-0.040
-572.690	-200.000	-0.034	0.237
-571.675	17.212	0.223	-0.177
-570.661	-11.982	0.182	-0.119
-569.646	800.000	-0.080	-0.267
-568.631	-19.150	-0.224	-0.139
-567.617	-64.313	-0.259	-0.106
-566.602	-8.208	-0.054	-0.037
-565.588	200.906	0.189	0.291
-564.573	-4.708	-0.030	0.021
-563.558	-76.343	0.393	-0.139
-562.544	-38.746	0.345	-0.182
-561.529	102.541	-0.101	0.118
-560.515	-200.000	0.006	-0.202
-559.500	-157.678	0.403	0.024
-558.485	6.883	0.149	0.111
-557.471	407.706	0.059	0.124
-556.456	253.156	0.208	0.356
-555.442	70.285	-0.095	0.098
-554.427	-200.000	0.045	-0.318
-553.412	-62.602	-0.258	-0.107
-552.398	-81.208	-0.121	0.040
-551.383	-78.997	0.268	-0.091
-550.369	-135.339	0.353	-0.042
-549.354	10.252	-0.135	0.103
-548.339	550.740	-0.147	0.352
-547.325	-54.948	0.117	0.053
-546.310	-200.000	0.028	0.155
-545.296	113.362	-0.056	-0.068
-544.281	227.967	-0.184	-0.300
-543.266	16.193	-0.239	-0.189
-542.252	-52.684	-0.158	-0.073
-541.237	800.000	0.067	-0.202
-540.223	-38.960	0.190	0.100
-539.208	-46.620	-0.160	-0.078
-538.193	45.969	0.036	-0.033
-537.179	-200.000	0.005	0.045
-536.164	188.563	0.211	0.315
-535.150	-200.000	0.000	0.083
-534.135	-122.506	-0.173	-0.028
-533.121	470.085	-0.037	0.084
-532.106	800.000	0.036	-0.158
-531.091	-200.000	0.023	0.144
-530.077	-156.804	-0.172	0.011
-529.062	-88.243	0.168	-0.050
-528.048	-106.883	-0.370	0.082
-527.033	-161.881	0.178	-0.009
-526.018	204.326	-0.087	-0.134
-525.004	-200.000	-0.006	0.131
-523.989	-92.087	0.240	-0.068
-522.975	-189.331	-0.105	0.001
-521.960	-48.742	-0.152	0.073
-520.945	-200.000	-0.106	-0.475
-519.931	-200.000	0.004	0.125
-518.916	-10.209	-0.037	0.024
-517.902	-84.510	-0.255	-0.080
-516.887	153.478	0.094	-0.128
-515.872	116.279	0.236	-0.289
-514.858	-41.152	0.414	-0.213
-513.843	509.202	-0.151	-0.350
-512.829	320.000	-0.124	0.236
-511.814	-200.000	0.069	0.398
-510.799	-111.157	-0.135	-0.028
-509.785	-87.334	0.246	-0.074
-508.770	5.489	-0.189	-0.140
-507.756	-200.000	0.022	-0.188
-506.741	-14.773	0.180	0.116
-505.726	-91.594	-0.205	0.058
-504.712	-47.061	-0.248	-0.121
-503.697	800.000	-0.064	0.192
-502.683	56.714	-0.119	0.116
-501.668	-66.595	0.054	0.021
-500.653	800.000	0.006	0.026
-499.639	-90.864	-0.187	0.054
-498.624	-52.103	0.203	-0.094
-497.610	139.889	0.183	-0.241
-496.595	-152.802	0.252	0.018
-495.581	-200.000	0.010	0.094
-494.566	49.630	0.208	0.196
-493.551	438.617	-0.076	0.166
-492.537	171.246	-0.186	0.266
-491.522	31.326	0.096	-0.082
-490.508	-176.084	-0.249	0.007
-489.493	-100.366	-0.172	0.042
-488.478	383.303	-0.001	-0.002
-487.464	-149.499	-0.220	0.017
-486.449	-91.377	0.362	0.103
-485.435	-115.757	0.372	-0.069
-484.420	147.383	0.081	0.108
-483.405	-47.141	-0.141	0.069
-482.391	-157.261	-0.376	0.023
-481.376	131.351	0.077	0.098
-480.362	30.276	0.150	-0.128
-479.347	66.632	-0.093	-0.094
-478.332	780.336	-0.073	-0.199
-477.318	-66.662	0.128	0.051
-476.303	-47.339	-0.123	0.060
-475.289	391.602	0.134	-0.279
-474.274	50.364	0.056	-0.053
-473.259	738.689	0.075	0.201
-472.245	193.587	-0.146	-0.220
-471.230	-87.647	-0.318	0.096
-470.216	82.499	-0.117	-0.126
-469.201	800.000	0.013	0.054
-468.186	-150.578	0.296	0.023
-467.172	-107.753	0.287	-0.062
-466.157	-92.567	-0.556	0.156
-465.143	96.599	-0.081	0.092
-464.128	-16.967	-0.240	-0.151
-463.113	-200.000	0.019	-0.089
-462.099	-200.000	0.041	0.187
-461.084	153.551	-0.106	0.145
-460.070	-156.900	0.018	0.001
-459.055	546.544	0.101	0.241
-458.040	-14.391	-0.056	-0.036
-457.026	800.000	-0.034	-0.107
-456.011	-200.000	-0.039	-0.177
-454.997	-15.422	-0.064	-0.041
-453.982	-126.957	0.060	-0.009
-452.968	-126.209	-0.283	-0.042
-451.953	361.541	0.024	0.047
-450.938	-2.765	-0.311	0.217
-449.924	-200.000	0.020	0.306
-448.909	-109.491	0.297	0.062
-447.895	-200.000	0.046	-0.456
-446.880	-96.696	0.121	0.032
-445.865	160.207	0.048	0.067
-444.851	-29.484	0.104	-0.059
-443.836	34.750	-0.117	-0.102
-442.822	139.781	0.157	-0.206
-441.807	294.974	0.076	0.139
-440.792	28.706	0.250	0.211
-439.778	-200.000	0.023	-0.280
-438.763	-140.694	-0.385	-0.040
-437.749	473.280	0.109	-0.245
-436.734	800.000	-0.060	-0.173
-435.719	-200.000	-0.032	-0.251
-434.705	31.690	-0.073	0.063
-433.690	-1.458	-0.148	0.104
-432.676	800.000	-0.035	-0.099
-431.661	0.584	0.199	-0.141
-430.646	-167.543	-0.267	0.011
-429.632	800.000	-0.020	0.066
-428.617	-200.000	-0.000	-0.101
-427.603	60.384	-0.071	-0.070
-426.588	353.322	0.091	-0.179
-425.573	-95.851	0.321	0.085
-424.559	-95.036	-0.252	-0.068
-423.544	800.000	-0.029	-0.102
-422.530	-200.000	0.055	-0.281
-421.515	-18.393	-0.131	-0.081
-420.500	186.709	-0.151	-0.224
-419.486	3.723	0.257	0.187
-418.471	-200.000	0.026	0.305
-417.457	0.892	-0.231	0.165
-416.442	-76.848	-0.413	-0.144
-415.428	373.058	-0.123	-0.249
-414.413	-48.855	-0.109	0.052
-413.398	-200.000	0.009	-0.159
-412.384	291.788	0.077	-0.139
-411.369	536.008	-0.117	0.276
-410.355	-13.437	0.201	-0.130
-409.340	111.164	-0.122	-0.147
-408.325	-62.087	-0.379	0.157
-407.311	-200.000	-0.041	-0.310
-406.296	31.073	0.201	0.172
-405.282	-132.137	-0.317	-0.041
-404.267	-92.005	0.199	0.056
-403.252	-130.546	0.110	0.015
-402.238	11.747	-0.250	0.191
-401.223	-200.000	-0.013	-0.071
-400.209	-99.050	0.291	0.073
-399.194	-80.247	-0.067	0.022
-398.179	-97.829	-0.285	0.073
-397.165	-200.000	-0.068	-0.307
-396.150	-109.249	0.127	-0.027
-395.136	38.396	0.269	-0.238
-394.121	5.961	-0.164	-0.121
-393.106	-161.125	0.245	-0.013
-392.092	150.491	-0.272	-0.367
-391.077	-110.469	-0.165	0.034
-390.063	690.083	0.098	0.255
-389.048	800.000	-0.074	0.288
-388.033	105.225	-0.194	0.228
-387.019	800.000	0.063	-0.225
-386.004	-200.000	-0.005	-0.138
-384.990	56.099	-0.226	0.218
-383.975	-55.563	-0.150	-0.067
-382.960	-71.255	-0.085	0.032
-381.946	-112.655	0.078	-0.015
-380.931	800.000	0.057	-0.172
-379.917	-16.132	-0.058	0.037
-378.902	-200.000	0.023	0.272
-377.888	-109.791	0.133	-0.028
-376.873	-200.000	-0.006	0.070
-375.858	124.882	0.101	0.127
-374.844	592.605	0.047	0.115
-373.829	800.000	0.070	-0.226
-372.815	-129.886	0.380	0.052
-371.800	218.152	-0.054	-0.086
-370.785	-149.615	-0.055	0.004
-369.771	-83.281	0.189	-0.060
-368.756	-58.910	0.241	0.104
-367.742	-200.000	-0.011	-0.056
-366.727	29.584	-0.171	-0.145
-365.712	-76.347	0.150	0.052
-364.698	-77.145	-0.222	0.077
-363.683	219.500	-0.062	0.099
-362.669	-99.555	-0.224	0.056
-361.654	80.053	-0.156	0.166
-360.639	800.000	-0.077	0.268
-359.625	157.819	-0.082	-0.113
-358.610	227.989	-0.128	0.208
-357.596	-93.759	0.217	-0.059
-356.581	526.444	-0.141	0.329
-355.566	177.893	0.030	-0.043
-354.552	800.000	0.055	-0.200
-353.537	-200.000	0.007	-0.092
-352.523	-200.000	0.049	-0.369
-351.508	50.028	0.075	-0.071
-350.493	73.785	-0.260	-0.270
-349.479	800.000	0.048	0.169
-348.464	-126.073	0.313	-0.047
-347.450	-200.000	-0.015	0.251
-346.435	81.166	0.156	-0.167
-345.420	452.801	-0.021	-0.047
-344.406	3.639	0.178	0.129
-343.391	-165.424	-0.247	0.011
-342.377	23.189	0.089	-0.072
-341.362	-132.126	0.084	0.011
-340.348	-60.024	-0.194	-0.082
-339.333	-183.769	0.462	-0.008
-338.318	-154.967	0.432	0.028
-337.304	59.164	-0.055	-0.054
-336.289	800.000	0.115	0.444
-335.275	-93.246	-0.148	-0.041
-334.260	618.243	-0.143	-0.356
-333.245	-152.437	0.032	-0.002
-332.231	-112.471	0.295	-0.058
-331.216	756.184	-0.095	0.255
-330.202	86.448	0.136	0.149
-329.187	-200.000	0.008	0.074
-328.172	-200.000	-0.037	0.374
-327.158	123.004	0.049	0.061
-326.143	374.828	-0.126	-0.254
-325.129	800.000	0.018	0.076
-324.114	-170.458	0.286	-0.010
-323.099	-190.562	0.203	-0.002
-322.085	734.371	-0.078	-0.207
-321.070	5.897	0.077	0.057
-320.056	-115.212	0.325	-0.061
-319.041	-184.299	0.186	0.003
-318.026	275.049	-0.166	0.292
-317.012	312.027	-0.007	0.012
-315.997	-148.322	-0.425	-0.035
-314.983	575.535	-0.166	0.401
-313.968	-77.246	0.420	-0.145
-312.953	-185.988	0.057	-0.001
-311.939	173.317	-0.037	0.053
-310.924	-154.605	-0.343	-0.023
-309.910	-200.000	-0.001	-0.393
-308.895	-18.466	-0.037	0.023
-307.880	33.247	-0.098	0.084
-306.866	-98.076	-0.068	0.017
-305.851	713.684	-0.049	0.130
-304.837	5.664	0.177	0.130
-303.822	800.000	0.067	0.213
-302.807	-200.000	0.014	0.198
-301.793	-72.821	-0.176	-0.064
-300.778	204.839	-0.105	0.162
-299.764	-127.217	0.332	0.048
-298.749	-42.041	0.215	-0.109
-297.735	79.647	-0.198	0.210
-296.720	800.000	-0.083	0.354
-295.705	-4.281	0.059	-0.041
-294.691	-166.306	0.211	0.009
-293.676	-152.510	-0.208	-0.015
-292.662	-21.797	0.154	-0.093
-291.647	-126.423	-0.383	0.057
-290.632	800.000	-0.059	-0.221
-289.618	33.952	-0.110	0.095
-288.603	-22.296	-0.173	0.104
-287.589	179.913	0.081	0.117
-286.574	353.760	0.021	-0.041
-285.559	377.329	0.081	0.165
-284.545	800.000	0.017	0.066
-283.530	-50.982	-0.061	0.029
-282.516	26.636	0.210	0.174
-281.501	800.000	0.092	0.356
-280.486	-22.679	0.266	-0.159
-279.472	-89.753	-0.301	-0.087
-278.457	-200.000	-0.025	0.108
-277.443	-200.000	0.012	-0.266
-276.428	178.350	-0.174	0.251
-275.413	-130.141	0.223	0.030
-274.399	-2.552	-0.145	-0.100
-273.384	293.240	-0.117	-0.210
-272.370	-92.389	-0.215	0.060
-271.355	453.023	0.075	0.164
-270.340	-200.000	0.030	0.308
-269.326	-82.425	0.102	0.033
-268.311	-200.000	0.004	0.122
-267.297	325.202	-0.090	-0.170
-266.282	800.000	0.010	0.042
-265.267	800.000	0.147	0.409
-264.253	-200.000	0.053	0.286
-263.238	800.000	0.082	-0.241
-262.224	-200.000	-0.067	-0.315
-261.209	134.859	-0.127	-0.163
-260.195	-43.186	-0.069	-0.035
-259.180	65.094	-0.261	-0.261
-258.165	-125.078	-0.075	-0.011
-257.151	-86.792	0.104	-0.031
-256.136	800.000	0.135	-0.468
-255.122	-200.000	-0.011	0.371
-254.107	120.914	0.180	-0.222
-253.092	-200.000	-0.022	-0.178
-252.078	-200.000	-0.204	-0.001
-251.063	157.272	0.112	0.154
-250.049	-146.481	-0.042	0.004
-249.034	-154.504	-0.077	0.005
-248.019	-200.000	-0.018	-0.246
-247.005	217.836	0.071	0.112
-245.990	164.348	0.053	0.074
-244.976	800.000	0.040	-0.154
-243.961	-94.484	0.235	0.063
-242.946	18.203	-0.148	0.117
-241.932	-200.000	0.017	0.224
-240.917	114.697	-0.094	0.113
-239.903	-200.000	-0.018	-0.127
-238.888	-121.798	0.284	-0.046
-237.873	-200.000	-0.012	0.351
-236.859	-62.978	0.126	-0.052
-235.844	361.162	0.196	0.388
-234.830	494.522	0.097	0.220
-233.815	-200.000	-0.034	-0.227
-232.800	-200.000	-0.010	0.364
-231.786	-200.000	0.060	0.269
-230.771	142.237	0.010	0.013
-229.757	-4.667	-0.166	-0.113
-228.742	563.043	-0.096	-0.229
-227.727	-148.655	0.333	0.027
-226.713	311.192	-0.103	-0.190
-225.698	243.528	0.117	-0.193
-224.684	299.467	-0.081	-0.148
-223.669	-157.871	0.184	0.011
-222.655	27.652	0.048	0.040
-221.640	369.875	0.084	-0.167
-220.625	40.986	0.334	0.298
-219.611	-96.690	-0.169	0.044
-218.596	75.636	-0.098	0.103
-217.582	412.517	0.023	0.048
-216.567	-143.401	-0.240	-0.023
-215.552	-200.000	-0.012	-0.145
-214.538	-52.894	-0.309	0.141
-213.523	-200.000	0.028	-0.140
-212.509	-92.312	-0.072	0.020
-211.494	40.957	-0.271	0.242
-210.479	221.184	-0.206	0.326
-209.465	171.403	0.185	0.263
-208.450	37.708	-0.043	0.037
-207.436	82.059	-0.132	-0.142
-206.421	-140.445	0.067	0.007
-205.406	-200.000	0.021	-0.096
-204.392	18.363	-0.153	-0.120
-203.377	-19.504	0.185	0.113
-202.363	55.884	0.199	-0.191
-201.348	159.909	0.156	-0.214
-200.333	-200.000	0.017	0.449
-199.319	-200.000	0.021	-0.248
-198.304	-38.833	0.369	0.192
-197.290	-27.814	-0.172	-0.098
-196.275	114.900	-0.220	0.265
-195.260	283.118	-0.101	-0.180
-194.246	800.000	-0.095	0.328
-193.231	-132.822	-0.275	-0.035
-192.217	194.286	-0.086	0.128
-191.202	-200.000	-0.005	0.111
-190.187	-63.771	0.094	-0.038
-189.173	-200.000	-0.004	-0.154
-188.158	69.776	0.167	0.170
-187.144	-1.643	0.159	0.111
-186.129	800.000	-0.034	-0.097
-185.114	-49.750	-0.444	-0.208
-184.100	67.262	-0.228	-0.230
-183.085	11.904	0.282	0.214
-182.071	347.750	0.061	0.118
-181.056	-89.144	0.070	0.020
-180.042	-200.000	-0.054	-0.430
-179.027	-91.709	0.189	-0.053
-178.012	-3.675	0.132	0.090
-176.998	31.273	-0.062	-0.053
-175.983	-200.000	0.069	-0.368
-174.969	-200.000	-0.018	-0.159
-173.954	21.106	-0.172	0.137
-172.939	70.501	0.199	-0.203
-171.925	-10.420	0.199	0.130
-170.910	-200.000	0.003	-0.077
-169.896	-42.613	0.125	-0.063
-168.881	366.997	0.039	-0.077
-167.866	267.918	-0.177	0.306
-166.852	-152.840	0.358	0.025
-165.837	-129.967	-0.214	0.029
-164.823	800.000	0.054	-0.152
-163.808	-10.475	0.139	0.091
-162.793	81.121	-0.325	-0.346
-161.779	-200.000	0.015	-0.215
-160.764	-70.131	0.183	0.069
-159.750	-48.834	-0.103	0.049
-158.735	207.336	-0.050	0.077
-157.720	-200.000	0.034	0.255
-156.706	439.089	0.043	-0.091
-155.691	-73.324	-0.043	0.015
-154.677	-92.387	0.342	-0.095
-153.662	-63.348	0.142	-0.057
-152.647	-18.229	0.266	-0.164
-151.633	-29.920	0.066	0.037
-150.618	-200.000	-0.002	0.152
-149.604	-24.910	0.221	-0.129
-148.589	327.918	0.122	-0.231
-147.574	-200.000	-0.029	-0.232
-146.560	197.672	0.131	-0.197
-145.545	-65.015	0.027	-0.011
-144.531	800.000	0.062	-0.223
-143.516	-88.375	0.376	-0.111
-142.502	20.752	0.209	0.166
-141.487	-77.457	-0.131	0.045
-140.472	800.000	-0.035	0.146
-139.458	-40.210	-0.373	0.191
-138.443	-46.638	0.087	-0.042
-137.429	290.240	0.162	0.290
-136.414	-200.000	-0.060	-0.000
-135.399	-200.000	-0.010	0.056
-134.385	18.247	-0.202	-0.159
-133.370	237.635	0.129	-0.211
-132.356	-36.495	-0.151	0.080
-131.341	-11.411	-0.020	0.013
-130.326	496.745	0.121	-0.274
-129.312	-200.000	0.058	0.327
-128.297	528.161	0.054	-0.125
-127.283	-200.000	-0.002	0.247
-126.268	-78.393	0.179	0.060
-125.253	-200.000	0.039	0.193
-124.239	-46.558	0.254	0.123
-123.224	800.000	0.150	-0.513
-122.210	-50.170	0.377	-0.176
-121.195	-49.129	0.122	0.058
