DTS Sentinel unit serial number:	SN413079Multiplexer serial number:	ORYXHardware model number:	OX4-SRSoftware version number:	ORYX F/W v4.00 Oryx Data Collector v3.7.2.0data status	okinstallation	princeton_trtdifferential loss correction	single-endedforward channel	channel 2reverse channel	N/Adate	2019/09/18time	10:51:34forward acquisition time	60.00reverse acquisition time	0.00gamma	496.2192k internal	0.2329k external	0.2329temperature offset calibration	0.9980default loss term (dB/km)	0.3790temperature slope calibration	1.0000multiplexer offset coefficient	1.0000multiplexer slope coefficient	1.0000fibre end	0.00T internal ref (°C)	29.03T ext. ref 1 (°C)	0.37T ext. ref 2 (°C)	25.38length (m)	temperature (°C)	Stokes	anti-Stokes-747.200	800.000	0.123	0.375
-746.185	-200.000	-0.075	0.509
-745.171	8.984	0.297	0.225
-744.156	258.510	-0.108	0.188
-743.142	-48.570	-0.198	0.096
-742.127	800.000	0.056	-0.172
-741.112	-200.000	0.015	-0.174
-740.098	218.082	0.042	-0.068
-739.083	76.309	0.251	0.267
-738.069	-52.893	-0.315	-0.146
-737.054	285.060	0.163	-0.295
-736.039	154.304	0.034	-0.047
-735.025	-200.000	-0.028	-0.296
-734.010	656.233	-0.054	-0.139
-732.996	-5.146	-0.070	-0.048
-731.981	-118.169	-0.186	0.033
-730.966	391.429	-0.107	-0.223
-729.952	291.745	0.003	0.006
-728.937	-200.000	0.026	-0.545
-727.923	-118.002	0.124	0.022
-726.908	378.730	0.008	-0.017
-725.894	38.982	0.248	0.223
-724.879	-76.726	-0.334	-0.118
-723.864	-125.950	-0.398	-0.060
-722.850	257.287	-0.075	-0.130
-721.835	778.493	0.088	-0.242
-720.821	21.500	-0.368	-0.302
-719.806	800.000	-0.173	-0.508
-718.791	57.284	0.142	-0.139
-717.777	154.932	0.041	0.056
-716.762	-87.303	-0.359	0.110
-715.748	346.070	-0.047	-0.094
-714.733	-70.687	-0.162	0.062
-713.718	-4.565	-0.269	-0.187
-712.704	-83.787	-0.247	-0.079
-711.689	-20.654	-0.329	-0.203
-710.675	658.754	-0.068	0.177
-709.660	107.665	-0.039	0.046
-708.645	246.840	0.159	0.270
-707.631	-38.201	0.113	0.060
-706.616	-100.636	-0.207	-0.051
-705.602	83.579	0.176	-0.193
-704.587	295.087	0.107	0.198
-703.572	800.000	0.107	-0.377
-702.558	800.000	-0.067	-0.218
-701.543	-46.779	-0.192	0.094
-700.529	45.923	-0.244	0.227
-699.514	-200.000	0.010	-0.251
-698.499	-118.058	-0.014	0.002
-697.485	-200.000	0.158	-0.001
-696.470	268.013	-0.226	0.399
-695.456	40.306	-0.127	0.114
-694.441	-55.971	-0.473	0.212
-693.426	-10.115	-0.252	-0.168
-692.412	-137.245	-0.380	-0.043
-691.397	-0.066	-0.040	-0.029
-690.383	46.030	-0.160	-0.149
-689.368	-8.443	-0.195	-0.132
-688.354	-79.096	-0.135	-0.046
-687.339	-78.396	0.294	0.101
-686.324	-200.000	0.025	0.162
-685.310	800.000	-0.136	-0.416
-684.295	116.005	0.032	-0.039
-683.281	375.775	-0.172	-0.352
-682.266	-119.865	-0.257	-0.044
-681.251	49.164	-0.068	-0.064
-680.237	-32.901	-0.091	0.051
-679.222	95.769	-0.092	-0.106
-678.208	-57.917	0.131	0.057
-677.193	-200.000	-0.021	-0.254
-676.178	500.801	0.091	0.212
-675.164	-54.031	-0.348	-0.159
-674.149	-39.093	-0.245	0.129
-673.135	75.212	-0.230	-0.244
-672.120	6.005	-0.218	-0.162
-671.105	800.000	0.079	0.326
-670.091	-75.540	0.141	-0.050
-669.076	-125.535	0.321	0.049
-668.062	800.000	0.015	0.046
-667.047	652.405	-0.064	0.164
-666.032	95.532	0.367	0.421
-665.018	800.000	-0.079	0.257
-664.003	-200.000	-0.002	0.163
-662.989	75.820	-0.229	-0.243
-661.974	188.210	-0.158	0.238
-660.959	-72.409	0.147	-0.054
-659.945	-76.694	-0.176	0.062
-658.930	16.885	-0.138	0.109
-657.916	-58.769	0.248	0.108
-656.901	-200.000	-0.044	0.234
-655.886	-200.000	0.007	-0.179
-654.872	-200.000	0.038	-0.419
-653.857	-52.687	-0.044	0.020
-652.843	-76.404	0.273	-0.096
-651.828	800.000	0.023	-0.097
-650.814	800.000	0.104	-0.376
-649.799	125.174	0.168	-0.212
-648.784	347.452	-0.144	-0.284
-647.770	-69.334	0.363	0.140
-646.755	-200.000	-0.015	0.273
-645.741	800.000	0.049	0.203
-644.726	41.030	0.289	0.262
-643.711	-131.397	0.175	-0.023
-642.697	104.974	-0.084	0.099
-641.682	313.951	0.040	-0.076
-640.668	215.407	0.218	-0.347
-639.653	678.914	-0.115	-0.299
-638.638	145.011	-0.085	-0.114
-637.624	800.000	0.058	-0.219
-636.609	800.000	-0.123	0.527
-635.595	6.308	-0.190	0.141
-634.580	74.179	0.100	0.105
-633.565	596.521	-0.136	-0.338
-632.551	43.579	-0.282	-0.258
-631.536	-155.302	-0.402	0.026
-630.522	20.741	0.051	-0.041
-629.507	330.344	-0.090	0.175
-628.492	-200.000	0.016	-0.300
-627.478	-200.000	-0.018	-0.175
-626.463	194.044	-0.038	-0.057
-625.449	-33.046	-0.301	-0.167
-624.434	77.166	0.212	-0.226
-623.419	50.259	-0.252	-0.239
-622.405	-61.939	-0.039	-0.016
-621.390	296.118	0.232	0.426
-620.376	-15.615	-0.191	0.122
-619.361	183.284	0.197	0.292
-618.346	-164.903	0.400	0.018
-617.332	-194.884	0.092	0.001
-616.317	800.000	0.028	0.083
-615.303	-41.748	0.057	-0.029
-614.288	-200.000	-0.051	0.294
-613.273	-16.112	0.331	0.211
-612.259	-200.000	0.011	0.192
-611.244	-177.100	-0.147	0.004
-610.230	312.014	0.121	-0.227
-609.215	30.536	-0.251	-0.215
-608.201	800.000	0.057	0.193
-607.186	-200.000	-0.044	-0.568
-606.171	-200.000	-0.004	-0.191
-605.157	290.683	0.064	0.116
-604.142	800.000	0.088	-0.314
-603.128	-200.000	0.017	0.275
-602.113	800.000	0.092	0.303
-601.098	92.400	0.080	-0.090
-600.084	-159.440	-0.223	-0.012
-599.069	538.801	-0.056	0.133
-598.055	800.000	0.129	0.374
-597.040	-200.000	0.037	0.274
-596.025	660.427	0.041	0.106
-595.011	258.421	-0.132	-0.228
-593.996	-53.880	-0.212	0.097
-592.982	-54.960	0.330	-0.149
-591.967	-200.000	0.004	-0.087
-590.952	760.291	-0.084	-0.227
-589.938	-146.381	-0.151	0.013
-588.923	49.152	-0.044	0.042
-587.909	-52.306	0.132	0.061
-586.894	755.744	-0.060	-0.163
-585.879	-175.504	-0.093	-0.003
-584.865	55.109	-0.106	-0.102
-583.850	613.262	0.122	-0.307
-582.836	181.238	-0.208	-0.305
-581.821	-200.000	0.034	-0.198
-580.806	-96.249	-0.230	0.061
-579.792	18.537	0.145	0.116
-578.777	800.000	0.045	-0.132
-577.763	-96.571	0.141	-0.037
-576.748	-142.877	-0.278	-0.027
-575.733	167.852	-0.074	0.105
-574.719	171.552	0.186	-0.267
-573.704	-79.526	0.471	-0.159
-572.690	108.359	-0.069	0.082
-571.675	99.891	0.153	0.177
-570.661	-156.072	-0.178	0.011
-569.646	212.170	0.158	0.248
-568.631	0.876	-0.134	0.096
-567.617	800.000	-0.075	-0.228
-566.602	-200.000	-0.016	-0.118
-565.588	260.612	0.094	-0.163
-564.573	25.655	-0.205	0.171
-563.558	-200.000	0.000	0.139
-562.544	-142.131	0.146	0.015
-561.529	-200.000	0.028	-0.156
-560.515	-81.868	-0.173	0.057
-559.500	-14.123	0.258	0.167
-558.485	258.117	-0.129	-0.223
-557.471	-200.000	-0.047	-0.217
-556.456	800.000	0.049	-0.208
-555.442	-104.621	-0.323	-0.074
-554.427	-92.535	0.171	0.048
-553.412	403.065	-0.126	-0.264
-552.398	166.604	0.040	-0.057
-551.383	53.960	0.092	-0.089
-550.369	-102.399	0.130	-0.031
-549.354	-200.000	0.060	0.335
-548.339	800.000	-0.083	0.283
-547.325	-143.262	0.111	-0.011
-546.310	-200.000	0.010	-0.049
-545.296	-188.735	0.121	-0.001
-544.281	382.701	0.134	-0.276
-543.266	-200.000	0.082	0.515
-542.252	109.807	0.140	0.168
-541.237	457.125	0.138	-0.305
-540.223	228.272	0.141	0.230
-539.208	-5.710	-0.420	-0.287
-538.193	-159.409	-0.146	0.008
-537.179	-200.000	0.072	-0.381
-536.164	531.626	0.114	0.270
-535.150	-200.000	-0.001	0.197
-534.135	237.940	-0.063	0.104
-533.121	-127.047	-0.064	0.009
-532.106	122.248	-0.065	-0.081
-531.091	-22.744	0.146	-0.088
-530.077	780.225	-0.085	0.233
-529.062	156.881	-0.044	-0.061
-528.048	427.168	0.051	0.110
-527.033	517.290	0.062	0.146
-526.018	-200.000	-0.010	-0.122
-525.004	-200.000	0.057	-0.315
-523.989	640.480	0.127	-0.324
-522.975	219.457	0.018	-0.029
-521.960	-111.786	-0.124	0.025
-520.945	418.917	0.117	0.250
-519.931	-20.044	0.241	0.149
-518.916	23.713	-0.176	0.145
-517.902	-43.373	-0.224	0.113
-516.887	-200.000	-0.022	-0.224
-515.872	119.967	0.034	-0.042
-514.858	-49.619	0.438	0.208
-513.843	130.611	0.339	0.434
-512.829	88.750	-0.220	0.245
-511.814	287.420	-0.120	-0.216
-510.799	-151.256	-0.413	0.031
-509.785	-16.330	0.135	0.086
-508.770	145.588	-0.125	0.167
-507.756	800.000	-0.074	-0.295
-506.741	476.543	0.042	-0.094
-505.726	179.861	0.073	0.107
-504.712	-78.225	-0.149	-0.051
-503.697	9.092	0.128	0.096
-502.683	-61.871	-0.216	-0.090
-501.668	247.069	-0.110	0.185
-500.653	-200.000	-0.027	0.234
-499.639	-40.922	-0.131	0.067
-498.624	-24.189	-0.177	-0.105
-497.610	-65.896	-0.268	-0.107
-496.595	149.689	-0.167	0.226
-495.581	546.457	-0.146	0.348
-494.566	37.928	-0.190	-0.169
-493.551	800.000	-0.091	-0.254
-492.537	-200.000	0.087	0.386
-491.522	-15.537	0.226	0.144
-490.508	-153.281	-0.064	-0.004
-489.493	719.563	0.053	-0.142
-488.478	225.366	-0.104	0.168
-487.464	137.939	0.111	0.145
-486.449	-200.000	-0.037	-0.221
-485.435	-200.000	0.054	-0.281
-484.420	-166.719	-0.281	-0.012
-483.405	191.394	-0.065	0.097
-482.391	-19.862	0.337	0.208
-481.376	-200.000	0.142	-0.000
-480.362	-200.000	0.034	0.186
-479.347	-200.000	0.002	0.301
-478.332	-200.000	-0.025	-0.147
-477.318	-200.000	0.107	-0.493
-476.303	25.120	0.139	-0.115
-475.289	45.987	-0.169	-0.156
-474.274	-157.729	0.188	-0.011
-473.259	-182.904	-0.189	0.003
-472.245	76.270	-0.143	0.151
-471.230	608.550	-0.088	-0.219
-470.216	30.556	0.198	-0.169
-469.201	-128.040	-0.388	0.055
-468.186	23.225	0.125	0.102
-467.172	-200.000	-0.045	0.368
-466.157	-200.000	0.000	0.052
-465.143	95.123	0.139	-0.157
-464.128	-41.518	0.262	-0.134
-463.113	765.021	-0.060	-0.162
-462.099	800.000	-0.075	0.221
-461.084	-106.496	0.238	-0.053
-460.070	9.812	-0.148	0.112
-459.055	66.740	-0.134	0.136
-458.040	800.000	-0.063	-0.181
-457.026	129.316	-0.105	0.133
-456.011	-164.887	0.170	-0.008
-454.997	-88.395	-0.400	-0.119
-453.982	240.707	-0.156	-0.260
-452.968	-200.000	-0.040	0.361
-451.953	369.199	-0.108	0.218
-450.938	-154.234	0.384	-0.026
-449.924	800.000	0.068	-0.280
-448.909	-10.396	-0.271	0.179
-447.895	-200.000	0.052	0.228
-446.880	-22.325	0.200	-0.121
-445.865	-24.469	0.272	-0.161
-444.851	288.504	-0.094	-0.169
-443.836	-200.000	-0.041	-0.210
-442.822	-35.527	0.228	-0.123
-441.807	-67.504	-0.253	-0.099
-440.792	167.568	0.077	0.109
-439.778	208.764	-0.099	0.154
-438.763	-7.506	-0.231	-0.155
-437.749	66.246	-0.205	-0.207
-436.734	-149.150	-0.163	0.013
-435.719	389.264	0.116	0.240
-434.705	-35.746	-0.278	-0.150
-433.690	-45.764	0.334	0.164
-432.676	-200.000	-0.017	-0.114
-431.661	-200.000	-0.036	0.249
-430.646	47.535	0.253	0.235
-429.632	-118.858	0.474	-0.083
-428.617	211.854	-0.028	-0.045
-427.603	-153.434	-0.112	0.008
-426.588	7.044	0.049	0.036
-425.573	800.000	-0.032	-0.094
-424.559	-200.000	-0.043	-0.294
-423.544	477.263	0.083	0.186
-422.530	-200.000	-0.240	-0.000
-421.515	52.337	0.238	-0.226
-420.500	-200.000	-0.069	-0.322
-419.486	-200.000	-0.010	-0.121
-418.471	-200.000	-0.001	-0.232
-417.457	-200.000	-0.003	0.099
-416.442	99.179	0.082	-0.095
-415.428	-200.000	-0.020	0.138
-414.413	-165.696	0.111	-0.005
-413.398	-200.000	0.024	-0.130
-412.384	-168.195	0.065	0.002
-411.369	-31.414	0.097	0.054
-410.355	-77.997	-0.096	-0.033
-409.340	-200.000	-0.025	-0.178
-408.325	656.531	-0.087	-0.223
-407.311	-200.000	0.001	0.156
-406.296	64.063	-0.458	0.458
-405.282	-200.000	-0.014	0.276
-404.267	-200.000	-0.047	-0.389
-403.252	20.894	-0.241	-0.194
-402.238	21.565	0.061	-0.049
-401.223	-179.873	0.223	-0.005
-400.209	-136.004	-0.224	0.026
-399.194	-42.544	-0.054	-0.027
-398.179	-84.444	-0.138	-0.043
-397.165	800.000	-0.059	-0.234
-396.150	-200.000	0.028	-0.441
-395.136	1.103	-0.212	-0.151
-394.121	76.137	-0.067	0.070
-393.106	278.441	-0.169	-0.298
-392.092	-200.000	-0.032	-0.246
-391.077	-79.830	-0.142	0.047
-390.063	-200.000	-0.013	-0.244
-389.048	-16.174	-0.249	0.157
-388.033	-105.970	0.223	0.050
-387.019	-200.000	0.035	0.222
-386.004	324.739	-0.054	0.103
-384.990	-123.004	-0.675	-0.108
-383.975	21.219	-0.097	-0.078
-382.960	-200.000	0.010	-0.192
-381.946	800.000	0.088	0.305
-380.931	-200.000	-0.001	-0.045
-379.917	606.688	-0.066	0.164
-378.902	378.350	0.144	0.292
-377.888	371.132	0.130	0.261
-376.873	155.025	-0.198	-0.270
-375.858	-126.752	-0.126	-0.018
-374.844	34.286	0.243	0.210
-373.829	112.998	-0.126	0.152
-372.815	-200.000	-0.011	-0.381
-371.800	-141.063	0.359	-0.037
-370.785	-200.000	0.000	0.495
-369.771	-200.000	0.020	0.161
-368.756	-200.000	0.018	-0.261
-367.742	-85.977	-0.205	-0.063
-366.727	-200.000	0.023	0.156
-365.712	-120.848	-0.325	0.054
-364.698	123.127	-0.176	-0.218
-363.683	-200.000	0.002	0.031
-362.669	72.920	0.084	0.087
-361.654	-81.743	0.338	-0.110
-360.639	-183.626	0.200	0.003
-359.625	-151.085	0.151	-0.011
-358.610	-200.000	0.071	-0.382
-357.596	-90.006	0.084	-0.024
-356.581	-199.057	-0.110	0.001
-355.566	-21.107	0.194	0.118
-354.552	12.363	-0.184	0.141
-353.537	45.552	-0.153	0.140
-352.523	-154.271	0.051	0.003
-351.508	800.000	0.062	-0.216
-350.493	-200.000	-0.070	0.309
-349.479	800.000	-0.084	-0.262
-348.464	113.296	-0.248	0.299
-347.450	800.000	0.053	0.156
-346.435	296.568	-0.163	-0.297
-345.420	-79.133	-0.149	-0.050
-344.406	639.394	0.050	-0.125
-343.391	225.640	-0.155	0.250
-342.377	-10.096	-0.235	0.155
-341.362	48.254	0.052	0.049
-340.348	137.450	0.013	-0.017
-339.333	-117.511	0.185	0.033
-338.318	170.105	0.116	0.164
-337.304	-193.136	-0.273	-0.002
-336.289	-65.924	0.151	-0.060
-335.275	-134.150	0.156	0.019
-334.260	-69.762	0.170	-0.064
-333.245	-35.339	0.164	-0.088
-332.231	-48.436	-0.164	-0.078
-331.216	355.671	0.016	0.032
-330.202	800.000	0.065	0.198
-329.187	6.647	0.135	-0.099
-328.172	800.000	0.042	0.133
-327.158	187.735	-0.269	-0.398
-326.143	-11.025	-0.104	-0.068
-325.129	-21.833	-0.025	0.015
-324.114	3.903	0.355	0.257
-323.099	421.918	0.119	0.253
-322.085	800.000	0.042	0.149
-321.070	-135.618	-0.061	-0.007
-320.056	-200.000	-0.005	0.145
-319.041	-200.000	-0.009	-0.197
-318.026	104.203	-0.176	0.206
-317.012	3.001	0.079	0.057
-315.997	11.140	0.156	0.118
-314.983	26.340	0.257	0.213
-313.968	-200.000	0.000	0.123
-312.953	91.307	0.126	0.141
-311.939	-179.742	0.250	-0.005
-310.924	155.860	0.054	-0.073
-309.910	-123.566	-0.458	-0.072
-308.895	-200.000	0.013	0.300
-307.880	318.174	-0.099	0.186
-306.866	98.753	0.160	0.183
-305.851	712.465	0.155	-0.406
-304.837	125.448	0.388	0.484
-303.822	437.123	0.096	0.206
-302.807	169.818	-0.147	-0.209
-301.793	779.105	0.117	0.318
-300.778	-166.917	-0.129	-0.005
-299.764	-14.803	-0.096	-0.061
-298.749	736.602	-0.069	0.184
-297.735	12.139	0.117	0.089
-296.720	-200.000	-0.021	-0.288
-295.705	-68.256	0.394	0.152
-294.691	-172.766	-0.220	0.007
-293.676	24.650	0.109	-0.089
-292.662	339.839	-0.046	-0.089
-291.647	-15.095	-0.144	0.091
-290.632	-129.886	-0.253	0.034
-289.618	-79.409	0.162	0.054
-288.603	-200.000	-0.020	0.253
-287.589	93.181	0.250	0.279
-286.574	-130.319	0.297	0.040
-285.559	25.306	-0.035	0.028
-284.545	800.000	-0.139	0.510
-283.530	463.045	0.114	0.253
-282.516	99.903	-0.175	0.200
-281.501	-15.640	-0.127	-0.080
-280.486	63.942	-0.125	0.124
-279.472	106.228	-0.141	0.165
-278.457	58.798	-0.246	0.239
-277.443	-13.261	-0.057	0.036
-276.428	-200.000	-0.029	-0.187
-275.413	-142.670	0.243	-0.023
-274.399	221.996	-0.082	0.130
-273.384	800.000	-0.053	0.163
-272.370	-63.895	0.081	-0.033
-271.355	413.443	0.020	-0.043
-270.340	8.938	-0.109	-0.082
-269.326	-139.104	0.573	0.061
-268.311	59.943	0.209	-0.204
-267.297	-9.727	0.120	0.079
-266.282	800.000	0.044	0.159
-265.267	16.346	0.103	0.080
-264.253	163.668	-0.070	-0.097
-263.238	99.973	-0.177	0.203
-262.224	-200.000	0.044	0.321
-261.209	-112.600	0.174	-0.034
-260.195	56.210	-0.077	0.074
-259.180	269.698	0.036	-0.063
-258.165	-114.335	0.305	0.058
-257.151	128.060	-0.135	0.170
-256.136	-57.010	0.248	0.108
-255.122	-12.270	0.234	0.151
-254.107	-128.234	0.250	0.035
-253.092	-16.768	-0.244	-0.152
-252.078	-183.417	-0.339	-0.006
-251.063	-66.199	0.170	0.067
-250.049	371.560	0.202	-0.405
-249.034	286.022	-0.085	-0.152
-248.019	-128.143	0.190	-0.027
-247.005	90.218	-0.216	-0.239
-245.990	76.942	0.130	-0.136
-244.976	800.000	0.037	-0.120
-243.961	-78.507	0.054	-0.018
-242.946	-155.016	-0.224	0.015
-241.932	-200.000	-0.003	-0.184
-240.917	83.681	-0.115	-0.123
-239.903	325.706	-0.084	-0.159
-238.888	-12.935	0.146	0.094
-237.873	-79.299	-0.126	-0.042
-236.859	-77.287	-0.067	-0.023
-235.844	154.523	0.099	0.134
-234.830	213.238	-0.007	-0.011
-233.815	800.000	0.095	0.322
-232.800	30.946	0.187	0.158
-231.786	800.000	-0.067	-0.266
-230.771	26.360	0.196	-0.162
-229.757	345.716	0.185	0.358
-228.742	89.202	-0.087	-0.096
-227.727	612.566	0.028	0.069
-226.713	560.628	0.176	-0.419
-225.698	-178.907	0.134	-0.003
-224.684	-200.000	-0.004	0.252
-223.669	-55.795	-0.191	-0.084
-222.655	800.000	0.067	-0.224
-221.640	-46.090	-0.433	-0.210
-220.625	-200.000	0.003	0.372
-219.611	80.082	0.228	-0.242
-218.596	-200.000	-0.013	0.131
-217.582	-88.678	0.155	-0.045
-216.567	-200.000	-0.007	-0.277
-215.552	398.404	0.090	0.185
-214.538	-62.587	-0.177	0.073
-213.523	174.957	-0.156	0.223
-212.509	-200.000	0.055	-0.275
-211.494	-128.019	-0.436	0.062
-210.479	-95.744	0.065	-0.017
-209.465	-200.000	-0.020	-0.166
-208.450	-121.465	0.049	-0.008
-207.436	73.633	-0.083	-0.086
-206.421	-101.219	0.114	0.028
-205.406	-36.236	0.384	-0.205
-204.392	-200.000	-0.028	-0.298
-203.377	-10.719	0.175	0.114
-202.363	-159.004	-0.642	0.036
-201.348	251.352	0.123	-0.207
-200.333	124.780	0.151	-0.187
-199.319	-137.415	0.298	-0.033
-198.304	-112.417	0.207	-0.041
-197.290	-97.250	-0.104	-0.027
-196.275	-102.666	-0.201	-0.047
-195.260	-149.938	0.249	-0.019
-194.246	-200.000	0.060	0.304
-193.231	-76.690	-0.342	0.118
-192.217	239.307	-0.252	-0.413
-191.202	683.910	0.061	0.157
-190.187	778.568	0.110	-0.295
-189.173	800.000	0.073	-0.215
-188.158	800.000	0.061	-0.180
-187.144	-200.000	0.009	0.147
-186.129	22.253	-0.043	-0.035
-185.114	334.733	0.081	0.155
-184.100	-5.398	-0.209	-0.142
-183.085	-103.261	-0.336	0.078
-182.071	45.229	-0.171	0.155
-181.056	-200.000	-0.035	-0.284
-180.042	-109.507	-0.068	-0.014
-179.027	-82.938	0.219	0.070
-178.012	270.794	-0.035	-0.061
-176.998	-95.539	0.391	-0.103
-175.983	783.017	0.037	0.100
-174.969	54.645	0.080	-0.076
-173.954	63.476	-0.020	0.020
-172.939	-25.931	0.200	0.116
-171.925	328.207	-0.064	-0.121
-170.910	-200.000	-0.008	-0.073
-169.896	-142.496	0.202	0.020
-168.881	110.110	-0.070	0.083
-167.866	23.661	-0.155	-0.126
-166.852	-88.001	0.537	-0.159
-165.837	-200.000	-0.043	-0.251
-164.823	-200.000	-0.004	0.303
-163.808	162.831	-0.204	-0.281
-162.793	34.110	-0.084	0.072
-161.779	568.778	-0.092	-0.221
-160.764	-198.611	0.236	0.001
-159.750	54.530	-0.175	-0.166
-158.735	684.123	0.104	0.267
-157.720	-68.385	0.221	-0.085
-156.706	23.426	-0.335	-0.271
-155.691	-15.176	-0.162	-0.102
-154.677	-88.126	0.196	0.058
-153.662	-103.326	-0.333	0.077
-152.647	-200.000	0.030	0.459
-151.633	-37.284	-0.138	0.073
-150.618	-112.989	-0.172	0.033
-149.604	123.628	0.141	0.175
-148.589	-164.692	0.198	-0.009
-147.574	263.523	-0.135	0.230
-146.560	99.183	-0.087	0.099
-145.545	-192.836	-0.248	0.002
-144.531	800.000	-0.145	-0.403
-143.516	681.429	-0.162	-0.414
-142.502	-200.000	-0.036	-0.243
-141.487	-125.585	0.229	-0.034
-140.472	-120.281	-0.439	-0.074
-139.458	93.192	0.253	0.282
-138.443	-200.000	-0.020	0.143
-137.429	-29.522	0.039	0.022
-136.414	73.607	0.122	-0.126
-135.399	20.737	-0.155	0.123
-134.385	111.665	-0.101	0.120
-133.370	-58.658	-0.084	-0.036
-132.356	471.679	-0.113	0.251
-131.341	-200.000	-0.023	0.110
-130.326	380.408	-0.097	0.196
-129.312	800.000	0.133	-0.443
-128.297	800.000	0.050	-0.185
-127.283	125.775	0.167	0.207
-126.268	-148.314	0.383	0.031
-125.253	-92.081	-0.158	-0.044
-124.239	800.000	0.072	-0.227
-123.224	29.799	0.240	-0.201
-122.210	-200.000	0.038	-0.257
