DTS Sentinel unit serial number:	SN413079Multiplexer serial number:	ORYXHardware model number:	OX4-SRSoftware version number:	ORYX F/W v4.00 Oryx Data Collector v3.7.2.0data status	okinstallation	princeton_trtdifferential loss correction	single-endedforward channel	channel 2reverse channel	N/Adate	2019/09/14time	20:15:34forward acquisition time	60.00reverse acquisition time	0.00gamma	496.2192k internal	0.2321k external	0.2321temperature offset calibration	1.0091default loss term (dB/km)	0.3790temperature slope calibration	1.0000multiplexer offset coefficient	1.0000multiplexer slope coefficient	1.0000fibre end	0.00T internal ref (°C)	33.80T ext. ref 1 (°C)	4.84T ext. ref 2 (°C)	28.25length (m)	temperature (°C)	Stokes	anti-Stokes-747.200	-44.466	0.043	-0.022
-746.185	-200.000	0.019	0.338
-745.171	-200.000	-0.022	0.219
-744.156	-4.990	0.223	0.155
-743.142	-62.628	0.385	-0.161
-742.127	-121.042	-0.260	-0.044
-741.112	-62.947	-0.201	-0.084
-740.098	200.538	0.149	0.232
-739.083	46.566	0.064	0.060
-738.069	-22.697	-0.219	0.134
-737.054	-40.499	-0.120	0.063
-736.039	-200.000	0.004	0.016
-735.025	-142.952	0.059	0.006
-734.010	800.000	-0.066	-0.231
-732.996	-176.338	-0.085	-0.002
-731.981	50.560	-0.186	0.178
-730.966	-200.000	0.027	0.206
-729.952	-200.000	-0.014	0.159
-728.937	128.409	-0.134	-0.172
-727.923	-94.479	-0.225	-0.062
-726.908	-22.638	-0.186	0.114
-725.894	-65.441	-0.147	-0.060
-724.879	-141.940	-0.338	-0.034
-723.864	800.000	0.061	-0.188
-722.850	379.887	0.095	-0.197
-721.835	208.249	-0.211	-0.333
-720.821	-26.282	-0.415	0.246
-719.806	344.948	0.021	-0.041
-718.791	110.525	-0.125	-0.151
-717.777	-39.670	-0.423	-0.223
-716.762	-112.593	-0.205	-0.041
-715.748	67.191	-0.085	-0.088
-714.733	24.125	0.053	0.044
-713.718	173.651	0.058	-0.084
-712.704	156.970	-0.127	0.177
-711.689	-53.077	-0.219	0.101
-710.675	800.000	0.051	-0.212
-709.660	-149.021	-0.321	-0.026
-708.645	-62.545	-0.271	-0.113
-707.631	-200.000	0.013	-0.158
-706.616	-14.470	0.216	-0.140
-705.602	199.357	0.108	-0.166
-704.587	242.754	-0.116	0.197
-703.572	250.832	0.063	0.109
-702.558	-62.301	0.163	0.069
-701.543	-69.210	-0.073	0.028
-700.529	-44.989	-0.246	0.124
-699.514	-200.000	0.030	0.201
-698.499	-119.378	0.132	-0.023
-697.485	800.000	-0.074	0.226
-696.470	-156.476	-0.127	0.008
-695.456	800.000	-0.194	-0.586
-694.441	800.000	-0.007	-0.022
-693.426	-200.000	0.019	0.125
-692.412	800.000	-0.050	0.145
-691.397	-200.000	-0.070	0.313
-690.383	-22.416	0.347	-0.212
-689.368	79.958	-0.089	0.096
-688.354	-200.000	-0.028	-0.287
-687.339	-36.410	0.188	0.102
-686.324	-21.890	0.064	0.039
-685.310	-200.000	0.044	-0.208
-684.295	-77.388	-0.193	-0.067
-683.281	393.727	0.094	0.198
-682.266	183.378	0.096	-0.143
-681.251	51.784	-0.217	0.208
-680.237	-200.000	-0.050	-0.239
-679.222	-97.731	0.277	-0.072
-678.208	800.000	0.103	0.309
-677.193	-200.000	0.012	-0.193
-676.178	-50.567	-0.127	0.060
-675.164	-186.033	-0.328	-0.005
-674.149	-200.000	-0.004	-0.059
-673.135	-141.871	0.104	-0.010
-672.120	15.215	0.085	0.067
-671.105	73.041	-0.089	-0.094
-670.091	-8.969	0.176	0.119
-669.076	159.251	-0.082	0.115
-668.062	-169.950	0.161	-0.006
-667.047	-200.000	0.016	-0.230
-666.032	-36.393	-0.166	0.090
-665.018	-200.000	0.006	0.230
-664.003	264.180	-0.029	-0.051
-662.989	-200.000	0.047	-0.227
-661.974	-122.679	-0.077	-0.013
-660.959	-153.319	-0.105	-0.007
-659.945	-63.527	0.068	-0.028
-658.930	-177.395	-0.346	-0.009
-657.916	92.979	0.282	-0.321
-656.901	-9.946	-0.102	-0.068
-655.886	431.570	-0.076	0.166
-654.872	-36.127	-0.299	-0.162
-653.857	-200.000	-0.035	-0.226
-652.843	150.895	0.103	-0.141
-651.828	-110.303	0.154	-0.032
-650.814	-200.000	0.002	0.115
-649.799	800.000	0.065	0.273
-648.784	800.000	0.085	-0.307
-647.770	-86.451	-0.134	0.042
-646.755	37.557	0.030	0.027
-645.741	-200.000	-0.027	-0.169
-644.726	800.000	0.087	0.280
-643.711	286.164	-0.179	0.325
-642.697	-143.093	-0.346	-0.034
-641.682	-48.084	0.250	0.121
-640.668	800.000	-0.070	0.220
-639.653	-102.511	0.218	-0.053
-638.638	-56.423	0.096	-0.043
-637.624	-111.691	-0.239	0.049
-636.609	92.204	-0.105	-0.119
-635.595	106.059	-0.186	-0.221
-634.580	329.549	-0.056	0.109
-633.565	-45.831	0.045	0.023
-632.551	-62.670	0.051	-0.021
-631.536	243.178	-0.128	-0.216
-630.522	260.117	0.149	0.258
-629.507	0.337	-0.187	0.134
-628.492	-52.777	0.131	0.061
-627.478	234.340	0.078	-0.130
-626.463	-34.000	0.156	0.086
-625.449	15.997	0.278	-0.220
-624.434	677.802	0.078	-0.204
-623.419	-91.283	-0.147	0.042
-622.405	97.502	-0.120	-0.139
-621.390	800.000	-0.093	-0.406
-620.376	-59.190	0.354	-0.153
-619.361	-59.140	-0.146	0.063
-618.346	428.364	-0.054	-0.118
-617.332	132.925	-0.219	-0.284
-616.317	115.928	0.155	-0.191
-615.303	556.476	0.126	-0.306
-614.288	-200.000	-0.009	-0.040
-613.273	-29.040	0.119	-0.069
-612.259	160.144	0.224	0.314
-611.244	72.272	0.114	-0.119
-610.230	119.744	-0.164	0.205
-609.215	-137.910	-0.086	0.010
-608.201	129.836	-0.234	-0.301
-607.186	334.811	-0.072	0.140
-606.171	52.280	-0.108	-0.104
-605.157	-95.183	0.393	-0.106
-604.142	-13.802	-0.058	-0.037
-603.128	800.000	0.055	-0.215
-602.113	204.618	0.239	0.372
-601.098	-59.668	0.124	0.054
-600.084	-39.552	-0.255	-0.134
-599.069	90.292	0.092	-0.104
-598.055	-49.186	0.149	-0.072
-597.040	-5.521	-0.259	0.179
-596.025	-130.672	0.216	0.029
-595.011	-135.497	0.239	0.029
-593.996	-139.968	0.382	0.041
-592.982	-183.561	0.248	0.004
-591.967	4.181	-0.035	0.026
-590.952	92.892	0.270	-0.306
-589.938	135.617	-0.082	0.107
-588.923	146.941	0.129	0.175
-587.909	797.387	0.138	-0.383
-586.894	36.007	-0.101	-0.090
-585.879	-60.556	-0.358	0.153
-584.865	-200.000	-0.041	-0.188
-583.850	19.737	-0.250	-0.202
-582.836	-71.222	0.109	0.041
-581.821	39.952	0.130	0.117
-580.806	-153.553	0.254	-0.018
-579.792	440.533	0.076	0.167
-578.777	-119.868	-0.186	-0.032
-577.763	74.997	-0.111	0.118
-576.748	-200.000	-0.022	0.179
-575.733	22.628	0.247	-0.203
-574.719	-138.270	-0.325	-0.036
-573.704	44.780	-0.168	0.155
-572.690	-124.021	-0.285	0.045
-571.675	-200.000	-0.052	-0.238
-570.661	-166.853	-0.349	-0.014
-569.646	-17.516	0.306	0.193
-568.631	-37.252	-0.115	-0.062
-567.617	153.252	-0.295	-0.405
-566.602	-200.000	-0.039	0.240
-565.588	34.269	-0.251	-0.220
-564.573	-52.596	-0.104	-0.048
-563.558	262.926	0.167	0.291
-562.544	-18.766	-0.159	0.099
-561.529	18.650	-0.134	0.108
-560.515	-32.312	-0.148	-0.083
-559.500	-19.005	-0.289	0.181
-558.485	-147.358	0.140	-0.012
-557.471	72.477	-0.135	-0.141
-556.456	800.000	0.125	-0.399
-555.442	-118.833	-0.215	-0.038
-554.427	207.822	0.091	-0.143
-553.412	716.548	0.085	-0.227
-552.398	800.000	0.027	-0.113
-551.383	-47.743	0.414	-0.201
-550.369	-182.621	-0.268	-0.005
-549.354	-46.628	0.286	-0.140
-548.339	390.304	-0.206	-0.429
-547.325	-150.040	-0.285	-0.022
-546.310	-200.000	-0.009	0.311
-545.296	33.941	0.061	0.053
-544.281	-81.919	-0.252	-0.083
-543.266	-200.000	-0.020	-0.272
-542.252	-200.000	-0.042	-0.542
-541.237	140.024	0.334	-0.442
-540.223	25.997	-0.174	-0.146
-539.208	35.224	-0.072	-0.064
-538.193	-176.092	-0.202	0.005
-537.179	-164.343	0.083	-0.004
-536.164	403.680	-0.118	-0.249
-535.150	-98.905	-0.225	0.057
-534.135	233.563	-0.178	0.293
-533.121	81.118	0.180	-0.194
-532.106	-140.084	0.059	-0.006
-531.091	-89.314	-0.375	0.111
-530.077	-152.181	-0.057	-0.004
-529.062	-40.304	-0.065	-0.034
-528.048	-1.754	0.329	0.232
-527.033	-159.350	-0.375	-0.021
-526.018	214.967	0.123	0.196
-525.004	-87.680	-0.369	0.112
-523.989	-32.327	-0.067	-0.038
-522.975	237.586	-0.265	-0.441
-521.960	460.062	0.149	-0.333
-520.945	294.500	-0.151	0.276
-519.931	178.944	0.154	-0.225
-518.916	-44.758	-0.203	0.102
-517.902	-200.000	-0.027	-0.172
-516.887	139.364	-0.201	0.265
-515.872	96.747	0.030	0.035
-514.858	-81.283	-0.165	-0.055
-513.843	800.000	-0.044	0.156
-512.829	-167.242	-0.092	0.004
-511.814	42.801	0.161	0.147
-510.799	-200.000	0.005	0.200
-509.785	107.412	0.103	0.123
-508.770	-166.951	-0.080	0.003
-507.756	-145.743	-0.462	0.041
-506.741	129.934	0.057	0.072
-505.726	202.127	-0.137	0.212
-504.712	59.296	0.100	-0.098
-503.697	627.327	-0.031	-0.078
-502.683	57.119	-0.133	-0.129
-501.668	109.832	0.195	0.234
-500.653	-129.536	0.311	-0.043
-499.639	-81.347	0.280	0.092
-498.624	-130.010	-0.158	0.022
-497.610	-193.165	-0.135	-0.001
-496.595	449.751	0.166	-0.367
-495.581	800.000	0.071	-0.256
-494.566	-125.023	-0.190	-0.029
-493.551	56.005	0.066	0.064
-492.537	-200.000	-0.041	0.250
-491.522	-166.028	-0.052	0.002
-490.508	-151.069	0.264	0.020
-489.493	658.803	0.129	-0.332
-488.478	383.466	0.107	-0.220
-487.464	141.348	0.207	0.274
-486.449	-131.565	0.068	0.009
-485.435	374.838	-0.033	-0.067
-484.420	-107.881	0.307	0.067
-483.405	-200.000	-0.029	0.382
-482.391	-90.266	0.172	0.050
-481.376	-94.200	-0.166	0.045
-480.362	-47.797	-0.283	0.137
-479.347	199.099	-0.066	0.102
-478.332	153.829	0.176	-0.242
-477.318	-200.000	0.040	0.177
-476.303	-200.000	-0.016	-0.299
-475.289	-133.731	-0.111	0.014
-474.274	299.356	0.095	-0.175
-473.259	-86.595	-0.207	-0.063
-472.245	223.009	0.038	-0.061
-471.230	217.372	0.060	-0.095
-470.216	229.749	0.046	-0.076
-469.201	-200.000	-0.035	-0.178
-468.186	-39.022	-0.305	0.161
-467.172	296.098	0.113	0.206
-466.157	-200.000	-0.007	-0.139
-465.143	-39.789	0.113	0.059
-464.128	800.000	0.112	0.322
-463.113	-200.000	-0.007	0.422
-462.099	58.694	-0.066	-0.065
-461.084	-90.818	0.136	0.039
-460.070	-8.899	-0.156	-0.104
-459.055	621.516	-0.043	0.108
-458.040	-3.867	-0.283	0.196
-457.026	-200.000	-0.023	-0.104
-456.011	-110.290	0.288	-0.060
-454.997	26.362	-0.110	0.092
-453.982	800.000	-0.004	0.012
-452.968	83.779	0.089	0.097
-451.953	209.887	0.070	-0.109
-450.938	-99.954	-0.164	0.041
-449.924	26.196	-0.205	0.171
-448.909	-65.619	0.164	-0.066
-447.895	-200.000	-0.035	0.173
-446.880	120.117	-0.192	-0.238
-445.865	-200.000	0.018	0.134
-444.851	-200.000	0.017	0.133
-443.836	-200.000	0.015	0.119
-442.822	-132.089	0.202	-0.026
-441.807	100.250	-0.111	0.128
-440.792	-200.000	-0.025	0.219
-439.778	-54.764	-0.202	0.091
-438.763	288.156	-0.182	-0.330
-437.749	141.656	0.043	-0.057
-436.734	398.937	0.136	-0.285
-435.719	-200.000	0.014	0.287
-434.705	800.000	-0.077	0.293
-433.690	-200.000	0.020	-0.091
-432.676	755.639	-0.059	0.160
-431.661	-93.815	0.025	-0.007
-430.646	-75.310	0.200	-0.071
-429.632	-200.000	-0.040	-0.271
-428.617	704.876	0.052	-0.137
-427.603	-46.576	-0.136	-0.067
-426.588	-200.000	0.033	0.226
-425.573	45.234	0.203	0.187
-424.559	-200.000	0.026	-0.243
-423.544	-186.804	0.427	0.006
-422.530	-200.000	0.039	-0.499
-421.515	-134.496	0.240	0.029
-420.500	-200.000	-0.027	0.140
-419.486	68.705	0.081	0.083
-418.471	407.783	-0.107	0.227
-417.457	295.247	-0.091	0.166
-416.442	132.039	-0.104	-0.133
-415.428	-156.742	0.174	0.011
-414.413	-146.082	-0.064	-0.006
-413.398	102.305	-0.083	0.096
-412.384	-124.690	-0.323	-0.050
-411.369	-82.626	-0.422	-0.136
-410.355	800.000	-0.072	0.240
-409.340	-200.000	0.087	0.406
-408.325	533.515	-0.098	0.232
-407.311	-79.150	-0.450	0.152
-406.296	-93.516	-0.252	-0.069
-405.282	-162.673	-0.407	0.020
-404.267	-86.315	-0.141	0.043
-403.252	556.487	0.042	0.101
-402.238	800.000	-0.015	0.052
-401.223	28.078	0.049	0.041
-400.209	800.000	-0.050	0.161
-399.194	-140.198	0.136	0.014
-398.179	-47.529	-0.144	0.070
-397.165	800.000	0.070	-0.230
-396.150	182.473	-0.069	0.101
-395.136	201.645	0.122	-0.187
-394.121	-123.310	-0.245	0.039
-393.106	41.961	0.187	-0.169
-392.092	-152.849	0.317	0.022
-391.077	800.000	-0.081	-0.315
-390.063	-65.178	0.112	-0.045
-389.048	800.000	-0.060	0.173
-388.033	145.923	-0.189	0.253
-387.019	-200.000	-0.009	0.102
-386.004	-68.194	-0.216	-0.084
-384.990	0.632	0.161	0.115
-383.975	-110.924	-0.287	-0.059
-382.960	-10.616	-0.003	-0.002
-381.946	211.333	-0.219	-0.344
-380.931	337.472	-0.034	0.066
-379.917	20.990	0.435	0.352
-378.902	-200.000	-0.011	-0.133
-377.888	-26.062	0.265	-0.155
-376.873	800.000	-0.075	-0.269
-375.858	-200.000	0.045	-0.290
-374.844	39.958	-0.121	-0.109
-373.829	132.505	0.192	0.247
-372.815	-193.763	-0.155	-0.001
-371.800	-110.066	-0.402	-0.084
-370.785	142.172	-0.197	0.260
-369.771	490.766	0.075	0.171
-368.756	22.749	0.108	-0.088
-367.742	-86.905	-0.101	0.031
-366.727	-83.206	0.222	0.071
-365.712	-150.481	0.150	-0.011
-364.698	-104.314	0.177	0.041
-363.683	-200.000	-0.072	-0.383
-362.669	-83.065	0.302	0.097
-361.654	-200.000	-0.009	0.212
-360.639	302.745	0.070	-0.130
-359.625	-10.677	0.218	-0.143
-358.610	-93.070	-0.185	-0.051
-357.596	-94.069	0.439	0.120
-356.581	800.000	0.049	0.156
-355.566	-200.000	-0.033	0.239
-354.552	72.042	-0.186	-0.192
-353.537	617.561	0.028	-0.071
-352.523	-4.651	0.017	-0.012
-351.508	304.402	-0.154	0.284
-350.493	482.893	0.117	-0.264
-349.479	71.825	0.137	0.142
-348.464	-200.000	-0.017	0.167
-347.450	800.000	-0.038	0.163
-346.435	-184.962	-0.153	0.002
-345.420	-200.000	-0.001	-0.010
-344.406	-200.000	-0.015	0.076
-343.391	245.164	0.029	0.049
-342.377	-111.260	0.053	0.011
-341.362	35.476	0.122	-0.107
-340.348	-131.763	-0.307	0.040
-339.333	800.000	-0.056	0.168
-338.318	91.486	0.097	0.109
-337.304	-200.000	-0.021	-0.169
-336.289	57.041	-0.194	0.188
-335.275	459.455	-0.050	0.110
-334.260	89.629	0.272	0.302
-333.245	-142.486	0.267	-0.026
-332.231	-100.922	0.184	0.045
-331.216	12.169	0.279	-0.213
-330.202	-200.000	-0.000	-0.052
-329.187	-71.193	0.063	0.024
-328.172	93.535	0.089	0.100
-327.158	800.000	-0.160	0.501
-326.143	-24.256	-0.074	-0.044
-325.129	539.561	-0.141	-0.334
-324.114	321.466	0.089	-0.168
-323.099	-1.594	0.076	0.053
-322.085	109.360	0.106	0.126
-321.070	800.000	-0.056	0.191
-320.056	800.000	-0.062	0.200
-319.041	800.000	0.021	-0.067
-318.026	-200.000	-0.001	0.174
-317.012	-200.000	0.007	-0.088
-315.997	-200.000	0.005	-0.411
-314.983	800.000	-0.102	0.353
-313.968	224.901	-0.171	-0.274
-312.953	205.553	0.139	-0.214
-311.939	-200.000	0.002	0.238
-310.924	-53.200	-0.097	-0.044
-309.910	433.945	0.055	-0.118
-308.895	230.869	0.140	-0.228
-307.880	218.283	-0.209	0.332
-306.866	-27.939	0.234	0.135
-305.851	-200.000	0.006	0.080
-304.837	345.655	-0.073	0.143
-303.822	80.079	0.222	0.237
-302.807	-18.605	0.121	-0.075
-301.793	-136.180	-0.016	-0.002
-300.778	-114.892	-0.164	0.031
-299.764	-126.529	-0.225	0.033
-298.749	161.697	0.145	-0.202
-297.735	800.000	0.117	-0.398
-296.720	-63.767	-0.362	0.147
-295.705	-110.106	0.340	0.070
-294.691	-100.079	-0.101	-0.025
-293.676	-200.000	-0.047	0.308
-292.662	-200.000	0.038	0.216
-291.647	361.763	0.042	-0.083
-290.632	174.034	-0.166	0.237
-289.618	133.774	0.141	0.181
-288.603	-200.000	0.018	-0.145
-287.589	319.479	-0.069	0.130
-286.574	-165.871	-0.091	-0.004
-285.559	-83.622	0.106	0.034
-284.545	800.000	0.122	-0.366
-283.530	800.000	0.043	-0.137
-282.516	-169.974	0.209	0.007
-281.501	212.785	-0.105	0.164
-280.486	-154.102	-0.282	-0.019
-279.472	16.396	0.267	0.209
-278.457	-3.876	0.285	-0.196
-277.443	-200.000	-0.020	-0.161
-276.428	800.000	-0.014	-0.040
-275.413	9.888	0.340	-0.256
-274.399	116.690	0.030	-0.037
-273.384	-14.344	0.233	-0.149
-272.370	56.291	-0.141	0.136
-271.355	96.499	0.016	-0.018
-270.340	-200.000	0.031	-0.328
-269.326	-90.324	0.187	0.054
-268.311	42.871	0.173	-0.156
-267.297	54.036	-0.203	-0.193
-266.282	-200.000	-0.010	0.145
-265.267	265.701	0.199	0.345
-264.253	124.988	0.177	-0.221
-263.238	-87.020	-0.261	-0.079
-262.224	160.401	-0.165	0.229
-261.209	28.246	0.151	0.127
-260.195	-181.236	0.272	-0.005
-259.180	-200.000	0.009	0.123
-258.165	27.613	0.114	-0.095
-257.151	102.440	0.325	-0.376
-256.136	-2.044	0.115	-0.080
-255.122	-113.294	0.267	0.052
-254.107	-21.282	0.380	0.230
-253.092	-200.000	-0.039	0.183
-252.078	540.640	-0.033	-0.078
-251.063	474.722	-0.086	-0.193
-250.049	-141.857	0.058	-0.006
-249.034	-9.054	-0.094	0.062
-248.019	-17.450	0.208	0.130
-247.005	-132.267	-0.229	-0.029
-245.990	84.518	0.202	0.219
-244.976	-200.000	-0.000	0.020
-243.961	422.292	0.045	0.095
-242.946	-76.444	-0.186	0.065
-241.932	91.415	0.308	0.343
-240.917	38.796	0.253	0.224
-239.903	-198.340	-0.157	-0.001
-238.888	-24.969	-0.080	0.047
-237.873	-175.133	-0.060	-0.002
-236.859	63.082	-0.099	-0.099
-235.844	300.740	0.035	-0.064
-234.830	-89.071	-0.043	0.013
-233.815	122.124	0.085	0.105
-232.800	-200.000	-0.013	-0.145
-231.786	43.839	0.091	0.082
-230.771	-200.000	-0.011	-0.131
-229.757	-200.000	0.005	0.110
-228.742	32.891	-0.265	0.228
-227.727	450.249	0.187	0.410
-226.713	-33.871	0.214	-0.117
-225.698	-198.084	-0.179	-0.001
-224.684	477.656	0.116	0.260
-223.669	-107.153	-0.162	-0.035
-222.655	165.007	0.226	0.316
-221.640	-178.907	-0.271	0.006
-220.625	-1.573	-0.242	0.169
-219.611	-136.396	0.019	0.002
-218.596	-200.000	0.008	-0.225
-217.582	800.000	0.053	-0.187
-216.567	178.772	0.227	-0.328
-215.552	-64.335	-0.074	0.030
-214.538	717.591	-0.045	-0.118
-213.523	800.000	-0.064	-0.210
-212.509	-200.000	0.055	0.302
-211.494	800.000	-0.056	0.160
-210.479	800.000	-0.155	0.521
-209.465	107.225	-0.344	0.405
-208.450	-8.338	0.162	-0.108
-207.436	-200.000	0.007	-0.334
-206.421	-92.163	-0.270	-0.076
-205.406	-71.001	0.154	0.058
-204.392	2.958	0.124	-0.089
-203.377	95.031	0.161	0.181
-202.363	-190.618	-0.081	-0.001
-201.348	800.000	0.052	-0.178
-200.333	-84.753	-0.156	-0.048
-199.319	-50.416	-0.237	-0.111
-198.304	212.491	-0.159	-0.247
-197.290	-118.476	0.353	-0.062
-196.275	800.000	0.029	0.110
-195.260	-7.529	-0.089	-0.060
-194.246	-7.068	-0.125	0.084
-193.231	251.480	0.115	0.193
-192.217	22.483	0.168	-0.136
-191.202	-173.530	0.115	-0.003
-190.187	800.000	-0.084	-0.290
-189.173	173.136	0.196	0.279
-188.158	258.497	0.266	0.453
-187.144	-200.000	-0.062	-0.418
-186.129	39.002	-0.118	-0.104
-185.114	-60.363	-0.065	0.027
-184.100	-5.902	-0.202	-0.137
-183.085	334.319	-0.061	-0.117
-182.071	-17.121	-0.102	-0.063
-181.056	-52.725	0.099	-0.045
-180.042	-200.000	0.065	-0.290
-179.027	800.000	0.091	0.286
-178.012	481.859	0.086	-0.192
-176.998	190.063	0.142	-0.211
-175.983	-8.670	0.074	-0.049
-174.969	275.511	0.136	-0.238
-173.954	-66.350	0.355	0.139
-172.939	14.127	0.088	-0.068
-171.925	-142.380	-0.026	0.003
-170.910	-200.000	-0.069	0.322
-169.896	21.834	0.123	0.099
-168.881	72.673	0.010	0.011
-167.866	274.185	-0.119	0.208
-166.852	96.341	0.045	-0.051
-165.837	800.000	-0.063	0.206
-164.823	168.837	-0.091	-0.128
-163.808	-103.937	-0.267	0.062
-162.793	800.000	0.046	0.142
-161.779	800.000	-0.059	-0.164
-160.764	319.783	-0.038	0.072
-159.750	800.000	0.098	-0.302
-158.735	-200.000	-0.050	-0.244
-157.720	-103.292	0.200	-0.047
-156.706	-104.620	-0.409	-0.093
-155.691	119.804	0.060	0.073
-154.677	-87.675	0.067	0.020
-153.662	112.389	-0.144	0.172
-152.647	-99.979	-0.042	-0.010
-151.633	-200.000	0.036	-0.285
-150.618	-73.317	0.140	0.051
-149.604	-37.890	-0.148	-0.078
-148.589	107.151	0.151	-0.177
-147.574	-60.524	0.342	-0.143
-146.560	131.300	-0.124	0.157
-145.545	1.563	-0.220	0.156
-144.531	44.313	0.083	0.076
-143.516	95.978	-0.280	-0.315
-142.502	120.846	-0.123	0.151
-141.487	-42.025	0.242	-0.122
-140.472	800.000	0.078	0.334
-139.458	-4.295	0.161	-0.110
-138.443	0.901	-0.306	0.217
-137.429	800.000	-0.054	0.197
-136.414	-200.000	0.011	-0.069
-135.399	793.388	0.045	0.123
-134.385	-45.912	0.318	0.155
-133.370	-200.000	-0.025	0.165
-132.356	523.381	-0.177	-0.410
-131.341	-79.028	0.358	0.120
-130.326	-20.160	-0.068	-0.041
-129.312	-24.130	0.240	0.142
-128.297	-12.435	-0.228	0.147
-127.283	71.924	0.142	0.146
-126.268	218.511	0.121	-0.190
-125.253	23.614	0.118	0.096
-124.239	-1.651	-0.302	-0.210
-123.224	-52.998	0.297	-0.135
-122.210	484.409	0.171	-0.383
-121.195	-80.573	0.273	0.090
