DTS Sentinel unit serial number:	SN413079Multiplexer serial number:	ORYXHardware model number:	OX4-SRSoftware version number:	ORYX F/W v4.00 Oryx Data Collector v3.7.2.0data status	okinstallation	princeton_trtdifferential loss correction	single-endedforward channel	channel 2reverse channel	N/Adate	2019/09/18time	14:15:35forward acquisition time	60.00reverse acquisition time	0.00gamma	496.2192k internal	0.2318k external	0.2318temperature offset calibration	1.0002default loss term (dB/km)	0.3790temperature slope calibration	1.0000multiplexer offset coefficient	1.0000multiplexer slope coefficient	1.0000fibre end	0.00T internal ref (°C)	34.31T ext. ref 1 (°C)	0.67T ext. ref 2 (°C)	29.16length (m)	temperature (°C)	Stokes	anti-Stokes-747.200	-200.000	0.015	-0.149
-746.185	-200.000	-0.059	-0.386
-745.171	353.016	0.032	0.063
-744.156	372.818	0.083	0.171
-743.142	-144.279	0.377	0.036
-742.127	-103.374	0.051	-0.012
-741.112	-200.000	-0.024	0.189
-740.098	800.000	0.147	0.587
-739.083	-3.659	0.081	0.057
-738.069	800.000	-0.054	0.163
-737.054	800.000	-0.061	-0.252
-736.039	-155.802	-0.040	0.003
-735.025	-134.535	0.284	0.035
-734.010	653.563	-0.157	-0.407
-732.996	-200.000	-0.022	0.264
-731.981	-88.763	-0.255	-0.077
-730.966	7.491	-0.148	0.112
-729.952	27.485	-0.139	0.118
-728.937	22.185	-0.117	0.096
-727.923	78.272	-0.065	0.070
-726.908	-200.000	0.000	-0.054
-725.894	214.645	0.153	0.246
-724.879	-84.515	-0.125	-0.040
-723.864	-125.473	-0.388	-0.060
-722.850	587.567	0.111	0.275
-721.835	199.189	0.138	-0.214
-720.821	-200.000	-0.079	-0.366
-719.806	-10.323	0.211	-0.141
-718.791	-70.139	-0.147	0.057
-717.777	-111.467	-0.262	-0.054
-716.762	722.825	-0.042	0.113
-715.748	129.407	0.183	-0.236
-714.733	-83.034	-0.204	-0.066
-713.718	216.110	-0.139	-0.224
-712.704	-200.000	-0.019	0.287
-711.689	91.541	0.170	-0.193
-710.675	59.644	-0.087	-0.087
-709.660	-83.686	0.209	0.067
-708.645	800.000	0.061	-0.232
-707.631	-200.000	0.051	-0.395
-706.616	23.357	-0.158	-0.131
-705.602	-64.109	0.330	-0.136
-704.587	25.777	0.168	-0.141
-703.572	-12.946	0.188	0.123
-702.558	301.215	0.092	-0.172
-701.543	800.000	-0.102	-0.289
-700.529	-77.528	-0.093	0.033
-699.514	-200.000	-0.008	-0.233
-698.499	117.707	0.165	-0.205
-697.485	-102.674	0.261	-0.063
-696.470	187.849	-0.231	0.348
-695.456	-75.059	-0.193	-0.070
-694.441	125.989	0.234	0.299
-693.426	92.167	0.001	0.001
-692.412	-102.451	0.219	0.053
-691.397	-46.430	-0.195	-0.097
-690.383	-200.000	0.007	-0.068
-689.368	159.361	-0.065	0.091
-688.354	563.099	0.024	0.058
-687.339	-138.711	-0.348	-0.038
-686.324	800.000	-0.049	-0.191
-685.310	274.906	-0.209	-0.373
-684.295	35.166	-0.248	-0.220
-683.281	-200.000	0.003	0.082
-682.266	-200.000	-0.073	-0.329
-681.251	-149.288	0.024	0.002
-680.237	-200.000	-0.034	0.391
-679.222	57.593	0.111	-0.109
-678.208	-22.104	-0.331	-0.203
-677.193	-200.000	0.024	0.197
-676.178	-82.489	-0.204	-0.067
-675.164	-156.175	0.275	-0.017
-674.149	-29.396	0.095	0.055
-673.135	-59.941	-0.023	0.010
-672.120	121.853	0.140	0.177
-671.105	-132.494	0.069	-0.009
-670.091	-200.000	-0.060	-0.333
-669.076	-200.000	-0.007	-0.054
-668.062	-127.146	-0.246	0.036
-667.047	-34.738	-0.164	0.091
-666.032	-5.165	-0.233	-0.162
-665.018	-200.000	0.010	-0.059
-664.003	-200.000	-0.029	-0.185
-662.989	285.031	0.069	0.126
-661.974	-13.120	0.171	-0.112
-660.959	-140.544	-0.135	0.014
-659.945	-200.000	0.006	0.093
-658.930	-200.000	-0.074	-0.338
-657.916	-200.000	-0.025	0.368
-656.901	64.907	-0.207	-0.211
-655.886	800.000	-0.112	-0.396
-654.872	-200.000	0.031	0.218
-653.857	-101.893	-0.353	-0.086
-652.843	540.746	0.131	-0.315
-651.828	-62.531	-0.185	-0.078
-650.814	-148.158	-0.635	-0.053
-649.799	-10.383	-0.179	-0.120
-648.784	800.000	0.086	-0.264
-647.770	98.221	-0.069	-0.080
-646.755	-78.760	-0.170	0.058
-645.741	-17.836	-0.198	0.125
-644.726	-200.000	0.000	-0.174
-643.711	-200.000	-0.037	0.311
-642.697	-200.000	0.002	-0.070
-641.682	800.000	-0.017	-0.049
-640.668	-87.058	0.426	-0.131
-639.653	-126.082	0.481	0.073
-638.638	-81.648	-0.070	0.023
-637.624	-152.240	-0.081	0.006
-636.609	-200.000	-0.004	0.234
-635.595	40.892	0.056	-0.051
-634.580	-128.784	-0.240	-0.034
-633.565	800.000	0.037	-0.137
-632.551	228.328	-0.144	-0.237
-631.536	-200.000	0.009	0.082
-630.522	-84.748	-0.351	-0.111
-629.507	-73.033	0.289	-0.107
-628.492	48.778	-0.206	-0.195
-627.478	88.233	0.295	-0.330
-626.463	-103.895	0.156	-0.037
-625.449	-9.221	-0.371	-0.250
-624.434	100.318	-0.157	-0.183
-623.419	-31.947	-0.298	0.168
-622.405	293.839	-0.011	-0.020
-621.390	-100.111	0.260	0.065
-620.376	-200.000	0.036	0.311
-619.361	213.501	-0.252	-0.401
-618.346	-62.139	0.432	-0.182
-617.332	800.000	0.080	-0.259
-616.317	234.401	0.004	-0.006
-615.303	-48.448	0.103	-0.050
-614.288	-200.000	0.013	-0.060
-613.273	-200.000	-0.002	-0.188
-612.259	-13.248	0.091	0.059
-611.244	84.606	-0.197	-0.217
-610.230	-100.219	0.362	0.091
-609.215	-112.259	-0.298	0.060
-608.201	334.157	0.146	-0.284
-607.186	64.178	-0.264	-0.268
-606.171	81.874	-0.148	0.162
-605.157	-200.000	0.016	0.300
-604.142	308.955	0.179	0.336
-603.128	-89.019	-0.225	0.067
-602.113	336.906	-0.100	0.195
-601.098	15.763	-0.171	0.135
-600.084	140.141	0.071	-0.094
-599.069	538.253	0.064	0.153
-598.055	-79.597	0.162	-0.055
-597.040	115.089	-0.080	-0.098
-596.025	-0.030	-0.183	0.131
-595.011	-65.824	-0.158	-0.064
-593.996	580.339	0.085	-0.209
-592.982	198.668	0.124	-0.191
-591.967	199.390	0.085	-0.130
-590.952	-2.495	-0.178	-0.125
-589.938	-200.000	-0.000	-0.018
-588.923	-83.530	-0.102	-0.033
-587.909	800.000	0.078	0.311
-586.894	161.501	0.142	-0.200
-585.879	330.438	-0.158	0.306
-584.865	-93.574	-0.212	0.059
-583.850	48.746	0.080	0.075
-582.836	800.000	0.033	-0.114
-581.821	-51.353	0.393	0.185
-580.806	108.844	0.255	0.306
-579.792	259.066	0.094	0.164
-578.777	236.834	0.188	0.312
-577.763	-200.000	-0.007	-0.316
-576.748	-125.271	-0.353	0.054
-575.733	-122.412	-0.248	-0.041
-574.719	-200.000	0.007	0.121
-573.704	800.000	0.023	-0.083
-572.690	800.000	0.034	-0.114
-571.675	54.242	0.093	0.090
-570.661	646.196	0.092	-0.236
-569.646	-159.871	-0.324	0.018
-568.631	16.225	-0.247	0.196
-567.617	430.897	-0.111	0.241
-566.602	-69.033	-0.107	0.042
-565.588	-105.841	-0.204	-0.046
-564.573	800.000	0.102	-0.341
-563.558	-57.330	-0.052	-0.023
-562.544	-34.682	-0.115	0.063
-561.529	-200.000	0.024	0.144
-560.515	-79.096	-0.260	0.089
-559.500	69.291	0.099	0.103
-558.485	80.961	0.136	-0.147
-557.471	-200.000	0.007	0.088
-556.456	-16.121	0.222	-0.142
-555.442	297.764	-0.054	0.100
-554.427	-14.009	0.115	-0.075
-553.412	294.808	-0.103	0.190
-552.398	169.235	0.068	0.097
-551.383	-12.741	0.169	-0.111
-550.369	-99.848	-0.121	0.030
-549.354	-11.122	-0.246	0.163
-548.339	49.072	0.210	-0.198
-547.325	306.267	-0.170	-0.318
-546.310	-198.190	0.153	-0.001
-545.296	333.376	-0.036	0.070
-544.281	-11.683	0.173	-0.114
-543.266	-200.000	-0.002	-0.097
-542.252	-200.000	0.000	-0.292
-541.237	30.453	0.167	-0.144
-540.223	545.261	-0.082	-0.197
-539.208	-88.237	-0.072	-0.022
-538.193	800.000	0.044	-0.178
-537.179	-200.000	-0.024	-0.284
-536.164	473.846	-0.072	0.162
-535.150	-169.694	-0.209	0.008
-534.135	65.772	-0.061	0.062
-533.121	24.757	-0.153	0.127
-532.106	800.000	-0.146	0.513
-531.091	800.000	-0.092	-0.385
-530.077	57.841	-0.139	0.136
-529.062	-200.000	0.043	0.286
-528.048	51.283	-0.028	0.027
-527.033	611.423	-0.109	0.274
-526.018	-37.765	0.096	-0.051
-525.004	69.821	-0.103	0.107
-523.989	215.806	0.284	-0.453
-522.975	84.512	0.147	-0.162
-521.960	710.761	0.076	0.203
-520.945	-200.000	0.061	0.289
-519.931	-111.808	0.094	-0.019
-518.916	-57.972	0.094	0.041
-517.902	115.861	-0.135	-0.165
-516.887	-113.330	-0.126	-0.025
-515.872	-63.749	0.218	0.089
-514.858	-64.645	-0.394	0.160
-513.843	41.757	0.178	0.162
-512.829	-200.000	-0.009	0.256
-511.814	386.119	0.169	-0.350
-510.799	-46.803	0.477	0.234
-509.785	245.575	-0.156	0.264
-508.770	-200.000	-0.034	-0.302
-507.756	-181.933	-0.163	0.003
-506.741	144.671	0.204	-0.274
-505.726	219.877	0.080	0.129
-504.712	800.000	0.078	0.220
-503.697	800.000	-0.085	0.263
-502.683	101.002	-0.058	-0.067
-501.668	225.350	0.027	-0.044
-500.653	-74.444	0.058	0.021
-499.639	139.076	-0.136	0.180
-498.624	16.673	-0.134	-0.106
-497.610	-167.184	-0.055	-0.002
-496.595	-200.000	-0.004	-0.025
-495.581	587.569	0.085	-0.211
-494.566	-200.000	0.108	-0.000
-493.551	800.000	-0.047	-0.142
-492.537	74.126	-0.121	-0.128
-491.522	-170.982	0.208	0.007
-490.508	-26.106	0.062	0.037
-489.493	-119.093	-0.201	-0.035
-488.478	-200.000	0.038	-0.187
-487.464	-200.000	-0.025	-0.498
-486.449	-9.078	-0.141	-0.094
-485.435	-39.034	0.117	0.062
-484.420	-200.000	0.047	0.465
-483.405	-69.647	0.197	0.076
-482.391	434.652	0.081	-0.177
-481.376	800.000	-0.087	-0.323
-480.362	-200.000	0.031	-0.241
-479.347	-99.751	-0.225	-0.057
-478.332	800.000	0.079	-0.231
-477.318	109.976	0.171	0.205
-476.303	93.918	0.183	0.208
-475.289	16.528	0.193	0.153
-474.274	11.689	-0.251	-0.193
-473.259	-200.000	-0.047	-0.334
-472.245	-137.222	0.391	0.045
-471.230	-200.000	-0.030	0.178
-470.216	800.000	-0.026	-0.104
-469.201	31.066	-0.146	0.125
-468.186	-200.000	-0.385	0.000
-467.172	-200.000	0.051	0.242
-466.157	800.000	0.026	-0.088
-465.143	-60.179	0.338	0.144
-464.128	-127.242	-0.060	0.009
-463.113	247.731	-0.007	0.012
-462.099	109.870	0.065	-0.078
-461.084	-66.417	0.104	-0.041
-460.070	-159.751	-0.225	-0.012
-459.055	561.291	-0.138	0.335
-458.040	-200.000	-0.026	0.219
-457.026	-91.885	0.031	0.009
-456.011	-200.000	-0.038	0.271
-454.997	-42.020	0.210	0.107
-453.982	-23.736	-0.239	0.143
-452.968	442.810	-0.127	0.278
-451.953	-24.737	-0.220	-0.131
-450.938	-200.000	-0.009	-0.053
-449.924	13.886	0.076	-0.059
-448.909	25.846	0.224	0.187
-447.895	409.801	-0.021	0.044
-446.880	-200.000	0.009	-0.075
-445.865	321.508	0.132	-0.251
-444.851	800.000	-0.072	0.216
-443.836	800.000	-0.055	-0.155
-442.822	-81.478	-0.289	-0.095
-441.807	-17.101	0.226	-0.143
-440.792	-8.597	-0.123	0.083
-439.778	1.224	-0.152	0.109
-438.763	398.741	-0.028	-0.058
-437.749	-133.762	0.077	0.010
-436.734	-112.770	0.195	0.039
-435.719	138.883	-0.126	-0.166
-434.705	-60.602	0.143	-0.061
-433.690	-89.559	-0.203	0.060
-432.676	209.369	0.060	-0.094
-431.661	77.492	0.115	0.122
-430.646	-37.277	-0.270	0.144
-429.632	-200.000	0.039	0.214
-428.617	264.711	0.065	-0.113
-427.603	90.576	0.165	-0.185
-426.588	-200.000	0.076	-0.390
-425.573	-24.866	0.091	0.054
-424.559	-48.809	-0.249	0.120
-423.544	800.000	-0.044	-0.180
-422.530	-42.027	-0.155	-0.080
-421.515	-20.187	-0.290	-0.178
-420.500	223.985	0.246	0.396
-419.486	178.261	0.203	-0.296
-418.471	800.000	-0.101	-0.310
-417.457	-131.252	0.154	-0.020
-416.442	-200.000	-0.009	0.307
-415.428	130.192	-0.085	-0.108
-414.413	645.635	-0.081	0.208
-413.398	800.000	0.023	-0.093
-412.384	-200.000	-0.005	-0.261
-411.369	-143.890	0.319	-0.030
-410.355	800.000	-0.097	-0.291
-409.340	223.684	-0.108	-0.174
-408.325	334.850	-0.047	0.092
-407.311	-200.000	0.002	-0.092
-406.296	-200.000	0.013	0.087
-405.282	-28.325	-0.170	0.098
-404.267	-36.035	0.287	0.155
-403.252	-125.542	0.199	0.030
-402.238	84.661	-0.266	0.291
-401.223	31.971	-0.270	0.232
-400.209	-0.117	-0.128	-0.091
-399.194	28.875	-0.045	-0.038
-398.179	411.041	0.153	0.323
-397.165	-200.000	0.010	-0.098
-396.150	25.923	0.193	-0.161
-395.136	-50.568	-0.313	0.147
-394.121	-68.562	0.047	-0.018
-393.106	35.404	-0.143	0.126
-392.092	-115.675	-0.045	-0.008
-391.077	-101.783	0.320	-0.077
-390.063	-200.000	0.007	0.072
-389.048	-200.000	0.026	-0.180
-388.033	107.635	-0.133	-0.158
-387.019	68.713	0.215	-0.220
-386.004	-99.438	0.266	-0.067
-384.990	30.732	-0.010	-0.008
-383.975	-72.438	-0.120	-0.044
-382.960	-38.776	-0.057	-0.030
-381.946	-62.806	0.073	0.030
-380.931	-93.601	0.357	-0.098
-379.917	89.325	-0.218	-0.242
-378.902	196.041	-0.196	0.297
-377.888	22.756	-0.050	-0.041
-376.873	291.800	0.062	0.113
-375.858	118.992	0.124	-0.153
-374.844	-200.000	-0.000	-0.207
-373.829	-200.000	0.003	0.170
-372.815	-21.600	-0.218	0.132
-371.800	370.207	-0.081	-0.164
-370.785	-200.000	0.046	0.310
-369.771	-200.000	-0.062	-0.346
-368.756	163.091	0.195	-0.273
-367.742	-200.000	0.064	0.307
-366.727	-129.918	-0.163	-0.022
-365.712	-32.173	-0.247	0.138
-364.698	800.000	-0.015	-0.046
-363.683	277.522	0.098	0.173
-362.669	-200.000	0.082	0.445
-361.654	576.859	-0.080	-0.194
-360.639	800.000	-0.018	0.057
-359.625	-66.521	-0.151	0.060
-358.610	134.541	0.238	0.308
-357.596	-39.689	-0.119	-0.062
-356.581	317.004	0.064	0.121
-355.566	-65.823	0.199	-0.079
-354.552	316.353	-0.122	-0.229
-353.537	21.994	0.183	0.148
-352.523	-27.767	-0.178	-0.103
-351.508	353.278	0.174	0.345
-350.493	50.255	-0.149	0.141
-349.479	752.386	-0.136	0.367
-348.464	-200.000	-0.024	-0.223
-347.450	-74.447	0.275	0.099
-346.435	-26.322	-0.080	-0.047
-345.420	-122.656	0.212	-0.034
-344.406	494.630	0.092	-0.209
-343.391	-93.766	-0.149	-0.041
-342.377	184.078	0.163	-0.240
-341.362	-70.345	0.245	0.093
-340.348	93.428	0.126	-0.142
-339.333	458.399	-0.035	0.077
-338.318	-100.332	-0.144	0.036
-337.304	302.240	0.112	0.207
-336.289	-144.532	-0.199	-0.018
-335.275	-200.000	-0.052	-0.316
-334.260	-200.000	0.056	0.271
-333.245	322.180	-0.098	-0.186
-332.231	-151.134	-0.435	0.033
-331.216	64.633	0.175	-0.176
-330.202	-200.000	-0.040	-0.271
-329.187	-200.000	-0.044	-0.312
-328.172	-145.675	-0.286	0.025
-327.158	568.743	0.146	-0.352
-326.143	24.145	0.200	-0.164
-325.129	-87.077	-0.171	-0.052
-324.114	76.029	-0.199	-0.210
-323.099	-156.150	-0.454	0.028
-322.085	-200.000	0.001	-0.138
-321.070	800.000	0.040	-0.164
-320.056	463.287	-0.027	-0.059
-319.041	-51.650	-0.231	-0.107
-318.026	-109.005	0.333	0.071
-317.012	463.527	0.034	-0.075
-315.997	-200.000	0.014	0.301
-314.983	-47.337	-0.090	0.044
-313.968	800.000	0.041	-0.117
-312.953	800.000	-0.041	0.133
-311.939	112.529	0.044	-0.052
-310.924	-135.501	0.412	-0.049
-309.910	-90.838	0.261	-0.075
-308.895	-198.124	0.074	0.000
-307.880	-81.299	0.322	-0.106
-306.866	800.000	-0.001	-0.003
-305.851	230.070	-0.035	0.056
-304.837	14.802	0.338	0.263
-303.822	-50.119	-0.028	-0.013
-302.807	489.390	-0.162	-0.368
-301.793	450.041	0.029	-0.064
-300.778	-108.713	-0.421	0.090
-299.764	110.892	0.213	0.256
-298.749	-165.575	-0.312	-0.014
-297.735	-19.057	-0.092	0.057
-296.720	-83.863	0.499	0.158
-295.705	25.661	-0.117	0.097
-294.691	-200.000	-0.041	0.198
-293.676	-63.966	-0.371	0.151
-292.662	-8.746	-0.020	0.013
-291.647	-200.000	0.058	-0.324
-290.632	-73.911	0.217	-0.078
-289.618	-200.000	-0.079	0.411
-288.603	-200.000	0.027	0.205
-287.589	800.000	-0.140	-0.439
-286.574	-129.848	-0.262	0.036
-285.559	-153.374	0.061	0.004
-284.545	796.515	-0.033	-0.089
-283.530	28.565	0.131	0.110
-282.516	-200.000	0.044	-0.339
-281.501	-110.645	-0.337	-0.069
-280.486	661.626	0.091	0.234
-279.472	90.391	0.160	-0.178
-278.457	432.502	-0.042	-0.091
-277.443	-200.000	0.001	0.067
-276.428	689.297	0.108	0.282
-275.413	5.597	-0.086	-0.063
-274.399	25.678	0.178	-0.147
-273.384	-200.000	-0.035	0.157
-272.370	-84.427	-0.156	0.049
-271.355	-26.693	0.239	0.139
-270.340	-112.190	-0.236	0.047
-269.326	800.000	-0.073	-0.239
-268.311	260.381	0.116	0.199
-267.297	42.364	0.158	0.143
-266.282	81.353	-0.346	0.371
-265.267	106.794	-0.199	-0.235
-264.253	6.751	-0.054	0.040
-263.238	456.186	0.127	0.280
-262.224	-127.353	0.175	0.025
-261.209	-136.349	-0.134	0.015
-260.195	-139.569	-0.197	-0.021
-259.180	800.000	0.075	0.247
-258.165	710.945	0.112	0.295
-257.151	-5.303	-0.110	-0.075
-256.136	-0.636	-0.145	0.102
-255.122	-108.442	0.278	0.059
-254.107	693.440	-0.033	0.085
-253.092	-114.182	0.218	0.042
-252.078	433.962	-0.095	0.205
-251.063	-59.941	-0.277	0.118
-250.049	-200.000	0.085	0.372
-249.034	133.120	-0.045	0.057
-248.019	-12.874	-0.455	0.294
-247.005	746.168	-0.031	0.083
-245.990	760.130	0.079	0.212
-244.976	-48.793	-0.024	0.011
-243.961	754.486	0.093	0.249
-242.946	-45.257	0.208	0.102
-241.932	776.009	0.115	0.312
-240.917	800.000	-0.134	-0.397
-239.903	83.601	-0.185	-0.200
-238.888	53.433	0.095	-0.090
-237.873	398.525	0.052	0.107
-236.859	-70.823	0.141	-0.053
-235.844	800.000	0.026	-0.078
-234.830	609.336	-0.123	-0.304
-233.815	800.000	0.056	-0.174
-232.800	394.748	-0.162	0.335
-231.786	-132.149	-0.167	-0.022
-230.771	73.118	0.268	0.277
-229.757	800.000	0.121	-0.457
-228.742	115.653	-0.084	-0.102
-227.727	2.411	0.260	-0.187
-226.713	-30.841	0.133	0.075
-225.698	-100.348	0.247	-0.061
-224.684	166.565	0.034	-0.047
-223.669	-200.000	0.041	-0.268
-222.655	-97.822	0.277	-0.071
-221.640	-116.866	-0.097	-0.018
-220.625	53.757	-0.157	-0.149
-219.611	-200.000	0.040	0.353
-218.596	40.763	-0.062	-0.056
-217.582	365.352	-0.036	0.071
-216.567	45.688	0.074	-0.068
-215.552	-59.640	-0.092	-0.039
-214.538	474.674	0.073	0.162
-213.523	4.908	-0.163	0.119
-212.509	800.000	0.027	0.104
-211.494	-189.449	-0.153	0.002
-210.479	166.692	-0.077	-0.108
-209.465	98.444	-0.276	0.316
-208.450	-200.000	0.002	-0.072
-207.436	-40.523	-0.321	-0.165
-206.421	-200.000	0.065	0.295
-205.406	-200.000	-0.020	0.105
-204.392	800.000	-0.063	0.198
-203.377	121.968	-0.215	-0.265
-202.363	-11.935	0.110	-0.072
-201.348	1.915	0.242	0.173
-200.333	-200.000	0.011	0.060
-199.319	-92.309	-0.227	0.063
-198.304	-124.882	0.160	0.025
-197.290	-3.854	-0.179	-0.123
-196.275	384.100	0.071	-0.146
-195.260	-88.226	0.301	-0.089
-194.246	27.579	-0.388	0.324
-193.231	290.927	0.211	-0.381
-192.217	35.248	0.182	0.158
-191.202	-20.053	0.390	-0.238
-190.187	544.563	0.078	-0.184
-189.173	160.305	0.079	0.109
-188.158	-75.686	0.292	-0.102
-187.144	-151.787	0.253	-0.018
-186.129	-110.759	-0.266	-0.054
-185.114	296.372	0.092	-0.166
-184.100	-200.000	0.033	0.173
-183.085	188.518	0.179	-0.265
-182.071	-200.000	-0.016	-0.322
-181.056	-78.078	0.073	-0.025
-180.042	-200.000	0.047	0.225
-179.027	140.817	0.137	0.179
-178.012	-8.603	0.235	0.156
-176.998	151.965	0.179	0.241
-175.983	187.513	-0.171	0.252
-174.969	-200.000	0.045	-0.420
-173.954	53.087	0.183	-0.174
-172.939	8.658	-0.184	0.137
-171.925	19.527	0.151	0.120
-170.910	-116.350	0.331	-0.061
-169.896	252.819	0.087	0.146
-168.881	101.171	0.167	0.192
-167.866	-78.195	0.212	0.072
-166.852	-13.578	-0.318	0.204
-165.837	-38.639	-0.166	-0.087
-164.823	536.851	0.091	-0.213
-163.808	-196.635	-0.017	-0.000
-162.793	-200.000	-0.020	-0.168
-161.779	644.473	-0.010	-0.025
-160.764	-42.056	0.130	-0.066
-159.750	-92.682	-0.383	0.106
-158.735	-82.291	0.270	0.087
-157.720	136.185	-0.184	0.237
-156.706	800.000	0.049	-0.169
-155.691	75.529	-0.029	-0.030
-154.677	460.815	-0.080	0.177
-153.662	17.316	0.056	-0.044
-152.647	-189.953	-0.266	0.003
-151.633	52.367	0.060	-0.057
-150.618	286.835	0.169	0.303
-149.604	-84.378	0.079	0.025
-148.589	119.049	0.234	0.286
-147.574	-69.008	-0.299	-0.114
-146.560	-174.426	0.141	-0.004
-145.545	-200.000	-0.005	0.066
-144.531	37.275	-0.084	0.073
-143.516	147.760	0.206	0.275
-142.502	23.355	-0.199	0.162
-141.487	-132.666	0.058	-0.007
-140.472	-200.000	0.029	0.284
-139.458	-100.569	0.018	-0.004
-138.443	-200.000	0.083	0.468
-137.429	13.485	0.411	0.315
-136.414	208.351	-0.085	0.131
-135.399	13.910	0.242	-0.186
-134.385	800.000	0.152	-0.446
-133.370	62.225	-0.063	0.062
-132.356	-110.210	-0.372	0.077
-131.341	211.837	-0.115	-0.178
-130.326	800.000	-0.030	0.126
-129.312	-81.544	-0.154	0.050
-128.297	-200.000	-0.024	0.194
-127.283	51.748	0.205	-0.192
-126.268	-143.565	0.193	-0.018
-125.253	527.350	0.139	0.324
-124.239	800.000	-0.048	0.187
-123.224	-37.420	-0.020	0.010
-122.210	-83.819	-0.211	0.066
-121.195	-54.935	0.303	-0.135
