DTS Sentinel unit serial number:	SN413079Multiplexer serial number:	ORYXHardware model number:	OX4-SRSoftware version number:	ORYX F/W v4.00 Oryx Data Collector v3.7.2.0data status	okinstallation	princeton_trtdifferential loss correction	single-endedforward channel	channel 2reverse channel	N/Adate	2019/09/18time	02:43:35forward acquisition time	60.00reverse acquisition time	0.00gamma	496.2192k internal	0.2350k external	0.2350temperature offset calibration	0.9982default loss term (dB/km)	0.3790temperature slope calibration	1.0000multiplexer offset coefficient	1.0000multiplexer slope coefficient	1.0000fibre end	0.00T internal ref (°C)	22.80T ext. ref 1 (°C)	0.16T ext. ref 2 (°C)	16.61length (m)	temperature (°C)	Stokes	anti-Stokes-747.200	-200.000	-0.006	0.062
-746.185	225.765	-0.244	0.394
-745.171	384.651	0.170	0.350
-744.156	47.283	-0.086	0.080
-743.142	800.000	-0.056	-0.173
-742.127	-200.000	-0.120	0.533
-741.112	-133.966	0.332	0.041
-740.098	-157.189	-0.177	-0.011
-739.083	-133.954	0.430	0.053
-738.069	-200.000	-0.001	0.022
-737.054	-135.019	-0.115	0.014
-736.039	108.069	-0.233	-0.277
-735.025	-163.977	0.147	0.007
-734.010	800.000	0.058	0.162
-732.996	33.123	0.185	0.160
-731.981	-200.000	-0.013	0.098
-730.966	160.779	0.190	-0.265
-729.952	-76.106	-0.079	0.028
-728.937	-107.850	-0.286	-0.062
-727.923	-72.348	-0.394	-0.146
-726.908	-192.620	-0.208	0.002
-725.894	800.000	-0.027	0.076
-724.879	422.462	-0.087	-0.186
-723.864	-4.426	0.195	0.134
-722.850	-4.633	-0.056	0.038
-721.835	23.580	-0.394	-0.323
-720.821	191.024	0.030	0.046
-719.806	-118.281	0.228	-0.040
-718.791	-200.000	0.035	-0.491
-717.777	-200.000	0.062	-0.301
-716.762	-112.373	-0.340	-0.068
-715.748	-52.825	0.304	-0.140
-714.733	81.656	-0.076	-0.082
-713.718	-42.416	-0.408	0.208
-712.704	-113.378	-0.373	-0.073
-711.689	-40.531	-0.358	0.185
-710.675	-57.874	-0.184	0.080
-709.660	-74.153	0.278	0.100
-708.645	800.000	-0.011	-0.045
-707.631	800.000	0.083	-0.295
-706.616	92.369	-0.244	-0.274
-705.602	-108.433	-0.035	0.008
-704.587	-118.504	0.380	-0.067
-703.572	29.244	0.175	-0.148
-702.558	64.229	-0.114	-0.114
-701.543	-87.881	-0.149	0.045
-700.529	-112.046	-0.129	0.026
-699.514	105.316	-0.066	-0.078
-698.499	-62.784	-0.129	-0.053
-697.485	-121.747	-0.307	0.051
-696.470	-56.951	0.116	-0.051
-695.456	11.302	0.230	0.176
-694.441	249.751	0.061	0.103
-693.426	-75.508	0.161	0.057
-692.412	-101.883	-0.411	-0.099
-691.397	597.469	-0.025	-0.061
-690.383	322.398	-0.107	0.203
-689.368	506.163	-0.087	0.201
-688.354	130.224	0.113	0.144
-687.339	-98.337	0.160	-0.041
-686.324	242.543	0.159	-0.265
-685.310	-13.388	-0.049	-0.032
-684.295	-67.721	-0.378	-0.147
-683.281	-68.539	0.176	0.068
-682.266	216.595	0.094	0.149
-681.251	-86.874	-0.297	0.090
-680.237	0.066	0.088	-0.062
-679.222	-200.000	0.005	-0.084
-678.208	515.796	0.037	-0.087
-677.193	-156.621	-0.172	0.011
-676.178	-200.000	0.080	-0.591
-675.164	-32.432	-0.319	-0.177
-674.149	224.188	0.088	-0.141
-673.135	14.532	-0.080	0.062
-672.120	-200.000	0.011	-0.314
-671.105	86.866	-0.212	-0.233
-670.091	-117.679	-0.085	-0.015
-669.076	145.137	0.123	0.163
-668.062	-135.754	-0.295	0.035
-667.047	200.916	-0.063	-0.097
-666.032	-78.621	-0.292	-0.099
-665.018	122.112	0.042	-0.052
-664.003	-113.998	-0.275	-0.053
-662.989	-30.165	-0.059	0.034
-661.974	-75.269	0.264	-0.094
-660.959	139.525	0.079	-0.103
-659.945	265.947	0.012	-0.020
-658.930	-90.152	-0.325	-0.094
-657.916	-13.661	0.048	-0.031
-656.901	155.332	0.121	-0.166
-655.886	435.500	0.078	-0.168
-654.872	372.056	0.047	0.095
-653.857	342.478	-0.193	-0.375
-652.843	27.132	-0.207	-0.173
-651.828	-200.000	-0.027	-0.190
-650.814	-200.000	-0.028	0.212
-649.799	-200.000	0.117	-0.736
-648.784	-16.054	-0.146	-0.092
-647.770	91.491	0.035	-0.039
-646.755	800.000	-0.073	-0.260
-645.741	-48.858	-0.317	0.151
-644.726	-38.380	-0.216	0.113
-643.711	-200.000	-0.009	-0.187
-642.697	-200.000	0.023	-0.143
-641.682	165.915	-0.119	-0.167
-640.668	-200.000	-0.023	0.242
-639.653	-200.000	0.060	0.290
-638.638	-42.684	0.268	-0.135
-637.624	289.346	0.124	-0.224
-636.609	688.668	0.077	0.200
-635.595	-133.363	-0.086	0.011
-634.580	-12.994	-0.107	0.069
-633.565	181.098	0.050	-0.073
-632.551	-11.250	0.209	0.137
-631.536	-141.077	-0.450	-0.046
-630.522	-136.896	-0.239	0.027
-629.507	200.557	-0.089	0.136
-628.492	-24.955	-0.486	-0.286
-627.478	290.303	-0.059	-0.107
-626.463	-25.815	0.105	0.062
-625.449	800.000	-0.102	0.413
-624.434	800.000	-0.047	0.166
-623.419	-72.635	-0.237	-0.087
-622.405	-42.099	-0.137	-0.070
-621.390	5.108	0.332	-0.243
-620.376	800.000	0.010	0.042
-619.361	-200.000	-0.013	-0.190
-618.346	-200.000	-0.023	-0.213
-617.332	-114.525	-0.095	-0.018
-616.317	-124.424	-0.317	0.049
-615.303	800.000	0.105	0.406
-614.288	-19.137	-0.276	0.170
-613.273	-6.359	-0.305	-0.207
-612.259	-95.039	-0.328	-0.088
-611.244	133.636	-0.238	-0.306
-610.230	-200.000	0.004	0.030
-609.215	334.302	-0.067	-0.129
-608.201	-200.000	0.007	0.189
-607.186	-200.000	-0.010	0.107
-606.171	-130.966	-0.486	-0.064
-605.157	-147.894	0.111	0.009
-604.142	-180.315	0.103	-0.002
-603.128	-33.896	-0.134	-0.073
-602.113	-13.465	0.074	0.048
-601.098	-82.002	-0.115	0.037
-600.084	800.000	0.120	0.493
-599.069	800.000	-0.106	0.372
-598.055	-200.000	-0.034	0.165
-597.040	116.445	-0.109	-0.133
-596.025	-144.701	-0.271	0.025
-595.011	85.858	-0.206	-0.225
-593.996	-190.280	-0.115	-0.001
-592.982	175.420	0.170	-0.244
-591.967	681.723	-0.169	-0.438
-590.952	172.435	-0.228	-0.325
-589.938	714.825	0.099	-0.260
-588.923	800.000	0.037	-0.141
-587.909	45.353	0.099	-0.090
-586.894	327.703	0.072	-0.138
-585.879	-200.000	-0.051	-0.376
-584.865	9.236	-0.132	0.099
-583.850	41.494	0.243	-0.219
-582.836	79.543	-0.125	0.133
-581.821	-200.000	0.010	0.199
-580.806	404.827	0.090	0.188
-579.792	-159.047	-0.023	0.001
-578.777	800.000	0.100	0.317
-577.763	741.596	-0.136	0.361
-576.748	53.086	-0.240	0.228
-575.733	-172.837	0.363	-0.011
-574.719	-200.000	-0.003	0.256
-573.704	-76.656	0.064	-0.022
-572.690	-123.510	-0.199	-0.031
-571.675	-17.131	-0.147	-0.092
-570.661	36.720	-0.042	-0.037
-569.646	-35.367	0.261	-0.140
-568.631	-170.814	-0.301	-0.010
-567.617	37.875	-0.140	0.123
-566.602	-200.000	0.008	0.107
-565.588	790.377	-0.056	0.152
-564.573	-200.000	-0.254	-0.001
-563.558	-122.930	-0.224	0.036
-562.544	-176.546	-0.018	-0.000
-561.529	312.504	-0.094	0.174
-560.515	-144.637	0.122	0.011
-559.500	562.941	0.037	0.090
-558.485	338.025	-0.176	-0.339
-557.471	800.000	-0.061	0.177
-556.456	196.895	-0.163	0.247
-555.442	-86.200	-0.231	0.070
-554.427	-51.631	0.101	-0.047
-553.412	141.452	0.255	-0.334
-552.398	-56.376	-0.405	0.178
-551.383	241.567	0.012	-0.019
-550.369	323.867	-0.124	-0.234
-549.354	800.000	-0.018	0.074
-548.339	92.617	-0.238	0.266
-547.325	-14.876	-0.366	-0.233
-546.310	-144.777	-0.383	0.035
-545.296	-200.000	-0.012	-0.207
-544.281	-142.376	0.267	0.026
-543.266	790.796	0.041	-0.113
-542.252	-144.353	0.490	-0.045
-541.237	-127.546	0.089	-0.013
-540.223	-54.592	0.348	-0.156
-539.208	-43.882	-0.188	0.094
-538.193	195.732	0.168	-0.253
-537.179	-52.087	0.337	0.155
-536.164	193.492	-0.158	0.237
-535.150	-102.060	-0.020	0.005
-534.135	-72.682	-0.106	-0.039
-533.121	-200.000	0.007	0.066
-532.106	40.681	-0.343	-0.306
-531.091	-157.402	0.345	0.021
-530.077	-138.870	0.160	-0.017
-529.062	-200.000	-0.035	-0.266
-528.048	119.349	-0.069	-0.084
-527.033	-62.941	0.220	-0.090
-526.018	-44.798	0.158	-0.078
-525.004	-200.000	0.005	-0.097
-523.989	-200.000	0.044	0.204
-522.975	800.000	0.124	-0.380
-521.960	-2.789	-0.159	-0.110
-520.945	215.904	-0.065	0.102
-519.931	485.554	0.061	-0.138
-518.916	-87.973	0.058	0.017
-517.902	459.106	0.107	0.235
-516.887	36.398	-0.227	0.198
-515.872	-200.000	0.116	-0.659
-514.858	-98.380	0.368	0.093
-513.843	800.000	-0.080	0.345
-512.829	132.346	-0.270	0.345
-511.814	800.000	0.055	-0.158
-510.799	-200.000	0.004	-0.088
-509.785	-142.883	-0.403	0.039
-508.770	-200.000	0.002	-0.373
-507.756	-158.636	0.159	0.009
-506.741	-30.506	0.185	-0.104
-505.726	-122.154	-0.123	-0.020
-504.712	219.226	0.019	0.031
-503.697	18.334	-0.272	0.215
-502.683	-88.319	0.161	-0.048
-501.668	238.291	0.165	-0.271
-500.653	385.934	-0.108	0.220
-499.639	-9.515	0.237	0.156
-498.624	-94.817	-0.183	-0.049
-497.610	590.034	-0.037	0.090
-496.595	50.389	0.152	0.142
-495.581	122.387	-0.196	0.242
-494.566	-200.000	0.005	0.188
-493.551	-200.000	-0.016	-0.087
-492.537	521.395	0.052	0.121
-491.522	70.014	0.041	-0.042
-490.508	58.295	-0.357	0.346
-489.493	-144.945	0.053	-0.005
-488.478	-200.000	-0.033	-0.241
-487.464	144.957	-0.123	-0.162
-486.449	-101.845	-0.062	0.015
-485.435	793.565	0.027	-0.074
-484.420	311.001	0.087	0.161
-483.405	-113.627	-0.229	-0.044
-482.391	153.958	-0.132	-0.178
-481.376	-97.653	0.078	-0.020
-480.362	-61.362	0.164	0.068
-479.347	800.000	-0.080	-0.312
-478.332	-200.000	0.004	0.126
-477.318	-161.756	-0.171	-0.009
-476.303	279.559	0.078	0.137
-475.289	291.823	0.130	-0.233
-474.274	-200.000	-0.065	-0.290
-473.259	200.662	-0.082	-0.124
-472.245	351.521	0.086	0.168
-471.230	63.844	-0.297	0.294
-470.216	-200.000	0.003	-0.060
-469.201	-188.932	-0.312	-0.004
-468.186	560.835	0.160	0.382
-467.172	-0.233	0.112	-0.079
-466.157	-81.741	-0.381	-0.123
-465.143	-129.897	0.262	0.035
-464.128	-200.000	0.029	0.185
-463.113	-200.000	0.032	-0.140
-462.099	37.741	0.148	0.130
-461.084	-200.000	-0.053	0.381
-460.070	279.205	-0.140	-0.248
-459.055	-106.364	-0.267	-0.059
-458.040	301.330	0.038	0.070
-457.026	-153.945	-0.238	0.016
-456.011	800.000	0.113	0.322
-454.997	59.483	0.059	0.057
-453.982	800.000	0.018	0.052
-452.968	-200.000	-0.064	0.297
-451.953	-6.433	0.240	0.162
-450.938	23.138	-0.144	0.116
-449.924	-200.000	0.002	0.102
-448.909	-200.000	0.007	0.279
-447.895	141.604	-0.110	-0.144
-446.880	-46.678	-0.297	-0.143
-445.865	-42.205	0.073	-0.037
-444.851	800.000	-0.118	-0.341
-443.836	800.000	-0.049	0.153
-442.822	-200.000	-0.022	-0.368
-441.807	-77.372	-0.038	0.013
-440.792	800.000	-0.031	-0.126
-439.778	800.000	-0.008	-0.028
-438.763	800.000	-0.068	0.256
-437.749	85.412	-0.184	0.199
-436.734	-0.931	0.201	0.140
-435.719	370.008	0.138	-0.277
-434.705	-63.940	0.177	-0.071
-433.690	303.204	-0.045	0.082
-432.676	-20.435	0.158	0.096
-431.661	-200.000	0.025	-0.156
-430.646	26.802	-0.134	-0.110
-429.632	103.619	-0.163	0.189
-428.617	-200.000	0.266	-0.000
-427.603	-98.091	0.118	-0.030
-426.588	-74.865	0.269	0.095
-425.573	27.223	-0.103	0.085
-424.559	294.888	-0.151	-0.272
-423.544	75.776	-0.068	0.070
-422.530	566.239	0.094	0.225
-421.515	289.915	0.105	0.189
-420.500	49.846	-0.155	0.144
-419.486	800.000	-0.025	0.106
-418.471	120.984	0.108	0.133
-417.457	-167.608	-0.376	-0.015
-416.442	195.236	-0.165	-0.247
-415.428	-49.104	0.239	-0.113
-414.413	-107.664	-0.337	-0.073
-413.398	131.646	-0.183	0.232
-412.384	-53.281	0.233	0.105
-411.369	-200.000	0.005	-0.315
-410.355	-18.170	0.190	-0.117
-409.340	-164.576	0.201	0.009
-408.325	130.712	-0.160	-0.202
-407.311	246.798	0.049	0.082
-406.296	0.213	0.185	-0.130
-405.282	-54.295	0.202	-0.090
-404.267	216.557	0.262	0.411
-403.252	-106.329	0.076	-0.017
-402.238	-65.890	-0.109	0.043
-401.223	349.466	0.083	-0.162
-400.209	28.062	0.035	0.029
-399.194	599.135	-0.083	0.203
-398.179	-61.741	0.464	0.192
-397.165	-200.000	-0.043	-0.305
-396.150	-200.000	-0.008	0.249
-395.136	56.095	0.115	0.110
-394.121	-145.615	-0.716	-0.063
-393.106	-111.959	-0.307	-0.061
-392.092	-200.000	0.019	0.115
-391.077	-52.061	0.274	-0.125
-390.063	62.356	0.294	-0.289
-389.048	-200.000	-0.033	0.173
-388.033	-39.899	0.136	-0.070
-387.019	271.441	-0.103	-0.179
-386.004	-199.158	-0.172	-0.001
-384.990	-200.000	-0.056	-0.473
-383.975	28.537	0.007	0.006
-382.960	-200.000	0.002	0.264
-381.946	-200.000	0.022	0.253
-380.931	-200.000	-0.060	0.753
-379.917	-73.227	0.235	-0.085
-378.902	56.147	0.124	0.118
-377.888	672.253	-0.071	0.182
-376.873	241.852	0.194	-0.319
-375.858	-34.568	0.239	-0.129
-374.844	800.000	-0.074	0.260
-373.829	208.724	0.216	-0.333
-372.815	11.840	-0.199	-0.150
-371.800	-128.279	0.015	-0.002
-370.785	-81.412	0.188	-0.061
-369.771	-200.000	-0.045	-0.384
-368.756	345.045	-0.168	0.325
-367.742	-15.516	0.185	0.117
-366.727	227.264	-0.154	0.246
-365.712	151.774	-0.078	0.105
-364.698	-54.740	-0.512	0.227
-363.683	2.682	0.073	-0.052
-362.669	17.774	0.261	0.204
-361.654	69.585	0.151	0.153
-360.639	-30.531	0.124	-0.069
-359.625	-144.103	-0.424	-0.039
-358.610	21.558	-0.146	-0.116
-357.596	-108.644	0.441	0.093
-356.581	-200.000	0.028	-0.261
-355.566	-130.835	-0.229	-0.030
-354.552	-80.364	0.084	-0.028
-353.537	-16.421	0.341	0.213
-352.523	-32.881	0.067	0.036
-351.508	330.718	-0.174	0.329
-350.493	-76.044	0.328	-0.114
-349.479	-86.231	0.161	0.049
-348.464	-33.398	-0.394	0.214
-347.450	500.315	-0.145	0.329
-346.435	-200.000	0.037	-0.235
-345.420	-111.676	-0.174	-0.035
-344.406	94.388	-0.181	-0.202
-343.391	-61.103	-0.469	-0.194
-342.377	265.477	0.149	-0.255
-341.362	800.000	0.077	-0.269
-340.348	352.053	0.083	-0.162
-339.333	-42.535	0.134	0.067
-338.318	103.037	0.142	-0.164
-337.304	-106.480	-0.242	0.053
-336.289	70.639	-0.107	-0.109
-335.275	-155.847	0.260	0.016
-334.260	-116.949	0.233	-0.042
-333.245	800.000	-0.015	-0.051
-332.231	112.866	0.099	-0.118
-331.216	-97.215	-0.173	0.044
-330.202	96.454	0.108	0.121
-329.187	-161.804	-0.176	-0.009
-328.172	-118.800	0.099	0.017
-327.158	-118.477	-0.095	-0.016
-326.143	-24.469	0.371	0.217
-325.129	-200.000	-0.014	0.073
-324.114	9.512	0.053	-0.039
-323.099	506.317	-0.022	0.051
-322.085	-200.000	0.270	0.001
-321.070	37.002	-0.172	-0.150
-320.056	-64.153	0.099	0.040
-319.041	-14.115	0.132	0.084
-318.026	-9.616	-0.256	-0.167
-317.012	-99.123	0.048	0.012
-315.997	128.295	0.128	0.160
-314.983	71.835	-0.211	-0.215
-313.968	-200.000	0.010	-0.069
-312.953	65.834	0.141	0.140
-311.939	-57.669	-0.114	-0.049
-310.924	351.068	-0.085	0.166
-309.910	239.875	0.165	-0.269
-308.895	-21.479	-0.119	0.071
-307.880	-200.000	-0.004	-0.219
-306.866	-30.772	-0.165	0.091
-305.851	68.996	0.088	0.089
-304.837	-194.239	-0.188	-0.001
-303.822	268.020	0.098	-0.169
-302.807	-166.179	0.403	0.017
-301.793	178.282	0.193	-0.276
-300.778	-3.722	-0.183	-0.125
-299.764	-56.871	0.192	-0.083
-298.749	-45.182	0.279	0.136
-297.735	48.802	-0.184	0.170
-296.720	-200.000	-0.009	-0.126
-295.705	70.011	0.349	0.353
-294.691	-119.299	-0.089	0.015
-293.676	290.891	-0.132	-0.236
-292.662	-169.798	-0.046	0.002
-291.647	800.000	-0.016	0.058
-290.632	-200.000	-0.010	-0.106
-289.618	-26.712	-0.201	0.115
-288.603	-21.514	-0.205	-0.122
-287.589	-61.291	0.204	0.084
-286.574	-61.269	0.232	0.096
-285.559	109.093	-0.180	0.211
-284.545	-1.143	0.091	0.063
-283.530	-49.216	0.270	0.127
-282.516	17.239	0.268	0.208
-281.501	800.000	-0.034	-0.132
-280.486	-200.000	0.046	0.288
-279.472	-100.929	0.196	0.047
-278.457	800.000	0.080	-0.294
-277.443	-157.330	-0.209	-0.012
-276.428	227.978	0.178	0.284
-275.413	26.664	0.138	-0.113
-274.399	-200.000	0.023	0.266
-273.384	-200.000	-0.050	0.375
-272.370	800.000	-0.070	-0.209
-271.355	25.914	-0.062	0.051
-270.340	-65.207	0.126	0.050
-269.326	-93.465	-0.314	0.085
-268.311	162.304	-0.078	-0.108
-267.297	-200.000	0.019	0.113
-266.282	-105.407	0.195	-0.043
-265.267	-69.823	-0.361	0.135
-264.253	-24.976	-0.231	-0.134
-263.238	-79.553	0.302	-0.100
-262.224	800.000	0.056	0.225
-261.209	-169.956	-0.163	-0.006
-260.195	235.930	0.037	-0.060
-259.180	222.205	-0.299	-0.471
-258.165	-200.000	-0.020	-0.117
-257.151	-2.798	0.266	-0.182
-256.136	260.124	0.178	0.302
-255.122	-18.506	0.316	-0.193
-254.107	-149.921	0.235	-0.018
-253.092	302.225	0.164	-0.298
-252.078	214.389	0.084	-0.131
-251.063	71.402	-0.162	-0.165
-250.049	-93.181	-0.223	0.061
-249.034	-78.956	-0.079	-0.026
-248.019	105.368	0.138	0.159
-247.005	-141.432	-0.140	0.014
-245.990	-21.682	-0.064	-0.038
-244.976	-200.000	-0.031	-0.147
-243.961	-129.458	0.221	0.030
-242.946	-80.875	0.092	0.030
-241.932	-165.267	0.148	0.006
-240.917	-67.643	0.153	-0.059
-239.903	-146.585	0.255	0.022
-238.888	301.307	0.087	0.157
-237.873	800.000	0.070	0.246
-236.859	-200.000	0.062	0.405
-235.844	-48.538	0.236	0.111
-234.830	-52.005	-0.242	0.110
-233.815	-39.453	-0.238	-0.122
-232.800	-200.000	0.358	0.002
-231.786	-200.000	-0.018	0.104
-230.771	-60.776	0.177	-0.073
-229.757	-200.000	-0.035	0.292
-228.742	-200.000	-0.043	-0.214
-227.727	128.309	0.242	0.301
-226.713	68.923	-0.269	-0.270
-225.698	-114.598	0.322	0.060
-224.684	-83.621	-0.175	-0.055
-223.669	-61.661	0.341	-0.140
-222.655	-156.998	-0.259	-0.016
-221.640	170.112	0.117	-0.164
-220.625	25.439	-0.468	0.380
-219.611	146.407	-0.077	0.102
-218.596	200.776	0.240	0.360
-217.582	-45.666	0.148	-0.072
-216.567	59.289	0.150	-0.144
-215.552	800.000	-0.090	0.302
-214.538	-200.000	-0.019	0.225
-213.523	-69.315	-0.191	0.072
-212.509	53.098	0.319	0.298
-211.494	66.687	-0.097	-0.097
-210.479	-200.000	-0.026	-0.265
-209.465	-66.430	0.254	-0.099
-208.450	-121.439	-0.224	0.036
-207.436	-200.000	0.005	-0.271
-206.421	577.739	-0.112	-0.268
-205.406	81.763	0.149	0.157
-204.392	-200.000	0.001	0.107
-203.377	52.959	0.205	0.192
-202.363	15.372	0.150	-0.115
-201.348	466.166	0.062	0.136
-200.333	103.053	-0.173	-0.198
-199.319	293.499	0.032	-0.056
-198.304	52.502	-0.222	-0.207
-197.290	-48.740	0.110	0.052
-196.275	800.000	0.111	0.411
-195.260	33.586	-0.104	0.088
-194.246	46.148	0.422	-0.382
-193.231	-106.658	0.058	-0.013
-192.217	-88.342	0.184	-0.054
-191.202	800.000	0.082	-0.227
-190.187	-200.000	-0.035	-0.400
-189.173	-110.720	-0.293	0.059
-188.158	-200.000	-0.002	0.130
-187.144	-200.000	0.020	-0.231
-186.129	741.479	0.121	0.318
-185.114	-107.160	0.360	0.077
-184.100	69.594	0.310	-0.312
-183.085	-200.000	-0.024	0.104
-182.071	-32.369	0.374	-0.204
-181.056	597.738	-0.230	-0.557
-180.042	469.976	-0.069	-0.152
-179.027	-72.119	-0.050	0.018
-178.012	-21.605	-0.061	-0.036
-176.998	261.832	0.108	-0.182
-175.983	233.522	0.051	-0.082
-174.969	-23.771	0.051	-0.030
-173.954	-143.119	-0.272	0.026
-172.939	-121.436	-0.266	0.043
-171.925	-115.790	0.212	-0.039
-170.910	-52.582	0.245	0.110
-169.896	48.107	-0.175	0.160
-168.881	587.364	0.076	-0.182
-167.866	-200.000	0.024	0.339
-166.852	-86.596	0.083	-0.025
-165.837	-121.787	-0.180	-0.029
-164.823	-125.397	0.119	-0.018
-163.808	800.000	-0.018	0.049
-162.793	25.065	-0.275	0.223
-161.779	-91.868	0.178	0.049
-160.764	42.527	0.134	-0.119
-159.750	606.014	-0.048	-0.117
-158.735	187.530	0.136	-0.198
-157.720	-155.671	-0.146	0.009
-156.706	-90.804	0.361	0.102
-155.691	700.788	-0.005	0.014
-154.677	-155.498	0.615	0.039
-153.662	-200.000	0.008	-0.067
-152.647	-80.253	0.311	0.101
-151.633	800.000	0.005	0.017
-150.618	27.722	0.055	0.045
-149.604	2.866	0.419	0.297
-148.589	-200.000	-0.018	0.131
-147.574	443.364	0.134	0.286
-146.560	-49.084	0.111	0.052
-145.545	187.574	-0.124	-0.181
-144.531	-49.962	-0.174	0.080
-143.516	170.441	0.085	0.119
-142.502	800.000	0.027	-0.115
-141.487	430.683	0.109	0.230
-140.472	-59.614	-0.067	-0.028
-139.458	-114.146	0.252	-0.047
-138.443	800.000	-0.020	-0.076
-137.429	800.000	-0.029	0.082
-136.414	-200.000	-0.002	-0.037
-135.399	-112.381	-0.205	-0.040
-134.385	184.548	-0.101	0.146
-133.370	209.217	0.125	-0.191
-132.356	47.736	0.317	-0.288
-131.341	-51.818	-0.089	0.040
-130.326	-200.000	0.009	0.239
-129.312	-200.000	0.030	-0.218
-128.297	492.669	-0.074	0.164
-127.283	-200.000	0.040	0.310
-126.268	-200.000	0.024	-0.230
-125.253	-94.912	0.188	-0.050
-124.239	12.306	-0.213	-0.160
-123.224	702.135	0.059	-0.151
-122.210	48.086	-0.071	0.065
