DTS Sentinel unit serial number:	SN413079Multiplexer serial number:	ORYXHardware model number:	OX4-SRSoftware version number:	ORYX F/W v4.00 Oryx Data Collector v3.7.2.0data status	okinstallation	princeton_trtdifferential loss correction	single-endedforward channel	channel 2reverse channel	N/Adate	2019/09/14time	17:43:35forward acquisition time	60.00reverse acquisition time	0.00gamma	496.2192k internal	0.2311k external	0.2311temperature offset calibration	1.0114default loss term (dB/km)	0.3790temperature slope calibration	1.0000multiplexer offset coefficient	1.0000multiplexer slope coefficient	1.0000fibre end	0.00T internal ref (°C)	37.50T ext. ref 1 (°C)	5.03T ext. ref 2 (°C)	32.78length (m)	temperature (°C)	Stokes	anti-Stokes-747.200	-27.168	-0.171	-0.101
-746.185	60.657	0.070	0.070
-745.171	-91.773	-0.215	-0.062
-744.156	-200.000	0.054	0.264
-743.142	314.592	-0.102	-0.195
-742.127	107.376	-0.096	-0.116
-741.112	-160.209	-0.348	-0.019
-740.098	518.566	0.090	0.213
-739.083	-23.262	-0.009	-0.006
-738.069	690.925	-0.063	0.168
-737.054	177.927	-0.032	0.048
-736.039	-120.813	-0.345	0.059
-735.025	-79.461	-0.227	0.078
-734.010	-4.562	0.022	0.015
-732.996	-70.253	-0.296	-0.114
-731.981	75.236	0.154	-0.165
-730.966	339.646	-0.051	0.100
-729.952	-200.000	0.010	-0.186
-728.937	277.360	-0.097	0.175
-727.923	376.788	-0.196	-0.407
-726.908	22.587	-0.268	-0.223
-725.894	163.508	0.113	-0.162
-724.879	37.627	0.265	-0.238
-723.864	-200.000	-0.006	0.027
-722.850	679.359	0.079	0.209
-721.835	58.955	-0.222	-0.221
-720.821	800.000	0.116	0.365
-719.806	-100.522	-0.117	0.029
-718.791	-200.000	0.001	-0.077
-717.777	83.295	0.121	-0.133
-716.762	-200.000	0.020	-0.155
-715.748	11.389	-0.080	-0.062
-714.733	35.320	0.193	-0.171
-713.718	244.074	-0.120	-0.204
-712.704	-115.669	0.268	0.051
-711.689	-146.210	-0.231	-0.021
-710.675	657.911	0.127	-0.331
-709.660	-70.510	-0.324	0.124
-708.645	-68.451	-0.104	0.041
-707.631	32.118	-0.257	0.224
-706.616	-200.000	-0.057	-0.457
-705.602	-49.852	0.118	-0.057
-704.587	398.313	0.127	0.269
-703.572	-53.931	-0.129	-0.059
-702.558	-200.000	-0.002	-0.119
-701.543	169.490	0.173	-0.251
-700.529	-200.000	0.011	-0.264
-699.514	-9.948	-0.223	-0.150
-698.499	116.925	-0.307	-0.382
-697.485	693.943	-0.041	-0.108
-696.470	-200.000	-0.042	-0.212
-695.456	-59.072	-0.100	-0.044
-694.441	-112.584	-0.538	-0.109
-693.426	-15.569	-0.274	0.177
-692.412	-200.000	-0.009	0.130
-691.397	732.027	-0.044	0.118
-690.383	-200.000	0.002	0.010
-689.368	800.000	-0.080	0.291
-688.354	-4.473	-0.149	0.104
-687.339	-95.192	0.194	0.053
-686.324	-92.588	-0.306	-0.087
-685.310	483.682	-0.142	-0.326
-684.295	-200.000	-0.064	-0.366
-683.281	800.000	0.042	-0.170
-682.266	-200.000	-0.060	-0.369
-681.251	49.394	0.151	0.144
-680.237	-184.080	0.176	0.003
-679.222	59.677	-0.275	-0.274
-678.208	68.576	-0.153	-0.159
-677.193	-100.260	-0.337	-0.085
-676.178	-200.000	0.005	-0.145
-675.164	-50.848	-0.189	0.090
-674.149	-200.000	-0.011	0.215
-673.135	-79.103	0.126	-0.043
-672.120	690.886	-0.053	0.140
-671.105	800.000	-0.095	0.273
-670.091	-91.286	-0.146	-0.042
-669.076	503.897	-0.071	-0.165
-668.062	-100.961	-0.203	-0.051
-667.047	800.000	0.037	-0.160
-666.032	-173.250	-0.106	-0.003
-665.018	-76.767	0.279	-0.099
-664.003	5.799	-0.204	-0.153
-662.989	-116.496	0.252	0.047
-661.974	-200.000	-0.012	-0.101
-660.959	800.000	0.091	-0.349
-659.945	-200.000	0.015	-0.190
-658.930	99.113	-0.069	0.081
-657.916	-200.000	0.049	0.404
-656.901	-200.000	-0.030	0.227
-655.886	-13.478	0.157	0.103
-654.872	-133.322	0.226	0.029
-653.857	-200.000	-0.003	0.171
-652.843	177.479	-0.158	0.232
-651.828	800.000	0.050	-0.214
-650.814	572.748	-0.071	-0.176
-649.799	94.729	-0.064	-0.074
-648.784	3.896	-0.044	0.033
-647.770	800.000	0.037	0.131
-646.755	-147.932	-0.258	-0.022
-645.741	-200.000	0.009	0.193
-644.726	-102.178	-0.270	-0.066
-643.711	800.000	-0.140	-0.441
-642.697	-24.444	0.173	0.104
-641.682	258.810	0.115	-0.200
-640.668	152.381	-0.165	-0.228
-639.653	26.737	-0.064	0.054
-638.638	-200.000	-0.023	-0.118
-637.624	-96.270	0.334	0.089
-636.609	-108.155	0.212	0.046
-635.595	702.009	0.040	-0.107
-634.580	-98.578	0.074	0.019
-633.565	-200.000	0.043	-0.287
-632.551	89.175	-0.106	-0.120
-631.536	-38.759	0.195	0.104
-630.522	159.152	-0.081	0.113
-629.507	-120.572	-0.216	-0.037
-628.492	704.884	0.137	0.365
-627.478	800.000	-0.039	0.120
-626.463	-200.000	-0.056	-0.315
-625.449	99.826	0.069	-0.081
-624.434	-200.000	-0.022	0.318
-623.419	-16.989	-0.142	0.091
-622.405	13.434	0.213	0.167
-621.390	297.741	-0.181	-0.336
-620.376	-200.000	0.031	0.154
-619.361	-133.568	-0.205	-0.026
-618.346	11.370	0.471	0.365
-617.332	-200.000	0.093	-0.565
-616.317	90.284	0.156	-0.177
-615.303	-200.000	-0.010	-0.159
-614.288	800.000	-0.109	-0.364
-613.273	-200.000	-0.008	0.105
-612.259	-200.000	-0.037	-0.235
-611.244	-200.000	-0.016	-0.245
-610.230	-76.111	-0.166	-0.059
-609.215	-200.000	0.008	-0.113
-608.201	-53.757	0.333	-0.153
-607.186	40.403	-0.126	0.114
-606.171	-200.000	-0.020	-0.197
-605.157	-38.008	0.279	-0.150
-604.142	129.390	0.064	-0.083
-603.128	800.000	0.111	0.328
-602.113	-50.640	-0.508	-0.242
-601.098	800.000	0.072	0.220
-600.084	84.742	0.222	-0.245
-599.069	21.327	0.181	0.149
-598.055	67.438	-0.153	-0.157
-597.040	17.062	-0.123	-0.099
-596.025	-64.184	0.199	0.082
-595.011	-34.954	-0.200	-0.110
-593.996	-136.687	-0.318	-0.037
-592.982	-73.172	-0.320	-0.118
-591.967	-125.692	0.366	-0.056
-590.952	800.000	0.071	-0.210
-589.938	-200.000	-0.049	-0.244
-588.923	-77.991	-0.157	0.055
-587.909	-52.615	-0.199	-0.093
-586.894	62.225	0.093	0.094
-585.879	146.823	-0.015	-0.021
-584.865	386.373	0.161	-0.336
-583.850	50.290	0.152	-0.145
-582.836	30.478	-0.138	0.119
-581.821	15.264	-0.238	0.189
-580.806	173.356	0.308	-0.448
-579.792	-84.877	-0.053	-0.017
-578.777	800.000	-0.046	-0.140
-577.763	556.089	-0.127	0.310
-576.748	-66.511	0.490	0.196
-575.733	102.354	-0.203	0.239
-574.719	-99.573	-0.152	0.039
-573.704	-51.916	0.458	-0.215
-572.690	-196.226	0.064	-0.000
-571.675	170.737	0.091	0.131
-570.661	-109.224	0.165	0.035
-569.646	75.491	0.094	0.100
-568.631	30.408	0.109	0.094
-567.617	-51.347	-0.267	0.126
-566.602	-48.668	0.183	0.089
-565.588	538.681	0.075	-0.180
-564.573	800.000	0.085	0.370
-563.558	-130.383	-0.334	-0.046
-562.544	-200.000	0.033	-0.176
-561.529	44.634	0.103	0.096
-560.515	-200.000	0.002	-0.282
-559.500	-99.726	0.163	0.041
-558.485	-200.000	0.042	-0.213
-557.471	-200.000	0.002	-0.077
-556.456	21.598	0.161	0.132
-555.442	44.568	-0.271	-0.251
-554.427	800.000	-0.152	-0.519
-553.412	-26.141	0.303	0.179
-552.398	185.841	0.102	-0.153
-551.383	-28.384	0.465	-0.270
-550.369	32.205	-0.124	-0.108
-549.354	12.990	0.233	0.181
-548.339	-200.000	0.029	0.415
-547.325	42.484	0.128	0.117
-546.310	800.000	-0.046	0.130
-545.296	308.193	0.130	-0.245
-544.281	70.269	-0.160	-0.167
-543.266	718.487	0.072	-0.194
-542.252	-200.000	-0.030	-0.376
-541.237	-173.772	-0.141	-0.004
-540.223	69.455	-0.027	0.028
-539.208	299.995	-0.121	0.225
-538.193	-159.000	0.291	-0.017
-537.179	-200.000	-0.021	0.306
-536.164	87.818	-0.151	-0.168
-535.150	9.633	0.177	0.135
-534.135	-40.469	-0.161	-0.084
-533.121	761.209	0.103	0.282
-532.106	-60.321	0.179	0.077
-531.091	-21.027	-0.087	-0.053
-530.077	-200.000	0.072	0.555
-529.062	148.946	0.171	0.233
-528.048	-76.938	-0.263	-0.093
-527.033	-200.000	0.003	-0.095
-526.018	-14.612	-0.074	0.048
-525.004	-122.718	-0.257	0.042
-523.989	54.951	-0.170	0.165
-522.975	111.113	-0.231	0.280
-521.960	192.681	-0.200	0.304
-520.945	-101.155	-0.212	0.052
-519.931	217.227	0.124	0.198
-518.916	-94.712	-0.179	0.049
-517.902	-200.000	0.060	0.277
-516.887	-200.000	-0.034	0.306
-515.872	-13.597	-0.074	0.048
-514.858	43.315	-0.029	-0.027
-513.843	187.633	0.031	-0.046
-512.829	150.200	0.127	-0.173
-511.814	-82.524	0.318	-0.104
-510.799	-80.827	0.148	0.049
-509.785	411.439	-0.093	-0.198
-508.770	-151.949	0.235	0.017
-507.756	-52.002	0.215	-0.101
-506.741	30.432	-0.163	0.141
-505.726	176.546	0.100	0.146
-504.712	800.000	-0.035	0.130
-503.697	16.007	-0.211	0.167
-502.683	-200.000	-0.023	0.132
-501.668	487.914	-0.108	-0.248
-500.653	456.273	-0.064	-0.143
-499.639	-70.171	0.099	-0.038
-498.624	-19.680	-0.115	0.072
-497.610	288.875	-0.045	0.081
-496.595	-158.252	-0.052	0.003
-495.581	171.739	-0.093	0.135
-494.566	185.315	-0.213	-0.318
-493.551	-8.199	-0.244	0.165
-492.537	800.000	0.020	0.066
-491.522	-144.411	-0.156	-0.015
-490.508	-116.474	-0.219	-0.041
-489.493	227.616	0.101	-0.165
-488.478	29.912	0.148	-0.127
-487.464	-62.038	-0.228	0.096
-486.449	-173.337	-0.148	-0.005
-485.435	-200.000	-0.084	-0.422
-484.420	91.922	0.050	0.056
-483.405	64.458	0.156	-0.158
-482.391	-116.652	0.236	0.044
-481.376	516.235	0.090	0.211
-480.362	-200.000	-0.043	0.260
-479.347	-200.000	0.012	-0.106
-478.332	-39.645	0.278	-0.146
-477.318	573.693	0.063	0.155
-476.303	-144.826	0.247	0.023
-475.289	800.000	0.093	0.312
-474.274	209.658	-0.056	-0.087
-473.259	-200.000	-0.006	0.160
-472.245	-177.511	-0.438	-0.011
-471.230	41.150	-0.063	0.057
-470.216	-200.000	-0.009	-0.072
-469.201	-71.137	0.070	0.026
-468.186	-79.500	0.114	-0.039
-467.172	-200.000	-0.022	-0.429
-466.157	-68.009	-0.467	-0.183
-465.143	-48.341	-0.163	-0.079
-464.128	-18.747	0.168	0.105
-463.113	-85.926	0.436	0.136
-462.099	-162.762	-0.458	-0.022
-461.084	104.264	0.104	-0.123
-460.070	186.815	-0.220	0.329
-459.055	-200.000	0.001	0.164
-458.040	454.379	-0.030	-0.066
-457.026	-200.000	0.048	-0.368
-456.011	-200.000	0.016	-0.140
-454.997	356.325	0.131	0.262
-453.982	440.013	-0.108	-0.237
-452.968	148.811	-0.095	-0.129
-451.953	-95.507	-0.250	0.067
-450.938	-58.433	0.204	0.089
-449.924	-200.000	0.065	-0.497
-448.909	-69.497	-0.235	-0.090
-447.895	-31.963	0.299	0.168
-446.880	-42.064	-0.268	-0.137
-445.865	-85.321	0.165	0.052
-444.851	414.230	-0.180	-0.384
-443.836	-81.124	0.161	0.053
-442.822	-40.875	0.090	0.047
-441.807	247.342	-0.098	-0.166
-440.792	28.253	-0.129	-0.110
-439.778	-56.372	-0.322	0.143
-438.763	-200.000	0.053	0.286
-437.749	239.693	-0.097	0.162
-436.734	-7.411	-0.228	0.155
-435.719	-200.000	0.052	-0.266
-434.705	347.318	0.116	0.230
-433.690	-200.000	0.016	-0.145
-432.676	-200.000	-0.004	-0.118
-431.661	-180.909	0.311	-0.006
-430.646	-70.315	-0.132	-0.050
-429.632	-145.415	-0.328	-0.030
-428.617	207.340	-0.137	0.214
-427.603	-200.000	-0.000	-0.057
-426.588	74.647	0.098	-0.104
-425.573	706.138	-0.161	0.426
-424.559	-117.564	-0.150	0.027
-423.544	-112.242	0.345	0.069
-422.530	-141.331	-0.119	-0.012
-421.515	-200.000	0.005	0.031
-420.500	225.471	0.038	0.061
-419.486	-4.654	-0.237	-0.164
-418.471	-113.773	-0.125	0.024
-417.457	-155.206	-0.192	0.013
-416.442	247.074	0.128	0.217
-415.428	-44.629	-0.186	0.093
-414.413	76.845	0.122	0.129
-413.398	84.667	0.253	0.278
-412.384	-110.624	0.135	-0.028
-411.369	-138.217	-0.487	-0.054
-410.355	-155.319	0.125	-0.008
-409.340	-14.244	0.033	-0.021
-408.325	199.343	0.109	-0.167
-407.311	88.187	0.138	-0.153
-406.296	83.552	-0.059	0.065
-405.282	800.000	-0.076	-0.268
-404.267	-200.000	-0.011	0.156
-403.252	-27.518	-0.439	0.256
-402.238	-200.000	-0.017	-0.078
-401.223	322.135	-0.053	0.101
-400.209	405.541	0.123	-0.260
-399.194	-200.000	0.014	-0.130
-398.179	342.776	0.055	-0.108
-397.165	193.378	0.071	-0.107
-396.150	-113.694	-0.350	0.068
-395.136	532.234	-0.025	-0.059
-394.121	371.118	-0.155	0.315
-393.106	139.668	-0.057	0.076
-392.092	-71.729	-0.397	0.148
-391.077	279.542	-0.009	0.015
-390.063	-127.401	0.200	-0.029
-389.048	31.144	-0.203	0.174
-388.033	52.612	0.216	0.207
-387.019	-136.904	-0.087	0.010
-386.004	-147.543	-0.204	-0.017
-384.990	207.265	0.098	0.153
-383.975	-114.412	-0.238	0.046
-382.960	543.196	-0.086	0.205
-381.946	-169.864	-0.120	0.004
-380.931	-93.025	0.072	0.020
-379.917	-200.000	-0.042	0.253
-378.902	110.958	0.115	-0.139
-377.888	-15.689	-0.332	-0.212
-376.873	-163.945	0.192	0.009
-375.858	-28.087	-0.121	0.070
-374.844	182.497	-0.027	-0.040
-373.829	-200.000	0.003	-0.072
-372.815	-70.587	0.521	0.197
-371.800	800.000	-0.035	0.099
-370.785	-200.000	-0.015	0.188
-369.771	228.009	0.048	0.078
-368.756	-39.643	0.377	-0.197
-367.742	71.655	0.072	0.075
-366.727	102.444	0.348	0.407
-365.712	688.650	-0.122	-0.320
-364.698	115.278	0.017	-0.021
-363.683	-123.004	0.118	-0.019
-362.669	-92.609	-0.280	-0.079
-361.654	800.000	0.107	-0.436
-360.639	-36.099	-0.040	0.022
-359.625	95.458	-0.095	0.108
-358.610	54.533	-0.151	-0.145
-357.596	-110.555	-0.337	0.070
-356.581	158.470	-0.161	0.224
-355.566	105.939	0.297	0.352
-354.552	11.928	0.056	-0.043
-353.537	-2.402	-0.068	0.047
-352.523	-200.000	-0.018	-0.271
-351.508	800.000	0.046	-0.196
-350.493	485.053	0.062	0.141
-349.479	66.512	0.093	-0.095
-348.464	-46.564	-0.040	0.020
-347.450	112.135	-0.226	-0.274
-346.435	611.820	0.094	0.235
-345.420	-28.851	-0.225	0.129
-344.406	-126.992	0.222	-0.033
-343.391	270.504	0.118	0.207
-342.377	62.108	-0.169	-0.168
-341.362	233.403	0.069	-0.114
-340.348	-200.000	-0.003	0.082
-339.333	611.106	-0.077	-0.193
-338.318	86.553	0.052	-0.057
-337.304	457.435	-0.049	-0.109
-336.289	-100.538	0.171	0.042
-335.275	14.941	0.204	-0.159
-334.260	90.461	-0.188	-0.211
-333.245	89.628	-0.119	-0.132
-332.231	-14.052	-0.301	0.194
-331.216	-23.812	0.153	-0.092
-330.202	369.197	-0.103	0.208
-329.187	1.365	0.123	-0.088
-328.172	-11.815	0.292	0.191
-327.158	13.487	-0.158	-0.123
-326.143	-200.000	0.005	-0.564
-325.129	-8.162	-0.360	0.242
-324.114	800.000	-0.099	-0.359
-323.099	-200.000	-0.026	-0.311
-322.085	-200.000	-0.057	-0.379
-321.070	-200.000	0.005	-0.140
-320.056	40.731	-0.201	0.181
-319.041	-200.000	-0.039	0.320
-318.026	-200.000	0.043	0.252
-317.012	-76.101	0.461	0.162
-315.997	-35.029	0.089	-0.049
-314.983	-200.000	0.061	0.379
-313.968	-200.000	0.010	0.291
-312.953	452.534	0.099	0.219
-311.939	272.781	0.107	0.188
-310.924	800.000	0.046	-0.181
-309.910	165.406	0.140	-0.198
-308.895	800.000	0.053	-0.173
-307.880	-123.643	-0.353	-0.056
-306.866	421.435	0.111	0.239
-305.851	78.209	-0.080	0.085
-304.837	-200.000	0.002	-0.045
-303.822	-134.492	-0.202	0.025
-302.807	589.106	0.088	0.217
-301.793	108.923	0.161	0.192
-300.778	800.000	0.102	0.423
-299.764	-147.100	0.272	0.023
-298.749	800.000	0.060	-0.191
-297.735	-200.000	0.004	0.065
-296.720	32.150	-0.083	0.071
-295.705	-53.321	0.112	0.051
-294.691	800.000	0.047	0.166
-293.676	-200.000	0.003	0.037
-292.662	-97.554	-0.194	-0.050
-291.647	619.360	-0.111	0.277
-290.632	-29.304	-0.174	-0.099
-289.618	-113.334	-0.222	0.044
-288.603	31.305	-0.216	0.185
-287.589	-97.886	-0.368	-0.095
-286.574	-26.952	-0.264	0.154
-285.559	231.297	0.112	-0.183
-284.545	120.107	0.250	0.309
-283.530	348.623	-0.068	0.133
-282.516	-40.469	0.088	-0.046
-281.501	183.640	-0.023	-0.034
-280.486	274.278	0.168	0.296
-279.472	-200.000	-0.014	-0.183
-278.457	-77.662	-0.261	-0.090
-277.443	121.074	0.165	0.204
-276.428	-143.090	-0.111	-0.011
-275.413	-64.156	0.311	0.127
-274.399	274.577	-0.113	0.199
-273.384	20.146	0.159	-0.128
-272.370	-70.615	0.511	-0.192
-271.355	800.000	-0.065	-0.239
-270.340	54.763	-0.228	0.219
-269.326	141.775	-0.199	-0.262
-268.311	-65.344	0.179	-0.072
-267.297	43.000	-0.065	0.059
-266.282	94.815	-0.148	-0.167
-265.267	171.217	0.160	-0.229
-264.253	-200.000	-0.043	-0.384
-263.238	-20.700	-0.136	0.083
-262.224	-87.245	0.345	-0.104
-261.209	800.000	-0.148	-0.535
-260.195	179.605	0.214	-0.312
-259.180	800.000	0.076	-0.280
-258.165	-82.729	-0.206	-0.066
-257.151	194.755	0.033	-0.050
-256.136	-47.748	-0.208	-0.101
-255.122	481.898	0.092	-0.208
-254.107	-200.000	-0.007	0.147
-253.092	-119.822	-0.253	0.043
-252.078	551.955	-0.053	0.127
-251.063	-200.000	-0.015	0.267
-250.049	-68.745	0.118	-0.045
-249.034	-172.228	0.471	-0.015
-248.019	-200.000	0.025	0.169
-247.005	173.487	-0.112	-0.160
-245.990	586.933	-0.027	-0.066
-244.976	-82.916	0.246	0.079
-243.961	-200.000	-0.081	0.418
-242.946	-200.000	0.079	0.351
-241.932	-200.000	0.013	0.294
-240.917	800.000	0.021	0.089
-239.903	-32.372	0.308	-0.171
-238.888	-19.212	0.006	-0.004
-237.873	202.964	-0.282	0.434
-236.859	432.567	-0.069	0.149
-235.844	-76.977	0.307	-0.107
-234.830	-125.833	-0.032	0.005
-233.815	-96.608	0.124	0.033
-232.800	-39.401	-0.158	0.083
-231.786	-53.242	0.177	0.081
-230.771	-153.810	0.279	0.019
-229.757	47.578	-0.144	-0.134
-228.742	408.737	0.125	0.264
-227.727	-28.374	0.166	-0.096
-226.713	-77.097	0.167	0.058
-225.698	-77.376	0.073	-0.025
-224.684	481.841	-0.096	-0.216
-223.669	800.000	0.122	0.413
-222.655	-79.233	-0.078	-0.026
-221.640	412.122	0.140	-0.296
-220.625	-57.264	0.194	0.085
-219.611	255.252	0.067	0.114
-218.596	111.344	0.087	0.104
-217.582	347.093	-0.054	0.106
-216.567	724.363	0.057	-0.151
-215.552	-40.451	-0.241	-0.125
-214.538	-144.971	0.112	0.010
-213.523	-200.000	0.068	0.315
-212.509	800.000	0.062	-0.177
-211.494	180.442	0.112	0.164
-210.479	-116.203	-0.139	0.026
-209.465	65.527	-0.203	0.205
-208.450	248.745	0.207	-0.348
-207.436	295.428	-0.052	-0.095
-206.421	80.877	-0.101	-0.108
-205.406	134.778	0.068	-0.088
-204.392	-200.000	-0.065	-0.376
-203.377	-200.000	-0.017	0.085
-202.363	-200.000	0.000	0.107
-201.348	50.807	0.075	0.071
-200.333	31.915	-0.107	-0.092
-199.319	-200.000	0.035	0.265
-198.304	362.639	0.025	0.049
-197.290	-200.000	0.056	0.362
-196.275	257.980	0.174	0.298
-195.260	-200.000	-0.003	-0.036
-194.246	-77.324	-0.381	-0.132
-193.231	800.000	-0.036	0.138
-192.217	800.000	0.096	0.271
-191.202	107.253	-0.219	-0.259
-190.187	174.297	-0.084	-0.121
-189.173	791.839	-0.049	-0.134
-188.158	656.871	0.132	0.336
-187.144	-129.170	0.196	-0.027
-186.129	34.652	0.079	-0.068
-185.114	-200.000	-0.012	-0.565
-184.100	-131.694	0.029	-0.004
-183.085	156.434	-0.245	-0.336
-182.071	800.000	0.108	-0.306
-181.056	-165.588	0.333	0.014
-180.042	800.000	-0.050	0.150
-179.027	630.225	-0.104	-0.262
-178.012	23.685	0.266	0.217
-176.998	800.000	-0.093	0.255
-175.983	145.263	0.209	0.278
-174.969	14.249	0.144	-0.112
-173.954	-87.274	0.197	0.059
-172.939	800.000	0.102	0.396
-171.925	4.437	0.230	-0.168
-170.910	-78.467	0.313	-0.106
-169.896	62.645	-0.151	0.150
-168.881	-59.407	0.188	-0.080
-167.866	55.741	0.164	0.158
-166.852	86.301	-0.136	-0.149
-165.837	437.940	0.121	-0.262
-164.823	-190.368	-0.082	0.001
-163.808	194.131	0.210	-0.315
-162.793	-178.840	0.086	0.002
-161.779	193.863	0.030	-0.046
-160.764	-91.740	0.228	-0.064
-159.750	-39.076	-0.012	0.006
-158.735	-68.079	0.128	-0.050
-157.720	-199.613	-0.422	-0.002
-156.706	-199.704	-0.117	-0.001
-155.691	85.892	-0.114	0.124
-154.677	-110.222	-0.390	0.081
-153.662	41.441	0.181	-0.163
-152.647	-119.603	-0.232	-0.040
-151.633	-173.422	-0.398	-0.012
-150.618	545.490	0.109	0.258
-149.604	-149.863	-0.771	-0.060
-148.589	-140.166	-0.154	-0.016
-147.574	800.000	0.066	-0.193
-146.560	432.151	0.191	0.411
-145.545	-87.554	-0.392	0.118
-144.531	60.283	-0.150	0.147
-143.516	101.727	-0.178	0.206
-142.502	800.000	-0.150	-0.581
-141.487	375.208	0.186	-0.376
-140.472	210.831	-0.097	0.151
-139.458	-200.000	-0.000	0.201
-138.443	-104.713	0.238	-0.054
-137.429	-200.000	-0.002	0.260
-136.414	-122.895	0.215	-0.034
-135.399	800.000	-0.078	-0.228
-134.385	279.369	0.115	-0.204
-133.370	-38.062	0.245	-0.129
-132.356	-200.000	-0.018	-0.097
-131.341	141.790	0.213	-0.280
-130.326	83.336	-0.084	-0.090
-129.312	-178.122	0.142	0.003
-128.297	35.792	0.067	-0.058
-127.283	-100.797	0.225	0.055
-126.268	47.205	0.065	-0.060
-125.253	132.217	0.125	0.160
-124.239	-176.415	0.110	0.003
-123.224	-188.049	0.425	0.005
-122.210	474.375	-0.043	0.095
