DTS Sentinel unit serial number:	SN413079Multiplexer serial number:	ORYXHardware model number:	OX4-SRSoftware version number:	ORYX F/W v4.00 Oryx Data Collector v3.7.2.0data status	okinstallation	princeton_trtdifferential loss correction	single-endedforward channel	channel 2reverse channel	N/Adate	2019/09/18time	02:31:35forward acquisition time	60.00reverse acquisition time	0.00gamma	496.2192k internal	0.2350k external	0.2350temperature offset calibration	0.9983default loss term (dB/km)	0.3790temperature slope calibration	1.0000multiplexer offset coefficient	1.0000multiplexer slope coefficient	1.0000fibre end	0.00T internal ref (°C)	22.81T ext. ref 1 (°C)	0.16T ext. ref 2 (°C)	16.80length (m)	temperature (°C)	Stokes	anti-Stokes-747.200	29.446	-0.078	0.066
-746.185	-105.852	0.421	-0.095
-745.171	-9.977	0.133	0.088
-744.156	191.431	-0.100	0.151
-743.142	-74.570	0.281	-0.101
-742.127	73.896	-0.369	0.386
-741.112	800.000	-0.108	-0.361
-740.098	464.072	-0.100	0.223
-739.083	14.430	-0.055	-0.043
-738.069	125.117	-0.325	0.409
-737.054	-24.939	-0.135	-0.080
-736.039	500.766	-0.155	-0.357
-735.025	800.000	-0.090	0.375
-734.010	104.014	0.356	0.417
-732.996	-200.000	0.019	0.166
-731.981	800.000	-0.087	-0.300
-730.966	-45.349	-0.153	0.076
-729.952	61.252	-0.111	0.110
-728.937	487.472	-0.151	-0.343
-727.923	-106.123	-0.063	0.014
-726.908	-121.162	0.207	0.035
-725.894	-50.739	-0.142	0.067
-724.879	-21.602	0.313	0.190
-723.864	37.320	-0.200	0.177
-722.850	-200.000	0.020	0.127
-721.835	185.614	-0.120	0.178
-720.821	-200.000	0.023	0.193
-719.806	-200.000	0.006	-0.246
-718.791	-156.554	-0.056	0.003
-717.777	-82.457	-0.152	-0.049
-716.762	-103.549	0.327	0.077
-715.748	124.032	0.076	-0.095
-714.733	-72.864	0.141	-0.052
-713.718	-20.343	-0.134	0.082
-712.704	193.124	-0.185	0.279
-711.689	-28.203	-0.176	-0.102
-710.675	800.000	-0.089	-0.353
-709.660	-105.332	-0.198	0.045
-708.645	800.000	0.035	0.101
-707.631	163.256	-0.118	0.166
-706.616	112.170	-0.041	0.049
-705.602	708.516	-0.044	-0.116
-704.587	-7.482	0.127	0.086
-703.572	80.212	-0.175	0.188
-702.558	15.407	0.159	0.124
-701.543	-72.819	-0.238	-0.087
-700.529	315.550	0.096	0.180
-699.514	2.356	-0.057	0.041
-698.499	-23.417	0.176	-0.105
-697.485	-200.000	-0.008	0.053
-696.470	94.556	0.143	0.162
-695.456	182.068	-0.252	-0.369
-694.441	383.074	0.225	0.462
-693.426	-200.000	0.029	0.194
-692.412	-161.382	0.333	0.017
-691.397	-147.047	-0.406	0.035
-690.383	-100.908	0.167	0.041
-689.368	630.516	0.088	0.222
-688.354	357.086	-0.130	0.258
-687.339	-200.000	0.099	0.500
-686.324	-200.000	0.005	0.103
-685.310	-62.613	0.226	-0.093
-684.295	-200.000	0.011	0.171
-683.281	-85.002	0.077	-0.024
-682.266	-14.433	0.250	0.160
-681.251	134.800	0.125	-0.161
-680.237	431.181	-0.084	-0.181
-679.222	483.849	-0.116	-0.263
-678.208	-26.793	0.060	0.035
-677.193	247.626	-0.092	0.154
-676.178	-200.000	-0.012	-0.214
-675.164	188.805	0.033	-0.050
-674.149	148.578	0.017	0.023
-673.135	-182.237	-0.209	0.004
-672.120	-200.000	0.001	0.252
-671.105	388.231	-0.220	-0.453
-670.091	60.520	0.107	-0.105
-669.076	-110.758	-0.221	0.045
-668.062	168.278	0.191	0.270
-667.047	-200.000	-0.031	-0.226
-666.032	800.000	-0.016	0.059
-665.018	-75.002	0.116	0.041
-664.003	-200.000	0.048	-0.226
-662.989	-37.625	-0.009	0.005
-661.974	-200.000	-0.002	-0.125
-660.959	-98.681	0.204	0.052
-659.945	205.850	-0.181	0.280
-658.930	-200.000	-0.031	0.140
-657.916	493.377	0.043	-0.097
-656.901	109.755	0.097	-0.115
-655.886	-126.999	-0.189	0.028
-654.872	-200.000	-0.032	0.150
-653.857	-67.290	0.073	0.029
-652.843	269.687	-0.135	-0.235
-651.828	-132.310	-0.384	0.049
-650.814	-82.495	-0.156	-0.050
-649.799	-182.936	-0.071	0.001
-648.784	800.000	-0.029	-0.124
-647.770	-112.337	-0.226	0.045
-646.755	221.933	-0.293	-0.468
-645.741	-200.000	0.026	-0.182
-644.726	-200.000	-0.012	-0.127
-643.711	159.112	0.172	0.238
-642.697	107.865	0.070	-0.082
-641.682	-170.460	0.126	0.004
-640.668	453.841	0.121	-0.266
-639.653	-200.000	-0.021	-0.267
-638.638	135.161	-0.176	0.227
-637.624	227.480	-0.031	-0.050
-636.609	205.244	0.117	0.181
-635.595	-115.559	0.137	-0.026
-634.580	-160.195	0.317	0.017
-633.565	194.388	0.076	0.115
-632.551	320.388	-0.057	0.107
-631.536	800.000	-0.032	0.104
-630.522	117.304	-0.137	0.167
-629.507	-200.000	-0.043	0.267
-628.492	-46.562	-0.093	-0.046
-627.478	-200.000	-0.018	0.289
-626.463	232.846	-0.134	0.218
-625.449	-200.000	0.002	0.035
-624.434	159.635	-0.036	-0.049
-623.419	510.788	-0.045	0.104
-622.405	-64.073	0.159	0.064
-621.390	32.018	-0.103	-0.088
-620.376	-104.984	0.015	-0.003
-619.361	-75.863	-0.336	0.118
-618.346	155.563	0.061	0.084
-617.332	800.000	-0.026	-0.083
-616.317	16.875	-0.200	-0.157
-615.303	-7.459	0.229	0.154
-614.288	-136.870	-0.066	-0.008
-613.273	-121.876	0.329	0.054
-612.259	800.000	0.086	-0.318
-611.244	-9.402	-0.212	-0.140
-610.230	-153.360	-0.365	0.025
-609.215	383.173	-0.124	0.253
-608.201	130.514	-0.128	-0.163
-607.186	-115.829	-0.102	-0.019
-606.171	-34.286	-0.221	-0.121
-605.157	-38.024	-0.133	0.070
-604.142	208.672	0.052	0.080
-603.128	52.500	-0.179	-0.170
-602.113	-200.000	-0.003	-0.351
-601.098	-61.374	-0.228	0.095
-600.084	160.623	0.091	0.126
-599.069	-200.000	0.042	-0.276
-598.055	-200.000	-0.001	-0.133
-597.040	800.000	0.101	-0.347
-596.025	-115.731	0.065	0.012
-595.011	800.000	-0.014	0.058
-593.996	799.503	-0.079	0.215
-592.982	-200.000	0.070	-0.488
-591.967	-200.000	0.045	0.270
-590.952	-200.000	-0.031	-0.150
-589.938	-75.090	0.176	-0.063
-588.923	-50.597	0.068	0.032
-587.909	435.537	-0.235	-0.506
-586.894	-26.927	0.173	0.100
-585.879	613.910	-0.096	0.239
-584.865	652.233	0.114	-0.289
-583.850	-68.325	0.152	0.059
-582.836	800.000	-0.080	-0.282
-581.821	117.379	0.028	0.034
-580.806	-66.214	0.086	-0.034
-579.792	109.089	-0.077	-0.091
-578.777	-70.558	0.166	0.062
-577.763	-200.000	-0.017	0.180
-576.748	-19.402	0.215	0.133
-575.733	474.640	-0.065	0.145
-574.719	-134.572	0.062	-0.007
-573.704	165.955	0.172	-0.241
-572.690	800.000	-0.138	0.529
-571.675	513.294	-0.034	0.079
-570.661	612.561	0.077	-0.190
-569.646	228.871	0.141	-0.229
-568.631	247.995	-0.181	0.304
-567.617	484.306	-0.024	0.053
-566.602	-126.537	0.176	0.026
-565.588	510.729	0.120	0.277
-564.573	153.906	0.182	-0.248
-563.558	-115.024	-0.291	-0.055
-562.544	48.617	0.262	0.243
-561.529	800.000	-0.019	-0.056
-560.515	-200.000	0.022	-0.113
-559.500	-200.000	0.006	0.183
-558.485	137.520	0.028	-0.036
-557.471	-200.000	0.001	0.172
-556.456	-82.292	0.110	0.035
-555.442	800.000	-0.041	-0.152
-554.427	461.403	0.189	-0.418
-553.412	-200.000	-0.001	0.641
-552.398	-200.000	-0.024	0.354
-551.383	185.357	0.161	0.237
-550.369	137.610	-0.056	-0.073
-549.354	-42.939	-0.094	0.047
-548.339	-200.000	-0.013	-0.167
-547.325	340.233	0.079	0.152
-546.310	131.621	0.120	-0.153
-545.296	-38.313	-0.228	0.120
-544.281	-100.458	-0.231	-0.057
-543.266	-200.000	-0.004	-0.033
-542.252	202.914	0.039	0.060
-541.237	-29.154	0.240	0.136
-540.223	-200.000	0.046	0.293
-539.208	203.421	-0.044	-0.067
-538.193	-200.000	0.036	0.241
-537.179	-10.099	-0.156	-0.102
-536.164	-200.000	-0.001	0.043
-535.150	352.687	0.120	0.236
-534.135	-66.044	-0.294	0.116
-533.121	-122.472	-0.385	0.062
-532.106	-105.918	0.256	0.057
-531.091	-49.562	0.055	0.026
-530.077	-200.000	0.045	-0.382
-529.062	-44.089	0.206	0.102
-528.048	-66.610	0.093	0.036
-527.033	40.335	0.159	0.142
-526.018	-23.257	0.180	-0.107
-525.004	20.347	0.117	-0.094
-523.989	800.000	-0.092	-0.347
-522.975	237.427	-0.091	-0.149
-521.960	-79.356	-0.445	0.149
-520.945	26.626	-0.219	-0.182
-519.931	138.600	0.178	-0.231
-518.916	-200.000	0.020	-0.361
-517.902	107.035	-0.102	-0.119
-516.887	273.776	0.113	-0.198
-515.872	800.000	-0.033	0.113
-514.858	-71.604	-0.075	0.028
-513.843	105.592	0.122	-0.143
-512.829	8.473	-0.015	0.011
-511.814	-200.000	-0.214	-0.000
-510.799	54.272	-0.135	0.129
-509.785	7.936	-0.241	0.179
-508.770	399.253	-0.176	-0.365
-507.756	800.000	0.110	-0.342
-506.741	281.490	0.240	-0.426
-505.726	-20.614	0.312	-0.190
-504.712	-168.855	0.256	0.010
-503.697	196.067	-0.146	-0.220
-502.683	-200.000	-0.024	-0.152
-501.668	77.979	-0.085	0.090
-500.653	75.158	0.024	0.025
-499.639	-16.696	0.240	0.150
-498.624	-118.852	0.127	0.022
-497.610	424.239	0.058	0.123
-496.595	-102.089	-0.191	0.046
-495.581	-58.527	-0.390	-0.167
-494.566	-26.447	-0.053	-0.031
-493.551	-118.478	0.151	0.027
-492.537	-165.908	-0.148	0.006
-491.522	800.000	0.054	-0.157
-490.508	-74.030	0.141	-0.050
-489.493	133.626	-0.079	0.102
-488.478	-200.000	-0.032	0.241
-487.464	-200.000	-0.038	-0.208
-486.449	300.424	0.162	0.296
-485.435	-200.000	-0.011	0.095
-484.420	-121.696	-0.061	0.010
-483.405	488.581	0.097	-0.219
-482.391	-152.456	-0.230	0.016
-481.376	800.000	0.029	-0.102
-480.362	85.742	0.089	-0.096
-479.347	-200.000	-0.006	0.217
-478.332	800.000	0.013	0.038
-477.318	-150.284	-0.260	-0.020
-476.303	-200.000	-0.027	-0.127
-475.289	-134.124	0.105	-0.013
-474.274	472.779	0.113	-0.252
-473.259	45.547	-0.077	0.071
-472.245	-110.685	-0.273	-0.056
-471.230	179.711	0.096	0.139
-470.216	-75.304	-0.385	-0.136
-469.201	26.168	-0.097	0.080
-468.186	-127.603	0.255	-0.036
-467.172	-90.321	0.118	0.034
-466.157	-200.000	0.022	-0.246
-465.143	-9.111	-0.333	-0.220
-464.128	-200.000	0.047	-0.277
-463.113	-114.746	0.219	0.041
-462.099	800.000	0.052	0.165
-461.084	-200.000	-0.004	-0.095
-460.070	278.804	-0.086	0.151
-459.055	-76.647	-0.136	0.047
-458.040	57.129	-0.222	0.213
-457.026	-190.367	-0.393	0.004
-456.011	3.138	-0.072	0.052
-454.997	146.917	0.101	-0.135
-453.982	-200.000	0.029	0.223
-452.968	574.186	0.080	-0.193
-451.953	-81.254	0.163	0.053
-450.938	-200.000	0.036	0.202
-449.924	-29.787	-0.078	0.044
-448.909	-114.244	0.210	0.040
-447.895	44.821	0.402	0.366
-446.880	238.937	-0.086	0.140
-445.865	175.075	-0.128	-0.183
-444.851	721.128	-0.085	0.223
-443.836	-42.515	-0.176	0.089
-442.822	800.000	0.095	-0.309
-441.807	-170.534	-0.213	0.007
-440.792	464.229	0.092	-0.203
-439.778	-63.400	0.187	-0.076
-438.763	800.000	0.118	0.390
-437.749	-108.848	-0.037	-0.008
-436.734	27.911	0.121	0.100
-435.719	-96.682	0.146	-0.038
-434.705	-83.809	-0.224	0.070
-433.690	-119.132	-0.145	0.025
-432.676	-200.000	-0.007	-0.155
-431.661	148.590	-0.093	-0.124
-430.646	-200.000	0.006	0.274
-429.632	-46.420	0.211	-0.102
-428.617	59.566	0.060	-0.059
-427.603	284.503	-0.158	-0.280
-426.588	162.135	-0.077	-0.106
-425.573	-65.795	-0.425	-0.168
-424.559	-148.687	0.281	0.023
-423.544	85.192	0.376	-0.406
-422.530	41.272	0.246	-0.219
-421.515	264.498	0.077	-0.133
-420.500	-200.000	-0.021	0.097
-419.486	-33.440	-0.303	0.165
-418.471	-135.055	0.204	-0.024
-417.457	-200.000	0.038	0.257
-416.442	800.000	-0.044	0.176
-415.428	690.549	-0.138	-0.356
-414.413	-91.794	-0.094	-0.026
-413.398	209.917	0.037	0.058
-412.384	-144.829	-0.318	-0.029
-411.369	0.000	-0.055	0.039
-410.355	720.789	-0.149	-0.390
-409.340	-82.077	0.202	-0.065
-408.325	-109.458	-0.149	0.031
-407.311	115.160	0.052	-0.063
-406.296	-200.000	0.019	0.093
-405.282	337.738	-0.106	0.203
-404.267	178.166	-0.060	0.087
-403.252	-119.203	-0.414	-0.071
-402.238	34.577	0.130	0.112
-401.223	-186.803	0.454	0.006
-400.209	-199.171	0.213	0.001
-399.194	-174.872	-0.348	-0.010
-398.179	-124.160	-0.362	-0.056
-397.165	-106.665	0.188	-0.041
-396.150	-129.462	-0.198	-0.027
-395.136	-12.725	0.170	-0.109
-394.121	241.255	-0.116	0.190
-393.106	-90.327	-0.229	-0.066
-392.092	-176.712	0.375	-0.009
-391.077	-200.000	0.041	-0.187
-390.063	-63.361	-0.089	-0.036
-389.048	27.095	0.345	-0.285
-388.033	-200.000	0.079	-0.372
-387.019	-117.316	0.367	0.066
-386.004	131.697	-0.174	-0.220
-384.990	-200.000	0.020	0.097
-383.975	355.612	0.079	-0.155
-382.960	800.000	-0.035	-0.103
-381.946	603.427	0.086	-0.210
-380.931	-9.740	-0.133	0.087
-379.917	800.000	0.074	-0.219
-378.902	67.308	0.168	-0.168
-377.888	19.537	-0.143	0.113
-376.873	733.583	0.069	0.182
-375.858	-0.063	-0.303	0.212
-374.844	-4.249	0.174	-0.119
-373.829	79.140	0.252	-0.265
-372.815	443.384	0.061	-0.131
-371.800	-106.152	0.232	0.051
-370.785	-200.000	-0.022	0.190
-369.771	-72.166	-0.231	-0.084
-368.756	-5.435	-0.109	0.074
-367.742	800.000	-0.040	0.133
-366.727	51.967	0.053	-0.050
-365.712	-39.322	-0.368	-0.190
-364.698	-200.000	0.053	0.262
-363.683	-18.659	-0.352	-0.216
-362.669	369.450	-0.116	0.232
-361.654	-145.157	0.332	0.030
-360.639	312.980	0.107	-0.198
-359.625	800.000	-0.059	0.197
-358.610	-131.617	0.272	-0.035
-357.596	98.444	-0.100	0.114
-356.581	-73.384	0.287	0.103
-355.566	800.000	-0.092	0.259
-354.552	80.223	-0.144	-0.153
-353.537	788.550	0.086	-0.231
-352.523	75.898	0.204	-0.213
-351.508	10.933	-0.139	-0.105
-350.493	-121.809	-0.275	0.045
-349.479	-26.895	-0.059	-0.034
-348.464	157.325	0.191	-0.259
-347.450	388.807	-0.062	-0.127
-346.435	180.081	-0.078	-0.113
-345.420	146.063	-0.073	-0.097
-344.406	-20.290	0.064	-0.039
-343.391	-7.663	-0.237	-0.158
-342.377	800.000	0.018	-0.070
-341.362	-47.536	0.061	0.029
-340.348	83.230	0.254	-0.271
-339.333	-62.588	0.573	0.234
-338.318	-119.748	-0.142	0.024
-337.304	10.965	0.117	0.088
-336.289	147.273	0.347	0.458
-335.275	-60.307	0.383	0.160
-334.260	243.305	0.114	0.187
-333.245	15.253	-0.248	-0.191
-332.231	-26.990	-0.257	0.147
-331.216	612.578	0.087	0.214
-330.202	129.155	0.247	0.309
-329.187	-200.000	-0.011	0.194
-328.172	800.000	-0.076	0.235
-327.158	13.295	0.064	0.049
-326.143	105.319	-0.208	0.241
-325.129	800.000	0.053	-0.158
-324.114	149.266	0.060	-0.079
-323.099	-52.847	-0.107	-0.048
-322.085	330.874	-0.101	0.190
-321.070	-34.552	0.241	-0.130
-320.056	800.000	0.027	-0.087
-319.041	-59.032	0.282	-0.120
-318.026	-70.070	-0.153	-0.057
-317.012	114.055	0.129	0.154
-315.997	-33.591	0.170	-0.092
-314.983	-200.000	0.022	-0.169
-313.968	97.245	0.217	0.244
-312.953	-175.000	0.036	0.001
-311.939	-200.000	-0.046	0.274
-310.924	-200.000	0.014	0.146
-309.910	800.000	0.167	-0.476
-308.895	-15.648	-0.156	-0.098
-307.880	-200.000	-0.060	-0.368
-306.866	-200.000	0.013	0.257
-305.851	800.000	0.068	0.196
-304.837	543.625	-0.125	-0.293
-303.822	67.006	0.124	0.124
-302.807	-47.399	-0.118	0.056
-301.793	-200.000	-0.004	0.074
-300.778	173.735	0.214	0.304
-299.764	-74.316	0.256	0.091
-298.749	-200.000	0.019	-0.249
-297.735	-200.000	0.024	0.156
-296.720	-200.000	0.035	0.195
-295.705	-1.234	-0.070	0.048
-294.691	130.314	0.164	-0.206
-293.676	800.000	0.027	-0.080
-292.662	80.264	0.297	0.313
-291.647	150.947	0.114	0.152
-290.632	2.774	-0.172	0.123
-289.618	-92.317	-0.148	-0.041
-288.603	87.424	-0.166	0.180
-287.589	749.295	0.069	0.182
-286.574	350.443	-0.046	0.090
-285.559	164.964	0.059	-0.082
-284.545	60.115	-0.188	-0.182
-283.530	-200.000	-0.029	-0.153
-282.516	270.555	-0.070	-0.120
-281.501	-44.651	0.447	0.219
-280.486	-128.339	-0.100	0.014
-279.472	-200.000	-0.024	0.110
-278.457	800.000	-0.056	-0.221
-277.443	23.154	0.229	-0.184
-276.428	-40.180	-0.362	0.185
-275.413	-200.000	0.005	0.082
-274.399	-166.231	0.166	-0.007
-273.384	18.998	0.092	-0.072
-272.370	122.396	-0.183	0.224
-271.355	-200.000	-0.035	-0.346
-270.340	33.041	0.156	0.132
-269.326	23.353	-0.320	0.258
-268.311	-167.309	0.483	-0.019
-267.297	-122.245	-0.320	-0.051
-266.282	-5.205	0.209	-0.141
-265.267	-110.170	0.141	-0.029
-264.253	-67.284	0.218	-0.084
-263.238	483.454	-0.081	0.180
-262.224	349.547	-0.067	-0.129
-261.209	-68.753	-0.193	-0.073
-260.195	115.457	-0.124	0.148
-259.180	-110.007	0.274	-0.056
-258.165	209.463	-0.099	-0.153
-257.151	205.253	0.240	0.364
-256.136	-98.661	-0.502	0.125
-255.122	56.956	0.069	0.066
-254.107	800.000	0.081	-0.282
-253.092	30.240	0.299	0.250
-252.078	332.343	-0.166	0.314
-251.063	-200.000	0.033	0.166
-250.049	265.269	0.177	0.302
-249.034	-200.000	0.007	0.177
-248.019	-107.119	0.171	0.037
-247.005	-102.237	-0.255	-0.060
-245.990	-200.000	-0.057	0.249
-244.976	25.262	-0.108	0.088
-243.961	-14.941	0.129	0.081
-242.946	152.321	0.050	0.067
-241.932	800.000	0.125	-0.372
-240.917	24.137	-0.139	-0.112
-239.903	-200.000	-0.000	-0.168
-238.888	-168.909	-0.292	0.011
-237.873	67.331	0.125	-0.124
-236.859	-166.360	-0.130	0.005
-235.844	-200.000	-0.033	0.148
-234.830	-200.000	0.059	0.558
-233.815	-150.883	-0.235	-0.017
-232.800	-137.653	0.162	0.018
-231.786	800.000	-0.112	0.378
-230.771	0.392	-0.108	-0.076
-229.757	71.827	0.341	0.347
-228.742	-139.451	-0.146	-0.015
-227.727	468.287	-0.017	0.038
-226.713	-200.000	-0.017	-0.102
-225.698	-73.982	-0.246	-0.087
-224.684	-37.928	-0.321	-0.167
-223.669	-83.623	-0.400	0.125
-222.655	-200.000	0.015	0.107
-221.640	368.519	-0.047	0.094
-220.625	171.952	-0.112	-0.158
-219.611	-67.354	0.180	0.069
-218.596	25.593	0.157	-0.128
-217.582	46.801	-0.128	0.116
-216.567	441.790	0.042	-0.091
-215.552	-200.000	-0.005	-0.044
-214.538	-126.549	-0.534	-0.077
-213.523	-200.000	-0.006	0.134
-212.509	30.600	-0.148	-0.123
-211.494	-31.662	0.281	-0.154
-210.479	-130.458	0.264	0.035
-209.465	800.000	-0.118	0.320
-208.450	-200.000	0.029	0.252
-207.436	109.172	0.045	0.053
-206.421	-88.911	-0.062	0.018
-205.406	71.646	0.169	-0.172
-204.392	-200.000	-0.024	-0.244
-203.377	-3.483	0.099	-0.068
-202.363	143.972	0.195	-0.254
-201.348	280.307	0.093	0.162
-200.333	-200.000	0.041	0.391
-199.319	-200.000	-0.031	-0.174
-198.304	300.354	0.064	0.116
-197.290	39.483	-0.138	0.121
-196.275	-22.454	-0.230	-0.136
-195.260	306.058	-0.074	-0.135
-194.246	-109.038	0.123	-0.026
-193.231	-200.000	0.003	0.071
-192.217	-119.044	0.201	0.034
-191.202	452.962	0.171	-0.370
-190.187	-149.045	0.303	0.024
-189.173	-45.156	0.066	-0.032
-188.158	-134.218	0.048	0.006
-187.144	137.257	0.136	-0.173
-186.129	164.727	-0.173	0.238
-185.114	-42.045	-0.205	0.103
-184.100	-99.613	0.356	-0.087
-183.085	-113.875	-0.133	0.025
-182.071	-200.000	0.015	-0.132
-181.056	288.102	-0.129	0.228
-180.042	-200.000	-0.069	-0.303
-179.027	-200.000	-0.011	-0.055
-178.012	-25.706	0.309	-0.178
-176.998	-97.427	0.102	-0.026
-175.983	559.634	-0.124	0.294
-174.969	-151.702	-0.036	0.003
-173.954	274.114	0.055	-0.095
-172.939	800.000	0.016	0.044
-171.925	-32.307	-0.154	-0.084
-170.910	-79.334	0.303	0.100
-169.896	221.891	-0.121	0.190
-168.881	-82.842	-0.189	-0.060
-167.866	-19.524	0.390	0.236
-166.852	64.507	-0.134	0.132
-165.837	156.319	-0.122	-0.164
-164.823	-200.000	0.005	0.239
-163.808	-130.186	-0.050	0.007
-162.793	240.635	0.061	0.099
-161.779	-25.583	-0.197	0.113
-160.764	49.438	-0.138	0.126
-159.750	-87.276	-0.433	-0.128
-158.735	800.000	-0.041	-0.132
-157.720	515.770	0.065	0.148
-156.706	-18.097	0.046	0.028
-155.691	-79.388	-0.188	0.062
-154.677	-163.678	0.079	0.004
-153.662	-23.077	0.033	-0.020
-152.647	-75.276	-0.175	0.061
-151.633	129.768	-0.355	-0.443
-150.618	8.989	0.212	0.156
-149.604	800.000	0.089	0.275
-148.589	-65.672	-0.085	0.033
-147.574	-200.000	-0.060	0.668
-146.560	-200.000	0.030	-0.509
-145.545	47.879	0.060	0.055
-144.531	7.203	-0.200	-0.145
-143.516	-182.440	-0.147	-0.003
-142.502	-200.000	-0.010	-0.154
-141.487	-66.740	0.163	0.063
-140.472	-48.917	-0.117	-0.055
-139.458	66.920	0.110	0.109
-138.443	144.465	-0.073	0.096
-137.429	11.133	0.219	-0.163
-136.414	-9.243	-0.135	0.088
-135.399	548.297	-0.160	0.374
-134.385	-69.848	0.341	0.127
-133.370	329.762	-0.045	0.085
-132.356	-35.951	-0.111	0.059
-131.341	-200.000	-0.021	-0.145
-130.326	197.338	0.294	0.437
-129.312	597.591	0.042	-0.102
-128.297	-61.122	0.323	-0.133
-127.283	115.975	0.241	0.287
-126.268	-200.000	-0.002	-0.066
-125.253	-107.145	-0.179	-0.038
-124.239	161.574	0.135	0.184
-123.224	292.387	-0.107	0.190
-122.210	-176.727	0.147	0.004
-121.195	800.000	0.058	0.171
