DTS Sentinel unit serial number:	SN413079Multiplexer serial number:	ORYXHardware model number:	OX4-SRSoftware version number:	ORYX F/W v4.00 Oryx Data Collector v3.7.2.0data status	okinstallation	princeton_trtdifferential loss correction	single-endedforward channel	channel 2reverse channel	N/Adate	2019/09/13time	06:27:35forward acquisition time	60.00reverse acquisition time	0.00gamma	496.2192k internal	0.2338k external	0.2338temperature offset calibration	1.0190default loss term (dB/km)	0.3790temperature slope calibration	1.0000multiplexer offset coefficient	1.0000multiplexer slope coefficient	1.0000fibre end	0.00T internal ref (°C)	26.06T ext. ref 1 (°C)	4.09T ext. ref 2 (°C)	20.66length (m)	temperature (°C)	Stokes	anti-Stokes-747.200	160.137	-0.055	0.077
-746.185	800.000	-0.099	0.298
-745.171	-87.972	0.542	0.164
-744.156	-11.236	-0.325	0.215
-743.142	49.849	0.096	0.091
-742.127	-200.000	0.045	0.440
-741.112	346.710	-0.020	0.039
-740.098	221.706	-0.164	0.265
-739.083	-200.000	-0.068	-0.321
-738.069	-139.580	-0.124	0.013
-737.054	800.000	0.098	0.313
-736.039	76.152	-0.160	-0.170
-735.025	-91.038	-0.166	0.048
-734.010	800.000	0.100	-0.395
-732.996	364.027	-0.171	-0.344
-731.981	-200.000	-0.014	-0.076
-730.966	6.924	-0.136	-0.101
-729.952	800.000	-0.033	-0.142
-728.937	-135.064	-0.284	0.034
-727.923	-147.158	0.195	-0.017
-726.908	98.834	0.161	0.186
-725.894	-122.130	-0.088	-0.015
-724.879	396.350	0.130	-0.272
-723.864	104.438	0.155	0.182
-722.850	-29.888	0.219	0.125
-721.835	800.000	-0.112	-0.321
-720.821	-200.000	-0.003	0.108
-719.806	82.016	0.115	-0.125
-718.791	-34.668	-0.137	0.075
-717.777	-117.268	-0.154	-0.028
-716.762	-87.536	0.115	0.035
-715.748	239.358	0.121	-0.201
-714.733	-184.800	0.133	0.002
-713.718	-82.163	-0.095	-0.031
-712.704	-79.814	-0.213	0.072
-711.689	-21.816	0.160	-0.098
-710.675	90.785	0.268	-0.301
-709.660	-200.000	-0.034	-0.263
-708.645	-200.000	0.066	0.443
-707.631	-161.478	0.089	-0.005
-706.616	800.000	-0.064	-0.220
-705.602	440.838	0.078	-0.171
-704.587	-200.000	-0.060	-0.275
-703.572	-38.491	-0.061	-0.032
-702.558	-200.000	0.014	0.283
-701.543	3.504	-0.223	-0.163
-700.529	-188.719	0.237	-0.003
-699.514	-88.789	0.172	-0.051
-698.499	55.035	0.339	0.328
-697.485	58.391	-0.164	-0.161
-696.470	47.229	-0.155	0.145
-695.456	800.000	0.072	0.216
-694.441	-121.335	-0.260	0.043
-693.426	24.022	-0.038	0.032
-692.412	-200.000	0.078	-0.448
-691.397	121.558	-0.165	-0.206
-690.383	-200.000	0.000	-0.225
-689.368	-6.410	0.276	-0.188
-688.354	157.845	-0.117	0.163
-687.339	800.000	-0.092	0.302
-686.324	613.743	0.100	0.251
-685.310	431.990	0.045	0.098
-684.295	94.666	0.107	0.122
-683.281	-49.000	0.297	-0.142
-682.266	800.000	-0.032	-0.118
-681.251	-200.000	-0.019	-0.260
-680.237	800.000	0.103	0.322
-679.222	-134.387	0.293	-0.036
-678.208	-40.248	-0.113	0.059
-677.193	121.668	-0.191	0.238
-676.178	80.792	-0.135	0.146
-675.164	36.327	0.244	0.216
-674.149	-200.000	0.053	-0.281
-673.135	-11.348	-0.175	0.115
-672.120	26.931	-0.115	-0.097
-671.105	43.827	0.259	-0.238
-670.091	5.030	0.233	0.172
-669.076	603.667	-0.053	-0.131
-668.062	745.138	0.140	-0.377
-667.047	600.237	-0.052	-0.130
-666.032	2.069	0.088	-0.064
-665.018	-43.193	-0.253	-0.128
-664.003	155.322	-0.103	0.142
-662.989	193.507	0.128	0.193
-661.974	-68.529	0.177	0.069
-660.959	489.780	0.081	-0.185
-659.945	73.704	-0.153	-0.161
-658.930	10.691	-0.054	0.041
-657.916	-69.901	-0.216	-0.082
-656.901	297.763	-0.100	-0.183
-655.886	45.605	0.198	-0.183
-654.872	60.879	-0.163	0.162
-653.857	-200.000	0.010	-0.049
-652.843	800.000	-0.076	0.244
-651.828	-200.000	-0.037	0.535
-650.814	800.000	0.138	-0.472
-649.799	-157.805	-0.213	0.013
-648.784	-102.279	0.257	-0.062
-647.770	-200.000	0.002	-0.037
-646.755	-200.000	0.031	-0.478
-645.741	202.617	-0.098	-0.152
-644.726	-200.000	0.067	-0.521
-643.711	-200.000	-0.024	0.126
-642.697	-147.086	0.269	0.023
-641.682	-139.537	0.148	-0.016
-640.668	-54.827	-0.399	0.180
-639.653	43.990	-0.327	-0.299
-638.638	279.598	-0.101	-0.181
-637.624	558.148	-0.053	-0.128
-636.609	-53.723	0.194	0.089
-635.595	83.265	0.258	0.280
-634.580	-174.851	-0.052	-0.001
-633.565	190.893	-0.101	-0.151
-632.551	19.344	-0.284	-0.228
-631.536	39.846	0.025	-0.022
-630.522	800.000	0.081	-0.297
-629.507	-189.145	0.066	0.001
-628.492	148.296	-0.040	-0.054
-627.478	135.046	0.034	0.045
-626.463	800.000	-0.109	-0.388
-625.449	-27.344	-0.304	-0.177
-624.434	-115.818	-0.243	0.045
-623.419	-34.184	-0.232	-0.127
-622.405	-95.515	0.247	-0.066
-621.390	800.000	-0.040	0.146
-620.376	-1.521	0.053	-0.037
-619.361	45.997	0.107	-0.099
-618.346	-200.000	-0.016	-0.118
-617.332	-200.000	-0.039	-0.251
-616.317	-144.388	-0.248	-0.023
-615.303	-28.089	0.353	-0.204
-614.288	243.669	-0.194	-0.325
-613.273	-200.000	0.013	-0.089
-612.259	-160.193	-0.507	-0.027
-611.244	-167.863	-0.182	0.007
-610.230	255.498	-0.106	-0.182
-609.215	31.128	-0.140	-0.119
-608.201	49.093	-0.153	-0.144
-607.186	256.619	-0.116	0.199
-606.171	513.985	0.065	0.151
-605.157	-200.000	-0.017	0.266
-604.142	105.315	0.043	-0.051
-603.128	28.901	-0.244	-0.206
-602.113	-87.880	0.194	-0.058
-601.098	-18.016	-0.197	0.123
-600.084	-142.143	0.364	-0.036
-599.069	747.506	-0.062	0.167
-598.055	94.826	0.178	0.202
-597.040	183.420	-0.176	-0.259
-596.025	208.359	-0.073	-0.113
-595.011	-118.652	-0.204	0.036
-593.996	-91.854	0.433	-0.122
-592.982	800.000	-0.079	0.268
-591.967	-200.000	-0.059	0.356
-590.952	-35.125	0.100	0.054
-589.938	-20.887	-0.170	-0.104
-588.923	752.272	-0.138	-0.372
-587.909	552.121	-0.020	0.049
-586.894	-155.643	0.120	-0.008
-585.879	-34.642	-0.170	-0.093
-584.865	1.180	-0.094	-0.067
-583.850	446.818	0.128	0.281
-582.836	800.000	-0.120	0.425
-581.821	-145.157	0.202	0.018
-580.806	217.219	0.240	-0.381
-579.792	19.698	-0.149	-0.119
-578.777	288.641	-0.194	-0.350
-577.763	-36.959	-0.203	0.108
-576.748	-200.000	0.019	-0.336
-575.733	-164.694	0.119	0.005
-574.719	-60.009	0.227	-0.096
-573.704	125.440	0.058	-0.073
-572.690	4.703	-0.166	0.121
-571.675	58.552	-0.219	0.215
-570.661	89.549	-0.063	0.070
-569.646	-122.743	0.013	0.002
-568.631	-63.359	0.176	-0.072
-567.617	-73.820	-0.100	-0.036
-566.602	-179.400	-0.126	-0.003
-565.588	-140.867	0.341	-0.035
-564.573	800.000	-0.051	-0.143
-563.558	-59.737	0.135	0.057
-562.544	-200.000	0.000	-0.066
-561.529	-150.875	0.088	-0.007
-560.515	-110.019	0.264	-0.055
-559.500	800.000	-0.051	-0.205
-558.485	800.000	-0.052	-0.167
-557.471	800.000	-0.012	-0.044
-556.456	246.203	-0.224	-0.375
-555.442	-60.220	0.064	-0.027
-554.427	-43.240	-0.185	-0.093
-553.412	-200.000	-0.018	0.195
-552.398	800.000	-0.092	-0.304
-551.383	-127.782	-0.170	-0.024
-550.369	173.753	-0.161	0.231
-549.354	216.217	-0.182	0.289
-548.339	-22.021	-0.065	-0.040
-547.325	-136.659	-0.051	-0.006
-546.310	7.383	-0.250	-0.186
-545.296	77.358	-0.165	-0.175
-544.281	-200.000	-0.151	-0.001
-543.266	-90.503	-0.331	-0.095
-542.252	500.155	-0.025	-0.059
-541.237	-200.000	0.033	-0.244
-540.223	497.089	0.070	0.161
-539.208	96.074	0.205	0.233
-538.193	-32.029	-0.230	0.128
-537.179	-17.916	-0.315	0.197
-536.164	293.070	-0.082	0.150
-535.150	-200.000	0.009	0.065
-534.135	159.477	-0.192	-0.267
-533.121	-200.000	-0.005	-0.098
-532.106	800.000	-0.044	0.137
-531.091	69.307	-0.261	0.268
-530.077	734.957	0.134	0.357
-529.062	440.515	0.011	-0.024
-528.048	-77.140	0.228	-0.079
-527.033	-124.944	0.280	0.043
-526.018	-191.605	0.220	-0.002
-525.004	-200.000	-0.015	0.066
-523.989	111.075	-0.151	0.181
-522.975	-200.000	0.039	-0.329
-521.960	-166.851	-0.157	0.006
-520.945	182.715	0.155	-0.227
-519.931	800.000	0.017	0.054
-518.916	-136.964	0.266	0.030
-517.902	-200.000	0.011	-0.260
-516.887	-124.258	0.089	0.014
-515.872	800.000	-0.068	-0.230
-514.858	571.836	0.087	-0.212
-513.843	-3.692	-0.501	0.346
-512.829	-200.000	-0.046	0.410
-511.814	800.000	0.019	0.064
-510.799	-200.000	0.027	0.282
-509.785	36.487	-0.050	-0.044
-508.770	0.145	-0.107	0.076
-507.756	-78.975	-0.102	-0.034
-506.741	156.258	-0.182	-0.249
-505.726	-23.380	-0.060	0.036
-504.712	800.000	0.059	0.228
-503.697	90.393	-0.152	0.169
-502.683	249.896	0.107	0.180
-501.668	-143.617	-0.131	-0.012
-500.653	-78.819	-0.110	-0.037
-499.639	-40.822	-0.043	-0.022
-498.624	48.653	-0.119	0.111
-497.610	-145.998	0.117	0.010
-496.595	-1.541	0.101	0.071
-495.581	800.000	0.013	-0.053
-494.566	691.421	-0.126	-0.328
-493.551	80.909	-0.273	-0.293
-492.537	-200.000	-0.047	0.259
-491.522	-158.415	0.300	-0.017
-490.508	-200.000	-0.005	-0.120
-489.493	-62.471	-0.212	0.087
-488.478	-105.715	-0.041	-0.009
-487.464	-16.271	0.153	-0.097
-486.449	-38.456	-0.101	-0.053
-485.435	731.764	-0.139	0.369
-484.420	-41.867	0.228	-0.116
-483.405	-200.000	0.013	0.355
-482.391	-41.204	-0.193	0.099
-481.376	800.000	-0.019	-0.068
-480.362	-100.881	-0.212	0.052
-479.347	-131.544	-0.065	0.008
-478.332	-52.593	0.260	0.119
-477.318	-22.373	0.207	-0.124
-476.303	482.125	-0.046	-0.104
-475.289	-165.086	0.176	0.008
-474.274	153.015	-0.077	0.105
-473.259	-34.723	-0.195	0.106
-472.245	-200.000	0.024	0.252
-471.230	335.429	-0.042	0.082
-470.216	-162.632	0.165	0.008
-469.201	178.741	-0.132	-0.191
-468.186	-124.532	-0.229	-0.035
-467.172	-1.872	0.179	-0.125
-466.157	53.489	0.227	-0.216
-465.143	-184.396	0.217	-0.004
-464.128	138.246	-0.276	-0.360
-463.113	-19.809	0.203	-0.125
-462.099	-167.360	0.112	0.004
-461.084	67.369	-0.196	-0.198
-460.070	-200.000	-0.016	-0.180
-459.055	26.864	0.079	0.066
-458.040	79.315	0.205	0.218
-457.026	-80.446	0.184	0.061
-456.011	4.426	-0.074	-0.054
-454.997	-56.159	-0.235	-0.104
-453.982	369.335	0.039	0.078
-452.968	61.339	0.063	0.062
-451.953	150.756	0.123	0.165
-450.938	-7.093	-0.182	-0.122
-449.924	69.098	0.148	-0.151
-448.909	800.000	0.044	-0.185
-447.895	-200.000	0.007	-0.071
-446.880	-162.825	-0.032	0.002
-445.865	-200.000	-0.013	-0.115
-444.851	8.362	-0.185	0.138
-443.836	128.491	-0.105	0.132
-442.822	800.000	-0.052	0.220
-441.807	471.470	-0.032	-0.071
-440.792	54.341	-0.136	-0.129
-439.778	84.129	0.162	0.175
-438.763	-200.000	0.014	-0.137
-437.749	-132.588	-0.085	-0.011
-436.734	-18.857	-0.161	0.099
-435.719	800.000	0.069	-0.265
-434.705	101.460	0.110	0.127
-433.690	-110.292	-0.228	0.047
-432.676	-162.714	0.367	0.018
-431.661	-49.637	-0.143	-0.067
-430.646	76.019	-0.270	-0.283
-429.632	-73.193	-0.057	-0.021
-428.617	-50.182	-0.347	0.163
-427.603	-104.940	-0.253	-0.058
-426.588	129.048	0.226	0.286
-425.573	-43.193	0.141	-0.071
-424.559	800.000	-0.155	-0.596
-423.544	122.911	-0.197	0.245
-422.530	-200.000	-0.026	0.156
-421.515	800.000	0.067	0.195
-420.500	197.740	-0.183	-0.277
-419.486	-101.622	-0.336	0.081
-418.471	800.000	0.090	0.262
-417.457	172.403	-0.229	0.327
-416.442	233.092	0.018	-0.029
-415.428	389.222	-0.144	-0.296
-414.413	57.143	-0.029	0.028
-413.398	-183.986	-0.168	-0.003
-412.384	420.404	-0.059	0.125
-411.369	-115.092	-0.320	-0.060
-410.355	-27.460	-0.068	-0.039
-409.340	800.000	0.129	-0.398
-408.325	-200.000	0.032	0.147
-407.311	161.084	-0.176	0.243
-406.296	13.758	-0.209	-0.161
-405.282	-116.150	-0.274	0.050
-404.267	-71.638	0.053	-0.020
-403.252	-153.797	0.334	-0.023
-402.238	718.753	-0.107	0.280
-401.223	562.057	-0.036	-0.087
-400.209	142.445	0.110	0.144
-399.194	-139.378	0.114	-0.012
-398.179	-44.566	-0.269	-0.133
-397.165	75.221	0.090	-0.094
-396.150	148.224	0.081	-0.109
-395.136	800.000	0.055	-0.186
-394.121	42.636	0.216	0.194
-393.106	-28.905	-0.088	-0.050
-392.092	-200.000	0.014	-0.158
-391.077	74.404	0.126	0.131
-390.063	-150.308	0.226	0.017
-389.048	-86.807	-0.247	0.075
-388.033	-103.267	0.121	-0.028
-387.019	404.841	-0.099	0.206
-386.004	-200.000	0.007	-0.139
-384.990	-90.377	-0.135	-0.039
-383.975	298.608	-0.119	0.217
-382.960	-85.362	-0.175	-0.054
-381.946	-137.254	-0.139	0.016
-380.931	82.910	-0.224	-0.241
-379.917	-200.000	0.013	-0.209
-378.902	-67.638	0.361	0.140
-377.888	-127.230	-0.124	-0.018
-376.873	-159.719	0.294	0.016
-375.858	-143.882	0.179	-0.017
-374.844	-190.796	-0.111	-0.001
-373.829	216.485	0.146	0.230
-372.815	50.671	-0.214	-0.201
-371.800	385.462	-0.022	-0.045
-370.785	189.861	-0.085	-0.125
-369.771	389.002	0.091	-0.186
-368.756	-18.284	-0.040	-0.025
-367.742	-72.893	0.174	0.063
-366.727	-117.929	-0.226	0.040
-365.712	-75.072	0.340	-0.120
-364.698	450.339	-0.102	-0.224
-363.683	178.101	0.031	-0.045
-362.669	-200.000	-0.031	0.195
-361.654	-43.480	0.163	0.081
-360.639	10.255	-0.139	0.105
-359.625	244.359	0.052	-0.087
-358.610	61.585	0.071	0.070
-357.596	-40.516	-0.393	0.202
-356.581	350.795	0.210	-0.410
-355.566	-63.663	0.117	0.047
-354.552	-70.136	-0.245	0.092
-353.537	800.000	0.132	0.419
-352.523	-200.000	-0.031	0.143
-351.508	-200.000	-0.004	-0.343
-350.493	44.917	-0.036	-0.033
-349.479	800.000	0.043	-0.166
-348.464	-112.812	0.415	0.081
-347.450	113.390	0.219	0.263
-346.435	-200.000	0.188	0.000
-345.420	-33.163	-0.241	-0.132
-344.406	-200.000	0.056	-0.288
-343.391	-32.949	0.127	-0.070
-342.377	63.671	0.209	-0.207
-341.362	-200.000	0.031	0.299
-340.348	-200.000	0.001	0.388
-339.333	-200.000	0.008	-0.099
-338.318	567.987	-0.039	-0.094
-337.304	-200.000	-0.010	-0.162
-336.289	-68.894	0.258	0.098
-335.275	-1.183	0.293	-0.205
-334.260	357.600	-0.089	0.176
-333.245	-108.532	0.111	0.024
-332.231	-78.364	-0.152	0.052
-331.216	-126.503	0.184	0.027
-330.202	198.706	0.100	-0.151
-329.187	-89.578	-0.103	-0.030
-328.172	150.205	-0.222	0.298
-327.158	-150.831	-0.126	-0.009
-326.143	380.506	0.059	-0.119
-325.129	-172.975	0.152	0.005
-324.114	159.542	0.179	0.246
-323.099	-96.723	-0.116	0.030
-322.085	-29.513	0.090	-0.051
-321.070	141.298	0.148	-0.194
-320.056	598.398	-0.046	-0.112
-319.041	-56.076	-0.225	-0.099
-318.026	172.792	-0.045	-0.063
-317.012	-62.584	0.147	0.060
-315.997	800.000	-0.024	-0.077
-314.983	316.240	-0.132	-0.246
-313.968	800.000	-0.032	-0.107
-312.953	304.396	0.217	-0.396
-311.939	106.876	-0.257	-0.302
-310.924	191.927	-0.078	-0.116
-309.910	13.120	0.295	-0.226
-308.895	-48.141	0.324	-0.154
-307.880	-21.710	-0.117	0.070
-306.866	43.111	-0.090	0.081
-305.851	-200.000	0.002	0.054
-304.837	156.641	-0.040	0.054
-303.822	-82.687	-0.185	0.059
-302.807	-60.697	0.226	0.095
-301.793	211.602	0.166	0.258
-300.778	32.728	0.226	-0.193
-299.764	97.401	0.203	0.230
-298.749	-0.039	-0.210	0.147
-297.735	192.068	0.148	0.221
-296.720	-84.600	0.478	-0.149
-295.705	-65.733	0.112	-0.044
-294.691	-154.501	0.175	-0.012
-293.676	-70.316	-0.033	0.012
-292.662	-200.000	-0.012	-0.141
-291.647	80.491	0.273	0.290
-290.632	19.639	0.111	-0.088
-289.618	800.000	0.073	-0.255
-288.603	127.629	-0.359	0.450
-287.589	-75.705	-0.061	-0.021
-286.574	-130.188	-0.113	-0.015
-285.559	-144.864	-0.064	-0.006
-284.545	493.062	0.070	0.159
-283.530	89.993	0.249	-0.274
-282.516	-200.000	0.005	0.108
-281.501	201.586	0.106	0.162
-280.486	252.022	0.113	-0.190
-279.472	-75.704	0.220	-0.077
-278.457	-85.967	0.279	0.085
-277.443	-200.000	-0.008	0.168
-276.428	-33.181	-0.180	0.098
-275.413	800.000	-0.043	0.116
-274.399	-87.703	-0.197	0.059
-273.384	-146.775	0.584	0.050
-272.370	277.737	0.111	0.194
-271.355	202.917	0.018	0.027
-270.340	459.777	-0.093	0.205
-269.326	800.000	0.038	0.137
-268.311	159.639	0.224	-0.308
-267.297	118.592	0.210	0.256
-266.282	-96.044	0.276	0.072
-265.267	-89.668	-0.033	-0.009
-264.253	-11.006	0.046	0.030
-263.238	-30.990	0.204	0.114
-262.224	-200.000	-0.030	0.170
-261.209	-61.759	0.358	-0.148
-260.195	800.000	0.076	0.273
-259.180	800.000	-0.042	0.153
-258.165	346.634	0.084	-0.163
-257.151	97.876	-0.070	0.079
-256.136	-80.037	0.181	-0.060
-255.122	-126.702	-0.123	0.018
-254.107	-108.774	0.326	0.069
-253.092	-72.767	0.324	0.117
-252.078	65.562	-0.207	0.206
-251.063	-21.592	-0.053	0.032
-250.049	184.859	-0.258	0.376
-249.034	177.857	0.059	-0.085
-248.019	-200.000	-0.022	0.418
-247.005	800.000	-0.038	0.119
-245.990	800.000	0.141	0.451
-244.976	-41.186	0.214	0.109
-243.961	367.214	-0.090	-0.179
-242.946	-13.473	-0.242	0.154
-241.932	-69.247	0.046	0.017
-240.917	800.000	0.061	-0.179
-239.903	-77.678	0.150	0.051
-238.888	-200.000	0.050	0.294
-237.873	33.660	0.106	0.091
-236.859	656.882	-0.054	-0.136
-235.844	152.060	-0.055	-0.074
-234.830	-77.071	0.194	-0.067
-233.815	417.782	0.127	-0.267
-232.800	-17.454	-0.322	0.199
-231.786	-132.091	-0.141	-0.018
-230.771	8.935	-0.372	-0.276
-229.757	34.494	-0.214	-0.183
-228.742	-59.801	0.235	0.099
-227.727	800.000	-0.104	0.414
-226.713	-126.067	0.216	-0.032
-225.698	-74.179	-0.314	0.112
-224.684	-200.000	-0.046	0.201
-223.669	-120.870	-0.256	-0.042
-222.655	-111.822	-0.078	0.016
-221.640	-126.448	0.366	-0.053
-220.625	46.071	0.209	-0.190
-219.611	-93.007	0.089	-0.024
-218.596	653.683	-0.069	0.174
-217.582	86.751	-0.117	-0.126
-216.567	113.719	-0.091	-0.108
-215.552	-117.283	0.285	-0.051
-214.538	-200.000	0.020	0.371
-213.523	-39.781	-0.118	0.060
-212.509	-99.662	-0.344	-0.085
-211.494	-29.216	0.296	-0.167
-210.479	-43.462	0.096	0.048
-209.465	504.597	0.091	-0.207
-208.450	231.217	0.170	0.274
-207.436	562.212	0.199	0.473
-206.421	258.203	-0.130	-0.220
-205.406	300.344	0.104	0.188
-204.392	-50.847	-0.155	-0.071
-203.377	111.295	0.104	0.123
-202.363	-11.085	-0.118	0.077
-201.348	-10.052	0.288	-0.188
-200.333	-200.000	-0.033	0.337
-199.319	49.261	0.105	0.097
-198.304	-0.873	-0.117	-0.081
-197.290	-54.077	0.209	-0.093
-196.275	800.000	0.079	-0.242
-195.260	44.456	0.051	0.046
-194.246	614.805	0.144	0.355
-193.231	800.000	0.094	0.335
-192.217	-41.418	0.137	0.069
-191.202	144.868	-0.103	-0.135
-190.187	367.111	0.128	-0.253
-189.173	118.649	0.122	-0.148
-188.158	800.000	-0.073	-0.273
-187.144	-74.951	0.098	-0.035
-186.129	-35.904	-0.468	0.248
-185.114	-73.675	-0.278	-0.099
-184.100	47.607	0.155	0.142
-183.085	36.567	-0.269	-0.233
-182.071	78.092	-0.242	0.253
-181.056	162.500	-0.136	0.188
-180.042	52.872	-0.189	0.177
-179.027	-200.000	0.002	-0.083
-178.012	279.184	0.045	0.079
-176.998	-37.042	0.332	0.175
-175.983	-44.166	-0.233	0.115
-174.969	90.647	0.308	0.338
-173.954	-85.798	0.108	0.033
-172.939	82.133	-0.335	0.357
-171.925	-102.033	0.211	0.050
-170.910	-116.810	0.168	0.030
-169.896	112.285	-0.062	-0.073
-168.881	800.000	-0.035	-0.128
-167.866	-85.939	0.366	-0.111
-166.852	-8.476	-0.012	0.008
-165.837	27.983	0.041	0.034
-164.823	-34.556	-0.275	0.148
-163.808	241.659	0.056	-0.091
-162.793	-82.188	0.145	-0.047
-161.779	-200.000	-0.035	-0.292
-160.764	-65.572	0.069	0.027
-159.750	305.226	0.057	-0.104
-158.735	-51.900	0.127	-0.058
-157.720	-93.743	0.296	0.080
-156.706	599.515	-0.013	-0.032
-155.691	-200.000	0.003	-0.044
-154.677	-200.000	-0.017	0.120
-153.662	800.000	0.071	-0.217
-152.647	117.417	0.313	0.378
-151.633	800.000	0.064	0.202
-150.618	-200.000	0.036	0.188
-149.604	249.593	-0.131	0.218
-148.589	34.083	0.150	-0.128
-147.574	-0.097	-0.157	0.110
-146.560	58.356	-0.133	0.128
-145.545	-120.099	-0.251	0.042
-144.531	162.845	0.042	0.058
-143.516	84.214	-0.225	0.241
-142.502	-143.905	0.199	-0.018
-141.487	-200.000	0.052	0.302
-140.472	-200.000	-0.011	0.257
-139.458	134.306	-0.063	-0.081
-138.443	-52.683	-0.223	-0.101
-137.429	-100.335	0.479	-0.117
-136.414	89.679	-0.204	-0.223
-135.399	-151.439	0.179	-0.013
-134.385	800.000	0.078	-0.221
-133.370	61.080	0.190	0.185
-132.356	304.628	-0.119	0.217
-131.341	-12.899	-0.304	0.194
-130.326	-164.581	-0.296	-0.013
-129.312	-49.474	0.241	0.113
-128.297	-200.000	-0.056	-0.367
-127.283	198.649	0.050	-0.074
-126.268	-166.753	-0.356	0.014
-125.253	-140.078	-0.235	0.024
-124.239	31.876	0.123	0.104
-123.224	-164.328	-0.182	0.008
-122.210	330.217	-0.085	0.160
-121.195	110.535	-0.147	-0.173
