DTS Sentinel unit serial number:	SN413079Multiplexer serial number:	ORYXHardware model number:	OX4-SRSoftware version number:	ORYX F/W v4.00 Oryx Data Collector v3.7.2.0data status	okinstallation	princeton_trtdifferential loss correction	single-endedforward channel	channel 2reverse channel	N/Adate	2019/09/11time	05:33:10forward acquisition time	60.00reverse acquisition time	0.00gamma	496.2192k internal	0.2330k external	0.2330temperature offset calibration	0.9942default loss term (dB/km)	0.3790temperature slope calibration	1.0000multiplexer offset coefficient	1.0000multiplexer slope coefficient	1.0000fibre end	0.00T internal ref (°C)	29.42T ext. ref 1 (°C)	-0.22T ext. ref 2 (°C)	23.37length (m)	temperature (°C)	Stokes	anti-Stokes-747.200	800.000	0.050	0.183
-746.185	-200.000	-0.032	0.277
-745.171	-65.129	0.163	0.066
-744.156	65.534	-0.096	0.098
-743.142	800.000	-0.057	-0.202
-742.127	-200.000	-0.043	0.198
-741.112	38.498	-0.025	-0.023
-740.098	-65.422	0.190	0.077
-739.083	184.382	0.066	-0.098
-738.069	15.087	-0.072	-0.057
-737.054	-35.972	0.177	0.096
-736.039	800.000	-0.055	-0.198
-735.025	201.801	-0.118	0.184
-734.010	-138.098	0.034	0.004
-732.996	102.209	0.129	-0.152
-731.981	9.009	-0.430	-0.327
-730.966	-13.679	0.271	0.177
-729.952	800.000	-0.057	0.204
-728.937	-89.145	0.070	0.021
-727.923	37.130	-0.104	0.093
-726.908	800.000	-0.135	-0.388
-725.894	800.000	-0.090	-0.282
-724.879	67.194	-0.156	-0.160
-723.864	-200.000	-0.015	-0.267
-722.850	-35.618	0.177	-0.097
-721.835	262.050	0.158	-0.275
-720.821	-13.098	0.036	-0.023
-719.806	177.761	-0.102	-0.150
-718.791	-200.000	0.004	-0.047
-717.777	-200.000	-0.060	-0.445
-716.762	136.860	0.050	-0.065
-715.748	800.000	-0.124	-0.365
-714.733	-200.000	-0.011	0.058
-713.718	362.245	-0.070	0.141
-712.704	1.933	0.147	0.107
-711.689	-200.000	0.077	-0.413
-710.675	-78.165	0.193	-0.067
-709.660	-193.108	-0.124	-0.001
-708.645	720.797	-0.035	-0.093
-707.631	-200.000	0.064	-0.520
-706.616	52.377	0.032	-0.031
-705.602	-118.170	0.333	-0.060
-704.587	55.757	0.271	0.264
-703.572	306.814	-0.135	-0.254
-702.558	-78.008	0.207	-0.072
-701.543	107.746	-0.076	0.091
-700.529	268.949	-0.104	0.183
-699.514	800.000	-0.066	0.214
-698.499	420.015	0.045	0.097
-697.485	-200.000	-0.009	0.077
-696.470	-200.000	0.028	-0.132
-695.456	-59.042	-0.239	-0.104
-694.441	112.226	0.265	0.322
-693.426	637.761	0.110	0.282
-692.412	64.916	-0.229	0.232
-691.397	-200.000	0.025	0.200
-690.383	137.093	0.126	-0.166
-689.368	-200.000	0.057	-0.407
-688.354	166.035	0.170	-0.242
-687.339	93.923	-0.017	0.019
-686.324	-189.618	-0.060	0.001
-685.310	-3.280	-0.133	0.093
-684.295	102.152	-0.075	0.088
-683.281	800.000	0.062	0.185
-682.266	-6.134	-0.286	-0.197
-681.251	548.045	-0.061	-0.147
-680.237	800.000	0.022	-0.061
-679.222	6.119	-0.226	-0.168
-678.208	-95.170	-0.147	0.040
-677.193	0.343	0.299	-0.215
-676.178	667.300	-0.148	-0.383
-675.164	-126.364	0.294	0.044
-674.149	-160.383	0.155	-0.008
-673.135	-115.427	-0.220	0.042
-672.120	10.045	-0.023	0.017
-671.105	-200.000	0.008	0.052
-670.091	67.465	0.270	0.277
-669.076	624.875	0.087	-0.221
-668.062	4.057	-0.228	-0.168
-667.047	125.383	-0.146	0.185
-666.032	-200.000	0.025	0.218
-665.018	-200.000	0.101	-0.479
-664.003	32.129	0.046	-0.040
-662.989	800.000	0.124	-0.347
-661.974	-35.408	0.156	-0.085
-660.959	41.542	0.097	0.088
-659.945	81.206	0.070	0.076
-658.930	186.394	0.134	0.200
-657.916	24.348	-0.174	-0.144
-656.901	250.412	0.077	-0.131
-655.886	-142.819	-0.311	0.030
-654.872	83.836	-0.157	-0.172
-653.857	-162.554	0.346	-0.017
-652.843	800.000	-0.049	0.171
-651.828	392.393	-0.091	0.190
-650.814	-35.704	0.231	0.126
-649.799	-200.000	0.063	-0.557
-648.784	-200.000	-0.010	-0.123
-647.770	-61.408	0.455	0.192
-646.755	-32.880	-0.167	0.093
-645.741	-133.481	0.032	-0.004
-644.726	368.094	-0.058	-0.117
-643.711	575.310	0.101	0.246
-642.697	800.000	0.042	-0.151
-641.682	-89.695	-0.339	-0.100
-640.668	800.000	-0.038	-0.152
-639.653	-94.165	0.125	-0.034
-638.638	-92.927	-0.227	-0.064
-637.624	290.943	-0.125	-0.229
-636.609	233.867	-0.068	-0.113
-635.595	214.692	0.127	0.201
-634.580	608.539	0.100	0.249
-633.565	-51.931	0.145	0.067
-632.551	87.899	0.119	0.132
-631.536	-18.107	0.186	0.117
-630.522	37.521	-0.227	-0.202
-629.507	236.754	0.085	-0.141
-628.492	-200.000	-0.002	0.077
-627.478	31.469	0.169	-0.146
-626.463	-42.345	-0.172	0.088
-625.449	37.823	-0.132	-0.118
-624.434	-128.467	-0.234	0.033
-623.419	-97.103	-0.062	-0.016
-622.405	-141.019	0.162	-0.017
-621.390	-122.480	0.260	0.042
-620.376	271.241	-0.217	0.383
-619.361	-136.762	-0.223	0.026
-618.346	-154.219	-0.268	0.018
-617.332	800.000	-0.085	0.269
-616.317	-104.515	-0.128	-0.030
-615.303	-135.792	0.219	-0.026
-614.288	123.605	0.169	0.212
-613.273	-128.570	0.009	0.001
-612.259	139.379	-0.071	-0.093
-611.244	-200.000	-0.027	-0.238
-610.230	-73.780	-0.468	0.171
-609.215	-200.000	-0.054	0.267
-608.201	129.166	-0.082	0.105
-607.186	187.117	-0.190	-0.283
-606.171	-200.000	0.057	-0.306
-605.157	-92.687	-0.173	-0.049
-604.142	-87.598	0.147	0.045
-603.128	-155.766	-0.341	-0.022
-602.113	14.218	-0.099	0.077
-601.098	-61.353	-0.114	-0.048
-600.084	800.000	-0.078	0.287
-599.069	-200.000	-0.034	-0.232
-598.055	353.411	0.055	-0.108
-597.040	-145.806	0.272	-0.024
-596.025	-170.809	0.175	-0.006
-595.011	24.115	-0.174	-0.144
-593.996	-200.000	0.039	-0.266
-592.982	-61.612	-0.123	0.052
-591.967	-158.262	0.159	-0.009
-590.952	154.727	-0.100	0.138
-589.938	-200.000	0.217	-0.001
-588.923	800.000	0.025	0.085
-587.909	-200.000	0.014	0.236
-586.894	-164.779	-0.274	-0.012
-585.879	-134.001	-0.126	-0.016
-584.865	-24.398	0.137	0.082
-583.850	-103.632	0.178	-0.042
-582.836	-179.140	0.135	-0.003
-581.821	42.352	-0.034	0.030
-580.806	-105.099	0.271	0.062
-579.792	-72.426	-0.337	-0.125
-578.777	-38.880	-0.282	0.149
-577.763	-108.567	-0.129	-0.028
-576.748	-200.000	-0.007	0.161
-575.733	-110.665	0.260	0.054
-574.719	-149.669	-0.513	0.040
-573.704	800.000	0.012	-0.036
-572.690	-80.781	0.099	0.033
-571.675	-6.030	0.308	0.211
-570.661	303.991	0.095	0.176
-569.646	-34.812	-0.224	0.122
-568.631	-200.000	0.005	-0.039
-567.617	-4.840	0.391	0.270
-566.602	-108.668	-0.205	0.044
-565.588	154.377	0.063	0.087
-564.573	-110.111	-0.441	-0.092
-563.558	324.573	0.056	-0.106
-562.544	-200.000	0.038	0.299
-561.529	-200.000	0.029	0.192
-560.515	-136.460	-0.226	-0.026
-559.500	133.802	0.054	-0.070
-558.485	769.865	-0.061	-0.166
-557.471	-200.000	0.000	0.032
-556.456	-200.000	0.028	-0.262
-555.442	-200.000	0.048	-0.424
-554.427	-64.697	0.387	-0.157
-553.412	272.414	0.192	0.340
-552.398	-72.511	0.034	-0.013
-551.383	14.834	-0.151	-0.118
-550.369	-200.000	0.044	-0.193
-549.354	283.609	-0.178	0.320
-548.339	-45.870	0.210	0.104
-547.325	11.053	-0.216	0.165
-546.310	-200.000	0.003	-0.015
-545.296	-27.560	-0.142	0.082
-544.281	115.769	0.154	0.188
-543.266	-173.325	-0.149	0.005
-542.252	518.293	-0.088	0.207
-541.237	-72.054	0.309	-0.115
-540.223	-41.534	-0.550	0.283
-539.208	286.228	0.041	0.074
-538.193	-200.000	-0.034	0.188
-537.179	81.869	-0.113	0.123
-536.164	-32.450	-0.237	-0.132
-535.150	-89.182	-0.231	-0.068
-534.135	-200.000	0.011	-0.057
-533.121	-50.636	-0.330	-0.155
-532.106	-31.657	0.028	-0.015
-531.091	-200.000	0.022	0.354
-530.077	-8.437	0.156	0.105
-529.062	-200.000	0.025	-0.261
-528.048	149.005	-0.092	-0.125
-527.033	-61.473	-0.099	-0.041
-526.018	800.000	0.065	-0.200
-525.004	-83.040	-0.002	-0.001
-523.989	-24.349	-0.252	0.150
-522.975	206.441	-0.315	0.489
-521.960	-130.384	-0.454	0.061
-520.945	88.927	-0.237	0.264
-519.931	-200.000	-0.024	-0.164
-518.916	614.464	-0.037	0.093
-517.902	-61.168	-0.050	0.021
-516.887	729.834	-0.038	-0.102
-515.872	62.902	0.104	-0.104
-514.858	178.318	0.028	-0.041
-513.843	-200.000	-0.035	-0.179
-512.829	-92.888	0.182	0.051
-511.814	129.928	0.199	0.254
-510.799	10.863	-0.192	-0.146
-509.785	-92.113	-0.099	0.028
-508.770	54.666	0.112	0.108
-507.756	258.699	-0.022	0.037
-506.741	-42.670	0.191	0.097
-505.726	-200.000	0.003	0.018
-504.712	-145.147	0.156	-0.014
-503.697	-31.142	-0.319	-0.179
-502.683	-200.000	-0.014	-0.202
-501.668	184.559	0.074	-0.109
-500.653	800.000	0.046	-0.180
-499.639	669.166	0.172	-0.445
-498.624	109.337	0.329	0.393
-497.610	-130.318	0.249	0.034
-496.595	-151.352	-0.137	0.010
-495.581	-200.000	-0.048	-0.264
-494.566	28.347	0.284	0.240
-493.551	-12.847	-0.100	0.065
-492.537	223.455	0.167	-0.269
-491.522	-156.095	-0.329	0.021
-490.508	141.735	-0.135	-0.178
-489.493	-1.242	-0.135	-0.095
-488.478	-200.000	-0.003	-0.337
-487.464	-43.855	0.067	-0.034
-486.449	-27.298	-0.110	-0.064
-485.435	-85.054	-0.287	0.090
-484.420	-200.000	0.082	0.382
-483.405	-200.000	0.005	0.148
-482.391	-200.000	0.025	0.254
-481.376	-138.672	-0.104	0.011
-480.362	104.128	0.091	-0.106
-479.347	-200.000	-0.024	0.224
-478.332	1.813	-0.089	-0.064
-477.318	14.931	-0.049	-0.038
-476.303	735.791	0.067	-0.179
-475.289	-100.881	0.435	-0.107
-474.274	-200.000	-0.078	-0.349
-473.259	-14.616	0.068	-0.044
-472.245	-200.000	0.060	-0.293
-471.230	800.000	0.072	0.253
-470.216	800.000	0.035	-0.127
-469.201	-90.378	-0.293	0.085
-468.186	665.095	0.057	0.147
-467.172	-133.040	0.158	0.020
-466.157	-162.785	0.133	0.006
-465.143	-200.000	0.040	-0.285
-464.128	-109.496	-0.047	-0.010
-463.113	-156.088	-0.050	-0.003
-462.099	-121.247	0.420	-0.070
-461.084	150.695	0.120	-0.162
-460.070	115.037	-0.115	-0.140
-459.055	-69.063	-0.298	0.114
-458.040	143.258	0.152	0.201
-457.026	88.042	0.192	-0.212
-456.011	-200.000	0.013	-0.136
-454.997	-200.000	0.019	-0.084
-453.982	237.971	-0.081	-0.134
-452.968	-121.961	-0.129	0.021
-451.953	72.055	-0.121	-0.125
-450.938	-57.016	-0.161	-0.071
-449.924	-162.904	0.115	0.006
-448.909	66.249	-0.200	0.202
-447.895	-200.000	0.029	-0.137
-446.880	-41.695	-0.249	0.127
-445.865	-44.935	0.162	-0.080
-444.851	-111.489	0.366	-0.074
-443.836	113.723	0.178	0.215
-442.822	-111.664	0.194	0.039
-441.807	-63.794	-0.100	-0.041
-440.792	64.895	0.102	-0.103
-439.778	-200.000	-0.024	-0.248
-438.763	800.000	0.065	0.182
-437.749	694.467	0.029	0.076
-436.734	-72.939	0.148	-0.054
-435.719	800.000	0.015	0.051
-434.705	5.670	-0.186	-0.137
-433.690	800.000	-0.100	0.336
-432.676	415.611	0.125	-0.266
-431.661	-88.641	-0.181	-0.054
-430.646	73.877	0.040	0.041
-429.632	-12.610	0.102	0.066
-428.617	-200.000	0.012	0.634
-427.603	-148.574	0.110	-0.009
-426.588	-55.976	0.143	-0.063
-425.573	-60.634	-0.086	0.036
-424.559	39.597	0.371	0.331
-423.544	196.046	0.143	-0.216
-422.530	-86.335	-0.144	0.044
-421.515	97.909	0.111	0.127
-420.500	335.830	0.066	-0.128
-419.486	-30.568	-0.435	-0.245
-418.471	347.937	0.064	0.126
-417.457	322.562	-0.069	-0.131
-416.442	800.000	0.042	-0.138
-415.428	24.632	-0.227	0.186
-414.413	-200.000	0.023	-0.139
-413.398	-134.033	-0.095	-0.012
-412.384	-136.064	-0.083	-0.010
-411.369	115.945	-0.231	0.281
-410.355	-132.598	0.134	-0.017
-409.340	-119.470	0.158	0.027
-408.325	-43.369	0.167	-0.084
-407.311	70.796	0.202	0.208
-406.296	800.000	-0.113	-0.338
-405.282	-84.230	-0.125	0.039
-404.267	254.133	-0.165	-0.281
-403.252	-165.366	-0.321	-0.014
-402.238	-105.875	0.381	-0.085
-401.223	-200.000	0.018	0.132
-400.209	-14.128	0.326	-0.209
-399.194	224.738	-0.180	0.290
-398.179	108.663	0.216	-0.256
-397.165	-99.097	0.190	0.048
-396.150	-154.287	-0.180	-0.012
-395.136	-41.225	-0.235	0.120
-394.121	-200.000	0.022	-0.266
-393.106	-69.906	0.237	-0.090
-392.092	-200.000	-0.057	0.298
-391.077	-12.713	0.113	-0.073
-390.063	-162.063	-0.150	0.008
-389.048	-121.124	-0.267	-0.044
-388.033	14.789	-0.148	0.115
-387.019	800.000	-0.048	-0.199
-386.004	-108.892	0.108	0.023
-384.990	143.194	0.089	0.117
-383.975	-29.292	0.196	0.111
-382.960	64.162	0.304	0.303
-381.946	800.000	-0.091	0.269
-380.931	-55.526	0.291	-0.129
-379.917	800.000	0.046	-0.146
-378.902	128.919	0.054	0.069
-377.888	800.000	-0.018	0.069
-376.873	164.123	-0.182	-0.255
-375.858	-144.220	-0.220	-0.020
-374.844	-200.000	0.012	-0.406
-373.829	-36.274	0.041	-0.022
-372.815	774.305	-0.121	0.328
-371.800	201.385	-0.114	0.174
-370.785	800.000	0.074	-0.268
-369.771	-167.803	-0.157	-0.006
-368.756	-200.000	0.013	0.143
-367.742	800.000	0.053	-0.172
-366.727	-200.000	-0.017	0.088
-365.712	33.055	0.059	-0.051
-364.698	177.003	0.148	-0.214
-363.683	408.843	0.080	-0.169
-362.669	-31.956	0.144	-0.080
-361.654	673.272	0.069	0.177
-360.639	163.726	-0.171	0.239
-359.625	-68.438	-0.222	0.086
-358.610	9.073	0.173	0.130
-357.596	-200.000	-0.003	-0.114
-356.581	7.650	0.172	-0.128
-355.566	-29.979	0.110	0.062
-354.552	-200.000	0.001	0.069
-353.537	240.809	0.090	0.148
-352.523	450.730	0.043	-0.095
-351.508	-30.630	-0.274	-0.154
-350.493	-24.455	0.213	-0.126
-349.479	-56.600	0.215	0.094
-348.464	-64.816	0.074	0.030
-347.450	115.686	-0.084	0.102
-346.435	-36.701	-0.254	-0.135
-345.420	-25.005	-0.444	-0.261
-344.406	475.191	0.069	0.154
-343.391	-200.000	0.039	-0.235
-342.377	-200.000	-0.033	-0.248
-341.362	-161.357	-0.230	0.012
-340.348	-35.736	0.251	-0.135
-339.333	338.679	-0.045	0.087
-338.318	77.594	-0.329	-0.347
-337.304	28.775	0.340	-0.285
-336.289	-158.556	0.170	0.010
-335.275	11.218	0.339	-0.257
-334.260	-173.185	0.301	0.009
-333.245	172.662	0.112	0.160
-332.231	-47.292	-0.284	-0.137
-331.216	766.423	0.017	-0.046
-330.202	120.523	0.127	-0.157
-329.187	289.725	0.021	0.038
-328.172	107.672	0.217	-0.256
-327.158	-200.000	-0.005	0.396
-326.143	800.000	-0.031	0.091
-325.129	-200.000	-0.007	0.085
-324.114	145.526	0.068	-0.090
-323.099	-36.944	-0.134	0.071
-322.085	15.686	-0.136	0.106
-321.070	93.297	0.167	0.187
-320.056	58.518	0.168	-0.163
-319.041	-150.333	0.193	-0.015
-318.026	297.229	0.073	-0.133
-317.012	-132.112	0.239	0.031
-315.997	-165.258	0.369	0.016
-314.983	-70.166	0.069	-0.026
-313.968	280.761	-0.098	-0.173
-312.953	-200.000	0.059	-0.263
-311.939	53.326	0.057	-0.054
-310.924	230.994	0.100	0.162
-309.910	143.408	-0.226	-0.298
-308.895	-120.900	0.263	0.044
-307.880	-106.568	0.096	0.021
-306.866	-98.677	0.050	-0.013
-305.851	-200.000	-0.054	0.404
-304.837	-74.848	0.332	-0.118
-303.822	90.507	-0.183	0.203
-302.807	119.668	-0.155	0.189
-301.793	224.252	0.080	0.128
-300.778	49.404	0.135	-0.126
-299.764	174.720	-0.171	0.245
-298.749	-200.000	0.000	-0.225
-297.735	391.386	-0.104	-0.214
-296.720	-200.000	0.038	-0.206
-295.705	20.401	-0.145	-0.116
-294.691	-76.615	-0.318	-0.111
-293.676	140.571	-0.239	-0.313
-292.662	54.315	-0.161	-0.154
-291.647	431.019	-0.089	-0.191
-290.632	-0.956	-0.111	-0.077
-289.618	-63.602	-0.175	-0.071
-288.603	130.125	-0.122	0.155
-287.589	-200.000	0.003	0.300
-286.574	800.000	-0.021	-0.069
-285.559	-159.873	-0.256	-0.014
-284.545	-122.601	-0.271	0.044
-283.530	-46.115	0.404	0.197
-282.516	-200.000	0.020	0.300
-281.501	0.360	-0.112	0.079
-280.486	29.025	0.194	-0.163
-279.472	90.217	0.159	0.176
-278.457	375.409	0.134	0.270
-277.443	-200.000	0.019	0.223
-276.428	-144.924	0.165	-0.015
-275.413	9.500	-0.190	-0.142
-274.399	-4.568	0.119	0.081
-273.384	-200.000	0.026	-0.207
-272.370	800.000	0.065	0.218
-271.355	800.000	0.032	0.107
-270.340	253.758	-0.027	-0.046
-269.326	283.955	0.095	-0.169
-268.311	130.156	0.244	0.309
-267.297	-159.031	-0.195	0.011
-266.282	178.745	0.036	0.052
-265.267	-59.371	0.217	0.092
-264.253	-200.000	0.013	0.159
-263.238	42.056	-0.358	-0.321
-262.224	-200.000	0.022	-0.122
-261.209	-200.000	-0.004	0.192
-260.195	-200.000	-0.047	-0.411
-259.180	-56.887	0.134	-0.059
-258.165	800.000	-0.023	0.063
-257.151	88.487	-0.036	-0.039
-256.136	37.820	-0.061	-0.054
-255.122	308.832	-0.084	0.155
-254.107	800.000	0.052	0.195
-253.092	-138.990	0.078	-0.008
-252.078	146.691	0.121	-0.161
-251.063	126.827	-0.132	-0.165
-250.049	800.000	0.026	0.072
-249.034	-34.614	-0.362	0.196
-248.019	312.077	-0.207	0.383
-247.005	-134.978	-0.328	-0.039
-245.990	-200.000	-0.046	-0.443
-244.976	800.000	0.012	0.044
-243.961	112.681	0.069	-0.083
-242.946	-103.826	-0.037	-0.009
-241.932	-65.596	-0.165	0.065
-240.917	-75.315	0.401	0.141
-239.903	-159.467	0.199	0.011
-238.888	84.440	-0.086	0.093
-237.873	-200.000	0.026	0.476
-236.859	-81.990	0.271	0.087
-235.844	-122.757	0.207	-0.033
-234.830	67.661	0.042	0.043
-233.815	67.948	-0.072	0.073
-232.800	44.593	0.193	0.175
-231.786	-11.327	0.226	0.147
-230.771	372.196	0.044	0.088
-229.757	-16.814	-0.160	-0.100
-228.742	384.881	-0.119	0.243
-227.727	-11.273	-0.146	0.095
-226.713	-25.537	0.088	0.051
-225.698	161.473	0.106	-0.147
-224.684	252.315	-0.102	0.171
-223.669	-81.887	-0.114	-0.037
-222.655	89.194	0.246	-0.270
-221.640	800.000	-0.031	-0.106
-220.625	395.978	0.058	-0.120
-219.611	119.819	0.254	-0.311
-218.596	-127.810	-0.145	0.021
-217.582	-21.494	-0.119	-0.071
-216.567	-91.361	-0.043	-0.012
-215.552	-83.091	-0.106	0.034
-214.538	-46.837	-0.181	0.087
-213.523	-58.958	-0.038	-0.016
-212.509	55.307	-0.172	-0.164
-211.494	-127.793	-0.253	0.036
-210.479	31.765	-0.258	-0.219
-209.465	239.970	0.047	0.077
-208.450	-200.000	0.026	0.220
-207.436	-70.102	-0.321	-0.121
-206.421	246.415	0.071	-0.119
-205.406	-41.685	0.215	-0.109
-204.392	-178.009	-0.110	-0.003
-203.377	-79.943	0.234	0.078
-202.363	77.247	-0.282	0.295
-201.348	800.000	0.026	0.112
-200.333	-1.582	0.293	-0.204
-199.319	103.700	-0.092	-0.106
-198.304	1.184	-0.084	0.059
-197.290	-200.000	-0.268	-0.001
-196.275	-200.000	0.012	0.255
-195.260	-200.000	-0.004	0.266
-194.246	-77.579	0.196	0.067
-193.231	-88.439	0.166	-0.049
-192.217	-14.950	0.071	-0.045
-191.202	44.829	0.270	0.245
-190.187	260.623	-0.116	0.197
-189.173	96.218	0.202	-0.227
-188.158	70.401	0.188	-0.191
-187.144	-17.422	-0.193	0.120
-186.129	328.662	-0.122	-0.232
-185.114	-87.639	-0.371	0.110
-184.100	344.599	-0.039	-0.075
-183.085	470.035	0.090	-0.200
-182.071	438.373	-0.072	-0.155
-181.056	-45.588	-0.230	-0.112
-180.042	-37.404	-0.009	0.005
-179.027	-86.713	0.285	0.086
-178.012	800.000	-0.091	-0.264
-176.998	-146.368	-0.356	0.031
-175.983	17.691	0.155	0.121
-174.969	169.521	0.176	0.248
-173.954	800.000	0.033	0.099
-172.939	-82.822	-0.078	0.025
-171.925	-50.702	0.161	-0.075
-170.910	-200.000	0.008	0.105
-169.896	205.381	-0.113	-0.173
-168.881	-99.341	-0.124	-0.031
-167.866	46.987	0.075	-0.069
-166.852	800.000	0.038	0.140
-165.837	321.451	0.183	-0.344
-164.823	800.000	-0.046	-0.171
-163.808	125.719	0.144	0.178
-162.793	-0.097	0.059	0.041
-161.779	-118.170	0.251	-0.044
-160.764	-200.000	0.040	0.192
-159.750	343.341	0.175	0.338
-158.735	-200.000	-0.032	0.156
-157.720	-114.488	0.188	-0.036
-156.706	-200.000	0.055	0.283
-155.691	-200.000	0.007	-0.131
-154.677	644.058	0.110	-0.276
-153.662	103.027	0.186	-0.214
-152.647	370.721	0.134	0.267
-151.633	415.945	0.059	0.124
-150.618	156.775	0.102	0.138
-149.604	52.057	-0.051	0.048
-148.589	-140.675	-0.186	0.019
-147.574	-99.787	-0.050	-0.012
-146.560	-7.149	0.334	0.223
-145.545	-200.000	-0.043	-0.203
-144.531	-107.907	-0.165	-0.035
-143.516	-55.952	-0.177	-0.078
-142.502	-26.286	0.223	0.129
-141.487	110.815	-0.036	0.043
-140.472	-101.443	0.303	0.072
-139.458	-200.000	-0.032	-0.160
-138.443	-122.255	0.504	-0.081
-137.429	224.497	0.108	-0.172
-136.414	138.076	-0.033	0.043
-135.399	-12.416	-0.074	0.048
-134.385	-200.000	-0.005	0.285
-133.370	-179.280	0.391	0.009
-132.356	-123.297	0.401	0.063
-131.341	-5.937	0.308	-0.207
-130.326	225.447	-0.057	-0.091
-129.312	374.646	0.022	0.044
-128.297	-200.000	-0.004	0.332
-127.283	-200.000	0.061	0.285
-126.268	93.678	-0.201	0.224
-125.253	169.242	0.129	-0.181
-124.239	800.000	0.042	-0.173
-123.224	-200.000	-0.078	0.359
-122.210	-51.113	0.111	0.051
-121.195	210.568	0.086	0.133
