DTS Sentinel unit serial number:	SN413079Multiplexer serial number:	ORYXHardware model number:	OX4-SRSoftware version number:	ORYX F/W v4.00 Oryx Data Collector v3.7.2.0data status	okinstallation	princeton_trtdifferential loss correction	single-endedforward channel	channel 2reverse channel	N/Adate	2019/09/15time	19:51:35forward acquisition time	60.00reverse acquisition time	0.00gamma	496.2192k internal	0.2325k external	0.2325temperature offset calibration	0.9930default loss term (dB/km)	0.3790temperature slope calibration	1.0000multiplexer offset coefficient	1.0000multiplexer slope coefficient	1.0000fibre end	0.00T internal ref (°C)	36.52T ext. ref 1 (°C)	7.47T ext. ref 2 (°C)	26.88length (m)	temperature (°C)	Stokes	anti-Stokes-747.200	800.000	-0.036	0.134
-746.185	10.602	-0.322	0.248
-745.171	65.001	-0.112	0.114
-744.156	-41.120	-0.188	0.098
-743.142	127.314	0.079	-0.101
-742.127	800.000	0.024	0.072
-741.112	528.454	0.086	0.205
-740.098	-200.000	0.021	0.212
-739.083	-200.000	-0.024	-0.201
-738.069	208.958	-0.214	0.339
-737.054	-6.464	0.135	-0.093
-736.039	7.430	-0.099	-0.075
-735.025	-63.414	0.185	-0.077
-734.010	-200.000	0.124	-0.572
-732.996	-124.923	0.314	-0.049
-731.981	272.083	0.120	0.214
-730.966	5.957	-0.380	-0.284
-729.952	244.023	0.165	-0.280
-728.937	69.699	-0.312	0.324
-727.923	-200.000	0.012	-0.358
-726.908	454.175	0.051	0.114
-725.894	255.073	0.119	0.205
-724.879	703.854	0.110	0.293
-723.864	6.402	-0.290	0.217
-722.850	3.156	0.252	0.185
-721.835	357.380	0.063	-0.127
-720.821	-15.339	-0.486	-0.313
-719.806	517.511	0.185	-0.437
-718.791	72.837	-0.089	0.093
-717.777	28.562	0.131	0.112
-716.762	-74.910	-0.295	0.107
-715.748	-88.730	-0.325	-0.097
-714.733	209.180	0.082	0.129
-713.718	-13.175	0.058	0.038
-712.704	29.503	-0.049	0.042
-711.689	-34.027	-0.266	0.148
-710.675	238.084	-0.102	-0.171
-709.660	800.000	0.005	0.017
-708.645	800.000	0.068	-0.272
-707.631	-174.365	-0.249	0.007
-706.616	127.947	-0.178	-0.228
-705.602	-200.000	0.078	-0.353
-704.587	-128.288	0.220	-0.032
-703.572	-33.645	-0.099	0.055
-702.558	-135.926	-0.217	-0.026
-701.543	-90.483	-0.005	-0.002
-700.529	-36.288	-0.069	0.038
-699.514	-191.219	-0.188	-0.002
-698.499	5.204	-0.202	-0.150
-697.485	-200.000	0.015	0.127
-696.470	-72.551	0.148	-0.055
-695.456	-200.000	0.012	0.141
-694.441	590.000	-0.043	0.107
-693.426	-200.000	0.027	0.253
-692.412	-200.000	-0.003	-0.351
-691.397	9.376	0.187	-0.143
-690.383	56.816	-0.249	0.244
-689.368	-19.001	-0.094	0.059
-688.354	-86.044	-0.276	-0.086
-687.339	-200.000	-0.011	-0.055
-686.324	110.793	-0.031	-0.038
-685.310	-200.000	-0.031	-0.217
-684.295	-94.920	-0.061	0.017
-683.281	-200.000	-0.232	-0.001
-682.266	-14.498	0.333	-0.216
-681.251	-150.594	-0.127	-0.010
-680.237	-34.552	0.316	-0.174
-679.222	-200.000	-0.001	-0.337
-678.208	-62.148	-0.145	0.061
-677.193	-143.246	0.173	0.017
-676.178	172.344	-0.035	0.051
-675.164	-93.523	-0.344	0.096
-674.149	800.000	-0.020	-0.058
-673.135	156.334	-0.109	0.152
-672.120	600.301	-0.164	0.410
-671.105	-35.036	-0.202	0.111
-670.091	544.016	-0.093	-0.222
-669.076	800.000	-0.098	-0.345
-668.062	463.535	0.026	-0.059
-667.047	-93.422	-0.168	-0.047
-666.032	-119.486	-0.477	-0.083
-665.018	-97.297	0.234	0.061
-664.003	-200.000	0.023	0.209
-662.989	-128.829	-0.203	0.029
-661.974	-18.887	0.203	0.127
-660.959	-73.724	0.278	0.102
-659.945	32.491	0.038	0.033
-658.930	-70.754	0.220	0.083
-657.916	462.292	-0.067	-0.150
-656.901	-200.000	-0.000	-0.157
-655.886	6.658	0.073	-0.054
-654.872	86.379	-0.227	0.251
-653.857	41.826	0.131	-0.120
-652.843	-56.101	0.141	0.063
-651.828	175.564	0.036	-0.052
-650.814	46.708	-0.312	0.292
-649.799	297.660	0.079	-0.146
-648.784	-93.590	-0.375	0.104
-647.770	-166.826	-0.265	0.011
-646.755	34.700	-0.096	0.085
-645.741	800.000	0.131	0.399
-644.726	329.703	0.149	0.288
-643.711	-86.873	0.215	-0.066
-642.697	-200.000	-0.062	0.280
-641.682	-37.780	0.262	-0.140
-640.668	-160.268	-0.022	-0.001
-639.653	264.487	-0.068	0.119
-638.638	269.876	-0.042	0.074
-637.624	224.886	0.091	-0.149
-636.609	-200.000	0.014	-0.075
-635.595	800.000	0.047	-0.158
-634.580	132.211	-0.046	-0.060
-633.565	-88.449	0.077	-0.023
-632.551	-200.000	-0.019	0.209
-631.536	524.281	-0.033	-0.077
-630.522	-127.177	0.265	-0.039
-629.507	-20.961	-0.194	-0.119
-628.492	582.763	-0.156	-0.384
-627.478	-111.256	-0.186	0.038
-626.463	-200.000	-0.017	-0.092
-625.449	-9.968	-0.130	-0.087
-624.434	182.738	-0.251	-0.371
-623.419	-150.895	-0.230	0.017
-622.405	121.392	0.165	-0.206
-621.390	29.660	0.061	-0.052
-620.376	346.892	-0.122	0.241
-619.361	147.479	0.071	0.096
-618.346	-200.000	0.005	0.295
-617.332	-200.000	0.026	-0.227
-616.317	167.584	-0.341	-0.487
-615.303	209.166	0.065	-0.103
-614.288	253.407	0.170	-0.291
-613.273	-77.055	0.184	-0.064
-612.259	254.447	-0.183	0.315
-611.244	-200.000	-0.037	-0.242
-610.230	81.128	0.242	-0.262
-609.215	-142.665	-0.266	-0.026
-608.201	-58.712	0.104	0.045
-607.186	-200.000	-0.005	-0.028
-606.171	28.243	0.146	0.124
-605.157	311.981	0.058	0.110
-604.142	20.138	-0.158	-0.128
-603.128	-74.955	-0.191	-0.069
-602.113	6.136	0.092	0.069
-601.098	-65.451	0.087	-0.035
-600.084	475.566	-0.047	0.107
-599.069	240.057	0.039	-0.066
-598.055	-135.035	0.310	0.037
-597.040	-140.208	-0.292	0.031
-596.025	-64.844	-0.251	0.102
-595.011	-79.265	-0.168	-0.057
-593.996	70.574	0.086	-0.090
-592.982	106.785	0.099	0.118
-591.967	-200.000	-0.020	-0.178
-590.952	625.821	-0.015	-0.039
-589.938	-67.938	0.343	0.134
-588.923	-200.000	-0.005	0.155
-587.909	401.216	0.096	0.203
-586.894	214.374	0.053	0.084
-585.879	800.000	0.042	-0.140
-584.865	-200.000	-0.006	-0.107
-583.850	-93.043	-0.263	0.074
-582.836	-79.396	0.190	-0.064
-581.821	800.000	0.032	0.138
-580.806	300.969	-0.134	-0.249
-579.792	-81.414	0.265	-0.088
-578.777	800.000	0.111	0.315
-577.763	-21.967	0.369	-0.225
-576.748	-14.353	0.255	0.165
-575.733	800.000	0.026	-0.083
-574.719	-123.413	0.263	0.042
-573.704	281.343	0.033	-0.059
-572.690	800.000	0.022	-0.072
-571.675	559.491	-0.148	0.357
-570.661	-134.219	0.291	0.036
-569.646	85.188	0.186	-0.205
-568.631	642.626	-0.061	0.155
-567.617	435.237	0.095	-0.207
-566.602	2.572	0.079	0.058
-565.588	98.186	-0.235	0.272
-564.573	-142.338	0.287	-0.028
-563.558	800.000	0.109	-0.430
-562.544	800.000	0.075	-0.250
-561.529	72.995	0.215	0.225
-560.515	13.814	-0.124	-0.097
-559.500	405.380	-0.045	0.096
-558.485	65.659	-0.249	-0.253
-557.471	800.000	0.091	-0.311
-556.456	-155.904	-0.084	-0.005
-555.442	-200.000	0.011	-0.176
-554.427	800.000	0.051	0.184
-553.412	77.476	0.222	0.237
-552.398	800.000	0.042	-0.162
-551.383	-200.000	-0.086	-0.392
-550.369	-48.454	0.258	-0.124
-549.354	303.894	-0.105	-0.195
-548.339	177.373	-0.154	-0.224
-547.325	-18.035	-0.095	-0.060
-546.310	354.903	-0.067	0.132
-545.296	130.253	-0.129	0.166
-544.281	41.747	-0.314	0.285
-543.266	-200.000	0.036	0.187
-542.252	-200.000	0.068	0.362
-541.237	-46.285	-0.185	-0.091
-540.223	2.647	-0.207	0.150
-539.208	-110.757	0.278	0.057
-538.193	-84.371	-0.190	-0.060
-537.179	272.820	-0.075	-0.132
-536.164	-178.887	-0.327	-0.007
-535.150	-131.053	0.102	-0.014
-534.135	99.097	0.149	0.172
-533.121	-81.390	-0.194	-0.064
-532.106	-3.424	0.118	-0.082
-531.091	-46.063	0.331	-0.163
-530.077	-53.813	0.300	-0.137
-529.062	284.311	0.034	-0.062
-528.048	-200.000	0.017	0.091
-527.033	-151.383	0.231	-0.017
-526.018	172.512	-0.105	-0.151
-525.004	272.051	0.104	0.184
-523.989	106.488	-0.195	0.231
-522.975	-200.000	0.038	0.184
-521.960	-1.308	0.067	0.048
-520.945	-200.000	0.013	0.351
-519.931	210.643	-0.249	-0.391
-518.916	164.942	0.158	-0.223
-517.902	-80.939	0.170	-0.056
-516.887	800.000	0.037	0.116
-515.872	-58.205	0.149	-0.065
-514.858	-200.000	0.000	0.081
-513.843	-26.761	0.245	-0.143
-512.829	-6.144	-0.160	0.110
-511.814	-34.493	-0.143	0.079
-510.799	800.000	0.025	0.082
-509.785	-200.000	0.014	-0.246
-508.770	-33.415	0.088	0.048
-507.756	-55.366	-0.130	0.058
-506.741	-39.194	-0.190	-0.100
-505.726	74.732	-0.124	-0.131
-504.712	-200.000	0.021	-0.108
-503.697	-47.901	0.241	0.116
-502.683	-200.000	0.034	-0.206
-501.668	-53.894	-0.221	0.101
-500.653	310.749	0.045	0.084
-499.639	-102.654	0.180	-0.043
-498.624	317.434	-0.184	-0.347
-497.610	-95.226	-0.335	-0.090
-496.595	-200.000	0.035	-0.166
-495.581	-138.105	0.260	-0.029
-494.566	297.215	-0.107	0.196
-493.551	-83.803	0.088	0.028
-492.537	220.437	-0.011	0.018
-491.522	-163.435	0.100	0.005
-490.508	715.611	0.035	0.092
-489.493	292.011	0.205	-0.373
-488.478	-148.423	-0.210	-0.017
-487.464	295.174	0.089	-0.164
-486.449	66.323	0.242	-0.245
-485.435	-116.473	-0.294	-0.054
-484.420	800.000	-0.101	-0.343
-483.405	45.500	0.193	0.178
-482.391	188.029	-0.138	-0.206
-481.376	10.482	0.148	-0.112
-480.362	118.240	0.200	0.246
-479.347	-121.998	0.125	0.020
-478.332	713.620	0.113	-0.298
-477.318	-21.801	-0.112	-0.068
-476.303	121.882	0.086	-0.107
-475.289	279.732	-0.100	0.178
-474.274	246.962	0.154	-0.260
-473.259	-139.411	0.158	-0.017
-472.245	29.539	0.072	0.061
-471.230	217.179	0.067	0.106
-470.216	-200.000	-0.016	0.320
-469.201	-200.000	-0.036	-0.215
-468.186	35.153	-0.188	-0.164
-467.172	206.532	0.143	-0.222
-466.157	41.633	0.176	-0.159
-465.143	248.872	-0.080	0.135
-464.128	-89.777	0.406	-0.119
-463.113	24.311	-0.135	-0.111
-462.099	-100.722	0.109	-0.027
-461.084	-200.000	-0.002	0.187
-460.070	101.438	-0.135	-0.158
-459.055	199.803	-0.134	-0.206
-458.040	-117.449	-0.095	-0.017
-457.026	-200.000	0.028	-0.131
-456.011	-91.215	0.059	-0.017
-454.997	56.374	-0.135	0.131
-453.982	579.693	-0.067	0.164
-452.968	251.832	-0.037	0.064
-451.953	-46.971	0.323	0.157
-450.938	-127.487	-0.184	-0.027
-449.924	64.225	-0.043	0.043
-448.909	-200.000	-0.009	-0.177
-447.895	327.983	0.070	-0.134
-446.880	42.267	0.126	-0.114
-445.865	25.669	0.068	0.056
-444.851	145.659	0.212	0.284
-443.836	33.978	0.262	0.227
-442.822	93.362	-0.262	0.295
-441.807	-200.000	0.011	0.197
-440.792	800.000	0.064	0.247
-439.778	-200.000	-0.037	-0.186
-438.763	85.416	0.242	0.265
-437.749	-88.949	-0.319	-0.094
-436.734	-101.139	-0.058	-0.014
-435.719	118.288	0.318	-0.391
-434.705	-67.995	0.172	-0.067
-433.690	-55.084	-0.428	0.192
-432.676	-200.000	0.007	0.194
-431.661	128.526	0.177	0.225
-430.646	-160.738	-0.236	0.012
-429.632	-40.009	-0.463	-0.241
-428.617	93.080	0.069	-0.077
-427.603	800.000	-0.011	-0.031
-426.588	-200.000	0.015	-0.082
-425.573	24.483	0.327	-0.269
-424.559	103.340	-0.283	-0.330
-423.544	-127.686	0.295	0.043
-422.530	-50.915	0.080	-0.037
-421.515	-47.972	-0.125	-0.060
-420.500	56.052	0.087	0.084
-419.486	-200.000	0.009	-0.071
-418.471	-200.000	-0.015	-0.154
-417.457	-130.059	0.123	0.017
-416.442	-44.769	0.253	-0.126
-415.428	-200.000	0.002	-0.015
-414.413	-200.000	0.017	-0.133
-413.398	-92.270	-0.163	-0.046
-412.384	-34.395	-0.416	-0.227
-411.369	-139.448	-0.184	-0.020
-410.355	-115.276	0.087	-0.016
-409.340	-43.073	-0.162	-0.082
-408.325	621.568	-0.092	0.231
-407.311	50.986	0.094	0.088
-406.296	101.960	-0.222	-0.258
-405.282	800.000	0.054	-0.195
-404.267	800.000	0.096	0.292
-403.252	800.000	-0.039	0.156
-402.238	-110.450	0.134	-0.028
-401.223	37.686	-0.136	0.121
-400.209	-28.176	0.225	0.129
-399.194	-42.755	-0.429	-0.217
-398.179	800.000	0.076	0.255
-397.165	33.456	-0.202	-0.175
-396.150	427.804	-0.100	-0.214
-395.136	-42.764	-0.179	-0.091
-394.121	-200.000	-0.033	0.151
-393.106	-200.000	-0.027	-0.189
-392.092	1.817	0.166	0.119
-391.077	88.641	-0.230	-0.254
-390.063	39.855	-0.076	0.068
-389.048	140.580	0.167	0.220
-388.033	800.000	0.033	-0.098
-387.019	215.293	-0.202	-0.319
-386.004	8.567	0.218	-0.163
-384.990	-153.974	-0.225	0.015
-383.975	-57.385	-0.247	-0.108
-382.960	-93.571	-0.230	0.063
-381.946	326.930	-0.186	-0.354
-380.931	-53.251	0.243	-0.111
-379.917	800.000	0.045	0.168
-378.902	-15.143	0.178	-0.113
-377.888	-73.651	0.101	0.037
-376.873	111.487	0.076	0.091
-375.858	-200.000	0.018	0.177
-374.844	428.876	0.083	-0.179
-373.829	-189.966	0.067	-0.001
-372.815	800.000	0.106	0.363
-371.800	-200.000	-0.056	0.264
-370.785	-80.019	0.308	-0.103
-369.771	446.044	0.090	-0.196
-368.756	-4.467	0.137	-0.094
-367.742	19.997	-0.127	-0.102
-366.727	800.000	-0.076	0.303
-365.712	800.000	-0.037	0.161
-364.698	-86.719	0.210	0.064
-363.683	111.915	-0.150	-0.181
-362.669	-200.000	-0.020	-0.210
-361.654	-29.838	-0.170	0.096
-360.639	800.000	0.069	0.204
-359.625	19.518	-0.175	-0.140
-358.610	800.000	0.063	0.257
-357.596	-64.008	0.351	0.143
-356.581	72.361	0.294	0.304
-355.566	30.831	0.134	-0.114
-354.552	-200.000	-0.013	0.066
-353.537	129.127	-0.088	0.112
-352.523	-70.854	-0.141	0.053
-351.508	-90.991	0.233	0.066
-350.493	51.980	-0.082	0.078
-349.479	316.103	-0.112	-0.210
-348.464	-18.291	0.210	0.130
-347.450	-38.858	0.096	0.050
-346.435	42.268	0.116	-0.105
-345.420	-1.958	-0.227	0.159
-344.406	800.000	-0.102	-0.391
-343.391	-53.877	-0.277	-0.125
-342.377	800.000	-0.060	0.183
-341.362	-195.174	-0.237	0.002
-340.348	-146.775	0.325	0.028
-339.333	-104.244	-0.253	0.058
-338.318	20.461	-0.144	-0.116
-337.304	51.446	-0.067	-0.063
-336.289	425.797	-0.055	0.117
-335.275	137.094	0.153	-0.199
-334.260	17.609	-0.171	0.135
-333.245	-88.266	0.270	0.080
-332.231	-110.436	0.148	-0.030
-331.216	-200.000	-0.005	0.051
-330.202	-2.016	-0.160	0.111
-329.187	8.906	-0.214	-0.160
-328.172	769.063	0.027	-0.072
-327.158	-151.113	-0.290	-0.022
-326.143	257.641	0.107	-0.183
-325.129	-135.669	0.319	-0.038
-324.114	88.632	-0.359	0.396
-323.099	-3.231	0.152	-0.105
-322.085	-200.000	0.289	-0.001
-321.070	-200.000	0.037	0.195
-320.056	-200.000	-0.029	0.284
-319.041	33.233	-0.124	0.107
-318.026	-200.000	0.003	0.165
-317.012	308.922	-0.039	0.072
-315.997	-94.074	-0.524	0.142
-314.983	51.679	0.177	-0.167
-313.968	-85.634	0.416	0.128
-312.953	-44.958	0.129	-0.064
-311.939	69.101	-0.016	0.017
-310.924	-25.750	0.195	0.114
-309.910	24.094	0.186	0.152
-308.895	113.719	0.314	0.378
-307.880	19.505	-0.181	0.145
-306.866	800.000	0.064	-0.184
-305.851	-200.000	0.005	-0.183
-304.837	279.007	0.122	0.216
-303.822	-200.000	0.006	0.278
-302.807	15.679	-0.112	-0.087
-301.793	-200.000	-0.181	-0.000
-300.778	168.285	0.105	0.148
-299.764	-30.083	-0.476	-0.269
-298.749	-144.536	-0.238	-0.022
-297.735	292.877	0.148	0.268
-296.720	-200.000	0.065	0.387
-295.705	112.435	0.183	0.220
-294.691	800.000	-0.052	0.205
-293.676	634.350	0.138	0.348
-292.662	-28.748	-0.108	-0.062
-291.647	-138.273	0.058	-0.006
-290.632	-200.000	0.006	-0.204
-289.618	-156.640	0.253	0.016
-288.603	-200.000	-0.001	0.259
-287.589	115.444	-0.100	-0.121
-286.574	105.459	0.207	0.242
-285.559	126.286	-0.281	0.352
-284.545	-49.172	-0.303	-0.144
-283.530	-116.880	0.101	-0.018
-282.516	-110.548	-0.204	0.042
-281.501	-47.715	0.126	-0.060
-280.486	70.741	-0.182	0.187
-279.472	800.000	-0.087	-0.263
-278.457	800.000	0.037	0.112
-277.443	167.245	-0.111	0.156
-276.428	91.020	0.184	-0.204
-275.413	-6.403	-0.247	0.167
-274.399	-136.729	0.142	-0.016
-273.384	-200.000	-0.016	-0.140
-272.370	-38.917	0.094	0.049
-271.355	-156.544	0.191	-0.012
-270.340	-122.814	-0.120	0.019
-269.326	531.731	-0.109	-0.256
-268.311	-200.000	-0.072	0.396
-267.297	293.295	-0.196	0.353
-266.282	-39.503	-0.175	0.091
-265.267	-111.028	-0.388	-0.079
-264.253	9.392	-0.233	0.174
-263.238	-118.217	0.370	0.065
-262.224	800.000	-0.093	-0.266
-261.209	-200.000	-0.035	-0.233
-260.195	-184.704	-0.140	0.002
-259.180	-77.604	0.119	-0.041
-258.165	3.519	-0.079	-0.057
-257.151	-30.534	-0.159	-0.089
-256.136	18.949	0.104	-0.083
-255.122	-87.882	0.125	0.037
-254.107	267.760	0.198	0.342
-253.092	800.000	-0.112	0.414
-252.078	800.000	0.100	-0.321
-251.063	-75.354	0.165	-0.058
-250.049	-200.000	0.025	-0.185
-249.034	-25.065	-0.189	0.111
-248.019	-200.000	0.035	0.203
-247.005	-104.547	-0.230	0.052
-245.990	-25.930	-0.179	-0.104
-244.976	-112.909	0.395	0.077
-243.961	297.960	-0.056	0.103
-242.946	60.581	-0.207	0.203
-241.932	-154.716	0.246	-0.016
-240.917	172.380	-0.043	0.061
-239.903	134.297	-0.161	0.207
-238.888	36.418	0.254	0.222
-237.873	226.935	-0.034	-0.054
-236.859	545.653	0.134	0.316
-235.844	126.897	0.040	-0.050
-234.830	800.000	0.013	0.049
-233.815	-129.622	-0.414	0.056
-232.800	381.063	0.128	-0.260
-231.786	-200.000	-0.007	0.349
-230.771	7.528	-0.045	0.033
-229.757	-27.456	0.162	0.093
-228.742	-139.964	-0.196	0.020
-227.727	679.895	-0.055	0.142
-226.713	800.000	0.018	-0.052
-225.698	71.367	0.146	-0.149
-224.684	169.248	-0.264	-0.373
-223.669	198.563	0.193	0.292
-222.655	-57.003	-0.196	0.086
-221.640	623.480	-0.061	0.152
-220.625	-120.746	-0.316	0.053
-219.611	-27.643	-0.298	-0.171
-218.596	-49.152	-0.280	-0.132
-217.582	182.149	-0.076	-0.110
-216.567	-75.570	0.255	-0.089
-215.552	-200.000	-0.015	-0.264
-214.538	-200.000	0.006	0.031
-213.523	-124.628	0.231	-0.035
-212.509	-107.108	0.122	0.027
-211.494	-200.000	-0.014	0.098
-210.479	-91.201	0.020	0.006
-209.465	-46.178	-0.160	-0.078
-208.450	-156.811	-0.224	0.014
-207.436	-200.000	-0.029	-0.208
-206.421	284.829	0.202	-0.360
-205.406	301.560	0.066	0.121
-204.392	800.000	0.044	-0.171
-203.377	-56.833	-0.249	0.109
-202.363	188.198	-0.150	-0.221
-201.348	298.658	0.047	-0.085
-200.333	327.286	0.047	-0.089
-199.319	-30.166	-0.040	-0.023
-198.304	48.228	-0.199	0.184
-197.290	-200.000	-0.012	0.259
-196.275	-98.707	0.050	-0.012
-195.260	-5.782	-0.239	0.162
-194.246	-15.187	0.130	-0.082
-193.231	-149.398	-0.265	-0.021
-192.217	72.471	-0.187	0.193
-191.202	39.690	0.211	0.187
-190.187	-158.968	-0.138	-0.008
-189.173	277.771	0.163	-0.286
-188.158	-200.000	0.017	0.282
-187.144	-3.930	0.087	0.060
-186.129	51.620	-0.117	-0.110
-185.114	193.376	0.111	0.165
-184.100	143.193	0.098	0.128
-183.085	-200.000	-0.005	0.104
-182.071	415.643	0.153	-0.322
-181.056	800.000	0.109	-0.346
-180.042	-103.136	-0.514	-0.120
-179.027	-9.027	0.064	-0.042
-178.012	-105.013	0.066	0.015
-176.998	800.000	-0.069	-0.202
-175.983	184.986	-0.089	0.130
-174.969	-59.750	0.299	0.126
-173.954	207.251	0.129	0.199
-172.939	322.708	-0.152	-0.286
-171.925	90.415	0.075	-0.083
-170.910	-200.000	-0.026	-0.144
-169.896	113.185	-0.083	-0.099
-168.881	-200.000	0.068	-0.315
-167.866	165.266	0.105	-0.146
-166.852	800.000	0.053	-0.178
-165.837	-200.000	-0.086	0.399
-164.823	-128.787	0.096	0.013
-163.808	800.000	-0.011	0.046
-162.793	93.109	-0.244	0.273
-161.779	-128.053	-0.083	-0.012
-160.764	-103.080	0.240	-0.056
-159.750	333.286	0.068	0.129
-158.735	19.581	0.334	0.265
-157.720	33.910	0.235	0.202
-156.706	75.387	-0.174	-0.181
-155.691	-47.918	-0.440	-0.210
-154.677	-200.000	-0.031	0.219
-153.662	-53.327	0.341	-0.154
-152.647	-44.090	0.217	0.107
-151.633	-200.000	-0.011	0.252
-150.618	-141.595	-0.361	-0.036
-149.604	-29.328	-0.054	-0.030
-148.589	-154.609	-0.309	-0.020
-147.574	84.979	0.213	-0.231
-146.560	62.351	-0.080	0.079
-145.545	367.869	0.115	0.229
-144.531	682.844	0.016	0.040
-143.516	66.823	-0.156	-0.156
-142.502	800.000	-0.089	0.283
-141.487	17.770	0.274	0.215
-140.472	-27.755	0.177	0.101
-139.458	800.000	0.028	0.118
-138.443	273.691	-0.063	0.109
-137.429	-200.000	-0.045	0.198
-136.414	-200.000	-0.017	0.092
-135.399	397.645	0.073	-0.150
-134.385	-73.169	-0.265	0.096
-133.370	45.594	0.178	-0.162
-132.356	-136.438	0.269	0.031
-131.341	-23.385	-0.161	0.095
-130.326	-123.273	-0.146	-0.023
-129.312	-123.792	0.051	-0.008
-128.297	313.794	0.090	-0.166
-127.283	-113.848	-0.389	0.075
-126.268	-200.000	0.012	0.258
-125.253	800.000	-0.089	-0.253
-124.239	-71.502	-0.164	0.060
-123.224	113.448	-0.172	-0.205
-122.210	800.000	-0.109	0.363
-121.195	44.697	0.126	0.114
-120.180	-110.296	-0.058	-0.012
