DTS Sentinel unit serial number:	SN413079Multiplexer serial number:	ORYXHardware model number:	OX4-SRSoftware version number:	ORYX F/W v4.00 Oryx Data Collector v3.7.2.0data status	okinstallation	princeton_trtdifferential loss correction	single-endedforward channel	channel 2reverse channel	N/Adate	2019/09/15time	13:11:35forward acquisition time	60.00reverse acquisition time	0.00gamma	496.2192k internal	0.2309k external	0.2309temperature offset calibration	1.0000default loss term (dB/km)	0.3790temperature slope calibration	1.0000multiplexer offset coefficient	1.0000multiplexer slope coefficient	1.0000fibre end	0.00T internal ref (°C)	36.95T ext. ref 1 (°C)	4.96T ext. ref 2 (°C)	34.70length (m)	temperature (°C)	Stokes	anti-Stokes-747.200	56.950	0.203	0.201
-746.185	-200.000	-0.010	0.236
-745.171	-96.800	0.156	0.042
-744.156	800.000	0.012	0.048
-743.142	176.351	-0.042	0.062
-742.127	-200.000	-0.131	0.000
-741.112	6.278	-0.230	0.174
-740.098	800.000	-0.092	0.344
-739.083	9.537	0.113	0.087
-738.069	-200.000	-0.039	0.282
-737.054	-0.577	-0.114	-0.082
-736.039	471.806	-0.187	-0.429
-735.025	-200.000	0.030	-0.435
-734.010	389.020	-0.238	-0.500
-732.996	39.618	0.282	-0.256
-731.981	-200.000	0.039	-0.183
-730.966	83.185	0.168	-0.185
-729.952	-142.603	-0.332	0.033
-728.937	-122.033	0.215	0.036
-727.923	28.944	-0.170	0.147
-726.908	-70.223	-0.182	-0.070
-725.894	-200.000	0.073	-0.328
-724.879	20.404	-0.256	-0.210
-723.864	1.945	0.236	-0.173
-722.850	800.000	0.057	-0.183
-721.835	-138.678	0.210	0.023
-720.821	-200.000	0.006	-0.205
-719.806	800.000	0.086	0.260
-718.791	-200.000	0.014	-0.118
-717.777	132.072	0.042	-0.055
-716.762	-56.473	0.050	-0.022
-715.748	150.875	0.056	0.077
-714.733	106.552	-0.085	0.102
-713.718	649.085	-0.056	-0.145
-712.704	-165.857	0.045	-0.002
-711.689	27.896	0.229	0.196
-710.675	3.562	0.052	0.039
-709.660	-81.447	-0.161	-0.054
-708.645	34.608	0.151	-0.134
-707.631	15.672	-0.084	0.067
-706.616	11.593	-0.266	-0.207
-705.602	27.350	-0.205	-0.175
-704.587	26.156	0.110	-0.093
-703.572	479.358	-0.022	-0.050
-702.558	-200.000	0.007	-0.210
-701.543	-0.209	-0.060	-0.043
-700.529	-200.000	-0.016	0.371
-699.514	800.000	-0.034	0.128
-698.499	-115.784	-0.421	0.080
-697.485	124.168	-0.067	0.085
-696.470	800.000	-0.027	0.116
-695.456	-151.081	-0.143	0.011
-694.441	111.053	0.087	-0.107
-693.426	134.050	0.189	-0.248
-692.412	800.000	0.030	-0.086
-691.397	-81.198	0.089	-0.030
-690.383	-114.869	-0.156	-0.030
-689.368	800.000	0.056	-0.242
-688.354	-149.630	-0.083	0.007
-687.339	-55.410	-0.073	-0.033
-686.324	-200.000	-0.073	0.367
-685.310	-200.000	0.001	-0.123
-684.295	-93.887	0.259	0.072
-683.281	105.659	-0.064	0.077
-682.266	-147.125	-0.460	0.040
-681.251	800.000	0.037	0.120
-680.237	-88.449	0.054	0.016
-679.222	-99.996	-0.176	0.045
-678.208	-71.171	0.256	-0.097
-677.193	511.218	0.139	-0.329
-676.178	-67.326	0.104	0.041
-675.164	97.109	-0.113	-0.132
-674.149	800.000	0.011	-0.037
-673.135	-142.224	-0.348	0.035
-672.120	-20.844	0.032	-0.020
-671.105	-200.000	-0.060	-0.369
-670.091	-150.338	-0.363	-0.028
-669.076	-34.324	0.265	-0.147
-668.062	-95.784	-0.116	-0.031
-667.047	44.194	0.244	0.227
-666.032	-175.280	-0.094	0.003
-665.018	-200.000	0.010	-0.085
-664.003	363.855	-0.050	-0.101
-662.989	800.000	0.106	0.302
-661.974	129.565	-0.180	0.233
-660.959	112.990	-0.261	-0.321
-659.945	-200.000	0.036	-0.390
-658.930	144.468	0.231	-0.312
-657.916	-4.094	0.180	0.126
-656.901	-200.000	0.019	-0.125
-655.886	-200.000	0.024	-0.361
-654.872	-200.000	-0.051	-0.648
-653.857	-134.854	-0.114	0.014
-652.843	-87.510	-0.098	-0.030
-651.828	-99.754	-0.266	0.067
-650.814	-175.603	0.100	0.003
-649.799	-200.000	0.365	-0.002
-648.784	-200.000	-0.003	-0.132
-647.770	8.294	0.389	-0.296
-646.755	-143.768	0.187	0.018
-645.741	-200.000	-0.018	-0.096
-644.726	533.765	0.032	0.076
-643.711	-20.650	0.259	0.161
-642.697	-200.000	-0.007	-0.167
-641.682	134.649	-0.065	-0.085
-640.668	112.077	0.099	-0.121
-639.653	16.471	0.098	0.079
-638.638	-115.438	-0.142	-0.027
-637.624	-162.221	-0.101	-0.005
-636.609	180.124	0.063	-0.094
-635.595	-58.903	0.147	-0.064
-634.580	-200.000	-0.031	-0.220
-633.565	-57.756	-0.140	-0.062
-632.551	186.074	-0.204	-0.306
-631.536	34.723	0.109	0.097
-630.522	-94.012	-0.179	0.050
-629.507	461.023	0.111	0.250
-628.492	-76.639	0.237	0.084
-627.478	-62.480	-0.062	-0.026
-626.463	-200.000	-0.019	-0.106
-625.449	104.265	0.185	0.220
-624.434	182.369	0.083	0.124
-623.419	-81.781	-0.184	-0.061
-622.405	-124.047	-0.242	-0.038
-621.390	-200.000	0.004	0.104
-620.376	37.912	-0.231	-0.208
-619.361	221.525	-0.062	-0.100
-618.346	-4.237	-0.174	0.122
-617.332	-61.425	0.210	-0.089
-616.317	-99.130	0.235	0.060
-615.303	-200.000	-0.001	0.216
-614.288	-86.765	-0.208	0.064
-613.273	-200.000	-0.002	0.359
-612.259	342.848	-0.057	0.114
-611.244	-111.738	0.279	0.057
-610.230	-80.682	-0.230	-0.077
-609.215	-123.774	-0.281	-0.045
-608.201	-9.429	-0.265	0.179
-607.186	285.147	-0.147	-0.268
-606.171	-155.240	0.346	0.023
-605.157	-21.900	-0.239	-0.147
-604.142	-132.509	-0.104	-0.014
-603.128	-93.498	-0.171	0.048
-602.113	-135.777	-0.088	-0.010
-601.098	-28.270	-0.351	-0.205
-600.084	618.539	0.084	-0.212
-599.069	-199.928	-0.038	-0.000
-598.055	-30.693	-0.182	0.104
-597.040	-21.711	0.095	-0.058
-596.025	800.000	-0.079	0.239
-595.011	-82.412	-0.108	-0.035
-593.996	296.893	0.029	0.054
-592.982	800.000	0.085	0.246
-591.967	-200.000	-0.008	0.133
-590.952	800.000	-0.092	0.283
-589.938	397.255	-0.040	-0.085
-588.923	246.152	0.220	-0.375
-587.909	-59.989	-0.237	-0.102
-586.894	-54.690	-0.495	0.226
-585.879	2.190	-0.172	0.126
-584.865	82.313	0.214	0.234
-583.850	-200.000	-0.027	-0.152
-582.836	32.824	-0.156	-0.136
-581.821	800.000	-0.049	-0.189
-580.806	-200.000	-0.010	0.114
-579.792	107.852	-0.135	-0.162
-578.777	-42.240	-0.223	0.115
-577.763	-20.915	0.077	0.048
-576.748	-20.107	-0.161	-0.100
-575.733	24.636	-0.194	-0.162
-574.719	-30.916	0.325	-0.185
-573.704	-40.588	0.082	0.043
-572.690	-200.000	0.016	0.076
-571.675	33.095	-0.142	0.124
-570.661	-90.116	0.119	-0.035
-569.646	86.657	-0.174	-0.194
-568.631	180.886	-0.132	-0.195
-567.617	-55.046	0.198	0.090
-566.602	-200.000	0.001	0.508
-565.588	-25.932	0.148	0.088
-564.573	-17.822	0.365	0.231
-563.558	-172.299	-0.117	0.004
-562.544	-96.379	-0.353	0.094
-561.529	-113.492	0.512	0.101
-560.515	-23.495	-0.128	-0.078
-559.500	584.035	0.151	0.373
-558.485	-200.000	-0.014	-0.284
-557.471	89.479	-0.112	0.126
-556.456	-56.769	0.318	-0.142
-555.442	-128.016	-0.304	-0.044
-554.427	273.851	0.096	0.172
-553.412	530.644	0.135	-0.321
-552.398	-159.981	-0.152	-0.008
-551.383	507.759	-0.092	0.216
-550.369	-107.237	0.251	-0.056
-549.354	-116.924	0.122	-0.022
-548.339	-100.805	-0.086	0.021
-547.325	-164.445	-0.408	0.019
-546.310	458.896	-0.036	-0.081
-545.296	349.514	-0.167	0.332
-544.281	-102.818	-0.063	0.015
-543.266	78.412	0.175	0.189
-542.252	-31.481	-0.100	-0.056
-541.237	800.000	-0.062	-0.262
-540.223	-30.932	0.275	0.157
-539.208	-155.864	-0.324	0.021
-538.193	299.389	-0.059	0.110
-537.179	305.159	-0.091	-0.170
-536.164	163.240	-0.135	0.191
-535.150	65.074	-0.035	-0.035
-534.135	462.162	0.124	-0.279
-533.121	80.770	0.046	0.050
-532.106	203.895	-0.143	0.223
-531.091	20.057	-0.112	0.091
-530.077	800.000	-0.068	-0.256
-529.062	-107.736	0.121	-0.027
-528.048	-200.000	-0.012	-0.059
-527.033	99.624	-0.056	0.066
-526.018	103.107	-0.151	-0.178
-525.004	351.760	-0.064	0.128
-523.989	70.740	0.039	-0.041
-522.975	51.561	-0.411	0.393
-521.960	91.151	-0.190	-0.215
-520.945	800.000	0.032	-0.090
-519.931	-200.000	-0.026	0.273
-518.916	-142.138	-0.287	-0.029
-517.902	800.000	-0.067	-0.241
-516.887	32.984	0.129	-0.113
-515.872	-200.000	-0.003	0.083
-514.858	800.000	-0.069	0.253
-513.843	149.319	-0.226	0.308
-512.829	-171.939	0.414	0.014
-511.814	-200.000	-0.037	-0.178
-510.799	-200.000	-0.266	-0.001
-509.785	-63.905	0.107	-0.044
-508.770	-200.000	0.022	-0.478
-507.756	691.868	-0.120	-0.316
-506.741	96.895	0.141	0.163
-505.726	800.000	0.082	-0.264
-504.712	7.470	0.160	-0.120
-503.697	28.817	0.129	0.110
-502.683	800.000	-0.126	-0.370
-501.668	800.000	-0.120	0.368
-500.653	593.768	-0.149	-0.371
-499.639	-111.165	0.125	-0.026
-498.624	496.271	-0.034	0.079
-497.610	-200.000	0.007	0.044
-496.595	-103.950	0.255	-0.060
-495.581	-200.000	-0.011	-0.213
-494.566	-200.000	0.040	0.205
-493.551	223.143	0.147	0.239
-492.537	189.842	0.140	-0.212
-491.522	61.450	0.231	0.231
-490.508	-153.054	0.146	-0.010
-489.493	432.194	0.124	-0.270
-488.478	454.053	0.076	0.170
-487.464	-177.697	0.278	0.007
-486.449	105.950	-0.076	0.090
-485.435	71.362	-0.197	-0.206
-484.420	533.468	0.092	-0.218
-483.405	335.300	0.116	0.225
-482.391	268.712	0.131	-0.231
-481.376	46.659	-0.120	-0.112
-480.362	-200.000	-0.007	-0.084
-479.347	695.585	-0.054	0.142
-478.332	216.522	0.141	-0.225
-477.318	800.000	-0.064	0.243
-476.303	-200.000	0.012	0.215
-475.289	234.987	0.138	-0.229
-474.274	391.170	0.102	0.213
-473.259	800.000	-0.018	0.075
-472.245	6.554	-0.063	-0.047
-471.230	32.132	-0.179	0.155
-470.216	-200.000	-0.030	-0.180
-469.201	-35.871	-0.071	0.039
-468.186	11.310	0.287	-0.221
-467.172	-109.669	0.141	0.030
-466.157	754.717	0.101	0.274
-465.143	237.574	-0.062	0.104
-464.128	117.526	-0.033	-0.041
-463.113	-24.684	-0.196	-0.117
-462.099	-71.774	0.043	-0.016
-461.084	-152.986	-0.089	-0.006
-460.070	377.825	0.128	-0.264
-459.055	-200.000	0.018	0.125
-458.040	-111.363	-0.209	0.043
-457.026	-11.833	-0.324	-0.213
-456.011	-60.167	0.254	-0.109
-454.997	45.633	-0.186	0.173
-453.982	-61.498	-0.100	0.042
-452.968	323.286	0.035	-0.066
-451.953	-49.733	0.184	-0.088
-450.938	-23.176	-0.171	-0.103
-449.924	78.213	0.162	-0.174
-448.909	-78.896	-0.265	-0.091
-447.895	447.480	-0.156	-0.344
-446.880	61.818	-0.303	0.303
-445.865	-102.046	-0.429	0.104
-444.851	666.162	0.023	-0.060
-443.836	0.647	0.344	0.247
-442.822	324.854	-0.120	0.229
-441.807	-36.364	0.244	-0.132
-440.792	-200.000	-0.016	0.160
-439.778	208.800	-0.175	0.275
-438.763	110.879	0.034	0.041
-437.749	-18.302	0.137	-0.086
-436.734	-4.018	0.199	-0.138
-435.719	50.645	0.099	-0.094
-434.705	155.055	-0.191	-0.263
-433.690	-176.671	0.234	-0.006
-432.676	72.727	0.256	-0.269
-431.661	-105.895	0.055	0.012
-430.646	205.674	0.142	0.222
-429.632	9.551	-0.195	-0.148
-428.617	-93.422	0.188	-0.052
-427.603	800.000	0.053	-0.163
-426.588	800.000	-0.112	-0.327
-425.573	40.509	-0.078	0.071
-424.559	800.000	0.021	-0.082
-423.544	-200.000	-0.001	-0.022
-422.530	51.853	-0.279	-0.267
-421.515	-200.000	0.024	0.472
-420.500	-25.990	0.248	-0.147
-419.486	-52.236	-0.111	-0.052
-418.471	26.990	0.104	-0.087
-417.457	-100.182	-0.158	-0.040
-416.442	800.000	-0.089	0.363
-415.428	-200.000	-0.001	0.117
-414.413	27.083	-0.195	0.164
-413.398	-16.588	0.052	-0.033
-412.384	6.179	-0.031	0.023
-411.369	-77.442	0.203	0.071
-410.355	800.000	-0.074	-0.238
-409.340	-83.760	-0.176	0.056
-408.325	289.896	0.086	-0.157
-407.311	-83.981	0.117	0.037
-406.296	-108.843	0.277	0.059
-405.282	-8.044	-0.165	0.111
-404.267	75.803	0.151	0.160
-403.252	206.284	-0.091	0.142
-402.238	-80.707	-0.218	0.073
-401.223	39.493	0.063	-0.057
-400.209	170.102	0.048	0.068
-399.194	543.029	0.140	0.334
-398.179	800.000	-0.054	0.161
-397.165	118.513	-0.067	-0.083
-396.150	800.000	0.011	0.036
-395.136	142.835	-0.205	0.273
-394.121	-200.000	0.052	-0.297
-393.106	118.477	-0.199	0.246
-392.092	-200.000	0.010	0.145
-391.077	-64.837	-0.234	0.095
-390.063	-59.809	-0.288	-0.124
-389.048	-200.000	-0.010	-0.100
-388.033	-114.069	-0.215	0.042
-387.019	359.390	0.127	0.254
-386.004	259.868	0.125	-0.216
-384.990	-163.416	-0.113	0.005
-383.975	686.262	0.138	0.362
-382.960	72.132	-0.052	0.055
-381.946	-35.606	0.236	-0.128
-380.931	-200.000	-0.041	-0.318
-379.917	-200.000	-0.035	-0.244
-378.902	85.958	0.204	0.225
-377.888	-156.689	-0.166	-0.010
-376.873	-103.285	0.478	-0.113
-375.858	3.682	0.193	-0.141
-374.844	-12.412	-0.136	0.089
-373.829	-37.733	0.290	-0.155
-372.815	-97.660	-0.196	0.051
-371.800	800.000	0.070	-0.201
-370.785	800.000	0.072	-0.241
-369.771	786.890	-0.067	-0.183
-368.756	-200.000	-0.038	-0.306
-367.742	188.979	-0.052	0.078
-366.727	-162.661	-0.164	-0.008
-365.712	800.000	0.084	-0.272
-364.698	65.597	0.256	0.260
-363.683	-84.707	0.179	-0.057
-362.669	-200.000	-0.057	-0.288
-361.654	214.035	-0.102	0.162
-360.639	207.421	0.083	0.129
-359.625	-200.000	-0.020	0.115
-358.610	800.000	0.056	-0.194
-357.596	-73.305	0.189	0.069
-356.581	-200.000	0.255	0.000
-355.566	16.724	0.072	-0.057
-354.552	181.478	-0.161	-0.237
-353.537	86.475	-0.050	0.055
-352.523	-131.986	0.106	0.014
-351.508	-53.129	0.352	0.162
-350.493	800.000	0.017	-0.070
-349.479	667.047	0.054	-0.140
-348.464	76.881	0.195	-0.208
-347.450	-42.810	0.234	-0.119
-346.435	-200.000	-0.405	-0.001
-345.420	-165.631	-0.476	-0.021
-344.406	-148.332	0.199	0.016
-343.391	-200.000	-0.066	-0.344
-342.377	14.312	-0.092	-0.072
-341.362	-160.254	0.221	0.012
-340.348	143.084	0.188	0.249
-339.333	-200.000	0.000	0.132
-338.318	-132.994	0.059	-0.007
-337.304	-109.848	0.056	0.012
-336.289	800.000	0.082	0.271
-335.275	800.000	-0.025	-0.080
-334.260	-39.529	-0.214	0.112
-333.245	-200.000	0.054	0.263
-332.231	-100.841	0.042	-0.010
-331.216	-70.863	-0.243	0.092
-330.202	-128.927	0.144	-0.020
-329.187	-200.000	0.052	-0.356
-328.172	-43.436	0.239	-0.121
-327.158	-123.619	-0.221	-0.035
-326.143	-200.000	0.023	-0.135
-325.129	-79.039	0.200	0.068
-324.114	-65.360	-0.089	-0.036
-323.099	-113.266	0.143	-0.028
-322.085	413.975	-0.163	0.348
-321.070	-200.000	-0.025	0.755
-320.056	-200.000	0.003	0.053
-319.041	800.000	-0.141	0.411
-318.026	-69.475	-0.031	-0.012
-317.012	-200.000	0.030	-0.174
-315.997	131.088	0.145	-0.186
-314.983	120.260	0.214	-0.265
-313.968	-94.039	-0.231	-0.063
-312.953	-148.123	0.170	0.014
-311.939	-200.000	0.033	0.241
-310.924	-108.307	-0.118	0.025
-309.910	16.891	-0.387	0.306
-308.895	250.661	-0.286	0.486
-307.880	-80.988	0.324	-0.107
-306.866	-125.543	-0.136	0.021
-305.851	-72.336	-0.210	0.078
-304.837	54.822	0.169	0.163
-303.822	-116.850	0.212	-0.039
-302.807	-39.493	-0.237	0.124
-301.793	800.000	-0.168	0.507
-300.778	-163.027	0.317	-0.015
-299.764	-1.955	-0.180	0.126
-298.749	-75.388	-0.270	-0.096
-297.735	-4.626	0.140	0.096
-296.720	165.633	-0.093	-0.131
-295.705	161.391	-0.119	0.167
-294.691	31.810	-0.204	0.175
-293.676	33.687	-0.212	0.184
-292.662	-12.017	0.203	0.133
-291.647	-200.000	-0.020	-0.264
-290.632	32.086	0.327	-0.282
-289.618	-18.030	0.113	0.070
-288.603	-85.387	-0.230	0.072
-287.589	-81.905	0.329	-0.107
-286.574	-56.364	0.219	-0.097
-285.559	78.957	-0.061	0.065
-284.545	47.427	0.260	-0.242
-283.530	126.414	0.095	0.120
-282.516	800.000	0.115	0.454
-281.501	-103.822	0.106	-0.025
-280.486	535.133	-0.044	0.103
-279.472	113.738	-0.067	-0.081
-278.457	-100.844	-0.445	-0.109
-277.443	-82.027	0.261	0.085
-276.428	-156.917	0.398	-0.024
-275.413	0.520	-0.236	-0.168
-274.399	-121.596	0.215	0.036
-273.384	38.245	-0.093	0.082
-272.370	315.957	-0.140	-0.263
-271.355	276.250	0.117	-0.208
-270.340	12.811	-0.333	0.256
-269.326	156.060	-0.087	-0.119
-268.311	39.066	-0.195	-0.174
-267.297	-107.775	-0.345	0.075
-266.282	-46.056	-0.109	0.054
-265.267	40.240	-0.241	0.217
-264.253	703.633	-0.068	0.179
-263.238	337.339	-0.058	0.112
-262.224	72.918	0.267	0.278
-261.209	186.504	-0.126	-0.187
-260.195	-200.000	-0.062	-0.275
-259.180	751.396	-0.105	-0.282
-258.165	-200.000	-0.021	0.000
-257.151	800.000	0.068	-0.207
-256.136	-200.000	0.056	-0.353
-255.122	312.318	0.079	-0.149
-254.107	-36.557	0.328	0.176
-253.092	91.303	-0.176	-0.197
-252.078	26.487	-0.223	-0.186
-251.063	-49.979	-0.217	-0.103
-250.049	-122.387	-0.371	-0.060
-249.034	-99.115	0.345	0.087
-248.019	-200.000	0.018	0.090
-247.005	800.000	-0.026	-0.076
-245.990	42.533	0.302	0.274
-244.976	-127.909	-0.274	0.039
-243.961	358.360	0.149	0.297
-242.946	-200.000	0.032	0.360
-241.932	-20.075	-0.243	-0.150
-240.917	-200.000	-0.054	0.392
-239.903	69.091	-0.165	0.169
-238.888	-200.000	-0.036	0.497
-237.873	11.586	-0.325	0.248
-236.859	172.343	0.097	-0.139
-235.844	-17.625	-0.265	0.166
-234.830	800.000	-0.072	-0.199
-233.815	312.068	-0.069	-0.129
-232.800	159.982	-0.170	-0.236
-231.786	78.231	-0.205	-0.218
-230.771	-57.355	0.164	-0.072
-229.757	146.896	-0.131	-0.175
-228.742	234.525	0.087	-0.143
-227.727	224.386	-0.071	0.115
-226.713	-20.907	0.224	-0.137
-225.698	-171.805	-0.244	0.008
-224.684	-200.000	-0.000	-0.072
-223.669	-141.774	-0.398	-0.040
-222.655	-70.745	0.171	0.064
-221.640	-200.000	-0.012	-0.234
-220.625	13.048	0.071	0.054
-219.611	800.000	0.121	-0.381
-218.596	100.846	0.086	-0.099
-217.582	-200.000	-0.036	-0.233
-216.567	-200.000	0.022	-0.191
-215.552	176.467	0.126	0.183
-214.538	-140.981	0.493	0.050
-213.523	233.327	0.043	0.070
-212.509	-19.085	-0.298	0.185
-211.494	400.522	-0.031	-0.065
-210.479	57.333	-0.050	-0.049
-209.465	120.779	-0.047	0.058
-208.450	-137.935	0.372	0.041
-207.436	666.859	0.105	0.271
-206.421	-200.000	0.002	0.094
-205.406	188.325	-0.067	-0.100
-204.392	-200.000	-0.008	-0.104
-203.377	72.500	0.339	-0.352
-202.363	3.623	-0.149	0.108
-201.348	173.049	0.142	0.203
-200.333	-44.822	-0.244	-0.121
-199.319	295.384	0.183	-0.332
-198.304	-200.000	-0.141	0.000
-197.290	-9.798	0.197	-0.131
-196.275	246.368	-0.126	-0.211
-195.260	-128.587	0.100	-0.014
-194.246	-200.000	0.054	0.257
-193.231	800.000	0.020	0.058
-192.217	39.213	0.104	0.092
-191.202	86.951	0.237	-0.261
-190.187	-20.145	-0.213	0.131
-189.173	57.512	0.278	-0.270
-188.158	452.256	0.227	-0.499
-187.144	-80.644	0.240	-0.079
-186.129	-200.000	-0.102	0.480
-185.114	86.039	-0.226	0.248
-184.100	-34.086	0.292	-0.160
-183.085	800.000	-0.038	-0.161
-182.071	-200.000	-0.016	0.137
-181.056	-200.000	0.006	0.048
-180.042	-128.431	0.160	0.023
-179.027	54.707	0.094	0.090
-178.012	-114.667	0.377	-0.072
-176.998	83.344	0.060	-0.065
-175.983	17.199	0.160	-0.126
-174.969	-144.599	0.428	0.039
-173.954	-200.000	0.064	0.296
-172.939	-70.064	0.319	0.121
-171.925	102.291	-0.183	0.213
-170.910	-200.000	0.018	-0.141
-169.896	93.502	-0.068	-0.077
-168.881	124.549	0.216	0.270
-167.866	616.113	0.125	0.312
-166.852	-200.000	-0.471	0.000
-165.837	149.315	-0.010	0.013
-164.823	-145.316	-0.105	0.009
-163.808	-58.250	-0.233	-0.101
-162.793	6.890	-0.145	-0.107
-161.779	126.179	0.157	-0.198
-160.764	-200.000	0.013	0.072
-159.750	-126.489	0.223	0.033
-158.735	366.702	-0.070	0.140
-157.720	-99.704	0.277	0.069
-156.706	134.849	-0.046	-0.060
-155.691	800.000	-0.031	-0.101
-154.677	33.983	0.179	-0.155
-153.662	304.445	0.105	-0.194
-152.647	-200.000	-0.004	0.425
-151.633	-4.289	0.217	-0.149
-150.618	800.000	0.059	0.211
-149.604	-145.180	-0.019	0.002
-148.589	234.679	-0.075	-0.124
-147.574	-200.000	0.050	0.329
-146.560	25.988	0.078	-0.065
-145.545	695.212	0.081	-0.212
-144.531	-104.877	0.538	0.123
-143.516	63.010	-0.159	-0.158
-142.502	-179.682	-0.133	-0.003
-141.487	800.000	-0.027	0.108
-140.472	-107.750	0.255	-0.055
-139.458	76.886	-0.278	0.293
-138.443	112.709	-0.269	-0.323
-137.429	-118.722	0.358	0.063
-136.414	-200.000	-0.001	0.147
-135.399	-57.888	-0.050	-0.022
-134.385	238.007	0.074	0.121
-133.370	-69.780	-0.381	0.144
-132.356	29.569	0.088	0.074
-131.341	-81.153	0.263	-0.086
-130.326	5.220	0.207	-0.151
-129.312	-17.112	-0.342	0.214
-128.297	1.000	-0.145	-0.103
-127.283	-200.000	0.015	0.282
-126.268	118.961	0.084	-0.103
-125.253	-8.455	0.078	0.052
-124.239	-48.354	0.038	-0.018
-123.224	-102.033	0.234	-0.056
-122.210	-37.176	0.169	-0.090
-121.195	261.962	-0.090	-0.155
