DTS Sentinel unit serial number:	SN413079Multiplexer serial number:	ORYXHardware model number:	OX4-SRSoftware version number:	ORYX F/W v4.00 Oryx Data Collector v3.7.2.0data status	okinstallation	princeton_trtdifferential loss correction	single-endedforward channel	channel 2reverse channel	N/Adate	2019/09/15time	15:55:35forward acquisition time	60.00reverse acquisition time	0.00gamma	496.2192k internal	0.2289k external	0.2289temperature offset calibration	0.9948default loss term (dB/km)	0.3790temperature slope calibration	1.0000multiplexer offset coefficient	1.0000multiplexer slope coefficient	1.0000fibre end	0.00T internal ref (°C)	42.45T ext. ref 1 (°C)	5.31T ext. ref 2 (°C)	40.20length (m)	temperature (°C)	Stokes	anti-Stokes-747.200	-59.189	-0.165	-0.073
-746.185	728.385	0.095	0.260
-745.171	10.539	-0.138	0.108
-744.156	-111.672	-0.368	0.077
-743.142	87.500	-0.081	0.092
-742.127	800.000	-0.066	0.250
-741.112	-5.047	0.135	0.096
-740.098	263.789	0.172	0.306
-739.083	-200.000	-0.030	-0.195
-738.069	-200.000	-0.002	0.114
-737.054	418.369	-0.146	0.319
-736.039	104.159	-0.100	0.120
-735.025	-200.000	0.036	0.165
-734.010	-41.939	-0.246	-0.129
-732.996	98.296	-0.137	0.162
-731.981	48.596	-0.049	-0.047
-730.966	-127.937	-0.225	0.033
-729.952	800.000	-0.017	-0.074
-728.937	-14.834	0.297	0.195
-727.923	-76.555	-0.262	-0.094
-726.908	66.363	0.102	-0.106
-725.894	169.269	-0.295	-0.431
-724.879	371.252	0.132	0.275
-723.864	-7.165	-0.052	-0.036
-722.850	-88.063	-0.314	-0.097
-721.835	-69.351	-0.149	0.059
-720.821	-156.152	-0.258	-0.017
-719.806	-200.000	-0.045	0.295
-718.791	17.068	-0.239	-0.194
-717.777	573.039	-0.039	0.098
-716.762	248.853	-0.121	-0.209
-715.748	-75.267	0.271	-0.099
-714.733	-200.000	-0.008	0.056
-713.718	800.000	-0.035	-0.154
-712.704	-4.217	-0.059	0.042
-711.689	-102.328	-0.205	-0.050
-710.675	800.000	0.131	-0.401
-709.660	-200.000	0.016	-0.236
-708.645	-37.704	0.132	0.072
-707.631	-46.911	-0.207	0.104
-706.616	58.040	-0.060	-0.060
-705.602	4.715	-0.203	-0.152
-704.587	-61.128	-0.157	-0.068
-703.572	34.575	-0.115	-0.103
-702.558	46.143	-0.100	-0.094
-701.543	-13.066	-0.169	0.113
-700.529	63.026	-0.144	-0.147
-699.514	-176.073	0.357	-0.010
-698.499	-62.307	-0.045	0.019
-697.485	-44.848	-0.160	-0.082
-696.470	64.015	-0.097	0.100
-695.456	475.890	0.062	-0.142
-694.441	-24.367	0.099	-0.060
-693.426	-98.700	0.212	-0.055
-692.412	-8.843	-0.401	-0.275
-691.397	73.491	-0.029	-0.031
-690.383	-200.000	-0.048	-0.303
-689.368	184.498	-0.131	-0.198
-688.354	302.535	-0.010	-0.020
-687.339	800.000	-0.125	-0.411
-686.324	441.335	-0.065	-0.146
-685.310	-38.482	0.385	-0.208
-684.295	-200.000	-0.009	0.084
-683.281	-200.000	-0.020	-0.297
-682.266	-200.000	0.037	0.298
-681.251	-95.015	-0.078	0.022
-680.237	-200.000	0.037	-0.434
-679.222	458.742	-0.025	-0.056
-678.208	-127.460	-0.044	-0.007
-677.193	224.392	0.128	-0.211
-676.178	-122.997	0.106	0.017
-675.164	-119.391	0.184	0.033
-674.149	294.586	-0.106	0.198
-673.135	124.891	-0.174	-0.224
-672.120	76.580	0.232	-0.251
-671.105	115.857	0.159	-0.198
-670.091	301.418	0.257	-0.484
-669.076	-24.749	0.220	-0.134
-668.062	-200.000	0.019	0.110
-667.047	800.000	-0.035	0.118
-666.032	-22.666	-0.162	-0.100
-665.018	-96.621	-0.172	0.046
-664.003	267.793	-0.251	-0.450
-662.989	1.350	0.219	-0.161
-661.974	-23.026	0.115	0.071
-660.959	-3.957	-0.097	-0.069
-659.945	22.385	-0.143	-0.119
-658.930	-200.000	0.007	-0.068
-657.916	-200.000	-0.113	0.543
-656.901	125.484	-0.062	0.081
-655.886	-52.706	-0.314	-0.148
-654.872	205.325	-0.053	0.083
-653.857	-200.000	0.027	-0.196
-652.843	-200.000	-0.001	0.036
-651.828	105.329	0.104	-0.126
-650.814	-172.542	0.161	-0.005
-649.799	800.000	0.031	0.116
-648.784	9.951	0.039	0.030
-647.770	26.693	-0.038	-0.032
-646.755	56.782	-0.190	-0.189
-645.741	-128.102	0.203	-0.030
-644.726	-130.778	-0.041	-0.006
-643.711	93.568	0.029	-0.033
-642.697	80.635	0.151	-0.166
-641.682	-120.026	-0.318	0.056
-640.668	359.405	0.016	-0.032
-639.653	172.526	0.080	0.118
-638.638	-63.272	0.093	0.039
-637.624	-200.000	0.028	0.286
-636.609	525.029	-0.037	0.089
-635.595	-200.000	0.039	0.242
-634.580	44.148	-0.198	0.185
-633.565	153.266	0.071	0.100
-632.551	-200.000	0.002	0.032
-631.536	374.747	-0.089	-0.185
-630.522	231.729	-0.072	0.121
-629.507	384.057	-0.084	0.176
-628.492	-46.005	0.052	0.026
-627.478	-44.993	0.209	-0.106
-626.463	-45.802	-0.325	-0.164
-625.449	717.647	0.066	0.178
-624.434	136.168	-0.072	0.096
-623.419	800.000	0.066	0.265
-622.405	74.326	0.225	0.242
-621.390	-200.000	0.031	-0.287
-620.376	277.637	-0.105	-0.190
-619.361	-43.734	0.216	-0.111
-618.346	-24.857	0.194	0.117
-617.332	28.412	-0.190	-0.164
-616.317	-79.627	0.185	0.064
-615.303	345.709	-0.049	-0.099
-614.288	-200.000	0.011	0.142
-613.273	-103.345	0.382	-0.092
-612.259	220.318	0.057	-0.093
-611.244	-77.353	-0.052	-0.018
-610.230	-200.000	-0.055	-0.290
-609.215	-200.000	0.017	-0.251
-608.201	-103.937	-0.155	-0.037
-607.186	41.078	-0.098	0.090
-606.171	800.000	-0.043	-0.141
-605.157	648.267	0.041	-0.106
-604.142	-90.053	0.248	0.074
-603.128	61.400	-0.131	-0.133
-602.113	94.711	-0.107	0.124
-601.098	-190.817	-0.433	0.005
-600.084	445.942	-0.085	0.190
-599.069	800.000	-0.078	0.232
-598.055	800.000	0.038	-0.150
-597.040	118.002	-0.147	0.185
-596.025	-200.000	-0.001	-0.086
-595.011	228.459	0.046	0.077
-593.996	800.000	-0.041	-0.137
-592.982	102.657	-0.045	-0.053
-591.967	-147.051	-0.469	-0.041
-590.952	800.000	-0.090	-0.365
-589.938	124.198	0.149	0.191
-588.923	273.310	-0.099	0.179
-587.909	800.000	-0.036	0.158
-586.894	-132.615	0.311	-0.041
-585.879	257.392	-0.110	0.192
-584.865	439.624	-0.233	0.518
-583.850	800.000	0.139	0.407
-582.836	-109.356	-0.088	0.019
-581.821	5.476	0.301	0.226
-580.806	800.000	0.031	-0.119
-579.792	23.848	-0.024	-0.020
-578.777	45.222	-0.158	-0.148
-577.763	741.679	0.107	-0.292
-576.748	-138.917	-0.073	-0.008
-575.733	-159.893	-0.316	-0.018
-574.719	152.700	-0.132	0.184
-573.704	-94.094	-0.213	-0.059
-572.690	294.490	-0.194	0.361
-571.675	-200.000	0.036	-0.228
-570.661	-200.000	-0.040	-0.286
-569.646	271.139	0.093	0.166
-568.631	305.611	-0.092	-0.174
-567.617	-200.000	-0.031	-0.249
-566.602	-200.000	-0.007	0.090
-565.588	57.346	0.209	-0.208
-564.573	-200.000	0.011	-0.079
-563.558	-200.000	0.015	0.156
-562.544	35.405	-0.179	0.160
-561.529	276.422	0.053	-0.096
-560.515	94.276	0.003	0.003
-559.500	-111.599	0.330	0.068
-558.485	-59.785	-0.296	0.129
-557.471	604.483	-0.062	0.158
-556.456	483.781	-0.069	-0.161
-555.442	5.434	0.181	0.136
-554.427	-44.370	-0.236	0.120
-553.412	-48.717	0.167	-0.082
-552.398	-114.117	0.149	0.029
-551.383	26.073	0.010	-0.008
-550.369	-60.755	0.064	-0.028
-549.354	-200.000	-0.051	-0.283
-548.339	-24.792	-0.134	-0.081
-547.325	800.000	-0.021	-0.083
-546.310	-200.000	-0.022	0.371
-545.296	384.663	-0.032	0.067
-544.281	-127.737	0.094	0.014
-543.266	-200.000	-0.016	-0.080
-542.252	-53.836	0.167	-0.077
-541.237	269.573	-0.155	-0.278
-540.223	124.567	0.092	0.118
-539.208	-114.867	-0.298	0.058
-538.193	-67.413	-0.173	-0.069
-537.179	-179.172	0.314	0.007
-536.164	-56.768	-0.309	0.139
-535.150	16.533	-0.161	0.129
-534.135	-200.000	0.011	-0.098
-533.121	-200.000	0.051	0.329
-532.106	120.852	0.135	0.170
-531.091	8.364	0.223	-0.170
-530.077	-139.314	0.052	-0.006
-529.062	-10.280	0.175	0.118
-528.048	29.147	-0.198	0.170
-527.033	135.784	-0.169	-0.224
-526.018	-200.000	-0.002	-0.236
-525.004	366.069	0.050	-0.102
-523.989	-118.442	-0.079	0.014
-522.975	59.720	-0.095	0.095
-521.960	-21.925	-0.287	0.178
-520.945	-23.056	-0.156	-0.096
-519.931	-69.648	-0.138	-0.053
-518.916	-131.843	0.210	-0.028
-517.902	385.924	0.016	-0.034
-516.887	-90.358	0.285	0.084
-515.872	-76.523	-0.334	0.119
-514.858	2.534	-0.078	0.057
-513.843	-121.911	-0.014	0.002
-512.829	-200.000	-0.023	-0.168
-511.814	-94.852	0.214	-0.059
-510.799	-46.551	0.356	-0.177
-509.785	-84.104	0.254	-0.082
-508.770	208.995	0.094	0.149
-507.756	328.120	0.066	0.129
-506.741	283.477	-0.064	-0.116
-505.726	157.394	0.304	0.428
-504.712	50.795	0.139	-0.133
-503.697	-200.000	-0.012	-0.166
-502.683	44.048	-0.215	-0.200
-501.668	42.040	0.170	0.157
-500.653	93.176	0.088	0.101
-499.639	104.648	0.057	0.069
-498.624	404.045	0.097	0.208
-497.610	-37.476	-0.278	0.151
-496.595	127.955	0.178	-0.230
-495.581	261.740	-0.112	-0.198
-494.566	-200.000	-0.003	-0.138
-493.551	63.731	0.152	-0.155
-492.537	679.718	0.099	0.262
-491.522	800.000	-0.079	-0.244
-490.508	-67.092	-0.482	0.193
-489.493	-200.000	-0.068	-0.400
-488.478	7.669	-0.124	-0.094
-487.464	73.434	0.279	-0.296
-486.449	-105.716	-0.120	0.028
-485.435	-200.000	0.063	-0.292
-484.420	-182.434	0.269	0.005
-483.405	-200.000	-0.023	-0.134
-482.391	800.000	0.036	0.143
-481.376	800.000	0.026	-0.106
-480.362	201.413	-0.109	-0.170
-479.347	800.000	0.037	0.136
-478.332	95.410	0.193	0.224
-477.318	-96.939	0.168	0.045
-476.303	-95.259	-0.338	-0.092
-475.289	800.000	-0.010	0.038
-474.274	472.121	0.122	0.279
-473.259	154.571	0.079	-0.109
-472.245	-125.518	0.120	-0.019
-471.230	-200.000	-0.009	-0.246
-470.216	-70.399	0.247	-0.095
-469.201	-48.985	-0.132	0.064
-468.186	-200.000	0.001	-0.234
-467.172	151.620	0.183	0.253
-466.157	141.719	0.151	0.203
-465.143	-84.856	-0.260	0.083
-464.128	-123.834	-0.158	-0.025
-463.113	179.827	0.109	-0.162
-462.099	-144.753	-0.234	-0.022
-461.084	462.541	-0.099	-0.224
-460.070	-150.787	0.245	0.019
-459.055	33.278	0.092	0.081
-458.040	-99.328	-0.389	0.099
-457.026	800.000	0.099	0.348
-456.011	800.000	-0.041	-0.169
-454.997	265.244	0.085	-0.151
-453.982	-200.000	0.016	-0.380
-452.968	800.000	-0.081	-0.346
-451.953	-173.735	-0.192	0.006
-450.938	-117.276	0.091	-0.017
-449.924	800.000	0.043	0.167
-448.909	161.169	0.127	0.180
-447.895	27.503	0.224	0.191
-446.880	136.176	0.092	0.122
-445.865	800.000	0.122	0.412
-444.851	-200.000	-0.026	0.317
-443.836	800.000	0.019	0.078
-442.822	-90.996	-0.067	0.019
-441.807	800.000	0.070	-0.260
-440.792	141.414	0.109	-0.146
-439.778	800.000	-0.064	-0.195
-438.763	122.235	-0.233	-0.295
-437.749	-56.021	0.310	0.140
-436.734	-200.000	0.059	0.306
-435.719	-129.043	-0.125	0.018
-434.705	-122.007	-0.073	0.012
-433.690	-120.203	0.094	-0.016
-432.676	-39.800	0.230	-0.122
-431.661	-67.721	0.406	0.161
-430.646	-126.941	0.214	0.032
-429.632	-80.583	-0.264	-0.089
-428.617	800.000	-0.042	0.120
-427.603	-189.184	0.148	0.002
-426.588	201.186	0.185	-0.288
-425.573	800.000	-0.012	-0.053
-424.559	361.167	0.060	-0.122
-423.544	800.000	0.009	-0.028
-422.530	-200.000	0.012	-0.410
-421.515	-200.000	-0.035	-0.197
-420.500	387.695	-0.112	0.235
-419.486	-49.037	0.238	-0.115
-418.471	800.000	0.093	-0.269
-417.457	57.603	-0.099	-0.098
-416.442	800.000	0.035	0.119
-415.428	800.000	-0.031	0.088
-414.413	-69.056	0.097	-0.038
-413.398	-81.812	-0.246	0.082
-412.384	-154.834	-0.192	-0.013
-411.369	-95.730	-0.252	0.068
-410.355	-200.000	-0.025	-0.292
-409.340	13.246	0.105	-0.082
-408.325	-191.589	-0.389	0.004
-407.311	194.405	0.074	0.113
-406.296	-117.314	-0.277	-0.051
-405.282	-122.523	-0.078	-0.013
-404.267	2.082	0.271	0.198
-403.252	149.680	-0.090	-0.124
-402.238	-110.533	-0.143	-0.030
-401.223	800.000	-0.048	-0.146
-400.209	178.282	0.070	-0.103
-399.194	-16.048	-0.148	-0.095
-398.179	800.000	0.061	-0.265
-397.165	57.786	-0.195	0.193
-396.150	-79.661	0.370	0.126
-395.136	120.949	0.062	0.078
-394.121	-62.269	-0.115	-0.049
-393.106	3.073	0.178	-0.131
-392.092	-105.366	0.723	0.166
-391.077	75.351	-0.086	0.092
-390.063	159.725	0.024	-0.034
-389.048	-39.215	0.239	0.127
-388.033	324.280	0.169	-0.326
-387.019	-74.136	-0.330	-0.121
-386.004	-113.964	-0.283	0.056
-384.990	-15.779	-0.207	-0.133
-383.975	-200.000	0.019	-0.267
-382.960	-12.461	-0.123	0.081
-381.946	-200.000	-0.008	-0.174
-380.931	-200.000	0.001	0.054
-379.917	45.463	0.218	-0.204
-378.902	100.636	0.169	-0.198
-377.888	-56.420	0.480	-0.216
-376.873	-200.000	0.027	0.243
-375.858	-173.467	-0.080	0.002
-374.844	53.684	-0.218	0.211
-373.829	38.851	0.124	0.112
-372.815	800.000	0.054	-0.152
-371.800	-200.000	0.049	0.383
-370.785	-45.034	-0.185	0.093
-369.771	800.000	0.111	-0.368
-368.756	114.003	0.217	0.266
-367.742	-200.000	-0.026	-0.147
-366.727	-121.651	0.401	-0.067
-365.712	-52.586	0.196	-0.091
-364.698	-200.000	0.034	0.397
-363.683	-89.371	0.301	0.089
-362.669	-162.643	0.078	0.004
-361.654	-50.970	-0.395	0.187
-360.639	13.056	-0.313	-0.245
-359.625	-200.000	0.032	0.260
-358.610	52.129	-0.162	0.156
-357.596	225.330	-0.028	-0.046
-356.581	-16.324	0.081	0.052
-355.566	-56.799	-0.147	0.066
-354.552	229.858	-0.089	-0.147
-353.537	-11.850	-0.163	0.108
-352.523	185.830	0.123	0.184
-351.508	330.100	-0.181	-0.352
-350.493	-42.221	0.508	-0.262
-349.479	-72.126	0.234	-0.088
-348.464	-124.023	0.213	-0.034
-347.450	-200.000	0.034	-0.251
-346.435	212.935	-0.077	-0.123
-345.420	82.339	-0.123	0.135
-344.406	-87.188	-0.184	0.056
-343.391	-144.256	0.080	0.007
-342.377	800.000	0.044	-0.142
-341.362	357.343	-0.088	-0.177
-340.348	-200.000	0.040	0.187
-339.333	-149.801	0.061	0.005
-338.318	800.000	-0.074	-0.297
-337.304	-76.775	0.276	-0.097
-336.289	-110.083	0.336	-0.071
-335.275	-200.000	0.040	0.233
-334.260	800.000	-0.050	0.172
-333.245	416.487	-0.106	0.227
-332.231	-200.000	0.036	-0.432
-331.216	-25.579	0.139	0.083
-330.202	-200.000	-0.002	0.069
-329.187	-91.556	0.262	-0.075
-328.172	-200.000	-0.020	0.365
-327.158	-29.998	0.186	0.107
-326.143	506.438	-0.079	0.185
-325.129	-114.300	0.237	0.046
-324.114	-200.000	0.028	-0.326
-323.099	353.637	0.137	-0.274
-322.085	800.000	0.081	-0.283
-321.070	23.190	-0.317	0.263
-320.056	286.728	0.216	0.394
-319.041	-200.000	-0.021	0.172
-318.026	-200.000	-0.034	-0.165
-317.012	-119.406	0.319	0.056
-315.997	-200.000	-0.004	0.253
-314.983	34.330	0.044	0.039
-313.968	-200.000	0.024	0.146
-312.953	15.024	-0.090	-0.071
-311.939	638.151	0.158	0.405
-310.924	356.467	-0.083	0.166
-309.910	196.126	0.078	-0.120
-308.895	-190.013	0.335	-0.004
-307.880	380.767	-0.050	0.103
-306.866	2.543	0.240	-0.175
-305.851	2.274	-0.379	0.276
-304.837	800.000	-0.039	-0.137
-303.822	800.000	-0.043	-0.140
-302.807	800.000	-0.037	0.143
-301.793	46.198	0.024	-0.022
-300.778	0.475	0.210	-0.151
-299.764	2.183	-0.136	0.099
-298.749	-200.000	0.002	0.049
-297.735	-200.000	-0.092	0.442
-296.720	27.453	-0.060	0.051
-295.705	-28.095	-0.154	0.090
-294.691	-181.375	-0.483	0.010
-293.676	264.110	0.056	-0.098
-292.662	380.382	-0.310	0.641
-291.647	-63.827	0.204	0.084
-290.632	-23.599	0.327	-0.198
-289.618	-200.000	0.033	0.193
-288.603	-15.772	0.086	0.055
-287.589	-200.000	0.023	-0.150
-286.574	-55.094	0.193	0.087
-285.559	-81.619	-0.341	0.113
-284.545	-53.220	-0.407	-0.188
-283.530	82.694	-0.113	0.124
-282.516	800.000	-0.068	-0.222
-281.501	800.000	0.114	-0.371
-280.486	329.803	-0.138	0.266
-279.472	-72.458	-0.339	0.126
-278.457	-25.317	0.025	-0.015
-277.443	-200.000	0.048	-0.229
-276.428	-200.000	-0.020	-0.138
-275.413	-200.000	0.015	0.181
-274.399	800.000	-0.123	0.343
-273.384	800.000	-0.106	-0.366
-272.370	61.258	-0.053	0.053
-271.355	328.241	-0.023	-0.044
-270.340	-145.040	0.161	0.015
-269.326	4.932	0.228	-0.169
-268.311	4.737	0.377	0.279
-267.297	108.881	-0.104	0.126
-266.282	-5.516	0.164	0.113
-265.267	800.000	-0.080	-0.261
-264.253	123.966	0.104	-0.132
-263.238	96.857	-0.176	0.203
-262.224	-42.398	-0.110	-0.056
-261.209	-7.850	0.222	-0.151
-260.195	7.521	0.364	-0.274
-259.180	-69.873	-0.112	-0.043
-258.165	117.908	-0.032	-0.040
-257.151	149.136	0.056	0.076
-256.136	-167.107	0.089	0.004
-255.122	-14.823	0.099	-0.064
-254.107	800.000	-0.042	0.122
-253.092	75.687	-0.083	-0.088
-252.078	-103.773	0.090	0.021
-251.063	195.696	0.156	0.238
-250.049	97.949	-0.093	0.107
-249.034	-200.000	-0.010	-0.046
-248.019	185.223	-0.119	0.178
-247.005	80.185	0.215	-0.233
-245.990	-60.975	-0.274	0.116
-244.976	-59.936	-0.176	0.076
-243.961	-94.138	-0.209	-0.058
-242.946	95.154	0.212	-0.243
-241.932	-200.000	-0.011	0.137
-240.917	-200.000	-0.047	-0.255
-239.903	-133.089	-0.428	0.054
-238.888	161.741	0.127	-0.179
-237.873	-122.588	-0.252	-0.041
-236.859	20.565	-0.166	-0.135
-235.844	56.814	-0.077	-0.075
-234.830	800.000	0.072	-0.293
-233.815	-200.000	-0.007	-0.116
-232.800	228.394	-0.114	-0.187
-231.786	23.067	0.023	-0.019
-230.771	-77.342	0.107	0.037
-229.757	-128.652	-0.241	-0.034
-228.742	-82.428	-0.185	-0.060
-227.727	-134.016	-0.188	-0.023
-226.713	3.546	0.070	0.051
-225.698	446.546	-0.046	-0.103
-224.684	465.578	-0.100	-0.225
-223.669	148.865	-0.131	-0.178
-222.655	792.975	-0.030	-0.084
-221.640	191.934	0.077	0.117
-220.625	-200.000	0.028	0.348
-219.611	-39.604	-0.394	0.207
-218.596	-72.441	-0.229	-0.085
-217.582	-5.848	0.130	0.089
-216.567	407.026	0.046	-0.097
-215.552	529.554	0.067	-0.160
-214.538	-101.901	-0.046	0.011
-213.523	58.645	0.264	0.260
-212.509	-70.355	0.172	-0.066
-211.494	227.568	-0.119	-0.194
-210.479	31.203	0.143	0.123
-209.465	123.996	0.160	-0.201
-208.450	-200.000	0.003	-0.045
-207.436	34.846	-0.357	-0.313
-206.421	734.363	0.049	0.132
-205.406	33.048	-0.171	0.149
-204.392	-200.000	-0.021	0.142
-203.377	-103.554	-0.210	-0.049
-202.363	-68.268	-0.126	-0.049
-201.348	-55.999	-0.160	0.072
-200.333	165.814	-0.216	0.306
-199.319	-53.424	0.224	-0.103
-198.304	800.000	-0.066	-0.261
-197.290	-98.698	0.179	-0.046
-196.275	17.940	-0.221	0.177
-195.260	-88.583	-0.120	-0.036
-194.246	-63.867	0.431	0.177
-193.231	136.470	0.181	0.237
-192.217	61.245	0.079	-0.079
-191.202	-43.462	0.105	0.053
-190.187	-76.510	0.268	-0.094
-189.173	797.159	0.026	-0.071
-188.158	-56.171	0.242	0.108
-187.144	125.550	-0.136	-0.172
-186.129	800.000	-0.051	0.179
-185.114	-200.000	0.024	0.263
-184.100	-42.867	-0.141	0.072
-183.085	-26.781	-0.146	0.085
-182.071	800.000	0.128	-0.429
-181.056	28.358	0.054	-0.046
-180.042	94.744	0.251	-0.286
-179.027	191.701	0.226	0.341
-178.012	-104.157	-0.242	0.056
-176.998	84.016	0.111	0.122
-175.983	-15.564	-0.263	0.168
-174.969	800.000	0.050	0.221
-173.954	-200.000	-0.267	0.000
-172.939	69.124	0.054	-0.055
-171.925	-1.016	-0.129	-0.091
-170.910	800.000	-0.018	0.077
-169.896	800.000	0.110	-0.316
-168.881	-200.000	0.056	-0.303
-167.866	214.909	0.072	0.114
-166.852	334.568	-0.199	0.386
-165.837	-171.648	-0.354	-0.012
-164.823	-200.000	0.000	0.055
-163.808	-56.538	0.097	-0.043
-162.793	5.132	-0.049	0.036
-161.779	800.000	0.128	0.391
-160.764	-119.326	-0.097	0.017
-159.750	-200.000	-0.005	-0.193
-158.735	-73.008	-0.036	0.013
-157.720	248.402	-0.274	0.464
-156.706	430.294	0.100	-0.217
-155.691	448.579	0.194	0.428
-154.677	800.000	-0.055	-0.171
-153.662	101.304	-0.117	-0.136
-152.647	-200.000	0.009	-0.179
-151.633	-49.397	-0.304	-0.145
-150.618	168.436	0.277	-0.395
-149.604	800.000	0.031	0.086
-148.589	67.446	0.248	-0.253
-147.574	-32.440	0.404	-0.226
-146.560	-86.316	-0.028	0.009
-145.545	-200.000	-0.042	0.298
-144.531	285.476	0.227	-0.410
-143.516	163.460	0.009	0.013
-142.502	91.887	0.156	-0.175
-141.487	-166.978	0.076	-0.003
-140.472	-144.525	0.118	0.011
-139.458	-59.078	-0.185	-0.080
-138.443	-59.387	-0.111	-0.048
-137.429	-200.000	-0.017	0.210
-136.414	-94.274	-0.373	-0.102
-135.399	77.962	-0.097	0.103
-134.385	-45.917	-0.298	0.147
-133.370	315.960	-0.153	0.288
-132.356	558.384	-0.121	-0.292
-131.341	77.130	-0.135	-0.144
-130.326	-82.199	0.109	-0.036
-129.312	676.290	0.075	0.195
-128.297	-88.382	-0.323	-0.097
-127.283	107.428	-0.147	0.175
-126.268	399.419	-0.148	0.311
-125.253	-94.903	0.339	0.092
-124.239	123.734	0.150	-0.189
-123.224	229.348	0.165	0.270
-122.210	170.931	-0.115	-0.165
-121.195	-136.979	-0.353	-0.040
