DTS Sentinel unit serial number:	SN413079Multiplexer serial number:	ORYXHardware model number:	OX4-SRSoftware version number:	ORYX F/W v4.00 Oryx Data Collector v3.7.2.0data status	okinstallation	princeton_trtdifferential loss correction	single-endedforward channel	channel 2reverse channel	N/Adate	2019/09/10time	21:13:10forward acquisition time	60.00reverse acquisition time	0.00gamma	496.2192k internal	0.2330k external	0.2330temperature offset calibration	0.9943default loss term (dB/km)	0.3790temperature slope calibration	1.0000multiplexer offset coefficient	1.0000multiplexer slope coefficient	1.0000fibre end	0.00T internal ref (°C)	31.39T ext. ref 1 (°C)	-0.32T ext. ref 2 (°C)	24.53length (m)	temperature (°C)	Stokes	anti-Stokes-747.200	297.512	-0.071	0.131
-746.185	-149.445	-0.287	0.023
-745.171	249.102	0.047	0.080
-744.156	-109.343	-0.141	-0.030
-743.142	-200.000	-0.093	-0.451
-742.127	-60.412	0.119	0.051
-741.112	383.870	-0.088	0.183
-740.098	42.451	-0.135	0.124
-739.083	29.465	0.241	0.206
-738.069	54.457	0.217	0.211
-737.054	-117.224	0.149	-0.027
-736.039	-12.643	0.275	-0.180
-735.025	-194.544	0.340	0.003
-734.010	-1.094	-0.227	-0.162
-732.996	-193.102	0.121	0.001
-731.981	-105.019	-0.179	0.041
-730.966	800.000	-0.093	0.292
-729.952	-108.155	-0.289	0.063
-728.937	800.000	0.040	-0.171
-727.923	-103.498	0.386	-0.091
-726.908	109.404	0.215	0.259
-725.894	800.000	0.142	0.462
-724.879	209.705	0.050	-0.079
-723.864	-115.941	-0.313	-0.059
-722.850	-25.396	-0.032	-0.019
-721.835	-200.000	0.014	-0.072
-720.821	527.371	0.094	-0.223
-719.806	-47.002	-0.203	0.100
-718.791	-181.296	0.072	-0.001
-717.777	-98.890	0.104	-0.027
-716.762	183.876	-0.077	0.114
-715.748	-85.066	0.155	-0.049
-714.733	800.000	0.062	-0.205
-713.718	-1.550	0.127	0.090
-712.704	-200.000	-0.006	0.219
-711.689	-14.363	0.245	-0.159
-710.675	-200.000	-0.022	-0.185
-709.660	36.582	0.292	-0.259
-708.645	-200.000	-0.054	0.372
-707.631	50.751	-0.092	-0.087
-706.616	42.192	-0.120	-0.110
-705.602	-97.590	-0.064	-0.017
-704.587	-12.424	0.083	-0.055
-703.572	-22.215	0.226	0.138
-702.558	-76.150	-0.341	-0.121
-701.543	140.428	0.158	-0.210
-700.529	-81.033	0.170	0.057
-699.514	306.230	0.086	0.161
-698.499	-32.559	0.223	-0.125
-697.485	-137.517	0.155	0.018
-696.470	-31.251	0.166	0.094
-695.456	800.000	-0.069	0.195
-694.441	108.035	-0.267	-0.319
-693.426	-200.000	-0.124	-0.654
-692.412	-200.000	-0.004	0.072
-691.397	-63.658	-0.305	0.126
-690.383	-67.492	-0.685	0.270
-689.368	276.545	0.042	0.074
-688.354	-200.000	0.022	0.272
-687.339	-200.000	-0.055	-0.293
-686.324	-183.832	0.145	-0.002
-685.310	800.000	0.059	0.184
-684.295	-105.447	-0.024	0.005
-683.281	-95.101	0.121	0.033
-682.266	700.756	-0.081	-0.214
-681.251	-55.267	0.094	-0.042
-680.237	236.651	0.035	0.058
-679.222	800.000	0.025	0.102
-678.208	-126.943	-0.221	-0.033
-677.193	-153.487	0.303	-0.021
-676.178	61.745	-0.321	-0.321
-675.164	-129.076	0.392	-0.055
-674.149	-129.610	-0.309	0.043
-673.135	50.005	0.110	-0.104
-672.120	-200.000	0.041	0.323
-671.105	-35.219	-0.176	-0.096
-670.091	-97.116	0.124	-0.033
-669.076	158.672	-0.153	-0.213
-668.062	-97.391	0.093	0.024
-667.047	-6.184	0.171	-0.117
-666.032	-82.740	0.120	0.039
-665.018	494.256	-0.131	-0.301
-664.003	-116.296	0.087	0.016
-662.989	37.482	0.044	0.039
-661.974	211.093	0.070	-0.110
-660.959	-86.688	0.249	0.076
-659.945	-58.540	-0.061	0.027
-658.930	324.645	-0.080	-0.153
-657.916	800.000	-0.075	0.211
-656.901	226.678	0.198	0.322
-655.886	-200.000	0.018	-0.141
-654.872	-111.238	-0.111	0.023
-653.857	106.642	-0.296	0.352
-652.843	-15.412	0.229	-0.147
-651.828	800.000	-0.030	-0.115
-650.814	800.000	-0.072	0.292
-649.799	668.513	0.053	0.137
-648.784	-28.398	-0.214	0.124
-647.770	185.119	-0.062	-0.092
-646.755	-46.157	-0.301	0.148
-645.741	-1.838	0.037	-0.026
-644.726	-180.719	-0.404	0.008
-643.711	-130.808	0.030	0.004
-642.697	-15.067	-0.078	0.050
-641.682	159.918	0.124	0.173
-640.668	-200.000	0.001	0.026
-639.653	166.831	-0.235	0.335
-638.638	-80.260	-0.257	-0.086
-637.624	-108.493	-0.242	-0.052
-636.609	45.799	0.181	-0.168
-635.595	-56.213	-0.328	-0.146
-634.580	78.007	-0.064	0.069
-633.565	-200.000	-0.029	0.226
-632.551	-15.681	0.285	0.182
-631.536	154.442	0.093	-0.127
-630.522	-142.680	-0.304	0.030
-629.507	-200.000	0.044	0.290
-628.492	-44.860	0.092	0.046
-627.478	-80.568	0.102	-0.034
-626.463	-84.333	-0.059	-0.019
-625.449	-141.811	0.146	-0.015
-624.434	35.447	0.094	0.083
-623.419	-200.000	-0.012	-0.239
-622.405	-45.268	0.226	0.112
-621.390	479.868	0.050	-0.114
-620.376	-44.812	-0.113	-0.057
-619.361	395.021	-0.234	0.488
-618.346	-137.730	0.329	0.037
-617.332	-129.812	0.132	-0.018
-616.317	-107.054	0.241	-0.053
-615.303	8.327	0.192	0.144
-614.288	-64.573	-0.101	0.041
-613.273	137.963	-0.067	-0.088
-612.259	-83.455	0.046	0.015
-611.244	-52.949	0.151	-0.070
-610.230	-126.475	0.205	-0.031
-609.215	-126.052	-0.143	-0.021
-608.201	14.783	-0.141	0.110
-607.186	644.782	-0.094	0.240
-606.171	130.185	0.074	0.095
-605.157	-200.000	-0.065	0.371
-604.142	-200.000	0.014	0.245
-603.128	-200.000	-0.027	0.131
-602.113	0.977	0.152	-0.109
-601.098	442.987	-0.014	-0.031
-600.084	-200.000	0.010	-0.310
-599.069	-135.400	0.220	-0.026
-598.055	10.888	0.222	0.170
-597.040	-95.538	-0.200	0.054
-596.025	-155.090	-0.551	0.036
-595.011	-128.508	0.190	-0.027
-593.996	126.971	-0.064	-0.081
-592.982	-16.838	0.399	0.253
-591.967	-95.444	0.216	0.058
-590.952	791.441	0.083	-0.228
-589.938	-23.726	0.066	-0.040
-588.923	800.000	0.042	0.127
-587.909	97.256	0.147	-0.169
-586.894	405.966	0.019	0.040
-585.879	54.958	0.146	0.141
-584.865	800.000	0.024	0.072
-583.850	-77.292	0.116	-0.040
-582.836	800.000	0.032	-0.111
-581.821	800.000	-0.127	-0.541
-580.806	31.809	0.181	0.156
-579.792	800.000	0.069	0.274
-578.777	-116.786	0.266	0.049
-577.763	-42.040	-0.054	0.028
-576.748	-56.273	-0.235	0.105
-575.733	309.083	-0.180	0.336
-574.719	-130.143	0.135	-0.018
-573.704	20.377	-0.145	0.117
-572.690	137.322	-0.114	0.149
-571.675	-200.000	-0.029	-0.191
-570.661	-85.066	0.079	0.025
-569.646	114.057	-0.313	-0.381
-568.631	491.942	0.152	-0.348
-567.617	152.895	-0.187	-0.255
-566.602	634.948	-0.136	-0.345
-565.588	-125.290	-0.187	-0.028
-564.573	134.950	-0.202	-0.262
-563.558	-21.790	-0.226	0.137
-562.544	712.315	-0.144	-0.381
-561.529	-200.000	-0.004	-0.257
-560.515	43.451	0.207	-0.189
-559.500	314.926	-0.124	-0.234
-558.485	-200.000	0.031	-0.203
-557.471	-79.069	-0.240	0.082
-556.456	-200.000	-0.004	0.017
-555.442	-60.393	-0.232	-0.099
-554.427	-66.809	0.085	-0.034
-553.412	181.469	-0.075	-0.110
-552.398	-94.820	0.265	-0.072
-551.383	-51.491	0.358	-0.167
-550.369	-38.696	-0.169	-0.089
-549.354	377.799	0.054	0.110
-548.339	221.468	-0.113	-0.181
-547.325	66.895	-0.307	0.312
-546.310	158.939	0.102	-0.141
-545.296	-76.560	0.254	0.089
-544.281	800.000	0.088	0.256
-543.266	-200.000	0.017	0.333
-542.252	-78.309	0.172	-0.059
-541.237	62.660	-0.107	0.107
-540.223	528.625	-0.029	0.068
-539.208	-200.000	-0.023	-0.101
-538.193	723.363	-0.052	0.138
-537.179	-200.000	0.040	-0.240
-536.164	-124.867	0.106	0.016
-535.150	65.094	-0.197	0.199
-534.135	160.463	0.132	0.184
-533.121	128.622	0.048	-0.061
-532.106	-66.539	-0.082	0.033
-531.091	-7.639	-0.165	-0.111
-530.077	-200.000	-0.071	0.336
-529.062	-48.419	-0.203	-0.098
-528.048	-39.286	-0.272	-0.142
-527.033	573.375	0.169	0.410
-526.018	-200.000	-0.092	0.428
-525.004	-200.000	0.002	0.121
-523.989	-140.524	-0.122	-0.013
-522.975	-30.167	0.256	-0.146
-521.960	-107.847	-0.307	0.067
-520.945	114.246	0.184	-0.224
-519.931	466.130	0.090	0.201
-518.916	-198.466	0.074	0.000
-517.902	323.435	0.132	-0.252
-516.887	-55.747	0.264	0.118
-515.872	41.354	0.261	0.236
-514.858	77.356	-0.131	-0.139
-513.843	-131.044	0.315	-0.042
-512.829	-200.000	-0.016	-0.222
-511.814	-113.361	-0.284	-0.056
-510.799	-200.000	-0.012	0.183
-509.785	76.594	-0.172	0.182
-508.770	800.000	0.034	-0.112
-507.756	337.188	-0.026	0.050
-506.741	255.245	-0.173	0.295
-505.726	-181.369	-0.209	-0.004
-504.712	64.228	0.172	0.172
-503.697	-200.000	0.004	-0.190
-502.683	-200.000	-0.012	0.077
-501.668	3.584	-0.047	0.034
-500.653	-94.864	-0.244	-0.066
-499.639	-150.892	0.288	-0.022
-498.624	800.000	-0.090	0.332
-497.610	800.000	-0.015	-0.048
-496.595	-135.234	0.406	-0.049
-495.581	800.000	-0.099	-0.335
-494.566	-200.000	-0.009	0.094
-493.551	-53.907	-0.241	0.109
-492.537	-200.000	0.004	0.200
-491.522	317.437	0.066	-0.125
-490.508	46.577	0.223	0.206
-489.493	-14.413	-0.280	0.179
-488.478	-5.975	0.253	0.172
-487.464	15.525	0.188	0.147
-486.449	-43.932	-0.152	-0.076
-485.435	-131.035	0.036	0.005
-484.420	-200.000	0.030	-0.266
-483.405	-200.000	-0.032	-0.192
-482.391	-125.919	-0.272	0.041
-481.376	-85.804	0.020	0.006
-480.362	488.628	-0.085	-0.194
-479.347	553.936	0.064	-0.153
-478.332	800.000	-0.073	0.282
-477.318	-110.804	0.376	0.077
-476.303	-200.000	-0.001	0.085
-475.289	-76.246	-0.335	0.117
-474.274	-54.861	0.139	-0.063
-473.259	42.217	0.276	0.249
-472.245	-139.003	0.211	0.023
-471.230	-102.059	-0.272	0.065
-470.216	800.000	0.038	0.124
-469.201	-200.000	-0.059	-0.551
-468.186	156.400	0.073	-0.100
-467.172	-126.881	0.125	-0.018
-466.157	800.000	-0.092	0.293
-465.143	-122.628	0.291	0.047
-464.128	-200.000	-0.035	-0.362
-463.113	-107.764	-0.189	0.041
-462.099	473.230	0.087	-0.196
-461.084	460.287	0.031	-0.069
-460.070	-200.000	0.000	0.112
-459.055	800.000	-0.070	0.236
-458.040	-12.545	0.246	-0.160
-457.026	-200.000	-0.022	-0.243
-456.011	-118.066	0.355	0.063
-454.997	130.602	-0.276	0.352
-453.982	-98.430	-0.119	0.030
-452.968	228.905	-0.267	-0.433
-451.953	-126.601	0.210	-0.031
-450.938	33.287	0.270	-0.233
-449.924	-31.856	-0.054	0.030
-448.909	123.397	-0.144	0.180
-447.895	-200.000	-0.013	0.103
-446.880	-47.657	0.215	-0.104
-445.865	166.586	-0.094	-0.133
-444.851	-69.289	0.414	-0.158
-443.836	-73.249	0.309	0.113
-442.822	266.090	-0.095	0.164
-441.807	-152.029	0.075	0.005
-440.792	-200.000	0.000	0.322
-439.778	355.545	0.053	-0.104
-438.763	280.329	-0.123	-0.219
-437.749	-115.351	0.479	-0.090
-436.734	-33.241	0.148	-0.081
-435.719	-200.000	0.025	0.189
-434.705	-194.287	-0.226	0.002
-433.690	-14.568	0.246	-0.157
-432.676	461.644	-0.065	0.145
-431.661	-39.297	0.232	-0.121
-430.646	800.000	0.073	-0.218
-429.632	-200.000	-0.031	0.149
-428.617	-99.419	0.098	0.025
-427.603	-95.164	-0.245	-0.066
-426.588	164.907	-0.153	0.214
-425.573	-4.127	-0.312	-0.215
-424.559	-200.000	-0.017	-0.292
-423.544	174.649	-0.070	0.100
-422.530	-45.462	-0.221	-0.109
-421.515	75.913	0.066	0.069
-420.500	-159.631	0.376	-0.021
-419.486	401.051	-0.201	-0.420
-418.471	-200.000	0.000	-0.271
-417.457	171.196	-0.129	-0.184
-416.442	128.858	0.219	0.278
-415.428	-32.426	-0.170	0.094
-414.413	101.887	0.195	-0.226
-413.398	-63.955	-0.339	0.138
-412.384	104.903	0.108	0.127
-411.369	-61.257	-0.348	0.146
-410.355	127.413	-0.159	-0.201
-409.340	23.120	-0.317	-0.259
-408.325	-43.497	0.155	0.078
-407.311	486.115	-0.095	-0.216
-406.296	15.612	-0.090	0.071
-405.282	-117.898	-0.214	0.038
-404.267	-200.000	-0.015	-0.122
-403.252	-200.000	-0.010	-0.060
-402.238	-108.975	0.171	0.036
-401.223	800.000	-0.109	0.432
-400.209	467.602	0.128	-0.286
-399.194	580.252	0.038	-0.093
-398.179	-130.492	-0.137	-0.018
-397.165	-160.243	0.121	0.006
-396.150	-200.000	0.030	-0.254
-395.136	800.000	-0.043	-0.170
-394.121	83.096	0.168	0.181
-393.106	-21.247	0.187	-0.113
-392.092	-47.270	-0.175	-0.085
-391.077	-190.892	0.225	0.002
-390.063	-82.191	0.096	-0.031
-389.048	295.271	-0.045	-0.082
-388.033	800.000	-0.025	-0.107
-387.019	77.535	-0.039	0.041
-386.004	13.879	0.080	-0.062
-384.990	164.299	0.135	-0.189
-383.975	-10.407	-0.201	-0.132
-382.960	679.459	0.164	0.424
-381.946	-200.000	0.007	0.224
-380.931	-200.000	-0.007	0.097
-379.917	-200.000	-0.005	-0.338
-378.902	-200.000	-0.019	-0.199
-377.888	-200.000	-0.047	0.301
-376.873	-46.168	-0.273	0.133
-375.858	-140.916	0.215	-0.022
-374.844	-200.000	0.008	-0.172
-373.829	-7.636	-0.245	0.165
-372.815	166.092	0.176	0.247
-371.800	-113.244	0.308	-0.060
-370.785	604.684	0.145	0.358
-369.771	34.570	0.241	0.209
-368.756	-5.860	0.215	0.146
-367.742	800.000	-0.078	0.216
-366.727	-200.000	-0.029	-0.236
-365.712	-101.597	0.144	-0.035
-364.698	-37.688	-0.298	0.157
-363.683	758.167	0.044	-0.117
-362.669	800.000	-0.031	0.128
-361.654	621.944	0.109	0.272
-360.639	411.221	0.029	0.061
-359.625	262.133	-0.155	-0.266
-358.610	-61.177	0.067	0.028
-357.596	-197.791	-0.338	-0.002
-356.581	103.745	-0.086	-0.100
-355.566	-200.000	-0.026	-0.269
-354.552	800.000	-0.038	-0.144
-353.537	-177.945	0.267	-0.006
-352.523	-141.120	0.306	0.031
-351.508	80.477	0.093	-0.100
-350.493	-134.267	0.295	0.036
-349.479	53.988	-0.040	0.038
-348.464	245.159	-0.130	-0.217
-347.450	-30.144	0.146	0.082
-346.435	800.000	-0.048	0.150
-345.420	-9.783	0.132	-0.087
-344.406	164.802	0.162	-0.226
-343.391	800.000	0.071	0.258
-342.377	-88.530	0.107	-0.031
-341.362	17.214	0.124	-0.097
-340.348	322.511	0.111	-0.210
-339.333	452.095	-0.075	0.164
-338.318	-13.247	-0.158	-0.102
-337.304	800.000	0.125	0.373
-336.289	423.267	-0.107	-0.229
-335.275	-200.000	-0.007	-0.348
-334.260	274.373	-0.120	-0.210
-333.245	13.552	-0.225	0.173
-332.231	-200.000	-0.002	0.020
-331.216	168.071	-0.138	-0.194
-330.202	-46.025	-0.319	0.156
-329.187	-44.397	-0.324	-0.161
-328.172	-103.254	0.093	-0.022
-327.158	123.301	-0.189	0.235
-326.143	127.966	-0.125	0.157
-325.129	150.581	0.074	-0.100
-324.114	177.123	-0.169	-0.244
-323.099	-55.276	-0.221	0.099
-322.085	134.628	0.150	0.192
-321.070	18.077	-0.173	-0.137
-320.056	207.745	-0.156	0.241
-319.041	-200.000	-0.010	0.181
-318.026	-200.000	-0.022	0.310
-317.012	-194.267	0.356	0.003
-315.997	-26.334	0.132	-0.077
-314.983	101.337	0.099	0.114
-313.968	-102.695	-0.311	-0.073
-312.953	-71.253	0.204	0.076
-311.939	103.585	-0.090	0.104
-310.924	-133.445	0.384	-0.048
-309.910	-46.832	0.175	0.085
-308.895	-25.973	-0.425	0.248
-307.880	-200.000	0.069	-0.324
-306.866	-144.210	-0.227	-0.021
-305.851	330.127	-0.040	-0.076
-304.837	-54.998	-0.057	-0.025
-303.822	695.067	-0.042	0.110
-302.807	-104.542	-0.102	-0.023
-301.793	409.660	-0.076	-0.160
-300.778	-28.835	0.119	0.068
-299.764	424.007	0.096	0.204
-298.749	-200.000	-0.025	0.129
-297.735	-200.000	0.054	0.310
-296.720	-132.610	-0.167	0.021
-295.705	124.772	0.089	0.110
-294.691	-200.000	-0.015	0.218
-293.676	-173.724	0.046	-0.001
-292.662	-200.000	-0.024	-0.132
-291.647	285.948	0.059	-0.106
-290.632	-200.000	-0.036	-0.324
-289.618	9.362	0.206	-0.154
-288.603	63.939	-0.045	0.045
-287.589	-105.407	-0.113	0.025
-286.574	159.088	-0.066	-0.090
-285.559	800.000	0.067	-0.237
-284.545	195.789	0.066	-0.100
-283.530	657.036	-0.063	-0.160
-282.516	195.662	-0.012	0.017
-281.501	800.000	-0.060	0.215
-280.486	-85.527	-0.123	-0.038
-279.472	-133.777	0.549	-0.068
-278.457	-200.000	0.016	-0.119
-277.443	-91.638	0.154	-0.043
-276.428	-53.279	-0.245	-0.111
-275.413	-43.102	-0.111	-0.056
-274.399	492.255	-0.103	-0.234
-273.384	-142.302	-0.383	-0.037
-272.370	158.580	-0.051	-0.070
-271.355	202.998	-0.111	0.170
-270.340	772.224	0.066	0.177
-269.326	36.903	0.095	-0.083
-268.311	-200.000	0.004	-0.324
-267.297	151.279	-0.165	0.223
-266.282	800.000	-0.053	-0.145
-265.267	77.078	-0.185	-0.195
-264.253	-178.941	0.420	0.009
-263.238	149.952	-0.076	-0.102
-262.224	466.404	-0.146	0.322
-261.209	-200.000	-0.089	0.413
-260.195	800.000	0.089	-0.304
-259.180	-200.000	0.011	0.155
-258.165	715.772	0.050	0.132
-257.151	-200.000	0.006	-0.119
-256.136	612.960	-0.050	-0.124
-255.122	102.378	-0.246	-0.284
-254.107	158.728	-0.050	0.069
-253.092	-200.000	0.036	0.314
-252.078	-200.000	0.040	-0.285
-251.063	170.749	-0.114	0.161
-250.049	150.675	0.152	-0.204
-249.034	499.959	0.143	0.325
-248.019	496.847	-0.127	0.288
-247.005	8.515	-0.042	-0.031
-245.990	-18.791	0.108	0.066
-244.976	-73.588	0.235	-0.085
-243.961	-74.912	-0.223	-0.079
-242.946	-120.289	0.434	0.073
-241.932	-90.554	0.218	0.062
-240.917	800.000	-0.058	-0.240
-239.903	-61.528	-0.394	-0.163
-238.888	375.465	0.152	-0.306
-237.873	-34.662	-0.351	-0.190
-236.859	-41.755	0.115	-0.058
-235.844	5.365	0.281	-0.205
-234.830	11.004	-0.367	-0.277
-233.815	800.000	-0.037	-0.154
-232.800	33.846	0.285	0.245
-231.786	-51.960	0.220	-0.101
-230.771	-18.407	0.271	-0.167
-229.757	-47.920	-0.286	-0.137
-228.742	-38.069	0.085	-0.045
-227.727	-37.964	0.314	-0.165
-226.713	0.966	0.172	-0.121
-225.698	26.838	-0.113	-0.094
-224.684	-1.927	0.337	-0.233
-223.669	-102.153	0.371	-0.088
-222.655	-65.668	0.156	0.062
-221.640	800.000	0.112	0.324
-220.625	201.010	-0.097	0.147
-219.611	-110.272	-0.207	0.042
-218.596	-200.000	0.046	-0.216
-217.582	-27.721	-0.216	0.124
-216.567	443.817	0.224	-0.484
-215.552	79.257	-0.215	-0.227
-214.538	110.634	0.227	0.269
-213.523	-144.512	0.248	0.023
-212.509	63.941	0.069	-0.068
-211.494	-65.030	0.232	-0.092
-210.479	93.117	0.061	-0.068
-209.465	-4.694	-0.357	-0.243
-208.450	-72.211	0.031	0.011
-207.436	309.995	0.054	-0.099
-206.421	39.765	-0.231	0.205
-205.406	-37.594	0.174	0.091
-204.392	-44.612	-0.558	0.275
-203.377	-200.000	-0.012	-0.127
-202.363	-51.092	-0.113	-0.052
-201.348	99.386	-0.232	0.265
-200.333	57.574	-0.035	-0.034
-199.319	-200.000	-0.010	0.090
-198.304	-200.000	0.004	-0.150
-197.290	-107.112	-0.393	-0.086
-196.275	180.358	0.138	0.199
-195.260	-135.759	0.535	-0.062
-194.246	779.121	-0.062	-0.168
-193.231	-54.100	-0.188	-0.084
-192.217	-114.307	0.203	-0.039
-191.202	-64.908	0.193	-0.077
-190.187	-34.142	-0.107	-0.058
-189.173	66.558	0.144	-0.145
-188.158	-200.000	0.008	-0.066
-187.144	350.447	0.144	0.280
-186.129	-200.000	0.048	-0.340
-185.114	109.719	-0.307	-0.363
-184.100	33.027	-0.258	0.220
-183.085	112.523	-0.106	0.126
-182.071	-27.081	-0.069	-0.040
-181.056	-119.071	-0.183	0.031
-180.042	-113.293	-0.073	0.014
-179.027	-108.935	-0.176	0.037
-178.012	82.624	0.406	0.434
-176.998	-158.242	0.118	-0.007
-175.983	-17.692	-0.280	0.173
-174.969	-104.461	-0.459	0.104
-173.954	-126.373	0.269	0.039
-172.939	82.732	0.149	0.160
-171.925	800.000	0.106	0.452
-170.910	800.000	0.048	0.186
-169.896	249.745	-0.066	-0.110
-168.881	800.000	-0.074	0.252
-167.866	-200.000	0.064	-0.354
-166.852	-128.217	-0.082	0.011
-165.837	602.113	0.034	-0.083
-164.823	-200.000	-0.027	-0.285
-163.808	153.371	-0.146	-0.196
-162.793	-98.341	0.231	0.058
-161.779	100.881	0.147	0.168
-160.764	-200.000	0.014	0.213
-159.750	-88.939	-0.307	0.090
-158.735	-200.000	0.036	0.246
-157.720	635.764	0.104	-0.260
-156.706	-200.000	0.010	0.276
-155.691	-200.000	-0.004	-0.142
-154.677	356.569	-0.310	0.607
-153.662	-134.631	-0.200	0.024
-152.647	192.454	0.246	0.365
-151.633	184.720	-0.110	0.160
-150.618	-74.748	0.081	0.029
-149.604	-117.767	0.231	-0.041
-148.589	459.067	-0.092	0.202
-147.574	-91.121	0.163	-0.046
-146.560	100.152	0.249	0.284
-145.545	-146.986	-0.177	0.015
-144.531	-200.000	-0.018	0.151
-143.516	800.000	0.089	0.312
-142.502	800.000	-0.025	0.070
-141.487	83.934	-0.044	0.048
-140.472	306.941	-0.035	0.064
-139.458	-174.928	0.306	0.008
-138.443	800.000	0.058	-0.218
-137.429	464.315	0.154	-0.339
-136.414	282.632	-0.048	0.084
-135.399	-200.000	0.023	0.120
-134.385	274.749	0.191	0.333
-133.370	-200.000	0.021	0.221
-132.356	31.678	0.191	-0.161
-131.341	-17.572	-0.270	0.167
-130.326	-115.435	-0.053	-0.010
-129.312	226.499	0.040	-0.063
-128.297	-200.000	0.050	-0.292
-127.283	800.000	0.101	-0.312
-126.268	-104.498	0.238	0.054
-125.253	220.690	0.081	0.127
-124.239	800.000	-0.048	-0.190
-123.224	531.386	-0.119	-0.277
-122.210	134.628	-0.146	-0.186
