DTS Sentinel unit serial number:	SN413079Multiplexer serial number:	ORYXHardware model number:	OX4-SRSoftware version number:	ORYX F/W v4.00 Oryx Data Collector v3.7.2.0data status	okinstallation	princeton_trtdifferential loss correction	single-endedforward channel	channel 2reverse channel	N/Adate	2019/09/17time	19:35:35forward acquisition time	60.00reverse acquisition time	0.00gamma	496.2192k internal	0.2324k external	0.2324temperature offset calibration	0.9984default loss term (dB/km)	0.3790temperature slope calibration	1.0000multiplexer offset coefficient	1.0000multiplexer slope coefficient	1.0000fibre end	0.00T internal ref (°C)	36.02T ext. ref 1 (°C)	0.24T ext. ref 2 (°C)	24.77length (m)	temperature (°C)	Stokes	anti-Stokes-747.200	-120.135	-0.302	-0.052
-746.185	-110.450	-0.174	0.036
-745.171	5.649	0.127	-0.095
-744.156	-103.716	-0.117	0.028
-743.142	-174.657	0.179	0.005
-742.127	-63.642	-0.089	0.037
-741.112	-200.000	-0.061	0.543
-740.098	8.507	-0.239	0.181
-739.083	-17.371	0.077	0.049
-738.069	-200.000	0.047	0.238
-737.054	165.865	0.093	0.133
-736.039	-132.471	-0.235	-0.031
-735.025	233.795	0.080	0.133
-734.010	-81.024	-0.268	0.090
-732.996	-200.000	0.046	-0.281
-731.981	-39.998	0.214	0.113
-730.966	-200.000	0.047	0.257
-729.952	-133.296	0.054	0.007
-728.937	-2.697	-0.008	0.006
-727.923	-92.161	-0.285	0.081
-726.908	-105.383	-0.209	0.048
-725.894	-87.218	0.124	-0.038
-724.879	-41.746	0.152	-0.079
-723.864	-152.057	-0.102	0.007
-722.850	-23.292	0.113	-0.069
-721.835	-135.740	-0.118	-0.014
-720.821	-128.958	0.249	0.035
-719.806	-53.552	-0.057	-0.027
-718.791	9.861	-0.216	-0.165
-717.777	-72.645	-0.241	0.090
-716.762	151.444	0.299	-0.410
-715.748	-200.000	0.033	-0.174
-714.733	454.033	-0.156	-0.348
-713.718	-157.067	-0.461	0.028
-712.704	434.446	-0.093	0.204
-711.689	-200.000	-0.013	-0.140
-710.675	-137.854	0.421	0.048
-709.660	69.882	-0.079	-0.082
-708.645	800.000	0.074	-0.302
-707.631	108.995	-0.163	-0.197
-706.616	-200.000	-0.061	-0.319
-705.602	800.000	0.037	-0.130
-704.587	13.832	-0.042	-0.033
-703.572	491.903	0.108	0.250
-702.558	800.000	0.064	-0.222
-701.543	73.160	0.133	-0.140
-700.529	134.341	0.078	0.102
-699.514	15.910	-0.326	-0.259
-698.499	21.958	0.170	-0.140
-697.485	87.576	-0.208	-0.232
-696.470	235.145	0.164	-0.273
-695.456	336.825	-0.108	-0.212
-694.441	-47.047	-0.131	0.064
-693.426	800.000	0.067	0.259
-692.412	-200.000	0.069	-0.314
-691.397	55.084	0.294	-0.286
-690.383	45.595	-0.223	-0.207
-689.368	-109.258	-0.354	-0.076
-688.354	-200.000	-0.053	-0.243
-687.339	-81.031	0.262	-0.087
-686.324	-200.000	-0.029	-0.146
-685.310	-24.796	-0.224	-0.134
-684.295	128.080	-0.010	0.013
-683.281	800.000	0.072	0.301
-682.266	-28.009	0.267	0.155
-681.251	-29.043	0.186	0.107
-680.237	-141.642	-0.365	-0.037
-679.222	53.341	-0.297	-0.286
-678.208	-42.559	0.224	0.115
-677.193	-4.869	-0.029	-0.020
-676.178	103.957	-0.165	-0.196
-675.164	-200.000	-0.097	0.614
-674.149	-24.109	0.220	-0.132
-673.135	-200.000	0.010	0.078
-672.120	135.818	-0.080	0.104
-671.105	751.609	-0.017	-0.045
-670.091	800.000	-0.099	-0.329
-669.076	41.076	0.103	0.094
-668.062	-4.858	0.077	0.054
-667.047	800.000	0.067	-0.216
-666.032	-52.887	-0.278	-0.129
-665.018	800.000	-0.063	0.200
-664.003	-86.250	0.252	-0.078
-662.989	716.993	-0.119	-0.319
-661.974	-200.000	-0.020	-0.132
-660.959	-200.000	-0.007	0.184
-659.945	206.959	0.107	-0.168
-658.930	101.655	-0.208	0.244
-657.916	264.062	0.155	-0.271
-656.901	800.000	0.077	-0.248
-655.886	-200.000	-0.016	0.206
-654.872	-32.706	-0.346	-0.194
-653.857	-46.772	-0.207	0.102
-652.843	-200.000	0.001	-0.298
-651.828	-101.902	0.069	-0.017
-650.814	672.521	0.025	0.066
-649.799	-200.000	-0.008	-0.104
-648.784	800.000	-0.063	-0.192
-647.770	36.948	-0.215	-0.191
-646.755	-92.362	-0.056	-0.016
-645.741	-18.054	0.161	-0.101
-644.726	-26.829	0.139	-0.082
-643.711	188.526	0.182	-0.274
-642.697	-200.000	0.014	-0.165
-641.682	-163.534	0.113	-0.005
-640.668	-200.000	-0.032	-0.315
-639.653	135.635	0.070	-0.091
-638.638	-102.289	0.273	-0.066
-637.624	-53.152	-0.021	-0.010
-636.609	134.898	-0.179	-0.234
-635.595	-116.836	-0.374	0.069
-634.580	91.545	-0.159	0.179
-633.565	539.984	-0.093	0.223
-632.551	-200.000	0.052	-0.345
-631.536	678.546	-0.047	-0.124
-630.522	800.000	0.064	-0.273
-629.507	-71.105	-0.080	0.030
-628.492	-200.000	-0.006	0.136
-627.478	131.545	0.146	-0.188
-626.463	-85.480	0.273	0.085
-625.449	172.698	-0.161	0.233
-624.434	669.190	-0.151	0.394
-623.419	800.000	0.088	-0.265
-622.405	202.201	0.211	-0.326
-621.390	14.764	-0.119	-0.094
-620.376	-69.489	-0.173	-0.067
-619.361	96.619	-0.138	-0.158
-618.346	86.797	-0.206	-0.228
-617.332	-68.137	0.073	-0.029
-616.317	-125.022	-0.220	0.034
-615.303	-31.616	0.218	0.123
-614.288	2.489	-0.177	-0.129
-613.273	-200.000	0.077	-0.417
-612.259	-200.000	0.020	-0.447
-611.244	90.379	-0.268	0.301
-610.230	-81.399	0.429	0.142
-609.215	-200.000	-0.007	0.363
-608.201	800.000	0.070	0.260
-607.186	135.143	0.267	0.349
-606.171	-200.000	-0.053	-0.303
-605.157	206.640	-0.110	-0.171
-604.142	24.571	-0.100	-0.083
-603.128	-200.000	0.033	-0.176
-602.113	14.553	-0.210	0.165
-601.098	127.943	-0.208	0.266
-600.084	-0.371	-0.188	0.134
-599.069	-130.902	0.124	0.017
-598.055	-81.136	-0.207	-0.069
-597.040	732.167	-0.072	-0.193
-596.025	-39.786	0.042	-0.022
-595.011	-57.537	0.329	0.145
-593.996	-47.256	0.233	-0.114
-592.982	371.976	0.133	-0.271
-591.967	290.231	-0.147	-0.268
-590.952	800.000	0.150	-0.421
-589.938	-60.990	-0.203	0.086
-588.923	800.000	0.048	0.171
-587.909	-4.896	-0.098	-0.068
-586.894	132.677	-0.159	0.205
-585.879	800.000	-0.113	0.444
-584.865	-53.711	0.059	-0.027
-583.850	-57.796	-0.160	-0.070
-582.836	148.508	0.140	-0.189
-581.821	-200.000	0.012	-0.174
-580.806	-73.872	-0.329	-0.120
-579.792	-196.671	0.283	-0.002
-578.777	-10.349	-0.142	-0.094
-577.763	58.037	-0.203	0.199
-576.748	-200.000	-0.008	0.094
-575.733	-120.605	0.238	-0.040
-574.719	-200.000	-0.035	0.256
-573.704	-116.246	-0.140	0.026
-572.690	-143.846	-0.231	-0.022
-571.675	-200.000	-0.046	0.328
-570.661	-7.976	-0.137	-0.093
-569.646	-75.254	-0.054	-0.019
-568.631	-72.480	-0.421	0.156
-567.617	800.000	0.030	-0.084
-566.602	-17.238	0.258	-0.163
-565.588	-147.635	-0.072	-0.006
-564.573	-94.337	0.014	0.004
-563.558	-92.240	0.020	-0.006
-562.544	612.884	-0.111	-0.279
-561.529	277.483	-0.202	0.360
-560.515	-40.956	-0.045	-0.023
-559.500	-82.996	0.189	-0.061
-558.485	-48.585	-0.098	-0.047
-557.471	800.000	-0.101	-0.350
-556.456	14.905	-0.203	-0.159
-555.442	-132.612	0.435	-0.056
-554.427	-72.296	-0.263	0.098
-553.412	-51.230	-0.246	-0.115
-552.398	62.649	0.121	0.122
-551.383	656.063	-0.021	-0.054
-550.369	67.225	0.185	-0.189
-549.354	6.134	-0.383	-0.285
-548.339	230.998	-0.177	0.290
-547.325	59.264	0.256	0.252
-546.310	-160.415	-0.268	-0.014
-545.296	55.012	0.179	0.174
-544.281	-192.886	0.431	-0.004
-543.266	49.934	0.242	0.229
-542.252	463.377	-0.059	0.132
-541.237	158.269	0.067	0.093
-540.223	-200.000	0.047	0.218
-539.208	-112.689	-0.117	0.023
-538.193	-172.895	0.208	0.006
-537.179	-97.643	-0.202	0.053
-536.164	800.000	0.100	0.423
-535.150	-75.628	-0.115	0.041
-534.135	257.327	0.131	-0.226
-533.121	79.767	0.104	0.112
-532.106	-87.132	-0.295	0.090
-531.091	-66.598	-0.096	0.038
-530.077	-1.354	0.230	-0.163
-529.062	334.972	0.093	0.180
-528.048	483.659	-0.137	0.311
-527.033	-145.567	0.260	0.023
-526.018	-65.988	0.302	-0.121
-525.004	800.000	0.008	0.023
-523.989	-174.259	0.349	-0.010
-522.975	22.526	0.080	0.065
-521.960	132.669	0.033	-0.042
-520.945	800.000	0.019	-0.083
-519.931	-53.762	0.079	0.036
-518.916	25.931	0.140	0.117
-517.902	86.317	0.108	0.119
-516.887	-10.524	0.202	0.134
-515.872	-14.279	-0.191	0.123
-514.858	800.000	0.034	-0.116
-513.843	-183.327	0.190	-0.003
-512.829	15.887	0.097	-0.077
-511.814	8.899	0.230	0.174
-510.799	-83.139	0.166	0.054
-509.785	-200.000	-0.009	0.104
-508.770	-118.435	0.442	0.078
-507.756	-200.000	-0.049	-0.248
-506.741	-91.762	0.206	-0.059
-505.726	-102.159	0.411	-0.099
-504.712	-200.000	-0.025	0.126
-503.697	-200.000	-0.000	0.326
-502.683	281.003	0.122	-0.219
-501.668	-200.000	0.031	-0.302
-500.653	-128.112	-0.167	0.024
-499.639	175.067	-0.127	0.184
-498.624	-200.000	0.002	0.359
-497.610	-102.418	0.275	0.066
-496.595	192.326	-0.130	-0.195
-495.581	-200.000	-0.017	-0.142
-494.566	615.914	0.087	0.219
-493.551	-200.000	-0.018	0.139
-492.537	-80.940	-0.317	0.105
-491.522	800.000	0.068	-0.218
-490.508	415.732	-0.035	-0.074
-489.493	83.528	0.106	-0.116
-488.478	16.052	0.144	0.113
-487.464	-121.294	-0.231	-0.038
-486.449	-200.000	-0.007	-0.264
-485.435	-51.074	0.406	0.190
-484.420	56.509	0.133	0.129
-483.405	142.824	0.210	-0.279
-482.391	-200.000	0.008	0.105
-481.376	-97.006	0.121	-0.032
-480.362	33.668	-0.090	-0.078
-479.347	-136.475	0.254	0.029
-478.332	713.351	-0.159	-0.421
-477.318	-28.115	-0.163	0.094
-476.303	-200.000	-0.052	-0.302
-475.289	800.000	-0.027	-0.087
-474.274	-101.544	-0.195	-0.047
-473.259	672.098	0.034	-0.089
-472.245	800.000	0.045	-0.169
-471.230	219.885	-0.166	-0.265
-470.216	215.172	-0.122	-0.193
-469.201	-130.079	0.265	-0.036
-468.186	98.940	-0.205	0.236
-467.172	-89.879	0.414	0.121
-466.157	186.872	-0.079	-0.118
-465.143	-45.259	-0.180	-0.089
-464.128	41.159	0.220	-0.198
-463.113	-200.000	-0.052	-0.271
-462.099	581.218	0.090	-0.221
-461.084	-129.663	-0.245	0.034
-460.070	88.184	0.105	-0.116
-459.055	-57.175	-0.322	0.142
-458.040	248.765	-0.099	0.167
-457.026	-123.584	-0.024	0.004
-456.011	450.926	0.027	0.060
-454.997	214.326	-0.010	0.016
-453.982	-200.000	0.061	0.314
-452.968	-32.457	0.089	-0.049
-451.953	-200.000	-0.035	0.166
-450.938	800.000	-0.030	0.119
-449.924	233.270	-0.136	0.224
-448.909	-118.279	-0.239	0.043
-447.895	-200.000	-0.021	-0.139
-446.880	-134.123	0.187	0.023
-445.865	391.677	0.025	0.052
-444.851	346.050	-0.065	0.128
-443.836	209.908	0.188	0.294
-442.822	404.710	-0.032	-0.067
-441.807	-126.827	-0.237	0.035
-440.792	-200.000	-0.028	-0.165
-439.778	-126.036	-0.354	0.053
-438.763	469.050	-0.069	0.155
-437.749	44.767	0.144	-0.132
-436.734	-28.141	0.340	-0.196
-435.719	177.033	-0.093	0.135
-434.705	131.754	0.218	0.279
-433.690	-147.480	-0.139	0.012
-432.676	-10.757	0.337	-0.222
-431.661	-73.259	-0.263	-0.096
-430.646	73.790	-0.290	-0.303
-429.632	29.414	0.153	-0.130
-428.617	-146.682	0.155	-0.013
-427.603	-200.000	-0.028	-0.316
-426.588	98.479	0.293	0.337
-425.573	722.331	-0.054	0.145
-424.559	-200.000	0.042	0.202
-423.544	24.589	0.102	0.084
-422.530	-12.113	-0.040	-0.026
-421.515	-35.736	0.162	0.088
-420.500	-200.000	-0.003	-0.107
-419.486	-64.559	-0.072	0.029
-418.471	-200.000	-0.030	0.132
-417.457	292.655	-0.135	0.245
-416.442	473.071	-0.101	-0.227
-415.428	800.000	0.041	-0.139
-414.413	-158.862	0.190	0.011
-413.398	-200.000	0.002	0.171
-412.384	-200.000	-0.074	0.333
-411.369	429.495	-0.023	-0.049
-410.355	-200.000	-0.110	0.623
-409.340	483.445	0.273	-0.618
-408.325	86.323	-0.107	-0.117
-407.311	-106.225	-0.098	-0.022
-406.296	165.620	-0.198	0.279
-405.282	-92.900	0.237	-0.066
-404.267	-200.000	-0.007	0.053
-403.252	-150.152	0.261	-0.020
-402.238	-200.000	0.017	0.450
-401.223	-200.000	0.027	-0.409
-400.209	-200.000	0.005	-0.289
-399.194	-98.851	-0.272	-0.069
-398.179	557.821	-0.049	-0.118
-397.165	-200.000	0.017	0.204
-396.150	377.541	-0.079	-0.161
-395.136	69.215	-0.103	0.105
-394.121	-52.276	0.314	-0.145
-393.106	-200.000	-0.017	0.187
-392.092	-124.286	-0.139	0.022
-391.077	492.375	-0.123	-0.280
-390.063	70.319	-0.098	0.100
-389.048	113.272	-0.048	-0.058
-388.033	62.789	-0.040	0.040
-387.019	456.109	-0.139	0.308
-386.004	-142.815	-0.152	-0.015
-384.990	-182.912	0.110	0.002
-383.975	31.847	0.045	-0.038
-382.960	-200.000	0.003	0.068
-381.946	-183.542	0.049	0.001
-380.931	-104.639	0.367	0.084
-379.917	6.133	0.019	-0.014
-378.902	305.450	0.053	0.098
-377.888	-200.000	0.013	0.190
-376.873	683.217	0.045	0.117
-375.858	-46.524	-0.172	0.084
-374.844	-27.507	-0.171	0.099
-373.829	154.366	-0.056	0.077
-372.815	211.149	0.042	-0.066
-371.800	-200.000	0.003	-0.022
-370.785	74.395	-0.318	0.333
-369.771	-200.000	0.010	-0.196
-368.756	-63.004	0.233	-0.096
-367.742	312.629	-0.034	0.063
-366.727	-200.000	-0.065	-0.608
-365.712	159.270	0.042	0.059
-364.698	-52.167	0.073	0.034
-363.683	7.022	-0.134	-0.099
-362.669	297.527	-0.055	-0.100
-361.654	-120.205	-0.229	0.039
-360.639	195.900	-0.214	-0.324
-359.625	47.717	-0.118	-0.110
-358.610	112.359	-0.141	0.170
-357.596	0.769	0.098	0.069
-356.581	394.059	-0.161	0.334
-355.566	-200.000	-0.033	0.206
-354.552	-200.000	0.045	-0.260
-353.537	76.115	0.055	0.058
-352.523	800.000	0.095	0.297
-351.508	800.000	-0.072	0.244
-350.493	-127.017	-0.197	0.029
-349.479	254.311	-0.148	-0.252
-348.464	-200.000	-0.065	0.365
-347.450	-200.000	-0.045	-0.360
-346.435	776.120	0.092	-0.250
-345.420	-74.482	0.126	0.045
-344.406	-169.111	-0.109	0.004
-343.391	194.126	-0.143	0.215
-342.377	556.814	-0.050	0.120
-341.362	129.463	-0.250	-0.318
-340.348	-132.642	-0.229	-0.029
-339.333	-158.588	-0.193	0.011
-338.318	-174.092	-0.111	-0.003
-337.304	-200.000	-0.115	-0.555
-336.289	39.012	0.171	-0.152
-335.275	800.000	-0.085	-0.247
-334.260	250.672	0.150	-0.253
-333.245	-22.372	-0.195	-0.117
-332.231	230.978	0.112	0.182
-331.216	548.583	0.149	-0.355
-330.202	92.852	0.130	0.146
-329.187	597.424	0.066	-0.163
-328.172	562.701	-0.089	-0.214
-327.158	607.784	-0.117	0.291
-326.143	800.000	0.069	0.190
-325.129	605.226	-0.165	0.409
-324.114	527.959	0.038	-0.089
-323.099	-36.659	-0.157	0.084
-322.085	88.493	-0.127	0.141
-321.070	800.000	-0.103	-0.446
-320.056	-200.000	-0.009	0.084
-319.041	12.488	-0.241	-0.185
-318.026	332.290	-0.073	0.139
-317.012	-200.000	-0.032	0.236
-315.997	709.538	0.096	0.252
-314.983	-103.009	0.157	-0.037
-313.968	-114.375	0.336	0.064
-312.953	212.446	0.128	-0.200
-311.939	-200.000	-0.013	0.162
-310.924	-200.000	-0.013	-0.157
-309.910	-200.000	0.024	-0.365
-308.895	205.422	-0.236	0.363
-307.880	-113.308	-0.124	-0.024
-306.866	-72.331	-0.209	-0.077
-305.851	452.766	0.087	-0.192
-304.837	-70.779	0.191	0.071
-303.822	118.569	0.343	0.420
-302.807	-57.924	0.133	0.057
-301.793	-75.779	0.246	0.087
-300.778	-31.370	0.172	-0.096
-299.764	-142.568	0.452	0.044
-298.749	527.299	-0.074	-0.174
-297.735	-38.714	-0.189	0.099
-296.720	800.000	-0.111	0.425
-295.705	-66.536	-0.206	-0.081
-294.691	-70.280	0.251	-0.095
-293.676	-65.697	-0.114	0.045
-292.662	-200.000	0.014	0.362
-291.647	-42.214	-0.216	0.110
-290.632	-173.881	0.170	0.005
-289.618	-163.459	-0.504	0.024
-288.603	127.325	-0.176	0.221
-287.589	-22.592	0.272	0.163
-286.574	527.040	0.041	0.097
-285.559	52.647	-0.293	0.278
-284.545	-40.990	-0.330	0.169
-283.530	205.982	0.153	0.236
-282.516	33.272	-0.097	-0.083
-281.501	800.000	0.028	-0.089
-280.486	-173.214	0.222	-0.007
-279.472	232.921	0.108	0.177
-278.457	-4.530	-0.418	-0.287
-277.443	-74.384	-0.454	0.162
-276.428	-19.266	0.408	0.251
-275.413	-200.000	-0.025	0.119
-274.399	-200.000	-0.052	-0.228
-273.384	261.130	0.090	-0.154
-272.370	-200.000	0.015	-0.147
-271.355	-200.000	0.029	-0.208
-270.340	35.761	-0.178	-0.155
-269.326	800.000	0.161	0.441
-268.311	-200.000	0.011	0.233
-267.297	124.562	0.201	0.251
-266.282	706.050	-0.139	0.364
-265.267	162.123	0.099	-0.137
-264.253	435.941	0.034	0.074
-263.238	-83.041	-0.335	-0.107
-262.224	-200.000	0.026	0.214
-261.209	116.053	0.015	-0.019
-260.195	477.155	0.045	0.101
-259.180	-200.000	0.003	-0.080
-258.165	-200.000	0.077	0.412
-257.151	-200.000	-0.016	0.082
-256.136	268.498	0.181	-0.313
-255.122	723.333	0.049	-0.128
-254.107	-200.000	-0.016	-0.241
-253.092	25.437	0.271	-0.223
-252.078	65.938	-0.300	-0.301
-251.063	197.283	0.181	-0.274
-250.049	-150.567	-0.067	-0.005
-249.034	-200.000	-0.014	-0.273
-248.019	496.450	0.179	-0.409
-247.005	-102.065	-0.164	0.039
-245.990	-184.441	0.270	-0.004
-244.976	29.695	-0.177	-0.149
-243.961	-46.947	0.338	-0.164
-242.946	800.000	0.092	-0.300
-241.932	553.790	-0.106	-0.253
-240.917	302.149	-0.065	0.118
-239.903	800.000	-0.049	0.178
-238.888	471.523	0.037	0.082
-237.873	45.125	0.296	0.270
-236.859	-17.726	-0.087	0.054
-235.844	-84.442	0.236	0.074
-234.830	-113.171	0.277	-0.054
-233.815	800.000	0.164	-0.450
-232.800	-128.355	-0.102	0.014
-231.786	552.513	-0.144	-0.341
-230.771	744.373	-0.041	-0.110
-229.757	-141.215	-0.195	-0.020
-228.742	800.000	0.068	0.275
-227.727	-100.530	-0.285	0.070
-226.713	146.656	0.033	-0.044
-225.698	-200.000	-0.050	0.265
-224.684	-103.591	0.137	0.032
-223.669	-49.823	0.146	-0.069
-222.655	800.000	-0.016	-0.044
-221.640	-66.172	-0.110	-0.043
-220.625	44.141	0.090	0.081
-219.611	800.000	-0.062	0.215
-218.596	-200.000	-0.015	0.133
-217.582	19.588	0.192	-0.153
-216.567	-88.077	-0.150	0.044
-215.552	800.000	-0.025	0.074
-214.538	-51.645	-0.153	-0.070
-213.523	-200.000	0.023	-0.348
-212.509	51.994	0.359	0.338
-211.494	46.583	-0.105	0.096
-210.479	166.020	-0.135	0.189
-209.465	-200.000	-0.005	0.144
-208.450	26.401	0.176	0.146
-207.436	-19.854	-0.052	-0.031
-206.421	-16.540	0.273	-0.171
-205.406	60.466	0.102	0.099
-204.392	47.640	0.074	-0.068
-203.377	16.621	-0.207	-0.162
-202.363	800.000	-0.032	0.136
-201.348	-33.670	0.232	-0.126
-200.333	10.705	-0.110	0.083
-199.319	-41.814	0.215	0.109
-198.304	-200.000	-0.043	-0.334
-197.290	-36.087	0.210	0.112
-196.275	-200.000	0.037	-0.191
-195.260	52.813	0.130	0.123
-194.246	735.945	0.047	0.125
-193.231	-165.262	-0.292	0.013
-192.217	-188.617	0.167	-0.002
-191.202	-26.962	-0.086	-0.050
-190.187	800.000	-0.065	-0.219
-189.173	-97.446	-0.170	-0.044
-188.158	-150.025	0.394	0.030
-187.144	-132.630	0.141	-0.018
-186.129	512.156	-0.070	-0.161
-185.114	800.000	0.054	-0.190
-184.100	-123.458	0.286	0.045
-183.085	15.530	0.152	0.118
-182.071	499.372	-0.040	-0.091
-181.056	306.895	0.126	-0.231
-180.042	-200.000	-0.009	-0.099
-179.027	-104.431	-0.192	-0.044
-178.012	-200.000	-0.009	-0.099
-176.998	2.650	0.451	0.323
-175.983	-39.820	-0.131	-0.068
-174.969	545.896	-0.137	-0.324
-173.954	160.752	-0.168	0.232
-172.939	25.204	0.046	-0.038
-171.925	138.614	0.127	-0.165
-170.910	10.824	0.049	-0.037
-169.896	-200.000	-0.002	0.043
-168.881	258.706	-0.224	0.382
-167.866	95.413	-0.120	-0.135
-166.852	800.000	0.060	0.193
-165.837	8.125	-0.063	0.047
-164.823	-200.000	-0.012	0.161
-163.808	182.459	-0.271	0.394
-162.793	-125.554	-0.126	-0.019
-161.779	343.681	-0.155	0.299
-160.764	-200.000	-0.044	0.234
-159.750	67.228	0.173	-0.174
-158.735	-31.675	0.075	-0.042
-157.720	-109.770	0.132	0.027
-156.706	-114.395	-0.237	0.045
-155.691	-80.707	-0.496	-0.163
-154.677	244.134	-0.122	0.203
-153.662	-4.722	0.157	-0.107
-152.647	800.000	0.097	0.269
-151.633	-2.276	0.044	0.031
-150.618	13.922	-0.234	-0.180
-149.604	-7.998	-0.087	-0.058
-148.589	-132.557	-0.330	0.042
-147.574	668.121	0.107	0.272
-146.560	-140.060	-0.451	0.047
-145.545	800.000	-0.019	-0.062
-144.531	-154.272	0.207	0.014
-143.516	-200.000	-0.032	0.358
-142.502	-63.894	0.193	0.078
-141.487	575.099	-0.100	0.241
-140.472	-200.000	-0.090	0.453
-139.458	172.630	0.193	0.273
-138.443	-200.000	0.012	-0.098
-137.429	-24.432	-0.193	-0.114
-136.414	199.290	-0.108	0.163
-135.399	24.757	0.164	-0.134
-134.385	39.989	0.318	-0.282
-133.370	90.440	0.300	0.331
-132.356	-95.276	-0.256	-0.068
-131.341	-73.986	-0.346	0.124
-130.326	-54.295	-0.050	0.022
-129.312	41.063	0.245	0.218
-128.297	119.832	0.156	-0.191
-127.283	139.505	-0.163	-0.211
-126.268	170.955	-0.242	0.341
-125.253	35.179	0.174	0.150
-124.239	67.539	0.171	-0.173
-123.224	286.371	0.019	-0.034
-122.210	-200.000	-0.000	-0.202
