DTS Sentinel unit serial number:	SN413079Multiplexer serial number:	ORYXHardware model number:	OX4-SRSoftware version number:	ORYX F/W v4.00 Oryx Data Collector v3.7.2.0data status	okinstallation	princeton_trtdifferential loss correction	single-endedforward channel	channel 2reverse channel	N/Adate	2019/09/16time	10:15:35forward acquisition time	60.00reverse acquisition time	0.00gamma	496.2192k internal	0.2318k external	0.2318temperature offset calibration	0.9959default loss term (dB/km)	0.3790temperature slope calibration	1.0000multiplexer offset coefficient	1.0000multiplexer slope coefficient	1.0000fibre end	0.00T internal ref (°C)	34.41T ext. ref 1 (°C)	12.48T ext. ref 2 (°C)	33.20length (m)	temperature (°C)	Stokes	anti-Stokes-747.200	99.627	0.043	0.050
-746.185	510.152	0.077	0.180
-745.171	49.259	-0.079	-0.075
-744.156	632.906	0.212	0.544
-743.142	16.408	-0.073	0.058
-742.127	413.236	0.026	0.056
-741.112	-99.523	0.441	-0.112
-740.098	-162.672	-0.256	-0.013
-739.083	172.252	-0.110	-0.159
-738.069	-107.614	-0.321	-0.071
-737.054	-34.487	0.331	-0.183
-736.039	-54.974	-0.308	0.141
-735.025	-75.973	0.438	0.157
-734.010	800.000	-0.031	0.135
-732.996	-115.329	-0.327	0.062
-731.981	464.783	0.089	0.201
-730.966	-140.969	-0.292	-0.030
-729.952	-20.421	-0.204	-0.127
-728.937	98.269	0.142	0.165
-727.923	188.348	-0.140	0.211
-726.908	-200.000	0.006	-0.066
-725.894	-46.915	-0.177	-0.087
-724.879	-120.506	0.341	-0.059
-723.864	40.383	-0.188	0.171
-722.850	-101.853	-0.235	0.058
-721.835	-95.709	-0.141	0.038
-720.821	60.325	-0.344	0.344
-719.806	-10.651	0.280	0.187
-718.791	-158.507	-0.213	0.012
-717.777	800.000	-0.085	0.358
-716.762	-78.063	-0.213	-0.074
-715.748	26.342	0.059	0.050
-714.733	800.000	0.061	-0.212
-713.718	-176.276	-0.131	0.003
-712.704	-200.000	-0.055	0.418
-711.689	83.316	-0.291	-0.320
-710.675	800.000	0.031	-0.132
-709.660	-59.082	0.149	-0.065
-708.645	35.559	-0.408	-0.362
-707.631	54.020	0.249	0.242
-706.616	-200.000	0.001	-0.191
-705.602	-200.000	0.023	0.345
-704.587	13.941	-0.255	0.201
-703.572	-41.147	-0.279	0.145
-702.558	-70.221	0.209	0.080
-701.543	-101.762	0.200	0.049
-700.529	27.539	0.174	0.148
-699.514	63.845	0.240	-0.244
-698.499	-48.519	0.230	0.112
-697.485	-37.573	-0.101	0.055
-696.470	-78.007	-0.096	-0.033
-695.456	296.067	0.051	0.095
-694.441	-1.632	0.114	-0.081
-693.426	-200.000	0.022	-0.197
-692.412	-41.530	-0.147	-0.076
-691.397	-200.000	0.026	0.305
-690.383	800.000	-0.110	0.363
-689.368	351.587	0.178	0.355
-688.354	9.867	-0.251	0.193
-687.339	449.862	0.067	0.150
-686.324	-200.000	-0.006	-0.103
-685.310	800.000	0.048	0.178
-684.295	381.120	-0.031	0.064
-683.281	800.000	-0.066	0.206
-682.266	56.627	0.170	0.167
-681.251	71.774	-0.127	0.133
-680.237	800.000	-0.011	-0.035
-679.222	-116.087	-0.313	0.059
-678.208	149.526	0.359	-0.491
-677.193	-200.000	-0.326	0.001
-676.178	-200.000	-0.039	-0.200
-675.164	384.264	-0.086	-0.178
-674.149	-105.956	-0.518	0.118
-673.135	-64.498	0.110	0.045
-672.120	800.000	-0.071	0.210
-671.105	-115.640	-0.224	0.042
-670.091	-58.727	0.403	-0.176
-669.076	300.571	0.041	0.077
-668.062	-35.956	-0.144	0.079
-667.047	-130.628	-0.149	0.020
-666.032	-76.125	0.157	-0.056
-665.018	-76.071	-0.284	-0.101
-664.003	-123.308	0.153	0.025
-662.989	18.089	0.056	-0.045
-661.974	344.085	-0.136	0.269
-660.959	241.010	-0.093	0.157
-659.945	176.392	-0.177	-0.260
-658.930	-124.011	0.270	0.043
-657.916	194.035	0.105	0.161
-656.901	-115.258	-0.234	0.045
-655.886	-200.000	-0.034	-0.176
-654.872	88.394	-0.149	-0.167
-653.857	-200.000	-0.060	0.427
-652.843	800.000	0.149	-0.497
-651.828	-96.230	-0.230	-0.061
-650.814	-200.000	-0.050	-0.255
-649.799	-86.105	0.187	0.058
-648.784	-68.240	0.249	-0.098
-647.770	-41.737	0.278	0.144
-646.755	160.661	-0.118	-0.166
-645.741	-200.000	0.205	0.001
-644.726	-172.777	0.083	-0.003
-643.711	68.269	-0.136	0.141
-642.697	-200.000	-0.090	0.420
-641.682	-200.000	-0.060	-0.463
-640.668	-200.000	0.060	0.281
-639.653	457.396	-0.146	-0.327
-638.638	-18.623	0.148	-0.093
-637.624	278.059	-0.193	-0.346
-636.609	685.661	-0.066	0.174
-635.595	486.826	-0.072	-0.165
-634.580	-39.746	0.070	-0.037
-633.565	800.000	0.095	0.265
-632.551	261.779	0.031	0.055
-631.536	359.796	0.044	0.089
-630.522	-149.348	0.160	0.013
-629.507	-158.413	0.086	0.005
-628.492	312.262	-0.126	0.239
-627.478	-81.541	-0.056	-0.019
-626.463	-10.232	-0.185	0.123
-625.449	439.881	-0.076	-0.168
-624.434	261.359	0.123	0.215
-623.419	191.127	0.078	0.118
-622.405	-134.853	-0.243	0.030
-621.390	218.176	0.027	0.043
-620.376	-138.582	0.265	-0.029
-619.361	-128.828	0.205	-0.029
-618.346	800.000	-0.168	-0.523
-617.332	-200.000	-0.004	-0.201
-616.317	484.097	0.055	0.125
-615.303	-200.000	-0.037	0.226
-614.288	677.594	0.201	-0.526
-613.273	137.005	0.168	-0.221
-612.259	-16.464	-0.099	0.063
-611.244	109.938	0.051	-0.061
-610.230	-200.000	0.002	-0.086
-609.215	-91.352	0.078	0.022
-608.201	305.592	-0.114	-0.214
-607.186	-64.188	-0.362	0.148
-606.171	39.838	-0.128	-0.116
-605.157	7.083	0.066	0.049
-604.142	70.626	0.092	-0.096
-603.128	-61.662	0.136	0.057
-602.113	35.922	-0.195	-0.172
-601.098	-22.531	-0.212	-0.129
-600.084	601.578	-0.040	-0.101
-599.069	800.000	-0.040	0.152
-598.055	129.809	0.222	-0.286
-597.040	-65.973	-0.240	0.097
-596.025	-200.000	0.021	-0.120
-595.011	-152.273	-0.088	-0.006
-593.996	-81.103	-0.243	0.081
-592.982	-84.141	0.327	-0.104
-591.967	62.633	-0.043	-0.043
-590.952	-99.920	-0.137	-0.034
-589.938	-91.092	-0.073	-0.021
-588.923	-44.063	-0.068	0.034
-587.909	185.450	0.043	-0.064
-586.894	358.350	0.064	0.129
-585.879	-151.513	0.176	-0.013
-584.865	-200.000	0.048	-0.297
-583.850	-65.896	0.322	-0.130
-582.836	380.757	-0.170	-0.351
-581.821	800.000	-0.051	0.182
-580.806	-76.824	-0.098	0.034
-579.792	-200.000	0.007	-0.106
-578.777	800.000	0.043	-0.153
-577.763	-72.603	-0.024	0.009
-576.748	-200.000	0.003	0.288
-575.733	800.000	-0.071	0.281
-574.719	-168.876	0.189	-0.007
-573.704	92.978	-0.065	0.074
-572.690	-104.343	0.110	-0.026
-571.675	-200.000	0.049	0.520
-570.661	-60.097	-0.267	0.115
-569.646	-82.385	0.165	-0.054
-568.631	-64.246	0.275	0.113
-567.617	800.000	-0.073	0.322
-566.602	800.000	0.065	0.200
-565.588	-31.876	-0.359	0.202
-564.573	-185.253	-0.056	0.001
-563.558	-75.479	-0.261	-0.093
-562.544	800.000	0.036	-0.136
-561.529	-200.000	0.000	-0.406
-560.515	-200.000	0.002	0.069
-559.500	-200.000	0.003	-0.151
-558.485	800.000	0.020	-0.074
-557.471	-70.267	0.205	0.078
-556.456	-60.817	0.144	0.061
-555.442	-14.457	-0.037	-0.024
-554.427	620.810	-0.044	-0.111
-553.412	-64.559	-0.087	0.035
-552.398	-200.000	0.012	-0.273
-551.383	800.000	-0.048	-0.202
-550.369	-17.678	0.205	0.130
-549.354	-10.968	-0.178	-0.118
-548.339	-156.209	0.075	-0.005
-547.325	-67.401	0.205	0.081
-546.310	198.879	0.128	0.197
-545.296	-200.000	0.041	-0.209
-544.281	-150.654	-0.036	0.003
-543.266	-11.935	-0.200	-0.132
-542.252	800.000	-0.020	0.063
-541.237	433.204	-0.051	-0.111
-540.223	359.060	0.172	0.345
-539.208	458.399	-0.099	-0.222
-538.193	800.000	0.084	-0.237
-537.179	126.954	-0.081	0.103
-536.164	-200.000	0.060	-0.323
-535.150	-38.371	0.119	-0.063
-534.135	283.554	0.294	-0.529
-533.121	31.978	-0.108	-0.093
-532.106	48.139	-0.184	0.172
-531.091	-100.159	0.306	-0.076
-530.077	57.448	0.112	-0.109
-529.062	498.836	-0.133	-0.307
-528.048	291.185	0.230	-0.420
-527.033	-200.000	-0.077	-0.340
-526.018	-112.373	-0.394	0.079
-525.004	44.283	-0.229	-0.211
-523.989	800.000	-0.052	0.189
-522.975	800.000	0.082	-0.240
-521.960	481.120	0.050	-0.113
-520.945	800.000	0.007	-0.025
-519.931	86.143	0.084	-0.093
-518.916	-115.169	-0.120	0.023
-517.902	-14.755	-0.123	0.079
-516.887	59.907	-0.321	-0.318
-515.872	618.785	-0.084	0.211
-514.858	317.338	0.187	-0.354
-513.843	-104.661	-0.464	-0.107
-512.829	474.745	-0.020	0.046
-511.814	408.714	0.055	-0.116
-510.799	800.000	0.090	0.251
-509.785	-14.908	0.035	0.023
-508.770	366.336	-0.017	-0.035
-507.756	77.414	-0.143	-0.152
-506.741	33.342	-0.203	0.177
-505.726	163.170	-0.172	0.242
-504.712	-200.000	0.036	0.176
-503.697	62.204	-0.156	-0.156
-502.683	800.000	0.036	-0.150
-501.668	482.449	0.092	0.210
-500.653	-200.000	0.011	0.155
-499.639	-107.365	0.237	0.052
-498.624	56.445	-0.305	-0.297
-497.610	145.606	0.075	0.100
-496.595	434.715	-0.103	-0.225
-495.581	-200.000	-0.049	-0.266
-494.566	-129.622	-0.177	0.025
-493.551	-87.651	-0.108	0.033
-492.537	-38.909	0.199	0.105
-491.522	-93.355	-0.220	0.061
-490.508	800.000	-0.065	-0.258
-489.493	44.779	-0.187	-0.173
-488.478	-131.034	-0.158	0.021
-487.464	60.919	-0.189	-0.188
-486.449	-58.050	-0.128	-0.056
-485.435	77.624	0.100	-0.107
-484.420	-88.275	0.064	0.019
-483.405	-200.000	-0.024	0.280
-482.391	322.820	-0.105	-0.200
-481.376	800.000	-0.097	0.329
-480.362	117.361	0.126	0.155
-479.347	139.336	0.225	-0.297
-478.332	15.905	0.163	-0.128
-477.318	23.041	-0.225	0.185
-476.303	50.884	0.120	-0.114
-475.289	-143.637	-0.080	-0.008
-474.274	-200.000	-0.044	0.252
-473.259	62.097	0.025	0.025
-472.245	138.498	-0.176	-0.232
-471.230	169.831	-0.107	-0.153
-470.216	800.000	0.131	0.421
-469.201	-173.926	-0.217	-0.006
-468.186	378.034	-0.139	0.285
-467.172	265.888	0.103	0.180
-466.157	139.930	-0.029	-0.038
-465.143	-200.000	0.012	0.146
-464.128	-200.000	0.023	0.226
-463.113	-75.562	-0.242	0.086
-462.099	31.213	0.174	0.150
-461.084	215.278	0.089	-0.141
-460.070	800.000	0.041	0.139
-459.055	800.000	0.049	0.208
-458.040	65.519	0.084	0.085
-457.026	388.991	-0.089	-0.184
-456.011	-143.933	0.171	-0.016
-454.997	273.251	0.192	-0.339
-453.982	197.555	0.070	-0.108
-452.968	-200.000	0.008	0.112
-451.953	-200.000	-0.008	-0.244
-450.938	-200.000	0.044	-0.196
-449.924	-133.785	0.176	-0.022
-448.909	-128.779	0.125	0.018
-447.895	-136.263	0.099	0.012
-446.880	-58.578	0.153	0.066
-445.865	-178.145	-0.278	0.007
-444.851	224.240	0.063	-0.102
-443.836	-48.130	-0.438	0.212
-442.822	253.846	-0.054	0.091
-441.807	34.847	0.191	-0.167
-440.792	-9.083	0.085	-0.057
-439.778	255.567	0.124	0.213
-438.763	8.181	0.044	0.033
-437.749	-107.790	0.413	-0.090
-436.734	-1.959	-0.130	0.092
-435.719	219.817	0.170	0.272
-434.705	-200.000	-0.034	0.263
-433.690	800.000	0.060	0.218
-432.676	800.000	-0.094	0.386
-431.661	-36.229	0.193	-0.104
-430.646	-151.480	-0.256	-0.019
-429.632	-2.911	0.365	-0.255
-428.617	800.000	-0.060	0.183
-427.603	-6.739	-0.145	0.099
-426.588	-79.454	0.328	-0.111
-425.573	-146.464	-0.112	-0.010
-424.559	-200.000	-0.076	0.422
-423.544	49.052	0.202	0.190
-422.530	-113.094	-0.117	-0.023
-421.515	359.223	-0.092	-0.183
-420.500	63.084	-0.043	-0.043
-419.486	-200.000	-0.059	-0.312
-418.471	29.401	0.257	-0.219
-417.457	351.532	0.165	-0.327
-416.442	-200.000	0.020	0.202
-415.428	-200.000	0.021	-0.330
-414.413	428.189	-0.040	-0.086
-413.398	-5.704	-0.163	-0.111
-412.384	-63.381	0.164	-0.067
-411.369	-200.000	0.027	0.123
-410.355	45.678	-0.146	-0.135
-409.340	407.568	-0.049	-0.103
-408.325	-54.912	0.064	-0.029
-407.311	-103.665	0.217	0.051
-406.296	-88.630	0.084	-0.025
-405.282	461.093	0.033	0.074
-404.267	-4.042	-0.214	0.148
-403.252	-93.650	-0.240	-0.066
-402.238	103.334	0.154	-0.181
-401.223	-34.616	-0.126	0.069
-400.209	-115.611	0.218	0.041
-399.194	-93.238	0.187	-0.052
-398.179	18.475	0.340	0.271
-397.165	373.264	0.072	-0.147
-396.150	70.672	0.093	0.096
-395.136	217.261	0.054	0.086
-394.121	-200.000	-0.005	0.146
-393.106	-200.000	-0.082	0.381
-392.092	-163.402	0.063	-0.003
-391.077	93.609	0.074	-0.083
-390.063	369.717	-0.113	0.228
-389.048	553.481	0.034	0.081
-388.033	99.491	-0.134	0.155
-387.019	27.103	-0.164	-0.137
-386.004	-200.000	0.021	-0.130
-384.990	-107.239	-0.281	-0.062
-383.975	146.460	-0.221	0.297
-382.960	-48.075	-0.414	-0.200
-381.946	5.717	-0.122	0.090
-380.931	-87.384	-0.139	-0.042
-379.917	800.000	-0.073	0.238
-378.902	-200.000	0.009	-0.107
-377.888	-101.725	0.319	0.077
-376.873	75.658	0.081	0.085
-375.858	-107.647	0.038	-0.008
-374.844	117.284	0.155	0.190
-373.829	-200.000	-0.030	0.204
-372.815	-200.000	-0.052	-0.325
-371.800	-200.000	-0.037	-0.434
-370.785	-200.000	-0.007	-0.034
-369.771	-200.000	0.025	-0.176
-368.756	800.000	0.096	-0.376
-367.742	-8.121	0.242	0.162
-366.727	-135.176	0.111	0.013
-365.712	62.750	-0.041	-0.041
-364.698	25.070	0.121	-0.100
-363.683	-193.145	0.265	0.002
-362.669	671.918	0.097	-0.252
-361.654	483.949	0.006	-0.014
-360.639	173.255	-0.123	-0.176
-359.625	-138.125	0.194	0.021
-358.610	-200.000	-0.043	-0.406
-357.596	96.843	-0.159	-0.181
-356.581	208.411	0.071	0.110
-355.566	24.312	0.192	-0.158
-354.552	19.934	-0.350	-0.281
-353.537	-38.305	0.128	-0.068
-352.523	-200.000	-0.039	0.206
-351.508	-153.567	-0.151	-0.010
-350.493	-55.244	0.133	0.059
-349.479	800.000	-0.025	0.084
-348.464	-91.535	0.281	0.080
-347.450	-200.000	-0.042	0.236
-346.435	-200.000	0.015	0.215
-345.420	91.571	0.173	-0.194
-344.406	-80.934	0.191	0.063
-343.391	15.298	-0.387	0.302
-342.377	800.000	0.155	0.571
-341.362	-200.000	-0.013	0.189
-340.348	-190.628	0.092	-0.001
-339.333	185.990	-0.250	0.371
-338.318	800.000	-0.122	-0.408
-337.304	800.000	-0.043	0.160
-336.289	-26.591	-0.056	-0.033
-335.275	32.817	0.071	0.061
-334.260	-100.928	-0.280	-0.068
-333.245	68.733	0.021	-0.021
-332.231	-27.527	0.184	0.106
-331.216	800.000	-0.127	0.423
-330.202	-200.000	-0.218	0.000
-329.187	151.443	-0.136	-0.184
-328.172	120.833	0.178	0.221
-327.158	71.074	-0.159	-0.164
-326.143	-200.000	-0.034	0.420
-325.129	-89.306	-0.176	0.052
-324.114	800.000	0.038	-0.118
-323.099	-200.000	0.015	-0.376
-322.085	-65.666	0.122	0.049
-321.070	-95.516	-0.352	-0.094
-320.056	396.445	-0.123	0.256
-319.041	47.452	0.125	-0.116
-318.026	-200.000	-0.011	0.103
-317.012	625.595	0.023	0.058
-315.997	-65.744	-0.079	-0.032
-314.983	-41.245	0.171	-0.088
-313.968	52.603	-0.100	-0.095
-312.953	-101.707	-0.349	-0.084
-311.939	25.144	-0.262	-0.216
-310.924	-43.504	0.488	0.245
-309.910	73.334	0.171	0.178
-308.895	-55.426	0.038	0.017
-307.880	-55.394	-0.280	0.125
-306.866	139.819	-0.119	0.156
-305.851	163.777	0.084	0.117
-304.837	-200.000	0.057	0.251
-303.822	67.135	0.079	0.080
-302.807	-200.000	-0.031	0.151
-301.793	50.956	0.177	0.167
-300.778	-68.204	0.202	-0.078
-299.764	-101.122	-0.077	-0.019
-298.749	613.888	0.216	0.539
-297.735	165.567	-0.097	0.136
-296.720	-38.187	-0.198	0.104
-295.705	800.000	-0.118	0.423
-294.691	218.901	0.220	-0.350
-293.676	110.773	-0.042	0.050
-292.662	46.778	-0.353	-0.326
-291.647	-200.000	-0.116	0.509
-290.632	173.165	0.149	0.213
-289.618	30.338	0.009	-0.008
-288.603	710.731	0.102	0.270
-287.589	37.072	0.230	0.202
-286.574	215.701	-0.114	-0.180
-285.559	-200.000	-0.011	0.112
-284.545	153.955	-0.042	0.057
-283.530	-200.000	-0.028	-0.161
-282.516	800.000	-0.022	0.083
-281.501	-10.311	-0.258	0.170
-280.486	-200.000	-0.026	0.168
-279.472	-39.577	-0.202	-0.105
-278.457	147.354	0.167	-0.224
-277.443	-200.000	0.011	-0.403
-276.428	50.012	0.104	-0.098
-275.413	84.097	0.194	-0.210
-274.399	-75.704	0.114	-0.040
-273.384	-23.668	0.144	0.086
-272.370	-200.000	0.082	0.416
-271.355	53.528	-0.087	0.083
-270.340	93.195	0.483	-0.543
-269.326	-142.623	0.571	-0.056
-268.311	-50.201	-0.174	-0.082
-267.297	167.305	0.148	-0.209
-266.282	-200.000	0.003	0.042
-265.267	-70.861	0.273	-0.102
-264.253	28.918	0.191	-0.161
-263.238	95.850	0.027	-0.031
-262.224	103.839	0.210	0.245
-261.209	-200.000	-0.023	0.214
-260.195	-44.717	0.081	-0.040
-259.180	-179.715	-0.113	0.002
-258.165	-192.710	0.274	0.002
-257.151	-164.057	0.095	0.004
-256.136	-200.000	0.010	0.142
-255.122	-138.122	0.065	-0.007
-254.107	-200.000	-0.003	-0.290
-253.092	-47.660	-0.084	-0.040
-252.078	83.778	-0.050	-0.055
-251.063	-118.216	0.142	0.025
-250.049	81.993	0.088	0.095
-249.034	-71.629	0.219	0.081
-248.019	252.372	-0.119	0.201
-247.005	800.000	-0.046	-0.150
-245.990	97.318	-0.066	-0.075
-244.976	-117.494	0.105	0.019
-243.961	-107.485	-0.252	-0.055
-242.946	800.000	0.096	0.307
-241.932	-77.270	0.068	-0.024
-240.917	-120.022	-0.048	-0.008
-239.903	358.244	0.079	-0.156
-238.888	80.959	-0.211	0.226
-237.873	76.184	-0.251	-0.264
-236.859	-200.000	-0.022	0.194
-235.844	-24.552	-0.195	-0.115
-234.830	800.000	0.078	0.313
-233.815	143.520	0.148	-0.196
-232.800	129.354	0.240	0.304
-231.786	346.416	0.098	0.191
-230.771	439.947	0.066	-0.144
-229.757	161.507	-0.101	0.140
-228.742	-200.000	0.016	0.419
-227.727	-200.000	0.003	0.048
-226.713	89.014	-0.149	-0.165
-225.698	-55.019	0.263	-0.117
-224.684	74.306	0.145	-0.151
-223.669	-200.000	0.034	0.156
-222.655	495.208	-0.113	0.258
-221.640	-200.000	-0.012	0.179
-220.625	-200.000	-0.032	-0.194
-219.611	174.747	-0.115	-0.165
-218.596	219.686	-0.070	0.110
-217.582	-40.631	0.154	-0.079
-216.567	196.959	0.082	0.124
-215.552	-176.631	-0.357	-0.009
-214.538	303.781	0.117	0.214
-213.523	559.677	-0.076	0.183
-212.509	-200.000	-0.089	0.451
-211.494	271.109	-0.119	0.208
-210.479	800.000	-0.048	0.163
-209.465	65.837	-0.235	-0.236
-208.450	-113.536	0.038	-0.007
-207.436	423.540	-0.063	-0.134
-206.421	59.075	-0.097	-0.095
-205.406	-200.000	-0.019	-0.137
-204.392	64.903	-0.158	0.158
-203.377	480.301	-0.048	0.108
-202.363	-51.499	0.076	0.035
-201.348	800.000	-0.131	0.361
-200.333	11.462	0.207	-0.157
-199.319	-95.055	-0.262	0.070
-198.304	800.000	0.009	0.033
-197.290	800.000	-0.157	-0.450
-196.275	-78.681	-0.118	-0.040
-195.260	268.861	-0.099	-0.171
-194.246	-66.386	0.071	0.028
-193.231	363.280	0.049	0.097
-192.217	-153.500	-0.156	0.011
-191.202	-200.000	-0.011	0.076
-190.187	-127.529	-0.059	-0.009
-189.173	-29.186	-0.214	0.121
-188.158	149.822	0.040	0.053
-187.144	16.108	-0.133	-0.104
-186.129	53.602	0.111	-0.106
-185.114	-182.291	-0.146	-0.003
-184.100	-147.914	0.335	-0.028
-183.085	-54.565	0.164	-0.073
-182.071	-92.476	0.163	0.045
-181.056	-59.406	-0.268	-0.114
-180.042	-200.000	-0.003	0.040
-179.027	-62.361	0.066	-0.027
-178.012	44.326	-0.227	0.206
-176.998	429.039	-0.057	-0.121
-175.983	-1.442	-0.393	-0.274
-174.969	-10.343	0.166	-0.109
-173.954	800.000	-0.073	0.249
-172.939	800.000	0.114	-0.361
-171.925	-79.670	0.199	0.066
-170.910	11.403	0.094	-0.071
-169.896	739.528	-0.039	-0.102
-168.881	-195.030	0.311	0.002
-167.866	-156.814	0.138	-0.008
-166.852	-138.110	0.232	-0.026
-165.837	-40.578	0.353	-0.181
-164.823	-168.516	0.427	0.016
-163.808	-49.256	0.072	-0.034
-162.793	23.342	-0.086	0.070
-161.779	72.583	-0.222	-0.229
-160.764	-82.701	-0.222	-0.071
-159.750	-127.137	-0.112	0.016
-158.735	-54.093	-0.301	-0.135
-157.720	-135.128	-0.225	0.027
-156.706	-63.508	-0.138	0.056
-155.691	-52.526	-0.121	0.056
-154.677	-12.418	0.126	-0.081
-153.662	-147.682	-0.056	-0.005
-152.647	-200.000	-0.020	0.162
-151.633	-147.071	-0.255	0.022
-150.618	122.736	0.090	-0.112
-149.604	-111.897	-0.349	0.070
-148.589	-11.630	-0.047	-0.031
-147.574	-71.122	-0.297	0.110
-146.560	-57.257	-0.372	0.162
-145.545	240.307	-0.035	-0.057
-144.531	-112.138	-0.115	-0.023
-143.516	-135.591	-0.224	-0.026
-142.502	127.236	0.156	-0.195
-141.487	-35.143	-0.248	0.134
-140.472	-35.765	-0.043	-0.023
-139.458	-200.000	0.046	-0.568
-138.443	261.777	0.086	0.148
-137.429	-100.335	-0.380	0.093
-136.414	-200.000	0.028	0.335
-135.399	198.376	0.114	0.173
-134.385	-41.809	0.222	0.113
-133.370	411.309	-0.123	-0.259
-132.356	-76.173	0.160	0.056
-131.341	-170.953	-0.041	0.001
-130.326	-132.655	-0.131	-0.017
-129.312	112.981	0.145	-0.174
-128.297	800.000	0.080	-0.222
-127.283	-200.000	0.021	0.145
-126.268	-103.070	-0.195	-0.046
-125.253	85.676	-0.222	0.241
-124.239	-52.744	-0.198	-0.090
-123.224	96.919	-0.152	0.172
-122.210	383.338	0.051	-0.103
-121.195	-74.923	-0.112	0.040
