DTS Sentinel unit serial number:	SN413079Multiplexer serial number:	ORYXHardware model number:	OX4-SRSoftware version number:	ORYX F/W v4.00 Oryx Data Collector v3.7.2.0data status	okinstallation	princeton_trtdifferential loss correction	single-endedforward channel	channel 2reverse channel	N/Adate	2019/09/13time	23:55:35forward acquisition time	60.00reverse acquisition time	0.00gamma	496.2192k internal	0.2338k external	0.2338temperature offset calibration	1.0127default loss term (dB/km)	0.3790temperature slope calibration	1.0000multiplexer offset coefficient	1.0000multiplexer slope coefficient	1.0000fibre end	0.00T internal ref (°C)	26.56T ext. ref 1 (°C)	3.16T ext. ref 2 (°C)	21.27length (m)	temperature (°C)	Stokes	anti-Stokes-747.200	654.209	-0.026	-0.067
-746.185	-11.796	-0.114	-0.075
-745.171	59.785	-0.040	0.039
-744.156	-136.624	-0.135	0.016
-743.142	81.350	0.192	0.208
-742.127	-38.289	0.168	-0.089
-741.112	-200.000	0.071	-0.360
-740.098	267.361	-0.165	0.289
-739.083	16.144	0.068	-0.054
-738.069	701.156	0.077	0.203
-737.054	-16.633	0.093	0.059
-736.039	-126.034	-0.326	0.049
-735.025	-125.893	0.285	-0.043
-734.010	17.192	-0.181	-0.144
-732.996	149.765	-0.074	-0.100
-731.981	-23.465	0.182	0.109
-730.966	800.000	0.078	-0.292
-729.952	800.000	-0.064	-0.194
-728.937	-111.398	-0.158	-0.032
-727.923	41.371	0.189	-0.172
-726.908	-200.000	0.021	-0.255
-725.894	-73.708	0.020	0.007
-724.879	-44.107	-0.507	-0.255
-723.864	249.226	0.191	0.325
-722.850	97.109	0.144	-0.166
-721.835	270.970	-0.051	0.090
-720.821	94.325	0.095	-0.108
-719.806	305.177	-0.061	-0.114
-718.791	-200.000	0.026	-0.295
-717.777	800.000	0.082	-0.232
-716.762	-200.000	-0.033	-0.354
-715.748	73.660	-0.117	-0.123
-714.733	800.000	0.026	0.101
-713.718	-58.053	-0.121	-0.053
-712.704	106.733	0.090	-0.107
-711.689	159.375	-0.189	-0.263
-710.675	330.291	-0.110	-0.213
-709.660	316.099	-0.042	-0.079
-708.645	15.881	-0.055	0.044
-707.631	-200.000	-0.086	0.511
-706.616	-54.623	0.242	-0.110
-705.602	-200.000	-0.031	-0.151
-704.587	800.000	-0.042	-0.119
-703.572	-55.897	-0.146	-0.065
-702.558	788.839	0.056	0.154
-701.543	-200.000	0.019	0.228
-700.529	23.041	0.207	-0.170
-699.514	-200.000	-0.032	-0.612
-698.499	-200.000	-0.005	0.146
-697.485	-42.861	0.162	0.082
-696.470	112.689	-0.295	0.358
-695.456	-200.000	-0.020	0.103
-694.441	115.173	-0.145	0.177
-693.426	-200.000	-0.045	0.240
-692.412	-113.315	-0.238	0.047
-691.397	74.919	-0.148	-0.156
-690.383	82.592	0.027	0.029
-689.368	-72.157	0.158	0.059
-688.354	-148.188	0.161	-0.013
-687.339	-200.000	-0.032	0.159
-686.324	-200.000	0.025	-0.186
-685.310	-200.000	0.024	0.141
-684.295	142.121	-0.084	0.111
-683.281	168.213	-0.197	0.281
-682.266	-200.000	0.000	-0.180
-681.251	-87.825	-0.527	-0.159
-680.237	800.000	0.033	-0.121
-679.222	124.952	0.070	0.089
-678.208	-17.425	0.257	0.162
-677.193	151.446	-0.066	0.089
-676.178	97.232	0.117	-0.134
-675.164	-146.761	-0.260	0.022
-674.149	562.314	-0.022	0.053
-673.135	277.907	0.083	-0.148
-672.120	800.000	-0.011	0.037
-671.105	-200.000	-0.038	0.202
-670.091	70.267	0.184	-0.190
-669.076	-94.203	-0.096	0.026
-668.062	-169.422	0.239	0.009
-667.047	-121.676	-0.095	-0.016
-666.032	21.292	-0.259	0.211
-665.018	500.687	-0.018	0.043
-664.003	194.827	-0.119	-0.180
-662.989	-200.000	0.008	0.197
-661.974	-200.000	-0.029	-0.347
-660.959	800.000	-0.044	0.141
-659.945	310.437	-0.083	-0.156
-658.930	39.715	0.107	0.096
-657.916	-200.000	-0.035	-0.297
-656.901	243.648	-0.041	-0.069
-655.886	-31.254	-0.287	-0.162
-654.872	-200.000	0.005	0.149
-653.857	220.553	-0.112	0.180
-652.843	-200.000	0.028	-0.212
-651.828	213.837	0.129	-0.203
-650.814	609.106	-0.180	0.450
-649.799	193.088	-0.068	0.103
-648.784	20.218	0.177	-0.143
-647.770	79.052	0.085	-0.091
-646.755	-200.000	-0.011	-0.149
-645.741	-77.045	-0.577	0.201
-644.726	-19.096	-0.225	0.140
-643.711	800.000	0.067	-0.241
-642.697	-9.557	0.088	0.059
-641.682	10.866	0.307	-0.235
-640.668	-200.000	0.031	-0.481
-639.653	-96.614	0.151	0.040
-638.638	40.685	-0.055	-0.049
-637.624	-68.610	-0.158	-0.061
-636.609	-4.354	-0.240	-0.166
-635.595	-160.408	-0.233	0.012
-634.580	-95.200	0.125	-0.034
-633.565	-200.000	0.002	-0.038
-632.551	220.885	-0.023	-0.038
-631.536	-200.000	-0.017	0.323
-630.522	-41.544	-0.130	-0.067
-629.507	-11.387	-0.155	-0.102
-628.492	-52.743	0.088	0.041
-627.478	-117.001	-0.052	0.010
-626.463	800.000	0.045	0.133
-625.449	174.367	0.121	-0.174
-624.434	-102.885	0.278	-0.066
-623.419	53.573	0.200	-0.192
-622.405	-147.657	-0.151	-0.013
-621.390	6.508	-0.365	0.271
-620.376	-130.723	0.235	0.032
-619.361	800.000	0.098	0.283
-618.346	-151.550	0.218	0.016
-617.332	-189.619	0.053	0.001
-616.317	241.410	0.053	0.088
-615.303	800.000	0.049	0.186
-614.288	-200.000	-0.007	0.129
-613.273	159.211	-0.113	0.157
-612.259	1.692	-0.440	0.317
-611.244	-106.798	0.452	-0.100
-610.230	-172.015	-0.268	-0.009
-609.215	652.241	-0.129	-0.330
-608.201	-65.197	-0.137	-0.055
-607.186	157.736	-0.101	0.140
-606.171	-200.000	-0.008	-0.193
-605.157	-129.108	-0.220	-0.031
-604.142	0.712	0.195	0.140
-603.128	73.379	-0.045	0.047
-602.113	-129.890	-0.148	-0.020
-601.098	318.505	0.106	0.200
-600.084	800.000	-0.045	0.133
-599.069	-200.000	0.032	-0.292
-598.055	-200.000	0.049	-0.358
-597.040	-33.408	0.082	0.045
-596.025	247.176	0.040	0.067
-595.011	-161.350	0.071	-0.004
-593.996	-8.420	-0.227	-0.152
-592.982	488.899	0.078	-0.177
-591.967	-200.000	-0.015	0.094
-590.952	619.886	-0.091	0.228
-589.938	800.000	-0.055	0.183
-588.923	-141.324	0.318	-0.032
-587.909	-200.000	0.026	-0.140
-586.894	93.269	-0.210	-0.237
-585.879	-34.851	-0.361	0.197
-584.865	-200.000	0.010	-0.201
-583.850	72.100	-0.103	-0.107
-582.836	800.000	0.089	-0.279
-581.821	-108.034	-0.182	0.039
-580.806	-200.000	0.000	-0.090
-579.792	11.071	-0.151	-0.115
-578.777	184.734	-0.189	-0.280
-577.763	800.000	-0.104	0.339
-576.748	-200.000	0.020	-0.123
-575.733	800.000	0.024	-0.085
-574.719	-89.526	-0.094	0.028
-573.704	186.110	0.171	0.254
-572.690	-77.864	-0.142	0.049
-571.675	-105.890	0.303	0.068
-570.661	415.885	-0.103	-0.218
-569.646	-70.009	0.209	-0.079
-568.631	180.357	-0.136	0.199
-567.617	-161.350	0.070	0.004
-566.602	67.535	-0.123	0.125
-565.588	160.916	-0.103	0.144
-564.573	-146.576	0.108	0.009
-563.558	639.439	-0.033	0.084
-562.544	-200.000	0.002	0.248
-561.529	254.987	0.086	-0.147
-560.515	-200.000	-0.014	0.142
-559.500	-26.300	0.204	0.119
-558.485	42.033	-0.158	-0.142
-557.471	800.000	-0.033	0.139
-556.456	2.641	0.195	-0.141
-555.442	-33.718	-0.278	0.153
-554.427	280.614	-0.084	-0.149
-553.412	-39.743	0.144	-0.075
-552.398	-200.000	0.001	0.031
-551.383	-7.333	-0.205	0.138
-550.369	-16.589	-0.219	-0.138
-549.354	-66.391	-0.239	0.095
-548.339	370.901	0.056	-0.114
-547.325	318.506	0.063	-0.118
-546.310	-154.209	0.338	0.023
-545.296	-177.871	-0.171	-0.004
-544.281	-156.808	-0.184	-0.011
-543.266	566.826	-0.063	-0.151
-542.252	-187.249	0.254	0.003
-541.237	-115.339	0.272	-0.051
-540.223	13.778	-0.162	-0.125
-539.208	191.287	-0.061	0.091
-538.193	-200.000	-0.028	0.132
-537.179	368.998	0.041	0.082
-536.164	-158.369	0.292	-0.017
-535.150	272.453	-0.079	0.139
-534.135	-92.195	-0.024	0.007
-533.121	-200.000	-0.008	-0.083
-532.106	-200.000	-0.026	0.134
-531.091	800.000	-0.035	-0.147
-530.077	-76.576	0.143	0.050
-529.062	-139.596	-0.048	-0.005
-528.048	-55.492	0.208	-0.093
-527.033	63.571	0.256	-0.256
-526.018	-200.000	0.187	-0.001
-525.004	-10.095	0.131	0.087
-523.989	22.678	0.059	0.048
-522.975	371.839	0.052	-0.104
-521.960	-45.713	-0.121	0.060
-520.945	-2.181	0.294	0.206
-519.931	-4.346	0.086	-0.059
-518.916	335.344	0.133	0.256
-517.902	-200.000	-0.002	0.054
-516.887	22.922	0.166	0.135
-515.872	-138.927	-0.180	0.019
-514.858	111.245	0.207	-0.248
-513.843	-200.000	-0.027	0.119
-512.829	39.250	-0.241	-0.214
-511.814	572.301	-0.083	-0.201
-510.799	-128.307	-0.137	0.019
-509.785	-114.664	0.328	0.062
-508.770	-93.711	-0.118	0.032
-507.756	82.601	-0.140	-0.151
-506.741	381.497	-0.059	-0.120
-505.726	58.388	-0.081	0.079
-504.712	-54.802	0.390	0.175
-503.697	-200.000	-0.045	-0.328
-502.683	-124.179	-0.335	-0.052
-501.668	61.756	-0.181	0.179
-500.653	603.664	-0.122	0.301
-499.639	275.185	0.097	0.171
-498.624	-200.000	-0.020	-0.286
-497.610	194.937	-0.182	-0.274
-496.595	115.948	-0.116	-0.141
-495.581	-200.000	-0.024	0.117
-494.566	643.347	-0.047	0.120
-493.551	-200.000	-0.040	-0.192
-492.537	-200.000	-0.043	-0.235
-491.522	84.012	-0.139	0.151
-490.508	-113.352	0.045	0.009
-489.493	423.941	0.005	-0.010
-488.478	800.000	-0.062	-0.173
-487.464	-96.078	0.352	0.093
-486.449	21.585	-0.162	-0.131
-485.435	800.000	0.065	0.251
-484.420	83.032	0.082	0.089
-483.405	37.455	0.103	-0.090
-482.391	-63.540	0.093	-0.038
-481.376	-200.000	0.052	-0.414
-480.362	800.000	0.080	-0.230
-479.347	-8.837	-0.241	-0.161
-478.332	468.991	0.079	0.177
-477.318	-143.654	-0.156	0.015
-476.303	650.621	-0.027	-0.068
-475.289	411.091	0.091	-0.191
-474.274	15.791	-0.135	0.105
-473.259	-200.000	0.008	-0.241
-472.245	-169.408	-0.483	-0.018
-471.230	-102.798	-0.293	-0.069
-470.216	145.084	-0.146	0.194
-469.201	20.985	0.242	-0.194
-468.186	89.307	0.356	0.394
-467.172	91.069	-0.172	0.191
-466.157	40.955	0.139	-0.124
-465.143	-87.706	0.185	0.055
-464.128	44.562	-0.204	-0.186
-463.113	-127.281	0.156	-0.023
-462.099	203.777	-0.171	0.263
-461.084	800.000	-0.087	-0.249
-460.070	-176.490	-0.165	-0.004
-459.055	-200.000	-0.046	-0.326
-458.040	-132.934	-0.175	-0.022
-457.026	735.930	-0.217	0.576
-456.011	-89.552	-0.231	-0.067
-454.997	-38.840	0.293	-0.153
-453.982	52.934	0.129	0.123
-452.968	-6.265	-0.232	0.157
-451.953	-191.108	0.166	0.002
-450.938	199.896	0.140	0.213
-449.924	96.700	0.102	-0.116
-448.909	-200.000	-0.050	0.239
-447.895	419.018	-0.060	0.127
-446.880	-18.354	0.105	0.065
-445.865	-155.611	0.090	-0.006
-444.851	-200.000	-0.056	-0.254
-443.836	372.558	-0.033	-0.066
-442.822	-39.062	-0.110	-0.057
-441.807	241.227	-0.100	-0.166
-440.792	614.162	-0.114	0.283
-439.778	599.489	0.040	0.098
-438.763	50.360	-0.275	0.258
-437.749	-92.105	-0.151	0.042
-436.734	679.395	-0.086	-0.223
-435.719	9.352	-0.179	0.134
-434.705	-200.000	0.026	-0.124
-433.690	-200.000	-0.006	-0.270
-432.676	-115.967	-0.239	0.044
-431.661	-198.990	0.234	-0.001
-430.646	230.611	0.283	0.459
-429.632	-108.099	-0.171	0.037
-428.617	-47.532	0.236	0.114
-427.603	121.224	-0.075	0.093
-426.588	-200.000	0.003	0.153
-425.573	22.849	0.318	0.258
-424.559	342.828	-0.067	0.131
-423.544	254.237	0.232	-0.393
-422.530	111.917	0.246	-0.295
-421.515	361.128	-0.099	0.197
-420.500	-105.910	-0.405	0.091
-419.486	-151.457	-0.064	0.005
-418.471	-9.783	0.043	0.029
-417.457	121.059	-0.090	0.110
-416.442	-200.000	0.043	0.275
-415.428	11.741	-0.148	0.112
-414.413	800.000	0.016	-0.053
-413.398	136.099	0.084	0.108
-412.384	149.699	-0.216	0.290
-411.369	-133.369	0.099	-0.012
-410.355	-20.834	0.113	-0.069
-409.340	231.697	0.196	-0.319
-408.325	27.627	-0.058	0.048
-407.311	48.490	0.243	-0.225
-406.296	54.687	-0.094	0.090
-405.282	140.119	0.178	-0.232
-404.267	-18.370	0.178	0.110
-403.252	-200.000	0.037	0.352
-402.238	-81.001	0.243	-0.080
-401.223	-200.000	0.000	-0.045
-400.209	-127.734	-0.236	0.034
-399.194	294.919	0.185	0.336
-398.179	-200.000	0.033	0.237
-397.165	6.061	-0.194	-0.142
-396.150	214.872	0.129	0.202
-395.136	-200.000	-0.013	-0.122
-394.121	-106.090	-0.077	0.017
-393.106	71.996	-0.007	0.007
-392.092	66.214	-0.128	-0.128
-391.077	33.583	0.331	-0.285
-390.063	-149.319	-0.365	-0.029
-389.048	-131.740	-0.281	0.036
-388.033	-54.852	0.369	-0.165
-387.019	-200.000	0.006	0.066
-386.004	-200.000	0.022	-0.303
-384.990	491.671	-0.185	0.419
-383.975	-52.577	-0.179	0.082
-382.960	15.446	0.186	0.144
-381.946	-52.606	-0.069	-0.031
-380.931	69.357	-0.135	-0.138
-379.917	-1.772	0.155	0.108
-378.902	-148.164	0.239	0.020
-377.888	-34.819	0.295	-0.160
-376.873	-152.559	-0.240	0.017
-375.858	59.038	0.231	0.225
-374.844	-82.224	-0.433	0.139
-373.829	-200.000	0.020	-0.087
-372.815	650.878	-0.137	-0.348
-371.800	-200.000	-0.055	-0.297
-370.785	800.000	-0.068	0.211
-369.771	800.000	0.004	0.012
-368.756	-159.395	0.259	0.014
-367.742	-16.715	-0.137	0.086
-366.727	-114.548	0.342	-0.065
-365.712	119.164	-0.027	-0.034
-364.698	788.754	0.048	0.130
-363.683	556.810	-0.146	0.349
-362.669	70.552	-0.129	0.131
-361.654	800.000	0.022	-0.066
-360.639	-200.000	0.023	0.348
-359.625	437.392	0.148	0.319
-358.610	-66.194	-0.389	-0.153
-357.596	-158.386	0.119	0.007
-356.581	-54.258	-0.165	0.074
-355.566	196.264	0.111	-0.168
-354.552	136.999	0.085	-0.110
-353.537	-147.198	0.145	0.012
-352.523	-200.000	-0.046	-0.250
-351.508	-107.316	-0.227	-0.049
-350.493	167.438	0.250	-0.351
-349.479	-77.119	0.355	-0.122
-348.464	-200.000	-0.021	-0.156
-347.450	-128.800	0.115	0.016
-346.435	-75.142	0.443	-0.157
-345.420	41.697	-0.243	0.217
-344.406	-200.000	-0.014	0.133
-343.391	223.946	-0.127	-0.203
-342.377	125.687	-0.181	-0.226
-341.362	45.861	-0.190	-0.174
-340.348	365.385	-0.011	0.021
-339.333	-62.542	0.146	0.060
-338.318	-168.912	0.242	0.009
-337.304	176.693	0.104	-0.150
-336.289	-200.000	-0.012	-0.120
-335.275	-113.678	-0.348	0.067
-334.260	-34.672	-0.144	0.078
-333.245	-200.000	-0.013	0.064
-332.231	113.425	0.151	-0.181
-331.216	800.000	0.109	0.382
-330.202	-98.713	0.242	-0.061
-329.187	52.370	-0.073	0.069
-328.172	-200.000	-0.242	-0.001
-327.158	-158.046	0.233	0.014
-326.143	94.355	-0.158	0.177
-325.129	-200.000	0.022	0.108
-324.114	149.351	-0.118	0.158
-323.099	-90.385	0.383	-0.110
-322.085	-144.908	0.442	0.040
-321.070	-79.298	-0.138	-0.046
-320.056	-98.190	0.207	-0.053
-319.041	-138.104	0.183	0.020
-318.026	-23.784	-0.136	-0.080
-317.012	-132.903	0.098	-0.012
-315.997	368.418	0.124	0.248
-314.983	500.803	-0.117	0.267
-313.968	286.264	-0.116	0.206
-312.953	-17.513	-0.285	-0.177
-311.939	-200.000	-0.052	-0.276
-310.924	-17.196	-0.096	-0.060
-309.910	-31.189	0.504	0.280
-308.895	-200.000	-0.019	-0.180
-307.880	-117.574	-0.152	0.027
-306.866	800.000	0.065	0.265
-305.851	95.109	0.143	0.161
-304.837	-7.263	0.314	0.210
-303.822	312.990	-0.106	0.196
-302.807	-126.709	0.146	0.021
-301.793	-115.329	0.100	-0.019
-300.778	402.632	-0.137	0.284
-299.764	-52.241	-0.031	-0.014
-298.749	-200.000	0.002	0.019
-297.735	214.962	-0.069	-0.108
-296.720	745.011	-0.065	0.173
-295.705	186.686	-0.153	0.225
-294.691	344.964	0.121	0.234
-293.676	-200.000	-0.024	0.304
-292.662	407.784	-0.107	-0.222
-291.647	32.900	0.083	-0.070
-290.632	-104.934	0.439	0.099
-289.618	-40.117	-0.027	-0.014
-288.603	-200.000	-0.054	0.322
-287.589	226.225	0.087	0.140
-286.574	-200.000	0.047	-0.333
-285.559	110.460	0.153	0.181
-284.545	-48.542	-0.214	-0.102
-283.530	194.559	-0.127	-0.190
-282.516	112.234	0.019	-0.023
-281.501	174.787	0.120	0.171
-280.486	-200.000	0.027	-0.285
-279.472	44.716	-0.284	-0.258
-278.457	43.553	-0.316	-0.285
-277.443	676.221	-0.048	-0.122
-276.428	54.847	0.200	0.190
-275.413	103.773	0.164	-0.190
-274.399	395.374	-0.099	-0.203
-273.384	-168.044	-0.052	0.002
-272.370	-150.592	-0.171	-0.013
-271.355	-93.763	-0.245	-0.067
-270.340	-200.000	0.000	0.459
-269.326	74.544	-0.293	0.303
-268.311	41.932	-0.157	-0.140
-267.297	-116.206	-0.149	-0.027
-266.282	-60.408	-0.165	0.069
-265.267	-61.832	-0.214	0.088
-264.253	-195.590	-0.251	0.002
-263.238	-158.427	0.337	0.019
-262.224	-200.000	0.073	-0.374
-261.209	110.685	-0.072	-0.085
-260.195	157.692	0.015	-0.021
-259.180	-154.568	-0.026	-0.002
-258.165	-161.353	-0.469	-0.024
-257.151	73.380	-0.252	-0.260
-256.136	-200.000	0.042	-0.186
-255.122	800.000	-0.122	0.484
-254.107	-2.808	-0.306	-0.210
-253.092	51.368	0.117	-0.109
-252.078	-39.755	0.284	-0.146
-251.063	-47.949	0.361	0.172
-250.049	41.448	0.211	0.187
-249.034	-200.000	0.008	-0.042
-248.019	-25.920	-0.141	-0.082
-247.005	-73.259	0.196	0.071
-245.990	770.063	0.077	0.207
-244.976	241.961	-0.151	0.248
-243.961	-48.745	-0.044	0.021
-242.946	144.120	0.079	0.103
-241.932	800.000	-0.063	0.245
-240.917	53.379	0.264	-0.249
-239.903	-0.622	0.136	0.095
-238.888	-200.000	0.046	0.231
-237.873	-200.000	0.007	-0.290
-236.859	1.579	0.284	0.201
-235.844	513.756	0.108	0.247
-234.830	-19.026	0.108	-0.066
-233.815	-200.000	-0.091	-0.456
-232.800	-74.566	-0.212	0.075
-231.786	210.595	-0.087	-0.134
-230.771	145.477	0.209	0.275
-229.757	-26.948	-0.094	-0.054
-228.742	-48.274	-0.332	0.157
-227.727	-155.866	0.156	-0.010
-226.713	-29.551	0.115	-0.065
-225.698	-200.000	-0.014	-0.173
-224.684	-111.936	0.154	-0.031
-223.669	800.000	0.047	0.137
-222.655	-21.863	0.101	-0.060
-221.640	10.076	-0.193	0.144
-220.625	57.949	0.202	-0.195
-219.611	-53.310	0.127	0.057
-218.596	-2.665	0.124	-0.085
-217.582	764.620	0.078	0.209
-216.567	253.410	0.150	-0.251
-215.552	-33.401	-0.162	-0.088
-214.538	-167.224	-0.125	0.005
-213.523	-88.117	0.161	0.048
-212.509	-200.000	0.075	-0.480
-211.494	-200.000	0.003	-0.053
-210.479	67.016	0.208	-0.208
-209.465	185.622	-0.039	-0.058
-208.450	-54.005	0.196	0.088
-207.436	-167.648	-0.239	-0.009
-206.421	-78.916	0.271	-0.091
-205.406	-200.000	0.030	0.202
-204.392	-30.516	0.141	0.079
-203.377	-58.913	-0.268	0.114
-202.363	-200.000	0.009	-0.048
-201.348	800.000	-0.032	-0.094
-200.333	-200.000	-0.006	-0.110
-199.319	-145.496	0.251	0.022
-198.304	-200.000	0.007	0.078
-197.290	422.478	-0.106	-0.223
-196.275	-129.404	-0.427	-0.058
-195.260	-200.000	0.063	0.277
-194.246	86.480	-0.051	-0.055
-193.231	273.029	0.190	-0.330
-192.217	576.503	0.168	-0.402
-191.202	55.073	0.189	-0.180
-190.187	-86.161	-0.140	-0.043
-189.173	-200.000	-0.035	-0.203
-188.158	800.000	0.015	0.063
-187.144	414.572	0.158	-0.330
-186.129	290.298	-0.212	-0.378
-185.114	-25.123	-0.202	0.118
-184.100	-193.707	-0.419	-0.003
-183.085	107.095	0.152	0.177
-182.071	-54.540	0.256	0.114
-181.056	-80.453	-0.170	-0.056
-180.042	-1.193	-0.113	-0.078
-179.027	-152.156	0.058	-0.004
-178.012	181.683	0.144	0.207
-176.998	-38.873	0.071	-0.037
-175.983	-104.871	-0.320	0.072
-174.969	-34.220	-0.034	-0.019
-173.954	50.769	0.215	0.199
-172.939	-200.000	0.006	0.110
-171.925	800.000	-0.059	-0.201
-170.910	-200.000	0.023	-0.185
-169.896	158.563	-0.272	-0.370
-168.881	-200.000	0.021	0.174
-167.866	-200.000	-0.008	-0.360
-166.852	800.000	0.069	0.278
-165.837	-35.454	-0.034	0.018
-164.823	305.468	0.073	0.134
-163.808	216.136	0.118	0.184
-162.793	-131.094	0.322	-0.042
-161.779	-100.511	0.351	0.085
-160.764	-35.051	-0.153	0.082
-159.750	104.363	-0.042	0.048
-158.735	-200.000	-0.027	0.127
-157.720	10.147	-0.192	0.143
-156.706	-75.985	0.350	-0.121
-155.691	186.385	-0.216	-0.315
-154.677	-141.382	0.211	0.021
-153.662	-200.000	-0.003	0.234
-152.647	309.301	0.012	0.022
-151.633	-143.917	0.145	0.013
-150.618	-29.528	-0.126	-0.070
-149.604	531.680	0.154	-0.356
-148.589	644.246	0.121	-0.303
-147.574	-84.768	-0.278	0.086
-146.560	186.045	0.265	-0.386
-145.545	-171.766	-0.265	-0.009
-144.531	40.966	0.254	0.225
-143.516	61.325	0.077	0.075
-142.502	-76.383	0.189	0.065
-141.487	184.348	0.160	-0.232
-140.472	800.000	0.090	0.301
-139.458	242.350	0.099	-0.162
-138.443	46.778	-0.061	0.055
-137.429	84.321	0.268	-0.287
-136.414	34.342	0.160	-0.137
-135.399	-48.424	0.347	0.164
-134.385	-200.000	0.007	0.048
-133.370	176.008	-0.025	-0.036
-132.356	-47.044	0.221	0.106
-131.341	-200.000	-0.017	0.210
-130.326	578.483	0.144	0.345
-129.312	183.235	-0.118	0.171
-128.297	-89.748	-0.282	-0.081
-127.283	-40.350	-0.120	0.061
-126.268	-200.000	-0.010	0.105
-125.253	-44.028	-0.300	-0.148
-124.239	-200.000	0.054	0.300
-123.224	-154.257	-0.091	-0.006
-122.210	6.353	0.277	0.202
