DTS Sentinel unit serial number:	SN413079Multiplexer serial number:	ORYXHardware model number:	OX4-SRSoftware version number:	ORYX F/W v4.00 Oryx Data Collector v3.7.2.0data status	okinstallation	princeton_trtdifferential loss correction	single-endedforward channel	channel 2reverse channel	N/Adate	2019/09/12time	14:57:11forward acquisition time	60.00reverse acquisition time	0.00gamma	496.2192k internal	0.2300k external	0.2300temperature offset calibration	1.0087default loss term (dB/km)	0.3790temperature slope calibration	1.0000multiplexer offset coefficient	1.0000multiplexer slope coefficient	1.0000fibre end	0.00T internal ref (°C)	40.37T ext. ref 1 (°C)	2.32T ext. ref 2 (°C)	37.44length (m)	temperature (°C)	Stokes	anti-Stokes-747.200	42.093	0.131	0.121
-746.185	-200.000	-0.005	0.351
-745.171	581.441	0.067	-0.167
-744.156	455.032	0.076	0.172
-743.142	-69.358	-0.117	-0.046
-742.127	-73.536	0.326	0.121
-741.112	-30.862	0.238	0.137
-740.098	-90.657	-0.109	0.032
-739.083	361.168	0.117	-0.239
-738.069	87.923	-0.217	0.246
-737.054	-129.107	-0.435	0.062
-736.039	105.492	0.239	-0.288
-735.025	-53.805	-0.118	0.055
-734.010	11.664	0.280	-0.219
-732.996	23.425	0.120	-0.100
-731.981	-57.537	-0.185	0.083
-730.966	81.967	0.045	-0.050
-729.952	-148.290	-0.046	-0.004
-728.937	-14.352	-0.321	0.211
-727.923	-66.157	-0.188	-0.076
-726.908	-134.396	0.236	-0.030
-725.894	-200.000	0.026	-0.118
-724.879	225.445	-0.121	-0.200
-723.864	-41.791	0.263	0.138
-722.850	202.180	-0.119	0.187
-721.835	-200.000	-0.018	0.148
-720.821	-169.068	0.351	-0.013
-719.806	-200.000	0.044	-0.362
-718.791	421.683	0.116	0.254
-717.777	-200.000	-0.015	-0.175
-716.762	216.483	-0.108	0.175
-715.748	-135.495	-0.479	-0.058
-714.733	-21.198	-0.170	0.106
-713.718	154.967	0.147	-0.205
-712.704	-36.142	-0.293	-0.161
-711.689	800.000	0.053	0.233
-710.675	225.898	0.040	-0.066
-709.660	-188.045	0.308	0.004
-708.645	-200.000	0.014	0.141
-707.631	-27.305	0.162	0.096
-706.616	-50.192	-0.143	0.069
-705.602	-200.000	0.010	-0.160
-704.587	255.528	0.187	-0.327
-703.572	118.860	-0.235	0.296
-702.558	-120.753	0.219	-0.038
-701.543	-200.000	0.005	0.214
-700.529	86.868	0.118	-0.132
-699.514	-68.156	-0.126	-0.050
-698.499	67.668	0.055	0.057
-697.485	-77.838	0.299	0.105
-696.470	531.931	0.111	-0.266
-695.456	127.570	-0.119	0.154
-694.441	303.762	0.064	0.120
-693.426	-63.807	-0.194	-0.081
-692.412	-200.000	-0.074	-0.442
-691.397	-23.999	-0.096	-0.058
-690.383	-200.000	0.010	0.139
-689.368	-165.894	-0.055	0.002
-688.354	659.250	0.097	-0.254
-687.339	800.000	0.091	-0.309
-686.324	340.219	0.068	-0.134
-685.310	114.061	0.076	-0.094
-684.295	-22.194	0.420	0.259
-683.281	552.549	0.104	-0.253
-682.266	388.643	-0.083	0.174
-681.251	-27.595	0.221	0.131
-680.237	-200.000	-0.034	0.183
-679.222	-75.695	-0.266	0.096
-678.208	-55.636	0.185	-0.084
-677.193	175.957	-0.163	0.240
-676.178	-17.420	0.069	-0.044
-675.164	74.309	0.122	-0.131
-674.149	95.200	-0.360	-0.417
-673.135	84.329	-0.131	0.146
-672.120	720.311	0.069	0.187
-671.105	55.854	0.091	-0.089
-670.091	-46.272	-0.168	0.084
-669.076	598.267	-0.014	-0.036
-668.062	42.990	0.175	-0.162
-667.047	-200.000	0.005	-0.027
-666.032	172.652	-0.178	0.260
-665.018	439.973	-0.127	0.282
-664.003	-105.702	0.225	-0.052
-662.989	578.572	0.070	0.173
-661.974	17.052	-0.148	0.119
-660.959	129.747	-0.055	-0.072
-659.945	-39.914	-0.059	0.031
-658.930	78.707	-0.112	-0.122
-657.916	-127.400	-0.220	0.033
-656.901	92.397	-0.156	-0.179
-655.886	-104.994	-0.103	0.024
-654.872	-200.000	0.012	-0.121
-653.857	-102.804	0.186	-0.045
-652.843	-36.165	-0.306	-0.168
-651.828	114.521	0.329	-0.408
-650.814	93.350	0.280	0.322
-649.799	800.000	-0.054	0.177
-648.784	-200.000	-0.003	-0.035
-647.770	-28.004	0.320	0.188
-646.755	-7.619	0.254	-0.175
-645.741	395.231	0.067	-0.141
-644.726	344.780	0.067	-0.133
-643.711	-45.534	0.071	0.036
-642.697	-135.728	0.290	-0.035
-641.682	83.388	-0.225	0.250
-640.668	34.238	0.154	-0.137
-639.653	-108.402	0.229	0.050
-638.638	95.648	-0.065	0.075
-637.624	-105.506	-0.177	0.041
-636.609	162.787	-0.201	0.286
-635.595	152.928	0.136	0.189
-634.580	36.753	0.277	-0.249
-633.565	413.357	-0.176	-0.381
-632.551	-62.759	-0.404	-0.170
-631.536	139.184	-0.210	0.281
-630.522	-0.757	0.076	-0.055
-629.507	800.000	0.019	0.073
-628.492	-67.969	0.059	-0.023
-627.478	-82.598	-0.155	-0.051
-626.463	141.981	-0.203	0.273
-625.449	-116.645	0.233	-0.043
-624.434	-49.035	-0.214	0.104
-623.419	-116.605	0.056	-0.011
-622.405	-166.353	-0.241	0.010
-621.390	357.041	-0.058	0.118
-620.376	83.311	-0.305	-0.337
-619.361	-2.868	0.202	-0.144
-618.346	38.968	0.136	0.123
-617.332	641.862	-0.159	0.412
-616.317	-129.343	0.380	0.054
-615.303	252.705	-0.043	-0.075
-614.288	800.000	0.038	-0.156
-613.273	-136.778	0.330	-0.039
-612.259	-151.413	0.103	0.008
-611.244	38.714	0.284	-0.257
-610.230	800.000	0.052	-0.159
-609.215	-200.000	-0.027	-0.274
-608.201	-75.447	0.142	-0.051
-607.186	619.906	-0.112	0.285
-606.171	-200.000	0.048	0.253
-605.157	-4.572	-0.232	0.163
-604.142	-70.460	-0.154	0.059
-603.128	-147.156	-0.067	-0.006
-602.113	800.000	-0.060	0.247
-601.098	499.271	-0.114	-0.267
-600.084	-6.699	-0.697	-0.481
-599.069	53.504	0.104	0.101
-598.055	800.000	0.091	-0.354
-597.040	43.029	-0.124	0.115
-596.025	740.913	-0.113	-0.308
-595.011	62.313	0.024	0.024
-593.996	115.193	0.146	-0.181
-592.982	-37.188	0.116	-0.063
-591.967	182.093	0.095	0.142
-590.952	-42.822	-0.179	-0.092
-589.938	154.255	-0.085	0.119
-588.923	-124.859	0.037	0.006
-587.909	486.064	-0.186	-0.430
-586.894	-33.443	-0.144	0.081
-585.879	-124.346	0.204	-0.032
-584.865	-200.000	-0.031	-0.182
-583.850	-168.767	-0.127	-0.005
-582.836	-125.392	-0.224	-0.035
-581.821	72.049	0.222	0.234
-580.806	-200.000	0.010	-0.142
-579.792	-58.327	-0.251	-0.111
-578.777	96.513	0.258	-0.300
-577.763	-151.547	0.255	-0.019
-576.748	-95.472	-0.054	0.015
-575.733	392.841	0.042	-0.089
-574.719	38.834	-0.281	-0.254
-573.704	-137.406	-0.199	-0.023
-572.690	-200.000	-0.015	-0.191
-571.675	224.594	0.088	-0.144
-570.661	-50.735	0.288	0.137
-569.646	-29.487	-0.230	-0.133
-568.631	-138.144	0.135	0.015
-567.617	800.000	-0.062	-0.183
-566.602	5.433	0.092	0.069
-565.588	-200.000	0.031	0.211
-564.573	-180.397	-0.226	0.005
-563.558	81.614	0.099	-0.108
-562.544	-135.817	-0.302	0.036
-561.529	-98.673	0.234	0.060
-560.515	-200.000	-0.011	-0.071
-559.500	-121.755	-0.161	0.027
-558.485	-91.572	0.182	0.053
-557.471	-43.350	0.076	-0.039
-556.456	-150.450	0.042	-0.003
-555.442	-107.668	-0.267	0.059
-554.427	-200.000	-0.052	0.314
-553.412	-200.000	-0.050	-0.225
-552.398	139.105	-0.090	-0.120
-551.383	-14.554	0.091	0.059
-550.369	168.748	-0.167	0.241
-549.354	467.516	-0.021	-0.047
-548.339	569.799	0.176	-0.433
-547.325	-200.000	0.003	-0.357
-546.310	-3.498	0.128	-0.090
-545.296	-200.000	-0.010	0.104
-544.281	-52.976	-0.306	0.143
-543.266	278.013	0.344	0.620
-542.252	205.940	-0.071	0.112
-541.237	-97.764	-0.204	-0.053
-540.223	-79.180	-0.097	-0.033
-539.208	-128.056	0.179	0.026
-538.193	433.327	0.035	0.076
-537.179	137.668	0.133	0.177
-536.164	31.108	-0.127	-0.110
-535.150	-144.031	0.236	0.022
-534.135	41.131	-0.089	0.082
-533.121	-200.000	0.048	-0.234
-532.106	50.949	0.261	-0.250
-531.091	-15.814	-0.005	-0.004
-530.077	800.000	-0.060	0.213
-529.062	-11.065	-0.115	-0.077
-528.048	650.061	-0.043	-0.111
-527.033	-200.000	0.002	-0.079
-526.018	138.063	-0.071	-0.094
-525.004	168.438	0.049	0.070
-523.989	62.406	-0.094	0.095
-522.975	-170.671	0.243	0.008
-521.960	92.851	0.166	0.190
-520.945	234.509	0.071	-0.118
-519.931	-44.424	0.425	0.215
-518.916	-200.000	0.011	-0.115
-517.902	638.223	0.033	0.086
-516.887	-128.256	-0.545	-0.079
-515.872	-9.866	-0.097	-0.065
-514.858	-200.000	-0.018	-0.186
-513.843	505.294	-0.046	-0.108
-512.829	-100.976	0.102	0.025
-511.814	-47.610	0.023	0.011
-510.799	138.255	-0.349	-0.463
-509.785	105.796	0.131	0.156
-508.770	-200.000	-0.002	-0.150
-507.756	166.010	0.147	0.210
-506.741	44.072	-0.096	0.089
-505.726	800.000	-0.023	-0.073
-504.712	-200.000	0.023	0.220
-503.697	-49.275	-0.422	-0.204
-502.683	-200.000	0.023	0.102
-501.668	-98.851	0.342	0.088
-500.653	800.000	-0.039	0.134
-499.639	752.174	0.049	0.133
-498.624	27.821	0.267	0.228
-497.610	-200.000	0.001	0.012
-496.595	212.309	0.127	-0.203
-495.581	-200.000	0.025	-0.243
-494.566	92.891	0.152	0.173
-493.551	72.327	-0.139	-0.146
-492.537	-67.969	0.102	0.040
-491.522	800.000	0.130	-0.414
-490.508	-200.000	-0.029	-0.128
-489.493	-72.519	0.158	0.059
-488.478	-200.000	-0.011	-0.324
-487.464	8.933	-0.226	-0.172
-486.449	454.025	-0.171	0.381
-485.435	-111.547	-0.346	-0.071
-484.420	-45.968	0.288	0.143
-483.405	-75.136	0.292	-0.106
-482.391	-112.313	-0.201	0.041
-481.376	-200.000	-0.071	0.442
-480.362	-107.050	-0.111	0.025
-479.347	-200.000	-0.057	-0.258
-478.332	171.361	0.033	-0.048
-477.318	-200.000	0.007	0.153
-476.303	-200.000	0.038	-0.267
-475.289	457.971	0.041	-0.091
-474.274	92.119	0.301	-0.342
-473.259	145.815	-0.020	0.027
-472.245	800.000	-0.079	-0.271
-471.230	-99.801	-0.137	-0.035
-470.216	-77.088	-0.396	0.139
-469.201	245.810	-0.053	-0.091
-468.186	-200.000	0.013	-0.147
-467.172	-200.000	0.015	-0.097
-466.157	-200.000	0.035	-0.286
-465.143	357.528	0.098	-0.198
-464.128	-42.625	-0.183	0.094
-463.113	6.529	-0.380	0.285
-462.099	108.491	0.313	-0.377
-461.084	-200.000	-0.026	-0.223
-460.070	366.450	-0.092	0.187
-459.055	83.496	0.406	0.446
-458.040	297.692	-0.040	0.074
-457.026	-134.135	-0.145	-0.018
-456.011	-153.829	0.080	0.006
-454.997	323.921	0.141	-0.272
-453.982	-200.000	0.003	0.158
-452.968	800.000	0.067	-0.239
-451.953	-5.934	0.079	-0.054
-450.938	239.373	-0.110	0.184
-449.924	-200.000	0.056	-0.370
-448.909	800.000	-0.019	-0.063
-447.895	-175.513	-0.107	-0.003
-446.880	560.277	0.115	0.280
-445.865	800.000	0.044	-0.130
-444.851	-107.157	-0.288	-0.064
-443.836	327.576	-0.002	-0.004
-442.822	-30.900	-0.187	0.107
-441.807	354.800	0.124	-0.248
-440.792	-157.102	0.116	0.007
-439.778	-40.173	0.239	0.126
-438.763	574.603	0.109	-0.267
-437.749	665.210	-0.160	0.416
-436.734	81.660	0.063	-0.069
-435.719	800.000	-0.030	-0.105
-434.705	-63.175	-0.091	-0.038
-433.690	-149.623	-0.319	-0.025
-432.676	-76.707	-0.212	-0.075
-431.661	191.169	-0.144	-0.218
-430.646	800.000	-0.050	0.183
-429.632	-56.743	-0.384	-0.171
-428.617	-200.000	-0.005	-0.123
-427.603	-80.756	-0.117	-0.039
-426.588	-200.000	0.063	0.292
-425.573	91.920	0.130	0.147
-424.559	78.831	-0.242	-0.261
-423.544	-9.362	0.028	0.019
-422.530	-200.000	-0.005	0.052
-421.515	85.080	0.178	0.196
-420.500	-200.000	0.011	0.062
-419.486	706.082	0.079	-0.211
-418.471	59.773	0.051	0.050
-417.457	183.274	0.152	-0.226
-416.442	559.163	0.064	0.156
-415.428	-200.000	-0.001	0.108
-414.413	-2.888	-0.150	0.106
-413.398	-185.477	0.369	0.006
-412.384	-200.000	-0.013	0.173
-411.369	-200.000	-0.017	0.093
-410.355	723.267	0.035	0.093
-409.340	41.092	-0.240	-0.218
-408.325	12.051	0.271	-0.210
-407.311	-146.350	-0.151	-0.013
-406.296	569.201	0.030	-0.073
-405.282	-106.447	0.314	-0.070
-404.267	-40.023	-0.043	0.023
-403.252	-36.844	-0.205	0.110
-402.238	560.904	-0.035	0.086
-401.223	800.000	0.021	-0.085
-400.209	-156.083	0.059	0.004
-399.194	93.669	0.115	0.131
-398.179	376.957	-0.084	0.173
-397.165	683.568	-0.132	0.346
-396.150	-3.457	-0.090	-0.063
-395.136	-58.562	0.349	-0.153
-394.121	16.532	-0.209	-0.166
-393.106	-74.030	0.321	-0.117
-392.092	800.000	-0.007	0.022
-391.077	-11.048	-0.060	-0.040
-390.063	-12.845	-0.173	-0.113
-389.048	-166.319	0.055	-0.002
-388.033	-200.000	0.104	0.545
-387.019	224.428	-0.078	-0.126
-386.004	-16.550	0.283	-0.180
-384.990	138.872	0.171	-0.225
-383.975	-118.081	0.203	0.037
-382.960	-200.000	-0.016	0.315
-381.946	-32.007	0.146	-0.082
-380.931	102.556	-0.207	0.244
-379.917	598.651	0.129	0.321
-378.902	-200.000	0.011	0.092
-377.888	58.348	0.057	-0.056
-376.873	777.096	0.016	-0.043
-375.858	-200.000	-0.077	0.389
-374.844	-58.259	-0.184	-0.080
-373.829	9.028	0.132	0.100
-372.815	560.263	-0.112	0.273
-371.800	800.000	0.070	0.211
-370.785	-27.244	0.253	0.148
-369.771	200.860	0.196	0.303
-368.756	-64.841	-0.011	0.004
-367.742	242.820	0.102	-0.172
-366.727	72.483	0.107	-0.112
-365.712	-96.171	0.025	-0.007
-364.698	-107.426	-0.315	0.069
-363.683	438.555	0.149	0.327
-362.669	472.626	-0.114	0.258
-361.654	-200.000	-0.011	-0.124
-360.639	-53.864	0.425	0.195
-359.625	-49.859	-0.107	-0.051
-358.610	381.884	0.054	-0.112
-357.596	-200.000	-0.031	-0.298
-356.581	-99.358	-0.247	0.063
-355.566	227.250	-0.161	-0.263
-354.552	-200.000	-0.019	-0.089
-353.537	85.465	-0.132	-0.146
-352.523	64.789	-0.064	-0.065
-351.508	382.046	0.085	-0.175
-350.493	277.171	0.124	0.222
-349.479	-178.657	-0.121	-0.003
-348.464	-120.520	0.067	0.011
-347.450	-200.000	-0.045	0.220
-346.435	549.165	-0.265	0.638
-345.420	-3.696	0.078	0.054
-344.406	-76.262	-0.112	0.040
-343.391	383.502	0.109	0.225
-342.377	53.814	-0.170	0.164
-341.362	-3.070	0.267	-0.187
-340.348	-70.819	-0.088	-0.033
-339.333	8.762	0.116	0.088
-338.318	-115.918	0.139	0.026
-337.304	-200.000	-0.057	-0.353
-336.289	144.833	0.216	-0.289
-335.275	70.472	-0.149	-0.155
-334.260	-16.685	0.193	-0.122
-333.245	126.951	0.227	0.289
-332.231	10.740	0.228	0.175
-331.216	510.166	-0.033	0.076
-330.202	98.094	0.219	0.253
-329.187	-200.000	-0.020	0.307
-328.172	244.284	-0.035	0.059
-327.158	332.171	-0.167	-0.324
-326.143	25.888	0.183	-0.153
-325.129	12.336	-0.328	0.254
-324.114	775.997	0.081	-0.223
-323.099	-200.000	0.008	0.109
-322.085	-49.113	-0.138	0.066
-321.070	-105.561	-0.143	0.033
-320.056	800.000	0.066	0.219
-319.041	5.314	-0.208	0.154
-318.026	-49.176	-0.165	-0.079
-317.012	800.000	0.133	-0.402
-315.997	-127.815	0.136	-0.020
-314.983	679.476	-0.093	-0.243
-313.968	-81.647	0.166	0.055
-312.953	-73.537	-0.267	0.098
-311.939	800.000	0.158	0.471
-310.924	439.032	-0.040	0.088
-309.910	800.000	-0.131	-0.380
-308.895	671.089	-0.092	0.240
-307.880	800.000	-0.007	-0.021
-306.866	180.497	-0.284	-0.418
-305.851	800.000	-0.073	-0.220
-304.837	-109.913	-0.322	-0.068
-303.822	-26.672	-0.220	0.129
-302.807	-58.919	0.225	0.097
-301.793	-27.730	0.015	0.009
-300.778	-183.510	0.027	0.000
-299.764	-124.051	-0.337	0.053
-298.749	-66.224	-0.392	0.157
-297.735	250.768	0.036	-0.061
-296.720	157.025	-0.285	-0.395
-295.705	180.734	0.144	0.213
-294.691	24.816	-0.290	0.241
-293.676	-85.303	0.162	-0.051
-292.662	-24.208	0.101	0.060
-291.647	-70.053	-0.301	0.115
-290.632	-78.885	0.254	0.087
-289.618	98.056	-0.087	-0.100
-288.603	351.264	0.100	0.198
-287.589	-200.000	0.002	-0.100
-286.574	21.017	-0.287	0.234
-285.559	21.074	0.213	-0.173
-284.545	265.961	-0.038	0.066
-283.530	-26.451	-0.210	-0.124
-282.516	7.770	0.189	-0.142
-281.501	87.881	-0.233	0.259
-280.486	277.737	0.163	-0.290
-279.472	-68.755	0.320	0.124
-278.457	-3.679	0.233	-0.162
-277.443	-200.000	0.021	0.133
-276.428	114.554	0.152	0.185
-275.413	-67.732	0.129	0.051
-274.399	-200.000	-0.030	-0.418
-273.384	75.724	-0.089	-0.094
-272.370	-200.000	0.061	0.313
-271.355	-20.811	-0.197	-0.121
-270.340	800.000	-0.104	0.289
-269.326	-150.051	-0.211	-0.016
-268.311	-16.779	-0.141	-0.089
-267.297	-53.042	-0.089	-0.041
-266.282	46.110	-0.036	0.033
-265.267	-200.000	-0.031	0.348
-264.253	108.606	0.148	-0.177
-263.238	151.413	0.055	-0.074
-262.224	-78.461	0.152	-0.052
-261.209	-190.363	-0.390	-0.004
-260.195	800.000	0.090	0.341
-259.180	-190.227	-0.077	-0.001
-258.165	691.793	-0.037	0.097
-257.151	-99.580	0.179	0.045
-256.136	-59.065	-0.165	-0.071
-255.122	-10.930	0.391	-0.259
-254.107	-200.000	-0.003	-0.277
-253.092	-200.000	0.005	0.319
-252.078	-158.390	-0.182	0.011
-251.063	-122.197	-0.157	-0.026
-250.049	-43.304	0.219	0.111
-249.034	294.665	0.044	0.081
-248.019	132.184	0.158	0.203
-247.005	800.000	-0.087	0.378
-245.990	447.769	0.025	0.055
-244.976	70.953	0.176	0.182
-243.961	-116.634	-0.213	-0.039
-242.946	-120.066	-0.343	0.059
-241.932	-200.000	-0.048	-0.436
-240.917	31.388	-0.117	-0.101
-239.903	90.277	0.051	0.057
-238.888	191.457	-0.109	0.164
-237.873	-103.138	-0.165	-0.039
-236.859	209.798	0.121	-0.190
-235.844	774.144	0.077	-0.209
-234.830	241.025	-0.047	0.079
-233.815	-28.528	-0.147	0.085
-232.800	-130.220	-0.351	0.048
-231.786	-22.369	0.274	0.166
-230.771	800.000	0.024	-0.082
-229.757	-200.000	0.035	-0.301
-228.742	-72.001	-0.187	0.070
-227.727	15.163	-0.247	0.194
-226.713	111.310	-0.055	0.066
-225.698	-200.000	0.007	-0.148
-224.684	-146.366	0.127	-0.011
-223.669	-109.071	0.313	-0.067
-222.655	-88.682	-0.137	0.041
-221.640	473.512	0.038	0.086
-220.625	16.037	0.195	0.154
-219.611	-10.100	-0.269	-0.179
-218.596	453.557	-0.104	-0.231
-217.582	-11.015	0.157	-0.103
-216.567	-84.935	-0.251	0.079
-215.552	-4.041	0.298	0.206
-214.538	-200.000	0.014	-0.066
-213.523	338.454	0.074	-0.144
-212.509	-110.631	0.233	0.048
-211.494	-4.374	-0.100	-0.069
-210.479	-6.727	0.296	-0.201
-209.465	125.781	0.208	0.262
-208.450	247.173	-0.195	0.329
-207.436	181.551	0.180	-0.265
-206.421	-5.295	0.189	0.130
-205.406	-200.000	-0.011	-0.121
-204.392	-83.400	-0.376	0.120
-203.377	-200.000	-0.059	0.360
-202.363	43.343	0.206	0.188
-201.348	-2.493	0.211	-0.148
-200.333	204.521	0.043	-0.067
-199.319	90.496	-0.197	-0.220
-198.304	1.026	0.140	0.100
-197.290	632.472	0.063	-0.159
-196.275	-147.006	0.351	0.030
-195.260	-101.815	0.269	0.065
-194.246	85.827	0.093	-0.103
-193.231	153.899	-0.044	0.060
-192.217	224.507	-0.053	-0.086
-191.202	-200.000	0.046	-0.243
-190.187	-194.341	0.088	-0.001
-189.173	104.308	0.198	0.233
-188.158	70.486	0.135	0.139
-187.144	39.994	-0.272	0.244
-186.129	-162.530	-0.129	-0.006
-185.114	-200.000	-0.010	0.190
-184.100	-200.000	-0.002	0.459
-183.085	230.381	0.080	-0.131
-182.071	95.566	-0.206	-0.234
-181.056	-119.315	0.088	-0.015
-180.042	252.691	-0.080	0.136
-179.027	-63.847	-0.114	0.046
-178.012	154.699	0.106	-0.145
-176.998	-148.838	-0.088	-0.007
-175.983	684.685	0.134	0.349
-174.969	740.966	-0.034	-0.090
-173.954	320.443	0.080	-0.151
-172.939	-168.920	0.231	0.009
-171.925	274.134	-0.233	0.411
-170.910	-200.000	-0.034	0.169
-169.896	150.123	0.281	-0.380
-168.881	800.000	0.092	-0.328
-167.866	800.000	0.052	-0.188
-166.852	452.288	0.106	-0.234
-165.837	800.000	0.037	-0.130
-164.823	74.775	0.012	0.012
-163.808	449.351	0.044	0.097
-162.793	285.093	0.048	-0.086
-161.779	-90.586	0.187	0.054
-160.764	128.908	0.104	0.133
-159.750	-72.468	0.185	0.068
-158.735	-111.587	-0.171	-0.035
-157.720	329.792	0.109	0.209
-156.706	-29.590	0.170	0.097
-155.691	-118.306	-0.285	0.051
-154.677	-18.331	-0.233	-0.145
-153.662	14.645	-0.127	-0.099
-152.647	-143.032	0.344	0.033
-151.633	-156.877	-0.283	-0.017
-150.618	-122.202	0.084	-0.014
-149.604	798.429	0.073	0.200
-148.589	-200.000	-0.017	-0.227
-147.574	383.155	0.120	-0.246
-146.560	200.251	-0.210	0.321
-145.545	371.783	-0.166	0.336
-144.531	-200.000	0.022	0.175
-143.516	-134.692	0.104	0.013
-142.502	-147.425	0.452	-0.038
-141.487	800.000	0.085	-0.290
-140.472	-97.524	-0.100	-0.026
-139.458	800.000	0.123	0.347
-138.443	800.000	-0.080	0.340
-137.429	-126.535	0.368	-0.054
-136.414	-200.000	0.050	0.222
-135.399	800.000	-0.016	-0.071
-134.385	-33.270	-0.165	0.091
-133.370	-144.910	-0.203	-0.019
-132.356	800.000	0.110	0.384
-131.341	-200.000	0.026	0.224
-130.326	93.670	-0.376	-0.424
-129.312	-200.000	0.014	-0.133
-128.297	800.000	-0.087	-0.331
-127.283	518.747	-0.067	0.157
-126.268	-200.000	0.037	-0.303
-125.253	-29.558	0.337	0.192
-124.239	-173.202	0.102	-0.003
-123.224	-200.000	0.010	0.076
-122.210	605.967	0.062	-0.153
-121.195	-111.410	0.407	-0.083
