DTS Sentinel unit serial number:	SN413079Multiplexer serial number:	ORYXHardware model number:	OX4-SRSoftware version number:	ORYX F/W v4.00 Oryx Data Collector v3.7.2.0data status	okinstallation	princeton_trtdifferential loss correction	single-endedforward channel	channel 2reverse channel	N/Adate	2019/09/10time	19:37:10forward acquisition time	60.00reverse acquisition time	0.00gamma	496.2192k internal	0.2326k external	0.2326temperature offset calibration	0.9942default loss term (dB/km)	0.3790temperature slope calibration	1.0000multiplexer offset coefficient	1.0000multiplexer slope coefficient	1.0000fibre end	0.00T internal ref (°C)	33.25T ext. ref 1 (°C)	-0.37T ext. ref 2 (°C)	26.08length (m)	temperature (°C)	Stokes	anti-Stokes-747.200	132.289	-0.202	-0.263
-746.185	800.000	0.052	0.181
-745.171	171.332	0.080	0.115
-744.156	68.156	-0.123	0.127
-743.142	-37.799	-0.246	0.132
-742.127	10.922	0.136	-0.104
-741.112	-200.000	-0.041	-0.229
-740.098	106.155	0.048	0.057
-739.083	38.831	-0.152	0.137
-738.069	-15.537	-0.129	-0.083
-737.054	-56.792	0.229	-0.102
-736.039	-157.775	-0.093	0.006
-735.025	-19.870	0.133	-0.083
-734.010	23.651	0.121	0.101
-732.996	-13.188	-0.306	-0.200
-731.981	-200.000	-0.059	-0.260
-730.966	47.537	0.304	0.286
-729.952	-123.684	-0.214	0.034
-728.937	800.000	0.058	0.187
-727.923	115.294	0.212	0.262
-726.908	-200.000	0.048	0.274
-725.894	800.000	-0.072	0.266
-724.879	-53.484	-0.393	-0.181
-723.864	800.000	-0.026	0.087
-722.850	187.407	0.052	0.078
-721.835	101.425	-0.187	-0.219
-720.821	-111.549	0.291	-0.060
-719.806	-80.354	0.224	-0.075
-718.791	-200.000	-0.053	-0.233
-717.777	800.000	0.069	0.192
-716.762	69.699	0.231	-0.240
-715.748	-200.000	-0.023	-0.283
-714.733	-132.698	0.244	0.031
-713.718	800.000	0.036	-0.108
-712.704	151.874	-0.055	-0.076
-711.689	117.325	0.098	0.121
-710.675	24.100	0.045	-0.038
-709.660	505.971	-0.081	0.190
-708.645	-200.000	0.003	-0.261
-707.631	118.988	0.145	-0.180
-706.616	-60.809	0.130	0.055
-705.602	-63.586	-0.211	-0.087
-704.587	-200.000	0.020	-0.120
-703.572	-55.842	0.226	0.102
-702.558	-45.768	0.198	-0.098
-701.543	-200.000	0.015	-0.096
-700.529	-138.894	-0.465	0.051
-699.514	-200.000	0.026	-0.277
-698.499	227.995	0.125	-0.206
-697.485	800.000	-0.051	0.145
-696.470	-39.848	0.183	-0.096
-695.456	-200.000	-0.000	-0.202
-694.441	-29.070	0.116	-0.067
-693.426	-81.779	0.157	0.052
-692.412	415.149	-0.100	-0.214
-691.397	-3.520	0.215	-0.150
-690.383	0.788	0.354	0.255
-689.368	800.000	-0.056	0.195
-688.354	-56.061	-0.101	-0.045
-687.339	479.884	-0.105	0.240
-686.324	118.115	-0.158	0.196
-685.310	-200.000	-0.070	-0.334
-684.295	82.867	0.097	-0.106
-683.281	-10.312	-0.031	0.021
-682.266	-89.992	0.035	-0.010
-681.251	-200.000	-0.003	-0.279
-680.237	153.468	0.013	-0.018
-679.222	13.009	-0.104	-0.081
-678.208	-200.000	-0.001	-0.010
-677.193	-43.434	-0.229	0.116
-676.178	-200.000	-0.008	-0.094
-675.164	-15.107	-0.323	-0.208
-674.149	-52.920	0.179	-0.083
-673.135	182.454	-0.037	0.056
-672.120	190.792	-0.058	-0.088
-671.105	-154.502	-0.043	-0.003
-670.091	-200.000	-0.019	-0.171
-669.076	130.523	0.067	-0.087
-668.062	-50.809	0.085	0.040
-667.047	40.616	-0.196	-0.178
-666.032	-177.819	-0.227	0.005
-665.018	-99.166	-0.288	0.073
-664.003	-65.359	0.065	0.026
-662.989	-79.583	-0.362	0.123
-661.974	-111.996	-0.270	-0.055
-660.959	710.105	0.068	0.182
-659.945	-48.077	-0.531	-0.258
-658.930	15.346	0.154	-0.121
-657.916	-200.000	-0.044	-0.327
-656.901	-88.942	-0.109	-0.032
-655.886	165.601	0.052	0.074
-654.872	-89.294	0.204	0.060
-653.857	-200.000	0.051	0.316
-652.843	-73.488	-0.283	-0.104
-651.828	25.082	0.155	-0.129
-650.814	800.000	0.100	-0.350
-649.799	401.875	0.081	-0.170
-648.784	-187.670	-0.062	0.001
-647.770	-200.000	-0.026	-0.160
-646.755	-200.000	0.006	-0.299
-645.741	800.000	0.148	0.443
-644.726	-200.000	-0.015	-0.091
-643.711	-61.461	0.119	0.050
-642.697	-29.334	-0.049	0.028
-641.682	800.000	0.048	-0.150
-640.668	-104.313	-0.503	-0.117
-639.653	800.000	0.063	-0.222
-638.638	2.799	-0.118	0.086
-637.624	-125.312	-0.164	-0.025
-636.609	800.000	-0.043	-0.135
-635.595	-46.798	0.158	-0.078
-634.580	-113.221	-0.243	0.048
-633.565	-142.692	-0.080	-0.008
-632.551	800.000	-0.033	-0.140
-631.536	114.618	0.116	-0.143
-630.522	385.791	-0.114	-0.236
-629.507	363.989	-0.150	-0.303
-628.492	-200.000	0.001	-0.227
-627.478	288.889	-0.167	-0.304
-626.463	800.000	-0.036	0.108
-625.449	-172.406	-0.199	-0.006
-624.434	-200.000	0.015	-0.166
-623.419	586.990	-0.135	-0.334
-622.405	800.000	0.048	-0.145
-621.390	-53.809	-0.140	0.064
-620.376	64.399	0.081	0.081
-619.361	-200.000	-0.022	-0.219
-618.346	800.000	-0.071	-0.280
-617.332	-200.000	0.036	-0.192
-616.317	197.383	0.230	0.353
-615.303	800.000	0.041	-0.160
-614.288	-29.668	0.115	0.066
-613.273	107.640	0.223	0.267
-612.259	-162.224	-0.138	0.007
-611.244	-200.000	-0.022	0.264
-610.230	-200.000	-0.070	-0.335
-609.215	-200.000	-0.022	-0.206
-608.201	415.414	-0.154	-0.329
-607.186	800.000	-0.068	0.191
-606.171	-200.000	-0.016	0.172
-605.157	-110.993	-0.132	-0.027
-604.142	-18.861	0.188	-0.117
-603.128	721.798	0.206	0.551
-602.113	-120.646	-0.258	-0.044
-601.098	-144.815	-0.276	0.025
-600.084	4.819	-0.150	0.111
-599.069	26.177	-0.058	0.049
-598.055	186.063	-0.100	0.149
-597.040	-65.809	0.343	-0.138
-596.025	-25.155	0.320	0.190
-595.011	131.037	-0.136	0.175
-593.996	491.147	0.071	0.163
-592.982	-101.143	0.210	0.052
-591.967	-18.379	0.069	-0.044
-590.952	800.000	0.054	-0.193
-589.938	152.811	-0.070	0.096
-588.923	-110.847	0.269	0.056
-587.909	99.218	-0.207	0.239
-586.894	213.414	-0.323	-0.512
-585.879	-22.428	0.275	0.167
-584.865	15.040	-0.067	0.052
-583.850	-45.885	0.304	-0.150
-582.836	384.075	-0.047	-0.098
-581.821	800.000	-0.026	-0.097
-580.806	-116.309	-0.215	0.040
-579.792	36.344	0.029	-0.026
-578.777	-200.000	0.002	0.067
-577.763	-134.973	0.366	0.044
-576.748	70.596	0.060	-0.062
-575.733	94.142	-0.190	0.217
-574.719	-176.850	0.356	-0.009
-573.704	-51.847	0.225	0.105
-572.690	-162.609	-0.358	0.018
-571.675	55.253	0.275	-0.267
-570.661	-200.000	0.011	0.125
-569.646	-42.489	-0.170	-0.087
-568.631	-94.327	0.121	-0.033
-567.617	-29.919	0.190	0.108
-566.602	-56.469	-0.219	-0.097
-565.588	-91.292	-0.037	0.011
-564.573	-88.664	0.111	0.033
-563.558	-200.000	-0.016	-0.074
-562.544	33.272	-0.289	-0.252
-561.529	55.150	0.143	-0.139
-560.515	34.873	0.198	-0.173
-559.500	800.000	-0.040	0.148
-558.485	485.705	0.098	0.223
-557.471	-21.560	-0.145	-0.088
-556.456	-78.640	-0.118	-0.040
-555.442	-40.411	-0.269	-0.140
-554.427	800.000	-0.052	0.199
-553.412	-4.954	-0.113	0.078
-552.398	-200.000	0.008	-0.181
-551.383	-200.000	0.006	-0.438
-550.369	95.614	-0.193	0.221
-549.354	-177.050	-0.098	0.002
-548.339	800.000	0.093	0.284
-547.325	41.315	0.195	-0.177
-546.310	800.000	0.080	0.223
-545.296	-200.000	0.002	-0.057
-544.281	-43.590	-0.275	-0.139
-543.266	-106.215	0.387	0.087
-542.252	800.000	-0.048	0.136
-541.237	450.091	0.048	0.107
-540.223	-200.000	-0.029	0.326
-539.208	5.290	0.237	-0.175
-538.193	155.449	0.062	-0.085
-537.179	800.000	-0.105	-0.298
-536.164	-200.000	0.072	-0.328
-535.150	232.992	-0.103	0.169
-534.135	187.864	0.059	-0.089
-533.121	-200.000	0.013	-0.091
-532.106	290.111	0.048	0.087
-531.091	579.535	0.115	0.283
-530.077	-50.285	-0.213	-0.101
-529.062	262.963	0.076	-0.132
-528.048	-200.000	-0.002	-0.325
-527.033	259.931	0.101	-0.174
-526.018	-100.915	0.212	-0.052
-525.004	69.149	0.185	0.190
-523.989	-33.749	-0.296	-0.163
-522.975	248.174	-0.158	-0.267
-521.960	44.132	0.156	0.143
-520.945	-200.000	0.044	-0.303
-519.931	-77.602	-0.050	-0.017
-518.916	800.000	0.086	-0.255
-517.902	52.714	0.097	0.093
-516.887	7.561	0.089	0.067
-515.872	-18.246	0.329	-0.206
-514.858	13.938	-0.291	-0.226
-513.843	-200.000	0.023	-0.452
-512.829	-62.197	0.084	-0.035
-511.814	423.341	-0.060	0.128
-510.799	-145.120	-0.254	0.023
-509.785	303.531	-0.062	0.114
-508.770	143.956	-0.115	-0.154
-507.756	11.191	0.342	0.261
-506.741	492.733	-0.094	-0.216
-505.726	800.000	0.118	0.445
-504.712	200.025	-0.114	-0.175
-503.697	290.835	0.062	0.113
-502.683	800.000	0.060	0.182
-501.668	-131.983	0.211	0.027
-500.653	-159.439	-0.193	0.011
-499.639	-200.000	0.022	-0.155
-498.624	38.820	-0.165	-0.147
-497.610	800.000	0.124	0.375
-496.595	-200.000	0.057	0.364
-495.581	25.813	0.120	0.100
-494.566	800.000	0.138	0.411
-493.551	82.734	0.278	0.301
-492.537	-39.152	-0.236	-0.124
-491.522	-30.019	-0.118	0.067
-490.508	-200.000	0.011	-0.135
-489.493	124.977	-0.113	-0.143
-488.478	339.149	-0.081	0.157
-487.464	163.962	-0.163	0.230
-486.449	463.507	-0.075	-0.167
-485.435	-200.000	-0.011	0.068
-484.420	-122.558	0.280	0.045
-483.405	800.000	-0.133	-0.474
-482.391	44.612	0.164	0.150
-481.376	-200.000	-0.038	-0.169
-480.362	126.111	-0.199	-0.251
-479.347	-200.000	0.014	0.097
-478.332	-200.000	-0.048	0.250
-477.318	290.346	0.042	-0.077
-476.303	195.722	0.099	0.150
-475.289	-67.140	-0.136	-0.054
-474.274	-106.251	-0.468	-0.105
-473.259	-80.091	0.356	0.119
-472.245	-200.000	0.017	0.178
-471.230	-6.634	0.174	0.118
-470.216	25.802	-0.126	0.105
-469.201	89.251	0.189	-0.210
-468.186	-119.481	-0.190	-0.033
-467.172	-200.000	-0.001	0.197
-466.157	-200.000	-0.050	-0.338
-465.143	-40.073	0.199	-0.103
-464.128	-82.753	0.254	0.082
-463.113	-9.640	0.272	-0.181
-462.099	-114.998	0.251	0.048
-461.084	-200.000	-0.023	-0.130
-460.070	-47.490	-0.197	0.096
-459.055	-24.324	-0.104	0.062
-458.040	-200.000	-0.055	0.260
-457.026	220.663	-0.067	-0.108
-456.011	-169.119	0.382	0.014
-454.997	-66.150	-0.027	0.011
-453.982	-17.811	0.206	0.129
-452.968	-1.363	0.099	0.070
-451.953	-62.498	-0.356	-0.148
-450.938	-200.000	0.054	0.238
-449.924	-11.350	-0.205	0.135
-448.909	17.481	0.184	-0.145
-447.895	-0.230	-0.306	0.217
-446.880	444.419	0.078	0.170
-445.865	-200.000	0.041	-0.190
-444.851	232.227	-0.136	0.222
-443.836	-200.000	-0.013	-0.379
-442.822	-97.458	-0.151	0.039
-441.807	-200.000	0.005	0.029
-440.792	222.731	-0.137	-0.221
-439.778	-200.000	0.021	0.161
-438.763	-200.000	-0.004	-0.161
-437.749	-200.000	0.063	0.316
-436.734	-200.000	0.005	-0.031
-435.719	-68.261	-0.190	-0.073
-434.705	46.364	-0.208	-0.192
-433.690	-1.777	0.246	0.172
-432.676	89.215	-0.113	-0.126
-431.661	1.924	-0.069	-0.049
-430.646	35.469	-0.171	0.149
-429.632	-200.000	-0.002	-0.117
-428.617	206.147	0.137	0.212
-427.603	305.796	-0.047	0.087
-426.588	43.733	0.195	-0.178
-425.573	115.537	-0.240	0.292
-424.559	22.194	0.285	-0.231
-423.544	209.729	0.054	0.084
-422.530	-58.095	-0.085	0.037
-421.515	170.950	0.074	-0.106
-420.500	-77.193	-0.227	-0.079
-419.486	-131.840	0.231	-0.030
-418.471	319.801	-0.099	0.187
-417.457	800.000	0.042	-0.148
-416.442	31.184	0.109	0.093
-415.428	11.738	0.225	-0.172
-414.413	-200.000	-0.034	-0.222
-413.398	15.740	0.303	-0.237
-412.384	-19.917	-0.135	0.083
-411.369	-128.063	0.132	-0.019
-410.355	206.708	-0.054	0.083
-409.340	-44.213	-0.164	-0.082
-408.325	-200.000	-0.037	-0.216
-407.311	-65.263	-0.191	0.077
-406.296	79.862	-0.082	0.088
-405.282	78.216	0.219	0.233
-404.267	800.000	-0.041	0.116
-403.252	-115.031	-0.339	0.064
-402.238	666.972	0.030	-0.078
-401.223	157.700	-0.147	0.202
-400.209	-169.579	-0.254	-0.009
-399.194	800.000	0.054	0.178
-398.179	762.832	0.075	0.202
-397.165	-71.565	-0.190	-0.071
-396.150	-32.744	0.142	0.078
-395.136	-179.614	0.230	0.005
-394.121	-200.000	0.022	0.161
-393.106	-200.000	-0.037	0.328
-392.092	-0.580	0.141	0.099
-391.077	-63.824	0.155	0.063
-390.063	-200.000	-0.010	-0.148
-389.048	79.375	0.045	-0.048
-388.033	-54.123	-0.267	0.121
-387.019	-200.000	-0.044	0.278
-386.004	4.705	-0.127	-0.093
-384.990	-165.816	-0.147	0.006
-383.975	800.000	0.049	-0.169
-382.960	-92.229	0.321	-0.090
-381.946	-200.000	-0.032	-0.164
-380.931	800.000	-0.109	-0.447
-379.917	445.469	0.143	0.312
-378.902	-96.540	0.263	0.069
-377.888	578.612	-0.052	-0.126
-376.873	-114.540	0.202	-0.038
-375.858	83.846	-0.079	0.086
-374.844	-55.077	-0.166	0.074
-373.829	592.868	-0.205	-0.504
-372.815	-200.000	0.060	0.426
-371.800	114.569	-0.092	0.112
-370.785	276.655	-0.106	0.187
-369.771	203.559	0.251	0.386
-368.756	91.480	-0.112	0.125
-367.742	-86.704	-0.279	0.085
-366.727	90.039	0.213	0.237
-365.712	182.739	0.160	-0.235
-364.698	19.956	0.154	-0.124
-363.683	-135.595	0.206	-0.024
-362.669	-55.942	0.096	-0.043
-361.654	-200.000	0.077	-0.403
-360.639	69.966	0.047	-0.049
-359.625	550.424	-0.107	-0.254
-358.610	-200.000	-0.066	-0.292
-357.596	800.000	0.049	0.213
-356.581	-157.349	-0.105	-0.006
-355.566	-54.368	-0.128	0.058
-354.552	-200.000	-0.033	-0.298
-353.537	55.599	0.063	0.061
-352.523	-200.000	0.016	-0.152
-351.508	-149.696	-0.250	-0.020
-350.493	-113.678	-0.104	0.020
-349.479	57.606	0.321	-0.311
-348.464	31.987	0.354	0.303
-347.450	-200.000	0.012	0.104
-346.435	-63.557	-0.163	0.066
-345.420	248.225	-0.306	-0.514
-344.406	29.046	-0.073	0.062
-343.391	571.255	-0.105	0.253
-342.377	-200.000	0.000	0.262
-341.362	-132.533	-0.252	-0.032
-340.348	-200.000	-0.027	0.422
-339.333	-86.313	-0.067	-0.021
-338.318	-52.772	-0.054	-0.025
-337.304	58.862	-0.305	-0.298
-336.289	-45.248	0.015	0.007
-335.275	-70.732	-0.299	0.112
-334.260	-200.000	0.007	0.365
-333.245	-200.000	0.035	0.308
-332.231	27.246	-0.196	-0.163
-331.216	-84.757	0.130	-0.040
-330.202	172.732	0.067	0.096
-329.187	-105.327	-0.194	0.044
-328.172	-200.000	-0.085	0.371
-327.158	-83.821	-0.045	0.014
-326.143	-200.000	-0.009	0.251
-325.129	29.846	-0.123	0.104
-324.114	303.742	0.246	-0.452
-323.099	795.740	-0.020	0.053
-322.085	-107.904	-0.257	0.056
-321.070	147.834	0.100	0.133
-320.056	-200.000	0.000	-0.048
-319.041	-200.000	-0.009	-0.245
-318.026	-48.407	0.229	-0.109
-317.012	171.405	-0.244	0.348
-315.997	800.000	-0.042	0.148
-314.983	800.000	0.066	-0.205
-313.968	-7.515	-0.129	0.087
-312.953	92.152	-0.074	-0.082
-311.939	-74.541	0.253	0.090
-310.924	107.619	-0.144	0.170
-309.910	-145.509	-0.089	-0.008
-308.895	10.950	-0.186	0.141
-307.880	800.000	0.016	-0.058
-306.866	-10.970	0.207	-0.136
-305.851	140.514	0.157	-0.206
-304.837	-121.238	-0.204	-0.034
-303.822	129.558	-0.126	-0.159
-302.807	-200.000	0.042	0.305
-301.793	-36.457	0.144	-0.077
-300.778	47.436	0.180	-0.166
-299.764	52.441	0.110	0.104
-298.749	342.637	-0.058	-0.113
-297.735	80.214	0.219	0.234
-296.720	800.000	-0.046	-0.159
-295.705	322.518	0.098	-0.186
-294.691	-72.544	-0.509	-0.186
-293.676	69.462	0.205	-0.209
-292.662	200.298	0.167	-0.254
-291.647	-200.000	0.055	-0.319
-290.632	-1.579	0.130	0.091
-289.618	-12.526	-0.183	-0.118
-288.603	624.045	-0.117	0.291
-287.589	702.708	0.098	0.256
-286.574	-22.775	-0.325	-0.195
-285.559	-200.000	0.015	0.170
-284.545	-44.655	0.073	0.036
-283.530	-200.000	-0.039	0.223
-282.516	401.617	0.097	0.202
-281.501	784.506	-0.093	0.251
-280.486	-66.737	0.127	-0.050
-279.472	-75.008	-0.546	-0.194
-278.457	81.150	0.270	-0.289
-277.443	-63.496	0.264	0.107
-276.428	-93.035	-0.345	-0.095
-275.413	175.464	-0.052	0.075
-274.399	752.515	0.012	-0.031
-273.384	-77.608	0.174	-0.060
-272.370	-40.373	-0.163	0.084
-271.355	27.744	0.332	-0.277
-270.340	800.000	0.047	-0.153
-269.326	-3.871	-0.151	-0.104
-268.311	148.666	-0.199	-0.266
-267.297	74.357	0.100	0.104
-266.282	-74.208	0.244	0.087
-265.267	800.000	0.047	-0.139
-264.253	40.451	0.183	-0.163
-263.238	-110.614	-0.197	-0.040
-262.224	277.364	-0.037	0.066
-261.209	-39.384	0.475	-0.247
-260.195	232.180	0.100	-0.162
-259.180	-18.429	-0.223	0.138
-258.165	-200.000	-0.013	-0.109
-257.151	-200.000	0.041	-0.196
-256.136	-200.000	0.010	-0.126
-255.122	187.241	-0.260	-0.384
-254.107	800.000	-0.028	-0.115
-253.092	800.000	-0.021	0.067
-252.078	800.000	-0.107	0.347
-251.063	-200.000	-0.036	0.268
-250.049	66.698	-0.162	-0.163
-249.034	5.254	0.181	-0.132
-248.019	-117.991	0.312	-0.055
-247.005	-200.000	-0.070	-0.346
-245.990	-74.299	0.281	0.101
-244.976	694.018	-0.159	0.414
-243.961	184.996	-0.145	0.213
-242.946	-43.624	-0.217	0.108
-241.932	-175.082	0.021	-0.001
-240.917	1.535	-0.235	-0.167
-239.903	-89.024	0.463	0.136
-238.888	-200.000	-0.065	-0.568
-237.873	339.157	0.070	0.134
-236.859	-120.296	0.073	0.012
-235.844	497.366	-0.083	0.188
-234.830	158.013	0.183	-0.251
-233.815	9.105	0.159	-0.119
-232.800	-200.000	0.045	-0.301
-231.786	-200.000	-0.024	-0.242
-230.771	-107.934	-0.165	0.036
-229.757	414.980	0.099	0.208
-228.742	695.908	-0.075	0.194
-227.727	800.000	0.085	0.237
-226.713	-200.000	0.000	0.013
-225.698	0.221	0.084	-0.059
-224.684	68.961	-0.106	0.108
-223.669	-53.922	-0.283	0.127
-222.655	-34.410	0.240	-0.130
-221.640	31.871	-0.143	0.122
-220.625	-200.000	-0.051	0.309
-219.611	-9.854	-0.100	0.066
-218.596	-149.132	-0.096	0.008
-217.582	-200.000	0.068	0.362
-216.567	450.626	0.050	0.110
-215.552	-111.723	-0.101	0.020
-214.538	-56.144	0.305	-0.134
-213.523	-77.607	0.061	0.021
-212.509	92.400	0.100	0.112
-211.494	27.907	0.262	0.218
-210.479	290.818	0.070	-0.126
-209.465	800.000	-0.017	-0.047
-208.450	-200.000	0.069	-0.344
-207.436	-52.165	0.127	-0.058
-206.421	-200.000	0.015	0.180
-205.406	0.317	0.111	0.078
-204.392	-49.583	-0.091	0.043
-203.377	-21.640	0.430	0.259
-202.363	-200.000	0.017	0.439
-201.348	52.349	-0.112	0.105
-200.333	293.807	-0.063	-0.114
-199.319	-119.479	-0.249	0.043
-198.304	800.000	-0.107	0.294
-197.290	-17.369	-0.134	-0.083
-196.275	32.889	-0.200	-0.171
-195.260	-136.903	0.263	0.030
-194.246	-190.452	-0.103	-0.001
-193.231	-200.000	0.032	-0.391
-192.217	137.373	0.150	0.193
-191.202	540.894	0.108	0.255
-190.187	104.805	0.257	0.299
-189.173	-16.098	0.079	-0.050
-188.158	800.000	-0.056	-0.192
-187.144	-48.164	0.364	-0.173
-186.129	-110.010	-0.101	0.021
-185.114	59.926	-0.139	0.135
-184.100	71.283	0.263	-0.269
-183.085	209.745	-0.095	-0.147
-182.071	407.102	-0.018	0.038
-181.056	-30.195	0.150	0.084
-180.042	-179.361	0.221	0.005
-179.027	-100.809	-0.155	-0.038
-178.012	524.110	-0.092	-0.213
-176.998	-19.284	0.299	-0.183
-175.983	-147.055	-0.320	-0.027
-174.969	800.000	0.105	0.353
-173.954	192.096	0.085	0.127
-172.939	-88.755	-0.242	0.071
-171.925	599.642	0.181	0.443
-170.910	109.055	-0.148	0.175
-169.896	-53.694	0.223	0.101
-168.881	202.002	-0.225	0.343
-167.866	252.935	-0.156	-0.263
-166.852	325.297	0.052	0.099
-165.837	-105.263	-0.355	0.080
-164.823	31.282	0.187	-0.158
-163.808	256.345	-0.140	0.237
-162.793	797.284	0.115	-0.312
-161.779	31.167	-0.289	0.244
-160.764	585.615	-0.136	0.330
-159.750	-68.728	-0.039	-0.015
-158.735	-96.661	0.175	-0.046
-157.720	-89.392	0.280	0.081
-156.706	-200.000	0.012	0.141
-155.691	-74.571	0.138	0.049
-154.677	-38.327	-0.113	0.059
-153.662	25.223	-0.217	-0.178
-152.647	274.048	0.062	0.107
-151.633	121.936	0.076	0.093
-150.618	446.277	-0.038	0.082
-149.604	-200.000	-0.014	-0.203
-148.589	-200.000	0.056	-0.265
-147.574	-200.000	-0.023	-0.219
-146.560	-200.000	0.034	-0.189
-145.545	-181.377	0.257	0.005
-144.531	800.000	0.091	0.353
-143.516	278.188	0.118	0.207
-142.502	5.930	-0.153	0.111
-141.487	-200.000	-0.017	0.097
-140.472	505.325	-0.198	0.451
-139.458	800.000	0.092	0.293
-138.443	-89.874	-0.184	0.053
-137.429	-26.415	0.185	0.107
-136.414	-138.720	0.098	0.011
-135.399	-68.904	0.236	0.090
-134.385	-39.243	0.248	-0.128
-133.370	-84.092	-0.101	-0.032
-132.356	-200.000	0.017	0.108
-131.341	-48.057	0.232	0.111
-130.326	56.832	0.160	0.153
-129.312	198.402	0.113	-0.171
-128.297	800.000	0.063	0.229
-127.283	-7.998	-0.102	-0.068
-126.268	353.770	-0.297	0.581
-125.253	354.182	0.125	0.245
-124.239	-35.693	0.207	0.110
-123.224	23.060	0.145	0.117
-122.210	800.000	-0.053	-0.173
-121.195	590.480	-0.134	-0.324
-120.180	800.000	0.117	0.392
