DTS Sentinel unit serial number:	SN413079Multiplexer serial number:	ORYXHardware model number:	OX4-SRSoftware version number:	ORYX F/W v4.00 Oryx Data Collector v3.7.2.0data status	okinstallation	princeton_trtdifferential loss correction	single-endedforward channel	channel 2reverse channel	N/Adate	2019/09/12time	21:27:35forward acquisition time	60.00reverse acquisition time	0.00gamma	496.2192k internal	0.2328k external	0.2328temperature offset calibration	1.0166default loss term (dB/km)	0.3790temperature slope calibration	1.0000multiplexer offset coefficient	1.0000multiplexer slope coefficient	1.0000fibre end	0.00T internal ref (°C)	30.48T ext. ref 1 (°C)	3.61T ext. ref 2 (°C)	25.13length (m)	temperature (°C)	Stokes	anti-Stokes-747.200	-35.484	-0.446	-0.244
-746.185	-68.834	0.085	-0.033
-745.171	14.836	-0.171	-0.135
-744.156	126.890	-0.065	0.082
-743.142	-200.000	-0.009	-0.051
-742.127	590.710	-0.120	0.299
-741.112	-117.964	-0.252	-0.045
-740.098	-66.147	0.222	0.089
-739.083	-88.796	-0.218	-0.065
-738.069	-200.000	0.043	0.360
-737.054	166.193	-0.114	0.163
-736.039	-200.000	0.006	-0.456
-735.025	57.297	-0.113	0.111
-734.010	36.711	-0.154	0.137
-732.996	-8.838	-0.180	0.121
-731.981	28.702	-0.206	-0.175
-730.966	-200.000	-0.003	-0.191
-729.952	-54.852	-0.168	-0.076
-728.937	28.302	0.255	-0.217
-727.923	-200.000	-0.026	0.362
-726.908	-46.014	0.244	0.121
-725.894	248.714	0.168	-0.286
-724.879	47.166	-0.231	-0.216
-723.864	95.245	0.121	0.139
-722.850	34.773	-0.097	0.085
-721.835	-200.000	-0.057	-0.276
-720.821	48.356	0.135	0.127
-719.806	-105.205	-0.175	0.040
-718.791	85.847	0.066	0.073
-717.777	436.182	0.028	0.061
-716.762	391.096	0.103	0.216
-715.748	-39.934	-0.247	-0.130
-714.733	-200.000	0.016	-0.191
-713.718	381.623	0.143	-0.295
-712.704	-36.317	0.334	-0.181
-711.689	99.088	0.099	-0.115
-710.675	135.009	-0.093	0.121
-709.660	23.199	0.190	0.157
-708.645	-71.232	-0.153	0.058
-707.631	-106.301	-0.251	0.057
-706.616	800.000	0.056	-0.164
-705.602	-3.011	-0.356	0.250
-704.587	-200.000	0.027	0.320
-703.572	800.000	0.071	-0.206
-702.558	311.928	-0.116	0.220
-701.543	-83.401	-0.294	-0.095
-700.529	-83.940	-0.311	-0.099
-699.514	659.072	0.081	0.209
-698.499	-116.419	-0.336	-0.062
-697.485	9.381	-0.159	-0.121
-696.470	-126.133	0.100	0.015
-695.456	-168.753	-0.216	-0.008
-694.441	660.782	-0.107	0.278
-693.426	800.000	-0.057	0.230
-692.412	-78.886	0.437	-0.150
-691.397	530.641	-0.099	-0.235
-690.383	601.094	0.063	-0.158
-689.368	-46.857	0.418	-0.206
-688.354	457.387	-0.036	0.081
-687.339	-103.087	-0.160	-0.038
-686.324	-185.814	0.192	0.003
-685.310	-30.875	-0.223	0.127
-684.295	-87.385	0.243	-0.074
-683.281	0.301	-0.294	-0.211
-682.266	-200.000	-0.017	-0.101
-681.251	164.071	-0.233	-0.330
-680.237	800.000	0.042	-0.125
-679.222	-111.565	-0.094	0.019
-678.208	-171.328	-0.285	-0.010
-677.193	-200.000	0.030	-0.249
-676.178	24.160	0.288	-0.239
-675.164	-20.714	0.344	-0.212
-674.149	14.558	-0.188	-0.148
-673.135	279.107	0.079	-0.142
-672.120	-80.099	0.122	0.041
-671.105	-49.706	0.254	0.121
-670.091	-138.709	-0.216	-0.024
-669.076	-110.306	-0.402	0.084
-668.062	-43.353	0.258	-0.131
-667.047	-95.375	0.135	0.036
-666.032	-200.000	0.035	-0.596
-665.018	-177.935	-0.351	0.008
-664.003	28.154	-0.120	-0.102
-662.989	800.000	-0.046	-0.150
-661.974	-117.945	0.076	0.014
-660.959	174.898	0.116	-0.169
-659.945	700.753	-0.057	-0.151
-658.930	800.000	-0.091	-0.346
-657.916	-185.848	-0.232	0.003
-656.901	-119.080	-0.294	-0.052
-655.886	-122.888	0.130	-0.021
-654.872	-84.294	-0.204	-0.065
-653.857	330.628	-0.169	-0.326
-652.843	-103.202	-0.229	0.054
-651.828	319.706	0.113	-0.216
-650.814	-125.427	-0.209	0.032
-649.799	-154.435	-0.231	-0.016
-648.784	194.693	-0.154	-0.234
-647.770	366.280	-0.085	0.172
-646.755	-123.608	0.311	0.050
-645.741	101.045	-0.010	-0.012
-644.726	485.281	-0.142	0.324
-643.711	63.559	0.222	-0.224
-642.697	-39.404	0.215	0.113
-641.682	-38.662	0.060	0.032
-640.668	-113.590	0.036	0.007
-639.653	-200.000	-0.006	0.031
-638.638	-200.000	-0.012	0.061
-637.624	87.345	-0.092	-0.102
-636.609	199.356	0.197	0.302
-635.595	-89.559	0.173	0.051
-634.580	373.990	0.022	-0.044
-633.565	239.146	0.086	-0.143
-632.551	-200.000	-0.039	-0.178
-631.536	-110.666	-0.169	-0.035
-630.522	156.537	0.099	0.137
-629.507	-167.703	0.357	0.014
-628.492	78.464	0.169	-0.182
-627.478	120.227	-0.164	-0.204
-626.463	-48.623	0.186	-0.090
-625.449	-200.000	0.005	0.210
-624.434	5.891	-0.203	0.150
-623.419	-200.000	0.011	0.251
-622.405	399.183	0.093	-0.196
-621.390	-200.000	0.003	-0.042
-620.376	74.329	0.010	-0.011
-619.361	-94.990	-0.104	-0.028
-618.346	-47.355	-0.252	-0.123
-617.332	23.213	0.171	0.141
-616.317	-200.000	0.079	-0.420
-615.303	-27.253	0.166	0.097
-614.288	-200.000	-0.006	-0.239
-613.273	-87.357	0.114	0.035
-612.259	34.595	0.272	0.239
-611.244	-59.235	-0.221	0.096
-610.230	86.945	0.181	0.200
-609.215	251.637	-0.042	-0.072
-608.201	40.347	-0.410	0.370
-607.186	89.237	-0.031	-0.035
-606.171	109.514	-0.067	0.080
-605.157	-105.071	-0.217	-0.050
-604.142	800.000	0.078	-0.302
-603.128	-19.309	-0.235	-0.146
-602.113	140.744	-0.090	0.119
-601.098	-70.485	0.142	-0.054
-600.084	72.093	-0.084	0.088
-599.069	295.047	-0.125	-0.230
-598.055	775.302	0.037	-0.100
-597.040	-44.616	0.164	0.082
-596.025	-88.131	0.027	-0.008
-595.011	-90.456	0.302	0.088
-593.996	310.001	-0.138	-0.258
-592.982	-112.883	-0.064	-0.013
-591.967	262.022	-0.114	0.198
-590.952	800.000	-0.035	-0.124
-589.938	238.925	-0.076	-0.127
-588.923	-176.014	-0.316	0.008
-587.909	-31.751	-0.112	0.063
-586.894	87.302	0.273	-0.303
-585.879	-200.000	-0.031	-0.241
-584.865	-133.560	0.183	-0.023
-583.850	7.869	0.385	0.289
-582.836	-7.638	0.051	-0.034
-581.821	-200.000	-0.019	0.120
-580.806	366.743	-0.028	0.057
-579.792	47.531	0.150	-0.140
-578.777	-43.462	0.428	-0.217
-577.763	134.513	0.089	-0.115
-576.748	62.855	-0.122	-0.122
-575.733	173.456	-0.086	-0.124
-574.719	-45.547	0.111	-0.055
-573.704	112.197	-0.106	0.128
-572.690	179.628	-0.208	0.304
-571.675	800.000	0.014	-0.055
-570.661	-46.341	0.053	0.026
-569.646	-0.141	0.133	0.095
-568.631	-73.825	-0.251	0.091
-567.617	-25.513	-0.170	-0.101
-566.602	-117.093	-0.221	-0.040
-565.588	42.220	0.171	0.155
-564.573	49.714	-0.186	-0.175
-563.558	-62.086	-0.292	-0.122
-562.544	44.906	0.076	0.070
-561.529	-49.728	0.314	-0.149
-560.515	95.191	-0.109	-0.124
-559.500	-134.362	-0.208	0.026
-558.485	-89.602	-0.215	0.063
-557.471	-94.247	-0.111	-0.030
-556.456	-18.870	0.063	0.039
-555.442	-34.006	-0.053	0.029
-554.427	-69.401	-0.145	-0.056
-553.412	660.617	0.054	-0.138
-552.398	-20.721	-0.251	0.154
-551.383	-156.935	-0.330	-0.020
-550.369	23.722	0.308	-0.254
-549.354	59.024	0.270	0.265
-548.339	-94.113	0.294	-0.081
-547.325	-34.595	-0.113	-0.062
-546.310	-91.908	0.128	0.036
-545.296	-194.475	-0.209	-0.002
-544.281	-41.060	-0.029	0.015
-543.266	-64.418	-0.304	-0.124
-542.252	-6.890	-0.147	0.100
-541.237	-89.909	-0.408	-0.119
-540.223	-45.269	-0.183	-0.091
-539.208	-200.000	-0.013	-0.200
-538.193	-200.000	0.034	-0.300
-537.179	-200.000	0.004	0.039
-536.164	-24.064	-0.251	-0.150
-535.150	-35.140	-0.365	0.199
-534.135	-19.810	0.125	0.077
-533.121	-75.573	-0.416	-0.148
-532.106	17.678	0.189	0.150
-531.091	-200.000	0.024	0.147
-530.077	460.114	-0.135	-0.301
-529.062	101.898	-0.197	-0.230
-528.048	-55.545	0.198	-0.088
-527.033	-27.553	0.130	0.076
-526.018	800.000	0.092	0.392
-525.004	-78.078	0.200	0.069
-523.989	9.036	-0.140	0.106
-522.975	-200.000	0.034	-0.214
-521.960	-200.000	-0.005	0.291
-520.945	-192.834	0.356	0.003
-519.931	-104.672	0.226	0.052
-518.916	493.678	0.089	-0.205
-517.902	-200.000	-0.004	0.148
-516.887	37.301	0.169	-0.150
-515.872	53.534	-0.304	0.291
-514.858	-112.408	-0.143	0.029
-513.843	78.111	-0.250	0.267
-512.829	-163.651	0.102	-0.005
-511.814	356.787	-0.134	-0.266
-510.799	-149.133	-0.212	-0.017
-509.785	-73.133	-0.264	-0.097
-508.770	-13.818	0.119	0.077
-507.756	-56.224	-0.193	0.086
-506.741	-58.474	-0.366	-0.159
-505.726	3.226	-0.068	0.049
-504.712	61.898	0.200	-0.199
-503.697	-65.326	-0.186	-0.075
-502.683	54.898	0.181	-0.174
-501.668	176.816	0.057	-0.082
-500.653	184.714	0.250	-0.369
-499.639	581.926	-0.080	-0.195
-498.624	396.391	0.159	0.331
-497.610	50.907	-0.070	-0.066
-496.595	-40.892	0.298	0.154
-495.581	67.829	-0.246	-0.251
-494.566	258.347	0.085	0.146
-493.551	-120.125	-0.111	-0.019
-492.537	207.416	-0.234	-0.364
-491.522	361.755	0.049	-0.099
-490.508	-69.525	0.148	-0.057
-489.493	-200.000	-0.047	0.266
-488.478	800.000	0.010	-0.037
-487.464	-23.403	0.129	0.077
-486.449	-129.690	-0.205	-0.028
-485.435	-84.506	-0.197	-0.062
-484.420	18.381	-0.094	-0.075
-483.405	-200.000	0.061	-0.286
-482.391	-135.702	-0.298	0.035
-481.376	280.243	0.063	0.112
-480.362	-200.000	-0.001	0.076
-479.347	167.211	-0.309	0.438
-478.332	198.852	0.154	0.236
-477.318	-50.158	-0.544	-0.257
-476.303	413.792	0.056	-0.120
-475.289	341.060	0.136	0.264
-474.274	-95.834	-0.145	-0.039
-473.259	161.859	-0.263	-0.367
-472.245	6.291	-0.171	-0.127
-471.230	4.899	-0.080	0.059
-470.216	-24.571	-0.238	0.141
-469.201	-138.315	-0.181	0.020
-468.186	678.411	0.098	0.255
-467.172	-92.715	0.068	-0.019
-466.157	147.686	-0.064	0.086
-465.143	-103.561	-0.399	0.093
-464.128	-148.940	0.349	0.028
-463.113	-194.008	0.244	-0.002
-462.099	-61.081	-0.224	-0.094
-461.084	-107.018	0.066	-0.015
-460.070	100.887	-0.062	0.072
-459.055	426.064	-0.193	0.414
-458.040	385.812	-0.081	-0.166
-457.026	-148.197	0.183	-0.015
-456.011	433.848	0.033	-0.071
-454.997	-85.069	-0.328	0.102
-453.982	-38.567	0.121	0.064
-452.968	14.059	0.195	-0.151
-451.953	-200.000	0.038	-0.261
-450.938	27.263	0.217	-0.181
-449.924	-200.000	-0.007	-0.214
-448.909	-99.426	0.176	0.044
-447.895	800.000	-0.092	0.393
-446.880	-59.794	0.239	-0.102
-445.865	93.964	-0.127	0.143
-444.851	14.894	-0.119	-0.093
-443.836	7.799	0.191	0.143
-442.822	55.014	0.145	0.139
-441.807	-141.931	0.173	0.017
-440.792	101.227	0.037	0.043
-439.778	226.889	-0.110	0.178
-438.763	727.234	-0.023	-0.060
-437.749	49.249	-0.108	0.101
-436.734	-200.000	0.064	-0.334
-435.719	78.026	0.082	0.087
-434.705	-200.000	-0.010	-0.164
-433.690	162.791	0.077	0.108
-432.676	-110.881	0.311	-0.064
-431.661	-200.000	0.041	-0.281
-430.646	-99.132	0.398	0.100
-429.632	22.630	-0.161	0.131
-428.617	308.021	-0.036	-0.067
-427.603	800.000	-0.070	-0.244
-426.588	22.849	0.131	-0.106
-425.573	239.096	0.125	0.206
-424.559	-119.740	0.365	0.063
-423.544	-200.000	-0.001	-0.095
-422.530	596.156	-0.008	0.019
-421.515	-200.000	0.046	0.213
-420.500	799.257	-0.098	0.269
-419.486	83.554	0.116	0.126
-418.471	-19.876	0.327	-0.201
-417.457	-200.000	-0.014	-0.174
-416.442	-91.921	-0.474	0.134
-415.428	-200.000	0.025	-0.141
-414.413	-1.793	0.073	-0.051
-413.398	800.000	0.060	-0.209
-412.384	10.907	-0.273	0.207
-411.369	-200.000	-0.105	0.000
-410.355	-153.850	-0.091	-0.006
-409.340	-13.403	-0.229	-0.147
-408.325	-23.112	-0.100	0.060
-407.311	-200.000	-0.028	0.196
-406.296	-72.006	0.153	-0.057
-405.282	800.000	0.084	0.290
-404.267	-151.468	0.112	0.008
-403.252	-200.000	-0.016	-0.141
-402.238	-52.208	0.270	0.125
-401.223	195.217	-0.046	-0.070
-400.209	-200.000	0.013	-0.288
-399.194	57.630	0.285	-0.277
-398.179	-147.224	-0.317	-0.027
-397.165	-200.000	-0.024	-0.178
-396.150	562.360	-0.085	0.204
-395.136	-113.745	-0.245	-0.047
-394.121	98.072	0.126	-0.144
-393.106	242.686	-0.157	-0.262
-392.092	-200.000	0.023	0.151
-391.077	20.493	-0.021	-0.017
-390.063	-6.785	-0.095	0.064
-389.048	271.816	-0.144	-0.252
-388.033	120.378	0.082	0.101
-387.019	-40.791	0.380	0.195
-386.004	-200.000	-0.004	-0.337
-384.990	-200.000	0.010	0.160
-383.975	800.000	0.083	0.331
-382.960	245.451	0.033	0.055
-381.946	-200.000	0.014	-0.146
-380.931	661.412	-0.044	-0.113
-379.917	-157.861	-0.307	0.018
-378.902	-200.000	0.003	-0.270
-377.888	-137.005	0.274	0.031
-376.873	-99.225	-0.221	0.055
-375.858	800.000	-0.058	-0.176
-374.844	130.901	-0.083	0.105
-373.829	-167.984	-0.338	0.013
-372.815	-200.000	-0.038	0.272
-371.800	120.537	-0.050	0.061
-370.785	-50.848	0.188	-0.088
-369.771	-22.589	-0.224	-0.135
-368.756	-78.219	0.080	0.027
-367.742	257.066	0.062	0.106
-366.727	-40.326	-0.389	0.201
-365.712	592.050	0.086	0.211
-364.698	324.516	-0.106	0.201
-363.683	-200.000	0.003	-0.202
-362.669	199.234	0.073	0.111
-361.654	-28.233	0.339	0.194
-360.639	94.499	0.107	-0.120
-359.625	-105.666	-0.144	-0.032
-358.610	327.402	-0.148	0.281
-357.596	-10.740	0.239	0.157
-356.581	709.751	-0.094	-0.246
-355.566	2.246	0.159	0.114
-354.552	-200.000	-0.018	0.250
-353.537	-123.905	0.039	0.006
-352.523	259.924	0.219	0.375
-351.508	-130.790	0.150	-0.020
-350.493	104.270	-0.159	0.186
-349.479	800.000	-0.097	0.302
-348.464	489.011	0.011	0.025
-347.450	722.237	-0.026	-0.068
-346.435	168.032	0.104	-0.147
-345.420	27.252	0.273	-0.227
-344.406	-128.966	-0.364	-0.051
-343.391	-48.109	-0.054	-0.026
-342.377	800.000	0.032	-0.117
-341.362	-200.000	0.030	0.228
-340.348	-40.460	0.083	-0.043
-339.333	800.000	-0.017	0.057
-338.318	-108.539	0.134	-0.029
-337.304	22.464	0.096	-0.078
-336.289	-12.504	0.240	-0.155
-335.275	-111.244	-0.171	-0.035
-334.260	-180.907	-0.310	0.006
-333.245	800.000	-0.068	0.263
-332.231	-96.677	0.193	0.050
-331.216	-28.179	0.095	0.054
-330.202	-72.758	-0.469	-0.171
-329.187	-200.000	0.011	0.167
-328.172	-200.000	-0.025	0.254
-327.158	21.095	-0.317	0.255
-326.143	676.645	-0.028	0.072
-325.129	-108.596	0.268	0.057
-324.114	178.554	-0.177	-0.256
-323.099	-135.439	0.092	0.011
-322.085	-66.390	-0.288	-0.113
-321.070	-200.000	0.056	-0.266
-320.056	366.658	0.071	0.143
-319.041	800.000	-0.035	0.117
-318.026	-158.884	-0.293	-0.017
-317.012	-200.000	-0.010	-0.072
-315.997	-59.127	-0.307	0.131
-314.983	-52.855	-0.298	-0.136
-313.968	800.000	-0.071	-0.227
-312.953	-114.138	-0.061	-0.012
-311.939	-58.604	0.135	0.058
-310.924	-200.000	-0.035	-0.177
-309.910	163.742	0.112	-0.156
-308.895	-37.255	0.033	0.017
-307.880	-98.817	0.181	0.046
-306.866	-200.000	-0.029	-0.238
-305.851	-200.000	0.006	0.061
-304.837	-200.000	-0.001	0.087
-303.822	-120.518	0.386	-0.065
-302.807	184.471	-0.190	0.279
-301.793	-200.000	-0.003	-0.061
-300.778	-200.000	0.058	-0.255
-299.764	-200.000	0.019	-0.126
-298.749	-36.173	0.108	0.058
-297.735	-113.940	0.322	0.062
-296.720	243.469	-0.003	0.005
-295.705	800.000	-0.055	-0.227
-294.691	-51.955	0.275	-0.127
-293.676	-87.122	0.304	-0.092
-292.662	800.000	-0.173	0.477
-291.647	18.759	-0.045	-0.036
-290.632	-117.129	0.262	0.047
-289.618	472.075	-0.065	0.145
-288.603	-87.437	0.169	0.051
-287.589	-86.380	-0.180	-0.055
-286.574	-26.250	-0.028	-0.016
-285.559	-200.000	-0.026	0.185
-284.545	-30.837	0.154	-0.086
-283.530	-177.616	0.307	0.007
-282.516	800.000	0.100	0.290
-281.501	-120.370	-0.152	-0.026
-280.486	-0.600	-0.126	-0.089
-279.472	-137.550	0.174	0.019
-278.457	31.935	0.097	-0.082
-277.443	-42.111	0.330	-0.167
-276.428	-200.000	0.068	0.330
-275.413	691.399	0.073	0.189
-274.399	-68.980	0.077	-0.029
-273.384	-20.966	-0.091	-0.055
-272.370	141.307	-0.070	-0.091
-271.355	-200.000	0.052	-0.279
-270.340	-87.342	-0.190	0.057
-269.326	0.533	0.137	-0.097
-268.311	-129.563	-0.068	0.009
-267.297	-16.088	-0.190	0.119
-266.282	-200.000	0.029	-0.286
-265.267	180.951	0.057	0.083
-264.253	-200.000	-0.004	-0.064
-263.238	-200.000	0.010	-0.109
-262.224	-200.000	0.007	-0.292
-261.209	-108.577	-0.123	0.026
-260.195	800.000	0.007	0.023
-259.180	36.826	0.202	0.177
-258.165	-178.571	0.341	0.008
-257.151	37.661	0.110	-0.096
-256.136	766.494	-0.095	0.256
-255.122	-77.317	-0.114	0.039
-254.107	179.032	0.204	-0.294
-253.092	-40.228	0.200	-0.103
-252.078	-122.163	-0.207	0.033
-251.063	-102.477	0.266	0.063
-250.049	-52.509	-0.058	0.026
-249.034	100.917	0.280	0.322
-248.019	679.812	0.059	0.152
-247.005	721.496	-0.179	0.470
-245.990	-12.179	0.154	0.099
-244.976	-200.000	0.050	-0.274
-243.961	561.094	0.132	-0.315
-242.946	62.954	0.132	0.131
-241.932	42.551	-0.410	0.369
-240.917	-143.463	-0.222	0.021
-239.903	320.657	-0.245	-0.459
-238.888	-85.968	-0.154	-0.047
-237.873	-200.000	0.001	0.134
-236.859	-200.000	0.034	0.288
-235.844	-97.287	-0.401	0.103
-234.830	-200.000	-0.013	0.286
-233.815	-200.000	-0.008	-0.170
-232.800	243.890	0.050	0.084
-231.786	-135.901	-0.181	-0.021
-230.771	-200.000	0.030	-0.290
-229.757	-200.000	-0.003	-0.044
-228.742	273.549	0.067	0.117
-227.727	-92.731	-0.100	-0.028
-226.713	-200.000	-0.032	-0.285
-225.698	-59.638	0.317	0.134
-224.684	-24.251	0.296	0.174
-223.669	-74.385	0.380	0.136
-222.655	34.586	-0.458	0.395
-221.640	139.076	0.223	-0.290
-220.625	-102.225	-0.324	-0.077
-219.611	-122.118	0.252	-0.041
-218.596	41.589	0.269	-0.241
-217.582	800.000	0.054	0.187
-216.567	-200.000	-0.027	0.270
-215.552	-140.800	0.398	0.040
-214.538	-30.129	-0.198	0.111
-213.523	800.000	-0.058	-0.159
-212.509	257.658	-0.235	-0.399
-211.494	-161.162	0.423	-0.022
-210.479	607.524	-0.091	-0.224
-209.465	-59.406	0.341	0.145
-208.450	20.817	0.267	0.213
-207.436	213.216	-0.042	0.065
-206.421	-72.988	0.360	0.130
-205.406	800.000	0.013	0.048
-204.392	229.181	-0.104	-0.168
-203.377	800.000	0.151	0.519
-202.363	-200.000	0.049	-0.242
-201.348	-37.582	0.358	-0.188
-200.333	-67.057	-0.160	0.062
-199.319	-200.000	-0.157	0.000
-198.304	-10.453	0.209	-0.137
-197.290	358.982	0.142	-0.280
-196.275	-150.795	0.109	0.008
-195.260	-89.213	-0.132	0.039
-194.246	616.765	0.121	0.298
-193.231	48.775	-0.237	0.219
-192.217	560.622	0.228	-0.543
-191.202	78.436	-0.143	-0.151
-190.187	21.721	-0.053	0.043
-189.173	-200.000	0.039	-0.397
-188.158	-128.656	-0.185	-0.026
-187.144	-7.046	-0.185	0.124
-186.129	23.710	0.250	0.203
-185.114	601.360	-0.114	0.280
-184.100	-200.000	0.004	-0.083
-183.085	-86.121	-0.296	-0.090
-182.071	124.203	-0.311	0.386
-181.056	314.483	-0.057	-0.105
-180.042	-200.000	-0.026	-0.172
-179.027	72.245	0.314	-0.322
-178.012	122.459	-0.012	0.015
-176.998	-200.000	0.004	-0.272
-175.983	-200.000	0.010	-0.079
-174.969	-168.695	0.213	-0.008
-173.954	800.000	0.053	0.169
-172.939	-171.984	0.215	0.007
-171.925	800.000	-0.034	-0.110
-170.910	-200.000	-0.047	0.335
-169.896	404.776	-0.037	0.077
-168.881	176.782	-0.153	0.220
-167.866	-79.863	0.149	0.049
-166.852	68.644	-0.226	0.228
-165.837	-83.827	-0.288	0.090
-164.823	-13.580	0.088	0.056
-163.808	-200.000	-0.019	0.153
-162.793	194.846	-0.107	-0.160
-161.779	-200.000	-0.005	0.202
-160.764	-28.432	-0.205	-0.117
-159.750	-35.686	0.072	-0.039
-158.735	800.000	-0.076	-0.212
-157.720	594.274	0.060	-0.146
-156.706	-24.380	0.201	-0.118
-155.691	90.471	0.021	-0.024
-154.677	-200.000	-0.007	0.113
-153.662	14.772	0.408	0.314
-152.647	-10.669	-0.054	-0.035
-151.633	-27.053	0.186	0.107
-150.618	-51.226	-0.060	0.028
-149.604	261.329	-0.138	0.235
-148.589	-200.000	-0.073	-0.316
-147.574	-164.748	0.378	0.017
-146.560	-132.163	0.076	-0.010
-145.545	598.520	-0.151	-0.368
-144.531	209.139	0.068	0.105
-143.516	800.000	-0.025	0.091
-142.502	-131.800	0.179	-0.023
-141.487	197.613	-0.169	-0.254
-140.472	-21.776	-0.129	0.077
-139.458	-33.843	0.213	0.116
-138.443	390.749	0.068	-0.140
-137.429	-81.560	-0.100	0.032
-136.414	17.777	-0.081	-0.064
-135.399	800.000	0.014	-0.043
-134.385	0.942	-0.031	-0.022
-133.370	270.032	-0.020	-0.034
-132.356	59.391	0.113	0.109
-131.341	800.000	-0.170	-0.523
-130.326	247.050	-0.057	0.095
-129.312	8.703	-0.047	-0.035
-128.297	-200.000	0.021	-0.390
-127.283	246.085	0.102	0.169
-126.268	-68.241	-0.324	-0.124
-125.253	-117.181	-0.141	-0.025
-124.239	53.983	0.101	-0.095
-123.224	-79.211	-0.064	-0.021
-122.210	-172.893	-0.105	-0.003
