DTS Sentinel unit serial number:	SN413079Multiplexer serial number:	ORYXHardware model number:	OX4-SRSoftware version number:	ORYX F/W v4.00 Oryx Data Collector v3.7.2.0data status	okinstallation	princeton_trtdifferential loss correction	single-endedforward channel	channel 2reverse channel	N/Adate	2019/09/16time	21:35:34forward acquisition time	60.00reverse acquisition time	0.00gamma	496.2192k internal	0.2329k external	0.2329temperature offset calibration	0.9965default loss term (dB/km)	0.3790temperature slope calibration	1.0000multiplexer offset coefficient	1.0000multiplexer slope coefficient	1.0000fibre end	0.00T internal ref (°C)	31.44T ext. ref 1 (°C)	0.06T ext. ref 2 (°C)	25.60length (m)	temperature (°C)	Stokes	anti-Stokes-747.200	-200.000	-0.014	0.455
-746.185	183.780	0.194	0.289
-745.171	-9.526	0.256	-0.172
-744.156	-25.227	-0.199	0.119
-743.142	-106.335	-0.272	-0.061
-742.127	-105.510	-0.314	-0.072
-741.112	-19.305	0.145	0.091
-740.098	28.284	-0.139	-0.119
-739.083	800.000	-0.058	0.238
-738.069	146.492	-0.114	0.154
-737.054	56.733	-0.168	0.164
-736.039	-50.483	0.146	-0.069
-735.025	540.282	0.071	-0.171
-734.010	776.169	-0.125	-0.343
-732.996	744.857	0.042	0.114
-731.981	-200.000	-0.045	-0.228
-730.966	1.650	0.250	-0.181
-729.952	636.118	0.024	-0.060
-728.937	21.616	-0.150	-0.123
-727.923	-200.000	-0.004	-0.341
-726.908	142.012	-0.202	-0.270
-725.894	-106.631	-0.141	-0.031
-724.879	-169.587	0.157	-0.006
-723.864	800.000	0.069	-0.238
-722.850	-200.000	0.016	0.194
-721.835	-88.408	0.084	-0.025
-720.821	110.822	-0.134	-0.162
-719.806	-110.135	0.159	0.033
-718.791	-200.000	0.010	0.357
-717.777	-200.000	0.031	-0.204
-716.762	-146.034	-0.108	-0.010
-715.748	178.853	0.052	-0.076
-714.733	800.000	-0.041	-0.115
-713.718	55.057	-0.181	0.176
-712.704	-200.000	0.012	0.186
-711.689	64.340	-0.101	0.102
-710.675	-139.488	-0.159	0.017
-709.660	-200.000	0.002	0.017
-708.645	-188.098	-0.226	-0.003
-707.631	51.072	0.076	0.073
-706.616	-49.136	-0.269	0.129
-705.602	-166.537	-0.323	-0.014
-704.587	-140.852	-0.114	-0.012
-703.572	4.987	-0.157	-0.116
-702.558	800.000	-0.077	-0.245
-701.543	800.000	0.131	-0.470
-700.529	-37.937	-0.174	-0.093
-699.514	178.060	-0.208	-0.305
-698.499	38.754	-0.081	-0.072
-697.485	-9.023	0.154	-0.104
-696.470	-102.709	0.145	0.035
-695.456	800.000	0.043	-0.179
-694.441	89.981	-0.137	-0.154
-693.426	28.586	-0.038	-0.032
-692.412	-49.043	-0.221	-0.106
-691.397	800.000	0.052	0.153
-690.383	-200.000	-0.021	0.311
-689.368	628.161	-0.076	0.194
-688.354	-200.000	0.025	-0.277
-687.339	-200.000	-0.022	0.212
-686.324	-49.525	-0.398	0.191
-685.310	800.000	-0.079	0.294
-684.295	339.592	0.055	0.107
-683.281	-31.724	-0.152	-0.086
-682.266	-149.438	0.159	0.013
-681.251	19.888	-0.176	-0.143
-680.237	-39.428	-0.317	-0.167
-679.222	-14.119	0.174	0.113
-678.208	-145.944	-0.237	0.021
-677.193	800.000	0.070	0.199
-676.178	-36.544	-0.393	-0.212
-675.164	334.292	-0.045	0.087
-674.149	-183.906	0.204	0.003
-673.135	800.000	-0.103	-0.334
-672.120	-200.000	-0.017	-0.346
-671.105	-200.000	-0.063	0.302
-670.091	800.000	-0.091	-0.272
-669.076	-76.349	-0.230	-0.081
-668.062	381.614	0.140	0.289
-667.047	-200.000	-0.050	-0.365
-666.032	-55.887	-0.083	-0.037
-665.018	-140.794	-0.141	0.015
-664.003	128.459	0.102	0.131
-662.989	316.057	-0.065	-0.124
-661.974	-49.361	-0.155	0.074
-660.959	23.902	-0.239	0.198
-659.945	-200.000	0.030	0.221
-658.930	-200.000	-0.063	-0.347
-657.916	62.274	-0.213	0.213
-656.901	-200.000	-0.022	-0.287
-655.886	353.467	-0.149	0.297
-654.872	-78.598	-0.166	0.057
-653.857	-19.607	0.109	0.068
-652.843	-184.480	-0.270	0.004
-651.828	800.000	-0.084	-0.323
-650.814	315.708	0.113	0.214
-649.799	732.054	0.044	0.119
-648.784	-60.896	-0.399	0.169
-647.770	-71.110	-0.190	0.072
-646.755	-200.000	-0.007	0.354
-645.741	-23.326	-0.415	-0.250
-644.726	-45.183	0.223	0.111
-643.711	155.790	-0.158	-0.218
-642.697	-200.000	-0.010	-0.093
-641.682	-200.000	0.028	-0.133
-640.668	-88.297	-0.123	0.037
-639.653	-200.000	-0.066	-0.301
-638.638	-200.000	-0.036	0.348
-637.624	-84.669	-0.201	0.063
-636.609	91.742	0.314	-0.355
-635.595	-200.000	-0.001	-0.247
-634.580	-72.535	-0.124	-0.046
-633.565	-164.193	0.310	-0.014
-632.551	800.000	-0.068	0.275
-631.536	141.665	0.100	0.134
-630.522	452.818	0.004	0.009
-629.507	-106.321	0.182	0.041
-628.492	-22.992	0.048	0.029
-627.478	-169.274	-0.282	0.010
-626.463	-200.000	-0.033	-0.213
-625.449	-162.082	-0.072	0.004
-624.434	14.301	-0.129	0.101
-623.419	-200.000	-0.029	0.203
-622.405	635.918	-0.109	-0.278
-621.390	-149.278	-0.259	-0.021
-620.376	800.000	0.070	0.282
-619.361	-61.201	0.185	-0.078
-618.346	-84.569	-0.100	0.032
-617.332	-115.000	-0.251	-0.048
-616.317	-61.410	-0.331	0.140
-615.303	258.719	0.245	-0.424
-614.288	556.617	0.179	-0.432
-613.273	-72.368	0.170	-0.063
-612.259	678.812	-0.039	0.103
-611.244	-200.000	-0.004	0.039
-610.230	781.428	-0.013	0.035
-609.215	800.000	0.150	-0.496
-608.201	374.293	-0.085	-0.173
-607.186	-80.271	-0.320	0.107
-606.171	-43.221	0.061	0.031
-605.157	-125.495	-0.389	0.059
-604.142	286.550	-0.091	0.165
-603.128	-200.000	0.135	0.000
-602.113	-105.809	0.123	-0.028
-601.098	660.671	-0.026	0.066
-600.084	-22.420	-0.187	0.113
-599.069	-54.869	0.242	0.109
-598.055	-200.000	-0.004	-0.093
-597.040	-200.000	0.026	-0.174
-596.025	101.108	0.177	-0.206
-595.011	-200.000	0.032	-0.225
-593.996	-156.387	-0.304	-0.019
-592.982	-79.479	0.465	-0.157
-591.967	-48.051	-0.186	-0.090
-590.952	-200.000	0.047	0.454
-589.938	-125.618	-0.263	0.040
-588.923	675.702	0.059	-0.154
-587.909	80.158	0.239	0.258
-586.894	800.000	-0.057	0.208
-585.879	-198.925	0.063	-0.000
-584.865	-140.249	-0.319	-0.033
-583.850	13.018	-0.130	-0.101
-582.836	-74.344	-0.308	0.111
-581.821	-35.562	-0.089	-0.048
-580.806	66.458	-0.071	-0.072
-579.792	-200.000	0.014	0.064
-578.777	116.444	-0.149	-0.183
-577.763	59.969	0.119	-0.117
-576.748	-80.429	0.167	0.056
-575.733	800.000	-0.039	0.141
-574.719	60.307	0.134	-0.133
-573.704	-200.000	0.013	-0.087
-572.690	800.000	-0.037	-0.145
-571.675	-200.000	-0.007	-0.085
-570.661	35.467	-0.213	-0.187
-569.646	0.267	-0.134	-0.096
-568.631	-127.768	0.099	-0.014
-567.617	-45.895	-0.231	0.114
-566.602	463.838	-0.049	0.111
-565.588	-118.228	0.144	0.026
-564.573	-158.843	-0.254	-0.014
-563.558	-57.250	-0.079	-0.035
-562.544	-71.467	0.196	-0.073
-561.529	-200.000	-0.016	-0.380
-560.515	800.000	0.095	-0.273
-559.500	472.791	-0.103	0.231
-558.485	-23.652	0.028	0.017
-557.471	108.352	-0.123	0.147
-556.456	-182.742	-0.306	0.006
-555.442	-12.147	0.044	-0.029
-554.427	-38.691	-0.198	0.105
-553.412	-195.079	0.162	-0.001
-552.398	-163.524	0.095	0.004
-551.383	-19.358	-0.374	0.232
-550.369	800.000	-0.019	-0.060
-549.354	-85.522	0.201	-0.063
-548.339	-59.849	-0.161	-0.069
-547.325	-27.165	-0.151	0.088
-546.310	27.622	0.194	-0.164
-545.296	28.439	0.154	-0.130
-544.281	370.107	-0.207	-0.420
-543.266	346.781	0.083	-0.162
-542.252	-200.000	-0.009	-0.072
-541.237	203.042	-0.076	-0.117
-540.223	52.867	-0.217	-0.207
-539.208	-128.403	0.261	0.037
-538.193	-93.714	-0.290	-0.080
-537.179	-103.377	-0.138	0.032
-536.164	75.530	0.161	0.170
-535.150	-156.977	-0.192	-0.012
-534.135	-161.836	0.204	-0.010
-533.121	3.084	-0.184	-0.134
-532.106	-66.491	-0.555	-0.220
-531.091	-105.012	0.228	-0.052
-530.077	1.686	-0.276	-0.199
-529.062	-200.000	0.057	-0.279
-528.048	19.047	0.175	-0.140
-527.033	-133.184	0.257	-0.033
-526.018	-106.310	-0.206	0.046
-525.004	160.835	-0.069	-0.097
-523.989	-96.244	-0.397	-0.105
-522.975	-69.373	0.305	-0.117
-521.960	236.605	-0.076	0.126
-520.945	-106.175	0.250	-0.056
-519.931	800.000	-0.074	0.305
-518.916	-27.287	0.210	-0.122
-517.902	511.302	-0.014	0.034
-516.887	93.940	-0.102	0.116
-515.872	-200.000	0.007	-0.200
-514.858	-78.356	-0.121	0.041
-513.843	-26.495	0.038	0.022
-512.829	-197.211	-0.404	-0.003
-511.814	-149.357	-0.221	0.018
-510.799	471.435	0.105	-0.236
-509.785	14.850	-0.194	0.151
-508.770	800.000	-0.024	-0.089
-507.756	33.209	-0.080	-0.070
-506.741	-160.250	-0.244	0.013
-505.726	-158.252	-0.203	-0.012
-504.712	-200.000	0.008	0.135
-503.697	-200.000	0.022	-0.173
-502.683	18.233	0.075	0.060
-501.668	-109.054	0.165	-0.035
-500.653	800.000	-0.051	-0.180
-499.639	-77.340	0.207	-0.072
-498.624	-49.916	0.214	-0.101
-497.610	-200.000	0.036	0.184
-496.595	523.897	-0.094	-0.221
-495.581	157.560	-0.138	-0.190
-494.566	-123.318	0.099	-0.016
-493.551	136.987	-0.095	-0.124
-492.537	-52.486	-0.147	-0.068
-491.522	-129.698	0.258	0.035
-490.508	147.347	-0.111	-0.149
-489.493	169.449	-0.062	0.089
-488.478	117.992	-0.054	0.066
-487.464	800.000	-0.072	0.287
-486.449	-200.000	-0.003	0.014
-485.435	26.295	-0.215	0.179
-484.420	68.183	0.101	0.103
-483.405	641.140	0.037	0.094
-482.391	27.061	0.047	0.039
-481.376	-99.383	-0.141	0.035
-480.362	697.057	-0.135	0.353
-479.347	-183.601	-0.115	0.002
-478.332	-110.957	-0.160	0.033
-477.318	-141.433	-0.119	0.012
-476.303	-43.580	0.181	-0.091
-475.289	79.316	0.239	0.255
-474.274	266.831	0.089	-0.155
-473.259	-33.211	-0.107	0.059
-472.245	-140.859	-0.143	0.015
-471.230	-24.051	-0.373	0.222
-470.216	53.348	-0.129	0.123
-469.201	-200.000	0.012	0.139
-468.186	-155.488	0.142	0.009
-467.172	-99.223	0.095	0.024
-466.157	-171.552	-0.064	-0.002
-465.143	800.000	-0.071	0.242
-464.128	-56.897	0.089	-0.039
-463.113	67.793	0.056	-0.057
-462.099	-200.000	0.057	0.256
-461.084	281.167	-0.147	-0.261
-460.070	-200.000	-0.044	0.195
-459.055	345.199	-0.024	-0.047
-458.040	226.234	0.066	0.107
-457.026	-82.052	-0.039	0.013
-456.011	42.162	-0.148	-0.134
-454.997	-13.092	-0.162	0.105
-453.982	-44.967	0.166	0.082
-452.968	215.294	-0.019	-0.030
-451.953	221.119	0.045	0.072
-450.938	-51.943	0.271	-0.126
-449.924	800.000	-0.050	0.174
-448.909	186.061	-0.244	-0.361
-447.895	800.000	-0.034	0.126
-446.880	-104.039	-0.161	0.037
-445.865	-1.004	-0.143	-0.101
-444.851	111.586	0.144	0.173
-443.836	-64.103	-0.014	0.006
-442.822	312.008	0.055	-0.102
-441.807	345.791	0.164	0.322
-440.792	-200.000	-0.013	0.248
-439.778	121.824	0.100	0.124
-438.763	483.429	0.049	-0.111
-437.749	-200.000	0.017	-0.187
-436.734	-166.772	0.024	-0.001
-435.719	-74.142	0.342	-0.123
-434.705	800.000	-0.063	-0.250
-433.690	-137.498	0.395	0.044
-432.676	-200.000	0.025	0.125
-431.661	-79.973	0.041	0.014
-430.646	-38.792	-0.228	0.120
-429.632	-59.496	0.096	0.041
-428.617	-200.000	0.050	0.265
-427.603	21.141	0.118	0.095
-426.588	-0.570	0.213	0.150
-425.573	-33.592	-0.051	-0.028
-424.559	-93.781	-0.264	0.072
-423.544	-37.857	-0.290	0.154
-422.530	-118.267	0.128	-0.023
-421.515	-124.973	0.214	0.033
-420.500	242.885	0.018	0.030
-419.486	-110.880	-0.131	-0.027
-418.471	161.359	0.148	0.206
-417.457	316.388	-0.097	0.182
-416.442	800.000	0.038	-0.119
-415.428	477.644	-0.094	-0.211
-414.413	-151.924	0.083	-0.006
-413.398	356.320	0.078	0.154
-412.384	574.163	0.119	0.290
-411.369	283.692	0.006	-0.010
-410.355	-200.000	0.007	-0.095
-409.340	21.699	0.046	0.038
-408.325	-200.000	0.089	-0.430
-407.311	-171.986	0.164	0.005
-406.296	6.882	-0.066	0.049
-405.282	-200.000	-0.014	0.088
-404.267	-115.795	0.204	-0.038
-403.252	22.657	0.091	-0.074
-402.238	-120.801	-0.330	0.055
-401.223	-7.699	0.210	-0.141
-400.209	800.000	0.063	0.182
-399.194	-138.463	-0.140	-0.015
-398.179	133.436	0.078	0.101
-397.165	-82.146	0.242	0.079
-396.150	-34.352	0.084	0.046
-395.136	-175.506	-0.366	0.010
-394.121	-12.735	0.201	-0.130
-393.106	231.387	0.072	0.117
-392.092	800.000	-0.027	0.106
-391.077	-200.000	0.001	0.036
-390.063	-10.855	0.282	-0.185
-389.048	-171.630	0.309	-0.010
-388.033	-200.000	0.029	0.129
-387.019	458.987	0.090	-0.199
-386.004	-21.452	0.202	-0.122
-384.990	-60.460	-0.138	-0.058
-383.975	-34.991	0.252	0.136
-382.960	-200.000	0.050	0.276
-381.946	-200.000	-0.007	0.045
-380.931	-162.355	-0.098	0.005
-379.917	-8.799	0.147	-0.098
-378.902	-200.000	0.013	-0.391
-377.888	-115.967	0.190	0.035
-376.873	-187.782	-0.030	0.000
-375.858	661.436	-0.057	0.145
-374.844	-94.816	0.323	0.087
-373.829	-65.318	0.136	-0.054
-372.815	-145.033	-0.269	-0.024
-371.800	332.079	-0.125	0.239
-370.785	-5.867	0.078	0.053
-369.771	45.210	-0.222	-0.203
-368.756	121.623	0.128	0.159
-367.742	-66.774	0.157	-0.061
-366.727	-136.246	-0.195	-0.023
-365.712	15.062	0.216	-0.168
-364.698	-33.501	-0.146	0.080
-363.683	114.677	0.239	-0.289
-362.669	-92.397	-0.283	0.079
-361.654	568.216	-0.105	0.254
-360.639	-200.000	0.059	0.269
-359.625	-15.608	0.304	-0.193
-358.610	25.642	-0.103	0.085
-357.596	-34.882	-0.105	-0.057
-356.581	-200.000	0.038	-0.320
-355.566	-46.756	0.213	-0.104
-354.552	52.556	-0.175	0.166
-353.537	800.000	0.037	-0.106
-352.523	-200.000	0.006	-0.031
-351.508	-145.290	-0.141	0.013
-350.493	-108.361	0.160	-0.034
-349.479	19.115	0.180	0.143
-348.464	-78.637	-0.230	-0.078
-347.450	5.432	0.110	-0.080
-346.435	59.639	0.199	-0.195
-345.420	-200.000	0.004	-0.233
-344.406	27.672	0.111	-0.092
-343.391	-45.746	0.296	-0.145
-342.377	800.000	0.061	0.204
-341.362	392.466	-0.119	0.246
-340.348	-34.640	0.265	-0.144
-339.333	-135.711	0.249	0.029
-338.318	247.131	-0.135	0.226
-337.304	-115.978	0.229	0.042
-336.289	-144.629	0.105	0.010
-335.275	800.000	0.030	-0.122
-334.260	-157.484	-0.135	-0.008
-333.245	584.677	-0.158	-0.384
-332.231	185.611	-0.058	-0.085
-331.216	-49.306	0.098	-0.046
-330.202	161.713	0.223	0.310
-329.187	-191.926	0.057	-0.001
-328.172	-55.614	-0.148	0.066
-327.158	182.312	0.154	0.225
-326.143	198.277	-0.188	-0.285
-325.129	-200.000	0.082	0.385
-324.114	-52.093	0.033	0.015
-323.099	34.645	-0.221	-0.191
-322.085	-8.770	0.134	-0.089
-321.070	-11.143	-0.166	0.108
-320.056	99.764	-0.127	0.145
-319.041	-200.000	-0.007	0.191
-318.026	-200.000	0.048	0.338
-317.012	18.881	0.158	0.126
-315.997	331.512	-0.083	-0.158
-314.983	-63.920	-0.132	-0.053
-313.968	202.499	0.123	0.188
-312.953	-200.000	-0.015	0.558
-311.939	71.895	-0.062	-0.064
-310.924	-67.547	0.281	0.109
-309.910	53.229	-0.256	-0.243
-308.895	-164.717	-0.371	-0.017
-307.880	-18.738	-0.117	0.072
-306.866	800.000	-0.112	-0.334
-305.851	88.192	-0.172	-0.189
-304.837	218.154	0.072	-0.113
-303.822	-200.000	-0.057	0.332
-302.807	156.166	-0.231	0.316
-301.793	75.936	-0.059	-0.062
-300.778	-59.640	-0.403	0.171
-299.764	329.533	0.195	0.371
-298.749	56.439	0.207	0.199
-297.735	130.921	0.171	-0.217
-296.720	-200.000	0.023	0.475
-295.705	-137.942	-0.149	0.016
-294.691	-44.112	0.072	0.036
-293.676	277.046	0.042	0.074
-292.662	109.956	-0.285	0.338
-291.647	464.174	-0.101	0.223
-290.632	-200.000	-0.086	0.588
-289.618	-20.624	0.124	0.075
-288.603	-200.000	-0.001	0.129
-287.589	405.127	0.036	0.075
-286.574	-115.415	-0.090	-0.017
-285.559	800.000	0.071	0.298
-284.545	-118.282	0.168	-0.030
-283.530	-140.036	-0.330	-0.034
-282.516	139.528	-0.118	-0.153
-281.501	-94.020	0.102	0.028
-280.486	800.000	0.012	-0.032
-279.472	800.000	0.055	0.182
-278.457	-200.000	-0.043	0.294
-277.443	-34.468	-0.084	0.046
-276.428	136.263	0.095	-0.122
-275.413	-97.909	0.350	0.089
-274.399	-200.000	-0.046	-0.201
-273.384	800.000	-0.062	-0.255
-272.370	250.665	0.090	0.150
-271.355	192.837	-0.032	0.048
-270.340	800.000	-0.072	0.196
-269.326	-15.799	0.282	0.177
-268.311	-153.556	0.138	-0.009
-267.297	243.601	-0.115	0.191
-266.282	-200.000	0.072	0.331
-265.267	-200.000	-0.038	-0.284
-264.253	98.602	-0.142	0.162
-263.238	-200.000	0.008	-0.271
-262.224	62.192	0.231	0.227
-261.209	-24.161	0.396	0.234
-260.195	800.000	0.068	0.200
-259.180	-96.578	-0.146	0.038
-258.165	672.536	0.114	0.292
-257.151	800.000	0.139	-0.397
-256.136	146.386	-0.027	-0.036
-255.122	119.288	-0.195	-0.239
-254.107	32.177	0.324	-0.276
-253.092	397.408	0.078	-0.161
-252.078	-195.455	-0.474	0.003
-251.063	-141.788	0.405	0.040
-250.049	-200.000	0.012	-0.374
-249.034	-200.000	-0.039	-0.249
-248.019	800.000	-0.043	-0.129
-247.005	221.745	-0.123	-0.196
-245.990	93.460	0.327	-0.366
-244.976	-200.000	-0.049	-0.256
-243.961	383.608	-0.062	-0.126
-242.946	-9.661	-0.132	-0.087
-241.932	-200.000	-0.041	0.218
-240.917	800.000	-0.063	0.191
-239.903	-2.944	0.318	0.219
-238.888	-91.260	-0.343	0.097
-237.873	273.207	0.127	0.221
-236.859	607.924	-0.094	-0.231
-235.844	-148.996	0.196	0.016
-234.830	135.159	-0.123	0.158
-233.815	-161.081	0.328	0.017
-232.800	-7.243	0.293	-0.196
-231.786	143.914	-0.019	0.025
-230.771	-12.645	0.032	0.021
-229.757	93.568	0.172	-0.193
-228.742	238.419	-0.087	-0.143
-227.727	-66.962	0.227	-0.088
-226.713	236.002	0.143	0.234
-225.698	-93.589	-0.239	0.065
-224.684	800.000	0.078	-0.275
-223.669	-200.000	-0.004	-0.290
-222.655	-35.827	-0.192	-0.102
-221.640	539.555	-0.103	-0.241
-220.625	16.538	-0.146	0.114
-219.611	-200.000	0.022	-0.226
-218.596	-35.306	-0.144	0.078
-217.582	-113.910	0.307	-0.059
-216.567	800.000	0.067	-0.286
-215.552	294.403	0.082	0.147
-214.538	181.425	-0.021	0.030
-213.523	-26.017	0.046	0.027
-212.509	800.000	0.063	0.267
-211.494	-200.000	0.060	-0.411
-210.479	-54.156	-0.196	0.088
-209.465	24.712	-0.129	-0.105
-208.450	800.000	0.046	-0.128
-207.436	112.149	0.083	-0.098
-206.421	210.498	-0.248	-0.384
-205.406	328.335	0.053	-0.100
-204.392	152.597	-0.065	-0.087
-203.377	-83.936	0.362	0.113
-202.363	15.473	-0.266	-0.206
-201.348	800.000	-0.048	0.166
-200.333	-200.000	-0.011	0.104
-199.319	137.081	0.072	-0.093
-198.304	-17.947	-0.084	0.052
-197.290	-101.392	0.224	0.054
-196.275	-115.458	0.574	-0.107
-195.260	-105.071	-0.088	0.020
-194.246	800.000	0.042	-0.114
-193.231	32.387	-0.205	-0.175
-192.217	-131.306	0.183	0.024
-191.202	-47.623	0.203	0.097
-190.187	-15.980	0.247	-0.155
-189.173	-105.110	-0.286	0.065
-188.158	794.660	-0.104	0.282
-187.144	-100.848	0.073	-0.018
-186.129	44.124	-0.171	0.155
-185.114	-58.317	-0.127	0.054
-184.100	109.886	0.069	-0.082
-183.085	231.223	-0.034	0.055
-182.071	800.000	0.115	0.314
-181.056	-1.814	0.188	-0.130
-180.042	105.582	0.148	-0.173
-179.027	142.850	0.102	0.133
-178.012	1.299	0.407	0.288
-176.998	-200.000	0.004	0.128
-175.983	-200.000	-0.013	0.225
-174.969	-181.425	-0.233	0.004
-173.954	-200.000	0.015	-0.235
-172.939	-200.000	-0.057	-0.326
-171.925	-200.000	-0.043	0.351
-170.910	-45.888	0.215	0.105
-169.896	-200.000	-0.025	-0.148
-168.881	-200.000	0.006	0.356
-167.866	28.788	0.350	-0.292
-166.852	-23.270	-0.084	0.050
-165.837	800.000	-0.090	-0.331
-164.823	55.538	0.175	-0.167
-163.808	-200.000	-0.006	0.305
-162.793	-35.331	-0.217	-0.116
-161.779	-200.000	-0.023	-0.199
-160.764	-23.733	0.040	-0.024
-159.750	-66.072	-0.306	0.120
-158.735	-200.000	-0.063	0.298
-157.720	-51.778	0.195	0.089
-156.706	800.000	0.009	0.029
-155.691	258.560	0.075	0.128
-154.677	800.000	0.033	-0.108
-153.662	83.190	0.085	-0.091
-152.647	-84.883	-0.035	-0.011
-151.633	-200.000	-0.017	-0.325
-150.618	153.283	0.167	0.225
-149.604	468.471	-0.049	-0.108
-148.589	-86.386	-0.237	0.072
-147.574	-178.284	0.191	0.004
-146.560	-77.059	-0.385	-0.132
-145.545	800.000	0.043	0.120
-144.531	-56.822	-0.236	0.103
-143.516	-200.000	-0.007	-0.072
-142.502	80.380	0.195	-0.207
-141.487	-26.177	0.333	-0.192
-140.472	15.576	-0.041	0.031
-139.458	-200.000	-0.045	-0.387
-138.443	49.942	0.152	-0.141
-137.429	-107.239	0.081	-0.018
-136.414	1.428	0.118	-0.083
-135.399	400.838	-0.135	0.278
-134.385	-146.097	0.062	0.005
-133.370	26.952	0.086	-0.071
-132.356	-64.943	0.056	0.022
-131.341	-61.803	0.480	-0.198
-130.326	-149.622	0.213	0.017
-129.312	2.602	0.161	-0.114
-128.297	15.564	0.203	-0.157
-127.283	-58.649	-0.171	-0.073
-126.268	-71.232	-0.058	0.021
-125.253	-200.000	0.029	0.202
-124.239	-200.000	-0.049	0.276
-123.224	800.000	-0.039	-0.165
-122.210	800.000	-0.144	0.431
