DTS Sentinel unit serial number:	SN413079Multiplexer serial number:	ORYXHardware model number:	OX4-SRSoftware version number:	ORYX F/W v4.00 Oryx Data Collector v3.7.2.0data status	okinstallation	princeton_trtdifferential loss correction	single-endedforward channel	channel 2reverse channel	N/Adate	2019/09/14time	21:35:34forward acquisition time	60.00reverse acquisition time	0.00gamma	496.2192k internal	0.2323k external	0.2323temperature offset calibration	1.0074default loss term (dB/km)	0.3790temperature slope calibration	1.0000multiplexer offset coefficient	1.0000multiplexer slope coefficient	1.0000fibre end	0.00T internal ref (°C)	32.81T ext. ref 1 (°C)	4.76T ext. ref 2 (°C)	27.72length (m)	temperature (°C)	Stokes	anti-Stokes-747.200	-200.000	-0.050	-0.247
-746.185	-85.901	-0.255	-0.080
-745.171	-63.392	-0.270	-0.112
-744.156	479.116	0.142	0.326
-743.142	-62.230	0.090	-0.038
-742.127	-200.000	0.041	-0.184
-741.112	-200.000	0.008	0.087
-740.098	186.369	-0.166	0.249
-739.083	-116.377	0.229	0.043
-738.069	359.531	-0.048	0.096
-737.054	204.948	0.090	0.140
-736.039	64.185	-0.155	0.157
-735.025	166.248	0.096	0.138
-734.010	242.351	-0.222	-0.374
-732.996	-168.118	-0.371	-0.015
-731.981	-119.774	-0.277	-0.048
-730.966	-200.000	-0.037	-0.190
-729.952	56.343	-0.263	-0.258
-728.937	703.196	0.027	0.072
-727.923	157.065	-0.197	0.275
-726.908	-13.381	-0.105	0.069
-725.894	800.000	0.141	-0.449
-724.879	380.966	-0.104	-0.216
-723.864	157.041	-0.193	-0.269
-722.850	-85.222	0.210	-0.066
-721.835	-200.000	0.000	-0.004
-720.821	426.504	-0.071	-0.154
-719.806	311.456	-0.203	-0.385
-718.791	-167.700	-0.368	-0.015
-717.777	-72.896	-0.196	0.073
-716.762	-200.000	-0.010	-0.248
-715.748	32.837	-0.144	-0.126
-714.733	-142.557	0.489	-0.048
-713.718	-4.503	-0.076	0.053
-712.704	-200.000	0.010	-0.062
-711.689	62.674	-0.019	-0.019
-710.675	-11.896	-0.341	0.226
-709.660	-116.286	0.241	0.045
-708.645	-123.024	-0.071	-0.011
-707.631	-6.040	0.068	-0.047
-706.616	260.227	0.090	0.156
-705.602	-106.311	-0.226	-0.051
-704.587	-118.741	-0.213	0.038
-703.572	300.994	0.207	0.386
-702.558	-40.823	0.045	-0.024
-701.543	-72.908	0.196	-0.072
-700.529	515.834	0.144	-0.338
-699.514	108.315	-0.260	-0.312
-698.499	-58.035	-0.106	-0.047
-697.485	-118.733	0.182	-0.032
-696.470	23.270	-0.025	-0.020
-695.456	180.935	-0.140	-0.208
-694.441	-131.011	-0.089	0.012
-693.426	219.163	-0.065	-0.104
-692.412	29.449	-0.143	-0.123
-691.397	271.462	0.069	0.123
-690.383	-107.611	0.303	0.067
-689.368	-172.442	0.068	-0.002
-688.354	-41.998	0.229	-0.118
-687.339	-91.305	-0.242	-0.070
-686.324	71.413	0.155	-0.163
-685.310	800.000	0.046	-0.140
-684.295	45.974	-0.203	-0.189
-683.281	101.409	-0.118	0.138
-682.266	303.086	0.096	-0.180
-681.251	265.335	0.077	0.135
-680.237	32.024	0.135	-0.117
-679.222	42.311	0.315	-0.289
-678.208	36.240	-0.115	-0.103
-677.193	-139.283	-0.166	0.018
-676.178	40.509	0.121	0.109
-675.164	7.491	-0.181	-0.136
-674.149	202.572	0.165	-0.256
-673.135	-56.749	0.178	0.079
-672.120	-124.307	-0.246	-0.039
-671.105	103.579	0.081	0.095
-670.091	-200.000	-0.005	0.037
-669.076	-200.000	-0.007	-0.084
-668.062	40.402	-0.195	0.177
-667.047	-89.425	0.254	-0.075
-666.032	241.425	0.159	-0.268
-665.018	60.003	0.161	-0.161
-664.003	-200.000	0.027	0.149
-662.989	800.000	-0.123	-0.343
-661.974	-135.585	0.068	0.008
-660.959	800.000	-0.073	-0.226
-659.945	-6.437	-0.147	-0.101
-658.930	-4.802	0.165	-0.114
-657.916	-200.000	0.014	0.202
-656.901	54.486	0.162	0.157
-655.886	-200.000	0.019	0.085
-654.872	13.914	-0.271	0.212
-653.857	210.194	-0.203	0.321
-652.843	-120.311	0.171	0.029
-651.828	800.000	-0.030	-0.120
-650.814	-200.000	-0.014	0.089
-649.799	-116.736	0.271	0.050
-648.784	253.456	-0.098	-0.169
-647.770	800.000	-0.091	-0.306
-646.755	310.239	0.065	-0.122
-645.741	110.902	0.132	-0.159
-644.726	-74.936	-0.380	0.137
-643.711	-87.662	0.270	0.082
-642.697	-200.000	-0.085	0.455
-641.682	-64.309	-0.153	-0.062
-640.668	-2.419	-0.077	-0.055
-639.653	-200.000	-0.022	-0.168
-638.638	167.951	-0.098	-0.140
-637.624	26.401	0.097	0.082
-636.609	148.961	0.236	0.321
-635.595	78.245	0.121	-0.130
-634.580	-51.237	0.056	-0.026
-633.565	168.966	-0.050	0.071
-632.551	216.402	-0.108	-0.173
-631.536	-120.989	0.077	0.013
-630.522	800.000	0.032	-0.093
-629.507	204.591	-0.067	0.104
-628.492	-24.404	-0.388	-0.232
-627.478	160.349	-0.205	-0.288
-626.463	-83.598	-0.213	0.068
-625.449	-90.734	-0.153	0.044
-624.434	650.255	0.136	-0.349
-623.419	193.355	-0.165	0.251
-622.405	149.428	-0.135	-0.184
-621.390	-127.940	0.131	-0.019
-620.376	800.000	0.047	-0.192
-619.361	-200.000	0.056	-0.349
-618.346	-136.706	-0.212	-0.025
-617.332	-136.875	0.318	-0.037
-616.317	-200.000	0.053	0.436
-615.303	-93.399	-0.304	-0.085
-614.288	-200.000	0.055	-0.297
-613.273	-44.773	-0.097	0.049
-612.259	-110.722	0.077	0.016
-611.244	148.214	0.022	-0.030
-610.230	322.698	0.084	0.160
-609.215	472.916	-0.044	-0.100
-608.201	147.506	-0.107	0.145
-607.186	75.765	-0.060	0.064
-606.171	136.124	-0.142	-0.186
-605.157	-4.847	-0.234	0.162
-604.142	-200.000	-0.296	-0.000
-603.128	163.606	0.322	0.454
-602.113	476.998	0.093	-0.212
-601.098	512.500	0.042	-0.098
-600.084	-200.000	0.001	-0.129
-599.069	167.212	0.077	0.110
-598.055	-200.000	0.046	-0.246
-597.040	27.656	0.068	-0.057
-596.025	-16.551	-0.130	0.083
-595.011	280.936	0.182	0.327
-593.996	-109.880	0.131	-0.028
-592.982	-200.000	0.035	0.206
-591.967	-9.389	-0.378	0.253
-590.952	-200.000	0.032	-0.168
-589.938	-200.000	0.036	-0.251
-588.923	74.494	-0.397	0.419
-587.909	800.000	-0.019	0.065
-586.894	44.438	0.134	0.123
-585.879	264.485	0.092	0.162
-584.865	-200.000	0.088	-0.440
-583.850	-197.746	-0.203	0.001
-582.836	-93.888	0.437	-0.121
-581.821	197.310	-0.091	-0.140
-580.806	-14.231	0.051	0.033
-579.792	656.665	-0.087	-0.223
-578.777	-20.869	-0.046	-0.028
-577.763	31.180	0.287	0.247
-576.748	-75.612	-0.403	0.144
-575.733	-200.000	0.008	-0.052
-574.719	800.000	-0.029	-0.107
-573.704	-133.695	0.105	0.013
-572.690	156.952	0.148	-0.205
-571.675	-200.000	0.015	0.138
-570.661	112.559	0.068	0.083
-569.646	-111.445	-0.174	0.035
-568.631	47.076	-0.139	-0.129
-567.617	800.000	0.070	-0.295
-566.602	-200.000	0.001	-0.255
-565.588	-56.146	-0.341	-0.152
-564.573	-170.198	0.219	-0.008
-563.558	108.501	0.116	0.139
-562.544	-100.863	-0.159	-0.039
-561.529	800.000	-0.050	-0.146
-560.515	57.112	-0.148	0.144
-559.500	21.113	-0.153	-0.124
-558.485	671.550	0.104	-0.271
-557.471	-200.000	-0.018	-0.183
-556.456	-54.629	-0.075	0.034
-555.442	62.047	-0.071	0.071
-554.427	800.000	0.030	0.122
-553.412	800.000	0.091	-0.296
-552.398	-30.255	0.134	0.076
-551.383	-83.480	0.141	-0.045
-550.369	85.317	0.113	-0.124
-549.354	-128.344	-0.228	-0.033
-548.339	344.902	-0.152	-0.298
-547.325	-61.254	-0.328	0.138
-546.310	800.000	-0.108	-0.344
-545.296	129.811	0.192	-0.247
-544.281	192.175	-0.085	0.128
-543.266	-104.441	0.126	-0.029
-542.252	531.687	0.097	0.230
-541.237	-120.534	0.169	0.029
-540.223	-200.000	0.027	-0.194
-539.208	-45.144	-0.122	-0.061
-538.193	-200.000	0.002	0.233
-537.179	-200.000	-0.085	-0.481
-536.164	211.781	-0.238	-0.376
-535.150	59.461	-0.096	0.095
-534.135	-131.064	-0.277	-0.037
-533.121	800.000	-0.011	-0.044
-532.106	-49.379	0.193	0.092
-531.091	411.949	-0.129	-0.275
-530.077	457.021	-0.176	0.390
-529.062	321.200	-0.091	0.173
-528.048	-76.613	0.224	-0.079
-527.033	-199.078	0.238	-0.001
-526.018	-15.919	-0.055	0.035
-525.004	-50.135	-0.127	-0.060
-523.989	-34.769	-0.125	0.068
-522.975	-200.000	-0.082	0.437
-521.960	459.447	-0.086	0.191
-520.945	-66.344	-0.088	0.035
-519.931	84.041	-0.328	-0.359
-518.916	-140.707	-0.174	-0.018
-517.902	-200.000	-0.017	0.153
-516.887	-60.419	0.083	-0.035
-515.872	125.766	-0.090	-0.113
-514.858	-200.000	-0.011	0.116
-513.843	5.776	0.078	-0.057
-512.829	34.219	0.248	0.217
-511.814	65.186	-0.160	-0.162
-510.799	-8.915	-0.247	-0.166
-509.785	-150.688	-0.159	0.012
-508.770	-200.000	-0.010	0.225
-507.756	-200.000	0.019	0.084
-506.741	-200.000	-0.007	0.068
-505.726	-200.000	-0.065	0.450
-504.712	-200.000	0.014	0.157
-503.697	-165.294	0.235	0.010
-502.683	800.000	-0.069	0.263
-501.668	136.818	0.046	-0.060
-500.653	393.365	0.061	0.126
-499.639	35.919	-0.229	-0.202
-498.624	637.958	-0.171	-0.436
-497.610	-89.713	0.167	0.049
-496.595	-46.335	0.173	0.085
-495.581	175.626	-0.042	0.061
-494.566	604.733	-0.063	-0.156
-493.551	-102.015	-0.257	0.062
-492.537	48.110	-0.123	-0.115
-491.522	-85.407	-0.178	-0.056
-490.508	133.757	0.235	0.305
-489.493	-85.349	-0.320	0.100
-488.478	101.609	-0.149	-0.173
-487.464	261.879	0.090	0.156
-486.449	80.642	-0.121	-0.130
-485.435	-114.660	0.136	-0.026
-484.420	-6.588	-0.296	-0.202
-483.405	-200.000	-0.002	0.089
-482.391	74.398	0.138	0.145
-481.376	800.000	0.046	-0.171
-480.362	800.000	0.120	0.385
-479.347	800.000	-0.052	-0.148
-478.332	51.593	0.116	0.110
-477.318	800.000	-0.129	-0.409
-476.303	-200.000	-0.007	-0.396
-475.289	800.000	0.076	-0.283
-474.274	-200.000	-0.013	-0.193
-473.259	42.026	0.132	-0.120
-472.245	-114.000	0.223	-0.043
-471.230	800.000	0.070	-0.253
-470.216	-48.319	-0.247	-0.119
-469.201	-37.039	0.271	-0.145
-468.186	115.358	0.173	0.211
-467.172	-12.631	-0.150	-0.098
-466.157	-6.358	0.255	0.174
-465.143	-159.723	-0.267	-0.015
-464.128	116.024	-0.110	0.135
-463.113	84.684	-0.126	-0.138
-462.099	-200.000	-0.005	-0.051
-461.084	800.000	-0.072	-0.278
-460.070	27.649	-0.225	0.190
-459.055	-200.000	-0.004	-0.056
-458.040	30.090	0.209	0.178
-457.026	-200.000	0.007	0.154
-456.011	800.000	0.061	0.245
-454.997	-102.940	-0.235	0.056
-453.982	800.000	-0.072	0.303
-452.968	39.500	-0.190	0.170
-451.953	-200.000	0.040	-0.226
-450.938	376.005	0.116	-0.237
-449.924	46.878	-0.409	-0.380
-448.909	292.170	0.087	-0.158
-447.895	446.443	-0.055	0.121
-446.880	88.908	0.341	0.378
-445.865	6.251	0.374	0.277
-444.851	203.625	-0.043	0.067
-443.836	-148.069	-0.210	0.017
-442.822	-200.000	-0.055	0.436
-441.807	-54.315	0.282	-0.128
-440.792	-200.000	-0.011	0.083
-439.778	-146.200	0.319	-0.028
-438.763	-200.000	0.009	-0.106
-437.749	13.793	-0.155	-0.120
-436.734	57.376	-0.262	-0.255
-435.719	107.122	0.188	0.222
-434.705	278.320	-0.121	0.215
-433.690	419.308	-0.083	0.176
-432.676	-119.777	-0.139	-0.024
-431.661	292.653	0.124	-0.226
-430.646	-158.754	0.220	0.013
-429.632	-200.000	0.004	0.226
-428.617	-200.000	-0.006	-0.129
-427.603	-107.434	0.193	0.042
-426.588	-96.523	-0.188	-0.050
-425.573	-168.076	0.113	-0.004
-424.559	-84.134	-0.134	0.042
-423.544	-200.000	-0.042	0.266
-422.530	-111.127	-0.244	0.050
-421.515	-176.398	-0.180	0.005
-420.500	-200.000	0.016	0.384
-419.486	-2.302	0.355	0.248
-418.471	-77.823	-0.247	0.085
-417.457	550.642	-0.078	0.187
-416.442	-93.461	0.098	0.027
-415.428	-120.273	-0.387	0.066
-414.413	-39.144	0.152	-0.080
-413.398	-126.976	-0.242	-0.035
-412.384	254.716	-0.142	0.242
-411.369	-81.086	0.213	-0.070
-410.355	-80.523	0.197	-0.065
-409.340	-120.198	0.445	-0.076
-408.325	-16.131	-0.183	-0.116
-407.311	800.000	-0.071	0.206
-406.296	-200.000	0.024	0.390
-405.282	-114.797	0.124	-0.024
-404.267	77.860	-0.216	-0.229
-403.252	800.000	0.052	-0.182
-402.238	-200.000	-0.031	0.262
-401.223	-75.243	0.052	-0.018
-400.209	-184.252	0.354	-0.006
-399.194	333.312	0.176	0.339
-398.179	-200.000	0.008	-0.365
-397.165	-94.554	0.334	-0.091
-396.150	-113.136	-0.168	0.033
-395.136	-100.503	0.081	-0.020
-394.121	-200.000	-0.055	-0.381
-393.106	800.000	-0.020	-0.074
-392.092	-200.000	-0.008	0.309
-391.077	286.117	0.138	-0.247
-390.063	-4.961	0.377	-0.259
-389.048	-200.000	0.001	0.093
-388.033	9.575	0.229	0.172
-387.019	86.585	0.244	-0.269
-386.004	-70.911	0.195	-0.073
-384.990	-21.047	-0.303	0.185
-383.975	800.000	0.026	0.108
-382.960	399.255	-0.033	0.069
-381.946	-200.000	0.014	0.154
-380.931	800.000	0.036	-0.139
-379.917	800.000	0.060	0.191
-378.902	-200.000	0.118	0.548
-377.888	416.754	-0.071	0.152
-376.873	385.550	0.232	-0.477
-375.858	-200.000	0.020	-0.419
-374.844	124.630	-0.200	-0.251
-373.829	-91.459	0.151	-0.043
-372.815	-200.000	0.000	-0.080
-371.800	48.975	-0.218	-0.204
-370.785	74.876	0.188	0.197
-369.771	-35.594	-0.078	-0.042
-368.756	43.992	0.228	0.208
-367.742	563.062	-0.074	0.179
-366.727	-7.352	0.148	0.100
-365.712	109.092	-0.272	0.324
-364.698	165.617	-0.096	0.135
-363.683	-200.000	-0.020	-0.136
-362.669	-117.895	-0.296	0.053
-361.654	53.184	-0.049	-0.046
-360.639	-200.000	0.061	-0.432
-359.625	-200.000	-0.041	0.254
-358.610	12.295	0.345	0.264
-357.596	794.689	-0.141	-0.387
-356.581	-100.849	0.186	-0.045
-355.566	372.061	0.070	0.141
-354.552	-200.000	-0.009	-0.183
-353.537	63.266	0.170	0.170
-352.523	349.467	-0.234	0.459
-351.508	110.230	-0.226	-0.269
-350.493	-60.687	0.215	0.091
-349.479	122.398	-0.072	0.090
-348.464	800.000	-0.056	-0.153
-347.450	17.365	-0.098	0.077
-346.435	800.000	0.142	-0.481
-345.420	-107.955	0.229	-0.050
-344.406	139.464	-0.115	0.150
-343.391	518.275	0.067	-0.155
-342.377	443.232	0.037	-0.081
-341.362	13.926	0.123	0.095
-340.348	-85.989	-0.020	-0.006
-339.333	-53.394	-0.110	0.050
-338.318	-40.166	0.245	0.127
-337.304	332.075	0.037	-0.070
-336.289	-26.567	0.314	0.183
-335.275	62.761	0.261	0.259
-334.260	512.261	-0.051	0.119
-333.245	-80.276	0.016	-0.005
-332.231	-155.700	-0.314	-0.020
-331.216	267.371	0.072	-0.125
-330.202	-45.337	-0.031	0.015
-329.187	-9.291	-0.282	-0.187
-328.172	6.737	0.110	-0.082
-327.158	16.066	-0.140	-0.109
-326.143	-200.000	0.014	-0.096
-325.129	-148.341	0.035	-0.003
-324.114	-18.060	0.206	-0.128
-323.099	770.517	0.041	-0.111
-322.085	-200.000	0.084	-0.473
-321.070	800.000	-0.032	0.101
-320.056	-68.389	0.349	-0.135
-319.041	-72.487	0.259	-0.095
-318.026	69.659	-0.126	0.128
-317.012	192.938	0.093	0.140
-315.997	-60.253	-0.153	-0.065
-314.983	148.487	0.088	-0.118
-313.968	87.037	0.132	-0.144
-312.953	122.221	0.058	0.072
-311.939	800.000	0.111	-0.384
-310.924	-200.000	0.019	-0.190
-309.910	442.352	-0.098	0.213
-308.895	752.242	0.031	-0.084
-307.880	-47.856	0.058	-0.028
-306.866	-141.199	0.216	-0.022
-305.851	-110.900	0.244	0.050
-304.837	195.682	0.142	0.214
-303.822	4.046	0.301	-0.219
-302.807	371.914	-0.046	-0.092
-301.793	181.523	-0.096	-0.140
-300.778	108.681	0.223	0.265
-299.764	-200.000	0.008	-0.143
-298.749	-200.000	0.029	0.277
-297.735	91.893	0.183	0.204
-296.720	-71.606	0.294	0.109
-295.705	-140.769	-0.111	-0.011
-294.691	61.307	0.229	0.226
-293.676	-41.852	-0.119	0.061
-292.662	33.372	0.313	0.269
-291.647	-200.000	-0.032	-0.180
-290.632	-161.300	0.237	-0.012
-289.618	-200.000	0.034	0.166
-288.603	-124.232	-0.298	0.046
-287.589	800.000	0.056	0.170
-286.574	-136.847	-0.127	0.014
-285.559	-8.684	0.234	-0.156
-284.545	-73.000	-0.160	-0.058
-283.530	34.310	-0.125	0.108
-282.516	-46.447	0.281	-0.137
-281.501	-194.260	-0.301	0.002
-280.486	72.531	0.100	-0.104
-279.472	-112.676	0.143	-0.028
-278.457	798.665	-0.072	-0.197
-277.443	179.538	-0.072	0.105
-276.428	-200.000	0.003	0.357
-275.413	-77.871	-0.434	-0.149
-274.399	-111.745	0.276	0.055
-273.384	106.128	0.166	-0.195
-272.370	301.501	0.149	-0.273
-271.355	-200.000	0.021	0.186
-270.340	800.000	-0.127	0.429
-269.326	-200.000	-0.035	-0.186
-268.311	800.000	0.095	0.375
-267.297	-200.000	-0.005	0.446
-266.282	177.793	0.161	-0.232
-265.267	181.796	0.095	0.139
-264.253	-24.391	0.120	-0.071
-263.238	-127.181	-0.325	0.047
-262.224	787.267	0.041	-0.113
-261.209	-38.434	-0.137	-0.072
-260.195	-109.860	0.349	0.073
-259.180	117.550	-0.390	0.475
-258.165	315.377	-0.110	0.206
-257.151	-32.619	0.034	-0.019
-256.136	800.000	-0.041	-0.166
-255.122	190.631	-0.082	0.122
-254.107	56.454	-0.170	0.164
-253.092	-143.405	0.243	0.023
-252.078	-200.000	0.009	-0.260
-251.063	287.055	-0.035	-0.063
-250.049	37.228	-0.155	-0.136
-249.034	-16.475	0.219	-0.138
-248.019	-94.628	0.099	0.027
-247.005	-160.384	0.249	0.013
-245.990	-25.494	0.158	-0.092
-244.976	139.916	-0.016	0.021
-243.961	105.922	-0.027	0.031
-242.946	31.440	-0.141	-0.120
-241.932	-200.000	0.023	0.137
-240.917	800.000	0.017	0.060
-239.903	278.005	-0.194	-0.342
-238.888	-193.759	0.272	0.002
-237.873	-200.000	0.036	-0.169
-236.859	-76.217	-0.048	-0.017
-235.844	-200.000	-0.087	-0.451
-234.830	-46.453	0.168	0.082
-233.815	159.458	0.101	0.139
-232.800	485.075	-0.134	0.301
-231.786	-64.890	-0.458	0.184
-230.771	-2.487	0.241	0.167
-229.757	38.097	0.252	-0.222
-228.742	800.000	0.051	-0.181
-227.727	54.558	-0.100	0.095
-226.713	-58.345	-0.406	0.175
-225.698	71.418	-0.123	-0.126
-224.684	800.000	0.083	0.350
-223.669	164.441	-0.013	-0.018
-222.655	-48.392	-0.124	0.059
-221.640	382.538	-0.105	0.214
-220.625	-2.369	0.118	-0.082
-219.611	159.447	0.061	0.084
-218.596	537.130	0.178	-0.419
-217.582	-90.250	-0.179	0.051
-216.567	-65.695	0.169	-0.067
-215.552	74.693	-0.181	0.189
-214.538	-42.606	-0.238	-0.120
-213.523	-78.343	-0.149	-0.050
-212.509	-200.000	-0.082	-0.418
-211.494	51.029	0.168	0.157
-210.479	16.128	-0.182	0.142
-209.465	-18.151	0.307	0.190
-208.450	42.455	-0.224	-0.201
-207.436	-67.790	-0.241	0.093
-206.421	8.155	0.123	0.091
-205.406	96.169	0.147	0.166
-204.392	-32.916	-0.481	-0.264
-203.377	-64.025	-0.177	-0.071
-202.363	339.863	0.137	-0.263
-201.348	-142.440	0.337	-0.033
-200.333	800.000	0.041	-0.132
-199.319	800.000	-0.041	-0.157
-198.304	31.856	0.102	0.087
-197.290	104.459	-0.082	0.096
-196.275	-129.719	0.105	0.014
-195.260	62.006	0.110	-0.109
-194.246	-19.971	0.214	0.130
-193.231	70.767	-0.035	-0.036
-192.217	-150.348	-0.164	0.013
-191.202	-97.044	-0.149	0.039
-190.187	1.098	-0.018	0.013
-189.173	633.002	0.083	-0.208
-188.158	-138.321	-0.030	0.003
-187.144	40.245	0.185	0.164
-186.129	-183.808	0.254	-0.004
-185.114	160.928	0.148	0.204
-184.100	-3.124	0.055	0.038
-183.085	108.024	-0.232	0.273
-182.071	-103.418	-0.134	-0.031
-181.056	119.920	-0.050	-0.061
-180.042	-35.767	-0.430	0.230
-179.027	-200.000	0.024	-0.110
-178.012	800.000	0.086	0.314
-176.998	88.923	0.093	0.103
-175.983	-176.969	0.366	0.009
-174.969	143.158	0.171	-0.224
-173.954	-166.083	-0.309	-0.013
-172.939	486.069	0.102	-0.230
-171.925	-32.657	-0.147	-0.081
-170.910	237.610	0.229	-0.375
-169.896	184.508	0.148	-0.217
-168.881	4.971	0.064	-0.046
-167.866	29.118	-0.127	0.107
-166.852	-200.000	0.003	-0.177
-165.837	-154.065	0.195	0.013
-164.823	-93.498	-0.435	0.119
-163.808	-38.430	-0.187	0.097
-162.793	800.000	-0.183	0.566
-161.779	-200.000	-0.089	0.391
-160.764	800.000	-0.015	0.053
-159.750	-18.716	-0.200	0.123
-158.735	-158.391	-0.180	0.010
-157.720	117.502	0.188	-0.228
-156.706	-200.000	0.020	-0.126
-155.691	-31.497	-0.164	0.091
-154.677	800.000	0.057	0.212
-153.662	-200.000	0.020	0.157
-152.647	-200.000	0.030	0.302
-151.633	-43.219	0.123	0.062
-150.618	80.607	-0.217	-0.231
-149.604	148.629	0.136	0.182
-148.589	199.703	-0.061	-0.092
-147.574	-46.916	0.198	0.096
-146.560	550.644	0.063	0.150
-145.545	-200.000	0.043	-0.216
-144.531	181.584	-0.050	-0.073
-143.516	16.260	0.136	-0.106
-142.502	302.406	-0.106	-0.194
-141.487	-200.000	-0.006	0.155
-140.472	159.824	0.219	0.301
-139.458	-63.654	0.285	-0.115
-138.443	-200.000	0.043	-0.218
-137.429	-114.635	0.329	0.062
-136.414	106.724	-0.123	0.144
-135.399	-138.130	0.519	0.057
-134.385	123.425	0.136	0.168
-133.370	800.000	0.057	-0.212
-132.356	-38.801	0.407	0.212
-131.341	-38.775	-0.390	0.203
-130.326	222.508	-0.089	0.141
-129.312	239.039	-0.071	0.116
-128.297	-51.812	-0.069	0.032
-127.283	-200.000	0.028	0.299
-126.268	543.675	-0.118	-0.278
-125.253	43.492	0.207	-0.186
-124.239	800.000	0.125	0.352
-123.224	332.337	0.161	0.307
-122.210	-200.000	0.005	-0.171
-121.195	183.015	0.047	0.069
