DTS Sentinel unit serial number:	SN413079Multiplexer serial number:	ORYXHardware model number:	OX4-SRSoftware version number:	ORYX F/W v4.00 Oryx Data Collector v3.7.2.0data status	okinstallation	princeton_trtdifferential loss correction	single-endedforward channel	channel 2reverse channel	N/Adate	2019/09/14time	14:15:35forward acquisition time	60.00reverse acquisition time	0.00gamma	496.2192k internal	0.2301k external	0.2301temperature offset calibration	1.0148default loss term (dB/km)	0.3790temperature slope calibration	1.0000multiplexer offset coefficient	1.0000multiplexer slope coefficient	1.0000fibre end	0.00T internal ref (°C)	38.67T ext. ref 1 (°C)	5.11T ext. ref 2 (°C)	36.61length (m)	temperature (°C)	Stokes	anti-Stokes-747.200	-53.594	-0.170	0.079
-746.185	-200.000	-0.005	0.046
-745.171	-38.692	-0.268	0.144
-744.156	-200.000	0.070	0.338
-743.142	-74.894	0.263	0.096
-742.127	-147.981	0.029	0.002
-741.112	641.369	-0.115	-0.298
-740.098	124.906	0.078	0.101
-739.083	800.000	0.075	-0.229
-738.069	486.722	0.101	0.236
-737.054	-200.000	-0.022	-0.170
-736.039	800.000	-0.070	-0.249
-735.025	800.000	-0.022	0.075
-734.010	-131.061	0.618	0.084
-732.996	177.878	0.116	-0.172
-731.981	95.235	-0.095	0.110
-730.966	-200.000	0.004	0.157
-729.952	132.152	0.062	0.081
-728.937	1.787	0.217	-0.159
-727.923	-59.397	-0.208	-0.091
-726.908	-45.084	-0.136	0.069
-725.894	800.000	-0.077	-0.309
-724.879	-66.259	-0.318	-0.129
-723.864	-73.933	-0.053	-0.019
-722.850	-200.000	-0.007	-0.239
-721.835	21.449	-0.309	-0.256
-720.821	56.119	0.173	-0.171
-719.806	294.675	-0.121	0.225
-718.791	-93.887	-0.208	0.058
-717.777	800.000	0.011	0.045
-716.762	-43.405	0.135	0.070
-715.748	-99.189	-0.224	-0.058
-714.733	800.000	-0.037	0.133
-713.718	800.000	0.090	-0.288
-712.704	800.000	-0.092	-0.372
-711.689	29.989	-0.299	-0.260
-710.675	-200.000	0.000	-0.089
-709.660	100.648	-0.198	-0.234
-708.645	-7.301	-0.196	-0.135
-707.631	21.414	0.142	-0.118
-706.616	-87.277	-0.114	-0.035
-705.602	-150.304	-0.287	0.023
-704.587	-53.003	0.152	0.071
-703.572	7.804	0.198	0.151
-702.558	-52.264	-0.201	-0.095
-701.543	-87.069	0.107	-0.033
-700.529	-116.115	-0.178	0.034
-699.514	-200.000	-0.016	0.163
-698.499	-200.000	-0.073	-0.334
-697.485	657.650	-0.071	0.186
-696.470	276.436	0.160	0.289
-695.456	92.584	0.084	-0.097
-694.441	-82.668	-0.107	0.035
-693.426	-3.042	-0.164	-0.117
-692.412	0.721	-0.173	0.126
-691.397	0.696	0.148	-0.108
-690.383	-200.000	0.043	0.375
-689.368	-15.523	0.180	-0.117
-688.354	437.867	-0.086	0.192
-687.339	117.916	-0.179	-0.224
-686.324	-200.000	0.000	0.108
-685.310	499.321	0.092	0.216
-684.295	127.564	0.093	0.121
-683.281	-200.000	0.019	0.169
-682.266	104.138	0.192	0.230
-681.251	163.312	0.124	0.177
-680.237	274.554	-0.218	-0.393
-679.222	322.564	-0.176	-0.340
-678.208	-200.000	0.006	-0.198
-677.193	-85.802	-0.078	0.024
-676.178	19.225	0.237	-0.193
-675.164	-171.721	0.356	-0.012
-674.149	-141.167	0.241	0.025
-673.135	-200.000	-0.058	-0.331
-672.120	53.451	0.172	-0.167
-671.105	154.344	-0.167	-0.234
-670.091	23.739	-0.155	-0.129
-669.076	-200.000	0.030	-0.227
-668.062	-114.106	-0.389	0.077
-667.047	188.259	0.167	0.253
-666.032	-192.702	0.314	-0.003
-665.018	-37.586	-0.197	-0.107
-664.003	0.602	0.183	0.133
-662.989	178.449	-0.125	0.185
-661.974	-200.000	-0.042	-0.241
-660.959	-13.001	-0.029	0.019
-659.945	-33.371	0.143	-0.080
-658.930	155.641	0.108	0.152
-657.916	-200.000	-0.010	0.079
-656.901	-31.639	0.146	0.083
-655.886	800.000	0.106	0.303
-654.872	593.530	-0.064	0.160
-653.857	125.410	-0.311	-0.399
-652.843	100.830	-0.110	-0.130
-651.828	202.145	-0.096	-0.150
-650.814	-98.365	-0.300	-0.078
-649.799	192.201	0.174	-0.266
-648.784	17.663	0.161	-0.130
-647.770	34.422	0.145	-0.129
-646.755	98.748	0.234	0.274
-645.741	-13.807	-0.295	0.194
-644.726	-45.955	-0.291	-0.146
-643.711	-22.580	-0.177	0.108
-642.697	-96.183	-0.130	-0.035
-641.682	800.000	0.031	-0.102
-640.668	-102.172	-0.153	0.037
-639.653	40.586	-0.008	-0.007
-638.638	6.572	0.169	-0.127
-637.624	-200.000	-0.012	-0.068
-636.609	11.552	-0.277	-0.216
-635.595	-200.000	0.003	0.014
-634.580	-109.844	0.209	0.045
-633.565	800.000	-0.035	-0.126
-632.551	145.054	0.322	-0.437
-631.536	800.000	0.052	0.148
-630.522	-177.445	-0.118	0.003
-629.507	-66.143	-0.113	-0.046
-628.492	54.694	0.100	0.098
-627.478	344.103	-0.145	-0.288
-626.463	8.011	0.171	0.130
-625.449	-200.000	-0.052	0.264
-624.434	-149.444	-0.221	0.018
-623.419	-200.000	-0.049	-0.308
-622.405	-95.015	-0.233	0.064
-621.390	26.668	0.173	0.147
-620.376	205.982	0.193	-0.305
-619.361	356.296	0.094	-0.190
-618.346	-90.474	-0.060	0.017
-617.332	800.000	-0.015	-0.056
-616.317	-91.490	0.110	-0.032
-615.303	-64.842	-0.322	-0.132
-614.288	800.000	0.050	0.184
-613.273	-86.915	-0.070	-0.022
-612.259	-70.081	0.457	0.176
-611.244	141.954	-0.179	-0.240
-610.230	205.897	0.086	-0.135
-609.215	55.715	0.030	0.030
-608.201	800.000	0.076	0.237
-607.186	117.172	-0.065	0.081
-606.171	10.625	-0.036	-0.028
-605.157	-200.000	0.010	0.075
-604.142	85.555	-0.062	-0.069
-603.128	88.977	-0.098	-0.110
-602.113	-82.321	0.275	-0.091
-601.098	-96.322	0.218	-0.058
-600.084	-125.737	-0.340	0.052
-599.069	334.084	-0.026	-0.050
-598.055	24.030	-0.168	-0.141
-597.040	-46.110	-0.164	-0.082
-596.025	-12.317	0.411	-0.272
-595.011	800.000	-0.092	-0.315
-593.996	800.000	0.047	0.142
-592.982	800.000	0.099	-0.331
-591.967	-172.274	0.411	0.013
-590.952	544.899	0.143	-0.346
-589.938	109.924	0.090	-0.109
-588.923	800.000	-0.047	0.143
-587.909	-87.580	-0.037	-0.011
-586.894	-27.732	-0.230	-0.135
-585.879	-200.000	0.034	0.186
-584.865	-105.206	-0.327	0.076
-583.850	-200.000	-0.050	0.296
-582.836	-30.034	0.087	-0.050
-581.821	353.590	0.021	0.042
-580.806	2.948	0.255	0.187
-579.792	800.000	-0.098	-0.306
-578.777	641.572	-0.062	0.160
-577.763	419.875	0.023	0.051
-576.748	800.000	-0.163	-0.525
-575.733	28.846	-0.146	0.125
-574.719	-200.000	0.008	-0.140
-573.704	140.875	-0.097	0.130
-572.690	61.837	-0.061	-0.061
-571.675	515.328	-0.113	0.268
-570.661	201.269	0.106	0.165
-569.646	800.000	0.035	0.148
-568.631	73.032	0.185	0.196
-567.617	27.262	-0.100	-0.085
-566.602	255.700	-0.029	0.051
-565.588	800.000	-0.059	0.237
-564.573	90.141	0.145	-0.165
-563.558	223.117	-0.108	-0.175
-562.544	-200.000	0.031	0.242
-561.529	-145.234	-0.071	0.007
-560.515	-41.897	-0.077	0.040
-559.500	36.729	-0.154	-0.138
-558.485	-41.380	-0.089	0.046
-557.471	-200.000	-0.025	-0.188
-556.456	33.916	-0.178	-0.157
-555.442	-84.888	0.100	-0.032
-554.427	-63.532	0.248	-0.103
-553.412	800.000	0.082	0.335
-552.398	800.000	0.057	0.251
-551.383	180.206	-0.170	-0.252
-550.369	51.431	0.157	-0.151
-549.354	-25.390	0.359	0.215
-548.339	-137.468	0.083	0.010
-547.325	-90.850	-0.283	0.082
-546.310	430.791	-0.090	0.198
-545.296	-109.326	0.105	0.023
-544.281	-200.000	-0.002	0.137
-543.266	-124.779	0.219	0.034
-542.252	568.051	0.065	0.159
-541.237	347.030	0.132	-0.264
-540.223	-200.000	0.018	-0.277
-539.208	49.939	0.026	-0.024
-538.193	-159.052	-0.064	-0.004
-537.179	101.719	0.066	-0.077
-536.164	186.347	0.111	0.168
-535.150	105.551	-0.216	-0.258
-534.135	89.327	0.134	0.151
-533.121	6.641	0.085	-0.064
-532.106	52.861	-0.289	-0.279
-531.091	-120.121	-0.064	-0.011
-530.077	228.644	0.113	0.186
-529.062	228.402	-0.074	-0.122
-528.048	-4.335	-0.093	0.065
-527.033	81.859	-0.341	0.373
-526.018	267.192	0.173	0.306
-525.004	-55.292	0.227	0.103
-523.989	-200.000	0.007	0.079
-522.975	-8.460	0.103	-0.070
-521.960	-200.000	0.018	0.183
-520.945	-200.000	-0.035	0.178
-519.931	-200.000	0.003	-0.207
-518.916	-41.640	0.203	-0.105
-517.902	-182.322	-0.172	-0.003
-516.887	-46.375	-0.133	-0.066
-515.872	-119.332	0.348	-0.061
-514.858	800.000	-0.008	-0.026
-513.843	-10.903	-0.191	0.127
-512.829	209.521	-0.105	-0.166
-511.814	161.725	0.174	0.246
-510.799	-97.449	-0.179	0.047
-509.785	101.384	-0.261	0.307
-508.770	-48.506	-0.198	0.096
-507.756	184.789	-0.062	0.092
-506.741	37.377	0.196	0.176
-505.726	487.097	0.067	0.155
-504.712	800.000	-0.065	-0.213
-503.697	-200.000	0.024	-0.254
-502.683	27.336	0.303	0.258
-501.668	-64.576	-0.127	-0.052
-500.653	-20.368	0.350	0.218
-499.639	-200.000	-0.029	0.191
-498.624	67.999	-0.109	-0.113
-497.610	800.000	-0.046	0.148
-496.595	-188.987	-0.210	-0.003
-495.581	800.000	0.071	-0.221
-494.566	-88.649	0.205	-0.062
-493.551	-183.875	0.094	-0.002
-492.537	-22.605	-0.108	0.066
-491.522	-190.131	0.056	0.001
-490.508	49.220	-0.096	0.091
-489.493	-200.000	-0.004	0.029
-488.478	-200.000	0.052	-0.425
-487.464	50.294	-0.077	0.073
-486.449	-56.999	0.272	-0.121
-485.435	-62.149	-0.314	-0.132
-484.420	-144.704	-0.336	-0.031
-483.405	185.717	-0.132	-0.198
-482.391	-70.286	-0.264	-0.101
-481.376	577.837	-0.111	-0.275
-480.362	55.517	0.128	-0.125
-479.347	547.376	-0.076	-0.184
-478.332	-109.955	0.052	-0.011
-477.318	-104.202	0.102	0.024
-476.303	-94.781	0.111	-0.030
-475.289	39.359	-0.135	0.122
-474.274	336.439	-0.046	0.090
-473.259	-200.000	-0.029	0.186
-472.245	800.000	0.036	0.148
-471.230	144.386	0.302	0.407
-470.216	358.567	0.239	0.481
-469.201	-200.000	-0.018	-0.102
-468.186	728.474	-0.028	0.075
-467.172	800.000	-0.092	-0.403
-466.157	800.000	-0.074	0.217
-465.143	237.097	-0.090	-0.150
-464.128	800.000	-0.045	-0.192
-463.113	-200.000	0.031	0.231
-462.099	152.150	0.034	-0.047
-461.084	215.246	0.137	0.219
-460.070	-59.761	-0.345	0.149
-459.055	-136.799	0.137	-0.016
-458.040	800.000	-0.110	-0.367
-457.026	-73.918	-0.198	0.073
-456.011	52.931	0.091	-0.088
-454.997	800.000	-0.026	-0.087
-453.982	-77.557	0.193	-0.067
-452.968	-200.000	-0.022	0.222
-451.953	369.039	-0.103	0.210
-450.938	-200.000	0.047	0.258
-449.924	71.489	0.076	0.079
-448.909	602.432	0.035	0.087
-447.895	-37.014	-0.081	0.044
-446.880	74.027	0.146	0.155
-445.865	800.000	-0.120	0.338
-444.851	-57.962	0.133	0.058
-443.836	355.130	-0.192	0.386
-442.822	38.678	-0.186	-0.167
-441.807	162.885	-0.204	0.289
-440.792	162.570	0.117	0.166
-439.778	-200.000	0.051	0.237
-438.763	158.721	-0.168	0.235
-437.749	-200.000	-0.011	-0.395
-436.734	75.930	-0.316	-0.336
-435.719	567.201	-0.031	0.075
-434.705	10.196	-0.083	-0.063
-433.690	12.966	0.195	-0.152
-432.676	-85.944	-0.253	0.079
-431.661	146.009	-0.043	0.058
-430.646	43.543	-0.095	-0.087
-429.632	24.205	0.126	0.105
-428.617	-45.994	0.155	0.077
-427.603	517.151	-0.047	0.112
-426.588	-38.449	0.152	0.081
-425.573	-136.479	0.285	-0.033
-424.559	-162.487	-0.086	-0.004
-423.544	12.161	0.096	-0.075
-422.530	17.341	0.148	0.119
-421.515	203.708	0.167	0.259
-420.500	175.644	-0.122	0.178
-419.486	799.753	0.073	0.203
-418.471	-69.233	-0.091	0.035
-417.457	-12.735	-0.079	-0.052
-416.442	51.872	0.108	0.104
-415.428	-169.610	-0.097	0.004
-414.413	172.671	0.252	-0.365
-413.398	584.071	0.050	0.123
-412.384	-64.859	-0.267	0.109
-411.369	-98.157	-0.351	0.091
-410.355	-200.000	0.038	-0.243
-409.340	87.509	0.047	-0.052
-408.325	-109.138	0.090	0.019
-407.311	43.116	0.089	-0.081
-406.296	-200.000	-0.032	-0.146
-405.282	68.087	-0.215	0.221
-404.267	-132.601	-0.253	0.033
-403.252	-107.752	-0.081	-0.018
-402.238	800.000	-0.182	0.514
-401.223	800.000	0.018	-0.072
-400.209	800.000	-0.041	-0.166
-399.194	-6.212	-0.236	0.162
-398.179	233.251	0.076	0.125
-397.165	-200.000	0.000	0.197
-396.150	61.953	0.095	0.096
-395.136	95.479	0.201	-0.230
-394.121	40.901	-0.214	-0.194
-393.106	-122.778	0.089	-0.014
-392.092	-200.000	0.001	-0.161
-391.077	800.000	0.041	0.170
-390.063	-109.057	0.638	0.137
-389.048	-145.983	0.272	-0.024
-388.033	-134.469	-0.226	0.028
-387.019	-179.454	-0.304	-0.007
-386.004	560.056	-0.042	-0.101
-384.990	-120.421	0.299	0.051
-383.975	-200.000	-0.012	-0.308
-382.960	-143.411	0.081	-0.008
-381.946	-9.334	0.139	0.093
-380.931	800.000	-0.061	-0.232
-379.917	-124.312	0.203	-0.032
-378.902	-135.989	0.242	-0.029
-377.888	-86.985	-0.111	0.034
-376.873	140.241	0.123	-0.163
-375.858	16.374	0.221	-0.176
-374.844	89.554	-0.123	0.138
-373.829	800.000	-0.105	-0.347
-372.815	-172.886	-0.282	-0.009
-371.800	63.663	-0.076	-0.077
-370.785	-65.941	0.202	0.081
-369.771	33.029	-0.118	-0.102
-368.756	27.180	-0.142	-0.120
-367.742	-85.004	-0.054	-0.017
-366.727	-0.914	0.111	-0.079
-365.712	-100.871	-0.248	-0.061
-364.698	9.178	0.144	0.109
-363.683	-53.523	0.301	0.138
-362.669	-61.434	-0.476	0.201
-361.654	303.166	0.023	0.042
-360.639	-71.034	-0.308	-0.116
-359.625	-5.466	0.022	0.015
-358.610	194.993	0.098	0.149
-357.596	-43.115	0.224	0.114
-356.581	785.995	-0.023	-0.064
-355.566	-92.619	0.139	0.039
-354.552	694.632	0.127	-0.334
-353.537	614.635	-0.070	0.177
-352.523	-200.000	0.023	0.132
-351.508	-68.912	0.393	-0.152
-350.493	78.112	-0.145	-0.155
-349.479	53.200	0.089	-0.086
-348.464	-18.043	0.098	-0.061
-347.450	-143.551	0.425	0.041
-346.435	800.000	0.054	-0.163
-345.420	-87.342	0.198	-0.060
-344.406	-156.379	-0.268	-0.017
-343.391	575.697	0.140	0.342
-342.377	-200.000	0.000	-0.050
-341.362	-141.027	-0.170	-0.017
-340.348	-10.846	0.037	-0.024
-339.333	73.787	0.199	0.209
-338.318	-87.836	-0.410	0.124
-337.304	83.623	0.019	-0.021
-336.289	-52.470	-0.170	-0.079
-335.275	89.532	0.094	0.105
-334.260	-200.000	-0.001	-0.191
-333.245	33.732	-0.069	0.060
-332.231	-200.000	0.008	-0.062
-331.216	-131.447	-0.200	-0.027
-330.202	-200.000	-0.017	-0.262
-329.187	-137.784	-0.027	0.003
-328.172	-164.870	-0.387	-0.017
-327.158	-108.972	0.211	-0.045
-326.143	-43.352	-0.071	0.036
-325.129	800.000	-0.028	0.111
-324.114	97.029	0.066	-0.076
-323.099	266.100	-0.100	0.175
-322.085	-168.089	-0.092	-0.004
-321.070	800.000	-0.081	-0.264
-320.056	-158.981	-0.011	-0.001
-319.041	166.619	-0.145	-0.206
-318.026	-200.000	0.002	-0.099
-317.012	259.898	0.131	-0.226
-315.997	25.186	0.126	-0.105
-314.983	800.000	-0.047	0.176
-313.968	-200.000	0.003	-0.025
-312.953	-140.383	0.099	-0.010
-311.939	-111.907	0.124	0.025
-310.924	-200.000	-0.070	0.411
-309.910	237.051	-0.102	0.170
-308.895	-183.415	-0.126	-0.002
-307.880	-77.982	0.096	-0.033
-306.866	76.597	-0.110	-0.117
-305.851	-58.705	0.345	0.150
-304.837	-200.000	0.038	-0.408
-303.822	-16.766	-0.070	0.044
-302.807	-108.174	0.389	-0.084
-301.793	299.941	-0.061	0.113
-300.778	133.581	-0.204	0.265
-299.764	-65.174	0.228	-0.092
-298.749	-94.495	-0.179	-0.049
-297.735	137.323	-0.155	-0.203
-296.720	800.000	-0.067	-0.198
-295.705	304.625	-0.216	-0.402
-294.691	-55.815	0.109	0.049
-293.676	174.825	0.096	0.139
-292.662	-200.000	-0.056	0.264
-291.647	296.934	0.137	0.251
-290.632	-41.748	0.073	0.037
-289.618	800.000	0.019	0.075
-288.603	-200.000	-0.021	0.154
-287.589	-44.380	0.127	0.064
-286.574	426.556	-0.085	-0.184
-285.559	-81.263	-0.417	-0.138
-284.545	-90.995	0.266	0.077
-283.530	6.087	-0.173	0.129
-282.516	10.473	-0.189	-0.144
-281.501	432.057	-0.071	0.153
-280.486	-47.723	0.129	0.063
-279.472	-131.806	0.109	-0.014
-278.457	319.391	0.183	-0.346
-277.443	-59.114	0.345	0.149
-276.428	52.439	0.032	0.030
-275.413	214.485	-0.100	-0.159
-274.399	-37.590	-0.078	0.042
-273.384	142.691	0.163	-0.216
-272.370	800.000	0.086	-0.281
-271.355	800.000	-0.089	0.313
-270.340	453.183	0.124	-0.275
-269.326	-200.000	-0.013	-0.172
-268.311	597.055	-0.107	0.265
-267.297	-200.000	0.036	0.262
-266.282	800.000	-0.077	0.240
-265.267	495.255	0.095	0.219
-264.253	-56.062	-0.339	0.151
-263.238	-91.721	0.112	0.032
-262.224	166.211	0.238	0.337
-261.209	-159.950	-0.510	0.028
-260.195	182.993	0.112	-0.165
-259.180	425.162	-0.043	-0.093
-258.165	66.357	0.027	-0.027
-257.151	-109.859	-0.015	0.003
-256.136	489.059	0.054	-0.124
-255.122	123.932	-0.198	-0.249
-254.107	-117.174	0.281	0.051
-253.092	407.781	0.164	0.348
-252.078	513.968	0.098	-0.229
-251.063	-97.588	0.167	-0.043
-250.049	698.510	-0.183	0.480
-249.034	-120.214	0.544	0.093
-248.019	102.995	-0.105	-0.122
-247.005	-104.262	-0.202	-0.047
-245.990	122.446	-0.257	0.321
-244.976	-109.787	0.254	0.053
-243.961	-155.673	-0.289	-0.019
-242.946	10.586	0.213	0.162
-241.932	75.981	0.314	-0.331
-240.917	-200.000	0.018	-0.198
-239.903	-200.000	-0.012	-0.072
-238.888	352.899	0.068	-0.135
-237.873	-31.491	0.326	0.183
-236.859	225.298	-0.113	0.183
-235.844	-51.029	0.135	0.063
-234.830	-139.880	-0.308	-0.033
-233.815	800.000	-0.071	0.229
-232.800	-32.928	0.287	-0.159
-231.786	-140.712	0.292	0.030
-230.771	311.600	0.121	0.226
-229.757	214.905	-0.103	0.163
-228.742	800.000	0.140	0.409
-227.727	-92.481	0.401	0.112
-226.713	-63.536	-0.229	-0.094
-225.698	-200.000	0.014	0.243
-224.684	46.396	0.204	0.189
-223.669	-48.801	-0.149	0.071
-222.655	720.100	-0.051	0.136
-221.640	120.989	-0.065	-0.081
-220.625	-108.520	0.389	-0.084
-219.611	-200.000	0.021	-0.269
-218.596	-147.893	0.173	-0.014
-217.582	-94.061	-0.254	0.070
-216.567	13.637	0.276	-0.214
-215.552	4.352	0.026	-0.019
-214.538	-93.042	-0.345	-0.096
-213.523	-28.097	0.075	0.044
-212.509	-74.544	-0.126	-0.045
-211.494	330.284	-0.100	0.191
-210.479	-12.417	-0.158	-0.103
-209.465	61.397	0.011	0.011
-208.450	-59.398	0.226	-0.097
-207.436	216.243	0.063	-0.099
-206.421	788.182	0.053	-0.145
-205.406	268.144	0.101	0.177
-204.392	-200.000	-0.000	-0.047
-203.377	168.427	0.061	0.087
-202.363	-200.000	0.016	0.176
-201.348	-100.904	-0.165	0.041
-200.333	51.246	-0.084	0.080
-199.319	-15.413	0.151	-0.096
-198.304	-16.761	0.188	-0.119
-197.290	-144.196	0.463	-0.043
-196.275	107.556	0.246	-0.292
-195.260	-51.171	0.092	0.043
-194.246	481.989	-0.047	-0.106
-193.231	-200.000	0.013	0.156
-192.217	51.687	-0.185	-0.175
-191.202	704.983	0.080	-0.211
-190.187	-89.096	-0.518	-0.153
-189.173	-88.705	-0.158	-0.047
-188.158	51.350	0.183	-0.173
-187.144	-158.320	-0.063	-0.004
-186.129	-5.952	0.175	-0.120
-185.114	-200.000	-0.011	-0.199
-184.100	800.000	-0.040	0.127
-183.085	-42.044	-0.137	-0.070
-182.071	135.106	-0.062	0.081
-181.056	-32.274	0.083	-0.046
-180.042	-121.808	-0.193	0.032
-179.027	-200.000	-0.009	0.055
-178.012	-122.134	-0.169	0.028
-176.998	19.170	-0.233	0.187
-175.983	-15.059	-0.320	0.204
-174.969	-200.000	0.023	-0.251
-173.954	-85.453	0.115	0.036
-172.939	350.514	0.025	-0.050
-171.925	513.889	-0.117	-0.272
-170.910	800.000	0.017	0.056
-169.896	-200.000	-0.004	-0.122
-168.881	445.161	0.135	-0.296
-167.866	196.739	0.125	-0.190
-166.852	375.031	-0.074	-0.150
-165.837	-159.874	-0.270	-0.015
-164.823	-105.240	-0.261	0.059
-163.808	800.000	-0.087	0.287
-162.793	-70.912	-0.287	-0.108
-161.779	686.509	0.082	-0.213
-160.764	80.238	-0.322	-0.346
-159.750	-32.142	-0.212	0.118
-158.735	800.000	-0.073	0.298
-157.720	-112.694	0.145	-0.029
-156.706	-200.000	0.009	0.404
-155.691	3.497	-0.094	0.068
-154.677	-107.616	-0.108	-0.023
-153.662	482.262	-0.075	-0.169
-152.647	-200.000	0.050	-0.365
-151.633	69.499	0.238	-0.244
-150.618	-79.544	0.154	-0.052
-149.604	59.234	-0.277	0.272
-148.589	189.792	0.185	0.277
-147.574	126.371	-0.025	0.032
-146.560	-74.225	-0.620	0.223
-145.545	-200.000	0.048	0.407
-144.531	-50.822	0.150	0.070
-143.516	-79.957	0.112	-0.038
-142.502	414.658	0.094	0.200
-141.487	-153.870	-0.085	0.006
-140.472	9.567	0.308	0.233
-139.458	110.815	-0.150	-0.179
-138.443	800.000	-0.041	0.129
-137.429	-200.000	0.002	-0.321
-136.414	12.926	0.050	0.039
-135.399	-145.683	0.036	0.003
-134.385	-98.589	0.244	-0.062
-133.370	220.788	-0.168	0.269
-132.356	-78.117	0.282	0.096
-131.341	-200.000	0.027	0.000
-130.326	77.128	0.064	-0.068
-129.312	-200.000	0.009	-0.194
-128.297	-83.088	0.176	0.056
-127.283	-200.000	0.009	-0.068
-126.268	182.523	0.013	0.020
-125.253	151.136	0.189	-0.256
-124.239	7.099	0.106	-0.079
-123.224	800.000	0.052	0.151
-122.210	-150.346	0.265	-0.020
-121.195	32.095	-0.108	0.092
-120.180	233.211	0.181	-0.296
