DTS Sentinel unit serial number:	SN413079Multiplexer serial number:	ORYXHardware model number:	OX4-SRSoftware version number:	ORYX F/W v4.00 Oryx Data Collector v3.7.2.0data status	okinstallation	princeton_trtdifferential loss correction	single-endedforward channel	channel 2reverse channel	N/Adate	2019/09/12time	19:46:49forward acquisition time	15.00reverse acquisition time	0.00gamma	496.2192k internal	0.2327k external	0.2327temperature offset calibration	1.0163default loss term (dB/km)	0.3790temperature slope calibration	1.0000multiplexer offset coefficient	1.0000multiplexer slope coefficient	1.0000fibre end	0.00T internal ref (°C)	32.00T ext. ref 1 (°C)	3.39T ext. ref 2 (°C)	26.54length (m)	temperature (°C)	Stokes	anti-Stokes-747.200	-111.213	0.402	-0.083
-746.185	158.914	-0.332	0.466
-745.171	-64.783	-1.130	-0.461
-744.156	-200.000	0.061	-0.539
-743.142	391.486	0.125	-0.261
-742.127	-200.000	0.015	-0.348
-741.112	-91.076	0.977	0.283
-740.098	-98.800	-1.060	0.272
-739.083	800.000	0.131	0.468
-738.069	210.918	0.392	0.621
-737.054	-43.349	-0.730	0.372
-736.039	-66.577	0.221	-0.088
-735.025	247.564	-0.649	1.105
-734.010	107.699	0.443	-0.532
-732.996	143.104	-0.077	-0.103
-731.981	-157.975	0.746	0.044
-730.966	-200.000	-0.080	0.479
-729.952	-140.801	0.514	0.053
-728.937	-100.906	0.230	0.057
-727.923	-200.000	0.072	0.431
-726.908	800.000	0.049	-0.147
-725.894	-47.088	-0.363	-0.178
-724.879	-65.753	0.589	0.238
-723.864	-13.327	0.702	-0.459
-722.850	123.681	0.552	-0.698
-721.835	-200.000	-0.067	0.609
-720.821	-111.702	0.587	-0.120
-719.806	-26.450	-0.130	0.077
-718.791	-136.027	0.913	0.108
-717.777	-200.000	0.073	-0.529
-716.762	-107.005	-0.540	0.120
-715.748	-106.353	-1.101	0.248
-714.733	-200.000	0.022	-0.301
-713.718	73.354	-0.339	-0.358
-712.704	-200.000	0.130	0.596
-711.689	128.170	0.625	0.801
-710.675	-138.563	0.363	-0.040
-709.660	-13.192	-0.408	0.267
-708.645	20.449	0.595	0.484
-707.631	-23.616	0.814	-0.492
-706.616	-150.078	-0.415	-0.032
-705.602	386.983	0.163	-0.339
-704.587	-60.186	-0.484	0.208
-703.572	800.000	0.183	-0.728
-702.558	-200.000	-0.014	-0.120
-701.543	-85.123	0.670	0.211
-700.529	-50.586	1.175	0.557
-699.514	325.166	0.184	0.353
-698.499	-165.741	-0.621	0.027
-697.485	78.775	-0.391	-0.421
-696.470	163.000	-0.348	0.492
-695.456	-73.669	0.589	-0.216
-694.441	-13.511	-0.582	-0.379
-693.426	2.411	-0.252	-0.183
-692.412	-200.000	0.009	-0.728
-691.397	800.000	-0.279	-0.901
-690.383	-200.000	-0.046	-0.233
-689.368	-200.000	-0.050	-0.581
-688.354	23.060	-0.063	-0.052
-687.339	314.098	-0.217	0.411
-686.324	-74.523	0.096	-0.035
-685.310	117.987	-0.262	-0.325
-684.295	-109.169	-0.240	0.051
-683.281	191.309	-0.314	0.475
-682.266	45.677	0.366	0.340
-681.251	-175.034	0.107	0.003
-680.237	-40.464	0.572	-0.299
-679.222	800.000	0.097	-0.381
-678.208	-148.088	0.392	0.033
-677.193	-200.000	-0.008	-0.243
-676.178	-120.498	-0.191	0.033
-675.164	-200.000	-0.051	0.348
-674.149	559.744	0.161	0.390
-673.135	-47.202	0.354	-0.173
-672.120	1.254	0.709	-0.512
-671.105	108.748	-0.522	-0.627
-670.091	-200.000	0.064	-0.547
-669.076	366.845	-0.080	0.162
-668.062	-129.069	0.206	-0.029
-667.047	-115.461	0.137	0.026
-666.032	120.080	0.547	0.682
-665.018	-8.011	-0.292	0.198
-664.003	-78.586	-0.991	0.341
-662.989	515.268	0.298	0.700
-661.974	-45.393	0.386	0.192
-660.959	55.184	0.322	-0.313
-659.945	-200.000	-0.044	0.311
-658.930	800.000	-0.092	0.401
-657.916	253.130	0.102	0.174
-656.901	-187.645	0.336	-0.004
-655.886	-101.797	0.965	0.235
-654.872	349.935	-0.379	-0.752
-653.857	228.371	-0.100	-0.163
-652.843	96.966	0.509	-0.586
-651.828	208.291	0.231	-0.362
-650.814	614.196	0.242	0.610
-649.799	-134.454	0.481	-0.059
-648.784	94.933	-0.316	-0.361
-647.770	-23.936	-0.609	0.366
-646.755	-119.749	-0.294	-0.051
-645.741	-200.000	-0.058	-0.571
-644.726	-130.714	0.604	-0.082
-643.711	-200.000	0.007	-0.103
-642.697	-153.202	-0.616	-0.043
-641.682	283.345	-0.334	-0.603
-640.668	-200.000	-0.097	0.756
-639.653	-30.215	-0.677	-0.386
-638.638	52.473	-0.288	0.276
-637.624	5.872	-0.858	-0.638
-636.609	800.000	0.149	-0.435
-635.595	192.048	-0.451	0.683
-634.580	-90.229	-0.678	0.198
-633.565	132.441	0.322	0.417
-632.551	77.174	-0.645	0.689
-631.536	-200.000	-0.201	-1.068
-630.522	97.167	0.302	-0.348
-629.507	-7.393	0.111	0.075
-628.492	169.641	0.044	0.062
-627.478	32.834	0.497	-0.432
-626.463	-200.000	0.044	-0.235
-625.449	800.000	-0.149	0.632
-624.434	454.298	0.172	0.383
-623.419	71.563	-0.210	0.219
-622.405	-200.000	0.072	-0.961
-621.390	-200.000	-0.001	-0.208
-620.376	-56.915	0.619	-0.274
-619.361	-143.648	-0.569	-0.054
-618.346	-128.137	0.576	-0.083
-617.332	202.599	-0.399	0.618
-616.317	-29.292	0.684	-0.393
-615.303	3.044	0.499	-0.363
-614.288	-141.295	-0.124	0.013
-613.273	80.647	-0.398	0.430
-612.259	795.708	-0.321	0.886
-611.244	-195.353	-0.272	0.002
-610.230	-21.470	-0.608	0.372
-609.215	142.071	-0.254	-0.337
-608.201	-41.840	-0.131	-0.067
-607.186	389.346	-0.024	-0.050
-606.171	-45.504	-0.653	-0.325
-605.157	-138.831	0.215	0.024
-604.142	500.288	-0.318	-0.735
-603.128	210.404	0.117	0.183
-602.113	-94.304	-0.297	-0.081
-601.098	67.639	0.306	0.314
-600.084	-134.388	0.263	-0.032
-599.069	692.673	0.256	0.672
-598.055	44.221	0.712	0.655
-597.040	-48.374	0.760	0.367
-596.025	-54.427	-0.576	-0.262
-595.011	715.919	0.285	0.756
-593.996	800.000	-0.052	-0.173
-592.982	88.597	-0.336	0.374
-591.967	236.306	0.189	0.314
-590.952	249.682	0.032	0.055
-589.938	-72.129	-0.381	0.142
-588.923	-158.111	-0.384	-0.023
-587.909	-77.132	1.228	0.429
-586.894	-200.000	-0.054	0.374
-585.879	182.873	-0.310	-0.458
-584.865	-104.258	0.396	0.092
-583.850	800.000	0.182	0.575
-582.836	-45.071	0.117	-0.059
-581.821	789.316	0.161	0.444
-580.806	-10.683	-0.612	-0.406
-579.792	51.188	0.799	0.759
-578.777	415.932	-0.495	1.058
-577.763	81.836	0.350	-0.380
-576.748	800.000	-0.095	0.279
-575.733	-71.152	-0.127	0.048
-574.719	314.968	-0.369	-0.697
-573.704	45.402	-0.129	0.119
-572.690	-182.553	0.620	0.011
-571.675	-109.453	0.598	0.127
-570.661	-12.508	0.212	0.139
-569.646	147.016	0.489	-0.659
-568.631	-96.508	-0.540	0.143
-567.617	-121.090	0.875	0.147
-566.602	-33.812	-0.703	0.388
-565.588	-118.953	-0.247	-0.043
-564.573	-200.000	0.011	-0.364
-563.558	-200.000	0.037	-0.477
-562.544	-150.164	0.795	0.062
-561.529	207.037	0.206	-0.322
-560.515	-179.084	0.721	0.016
-559.500	-200.000	-0.078	-0.346
-558.485	243.404	0.079	-0.133
-557.471	800.000	0.397	-1.244
-556.456	-166.431	-0.816	0.034
-555.442	3.088	0.582	0.424
-554.427	-14.447	-0.338	-0.218
-553.412	-200.000	-0.082	0.408
-552.398	333.291	0.062	0.121
-551.383	-136.359	-0.969	0.113
-550.369	10.945	-0.057	-0.043
-549.354	528.815	0.030	0.070
-548.339	-94.914	-0.104	-0.028
-547.325	-200.000	-0.037	0.560
-546.310	794.680	-0.443	-1.219
-545.296	18.969	-0.582	-0.467
-544.281	-113.915	-0.743	-0.144
-543.266	-89.153	-0.025	-0.007
-542.252	120.858	-0.480	0.597
-541.237	-128.847	-0.246	0.035
-540.223	-200.000	-0.038	-0.651
-539.208	800.000	0.201	0.756
-538.193	-183.217	-0.128	0.002
-537.179	492.970	0.224	0.514
-536.164	-22.397	0.215	-0.130
-535.150	-101.170	-0.374	0.091
-534.135	-123.430	0.868	-0.138
-533.121	-200.000	-0.029	0.339
-532.106	133.419	0.396	0.512
-531.091	-200.000	0.014	0.586
-530.077	-63.996	-0.512	-0.209
-529.062	-97.498	1.041	-0.270
-528.048	-29.528	-0.847	0.484
-527.033	-17.660	0.338	0.212
-526.018	714.106	-0.057	0.152
-525.004	523.710	0.238	0.560
-523.989	390.477	-0.210	0.436
-522.975	-17.221	-0.461	0.290
-521.960	-61.156	0.597	-0.251
-520.945	800.000	0.108	-0.307
-519.931	-200.000	0.070	0.877
-518.916	257.705	0.537	-0.924
-517.902	-44.990	0.533	-0.265
-516.887	-108.488	-0.582	0.125
-515.872	-82.080	0.512	-0.167
-514.858	54.010	-0.172	0.165
-513.843	-49.906	0.339	0.161
-512.829	-4.283	0.717	-0.496
-511.814	-166.772	-0.348	-0.014
-510.799	-116.982	1.017	-0.186
-509.785	-193.095	1.010	-0.009
-508.770	-111.046	-0.952	0.195
-507.756	-51.791	0.677	0.315
-506.741	206.960	-0.495	0.770
-505.726	-77.245	0.380	0.132
-504.712	-70.083	-0.071	0.027
-503.697	88.186	0.474	0.526
-502.683	-200.000	-0.012	0.167
-501.668	-100.998	0.958	-0.235
-500.653	429.720	0.406	0.877
-499.639	-200.000	0.071	0.442
-498.624	25.920	0.610	0.508
-497.610	108.076	0.228	0.272
-496.595	245.414	-0.092	-0.155
-495.581	584.379	0.385	0.945
-494.566	177.743	0.752	-1.095
-493.551	800.000	-0.174	-0.526
-492.537	-124.524	0.491	-0.076
-491.522	71.599	-0.463	0.480
-490.508	369.250	0.170	0.343
-489.493	-49.416	-0.552	-0.263
-488.478	371.383	-0.154	-0.312
-487.464	-128.788	-0.545	-0.077
-486.449	-200.000	-0.011	-0.339
-485.435	87.975	-0.191	-0.211
-484.420	-175.854	0.669	-0.018
-483.405	-19.684	0.304	0.187
-482.391	53.984	-0.212	0.204
-481.376	-166.345	0.645	0.027
-480.362	-109.935	-0.220	0.046
-479.347	-200.000	0.031	0.406
-478.332	328.039	0.239	0.457
-477.318	-152.421	-0.561	0.040
-476.303	-23.337	0.198	-0.119
-475.289	422.746	-0.080	-0.171
-474.274	-18.515	-1.335	-0.831
-473.259	492.655	-0.284	-0.650
-472.245	-80.965	0.520	-0.172
-471.230	-200.000	0.042	-0.391
-470.216	120.766	0.563	0.698
-469.201	2.686	-0.555	0.402
-468.186	-200.000	0.090	0.503
-467.172	59.161	-0.270	0.265
-466.157	137.202	-0.660	0.860
-465.143	800.000	0.097	-0.303
-464.128	-103.811	0.372	-0.087
-463.113	26.119	-0.354	-0.295
-462.099	65.380	0.498	0.503
-461.084	46.229	0.120	-0.111
-460.070	-133.107	-0.439	0.055
-459.055	-77.405	-0.475	0.165
-458.040	157.192	0.203	-0.280
-457.026	588.888	0.097	-0.239
-456.011	-200.000	0.045	0.208
-454.997	509.714	-0.117	-0.271
-453.982	-200.000	0.029	0.307
-452.968	241.321	0.386	0.643
-451.953	10.609	-0.532	0.404
-450.938	-13.886	0.662	0.426
-449.924	-11.311	-0.375	-0.246
-448.909	-138.330	0.121	-0.013
-447.895	-200.000	0.015	0.345
-446.880	-128.485	1.020	-0.144
-445.865	378.791	-0.454	-0.926
-444.851	-141.432	-0.277	-0.028
-443.836	211.242	0.177	0.277
-442.822	-151.360	-0.389	0.029
-441.807	-200.000	-0.059	-0.303
-440.792	-84.485	-1.075	-0.338
-439.778	-69.413	-0.708	-0.270
-438.763	-200.000	-0.197	-1.117
-437.749	-108.427	-0.594	-0.128
-436.734	800.000	0.079	-0.226
-435.719	16.950	0.369	-0.291
-434.705	-173.887	0.398	0.012
-433.690	-200.000	0.052	-0.815
-432.676	-186.615	0.460	0.006
-431.661	-135.047	-0.679	0.081
-430.646	235.806	-0.130	-0.215
-429.632	-200.000	0.003	0.751
-428.617	-105.880	0.774	0.174
-427.603	23.521	-0.779	0.638
-426.588	-143.854	-0.599	0.056
-425.573	-40.503	-0.211	0.109
-424.559	-38.963	-1.174	0.615
-423.544	-200.000	0.063	-0.941
-422.530	772.182	0.185	-0.503
-421.515	-200.000	0.030	0.530
-420.500	19.707	0.221	0.177
-419.486	-200.000	-0.136	-0.601
-418.471	550.644	0.168	-0.402
-417.457	-10.146	0.306	-0.202
-416.442	-200.000	0.061	0.632
-415.428	330.286	0.524	-1.004
-414.413	312.181	-0.288	-0.538
-413.398	258.927	0.332	-0.570
-412.384	-44.947	0.348	0.172
-411.369	-119.940	-0.704	0.120
-410.355	-21.864	0.521	-0.315
-409.340	-62.521	0.552	0.228
-408.325	461.450	-0.063	-0.140
-407.311	-70.421	0.716	0.270
-406.296	-28.779	0.482	0.276
-405.282	-61.488	-1.017	-0.425
-404.267	-31.920	0.560	0.312
-403.252	-139.281	-0.718	-0.077
-402.238	138.635	-0.261	-0.340
-401.223	77.318	-0.093	-0.099
-400.209	-152.844	0.630	-0.044
-399.194	30.883	0.348	-0.296
-398.179	800.000	0.043	0.133
-397.165	162.676	0.195	-0.272
-396.150	-142.401	-0.257	-0.025
-395.136	119.997	-0.334	-0.412
-394.121	800.000	-0.287	-1.062
-393.106	-35.283	0.236	-0.128
-392.092	-115.289	0.179	-0.034
-391.077	-62.909	-0.591	0.243
-390.063	-200.000	0.121	-1.143
-389.048	26.378	0.778	0.647
-388.033	-200.000	-0.112	-0.569
-387.019	24.314	0.091	-0.075
-386.004	-37.100	0.369	0.196
-384.990	-200.000	-0.036	0.253
-383.975	10.531	0.323	0.245
-382.960	-200.000	-0.084	0.410
-381.946	716.808	0.306	0.808
-380.931	-82.123	-0.342	0.111
-379.917	470.222	0.360	0.803
-378.902	196.966	-0.250	-0.379
-377.888	-200.000	0.054	-0.600
-376.873	-98.581	-0.437	-0.111
-375.858	800.000	-0.181	0.688
-374.844	-140.920	0.374	-0.038
-373.829	634.936	0.111	-0.281
-372.815	105.361	-0.474	-0.557
-371.800	-173.968	-0.102	-0.003
-370.785	-106.998	-0.672	0.148
-369.771	55.409	-0.379	0.364
-368.756	27.175	-0.493	-0.411
-367.742	83.931	-0.333	-0.361
-366.727	-200.000	0.056	0.272
-365.712	800.000	-0.094	-0.324
-364.698	5.310	0.358	-0.262
-363.683	601.801	-0.101	0.250
-362.669	68.336	-0.635	0.646
-361.654	299.243	-0.196	-0.359
-360.639	-200.000	0.004	-0.437
-359.625	-79.243	0.714	-0.241
-358.610	-161.637	-0.953	0.048
-357.596	-200.000	-0.064	-0.342
-356.581	14.006	-0.352	0.272
-355.566	800.000	-0.245	0.789
-354.552	800.000	0.345	-0.952
-353.537	-16.075	-0.716	-0.452
-352.523	676.985	0.113	-0.290
-351.508	800.000	-0.066	0.209
-350.493	-200.000	0.026	0.549
-349.479	-100.204	-0.225	0.056
-348.464	20.659	-0.421	-0.338
-347.450	151.269	0.197	-0.266
-346.435	800.000	-0.146	0.424
-345.420	-200.000	-0.156	0.770
-344.406	-54.225	-0.656	0.296
-343.391	800.000	0.108	0.411
-342.377	724.796	0.234	0.620
-341.362	-200.000	1.130	-0.005
-340.348	110.066	-0.444	-0.529
-339.333	-106.933	-1.038	0.228
-338.318	800.000	-0.172	0.626
-337.304	102.335	0.796	-0.923
-336.289	800.000	-0.092	0.394
-335.275	118.232	0.392	-0.479
-334.260	-200.000	-0.046	0.773
-333.245	249.845	0.428	-0.720
-332.231	-54.093	0.875	0.395
-331.216	-144.258	-0.066	-0.006
-330.202	800.000	0.137	-0.454
-329.187	-200.000	0.027	0.363
-328.172	-102.052	0.645	-0.154
-327.158	-184.876	-0.536	-0.008
-326.143	-174.962	-0.377	0.010
-325.129	76.373	-0.221	0.232
-324.114	-12.152	-0.459	0.298
-323.099	-76.345	-0.682	0.238
-322.085	103.862	0.521	0.607
-321.070	-168.013	0.666	-0.026
-320.056	-168.130	0.846	0.033
-319.041	-87.229	-0.513	0.155
-318.026	28.476	-0.360	0.302
-317.012	31.388	0.530	-0.451
-315.997	-200.000	0.055	-0.717
-314.983	-111.021	0.523	-0.106
-313.968	185.311	-0.442	0.650
-312.953	800.000	0.159	0.474
-311.939	-45.676	0.410	-0.201
-310.924	-200.000	-0.071	-0.323
-309.910	190.214	0.571	-0.850
-308.895	176.384	0.073	-0.105
-307.880	-81.293	-0.724	0.237
-306.866	590.985	0.086	-0.210
-305.851	311.340	0.199	0.370
-304.837	397.881	0.117	0.242
-303.822	677.301	0.005	0.013
-302.807	-94.833	-0.511	-0.137
-301.793	183.703	0.459	-0.673
-300.778	407.259	0.530	1.110
-299.764	377.006	-0.519	-1.050
-298.749	458.439	-0.097	-0.214
-297.735	-74.442	-0.579	0.207
-296.720	-200.000	0.035	-0.447
-295.705	24.689	-0.814	0.667
-294.691	244.654	-0.598	-0.995
-293.676	-67.018	-0.622	0.243
-292.662	-145.814	-0.429	-0.038
-291.647	-200.000	0.060	-0.345
-290.632	-200.000	-0.037	0.315
-289.618	277.461	-0.502	0.884
-288.603	-73.939	-0.126	-0.045
-287.589	-147.977	0.262	0.022
-286.574	-142.482	0.973	0.095
-285.559	2.970	0.190	-0.137
-284.545	-149.488	-0.964	0.076
-283.530	-139.059	0.480	0.051
-282.516	-151.443	-0.088	0.006
-281.501	-162.364	0.659	-0.032
-280.486	175.490	-0.315	-0.452
-279.472	179.034	-0.500	-0.724
-278.457	138.991	0.480	0.624
-277.443	110.944	-0.412	-0.490
-276.428	-115.935	0.281	-0.052
-275.413	400.115	0.324	-0.672
-274.399	-48.888	0.330	-0.157
-273.384	-84.354	0.276	-0.086
-272.370	-92.992	-0.806	-0.222
-271.355	-38.423	0.132	-0.069
-270.340	-36.635	0.347	-0.185
-269.326	-110.622	0.851	0.174
-268.311	-16.767	-0.200	-0.125
-267.297	-107.458	-0.601	0.130
-266.282	-149.158	0.293	0.023
-265.267	800.000	0.078	-0.236
-264.253	800.000	-0.219	-0.611
-263.238	282.463	0.395	0.701
-262.224	-149.110	0.417	0.033
-261.209	-17.134	0.662	-0.413
-260.195	800.000	-0.231	0.652
-259.180	99.014	0.517	-0.591
-258.165	-117.037	0.707	-0.128
-257.151	-74.090	-0.242	-0.087
-256.136	-30.699	-0.064	0.036
-255.122	-111.911	-0.762	-0.152
-254.107	-94.630	-0.260	0.070
-253.092	-115.219	0.532	-0.100
-252.078	166.450	0.458	-0.641
-251.063	101.822	-0.542	0.626
-250.049	-200.000	0.198	-0.963
-249.034	-65.191	-0.445	0.177
-248.019	-200.000	0.008	1.019
-247.005	66.239	0.083	-0.083
-245.990	-74.757	0.752	-0.267
-244.976	-38.130	0.353	-0.185
-243.961	800.000	0.066	-0.224
-242.946	-50.128	-0.702	-0.328
-241.932	800.000	-0.099	0.418
-240.917	60.915	-0.268	0.263
-239.903	-61.727	0.800	0.331
-238.888	752.348	-0.063	0.169
-237.873	19.782	-0.842	-0.670
-236.859	64.948	-0.368	0.367
-235.844	-200.000	0.099	-0.507
-234.830	-200.000	-0.027	-0.201
-233.815	35.310	-0.517	0.448
-232.800	800.000	-0.171	0.476
-231.786	-45.077	-0.768	0.378
-230.771	788.117	0.234	0.636
-229.757	-107.704	-0.249	0.054
-228.742	202.337	0.269	-0.411
-227.727	68.948	-0.502	-0.509
-226.713	638.323	0.194	-0.486
-225.698	-200.000	-0.073	-0.758
-224.684	-200.000	-0.056	0.483
-223.669	19.265	-0.574	0.455
-222.655	23.469	0.070	-0.057
-221.640	-200.000	-0.058	-0.654
-220.625	111.010	0.283	0.337
-219.611	-200.000	0.024	0.300
-218.596	800.000	0.116	-0.415
-217.582	-140.223	0.654	-0.068
-216.567	-130.845	0.283	0.037
-215.552	377.524	-0.175	0.353
-214.538	-116.136	-0.198	-0.036
-213.523	-57.557	-0.453	0.196
-212.509	-80.829	0.397	-0.130
-211.494	-167.660	-0.539	-0.021
-210.479	-58.582	-0.810	0.347
-209.465	800.000	-0.201	0.680
-208.450	-10.139	0.338	0.221
-207.436	159.141	-0.414	-0.568
-206.421	-8.123	0.266	0.177
-205.406	335.192	-0.116	0.222
-204.392	-167.325	0.610	0.024
-203.377	800.000	0.352	1.060
-202.363	-99.810	-0.555	0.137
-201.348	-200.000	-0.011	0.339
-200.333	-51.472	0.729	0.336
-199.319	-10.326	0.213	-0.139
-198.304	335.880	0.234	-0.448
-197.290	-145.691	0.807	-0.071
-196.275	-4.007	-0.139	0.095
-195.260	84.091	0.436	-0.470
-194.246	-125.003	-1.041	0.158
-193.231	-200.000	0.036	-0.397
-192.217	-54.777	0.780	-0.347
-191.202	800.000	-0.155	0.459
-190.187	149.227	0.431	-0.575
-189.173	-78.850	-0.168	0.056
-188.158	800.000	-0.249	0.919
-187.144	145.129	-0.247	-0.326
-186.129	800.000	0.150	-0.570
-185.114	30.920	0.103	0.087
-184.100	407.706	-0.089	-0.185
-183.085	-64.677	0.622	-0.249
-182.071	-133.413	-0.298	-0.037
-181.056	-115.507	-0.418	0.077
-180.042	799.212	0.230	-0.626
-179.027	-200.000	-0.026	-0.142
-178.012	-200.000	-0.108	-0.920
-176.998	800.000	-0.264	0.878
-175.983	-200.000	0.055	0.379
-174.969	-200.000	-0.012	-0.150
-173.954	-104.638	0.344	-0.078
-172.939	214.382	-0.271	-0.423
-171.925	800.000	0.180	-0.498
-170.910	-97.919	0.491	-0.125
-169.896	800.000	0.050	-0.217
-168.881	67.495	-0.148	0.149
-167.866	31.157	0.427	-0.361
-166.852	-7.660	-0.492	-0.328
-165.837	198.652	-0.049	0.074
-164.823	-169.714	0.465	-0.017
-163.808	-75.247	1.034	-0.364
-162.793	-200.000	-0.011	-0.497
-161.779	800.000	0.076	0.317
-160.764	-200.000	-0.115	0.630
-159.750	-15.222	0.071	-0.045
-158.735	301.583	0.076	0.138
-157.720	327.368	-0.302	0.571
-156.706	-163.836	0.411	0.019
-155.691	-200.000	-0.011	-0.184
-154.677	-32.022	0.309	0.170
-153.662	283.679	-0.413	0.731
-152.647	-200.000	0.136	0.695
-151.633	142.683	-0.377	-0.494
-150.618	220.278	0.059	-0.093
-149.604	-200.000	0.118	-0.767
-148.589	-1.076	-0.232	-0.161
-147.574	15.212	0.639	0.493
-146.560	14.559	0.536	-0.412
-145.545	-185.780	0.968	-0.014
-144.531	-122.082	0.531	0.086
-143.516	-200.000	-0.061	-0.430
-142.502	-200.000	-0.130	-1.044
-141.487	-200.000	-0.141	0.642
-140.472	154.766	0.261	-0.353
-139.458	-200.000	-0.018	0.378
-138.443	-48.104	-0.261	0.124
-137.429	71.510	0.125	-0.128
-136.414	90.826	0.201	0.221
-135.399	151.531	0.495	0.663
-134.385	469.724	0.348	0.770
-133.370	-134.720	-0.200	0.024
-132.356	-83.611	0.495	0.156
-131.341	27.341	0.229	0.190
-130.326	800.000	0.156	-0.535
-129.312	-92.551	-0.285	-0.079
-128.297	148.467	0.352	0.468
-127.283	800.000	-0.324	0.940
-126.268	-57.755	-0.782	-0.337
-125.253	222.365	-0.103	0.162
-124.239	118.582	0.148	-0.180
-123.224	-100.515	0.371	0.090
-122.210	800.000	-0.080	-0.344
