DTS Sentinel unit serial number:	SN413079Multiplexer serial number:	ORYXHardware model number:	OX4-SRSoftware version number:	ORYX F/W v4.00 Oryx Data Collector v3.7.2.0data status	okinstallation	princeton_trtdifferential loss correction	single-endedforward channel	channel 2reverse channel	N/Adate	2019/09/13time	14:51:34forward acquisition time	60.00reverse acquisition time	0.00gamma	496.2192k internal	0.2313k external	0.2313temperature offset calibration	1.0207default loss term (dB/km)	0.3790temperature slope calibration	1.0000multiplexer offset coefficient	1.0000multiplexer slope coefficient	1.0000fibre end	0.00T internal ref (°C)	35.58T ext. ref 1 (°C)	4.69T ext. ref 2 (°C)	31.96length (m)	temperature (°C)	Stokes	anti-Stokes-747.200	-200.000	-0.025	0.201
-746.185	-164.914	0.162	0.007
-745.171	338.726	-0.084	-0.167
-744.156	666.329	-0.047	0.122
-743.142	491.021	-0.084	-0.195
-742.127	-54.873	-0.235	0.107
-741.112	-200.000	0.006	-0.162
-740.098	468.789	0.190	0.433
-739.083	-105.335	0.391	-0.090
-738.069	-200.000	-0.042	0.390
-737.054	-147.319	0.075	-0.006
-736.039	5.458	0.024	-0.018
-735.025	-200.000	0.003	0.223
-734.010	-200.000	0.078	-0.347
-732.996	204.466	0.080	0.126
-731.981	-140.212	0.171	-0.018
-730.966	-183.706	-0.202	0.003
-729.952	-34.845	0.047	-0.026
-728.937	122.115	-0.080	-0.101
-727.923	-200.000	0.039	-0.209
-726.908	-114.641	0.369	0.072
-725.894	32.965	-0.179	-0.157
-724.879	800.000	-0.095	-0.374
-723.864	-57.231	0.227	-0.101
-722.850	-200.000	0.040	-0.298
-721.835	-114.230	0.130	-0.025
-720.821	-144.018	-0.207	0.020
-719.806	-121.422	0.042	0.007
-718.791	-59.159	-0.102	-0.045
-717.777	-18.185	0.226	-0.143
-716.762	-91.145	0.057	0.017
-715.748	800.000	0.077	0.259
-714.733	132.352	0.104	0.136
-713.718	-129.776	-0.012	0.002
-712.704	84.285	0.058	0.064
-711.689	-31.487	0.049	-0.028
-710.675	-200.000	-0.034	-0.306
-709.660	800.000	-0.035	0.152
-708.645	-130.959	0.251	0.034
-707.631	-75.975	-0.148	-0.053
-706.616	-149.350	-0.080	-0.006
-705.602	-200.000	-0.008	-0.197
-704.587	-14.405	0.157	-0.103
-703.572	-144.266	0.221	0.021
-702.558	-200.000	-0.051	0.430
-701.543	189.544	-0.119	-0.180
-700.529	183.309	-0.161	-0.241
-699.514	-61.918	-0.318	-0.135
-698.499	-200.000	-0.006	0.134
-697.485	205.865	-0.099	-0.156
-696.470	-124.702	0.521	0.082
-695.456	308.032	0.040	0.075
-694.441	-34.282	-0.063	-0.035
-693.426	-24.780	0.085	-0.051
-692.412	-56.081	-0.199	0.090
-691.397	-200.000	-0.078	0.391
-690.383	-4.319	0.352	0.247
-689.368	-200.000	0.034	-0.260
-688.354	4.833	-0.282	-0.210
-687.339	-72.122	-0.298	-0.112
-686.324	-158.028	-0.143	0.009
-685.310	68.768	0.215	0.223
-684.295	800.000	-0.127	-0.472
-683.281	-16.401	-0.202	-0.130
-682.266	-200.000	0.063	-0.427
-681.251	-200.000	-0.030	0.170
-680.237	-138.860	-0.255	-0.028
-679.222	215.909	-0.200	-0.321
-678.208	-58.620	0.267	-0.117
-677.193	-200.000	0.004	-0.068
-676.178	-200.000	-0.032	-0.148
-675.164	472.180	0.070	-0.158
-674.149	800.000	-0.060	-0.215
-673.135	129.172	-0.064	-0.083
-672.120	-97.675	0.117	-0.031
-671.105	800.000	-0.061	0.181
-670.091	-159.308	-0.090	0.005
-669.076	800.000	0.142	-0.411
-668.062	800.000	0.074	-0.292
-667.047	361.912	0.063	0.128
-666.032	101.887	-0.180	-0.213
-665.018	42.455	0.131	0.120
-664.003	-200.000	-0.018	-0.397
-662.989	180.853	0.111	-0.165
-661.974	-79.470	-0.179	-0.061
-660.959	-130.723	0.521	-0.071
-659.945	-120.349	-0.075	0.013
-658.930	-200.000	-0.061	0.344
-657.916	800.000	-0.032	0.118
-656.901	144.326	-0.349	-0.470
-655.886	-200.000	0.024	0.142
-654.872	-87.245	0.292	0.090
-653.857	-44.263	-0.211	-0.107
-652.843	305.388	-0.187	0.352
-651.828	-12.289	-0.035	-0.023
-650.814	-200.000	0.001	0.197
-649.799	800.000	0.055	-0.234
-648.784	800.000	0.128	-0.402
-647.770	800.000	0.034	0.128
-646.755	-42.142	-0.138	-0.071
-645.741	59.905	0.132	0.131
-644.726	-72.346	-0.042	-0.016
-643.711	-103.790	-0.128	-0.030
-642.697	-41.148	-0.173	-0.090
-641.682	-102.686	0.342	-0.082
-640.668	800.000	-0.048	-0.206
-639.653	-73.798	-0.335	-0.123
-638.638	-69.300	-0.199	-0.077
-637.624	13.374	0.269	0.211
-636.609	67.513	-0.121	-0.125
-635.595	-95.688	-0.163	0.044
-634.580	-20.848	-0.170	-0.105
-633.565	-4.040	0.225	-0.158
-632.551	10.891	0.174	0.134
-631.536	66.295	-0.263	-0.269
-630.522	204.924	0.175	-0.274
-629.507	51.985	-0.083	-0.079
-628.492	-200.000	-0.073	-0.324
-627.478	31.538	0.170	-0.147
-626.463	-62.146	0.417	-0.176
-625.449	134.067	-0.061	-0.080
-624.434	-46.739	0.316	0.156
-623.419	-200.000	-0.013	-0.133
-622.405	-121.108	-0.191	0.032
-621.390	-200.000	-0.016	-0.123
-620.376	-172.494	0.201	0.006
-619.361	-200.000	-0.002	-0.031
-618.346	-122.470	-0.352	0.058
-617.332	30.487	0.202	-0.174
-616.317	35.284	-0.202	0.179
-615.303	24.275	-0.179	0.149
-614.288	-72.823	-0.115	-0.043
-613.273	499.518	-0.067	0.155
-612.259	-200.000	-0.043	0.254
-611.244	24.064	-0.262	0.218
-610.230	59.555	0.291	0.290
-609.215	-133.172	0.162	-0.021
-608.201	467.222	0.126	-0.285
-607.186	800.000	0.030	-0.098
-606.171	241.388	-0.019	-0.032
-605.157	-128.324	0.142	-0.020
-604.142	-127.988	-0.236	-0.034
-603.128	-77.786	0.336	-0.117
-602.113	5.574	-0.057	-0.043
-601.098	22.854	-0.504	-0.417
-600.084	234.151	0.091	-0.151
-599.069	164.230	0.225	0.320
-598.055	800.000	-0.104	0.381
-597.040	-147.214	0.098	0.008
-596.025	256.082	0.077	0.134
-595.011	-117.784	0.126	0.023
-593.996	-200.000	0.024	0.291
-592.982	-56.715	0.233	0.104
-591.967	201.479	0.165	0.257
-590.952	800.000	0.006	0.016
-589.938	58.198	-0.132	0.131
-588.923	-182.528	0.085	0.002
-587.909	499.595	0.203	0.473
-586.894	-99.729	0.075	-0.019
-585.879	-25.543	-0.108	0.064
-584.865	800.000	0.033	0.130
-583.850	19.079	0.117	0.095
-582.836	-8.585	0.162	-0.109
-581.821	-36.402	-0.324	0.176
-580.806	-199.964	-0.135	0.001
-579.792	391.889	0.063	0.133
-578.777	93.649	0.201	-0.230
-577.763	203.372	-0.121	0.189
-576.748	251.136	-0.157	-0.269
-575.733	387.735	-0.066	0.138
-574.719	11.173	-0.198	-0.152
-573.704	-141.751	-0.117	-0.012
-572.690	800.000	0.023	-0.067
-571.675	432.373	-0.124	0.271
-570.661	-126.285	0.127	-0.019
-569.646	257.423	-0.169	0.293
-568.631	-45.117	0.040	-0.020
-567.617	-23.042	0.323	-0.196
-566.602	-200.000	-0.018	-0.260
-565.588	-15.648	-0.117	-0.075
-564.573	148.064	0.264	0.358
-563.558	-200.000	-0.001	0.189
-562.544	-200.000	-0.008	0.306
-561.529	-200.000	0.052	0.259
-560.515	-200.000	-0.040	0.234
-559.500	-200.000	0.031	-0.369
-558.485	-200.000	0.031	0.301
-557.471	-200.000	0.000	-0.256
-556.456	215.722	-0.109	0.174
-555.442	128.771	-0.067	0.086
-554.427	-49.229	0.249	-0.120
-553.412	-200.000	0.002	-0.122
-552.398	-200.000	0.036	0.163
-551.383	-4.745	-0.121	-0.084
-550.369	111.165	0.103	0.125
-549.354	-55.547	0.237	0.107
-548.339	-53.877	0.170	-0.078
-547.325	3.385	0.045	0.033
-546.310	77.799	-0.251	-0.269
-545.296	-97.778	0.140	-0.036
-544.281	-121.228	-0.105	0.018
-543.266	594.097	-0.081	-0.201
-542.252	14.187	-0.129	-0.101
-541.237	-9.963	0.155	0.103
-540.223	800.000	-0.090	0.313
-539.208	-28.499	-0.205	0.119
-538.193	55.918	0.060	0.059
-537.179	547.440	-0.046	-0.110
-536.164	-11.877	-0.093	0.061
-535.150	-67.902	-0.256	0.100
-534.135	-109.134	0.589	0.126
-533.121	-70.264	-0.216	0.082
-532.106	-43.773	0.272	-0.138
-531.091	-27.691	-0.016	0.009
-530.077	216.166	-0.084	-0.134
-529.062	800.000	-0.087	-0.308
-528.048	-82.704	-0.406	0.132
-527.033	-200.000	-0.008	-0.067
-526.018	315.852	0.032	0.061
-525.004	60.820	-0.132	-0.132
-523.989	22.838	-0.298	0.246
-522.975	485.934	0.172	-0.394
-521.960	131.048	0.173	-0.223
-520.945	-15.439	0.070	-0.045
-519.931	-85.770	-0.221	0.069
-518.916	174.947	-0.223	0.325
-517.902	-183.489	-0.022	0.000
-516.887	-23.113	-0.001	-0.001
-515.872	394.822	-0.186	-0.389
-514.858	-200.000	-0.005	0.072
-513.843	-114.224	-0.133	-0.026
-512.829	-200.000	-0.032	0.198
-511.814	2.490	0.139	0.101
-510.799	2.025	0.094	0.068
-509.785	-118.455	0.159	0.028
-508.770	-84.624	-0.263	-0.083
-507.756	244.284	-0.180	0.303
-506.741	196.013	0.166	0.254
-505.726	-157.898	0.233	-0.014
-504.712	-200.000	0.022	-0.146
-503.697	-109.796	0.301	-0.064
-502.683	-76.113	0.210	0.074
-501.668	-93.384	0.441	0.123
-500.653	12.040	-0.097	-0.075
-499.639	-114.364	0.165	0.032
-498.624	-157.592	0.228	0.014
-497.610	-148.900	0.423	-0.034
-496.595	800.000	-0.128	-0.389
-495.581	-113.965	-0.156	0.030
-494.566	321.952	-0.029	0.056
-493.551	-86.004	0.203	0.063
-492.537	-200.000	-0.038	0.209
-491.522	-200.000	-0.066	0.370
-490.508	270.838	0.055	0.097
-489.493	-152.114	0.220	-0.016
-488.478	575.560	-0.054	-0.132
-487.464	-98.384	0.135	-0.035
-486.449	-200.000	0.040	-0.387
-485.435	-200.000	-0.009	-0.291
-484.420	-167.101	-0.107	-0.004
-483.405	-96.742	-0.265	-0.070
-482.391	-29.713	0.129	0.074
-481.376	17.281	0.033	0.026
-480.362	337.307	0.072	-0.141
-479.347	-181.103	0.418	0.008
-478.332	-185.922	-0.384	-0.006
-477.318	-87.191	-0.419	-0.128
-476.303	10.258	0.093	0.071
-475.289	462.406	-0.126	0.282
-474.274	51.100	-0.248	-0.236
-473.259	-98.133	0.151	-0.039
-472.245	-200.000	-0.054	-0.305
-471.230	-34.570	-0.155	0.085
-470.216	800.000	0.078	-0.224
-469.201	152.762	0.054	-0.075
-468.186	-64.085	-0.059	-0.024
-467.172	700.805	0.087	0.230
-466.157	-200.000	-0.046	0.236
-465.143	496.737	0.046	0.106
-464.128	203.286	0.073	0.113
-463.113	-114.734	0.199	0.038
-462.099	89.793	0.137	0.154
-461.084	91.570	-0.178	0.200
-460.070	-200.000	-0.037	-0.167
-459.055	-200.000	0.007	0.081
-458.040	247.331	-0.144	-0.244
-457.026	470.138	0.175	0.395
-456.011	-63.985	-0.336	-0.138
-454.997	138.826	-0.073	0.096
-453.982	11.613	-0.167	-0.129
-452.968	-117.175	0.311	0.057
-451.953	-200.000	0.013	0.191
-450.938	335.873	-0.067	0.131
-449.924	317.372	-0.171	-0.324
-448.909	-63.596	0.167	0.069
-447.895	-35.212	-0.278	0.152
-446.880	364.250	0.078	0.157
-445.865	800.000	-0.086	-0.310
-444.851	-145.423	-0.241	0.022
-443.836	-200.000	-0.026	0.272
-442.822	536.651	-0.080	0.190
-441.807	-200.000	0.041	-0.242
-440.792	5.359	0.136	0.101
-439.778	-12.326	-0.018	-0.012
-438.763	-22.062	0.380	-0.231
-437.749	-55.751	0.401	-0.180
-436.734	-4.512	-0.139	-0.097
-435.719	-200.000	0.019	-0.216
-434.705	282.091	0.070	-0.126
-433.690	-200.000	-0.045	-0.223
-432.676	89.760	-0.052	0.059
-431.661	767.836	0.078	0.212
-430.646	386.318	0.101	-0.208
-429.632	-48.215	-0.086	0.042
-428.617	80.875	0.138	0.149
-427.603	-12.271	0.377	0.247
-426.588	146.751	-0.052	0.070
-425.573	-141.794	-0.325	0.033
-424.559	-100.566	-0.369	-0.091
-423.544	51.276	-0.216	-0.205
-422.530	-53.626	0.226	-0.103
-421.515	-174.052	-0.133	0.004
-420.500	-159.343	-0.232	0.013
-419.486	800.000	0.108	-0.363
-418.471	-91.119	0.210	-0.060
-417.457	545.889	0.122	-0.293
-416.442	-128.833	0.169	-0.024
-415.428	-200.000	-0.039	-0.233
-414.413	-200.000	-0.028	-0.150
-413.398	800.000	-0.020	-0.069
-412.384	-80.477	0.073	-0.025
-411.369	529.781	-0.094	0.222
-410.355	79.398	-0.134	0.144
-409.340	-200.000	-0.067	-0.356
-408.325	-7.504	-0.246	-0.167
-407.311	-161.399	0.139	0.007
-406.296	-85.307	0.218	-0.068
-405.282	-200.000	-0.040	-0.227
-404.267	-200.000	-0.018	-0.101
-403.252	154.252	0.281	0.386
-402.238	-200.000	0.009	0.094
-401.223	-200.000	0.032	0.144
-400.209	9.098	-0.182	0.138
-399.194	-85.226	-0.237	0.074
-398.179	-3.005	-0.065	0.046
-397.165	-200.000	0.004	-0.204
-396.150	-136.513	-0.220	0.026
-395.136	-28.972	-0.049	0.028
-394.121	-64.887	-0.295	-0.119
-393.106	-200.000	0.001	0.098
-392.092	800.000	-0.038	0.136
-391.077	582.316	-0.036	-0.090
-390.063	347.607	-0.045	0.088
-389.048	345.731	-0.098	0.193
-388.033	800.000	-0.048	-0.209
-387.019	143.514	0.072	-0.096
-386.004	-19.870	-0.159	-0.098
-384.990	800.000	0.044	0.184
-383.975	-70.828	-0.122	0.046
-382.960	800.000	0.015	-0.054
-381.946	-33.753	-0.102	0.056
-380.931	464.967	-0.044	-0.098
-379.917	-106.157	0.133	-0.030
-378.902	537.570	0.110	0.261
-377.888	800.000	0.064	-0.200
-376.873	168.586	0.119	0.169
-375.858	-19.943	0.176	0.109
-374.844	-74.256	0.205	-0.074
-373.829	800.000	0.038	0.147
-372.815	-62.695	-0.247	-0.102
-371.800	-200.000	-0.017	-0.133
-370.785	-154.647	-0.110	0.007
-369.771	-200.000	-0.012	-0.162
-368.756	800.000	-0.141	-0.485
-367.742	-200.000	-0.049	-0.349
-366.727	-13.034	0.146	0.095
-365.712	-200.000	0.077	-0.369
-364.698	-29.180	0.096	-0.055
-363.683	-200.000	0.085	0.473
-362.669	22.178	-0.174	0.142
-361.654	685.988	-0.023	0.061
-360.639	800.000	-0.028	-0.120
-359.625	14.212	0.153	0.119
-358.610	-27.787	0.306	-0.177
-357.596	35.259	-0.083	-0.073
-356.581	291.644	-0.094	0.171
-355.566	-36.489	0.201	0.108
-354.552	-200.000	-0.014	0.069
-353.537	504.713	0.089	0.206
-352.523	174.666	0.236	-0.341
-351.508	669.290	-0.139	-0.360
-350.493	-103.984	0.280	-0.065
-349.479	85.992	-0.206	-0.226
-348.464	-120.519	-0.135	-0.023
-347.450	373.610	-0.098	0.200
-346.435	18.298	-0.077	-0.061
-345.420	-200.000	-0.018	0.306
-344.406	77.284	0.132	0.141
-343.391	800.000	0.034	-0.111
-342.377	-175.935	0.108	0.003
-341.362	186.402	-0.069	0.103
-340.348	-170.887	-0.180	-0.006
-339.333	-109.738	-0.257	-0.054
-338.318	-82.701	-0.091	0.029
-337.304	-89.308	-0.341	0.100
-336.289	-200.000	-0.027	0.301
-335.275	800.000	0.146	0.540
-334.260	-170.954	-0.072	-0.002
-333.245	-3.494	-0.114	0.079
-332.231	15.632	-0.134	-0.105
-331.216	-111.316	0.131	-0.027
-330.202	-36.935	0.126	0.067
-329.187	629.377	-0.046	0.117
-328.172	24.833	0.132	-0.109
-327.158	-200.000	-0.011	-0.101
-326.143	-21.791	0.544	0.330
-325.129	-131.056	-0.378	0.050
-324.114	800.000	-0.067	0.190
-323.099	-39.996	-0.037	-0.019
-322.085	560.940	-0.048	0.117
-321.070	-28.323	0.160	0.092
-320.056	-200.000	0.047	-0.333
-319.041	-43.052	0.186	0.094
-318.026	147.890	-0.142	-0.191
-317.012	-137.875	0.240	-0.027
-315.997	262.968	0.084	0.145
-314.983	-145.823	0.315	0.028
-313.968	143.289	-0.055	0.073
-312.953	-127.311	-0.292	-0.042
-311.939	288.406	-0.187	0.338
-310.924	176.768	-0.150	-0.218
-309.910	450.425	0.055	0.120
-308.895	-89.130	0.440	0.130
-307.880	232.458	-0.104	-0.170
-306.866	-200.000	-0.011	0.098
-305.851	-81.446	-0.173	0.057
-304.837	-200.000	0.030	-0.191
-303.822	-68.719	0.217	0.084
-302.807	218.895	-0.024	-0.039
-301.793	-22.118	-0.265	-0.161
-300.778	800.000	-0.006	-0.020
-299.764	221.823	-0.056	-0.089
-298.749	163.519	0.083	-0.117
-297.735	3.265	-0.165	0.120
-296.720	-165.764	0.381	-0.016
-295.705	-200.000	0.017	-0.242
-294.691	-3.930	0.098	0.068
-293.676	-112.868	0.184	-0.036
-292.662	-34.060	0.369	-0.202
-291.647	-159.526	-0.398	-0.022
-290.632	10.003	0.082	0.062
-289.618	-172.990	-0.108	0.003
-288.603	-200.000	0.003	-0.106
-287.589	-59.362	-0.137	-0.059
-286.574	800.000	0.015	0.054
-285.559	-119.156	0.122	0.021
-284.545	-200.000	0.058	0.267
-283.530	-9.220	0.239	0.159
-282.516	-23.969	-0.180	-0.107
-281.501	661.216	0.100	0.255
-280.486	-200.000	-0.096	0.510
-279.472	-43.014	0.333	0.168
-278.457	-200.000	-0.006	-0.075
-277.443	-183.730	0.222	0.004
-276.428	526.808	-0.179	-0.419
-275.413	-156.877	0.355	0.022
-274.399	-200.000	0.007	-0.268
-273.384	-110.743	-0.108	0.022
-272.370	-2.028	-0.195	-0.137
-271.355	-90.780	-0.076	-0.022
-270.340	381.438	-0.064	0.131
-269.326	-84.507	0.352	-0.111
-268.311	-200.000	-0.018	-0.090
-267.297	26.649	-0.108	0.090
-266.282	-62.963	-0.137	0.056
-265.267	505.889	0.081	-0.188
-264.253	137.889	-0.077	0.100
-263.238	-200.000	-0.034	-0.188
-262.224	-35.430	-0.516	0.279
-261.209	-104.081	0.168	-0.039
-260.195	76.075	0.056	-0.059
-259.180	-151.574	0.531	-0.039
-258.165	-191.138	-0.023	0.000
-257.151	-161.790	0.421	-0.021
-256.136	690.138	-0.174	0.455
-255.122	-106.233	-0.325	0.073
-254.107	-48.602	0.094	-0.045
-253.092	800.000	0.147	-0.433
-252.078	15.594	-0.157	-0.122
-251.063	-76.234	0.027	-0.010
-250.049	6.732	0.086	-0.064
-249.034	-200.000	-0.106	0.496
-248.019	-61.454	0.181	0.076
-247.005	112.378	-0.143	0.171
-245.990	-200.000	-0.024	0.158
-244.976	-200.000	0.042	0.304
-243.961	800.000	-0.171	-0.473
-242.946	-96.449	0.177	0.047
-241.932	-200.000	0.042	-0.315
-240.917	367.846	0.053	-0.106
-239.903	-151.592	-0.421	0.031
-238.888	229.181	0.072	-0.116
-237.873	800.000	0.018	-0.059
-236.859	252.568	-0.127	-0.215
-235.844	800.000	-0.050	-0.163
-234.830	800.000	0.053	0.219
-233.815	137.112	-0.148	0.192
-232.800	-0.104	-0.276	-0.196
-231.786	257.382	-0.143	-0.245
-230.771	-117.121	0.261	0.047
-229.757	-200.000	0.008	0.221
-228.742	34.215	0.259	0.225
-227.727	391.966	-0.253	0.523
-226.713	-80.042	-0.104	0.035
-225.698	210.491	-0.188	0.293
-224.684	-114.153	-0.165	0.032
-223.669	-200.000	-0.004	0.044
-222.655	208.598	0.154	0.239
-221.640	173.641	-0.200	-0.287
-220.625	515.986	0.089	0.208
-219.611	784.286	0.076	0.208
-218.596	161.809	0.231	0.322
-217.582	38.198	-0.167	-0.148
-216.567	-200.000	-0.005	-0.041
-215.552	-200.000	-0.022	-0.203
-214.538	23.864	-0.131	-0.108
-213.523	1.219	0.365	-0.260
-212.509	-16.593	-0.308	-0.194
-211.494	-200.000	-0.043	-0.241
-210.479	-88.429	0.070	0.021
-209.465	54.544	-0.304	-0.291
-208.450	-200.000	-0.041	-0.225
-207.436	-200.000	-0.025	-0.195
-206.421	169.862	0.187	0.265
-205.406	-200.000	0.070	-0.389
-204.392	50.129	0.087	-0.082
-203.377	800.000	-0.022	0.083
-202.363	70.473	-0.113	0.116
-201.348	-200.000	-0.015	0.176
-200.333	36.213	0.077	-0.067
-199.319	160.942	-0.071	-0.099
-198.304	-200.000	-0.019	-0.097
-197.290	129.253	0.105	-0.133
-196.275	3.685	0.429	-0.311
-195.260	-15.896	-0.042	-0.026
-194.246	-200.000	-0.042	0.195
-193.231	-125.842	-0.095	-0.014
-192.217	-178.101	0.288	-0.007
-191.202	-37.495	-0.064	0.034
-190.187	800.000	0.096	0.288
-189.173	-200.000	-0.000	0.366
-188.158	800.000	-0.042	-0.121
-187.144	800.000	0.031	0.114
-186.129	-54.320	-0.304	-0.137
-185.114	-200.000	-0.037	-0.285
-184.100	-200.000	0.023	-0.157
-183.085	310.049	-0.107	0.198
-182.071	-200.000	0.013	0.231
-181.056	154.894	-0.085	-0.115
-180.042	353.652	0.136	-0.269
-179.027	800.000	-0.054	-0.228
-178.012	732.461	0.087	-0.232
-176.998	-200.000	0.000	0.003
-175.983	-200.000	0.056	0.344
-174.969	238.664	0.068	0.113
-173.954	-122.344	-0.244	0.040
-172.939	-158.728	0.327	-0.019
-171.925	65.149	-0.029	0.029
-170.910	142.694	0.228	-0.300
-169.896	-200.000	0.014	0.215
-168.881	-200.000	-0.032	-0.198
-167.866	-132.963	-0.304	0.038
-166.852	800.000	-0.034	-0.135
-165.837	-46.115	-0.289	0.141
-164.823	4.134	-0.139	0.101
-163.808	264.098	-0.061	0.106
-162.793	68.748	-0.032	0.033
-161.779	-49.873	0.206	0.097
-160.764	-200.000	-0.170	0.001
-159.750	-54.430	-0.097	0.044
-158.735	-200.000	-0.213	-0.001
-157.720	33.352	0.089	0.077
-156.706	-136.751	-0.147	-0.017
-155.691	289.107	0.112	-0.202
-154.677	800.000	-0.042	0.174
-153.662	-81.247	-0.293	-0.096
-152.647	-95.347	0.147	-0.039
-151.633	718.114	0.144	0.380
-150.618	-130.638	0.089	-0.012
-149.604	-102.048	-0.126	-0.030
-148.589	-123.028	0.305	0.049
-147.574	-58.658	0.124	0.053
-146.560	180.053	-0.046	-0.067
-145.545	-131.986	0.247	0.032
-144.531	41.210	-0.148	0.133
-143.516	-32.968	0.065	0.036
-142.502	800.000	-0.008	-0.033
-141.487	333.538	0.081	-0.154
-140.472	-200.000	-0.001	-0.354
-139.458	-102.023	0.066	-0.016
-138.443	-47.161	0.254	0.123
-137.429	-77.850	0.168	-0.057
-136.414	800.000	-0.047	0.147
-135.399	-102.637	-0.198	-0.047
-134.385	800.000	0.117	-0.321
-133.370	342.858	0.060	-0.116
-132.356	-126.469	-0.206	-0.030
-131.341	52.037	-0.174	-0.164
-130.326	-200.000	-0.020	0.230
-129.312	-85.656	-0.187	-0.057
-128.297	-54.814	0.049	0.022
-127.283	-181.914	0.209	-0.004
-126.268	800.000	-0.058	-0.247
-125.253	800.000	0.060	0.226
-124.239	660.788	0.085	0.216
-123.224	-200.000	-0.010	-0.156
