DTS Sentinel unit serial number:	SN413079Multiplexer serial number:	ORYXHardware model number:	OX4-SRSoftware version number:	ORYX F/W v4.00 Oryx Data Collector v3.7.2.0data status	okinstallation	princeton_trtdifferential loss correction	single-endedforward channel	channel 2reverse channel	N/Adate	2019/09/13time	14:39:35forward acquisition time	60.00reverse acquisition time	0.00gamma	496.2192k internal	0.2314k external	0.2314temperature offset calibration	1.0200default loss term (dB/km)	0.3790temperature slope calibration	1.0000multiplexer offset coefficient	1.0000multiplexer slope coefficient	1.0000fibre end	0.00T internal ref (°C)	35.37T ext. ref 1 (°C)	4.66T ext. ref 2 (°C)	32.56length (m)	temperature (°C)	Stokes	anti-Stokes-747.200	-40.140	-0.113	-0.060
-746.185	-143.801	0.241	0.023
-745.171	-200.000	-0.034	0.303
-744.156	-88.521	-0.143	0.043
-743.142	-180.571	-0.179	-0.004
-742.127	-173.947	0.252	0.008
-741.112	-20.046	-0.088	0.055
-740.098	-200.000	0.136	0.721
-739.083	800.000	0.065	0.269
-738.069	-43.815	-0.129	-0.066
-737.054	-200.000	0.036	0.167
-736.039	45.866	-0.235	0.220
-735.025	-63.423	0.192	0.080
-734.010	-200.000	-0.002	0.073
-732.996	86.143	0.144	-0.160
-731.981	325.954	0.008	-0.016
-730.966	248.717	-0.069	-0.119
-729.952	82.280	-0.105	0.115
-728.937	-108.637	-0.084	0.018
-727.923	-38.445	0.149	-0.080
-726.908	-90.927	0.264	-0.077
-725.894	158.103	0.068	0.095
-724.879	-86.763	0.070	0.022
-723.864	-200.000	-0.072	-0.367
-722.850	95.720	-0.170	0.197
-721.835	800.000	-0.091	0.292
-720.821	-7.534	-0.148	-0.101
-719.806	800.000	0.048	-0.208
-718.791	-51.679	-0.232	-0.110
-717.777	-200.000	0.051	0.396
-716.762	9.074	-0.170	0.130
-715.748	-4.389	-0.206	-0.144
-714.733	278.795	0.088	-0.159
-713.718	669.938	-0.052	-0.138
-712.704	-200.000	0.025	-0.150
-711.689	299.963	0.078	-0.146
-710.675	-200.000	-0.035	0.175
-709.660	84.834	-0.079	0.087
-708.645	-24.610	-0.236	0.142
-707.631	800.000	-0.088	0.250
-706.616	-82.928	0.246	0.080
-705.602	800.000	0.038	0.137
-704.587	-162.457	-0.178	-0.009
-703.572	-42.047	-0.236	0.122
-702.558	141.320	-0.164	0.220
-701.543	64.455	0.106	0.109
-700.529	-57.942	0.547	-0.242
-699.514	800.000	0.032	-0.142
-698.499	-200.000	-0.146	-0.000
-697.485	-41.383	0.283	0.148
-696.470	159.472	0.018	-0.026
-695.456	13.452	-0.050	-0.039
-694.441	141.451	-0.178	-0.238
-693.426	-117.720	0.346	0.063
-692.412	-98.085	-0.336	0.087
-691.397	-116.481	-0.300	0.056
-690.383	-32.592	0.112	0.063
-689.368	-66.745	0.209	0.084
-688.354	800.000	0.018	0.068
-687.339	77.422	-0.139	-0.150
-686.324	-83.908	-0.157	-0.050
-685.310	800.000	-0.045	0.178
-684.295	154.330	0.169	-0.234
-683.281	647.050	0.078	0.203
-682.266	-14.068	0.211	0.137
-681.251	-200.000	0.004	-0.220
-680.237	-200.000	-0.064	-0.385
-679.222	24.155	-0.197	-0.165
-678.208	-125.861	-0.377	0.058
-677.193	-154.072	-0.118	0.008
-676.178	13.933	0.123	-0.097
-675.164	301.439	-0.108	0.201
-674.149	-93.385	-0.424	0.119
-673.135	-74.074	0.115	0.042
-672.120	800.000	-0.096	-0.274
-671.105	-200.000	-0.020	0.123
-670.091	-200.000	-0.033	0.187
-669.076	474.692	0.168	-0.384
-668.062	-19.479	0.191	-0.120
-667.047	800.000	0.042	-0.159
-666.032	-200.000	-0.248	0.001
-665.018	27.888	0.103	-0.088
-664.003	-82.995	0.113	0.037
-662.989	250.742	0.107	-0.183
-661.974	-86.100	-0.252	-0.079
-660.959	-200.000	0.017	0.141
-659.945	218.043	-0.105	-0.169
-658.930	-67.309	-0.333	0.133
-657.916	116.818	-0.098	0.122
-656.901	199.514	-0.105	-0.163
-655.886	132.577	0.095	0.124
-654.872	-112.161	0.228	-0.046
-653.857	-200.000	-0.018	-0.260
-652.843	-37.252	0.168	0.091
-651.828	168.735	0.100	-0.144
-650.814	34.095	-0.423	-0.373
-649.799	6.375	0.195	0.146
-648.784	800.000	0.030	-0.106
-647.770	212.814	-0.134	-0.214
-646.755	155.212	0.109	-0.152
-645.741	-159.709	0.266	-0.015
-644.726	-32.993	0.071	0.040
-643.711	-144.365	0.228	-0.021
-642.697	337.550	-0.175	-0.344
-641.682	800.000	-0.086	-0.273
-640.668	-200.000	0.055	0.388
-639.653	-56.522	0.270	0.121
-638.638	105.721	-0.124	-0.148
-637.624	-161.997	0.204	-0.010
-636.609	-183.267	0.337	-0.006
-635.595	190.163	0.124	0.188
-634.580	195.802	0.101	-0.156
-633.565	-129.680	-0.146	-0.020
-632.551	-75.587	0.141	0.051
-631.536	630.470	0.186	-0.475
-630.522	-41.827	0.147	-0.076
-629.507	-121.130	0.269	-0.046
-628.492	420.782	0.051	-0.111
-627.478	-200.000	0.006	0.129
-626.463	800.000	0.083	-0.232
-625.449	800.000	-0.015	-0.059
-624.434	-39.791	-0.099	0.052
-623.419	-139.772	-0.194	0.021
-622.405	-200.000	0.054	-0.319
-621.390	795.195	-0.068	-0.190
-620.376	-103.058	-0.148	-0.035
-619.361	-200.000	0.048	0.232
-618.346	95.299	0.119	0.137
-617.332	98.294	0.209	-0.243
-616.317	86.139	0.154	-0.171
-615.303	63.287	-0.219	-0.222
-614.288	49.334	0.144	0.137
-613.273	-44.061	0.322	0.163
-612.259	-82.615	-0.081	0.026
-611.244	63.401	-0.276	-0.279
-610.230	-127.609	-0.290	-0.042
-609.215	-94.890	0.214	0.058
-608.201	-0.820	0.031	-0.022
-607.186	608.508	-0.104	0.261
-606.171	42.943	0.109	-0.100
-605.157	-200.000	0.022	-0.480
-604.142	610.310	-0.061	-0.155
-603.128	-88.387	-0.180	-0.054
-602.113	-125.966	-0.211	0.032
-601.098	389.704	-0.047	-0.098
-600.084	800.000	-0.054	0.164
-599.069	-24.527	0.262	0.157
-598.055	244.198	0.125	-0.211
-597.040	-63.001	0.030	-0.012
-596.025	-35.215	-0.219	-0.120
-595.011	137.577	-0.283	-0.374
-593.996	-200.000	-0.029	0.161
-592.982	129.240	-0.217	0.279
-591.967	108.307	0.016	0.020
-590.952	-200.000	0.097	-0.437
-589.938	800.000	0.038	0.120
-588.923	303.662	0.118	-0.221
-587.909	-52.634	-0.218	-0.101
-586.894	-200.000	0.007	-0.161
-585.879	93.549	0.078	0.089
-584.865	-200.000	0.015	0.078
-583.850	-179.466	-0.327	0.007
-582.836	-200.000	-0.028	-0.182
-581.821	-57.030	-0.231	-0.103
-580.806	-139.698	-0.337	0.036
-579.792	151.155	0.133	0.182
-578.777	153.431	0.083	0.114
-577.763	148.458	-0.117	-0.159
-576.748	20.061	0.172	0.139
-575.733	4.905	0.176	0.130
-574.719	-200.000	0.018	-0.162
-573.704	6.872	-0.244	-0.183
-572.690	-200.000	0.001	0.089
-571.675	-200.000	-0.001	0.049
-570.661	-46.658	-0.177	0.087
-569.646	200.116	-0.074	0.115
-568.631	652.434	0.195	0.504
-567.617	98.750	-0.107	0.125
-566.602	-200.000	0.022	-0.186
-565.588	-200.000	0.015	0.306
-564.573	84.817	0.129	-0.142
-563.558	121.391	0.176	0.220
-562.544	193.018	-0.197	-0.300
-561.529	800.000	0.044	-0.154
-560.515	-71.363	-0.132	0.050
-559.500	-137.956	-0.312	-0.035
-558.485	800.000	-0.084	0.319
-557.471	207.343	0.089	-0.140
-556.456	-133.975	0.165	-0.021
-555.442	-162.894	0.167	-0.008
-554.427	-124.585	-0.310	-0.048
-553.412	5.841	0.167	-0.124
-552.398	44.445	0.276	0.255
-551.383	-21.387	0.344	0.212
-550.369	578.711	0.063	-0.156
-549.354	800.000	-0.076	-0.276
-548.339	-138.778	0.212	-0.023
-547.325	244.117	0.097	-0.163
-546.310	266.384	-0.025	0.044
-545.296	-64.005	0.137	0.056
-544.281	-200.000	0.014	0.346
-543.266	0.850	0.267	-0.192
-542.252	-55.209	0.180	0.082
-541.237	322.539	-0.044	0.083
-540.223	-37.299	-0.294	-0.158
-539.208	-106.930	-0.400	0.089
-538.193	229.217	-0.102	0.167
-537.179	-59.878	-0.390	-0.168
-536.164	800.000	0.047	0.139
-535.150	-112.635	-0.236	-0.047
-534.135	-200.000	0.008	-0.182
-533.121	-9.654	-0.095	0.064
-532.106	493.112	0.158	0.365
-531.091	-66.885	0.186	0.074
-530.077	-131.879	-0.102	-0.013
-529.062	-200.000	-0.030	-0.143
-528.048	800.000	-0.016	0.061
-527.033	202.338	0.087	0.135
-526.018	341.920	-0.120	-0.236
-525.004	556.476	0.052	0.125
-523.989	-45.229	0.340	0.170
-522.975	97.493	0.208	-0.240
-521.960	137.335	-0.155	-0.204
-520.945	800.000	0.022	-0.077
-519.931	-121.926	-0.282	0.047
-518.916	-200.000	0.022	-0.109
-517.902	450.490	-0.046	-0.102
-516.887	800.000	-0.078	-0.222
-515.872	-32.645	-0.243	0.136
-514.858	-136.236	0.261	0.031
-513.843	-169.870	0.201	0.007
-512.829	800.000	-0.009	0.025
-511.814	-200.000	0.018	-0.232
-510.799	-200.000	-0.095	-0.524
-509.785	-107.254	-0.154	0.034
-508.770	-22.703	0.269	-0.163
-507.756	-112.963	-0.106	-0.021
-506.741	328.321	-0.028	0.055
-505.726	401.342	0.078	0.165
-504.712	106.039	0.186	0.221
-503.697	-102.210	-0.364	-0.088
-502.683	27.194	-0.188	-0.158
-501.668	-114.595	0.078	-0.015
-500.653	7.818	0.188	0.141
-499.639	269.682	-0.078	-0.137
-498.624	-200.000	0.013	-0.082
-497.610	-48.160	-0.073	-0.036
-496.595	-68.058	0.171	0.067
-495.581	-122.294	0.221	0.036
-494.566	-145.416	-0.122	-0.011
-493.551	-102.011	0.090	-0.022
-492.537	-200.000	0.035	0.189
-491.522	-60.094	-0.255	-0.109
-490.508	36.070	0.065	0.057
-489.493	-57.588	-0.119	0.052
-488.478	43.675	-0.086	0.079
-487.464	-60.740	-0.191	0.081
-486.449	800.000	-0.037	0.114
-485.435	-200.000	0.000	0.179
-484.420	800.000	0.048	-0.154
-483.405	446.352	0.102	-0.225
-482.391	-161.219	-0.364	-0.019
-481.376	-5.764	0.157	0.108
-480.362	61.239	0.032	0.032
-479.347	527.702	-0.179	-0.423
-478.332	61.682	-0.129	0.129
-477.318	107.527	-0.195	-0.233
-476.303	-173.621	0.324	0.010
-475.289	-67.819	-0.347	-0.136
-474.274	12.082	-0.159	0.123
-473.259	800.000	-0.103	0.301
-472.245	800.000	-0.065	-0.195
-471.230	-161.965	0.119	0.006
-470.216	-14.252	-0.092	-0.060
-469.201	361.517	-0.127	-0.255
-468.186	216.856	0.139	-0.221
-467.172	566.330	0.046	-0.111
-466.157	180.245	0.027	-0.039
-465.143	-200.000	0.019	-0.134
-464.128	-64.429	-0.295	-0.120
-463.113	28.371	-0.112	-0.095
-462.099	800.000	-0.021	-0.071
-461.084	-200.000	0.043	-0.258
-460.070	111.931	0.153	0.185
-459.055	-200.000	0.006	0.310
-458.040	410.305	0.112	0.238
-457.026	-200.000	0.063	0.280
-456.011	94.201	-0.234	0.267
-454.997	-151.359	0.327	0.024
-453.982	466.343	0.049	-0.109
-452.968	39.575	0.147	-0.132
-451.953	-55.671	-0.239	-0.107
-450.938	800.000	-0.073	0.229
-449.924	-197.607	0.031	-0.000
-448.909	-137.385	-0.242	-0.027
-447.895	-184.226	0.364	0.006
-446.880	-123.243	-0.251	-0.040
-445.865	130.412	0.157	0.201
-444.851	-51.463	-0.210	-0.098
-443.836	800.000	0.110	-0.453
-442.822	33.946	0.122	0.106
-441.807	800.000	-0.045	-0.127
-440.792	-117.171	0.201	0.037
-439.778	-190.578	0.321	-0.003
-438.763	-107.807	0.269	-0.059
-437.749	-67.300	0.171	-0.067
-436.734	88.265	0.158	-0.176
-435.719	-113.350	-0.380	-0.075
-434.705	-200.000	0.080	-0.425
-433.690	-94.018	0.132	-0.036
-432.676	-200.000	0.048	0.257
-431.661	-47.611	-0.168	0.082
-430.646	-25.641	0.047	-0.028
-429.632	375.499	0.187	0.381
-428.617	12.531	0.106	0.082
-427.603	290.441	-0.079	0.144
-426.588	-200.000	-0.000	-0.117
-425.573	-43.198	0.086	-0.044
-424.559	166.638	0.047	-0.066
-423.544	41.861	0.305	-0.277
-422.530	99.339	0.170	-0.196
-421.515	-197.221	0.342	0.002
-420.500	800.000	-0.058	-0.165
-419.486	-200.000	-0.006	-0.100
-418.471	290.797	0.169	0.308
-417.457	16.713	0.294	-0.233
-416.442	-76.015	0.230	-0.081
-415.428	18.737	-0.045	0.036
-414.413	-200.000	-0.040	-0.175
-413.398	452.445	-0.155	0.342
-412.384	16.966	0.141	-0.112
-411.369	51.237	0.148	-0.141
-410.355	-90.477	-0.215	-0.062
-409.340	-200.000	0.002	0.088
-408.325	66.050	0.088	0.090
-407.311	80.556	-0.352	-0.380
-406.296	-86.915	-0.224	0.068
-405.282	177.119	0.030	0.044
-404.267	301.288	0.076	-0.141
-403.252	800.000	0.102	0.329
-402.238	-85.439	0.099	0.031
-401.223	222.647	0.015	-0.024
-400.209	82.795	-0.171	-0.186
-399.194	-200.000	-0.019	-0.231
-398.179	-77.142	-0.299	-0.104
-397.165	-163.771	0.151	0.007
-396.150	12.890	-0.260	0.201
-395.136	800.000	-0.063	-0.194
-394.121	-90.194	0.281	0.082
-393.106	800.000	0.085	-0.237
-392.092	103.259	0.114	-0.133
-391.077	477.879	-0.095	0.216
-390.063	96.827	-0.200	0.229
-389.048	70.068	0.159	0.164
-388.033	-111.806	0.134	-0.027
-387.019	-30.440	-0.136	-0.077
-386.004	-200.000	0.035	0.216
-384.990	-200.000	0.045	0.239
-383.975	-200.000	-0.031	0.154
-382.960	-200.000	-0.012	-0.169
-381.946	122.809	-0.063	0.079
-380.931	88.498	-0.113	-0.126
-379.917	-200.000	0.002	-0.151
-378.902	114.313	0.094	-0.114
-377.888	123.986	0.105	-0.132
-376.873	-15.745	-0.180	-0.114
-375.858	-200.000	0.002	-0.134
-374.844	125.216	-0.036	-0.046
-373.829	-200.000	0.028	-0.143
-372.815	800.000	-0.067	0.280
-371.800	784.020	-0.022	-0.060
-370.785	-97.542	-0.223	0.058
-369.771	-200.000	0.010	-0.147
-368.756	113.558	0.132	0.160
-367.742	-69.107	0.175	-0.067
-366.727	386.533	0.081	-0.167
-365.712	725.024	-0.142	0.377
-364.698	-162.123	-0.336	0.017
-363.683	-39.198	-0.025	0.013
-362.669	800.000	0.060	-0.219
-361.654	800.000	0.102	0.312
-360.639	-94.335	-0.072	0.020
-359.625	460.992	-0.096	0.215
-358.610	263.786	-0.053	0.092
-357.596	-184.278	0.197	0.003
-356.581	-195.622	-0.280	0.002
-355.566	-65.016	0.338	0.136
-354.552	-142.388	-0.357	0.035
-353.537	-200.000	0.024	0.136
-352.523	37.652	0.293	0.260
-351.508	372.554	-0.106	-0.214
-350.493	-166.779	-0.102	-0.004
-349.479	56.839	0.057	-0.055
-348.464	134.755	-0.126	-0.163
-347.450	108.774	0.226	0.270
-346.435	-200.000	-0.022	-0.136
-345.420	800.000	0.080	0.242
-344.406	2.352	0.151	0.109
-343.391	800.000	-0.080	0.265
-342.377	-200.000	-0.008	0.193
-341.362	767.550	-0.137	0.373
-340.348	-6.081	0.090	-0.061
-339.333	-84.818	-0.183	0.058
-338.318	157.996	-0.068	0.094
-337.304	-11.908	-0.194	0.127
-336.289	67.792	-0.104	0.106
-335.275	201.998	0.165	-0.254
-334.260	800.000	-0.068	-0.280
-333.245	-62.757	0.230	0.095
-332.231	800.000	-0.117	-0.354
-331.216	315.792	-0.108	-0.203
-330.202	229.534	0.167	0.273
-329.187	230.856	0.172	0.282
-328.172	-82.413	-0.401	0.130
-327.158	-82.547	0.263	0.085
-326.143	-111.243	0.227	0.046
-325.129	-40.683	-0.346	0.179
-324.114	777.443	0.135	0.367
-323.099	-0.120	0.167	0.119
-322.085	149.155	0.230	-0.311
-321.070	-200.000	0.004	-0.189
-320.056	-137.204	0.305	-0.035
-319.041	-184.484	-0.459	-0.007
-318.026	377.741	0.018	-0.036
-317.012	-82.843	0.313	-0.101
-315.997	-200.000	-0.030	0.186
-314.983	547.112	0.124	-0.296
-313.968	-92.427	0.213	-0.060
-312.953	7.568	0.127	-0.095
-311.939	-71.427	-0.310	0.116
-310.924	0.462	0.081	0.058
-309.910	65.921	-0.118	-0.119
-308.895	-155.932	0.690	0.044
-307.880	-20.089	-0.100	0.061
-306.866	-3.424	-0.235	-0.163
-305.851	411.824	0.038	-0.080
-304.837	-200.000	-0.013	0.463
-303.822	79.314	-0.199	0.213
-302.807	680.327	-0.116	-0.301
-301.793	-38.545	0.245	0.129
-300.778	800.000	0.142	-0.514
-299.764	73.254	-0.211	0.219
-298.749	-68.643	0.263	0.101
-297.735	-13.984	-0.054	-0.035
-296.720	-34.399	-0.082	0.045
-295.705	712.530	-0.073	-0.194
-294.691	-200.000	-0.021	0.357
-293.676	39.864	0.122	0.109
-292.662	175.390	0.063	-0.091
-291.647	-85.242	-0.178	0.055
-290.632	-200.000	-0.001	0.075
-289.618	-59.611	0.118	0.051
-288.603	-18.967	-0.191	0.118
-287.589	800.000	-0.043	0.129
-286.574	159.043	-0.010	0.014
-285.559	298.164	-0.146	-0.267
-284.545	32.067	0.099	0.085
-283.530	800.000	-0.038	-0.150
-282.516	114.208	-0.219	0.266
-281.501	187.404	0.049	0.073
-280.486	101.197	0.193	-0.224
-279.472	-79.015	0.148	0.050
-278.457	57.549	-0.145	0.141
-277.443	-148.036	0.306	-0.025
-276.428	-141.520	-0.369	-0.037
-275.413	-133.268	-0.147	0.018
-274.399	-200.000	-0.001	0.177
-273.384	-116.522	0.113	-0.021
-272.370	-154.076	-0.294	0.020
-271.355	-200.000	0.012	0.317
-270.340	230.081	-0.214	0.348
-269.326	-29.982	-0.263	0.149
-268.311	-125.534	-0.146	-0.022
-267.297	-200.000	-0.034	0.256
-266.282	-192.523	0.147	-0.001
-265.267	-18.250	-0.219	0.136
-264.253	-45.646	-0.316	0.155
-263.238	-137.142	0.306	-0.035
-262.224	-200.000	0.006	-0.133
-261.209	-3.608	-0.211	0.146
-260.195	-200.000	-0.003	0.047
-259.180	-132.100	0.157	0.020
-258.165	22.874	-0.055	-0.045
-257.151	14.417	0.127	0.099
-256.136	-31.978	0.169	0.094
-255.122	-44.431	0.418	0.208
-254.107	-7.648	-0.231	-0.155
-253.092	-181.164	-0.380	0.008
-252.078	-145.602	0.173	-0.015
-251.063	-121.164	0.206	-0.034
-250.049	-22.918	-0.224	-0.135
-249.034	-172.866	0.126	-0.004
-248.019	359.537	-0.038	0.075
-247.005	-79.247	0.062	0.021
-245.990	-95.322	-0.191	0.051
-244.976	-151.175	0.170	-0.013
-243.961	758.205	0.082	-0.220
-242.946	-2.226	0.201	-0.140
-241.932	-8.338	0.139	0.093
-240.917	-66.934	0.245	0.096
-239.903	20.108	-0.152	0.122
-238.888	-173.156	0.172	-0.005
-237.873	108.570	0.087	0.104
-236.859	-200.000	-0.014	0.306
-235.844	800.000	-0.046	-0.161
-234.830	-200.000	0.033	-0.375
-233.815	-126.983	-0.268	-0.039
-232.800	-93.917	-0.314	0.086
-231.786	-77.787	0.165	0.057
-230.771	262.132	-0.034	-0.058
-229.757	-200.000	0.283	-0.001
-228.742	25.362	0.111	-0.092
-227.727	84.729	0.170	0.185
-226.713	-200.000	-0.034	0.195
-225.698	800.000	0.033	-0.111
-224.684	-200.000	0.027	-0.294
-223.669	-70.633	0.111	-0.042
-222.655	55.858	0.112	0.108
-221.640	-143.969	0.114	0.011
-220.625	-12.129	-0.074	-0.048
-219.611	-38.448	-0.210	-0.110
-218.596	-200.000	0.037	-0.291
-217.582	-200.000	0.029	-0.169
-216.567	800.000	-0.073	-0.220
-215.552	62.118	0.234	0.232
-214.538	-65.839	-0.086	0.034
-213.523	-156.527	-0.209	-0.013
-212.509	51.397	0.229	0.216
-211.494	800.000	0.079	0.274
-210.479	800.000	-0.168	0.491
-209.465	108.090	-0.439	0.520
-208.450	-25.562	-0.094	0.055
-207.436	72.194	-0.130	-0.135
-206.421	143.251	0.072	-0.095
-205.406	167.502	-0.187	0.264
-204.392	143.291	0.042	0.056
-203.377	22.063	-0.156	-0.127
-202.363	84.469	-0.242	-0.263
-201.348	547.350	-0.085	-0.203
-200.333	-149.598	-0.342	0.027
-199.319	800.000	0.050	0.148
-198.304	176.780	0.072	0.103
-197.290	449.738	0.129	-0.281
-196.275	-23.336	0.049	-0.029
-195.260	-200.000	0.003	-0.216
-194.246	107.950	-0.187	-0.221
-193.231	-7.632	-0.173	0.116
-192.217	800.000	0.021	0.060
-191.202	-181.637	0.076	0.001
-190.187	80.096	-0.137	0.146
-189.173	456.172	-0.150	-0.330
-188.158	15.162	-0.184	0.143
-187.144	-45.021	-0.163	0.080
-186.129	800.000	-0.056	-0.203
-185.114	114.888	-0.137	0.165
-184.100	-125.928	-0.257	-0.038
-183.085	-98.726	0.187	0.047
-182.071	49.074	-0.351	-0.327
-181.056	77.498	0.209	-0.221
-180.042	-200.000	0.006	0.028
-179.027	4.338	0.074	-0.054
-178.012	101.268	-0.125	0.144
-176.998	450.224	-0.015	-0.032
-175.983	184.012	-0.107	0.156
-174.969	800.000	0.178	0.544
-173.954	220.286	-0.108	0.172
-172.939	491.247	-0.110	0.250
-171.925	-5.266	0.165	0.112
-170.910	800.000	0.105	0.316
-169.896	15.703	0.294	-0.229
-168.881	-142.588	-0.132	-0.013
-167.866	212.703	0.056	0.087
-166.852	5.285	-0.294	-0.215
-165.837	280.381	0.159	0.283
-164.823	-200.000	-0.020	0.100
-163.808	202.534	-0.190	0.291
-162.793	298.359	-0.022	-0.040
-161.779	-200.000	-0.040	0.270
-160.764	321.978	0.059	0.112
-159.750	-112.047	0.250	0.050
-158.735	296.097	-0.035	0.064
-157.720	67.923	0.076	-0.077
-156.706	436.722	0.090	-0.194
-155.691	56.889	-0.164	-0.159
-154.677	800.000	0.135	-0.452
-153.662	-128.332	0.220	-0.031
-152.647	-196.624	0.228	-0.002
-151.633	-48.946	-0.194	0.092
-150.618	-200.000	-0.008	-0.142
-149.604	-41.773	-0.078	0.040
-148.589	-178.451	-0.246	-0.006
-147.574	185.310	-0.204	-0.301
-146.560	269.317	-0.003	0.006
-145.545	199.466	0.033	0.050
-144.531	64.799	0.258	0.257
-143.516	123.480	0.137	-0.170
-142.502	114.280	0.064	0.078
-141.487	-200.000	0.020	-0.175
-140.472	150.727	-0.088	-0.118
-139.458	353.496	-0.043	-0.085
-138.443	281.610	0.042	-0.075
-137.429	176.461	-0.138	0.198
-136.414	-70.309	-0.262	0.099
-135.399	-141.916	0.032	-0.003
-134.385	-63.516	0.285	-0.116
-133.370	129.202	0.253	0.320
-132.356	-95.338	-0.258	0.069
-131.341	800.000	-0.099	0.349
-130.326	-55.985	0.276	0.122
-129.312	203.904	-0.060	0.092
-128.297	335.535	-0.091	-0.175
-127.283	-200.000	0.056	0.244
-126.268	-166.305	0.086	-0.004
-125.253	800.000	-0.040	0.141
-124.239	-63.627	0.146	0.059
-123.224	50.763	0.083	-0.077
-122.210	-156.255	-0.221	0.014
-121.195	-86.866	-0.361	0.109
-120.180	-91.536	0.373	-0.105
