DTS Sentinel unit serial number:	SN413079Multiplexer serial number:	ORYXHardware model number:	OX4-SRSoftware version number:	ORYX F/W v4.00 Oryx Data Collector v3.7.2.0data status	okinstallation	princeton_trtdifferential loss correction	single-endedforward channel	channel 2reverse channel	N/Adate	2019/09/17time	17:03:34forward acquisition time	60.00reverse acquisition time	0.00gamma	496.2192k internal	0.2291k external	0.2291temperature offset calibration	0.9983default loss term (dB/km)	0.3790temperature slope calibration	1.0000multiplexer offset coefficient	1.0000multiplexer slope coefficient	1.0000fibre end	0.00T internal ref (°C)	42.62T ext. ref 1 (°C)	0.34T ext. ref 2 (°C)	39.12length (m)	temperature (°C)	Stokes	anti-Stokes-747.200	66.382	0.099	-0.103
-746.185	800.000	-0.011	0.036
-745.171	123.587	0.037	0.048
-744.156	-200.000	0.041	0.249
-743.142	456.575	0.068	-0.155
-742.127	34.715	0.239	0.214
-741.112	-200.000	-0.005	-0.126
-740.098	529.226	0.204	0.492
-739.083	-200.000	-0.013	0.241
-738.069	288.095	-0.067	0.125
-737.054	-200.000	-0.020	-0.146
-736.039	-200.000	-0.034	-0.203
-735.025	221.475	-0.230	-0.378
-734.010	204.004	-0.333	-0.529
-732.996	-200.000	-0.106	-0.490
-731.981	-6.883	0.299	-0.208
-730.966	59.110	0.111	0.111
-729.952	-200.000	0.001	-0.402
-728.937	-127.933	-0.309	-0.045
-727.923	-72.838	-0.152	-0.057
-726.908	800.000	0.053	0.188
-725.894	800.000	0.026	-0.089
-724.879	-135.203	-0.137	0.017
-723.864	-116.172	0.076	-0.014
-722.850	-200.000	0.014	-0.288
-721.835	397.810	-0.046	-0.099
-720.821	84.574	-0.346	0.387
-719.806	-200.000	0.005	0.056
-718.791	800.000	-0.049	-0.150
-717.777	800.000	-0.062	0.238
-716.762	390.322	0.055	0.117
-715.748	25.080	-0.292	-0.248
-714.733	800.000	-0.143	0.457
-713.718	-200.000	-0.034	-0.178
-712.704	800.000	0.084	-0.306
-711.689	47.659	0.353	0.337
-710.675	800.000	-0.049	-0.171
-709.660	160.621	0.024	-0.034
-708.645	435.797	0.051	0.113
-707.631	-85.143	0.248	-0.079
-706.616	-116.173	0.366	-0.069
-705.602	50.328	-0.134	-0.130
-704.587	-22.324	-0.149	-0.092
-703.572	-13.091	0.260	0.173
-702.558	-104.738	0.292	0.069
-701.543	-62.283	-0.170	-0.072
-700.529	-68.729	-0.114	0.045
-699.514	-104.069	0.225	-0.053
-698.499	-3.666	0.314	-0.223
-697.485	-52.113	0.147	-0.070
-696.470	-86.865	-0.291	-0.091
-695.456	-155.259	-0.262	-0.017
-694.441	256.010	-0.053	-0.093
-693.426	111.322	0.047	0.058
-692.412	-62.927	-0.131	-0.055
-691.397	-102.433	0.055	0.013
-690.383	-50.389	-0.075	0.036
-689.368	800.000	0.038	0.124
-688.354	121.413	-0.121	-0.154
-687.339	-71.923	-0.096	-0.036
-686.324	-81.026	-0.158	0.054
-685.310	145.617	-0.077	-0.106
-684.295	-59.762	0.134	-0.058
-683.281	-123.869	-0.398	-0.064
-682.266	75.254	0.308	-0.332
-681.251	-200.000	0.010	0.000
-680.237	-117.357	-0.183	-0.034
-679.222	136.435	0.189	-0.252
-678.208	-200.000	0.000	0.153
-677.193	86.986	0.136	-0.153
-676.178	-200.000	0.021	0.173
-675.164	-34.093	0.155	-0.087
-674.149	-44.702	-0.227	0.116
-673.135	145.422	-0.179	-0.244
-672.120	-67.333	-0.028	0.011
-671.105	-59.357	0.086	-0.038
-670.091	-200.000	0.001	-0.019
-669.076	-160.593	-0.331	-0.018
-668.062	-200.000	0.034	-0.260
-667.047	49.587	0.134	0.129
-666.032	290.694	-0.045	-0.083
-665.018	338.394	0.133	-0.265
-664.003	-200.000	0.012	-0.207
-662.989	556.660	0.080	0.198
-661.974	745.837	0.060	-0.166
-660.959	-98.048	-0.125	-0.033
-659.945	-111.290	0.435	0.091
-658.930	-200.000	-0.032	0.253
-657.916	16.697	0.021	-0.017
-656.901	-103.043	0.263	-0.064
-655.886	-52.015	0.220	-0.104
-654.872	-200.000	0.014	0.145
-653.857	62.825	-0.258	0.264
-652.843	-200.000	0.017	0.085
-651.828	-200.000	-0.009	-0.305
-650.814	-81.950	0.141	0.047
-649.799	14.132	0.292	-0.232
-648.784	800.000	-0.038	0.110
-647.770	-200.000	0.037	0.281
-646.755	800.000	0.073	-0.227
-645.741	-200.000	-0.064	-0.436
-644.726	-200.000	0.021	0.207
-643.711	229.260	-0.154	0.256
-642.697	-31.813	0.159	-0.091
-641.682	-16.086	0.211	0.137
-640.668	-164.837	-0.169	0.008
-639.653	-200.000	0.008	-0.050
-638.638	54.823	-0.007	0.007
-637.624	713.752	0.035	-0.096
-636.609	-67.210	0.159	-0.064
-635.595	311.202	-0.135	-0.258
-634.580	267.126	-0.166	0.295
-633.565	-200.000	0.003	-0.337
-632.551	800.000	0.019	-0.056
-631.536	-17.028	-0.107	-0.069
-630.522	-200.000	0.003	-0.368
-629.507	-128.906	0.136	0.020
-628.492	87.672	0.192	-0.217
-627.478	507.183	-0.088	-0.208
-626.463	109.279	0.148	0.180
-625.449	-200.000	-0.057	0.287
-624.434	800.000	-0.083	-0.280
-623.419	-200.000	0.018	0.205
-622.405	592.774	0.052	0.131
-621.390	-200.000	-0.021	-0.110
-620.376	656.697	0.089	0.234
-619.361	-200.000	0.021	-0.269
-618.346	-129.096	-0.082	-0.012
-617.332	-127.158	-0.216	0.032
-616.317	-118.722	-0.095	0.017
-615.303	209.089	0.123	0.196
-614.288	14.284	-0.265	0.211
-613.273	800.000	0.058	-0.208
-612.259	5.976	-0.194	0.147
-611.244	265.210	-0.074	0.132
-610.230	-96.269	-0.102	0.028
-609.215	-85.727	-0.299	-0.095
-608.201	800.000	0.138	-0.558
-607.186	-200.000	0.032	-0.413
-606.171	-179.081	0.491	-0.011
-605.157	28.885	0.174	-0.151
-604.142	110.169	-0.129	0.158
-603.128	-173.327	-0.217	-0.007
-602.113	177.720	-0.183	-0.272
-601.098	-129.220	0.391	-0.056
-600.084	25.971	-0.247	0.210
-599.069	-89.532	0.193	0.058
-598.055	-9.570	-0.218	0.148
-597.040	37.282	-0.313	-0.283
-596.025	45.143	0.199	0.187
-595.011	92.888	0.272	-0.313
-593.996	88.928	-0.098	0.111
-592.982	800.000	0.046	0.148
-591.967	-200.000	-0.011	-0.326
-590.952	800.000	0.041	-0.177
-589.938	122.452	0.143	-0.182
-588.923	-200.000	-0.071	0.361
-587.909	14.478	-0.156	0.124
-586.894	-200.000	-0.026	-0.175
-585.879	118.653	0.149	-0.187
-584.865	180.261	0.143	-0.213
-583.850	-123.641	0.145	-0.023
-582.836	-106.145	0.155	-0.035
-581.821	-37.889	0.345	-0.187
-580.806	189.723	-0.103	0.157
-579.792	-82.590	0.070	-0.023
-578.777	303.476	0.041	-0.078
-577.763	83.304	-0.196	0.218
-576.748	-67.766	-0.211	-0.084
-575.733	-200.000	0.014	0.096
-574.719	-4.590	-0.127	-0.089
-573.704	-124.639	0.325	-0.051
-572.690	321.065	-0.092	0.179
-571.675	192.287	0.122	-0.187
-570.661	126.382	0.189	0.243
-569.646	206.801	0.086	0.136
-568.631	-200.000	-0.024	-0.209
-567.617	-37.644	0.098	-0.053
-566.602	291.491	-0.060	0.111
-565.588	213.163	-0.135	-0.216
-564.573	-171.107	0.363	-0.013
-563.558	520.977	0.007	-0.016
-562.544	-92.376	-0.244	0.070
-561.529	-88.250	-0.048	0.015
-560.515	-117.693	-0.164	0.030
-559.500	800.000	0.067	0.200
-558.485	2.038	0.140	-0.103
-557.471	-143.193	-0.230	-0.022
-556.456	37.904	0.050	0.045
-555.442	224.616	-0.205	-0.336
-554.427	494.623	0.072	0.167
-553.412	-114.490	0.244	0.048
-552.398	-128.411	-0.125	0.018
-551.383	461.355	-0.070	0.158
-550.369	172.103	-0.061	-0.089
-549.354	67.216	0.274	0.284
-548.339	119.932	-0.202	-0.254
-547.325	-102.890	0.141	-0.034
-546.310	427.583	0.061	-0.135
-545.296	-123.604	-0.203	0.033
-544.281	66.602	0.104	0.107
-543.266	-6.822	0.228	-0.158
-542.252	-200.000	0.000	-0.080
-541.237	27.136	-0.176	0.150
-540.223	112.982	-0.161	0.198
-539.208	123.635	-0.021	0.027
-538.193	146.522	-0.193	0.263
-537.179	-110.471	-0.266	0.056
-536.164	350.443	-0.100	0.201
-535.150	95.900	-0.170	0.197
-534.135	-80.626	-0.084	-0.028
-533.121	355.261	-0.076	-0.153
-532.106	240.876	0.199	-0.338
-531.091	242.719	-0.199	-0.339
-530.077	132.755	0.182	0.238
-529.062	132.008	-0.171	0.224
-528.048	-90.386	0.156	0.046
-527.033	-20.879	-0.207	-0.129
-526.018	-129.219	0.245	0.035
-525.004	538.061	-0.110	0.266
-523.989	-200.000	-0.007	-0.271
-522.975	513.510	-0.135	-0.319
-521.960	588.644	0.037	0.092
-520.945	-78.061	-0.322	-0.112
-519.931	-163.311	0.200	0.010
-518.916	-48.701	0.092	0.045
-517.902	-200.000	-0.031	-0.351
-516.887	-29.467	-0.328	-0.190
-515.872	-133.615	0.189	0.024
-514.858	-33.506	0.232	0.130
-513.843	-80.038	0.480	-0.163
-512.829	60.409	0.106	0.107
-511.814	-1.747	-0.075	-0.053
-510.799	236.078	0.098	-0.165
-509.785	-39.710	0.092	0.049
-508.770	-200.000	0.103	-0.562
-507.756	-48.978	-0.065	-0.031
-506.741	266.805	-0.075	0.133
-505.726	800.000	-0.095	-0.382
-504.712	-69.080	0.211	-0.082
-503.697	-26.044	-0.138	-0.083
-502.683	-83.673	-0.079	-0.026
-501.668	-136.805	0.101	0.012
-500.653	177.186	-0.073	-0.108
-499.639	-73.829	-0.173	-0.064
-498.624	-94.174	0.261	-0.072
-497.610	-155.838	-0.290	0.019
-496.595	13.003	-0.158	0.124
-495.581	108.104	0.108	-0.130
-494.566	707.774	0.039	-0.103
-493.551	390.515	0.143	-0.300
-492.537	-200.000	0.030	-0.169
-491.522	695.147	-0.062	-0.165
-490.508	-127.871	0.167	-0.024
-489.493	-43.141	-0.080	-0.041
-488.478	-200.000	0.033	-0.186
-487.464	-200.000	0.027	-0.161
-486.449	-200.000	0.036	0.232
-485.435	126.459	-0.203	-0.261
-484.420	246.520	0.125	-0.214
-483.405	-113.935	0.008	0.002
-482.391	-16.309	0.290	-0.186
-481.376	-147.201	-0.149	0.013
-480.362	35.225	-0.185	-0.165
-479.347	-200.000	0.004	0.423
-478.332	175.682	0.239	0.352
-477.318	-117.959	-0.162	-0.029
-476.303	-74.083	0.210	0.077
-475.289	800.000	0.032	0.094
-474.274	166.617	-0.065	-0.094
-473.259	31.691	-0.103	0.090
-472.245	318.715	0.083	0.159
-471.230	-200.000	-0.012	0.198
-470.216	-46.858	0.220	0.109
-469.201	-66.200	0.101	-0.041
-468.186	800.000	-0.108	-0.409
-467.172	-183.682	-0.140	-0.002
-466.157	-30.987	-0.136	-0.078
-465.143	123.138	-0.187	-0.237
-464.128	32.337	-0.237	0.208
-463.113	-152.390	0.087	0.006
-462.099	743.905	0.021	0.058
-461.084	-200.000	-0.055	-0.252
-460.070	200.096	-0.108	-0.167
-459.055	-143.017	-0.084	-0.008
-458.040	-55.958	0.222	-0.100
-457.026	-52.100	-0.244	-0.115
-456.011	369.025	0.090	-0.184
-454.997	-7.962	-0.091	0.062
-453.982	238.343	-0.039	-0.065
-452.968	2.659	0.095	-0.070
-451.953	530.966	-0.047	-0.111
-450.938	-8.617	-0.155	0.105
-449.924	166.330	0.131	-0.187
-448.909	-148.067	0.169	0.014
-447.895	-16.978	-0.293	0.188
-446.880	151.263	-0.180	-0.248
-445.865	-63.961	0.253	0.105
-444.851	187.630	0.090	-0.136
-443.836	-182.802	-0.149	0.003
-442.822	800.000	-0.122	0.525
-441.807	-200.000	0.017	0.227
-440.792	174.556	-0.050	0.073
-439.778	27.441	0.179	-0.153
-438.763	-200.000	0.003	-0.048
-437.749	-200.000	-0.026	0.236
-436.734	195.566	-0.079	0.121
-435.719	288.107	-0.102	-0.186
-434.705	800.000	0.098	-0.382
-433.690	-59.878	0.114	-0.049
-432.676	-12.061	0.267	0.177
-431.661	800.000	0.087	0.268
-430.646	63.956	-0.110	0.112
-429.632	5.379	-0.059	0.044
-428.617	-200.000	0.009	-0.148
-427.603	800.000	-0.140	-0.516
-426.588	-111.099	-0.144	-0.030
-425.573	4.880	0.220	-0.163
-424.559	34.057	-0.123	-0.108
-423.544	-120.055	-0.284	0.049
-422.530	800.000	0.054	-0.219
-421.515	-31.258	0.288	0.164
-420.500	-16.197	0.156	0.100
-419.486	800.000	0.149	0.446
-418.471	231.783	0.172	0.286
-417.457	130.411	-0.098	0.128
-416.442	46.250	-0.328	0.307
-415.428	-31.828	0.406	0.230
-414.413	192.830	-0.105	0.160
-413.398	-35.132	0.173	-0.095
-412.384	800.000	-0.011	0.035
-411.369	-17.097	0.086	-0.055
-410.355	3.180	0.139	-0.102
-409.340	737.477	-0.088	0.239
-408.325	-62.940	-0.064	-0.027
-407.311	800.000	-0.098	-0.319
-406.296	-121.761	-0.209	0.035
-405.282	-147.723	-0.174	0.015
-404.267	-111.006	-0.095	0.020
-403.252	-1.912	0.127	-0.090
-402.238	-200.000	0.026	-0.162
-401.223	184.334	0.074	0.111
-400.209	-200.000	-0.007	0.181
-399.194	800.000	0.016	0.047
-398.179	-16.808	-0.078	0.050
-397.165	800.000	0.061	0.201
-396.150	-47.780	-0.140	0.069
-395.136	-79.103	0.231	0.079
-394.121	800.000	-0.073	-0.289
-393.106	-39.950	-0.061	-0.032
-392.092	16.210	0.065	0.051
-391.077	800.000	0.035	-0.099
-390.063	86.441	-0.130	-0.145
-389.048	34.895	0.099	0.088
-388.033	-200.000	-0.041	-0.187
-387.019	26.625	0.182	0.154
-386.004	-146.032	0.344	-0.031
-384.990	629.283	0.059	0.151
-383.975	85.295	0.061	-0.067
-382.960	-70.218	-0.277	-0.106
-381.946	-58.014	-0.033	-0.014
-380.931	87.430	0.232	0.259
-379.917	-54.962	-0.313	0.143
-378.902	512.029	0.068	-0.160
-377.888	-200.000	0.006	0.025
-376.873	-200.000	-0.009	-0.390
-375.858	-156.076	-0.206	0.013
-374.844	137.744	-0.067	-0.088
-373.829	132.817	0.093	0.122
-372.815	-1.613	0.249	0.177
-371.800	541.486	-0.102	-0.244
-370.785	-200.000	0.049	0.223
-369.771	52.863	0.118	-0.114
-368.756	-50.242	0.113	0.054
-367.742	160.941	-0.240	0.338
-366.727	-163.564	-0.210	-0.010
-365.712	800.000	-0.103	-0.312
-364.698	-200.000	0.032	0.226
-363.683	-74.258	0.102	0.037
-362.669	156.452	0.210	-0.293
-361.654	-127.331	0.027	-0.004
-360.639	-16.086	0.265	-0.170
-359.625	202.530	-0.149	0.232
-358.610	-96.007	-0.091	0.024
-357.596	-7.746	0.189	0.129
-356.581	-59.432	-0.390	-0.169
-355.566	-81.826	0.203	-0.067
-354.552	-122.274	0.379	0.062
-353.537	-3.400	-0.009	0.006
-352.523	-73.753	-0.185	0.068
-351.508	800.000	0.014	0.063
-350.493	-200.000	0.077	-0.348
-349.479	-148.057	0.246	0.021
-348.464	131.308	0.092	-0.119
-347.450	-17.993	-0.099	-0.063
-346.435	76.441	0.107	0.114
-345.420	-128.079	0.006	0.001
-344.406	-17.369	0.280	-0.178
-343.391	-75.254	0.156	-0.056
-342.377	-125.847	-0.392	-0.060
-341.362	64.744	0.175	-0.178
-340.348	-87.847	0.292	0.089
-339.333	498.274	-0.086	0.199
-338.318	-200.000	-0.022	-0.157
-337.304	-200.000	-0.021	0.199
-336.289	276.486	-0.149	-0.267
-335.275	-65.478	-0.316	0.128
-334.260	280.326	-0.139	0.250
-333.245	-130.952	0.109	0.015
-332.231	-200.000	0.047	0.261
-331.216	-200.000	0.023	0.291
-330.202	-127.721	0.068	-0.010
-329.187	173.353	-0.044	-0.064
-328.172	29.564	-0.226	0.194
-327.158	800.000	0.073	-0.272
-326.143	-135.631	0.095	-0.011
-325.129	-43.500	0.163	0.083
-324.114	26.796	-0.247	-0.208
-323.099	171.330	0.144	-0.208
-322.085	-20.693	-0.091	-0.056
-321.070	-200.000	-0.058	-0.283
-320.056	-143.616	0.233	0.022
-319.041	35.092	-0.118	0.104
-318.026	-63.254	-0.287	0.119
-317.012	221.854	0.201	0.326
-315.997	800.000	0.106	0.299
-314.983	-170.745	-0.285	0.010
-313.968	345.630	0.139	0.275
-312.953	19.528	0.155	-0.125
-311.939	-200.000	-0.071	0.453
-310.924	-22.527	-0.170	-0.104
-309.910	-200.000	-0.034	0.229
-308.895	69.112	-0.155	0.161
-307.880	196.460	0.114	0.175
-306.866	594.636	0.099	-0.247
-305.851	-128.601	-0.313	0.045
-304.837	-200.000	-0.001	-0.032
-303.822	-110.033	-0.221	0.046
-302.807	-42.327	-0.207	-0.106
-301.793	275.195	-0.120	-0.214
-300.778	-79.690	0.165	0.056
-299.764	156.296	0.100	-0.139
-298.749	-109.118	0.347	0.074
-297.735	-98.570	0.075	0.019
-296.720	-200.000	0.023	-0.158
-295.705	705.621	0.120	-0.319
-294.691	103.938	-0.118	-0.140
-293.676	-200.000	0.025	0.115
-292.662	-4.571	0.211	0.146
-291.647	-200.000	0.027	-0.248
-290.632	800.000	0.013	0.047
-289.618	800.000	-0.018	-0.056
-288.603	597.014	0.022	0.056
-287.589	-158.724	-0.147	0.008
-286.574	-36.917	0.138	-0.074
-285.559	34.171	-0.013	0.011
-284.545	-80.086	-0.353	-0.119
-283.530	-105.683	-0.283	-0.064
-282.516	800.000	0.122	0.431
-281.501	-116.464	0.229	0.042
-280.486	-200.000	0.030	-0.252
-279.472	176.496	0.173	0.253
-278.457	-166.932	0.167	-0.007
-277.443	-36.203	0.146	-0.079
-276.428	667.178	-0.094	0.245
-275.413	-200.000	0.031	0.206
-274.399	-58.652	-0.238	0.104
-273.384	59.122	0.223	0.221
-272.370	402.608	-0.045	0.096
-271.355	467.167	0.094	0.213
-270.340	160.862	0.021	-0.029
-269.326	800.000	-0.074	-0.257
-268.311	-53.850	0.092	-0.042
-267.297	632.390	-0.049	0.124
-266.282	-38.452	-0.165	-0.088
-265.267	13.547	0.245	-0.191
-264.253	-86.165	-0.178	0.055
-263.238	15.018	-0.220	-0.173
-262.224	-49.447	-0.200	-0.096
-261.209	-200.000	-0.012	0.145
-260.195	-19.959	0.246	0.153
-259.180	-200.000	0.184	0.000
-258.165	227.379	0.097	0.159
-257.151	436.560	-0.199	0.436
-256.136	-200.000	0.018	0.119
-255.122	66.529	-0.183	-0.187
-254.107	242.338	-0.086	0.145
-253.092	337.233	0.071	0.138
-252.078	800.000	-0.045	-0.158
-251.063	-200.000	0.011	-0.281
-250.049	-111.359	-0.290	0.059
-249.034	45.854	0.135	0.126
-248.019	-43.819	0.164	-0.083
-247.005	321.236	0.080	0.153
-245.990	3.633	0.303	0.222
-244.976	-40.891	0.168	-0.087
-243.961	-200.000	-0.064	0.320
-242.946	-71.517	-0.297	0.112
-241.932	332.328	-0.080	0.156
-240.917	31.797	-0.108	-0.093
-239.903	-200.000	0.018	0.214
-238.888	-129.780	0.133	0.018
-237.873	-21.811	0.176	0.107
-236.859	107.189	0.047	-0.056
-235.844	-140.934	0.143	0.015
-234.830	-175.270	0.045	0.001
-233.815	800.000	-0.024	-0.072
-232.800	-36.277	-0.251	-0.136
-231.786	800.000	0.045	-0.155
-230.771	-200.000	-0.026	-0.181
-229.757	-63.261	-0.126	0.052
-228.742	258.839	-0.115	-0.199
-227.727	658.337	-0.125	0.323
-226.713	-118.270	-0.239	-0.043
-225.698	-70.031	-0.060	-0.023
-224.684	-131.480	0.268	0.035
-223.669	517.130	-0.105	0.246
-222.655	-200.000	0.032	-0.264
-221.640	337.733	0.017	0.033
-220.625	65.168	-0.180	0.182
-219.611	-35.823	-0.052	0.028
-218.596	-200.000	-0.039	-0.231
-217.582	76.025	-0.166	0.176
-216.567	667.092	0.055	-0.143
-215.552	-92.858	-0.080	0.022
-214.538	-68.521	-0.171	-0.066
-213.523	-200.000	0.007	-0.118
-212.509	102.407	0.195	-0.228
-211.494	364.464	-0.077	-0.156
-210.479	-200.000	-0.027	0.119
-209.465	-147.906	0.209	0.017
-208.450	-46.476	-0.169	-0.083
-207.436	40.227	0.054	-0.049
-206.421	-128.120	-0.412	0.059
-205.406	-200.000	0.003	-0.160
-204.392	31.493	-0.232	0.200
-203.377	26.277	0.130	0.109
-202.363	0.502	0.218	0.156
-201.348	9.463	-0.053	0.040
-200.333	-58.200	0.164	0.072
-199.319	-200.000	-0.024	0.177
-198.304	191.555	0.157	-0.237
-197.290	-62.238	-0.157	0.066
-196.275	-171.956	0.044	-0.001
-195.260	227.881	0.102	0.166
-194.246	164.169	0.060	-0.084
-193.231	72.450	-0.288	-0.301
-192.217	-151.395	-0.152	-0.011
-191.202	44.220	0.325	0.299
-190.187	136.393	-0.065	-0.085
-189.173	280.122	-0.078	0.140
-188.158	-96.818	-0.225	-0.059
-187.144	10.885	0.078	-0.059
-186.129	-52.851	0.138	0.064
-185.114	-200.000	0.019	-0.164
-184.100	-94.870	-0.220	-0.060
-183.085	-200.000	0.004	0.111
-182.071	83.333	0.093	0.102
-181.056	-200.000	0.010	0.252
-180.042	-129.500	-0.226	0.031
-179.027	-200.000	0.015	0.258
-178.012	-167.509	0.183	0.007
-176.998	115.481	0.078	0.095
-175.983	136.308	-0.105	0.137
-174.969	800.000	0.055	-0.156
-173.954	800.000	0.053	0.190
-172.939	496.236	-0.034	0.079
-171.925	-69.438	-0.240	-0.092
-170.910	-106.768	0.077	0.017
-169.896	-200.000	-0.033	0.425
-168.881	93.893	0.131	-0.148
-167.866	191.608	-0.118	0.178
-166.852	800.000	-0.027	0.077
-165.837	-99.026	-0.258	-0.065
-164.823	-112.678	0.428	0.085
-163.808	400.485	-0.054	0.113
-162.793	743.339	0.123	0.331
-161.779	-88.724	-0.239	0.071
-160.764	-67.927	-0.143	-0.056
-159.750	-73.363	0.335	0.123
-158.735	-155.517	0.292	-0.019
-157.720	-97.655	-0.371	-0.096
-156.706	75.845	0.261	0.277
-155.691	669.896	0.170	0.441
-154.677	765.878	-0.049	0.133
-153.662	-116.584	-0.078	0.014
-152.647	-200.000	-0.001	-0.359
-151.633	-108.202	-0.083	-0.018
-150.618	-122.221	0.210	-0.034
-149.604	2.093	0.267	0.193
-148.589	-95.781	0.031	-0.008
-147.574	55.849	-0.156	-0.151
-146.560	-58.688	0.052	0.023
-145.545	-117.083	-0.198	0.036
-144.531	800.000	-0.083	0.355
-143.516	-200.000	-0.014	0.064
-142.502	-121.071	0.372	0.062
-141.487	-200.000	-0.114	0.521
-140.472	33.722	0.196	-0.170
-139.458	185.469	-0.033	0.049
-138.443	472.069	-0.050	0.112
-137.429	800.000	0.038	0.146
-136.414	12.311	0.210	0.162
-135.399	800.000	0.001	-0.006
-134.385	-69.487	0.310	-0.119
-133.370	800.000	0.115	-0.329
-132.356	-126.367	0.532	0.079
-131.341	-6.053	-0.029	-0.020
-130.326	157.367	-0.078	0.108
-129.312	-200.000	0.058	-0.303
-128.297	-118.214	-0.238	-0.042
-127.283	53.965	0.071	0.068
-126.268	-200.000	0.034	0.280
-125.253	-11.585	0.211	-0.138
-124.239	610.960	0.058	-0.145
-123.224	-34.758	0.246	0.134
-122.210	800.000	0.021	-0.080
-121.195	430.121	0.037	0.080
