DTS Sentinel unit serial number:	SN413079Multiplexer serial number:	ORYXHardware model number:	OX4-SRSoftware version number:	ORYX F/W v4.00 Oryx Data Collector v3.7.2.0data status	okinstallation	princeton_trtdifferential loss correction	single-endedforward channel	channel 2reverse channel	N/Adate	2019/09/13time	08:31:34forward acquisition time	60.00reverse acquisition time	0.00gamma	496.2192k internal	0.2332k external	0.2332temperature offset calibration	1.0193default loss term (dB/km)	0.3790temperature slope calibration	1.0000multiplexer offset coefficient	1.0000multiplexer slope coefficient	1.0000fibre end	0.00T internal ref (°C)	27.52T ext. ref 1 (°C)	4.27T ext. ref 2 (°C)	24.45length (m)	temperature (°C)	Stokes	anti-Stokes-747.200	-82.952	0.344	0.112
-746.185	800.000	0.068	0.199
-745.171	-200.000	-0.028	-0.212
-744.156	201.677	0.044	-0.068
-743.142	-200.000	-0.044	0.307
-742.127	331.698	0.085	-0.164
-741.112	-82.863	-0.209	0.068
-740.098	20.415	-0.431	0.350
-739.083	52.777	0.094	-0.090
-738.069	32.868	0.332	-0.289
-737.054	107.460	-0.173	0.207
-736.039	-72.377	-0.360	0.134
-735.025	-200.000	0.071	-0.467
-734.010	-200.000	0.048	-0.255
-732.996	800.000	0.030	-0.084
-731.981	-5.421	-0.139	0.096
-730.966	-70.877	0.278	0.105
-729.952	-84.278	-0.110	0.035
-728.937	127.228	-0.083	0.106
-727.923	-200.000	-0.055	-0.359
-726.908	34.205	0.058	-0.051
-725.894	118.585	-0.177	0.220
-724.879	-111.445	-0.410	0.084
-723.864	13.045	-0.176	0.137
-722.850	85.769	-0.038	-0.042
-721.835	800.000	0.042	-0.179
-720.821	29.121	0.087	-0.074
-719.806	-27.038	-0.134	0.079
-718.791	333.858	0.076	-0.148
-717.777	185.282	-0.121	-0.181
-716.762	-200.000	0.014	0.231
-715.748	-119.244	-0.085	-0.015
-714.733	186.071	0.095	0.141
-713.718	-64.297	-0.183	0.075
-712.704	-200.000	-0.074	-0.435
-711.689	-101.704	0.172	0.042
-710.675	-114.039	-0.384	-0.075
-709.660	212.929	-0.096	-0.152
-708.645	89.486	-0.179	-0.200
-707.631	-3.906	-0.076	0.053
-706.616	-133.320	0.191	0.024
-705.602	-200.000	-0.020	-0.104
-704.587	-11.819	-0.391	0.258
-703.572	-12.303	0.128	0.084
-702.558	-86.506	-0.235	-0.072
-701.543	800.000	0.035	-0.131
-700.529	-121.565	0.091	0.015
-699.514	-99.055	0.185	-0.047
-698.499	800.000	-0.100	-0.357
-697.485	-200.000	-0.004	-0.103
-696.470	-200.000	-0.013	0.243
-695.456	45.739	-0.093	-0.087
-694.441	240.738	-0.035	-0.059
-693.426	10.810	-0.111	0.085
-692.412	800.000	-0.100	-0.279
-691.397	-54.992	0.063	-0.028
-690.383	-200.000	-0.003	0.099
-689.368	34.194	0.275	0.241
-688.354	273.268	-0.079	-0.140
-687.339	-48.073	-0.260	-0.126
-686.324	-200.000	-0.022	-0.251
-685.310	800.000	0.019	0.081
-684.295	-133.019	-0.242	-0.031
-683.281	-200.000	-0.021	0.253
-682.266	-165.611	-0.120	0.005
-681.251	143.818	0.183	0.244
-680.237	800.000	-0.044	-0.137
-679.222	68.460	0.106	0.109
-678.208	140.046	0.055	-0.073
-677.193	800.000	-0.084	0.314
-676.178	-125.058	0.264	-0.041
-675.164	28.828	-0.172	0.146
-674.149	555.232	0.075	0.180
-673.135	49.757	0.028	-0.026
-672.120	106.822	0.040	0.048
-671.105	-200.000	-0.049	0.410
-670.091	430.536	-0.088	0.191
-669.076	-85.215	0.130	0.041
-668.062	-91.787	-0.144	-0.041
-667.047	-149.467	0.090	0.007
-666.032	766.547	0.033	-0.089
-665.018	381.794	-0.095	0.195
-664.003	-200.000	-0.048	0.383
-662.989	29.382	-0.049	0.042
-661.974	800.000	0.105	-0.360
-660.959	240.621	0.090	0.151
-659.945	-200.000	0.023	-0.120
-658.930	800.000	-0.094	-0.346
-657.916	-64.609	-0.222	0.090
-656.901	800.000	-0.057	-0.229
-655.886	-200.000	-0.042	0.209
-654.872	98.019	0.052	0.061
-653.857	127.823	-0.158	-0.201
-652.843	-200.000	-0.023	-0.127
-651.828	429.525	-0.053	-0.116
-650.814	447.759	-0.114	0.252
-649.799	110.141	0.143	0.172
-648.784	-50.451	-0.147	-0.070
-647.770	-162.561	0.444	-0.022
-646.755	-164.290	0.283	-0.013
-645.741	-200.000	0.028	0.173
-644.726	-200.000	-0.019	-0.261
-643.711	3.546	-0.405	-0.296
-642.697	-200.000	-0.043	-0.218
-641.682	-150.027	0.213	0.017
-640.668	-29.485	0.160	0.091
-639.653	236.274	-0.126	-0.209
-638.638	-0.781	0.059	-0.042
-637.624	77.439	0.163	-0.174
-636.609	9.016	-0.143	0.108
-635.595	39.210	0.146	-0.131
-634.580	-110.331	-0.125	0.026
-633.565	-74.748	-0.082	-0.029
-632.551	176.583	-0.025	0.036
-631.536	646.848	-0.081	-0.207
-630.522	246.801	0.048	0.081
-629.507	-200.000	-0.017	-0.088
-628.492	691.578	0.073	-0.191
-627.478	181.866	-0.109	0.161
-626.463	-112.094	-0.284	-0.057
-625.449	-200.000	-0.057	0.377
-624.434	800.000	-0.077	-0.247
-623.419	-76.951	-0.267	-0.094
-622.405	18.163	0.265	0.212
-621.390	-57.389	0.283	0.125
-620.376	64.797	-0.039	-0.039
-619.361	136.714	-0.108	-0.141
-618.346	-15.682	0.073	0.047
-617.332	52.048	0.138	0.131
-616.317	-189.325	0.268	0.003
-615.303	-2.517	-0.124	-0.087
-614.288	800.000	0.087	-0.370
-613.273	-21.146	0.335	-0.205
-612.259	-73.050	-0.118	0.043
-611.244	-156.546	0.615	-0.038
-610.230	207.846	-0.184	-0.287
-609.215	800.000	0.021	0.082
-608.201	-67.858	-0.108	0.042
-607.186	24.211	0.079	-0.065
-606.171	-200.000	0.026	0.206
-605.157	254.910	0.139	-0.239
-604.142	-200.000	0.014	0.259
-603.128	423.985	-0.066	0.141
-602.113	203.874	-0.126	-0.196
-601.098	-200.000	0.026	-0.143
-600.084	-95.125	0.375	-0.101
-599.069	-69.994	-0.294	0.112
-598.055	-34.413	-0.077	0.042
-597.040	800.000	0.146	0.402
-596.025	-159.930	0.186	-0.010
-595.011	369.379	0.078	0.157
-593.996	-114.041	-0.120	-0.023
-592.982	-200.000	-0.052	-0.378
-591.967	-200.000	-0.006	-0.140
-590.952	-200.000	0.090	-0.405
-589.938	-37.355	0.077	-0.041
-588.923	41.929	-0.040	-0.036
-587.909	64.049	-0.176	-0.177
-586.894	85.609	0.100	-0.110
-585.879	-105.188	-0.053	-0.012
-584.865	389.151	-0.070	-0.145
-583.850	95.204	-0.229	0.261
-582.836	-30.766	0.076	0.043
-581.821	220.847	-0.068	-0.109
-580.806	674.147	-0.072	-0.187
-579.792	14.094	-0.250	0.195
-578.777	246.176	-0.036	-0.061
-577.763	70.241	0.137	-0.142
-576.748	-122.530	-0.277	-0.045
-575.733	237.390	0.141	0.233
-574.719	95.696	-0.043	-0.050
-573.704	-200.000	0.038	0.189
-572.690	-200.000	0.013	-0.084
-571.675	-96.811	0.222	-0.058
-570.661	-60.989	0.185	-0.078
-569.646	503.897	0.005	-0.011
-568.631	248.329	-0.144	-0.244
-567.617	255.529	0.057	-0.098
-566.602	-54.708	-0.264	-0.119
-565.588	-94.690	-0.111	-0.030
-564.573	407.074	0.164	0.346
-563.558	-161.765	0.237	0.012
-562.544	-200.000	-0.005	0.241
-561.529	-28.684	0.184	-0.106
-560.515	715.645	0.061	0.162
-559.500	645.696	0.030	0.076
-558.485	-162.087	-0.311	0.016
-557.471	73.801	-0.270	0.282
-556.456	-44.579	0.229	0.114
-555.442	-55.617	0.231	0.103
-554.427	-98.737	-0.289	-0.073
-553.412	30.030	0.230	0.196
-552.398	713.118	0.124	0.329
-551.383	36.499	-0.354	-0.312
-550.369	140.465	0.021	-0.028
-549.354	197.744	-0.141	0.215
-548.339	-200.000	0.045	-0.219
-547.325	460.050	0.041	-0.092
-546.310	-140.276	-0.144	0.015
-545.296	-151.976	-0.178	0.013
-544.281	-66.342	-0.403	0.160
-543.266	206.184	-0.266	0.413
-542.252	-50.901	0.057	0.027
-541.237	-200.000	0.005	-0.077
-540.223	-200.000	-0.037	0.296
-539.208	53.374	0.060	0.058
-538.193	-15.351	-0.052	-0.033
-537.179	-114.085	0.096	-0.018
-536.164	-200.000	-0.030	-0.160
-535.150	-43.576	0.123	0.062
-534.135	-173.491	-0.433	-0.013
-533.121	692.358	-0.036	-0.093
-532.106	101.816	-0.069	-0.080
-531.091	-8.605	-0.136	0.091
-530.077	-139.852	-0.398	0.042
-529.062	19.922	0.059	0.047
-528.048	235.717	-0.049	-0.080
-527.033	-104.054	0.239	-0.055
-526.018	-159.993	-0.158	0.009
-525.004	800.000	-0.164	-0.561
-523.989	497.722	-0.115	-0.263
-522.975	-40.610	-0.269	-0.139
-521.960	-196.168	0.175	0.001
-520.945	250.598	0.164	-0.278
-519.931	4.105	-0.019	0.014
-518.916	-69.545	0.281	-0.107
-517.902	-67.051	0.046	-0.018
-516.887	-4.244	0.112	0.077
-515.872	800.000	0.031	0.119
-514.858	35.022	0.031	-0.027
-513.843	-46.355	-0.103	-0.050
-512.829	319.590	0.048	0.091
-511.814	-200.000	0.007	0.243
-510.799	228.989	-0.126	0.205
-509.785	-200.000	0.004	-0.197
-508.770	193.865	-0.091	-0.137
-507.756	-116.019	0.143	0.027
-506.741	-109.603	0.237	-0.050
-505.726	198.173	-0.073	0.111
-504.712	-28.470	0.338	0.194
-503.697	800.000	0.026	0.101
-502.683	-200.000	0.013	0.429
-501.668	94.681	0.165	0.187
-500.653	-8.490	-0.234	0.157
-499.639	800.000	0.037	0.110
-498.624	-200.000	-0.041	-0.318
-497.610	-200.000	0.042	-0.332
-496.595	145.216	0.083	-0.111
-495.581	-200.000	0.027	0.118
-494.566	210.597	-0.093	0.146
-493.551	334.796	0.161	-0.311
-492.537	73.286	-0.177	0.185
-491.522	42.844	-0.174	0.158
-490.508	-200.000	-0.010	0.101
-489.493	-89.343	0.024	0.007
-488.478	-62.981	0.491	0.202
-487.464	-200.000	0.066	-0.374
-486.449	276.080	-0.124	0.219
-485.435	-169.865	-0.092	0.003
-484.420	-102.257	-0.209	0.050
-483.405	-68.812	-0.152	0.058
-482.391	-94.358	-0.261	-0.071
-481.376	158.548	0.107	-0.148
-480.362	-200.000	-0.016	0.196
-479.347	695.258	-0.103	0.270
-478.332	-97.193	-0.223	-0.058
-477.318	167.370	-0.106	0.150
-476.303	-127.795	-0.366	-0.053
-475.289	63.308	0.177	-0.176
-474.274	-15.270	-0.052	0.033
-473.259	-200.000	-0.020	0.346
-472.245	361.302	-0.069	-0.138
-471.230	154.282	0.226	-0.309
-470.216	376.480	0.059	0.120
-469.201	-125.504	0.226	-0.034
-468.186	19.298	0.107	0.085
-467.172	400.839	0.177	-0.370
-466.157	82.026	0.089	-0.096
-465.143	109.557	0.089	-0.106
-464.128	206.566	0.133	-0.206
-463.113	800.000	-0.047	-0.161
-462.099	-76.067	-0.067	0.024
-461.084	-17.064	0.369	0.232
-460.070	-200.000	-0.062	0.363
-459.055	-200.000	0.002	0.059
-458.040	52.659	0.060	-0.057
-457.026	800.000	0.059	0.220
-456.011	83.406	0.146	0.158
-454.997	-54.993	-0.355	0.159
-453.982	105.913	0.051	0.061
-452.968	-121.910	-0.232	-0.038
-451.953	18.550	0.175	-0.139
-450.938	-180.175	0.023	0.000
-449.924	743.740	0.072	0.193
-448.909	674.839	0.031	0.080
-447.895	290.638	0.112	-0.203
-446.880	-200.000	0.081	-0.466
-445.865	-159.041	-0.279	-0.016
-444.851	-105.193	-0.105	0.024
-443.836	349.182	0.079	-0.155
-442.822	93.717	0.089	0.100
-441.807	16.136	0.196	0.153
-440.792	407.512	0.037	-0.078
-439.778	800.000	-0.035	0.099
-438.763	-95.120	0.209	0.056
-437.749	-32.611	-0.075	-0.042
-436.734	72.865	0.304	-0.315
-435.719	62.361	0.080	-0.079
-434.705	59.056	-0.243	0.238
-433.690	800.000	-0.065	0.265
-432.676	327.083	-0.127	0.241
-431.661	-137.727	0.174	-0.019
-430.646	-200.000	-0.074	0.396
-429.632	285.102	-0.093	-0.167
-428.617	-200.000	0.010	0.420
-427.603	-200.000	-0.009	-0.133
-426.588	-200.000	-0.092	-0.426
-425.573	-7.310	-0.443	-0.298
-424.559	398.023	-0.166	-0.345
-423.544	113.089	-0.169	-0.203
-422.530	324.876	-0.040	-0.076
-421.515	-200.000	0.002	-0.136
-420.500	-24.244	0.191	-0.113
-419.486	800.000	0.068	-0.274
-418.471	577.548	0.035	0.085
-417.457	800.000	0.111	-0.357
-416.442	-200.000	-0.051	-0.237
-415.428	800.000	0.110	-0.320
-414.413	365.040	0.085	0.170
-413.398	800.000	0.092	-0.261
-412.384	-200.000	0.081	0.359
-411.369	800.000	-0.100	0.381
-410.355	-127.453	-0.242	-0.035
-409.340	9.753	0.261	-0.196
-408.325	7.707	-0.190	0.142
-407.311	696.808	0.089	0.233
-406.296	281.708	-0.137	-0.244
-405.282	11.421	0.026	0.020
-404.267	-200.000	-0.004	-0.056
-403.252	247.204	0.125	0.210
-402.238	-72.285	0.305	-0.112
-401.223	-115.811	0.043	0.008
-400.209	-74.917	-0.200	-0.071
-399.194	-67.377	0.294	0.115
-398.179	271.605	-0.283	0.494
-397.165	12.269	0.271	-0.207
-396.150	12.170	0.178	0.136
-395.136	5.716	0.228	-0.167
-394.121	-43.717	-0.223	-0.111
-393.106	42.702	0.053	0.048
-392.092	65.775	-0.095	0.095
-391.077	106.988	0.068	-0.080
-390.063	124.642	0.158	-0.197
-389.048	-200.000	0.014	-0.341
-388.033	-136.392	0.276	0.032
-387.019	-80.029	-0.275	-0.091
-386.004	-148.419	0.364	-0.030
-384.990	144.993	-0.213	0.282
-383.975	27.891	-0.173	0.145
-382.960	-76.045	-0.126	0.044
-381.946	-88.902	-0.035	0.010
-380.931	-83.710	-0.320	-0.101
-379.917	88.702	0.101	0.111
-378.902	262.860	-0.193	-0.331
-377.888	-83.217	-0.210	-0.067
-376.873	-68.371	0.142	0.055
-375.858	-200.000	-0.025	0.194
-374.844	-63.895	-0.124	0.050
-373.829	36.746	-0.125	-0.110
-372.815	-200.000	-0.004	0.376
-371.800	115.550	-0.079	0.096
-370.785	-6.488	-0.128	-0.086
-369.771	139.351	0.119	-0.155
-368.756	332.356	0.055	-0.106
-367.742	800.000	0.038	0.111
-366.727	11.052	0.214	-0.162
-365.712	99.685	-0.170	-0.195
-364.698	367.162	-0.125	-0.251
-363.683	-96.032	-0.218	0.057
-362.669	114.538	-0.166	-0.201
-361.654	-115.414	0.122	-0.023
-360.639	156.314	0.108	0.148
-359.625	-156.303	0.182	0.011
-358.610	471.778	-0.190	0.424
-357.596	-200.000	0.042	0.275
-356.581	-200.000	0.056	0.459
-355.566	-200.000	-0.021	-0.138
-354.552	800.000	0.022	0.073
-353.537	375.475	0.145	-0.292
-352.523	-193.577	-0.092	0.001
-351.508	-200.000	0.017	0.078
-350.493	401.481	-0.053	-0.110
-349.479	-200.000	0.025	0.169
-348.464	800.000	0.063	-0.250
-347.450	451.389	0.048	-0.106
-346.435	-77.907	-0.205	0.070
-345.420	-200.000	-0.058	0.452
-344.406	3.416	0.317	0.229
-343.391	-103.449	-0.291	0.068
-342.377	55.775	0.113	0.108
-341.362	-200.000	-0.016	0.127
-340.348	639.375	-0.032	-0.080
-339.333	-117.348	0.232	-0.042
-338.318	20.085	-0.157	0.125
-337.304	-69.259	0.087	0.033
-336.289	-59.492	-0.158	-0.067
-335.275	57.807	0.129	-0.125
-334.260	47.852	0.219	0.202
-333.245	135.752	-0.211	-0.272
-332.231	-200.000	0.005	-0.153
-331.216	0.555	-0.198	0.140
-330.202	-200.000	0.027	-0.208
-329.187	-36.376	-0.184	0.098
-328.172	800.000	-0.083	0.303
-327.158	-200.000	0.050	0.225
-326.143	122.085	-0.159	-0.197
-325.129	106.778	-0.180	-0.212
-324.114	45.890	0.089	0.081
-323.099	-121.337	-0.275	0.045
-322.085	44.081	-0.124	-0.112
-321.070	-56.296	0.091	-0.040
-320.056	432.097	0.017	-0.037
-319.041	14.559	-0.253	0.195
-318.026	-136.275	-0.127	-0.015
-317.012	-41.733	0.089	-0.045
-315.997	-5.004	-0.069	-0.047
-314.983	-71.038	0.267	0.099
-313.968	-200.000	0.068	-0.366
-312.953	-77.440	0.199	-0.068
-311.939	-171.399	-0.037	0.001
-310.924	-157.765	0.075	-0.004
-309.910	-200.000	0.025	-0.226
-308.895	-103.769	0.276	-0.064
-307.880	81.994	-0.062	-0.066
-306.866	-169.188	-0.223	0.008
-305.851	-200.000	-0.013	0.123
-304.837	-200.000	0.029	0.154
-303.822	-58.886	0.068	-0.029
-302.807	-200.000	-0.013	-0.231
-301.793	254.608	0.121	0.205
-300.778	-122.999	-0.166	0.026
-299.764	308.750	0.193	-0.356
-298.749	79.091	0.098	0.104
-297.735	-19.421	-0.201	0.123
-296.720	-26.934	0.178	0.103
-295.705	-97.111	0.286	0.074
-294.691	-200.000	0.017	0.226
-293.676	140.277	-0.143	-0.187
-292.662	13.412	-0.247	0.190
-291.647	3.590	0.317	0.229
-290.632	800.000	-0.087	0.255
-289.618	-74.180	-0.047	-0.017
-288.603	75.477	-0.214	-0.223
-287.589	800.000	-0.071	-0.260
-286.574	-67.852	0.381	-0.147
-285.559	611.144	-0.022	0.055
-284.545	-38.571	0.102	-0.053
-283.530	-99.013	0.080	-0.020
-282.516	-59.216	-0.077	0.033
-281.501	-50.714	-0.196	-0.091
-280.486	231.737	-0.142	0.231
-279.472	214.664	-0.039	-0.061
-278.457	-68.365	0.463	-0.178
-277.443	114.770	-0.264	0.318
-276.428	53.654	0.251	0.238
-275.413	-108.788	-0.235	0.050
-274.399	-119.078	0.162	0.028
-273.384	346.979	0.097	0.188
-272.370	-200.000	-0.019	0.089
-271.355	73.376	-0.110	-0.113
-270.340	-11.233	-0.218	0.142
-269.326	174.907	-0.162	0.232
-268.311	-88.567	-0.173	0.051
-267.297	-200.000	0.019	0.162
-266.282	-200.000	0.050	0.296
-265.267	210.173	0.256	-0.397
-264.253	325.992	-0.157	0.297
-263.238	77.707	-0.169	-0.178
-262.224	51.886	-0.189	-0.178
-261.209	-138.339	0.103	-0.011
-260.195	122.248	-0.134	0.165
-259.180	-200.000	0.004	-0.185
-258.165	157.896	-0.159	-0.218
-257.151	323.793	0.039	-0.074
-256.136	-57.879	-0.150	-0.065
-255.122	-190.440	0.308	0.003
-254.107	-129.510	-0.335	0.046
-253.092	203.381	0.053	-0.081
-252.078	-70.853	-0.078	0.029
-251.063	33.474	0.030	-0.026
-250.049	-52.993	-0.092	-0.042
-249.034	-200.000	-0.004	0.314
-248.019	-95.448	0.115	-0.030
-247.005	-97.111	0.098	-0.025
-245.990	-19.286	0.089	-0.054
-244.976	68.636	-0.113	0.115
-243.961	-42.226	0.394	-0.198
-242.946	-200.000	0.035	-0.226
-241.932	800.000	0.068	-0.267
-240.917	800.000	0.009	-0.036
-239.903	-142.759	0.258	0.025
-238.888	717.501	0.160	-0.419
-237.873	306.327	-0.078	-0.143
-236.859	-97.361	-0.418	-0.107
-235.844	549.739	0.130	-0.306
-234.830	-48.714	-0.116	-0.055
-233.815	800.000	-0.076	0.284
-232.800	-200.000	0.048	0.272
-231.786	-200.000	0.003	0.013
-230.771	625.657	-0.046	0.114
-229.757	-137.770	0.344	0.038
-228.742	800.000	0.072	-0.308
-227.727	103.925	0.127	-0.147
-226.713	37.261	0.107	0.094
-225.698	443.093	-0.177	-0.383
-224.684	-11.820	-0.236	0.153
-223.669	104.326	-0.022	0.025
-222.655	15.603	0.261	0.202
-221.640	8.112	0.234	-0.173
-220.625	19.524	-0.168	0.134
-219.611	619.042	0.061	0.152
-218.596	686.550	0.123	-0.318
-217.582	13.505	0.161	-0.123
-216.567	-200.000	0.016	-0.116
-215.552	-26.319	0.095	-0.055
-214.538	193.432	0.055	0.083
-213.523	428.660	-0.099	0.210
-212.509	-32.365	-0.203	0.112
-211.494	-200.000	-0.027	0.231
-210.479	-200.000	0.101	0.532
-209.465	-38.203	-0.119	0.062
-208.450	450.821	0.165	-0.358
-207.436	-114.408	0.192	0.036
-206.421	-112.569	0.272	0.053
-205.406	258.617	0.058	-0.099
-204.392	173.264	-0.092	-0.131
-203.377	66.676	-0.318	-0.318
-202.363	-58.937	-0.143	0.061
-201.348	776.426	-0.089	0.240
-200.333	-88.975	0.011	0.003
-199.319	3.894	0.361	-0.260
-198.304	-144.210	-0.130	-0.012
-197.290	-14.691	-0.162	-0.103
-196.275	-200.000	0.004	-0.025
-195.260	-200.000	-0.010	0.298
-194.246	-15.887	-0.035	-0.022
-193.231	241.476	-0.175	-0.288
-192.217	404.596	-0.218	0.453
-191.202	710.201	0.094	-0.246
-190.187	32.969	-0.026	-0.022
-189.173	536.866	-0.083	0.193
-188.158	-79.098	0.241	0.081
-187.144	22.571	0.194	0.156
-186.129	146.091	-0.120	0.158
-185.114	44.010	-0.243	0.219
-184.100	157.235	0.128	0.174
-183.085	800.000	0.058	-0.215
-182.071	-200.000	0.040	0.173
-181.056	638.126	-0.069	-0.172
-180.042	340.730	0.148	0.283
-179.027	-23.998	0.226	0.133
-178.012	81.548	-0.107	0.114
-176.998	11.102	-0.025	0.019
-175.983	-200.000	0.010	-0.099
-174.969	195.044	-0.113	0.168
-173.954	800.000	0.021	0.085
-172.939	-112.477	-0.321	-0.063
-171.925	-56.957	0.255	0.111
-170.910	-200.000	0.021	0.112
-169.896	56.796	0.164	0.157
-168.881	256.404	0.206	-0.348
-167.866	345.559	-0.102	-0.197
-166.852	-123.737	0.356	-0.055
-165.837	-114.028	-0.100	0.019
-164.823	122.562	-0.029	0.035
-163.808	176.111	-0.098	0.140
-162.793	612.317	0.037	-0.090
-161.779	-200.000	0.021	0.104
-160.764	199.127	0.225	0.339
-159.750	166.133	-0.065	0.091
-158.735	87.060	-0.076	-0.082
-157.720	-200.000	-0.033	0.300
-156.706	-200.000	0.012	-0.082
-155.691	447.844	0.042	-0.090
-154.677	-72.546	-0.123	-0.045
-153.662	86.881	-0.163	-0.177
-152.647	69.605	-0.184	0.186
-151.633	339.002	0.027	0.052
-150.618	105.777	-0.258	-0.300
-149.604	800.000	-0.183	-0.552
-148.589	-200.000	-0.010	0.348
-147.574	89.999	0.086	-0.094
-146.560	484.956	0.166	-0.372
-145.545	465.584	-0.033	0.072
-144.531	-34.104	-0.157	-0.085
-143.516	-120.161	-0.156	0.026
-142.502	-200.000	0.018	-0.323
-141.487	338.961	-0.088	-0.169
-140.472	-98.707	0.053	0.013
-139.458	-20.671	-0.166	0.100
-138.443	-200.000	0.005	-0.091
-137.429	-22.295	0.144	0.085
-136.414	-118.576	0.113	0.020
-135.399	57.671	0.094	-0.090
-134.385	800.000	-0.051	-0.169
-133.370	-200.000	-0.006	0.062
-132.356	477.516	-0.117	-0.261
-131.341	800.000	0.032	0.115
-130.326	145.401	-0.135	-0.177
-129.312	-94.209	0.310	0.083
-128.297	-200.000	-0.005	0.139
-127.283	56.370	0.164	0.157
-126.268	-47.794	-0.154	0.073
-125.253	-6.290	-0.015	-0.010
-124.239	20.397	-0.351	0.279
-123.224	86.097	-0.153	-0.166
-122.210	-85.504	-0.350	-0.107
-121.195	82.298	0.224	-0.238
