DTS Sentinel unit serial number:	SN413079Multiplexer serial number:	ORYXHardware model number:	OX4-SRSoftware version number:	ORYX F/W v4.00 Oryx Data Collector v3.7.2.0data status	okinstallation	princeton_trtdifferential loss correction	single-endedforward channel	channel 2reverse channel	N/Adate	2019/09/17time	12:59:35forward acquisition time	60.00reverse acquisition time	0.00gamma	496.2192k internal	0.2318k external	0.2318temperature offset calibration	0.9985default loss term (dB/km)	0.3790temperature slope calibration	1.0000multiplexer offset coefficient	1.0000multiplexer slope coefficient	1.0000fibre end	0.00T internal ref (°C)	33.30T ext. ref 1 (°C)	0.41T ext. ref 2 (°C)	31.44length (m)	temperature (°C)	Stokes	anti-Stokes-747.200	326.805	0.144	-0.278
-746.185	163.731	0.134	0.190
-745.171	-35.543	-0.338	-0.186
-744.156	539.948	-0.069	0.165
-743.142	-30.138	0.337	-0.194
-742.127	71.153	0.215	0.225
-741.112	228.590	0.156	-0.258
-740.098	199.454	0.155	0.240
-739.083	-47.756	0.118	-0.058
-738.069	-200.000	0.022	0.137
-737.054	-200.000	-0.001	-0.186
-736.039	-41.654	-0.135	-0.070
-735.025	-59.704	-0.151	-0.065
-734.010	-14.988	-0.416	-0.270
-732.996	-200.000	-0.037	0.172
-731.981	1.907	-0.061	0.044
-730.966	-83.739	0.153	0.049
-729.952	-142.604	-0.360	0.036
-728.937	54.469	-0.142	-0.138
-727.923	134.478	0.221	0.290
-726.908	-111.839	-0.168	-0.034
-725.894	263.681	-0.067	0.117
-724.879	-73.846	-0.093	-0.034
-723.864	60.993	-0.135	0.135
-722.850	-10.267	-0.392	0.263
-721.835	800.000	-0.105	0.299
-720.821	-106.992	0.101	-0.023
-719.806	201.670	0.064	-0.099
-718.791	800.000	-0.090	-0.253
-717.777	-200.000	-0.020	-0.369
-716.762	228.029	0.072	-0.119
-715.748	800.000	0.040	-0.169
-714.733	84.834	0.248	-0.275
-713.718	-152.062	0.266	-0.020
-712.704	800.000	0.033	0.121
-711.689	0.662	-0.159	0.115
-710.675	800.000	-0.096	-0.324
-709.660	10.404	-0.108	-0.083
-708.645	0.578	-0.174	-0.125
-707.631	-200.000	-0.026	-0.249
-706.616	283.369	-0.134	0.242
-705.602	306.366	-0.085	-0.159
-704.587	-172.413	-0.278	-0.009
-703.572	-36.028	0.347	-0.190
-702.558	-88.922	-0.184	0.055
-701.543	800.000	0.033	-0.142
-700.529	-97.624	0.099	-0.026
-699.514	452.893	0.081	0.181
-698.499	520.156	0.118	-0.279
-697.485	-30.936	0.188	0.107
-696.470	-90.644	0.480	-0.140
-695.456	73.953	0.229	-0.243
-694.441	0.496	-0.200	-0.145
-693.426	79.256	0.191	-0.206
-692.412	19.242	0.060	0.049
-691.397	496.475	0.113	0.262
-690.383	800.000	0.104	-0.300
-689.368	-200.000	0.074	-0.339
-688.354	-35.290	-0.074	0.041
-687.339	411.936	0.064	-0.137
-686.324	-38.703	0.209	0.111
-685.310	33.647	-0.095	-0.083
-684.295	-163.633	-0.287	-0.014
-683.281	-139.384	0.193	0.021
-682.266	-191.869	0.239	0.002
-681.251	-82.563	0.119	-0.039
-680.237	289.031	-0.085	-0.155
-679.222	17.375	-0.163	-0.131
-678.208	211.598	-0.238	-0.379
-677.193	-200.000	0.011	-0.100
-676.178	800.000	-0.112	0.382
-675.164	800.000	0.055	-0.225
-674.149	102.725	0.089	-0.105
-673.135	800.000	-0.050	-0.148
-672.120	800.000	0.065	0.206
-671.105	-29.134	0.298	-0.172
-670.091	800.000	0.009	-0.029
-669.076	120.259	0.229	0.287
-668.062	-69.893	0.088	-0.034
-667.047	800.000	-0.035	0.097
-666.032	800.000	-0.162	-0.478
-665.018	-152.249	-0.021	0.002
-664.003	-160.196	-0.269	0.015
-662.989	9.526	-0.159	0.121
-661.974	-200.000	0.020	-0.215
-660.959	0.138	-0.183	0.132
-659.945	800.000	0.011	-0.039
-658.930	-4.481	0.131	0.091
-657.916	198.197	-0.107	-0.164
-656.901	-84.372	-0.219	0.070
-655.886	-9.515	-0.173	-0.116
-654.872	736.522	0.082	0.223
-653.857	222.405	0.069	-0.112
-652.843	-83.224	-0.152	0.049
-651.828	-200.000	0.014	0.168
-650.814	-200.000	-0.066	-0.395
-649.799	-44.653	-0.181	-0.091
-648.784	256.293	0.143	-0.247
-647.770	-74.030	-0.249	-0.091
-646.755	433.858	-0.085	0.186
-645.741	788.971	0.076	0.212
-644.726	800.000	-0.032	0.102
-643.711	-99.165	0.421	0.107
-642.697	-51.926	-0.250	-0.117
-641.682	7.520	-0.235	-0.177
-640.668	-200.000	0.016	-0.106
-639.653	326.392	-0.225	-0.434
-638.638	-200.000	-0.055	0.400
-637.624	-93.927	0.283	0.078
-636.609	-136.040	-0.201	0.024
-635.595	-53.939	-0.136	-0.063
-634.580	800.000	0.070	-0.304
-633.565	-62.671	-0.400	-0.167
-632.551	-200.000	-0.016	0.083
-631.536	-88.795	0.232	-0.069
-630.522	-94.521	-0.099	-0.027
-629.507	738.080	-0.018	-0.048
-628.492	-116.183	-0.237	-0.044
-627.478	-60.807	-0.159	0.068
-626.463	-1.133	0.127	0.090
-625.449	483.750	0.043	-0.098
-624.434	69.088	-0.076	0.079
-623.419	253.115	0.185	0.318
-622.405	21.890	0.348	-0.286
-621.390	-13.194	-0.074	-0.049
-620.376	287.415	-0.119	-0.217
-619.361	800.000	0.016	-0.051
-618.346	-200.000	-0.024	0.296
-617.332	399.787	0.120	0.252
-616.317	5.323	0.163	-0.121
-615.303	160.419	0.164	0.230
-614.288	-113.139	0.173	-0.034
-613.273	-84.229	0.513	-0.164
-612.259	145.383	-0.240	0.323
-611.244	-63.708	0.039	0.016
-610.230	-115.539	-0.343	0.065
-609.215	-200.000	0.017	0.248
-608.201	-200.000	-0.019	-0.103
-607.186	800.000	-0.075	0.295
-606.171	-58.573	0.202	0.088
-605.157	-200.000	-0.009	-0.126
-604.142	620.497	-0.078	0.197
-603.128	11.431	0.387	0.298
-602.113	-103.939	-0.183	-0.043
-601.098	-21.662	0.188	-0.115
-600.084	314.847	-0.072	-0.136
-599.069	800.000	0.023	-0.065
-598.055	49.542	0.194	0.184
-597.040	-112.652	0.262	-0.052
-596.025	-200.000	0.018	-0.080
-595.011	-200.000	0.017	-0.160
-593.996	125.359	0.038	0.048
-592.982	15.986	-0.260	-0.206
-591.967	47.641	0.089	0.083
-590.952	-70.333	-0.233	-0.089
-589.938	-39.159	-0.169	0.089
-588.923	-200.000	-0.019	-0.260
-587.909	800.000	-0.054	-0.235
-586.894	-137.111	0.279	-0.032
-585.879	-143.932	0.247	-0.023
-584.865	84.405	0.106	-0.117
-583.850	-41.085	0.178	0.092
-582.836	134.838	0.118	0.154
-581.821	-111.474	-0.169	0.035
-580.806	-39.119	-0.129	-0.068
-579.792	327.313	0.142	-0.275
-578.777	-200.000	-0.008	0.115
-577.763	-62.557	-0.071	0.030
-576.748	800.000	-0.098	-0.395
-575.733	74.244	-0.087	-0.092
-574.719	106.336	0.092	-0.110
-573.704	-148.268	-0.133	0.011
-572.690	-200.000	0.033	0.478
-571.675	800.000	0.037	-0.154
-570.661	384.362	0.158	0.327
-569.646	3.041	0.232	-0.169
-568.631	-155.716	0.152	0.010
-567.617	-108.772	-0.230	0.050
-566.602	-200.000	0.007	-0.270
-565.588	-0.067	-0.231	-0.165
-564.573	170.833	-0.094	0.135
-563.558	-109.714	-0.199	0.042
-562.544	82.669	-0.155	-0.169
-561.529	34.390	0.243	-0.213
-560.515	131.093	-0.170	-0.219
-559.500	-4.208	-0.102	-0.071
-558.485	-7.240	0.331	-0.226
-557.471	-200.000	-0.029	0.146
-556.456	-57.601	0.120	0.053
-555.442	-36.441	-0.415	0.225
-554.427	304.580	-0.066	0.123
-553.412	800.000	-0.060	0.182
-552.398	-114.348	-0.140	0.027
-551.383	-98.799	0.130	-0.033
-550.369	459.019	-0.075	-0.168
-549.354	800.000	-0.041	0.130
-548.339	-200.000	-0.019	-0.142
-547.325	-153.433	0.137	0.010
-546.310	-108.622	-0.244	0.053
-545.296	100.132	-0.223	-0.260
-544.281	123.962	-0.080	0.101
-543.266	-82.891	-0.109	-0.035
-542.252	554.813	-0.098	-0.238
-541.237	-105.830	0.241	-0.055
-540.223	-96.075	-0.171	-0.046
-539.208	-145.362	-0.244	-0.022
-538.193	338.836	-0.043	-0.084
-537.179	-126.312	0.152	0.023
-536.164	120.220	-0.314	0.391
-535.150	-122.714	0.438	-0.071
-534.135	-171.594	0.156	0.005
-533.121	800.000	-0.071	-0.265
-532.106	-200.000	0.022	0.297
-531.091	-61.124	0.263	-0.111
-530.077	-83.899	-0.096	0.031
-529.062	800.000	0.061	-0.200
-528.048	800.000	0.100	0.298
-527.033	-200.000	-0.022	0.454
-526.018	-42.934	0.114	0.058
-525.004	318.501	-0.167	0.316
-523.989	88.145	-0.066	-0.074
-522.975	-91.055	-0.168	0.048
-521.960	-148.666	-0.138	0.011
-520.945	373.674	0.073	0.149
-519.931	201.283	0.153	0.236
-518.916	-126.180	-0.321	-0.048
-517.902	800.000	-0.070	0.207
-516.887	-49.273	0.149	-0.072
-515.872	-87.425	-0.067	0.020
-514.858	-37.705	0.204	-0.109
-513.843	-53.029	-0.151	0.069
-512.829	-118.841	-0.143	0.025
-511.814	-200.000	-0.034	0.201
-510.799	65.391	-0.124	0.126
-509.785	127.882	0.156	0.199
-508.770	-200.000	-0.022	-0.100
-507.756	-32.566	0.330	0.184
-506.741	-200.000	0.045	-0.303
-505.726	30.905	0.273	-0.234
-504.712	-44.102	-0.163	0.082
-503.697	-62.447	-0.068	0.028
-502.683	69.646	0.248	-0.256
-501.668	-19.333	-0.074	-0.046
-500.653	800.000	-0.024	0.069
-499.639	800.000	-0.039	0.138
-498.624	55.070	0.273	-0.264
-497.610	75.283	0.292	0.309
-496.595	686.607	-0.102	-0.267
-495.581	800.000	0.049	0.179
-494.566	-74.388	-0.236	0.086
-493.551	-128.959	0.246	0.035
-492.537	-144.816	-0.159	0.015
-491.522	33.932	-0.178	-0.156
-490.508	-48.316	-0.362	0.175
-489.493	120.754	0.106	-0.132
-488.478	570.730	0.129	0.316
-487.464	-189.859	-0.263	-0.003
-486.449	-94.539	0.261	0.071
-485.435	32.206	0.067	0.058
-484.420	-142.877	0.130	0.013
-483.405	185.310	-0.352	0.524
-482.391	218.260	0.109	0.174
-481.376	-99.251	-0.086	-0.022
-480.362	-96.720	-0.092	-0.024
-479.347	63.926	0.254	-0.256
-478.332	800.000	-0.087	-0.243
-477.318	-163.712	-0.318	0.015
-476.303	-84.590	-0.255	0.080
-475.289	8.333	-0.231	0.174
-474.274	-200.000	-0.019	-0.101
-473.259	-89.360	-0.351	-0.104
-472.245	76.420	-0.081	0.086
-471.230	-132.796	-0.126	0.016
-470.216	-74.932	0.055	0.020
-469.201	-75.744	-0.288	0.102
-468.186	229.790	-0.113	-0.184
-467.172	800.000	-0.053	-0.196
-466.157	-200.000	-0.004	0.091
-465.143	77.508	-0.219	0.233
-464.128	-200.000	0.018	-0.134
-463.113	800.000	-0.075	0.287
-462.099	-51.812	0.224	0.104
-461.084	-160.829	-0.435	0.023
-460.070	-75.716	0.033	0.012
-459.055	-150.034	-0.153	-0.012
-458.040	129.336	0.173	-0.222
-457.026	-14.137	-0.240	-0.155
-456.011	73.636	0.090	0.094
-454.997	-200.000	-0.003	0.035
-453.982	-116.335	0.339	0.063
-452.968	-43.240	-0.552	-0.280
-451.953	32.957	0.106	0.091
-450.938	113.820	-0.058	-0.071
-449.924	1.055	-0.155	0.111
-448.909	72.528	-0.228	0.238
-447.895	-200.000	0.013	0.255
-446.880	-62.084	0.285	-0.119
-445.865	-86.498	-0.606	-0.186
-444.851	800.000	-0.038	0.125
-443.836	0.082	-0.084	-0.060
-442.822	-157.374	-0.377	-0.023
-441.807	517.383	-0.255	-0.596
-440.792	-200.000	0.053	-0.267
-439.778	134.913	-0.085	0.110
-438.763	800.000	0.008	0.035
-437.749	-94.229	0.147	-0.040
-436.734	98.501	0.076	-0.088
-435.719	677.050	0.030	0.079
-434.705	800.000	0.092	0.255
-433.690	-30.598	0.099	0.056
-432.676	-14.793	0.239	-0.153
-431.661	800.000	-0.077	-0.305
-430.646	-119.700	-0.121	-0.021
-429.632	-57.893	0.299	-0.130
-428.617	157.109	-0.105	-0.146
-427.603	-128.950	0.220	-0.031
-426.588	90.510	0.234	0.262
-425.573	159.101	-0.171	0.237
-424.559	-121.980	-0.383	-0.063
-423.544	-133.773	0.179	0.022
-422.530	68.006	0.076	0.077
-421.515	-200.000	0.034	0.240
-420.500	47.820	0.079	0.073
-419.486	188.482	0.043	-0.064
-418.471	-200.000	-0.004	0.161
-417.457	-21.993	-0.266	0.161
-416.442	103.529	0.082	0.096
-415.428	-87.483	-0.023	-0.007
-414.413	-18.081	0.365	0.229
-413.398	-51.381	0.160	0.075
-412.384	800.000	-0.095	-0.350
-411.369	174.312	-0.060	-0.086
-410.355	121.015	-0.135	-0.168
-409.340	86.635	-0.248	-0.273
-408.325	402.504	0.190	-0.398
-407.311	270.140	0.145	-0.254
-406.296	405.341	0.076	0.160
-405.282	-104.251	-0.148	-0.034
-404.267	-200.000	0.003	-0.355
-403.252	-44.897	-0.282	-0.140
-402.238	-153.398	0.147	0.010
-401.223	-200.000	0.053	0.306
-400.209	146.894	0.178	-0.238
-399.194	-74.537	-0.042	0.015
-398.179	6.758	-0.075	0.056
-397.165	-109.131	0.259	-0.055
-396.150	19.567	0.102	-0.082
-395.136	-76.503	0.172	0.060
-394.121	8.205	-0.275	0.206
-393.106	452.554	-0.027	0.060
-392.092	365.434	-0.066	0.133
-391.077	800.000	0.090	-0.250
-390.063	33.053	0.276	-0.239
-389.048	368.372	-0.151	-0.305
-388.033	-80.987	0.073	-0.024
-387.019	1.762	0.323	-0.232
-386.004	-200.000	-0.153	0.000
-384.990	60.490	-0.101	-0.100
-383.975	-121.423	0.049	0.008
-382.960	-116.512	0.120	-0.022
-381.946	-200.000	0.015	-0.257
-380.931	309.017	-0.043	0.081
-379.917	31.836	0.121	0.104
-378.902	-200.000	0.007	0.106
-377.888	571.801	-0.071	-0.173
-376.873	-200.000	-0.020	0.104
-375.858	102.034	0.076	0.089
-374.844	-12.396	-0.078	0.051
-373.829	-200.000	0.007	0.112
-372.815	81.843	-0.086	0.092
-371.800	-200.000	-0.041	0.210
-370.785	800.000	-0.036	-0.111
-369.771	-65.091	-0.227	0.091
-368.756	340.006	-0.108	0.210
-367.742	-5.717	-0.192	-0.131
-366.727	-200.000	0.029	0.570
-365.712	254.903	0.191	-0.327
-364.698	12.368	0.049	-0.038
-363.683	60.525	0.074	-0.073
-362.669	-61.670	-0.332	-0.139
-361.654	-46.972	0.166	-0.081
-360.639	-70.422	0.225	-0.085
-359.625	-74.065	-0.330	-0.119
-358.610	-200.000	-0.020	0.109
-357.596	93.513	-0.026	-0.029
-356.581	-128.685	-0.323	0.045
-355.566	-90.959	-0.321	0.092
-354.552	-200.000	0.015	-0.140
-353.537	18.408	-0.216	0.172
-352.523	2.154	0.141	-0.101
-351.508	-108.730	-0.197	0.042
-350.493	-86.551	-0.117	0.036
-349.479	-3.865	0.132	-0.092
-348.464	-200.000	0.017	0.129
-347.450	-136.277	-0.182	0.021
-346.435	354.418	-0.097	-0.192
-345.420	-200.000	0.040	-0.283
-344.406	-3.230	-0.172	-0.120
-343.391	58.386	0.054	-0.053
-342.377	568.339	-0.082	0.198
-341.362	800.000	-0.104	-0.306
-340.348	5.574	-0.114	-0.084
-339.333	336.790	-0.146	0.282
-338.318	800.000	0.064	-0.179
-337.304	-200.000	-0.011	-0.204
-336.289	-16.041	0.066	-0.042
-335.275	-169.871	-0.174	0.006
-334.260	-158.398	-0.398	-0.023
-333.245	-133.107	0.310	0.039
-332.231	800.000	-0.059	-0.165
-331.216	-200.000	0.030	-0.173
-330.202	-200.000	-0.019	-0.148
-329.187	800.000	-0.068	-0.236
-328.172	800.000	-0.133	0.496
-327.158	-200.000	0.016	0.312
-326.143	24.752	0.251	-0.207
-325.129	-54.614	0.213	0.096
-324.114	800.000	0.077	-0.218
-323.099	-200.000	-0.002	-0.069
-322.085	627.666	-0.062	-0.155
-321.070	-200.000	-0.008	-0.113
-320.056	-129.237	-0.440	0.061
-319.041	22.818	0.026	0.021
-318.026	288.414	0.073	-0.131
-317.012	800.000	-0.080	0.272
-315.997	-94.371	0.256	-0.069
-314.983	800.000	0.061	-0.178
-313.968	-20.586	0.289	-0.176
-312.953	800.000	-0.102	-0.393
-311.939	252.698	-0.048	0.082
-310.924	-200.000	-0.119	0.000
-309.910	800.000	0.028	0.111
-308.895	-1.942	-0.007	0.005
-307.880	441.522	0.026	0.057
-306.866	84.170	0.284	0.309
-305.851	-34.435	-0.085	-0.046
-304.837	32.549	0.062	0.053
-303.822	-106.979	0.191	0.042
-302.807	-200.000	-0.014	-0.147
-301.793	286.881	0.163	0.292
-300.778	-200.000	-0.004	-0.142
-299.764	188.168	-0.187	0.278
-298.749	-126.499	0.131	0.019
-297.735	-116.418	0.242	0.044
-296.720	800.000	-0.054	-0.179
-295.705	800.000	0.043	-0.143
-294.691	23.655	0.092	0.075
-293.676	-200.000	0.001	-0.051
-292.662	-200.000	0.024	-0.319
-291.647	-123.817	0.157	0.025
-290.632	-200.000	0.015	0.315
-289.618	665.595	0.075	-0.191
-288.603	474.722	0.108	-0.241
-287.589	-60.584	0.254	-0.107
-286.574	2.039	0.184	0.132
-285.559	347.514	-0.131	-0.256
-284.545	2.037	-0.086	0.062
-283.530	331.639	-0.025	0.048
-282.516	-28.560	-0.100	-0.057
-281.501	90.816	0.281	-0.313
-280.486	800.000	0.091	-0.259
-279.472	578.785	0.116	0.283
-278.457	-200.000	-0.009	0.258
-277.443	728.470	0.048	-0.127
-276.428	368.706	0.020	-0.040
-275.413	144.886	0.174	0.231
-274.399	769.145	-0.044	-0.120
-273.384	216.246	0.073	0.116
-272.370	49.234	-0.037	0.035
-271.355	-122.053	-0.203	0.033
-270.340	-6.624	-0.181	0.123
-269.326	-68.622	-0.115	-0.044
-268.311	68.224	-0.108	-0.110
-267.297	45.875	-0.217	0.199
-266.282	159.236	0.165	0.228
-265.267	-200.000	-0.010	0.061
-264.253	800.000	0.077	0.227
-263.238	-45.074	0.232	0.115
-262.224	134.795	-0.235	0.303
-261.209	214.766	-0.078	-0.123
-260.195	-21.598	-0.293	-0.178
-259.180	176.885	-0.062	-0.089
-258.165	49.073	-0.057	0.053
-257.151	225.806	0.117	-0.189
-256.136	-24.941	0.035	-0.020
-255.122	-200.000	-0.029	0.231
-254.107	325.843	0.210	0.399
-253.092	18.931	-0.057	-0.045
-252.078	153.058	0.124	0.168
-251.063	-200.000	-0.052	0.278
-250.049	-49.677	-0.202	0.095
-249.034	-85.135	0.429	-0.133
-248.019	245.458	-0.104	0.173
-247.005	-200.000	0.035	0.267
-245.990	-11.809	0.229	-0.149
-244.976	800.000	-0.046	0.144
-243.961	-16.150	0.109	-0.069
-242.946	-200.000	-0.033	0.244
-241.932	150.457	-0.117	0.157
-240.917	-36.479	-0.398	0.213
-239.903	-149.456	0.136	-0.011
-238.888	800.000	0.047	0.154
-237.873	-46.495	0.359	0.175
-236.859	-0.726	0.200	-0.140
-235.844	-3.053	0.067	-0.046
-234.830	-23.658	-0.021	-0.012
-233.815	-96.191	-0.138	0.036
-232.800	-200.000	0.011	-0.048
-231.786	800.000	0.107	-0.368
-230.771	84.479	-0.271	0.294
-229.757	-200.000	0.014	0.074
-228.742	-92.620	-0.140	-0.039
-227.727	331.651	0.109	0.208
-226.713	-120.645	0.355	0.060
-225.698	-96.659	0.100	0.026
-224.684	215.879	0.130	0.205
-223.669	-200.000	0.004	0.259
-222.655	-173.529	-0.329	0.010
-221.640	9.592	-0.058	-0.044
-220.625	-57.836	0.218	0.095
-219.611	49.303	0.317	0.295
-218.596	800.000	-0.027	-0.080
-217.582	81.620	-0.101	-0.109
-216.567	-158.090	0.528	-0.031
-215.552	-82.631	-0.263	0.084
-214.538	-1.061	0.160	0.112
-213.523	-115.692	0.197	-0.037
-212.509	-200.000	-0.020	0.140
-211.494	-200.000	0.039	-0.537
-210.479	175.158	0.061	0.087
-209.465	-37.876	0.166	0.088
-208.450	-200.000	0.051	0.345
-207.436	1.492	0.019	-0.013
-206.421	5.109	0.149	-0.109
-205.406	14.070	-0.024	0.018
-204.392	-200.000	-0.006	0.137
-203.377	-39.669	-0.195	0.101
-202.363	-148.187	-0.114	-0.009
-201.348	-71.335	0.323	-0.120
-200.333	800.000	0.050	-0.156
-199.319	-100.652	0.147	-0.036
-198.304	-200.000	-0.057	-0.278
-197.290	800.000	0.157	-0.446
-196.275	-97.826	0.409	0.105
-195.260	-134.539	0.265	-0.032
-194.246	-98.597	0.163	-0.041
-193.231	-200.000	-0.011	0.070
-192.217	-157.140	0.359	-0.022
-191.202	-72.192	0.133	0.049
-190.187	535.211	0.093	0.218
-189.173	800.000	0.060	0.190
-188.158	395.021	-0.067	0.138
-187.144	-98.231	0.331	0.084
-186.129	42.063	-0.146	0.132
-185.114	119.954	0.056	-0.069
-184.100	-200.000	-0.027	-0.200
-183.085	-200.000	-0.029	-0.263
-182.071	-200.000	0.106	0.000
-181.056	605.682	-0.147	0.362
-180.042	-121.724	0.157	-0.026
-179.027	-200.000	0.017	-0.120
-178.012	250.363	0.054	0.091
-176.998	262.028	0.083	0.142
-175.983	567.229	0.058	-0.140
-174.969	577.937	-0.109	0.265
-173.954	800.000	-0.080	-0.255
-172.939	-200.000	0.019	-0.448
-171.925	179.859	0.037	0.053
-170.910	-200.000	-0.054	-0.324
-169.896	-107.676	0.082	-0.018
-168.881	-87.355	0.070	-0.021
-167.866	-200.000	-0.024	-0.118
-166.852	74.734	-0.095	0.099
-165.837	-38.704	0.140	-0.073
-164.823	-200.000	0.003	-0.067
-163.808	-128.042	-0.084	0.012
-162.793	616.672	-0.029	0.071
-161.779	-84.408	-0.355	-0.111
-160.764	444.232	0.096	-0.209
-159.750	13.628	0.022	0.017
-158.735	-70.871	0.195	0.073
-157.720	-158.890	0.166	-0.009
-156.706	464.205	0.027	0.059
-155.691	16.145	-0.314	0.245
-154.677	-200.000	0.046	-0.255
-153.662	-164.072	-0.370	0.017
-152.647	-200.000	0.002	0.053
-151.633	-200.000	0.005	-0.097
-150.618	199.526	0.139	0.211
-149.604	-200.000	-0.004	-0.092
-148.589	28.821	0.242	0.202
-147.574	800.000	-0.077	0.262
-146.560	37.383	0.359	0.315
-145.545	449.284	0.200	0.435
-144.531	800.000	0.051	0.218
-143.516	-4.460	0.296	-0.202
-142.502	-35.422	-0.204	0.110
-141.487	-80.654	-0.148	-0.049
-140.472	-200.000	-0.024	0.353
-139.458	-200.000	0.007	0.173
-138.443	-191.193	0.235	-0.002
-137.429	138.923	0.221	0.287
-136.414	-133.358	0.359	-0.045
-135.399	-15.211	-0.180	0.114
-134.385	-70.822	-0.124	-0.046
-133.370	-200.000	-0.006	-0.061
-132.356	800.000	-0.082	-0.325
-131.341	-200.000	-0.021	0.229
-130.326	-67.999	0.082	-0.031
-129.312	228.171	-0.251	-0.404
-128.297	402.622	0.112	-0.233
-127.283	-200.000	0.023	-0.203
-126.268	643.754	0.055	-0.138
-125.253	-23.514	0.215	0.128
-124.239	-78.395	0.037	-0.012
-123.224	-140.314	0.390	0.040
-122.210	551.640	-0.014	-0.032
-121.195	800.000	0.147	0.488
