DTS Sentinel unit serial number:	SN413079Multiplexer serial number:	ORYXHardware model number:	OX4-SRSoftware version number:	ORYX F/W v4.00 Oryx Data Collector v3.7.2.0data status	okinstallation	princeton_trtdifferential loss correction	single-endedforward channel	channel 2reverse channel	N/Adate	2019/09/15time	04:35:34forward acquisition time	60.00reverse acquisition time	0.00gamma	496.2192k internal	0.2325k external	0.2325temperature offset calibration	1.0031default loss term (dB/km)	0.3790temperature slope calibration	1.0000multiplexer offset coefficient	1.0000multiplexer slope coefficient	1.0000fibre end	0.00T internal ref (°C)	30.83T ext. ref 1 (°C)	4.68T ext. ref 2 (°C)	25.44length (m)	temperature (°C)	Stokes	anti-Stokes-747.200	-200.000	0.002	-0.016
-746.185	-66.689	0.180	0.072
-745.171	6.492	-0.213	0.160
-744.156	-200.000	-0.021	0.278
-743.142	263.149	-0.097	-0.170
-742.127	-41.852	-0.235	0.121
-741.112	195.245	0.021	0.032
-740.098	65.216	-0.264	0.269
-739.083	112.432	0.130	-0.159
-738.069	-88.894	0.149	-0.045
-737.054	29.534	-0.048	-0.041
-736.039	428.214	-0.128	0.278
-735.025	-200.000	-0.027	-0.289
-734.010	-142.809	0.373	-0.037
-732.996	484.360	0.072	-0.166
-731.981	-69.946	-0.190	-0.073
-730.966	-127.825	0.113	-0.016
-729.952	-8.365	-0.180	0.122
-728.937	-73.441	-0.307	-0.113
-727.923	-200.000	-0.056	-0.276
-726.908	-122.434	0.241	-0.039
-725.894	-120.217	-0.363	-0.063
-724.879	-24.676	-0.250	-0.150
-723.864	148.545	0.138	0.188
-722.850	189.627	0.197	-0.299
-721.835	-0.507	0.083	-0.059
-720.821	-124.628	0.099	0.016
-719.806	487.650	-0.166	-0.381
-718.791	109.828	0.154	0.186
-717.777	597.908	-0.020	0.050
-716.762	91.549	0.154	-0.174
-715.748	151.247	0.011	0.015
-714.733	3.953	0.171	-0.126
-713.718	-31.653	0.279	-0.158
-712.704	-20.255	0.214	-0.133
-711.689	-200.000	-0.043	-0.195
-710.675	-104.528	-0.028	-0.007
-709.660	-200.000	0.007	0.160
-708.645	-54.523	0.344	-0.157
-707.631	119.914	-0.071	0.089
-706.616	-69.013	0.221	0.086
-705.602	-156.828	0.241	-0.015
-704.587	-43.644	0.202	-0.103
-703.572	-30.304	-0.027	0.015
-702.558	-29.703	-0.259	0.149
-701.543	800.000	0.033	-0.121
-700.529	253.835	0.073	0.125
-699.514	175.526	0.205	0.300
-698.499	105.001	0.043	-0.051
-697.485	-200.000	-0.014	-0.211
-696.470	-175.293	0.090	0.002
-695.456	-55.006	0.232	-0.105
-694.441	57.144	0.121	-0.119
-693.426	-200.000	0.003	-0.228
-692.412	-94.677	-0.430	0.118
-691.397	-200.000	0.025	0.308
-690.383	442.774	-0.162	0.358
-689.368	-200.000	0.045	-0.243
-688.354	80.318	-0.149	-0.162
-687.339	-14.250	-0.218	-0.141
-686.324	-56.158	-0.205	-0.092
-685.310	374.695	-0.104	-0.213
-684.295	-126.695	-0.198	0.029
-683.281	-200.000	0.009	0.107
-682.266	800.000	-0.064	-0.233
-681.251	-120.431	-0.036	0.006
-680.237	477.929	-0.017	0.039
-679.222	-103.721	-0.113	0.027
-678.208	291.798	0.243	-0.445
-677.193	20.870	-0.134	0.109
-676.178	-151.469	0.150	0.011
-675.164	59.485	0.229	0.227
-674.149	18.966	0.098	-0.079
-673.135	634.931	-0.126	0.322
-672.120	247.704	-0.088	-0.149
-671.105	104.727	-0.121	-0.143
-670.091	235.613	0.150	0.249
-669.076	178.494	0.128	0.187
-668.062	394.385	-0.128	-0.268
-667.047	-200.000	-0.027	-0.146
-666.032	-116.692	-0.150	0.028
-665.018	-34.823	-0.203	-0.111
-664.003	-200.000	-0.040	-0.372
-662.989	-89.904	0.267	-0.078
-661.974	-73.733	-0.174	0.064
-660.959	528.040	0.058	-0.137
-659.945	31.106	-0.168	0.145
-658.930	-61.051	-0.264	-0.112
-657.916	-189.574	0.055	-0.001
-656.901	-125.785	-0.105	0.016
-655.886	-200.000	0.008	0.084
-654.872	-159.264	-0.067	-0.004
-653.857	-200.000	0.030	-0.263
-652.843	70.819	0.074	0.077
-651.828	6.128	-0.292	-0.218
-650.814	346.784	0.161	0.318
-649.799	-200.000	0.022	-0.281
-648.784	241.751	-0.207	-0.347
-647.770	-200.000	0.004	-0.526
-646.755	-12.057	-0.142	0.093
-645.741	-200.000	-0.006	0.055
-644.726	800.000	-0.033	0.116
-643.711	463.565	-0.047	-0.106
-642.697	-39.588	-0.110	0.058
-641.682	-117.519	-0.136	0.025
-640.668	27.001	-0.133	-0.112
-639.653	114.778	-0.150	-0.183
-638.638	-47.101	0.301	-0.147
-637.624	403.663	0.147	-0.310
-636.609	178.391	-0.070	0.103
-635.595	119.613	-0.102	0.126
-634.580	-200.000	-0.055	0.509
-633.565	29.582	-0.278	-0.238
-632.551	-114.258	0.233	0.045
-631.536	-82.586	-0.398	0.130
-630.522	55.105	-0.331	-0.321
-629.507	42.105	-0.263	-0.240
-628.492	54.481	0.071	-0.068
-627.478	-153.317	-0.351	0.025
-626.463	-72.691	0.071	0.026
-625.449	141.923	-0.118	0.158
-624.434	129.201	0.137	0.176
-623.419	-6.011	-0.144	-0.099
-622.405	-167.876	0.174	0.007
-621.390	-102.467	0.376	0.090
-620.376	155.528	0.125	-0.173
-619.361	-69.627	-0.144	0.055
-618.346	136.356	-0.034	-0.045
-617.332	-24.570	0.074	-0.044
-616.317	-20.645	0.199	0.123
-615.303	800.000	0.016	-0.048
-614.288	340.421	-0.075	-0.146
-613.273	-187.626	-0.086	0.001
-612.259	-109.450	-0.150	-0.032
-611.244	-51.819	0.141	-0.066
-610.230	-117.635	0.053	-0.010
-609.215	800.000	-0.159	0.456
-608.201	-58.108	-0.310	0.136
-607.186	-62.258	0.260	0.109
-606.171	107.021	0.175	-0.209
-605.157	-52.920	0.075	0.035
-604.142	-181.691	-0.158	-0.003
-603.128	47.907	-0.090	-0.084
-602.113	150.413	0.137	0.186
-601.098	800.000	0.014	-0.054
-600.084	-0.365	-0.176	0.126
-599.069	133.574	0.085	0.110
-598.055	6.793	0.246	0.184
-597.040	206.633	-0.132	0.207
-596.025	-64.028	0.156	-0.064
-595.011	-187.700	0.115	-0.002
-593.996	800.000	-0.017	0.062
-592.982	26.709	-0.076	0.063
-591.967	-200.000	-0.010	0.293
-590.952	-171.300	-0.334	0.011
-589.938	-54.237	0.199	-0.091
-588.923	800.000	0.066	-0.191
-587.909	-126.647	0.175	0.026
-586.894	-200.000	0.009	-0.094
-585.879	800.000	-0.069	-0.259
-584.865	-200.000	-0.035	-0.207
-583.850	-34.725	0.198	0.109
-582.836	-200.000	-0.027	0.289
-581.821	800.000	-0.058	0.240
-580.806	-200.000	0.018	0.167
-579.792	41.665	-0.192	0.174
-578.777	-8.992	-0.198	-0.133
-577.763	-32.816	-0.087	0.048
-576.748	-43.106	0.165	-0.084
-575.733	-184.120	0.219	-0.004
-574.719	-83.247	0.056	-0.018
-573.704	-91.639	-0.170	0.048
-572.690	316.502	0.209	0.395
-571.675	-91.678	0.250	0.071
-570.661	89.154	-0.121	0.135
-569.646	46.291	0.194	-0.181
-568.631	126.424	-0.042	0.054
-567.617	130.219	0.140	0.180
-566.602	800.000	-0.072	0.269
-565.588	-6.446	0.255	0.174
-564.573	25.361	0.067	0.056
-563.558	31.136	-0.034	-0.029
-562.544	-200.000	0.010	-0.198
-561.529	-200.000	0.005	0.078
-560.515	-200.000	-0.059	-0.373
-559.500	800.000	-0.048	-0.181
-558.485	-107.423	0.271	-0.060
-557.471	3.137	0.098	-0.072
-556.456	-52.434	0.118	-0.055
-555.442	30.321	-0.090	0.077
-554.427	800.000	0.081	0.305
-553.412	81.267	0.238	-0.258
-552.398	-200.000	0.009	-0.576
-551.383	558.590	-0.149	0.360
-550.369	182.853	-0.088	0.130
-549.354	-41.285	0.069	0.035
-548.339	616.633	0.110	0.277
-547.325	581.998	0.067	0.163
-546.310	207.650	-0.165	-0.258
-545.296	56.882	-0.190	0.185
-544.281	24.741	0.076	0.063
-543.266	46.567	-0.089	0.083
-542.252	460.754	0.123	-0.273
-541.237	-110.397	-0.179	-0.037
-540.223	0.278	0.209	0.149
-539.208	-99.101	-0.083	0.021
-538.193	-55.409	-0.142	0.064
-537.179	-114.663	-0.053	-0.010
-536.164	533.271	0.109	-0.257
-535.150	800.000	0.104	-0.299
-534.135	232.203	0.157	0.257
-533.121	-79.788	0.104	0.035
-532.106	-200.000	0.076	0.353
-531.091	-51.996	-0.246	0.114
-530.077	-163.384	0.250	-0.012
-529.062	800.000	-0.050	-0.176
-528.048	-200.000	0.040	-0.305
-527.033	-200.000	0.029	-0.220
-526.018	-4.772	-0.403	0.278
-525.004	800.000	0.050	0.150
-523.989	-141.670	0.178	0.018
-522.975	800.000	-0.117	-0.468
-521.960	151.825	-0.225	0.307
-520.945	-52.587	-0.343	-0.159
-519.931	-148.642	-0.467	0.038
-518.916	800.000	0.025	-0.103
-517.902	-178.470	0.171	0.004
-516.887	-200.000	0.027	-0.231
-515.872	309.004	0.112	-0.209
-514.858	-88.817	-0.343	-0.102
-513.843	500.887	0.122	0.282
-512.829	45.366	0.125	0.116
-511.814	-152.540	-0.548	-0.039
-510.799	-104.196	-0.055	0.013
-509.785	-46.124	-0.268	-0.132
-508.770	140.013	-0.155	0.204
-507.756	-200.000	0.007	-0.180
-506.741	-200.000	-0.053	0.276
-505.726	267.119	-0.029	-0.051
-504.712	-200.000	0.009	0.360
-503.697	175.377	0.144	0.209
-502.683	-104.879	0.212	0.049
-501.668	-67.105	0.104	-0.041
-500.653	-40.246	0.225	0.117
-499.639	-42.889	-0.112	-0.057
-498.624	-128.077	0.349	-0.050
-497.610	11.460	0.067	-0.052
-496.595	373.539	0.044	-0.090
-495.581	-12.612	0.559	-0.364
-494.566	-63.927	0.184	-0.075
-493.551	-105.634	0.195	-0.044
-492.537	-15.082	-0.347	-0.222
-491.522	-151.508	-0.322	0.024
-490.508	-200.000	0.029	0.297
-489.493	-156.060	-0.445	0.028
-488.478	25.801	-0.166	0.138
-487.464	-174.603	-0.197	0.006
-486.449	-62.649	-0.299	-0.124
-485.435	148.636	-0.162	-0.218
-484.420	134.019	0.132	-0.171
-483.405	-182.841	0.146	0.003
-482.391	-156.550	-0.228	-0.014
-481.376	-200.000	-0.014	0.171
-480.362	148.115	-0.126	-0.169
-479.347	-200.000	-0.066	0.293
-478.332	33.766	0.134	-0.116
-477.318	339.582	0.090	-0.174
-476.303	-200.000	0.019	0.277
-475.289	538.151	0.202	0.480
-474.274	800.000	-0.038	0.153
-473.259	230.971	-0.070	-0.114
-472.245	-46.646	0.090	0.044
-471.230	36.554	0.192	0.169
-470.216	147.303	0.090	-0.122
-469.201	247.926	-0.054	-0.091
-468.186	800.000	-0.063	-0.211
-467.172	73.232	0.113	-0.118
-466.157	-108.399	0.212	0.046
-465.143	-37.273	0.294	-0.157
-464.128	-112.445	-0.160	-0.032
-463.113	800.000	-0.061	-0.249
-462.099	800.000	0.065	-0.206
-461.084	-184.470	0.198	0.003
-460.070	-90.977	-0.396	-0.114
-459.055	-159.170	-0.121	0.007
-458.040	-108.244	-0.113	-0.024
-457.026	17.166	-0.059	0.046
-456.011	85.964	0.230	-0.252
-454.997	-200.000	-0.007	0.322
-453.982	107.907	-0.006	0.007
-452.968	-200.000	0.021	-0.196
-451.953	-70.549	0.217	0.082
-450.938	-146.370	-0.283	0.025
-449.924	-97.819	-0.308	-0.079
-448.909	24.102	-0.099	0.082
-447.895	-94.507	-0.061	0.017
-446.880	-78.493	-0.212	0.072
-445.865	64.950	-0.071	0.072
-444.851	-39.432	-0.076	-0.040
-443.836	-200.000	-0.030	0.172
-442.822	-69.853	-0.115	0.044
-441.807	30.961	-0.182	0.156
-440.792	800.000	0.067	-0.206
-439.778	800.000	-0.082	-0.227
-438.763	29.932	0.202	-0.171
-437.749	-65.464	-0.217	0.087
-436.734	32.208	-0.373	0.320
-435.719	-47.355	0.170	0.082
-434.705	-68.093	0.182	0.071
-433.690	-17.216	-0.272	0.171
-432.676	-102.973	-0.210	0.050
-431.661	263.325	-0.154	0.267
-430.646	-132.088	0.307	-0.040
-429.632	-200.000	-0.006	0.133
-428.617	800.000	-0.055	-0.163
-427.603	-118.881	0.470	-0.082
-426.588	800.000	0.058	0.230
-425.573	-96.010	0.211	-0.056
-424.559	-44.187	0.127	-0.064
-423.544	299.338	0.094	0.172
-422.530	-191.115	-0.162	-0.002
-421.515	85.684	-0.169	-0.185
-420.500	44.478	0.053	-0.049
-419.486	626.734	-0.099	-0.250
-418.471	-31.193	-0.049	-0.027
-417.457	-57.836	-0.090	0.039
-416.442	-115.319	-0.209	0.039
-415.428	-200.000	0.020	0.163
-414.413	-200.000	-0.010	-0.161
-413.398	130.970	0.101	0.129
-412.384	716.081	-0.104	0.274
-411.369	800.000	-0.015	0.048
-410.355	91.873	-0.205	-0.230
-409.340	-200.000	0.050	-0.453
-408.325	-200.000	-0.020	-0.161
-407.311	12.403	0.367	-0.282
-406.296	-27.729	-0.164	-0.095
-405.282	800.000	-0.048	-0.203
-404.267	-69.415	-0.192	-0.073
-403.252	188.033	-0.137	0.204
-402.238	742.363	-0.111	-0.298
-401.223	800.000	-0.114	-0.321
-400.209	228.098	-0.071	0.115
-399.194	-70.352	0.293	0.111
-398.179	-200.000	0.003	0.132
-397.165	1.950	0.170	-0.122
-396.150	437.260	0.171	-0.371
-395.136	-121.252	-0.227	-0.038
-394.121	-200.000	0.051	0.275
-393.106	113.522	0.072	0.087
-392.092	800.000	-0.009	-0.033
-391.077	800.000	-0.028	-0.105
-390.063	-179.136	0.265	0.006
-389.048	102.880	0.176	0.206
-388.033	-48.466	-0.126	-0.060
-387.019	728.222	0.113	0.299
-386.004	-4.630	-0.253	-0.174
-384.990	-42.323	0.130	0.066
-383.975	10.375	-0.132	0.100
-382.960	800.000	0.040	-0.163
-381.946	-25.797	-0.139	0.081
-380.931	137.717	-0.132	0.172
-379.917	468.323	0.051	-0.114
-378.902	-64.517	0.255	0.103
-377.888	-200.000	0.002	-0.147
-376.873	147.729	-0.175	0.235
-375.858	-158.122	0.348	0.020
-374.844	-200.000	-0.043	-0.205
-373.829	-200.000	-0.042	0.191
-372.815	63.777	0.056	-0.056
-371.800	-131.515	-0.220	0.029
-370.785	51.256	-0.052	0.049
-369.771	-200.000	-0.028	-0.201
-368.756	277.936	0.114	-0.202
-367.742	800.000	-0.033	-0.141
-366.727	281.266	-0.070	0.124
-365.712	800.000	0.049	-0.143
-364.698	-1.049	-0.147	-0.103
-363.683	17.251	0.110	0.086
-362.669	320.992	-0.117	-0.222
-361.654	-37.737	0.254	0.134
-360.639	54.764	-0.161	0.155
-359.625	-18.919	-0.289	0.179
-358.610	446.992	0.160	0.351
-357.596	-67.623	0.123	0.048
-356.581	-109.081	-0.280	0.059
-355.566	-52.351	0.268	-0.123
-354.552	-24.416	0.167	-0.099
-353.537	800.000	0.031	0.131
-352.523	126.636	-0.064	0.080
-351.508	783.811	-0.059	-0.162
-350.493	243.836	0.213	-0.355
-349.479	671.523	-0.049	-0.127
-348.464	-200.000	0.034	-0.152
-347.450	-62.600	-0.412	-0.170
-346.435	250.399	0.137	0.231
-345.420	-94.154	-0.150	0.041
-344.406	244.947	0.113	-0.189
-343.391	-126.196	0.110	0.016
-342.377	-200.000	-0.028	0.273
-341.362	-200.000	0.047	0.233
-340.348	800.000	0.012	0.052
-339.333	-172.543	0.088	0.003
-338.318	-73.501	-0.141	-0.051
-337.304	-200.000	-0.012	-0.068
-336.289	381.390	0.083	-0.170
-335.275	-200.000	0.047	-0.447
-334.260	-112.619	-0.275	0.054
-333.245	-200.000	0.013	-0.130
-332.231	497.527	-0.027	0.061
-331.216	800.000	-0.068	-0.231
-330.202	-81.919	0.378	0.123
-329.187	-190.973	-0.290	-0.003
-328.172	151.647	-0.168	0.227
-327.158	-30.296	0.145	0.082
-326.143	-29.688	-0.053	0.030
-325.129	-27.383	-0.408	0.236
-324.114	180.630	-0.112	-0.163
-323.099	5.398	-0.248	-0.182
-322.085	-90.936	-0.224	-0.064
-321.070	-49.675	0.351	-0.166
-320.056	-76.578	-0.288	0.100
-319.041	800.000	0.046	-0.156
-318.026	-41.384	-0.140	0.072
-317.012	86.217	0.244	0.267
-315.997	312.358	-0.098	0.183
-314.983	414.634	0.180	-0.379
-313.968	-110.191	-0.288	0.060
-312.953	800.000	-0.070	0.205
-311.939	116.185	-0.234	0.284
-310.924	-46.281	0.330	0.161
-309.910	-200.000	-0.052	-0.229
-308.895	-20.698	-0.182	0.111
-307.880	18.457	0.032	-0.025
-306.866	-102.789	0.144	0.034
-305.851	-196.990	0.129	-0.001
-304.837	-200.000	-0.027	-0.295
-303.822	644.729	-0.077	-0.195
-302.807	800.000	0.047	-0.139
-301.793	8.179	-0.066	0.049
-300.778	159.852	-0.039	0.055
-299.764	21.141	0.150	-0.121
-298.749	-200.000	-0.045	-0.310
-297.735	-35.979	-0.029	-0.016
-296.720	800.000	0.101	0.279
-295.705	614.987	-0.087	-0.216
-294.691	-200.000	-0.030	-0.192
-293.676	-1.209	-0.269	-0.188
-292.662	-12.249	-0.190	0.123
-291.647	381.594	-0.147	0.300
-290.632	113.833	-0.056	-0.067
-289.618	-93.136	-0.323	-0.089
-288.603	-73.639	-0.252	-0.091
-287.589	-13.630	0.118	0.076
-286.574	-53.352	-0.171	0.078
-285.559	-109.344	0.144	0.030
-284.545	57.050	0.154	0.148
-283.530	88.183	0.257	-0.282
-282.516	24.371	0.165	-0.135
-281.501	-71.976	-0.093	0.034
-280.486	41.447	0.197	0.176
-279.472	-12.623	0.085	-0.055
-278.457	-25.047	0.153	0.090
-277.443	-154.532	0.178	0.012
-276.428	59.725	-0.142	0.139
-275.413	245.821	-0.058	0.097
-274.399	168.200	-0.153	-0.215
-273.384	-36.106	-0.345	0.184
-272.370	-162.632	0.401	0.020
-271.355	-200.000	0.006	-0.299
-270.340	-33.760	-0.355	0.194
-269.326	800.000	0.044	-0.154
-268.311	-79.022	-0.376	0.126
-267.297	-200.000	-0.007	0.094
-266.282	-106.049	0.412	-0.092
-265.267	47.628	-0.168	0.156
-264.253	97.744	-0.066	0.075
-263.238	39.148	0.335	-0.297
-262.224	-131.297	0.208	0.027
-261.209	-28.523	0.150	-0.086
-260.195	122.352	0.186	0.231
-259.180	-140.863	-0.079	0.008
-258.165	101.384	0.074	-0.085
-257.151	800.000	0.087	0.272
-256.136	-64.072	0.202	-0.082
-255.122	-200.000	-0.030	-0.288
-254.107	-200.000	-0.009	0.094
-253.092	49.703	-0.092	0.085
-252.078	89.474	0.143	0.158
-251.063	-200.000	0.011	-0.130
-250.049	-70.860	-0.100	-0.037
-249.034	117.611	0.182	-0.221
-248.019	109.037	0.188	0.223
-247.005	-92.250	-0.218	-0.061
-245.990	-24.873	0.195	0.114
-244.976	-84.776	0.261	-0.081
-243.961	800.000	0.082	-0.259
-242.946	-17.245	-0.302	0.189
-241.932	-114.184	0.034	0.006
-240.917	72.963	-0.188	-0.194
-239.903	192.103	0.164	0.244
-238.888	78.504	0.147	-0.156
-237.873	7.821	0.203	0.150
-236.859	410.235	0.169	0.355
-235.844	800.000	0.022	-0.069
-234.830	-37.431	-0.276	-0.146
-233.815	-200.000	0.004	-0.487
-232.800	-103.565	0.424	-0.099
-231.786	-76.604	0.268	-0.093
-230.771	-44.693	0.198	-0.098
-229.757	-38.354	0.176	0.092
-228.742	-49.564	0.117	0.055
-227.727	99.398	0.108	-0.123
-226.713	-133.794	-0.300	0.037
-225.698	-200.000	0.029	0.142
-224.684	22.970	-0.293	-0.237
-223.669	14.933	-0.147	-0.114
-222.655	-176.933	-0.187	0.005
-221.640	-108.686	0.071	-0.015
-220.625	120.416	-0.193	-0.237
-219.611	25.251	-0.046	0.038
-218.596	-200.000	0.018	-0.119
-217.582	532.632	-0.021	0.049
-216.567	251.429	-0.048	-0.080
-215.552	-29.644	-0.208	0.117
-214.538	22.663	0.129	0.104
-213.523	-70.377	-0.292	-0.109
-212.509	687.983	-0.033	-0.084
-211.494	800.000	0.066	-0.220
-210.479	372.105	0.080	0.160
-209.465	29.748	0.064	0.053
-208.450	-95.634	-0.057	-0.015
-207.436	278.945	0.120	0.212
-206.421	313.857	0.059	-0.110
-205.406	-122.769	-0.035	0.006
-204.392	-45.480	0.248	0.122
-203.377	338.520	0.061	0.118
-202.363	4.642	0.152	-0.111
-201.348	-200.000	0.014	0.242
-200.333	-96.800	-0.354	-0.092
-199.319	109.496	-0.189	-0.223
-198.304	68.244	0.214	-0.216
-197.290	-160.331	-0.201	-0.011
-196.275	669.122	0.064	0.164
-195.260	800.000	0.066	0.238
-194.246	-125.311	0.186	0.028
-193.231	-161.896	-0.170	-0.008
-192.217	-127.258	0.206	-0.030
-191.202	217.958	0.120	0.188
-190.187	127.966	0.060	0.075
-189.173	-133.876	0.164	-0.020
-188.158	286.111	0.075	0.133
-187.144	800.000	0.037	0.129
-186.129	800.000	0.071	0.255
-185.114	270.301	0.187	0.325
-184.100	800.000	0.083	-0.309
-183.085	95.268	0.215	-0.241
-182.071	2.890	0.077	0.055
-181.056	800.000	0.133	0.440
-180.042	-107.074	0.196	0.043
-179.027	800.000	-0.087	0.267
-178.012	-97.145	-0.219	0.056
-176.998	111.601	-0.046	0.055
-175.983	2.263	-0.136	-0.097
-174.969	-81.835	0.168	0.054
-173.954	62.825	0.225	0.223
-172.939	-130.824	0.203	0.027
-171.925	-71.367	0.195	0.072
-170.910	800.000	-0.053	0.162
-169.896	-29.420	-0.138	-0.078
-168.881	-77.437	0.239	-0.082
-167.866	-200.000	-0.009	0.153
-166.852	-200.000	0.129	0.000
-165.837	-57.396	-0.345	0.150
-164.823	39.690	0.286	-0.253
-163.808	-34.898	0.299	0.161
-162.793	672.988	0.088	0.225
-161.779	-200.000	0.061	0.315
-160.764	531.594	0.084	-0.196
-159.750	62.781	0.124	-0.122
-158.735	32.627	-0.110	0.094
-157.720	364.763	0.063	0.125
-156.706	-200.000	-0.100	0.552
-155.691	-10.259	0.284	-0.186
-154.677	-200.000	-0.047	-0.254
-153.662	-101.601	0.379	-0.091
-152.647	270.039	-0.069	-0.120
-151.633	-45.751	-0.210	0.103
-150.618	800.000	-0.033	-0.098
-149.604	-4.785	-0.270	-0.183
-148.589	33.022	-0.241	-0.206
-147.574	129.088	-0.154	0.194
-146.560	800.000	0.044	-0.175
-145.545	-200.000	0.009	-0.193
-144.531	-200.000	0.017	-0.218
-143.516	299.815	-0.083	-0.150
-142.502	-200.000	-0.018	0.298
-141.487	118.385	0.241	-0.293
-140.472	49.257	0.200	0.185
-139.458	-67.345	-0.277	0.107
-138.443	157.541	-0.107	0.145
-137.429	87.501	0.198	-0.215
-136.414	-142.140	0.307	-0.030
-135.399	-200.000	-0.012	0.141
-134.385	327.013	0.156	0.295
-133.370	440.116	0.173	0.373
-132.356	658.164	0.112	0.284
-131.341	-131.996	0.109	-0.014
-130.326	-200.000	-0.048	0.211
-129.312	-36.443	0.122	-0.065
-128.297	-200.000	-0.026	-0.132
-127.283	800.000	-0.078	0.221
-126.268	567.012	0.027	0.066
-125.253	-144.293	-0.140	0.013
-124.239	-164.286	0.055	0.002
-123.224	-200.000	0.044	0.252
-122.210	-200.000	0.011	-0.117
-121.195	-164.431	-0.183	0.008
