DTS Sentinel unit serial number:	SN413079Multiplexer serial number:	ORYXHardware model number:	OX4-SRSoftware version number:	ORYX F/W v4.00 Oryx Data Collector v3.7.2.0data status	okinstallation	princeton_trtdifferential loss correction	single-endedforward channel	channel 2reverse channel	N/Adate	2019/09/11time	05:21:11forward acquisition time	60.00reverse acquisition time	0.00gamma	496.2192k internal	0.2329k external	0.2329temperature offset calibration	0.9939default loss term (dB/km)	0.3790temperature slope calibration	1.0000multiplexer offset coefficient	1.0000multiplexer slope coefficient	1.0000fibre end	0.00T internal ref (°C)	29.44T ext. ref 1 (°C)	-0.26T ext. ref 2 (°C)	23.38length (m)	temperature (°C)	Stokes	anti-Stokes-747.200	-125.495	-0.347	0.053
-746.185	-200.000	0.044	0.197
-745.171	-98.632	0.194	-0.050
-744.156	-107.372	0.092	0.020
-743.142	149.238	0.172	-0.234
-742.127	-59.598	0.249	0.108
-741.112	800.000	0.030	0.113
-740.098	132.363	-0.191	0.248
-739.083	-159.299	-0.123	0.007
-738.069	377.110	-0.083	0.170
-737.054	-46.880	0.102	-0.050
-736.039	-81.450	0.213	0.070
-735.025	-14.167	0.338	-0.219
-734.010	-200.000	0.001	-0.377
-732.996	-40.603	-0.290	-0.151
-731.981	-12.606	-0.303	0.199
-730.966	-166.768	-0.239	-0.010
-729.952	154.956	0.130	0.179
-728.937	-200.000	0.000	0.126
-727.923	57.832	-0.209	-0.206
-726.908	733.405	-0.078	-0.211
-725.894	681.069	-0.143	0.375
-724.879	800.000	0.061	-0.235
-723.864	-33.700	-0.195	-0.108
-722.850	49.531	0.163	-0.154
-721.835	800.000	0.036	-0.144
-720.821	20.505	-0.236	-0.192
-719.806	432.433	0.164	-0.358
-718.791	800.000	0.099	-0.295
-717.777	210.876	-0.098	0.155
-716.762	-128.856	0.221	0.031
-715.748	83.218	-0.215	0.236
-714.733	477.181	-0.085	0.194
-713.718	627.325	0.107	0.272
-712.704	-200.000	0.024	-0.150
-711.689	-90.363	-0.087	-0.025
-710.675	87.719	-0.107	-0.120
-709.660	-200.000	0.024	-0.391
-708.645	338.798	0.116	-0.228
-707.631	129.695	-0.145	-0.187
-706.616	-200.000	0.025	-0.140
-705.602	-52.480	-0.066	-0.031
-704.587	-50.530	-0.191	-0.091
-703.572	235.654	-0.186	0.308
-702.558	224.084	0.084	-0.137
-701.543	101.106	-0.120	-0.141
-700.529	-200.000	-0.001	0.113
-699.514	12.531	0.327	-0.253
-698.499	-200.000	-0.055	0.268
-697.485	-20.139	-0.267	-0.165
-696.470	45.853	0.061	0.057
-695.456	-89.251	0.215	-0.064
-694.441	-200.000	-0.025	0.114
-693.426	-126.957	0.090	0.013
-692.412	-7.227	0.216	-0.147
-691.397	-49.094	-0.190	-0.092
-690.383	129.035	-0.126	-0.162
-689.368	-109.720	-0.172	0.036
-688.354	-200.000	0.052	-0.231
-687.339	102.392	-0.289	0.339
-686.324	-200.000	0.025	-0.110
-685.310	800.000	0.072	-0.203
-684.295	65.614	-0.217	-0.221
-683.281	800.000	-0.104	0.342
-682.266	-90.585	0.231	-0.067
-681.251	-43.761	-0.123	0.062
-680.237	-200.000	0.002	-0.133
-679.222	-200.000	-0.008	0.106
-678.208	66.684	-0.206	0.211
-677.193	161.620	0.284	0.400
-676.178	-33.221	-0.215	0.120
-675.164	135.022	-0.086	-0.113
-674.149	238.417	0.211	0.352
-673.135	69.093	-0.296	-0.306
-672.120	522.414	0.134	-0.316
-671.105	-46.457	-0.254	0.125
-670.091	800.000	-0.074	-0.261
-669.076	478.115	0.055	0.125
-668.062	77.380	0.248	0.265
-667.047	186.145	0.080	-0.120
-666.032	153.315	0.230	-0.316
-665.018	-14.733	0.112	0.072
-664.003	-72.125	0.094	-0.035
-662.989	-126.061	0.056	-0.008
-661.974	-200.000	0.061	0.354
-660.959	-102.416	0.170	-0.041
-659.945	-128.793	-0.216	-0.031
-658.930	7.568	0.293	-0.220
-657.916	49.474	-0.213	-0.201
-656.901	6.138	0.152	0.113
-655.886	-41.150	0.562	-0.291
-654.872	-15.695	0.127	-0.081
-653.857	800.000	0.028	0.077
-652.843	-52.628	-0.075	0.035
-651.828	473.032	0.019	-0.043
-650.814	-200.000	-0.016	-0.300
-649.799	-193.894	0.072	-0.001
-648.784	-30.086	0.043	0.025
-647.770	800.000	0.071	-0.284
-646.755	-200.000	0.012	-0.069
-645.741	163.947	-0.030	0.042
-644.726	-118.168	0.303	0.054
-643.711	-200.000	-0.014	-0.151
-642.697	370.773	0.093	-0.189
-641.682	295.578	-0.106	-0.195
-640.668	-78.312	-0.353	-0.121
-639.653	109.630	-0.258	0.310
-638.638	53.680	0.222	0.214
-637.624	-7.588	0.364	-0.247
-636.609	50.369	-0.190	0.180
-635.595	82.903	-0.186	0.203
-634.580	141.344	-0.202	0.269
-633.565	652.924	0.087	-0.223
-632.551	265.111	-0.115	-0.201
-631.536	-131.780	-0.132	0.017
-630.522	-200.000	-0.028	-0.232
-629.507	5.542	-0.205	-0.152
-628.492	800.000	-0.026	0.089
-627.478	-200.000	-0.009	-0.083
-626.463	482.857	0.060	0.136
-625.449	232.350	-0.077	-0.127
-624.434	-69.531	-0.171	-0.066
-623.419	-176.084	0.224	0.006
-622.405	800.000	0.070	0.196
-621.390	-200.000	-0.055	-0.300
-620.376	119.710	0.106	0.131
-619.361	9.101	-0.105	0.080
-618.346	800.000	-0.020	0.058
-617.332	105.320	-0.188	-0.223
-616.317	800.000	-0.067	-0.234
-615.303	-200.000	0.001	-0.462
-614.288	-200.000	-0.022	0.125
-613.273	519.207	-0.108	-0.253
-612.259	800.000	-0.059	-0.246
-611.244	800.000	0.114	0.364
-610.230	-32.052	-0.046	-0.026
-609.215	-157.241	-0.398	0.024
-608.201	222.896	0.150	-0.242
-607.186	-23.457	0.209	0.126
-606.171	92.619	-0.067	0.076
-605.157	-140.288	0.173	-0.018
-604.142	34.847	-0.259	0.227
-603.128	195.543	0.040	-0.060
-602.113	-73.143	-0.154	-0.056
-601.098	50.690	0.048	-0.045
-600.084	1.425	-0.306	0.221
-599.069	3.722	0.025	-0.018
-598.055	-86.667	-0.215	0.066
-597.040	-111.702	0.130	0.026
-596.025	-158.968	-0.169	0.010
-595.011	456.953	-0.110	0.246
-593.996	-200.000	0.030	-0.202
-592.982	256.324	0.159	-0.273
-591.967	-200.000	-0.012	-0.223
-590.952	-69.135	-0.206	0.079
-589.938	-200.000	-0.010	-0.224
-588.923	-200.000	-0.000	0.197
-587.909	-200.000	0.014	-0.072
-586.894	-200.000	-0.010	-0.316
-585.879	-52.363	-0.176	0.082
-584.865	-200.000	-0.022	-0.149
-583.850	800.000	-0.095	-0.290
-582.836	-200.000	-0.022	-0.188
-581.821	-150.313	0.209	0.016
-580.806	-87.780	0.174	-0.052
-579.792	-102.204	0.022	-0.005
-578.777	-99.764	0.032	-0.008
-577.763	-123.066	-0.151	-0.024
-576.748	82.002	0.094	-0.102
-575.733	183.485	-0.110	-0.162
-574.719	-106.719	-0.296	-0.066
-573.704	229.743	-0.185	0.303
-572.690	304.812	-0.035	0.065
-571.675	-133.285	0.218	0.028
-570.661	234.894	-0.209	-0.344
-569.646	29.397	0.079	-0.068
-568.631	800.000	0.043	-0.130
-567.617	800.000	-0.115	0.333
-566.602	-142.436	0.160	-0.016
-565.588	-7.077	-0.448	0.304
-564.573	264.584	-0.043	-0.074
-563.558	-200.000	0.017	-0.263
-562.544	-171.446	0.343	-0.011
-561.529	-108.606	-0.232	-0.050
-560.515	26.265	-0.048	-0.040
-559.500	100.825	-0.127	0.148
-558.485	19.400	0.250	0.201
-557.471	-100.241	-0.113	-0.028
-556.456	-28.588	-0.171	-0.098
-555.442	65.082	0.201	-0.203
-554.427	-43.754	-0.157	0.079
-553.412	-18.656	-0.135	0.084
-552.398	63.158	-0.061	0.061
-551.383	800.000	0.103	0.387
-550.369	48.448	0.246	-0.230
-549.354	-10.118	-0.139	0.092
-548.339	800.000	0.024	0.093
-547.325	452.104	0.083	0.183
-546.310	66.930	0.152	-0.155
-545.296	361.896	-0.200	-0.401
-544.281	-133.895	-0.099	0.012
-543.266	728.130	0.046	0.122
-542.252	-58.386	-0.225	0.098
-541.237	113.162	0.236	0.286
-540.223	-190.955	-0.214	-0.002
-539.208	150.023	-0.240	0.326
-538.193	215.693	-0.128	-0.203
-537.179	81.462	-0.180	0.194
-536.164	-127.413	-0.289	0.042
-535.150	-200.000	0.029	-0.185
-534.135	-200.000	-0.025	-0.196
-533.121	30.050	0.017	0.014
-532.106	-200.000	-0.031	-0.232
-531.091	-21.370	-0.034	-0.021
-530.077	239.531	0.068	0.113
-529.062	-16.363	0.375	0.238
-528.048	800.000	-0.006	0.020
-527.033	-84.969	0.307	-0.096
-526.018	-108.113	-0.136	-0.029
-525.004	366.375	0.031	0.062
-523.989	-200.000	0.043	0.195
-522.975	-3.915	0.320	0.222
-521.960	800.000	0.002	0.008
-520.945	-41.958	0.207	-0.106
-519.931	-108.181	-0.166	-0.036
-518.916	53.756	-0.213	-0.204
-517.902	94.200	-0.138	0.156
-516.887	262.491	0.111	0.193
-515.872	800.000	-0.078	0.238
-514.858	-4.841	-0.234	-0.161
-513.843	28.962	0.212	-0.179
-512.829	378.203	0.262	-0.534
-511.814	-73.648	0.285	0.104
-510.799	-167.360	0.101	-0.004
-509.785	-52.372	-0.233	0.108
-508.770	-126.618	0.234	-0.035
-507.756	165.008	0.104	-0.147
-506.741	800.000	-0.080	-0.245
-505.726	-200.000	-0.006	0.158
-504.712	-200.000	-0.027	-0.317
-503.697	119.272	-0.056	-0.069
-502.683	-200.000	-0.073	0.414
-501.668	168.307	0.078	-0.111
-500.653	-48.853	-0.144	0.069
-499.639	-174.798	-0.084	0.002
-498.624	178.972	0.123	0.180
-497.610	64.622	-0.222	-0.224
-496.595	85.564	0.112	0.123
-495.581	-200.000	-0.020	-0.113
-494.566	-86.448	0.190	-0.058
-493.551	77.202	0.124	0.131
-492.537	59.571	0.194	0.191
-491.522	-58.475	-0.200	0.087
-490.508	75.036	0.183	-0.193
-489.493	-46.186	-0.235	-0.115
-488.478	-162.480	-0.073	-0.004
-487.464	68.270	-0.192	0.196
-486.449	-198.216	0.337	-0.002
-485.435	-200.000	-0.054	-0.313
-484.420	81.270	-0.142	-0.153
-483.405	-95.384	0.190	0.051
-482.391	-200.000	0.004	-0.416
-481.376	63.290	0.187	0.187
-480.362	-84.174	0.046	-0.014
-479.347	7.862	-0.077	0.058
-478.332	-69.275	0.230	0.088
-477.318	-80.920	-0.215	0.071
-476.303	-200.000	0.002	0.040
-475.289	10.486	-0.220	0.167
-474.274	343.595	0.078	-0.153
-473.259	-79.592	-0.164	-0.055
-472.245	-105.878	-0.277	0.062
-471.230	-200.000	0.003	-0.320
-470.216	519.437	-0.077	-0.180
-469.201	-69.818	0.319	-0.121
-468.186	-121.258	-0.294	0.049
-467.172	35.366	0.272	-0.237
-466.157	800.000	-0.093	0.346
-465.143	800.000	-0.009	-0.036
-464.128	52.451	-0.212	-0.202
-463.113	167.583	0.076	-0.107
-462.099	800.000	0.049	0.169
-461.084	45.981	0.039	0.036
-460.070	-200.000	0.007	0.311
-459.055	299.646	-0.168	-0.308
-458.040	800.000	0.048	0.160
-457.026	-200.000	-0.267	-0.001
-456.011	-83.682	0.438	-0.139
-454.997	-200.000	0.010	-0.077
-453.982	-200.000	-0.015	0.182
-452.968	183.297	-0.072	0.106
-451.953	800.000	0.085	-0.328
-450.938	-114.612	-0.313	0.060
-449.924	-200.000	-0.001	0.151
-448.909	800.000	0.155	-0.437
-447.895	-40.633	0.137	-0.071
-446.880	41.360	-0.290	0.261
-445.865	284.907	-0.113	0.203
-444.851	19.568	0.160	-0.128
-443.836	-97.101	-0.261	0.068
-442.822	271.030	0.182	-0.319
-441.807	202.667	-0.060	-0.092
-440.792	-23.074	-0.145	0.087
-439.778	473.857	0.093	-0.209
-438.763	-61.063	0.265	-0.111
-437.749	-155.361	-0.242	-0.016
-436.734	568.335	-0.075	0.182
-435.719	262.765	-0.093	0.160
-434.705	-6.558	0.121	0.082
-433.690	800.000	0.091	-0.295
-432.676	-83.132	0.269	0.086
-431.661	-121.264	0.368	-0.061
-430.646	80.576	0.071	0.076
-429.632	-200.000	0.013	-0.524
-428.617	168.789	-0.315	-0.446
-427.603	-99.419	-0.044	0.011
-426.588	273.137	-0.074	0.131
-425.573	607.977	0.003	0.007
-424.559	166.353	0.093	0.130
-423.544	-26.987	-0.050	0.029
-422.530	7.674	-0.200	-0.149
-421.515	308.760	0.110	0.205
-420.500	-200.000	0.018	0.526
-419.486	800.000	-0.027	0.112
-418.471	286.745	0.117	0.210
-417.457	-200.000	0.010	-0.244
-416.442	-200.000	0.112	0.498
-415.428	-200.000	0.022	0.123
-414.413	-9.109	-0.184	-0.122
-413.398	800.000	-0.098	0.332
-412.384	-70.845	0.199	0.075
-411.369	15.809	0.464	0.363
-410.355	-122.526	0.228	0.037
-409.340	61.539	-0.152	-0.150
-408.325	-15.000	-0.216	0.137
-407.311	-200.000	-0.006	-0.214
-406.296	-200.000	0.026	-0.179
-405.282	337.568	0.072	-0.139
-404.267	586.041	-0.068	-0.167
-403.252	-168.734	-0.181	0.007
-402.238	-185.502	0.157	-0.002
-401.223	-200.000	-0.052	-0.447
-400.209	-200.000	-0.045	0.359
-399.194	-80.023	0.070	-0.023
-398.179	-142.947	0.211	0.020
-397.165	509.280	-0.092	-0.212
-396.150	360.050	0.055	-0.110
-395.136	98.158	-0.231	0.264
-394.121	126.660	0.207	0.260
-393.106	188.769	-0.225	-0.335
-392.092	80.238	-0.161	-0.172
-391.077	800.000	-0.076	-0.277
-390.063	-200.000	-0.001	-0.200
-389.048	-80.825	-0.278	0.092
-388.033	62.800	0.154	-0.153
-387.019	-106.388	0.250	-0.056
-386.004	78.470	-0.215	-0.229
-384.990	-200.000	-0.013	-0.144
-383.975	-94.646	0.284	0.077
-382.960	-117.222	0.136	0.025
-381.946	179.286	0.079	0.115
-380.931	509.782	0.011	0.027
-379.917	-200.000	-0.027	-0.174
-378.902	627.153	0.169	-0.423
-377.888	-200.000	-0.065	0.359
-376.873	-102.543	-0.169	-0.040
-375.858	398.664	0.109	0.227
-374.844	387.730	0.011	0.022
-373.829	534.826	-0.184	-0.432
-372.815	-200.000	0.001	0.345
-371.800	585.251	-0.042	-0.103
-370.785	-27.439	-0.134	0.077
-369.771	236.363	0.050	0.082
-368.756	800.000	0.049	-0.137
-367.742	-200.000	0.021	0.118
-366.727	77.391	-0.099	0.105
-365.712	-200.000	-0.003	0.246
-364.698	-40.981	0.332	-0.170
-363.683	-111.352	-0.089	0.018
-362.669	800.000	0.059	-0.237
-361.654	-200.000	0.063	-0.332
-360.639	-66.431	0.327	0.129
-359.625	-103.338	-0.118	-0.028
-358.610	-38.408	-0.279	-0.146
-357.596	-200.000	-0.006	0.043
-356.581	800.000	-0.023	-0.071
-355.566	528.837	-0.058	-0.136
-354.552	552.939	-0.201	-0.479
-353.537	-83.101	0.270	0.086
-352.523	-156.311	-0.268	-0.017
-351.508	-0.911	0.097	0.068
-350.493	189.453	-0.078	0.116
-349.479	-200.000	0.058	0.272
-348.464	79.383	-0.103	0.110
-347.450	-200.000	-0.000	-0.040
-346.435	-116.331	0.353	-0.065
-345.420	140.808	-0.089	0.116
-344.406	-6.843	0.070	0.047
-343.391	317.062	-0.148	-0.277
-342.377	-200.000	0.026	0.140
-341.362	-173.380	-0.113	0.003
-340.348	-22.495	0.203	0.122
-339.333	161.224	0.197	0.272
-338.318	-162.639	0.340	0.017
-337.304	-44.146	-0.277	0.138
-336.289	-6.375	-0.170	0.115
-335.275	-16.552	0.174	-0.109
-334.260	-78.513	-0.323	0.110
-333.245	-85.318	0.145	-0.045
-332.231	-2.026	0.213	0.149
-331.216	-200.000	-0.052	0.293
-330.202	-78.104	0.153	0.052
-329.187	64.538	0.102	0.102
-328.172	-91.578	-0.301	-0.085
-327.158	41.028	0.100	0.089
-326.143	30.708	0.180	-0.153
-325.129	-200.000	-0.001	-0.108
-324.114	-200.000	0.102	-0.472
-323.099	-131.132	0.340	0.045
-322.085	124.915	0.162	0.203
-321.070	800.000	-0.015	0.061
-320.056	-79.708	-0.198	0.066
-319.041	800.000	-0.079	0.219
-318.026	-1.455	-0.339	-0.237
-317.012	-200.000	0.016	-0.091
-315.997	503.264	0.065	0.150
-314.983	-200.000	0.021	0.115
-313.968	214.380	0.128	-0.201
-312.953	-149.666	0.234	0.018
-311.939	-200.000	0.036	0.195
-310.924	155.331	-0.161	0.219
-309.910	-43.652	0.189	0.094
-308.895	333.852	0.129	-0.247
-307.880	-144.370	0.101	0.009
-306.866	633.548	-0.133	0.333
-305.851	-172.580	-0.196	-0.006
-304.837	-84.808	0.076	0.024
-303.822	-110.665	0.376	-0.077
-302.807	361.054	-0.159	0.315
-301.793	800.000	-0.044	-0.146
-300.778	-145.014	-0.331	-0.030
-299.764	-187.165	0.178	-0.002
-298.749	800.000	0.009	-0.032
-297.735	-132.065	0.120	-0.015
-296.720	800.000	-0.055	0.182
-295.705	-52.962	0.246	0.112
-294.691	-11.910	-0.218	-0.142
-293.676	-61.388	0.126	0.052
-292.662	800.000	0.059	0.176
-291.647	66.220	-0.071	0.071
-290.632	-105.201	-0.257	-0.058
-289.618	100.196	0.119	-0.137
-288.603	800.000	-0.035	-0.144
-287.589	-200.000	-0.023	-0.147
-286.574	90.934	0.144	0.160
-285.559	137.817	0.097	0.126
-284.545	620.026	-0.105	0.261
-283.530	-116.973	-0.203	0.037
-282.516	133.208	0.120	-0.153
-281.501	134.713	0.165	-0.212
-280.486	-16.654	-0.050	0.031
-279.472	-24.792	-0.107	-0.063
-278.457	-137.765	-0.344	0.038
-277.443	101.116	-0.059	-0.068
-276.428	800.000	0.041	0.155
-275.413	-140.929	-0.013	-0.001
-274.399	-26.307	-0.167	0.097
-273.384	432.084	0.064	-0.138
-272.370	22.193	0.210	0.170
-271.355	-121.543	0.120	-0.020
-270.340	-52.692	0.123	-0.056
-269.326	-24.947	0.068	0.040
-268.311	-59.752	0.077	-0.033
-267.297	-173.203	-0.183	-0.006
-266.282	42.067	0.183	0.164
-265.267	-144.455	0.125	-0.011
-264.253	-200.000	-0.015	-0.301
-263.238	-200.000	0.003	-0.073
-262.224	-43.394	0.262	-0.131
-261.209	-6.286	-0.028	-0.019
-260.195	35.068	-0.343	0.297
-259.180	261.305	0.099	0.170
-258.165	-200.000	0.023	0.124
-257.151	35.494	0.220	0.191
-256.136	500.622	-0.008	0.017
-255.122	-13.649	-0.053	0.034
-254.107	-91.590	0.330	0.093
-253.092	417.204	-0.043	-0.092
-252.078	-200.000	0.017	-0.149
-251.063	400.734	-0.082	-0.169
-250.049	137.812	0.097	-0.125
-249.034	800.000	-0.079	-0.276
-248.019	-200.000	-0.017	0.255
-247.005	244.382	-0.134	0.222
-245.990	-98.968	-0.262	0.066
-244.976	267.782	-0.174	-0.300
-243.961	190.736	-0.057	-0.085
-242.946	533.570	-0.147	-0.344
-241.932	71.902	0.116	0.119
-240.917	80.798	-0.097	0.103
-239.903	150.463	0.058	0.077
-238.888	800.000	0.076	0.234
-237.873	-124.925	-0.243	0.037
-236.859	-90.312	0.268	0.077
-235.844	-5.280	0.164	0.111
-234.830	800.000	-0.094	0.376
-233.815	669.034	0.055	-0.141
-232.800	-16.819	-0.049	-0.031
-231.786	-39.584	0.323	-0.167
-230.771	-188.308	-0.366	0.005
-229.757	203.644	0.163	0.249
-228.742	-111.359	0.229	0.046
-227.727	800.000	0.050	0.151
-226.713	241.004	0.164	0.270
-225.698	-107.509	0.121	0.026
-224.684	800.000	0.050	-0.149
-223.669	170.191	0.181	0.256
-222.655	590.519	-0.046	0.113
-221.640	27.613	0.278	0.231
-220.625	-21.145	-0.020	-0.012
-219.611	216.817	0.141	0.222
-218.596	-108.000	-0.341	0.073
-217.582	501.857	0.087	-0.198
-216.567	749.895	0.194	0.516
-215.552	329.956	-0.076	0.143
-214.538	800.000	-0.063	0.221
-213.523	-200.000	0.019	0.180
-212.509	18.576	-0.072	0.057
-211.494	-143.539	0.510	0.048
-210.479	-200.000	-0.033	0.328
-209.465	90.202	-0.178	-0.197
-208.450	800.000	0.069	0.232
-207.436	46.359	0.232	0.212
-206.421	-75.565	0.085	0.030
-205.406	800.000	-0.123	-0.369
-204.392	-160.422	-0.165	0.009
-203.377	39.289	0.115	0.101
-202.363	-2.977	0.194	-0.134
-201.348	-85.178	0.138	-0.042
-200.333	328.395	-0.116	0.220
-199.319	-111.945	-0.054	-0.011
-198.304	-200.000	-0.003	-0.217
-197.290	800.000	0.079	-0.295
-196.275	-200.000	0.017	0.172
-195.260	125.362	-0.115	-0.143
-194.246	488.539	0.228	0.514
-193.231	800.000	0.029	-0.097
-192.217	-149.727	-0.278	-0.022
-191.202	-136.603	0.229	-0.026
-190.187	130.450	0.210	0.265
-189.173	-100.741	-0.112	0.027
-188.158	-5.029	-0.106	0.072
-187.144	-144.627	0.219	0.020
-186.129	-200.000	-0.033	0.152
-185.114	-74.559	-0.105	-0.037
-184.100	-53.436	-0.319	0.144
-183.085	274.945	0.115	-0.201
-182.071	10.957	-0.190	-0.143
-181.056	631.941	0.036	-0.090
-180.042	205.125	0.143	-0.219
-179.027	-131.079	0.279	-0.037
-178.012	-200.000	0.040	-0.228
-176.998	800.000	-0.052	-0.145
-175.983	-65.799	0.159	-0.063
-174.969	800.000	-0.030	0.101
-173.954	-200.000	0.004	-0.141
-172.939	-200.000	0.043	0.191
-171.925	-200.000	-0.029	-0.222
-170.910	-152.068	-0.226	-0.016
-169.896	86.967	-0.128	-0.139
-168.881	-68.061	-0.171	0.066
-167.866	-146.759	0.226	0.019
-166.852	-200.000	-0.080	0.376
-165.837	507.092	0.022	0.050
-164.823	-118.863	-0.281	0.049
-163.808	-17.032	0.068	0.043
-162.793	-34.404	-0.138	-0.074
-161.779	-116.944	-0.131	-0.024
-160.764	-74.318	-0.099	0.035
-159.750	-109.682	0.297	-0.062
-158.735	34.303	0.282	-0.242
-157.720	-86.736	-0.206	0.062
-156.706	371.691	-0.113	0.225
-155.691	-177.965	0.340	0.008
-154.677	-60.021	-0.206	0.087
-153.662	-181.071	-0.197	-0.004
-152.647	-53.383	-0.292	-0.132
-151.633	517.323	0.057	0.132
-150.618	80.449	0.195	-0.206
-149.604	108.015	-0.101	-0.118
-148.589	-5.903	0.080	-0.054
-147.574	573.262	-0.013	-0.032
-146.560	-200.000	-0.028	-0.175
-145.545	-200.000	-0.030	0.273
-144.531	800.000	-0.059	0.201
-143.516	-119.445	0.058	-0.010
-142.502	-47.753	0.234	0.111
-141.487	-23.837	0.079	-0.047
-140.472	-78.166	0.323	0.109
-139.458	389.752	-0.033	0.068
-138.443	-145.735	0.068	-0.006
-137.429	-30.118	0.173	0.097
-136.414	397.747	-0.100	-0.207
-135.399	122.031	-0.051	-0.063
-134.385	-47.645	0.403	-0.192
-133.370	-70.731	0.184	-0.068
-132.356	383.705	0.058	0.118
-131.341	-1.003	0.246	0.171
-130.326	84.702	0.140	0.150
-129.312	146.440	-0.140	0.185
-128.297	-200.000	0.014	0.069
-127.283	729.772	-0.050	-0.132
-126.268	-72.688	0.310	-0.112
-125.253	219.021	0.126	-0.199
-124.239	-146.515	-0.137	0.012
-123.224	310.021	0.100	-0.185
-122.210	800.000	0.086	0.358
-121.195	-200.000	-0.039	0.314
