DTS Sentinel unit serial number:	SN413079Multiplexer serial number:	ORYXHardware model number:	OX4-SRSoftware version number:	ORYX F/W v4.00 Oryx Data Collector v3.7.2.0data status	okinstallation	princeton_trtdifferential loss correction	single-endedforward channel	channel 2reverse channel	N/Adate	2019/09/11time	13:09:11forward acquisition time	60.00reverse acquisition time	0.00gamma	496.2192k internal	0.2292k external	0.2292temperature offset calibration	0.9999default loss term (dB/km)	0.3790temperature slope calibration	1.0000multiplexer offset coefficient	1.0000multiplexer slope coefficient	1.0000fibre end	0.00T internal ref (°C)	41.83T ext. ref 1 (°C)	0.73T ext. ref 2 (°C)	39.17length (m)	temperature (°C)	Stokes	anti-Stokes-747.200	18.681	-0.043	0.035
-746.185	274.816	0.058	-0.105
-745.171	-200.000	0.064	0.347
-744.156	-50.098	0.032	0.015
-743.142	800.000	-0.102	0.381
-742.127	-94.146	0.318	0.089
-741.112	-59.331	0.279	0.123
-740.098	-22.539	0.253	0.156
-739.083	-198.421	0.260	0.002
-738.069	396.971	0.070	0.150
-737.054	-1.864	0.150	0.108
-736.039	315.907	-0.067	-0.129
-735.025	444.889	0.093	0.209
-734.010	-85.154	0.052	0.017
-732.996	-200.000	-0.018	-0.475
-731.981	2.349	0.061	-0.045
-730.966	-55.453	0.162	0.074
-729.952	-101.066	-0.060	0.015
-728.937	17.807	-0.333	-0.271
-727.923	101.961	-0.295	-0.352
-726.908	-161.668	-0.130	-0.007
-725.894	-44.583	-0.240	0.123
-724.879	58.641	-0.077	-0.078
-723.864	19.243	0.189	0.155
-722.850	91.913	-0.355	-0.409
-721.835	133.492	-0.063	-0.083
-720.821	196.353	-0.087	0.136
-719.806	180.848	0.161	-0.242
-718.791	37.640	-0.276	0.251
-717.777	-84.014	-0.351	0.114
-716.762	-138.163	-0.312	-0.035
-715.748	-63.211	-0.242	-0.102
-714.733	106.505	-0.131	0.158
-713.718	-103.289	0.585	-0.141
-712.704	-145.041	-0.033	-0.003
-711.689	-200.000	-0.009	-0.086
-710.675	-132.158	0.254	-0.034
-709.660	87.730	0.211	-0.239
-708.645	711.982	0.064	0.174
-707.631	55.502	0.018	-0.018
-706.616	283.445	0.146	0.268
-705.602	40.899	-0.278	-0.256
-704.587	-200.000	-0.196	0.001
-703.572	179.972	0.029	0.043
-702.558	-88.176	-0.325	0.099
-701.543	103.127	0.048	0.058
-700.529	-48.383	0.066	0.032
-699.514	-114.645	0.266	-0.052
-698.499	-200.000	-0.006	0.083
-697.485	163.338	0.174	0.250
-696.470	-20.472	-0.160	-0.100
-695.456	44.846	-0.146	-0.137
-694.441	-22.735	-0.129	0.080
-693.426	-4.847	0.169	-0.119
-692.412	5.506	0.339	-0.256
-691.397	-49.482	-0.170	-0.083
-690.383	-98.847	-0.267	-0.069
-689.368	-16.100	-0.209	0.136
-688.354	200.465	-0.096	0.151
-687.339	-190.087	-0.086	0.001
-686.324	-98.874	-0.194	0.050
-685.310	187.771	0.164	0.250
-684.295	372.325	-0.150	-0.311
-683.281	-200.000	-0.020	-0.123
-682.266	-200.000	0.015	-0.103
-681.251	569.994	-0.100	-0.248
-680.237	-67.120	0.372	0.150
-679.222	-167.984	-0.236	0.009
-678.208	-161.910	0.098	0.005
-677.193	-125.276	-0.192	-0.030
-676.178	156.952	-0.074	-0.105
-675.164	-200.000	-0.009	0.293
-674.149	80.937	0.319	-0.351
-673.135	7.738	-0.113	0.086
-672.120	-137.498	-0.130	0.015
-671.105	-53.443	-0.197	0.092
-670.091	-162.529	0.093	-0.005
-669.076	40.919	-0.165	0.152
-668.062	-23.654	-0.216	0.132
-667.047	-67.176	-0.132	0.053
-666.032	143.542	-0.120	0.163
-665.018	-200.000	0.012	-0.090
-664.003	-11.836	0.129	0.087
-662.989	-52.869	-0.345	0.162
-661.974	-90.308	0.056	-0.017
-660.959	61.936	0.187	0.190
-659.945	-200.000	0.058	-0.327
-658.930	-200.000	0.032	-0.435
-657.916	-200.000	0.041	-0.398
-656.901	-173.362	0.342	-0.011
-655.886	423.244	0.027	0.060
-654.872	800.000	-0.024	-0.101
-653.857	-200.000	-0.019	0.198
-652.843	-187.617	-0.411	-0.006
-651.828	-33.215	0.048	0.027
-650.814	65.782	0.417	-0.431
-649.799	-190.079	-0.304	0.003
-648.784	-200.000	0.024	-0.227
-647.770	-91.029	-0.212	-0.062
-646.755	-91.536	-0.215	-0.062
-645.741	-138.785	0.189	0.021
-644.726	-158.856	-0.308	0.018
-643.711	-107.101	0.291	0.065
-642.697	-200.000	-0.007	0.197
-641.682	3.535	0.072	0.053
-640.668	-64.167	-0.187	-0.078
-639.653	-107.002	0.220	0.050
-638.638	-44.361	-0.262	0.134
-637.624	-200.000	0.015	-0.379
-636.609	-133.072	0.202	0.026
-635.595	1.074	-0.312	0.228
-634.580	800.000	-0.106	0.436
-633.565	23.149	-0.138	-0.115
-632.551	-45.360	-0.183	-0.092
-631.536	449.723	-0.063	-0.141
-630.522	-14.142	-0.091	-0.060
-629.507	-30.947	0.129	-0.074
-628.492	523.679	0.042	-0.101
-627.478	-76.217	-0.113	0.041
-626.463	72.403	-0.243	-0.258
-625.449	-31.414	0.253	0.145
-624.434	-200.000	-0.008	-0.174
-623.419	800.000	0.045	-0.136
-622.405	800.000	0.034	0.126
-621.390	65.983	0.107	0.110
-620.376	302.504	0.022	0.041
-619.361	-92.045	-0.340	-0.098
-618.346	-115.073	0.216	0.042
-617.332	0.575	-0.248	0.181
-616.317	104.740	-0.059	0.071
-615.303	-156.107	-0.252	0.016
-614.288	0.113	0.039	-0.028
-613.273	24.252	-0.146	-0.123
-612.259	104.583	0.051	0.062
-611.244	-33.745	0.114	0.064
-610.230	128.239	-0.103	0.133
-609.215	-114.186	-0.053	-0.010
-608.201	382.429	0.093	0.196
-607.186	584.988	0.092	-0.230
-606.171	20.119	0.070	-0.057
-605.157	-122.374	0.343	0.057
-604.142	281.222	0.064	0.117
-603.128	-80.395	0.264	-0.090
-602.113	-200.000	0.029	0.235
-601.098	659.266	-0.117	0.307
-600.084	-155.678	-0.115	-0.007
-599.069	800.000	0.039	0.131
-598.055	-200.000	0.014	0.374
-597.040	5.508	-0.132	0.099
-596.025	-105.016	-0.622	-0.145
-595.011	101.282	-0.196	-0.232
-593.996	81.387	-0.159	-0.175
-592.982	6.449	0.361	-0.273
-591.967	-104.180	-0.168	-0.040
-590.952	42.969	-0.136	0.126
-589.938	800.000	-0.053	0.152
-588.923	800.000	0.099	0.309
-587.909	-200.000	0.029	0.240
-586.894	-23.184	0.139	0.085
-585.879	-109.299	-0.128	0.028
-584.865	-103.367	0.240	-0.058
-583.850	800.000	0.095	-0.359
-582.836	-200.000	0.005	-0.057
-581.821	-200.000	-0.015	0.255
-580.806	-86.728	0.152	-0.047
-579.792	72.046	0.221	0.234
-578.777	-60.586	0.224	0.097
-577.763	-8.182	0.303	-0.208
-576.748	-19.696	-0.138	0.087
-575.733	-60.621	-0.123	-0.053
-574.719	44.865	0.164	0.154
-573.704	-106.911	0.130	0.029
-572.690	-28.352	0.304	0.178
-571.675	281.284	-0.036	0.066
-570.661	-200.000	0.031	-0.175
-569.646	476.346	0.043	0.098
-568.631	-12.494	0.180	0.119
-567.617	415.639	0.176	0.382
-566.602	-39.175	0.246	0.132
-565.588	-200.000	-0.001	-0.217
-564.573	681.120	0.058	-0.153
-563.558	-22.286	0.347	-0.214
-562.544	337.651	0.094	-0.186
-561.529	-74.695	-0.140	0.051
-560.515	-200.000	0.003	0.041
-559.500	-200.000	-0.001	0.207
-558.485	-200.000	0.012	-0.084
-557.471	-40.660	0.034	-0.018
-556.456	-200.000	0.056	0.289
-555.442	456.113	0.074	0.166
-554.427	800.000	0.045	-0.163
-553.412	242.952	0.179	-0.305
-552.398	133.897	-0.030	0.040
-551.383	323.662	0.081	-0.157
-550.369	365.557	0.098	-0.201
-549.354	112.940	0.097	0.119
-548.339	800.000	-0.036	0.103
-547.325	-25.570	-0.316	0.189
-546.310	-64.436	-0.133	0.055
-545.296	-85.975	-0.289	-0.091
-544.281	-87.219	0.156	0.048
-543.266	13.502	0.019	-0.015
-542.252	-101.614	-0.166	0.041
-541.237	659.043	-0.065	-0.170
-540.223	99.852	0.266	-0.313
-539.208	-81.667	0.231	-0.077
-538.193	-197.969	0.189	-0.001
-537.179	130.955	0.015	0.019
-536.164	800.000	-0.035	0.149
-535.150	-160.868	-0.287	0.015
-534.135	800.000	0.113	0.399
-533.121	-200.000	-0.029	0.246
-532.106	-130.742	0.221	0.030
-531.091	800.000	0.096	-0.388
-530.077	62.743	0.107	0.109
-529.062	-99.510	0.083	0.021
-528.048	-104.629	-0.082	0.019
-527.033	-5.138	0.168	-0.117
-526.018	215.382	0.073	-0.117
-525.004	-56.572	-0.105	-0.047
-523.989	-12.990	0.166	0.109
-522.975	436.578	0.083	-0.183
-521.960	36.338	-0.190	-0.170
-520.945	-81.268	0.308	0.103
-519.931	-37.860	0.141	0.076
-518.916	-200.000	0.031	0.487
-517.902	-200.000	0.000	0.102
-516.887	-50.496	-0.116	-0.055
-515.872	234.745	0.084	-0.141
-514.858	-41.089	-0.212	0.111
-513.843	-6.133	-0.096	0.066
-512.829	-200.000	-0.042	-0.426
-511.814	-200.000	0.005	-0.261
-510.799	6.556	0.101	0.076
-509.785	473.954	0.022	0.050
-508.770	-200.000	-0.026	-0.151
-507.756	-200.000	-0.035	-0.304
-506.741	-152.311	-0.307	0.022
-505.726	282.372	0.065	-0.118
-504.712	-200.000	0.011	0.228
-503.697	-43.123	-0.535	-0.275
-502.683	800.000	0.095	-0.365
-501.668	254.456	-0.034	0.059
-500.653	-200.000	0.425	0.000
-499.639	-77.975	-0.472	-0.165
-498.624	-130.508	0.085	0.012
-497.610	32.501	-0.105	0.092
-496.595	-136.626	-0.208	0.024
-495.581	-81.448	-0.100	-0.033
-494.566	-200.000	-0.012	-0.363
-493.551	-200.000	0.018	-0.124
-492.537	-200.000	-0.087	0.493
-491.522	330.862	0.107	-0.209
-490.508	-105.726	0.143	-0.033
-489.493	-153.028	-0.059	0.004
-488.478	200.902	0.211	-0.329
-487.464	800.000	0.068	0.203
-486.449	23.915	-0.138	0.116
-485.435	179.567	0.075	0.112
-484.420	800.000	0.051	-0.214
-483.405	520.816	-0.056	0.133
-482.391	-2.032	-0.147	0.105
-481.376	-170.751	0.041	-0.001
-480.362	-200.000	0.049	-0.372
-479.347	-200.000	-0.018	0.105
-478.332	-200.000	-0.015	0.221
-477.318	-96.282	0.146	-0.039
-476.303	-200.000	-0.008	0.050
-475.289	800.000	-0.024	0.087
-474.274	-159.024	0.289	0.017
-473.259	-200.000	0.007	-0.232
-472.245	-56.472	0.041	-0.018
-471.230	-104.197	-0.132	-0.031
-470.216	650.544	0.024	-0.063
-469.201	82.690	-0.235	-0.258
-468.186	216.514	0.074	-0.119
-467.172	-175.613	-0.191	0.005
-466.157	-200.000	0.033	0.236
-465.143	358.692	0.075	0.152
-464.128	-200.000	-0.086	-0.397
-463.113	-114.899	-0.012	-0.002
-462.099	-31.553	0.153	0.087
-461.084	104.615	0.168	0.200
-460.070	-43.756	-0.261	-0.133
-459.055	95.400	-0.109	-0.126
-458.040	179.147	0.075	0.111
-457.026	65.653	-0.120	-0.123
-456.011	399.194	-0.078	-0.165
-454.997	-200.000	-0.001	0.029
-453.982	-200.000	-0.027	0.188
-452.968	29.287	-0.134	0.115
-451.953	315.312	0.114	0.217
-450.938	-200.000	-0.005	-0.041
-449.924	-200.000	-0.046	-0.231
-448.909	-140.487	-0.270	0.028
-447.895	736.456	-0.039	0.106
-446.880	-59.322	-0.295	-0.128
-445.865	-40.266	0.144	-0.076
-444.851	179.744	-0.125	0.186
-443.836	153.918	0.299	-0.415
-442.822	-200.000	0.059	-0.334
-441.807	97.227	-0.182	-0.211
-440.792	-69.944	0.170	-0.066
-439.778	-43.245	0.157	-0.080
-438.763	-82.979	-0.106	0.035
-437.749	-200.000	-0.005	-0.096
-436.734	29.334	-0.022	-0.019
-435.719	17.140	-0.080	0.064
-434.705	223.125	0.056	0.091
-433.690	-200.000	-0.005	-0.325
-432.676	-143.981	0.314	0.030
-431.661	23.011	0.135	-0.112
-430.646	800.000	-0.023	-0.085
-429.632	48.964	0.204	0.194
-428.617	-73.594	-0.209	-0.077
-427.603	730.390	-0.127	0.342
-426.588	98.375	-0.182	-0.212
-425.573	-2.855	-0.289	0.204
-424.559	-58.412	0.244	-0.107
-423.544	220.002	0.107	-0.173
-422.530	460.503	0.112	-0.252
-421.515	53.244	0.163	0.158
-420.500	-146.169	-0.195	-0.017
-419.486	-82.782	-0.137	0.045
-418.471	42.398	-0.209	0.192
-417.457	800.000	-0.021	0.063
-416.442	102.914	0.281	-0.333
-415.428	-136.328	-0.326	-0.038
-414.413	165.668	0.203	-0.290
-413.398	368.920	0.126	-0.257
-412.384	-200.000	-0.065	-0.324
-411.369	-99.936	-0.050	0.013
-410.355	-126.243	0.175	0.026
-409.340	205.038	0.160	0.250
-408.325	237.765	0.126	-0.211
-407.311	-85.127	-0.164	-0.052
-406.296	-59.865	0.620	0.268
-405.282	800.000	-0.070	0.271
-404.267	44.410	0.113	0.105
-403.252	800.000	-0.110	0.341
-402.238	418.559	-0.114	0.246
-401.223	-160.471	-0.163	0.009
-400.209	504.140	0.072	-0.169
-399.194	-123.293	-0.204	-0.033
-398.179	84.837	-0.062	-0.068
-397.165	-14.329	-0.024	0.015
-396.150	-200.000	-0.003	0.108
-395.136	-134.654	-0.172	-0.021
-394.121	-33.343	-0.285	-0.159
-393.106	-32.377	-0.172	0.097
-392.092	84.787	-0.379	-0.420
-391.077	-101.334	0.239	-0.059
-390.063	72.355	0.173	-0.182
-389.048	731.730	-0.079	0.213
-388.033	107.336	0.110	0.132
-387.019	159.156	0.094	0.132
-386.004	800.000	-0.059	0.194
-384.990	-130.071	-0.243	-0.033
-383.975	11.681	0.068	-0.052
-382.960	-200.000	-0.006	0.211
-381.946	160.013	0.231	-0.324
-380.931	-23.353	-0.070	0.042
-379.917	178.474	0.098	-0.144
-378.902	800.000	-0.103	0.302
-377.888	-50.434	0.143	0.068
-376.873	171.809	-0.083	0.120
-375.858	266.130	-0.135	0.237
-374.844	-200.000	-0.003	0.240
-373.829	-74.931	0.292	-0.106
-372.815	144.724	-0.041	-0.055
-371.800	151.191	-0.133	0.182
-370.785	11.809	-0.208	-0.161
-369.771	-200.000	0.003	0.255
-368.756	-49.138	-0.244	-0.118
-367.742	304.638	0.052	-0.098
-366.727	-100.487	0.326	-0.081
-365.712	37.713	-0.174	-0.156
-364.698	-194.665	-0.307	-0.002
-363.683	76.349	0.130	0.139
-362.669	-55.179	-0.289	-0.131
-361.654	-200.000	0.049	0.256
-360.639	-110.107	0.290	0.061
-359.625	-200.000	0.027	0.164
-358.610	3.673	0.292	-0.215
-357.596	-200.000	-0.016	0.244
-356.581	-9.749	0.126	-0.084
-355.566	6.519	0.243	0.182
-354.552	800.000	0.027	-0.082
-353.537	-54.291	0.248	0.113
-352.523	106.814	0.204	0.244
-351.508	-200.000	-0.047	0.221
-350.493	379.105	-0.201	0.415
-349.479	378.070	-0.108	0.222
-348.464	-200.000	0.001	0.219
-347.450	104.274	-0.193	0.229
-346.435	217.504	0.058	-0.093
-345.420	-7.475	0.208	-0.142
-344.406	-200.000	-0.009	-0.419
-343.391	-2.871	0.346	0.244
-342.377	-81.399	-0.306	-0.102
-341.362	7.420	-0.107	-0.080
-340.348	9.882	0.108	0.082
-339.333	-69.087	-0.190	-0.074
-338.318	303.502	-0.141	0.264
-337.304	800.000	-0.035	-0.124
-336.289	-44.124	0.166	0.084
-335.275	-114.077	-0.248	0.048
-334.260	-200.000	0.048	0.255
-333.245	33.583	0.205	-0.180
-332.231	20.626	0.283	0.231
-331.216	-22.012	-0.268	0.164
-330.202	353.915	-0.094	-0.188
-329.187	670.207	0.026	-0.067
-328.172	800.000	-0.096	0.350
-327.158	-200.000	-0.006	0.137
-326.143	-127.051	-0.315	-0.047
-325.129	387.326	0.082	-0.171
-324.114	-22.885	-0.369	-0.224
-323.099	-62.674	0.138	0.058
-322.085	800.000	-0.077	-0.328
-321.070	800.000	-0.022	-0.097
-320.056	308.360	0.060	0.112
-319.041	276.114	0.043	0.077
-318.026	173.535	0.064	-0.093
-317.012	286.228	0.132	0.240
-315.997	-117.162	0.021	-0.004
-314.983	248.621	0.140	0.238
-313.968	-134.952	0.052	-0.006
-312.953	148.208	0.161	-0.219
-311.939	12.135	0.159	-0.123
-310.924	-200.000	-0.004	-0.059
-309.910	-200.000	-0.058	0.255
-308.895	7.563	0.233	-0.175
-307.880	33.602	-0.171	0.150
-306.866	-37.411	-0.016	0.009
-305.851	800.000	0.123	0.421
-304.837	-200.000	-0.056	0.449
-303.822	516.519	0.112	-0.262
-302.807	-150.900	-0.328	0.025
-301.793	-149.057	0.278	0.022
-300.778	438.502	-0.085	-0.187
-299.764	11.135	0.223	-0.171
-298.749	136.603	-0.076	-0.100
-297.735	-69.777	0.105	0.040
-296.720	-150.013	-0.517	-0.040
-295.705	540.165	0.069	-0.165
-294.691	-66.671	0.119	-0.047
-293.676	-19.659	0.047	-0.029
-292.662	59.468	-0.070	0.069
-291.647	689.509	0.151	0.397
-290.632	-200.000	0.020	0.124
-289.618	-200.000	0.028	0.204
-288.603	160.583	-0.067	0.093
-287.589	-21.038	0.272	0.168
-286.574	156.401	0.179	-0.248
-285.559	-14.335	0.129	-0.084
-284.545	339.430	-0.161	-0.315
-283.530	800.000	0.024	0.095
-282.516	-153.969	0.067	-0.005
-281.501	62.898	0.273	-0.274
-280.486	130.589	-0.101	-0.130
-279.472	22.854	0.194	0.159
-278.457	-5.910	-0.062	-0.042
-277.443	44.849	-0.120	0.111
-276.428	51.560	-0.232	0.222
-275.413	800.000	-0.083	0.301
-274.399	-129.876	0.160	-0.022
-273.384	209.225	-0.091	-0.143
-272.370	394.448	0.063	-0.132
-271.355	-200.000	-0.023	0.206
-270.340	642.764	0.074	0.189
-269.326	800.000	-0.051	-0.150
-268.311	120.349	-0.045	0.056
-267.297	549.907	-0.121	-0.292
-266.282	-6.369	0.220	-0.151
-265.267	665.074	0.089	-0.230
-264.253	248.867	-0.081	0.138
-263.238	-140.448	0.172	-0.018
-262.224	-200.000	-0.010	0.134
-261.209	166.064	0.123	0.175
-260.195	-15.148	-0.056	-0.036
-259.180	800.000	0.050	-0.211
-258.165	800.000	0.105	-0.344
-257.151	800.000	0.096	-0.353
-256.136	233.091	-0.279	0.461
-255.122	359.306	0.044	0.088
-254.107	-152.040	-0.117	-0.009
-253.092	94.313	0.027	-0.031
-252.078	-33.377	-0.191	0.106
-251.063	-200.000	0.004	-0.099
-250.049	-10.726	0.055	0.036
-249.034	-25.242	0.192	0.114
-248.019	-9.968	-0.139	-0.093
-247.005	258.661	-0.015	-0.027
-245.990	-35.059	0.230	0.126
-244.976	-11.756	0.104	0.069
-243.961	-168.864	0.530	-0.020
-242.946	-12.455	0.194	-0.127
-241.932	800.000	-0.039	0.125
-240.917	-200.000	-0.018	-0.087
-239.903	-107.283	-0.182	-0.040
-238.888	98.619	0.297	-0.344
-237.873	-200.000	0.010	-0.238
-236.859	-9.085	-0.139	0.094
-235.844	-130.005	0.085	-0.012
-234.830	79.755	-0.269	-0.290
-233.815	202.423	-0.286	-0.442
-232.800	115.811	0.039	-0.048
-231.786	35.129	0.040	-0.035
-230.771	402.142	-0.045	0.096
-229.757	800.000	0.082	-0.264
-228.742	57.917	-0.096	-0.095
-227.727	-123.402	-0.103	-0.016
-226.713	344.822	-0.119	-0.234
-225.698	-149.148	-0.261	0.021
-224.684	800.000	-0.038	0.140
-223.669	-90.974	0.065	-0.019
-222.655	-105.461	-0.179	-0.041
-221.640	-62.216	-0.153	0.064
-220.625	-45.940	0.049	0.024
-219.611	353.205	-0.060	-0.119
-218.596	-200.000	-0.002	0.043
-217.582	-93.421	-0.197	0.055
-216.567	800.000	-0.038	-0.143
-215.552	511.862	-0.254	0.592
-214.538	800.000	0.077	0.235
-213.523	-200.000	0.032	0.304
-212.509	-32.501	-0.053	0.030
-211.494	-200.000	-0.002	0.075
-210.479	-40.730	0.179	0.093
-209.465	-73.288	0.273	0.100
-208.450	31.485	0.177	-0.152
-207.436	-71.695	-0.243	-0.091
-206.421	70.669	-0.130	0.135
-205.406	305.614	0.115	-0.214
-204.392	-11.103	-0.336	-0.222
-203.377	800.000	-0.057	0.179
-202.363	-117.987	-0.225	-0.040
-201.348	-200.000	0.025	0.428
-200.333	800.000	-0.108	-0.348
-199.319	16.441	-0.269	-0.213
-198.304	724.457	-0.009	0.023
-197.290	-200.000	-0.026	-0.191
-196.275	-200.000	0.047	0.388
-195.260	5.308	0.239	0.177
-194.246	-200.000	-0.045	0.226
-193.231	-200.000	0.047	0.289
-192.217	119.334	0.189	-0.234
-191.202	-168.145	-0.262	-0.010
-190.187	114.784	-0.113	0.138
-189.173	-54.464	-0.138	0.063
-188.158	800.000	0.052	-0.182
-187.144	601.933	0.070	0.175
-186.129	800.000	-0.039	-0.139
-185.114	433.412	-0.074	-0.161
-184.100	-118.405	0.347	0.062
-183.085	60.660	-0.071	-0.071
-182.071	-200.000	-0.021	-0.282
-181.056	153.443	0.216	-0.296
-180.042	-200.000	-0.013	-0.113
-179.027	-34.592	0.121	-0.066
-178.012	-200.000	-0.005	0.156
-176.998	75.087	-0.194	0.205
-175.983	-200.000	-0.064	-0.404
-174.969	-188.600	-0.530	0.007
-173.954	56.009	0.269	-0.261
-172.939	-200.000	-0.015	0.105
-171.925	-200.000	-0.000	-0.024
-170.910	-200.000	0.004	0.313
-169.896	23.283	0.139	0.114
-168.881	-200.000	-0.008	0.099
-167.866	120.561	-0.146	0.182
-166.852	-200.000	-0.031	0.163
-165.837	-200.000	-0.029	0.138
-164.823	40.714	0.129	0.116
-163.808	800.000	-0.080	-0.291
-162.793	-44.255	0.101	0.051
-161.779	144.346	0.231	-0.308
-160.764	-137.474	0.168	0.019
-159.750	264.973	-0.149	0.261
-158.735	728.352	-0.071	-0.188
-157.720	800.000	-0.060	0.210
-156.706	-22.667	-0.081	-0.049
-155.691	-162.311	0.195	0.010
-154.677	347.408	-0.148	-0.292
-153.662	-140.230	0.118	0.012
-152.647	-200.000	0.005	-0.359
-151.633	-20.933	-0.191	-0.117
-150.618	-68.146	-0.227	-0.089
-149.604	-151.166	0.053	0.004
-148.589	-1.004	-0.323	-0.228
-147.574	-81.628	-0.223	0.073
-146.560	67.275	-0.190	-0.194
-145.545	-156.550	-0.316	-0.020
-144.531	800.000	-0.108	-0.409
-143.516	260.136	-0.163	0.281
-142.502	0.048	0.160	-0.114
-141.487	800.000	0.128	0.384
-140.472	209.114	-0.174	0.273
-139.458	-200.000	-0.000	-0.030
-138.443	-200.000	-0.025	0.260
-137.429	232.860	0.132	0.217
-136.414	64.177	-0.212	-0.213
-135.399	130.594	0.178	0.228
-134.385	221.353	0.090	0.144
-133.370	202.632	0.093	0.144
-132.356	-200.000	-0.011	0.102
-131.341	351.896	0.114	-0.225
-130.326	-4.436	0.268	-0.185
-129.312	103.028	0.148	-0.173
-128.297	-200.000	0.025	-0.223
-127.283	-200.000	-0.009	-0.219
-126.268	-55.980	-0.132	-0.059
-125.253	-142.332	0.154	0.015
-124.239	-200.000	-0.005	0.199
-123.224	29.604	0.131	-0.111
-122.210	120.752	-0.180	0.223
-121.195	189.736	-0.026	0.039
