DTS Sentinel unit serial number:	SN413079Multiplexer serial number:	ORYXHardware model number:	OX4-SRSoftware version number:	ORYX F/W v4.00 Oryx Data Collector v3.7.2.0data status	okinstallation	princeton_trtdifferential loss correction	single-endedforward channel	channel 2reverse channel	N/Adate	2019/09/14time	07:35:34forward acquisition time	60.00reverse acquisition time	0.00gamma	496.2192k internal	0.2338k external	0.2338temperature offset calibration	1.0130default loss term (dB/km)	0.3790temperature slope calibration	1.0000multiplexer offset coefficient	1.0000multiplexer slope coefficient	1.0000fibre end	0.00T internal ref (°C)	26.25T ext. ref 1 (°C)	3.45T ext. ref 2 (°C)	21.44length (m)	temperature (°C)	Stokes	anti-Stokes-747.200	226.127	-0.075	-0.122
-746.185	222.498	-0.258	0.417
-745.171	-200.000	-0.071	-0.426
-744.156	-7.576	0.078	-0.053
-743.142	-13.856	-0.307	-0.199
-742.127	520.791	0.209	0.491
-741.112	-83.805	0.236	-0.076
-740.098	-170.959	0.386	-0.013
-739.083	800.000	0.069	0.245
-738.069	800.000	-0.121	0.340
-737.054	357.296	-0.061	-0.123
-736.039	75.358	-0.259	-0.274
-735.025	800.000	-0.013	-0.047
-734.010	-79.864	-0.184	0.062
-732.996	13.009	-0.152	-0.118
-731.981	-82.074	-0.175	-0.057
-730.966	-200.000	-0.007	0.064
-729.952	800.000	0.048	0.162
-728.937	25.094	-0.030	-0.025
-727.923	330.183	-0.130	-0.252
-726.908	-200.000	-0.019	-0.123
-725.894	-179.779	-0.083	-0.002
-724.879	251.953	-0.096	-0.164
-723.864	-200.000	0.368	0.001
-722.850	-73.165	-0.280	0.103
-721.835	-88.592	-0.415	0.124
-720.821	236.124	0.193	-0.320
-719.806	-99.826	0.309	-0.078
-718.791	-72.975	-0.176	-0.065
-717.777	-124.886	0.365	0.056
-716.762	227.899	0.174	-0.283
-715.748	800.000	0.033	-0.116
-714.733	-80.573	-0.218	-0.073
-713.718	-33.938	-0.195	-0.108
-712.704	68.274	-0.125	-0.128
-711.689	-96.644	-0.088	-0.023
-710.675	51.143	0.363	0.345
-709.660	-40.478	0.054	0.028
-708.645	800.000	0.061	0.190
-707.631	800.000	0.118	-0.331
-706.616	127.722	-0.139	-0.177
-705.602	-196.433	-0.347	0.002
-704.587	-66.721	-0.193	0.076
-703.572	-200.000	0.000	0.092
-702.558	-55.314	-0.163	0.073
-701.543	-200.000	-0.001	-0.095
-700.529	-200.000	0.003	-0.027
-699.514	-200.000	0.003	-0.039
-698.499	114.629	-0.110	-0.134
-697.485	-6.713	0.040	-0.027
-696.470	-200.000	0.035	-0.243
-695.456	800.000	-0.050	0.152
-694.441	-53.953	-0.132	0.060
-693.426	-24.879	0.199	0.118
-692.412	-37.973	-0.167	-0.089
-691.397	-200.000	0.075	-0.496
-690.383	46.160	0.017	-0.016
-689.368	-200.000	0.069	-0.369
-688.354	485.502	-0.052	0.119
-687.339	-158.451	0.067	-0.004
-686.324	-21.790	-0.207	0.126
-685.310	16.923	0.089	-0.070
-684.295	-58.854	0.170	-0.074
-683.281	-50.550	-0.051	0.024
-682.266	267.832	0.052	0.092
-681.251	-200.000	-0.026	0.288
-680.237	13.768	0.275	0.214
-679.222	-200.000	0.051	-0.343
-678.208	-137.114	-0.058	0.007
-677.193	28.261	0.033	-0.028
-676.178	119.425	0.186	0.230
-675.164	-114.874	-0.345	-0.066
-674.149	70.363	-0.274	-0.284
-673.135	104.952	0.096	0.113
-672.120	-108.171	0.052	0.011
-671.105	-55.177	-0.142	-0.064
-670.091	318.921	-0.156	0.295
-669.076	-69.232	-0.304	0.117
-668.062	16.981	-0.075	-0.060
-667.047	117.774	0.088	0.108
-666.032	-65.663	-0.182	-0.073
-665.018	-200.000	-0.020	0.139
-664.003	-200.000	0.055	-0.354
-662.989	89.192	0.109	0.121
-661.974	405.399	-0.114	-0.241
-660.959	78.629	-0.107	0.114
-659.945	-108.440	-0.274	-0.059
-658.930	-102.512	-0.059	0.014
-657.916	45.749	0.156	-0.144
-656.901	161.167	0.055	0.077
-655.886	-127.625	-0.581	-0.084
-654.872	419.138	-0.088	0.188
-653.857	85.688	0.234	0.257
-652.843	67.132	-0.100	0.102
-651.828	648.189	0.065	0.167
-650.814	800.000	-0.105	-0.314
-649.799	-159.424	0.477	0.027
-648.784	-200.000	-0.035	0.188
-647.770	-111.871	0.191	-0.038
-646.755	-200.000	0.033	0.152
-645.741	-200.000	0.023	0.153
-644.726	-162.237	0.033	-0.002
-643.711	-41.708	-0.486	-0.250
-642.697	-36.548	-0.287	-0.154
-641.682	-142.025	0.138	0.014
-640.668	34.548	-0.236	-0.206
-639.653	-106.271	0.288	0.065
-638.638	-200.000	0.055	0.265
-637.624	-20.098	0.110	0.068
-636.609	-172.243	-0.398	0.013
-635.595	-76.065	-0.078	0.028
-634.580	87.521	0.043	0.048
-633.565	800.000	-0.060	-0.249
-632.551	-28.811	-0.034	0.019
-631.536	-200.000	0.038	-0.468
-630.522	46.448	-0.326	0.302
-629.507	10.126	-0.270	0.205
-628.492	-57.194	-0.152	0.067
-627.478	219.245	0.059	0.095
-626.463	-47.968	0.350	-0.169
-625.449	-200.000	0.003	-0.165
-624.434	411.276	0.086	0.183
-623.419	-143.032	-0.385	0.037
-622.405	-200.000	-0.041	0.293
-621.390	18.432	0.173	0.138
-620.376	-181.727	0.077	0.001
-619.361	800.000	-0.042	0.126
-618.346	181.524	-0.132	-0.194
-617.332	163.176	0.184	-0.259
-616.317	800.000	-0.043	-0.126
-615.303	153.915	-0.190	0.260
-614.288	552.847	-0.135	-0.324
-613.273	93.440	-0.258	-0.292
-612.259	33.934	0.283	0.246
-611.244	-200.000	-0.056	-0.311
-610.230	202.924	0.040	0.061
-609.215	-100.837	0.060	0.015
-608.201	62.915	0.176	-0.175
-607.186	-200.000	0.054	-0.297
-606.171	227.906	-0.124	0.202
-605.157	-78.424	0.279	0.096
-604.142	2.532	-0.224	-0.162
-603.128	22.338	0.243	-0.198
-602.113	-31.074	-0.048	0.027
-601.098	51.851	-0.079	0.075
-600.084	173.986	-0.188	-0.271
-599.069	-141.935	0.211	0.021
-598.055	163.976	-0.183	-0.258
-597.040	-92.326	-0.459	-0.129
-596.025	-149.157	-0.273	-0.022
-595.011	17.103	-0.099	0.078
-593.996	-46.329	-0.292	-0.143
-592.982	-138.341	-0.190	0.021
-591.967	-167.245	0.298	-0.012
-590.952	790.728	-0.116	0.319
-589.938	-25.719	-0.226	0.133
-588.923	-74.344	0.082	0.029
-587.909	-107.794	-0.196	0.043
-586.894	-6.230	0.074	0.050
-585.879	-5.039	0.126	-0.087
-584.865	-51.658	0.246	0.115
-583.850	13.701	-0.360	0.279
-582.836	30.310	0.091	0.078
-581.821	-118.581	0.179	0.032
-580.806	-79.606	0.090	-0.030
-579.792	-122.568	-0.387	-0.063
-578.777	-15.281	-0.119	0.076
-577.763	800.000	-0.070	0.303
-576.748	692.177	-0.067	-0.175
-575.733	238.742	-0.116	-0.193
-574.719	70.085	-0.201	0.207
-573.704	31.611	0.176	-0.151
-572.690	1.667	-0.262	-0.188
-571.675	-131.535	0.240	0.032
-570.661	400.220	0.167	0.349
-569.646	225.041	0.197	-0.317
-568.631	-47.163	-0.154	0.075
-567.617	-100.369	-0.294	-0.073
-566.602	104.489	-0.203	-0.238
-565.588	221.619	0.073	0.118
-564.573	-48.698	0.176	-0.084
-563.558	46.241	0.169	0.156
-562.544	-40.343	0.421	0.218
-561.529	-158.786	-0.271	-0.015
-560.515	800.000	0.078	0.237
-559.500	502.121	0.079	-0.182
-558.485	7.624	0.185	0.138
-557.471	-200.000	-0.009	-0.282
-556.456	-111.410	0.212	-0.043
-555.442	-55.853	0.054	0.024
-554.427	31.666	-0.160	0.137
-553.412	217.979	-0.125	0.198
-552.398	-54.255	-0.320	-0.145
-551.383	-55.791	0.087	0.039
-550.369	208.163	-0.168	-0.261
-549.354	410.703	-0.062	-0.132
-548.339	75.114	-0.168	-0.177
-547.325	1.260	0.089	0.064
-546.310	-200.000	0.001	-0.134
-545.296	-29.911	0.367	-0.208
-544.281	79.700	-0.123	-0.132
-543.266	211.012	0.052	-0.081
-542.252	69.969	-0.165	0.170
-541.237	-117.011	-0.138	-0.025
-540.223	107.626	-0.041	-0.049
-539.208	-147.173	-0.082	0.007
-538.193	82.151	0.132	0.142
-537.179	75.484	-0.088	-0.092
-536.164	-46.438	0.078	-0.038
-535.150	-200.000	0.041	0.238
-534.135	291.873	-0.135	0.244
-533.121	699.114	0.101	0.264
-532.106	-200.000	-0.079	-0.383
-531.091	363.353	0.078	-0.156
-530.077	-10.043	-0.168	0.111
-529.062	485.910	0.081	0.184
-528.048	800.000	-0.034	-0.130
-527.033	-91.674	0.105	-0.030
-526.018	-110.383	0.212	0.044
-525.004	63.112	0.096	0.095
-523.989	-113.753	-0.124	0.024
-522.975	-101.239	0.151	-0.037
-521.960	-200.000	-0.061	-0.286
-520.945	238.644	0.180	-0.298
-519.931	-135.270	0.065	0.008
-518.916	-152.063	-0.139	0.010
-517.902	527.315	0.093	0.218
-516.887	800.000	-0.024	0.094
-515.872	800.000	0.107	-0.359
-514.858	-13.828	-0.425	-0.273
-513.843	-124.790	-0.423	-0.065
-512.829	-143.009	0.199	0.019
-511.814	-200.000	0.004	0.093
-510.799	-93.360	-0.052	0.014
-509.785	-51.998	0.125	0.058
-508.770	800.000	0.058	-0.177
-507.756	-103.953	0.560	-0.130
-506.741	-94.909	0.413	-0.111
-505.726	-200.000	-0.011	0.147
-504.712	396.223	-0.118	0.244
-503.697	-127.977	-0.466	0.067
-502.683	800.000	-0.040	-0.159
-501.668	800.000	-0.046	-0.144
-500.653	46.515	0.512	0.472
-499.639	-3.970	-0.145	-0.100
-498.624	23.799	0.210	0.172
-497.610	-200.000	-0.088	-0.404
-496.595	14.966	0.195	0.152
-495.581	-7.661	-0.168	-0.113
-494.566	114.994	-0.211	0.256
-493.551	-90.873	-0.229	0.066
-492.537	-119.921	0.201	0.034
-491.522	-200.000	0.033	0.261
-490.508	-79.327	0.183	0.062
-489.493	27.307	-0.055	0.046
-488.478	800.000	0.089	-0.300
-487.464	48.465	-0.140	-0.130
-486.449	89.582	0.122	0.135
-485.435	-57.730	-0.284	0.123
-484.420	-200.000	0.079	-0.408
-483.405	288.092	-0.057	-0.102
-482.391	-200.000	0.048	-0.318
-481.376	-112.964	0.133	0.026
-480.362	119.184	-0.126	0.155
-479.347	60.701	0.128	-0.126
-478.332	95.844	-0.058	0.065
-477.318	430.348	-0.012	-0.026
-476.303	-46.156	-0.301	-0.147
-475.289	-200.000	0.010	-0.313
-474.274	-59.518	-0.100	0.043
-473.259	358.765	0.144	0.285
-472.245	-200.000	0.007	0.038
-471.230	-200.000	0.004	0.171
-470.216	567.375	0.009	0.021
-469.201	295.224	0.032	-0.058
-468.186	-162.598	0.161	-0.008
-467.172	181.363	-0.154	-0.225
-466.157	-29.116	0.178	0.102
-465.143	-190.680	-0.203	-0.002
-464.128	160.807	-0.202	0.280
-463.113	11.131	-0.241	0.183
-462.099	-200.000	-0.004	0.078
-461.084	193.415	0.222	0.333
-460.070	-78.316	0.487	0.166
-459.055	74.160	0.115	0.120
-458.040	-28.959	0.069	-0.039
-457.026	174.378	-0.083	-0.119
-456.011	-79.317	-0.341	-0.114
-454.997	800.000	0.040	-0.141
-453.982	-0.133	-0.144	0.102
-452.968	117.040	0.137	0.166
-451.953	-83.882	-0.261	-0.082
-450.938	-19.928	-0.152	-0.093
-449.924	521.476	-0.098	-0.229
-448.909	-200.000	0.019	0.099
-447.895	-30.787	-0.156	-0.087
-446.880	800.000	-0.059	-0.218
-445.865	800.000	-0.058	0.196
-444.851	49.548	-0.109	0.102
-443.836	-171.107	0.371	-0.012
-442.822	33.217	0.202	-0.174
-441.807	38.994	0.114	0.101
-440.792	-88.133	-0.193	0.057
-439.778	17.984	0.246	0.195
-438.763	-83.285	0.239	-0.076
-437.749	800.000	-0.043	0.136
-436.734	-86.599	0.169	0.051
-435.719	-76.363	-0.063	0.022
-434.705	-42.739	-0.316	-0.159
-433.690	47.915	0.215	0.199
-432.676	-69.072	0.256	0.098
-431.661	800.000	-0.030	0.084
-430.646	-94.558	0.293	-0.079
-429.632	-200.000	0.023	-0.389
-428.617	-200.000	0.015	-0.467
-427.603	-54.536	-0.150	-0.067
-426.588	-152.469	-0.193	-0.014
-425.573	-200.000	0.046	-0.286
-424.559	281.708	0.087	-0.155
-423.544	574.564	-0.101	0.243
-422.530	479.822	-0.161	0.361
-421.515	800.000	-0.056	-0.197
-420.500	-159.813	0.078	-0.004
-419.486	24.573	-0.101	-0.083
-418.471	-200.000	-0.016	0.104
-417.457	3.633	-0.210	-0.152
-416.442	-200.000	0.015	0.312
-415.428	-98.436	0.197	-0.050
-414.413	-200.000	-0.003	0.080
-413.398	-53.173	-0.191	0.087
-412.384	-200.000	-0.017	-0.169
-411.369	-68.834	0.314	-0.120
-410.355	145.244	-0.109	0.145
-409.340	353.115	-0.063	-0.124
-408.325	-200.000	-0.006	0.117
-407.311	387.662	-0.093	-0.190
-406.296	-200.000	0.005	0.181
-405.282	-200.000	-0.019	-0.300
-404.267	232.776	-0.135	-0.220
-403.252	167.303	0.114	-0.161
-402.238	-33.396	-0.459	0.251
-401.223	-200.000	-0.000	-0.036
-400.209	-106.612	0.250	0.055
-399.194	-86.796	-0.242	0.073
-398.179	50.979	-0.067	0.063
-397.165	625.988	-0.072	0.181
-396.150	-200.000	0.025	-0.107
-395.136	-4.509	0.188	-0.129
-394.121	-92.332	-0.221	-0.062
-393.106	496.705	-0.157	-0.357
-392.092	800.000	-0.090	-0.360
-391.077	606.980	0.070	0.174
-390.063	800.000	-0.107	0.358
-389.048	-123.967	0.031	-0.005
-388.033	-200.000	-0.009	0.095
-387.019	36.551	0.211	0.184
-386.004	-178.801	-0.056	-0.001
-384.990	800.000	0.064	-0.198
-383.975	-140.577	0.108	-0.011
-382.960	-114.631	0.222	-0.042
-381.946	118.362	0.203	0.248
-380.931	-27.906	-0.225	-0.129
-379.917	53.228	-0.101	0.096
-378.902	-5.671	-0.135	-0.092
-377.888	552.454	0.116	-0.275
-376.873	26.747	0.386	0.320
-375.858	800.000	0.043	0.128
-374.844	-146.712	0.258	-0.022
-373.829	-123.699	-0.235	0.037
-372.815	166.375	0.174	0.244
-371.800	-100.329	0.176	-0.043
-370.785	800.000	-0.006	0.019
-369.771	-100.154	0.362	0.089
-368.756	259.810	0.146	0.249
-367.742	74.341	-0.146	-0.152
-366.727	-146.145	0.146	0.013
-365.712	139.371	0.016	-0.020
-364.698	478.507	-0.049	0.110
-363.683	-91.440	0.250	-0.071
-362.669	-200.000	0.005	-0.305
-361.654	800.000	-0.041	-0.138
-360.639	554.521	0.049	-0.116
-359.625	800.000	-0.097	-0.280
-358.610	130.180	0.097	-0.122
-357.596	-200.000	-0.025	-0.217
-356.581	-63.282	0.057	0.023
-355.566	260.207	0.102	-0.175
-354.552	22.429	0.248	-0.201
-353.537	44.189	0.153	0.139
-352.523	141.708	-0.063	-0.083
-351.508	-200.000	0.028	-0.276
-350.493	-18.925	-0.097	0.060
-349.479	38.252	-0.072	0.064
-348.464	-200.000	-0.009	-0.102
-347.450	800.000	-0.024	0.102
-346.435	16.488	-0.226	-0.177
-345.420	11.211	-0.238	-0.180
-344.406	-200.000	0.023	-0.112
-343.391	-78.589	-0.246	-0.083
-342.377	323.789	0.167	-0.314
-341.362	-95.975	-0.042	0.011
-340.348	-6.126	0.219	0.148
-339.333	26.096	0.103	0.085
-338.318	296.351	-0.080	0.145
-337.304	800.000	-0.052	0.163
-336.289	-78.477	-0.082	-0.028
-335.275	245.773	-0.068	-0.112
-334.260	174.264	-0.041	-0.058
-333.245	221.759	-0.230	0.365
-332.231	-180.379	-0.303	0.006
-331.216	-144.450	-0.393	-0.036
-330.202	800.000	-0.022	-0.068
-329.187	-26.973	0.111	-0.064
-328.172	800.000	-0.070	0.216
-327.158	-176.402	0.037	0.001
-326.143	108.053	0.204	-0.240
-325.129	-200.000	0.016	-0.143
-324.114	774.164	0.096	-0.258
-323.099	-64.834	0.036	0.014
-322.085	40.933	-0.216	-0.193
-321.070	-10.818	0.254	-0.165
-320.056	-64.101	-0.088	-0.035
-319.041	-100.049	-0.049	0.012
-318.026	56.179	0.215	0.206
-317.012	12.424	0.271	-0.206
-315.997	-200.000	0.016	-0.217
-314.983	-61.262	-0.105	-0.044
-313.968	577.568	0.089	0.215
-312.953	120.790	-0.110	0.135
-311.939	-200.000	0.018	-0.105
-310.924	-28.752	-0.158	-0.090
-309.910	-111.510	0.298	-0.060
-308.895	-5.839	0.212	-0.143
-307.880	95.524	0.147	-0.165
-306.866	-47.325	0.270	0.130
-305.851	800.000	0.108	-0.344
-304.837	-200.000	-0.016	-0.101
-303.822	-200.000	0.031	-0.236
-302.807	220.205	0.124	0.196
-301.793	-35.930	0.218	0.116
-300.778	-58.282	-0.148	-0.063
-299.764	177.110	-0.149	0.215
-298.749	-40.080	0.244	-0.125
-297.735	-200.000	-0.020	-0.192
-296.720	-200.000	-0.010	-0.147
-295.705	800.000	-0.056	0.191
-294.691	-141.396	0.225	0.022
-293.676	565.830	0.082	-0.196
-292.662	-57.586	-0.094	-0.041
-291.647	-200.000	0.002	0.101
-290.632	-87.787	0.261	-0.077
-289.618	-64.162	0.073	-0.030
-288.603	188.135	0.077	0.114
-287.589	39.885	-0.174	0.154
-286.574	-92.486	-0.059	0.016
-285.559	-128.264	-0.175	-0.025
-284.545	800.000	-0.065	0.194
-283.530	-200.000	0.058	0.266
-282.516	74.474	-0.256	0.265
-281.501	800.000	0.094	0.354
-280.486	155.326	0.322	0.437
-279.472	-104.062	-0.291	-0.067
-278.457	-0.916	-0.321	-0.224
-277.443	-63.915	0.328	-0.132
-276.428	-47.176	0.227	0.109
-275.413	-156.198	-0.225	0.014
-274.399	-200.000	-0.003	-0.211
-273.384	-50.921	-0.094	-0.043
-272.370	-70.804	-0.205	-0.076
-271.355	-92.736	-0.323	-0.089
-270.340	-60.631	0.107	0.045
-269.326	-63.481	-0.393	-0.159
-268.311	-152.277	-0.220	0.016
-267.297	232.080	-0.077	0.124
-266.282	83.598	-0.135	0.145
-265.267	-200.000	-0.094	0.436
-264.253	-200.000	-0.043	-0.224
-263.238	140.376	-0.217	0.282
-262.224	13.095	-0.144	-0.110
-261.209	86.737	-0.102	0.111
-260.195	-24.373	0.082	0.048
-259.180	800.000	0.076	0.232
-258.165	28.942	0.149	-0.125
-257.151	634.291	-0.046	0.114
-256.136	216.695	-0.094	0.148
-255.122	-20.384	0.160	-0.097
-254.107	90.758	-0.246	0.272
-253.092	16.715	0.318	0.248
-252.078	-200.000	0.025	0.209
-251.063	-3.927	0.076	-0.052
-250.049	-152.569	0.189	-0.013
-249.034	88.950	-0.169	-0.186
-248.019	348.068	-0.083	-0.162
-247.005	32.279	0.354	0.301
-245.990	692.972	-0.108	0.278
-244.976	574.442	0.024	0.058
-243.961	-130.235	0.040	-0.005
-242.946	125.632	-0.034	0.042
-241.932	-42.507	0.436	0.219
-240.917	105.473	-0.046	-0.053
-239.903	168.264	-0.190	0.266
-238.888	460.094	-0.140	-0.308
-237.873	14.447	0.125	0.096
-236.859	-68.682	0.134	-0.051
-235.844	-200.000	-0.049	-0.235
-234.830	800.000	0.117	0.442
-233.815	207.162	-0.139	0.213
-232.800	358.293	0.080	0.156
-231.786	-200.000	-0.011	0.245
-230.771	133.024	-0.163	0.207
-229.757	-34.746	0.219	-0.118
-228.742	102.096	0.206	-0.236
-227.727	-32.394	0.107	-0.059
-226.713	-97.792	-0.067	0.017
-225.698	60.956	0.224	0.218
-224.684	-72.690	-0.217	0.079
-223.669	16.647	-0.148	0.115
-222.655	-66.623	-0.232	-0.090
-221.640	-200.000	-0.015	-0.111
-220.625	-200.000	-0.002	0.202
-219.611	800.000	0.036	0.107
-218.596	37.758	-0.158	-0.138
-217.582	-200.000	0.028	-0.145
-216.567	-200.000	-0.007	-0.213
-215.552	-200.000	0.036	-0.289
-214.538	-111.423	-0.226	-0.045
-213.523	-53.464	0.372	0.167
-212.509	-84.304	-0.098	-0.030
-211.494	-200.000	0.053	-0.245
-210.479	800.000	-0.062	-0.259
-209.465	98.336	0.090	-0.102
-208.450	800.000	-0.047	0.163
-207.436	436.216	0.101	0.215
-206.421	800.000	0.031	0.133
-205.406	97.349	-0.146	0.165
-204.392	800.000	-0.038	-0.161
-203.377	-200.000	-0.051	-0.277
-202.363	-102.018	-0.299	0.071
-201.348	625.427	0.169	0.420
-200.333	-80.017	0.189	-0.062
-199.319	-95.550	0.311	0.082
-198.304	326.758	-0.079	-0.149
-197.290	366.850	0.112	-0.222
-196.275	-200.000	-0.045	0.266
-195.260	314.450	-0.068	0.125
-194.246	800.000	-0.043	-0.142
-193.231	-134.636	0.239	-0.029
-192.217	691.433	-0.156	0.402
-191.202	249.281	0.140	-0.234
-190.187	800.000	0.109	0.305
-189.173	78.415	-0.210	0.220
-188.158	-16.818	-0.128	-0.080
-187.144	800.000	-0.141	-0.408
-186.129	-81.959	0.397	-0.128
-185.114	-150.725	0.356	0.027
-184.100	447.673	0.160	0.346
-183.085	800.000	0.077	0.287
-182.071	70.768	0.145	0.147
-181.056	800.000	0.131	-0.387
-180.042	-200.000	0.018	0.097
-179.027	-141.600	-0.106	0.010
-178.012	-89.756	0.342	-0.098
-176.998	110.390	-0.152	0.179
-175.983	774.013	-0.047	0.125
-174.969	-172.138	0.143	0.005
-173.954	800.000	-0.053	0.179
-172.939	800.000	0.076	0.271
-171.925	800.000	0.074	-0.215
-170.910	-200.000	-0.041	0.340
-169.896	50.441	-0.271	-0.251
-168.881	5.364	-0.298	-0.216
-167.866	-200.000	-0.033	0.209
-166.852	42.258	0.091	-0.081
-165.837	424.976	0.150	-0.316
-164.823	190.989	0.208	0.307
-163.808	-29.028	-0.249	-0.140
-162.793	102.172	-0.054	0.062
-161.779	-3.452	0.182	-0.124
-160.764	32.533	-0.043	0.037
-159.750	158.600	-0.175	0.239
-158.735	-153.577	0.380	0.026
-157.720	-41.873	0.153	0.077
-156.706	-149.803	-0.086	-0.007
-155.691	-200.000	0.027	0.278
-154.677	800.000	0.011	-0.039
-153.662	129.747	-0.051	-0.065
-152.647	-88.095	-0.157	-0.046
-151.633	-8.244	0.092	0.061
-150.618	214.025	0.257	-0.398
-149.604	-97.749	0.067	0.017
-148.589	800.000	-0.033	-0.110
-147.574	-52.966	0.276	-0.125
-146.560	49.448	0.217	0.201
-145.545	800.000	0.056	-0.234
-144.531	800.000	0.059	0.189
-143.516	-185.803	0.141	0.002
-142.502	77.764	0.119	-0.124
-141.487	-200.000	0.019	-0.115
-140.472	214.887	0.158	0.245
-139.458	40.266	0.087	0.076
-138.443	-109.351	-0.071	0.015
-137.429	-173.341	-0.119	0.004
-136.414	297.499	0.090	-0.162
-135.399	-200.000	-0.023	0.324
-134.385	-99.948	0.161	0.039
-133.370	32.247	0.022	-0.019
-132.356	28.771	-0.294	-0.244
-131.341	800.000	0.062	-0.238
-130.326	572.026	-0.126	-0.302
-129.312	337.461	-0.050	-0.094
-128.297	-63.367	0.226	-0.091
-127.283	286.089	0.209	0.369
-126.268	178.158	0.080	-0.114
-125.253	23.673	-0.201	-0.162
-124.239	-35.862	-0.093	-0.049
-123.224	-200.000	-0.036	-0.321
-122.210	-200.000	-0.014	0.170
-121.195	-119.247	0.377	-0.064
