DTS Sentinel unit serial number:	SN413079Multiplexer serial number:	ORYXHardware model number:	OX4-SRSoftware version number:	ORYX F/W v4.00 Oryx Data Collector v3.7.2.0data status	okinstallation	princeton_trtdifferential loss correction	single-endedforward channel	channel 2reverse channel	N/Adate	2019/09/17time	14:15:35forward acquisition time	60.00reverse acquisition time	0.00gamma	496.2192k internal	0.2314k external	0.2314temperature offset calibration	0.9986default loss term (dB/km)	0.3790temperature slope calibration	1.0000multiplexer offset coefficient	1.0000multiplexer slope coefficient	1.0000fibre end	0.00T internal ref (°C)	36.02T ext. ref 1 (°C)	0.41T ext. ref 2 (°C)	32.99length (m)	temperature (°C)	Stokes	anti-Stokes-747.200	-81.078	-0.253	0.085
-746.185	282.335	-0.193	0.350
-745.171	-200.000	0.002	0.085
-744.156	-59.303	-0.086	-0.037
-743.142	-66.742	0.154	0.062
-742.127	800.000	-0.102	0.350
-741.112	-26.779	0.280	0.166
-740.098	-61.306	0.362	0.155
-739.083	81.351	-0.225	-0.246
-738.069	277.840	0.089	0.160
-737.054	10.064	0.263	-0.203
-736.039	-200.000	0.046	-0.304
-735.025	197.342	-0.096	-0.148
-734.010	800.000	-0.051	0.193
-732.996	-136.844	-0.094	-0.011
-731.981	164.223	-0.085	0.121
-730.966	438.279	-0.027	-0.059
-729.952	-200.000	-0.005	-0.100
-728.937	-200.000	-0.037	-0.265
-727.923	-200.000	0.014	0.076
-726.908	56.588	-0.108	0.106
-725.894	71.728	-0.298	-0.314
-724.879	-83.274	-0.195	-0.063
-723.864	-200.000	-0.016	-0.094
-722.850	498.972	0.126	-0.293
-721.835	-91.643	-0.107	0.031
-720.821	-29.676	-0.102	-0.059
-719.806	800.000	-0.055	-0.214
-718.791	534.574	-0.023	-0.054
-717.777	19.228	0.116	-0.095
-716.762	-92.387	-0.203	-0.058
-715.748	71.559	-0.072	-0.075
-714.733	82.058	0.088	-0.096
-713.718	-106.737	-0.179	-0.040
-712.704	-200.000	-0.016	-0.337
-711.689	-194.918	-0.202	-0.002
-710.675	-145.876	0.307	-0.028
-709.660	28.028	0.357	-0.305
-708.645	-200.000	0.018	-0.388
-707.631	-200.000	-0.003	-0.156
-706.616	-103.359	0.225	0.054
-705.602	46.815	0.159	-0.149
-704.587	-200.000	0.023	-0.209
-703.572	-200.000	0.018	-0.199
-702.558	-200.000	0.006	-0.083
-701.543	160.251	-0.112	-0.158
-700.529	-66.745	-0.123	-0.049
-699.514	-169.630	0.233	-0.009
-698.499	-200.000	0.011	-0.189
-697.485	-114.833	0.165	-0.032
-696.470	144.942	0.131	0.177
-695.456	52.033	0.027	-0.026
-694.441	44.926	0.133	-0.124
-693.426	-114.605	-0.267	-0.052
-692.412	-200.000	-0.022	-0.100
-691.397	-114.220	-0.092	-0.018
-690.383	-138.037	0.178	0.020
-689.368	800.000	0.014	0.050
-688.354	-200.000	0.042	-0.276
-687.339	-155.073	-0.503	-0.033
-686.324	-120.736	0.107	0.018
-685.310	-145.310	-0.480	0.044
-684.295	47.049	0.161	0.152
-683.281	-0.518	-0.208	0.149
-682.266	182.388	-0.053	0.080
-681.251	800.000	-0.047	-0.148
-680.237	139.913	-0.087	0.116
-679.222	103.936	0.044	-0.052
-678.208	203.545	0.139	-0.218
-677.193	-131.181	-0.342	0.046
-676.178	800.000	-0.139	0.447
-675.164	379.435	-0.147	0.304
-674.149	733.698	-0.028	-0.075
-673.135	85.443	-0.114	0.127
-672.120	56.501	0.214	-0.210
-671.105	-12.803	-0.346	0.228
-670.091	81.482	0.065	-0.071
-669.076	-35.388	-0.171	-0.094
-668.062	750.140	-0.154	-0.421
-667.047	322.782	-0.106	-0.204
-666.032	-200.000	-0.032	0.206
-665.018	129.244	0.161	-0.208
-664.003	-107.815	0.088	0.019
-662.989	256.128	0.116	-0.202
-661.974	89.592	-0.245	-0.277
-660.959	-200.000	-0.003	0.070
-659.945	21.882	-0.107	-0.088
-658.930	-200.000	0.024	0.127
-657.916	-200.000	0.025	0.158
-656.901	-91.951	-0.126	0.036
-655.886	81.673	-0.101	0.111
-654.872	-2.378	-0.280	0.198
-653.857	-114.116	0.404	-0.079
-652.843	-104.016	-0.352	0.083
-651.828	-200.000	-0.013	-0.170
-650.814	10.311	-0.048	0.037
-649.799	-82.195	0.390	0.128
-648.784	-70.655	0.169	-0.064
-647.770	-123.807	-0.247	-0.039
-646.755	-90.286	-0.365	0.107
-645.741	126.805	-0.041	0.052
-644.726	43.555	-0.103	0.096
-643.711	-63.885	-0.362	0.150
-642.697	-106.560	-0.293	-0.066
-641.682	59.597	0.085	-0.085
-640.668	800.000	0.050	0.205
-639.653	37.875	-0.134	0.120
-638.638	148.509	0.268	-0.365
-637.624	180.914	0.166	-0.246
-636.609	59.696	0.142	0.141
-635.595	23.092	-0.196	-0.162
-634.580	93.722	-0.328	0.375
-633.565	479.755	0.137	-0.313
-632.551	385.787	-0.092	-0.192
-631.536	-71.118	0.089	0.034
-630.522	-18.815	-0.033	0.021
-629.507	-21.693	-0.066	0.041
-628.492	81.326	0.225	0.246
-627.478	-200.000	-0.036	-0.405
-626.463	46.603	0.147	-0.137
-625.449	39.877	0.310	-0.281
-624.434	-20.776	0.046	0.028
-623.419	232.510	0.120	0.198
-622.405	45.930	0.249	-0.232
-621.390	-114.405	0.314	0.061
-620.376	282.559	0.140	-0.254
-619.361	-200.000	0.010	-0.307
-618.346	-5.909	-0.087	0.060
-617.332	-179.754	-0.164	0.004
-616.317	-200.000	0.043	0.270
-615.303	800.000	-0.087	-0.246
-614.288	-200.000	-0.031	-0.254
-613.273	800.000	-0.023	-0.078
-612.259	-44.855	-0.096	-0.049
-611.244	-196.690	0.378	0.003
-610.230	-200.000	-0.029	0.295
-609.215	800.000	0.029	-0.095
-608.201	122.165	0.229	0.289
-607.186	800.000	-0.019	0.066
-606.171	-51.147	-0.241	0.114
-605.157	35.576	0.181	-0.160
-604.142	370.955	0.231	-0.473
-603.128	-59.220	0.373	-0.162
-602.113	368.850	0.133	0.270
-601.098	-136.999	-0.268	-0.031
-600.084	-200.000	0.013	-0.085
-599.069	670.042	-0.027	-0.070
-598.055	19.225	0.115	0.093
-597.040	-147.241	-0.218	0.019
-596.025	-99.594	-0.069	-0.017
-595.011	9.579	-0.300	0.229
-593.996	165.249	-0.095	0.135
-592.982	-200.000	0.008	0.185
-591.967	-45.816	0.275	0.137
-590.952	800.000	-0.023	-0.084
-589.938	-96.368	-0.359	0.096
-588.923	146.479	-0.046	-0.062
-587.909	173.214	0.054	-0.078
-586.894	114.166	-0.044	-0.053
-585.879	331.430	-0.125	0.242
-584.865	16.312	-0.117	0.093
-583.850	364.411	-0.122	0.246
-582.836	800.000	0.040	-0.155
-581.821	-63.470	0.150	-0.062
-580.806	-138.430	0.167	0.019
-579.792	358.022	0.116	-0.233
-578.777	17.260	-0.074	0.059
-577.763	-187.062	-0.307	-0.004
-576.748	-200.000	0.008	0.041
-575.733	-27.208	0.231	-0.136
-574.719	-136.978	-0.198	0.023
-573.704	-200.000	0.040	-0.445
-572.690	800.000	-0.073	0.209
-571.675	390.826	-0.023	0.048
-570.661	-140.065	-0.069	-0.007
-569.646	279.264	-0.069	0.125
-568.631	96.865	-0.153	-0.176
-567.617	596.601	-0.033	0.083
-566.602	-9.383	0.031	0.021
-565.588	-121.150	0.352	-0.059
-564.573	86.774	-0.240	0.267
-563.558	119.004	-0.293	-0.365
-562.544	-119.784	0.262	-0.045
-561.529	800.000	0.036	0.120
-560.515	-200.000	0.005	-0.109
-559.500	-97.522	-0.331	-0.087
-558.485	478.553	0.050	0.115
-557.471	-108.709	0.199	-0.043
-556.456	105.200	0.077	-0.092
-555.442	-130.815	-0.181	-0.024
-554.427	800.000	-0.081	0.247
-553.412	-200.000	0.005	-0.349
-552.398	67.076	-0.103	0.105
-551.383	284.817	-0.188	0.340
-550.369	-67.018	0.354	-0.141
-549.354	800.000	-0.028	-0.090
-548.339	800.000	-0.075	0.216
-547.325	-10.258	0.151	-0.101
-546.310	244.758	0.128	-0.216
-545.296	132.215	-0.082	-0.106
-544.281	-200.000	-0.045	0.224
-543.266	-200.000	0.003	-0.111
-542.252	-98.681	0.217	-0.056
-541.237	150.380	0.209	0.285
-540.223	-200.000	0.006	0.302
-539.208	369.537	0.096	-0.196
-538.193	62.060	0.202	-0.203
-537.179	529.907	0.093	-0.221
-536.164	22.323	0.316	-0.259
-535.150	62.427	0.195	-0.196
-534.135	107.068	0.356	-0.425
-533.121	-31.957	-0.203	0.114
-532.106	-75.786	0.122	0.043
-531.091	-75.478	-0.219	0.078
-530.077	800.000	-0.130	-0.375
-529.062	228.672	0.163	-0.268
-528.048	-91.033	0.215	-0.062
-527.033	9.503	-0.031	-0.024
-526.018	-116.878	-0.284	0.052
-525.004	5.345	-0.110	0.081
-523.989	113.950	0.180	0.220
-522.975	800.000	-0.055	-0.179
-521.960	-90.276	0.492	-0.144
-520.945	-73.834	0.255	0.093
-519.931	46.037	-0.137	0.128
-518.916	158.721	0.082	0.115
-517.902	-25.180	0.167	-0.100
-516.887	639.687	-0.144	0.368
-515.872	-24.179	-0.336	0.201
-514.858	184.674	0.074	0.111
-513.843	29.124	-0.312	-0.266
-512.829	291.783	0.125	-0.228
-511.814	-101.289	-0.312	-0.077
-510.799	-200.000	-0.059	0.289
-509.785	471.980	-0.071	-0.160
-508.770	-145.947	-0.371	0.033
-507.756	-200.000	-0.033	-0.238
-506.741	-59.271	-0.084	-0.036
-505.726	-131.893	-0.162	-0.021
-504.712	-140.735	-0.075	0.008
-503.697	-59.148	0.240	0.104
-502.683	554.767	-0.059	-0.142
-501.668	-106.422	0.078	0.018
-500.653	-152.798	0.137	-0.010
-499.639	-200.000	0.020	-0.352
-498.624	-46.059	-0.190	-0.094
-497.610	-200.000	-0.006	0.149
-496.595	-153.059	0.116	0.008
-495.581	-51.206	-0.341	-0.160
-494.566	97.746	0.149	0.171
-493.551	-136.119	-0.111	0.013
-492.537	-98.769	0.130	-0.033
-491.522	-49.671	0.175	0.084
-490.508	380.978	-0.060	0.123
-489.493	800.000	-0.097	0.301
-488.478	-190.530	-0.379	-0.004
-487.464	-110.376	-0.149	-0.031
-486.449	-200.000	0.049	-0.272
-485.435	620.896	-0.062	0.157
-484.420	-175.282	-0.190	0.005
-483.405	-157.774	-0.159	-0.009
-482.391	800.000	0.030	-0.112
-481.376	-50.698	-0.281	0.133
-480.362	21.122	-0.224	0.182
-479.347	16.494	0.083	-0.065
-478.332	20.487	-0.174	-0.141
-477.318	11.581	0.016	-0.013
-476.303	-114.585	0.270	0.052
-475.289	63.244	0.126	-0.127
-474.274	-200.000	0.007	0.148
-473.259	529.733	-0.094	0.222
-472.245	800.000	-0.121	-0.343
-471.230	-90.507	-0.120	-0.035
-470.216	800.000	0.049	0.201
-469.201	286.092	-0.094	-0.169
-468.186	800.000	0.023	-0.087
-467.172	15.578	0.226	-0.178
-466.157	113.667	0.047	-0.058
-465.143	-71.627	-0.082	-0.031
-464.128	218.599	-0.182	-0.292
-463.113	800.000	0.054	-0.209
-462.099	-166.785	-0.041	0.002
-461.084	744.009	-0.120	-0.323
-460.070	416.423	0.079	-0.170
-459.055	800.000	-0.040	0.159
-458.040	800.000	0.081	-0.315
-457.026	648.442	-0.059	0.151
-456.011	-54.822	-0.293	-0.132
-454.997	-49.401	-0.056	0.027
-453.982	-72.595	-0.381	0.141
-452.968	-200.000	-0.048	-0.280
-451.953	-200.000	-0.011	0.112
-450.938	2.823	-0.167	0.121
-449.924	-89.695	0.182	0.054
-448.909	-200.000	-0.003	-0.075
-447.895	584.519	0.118	-0.290
-446.880	48.108	-0.072	-0.068
-445.865	84.312	-0.129	0.141
-444.851	-81.441	-0.403	0.133
-443.836	345.157	0.090	-0.177
-442.822	-200.000	0.006	0.223
-441.807	321.976	0.186	0.355
-440.792	254.257	-0.127	0.218
-439.778	800.000	-0.074	0.260
-438.763	-154.612	0.403	-0.027
-437.749	-170.802	0.275	-0.009
-436.734	753.953	0.138	-0.375
-435.719	800.000	-0.077	-0.295
-434.705	123.449	-0.266	-0.334
-433.690	-195.038	0.207	-0.002
-432.676	-200.000	0.010	0.150
-431.661	21.775	0.139	-0.113
-430.646	260.755	0.152	0.263
-429.632	-200.000	-0.009	0.131
-428.617	-158.450	0.266	-0.015
-427.603	611.741	-0.086	-0.216
-426.588	-18.745	-0.116	-0.072
-425.573	-146.428	0.193	-0.017
-424.559	29.726	0.043	0.036
-423.544	-47.351	-0.101	-0.049
-422.530	800.000	-0.039	-0.137
-421.515	800.000	-0.058	0.197
-420.500	436.047	0.083	0.180
-419.486	-105.126	0.232	-0.053
-418.471	-44.808	-0.208	0.104
-417.457	-163.427	0.260	0.012
-416.442	66.581	-0.028	-0.028
-415.428	800.000	0.027	0.076
-414.413	467.605	-0.061	0.138
-413.398	-91.551	0.089	-0.025
-412.384	502.551	0.154	-0.355
-411.369	551.480	-0.101	-0.242
-410.355	-28.250	-0.248	0.143
-409.340	-105.264	0.241	-0.055
-408.325	-111.157	0.148	-0.030
-407.311	800.000	-0.011	0.035
-406.296	-200.000	0.048	-0.358
-405.282	-81.326	-0.523	-0.173
-404.267	-28.096	0.224	0.130
-403.252	17.132	0.361	-0.286
-402.238	-130.612	-0.191	0.026
-401.223	-139.878	-0.490	0.052
-400.209	376.231	-0.101	0.207
-399.194	-200.000	0.007	0.073
-398.179	-162.676	-0.203	0.010
-397.165	800.000	-0.053	-0.216
-396.150	800.000	0.016	-0.044
-395.136	-128.938	-0.028	-0.004
-394.121	-72.513	-0.166	-0.061
-393.106	-68.804	-0.164	-0.063
-392.092	82.881	0.090	0.098
-391.077	-111.956	-0.134	-0.027
-390.063	137.779	0.170	0.223
-389.048	800.000	0.068	-0.284
-388.033	-76.022	-0.339	-0.120
-387.019	-111.072	0.098	0.020
-386.004	64.279	0.175	-0.176
-384.990	24.660	-0.179	-0.148
-383.975	537.328	-0.129	-0.307
-382.960	800.000	0.045	0.134
-381.946	-200.000	0.038	0.221
-380.931	12.920	0.029	-0.023
-379.917	-28.519	-0.113	-0.065
-378.902	445.982	-0.072	0.158
-377.888	318.954	0.070	-0.132
-376.873	-43.454	0.189	-0.095
-375.858	-122.747	0.263	0.042
-374.844	-17.503	-0.120	-0.075
-373.829	384.307	-0.074	0.152
-372.815	7.611	0.214	-0.160
-371.800	-200.000	-0.021	-0.284
-370.785	-66.670	0.146	0.058
-369.771	-200.000	0.004	0.143
-368.756	800.000	0.072	0.206
-367.742	-152.980	-0.124	-0.009
-366.727	-154.718	-0.482	0.032
-365.712	800.000	-0.046	0.137
-364.698	-200.000	-0.012	0.138
-363.683	-200.000	0.010	0.246
-362.669	-88.794	-0.435	0.129
-361.654	-92.155	0.205	-0.058
-360.639	20.605	0.104	0.084
-359.625	-9.060	-0.338	0.226
-358.610	800.000	0.097	-0.292
-357.596	25.693	0.251	-0.208
-356.581	214.553	0.040	0.063
-355.566	45.685	0.060	-0.056
-354.552	-25.599	-0.170	-0.100
-353.537	-86.924	0.082	-0.025
-352.523	53.703	-0.037	0.036
-351.508	67.828	-0.046	-0.047
-350.493	68.522	-0.149	0.153
-349.479	36.333	0.275	0.242
-348.464	-58.206	-0.381	-0.166
-347.450	-36.559	-0.371	0.199
-346.435	-97.399	0.180	0.047
-345.420	-107.361	0.140	-0.031
-344.406	16.362	0.094	0.074
-343.391	13.825	-0.206	0.160
-342.377	-200.000	0.017	-0.149
-341.362	357.023	-0.087	-0.174
-340.348	-200.000	-0.001	-0.232
-339.333	-200.000	0.011	0.112
-338.318	-172.590	-0.012	-0.000
-337.304	-200.000	-0.030	-0.178
-336.289	-99.682	-0.143	0.036
-335.275	360.378	0.088	0.176
-334.260	-121.487	-0.016	0.003
-333.245	621.454	-0.091	0.229
-332.231	433.285	-0.116	0.251
-331.216	199.395	0.149	-0.229
-330.202	23.772	-0.109	0.090
-329.187	-200.000	0.039	-0.170
-328.172	-144.930	-0.133	0.012
-327.158	800.000	0.119	-0.435
-326.143	554.832	-0.101	0.242
-325.129	-129.311	-0.447	-0.062
-324.114	161.427	-0.127	0.177
-323.099	-146.050	-0.216	-0.019
-322.085	260.233	0.151	0.260
-321.070	-200.000	0.057	0.402
-320.056	-58.560	0.244	0.105
-319.041	48.550	0.006	-0.005
-318.026	-95.375	0.089	0.024
-317.012	-121.802	0.128	-0.021
-315.997	-200.000	0.003	0.187
-314.983	-133.195	-0.110	0.014
-313.968	-200.000	0.347	-0.001
-312.953	83.902	-0.178	0.194
-311.939	-200.000	0.002	-0.112
-310.924	205.320	0.128	-0.198
-309.910	800.000	-0.045	0.181
-308.895	-51.737	0.229	0.106
-307.880	-200.000	-0.031	0.247
-306.866	-200.000	-0.051	0.240
-305.851	800.000	0.166	0.464
-304.837	-103.336	0.163	0.038
-303.822	235.505	0.069	0.113
-302.807	-200.000	0.001	-0.086
-301.793	315.610	-0.108	0.204
-300.778	754.279	-0.044	0.118
-299.764	48.735	-0.096	0.089
-298.749	-24.104	0.120	-0.071
-297.735	-85.724	0.223	0.069
-296.720	353.424	-0.072	0.141
-295.705	122.139	-0.126	0.157
-294.691	207.543	-0.055	0.086
-293.676	119.592	-0.019	0.023
-292.662	-99.611	0.239	-0.060
-291.647	132.745	-0.151	0.195
-290.632	367.724	0.055	0.110
-289.618	-162.860	-0.140	-0.007
-288.603	-200.000	0.013	-0.249
-287.589	182.611	-0.214	0.315
-286.574	-10.960	0.327	0.215
-285.559	-74.090	-0.114	-0.041
-284.545	-30.057	-0.150	0.085
-283.530	-11.737	-0.350	0.229
-282.516	-200.000	-0.024	0.158
-281.501	601.284	0.062	0.152
-280.486	18.343	-0.141	0.112
-279.472	-39.211	-0.201	0.105
-278.457	-47.992	0.197	-0.095
-277.443	352.186	-0.133	-0.263
-276.428	-113.227	-0.419	-0.082
-275.413	85.508	-0.250	0.273
-274.399	346.253	0.124	0.242
-273.384	-139.512	-0.100	0.011
-272.370	151.165	0.015	-0.020
-271.355	800.000	-0.044	-0.157
-270.340	-100.226	-0.315	-0.078
-269.326	-65.638	0.266	-0.106
-268.311	-176.277	-0.245	-0.006
-267.297	-200.000	0.004	-0.063
-266.282	102.733	0.128	-0.149
-265.267	-71.430	0.164	0.061
-264.253	-85.711	0.280	0.087
-263.238	683.950	0.064	0.167
-262.224	-103.457	-0.270	-0.063
-261.209	-134.790	-0.224	0.027
-260.195	43.730	0.216	-0.197
-259.180	758.743	0.077	-0.208
-258.165	688.663	0.072	0.187
-257.151	-129.118	0.037	0.005
-256.136	-42.380	0.157	0.080
-255.122	464.962	0.177	-0.395
-254.107	-16.550	-0.287	-0.181
-253.092	-200.000	0.391	0.002
-252.078	-200.000	0.042	-0.185
-251.063	787.680	-0.090	-0.245
-250.049	-200.000	-0.002	-0.205
-249.034	800.000	-0.067	-0.262
-248.019	800.000	0.050	0.154
-247.005	-163.518	0.493	0.023
-245.990	800.000	-0.039	0.141
-244.976	674.237	-0.071	-0.184
-243.961	-122.229	-0.238	0.039
-242.946	-11.677	-0.116	0.076
-241.932	68.936	0.196	0.200
-240.917	-52.333	-0.212	-0.098
-239.903	-172.089	0.388	-0.012
-238.888	109.720	-0.079	0.094
-237.873	-52.680	-0.357	-0.163
-236.859	457.726	0.088	0.194
-235.844	-60.663	-0.107	0.045
-234.830	128.667	0.217	-0.275
-233.815	194.513	-0.180	0.271
-232.800	-59.292	-0.114	0.049
-231.786	157.010	0.107	0.147
-230.771	103.372	-0.083	-0.096
-229.757	-19.145	-0.121	0.075
-228.742	800.000	0.080	0.242
-227.727	282.453	0.111	0.199
-226.713	-200.000	0.037	-0.251
-225.698	12.586	-0.253	0.194
-224.684	-0.940	0.215	-0.151
-223.669	-59.027	-0.074	0.032
-222.655	-91.568	0.181	0.051
-221.640	521.187	-0.160	0.372
-220.625	-82.294	0.201	0.065
-219.611	757.106	0.007	0.019
-218.596	800.000	-0.094	0.332
-217.582	119.255	0.102	-0.126
-216.567	197.403	0.148	0.224
-215.552	82.740	-0.206	0.222
-214.538	-164.231	0.210	-0.010
-213.523	800.000	0.070	0.197
-212.509	590.291	-0.028	-0.069
-211.494	48.994	-0.106	0.099
-210.479	-173.301	0.254	-0.008
-209.465	-200.000	-0.009	-0.057
-208.450	-77.143	0.165	0.057
-207.436	158.323	0.123	0.170
-206.421	-200.000	0.041	0.229
-205.406	-79.070	-0.108	0.037
-204.392	-13.009	0.208	-0.134
-203.377	-40.655	-0.185	-0.095
-202.363	57.031	0.103	-0.100
-201.348	19.407	0.079	-0.063
-200.333	-147.874	0.224	-0.019
-199.319	-140.080	0.289	-0.030
-198.304	-39.319	0.073	0.038
-197.290	-33.926	-0.201	-0.110
-196.275	-200.000	0.013	0.141
-195.260	404.122	0.200	0.418
-194.246	584.936	-0.105	-0.256
-193.231	-80.786	0.119	0.039
-192.217	-66.983	-0.231	-0.091
-191.202	-11.977	0.253	0.164
-190.187	39.974	-0.160	0.142
-189.173	-200.000	-0.050	-0.406
-188.158	133.255	-0.104	-0.133
-187.144	-200.000	-0.021	-0.137
-186.129	85.772	0.334	-0.364
-185.114	-139.687	0.176	0.019
-184.100	800.000	0.091	0.325
-183.085	-72.119	0.215	0.079
-182.071	128.048	0.120	-0.151
-181.056	-180.777	0.185	0.004
-180.042	-200.000	-0.025	0.270
-179.027	-137.881	0.521	-0.058
-178.012	800.000	-0.079	-0.259
-176.998	7.183	0.181	-0.134
-175.983	-96.844	-0.312	-0.081
-174.969	-21.300	-0.339	0.206
-173.954	-191.327	0.480	-0.005
-172.939	800.000	0.086	-0.283
-171.925	-79.614	-0.236	-0.079
-170.910	315.739	0.104	0.194
-169.896	30.925	-0.173	-0.147
-168.881	-70.807	0.413	0.154
-167.866	-23.964	0.184	0.109
-166.852	-200.000	0.014	0.121
-165.837	41.069	0.273	-0.244
-164.823	-31.696	0.136	-0.075
-163.808	29.259	-0.135	0.114
-162.793	-200.000	-0.018	-0.191
-161.779	570.776	-0.046	0.111
-160.764	-134.394	-0.296	-0.036
-159.750	-153.806	0.115	-0.008
-158.735	-32.308	-0.196	-0.109
-157.720	149.871	0.097	0.130
-156.706	319.971	0.161	0.302
-155.691	-66.338	-0.359	0.142
-154.677	287.502	0.093	-0.167
-153.662	-28.051	0.401	-0.230
-152.647	325.435	-0.077	0.147
-151.633	120.970	-0.098	0.121
-150.618	-80.260	-0.154	0.051
-149.604	138.447	0.078	-0.101
-148.589	130.319	-0.187	-0.237
-147.574	195.503	0.134	0.201
-146.560	-158.754	-0.139	-0.008
-145.545	-200.000	0.256	0.000
-144.531	-136.616	0.135	-0.015
-143.516	-80.841	-0.175	0.058
-142.502	-200.000	0.049	0.237
-141.487	-32.194	-0.291	-0.161
-140.472	-121.079	0.257	-0.043
-139.458	-200.000	-0.005	-0.070
-138.443	473.752	-0.114	0.254
-137.429	-127.839	-0.188	0.027
-136.414	263.626	0.118	-0.203
-135.399	-200.000	-0.013	0.119
-134.385	109.174	0.158	0.187
-133.370	-43.876	0.436	-0.217
-132.356	-200.000	-0.119	-0.695
-131.341	-39.164	0.242	0.126
-130.326	-82.067	0.119	-0.038
-129.312	-81.785	-0.070	-0.023
-128.297	26.367	-0.105	0.087
-127.283	-200.000	0.043	0.239
-126.268	-87.320	0.219	-0.066
-125.253	800.000	-0.086	-0.245
-124.239	800.000	0.074	-0.314
-123.224	-142.820	-0.286	0.028
-122.210	-169.501	-0.370	-0.013
