DTS Sentinel unit serial number:	SN413079Multiplexer serial number:	ORYXHardware model number:	OX4-SRSoftware version number:	ORYX F/W v4.00 Oryx Data Collector v3.7.2.0data status	okinstallation	princeton_trtdifferential loss correction	single-endedforward channel	channel 2reverse channel	N/Adate	2019/09/17time	22:07:35forward acquisition time	60.00reverse acquisition time	0.00gamma	496.2192k internal	0.2343k external	0.2343temperature offset calibration	0.9981default loss term (dB/km)	0.3790temperature slope calibration	1.0000multiplexer offset coefficient	1.0000multiplexer slope coefficient	1.0000fibre end	0.00T internal ref (°C)	25.87T ext. ref 1 (°C)	0.17T ext. ref 2 (°C)	18.80length (m)	temperature (°C)	Stokes	anti-Stokes-747.200	-90.835	0.104	0.030
-746.185	800.000	-0.140	0.392
-745.171	58.105	0.132	0.130
-744.156	95.392	0.219	-0.250
-743.142	235.671	0.043	0.072
-742.127	-72.593	-0.349	0.129
-741.112	-123.076	0.017	0.003
-740.098	-170.338	0.421	-0.015
-739.083	129.191	-0.171	0.218
-738.069	-59.037	-0.094	0.041
-737.054	-200.000	0.016	0.497
-736.039	135.548	-0.084	0.109
-735.025	170.647	0.180	0.258
-734.010	174.864	-0.258	-0.374
-732.996	800.000	-0.079	-0.228
-731.981	383.550	-0.016	-0.032
-730.966	46.805	0.182	-0.169
-729.952	-137.887	-0.227	0.025
-728.937	-200.000	-0.025	0.396
-727.923	-7.911	0.087	0.059
-726.908	-41.990	-0.352	-0.180
-725.894	-111.088	-0.377	0.077
-724.879	21.505	-0.178	0.145
-723.864	400.441	-0.175	-0.367
-722.850	800.000	-0.057	-0.200
-721.835	82.117	-0.189	-0.205
-720.821	206.561	-0.183	-0.285
-719.806	237.792	0.116	-0.192
-718.791	447.022	-0.067	-0.148
-717.777	41.890	-0.202	-0.183
-716.762	-200.000	0.008	0.057
-715.748	-66.129	0.087	0.035
-714.733	-85.115	0.238	-0.075
-713.718	-200.000	0.029	0.326
-712.704	800.000	-0.039	-0.125
-711.689	800.000	0.089	-0.328
-710.675	-87.548	-0.391	-0.118
-709.660	800.000	0.098	-0.370
-708.645	170.978	-0.103	-0.147
-707.631	-28.169	0.154	-0.089
-706.616	16.812	0.094	-0.074
-705.602	-8.842	-0.269	0.180
-704.587	658.502	0.068	-0.174
-703.572	19.268	-0.201	-0.161
-702.558	800.000	0.081	-0.286
-701.543	-200.000	-0.330	-0.001
-700.529	-99.400	-0.135	0.034
-699.514	95.882	0.133	-0.152
-698.499	264.977	0.109	0.190
-697.485	6.897	0.238	-0.177
-696.470	-200.000	0.028	-0.178
-695.456	-200.000	-0.022	-0.145
-694.441	-159.951	-0.057	-0.003
-693.426	-40.846	0.240	0.124
-692.412	51.466	-0.056	0.053
-691.397	-142.992	-0.201	0.019
-690.383	-1.712	-0.167	0.117
-689.368	-200.000	-0.002	-0.074
-688.354	-10.995	0.089	0.059
-687.339	126.193	0.113	-0.143
-686.324	117.303	-0.177	0.217
-685.310	-185.142	-0.183	0.003
-684.295	800.000	-0.088	-0.321
-683.281	-90.838	0.028	0.008
-682.266	-155.230	-0.428	0.028
-681.251	-15.198	0.161	0.103
-680.237	192.437	-0.137	-0.207
-679.222	22.109	0.281	0.229
-678.208	800.000	0.046	-0.147
-677.193	-75.254	0.181	-0.064
-676.178	420.638	-0.096	0.206
-675.164	-200.000	-0.001	0.238
-674.149	-112.875	0.178	-0.035
-673.135	150.623	-0.082	-0.111
-672.120	430.560	-0.023	-0.049
-671.105	-200.000	-0.040	-0.218
-670.091	11.825	0.104	-0.080
-669.076	-200.000	-0.039	-0.260
-668.062	-44.363	0.099	0.049
-667.047	-105.886	-0.342	-0.077
-666.032	-200.000	-0.047	-0.260
-665.018	-105.096	-0.135	-0.031
-664.003	-6.337	0.080	0.054
-662.989	-200.000	0.044	0.226
-661.974	800.000	-0.039	0.131
-660.959	-200.000	-0.028	-0.151
-659.945	-200.000	-0.036	-0.163
-658.930	527.051	0.042	-0.099
-657.916	-200.000	0.014	0.131
-656.901	-26.249	0.291	-0.170
-655.886	-200.000	-0.001	0.077
-654.872	80.830	0.021	-0.023
-653.857	563.977	-0.212	0.512
-652.843	80.089	0.318	0.341
-651.828	20.715	-0.143	0.115
-650.814	-200.000	-0.033	-0.272
-649.799	-23.766	0.354	0.212
-648.784	553.839	0.083	0.200
-647.770	-92.595	-0.435	0.122
-646.755	30.216	0.154	0.131
-645.741	-88.934	-0.204	-0.060
-644.726	271.382	-0.052	-0.091
-643.711	-200.000	-0.036	-0.220
-642.697	149.928	0.182	-0.247
-641.682	666.123	-0.089	0.229
-640.668	800.000	-0.027	-0.089
-639.653	-55.722	-0.025	0.011
-638.638	-44.040	0.282	0.141
-637.624	-200.000	0.007	0.044
-636.609	63.563	-0.289	-0.290
-635.595	-200.000	-0.036	-0.336
-634.580	255.642	-0.042	-0.072
-633.565	-200.000	-0.001	0.231
-632.551	37.078	0.287	-0.254
-631.536	-200.000	0.014	0.254
-630.522	91.862	-0.193	0.216
-629.507	154.149	0.130	-0.177
-628.492	-144.866	0.238	0.022
-627.478	-200.000	0.014	-0.271
-626.463	43.686	0.164	-0.149
-625.449	558.664	0.174	-0.420
-624.434	29.335	0.063	-0.053
-623.419	-85.115	0.145	-0.045
-622.405	80.286	-0.159	-0.170
-621.390	-200.000	-0.020	0.104
-620.376	-145.331	0.328	-0.029
-619.361	242.594	-0.024	-0.040
-618.346	-200.000	0.006	-0.222
-617.332	366.953	-0.108	-0.217
-616.317	-200.000	0.014	-0.106
-615.303	33.261	0.015	0.013
-614.288	38.714	0.127	-0.113
-613.273	30.752	0.273	0.233
-612.259	-24.135	-0.213	-0.127
-611.244	800.000	0.052	0.161
-610.230	184.642	0.163	0.240
-609.215	-200.000	-0.258	-0.001
-608.201	6.600	-0.113	0.084
-607.186	-23.892	0.064	-0.038
-606.171	-87.779	-0.289	-0.087
-605.157	365.712	0.199	-0.400
-604.142	-200.000	0.022	-0.101
-603.128	166.498	0.119	0.167
-602.113	800.000	-0.003	-0.012
-601.098	-200.000	0.036	-0.222
-600.084	-200.000	-0.012	0.263
-599.069	-124.855	-0.148	-0.023
-598.055	-200.000	-0.008	-0.120
-597.040	-200.000	-0.004	0.157
-596.025	284.360	0.128	-0.229
-595.011	-200.000	-0.001	0.020
-593.996	34.513	0.181	-0.157
-592.982	-2.105	0.098	0.068
-591.967	800.000	-0.103	-0.366
-590.952	57.503	-0.146	0.142
-589.938	193.370	-0.051	0.077
-588.923	34.632	0.154	0.134
-587.909	-76.961	-0.250	-0.087
-586.894	312.561	-0.069	0.130
-585.879	-114.872	0.128	0.024
-584.865	258.585	-0.012	-0.021
-583.850	-200.000	0.030	-0.218
-582.836	-52.055	0.282	-0.130
-581.821	-139.588	-0.262	-0.028
-580.806	-136.826	-0.082	0.009
-579.792	70.348	0.423	-0.435
-578.777	-41.210	-0.219	0.112
-577.763	135.626	-0.217	0.281
-576.748	800.000	-0.051	0.140
-575.733	232.650	0.066	-0.108
-574.719	-200.000	-0.054	-0.250
-573.704	-111.931	-0.240	-0.048
-572.690	444.237	0.135	-0.294
-571.675	-200.000	-0.032	0.542
-570.661	-169.732	-0.227	-0.008
-569.646	41.309	0.089	0.080
-568.631	800.000	0.096	0.269
-567.617	-200.000	0.007	0.041
-566.602	55.129	0.133	-0.127
-565.588	-200.000	-0.021	0.140
-564.573	24.514	-0.058	-0.047
-563.558	101.080	-0.187	0.217
-562.544	-145.000	-0.088	0.008
-561.529	800.000	0.076	-0.228
-560.515	-69.001	-0.305	0.117
-559.500	314.994	-0.182	0.341
-558.485	-86.611	0.153	-0.047
-557.471	383.342	0.073	-0.149
-556.456	-180.813	0.162	-0.003
-555.442	34.777	0.200	-0.174
-554.427	-200.000	-0.001	0.022
-553.412	-15.437	-0.416	0.264
-552.398	-200.000	0.030	-0.137
-551.383	75.215	-0.219	-0.229
-550.369	-116.392	-0.237	-0.043
-549.354	-68.716	-0.164	-0.063
-548.339	800.000	-0.092	0.367
-547.325	699.755	0.083	-0.217
-546.310	-200.000	-0.028	-0.176
-545.296	-200.000	0.012	0.108
-544.281	-200.000	0.017	0.087
-543.266	-27.236	0.330	0.191
-542.252	391.513	-0.117	-0.242
-541.237	112.541	-0.112	0.135
-540.223	-106.145	0.389	-0.087
-539.208	-200.000	0.055	0.300
-538.193	51.049	-0.171	0.161
-537.179	3.511	0.146	-0.105
-536.164	800.000	-0.052	0.189
-535.150	-124.687	0.295	-0.045
-534.135	96.402	0.066	0.076
-533.121	145.811	-0.057	-0.076
-532.106	-134.549	0.236	-0.029
-531.091	800.000	-0.051	0.188
-530.077	800.000	0.035	-0.099
-529.062	316.404	-0.088	0.165
-528.048	-44.833	0.090	0.044
-527.033	53.128	-0.144	0.137
-526.018	-95.179	0.198	-0.053
-525.004	29.990	-0.096	-0.081
-523.989	800.000	-0.139	-0.403
-522.975	-126.109	0.122	0.018
-521.960	-200.000	-0.036	-0.265
-520.945	323.776	-0.070	0.133
-519.931	448.911	-0.114	0.249
-518.916	302.281	-0.138	0.253
-517.902	-200.000	-0.014	-0.123
-516.887	127.808	-0.235	0.297
-515.872	134.239	0.116	-0.149
-514.858	292.279	-0.128	0.231
-513.843	-22.819	-0.378	-0.226
-512.829	530.731	0.178	-0.417
-511.814	-102.926	-0.036	-0.008
-510.799	460.959	-0.136	0.301
-509.785	130.814	-0.119	-0.151
-508.770	90.246	0.089	0.098
-507.756	800.000	0.080	-0.297
-506.741	24.886	-0.213	-0.175
-505.726	797.991	-0.089	-0.242
-504.712	629.392	-0.059	-0.147
-503.697	-107.083	0.369	-0.081
-502.683	46.528	-0.226	0.208
-501.668	-24.365	-0.235	0.139
-500.653	51.197	-0.112	-0.105
-499.639	-200.000	-0.023	-0.264
-498.624	-29.932	0.074	0.042
-497.610	321.567	0.096	-0.182
-496.595	145.155	-0.156	-0.206
-495.581	-79.029	-0.312	-0.105
-494.566	517.636	0.054	0.126
-493.551	201.415	-0.167	-0.255
-492.537	-200.000	0.053	0.297
-491.522	-84.609	-0.250	0.078
-490.508	-200.000	0.029	-0.150
-489.493	-11.693	0.098	0.064
-488.478	-35.362	-0.086	-0.047
-487.464	283.412	0.110	-0.196
-486.449	-200.000	-0.007	-0.095
-485.435	320.698	-0.091	0.170
-484.420	800.000	0.109	0.440
-483.405	66.843	0.198	-0.200
-482.391	-138.909	-0.218	0.023
-481.376	-157.161	0.180	-0.011
-480.362	-200.000	0.015	-0.226
-479.347	-34.725	-0.229	0.124
-478.332	93.279	-0.039	-0.043
-477.318	-132.493	0.070	-0.009
-476.303	619.795	0.067	0.168
-475.289	-59.736	0.222	0.094
-474.274	-185.843	0.163	0.002
-473.259	-71.067	-0.254	0.095
-472.245	54.757	-0.112	-0.107
-471.230	181.606	-0.060	-0.087
-470.216	270.765	0.121	-0.210
-469.201	233.795	0.086	-0.141
-468.186	-124.190	-0.357	0.055
-467.172	-200.000	-0.037	0.185
-466.157	-200.000	0.074	-0.350
-465.143	74.849	0.278	0.289
-464.128	37.731	-0.382	-0.336
-463.113	800.000	0.098	0.283
-462.099	-118.958	0.276	0.048
-461.084	-189.150	0.364	0.004
-460.070	800.000	-0.025	0.086
-459.055	-200.000	-0.023	0.450
-458.040	-66.381	0.156	0.062
-457.026	38.331	0.090	-0.080
-456.011	384.333	0.020	-0.040
-454.997	-200.000	0.020	-0.339
-453.982	-136.379	-0.148	-0.017
-452.968	-142.761	-0.332	-0.032
-451.953	-126.253	0.012	-0.002
-450.938	800.000	0.097	-0.287
-449.924	368.433	0.145	-0.289
-448.909	-200.000	0.004	-0.087
-447.895	800.000	0.090	0.259
-446.880	421.940	0.049	-0.105
-445.865	-41.313	0.108	0.055
-444.851	-15.405	-0.260	-0.164
-443.836	-89.563	0.060	0.018
-442.822	165.747	-0.127	0.178
-441.807	-120.869	0.652	0.109
-440.792	352.948	-0.235	0.462
-439.778	-27.526	0.449	0.258
-438.763	11.948	-0.171	0.130
-437.749	21.648	0.261	0.210
-436.734	-35.022	-0.120	0.065
-435.719	-47.655	0.131	0.063
-434.705	-200.000	0.009	0.340
-433.690	-101.878	-0.113	-0.027
-432.676	338.750	-0.051	0.098
-431.661	-42.017	-0.143	-0.073
-430.646	-200.000	-0.019	-0.170
-429.632	800.000	-0.103	0.293
-428.617	-33.810	-0.359	-0.196
-427.603	135.569	0.024	0.031
-426.588	458.058	-0.081	-0.179
-425.573	153.259	-0.004	0.006
-424.559	-35.237	0.179	-0.096
-423.544	58.691	0.137	0.133
-422.530	800.000	0.015	0.053
-421.515	-121.686	0.065	-0.011
-420.500	21.341	0.115	0.093
-419.486	-200.000	0.050	-0.234
-418.471	712.951	-0.057	-0.148
-417.457	-54.853	-0.206	0.092
-416.442	-75.955	0.145	-0.051
-415.428	-128.113	-0.091	0.013
-414.413	-68.237	0.438	-0.168
-413.398	-200.000	-0.074	0.529
-412.384	-200.000	-0.071	0.413
-411.369	-141.582	-0.148	0.015
-410.355	348.270	0.132	-0.258
-409.340	608.515	-0.232	0.572
-408.325	800.000	0.054	0.185
-407.311	-147.402	-0.049	-0.004
-406.296	-144.800	-0.141	0.013
-405.282	97.644	-0.103	-0.117
-404.267	-63.793	0.403	0.163
-403.252	241.335	0.131	-0.215
-402.238	25.887	-0.051	-0.042
-401.223	-200.000	0.026	-0.407
-400.209	22.257	0.272	-0.219
-399.194	-200.000	-0.020	-0.173
-398.179	-77.316	-0.342	-0.118
-397.165	-200.000	-0.003	-0.073
-396.150	-200.000	-0.000	-0.099
-395.136	275.576	0.070	-0.122
-394.121	-200.000	-0.003	0.113
-393.106	50.638	0.206	0.192
-392.092	14.742	-0.264	-0.204
-391.077	800.000	-0.115	-0.387
-390.063	-91.465	-0.065	-0.018
-389.048	49.299	-0.113	-0.105
-388.033	55.050	0.093	-0.089
-387.019	-200.000	-0.006	0.092
-386.004	-50.627	0.298	-0.139
-384.990	93.491	-0.110	-0.123
-383.975	-61.959	0.044	0.018
-382.960	800.000	-0.048	-0.200
-381.946	16.448	-0.088	0.069
-380.931	-200.000	-0.035	0.238
-379.917	-92.559	-0.237	-0.066
-378.902	-7.408	0.081	-0.054
-377.888	-200.000	0.017	0.142
-376.873	-161.763	-0.133	0.007
-375.858	-134.864	-0.186	-0.022
-374.844	-50.060	0.156	-0.073
-373.829	-200.000	-0.008	0.035
-372.815	634.183	0.021	-0.053
-371.800	-72.264	-0.192	0.070
-370.785	-74.450	0.287	-0.102
-369.771	-123.098	-0.200	0.032
-368.756	143.590	-0.087	-0.114
-367.742	-199.410	0.257	0.001
-366.727	-200.000	0.030	0.206
-365.712	800.000	0.113	-0.319
-364.698	-117.466	-0.150	-0.027
-363.683	-200.000	0.012	-0.085
-362.669	-15.139	-0.141	0.089
-361.654	177.330	-0.226	0.325
-360.639	72.493	0.083	-0.086
-359.625	218.206	0.024	-0.038
-358.610	-32.935	-0.046	-0.025
-357.596	-97.888	0.213	0.054
-356.581	38.840	0.253	0.223
-355.566	480.818	0.025	0.056
-354.552	-10.575	-0.179	0.117
-353.537	-108.319	0.131	0.028
-352.523	150.776	0.288	0.386
-351.508	-200.000	0.011	-0.317
-350.493	-131.253	0.190	0.025
-349.479	421.750	-0.063	0.133
-348.464	-65.747	-0.209	-0.083
-347.450	-200.000	-0.031	0.151
-346.435	-97.994	0.116	0.030
-345.420	-200.000	-0.001	-0.279
-344.406	-200.000	-0.009	0.100
-343.391	-3.187	0.164	-0.113
-342.377	-200.000	-0.018	-0.099
-341.362	-124.198	0.189	0.029
-340.348	-200.000	0.012	-0.175
-339.333	-200.000	0.070	-0.407
-338.318	-47.110	-0.083	-0.040
-337.304	-64.770	0.237	0.094
-336.289	-154.140	0.151	-0.010
-335.275	-92.671	-0.224	-0.062
-334.260	-88.196	-0.370	0.109
-333.245	-95.879	0.033	-0.009
-332.231	-200.000	-0.004	0.025
-331.216	800.000	0.039	0.165
-330.202	45.349	0.161	0.146
-329.187	-200.000	-0.005	0.186
-328.172	631.100	-0.120	-0.299
-327.158	-157.663	0.285	-0.017
-326.143	-86.764	-0.286	0.086
-325.129	105.748	0.083	0.096
-324.114	-200.000	0.013	-0.097
-323.099	198.594	0.062	0.093
-322.085	-76.483	0.239	0.083
-321.070	800.000	0.062	0.259
-320.056	557.581	-0.074	-0.176
-319.041	340.404	-0.086	-0.165
-318.026	800.000	0.146	0.421
-317.012	-200.000	-0.005	0.066
-315.997	-200.000	-0.015	-0.303
-314.983	800.000	-0.132	-0.378
-313.968	-200.000	-0.053	0.284
-312.953	317.100	-0.028	-0.052
-311.939	-82.319	0.115	-0.037
-310.924	-44.881	-0.206	-0.101
-309.910	240.879	-0.181	0.298
-308.895	-88.939	-0.107	-0.031
-307.880	42.499	-0.249	-0.223
-306.866	-4.711	0.275	-0.186
-305.851	77.582	-0.107	-0.112
-304.837	800.000	0.073	-0.290
-303.822	6.698	0.343	0.251
-302.807	-119.070	-0.175	-0.030
-301.793	110.080	-0.165	0.195
-300.778	2.169	0.154	-0.109
-299.764	-114.671	-0.061	-0.012
-298.749	800.000	-0.027	0.077
-297.735	418.549	-0.125	0.263
-296.720	-47.510	0.081	-0.039
-295.705	91.214	0.046	-0.050
-294.691	-118.695	-0.192	-0.033
-293.676	-178.631	0.165	0.004
-292.662	-68.238	0.035	-0.014
-291.647	800.000	0.034	-0.112
-290.632	181.982	-0.086	0.124
-289.618	-81.429	-0.140	0.045
-288.603	87.136	0.082	-0.089
-287.589	449.309	-0.095	-0.207
-286.574	96.076	0.157	0.176
-285.559	64.256	-0.362	0.358
-284.545	-81.913	-0.324	-0.104
-283.530	-200.000	0.056	-0.387
-282.516	800.000	0.047	-0.145
-281.501	-80.922	0.611	-0.199
-280.486	63.172	-0.141	-0.139
-279.472	15.410	-0.264	-0.203
-278.457	69.001	-0.187	-0.189
-277.443	123.185	0.081	-0.099
-276.428	21.016	-0.125	-0.100
-275.413	-38.920	-0.330	0.171
-274.399	-113.153	0.348	0.067
-273.384	99.849	-0.162	-0.185
-272.370	-7.620	0.169	0.113
-271.355	254.698	0.132	-0.221
-270.340	800.000	-0.054	0.211
-269.326	663.874	0.046	0.118
-268.311	65.800	-0.197	0.196
-267.297	72.782	-0.100	-0.103
-266.282	-46.680	-0.447	0.215
-265.267	-105.082	0.218	0.049
-264.253	38.614	-0.070	0.061
-263.238	-67.763	0.170	-0.065
-262.224	-123.960	-0.189	0.029
-261.209	-200.000	0.018	0.081
-260.195	-200.000	-0.013	0.150
-259.180	-200.000	-0.002	-0.038
-258.165	717.325	-0.118	-0.307
-257.151	-200.000	0.043	-0.210
-256.136	749.862	0.069	-0.183
-255.122	-60.094	-0.267	0.112
-254.107	64.845	-0.176	0.175
-253.092	42.414	-0.198	-0.177
-252.078	-200.000	0.003	0.144
-251.063	-200.000	-0.018	-0.151
-250.049	-69.922	0.138	0.052
-249.034	27.995	-0.302	0.250
-248.019	402.598	-0.096	-0.198
-247.005	-200.000	-0.018	-0.244
-245.990	-58.396	-0.180	-0.077
-244.976	79.754	0.194	0.205
-243.961	-7.202	-0.139	0.093
-242.946	-120.676	0.205	-0.034
-241.932	-200.000	0.005	0.134
-240.917	-175.707	-0.461	0.012
-239.903	-200.000	0.019	-0.167
-238.888	-127.047	0.345	-0.050
-237.873	-200.000	0.022	0.126
-236.859	137.325	0.182	0.234
-235.844	-80.888	-0.295	0.096
-234.830	-101.767	-0.024	-0.006
-233.815	-63.272	0.092	-0.037
-232.800	-75.543	0.037	0.013
-231.786	-200.000	0.006	-0.113
-230.771	54.199	0.083	-0.078
-229.757	-117.529	-0.070	-0.012
-228.742	76.273	0.039	0.041
-227.727	139.270	0.066	-0.085
-226.713	453.194	-0.131	0.284
-225.698	32.919	0.221	-0.188
-224.684	-200.000	0.006	-0.229
-223.669	8.066	0.026	-0.019
-222.655	-140.247	-0.225	-0.023
-221.640	54.652	0.302	0.286
-220.625	40.603	-0.119	-0.106
-219.611	3.907	0.136	-0.098
-218.596	70.501	0.191	0.194
-217.582	-200.000	-0.072	0.313
-216.567	274.142	0.209	0.363
-215.552	12.020	-0.022	0.017
-214.538	-133.211	0.339	-0.042
-213.523	-200.000	-0.011	0.188
-212.509	70.722	-0.168	0.170
-211.494	112.034	0.242	0.287
-210.479	-62.473	-0.163	-0.066
-209.465	-200.000	-0.103	0.486
-208.450	-44.068	-0.222	-0.109
-207.436	-200.000	0.031	-0.181
-206.421	-116.133	-0.222	-0.040
-205.406	-200.000	0.046	0.258
-204.392	54.771	0.121	-0.114
-203.377	198.525	0.124	0.186
-202.363	800.000	0.013	-0.053
-201.348	2.973	-0.219	-0.156
-200.333	-200.000	-0.025	0.203
-199.319	0.888	0.186	0.131
-198.304	-200.000	0.027	0.147
-197.290	-35.905	-0.191	-0.101
-196.275	-200.000	0.006	-0.231
-195.260	200.344	-0.204	0.307
-194.246	321.606	0.120	-0.224
-193.231	-91.118	0.096	-0.027
-192.217	3.287	-0.056	0.040
-191.202	19.439	-0.096	0.076
-190.187	145.257	0.202	-0.265
-189.173	800.000	-0.070	0.208
-188.158	78.056	0.281	0.294
-187.144	-200.000	0.004	0.082
-186.129	121.339	-0.136	0.166
-185.114	-28.121	0.092	-0.052
-184.100	-6.536	-0.134	-0.089
-183.085	68.964	-0.231	0.232
-182.071	-200.000	0.015	-0.237
-181.056	111.002	-0.179	-0.211
-180.042	190.019	0.126	-0.185
-179.027	-124.111	0.383	0.059
-178.012	68.557	-0.222	-0.223
-176.998	-200.000	-0.028	-0.151
-175.983	-200.000	-0.020	0.191
-174.969	-69.895	0.414	0.155
-173.954	800.000	0.062	0.194
-172.939	-200.000	0.003	0.125
-171.925	332.058	-0.060	0.112
-170.910	83.593	0.130	-0.139
-169.896	155.812	0.061	0.082
-168.881	-200.000	0.024	0.364
-167.866	135.427	0.207	-0.263
-166.852	74.472	0.021	0.021
-165.837	-39.960	0.094	0.048
-164.823	-50.644	0.307	0.142
-163.808	489.338	0.131	0.293
-162.793	800.000	0.095	0.369
-161.779	86.331	0.113	-0.122
-160.764	-200.000	-0.020	0.096
-159.750	-7.804	-0.050	0.033
-158.735	29.589	0.243	0.202
-157.720	-12.817	0.081	-0.052
-156.706	729.533	-0.026	-0.068
-155.691	-19.386	-0.086	-0.052
-154.677	-80.123	-0.057	0.019
-153.662	103.038	0.058	-0.066
-152.647	31.875	-0.082	-0.069
-151.633	-200.000	-0.001	-0.022
-150.618	-200.000	0.039	0.178
-149.604	474.231	-0.033	-0.073
-148.589	-70.134	-0.439	0.163
-147.574	323.105	-0.151	0.281
-146.560	-106.410	0.024	-0.005
-145.545	182.708	0.177	-0.255
-144.531	-78.610	0.233	0.078
-143.516	461.639	-0.061	-0.133
-142.502	-98.673	-0.247	0.062
-141.487	-94.762	0.157	0.042
-140.472	54.572	0.264	-0.248
-139.458	-200.000	-0.086	0.420
-138.443	800.000	-0.055	0.223
-137.429	12.474	-0.047	0.035
-136.414	239.575	-0.067	0.108
-135.399	668.596	-0.037	-0.092
-134.385	-30.870	0.071	0.039
-133.370	-88.290	0.221	-0.065
-132.356	800.000	0.021	-0.058
-131.341	3.287	-0.169	0.120
-130.326	800.000	0.028	-0.077
-129.312	197.149	0.109	0.162
-128.297	-18.884	-0.233	-0.142
-127.283	131.348	-0.124	0.156
-126.268	-200.000	0.060	-0.355
-125.253	-200.000	0.010	-0.071
-124.239	-78.130	0.329	-0.111
-123.224	212.542	0.090	-0.139
-122.210	-200.000	0.054	0.301
