DTS Sentinel unit serial number:	SN413079Multiplexer serial number:	ORYXHardware model number:	OX4-SRSoftware version number:	ORYX F/W v4.00 Oryx Data Collector v3.7.2.0data status	okinstallation	princeton_trtdifferential loss correction	single-endedforward channel	channel 2reverse channel	N/Adate	2019/09/18time	07:31:35forward acquisition time	60.00reverse acquisition time	0.00gamma	496.2192k internal	0.2349k external	0.2349temperature offset calibration	0.9981default loss term (dB/km)	0.3790temperature slope calibration	1.0000multiplexer offset coefficient	1.0000multiplexer slope coefficient	1.0000fibre end	0.00T internal ref (°C)	23.19T ext. ref 1 (°C)	0.19T ext. ref 2 (°C)	17.56length (m)	temperature (°C)	Stokes	anti-Stokes-747.200	-108.260	0.285	0.062
-746.185	-65.649	0.162	-0.065
-745.171	60.543	0.059	0.058
-744.156	-44.483	0.137	0.068
-743.142	71.850	-0.186	-0.193
-742.127	9.985	-0.189	0.143
-741.112	-137.266	0.232	-0.026
-740.098	74.581	-0.093	0.098
-739.083	-48.516	0.359	-0.172
-738.069	498.623	-0.191	0.439
-737.054	-18.681	-0.207	0.129
-736.039	-87.469	-0.129	0.039
-735.025	369.109	0.021	-0.043
-734.010	-200.000	-0.015	-0.077
-732.996	10.082	-0.429	0.325
-731.981	-70.375	-0.225	0.085
-730.966	285.026	-0.258	0.464
-729.952	-200.000	0.027	-0.270
-728.937	182.502	0.024	0.035
-727.923	75.608	-0.336	0.354
-726.908	-200.000	0.043	-0.379
-725.894	121.853	-0.110	0.138
-724.879	-200.000	0.057	-0.296
-723.864	-93.772	-0.258	0.071
-722.850	255.897	-0.082	0.140
-721.835	-200.000	0.022	-0.392
-720.821	7.112	-0.180	0.134
-719.806	-124.430	-0.133	0.021
-718.791	800.000	0.016	-0.052
-717.777	-200.000	0.028	-0.399
-716.762	-200.000	-0.065	-0.513
-715.748	366.012	-0.070	-0.142
-714.733	-200.000	0.011	-0.241
-713.718	42.728	-0.261	-0.237
-712.704	-70.203	0.153	0.058
-711.689	704.621	-0.125	0.329
-710.675	-200.000	0.029	0.196
-709.660	-200.000	-0.060	-0.442
-708.645	800.000	-0.110	0.344
-707.631	423.253	-0.145	-0.310
-706.616	522.524	-0.056	0.132
-705.602	57.912	-0.093	-0.091
-704.587	-200.000	0.053	0.257
-703.572	800.000	-0.050	-0.145
-702.558	-48.632	0.405	-0.194
-701.543	0.350	0.039	0.027
-700.529	-190.627	-0.363	0.004
-699.514	237.802	0.224	0.370
-698.499	51.033	0.112	0.106
-697.485	283.101	-0.036	-0.064
-696.470	-200.000	0.004	-0.198
-695.456	-16.534	-0.203	0.128
-694.441	-89.274	-0.427	0.126
-693.426	-200.000	0.007	-0.210
-692.412	-160.039	-0.311	-0.017
-691.397	123.715	-0.225	0.282
-690.383	747.666	0.078	-0.208
-689.368	-114.239	-0.370	-0.071
-688.354	-200.000	0.006	0.392
-687.339	800.000	0.075	-0.260
-686.324	313.138	0.013	-0.024
-685.310	-200.000	-0.009	0.102
-684.295	545.661	-0.081	0.193
-683.281	-156.890	0.187	0.011
-682.266	33.474	-0.112	0.097
-681.251	85.380	-0.026	0.029
-680.237	187.410	0.282	-0.419
-679.222	800.000	-0.035	-0.102
-678.208	25.417	-0.230	-0.191
-677.193	-22.663	0.113	0.068
-676.178	800.000	-0.112	-0.313
-675.164	-200.000	0.042	-0.276
-674.149	548.149	-0.070	0.166
-673.135	320.484	0.164	-0.310
-672.120	152.432	0.157	0.213
-671.105	-108.972	0.251	0.053
-670.091	-200.000	0.004	-0.295
-669.076	31.864	-0.151	-0.129
-668.062	69.801	0.216	0.222
-667.047	-6.577	0.255	0.173
-666.032	92.027	0.142	0.159
-665.018	542.741	-0.105	-0.250
-664.003	146.759	-0.109	0.145
-662.989	-7.338	-0.049	-0.033
-661.974	800.000	0.078	-0.230
-660.959	-39.751	-0.159	-0.083
-659.945	-71.535	-0.308	0.115
-658.930	-139.533	-0.142	-0.015
-657.916	-156.945	-0.149	0.009
-656.901	60.106	0.270	-0.266
-655.886	408.626	-0.213	0.448
-654.872	-200.000	-0.035	-0.213
-653.857	-200.000	-0.046	-0.208
-652.843	150.269	0.165	0.223
-651.828	-136.962	0.392	-0.045
-650.814	-16.291	-0.252	-0.159
-649.799	-50.784	-0.049	0.023
-648.784	-14.992	-0.240	-0.153
-647.770	-155.592	-0.176	-0.011
-646.755	205.231	0.153	-0.236
-645.741	-119.483	0.178	-0.031
-644.726	-79.197	-0.340	-0.115
-643.711	-41.552	0.277	0.142
-642.697	41.436	0.206	-0.185
-641.682	-129.455	-0.369	0.051
-640.668	-43.621	-0.167	0.084
-639.653	285.949	-0.083	-0.149
-638.638	-36.726	0.048	-0.026
-637.624	10.863	0.218	0.166
-636.609	-200.000	0.002	0.218
-635.595	93.339	-0.131	0.148
-634.580	800.000	0.008	0.026
-633.565	-173.344	-0.269	-0.008
-632.551	-133.519	-0.386	0.048
-631.536	800.000	0.120	-0.337
-630.522	231.297	0.033	-0.053
-629.507	-120.306	0.198	0.034
-628.492	-128.820	-0.134	-0.019
-627.478	-3.771	0.149	-0.103
-626.463	118.560	-0.112	-0.137
-625.449	143.908	-0.170	0.225
-624.434	194.128	-0.064	0.096
-623.419	-14.140	-0.278	0.178
-622.405	-140.641	0.257	-0.027
-621.390	800.000	0.131	-0.372
-620.376	-25.335	0.245	0.144
-619.361	27.135	-0.094	-0.078
-618.346	11.375	-0.247	-0.188
-617.332	-200.000	0.022	-0.248
-616.317	-79.784	0.233	0.078
-615.303	800.000	0.126	-0.475
-614.288	-200.000	-0.037	0.306
-613.273	-200.000	0.044	0.211
-612.259	-200.000	0.030	-0.161
-611.244	9.633	0.237	0.179
-610.230	55.426	-0.115	-0.111
-609.215	-200.000	-0.025	0.127
-608.201	-70.289	0.236	-0.089
-607.186	-138.613	0.183	0.020
-606.171	-108.937	0.067	0.014
-605.157	-200.000	-0.005	-0.159
-604.142	-153.132	0.156	0.011
-603.128	-38.539	0.193	0.101
-602.113	-200.000	-0.014	-0.066
-601.098	-42.794	0.309	0.156
-600.084	-200.000	0.010	-0.083
-599.069	-43.330	0.241	-0.121
-598.055	-20.225	0.113	0.069
-597.040	273.246	-0.137	-0.241
-596.025	64.107	0.068	-0.068
-595.011	644.815	-0.111	0.282
-593.996	-127.219	-0.588	0.085
-592.982	-36.332	-0.125	-0.067
-591.967	-93.089	-0.307	-0.085
-590.952	41.403	0.242	0.217
-589.938	157.391	0.123	0.170
-588.923	238.181	-0.183	0.302
-587.909	-200.000	-0.028	0.123
-586.894	-104.263	0.343	0.079
-585.879	7.265	-0.395	0.293
-584.865	800.000	-0.074	-0.259
-583.850	75.989	-0.159	0.167
-582.836	183.972	0.172	0.253
-581.821	-128.273	0.166	0.023
-580.806	-200.000	0.069	0.334
-579.792	-9.387	-0.352	-0.234
-578.777	-31.012	-0.098	-0.055
-577.763	513.598	-0.200	-0.462
-576.748	186.771	-0.195	0.289
-575.733	10.694	0.265	-0.200
-574.719	84.686	-0.059	-0.064
-573.704	-200.000	0.016	-0.093
-572.690	-200.000	-0.024	0.308
-571.675	72.372	-0.228	-0.236
-570.661	-79.614	0.037	-0.012
-569.646	-125.954	0.152	-0.023
-568.631	10.614	0.131	-0.099
-567.617	-114.192	-0.104	0.020
-566.602	-6.820	-0.215	-0.145
-565.588	-59.303	-0.209	-0.089
-564.573	-56.117	-0.347	0.153
-563.558	-188.216	0.379	0.005
-562.544	245.310	0.061	0.101
-561.529	-35.299	-0.274	-0.148
-560.515	65.456	-0.157	0.158
-559.500	-200.000	0.005	0.300
-558.485	-52.614	0.207	-0.095
-557.471	-68.187	-0.207	-0.080
-556.456	-200.000	0.010	-0.166
-555.442	-175.758	0.224	0.006
-554.427	-200.000	-0.037	0.238
-553.412	-200.000	-0.036	-0.319
-552.398	-71.299	-0.218	0.081
-551.383	-200.000	0.033	0.166
-550.369	-200.000	-0.049	-0.250
-549.354	-50.343	0.156	-0.073
-548.339	-45.965	0.019	-0.009
-547.325	23.150	0.113	-0.092
-546.310	-111.756	-0.247	0.050
-545.296	20.397	-0.113	0.090
-544.281	84.509	-0.142	0.154
-543.266	131.827	-0.230	-0.294
-542.252	578.159	-0.029	0.071
-541.237	-23.178	-0.382	0.228
-540.223	430.047	-0.089	-0.190
-539.208	-115.923	-0.175	-0.032
-538.193	800.000	0.101	0.407
-537.179	11.972	0.264	0.201
-536.164	133.168	0.018	0.023
-535.150	-200.000	0.022	0.471
-534.135	800.000	0.051	-0.211
-533.121	-5.864	-0.270	-0.183
-532.106	61.178	-0.279	-0.275
-531.091	-6.402	-0.120	0.081
-530.077	284.264	-0.099	-0.177
-529.062	-55.898	0.216	0.095
-528.048	460.249	0.099	-0.218
-527.033	-200.000	-0.010	0.111
-526.018	-200.000	0.015	-0.116
-525.004	-92.583	-0.068	-0.019
-523.989	318.478	0.170	0.318
-522.975	-200.000	-0.034	-0.618
-521.960	-14.986	0.447	0.283
-520.945	347.881	-0.149	0.291
-519.931	-68.983	0.152	0.058
-518.916	77.806	-0.124	-0.131
-517.902	-132.236	0.557	-0.071
-516.887	-71.163	-0.254	-0.094
-515.872	-49.736	-0.171	-0.080
-514.858	14.150	0.048	-0.037
-513.843	-74.715	-0.196	0.070
-512.829	64.123	0.158	-0.157
-511.814	-52.084	-0.075	-0.034
-510.799	-200.000	-0.022	-0.324
-509.785	-34.409	-0.124	-0.067
-508.770	-71.622	0.207	-0.077
-507.756	240.629	0.143	-0.235
-506.741	-83.745	-0.138	-0.044
-505.726	-79.090	-0.089	0.030
-504.712	-121.654	-0.117	-0.019
-503.697	-63.981	0.208	0.084
-502.683	-73.496	-0.181	-0.065
-501.668	800.000	0.048	-0.158
-500.653	-75.898	0.248	-0.087
-499.639	-120.730	-0.465	-0.078
-498.624	-30.027	-0.139	0.078
-497.610	-200.000	-0.010	0.176
-496.595	62.330	0.129	0.127
-495.581	-200.000	-0.032	-0.186
-494.566	-155.556	-0.072	-0.005
-493.551	216.744	-0.173	-0.273
-492.537	-200.000	0.055	-0.257
-491.522	28.243	-0.130	-0.109
-490.508	-200.000	0.005	0.198
-489.493	263.816	-0.047	-0.080
-488.478	-200.000	-0.004	-0.195
-487.464	-200.000	-0.010	0.068
-486.449	-26.200	-0.161	-0.094
-485.435	800.000	0.093	0.321
-484.420	-20.487	-0.163	-0.099
-483.405	-12.508	0.098	0.063
-482.391	371.928	-0.143	0.287
-481.376	-72.886	0.171	0.062
-480.362	225.295	0.108	0.172
-479.347	-67.135	-0.158	0.062
-478.332	-1.491	0.206	0.143
-477.318	-47.113	0.202	-0.097
-476.303	585.774	0.026	0.064
-475.289	-200.000	-0.004	-0.189
-474.274	800.000	-0.094	-0.357
-473.259	-200.000	0.025	-0.321
-472.245	-99.618	-0.321	-0.080
-471.230	-154.307	-0.217	0.014
-470.216	-200.000	0.003	-0.120
-469.201	40.953	-0.075	0.066
-468.186	25.511	-0.234	0.192
-467.172	-200.000	0.039	0.189
-466.157	92.234	0.066	0.073
-465.143	-182.407	-0.023	-0.000
-464.128	-30.846	0.119	0.066
-463.113	-122.870	-0.126	-0.020
-462.099	-129.894	0.330	0.045
-461.084	-200.000	-0.024	-0.117
-460.070	-141.611	-0.129	-0.013
-459.055	-179.641	0.209	0.004
-458.040	-200.000	-0.026	0.358
-457.026	-123.422	-0.160	0.025
-456.011	65.509	-0.182	0.182
-454.997	-22.531	0.151	-0.090
-453.982	-127.690	0.396	-0.056
-452.968	-47.669	0.116	-0.056
-451.953	113.282	-0.230	0.275
-450.938	-90.672	-0.069	0.020
-449.924	144.535	0.027	0.036
-448.909	-105.017	0.386	0.087
-447.895	95.304	0.057	0.064
-446.880	305.630	0.054	0.099
-445.865	-200.000	-0.037	0.249
-444.851	183.977	-0.205	-0.300
-443.836	-99.589	0.394	0.098
-442.822	576.049	0.059	-0.142
-441.807	-34.346	-0.037	-0.020
-440.792	-81.925	-0.333	0.108
-439.778	316.589	-0.106	0.198
-438.763	-52.636	-0.171	0.078
-437.749	-200.000	0.054	0.339
-436.734	-200.000	-0.031	-0.224
-435.719	-102.178	-0.108	0.026
-434.705	-159.074	0.224	0.012
-433.690	-142.654	-0.181	-0.017
-432.676	-29.613	0.152	-0.086
-431.661	50.375	0.121	0.113
-430.646	121.807	0.179	-0.220
-429.632	-102.341	0.391	0.093
-428.617	-5.664	-0.117	-0.079
-427.603	-4.272	0.066	0.045
-426.588	-5.255	-0.338	0.229
-425.573	-63.882	-0.150	0.061
-424.559	81.413	0.096	0.102
-423.544	-69.155	-0.107	-0.040
-422.530	800.000	-0.029	-0.115
-421.515	-52.871	-0.099	-0.045
-420.500	150.135	-0.283	-0.379
-419.486	87.926	0.050	-0.055
-418.471	800.000	-0.091	0.258
-417.457	362.560	0.084	-0.166
-416.442	-52.190	-0.041	-0.019
-415.428	-200.000	0.069	-0.383
-414.413	301.496	0.116	-0.211
-413.398	307.883	-0.167	0.307
-412.384	20.895	0.164	-0.131
-411.369	-71.610	0.276	0.101
-410.355	-197.448	0.189	-0.001
-409.340	105.637	-0.141	-0.164
-408.325	36.149	0.176	0.153
-407.311	-119.464	0.075	-0.013
-406.296	181.013	-0.106	0.154
-405.282	-11.731	-0.211	0.137
-404.267	613.696	0.029	-0.072
-403.252	459.858	0.166	-0.364
-402.238	90.577	-0.107	0.118
-401.223	-48.508	-0.477	0.226
-400.209	160.001	0.112	0.153
-399.194	800.000	-0.133	0.386
-398.179	-155.654	-0.228	0.014
-397.165	419.349	0.115	-0.243
-396.150	188.647	-0.116	-0.172
-395.136	-200.000	-0.003	-0.244
-394.121	-200.000	0.007	0.267
-393.106	76.099	0.133	0.139
-392.092	23.408	0.233	0.188
-391.077	-200.000	-0.005	-0.030
-390.063	-9.524	-0.146	-0.096
-389.048	-113.870	0.281	0.054
-388.033	71.405	0.122	-0.125
-387.019	-38.335	-0.434	0.226
-386.004	213.535	0.048	0.075
-384.990	-99.236	0.220	0.055
-383.975	-42.578	0.386	0.193
-382.960	800.000	0.072	0.254
-381.946	-9.818	-0.135	-0.088
-380.931	8.119	-0.110	-0.081
-379.917	-161.387	0.300	-0.015
-378.902	408.637	0.148	-0.309
-377.888	33.746	0.128	-0.109
-376.873	138.987	0.178	-0.230
-375.858	414.173	-0.030	0.062
-374.844	-200.000	-0.030	-0.257
-373.829	800.000	0.007	-0.025
-372.815	9.379	-0.184	0.137
-371.800	47.253	-0.114	0.105
-370.785	383.565	-0.042	-0.085
-369.771	-121.823	0.125	-0.020
-368.756	-87.871	-0.333	0.099
-367.742	611.483	0.058	-0.142
-366.727	358.774	0.089	0.174
-365.712	-8.283	0.127	-0.084
-364.698	800.000	-0.101	0.368
-363.683	-200.000	-0.005	-0.023
-362.669	-38.720	-0.142	-0.074
-361.654	-188.828	-0.134	-0.002
-360.639	417.815	0.125	-0.263
-359.625	615.565	-0.097	-0.238
-358.610	800.000	-0.067	0.221
-357.596	133.801	-0.108	0.138
-356.581	-119.056	-0.161	-0.028
-355.566	-200.000	0.019	-0.442
-354.552	800.000	0.129	-0.352
-353.537	59.335	0.127	-0.123
-352.523	-127.049	0.130	-0.019
-351.508	5.819	-0.168	-0.122
-350.493	-200.000	-0.036	-0.439
-349.479	-135.028	-0.081	-0.010
-348.464	115.576	-0.121	0.145
-347.450	733.749	0.089	-0.234
-346.435	-83.733	0.132	0.042
-345.420	320.229	0.033	0.062
-344.406	-135.299	-0.053	0.006
-343.391	-55.474	-0.218	0.096
-342.377	-70.716	0.221	0.082
-341.362	32.609	-0.084	-0.071
-340.348	18.262	0.191	0.150
-339.333	-200.000	-0.004	-0.095
-338.318	-38.261	0.407	0.212
-337.304	800.000	-0.100	-0.332
-336.289	537.204	0.028	-0.066
-335.275	491.109	-0.066	-0.149
-334.260	145.345	0.024	-0.032
-333.245	46.637	-0.155	0.141
-332.231	-200.000	-0.013	0.083
-331.216	-144.674	0.082	0.007
-330.202	84.186	-0.225	-0.242
-329.187	800.000	-0.084	0.298
-328.172	-200.000	0.002	-0.051
-327.158	-65.498	-0.186	-0.074
-326.143	162.071	0.066	-0.090
-325.129	396.824	0.142	0.291
-324.114	-118.034	-0.493	-0.087
-323.099	-200.000	0.001	-0.144
-322.085	152.469	-0.243	0.327
-321.070	-200.000	0.029	0.128
-320.056	275.712	-0.113	0.197
-319.041	800.000	-0.100	0.295
-318.026	800.000	0.060	0.178
-317.012	-11.556	0.154	0.099
-315.997	619.960	0.047	0.115
-314.983	-200.000	-0.021	0.142
-313.968	-200.000	-0.000	0.220
-312.953	-53.022	0.283	0.128
-311.939	559.940	0.045	0.108
-310.924	-138.417	0.180	0.019
-309.910	-138.381	0.152	0.016
-308.895	172.545	-0.160	0.227
-307.880	-200.000	0.026	0.209
-306.866	146.988	0.100	0.132
-305.851	-183.803	-0.390	-0.006
-304.837	-74.020	0.173	-0.062
-303.822	70.148	0.094	-0.095
-302.807	-35.368	-0.443	0.236
-301.793	25.721	-0.203	-0.166
-300.778	-31.460	-0.190	0.105
-299.764	-108.142	-0.231	-0.049
-298.749	4.037	-0.117	0.084
-297.735	56.729	0.130	0.124
-296.720	23.119	0.308	0.248
-295.705	-16.854	-0.176	-0.109
-294.691	-14.206	-0.079	0.050
-293.676	-15.484	-0.136	0.085
-292.662	-200.000	0.027	0.239
-291.647	66.664	-0.278	0.278
-290.632	-158.604	-0.245	0.014
-289.618	49.662	0.225	0.208
-288.603	586.805	-0.100	-0.241
-287.589	57.675	0.218	0.209
-286.574	512.679	0.131	0.299
-285.559	-149.904	0.255	-0.020
-284.545	13.821	0.086	0.066
-283.530	-136.155	-0.264	-0.030
-282.516	17.237	0.133	0.104
-281.501	-142.116	-0.309	0.030
-280.486	345.654	-0.096	-0.185
-279.472	-15.645	0.093	0.058
-278.457	138.900	0.205	-0.264
-277.443	65.248	-0.183	0.182
-276.428	352.645	0.143	0.278
-275.413	159.631	-0.095	-0.130
-274.399	-44.079	0.280	-0.138
-273.384	-151.916	0.258	-0.019
-272.370	76.791	0.116	0.121
-271.355	85.628	0.068	-0.073
-270.340	-200.000	0.005	0.048
-269.326	-43.892	0.279	0.137
-268.311	447.344	-0.069	0.149
-267.297	-200.000	0.063	0.399
-266.282	-25.109	-0.324	0.188
-265.267	-164.335	0.440	0.020
-264.253	17.118	-0.216	0.168
-263.238	0.170	0.162	-0.113
-262.224	199.161	-0.131	-0.197
-261.209	-35.548	0.263	-0.140
-260.195	89.195	0.080	-0.087
-259.180	-65.553	0.231	0.091
-258.165	-89.619	-0.226	-0.065
-257.151	-75.548	0.165	0.057
-256.136	-200.000	0.026	-0.236
-255.122	-200.000	-0.023	-0.309
-254.107	66.032	0.154	0.153
-253.092	-95.443	-0.220	-0.058
-252.078	14.402	-0.059	-0.045
-251.063	48.676	0.221	-0.203
-250.049	347.361	-0.101	-0.195
-249.034	-200.000	-0.015	0.083
-248.019	-200.000	-0.007	0.087
-247.005	-49.027	-0.010	0.005
-245.990	60.557	-0.170	0.165
-244.976	6.116	0.281	0.204
-243.961	-78.942	-0.030	0.010
-242.946	-200.000	-0.048	0.257
-241.932	736.214	-0.101	0.266
-240.917	-64.673	0.309	0.123
-239.903	-42.002	-0.260	0.131
-238.888	-200.000	0.088	0.448
-237.873	16.422	0.126	0.097
-236.859	-38.255	-0.307	-0.159
-235.844	152.512	0.089	0.119
-234.830	-117.525	0.367	0.065
-233.815	157.291	0.201	-0.273
-232.800	250.313	0.175	-0.291
-231.786	-10.124	0.205	0.133
-230.771	139.015	0.201	-0.259
-229.757	-117.916	0.275	-0.048
-228.742	522.880	0.032	-0.074
-227.727	-86.782	-0.233	0.070
-226.713	-200.000	-0.036	-0.453
-225.698	800.000	-0.047	0.128
-224.684	485.460	-0.162	0.362
-223.669	-75.417	-0.123	0.043
-222.655	800.000	0.052	-0.173
-221.640	91.118	-0.149	0.164
-220.625	240.395	0.083	0.135
-219.611	-107.469	0.156	0.034
-218.596	309.148	-0.111	-0.203
-217.582	800.000	0.112	-0.398
-216.567	-94.598	0.146	-0.039
-215.552	-200.000	0.022	0.201
-214.538	-11.531	-0.057	-0.037
-213.523	-200.000	-0.094	0.418
-212.509	-200.000	0.028	-0.138
-211.494	-200.000	0.007	-0.204
-210.479	-94.154	0.066	-0.018
-209.465	-200.000	-0.003	-0.021
-208.450	130.857	-0.159	0.200
-207.436	74.569	0.252	-0.259
-206.421	89.602	-0.236	-0.258
-205.406	-92.571	-0.166	-0.046
-204.392	-100.199	-0.177	-0.043
-203.377	-200.000	0.057	-0.251
-202.363	31.793	-0.254	-0.214
-201.348	298.259	-0.032	-0.058
-200.333	-40.260	0.139	-0.071
-199.319	186.360	-0.174	-0.253
-198.304	33.710	0.311	0.264
-197.290	383.109	-0.133	-0.268
-196.275	663.759	-0.067	-0.168
-195.260	30.651	0.221	-0.185
-194.246	574.232	0.001	0.003
-193.231	-134.852	0.248	-0.029
-192.217	-85.098	0.201	-0.061
-191.202	67.491	-0.177	-0.177
-190.187	-89.644	0.270	0.077
-189.173	-5.221	0.309	0.208
-188.158	165.163	0.212	-0.293
-187.144	-4.709	-0.173	-0.117
-186.129	-115.415	-0.235	-0.043
-185.114	17.558	0.041	0.032
-184.100	800.000	0.042	0.136
-183.085	39.512	-0.139	-0.122
-182.071	-104.080	0.135	0.031
-181.056	43.152	-0.221	-0.197
-180.042	-65.812	0.174	0.068
-179.027	-200.000	0.037	0.289
-178.012	-166.556	0.241	0.010
-176.998	800.000	-0.112	0.313
-175.983	-111.472	0.112	-0.022
-174.969	-84.850	0.261	0.080
-173.954	-96.910	-0.486	-0.125
-172.939	-175.923	0.092	0.002
-171.925	183.703	0.249	-0.359
-170.910	-90.149	-0.381	-0.108
-169.896	306.798	0.080	-0.145
-168.881	-200.000	0.008	-0.411
-167.866	-127.961	-0.131	0.018
-166.852	800.000	-0.067	-0.241
-165.837	-22.650	0.171	-0.101
-164.823	159.894	0.038	0.052
-163.808	-200.000	0.210	-0.001
-162.793	-44.677	0.095	0.046
-161.779	35.751	0.185	-0.159
-160.764	-200.000	-0.002	0.016
-159.750	-124.036	0.115	0.018
-158.735	-200.000	-0.041	-0.290
-157.720	-53.767	0.089	0.040
-156.706	-82.126	0.106	-0.034
-155.691	736.050	-0.099	0.260
-154.677	-70.141	0.266	0.099
-153.662	-69.099	0.333	-0.125
-152.647	-36.763	-0.067	0.035
-151.633	800.000	-0.022	0.088
-150.618	-98.068	-0.352	-0.088
-149.604	-200.000	-0.051	0.239
-148.589	800.000	0.022	-0.072
-147.574	-200.000	-0.035	-0.273
-146.560	97.086	0.110	-0.123
-145.545	800.000	0.110	-0.417
-144.531	-200.000	-0.002	-0.022
-143.516	-108.295	0.238	-0.050
-142.502	60.047	0.120	0.116
-141.487	-200.000	-0.018	0.125
-140.472	-87.882	0.117	-0.034
-139.458	-80.973	0.104	0.034
-138.443	19.002	-0.138	0.108
-137.429	-53.826	0.482	0.214
-136.414	590.604	-0.072	-0.174
-135.399	-200.000	0.030	-0.213
-134.385	105.702	-0.152	-0.176
-133.370	-126.447	-0.122	0.018
-132.356	195.934	-0.219	0.325
-131.341	-200.000	0.025	-0.381
-130.326	-200.000	0.006	0.352
-129.312	-154.814	0.344	-0.022
-128.297	-200.000	-0.019	0.203
-127.283	259.351	0.058	-0.097
-126.268	-103.396	0.081	0.019
-125.253	43.041	0.213	0.189
-124.239	800.000	0.059	-0.217
-123.224	403.703	-0.147	-0.301
-122.210	1.376	0.084	0.059
-121.195	151.564	0.148	0.196
