DTS Sentinel unit serial number:	SN413079Multiplexer serial number:	ORYXHardware model number:	OX4-SRSoftware version number:	ORYX F/W v4.00 Oryx Data Collector v3.7.2.0data status	okinstallation	princeton_trtdifferential loss correction	single-endedforward channel	channel 2reverse channel	N/Adate	2019/09/10time	21:57:11forward acquisition time	60.00reverse acquisition time	0.00gamma	496.2192k internal	0.2330k external	0.2330temperature offset calibration	0.9945default loss term (dB/km)	0.3790temperature slope calibration	1.0000multiplexer offset coefficient	1.0000multiplexer slope coefficient	1.0000fibre end	0.00T internal ref (°C)	30.75T ext. ref 1 (°C)	-0.31T ext. ref 2 (°C)	24.03length (m)	temperature (°C)	Stokes	anti-Stokes-747.200	289.152	0.193	-0.353
-746.185	-82.132	-0.087	0.028
-745.171	119.350	0.061	0.076
-744.156	-106.367	-0.243	0.055
-743.142	795.052	-0.105	0.290
-742.127	260.554	-0.320	0.557
-741.112	-31.058	0.437	0.248
-740.098	40.936	-0.085	0.077
-739.083	108.411	-0.132	-0.159
-738.069	800.000	0.068	0.191
-737.054	-47.572	-0.246	0.120
-736.039	-164.178	-0.307	-0.014
-735.025	-200.000	0.007	-0.112
-734.010	-102.146	-0.285	0.069
-732.996	-69.157	-0.117	-0.045
-731.981	-29.309	0.265	0.153
-730.966	-200.000	0.010	-0.146
-729.952	-126.705	-0.225	-0.034
-728.937	-200.000	-0.032	-0.219
-727.923	33.719	0.302	-0.264
-726.908	800.000	0.062	0.175
-725.894	-23.855	0.147	-0.089
-724.879	9.807	0.055	0.042
-723.864	-33.558	0.171	-0.095
-722.850	-174.817	-0.266	-0.008
-721.835	112.599	-0.358	0.436
-720.821	-173.916	0.390	0.012
-719.806	-32.527	0.169	-0.095
-718.791	-70.372	-0.364	-0.139
-717.777	10.359	0.361	0.276
-716.762	30.813	0.297	-0.255
-715.748	-200.000	0.032	-0.322
-714.733	92.460	0.198	-0.224
-713.718	-158.655	-0.190	-0.011
-712.704	176.850	-0.230	-0.336
-711.689	-200.000	0.056	-0.253
-710.675	800.000	0.042	0.178
-709.660	55.493	-0.064	0.062
-708.645	-200.000	0.015	-0.084
-707.631	29.171	0.276	0.236
-706.616	-200.000	0.035	0.192
-705.602	82.625	-0.117	-0.128
-704.587	-200.000	0.485	0.002
-703.572	144.367	-0.216	-0.289
-702.558	338.797	0.039	-0.076
-701.543	800.000	0.041	-0.171
-700.529	398.154	-0.184	-0.388
-699.514	-200.000	0.039	-0.383
-698.499	318.776	-0.167	0.318
-697.485	-113.405	0.199	0.039
-696.470	120.965	0.072	-0.090
-695.456	154.566	-0.203	-0.280
-694.441	109.515	0.088	0.106
-693.426	724.085	-0.011	0.031
-692.412	-179.673	0.151	0.003
-691.397	63.013	0.126	-0.127
-690.383	-187.577	0.198	-0.003
-689.368	335.386	0.124	0.242
-688.354	-111.611	-0.046	-0.009
-687.339	-200.000	0.161	0.000
-686.324	19.235	-0.182	0.147
-685.310	-44.895	-0.204	-0.102
-684.295	-79.007	0.080	0.027
-683.281	28.872	-0.203	-0.173
-682.266	209.331	-0.076	0.120
-681.251	-85.179	-0.200	0.063
-680.237	284.795	-0.063	-0.114
-679.222	-200.000	-0.033	-0.288
-678.208	41.467	-0.281	-0.255
-677.193	-18.616	0.267	-0.167
-676.178	-110.923	-0.181	-0.037
-675.164	234.224	0.037	0.061
-674.149	60.259	-0.163	-0.162
-673.135	647.011	-0.079	-0.203
-672.120	238.274	0.277	-0.461
-671.105	-81.993	0.081	-0.027
-670.091	-80.531	0.246	-0.082
-669.076	683.599	0.075	0.196
-668.062	-3.200	-0.153	0.107
-667.047	-10.513	0.218	-0.145
-666.032	-46.130	0.128	0.063
-665.018	-5.293	0.139	0.096
-664.003	-147.687	-0.326	0.027
-662.989	-200.000	0.006	0.061
-661.974	201.677	0.102	0.158
-660.959	-164.990	-0.259	-0.012
-659.945	-200.000	-0.027	-0.274
-658.930	-69.628	-0.110	-0.042
-657.916	-91.702	-0.418	-0.119
-656.901	-105.340	-0.042	-0.010
-655.886	-16.575	-0.271	0.172
-654.872	459.480	-0.054	0.121
-653.857	-200.000	-0.016	-0.113
-652.843	-200.000	0.212	-0.001
-651.828	-109.890	0.274	-0.058
-650.814	32.726	0.068	-0.059
-649.799	3.147	0.212	-0.155
-648.784	-200.000	-0.028	-0.177
-647.770	4.377	0.082	0.060
-646.755	-200.000	0.075	-0.331
-645.741	643.153	0.163	-0.416
-644.726	-40.924	-0.121	0.063
-643.711	-141.393	-0.178	-0.018
-642.697	-28.209	0.144	-0.083
-641.682	-111.931	0.109	0.022
-640.668	-145.058	0.304	-0.028
-639.653	-139.400	-0.148	0.016
-638.638	619.805	0.030	-0.077
-637.624	800.000	-0.059	-0.183
-636.609	-200.000	0.020	0.336
-635.595	-200.000	0.035	-0.232
-634.580	312.813	-0.247	-0.466
-633.565	-66.210	-0.377	0.151
-632.551	9.619	-0.093	-0.070
-631.536	-32.837	-0.173	-0.097
-630.522	800.000	0.087	0.255
-629.507	135.492	-0.129	-0.168
-628.492	-141.934	0.121	0.012
-627.478	117.422	-0.054	0.067
-626.463	-200.000	0.000	0.002
-625.449	267.261	-0.149	0.262
-624.434	-82.637	-0.111	0.036
-623.419	-54.033	-0.258	0.118
-622.405	-200.000	0.053	0.260
-621.390	316.289	-0.051	0.097
-620.376	800.000	-0.068	-0.197
-619.361	-200.000	0.019	-0.097
-618.346	-103.360	-0.151	-0.036
-617.332	186.878	-0.256	0.383
-616.317	-200.000	-0.019	0.107
-615.303	-175.938	0.539	-0.014
-614.288	-70.389	-0.189	-0.072
-613.273	100.809	0.208	-0.242
-612.259	-81.510	0.038	0.012
-611.244	-34.186	-0.117	0.064
-610.230	-152.013	0.150	0.011
-609.215	-16.437	-0.237	-0.150
-608.201	-200.000	0.031	0.156
-607.186	-200.000	0.001	-0.220
-606.171	-104.041	-0.086	0.020
-605.157	173.052	-0.050	-0.073
-604.142	81.399	0.151	-0.164
-603.128	170.057	0.067	-0.096
-602.113	-3.346	0.237	-0.165
-601.098	-86.583	0.108	-0.033
-600.084	-56.768	-0.198	0.088
-599.069	80.224	0.175	0.188
-598.055	800.000	0.011	0.037
-597.040	800.000	-0.064	0.193
-596.025	-200.000	0.016	-0.185
-595.011	-50.788	-0.107	0.050
-593.996	-146.575	-0.109	-0.010
-592.982	-54.823	-0.066	0.030
-591.967	593.705	0.110	0.272
-590.952	-200.000	0.063	0.498
-589.938	53.769	0.217	-0.209
-588.923	141.204	0.276	-0.366
-587.909	800.000	-0.027	0.082
-586.894	-86.450	-0.136	-0.042
-585.879	-200.000	0.054	0.253
-584.865	-200.000	0.001	0.064
-583.850	-37.090	0.280	-0.150
-582.836	-200.000	0.047	0.330
-581.821	517.502	0.032	0.075
-580.806	-147.128	0.264	0.023
-579.792	19.285	-0.056	0.045
-578.777	102.770	-0.158	-0.184
-577.763	-200.000	-0.016	-0.325
-576.748	-23.233	-0.108	-0.065
-575.733	130.587	-0.139	-0.178
-574.719	800.000	0.034	-0.133
-573.704	-106.170	-0.116	0.026
-572.690	2.723	-0.105	-0.077
-571.675	210.103	-0.058	-0.091
-570.661	181.706	0.061	-0.090
-569.646	-95.814	0.064	-0.017
-568.631	-50.763	0.145	0.068
-567.617	800.000	-0.037	-0.121
-566.602	-148.582	-0.027	-0.002
-565.588	-134.090	0.198	-0.024
-564.573	545.691	-0.220	-0.526
-563.558	800.000	-0.047	0.146
-562.544	800.000	-0.028	0.097
-561.529	-65.994	-0.161	0.064
-560.515	-200.000	-0.002	0.063
-559.500	-70.702	-0.238	-0.090
-558.485	800.000	0.038	-0.147
-557.471	-200.000	0.023	0.103
-556.456	25.819	0.388	-0.323
-555.442	-72.685	-0.233	0.086
-554.427	-200.000	0.006	-0.168
-553.412	-49.729	-0.054	-0.026
-552.398	-134.471	-0.353	-0.043
-551.383	90.068	-0.087	-0.097
-550.369	-62.655	-0.158	0.065
-549.354	-83.276	0.342	0.110
-548.339	-58.926	0.066	-0.028
-547.325	86.533	-0.155	0.171
-546.310	29.845	0.154	-0.131
-545.296	-164.898	0.176	0.008
-544.281	65.543	-0.112	-0.113
-543.266	-200.000	-0.001	-0.199
-542.252	178.668	-0.095	-0.139
-541.237	323.327	0.096	0.183
-540.223	-11.061	-0.325	-0.214
-539.208	-78.754	-0.156	-0.053
-538.193	65.826	-0.142	0.144
-537.179	764.557	-0.088	-0.238
-536.164	25.032	-0.236	0.195
-535.150	-147.080	0.102	0.009
-534.135	356.317	-0.047	-0.094
-533.121	-31.906	0.075	-0.042
-532.106	-87.035	-0.300	0.091
-531.091	617.767	0.066	0.165
-530.077	-54.012	0.226	-0.103
-529.062	-24.919	0.141	0.083
-528.048	800.000	0.008	0.029
-527.033	-200.000	-0.001	-0.194
-526.018	-200.000	0.012	0.261
-525.004	800.000	-0.027	0.077
-523.989	-58.330	0.142	-0.062
-522.975	800.000	-0.065	-0.263
-521.960	-47.310	0.368	-0.179
-520.945	-32.100	0.324	-0.181
-519.931	-200.000	-0.003	0.390
-518.916	-13.109	0.218	0.141
-517.902	-200.000	-0.047	-0.307
-516.887	161.254	0.123	-0.172
-515.872	800.000	0.102	0.423
-514.858	800.000	0.050	0.172
-513.843	432.894	0.073	-0.157
-512.829	13.549	0.205	-0.159
-511.814	79.160	0.125	0.133
-510.799	318.886	-0.108	-0.205
-509.785	-200.000	0.012	-0.122
-508.770	-200.000	0.001	-0.216
-507.756	24.686	-0.081	-0.067
-506.741	-155.855	0.336	0.021
-505.726	-200.000	0.045	-0.283
-504.712	800.000	-0.086	0.255
-503.697	-200.000	-0.004	0.407
-502.683	266.428	0.109	-0.189
-501.668	-141.397	-0.072	-0.007
-500.653	-200.000	0.018	-0.114
-499.639	-116.591	0.349	0.064
-498.624	196.363	-0.087	0.131
-497.610	-5.299	-0.331	0.227
-496.595	-200.000	0.042	-0.310
-495.581	-86.792	0.386	0.118
-494.566	-51.849	-0.187	0.087
-493.551	108.209	0.143	-0.170
-492.537	-51.829	0.192	-0.089
-491.522	-102.809	0.264	-0.063
-490.508	-104.491	-0.196	-0.045
-489.493	96.816	0.138	-0.158
-488.478	-164.278	-0.424	-0.019
-487.464	-2.295	0.016	-0.011
-486.449	369.539	-0.182	-0.367
-485.435	-73.206	-0.134	-0.049
-484.420	-10.554	-0.116	-0.076
-483.405	-157.322	-0.360	0.022
-482.391	-60.595	0.143	0.061
-481.376	-200.000	-0.006	-0.296
-480.362	-80.341	0.089	-0.030
-479.347	676.589	0.116	-0.300
-478.332	-200.000	-0.006	-0.088
-477.318	-72.411	0.291	-0.107
-476.303	97.116	0.050	-0.057
-475.289	330.234	-0.068	-0.130
-474.274	615.849	-0.068	-0.171
-473.259	31.514	-0.321	0.275
-472.245	85.210	-0.165	-0.180
-471.230	-200.000	-0.012	0.214
-470.216	-94.882	0.093	0.025
-469.201	800.000	0.111	0.332
-468.186	-65.260	0.193	-0.078
-467.172	369.475	0.154	0.311
-466.157	-91.948	-0.240	0.068
-465.143	487.935	0.073	0.167
-464.128	-70.229	-0.361	-0.137
-463.113	-8.770	-0.193	0.129
-462.099	800.000	-0.039	0.116
-461.084	-200.000	-0.028	0.277
-460.070	152.247	-0.092	-0.125
-459.055	-111.800	-0.295	0.059
-458.040	-52.809	-0.201	0.092
-457.026	-200.000	-0.029	0.188
-456.011	28.826	-0.094	0.079
-454.997	-117.824	0.527	-0.094
-453.982	-200.000	-0.001	-0.200
-452.968	24.208	-0.363	0.298
-451.953	-200.000	-0.027	-0.275
-450.938	184.693	-0.095	0.140
-449.924	197.721	0.054	-0.082
-448.909	-18.110	0.155	0.097
-447.895	-69.994	-0.431	-0.163
-446.880	-200.000	0.016	-0.258
-445.865	-119.975	0.227	-0.039
-444.851	-31.951	0.204	-0.114
-443.836	289.677	-0.170	-0.307
-442.822	-66.286	0.360	-0.143
-441.807	800.000	0.051	0.200
-440.792	-10.298	0.270	0.178
-439.778	285.883	0.090	0.161
-438.763	219.194	0.159	-0.253
-437.749	-5.483	0.068	0.047
-436.734	800.000	0.067	-0.185
-435.719	154.027	0.147	-0.200
-434.705	800.000	-0.018	0.067
-433.690	57.965	0.175	-0.170
-432.676	43.052	0.089	0.081
-431.661	-71.463	-0.431	0.160
-430.646	-200.000	-0.041	-0.306
-429.632	-71.950	0.372	-0.138
-428.617	-200.000	-0.019	0.295
-427.603	287.029	0.119	-0.213
-426.588	88.260	-0.248	0.274
-425.573	-200.000	0.220	0.001
-424.559	215.908	-0.076	-0.120
-423.544	-74.758	0.149	0.053
-422.530	-65.807	-0.256	0.102
-421.515	231.358	0.034	0.056
-420.500	82.939	0.039	0.042
-419.486	74.633	0.066	-0.069
-418.471	-200.000	-0.008	0.100
-417.457	26.335	0.193	0.160
-416.442	-200.000	-0.031	-0.140
-415.428	267.259	-0.154	0.268
-414.413	-35.086	0.166	-0.090
-413.398	-122.292	-0.073	0.012
-412.384	-200.000	-0.054	0.263
-411.369	146.678	0.048	-0.065
-410.355	800.000	-0.020	-0.063
-409.340	-200.000	0.007	-0.105
-408.325	-200.000	0.010	-0.132
-407.311	618.185	-0.074	-0.185
-406.296	247.212	-0.217	0.364
-405.282	14.471	-0.275	0.213
-404.267	542.557	0.072	0.170
-403.252	-8.924	0.031	0.021
-402.238	800.000	-0.020	0.084
-401.223	-45.484	0.221	0.109
-400.209	-200.000	-0.024	-0.208
-399.194	751.600	-0.074	0.198
-398.179	-106.763	0.163	-0.036
-397.165	252.748	0.141	0.240
-396.150	30.549	-0.193	-0.164
-395.136	83.924	0.223	0.242
-394.121	800.000	-0.048	-0.153
-393.106	-200.000	0.040	0.483
-392.092	93.198	-0.092	-0.104
-391.077	-200.000	-0.018	0.240
-390.063	-200.000	0.038	-0.207
-389.048	337.548	0.102	0.197
-388.033	-200.000	0.076	0.378
-387.019	-14.459	-0.066	0.042
-386.004	-102.051	0.075	-0.018
-384.990	92.000	-0.225	-0.251
-383.975	-200.000	0.001	0.008
-382.960	96.872	0.231	0.263
-381.946	-200.000	-0.001	0.228
-380.931	-29.309	-0.279	-0.159
-379.917	157.912	0.118	0.163
-378.902	15.359	0.077	-0.060
-377.888	-200.000	0.010	0.058
-376.873	21.272	-0.059	0.048
-375.858	261.597	0.180	0.310
-374.844	-200.000	0.011	-0.155
-373.829	800.000	-0.068	-0.291
-372.815	-200.000	-0.045	0.237
-371.800	187.299	-0.047	-0.070
-370.785	406.484	-0.209	0.438
-369.771	800.000	-0.052	0.224
-368.756	-200.000	0.029	-0.201
-367.742	-49.866	0.203	-0.096
-366.727	7.934	-0.118	0.088
-365.712	444.316	-0.089	-0.194
-364.698	-200.000	-0.019	-0.313
-363.683	84.068	0.227	0.246
-362.669	-25.655	0.281	0.165
-361.654	800.000	-0.093	-0.268
-360.639	732.469	-0.070	-0.185
-359.625	-105.961	0.283	-0.063
-358.610	-19.242	-0.050	-0.031
-357.596	-142.409	0.258	0.025
-356.581	95.201	0.204	-0.230
-355.566	369.263	0.067	0.135
-354.552	-200.000	-0.037	0.305
-353.537	-96.312	-0.309	0.081
-352.523	-95.878	0.362	0.096
-351.508	800.000	0.093	-0.339
-350.493	1.384	-0.346	-0.247
-349.479	141.926	-0.150	-0.197
-348.464	-120.903	-0.245	0.041
-347.450	-122.229	-0.272	0.044
-346.435	93.025	0.184	-0.206
-345.420	-200.000	0.024	-0.195
-344.406	800.000	-0.015	-0.059
-343.391	27.005	0.192	0.159
-342.377	104.371	0.175	-0.205
-341.362	-179.657	0.180	0.004
-340.348	-169.278	-0.198	0.007
-339.333	800.000	-0.058	0.203
-338.318	-200.000	-0.014	0.073
-337.304	-49.688	0.274	0.129
-336.289	800.000	0.049	-0.170
-335.275	-120.066	0.196	0.033
-334.260	2.921	-0.170	-0.123
-333.245	-165.974	-0.112	-0.005
-332.231	-200.000	-0.043	0.229
-331.216	-104.025	-0.240	-0.055
-330.202	-58.480	-0.378	0.163
-329.187	113.210	-0.091	-0.109
-328.172	48.134	-0.065	0.060
-327.158	62.312	0.078	0.077
-326.143	281.976	-0.082	0.145
-325.129	-200.000	0.048	0.297
-324.114	-200.000	-0.046	-0.243
-323.099	416.171	-0.034	-0.071
-322.085	-41.007	-0.192	-0.098
-321.070	-77.678	0.045	0.015
-320.056	-85.662	0.150	0.046
-319.041	800.000	0.057	0.217
-318.026	-200.000	-0.042	0.311
-317.012	-78.631	0.120	0.041
-315.997	-163.746	-0.032	-0.001
-314.983	71.145	-0.187	-0.192
-313.968	-149.047	-0.408	-0.032
-312.953	13.575	-0.272	-0.209
-311.939	-200.000	0.021	0.258
-310.924	-115.286	0.267	-0.050
-309.910	-29.246	-0.148	0.084
-308.895	202.762	-0.212	-0.324
-307.880	96.634	0.173	0.196
-306.866	291.250	-0.157	-0.283
-305.851	-200.000	0.064	-0.299
-304.837	-200.000	-0.039	-0.492
-303.822	-20.101	0.234	0.143
-302.807	-157.781	-0.137	0.008
-301.793	163.841	-0.185	0.257
-300.778	69.419	-0.069	-0.071
-299.764	147.470	-0.035	0.047
-298.749	733.155	-0.014	0.038
-297.735	-10.648	0.260	-0.170
-296.720	-118.737	-0.048	-0.008
-295.705	342.658	-0.112	0.217
-294.691	-200.000	-0.043	0.349
-293.676	-47.391	0.141	-0.068
-292.662	116.795	0.060	0.073
-291.647	63.716	0.302	0.300
-290.632	-88.701	-0.290	0.085
-289.618	-39.297	0.135	0.070
-288.603	-200.000	-0.076	0.405
-287.589	56.633	0.241	0.232
-286.574	-126.650	-0.254	0.037
-285.559	-158.701	0.183	-0.010
-284.545	-89.583	0.318	-0.092
-283.530	800.000	-0.115	0.316
-282.516	-161.829	-0.454	-0.023
-281.501	800.000	0.057	0.190
-280.486	-32.201	-0.296	0.164
-279.472	24.455	0.104	-0.085
-278.457	-84.505	-0.062	0.019
-277.443	457.712	0.101	0.222
-276.428	215.435	-0.195	-0.305
-275.413	800.000	0.057	0.177
-274.399	-163.075	0.121	-0.006
-273.384	800.000	-0.039	0.131
-272.370	407.878	0.112	0.234
-271.355	165.864	0.146	-0.204
-270.340	237.526	0.095	-0.156
-269.326	-148.357	0.458	-0.037
-268.311	278.446	0.081	0.142
-267.297	-117.132	-0.084	0.015
-266.282	-200.000	-0.006	-0.401
-265.267	21.613	-0.140	0.113
-264.253	-200.000	0.015	0.093
-263.238	3.285	0.109	0.079
-262.224	94.569	0.221	0.248
-261.209	-69.296	-0.212	0.081
-260.195	-23.142	-0.158	-0.094
-259.180	115.021	-0.193	-0.233
-258.165	-74.949	0.475	0.168
-257.151	-200.000	0.013	-0.231
-256.136	-20.592	0.151	0.092
-255.122	-200.000	-0.036	-0.229
-254.107	53.149	-0.014	-0.014
-253.092	-200.000	-0.056	0.293
-252.078	228.128	0.093	0.149
-251.063	-9.046	-0.268	0.178
-250.049	-152.741	0.123	0.009
-249.034	800.000	-0.040	-0.170
-248.019	-115.423	0.119	-0.022
-247.005	593.717	-0.102	-0.248
-245.990	-78.344	0.249	-0.085
-244.976	-200.000	-0.079	-0.362
-243.961	19.819	-0.072	-0.057
-242.946	-200.000	-0.059	0.267
-241.932	-61.419	-0.246	0.102
-240.917	800.000	0.037	0.136
-239.903	600.540	0.121	-0.296
-238.888	23.054	0.187	0.152
-237.873	-61.271	0.272	-0.113
-236.859	127.796	-0.161	-0.201
-235.844	50.954	0.111	-0.104
-234.830	-39.236	-0.247	0.128
-233.815	19.770	-0.134	-0.106
-232.800	800.000	-0.086	-0.283
-231.786	56.460	0.298	0.286
-230.771	51.764	-0.300	0.282
-229.757	-200.000	0.021	-0.269
-228.742	-156.480	-0.186	0.011
-227.727	-200.000	-0.016	0.294
-226.713	46.117	0.096	0.088
-225.698	-15.093	0.179	-0.113
-224.684	156.617	-0.211	0.288
-223.669	800.000	0.128	0.502
-222.655	556.441	0.061	0.144
-221.640	-200.000	0.009	-0.254
-220.625	-65.407	0.135	-0.053
-219.611	118.149	-0.162	-0.197
-218.596	-100.647	0.153	0.037
-217.582	-22.080	-0.101	0.061
-216.567	208.656	-0.038	-0.059
-215.552	37.857	-0.122	-0.107
-214.538	-92.603	0.179	0.050
-213.523	-200.000	0.004	0.184
-212.509	554.867	0.037	-0.088
-211.494	-40.095	0.084	-0.043
-210.479	-63.182	-0.298	0.121
-209.465	11.549	0.244	0.184
-208.450	800.000	0.014	0.048
-207.436	-48.657	-0.148	-0.070
-206.421	-41.071	-0.031	-0.016
-205.406	-200.000	-0.016	-0.139
-204.392	-83.836	0.324	-0.102
-203.377	800.000	0.066	0.270
-202.363	-200.000	-0.011	-0.249
-201.348	-57.805	0.058	0.025
-200.333	24.727	-0.237	-0.194
-199.319	-42.905	-0.159	0.080
-198.304	542.368	-0.034	0.080
-197.290	-32.978	0.369	0.202
-196.275	180.658	-0.017	0.024
-195.260	-200.000	-0.010	0.134
-194.246	-200.000	-0.011	-0.097
-193.231	-200.000	0.031	0.178
-192.217	-66.281	0.118	0.046
-191.202	-200.000	0.072	-0.395
-190.187	800.000	0.103	-0.315
-189.173	800.000	-0.040	-0.148
-188.158	583.158	-0.031	0.074
-187.144	-101.125	-0.270	-0.065
-186.129	-200.000	-0.042	0.213
-185.114	284.501	0.121	0.214
-184.100	-200.000	-0.037	0.268
-183.085	-56.910	0.354	0.154
-182.071	-80.199	-0.258	0.085
-181.056	329.895	-0.161	-0.305
-180.042	-93.821	0.123	-0.033
-179.027	-179.001	-0.240	-0.005
-178.012	800.000	-0.087	-0.253
-176.998	131.886	-0.108	0.136
-175.983	-48.370	0.271	0.128
-174.969	-24.098	-0.297	0.175
-173.954	9.495	0.217	0.162
-172.939	-200.000	-0.009	0.266
-171.925	275.389	0.070	0.123
-170.910	71.158	-0.146	-0.149
-169.896	-143.871	-0.139	-0.013
-168.881	-60.291	-0.187	0.078
-167.866	-125.678	-0.193	-0.029
-166.852	-200.000	-0.054	-0.285
-165.837	15.815	-0.293	-0.227
-164.823	526.243	0.125	-0.289
-163.808	58.418	0.189	-0.183
-162.793	24.470	0.009	0.007
-161.779	800.000	-0.068	0.207
-160.764	2.390	0.111	-0.079
-159.750	-118.857	0.143	-0.025
-158.735	-156.357	-0.250	-0.015
-157.720	-99.900	0.205	-0.050
-156.706	-16.122	-0.193	0.121
-155.691	-200.000	0.012	0.071
-154.677	-200.000	-0.054	-0.252
-153.662	-102.022	0.035	0.008
-152.647	-29.355	-0.213	0.120
-151.633	-48.804	0.263	0.124
-150.618	153.648	-0.142	0.192
-149.604	11.666	-0.118	0.089
-148.589	-11.126	-0.123	-0.080
-147.574	-200.000	-0.008	-0.454
-146.560	-68.702	-0.205	0.078
-145.545	696.439	0.036	0.092
-144.531	323.107	0.167	0.314
-143.516	800.000	0.058	-0.233
-142.502	-97.920	-0.242	-0.062
-141.487	10.601	0.080	0.060
-140.472	15.622	0.329	-0.254
-139.458	362.490	-0.193	0.381
-138.443	-10.822	0.149	0.097
-137.429	659.965	-0.050	0.127
-136.414	553.915	-0.047	0.111
-135.399	163.311	0.022	0.031
-134.385	800.000	-0.054	0.200
-133.370	176.823	-0.265	0.379
-132.356	-69.710	0.251	-0.094
-131.341	800.000	0.077	0.327
-130.326	-193.085	-0.256	0.002
-129.312	480.372	-0.127	0.284
-128.297	-200.000	0.028	0.205
-127.283	-18.233	-0.386	0.237
-126.268	800.000	0.066	-0.188
-125.253	-40.150	0.211	0.108
-124.239	800.000	-0.052	-0.145
-123.224	-173.332	0.273	-0.008
-122.210	-68.154	-0.139	-0.053
