DTS Sentinel unit serial number:	SN413079Multiplexer serial number:	ORYXHardware model number:	OX4-SRSoftware version number:	ORYX F/W v4.00 Oryx Data Collector v3.7.2.0data status	okinstallation	princeton_trtdifferential loss correction	single-endedforward channel	channel 2reverse channel	N/Adate	2019/09/19time	02:35:35forward acquisition time	60.00reverse acquisition time	0.00gamma	496.2192k internal	0.2353k external	0.2353temperature offset calibration	1.0019default loss term (dB/km)	0.3790temperature slope calibration	1.0000multiplexer offset coefficient	1.0000multiplexer slope coefficient	1.0000fibre end	0.00T internal ref (°C)	21.00T ext. ref 1 (°C)	0.66T ext. ref 2 (°C)	14.78length (m)	temperature (°C)	Stokes	anti-Stokes-747.200	141.220	0.075	0.099
-746.185	-64.042	-0.644	0.262
-745.171	800.000	0.106	-0.294
-744.156	-200.000	0.003	-0.021
-743.142	143.928	0.125	-0.167
-742.127	1.835	-0.083	0.060
-741.112	132.170	-0.254	-0.326
-740.098	800.000	-0.104	0.365
-739.083	-200.000	-0.005	0.047
-738.069	-4.245	0.299	0.206
-737.054	-47.343	0.239	-0.116
-736.039	-17.103	-0.306	0.192
-735.025	-200.000	0.073	0.383
-734.010	51.337	0.177	-0.168
-732.996	-200.000	-0.029	-0.262
-731.981	-45.684	0.239	0.118
-730.966	263.907	-0.115	-0.199
-729.952	5.507	-0.037	-0.027
-728.937	197.156	-0.125	-0.191
-727.923	20.206	0.123	-0.099
-726.908	-200.000	-0.012	-0.208
-725.894	26.735	0.084	0.070
-724.879	-200.000	0.052	-0.238
-723.864	-200.000	0.015	-0.213
-722.850	-39.338	0.284	0.149
-721.835	40.515	-0.359	0.322
-720.821	162.054	0.189	-0.264
-719.806	-70.553	-0.284	-0.107
-718.791	84.796	0.078	-0.085
-717.777	-200.000	-0.051	0.231
-716.762	250.591	-0.199	-0.336
-715.748	102.958	-0.170	-0.199
-714.733	800.000	-0.091	-0.393
-713.718	116.270	0.155	-0.189
-712.704	345.856	-0.099	-0.194
-711.689	800.000	-0.053	-0.185
-710.675	-101.029	-0.049	-0.012
-709.660	269.166	-0.053	-0.092
-708.645	254.063	-0.031	0.052
-707.631	-0.777	-0.197	-0.139
-706.616	-148.866	-0.273	0.022
-705.602	-200.000	0.010	-0.245
-704.587	380.965	0.163	-0.333
-703.572	-154.523	0.237	-0.016
-702.558	-193.881	-0.089	-0.001
-701.543	744.930	-0.059	-0.159
-700.529	85.710	-0.124	-0.135
-699.514	72.488	0.272	-0.282
-698.499	-200.000	-0.054	-0.435
-697.485	-200.000	0.007	0.065
-696.470	232.793	0.142	-0.232
-695.456	800.000	0.105	0.297
-694.441	-200.000	-0.026	0.297
-693.426	-200.000	-0.011	-0.301
-692.412	-24.749	-0.314	0.186
-691.397	-190.565	-0.074	-0.001
-690.383	-64.420	0.216	-0.087
-689.368	69.326	-0.367	0.376
-688.354	604.078	0.224	0.556
-687.339	100.839	0.128	0.148
-686.324	-61.099	0.348	-0.146
-685.310	0.094	0.153	0.109
-684.295	63.834	-0.215	-0.215
-683.281	-167.109	0.075	-0.003
-682.266	-25.566	-0.073	0.043
-681.251	33.639	-0.102	-0.088
-680.237	-200.000	0.029	0.495
-679.222	124.161	-0.166	0.207
-678.208	-66.921	-0.184	-0.072
-677.193	-89.057	-0.141	0.041
-676.178	-18.635	-0.451	-0.279
-675.164	-126.951	0.089	0.013
-674.149	124.661	0.090	-0.112
-673.135	-78.706	-0.020	-0.007
-672.120	469.423	0.038	0.085
-671.105	186.239	-0.157	-0.233
-670.091	-200.000	-0.086	-0.000
-669.076	-200.000	0.037	-0.192
-668.062	23.517	-0.144	0.118
-667.047	97.023	-0.144	0.164
-666.032	-116.948	0.240	0.044
-665.018	-200.000	0.076	-0.389
-664.003	800.000	-0.042	-0.126
-662.989	-76.219	0.071	-0.025
-661.974	-100.015	0.141	0.035
-660.959	-137.699	-0.324	0.036
-659.945	-109.250	-0.258	-0.054
-658.930	-128.617	0.072	0.010
-657.916	-200.000	-0.016	0.081
-656.901	21.258	-0.271	-0.218
-655.886	-106.019	-0.292	0.065
-654.872	-52.423	0.289	-0.133
-653.857	800.000	0.093	0.347
-652.843	214.150	-0.100	0.157
-651.828	-200.000	0.077	0.407
-650.814	-180.529	0.466	-0.010
-649.799	-200.000	-0.012	-0.181
-648.784	440.308	-0.047	0.101
-647.770	-12.985	0.015	-0.010
-646.755	211.893	-0.102	-0.159
-645.741	-20.974	0.085	0.052
-644.726	-137.274	-0.118	-0.013
-643.711	-12.042	-0.124	0.081
-642.697	268.235	0.116	0.202
-641.682	175.656	0.076	0.110
-640.668	662.901	0.076	-0.196
-639.653	60.993	0.264	-0.260
-638.638	-200.000	-0.025	0.175
-637.624	128.426	-0.128	-0.161
-636.609	35.800	-0.277	-0.242
-635.595	-49.374	0.237	0.112
-634.580	-200.000	-0.078	0.359
-633.565	-200.000	-0.046	0.249
-632.551	301.531	-0.303	-0.555
-631.536	800.000	-0.034	0.126
-630.522	800.000	-0.025	0.087
-629.507	53.303	-0.151	0.144
-628.492	188.923	0.041	-0.061
-627.478	-200.000	-0.066	-0.302
-626.463	800.000	-0.107	0.317
-625.449	63.942	0.258	-0.258
-624.434	7.011	-0.187	-0.138
-623.419	74.871	0.106	0.110
-622.405	-16.679	-0.174	0.109
-621.390	-168.345	-0.261	-0.010
-620.376	-200.000	-0.005	-0.139
-619.361	109.838	0.192	0.229
-618.346	-200.000	0.002	-0.301
-617.332	-27.614	-0.340	0.196
-616.317	-87.349	-0.112	-0.034
-615.303	464.443	-0.088	0.196
-614.288	-54.272	-0.136	-0.061
-613.273	-74.572	0.058	0.021
-612.259	-10.854	0.292	0.191
-611.244	654.661	0.143	-0.363
-610.230	800.000	-0.058	0.205
-609.215	759.458	0.021	0.056
-608.201	40.891	0.044	-0.039
-607.186	681.835	-0.059	0.153
-606.171	-144.778	-0.099	0.009
-605.157	56.134	-0.146	-0.141
-604.142	-200.000	0.008	-0.435
-603.128	-200.000	0.082	-0.394
-602.113	11.543	0.125	0.095
-601.098	-82.782	-0.208	0.067
-600.084	164.509	-0.103	-0.144
-599.069	-43.563	0.277	0.139
-598.055	301.692	-0.024	-0.045
-597.040	800.000	-0.190	-0.523
-596.025	516.524	0.091	0.210
-595.011	-176.145	0.137	-0.004
-593.996	-63.716	-0.080	-0.032
-592.982	-63.802	-0.387	-0.157
-591.967	-47.405	-0.325	-0.157
-590.952	-112.524	0.237	0.047
-589.938	-99.015	-0.085	-0.021
-588.923	495.846	-0.076	0.172
-587.909	-200.000	0.001	-0.125
-586.894	76.867	0.131	0.138
-585.879	-200.000	-0.000	0.210
-584.865	-34.313	0.088	0.048
-583.850	-200.000	0.032	0.163
-582.836	800.000	-0.108	0.384
-581.821	39.429	0.160	-0.142
-580.806	-0.780	-0.142	-0.100
-579.792	-50.538	-0.149	0.070
-578.777	278.101	0.031	-0.055
-577.763	-117.706	-0.074	-0.013
-576.748	-43.534	0.123	-0.061
-575.733	7.024	-0.117	0.086
-574.719	59.268	0.139	-0.135
-573.704	114.101	-0.143	-0.172
-572.690	-191.599	-0.105	0.001
-571.675	523.912	0.070	0.163
-570.661	261.269	0.048	-0.082
-569.646	2.105	0.278	0.199
-568.631	-200.000	-0.003	0.233
-567.617	330.877	-0.234	-0.447
-566.602	534.239	-0.159	0.374
-565.588	-124.100	-0.229	0.036
-564.573	-97.504	-0.273	0.070
-563.558	-200.000	-0.046	-0.352
-562.544	-200.000	-0.016	-0.107
-561.529	-1.901	-0.200	-0.139
-560.515	347.744	-0.100	0.196
-559.500	626.760	-0.053	0.132
-558.485	228.487	-0.043	0.070
-557.471	-53.461	0.138	0.062
-556.456	150.558	0.037	0.050
-555.442	-200.000	-0.006	-0.288
-554.427	428.572	0.106	0.227
-553.412	-26.456	0.198	0.115
-552.398	78.319	0.026	-0.027
-551.383	259.328	0.182	-0.311
-550.369	-88.860	0.334	-0.098
-549.354	-105.923	-0.196	0.044
-548.339	-31.853	0.219	0.122
-547.325	-89.572	0.182	-0.053
-546.310	27.212	-0.262	-0.218
-545.296	-200.000	-0.040	-0.342
-544.281	-200.000	0.019	-0.120
-543.266	-200.000	0.014	-0.229
-542.252	-23.591	0.114	-0.067
-541.237	-200.000	-0.001	0.148
-540.223	800.000	-0.107	0.437
-539.208	-200.000	0.007	-0.171
-538.193	-200.000	-0.021	-0.179
-537.179	-200.000	-0.009	0.086
-536.164	-63.357	0.145	-0.059
-535.150	-63.545	-0.115	0.047
-534.135	-76.891	-0.266	-0.092
-533.121	-200.000	-0.013	0.081
-532.106	-54.397	-0.059	0.026
-531.091	800.000	0.136	0.432
-530.077	-200.000	-0.494	0.002
-529.062	-200.000	-0.034	0.278
-528.048	-31.879	-0.149	0.083
-527.033	800.000	0.083	-0.302
-526.018	340.383	0.055	0.106
-525.004	5.774	-0.164	0.120
-523.989	-8.208	-0.067	-0.045
-522.975	5.410	0.164	0.120
-521.960	203.323	0.195	-0.298
-520.945	256.072	-0.307	0.521
-519.931	-200.000	0.036	0.193
-518.916	145.724	-0.114	0.151
-517.902	800.000	-0.059	0.169
-516.887	-5.063	-0.221	-0.151
-515.872	203.287	0.129	-0.198
-514.858	-1.834	-0.219	-0.152
-513.843	-69.802	0.282	-0.106
-512.829	-49.789	-0.126	0.059
-511.814	800.000	0.000	0.001
-510.799	800.000	-0.081	-0.232
-509.785	-25.293	0.272	-0.159
-508.770	-165.650	-0.213	-0.009
-507.756	800.000	0.062	0.210
-506.741	-121.312	-0.323	0.053
-505.726	-97.232	0.090	-0.023
-504.712	237.059	-0.170	0.277
-503.697	21.624	-0.046	-0.037
-502.683	-101.401	-0.092	-0.022
-501.668	187.304	0.100	-0.147
-500.653	-26.069	0.457	-0.265
-499.639	-105.076	-0.131	0.030
-498.624	800.000	-0.086	-0.275
-497.610	227.965	-0.086	-0.138
-496.595	-200.000	-0.079	-0.389
-495.581	22.633	0.386	-0.312
-494.566	-54.983	-0.191	0.085
-493.551	-200.000	0.034	0.165
-492.537	800.000	-0.058	-0.192
-491.522	-60.790	0.258	0.108
-490.508	-200.000	0.083	-0.433
-489.493	-200.000	-0.033	0.270
-488.478	800.000	-0.077	-0.279
-487.464	209.468	-0.066	0.102
-486.449	-85.299	-0.077	0.024
-485.435	691.471	0.031	0.079
-484.420	-59.244	0.171	0.073
-483.405	192.313	-0.064	0.095
-482.391	146.130	0.262	0.347
-481.376	-87.559	-0.240	0.072
-480.362	-130.286	0.334	-0.045
-479.347	-64.936	-0.068	0.027
-478.332	-151.629	-0.076	-0.006
-477.318	203.986	0.137	-0.210
-476.303	-167.613	-0.206	-0.008
-475.289	-200.000	0.057	-0.417
-474.274	8.888	0.101	-0.075
-473.259	386.079	-0.067	0.137
-472.245	-190.575	0.093	0.001
-471.230	299.855	-0.173	0.314
-470.216	-91.406	0.146	0.041
-469.201	-115.331	0.325	0.060
-468.186	-126.174	0.215	-0.032
-467.172	800.000	-0.002	-0.009
-466.157	96.431	0.059	0.067
-465.143	-24.795	0.134	0.078
-464.128	74.943	0.270	0.281
-463.113	622.614	-0.091	0.226
-462.099	191.394	0.057	-0.085
-461.084	800.000	0.019	0.060
-460.070	-200.000	0.003	-0.386
-459.055	245.163	-0.118	-0.196
-458.040	-183.208	-0.311	-0.005
-457.026	-200.000	-0.031	-0.140
-456.011	200.886	-0.201	0.304
-454.997	-84.492	0.211	0.066
-453.982	-158.745	0.541	0.031
-452.968	-40.772	-0.072	0.037
-451.953	136.475	0.212	0.273
-450.938	331.820	-0.180	0.343
-449.924	-94.385	0.106	0.028
-448.909	-55.499	0.142	-0.063
-447.895	-49.966	0.135	0.063
-446.880	222.901	-0.096	-0.153
-445.865	-89.153	-0.176	-0.051
-444.851	-113.419	-0.244	0.047
-443.836	796.498	-0.198	-0.538
-442.822	800.000	-0.009	-0.026
-441.807	603.012	0.131	-0.320
-440.792	-200.000	-0.015	-0.210
-439.778	255.625	0.172	-0.290
-438.763	-65.942	-0.082	-0.032
-437.749	-62.758	0.167	-0.068
-436.734	566.661	0.058	-0.139
-435.719	-200.000	0.048	0.282
-434.705	424.607	0.138	0.292
-433.690	622.969	-0.090	-0.223
-432.676	-200.000	-0.034	-0.250
-431.661	-3.818	0.271	0.185
-430.646	-140.458	-0.413	-0.042
-429.632	-9.290	0.222	0.146
-428.617	-109.219	-0.095	0.020
-427.603	-123.250	0.206	0.032
-426.588	-200.000	0.065	-0.320
-425.573	800.000	-0.100	-0.306
-424.559	-109.911	-0.411	-0.085
-423.544	-112.681	0.468	-0.092
-422.530	-56.800	-0.250	0.109
-421.515	-165.340	0.164	0.007
-420.500	36.173	-0.257	0.223
-419.486	-43.816	-0.168	0.083
-418.471	484.371	-0.032	0.071
-417.457	-200.000	0.034	-0.175
-416.442	5.649	-0.115	-0.084
-415.428	110.216	-0.184	-0.217
-414.413	195.683	0.110	-0.165
-413.398	-24.708	-0.130	0.076
-412.384	-97.663	0.228	-0.058
-411.369	1.899	-0.229	0.162
-410.355	-16.440	-0.324	-0.202
-409.340	-70.219	-0.043	-0.016
-408.325	268.308	0.086	-0.149
-407.311	189.807	-0.105	0.155
-406.296	-27.573	0.201	-0.115
-405.282	-200.000	0.020	0.235
-404.267	592.947	-0.126	-0.306
-403.252	3.774	-0.204	0.147
-402.238	158.685	0.239	-0.326
-401.223	-200.000	0.010	0.245
-400.209	-200.000	0.010	-0.059
-399.194	79.254	0.068	-0.072
-398.179	-200.000	-0.042	0.341
-397.165	-76.601	0.271	0.094
-396.150	-48.968	0.147	-0.069
-395.136	-23.177	0.063	0.037
-394.121	24.997	0.360	0.294
-393.106	-38.632	-0.243	-0.126
-392.092	-53.929	-0.224	-0.100
-391.077	-39.517	0.290	0.149
-390.063	-200.000	-0.010	0.088
-389.048	26.745	-0.034	-0.028
-388.033	800.000	-0.035	-0.106
-387.019	174.154	-0.038	-0.054
-386.004	156.951	-0.155	-0.211
-384.990	-85.363	0.375	-0.115
-383.975	-200.000	-0.033	-0.203
-382.960	156.339	0.056	-0.076
-381.946	800.000	0.033	-0.109
-380.931	-200.000	-0.012	0.085
-379.917	-200.000	0.004	0.033
-378.902	91.200	0.209	0.231
-377.888	-149.274	-0.064	-0.005
-376.873	-200.000	0.018	0.156
-375.858	-200.000	0.008	-0.134
-374.844	-200.000	-0.488	0.000
-373.829	-102.203	-0.140	-0.033
-372.815	57.652	-0.241	-0.232
-371.800	-40.057	0.225	-0.115
-370.785	242.730	-0.068	-0.111
-369.771	117.675	0.071	-0.086
-368.756	-172.686	-0.172	0.005
-367.742	-142.648	0.141	0.014
-366.727	49.834	-0.197	-0.183
-365.712	92.694	0.064	-0.071
-364.698	-16.627	-0.103	0.064
-363.683	687.381	0.086	0.222
-362.669	-52.647	-0.334	-0.152
-361.654	97.631	-0.109	0.123
-360.639	-200.000	-0.087	0.423
-359.625	-139.761	0.188	-0.020
-358.610	-155.424	0.244	-0.015
-357.596	166.221	0.220	-0.307
-356.581	-131.285	0.385	0.050
-355.566	-46.140	0.212	-0.102
-354.552	-71.127	0.272	0.100
-353.537	-140.636	-0.177	-0.018
-352.523	85.092	0.132	0.142
-351.508	342.431	-0.131	0.252
-350.493	188.199	0.016	0.024
-349.479	-200.000	0.080	0.354
-348.464	800.000	-0.107	-0.303
-347.450	-88.523	0.131	-0.038
-346.435	-39.825	-0.028	0.015
-345.420	-88.776	-0.302	-0.088
-344.406	-30.286	-0.105	-0.059
-343.391	373.425	0.089	0.177
-342.377	-17.739	-0.283	-0.175
-341.362	15.240	-0.171	-0.132
-340.348	124.096	0.165	0.203
-339.333	215.160	-0.129	0.200
-338.318	-200.000	-0.020	0.167
-337.304	-200.000	-0.003	-0.014
-336.289	-76.063	0.214	0.074
-335.275	512.504	0.102	-0.234
-334.260	8.854	0.365	-0.270
-333.245	-200.000	-0.077	-0.340
-332.231	-93.236	0.311	-0.085
-331.216	370.393	0.066	0.131
-330.202	416.890	-0.113	-0.236
-329.187	153.825	-0.223	0.300
-328.172	-200.000	-0.071	0.329
-327.158	-25.613	-0.250	-0.144
-326.143	116.305	0.192	-0.231
-325.129	-47.665	-0.190	0.090
-324.114	-105.983	-0.173	-0.038
-323.099	-30.973	-0.079	-0.044
-322.085	-92.758	-0.274	0.075
-321.070	-200.000	-0.000	0.176
-320.056	-168.630	-0.284	-0.011
-319.041	-184.720	0.284	0.004
-318.026	-139.691	0.253	0.026
-317.012	-34.233	-0.103	-0.056
-315.997	-200.000	-0.002	0.154
-314.983	-184.545	0.430	0.007
-313.968	178.201	-0.030	0.043
-312.953	-189.570	0.432	-0.005
-311.939	-118.729	0.194	-0.033
-310.924	-88.161	0.105	-0.031
-309.910	236.640	0.109	-0.177
-308.895	-19.522	-0.261	-0.158
-307.880	-200.000	0.012	0.113
-306.866	626.720	-0.114	0.282
-305.851	-6.738	-0.051	-0.034
-304.837	800.000	-0.038	0.109
-303.822	-168.949	-0.139	-0.005
-302.807	-200.000	0.019	-0.151
-301.793	-39.734	-0.211	0.108
-300.778	800.000	-0.065	0.256
-299.764	-200.000	0.007	0.402
-298.749	-200.000	0.011	-0.278
-297.735	-134.646	-0.210	0.025
-296.720	-200.000	0.006	-0.038
-295.705	-200.000	-0.057	-0.269
-294.691	20.859	0.380	-0.302
-293.676	800.000	0.021	-0.072
-292.662	-35.615	-0.100	-0.053
-291.647	800.000	-0.102	0.295
-290.632	800.000	0.107	0.352
-289.618	-72.474	-0.027	-0.010
-288.603	-47.932	-0.116	-0.055
-287.589	-200.000	0.018	-0.092
-286.574	800.000	-0.047	-0.173
-285.559	65.222	0.071	0.071
-284.545	304.929	-0.054	-0.099
-283.530	59.504	0.196	0.189
-282.516	-200.000	0.003	-0.095
-281.501	10.908	0.080	0.060
-280.486	594.683	-0.090	0.218
-279.472	47.316	-0.269	0.245
-278.457	-200.000	-0.007	-0.136
-277.443	122.897	-0.075	-0.092
-276.428	-66.444	0.307	-0.119
-275.413	225.961	0.085	0.135
-274.399	-200.000	-0.063	-0.377
-273.384	86.524	-0.103	0.112
-272.370	545.571	-0.088	0.205
-271.355	-55.376	0.066	0.029
-270.340	82.164	-0.244	-0.259
-269.326	319.058	0.149	0.276
-268.311	-200.000	0.030	-0.410
-267.297	-29.622	-0.064	0.036
-266.282	-200.000	-0.027	-0.258
-265.267	-42.231	0.144	0.072
-264.253	404.292	0.095	-0.195
-263.238	-148.570	0.492	-0.039
-262.224	32.343	-0.162	-0.137
-261.209	-128.377	0.286	0.040
-260.195	-49.017	0.277	0.130
-259.180	-123.625	-0.259	0.040
-258.165	568.830	-0.117	0.279
-257.151	-95.199	0.363	0.096
-256.136	-200.000	-0.003	-0.092
-255.122	-16.685	-0.287	-0.177
-254.107	49.985	0.219	0.202
-253.092	273.561	0.179	0.309
-252.078	511.242	0.149	0.339
-251.063	310.059	0.142	-0.260
-250.049	800.000	-0.065	0.226
-249.034	-106.714	0.258	-0.056
-248.019	3.391	-0.022	0.016
-247.005	229.950	-0.091	-0.146
-245.990	-111.898	0.198	0.039
-244.976	800.000	-0.119	0.370
-243.961	-37.248	0.206	-0.108
-242.946	-134.458	-0.407	0.049
-241.932	800.000	-0.121	-0.354
-240.917	18.148	0.393	0.306
-239.903	-0.807	-0.213	0.148
-238.888	171.829	0.348	0.488
-237.873	-200.000	0.041	0.403
-236.859	-200.000	0.019	0.179
-235.844	-200.000	-0.002	0.077
-234.830	-87.049	-0.310	-0.092
-233.815	-5.155	0.078	0.052
-232.800	-85.209	0.359	-0.110
-231.786	354.054	-0.057	0.110
-230.771	114.664	0.217	0.259
-229.757	-106.891	-0.193	0.042
-228.742	33.005	0.129	-0.109
-227.727	-176.584	0.154	-0.004
-226.713	-200.000	0.007	0.201
-225.698	417.212	-0.232	-0.484
-224.684	-106.814	0.093	-0.020
-223.669	89.573	-0.057	0.062
-222.655	-200.000	0.001	0.120
-221.640	-140.919	-0.210	-0.021
-220.625	578.692	0.177	-0.423
-219.611	-200.000	-0.058	-0.346
-218.596	-200.000	-0.044	-0.223
-217.582	732.759	-0.066	0.172
-216.567	155.618	0.068	0.092
-215.552	-92.660	0.379	-0.104
-214.538	383.549	-0.144	-0.290
-213.523	699.865	-0.034	-0.088
-212.509	74.518	-0.100	-0.102
-211.494	-166.718	0.151	-0.006
-210.479	-8.451	-0.356	0.234
-209.465	-200.000	0.038	0.364
-208.450	800.000	-0.076	0.268
-207.436	243.746	-0.163	-0.266
-206.421	-130.907	-0.188	-0.025
-205.406	-200.000	0.011	0.048
-204.392	-13.856	-0.344	0.217
-203.377	-123.409	0.205	-0.032
-202.363	800.000	0.027	-0.108
-201.348	730.189	0.232	-0.606
-200.333	543.959	-0.197	-0.458
-199.319	-147.407	-0.331	-0.027
-198.304	-99.866	-0.221	0.054
-197.290	-161.820	0.189	-0.009
-196.275	2.873	0.193	-0.136
-195.260	59.475	0.141	0.135
-194.246	140.940	0.061	-0.079
-193.231	-2.823	-0.449	0.307
-192.217	57.795	0.244	0.233
-191.202	709.532	-0.031	0.079
-190.187	-126.895	-0.135	0.019
-189.173	-150.385	-0.111	0.008
-188.158	-200.000	-0.003	0.186
-187.144	-74.367	-0.045	0.016
-186.129	45.161	0.294	-0.265
-185.114	108.911	-0.159	0.186
-184.100	3.492	-0.164	0.116
-183.085	776.665	0.104	0.277
-182.071	183.243	0.268	0.386
-181.056	-39.852	-0.248	0.127
-180.042	172.386	-0.084	0.118
-179.027	58.306	-0.219	0.210
-178.012	800.000	0.043	-0.159
-176.998	447.158	0.270	0.579
-175.983	126.566	-0.156	-0.192
-174.969	-106.616	-0.028	0.006
-173.954	745.618	0.091	-0.238
-172.939	45.136	-0.073	0.065
-171.925	67.492	-0.284	-0.282
-170.910	594.246	-0.097	0.234
-169.896	-9.483	0.305	0.198
-168.881	-113.615	0.130	-0.025
-167.866	141.100	-0.098	0.127
-166.852	-82.817	0.396	0.125
-165.837	-141.177	-0.253	0.025
-164.823	-97.281	0.186	0.047
-163.808	459.873	0.128	0.278
-162.793	-200.000	0.074	0.374
-161.779	-81.268	0.158	0.051
-160.764	171.627	0.107	0.150
-159.750	800.000	0.052	0.157
-158.735	608.063	0.099	-0.240
-157.720	44.019	0.164	-0.146
-156.706	-97.795	-0.229	0.058
-155.691	261.553	-0.246	-0.415
-154.677	11.872	0.131	-0.098
-153.662	-36.625	0.162	0.085
-152.647	224.714	0.038	0.060
-151.633	-17.979	0.162	-0.099
-150.618	-107.028	0.214	0.046
-149.604	800.000	-0.039	-0.138
-148.589	-71.805	-0.099	-0.036
-147.574	800.000	0.050	-0.153
-146.560	-200.000	-0.009	0.159
-145.545	-200.000	-0.010	-0.072
-144.531	122.765	0.256	0.311
-143.516	321.562	0.198	-0.366
-142.502	-75.167	0.125	-0.043
-141.487	-200.000	-0.028	0.179
-140.472	-200.000	-0.008	-0.054
-139.458	-99.626	-0.118	0.029
-138.443	-200.000	-0.001	-0.263
-137.429	-49.944	0.455	-0.210
-136.414	-175.256	0.249	-0.007
-135.399	-174.811	-0.207	-0.006
-134.385	153.344	0.085	-0.113
-133.370	374.488	0.178	0.353
-132.356	-62.603	0.244	0.099
-131.341	-51.918	-0.459	-0.208
-130.326	-21.464	0.336	0.199
-129.312	-200.000	0.025	0.165
-128.297	-132.301	0.375	0.047
-127.283	19.057	0.208	-0.162
-126.268	-22.839	0.139	-0.081
-125.253	-52.305	0.117	-0.053
-124.239	17.888	-0.175	0.135
-123.224	-200.000	0.053	0.371
-122.210	-200.000	0.004	0.400
