DTS Sentinel unit serial number:	SN413079Multiplexer serial number:	ORYXHardware model number:	OX4-SRSoftware version number:	ORYX F/W v4.00 Oryx Data Collector v3.7.2.0data status	okinstallation	princeton_trtdifferential loss correction	single-endedforward channel	channel 2reverse channel	N/Adate	2019/09/17time	17:43:35forward acquisition time	60.00reverse acquisition time	0.00gamma	496.2192k internal	0.2288k external	0.2288temperature offset calibration	0.9983default loss term (dB/km)	0.3790temperature slope calibration	1.0000multiplexer offset coefficient	1.0000multiplexer slope coefficient	1.0000fibre end	0.00T internal ref (°C)	43.39T ext. ref 1 (°C)	0.34T ext. ref 2 (°C)	38.68length (m)	temperature (°C)	Stokes	anti-Stokes-747.200	-9.713	-0.232	0.158
-746.185	-102.695	-0.251	-0.061
-745.171	44.910	-0.086	-0.081
-744.156	732.725	0.073	-0.200
-743.142	-82.633	0.165	-0.055
-742.127	96.045	-0.192	0.225
-741.112	-11.798	0.127	-0.085
-740.098	-153.734	-0.189	-0.013
-739.083	-69.958	0.140	0.055
-738.069	-53.146	-0.180	0.085
-737.054	-200.000	-0.007	-0.235
-736.039	-107.378	-0.334	-0.075
-735.025	-200.000	0.019	0.204
-734.010	-6.004	-0.323	-0.227
-732.996	-35.641	-0.356	-0.198
-731.981	-24.370	0.035	0.022
-730.966	-113.520	0.174	0.035
-729.952	208.476	0.137	-0.220
-728.937	174.895	-0.065	0.097
-727.923	-129.749	0.361	0.051
-726.908	25.882	-0.195	0.166
-725.894	-71.588	-0.235	0.090
-724.879	-176.171	-0.276	-0.007
-723.864	-155.645	0.084	0.006
-722.850	110.630	-0.206	0.253
-721.835	30.846	0.344	-0.302
-720.821	184.317	-0.152	-0.230
-719.806	800.000	0.065	0.231
-718.791	447.864	0.174	-0.393
-717.777	-50.694	-0.357	-0.172
-716.762	-2.495	0.351	-0.252
-715.748	101.257	-0.284	-0.339
-714.733	-92.093	-0.053	-0.015
-713.718	-119.041	-0.260	0.047
-712.704	-200.000	-0.003	0.341
-711.689	133.197	-0.142	-0.188
-710.675	28.033	-0.210	-0.182
-709.660	-167.477	-0.331	-0.014
-708.645	447.639	0.158	-0.355
-707.631	-79.733	0.231	-0.080
-706.616	59.431	0.126	0.127
-705.602	109.956	-0.149	0.183
-704.587	769.142	-0.118	-0.327
-703.572	722.256	-0.067	0.182
-702.558	6.714	0.277	-0.211
-701.543	-200.000	0.024	-0.221
-700.529	-200.000	0.021	-0.411
-699.514	-34.426	-0.355	-0.199
-698.499	89.580	-0.105	0.120
-697.485	65.070	-0.221	0.229
-696.470	-70.648	-0.138	-0.053
-695.456	63.277	0.077	0.079
-694.441	-86.574	0.378	-0.119
-693.426	-147.449	-0.325	-0.028
-692.412	-115.169	0.211	0.041
-691.397	18.890	0.136	0.112
-690.383	-56.242	-0.106	-0.048
-689.368	-200.000	-0.031	-0.496
-688.354	-200.000	0.018	-0.155
-687.339	800.000	-0.059	-0.242
-686.324	-100.168	0.216	-0.055
-685.310	-100.923	0.153	-0.038
-684.295	800.000	-0.043	0.155
-683.281	-79.609	-0.408	-0.141
-682.266	289.373	-0.039	-0.072
-681.251	-158.891	-0.274	-0.016
-680.237	-200.000	-0.002	0.059
-679.222	-104.394	0.176	-0.042
-678.208	-68.597	0.274	0.108
-677.193	81.223	-0.107	-0.119
-676.178	91.399	0.120	0.138
-675.164	-34.499	0.192	0.108
-674.149	-61.918	-0.252	-0.108
-673.135	-99.859	-0.203	0.052
-672.120	37.241	-0.127	0.115
-671.105	-28.815	0.358	-0.211
-670.091	310.925	0.129	-0.247
-669.076	-200.000	0.025	0.171
-668.062	-76.717	-0.211	-0.075
-667.047	529.743	0.202	-0.488
-666.032	19.329	-0.181	0.149
-665.018	63.238	-0.236	-0.241
-664.003	-119.315	-0.048	-0.009
-662.989	-113.667	-0.142	0.028
-661.974	84.849	-0.067	0.075
-660.959	127.528	-0.182	0.236
-659.945	54.690	0.148	0.146
-658.930	800.000	0.090	-0.279
-657.916	-200.000	-0.020	-0.162
-656.901	105.568	0.019	0.023
-655.886	-9.912	-0.232	0.157
-654.872	438.655	-0.033	0.074
-653.857	-37.466	-0.142	0.077
-652.843	-200.000	-0.012	0.126
-651.828	-121.555	-0.215	-0.036
-650.814	453.016	-0.047	0.105
-649.799	-200.000	0.006	-0.215
-648.784	800.000	-0.060	0.174
-647.770	-200.000	0.035	0.259
-646.755	-106.910	0.138	-0.031
-645.741	203.527	0.200	-0.316
-644.726	87.162	-0.073	-0.083
-643.711	-200.000	0.012	-0.358
-642.697	-124.646	0.315	0.050
-641.682	-191.515	-0.146	-0.001
-640.668	-137.958	-0.136	-0.016
-639.653	17.203	-0.184	-0.149
-638.638	82.411	-0.076	0.084
-637.624	63.672	0.352	-0.360
-636.609	56.101	0.140	-0.138
-635.595	-18.539	-0.161	0.102
-634.580	68.465	0.014	-0.015
-633.565	-90.543	0.127	-0.037
-632.551	800.000	0.152	0.483
-631.536	800.000	-0.056	0.179
-630.522	-72.619	-0.223	0.084
-629.507	-43.693	0.303	-0.156
-628.492	282.182	0.076	0.140
-627.478	587.049	-0.101	-0.253
-626.463	-40.580	0.219	-0.116
-625.449	14.959	-0.159	-0.127
-624.434	278.256	-0.043	0.078
-623.419	145.991	-0.042	0.057
-622.405	64.875	-0.112	-0.115
-621.390	-200.000	0.006	-0.025
-620.376	498.896	-0.086	-0.203
-619.361	-49.982	-0.207	-0.100
-618.346	70.935	0.129	0.136
-617.332	800.000	-0.044	-0.183
-616.317	800.000	0.043	0.171
-615.303	-153.847	0.168	0.012
-614.288	-24.933	0.348	-0.211
-613.273	800.000	0.087	0.291
-612.259	-200.000	-0.036	-0.300
-611.244	800.000	0.079	-0.232
-610.230	-18.296	0.333	0.212
-609.215	51.517	0.146	-0.141
-608.201	-200.000	0.097	-0.463
-607.186	88.838	0.065	-0.073
-606.171	-200.000	0.039	0.268
-605.157	-200.000	0.002	-0.204
-604.142	8.930	-0.151	-0.116
-603.128	-200.000	-0.013	-0.102
-602.113	374.871	-0.088	-0.183
-601.098	-20.851	0.112	-0.070
-600.084	-200.000	0.039	0.252
-599.069	92.850	0.148	-0.170
-598.055	-169.762	0.180	-0.007
-597.040	20.907	-0.334	-0.276
-596.025	-182.650	-0.147	0.003
-595.011	17.364	-0.290	-0.234
-593.996	504.752	0.069	0.164
-592.982	78.066	0.177	-0.192
-591.967	-136.480	-0.223	-0.026
-590.952	-10.228	-0.162	0.109
-589.938	-200.000	-0.015	0.237
-588.923	-157.176	0.194	-0.012
-587.909	800.000	-0.047	0.135
-586.894	-200.000	-0.022	0.153
-585.879	-143.066	-0.133	-0.013
-584.865	-21.004	0.363	0.227
-583.850	262.666	-0.051	-0.090
-582.836	721.477	-0.022	0.059
-581.821	-62.588	-0.407	0.172
-580.806	-77.670	0.114	0.040
-579.792	-200.000	0.041	0.228
-578.777	207.965	0.113	0.179
-577.763	412.562	0.168	0.364
-576.748	-57.993	-0.107	0.047
-575.733	83.408	0.048	-0.053
-574.719	800.000	0.065	-0.249
-573.704	-200.000	0.010	0.080
-572.690	239.091	0.132	-0.224
-571.675	317.512	-0.097	0.187
-570.661	-148.197	-0.090	-0.008
-569.646	-72.946	-0.305	-0.114
-568.631	69.871	0.117	0.123
-567.617	82.151	-0.102	0.113
-566.602	-4.737	-0.389	0.273
-565.588	-61.214	0.196	-0.084
-564.573	-167.045	-0.361	-0.015
-563.558	-200.000	-0.006	0.254
-562.544	-122.611	-0.254	-0.042
-561.529	412.843	-0.046	-0.099
-560.515	-95.495	0.192	0.052
-559.500	380.735	0.112	-0.234
-558.485	-120.432	0.365	-0.063
-557.471	80.748	0.373	0.409
-556.456	-200.000	-0.042	0.293
-555.442	-129.653	-0.164	-0.023
-554.427	23.583	0.172	-0.144
-553.412	269.338	-0.079	-0.140
-552.398	-200.000	0.003	-0.071
-551.383	145.210	-0.124	0.168
-550.369	190.875	0.206	0.315
-549.354	-39.877	0.145	-0.077
-548.339	158.900	0.018	0.026
-547.325	101.598	-0.059	0.071
-546.310	-85.923	-0.048	0.015
-545.296	-200.000	0.003	0.384
-544.281	93.798	-0.208	-0.240
-543.266	43.889	-0.153	-0.142
-542.252	-10.683	-0.077	0.052
-541.237	-113.341	0.215	0.043
-540.223	800.000	0.086	0.273
-539.208	92.301	0.048	-0.055
-538.193	-32.589	0.117	-0.066
-537.179	488.393	0.169	-0.393
-536.164	800.000	0.114	0.421
-535.150	-4.701	-0.372	-0.261
-534.135	-200.000	0.003	-0.153
-533.121	-200.000	0.001	-0.164
-532.106	722.447	0.083	-0.226
-531.091	31.479	-0.229	-0.200
-530.077	800.000	-0.030	-0.132
-529.062	197.158	-0.073	0.113
-528.048	-82.094	-0.101	-0.033
-527.033	151.579	0.217	0.300
-526.018	-200.000	-0.038	0.343
-525.004	202.135	-0.105	0.165
-523.989	-10.977	-0.227	0.152
-522.975	17.782	0.211	-0.170
-521.960	106.144	0.123	0.149
-520.945	29.188	-0.240	-0.207
-519.931	-12.105	0.159	0.106
-518.916	72.962	0.150	0.159
-517.902	401.564	0.019	-0.041
-516.887	12.213	0.138	-0.108
-515.872	-200.000	0.063	-0.308
-514.858	-48.679	0.422	-0.206
-513.843	-54.272	-0.188	-0.087
-512.829	60.298	0.219	-0.221
-511.814	-42.647	-0.084	0.043
-510.799	-200.000	0.041	0.222
-509.785	-141.098	-0.094	0.010
-508.770	376.496	-0.088	0.182
-507.756	-64.757	-0.352	-0.145
-506.741	63.066	0.289	-0.294
-505.726	554.335	0.020	0.049
-504.712	-200.000	-0.017	-0.096
-503.697	679.542	-0.039	0.104
-502.683	-200.000	-0.014	-0.220
-501.668	-133.572	0.356	-0.045
-500.653	800.000	-0.057	0.170
-499.639	800.000	-0.069	0.203
-498.624	-107.660	-0.295	0.065
-497.610	31.157	-0.384	0.334
-496.595	176.108	0.060	-0.089
-495.581	-119.512	-0.172	0.030
-494.566	-13.753	0.034	0.022
-493.551	-200.000	0.039	0.273
-492.537	-85.203	-0.168	-0.053
-491.522	800.000	-0.085	0.239
-490.508	752.389	-0.091	-0.249
-489.493	-200.000	-0.017	-0.190
-488.478	-200.000	-0.007	-0.405
-487.464	-5.467	0.197	-0.137
-486.449	-200.000	-0.034	-0.286
-485.435	-200.000	-0.025	0.120
-484.420	-34.727	0.241	-0.134
-483.405	-200.000	-0.012	-0.212
-482.391	341.186	0.080	-0.159
-481.376	-200.000	0.011	0.370
-480.362	299.817	-0.133	-0.248
-479.347	-98.753	-0.231	0.060
-478.332	-200.000	-0.030	-0.424
-477.318	-5.881	-0.112	0.078
-476.303	-9.029	0.137	-0.093
-475.289	29.190	-0.231	-0.199
-474.274	380.927	0.143	0.297
-473.259	-200.000	0.013	-0.199
-472.245	-10.202	0.234	-0.158
-471.230	-97.632	-0.099	-0.026
-470.216	55.432	0.334	0.328
-469.201	-200.000	0.016	0.089
-468.186	115.219	-0.082	0.102
-467.172	-115.455	-0.186	-0.035
-466.157	-200.000	-0.050	-0.390
-465.143	800.000	0.059	0.181
-464.128	-200.000	-0.033	0.163
-463.113	-77.318	-0.265	-0.093
-462.099	-31.908	0.196	-0.112
-461.084	-96.392	-0.259	-0.069
-460.070	-200.000	-0.060	-0.282
-459.055	-155.268	0.229	0.015
-458.040	63.722	0.126	-0.129
-457.026	-32.224	-0.169	0.096
-456.011	800.000	0.094	0.265
-454.997	155.258	-0.046	0.065
-453.982	800.000	-0.019	-0.083
-452.968	13.484	0.055	-0.043
-451.953	25.100	0.243	0.205
-450.938	-145.030	-0.193	0.018
-449.924	264.450	-0.071	0.125
-448.909	129.984	0.102	-0.132
-447.895	57.066	-0.178	-0.176
-446.880	-200.000	0.020	-0.350
-445.865	308.378	0.109	-0.205
-444.851	-200.000	-0.021	-0.144
-443.836	-86.100	0.098	0.031
-442.822	291.017	-0.083	0.153
-441.807	-117.151	0.269	-0.050
-440.792	317.901	-0.058	0.110
-439.778	22.738	0.161	0.133
-438.763	-6.087	0.125	0.087
-437.749	-104.774	-0.133	0.031
-436.734	108.961	0.130	0.157
-435.719	800.000	0.046	-0.179
-434.705	5.876	0.235	0.176
-433.690	-107.516	-0.044	0.010
-432.676	800.000	-0.048	0.174
-431.661	-137.817	-0.422	-0.048
-430.646	-107.739	0.174	0.039
-429.632	531.132	0.104	-0.248
-428.617	187.586	0.063	0.095
-427.603	-53.844	0.080	0.037
-426.588	-67.375	-0.023	-0.009
-425.573	-178.397	-0.185	0.004
-424.559	-65.134	-0.387	0.158
-423.544	-96.558	-0.144	-0.038
-422.530	12.000	0.164	0.127
-421.515	-33.975	0.345	0.192
-420.500	-200.000	0.023	0.407
-419.486	800.000	-0.082	0.276
-418.471	-200.000	0.011	0.249
-417.457	117.890	-0.117	-0.146
-416.442	71.478	0.217	0.228
-415.428	800.000	0.046	-0.165
-414.413	-95.903	0.156	-0.042
-413.398	-72.978	0.173	0.064
-412.384	-200.000	-0.021	-0.138
-411.369	-158.753	-0.173	0.010
-410.355	-171.409	-0.153	0.005
-409.340	-112.004	-0.136	-0.028
-408.325	-153.519	-0.252	-0.018
-407.311	179.720	-0.168	0.249
-406.296	178.541	-0.091	-0.135
-405.282	-200.000	-0.000	-0.155
-404.267	239.372	-0.056	0.095
-403.252	-94.192	-0.254	-0.070
-402.238	496.346	0.115	-0.268
-401.223	800.000	0.110	0.359
-400.209	-73.212	0.159	0.059
-399.194	-19.547	0.172	0.108
-398.179	-95.356	0.222	0.060
-397.165	530.845	-0.141	-0.337
-396.150	-103.211	0.316	0.075
-395.136	-178.947	0.223	0.005
-394.121	-95.963	-0.276	-0.074
-393.106	-75.978	-0.291	0.104
-392.092	800.000	0.048	0.145
-391.077	24.137	0.243	-0.203
-390.063	-69.208	-0.245	-0.095
-389.048	164.931	-0.136	-0.194
-388.033	-154.114	-0.221	-0.015
-387.019	-40.899	-0.256	-0.134
-386.004	-200.000	-0.012	-0.086
-384.990	800.000	0.083	-0.254
-383.975	226.673	-0.139	0.229
-382.960	12.613	0.253	0.198
-381.946	800.000	-0.071	0.253
-380.931	61.495	-0.156	0.157
-379.917	-69.709	-0.088	0.034
-378.902	-200.000	-0.001	-0.143
-377.888	235.385	0.294	-0.491
-376.873	-134.795	0.176	0.022
-375.858	62.508	-0.195	-0.197
-374.844	84.979	0.144	-0.159
-373.829	800.000	-0.042	0.165
-372.815	190.462	-0.096	-0.146
-371.800	19.695	0.332	0.270
-370.785	-67.802	0.160	0.063
-369.771	93.696	0.233	0.267
-368.756	-72.209	0.306	0.115
-367.742	101.220	-0.042	0.049
-366.727	-36.315	0.173	-0.094
-365.712	-129.749	0.233	-0.032
-364.698	417.869	0.151	-0.326
-363.683	-90.034	-0.201	0.059
-362.669	102.680	-0.093	0.110
-361.654	4.913	0.283	0.211
-360.639	-145.276	-0.235	-0.021
-359.625	800.000	-0.087	-0.297
-358.610	-108.907	-0.033	0.007
-357.596	-200.000	-0.002	-0.103
-356.581	-200.000	0.015	0.152
-355.566	800.000	-0.056	0.241
-354.552	400.125	0.110	-0.232
-353.537	-80.370	0.291	-0.098
-352.523	-150.611	-0.401	-0.031
-351.508	-75.496	-0.310	-0.111
-350.493	492.694	0.020	-0.045
-349.479	-200.000	0.005	0.046
-348.464	20.125	0.326	0.265
-347.450	-200.000	-0.015	-0.209
-346.435	276.950	-0.197	-0.354
-345.420	-92.243	0.054	0.015
-344.406	800.000	0.086	0.312
-343.391	-94.016	-0.200	0.055
-342.377	-200.000	0.030	0.287
-341.362	800.000	0.099	0.281
-340.348	-84.095	-0.028	-0.009
-339.333	-101.203	0.123	0.030
-338.318	-89.756	0.225	-0.066
-337.304	-200.000	0.030	-0.226
-336.289	68.465	-0.132	0.136
-335.275	-159.969	0.449	0.025
-334.260	8.160	-0.227	0.172
-333.245	195.956	0.161	0.247
-332.231	800.000	-0.108	-0.412
-331.216	-200.000	-0.028	-0.474
-330.202	4.441	0.303	0.224
-329.187	147.607	-0.029	-0.040
-328.172	-200.000	0.009	0.260
-327.158	-114.100	0.135	-0.026
-326.143	5.439	-0.203	0.151
-325.129	349.114	-0.142	-0.282
-324.114	-119.887	-0.272	-0.047
-323.099	-88.482	0.106	0.032
-322.085	343.696	-0.091	0.180
-321.070	113.204	-0.103	0.126
-320.056	177.404	-0.127	0.187
-319.041	450.749	-0.090	-0.200
-318.026	530.430	-0.063	-0.149
-317.012	-71.928	0.355	-0.133
-315.997	34.436	0.092	-0.081
-314.983	108.115	-0.049	0.059
-313.968	-108.972	0.200	0.043
-312.953	-14.288	-0.151	0.098
-311.939	-10.962	-0.189	0.126
-310.924	-120.772	-0.178	0.030
-309.910	500.811	0.094	0.219
-308.895	8.372	-0.110	0.083
-307.880	186.684	-0.194	-0.292
-306.866	-175.440	0.168	-0.005
-305.851	188.039	0.107	-0.161
-304.837	7.126	-0.493	-0.371
-303.822	-200.000	0.003	0.268
-302.807	-200.000	0.015	-0.406
-301.793	75.779	-0.219	-0.233
-300.778	-69.041	-0.311	-0.121
-299.764	-165.185	-0.181	0.008
-298.749	606.891	-0.053	-0.134
-297.735	-122.348	-0.294	-0.048
-296.720	8.506	-0.063	-0.048
-295.705	111.001	-0.081	-0.099
-294.691	-134.820	0.310	-0.038
-293.676	50.252	0.072	-0.068
-292.662	800.000	-0.039	-0.174
-291.647	-200.000	0.072	0.430
-290.632	47.563	-0.225	-0.212
-289.618	-200.000	-0.019	0.105
-288.603	-200.000	-0.014	0.145
-287.589	230.922	0.087	-0.143
-286.574	-200.000	-0.119	0.000
-285.559	-200.000	-0.021	-0.207
-284.545	-147.468	0.087	0.007
-283.530	800.000	-0.047	0.197
-282.516	-149.388	-0.426	0.034
-281.501	-115.197	-0.104	0.020
-280.486	67.040	0.198	0.203
-279.472	-131.014	0.268	0.036
-278.457	93.583	0.102	0.117
-277.443	-200.000	0.017	-0.235
-276.428	800.000	-0.036	0.118
-275.413	-96.073	0.090	0.024
-274.399	13.958	0.215	-0.168
-273.384	32.588	-0.079	0.069
-272.370	122.101	-0.124	0.156
-271.355	-200.000	-0.005	-0.092
-270.340	57.151	-0.197	-0.193
-269.326	-75.462	0.053	-0.019
-268.311	204.926	-0.111	0.173
-267.297	143.557	0.105	-0.141
-266.282	1.056	0.152	-0.110
-265.267	-61.071	0.278	-0.118
-264.253	-128.589	0.222	-0.032
-263.238	27.932	0.152	-0.129
-262.224	800.000	-0.062	0.186
-261.209	-104.261	-0.139	0.033
-260.195	140.981	-0.071	-0.094
-259.180	-78.762	0.339	-0.116
-258.165	-200.000	0.014	0.180
-257.151	-4.318	0.346	0.241
-256.136	53.551	0.124	-0.120
-255.122	-200.000	-0.005	-0.063
-254.107	-200.000	0.011	0.072
-253.092	145.712	-0.074	0.100
-252.078	800.000	0.066	0.250
-251.063	-71.692	-0.132	-0.049
-250.049	-200.000	0.094	-0.531
-249.034	-200.000	-0.018	-0.105
-248.019	-125.254	-0.312	0.048
-247.005	-84.408	-0.332	-0.106
-245.990	112.723	0.230	-0.280
-244.976	800.000	0.066	-0.290
-243.961	-8.796	0.059	0.040
-242.946	-96.495	-0.359	0.095
-241.932	-175.888	0.089	-0.002
-240.917	-37.504	-0.052	-0.028
-239.903	721.185	-0.118	-0.315
-238.888	-162.262	0.117	0.006
-237.873	-200.000	-0.025	0.147
-236.859	-200.000	-0.075	0.000
-235.844	-42.534	0.169	0.086
-234.830	-96.277	-0.238	-0.063
-233.815	-150.364	-0.343	-0.027
-232.800	-12.993	0.129	0.084
-231.786	800.000	-0.100	-0.302
-230.771	363.670	-0.102	0.206
-229.757	-148.505	0.206	-0.017
-228.742	109.250	0.184	0.221
-227.727	800.000	0.055	0.191
-226.713	-125.142	0.159	0.025
-225.698	-200.000	-0.007	-0.142
-224.684	379.781	0.125	0.258
-223.669	-173.354	-0.107	0.003
-222.655	-67.228	-0.242	0.096
-221.640	27.368	0.434	-0.367
-220.625	-92.919	0.309	-0.087
-219.611	243.920	0.049	0.082
-218.596	-136.570	0.133	-0.016
-217.582	59.610	0.130	-0.129
-216.567	-138.022	0.197	0.022
-215.552	131.533	0.078	0.101
-214.538	6.796	0.199	0.149
-213.523	-68.677	-0.356	0.138
-212.509	-1.284	-0.088	-0.063
-211.494	-129.371	0.101	0.014
-210.479	323.062	-0.075	0.143
-209.465	800.000	-0.157	-0.610
-208.450	282.122	-0.179	-0.322
-207.436	196.362	0.278	0.426
-206.421	-107.403	0.070	-0.015
-205.406	-15.381	0.070	-0.045
-204.392	126.372	-0.197	0.251
-203.377	-103.246	-0.181	-0.043
-202.363	99.479	-0.059	-0.068
-201.348	800.000	-0.006	-0.021
-200.333	403.986	0.183	-0.386
-199.319	332.882	-0.081	0.156
-198.304	800.000	0.072	0.210
-197.290	-143.038	0.359	0.035
-196.275	54.246	-0.240	-0.232
-195.260	-200.000	0.030	0.250
-194.246	-200.000	-0.032	0.165
-193.231	-124.738	0.147	0.023
-192.217	-16.189	-0.320	0.204
-191.202	490.865	-0.108	-0.247
-190.187	-39.936	0.243	-0.127
-189.173	-37.613	0.217	0.116
-188.158	123.950	-0.225	0.284
-187.144	-200.000	-0.018	0.283
-186.129	-45.626	-0.298	-0.148
-185.114	-66.690	-0.225	0.089
-184.100	426.693	0.093	-0.200
-183.085	-200.000	0.027	0.239
-182.071	-169.319	-0.227	-0.008
-181.056	106.116	0.252	0.299
-180.042	768.204	-0.076	0.208
-179.027	391.438	-0.084	0.176
-178.012	-200.000	-0.009	-0.053
-176.998	800.000	0.064	0.186
-175.983	800.000	-0.133	0.516
-174.969	154.016	0.070	0.097
-173.954	129.371	0.105	0.135
-172.939	404.975	-0.178	-0.377
-171.925	800.000	-0.048	-0.135
-170.910	77.305	0.152	0.162
-169.896	-151.864	-0.441	-0.032
-168.881	-41.272	0.073	0.038
-167.866	609.209	-0.120	0.299
-166.852	800.000	-0.059	0.194
-165.837	800.000	0.037	0.158
-164.823	279.570	0.148	0.264
-163.808	-144.258	-0.087	-0.008
-162.793	-141.420	-0.266	-0.027
-161.779	800.000	-0.039	0.123
-160.764	47.418	-0.236	-0.221
-159.750	-200.000	0.009	0.045
-158.735	46.649	0.063	0.058
-157.720	-137.432	0.152	-0.017
-156.706	-77.108	-0.071	-0.025
-155.691	-73.680	0.018	0.006
-154.677	-58.415	-0.078	-0.034
-153.662	-188.224	-0.158	-0.002
-152.647	-71.418	0.332	0.125
-151.633	252.644	-0.108	0.185
-150.618	-23.785	0.485	0.291
-149.604	-200.000	0.077	0.381
-148.589	-60.478	0.111	-0.047
-147.574	-152.858	-0.062	-0.004
-146.560	-116.188	0.231	0.043
-145.545	-66.317	0.376	-0.150
-144.531	-80.721	-0.258	-0.086
-143.516	-109.223	-0.245	-0.052
-142.502	800.000	0.030	-0.102
-141.487	-54.851	-0.159	0.072
-140.472	-200.000	-0.001	-0.153
-139.458	125.298	0.056	-0.070
-138.443	-26.254	-0.066	-0.039
-137.429	313.112	0.036	-0.067
-136.414	-77.674	-0.271	-0.094
-135.399	-200.000	-0.017	-0.194
-134.385	200.858	0.052	-0.080
-133.370	211.316	0.072	-0.114
-132.356	-200.000	-0.018	-0.349
-131.341	-200.000	0.046	0.210
-130.326	800.000	-0.088	-0.304
-129.312	-146.792	-0.089	-0.008
-128.297	-56.258	0.500	0.222
-127.283	-37.226	-0.173	-0.093
-126.268	800.000	0.071	-0.281
-125.253	-112.426	0.195	0.039
-124.239	132.316	-0.206	-0.265
-123.224	-200.000	-0.020	-0.130
-122.210	117.218	-0.053	0.065
