DTS Sentinel unit serial number:	SN413079Multiplexer serial number:	ORYXHardware model number:	OX4-SRSoftware version number:	ORYX F/W v4.00 Oryx Data Collector v3.7.2.0data status	okinstallation	princeton_trtdifferential loss correction	single-endedforward channel	channel 2reverse channel	N/Adate	2019/09/19time	15:07:35forward acquisition time	60.00reverse acquisition time	0.00gamma	496.2192k internal	0.2321k external	0.2321temperature offset calibration	1.0029default loss term (dB/km)	0.3790temperature slope calibration	1.0000multiplexer offset coefficient	1.0000multiplexer slope coefficient	1.0000fibre end	0.00T internal ref (°C)	33.34T ext. ref 1 (°C)	1.15T ext. ref 2 (°C)	30.32length (m)	temperature (°C)	Stokes	anti-Stokes-747.200	3.252	0.367	-0.270
-746.185	20.529	-0.178	0.146
-745.171	800.000	0.035	-0.118
-744.156	44.651	-0.104	-0.097
-743.142	61.492	0.165	0.166
-742.127	74.769	0.076	0.080
-741.112	-147.564	0.178	0.015
-740.098	-12.557	-0.250	0.165
-739.083	88.324	0.120	0.135
-738.069	-200.000	0.046	0.315
-737.054	503.235	0.096	-0.225
-736.039	-200.000	-0.005	-0.177
-735.025	-118.500	0.113	-0.020
-734.010	14.262	0.135	-0.106
-732.996	-62.266	-0.156	0.066
-731.981	-200.000	-0.165	0.000
-730.966	-59.010	-0.188	0.082
-729.952	-200.000	0.000	0.065
-728.937	-18.338	-0.255	-0.161
-727.923	-38.427	0.083	0.044
-726.908	-95.704	-0.357	0.096
-725.894	-132.395	-0.107	0.014
-724.879	800.000	-0.059	0.167
-723.864	175.069	-0.298	0.436
-722.850	246.916	0.030	-0.050
-721.835	-200.000	-0.011	-0.271
-720.821	711.398	0.079	-0.212
-719.806	-115.127	-0.312	-0.060
-718.791	-157.287	-0.444	-0.027
-717.777	21.859	-0.093	0.076
-716.762	-84.743	-0.120	-0.038
-715.748	-54.320	-0.165	0.076
-714.733	-8.810	0.136	-0.092
-713.718	-189.647	-0.229	0.003
-712.704	-144.429	-0.317	-0.030
-711.689	-200.000	-0.013	-0.179
-710.675	-9.380	-0.030	0.020
-709.660	-69.294	0.247	0.096
-708.645	-37.792	-0.192	0.103
-707.631	318.121	-0.075	-0.144
-706.616	-65.223	0.430	-0.175
-705.602	62.068	0.291	-0.293
-704.587	-53.986	0.163	-0.075
-703.572	43.774	0.086	-0.080
-702.558	-81.378	0.536	-0.178
-701.543	-58.090	0.082	-0.036
-700.529	243.355	0.138	0.234
-699.514	-89.219	0.210	-0.063
-698.499	-102.855	0.150	-0.036
-697.485	-83.643	0.179	0.058
-696.470	-133.326	-0.354	-0.045
-695.456	130.542	-0.109	-0.141
-694.441	103.710	-0.219	-0.260
-693.426	798.995	0.037	0.103
-692.412	-128.514	0.212	0.030
-691.397	300.503	0.089	0.165
-690.383	-40.342	0.382	-0.200
-689.368	229.197	-0.054	0.089
-688.354	-24.482	0.195	-0.117
-687.339	340.741	0.158	-0.312
-686.324	-200.000	-0.005	-0.276
-685.310	115.744	-0.157	-0.193
-684.295	-93.699	-0.030	-0.008
-683.281	-40.601	-0.084	0.044
-682.266	78.886	0.079	0.085
-681.251	-18.946	-0.268	0.168
-680.237	-118.766	0.165	-0.029
-679.222	800.000	-0.087	0.290
-678.208	13.738	0.051	0.040
-677.193	206.476	0.213	0.334
-676.178	800.000	0.051	0.195
-675.164	-200.000	-0.017	0.118
-674.149	-25.005	0.152	0.091
-673.135	58.117	-0.117	0.116
-672.120	74.604	0.183	-0.194
-671.105	162.913	-0.084	0.120
-670.091	-62.484	0.275	-0.115
-669.076	800.000	0.035	0.125
-668.062	-77.242	-0.233	0.082
-667.047	97.888	0.264	-0.307
-666.032	-26.034	-0.197	0.117
-665.018	-163.135	-0.202	0.010
-664.003	174.622	-0.132	-0.192
-662.989	4.033	0.093	0.068
-661.974	-200.000	-0.014	0.140
-660.959	-133.207	-0.266	0.034
-659.945	169.745	-0.137	0.197
-658.930	22.602	-0.169	0.139
-657.916	-121.333	0.070	-0.012
-656.901	199.391	0.108	-0.168
-655.886	83.458	0.186	-0.204
-654.872	-72.151	-0.089	0.033
-653.857	-157.740	-0.246	0.015
-652.843	71.271	0.121	-0.127
-651.828	800.000	-0.062	-0.246
-650.814	-108.472	-0.460	-0.100
-649.799	-48.181	-0.389	-0.189
-648.784	-184.527	0.065	-0.001
-647.770	299.759	-0.070	0.130
-646.755	21.944	-0.074	0.061
-645.741	-200.000	0.021	0.109
-644.726	243.181	-0.184	-0.311
-643.711	800.000	0.020	-0.077
-642.697	800.000	0.042	0.185
-641.682	-40.670	-0.347	-0.181
-640.668	800.000	-0.048	-0.133
-639.653	29.143	-0.028	-0.024
-638.638	496.771	-0.069	0.160
-637.624	-17.139	0.199	-0.126
-636.609	-200.000	0.011	0.158
-635.595	108.830	-0.096	0.116
-634.580	-115.124	-0.059	-0.011
-633.565	-200.000	-0.005	0.056
-632.551	800.000	-0.054	0.150
-631.536	62.637	0.122	0.123
-630.522	704.475	-0.069	-0.182
-629.507	39.143	-0.280	-0.252
-628.492	-200.000	0.062	-0.497
-627.478	1.495	-0.325	0.235
-626.463	-46.497	-0.053	-0.026
-625.449	670.635	0.034	0.088
-624.434	62.933	0.223	-0.225
-623.419	-20.873	0.314	-0.194
-622.405	335.040	0.143	-0.279
-621.390	-47.604	0.249	-0.122
-620.376	70.933	0.192	0.200
-619.361	396.144	-0.148	0.311
-618.346	-200.000	0.014	0.104
-617.332	77.094	-0.106	-0.113
-616.317	-100.729	0.120	0.030
-615.303	-200.000	0.035	-0.155
-614.288	-30.997	0.179	-0.102
-613.273	800.000	-0.079	-0.276
-612.259	-190.254	-0.146	0.002
-611.244	579.893	-0.072	0.178
-610.230	-85.005	0.121	-0.038
-609.215	-47.722	-0.216	0.105
-608.201	248.254	0.027	-0.045
-607.186	-200.000	-0.058	-0.294
-606.171	-200.000	-0.005	-0.204
-605.157	-145.697	-0.477	0.043
-604.142	800.000	0.023	0.093
-603.128	205.900	-0.245	0.383
-602.113	15.345	-0.135	0.106
-601.098	4.414	0.038	-0.028
-600.084	-156.194	0.239	0.015
-599.069	257.488	0.112	0.193
-598.055	-85.456	0.073	0.023
-597.040	800.000	-0.058	-0.201
-596.025	69.560	-0.116	-0.120
-595.011	-78.022	-0.258	-0.089
-593.996	-53.179	-0.263	-0.121
-592.982	746.247	0.097	-0.263
-591.967	-163.842	-0.218	0.010
-590.952	-34.912	0.391	-0.214
-589.938	-77.649	-0.130	0.045
-588.923	-13.948	0.080	-0.052
-587.909	-200.000	0.229	0.000
-586.894	181.650	0.098	-0.146
-585.879	-69.754	0.114	0.044
-584.865	82.789	0.257	0.281
-583.850	-140.558	-0.164	0.017
-582.836	-200.000	0.030	-0.295
-581.821	-200.000	0.015	0.155
-580.806	-200.000	0.034	0.227
-579.792	37.432	0.196	0.175
-578.777	-5.452	0.203	-0.140
-577.763	-142.282	-0.216	-0.021
-576.748	-120.435	-0.274	0.047
-575.733	-50.036	-0.221	-0.105
-574.719	21.314	-0.267	0.218
-573.704	800.000	0.027	0.098
-572.690	-23.546	-0.456	-0.275
-571.675	-200.000	0.021	-0.232
-570.661	112.453	0.295	-0.359
-569.646	326.385	0.080	0.155
-568.631	-72.858	-0.258	-0.095
-567.617	-131.172	-0.379	0.051
-566.602	82.701	0.076	-0.083
-565.588	120.951	0.035	0.044
-564.573	800.000	0.109	-0.326
-563.558	-200.000	-0.060	0.302
-562.544	-200.000	-0.025	0.229
-561.529	-200.000	-0.018	0.139
-560.515	-143.892	0.277	-0.026
-559.500	-141.872	-0.370	-0.037
-558.485	800.000	0.099	-0.430
-557.471	391.812	-0.124	-0.258
-556.456	-146.836	0.156	-0.013
-555.442	-156.061	-0.075	0.005
-554.427	123.928	0.093	-0.118
-553.412	-101.494	-0.135	-0.033
-552.398	-110.020	0.405	-0.085
-551.383	69.278	-0.196	-0.203
-550.369	-133.310	-0.276	0.035
-549.354	-102.989	0.253	0.060
-548.339	114.567	-0.277	0.338
-547.325	800.000	0.171	-0.533
-546.310	-165.399	-0.309	0.014
-545.296	800.000	-0.035	0.123
-544.281	239.496	0.171	-0.286
-543.266	-26.872	0.133	0.078
-542.252	87.173	0.021	0.023
-541.237	-26.203	0.163	-0.096
-540.223	-200.000	-0.070	-0.331
-539.208	6.858	-0.171	-0.128
-538.193	485.859	0.050	0.115
-537.179	113.534	-0.154	0.188
-536.164	4.484	-0.101	-0.074
-535.150	491.204	-0.105	0.242
-534.135	-47.042	-0.155	0.076
-533.121	-125.994	-0.019	-0.003
-532.106	165.506	-0.109	0.155
-531.091	-67.354	-0.228	0.090
-530.077	-83.514	-0.268	-0.086
-529.062	-123.074	0.216	-0.035
-528.048	-168.349	-0.195	-0.008
-527.033	-200.000	-0.188	0.000
-526.018	-32.865	0.413	0.230
-525.004	-140.186	-0.113	-0.012
-523.989	123.151	-0.167	0.209
-522.975	314.930	0.206	0.390
-521.960	29.791	0.206	0.176
-520.945	-77.160	-0.207	0.072
-519.931	-82.816	-0.144	-0.047
-518.916	-200.000	-0.051	0.477
-517.902	-18.623	-0.227	-0.142
-516.887	14.276	-0.335	0.262
-515.872	280.573	-0.126	0.225
-514.858	-200.000	0.001	-0.086
-513.843	10.357	0.029	-0.022
-512.829	17.998	-0.113	0.090
-511.814	758.924	0.030	-0.082
-510.799	-35.599	-0.267	0.145
-509.785	95.376	0.161	0.184
-508.770	-19.213	0.207	-0.129
-507.756	800.000	-0.124	-0.409
-506.741	-37.892	0.305	0.163
-505.726	35.884	0.327	0.288
-504.712	-29.903	0.078	0.045
-503.697	800.000	0.043	-0.154
-502.683	-200.000	-0.002	-0.160
-501.668	237.524	0.162	-0.269
-500.653	-200.000	0.022	-0.158
-499.639	104.527	-0.340	-0.401
-498.624	-105.281	0.244	-0.056
-497.610	800.000	0.089	-0.354
-496.595	199.940	-0.145	0.223
-495.581	-200.000	0.033	-0.182
-494.566	-44.974	0.299	-0.149
-493.551	-106.060	-0.245	0.055
-492.537	-30.451	-0.057	-0.032
-491.522	53.171	0.128	-0.122
-490.508	-200.000	0.009	-0.177
-489.493	-200.000	0.012	0.320
-488.478	-24.355	-0.188	-0.112
-487.464	-200.000	-0.010	-0.167
-486.449	44.799	0.113	0.104
-485.435	-110.256	0.314	0.066
-484.420	-146.619	0.210	-0.018
-483.405	24.426	0.098	0.081
-482.391	-101.006	-0.394	0.097
-481.376	160.521	0.114	-0.159
-480.362	248.343	-0.312	-0.528
-479.347	-200.000	0.043	-0.237
-478.332	-200.000	-0.012	-0.432
-477.318	60.426	0.168	0.166
-476.303	-92.800	0.036	-0.010
-475.289	246.978	0.191	0.323
-474.274	150.111	0.083	-0.113
-473.259	155.984	-0.063	-0.087
-472.245	-148.933	0.241	0.019
-471.230	-74.711	0.561	-0.202
-470.216	146.615	-0.139	0.187
-469.201	325.675	0.242	0.463
-468.186	-200.000	-0.009	-0.112
-467.172	392.886	-0.052	-0.109
-466.157	798.764	0.068	-0.188
-465.143	-200.000	-0.034	0.170
-464.128	-102.673	0.222	-0.053
-463.113	-180.393	-0.248	-0.005
-462.099	287.774	-0.112	0.203
-461.084	-200.000	-0.044	-0.280
-460.070	-187.308	-0.109	0.001
-459.055	-35.814	0.142	0.077
-458.040	-200.000	0.071	0.369
-457.026	245.747	-0.076	0.127
-456.011	263.253	0.215	0.374
-454.997	-200.000	-0.014	0.450
-453.982	482.798	-0.027	0.062
-452.968	800.000	0.060	0.225
-451.953	-200.000	0.029	0.379
-450.938	-200.000	-0.005	-0.359
-449.924	50.124	0.258	-0.243
-448.909	-121.545	-0.123	0.020
-447.895	-148.613	0.192	-0.016
-446.880	-9.014	0.417	-0.279
-445.865	-86.898	-0.334	-0.102
-444.851	-162.041	-0.323	0.016
-443.836	-55.056	0.308	0.138
-442.822	-52.597	0.180	0.083
-441.807	92.945	-0.163	-0.184
-440.792	-72.700	-0.179	0.066
-439.778	380.952	0.094	-0.192
-438.763	-133.808	-0.255	-0.032
-437.749	-105.693	-0.295	-0.067
-436.734	-116.074	0.184	-0.034
-435.719	-63.612	-0.187	-0.077
-434.705	-200.000	-0.050	-0.299
-433.690	58.750	-0.267	0.262
-432.676	677.555	-0.106	0.276
-431.661	20.212	0.178	-0.143
-430.646	67.516	-0.167	-0.170
-429.632	-94.748	-0.048	0.013
-428.617	-91.622	0.203	0.058
-427.603	-120.488	-0.152	0.026
-426.588	383.196	-0.175	0.360
-425.573	215.970	0.099	-0.157
-424.559	704.666	-0.029	-0.077
-423.544	-1.501	0.121	0.085
-422.530	-150.663	0.161	-0.012
-421.515	-58.205	-0.197	-0.086
-420.500	800.000	-0.098	-0.278
-419.486	-106.631	0.204	-0.045
-418.471	4.705	0.087	0.064
-417.457	-129.330	0.256	0.035
-416.442	-60.509	-0.101	0.043
-415.428	800.000	0.011	0.035
-414.413	-23.087	0.183	0.110
-413.398	-133.590	0.109	-0.014
-412.384	-166.556	0.290	0.012
-411.369	528.944	0.034	-0.079
-410.355	800.000	-0.035	-0.130
-409.340	800.000	0.098	-0.284
-408.325	636.203	0.110	-0.278
-407.311	466.154	0.025	0.056
-406.296	261.587	-0.171	-0.295
-405.282	355.189	0.167	-0.331
-404.267	29.767	-0.080	0.068
-403.252	-152.594	-0.167	-0.012
-402.238	-200.000	0.033	-0.221
-401.223	-0.444	-0.132	-0.093
-400.209	534.514	-0.071	-0.167
-399.194	-200.000	-0.058	0.296
-398.179	185.475	0.037	-0.055
-397.165	-52.097	0.257	-0.119
-396.150	246.428	-0.240	-0.404
-395.136	800.000	0.062	0.183
-394.121	-111.773	-0.111	0.022
-393.106	-68.138	-0.371	0.144
-392.092	-200.000	-0.028	0.189
-391.077	-19.329	-0.183	-0.113
-390.063	-102.407	0.120	0.029
-389.048	722.829	-0.115	-0.305
-388.033	-32.473	-0.210	-0.117
-387.019	-200.000	-0.015	-0.220
-386.004	125.296	0.185	0.233
-384.990	-200.000	-0.046	0.397
-383.975	800.000	-0.134	-0.475
-382.960	-200.000	0.004	-0.123
-381.946	-130.609	-0.194	0.026
-380.931	-41.704	0.066	0.034
-379.917	-140.696	-0.455	-0.047
-378.902	106.426	0.109	-0.129
-377.888	176.044	0.106	0.153
-376.873	187.885	0.065	0.096
-375.858	-70.279	0.372	0.141
-374.844	-28.121	-0.134	-0.077
-373.829	20.438	-0.207	0.167
-372.815	-47.745	0.036	-0.017
-371.800	-113.303	0.295	0.058
-370.785	-85.567	0.442	0.137
-369.771	-1.476	0.078	-0.055
-368.756	176.322	0.143	-0.207
-367.742	22.453	-0.316	-0.257
-366.727	-194.253	0.273	0.002
-365.712	-200.000	-0.029	0.424
-364.698	192.696	-0.148	-0.222
-363.683	224.383	0.182	-0.293
-362.669	224.262	0.163	-0.263
-361.654	-13.650	0.073	-0.047
-360.639	52.179	0.136	0.129
-359.625	-134.869	0.219	-0.026
-358.610	-154.628	-0.224	-0.015
-357.596	-30.797	-0.089	-0.050
-356.581	800.000	0.041	0.115
-355.566	298.426	-0.020	-0.037
-354.552	-105.122	0.066	0.015
-353.537	-62.158	-0.329	-0.137
-352.523	-34.293	-0.263	0.144
-351.508	-200.000	-0.003	0.016
-350.493	-89.437	-0.234	-0.068
-349.479	81.059	0.153	0.165
-348.464	-200.000	-0.025	-0.127
-347.450	-47.425	0.101	0.049
-346.435	39.825	-0.241	0.215
-345.420	-200.000	0.078	0.351
-344.406	-200.000	0.108	0.472
-343.391	-41.751	-0.191	-0.097
-342.377	-200.000	-0.045	0.219
-341.362	92.301	0.016	0.018
-340.348	-200.000	0.032	0.158
-339.333	800.000	-0.065	-0.226
-338.318	-31.060	0.148	0.083
-337.304	-200.000	0.028	0.228
-336.289	700.838	-0.128	0.334
-335.275	-200.000	0.029	-0.133
-334.260	-77.675	-0.235	0.081
-333.245	800.000	-0.072	0.214
-332.231	-134.459	0.276	0.034
-331.216	800.000	-0.044	0.124
-330.202	595.345	-0.033	-0.081
-329.187	-200.000	-0.011	0.154
-328.172	315.313	0.101	-0.189
-327.158	-89.636	-0.311	0.091
-326.143	800.000	-0.083	-0.319
-325.129	-131.283	-0.137	-0.018
-324.114	-143.349	0.067	-0.006
-323.099	93.643	0.113	-0.128
-322.085	-200.000	-0.036	-0.189
-321.070	-35.948	0.230	-0.124
-320.056	-84.641	-0.122	-0.038
-319.041	-27.424	-0.275	0.159
-318.026	-163.852	0.310	0.014
-317.012	-17.185	-0.039	-0.024
-315.997	482.819	0.147	0.333
-314.983	-200.000	0.023	-0.193
-313.968	-36.424	-0.141	0.075
-312.953	-200.000	-0.033	-0.196
-311.939	-200.000	-0.002	-0.392
-310.924	1.636	-0.100	0.072
-309.910	541.569	0.045	-0.106
-308.895	-200.000	-0.035	0.208
-307.880	-46.630	0.301	0.147
-306.866	-36.343	0.024	0.013
-305.851	800.000	0.020	-0.069
-304.837	250.650	-0.108	0.183
-303.822	-45.815	-0.367	-0.180
-302.807	69.015	-0.254	-0.260
-301.793	64.867	0.281	0.282
-300.778	-83.518	-0.308	0.098
-299.764	-200.000	-0.010	0.184
-298.749	-153.956	0.341	0.023
-297.735	-23.382	-0.189	0.113
-296.720	-58.546	-0.102	0.044
-295.705	150.205	0.231	0.311
-294.691	-134.899	0.324	0.039
-293.676	132.028	-0.038	-0.048
-292.662	800.000	0.098	-0.277
-291.647	729.269	0.078	0.207
-290.632	800.000	0.129	0.372
-289.618	-6.349	0.174	0.118
-288.603	119.044	0.204	0.251
-287.589	-200.000	-0.011	-0.331
-286.574	-111.777	-0.512	-0.103
-285.559	-164.871	-0.207	-0.009
-284.545	-144.613	0.256	-0.023
-283.530	725.360	-0.113	-0.300
-282.516	15.225	0.133	0.103
-281.501	-200.000	-0.071	-0.347
-280.486	78.550	0.042	-0.045
-279.472	-72.125	-0.201	0.074
-278.457	-200.000	0.097	-0.509
-277.443	29.830	-0.165	-0.139
-276.428	-200.000	-0.000	0.203
-275.413	120.261	0.183	0.226
-274.399	567.652	0.102	0.247
-273.384	-200.000	-0.036	-0.202
-272.370	-102.537	0.207	0.049
-271.355	-124.090	0.191	-0.030
-270.340	-200.000	-0.029	0.186
-269.326	86.000	-0.159	-0.173
-268.311	80.779	0.121	0.130
-267.297	375.656	0.084	0.169
-266.282	65.463	-0.237	0.238
-265.267	-122.197	0.075	0.012
-264.253	-64.493	-0.331	0.133
-263.238	275.773	0.134	0.236
-262.224	116.660	-0.047	-0.057
-261.209	-44.818	-0.249	0.123
-260.195	-80.155	0.382	-0.127
-259.180	139.882	-0.028	0.037
-258.165	800.000	-0.211	0.667
-257.151	211.340	0.090	-0.140
-256.136	-67.540	0.067	0.026
-255.122	-52.044	0.107	0.049
-254.107	-53.716	0.242	0.109
-253.092	800.000	-0.096	-0.318
-252.078	-84.943	0.219	0.068
-251.063	-141.080	0.337	0.034
-250.049	69.955	-0.237	0.242
-249.034	-200.000	0.006	0.136
-248.019	89.053	-0.202	0.223
-247.005	-72.231	0.064	0.024
-245.990	-70.527	0.204	-0.077
-244.976	-44.605	0.211	-0.104
-243.961	800.000	-0.064	0.187
-242.946	75.630	-0.209	0.219
-241.932	-22.533	0.204	0.123
-240.917	-200.000	0.021	0.161
-239.903	21.567	0.080	-0.065
-238.888	-111.550	-0.099	0.020
-237.873	-135.207	-0.047	-0.006
-236.859	561.106	0.172	-0.413
-235.844	115.359	0.189	-0.229
-234.830	800.000	-0.038	-0.119
-233.815	-100.911	0.260	-0.063
-232.800	191.632	0.050	-0.075
-231.786	103.244	0.049	-0.057
-230.771	800.000	0.088	-0.247
-229.757	-151.997	-0.307	0.022
-228.742	168.191	-0.276	0.389
-227.727	312.890	0.023	0.042
-226.713	-10.687	-0.136	-0.089
-225.698	-27.408	0.151	0.087
-224.684	-200.000	-0.033	0.274
-223.669	-80.147	-0.190	0.063
-222.655	-78.660	0.111	0.038
-221.640	-200.000	-0.022	0.341
-220.625	800.000	0.107	0.407
-219.611	800.000	0.116	-0.366
-218.596	-115.953	0.375	-0.069
-217.582	-51.944	0.234	0.108
-216.567	-131.843	-0.215	-0.028
-215.552	-200.000	-0.006	-0.058
-214.538	81.533	0.192	0.205
-213.523	-57.389	-0.304	-0.132
-212.509	20.309	0.220	0.176
-211.494	450.509	0.130	0.283
-210.479	29.430	0.063	-0.053
-209.465	-200.000	-0.030	-0.137
-208.450	-44.342	-0.196	0.097
-207.436	30.772	-0.077	0.066
-206.421	-200.000	-0.013	-0.069
-205.406	-51.582	-0.148	0.069
-204.392	-80.194	0.078	-0.026
-203.377	-80.038	0.167	0.055
-202.363	15.971	0.065	-0.051
-201.348	-47.468	0.316	0.152
-200.333	217.527	0.130	-0.205
-199.319	182.732	-0.020	0.029
-198.304	86.215	0.218	-0.237
-197.290	-200.000	-0.097	-0.473
-196.275	-82.343	-0.362	-0.117
-195.260	-200.000	0.011	0.140
-194.246	-200.000	-0.009	0.136
-193.231	28.346	0.061	0.051
-192.217	2.484	0.431	0.308
-191.202	196.556	0.162	-0.245
-190.187	746.356	0.107	-0.286
-189.173	-94.750	-0.056	-0.015
-188.158	454.483	0.050	-0.109
-187.144	-112.398	0.214	0.042
-186.129	112.322	0.207	-0.248
-185.114	800.000	-0.076	-0.239
-184.100	-200.000	-0.064	-0.297
-183.085	-90.164	0.286	-0.082
-182.071	109.948	-0.126	-0.150
-181.056	-107.567	0.172	0.037
-180.042	-126.653	-0.169	0.025
-179.027	41.489	-0.436	0.390
-178.012	146.490	-0.100	0.132
-176.998	-200.000	-0.008	-0.283
-175.983	800.000	-0.064	-0.182
-174.969	-200.000	0.092	0.409
-173.954	-200.000	0.000	-0.037
-172.939	27.127	0.232	0.193
-171.925	-161.717	-0.507	-0.026
-170.910	-57.101	0.313	0.137
-169.896	-150.174	-0.151	-0.012
-168.881	132.465	-0.116	-0.148
-167.866	-74.976	0.333	0.118
-166.852	-12.109	-0.090	0.058
-165.837	326.870	-0.159	0.301
-164.823	193.958	0.141	0.211
-163.808	-22.403	-0.181	0.108
-162.793	23.922	-0.194	-0.158
-161.779	-134.135	-0.256	-0.031
-160.764	31.641	0.122	0.103
-159.750	800.000	0.038	-0.163
-158.735	-150.676	-0.229	0.017
-157.720	-44.140	0.386	0.191
-156.706	-119.956	-0.275	-0.047
-155.691	97.929	0.369	0.420
-154.677	-108.646	0.273	0.058
-153.662	667.811	-0.066	0.169
-152.647	800.000	0.093	0.257
-151.633	-144.543	-0.207	-0.019
-150.618	800.000	0.128	-0.390
-149.604	-200.000	0.058	0.253
-148.589	-200.000	-0.037	-0.240
-147.574	800.000	-0.126	-0.469
-146.560	105.459	0.199	0.232
-145.545	-139.047	-0.366	0.039
-144.531	-178.951	0.282	0.006
-143.516	-0.385	-0.376	-0.264
-142.502	-104.389	0.246	-0.056
-141.487	-131.912	0.128	0.016
-140.472	288.015	0.132	-0.236
-139.458	-153.405	0.205	0.014
-138.443	800.000	-0.087	-0.243
-137.429	157.176	-0.137	-0.187
-136.414	340.741	0.164	0.316
-135.399	-62.208	0.095	-0.039
-134.385	-133.156	-0.037	0.005
-133.370	-50.524	0.139	0.065
-132.356	202.095	-0.241	-0.367
-131.341	800.000	0.034	-0.106
-130.326	-148.937	0.297	0.024
-129.312	440.219	0.085	0.184
-128.297	800.000	0.056	0.235
-127.283	193.504	-0.093	-0.138
-126.268	38.579	-0.228	-0.201
-125.253	28.516	0.219	0.183
-124.239	-200.000	-0.024	0.403
-123.224	-9.921	-0.267	-0.175
-122.210	-25.595	-0.413	0.241
