DTS Sentinel unit serial number:	SN413079Multiplexer serial number:	ORYXHardware model number:	OX4-SRSoftware version number:	ORYX F/W v4.00 Oryx Data Collector v3.7.2.0data status	okinstallation	princeton_trtdifferential loss correction	single-endedforward channel	channel 2reverse channel	N/Adate	2019/09/16time	02:15:35forward acquisition time	60.00reverse acquisition time	0.00gamma	496.2192k internal	0.2335k external	0.2335temperature offset calibration	0.9967default loss term (dB/km)	0.3790temperature slope calibration	1.0000multiplexer offset coefficient	1.0000multiplexer slope coefficient	1.0000fibre end	0.00T internal ref (°C)	27.56T ext. ref 1 (°C)	10.18T ext. ref 2 (°C)	22.50length (m)	temperature (°C)	Stokes	anti-Stokes-747.200	-200.000	-0.046	0.348
-746.185	-27.354	0.085	-0.050
-745.171	161.165	0.283	-0.398
-744.156	-22.991	-0.201	0.122
-743.142	-200.000	-0.020	-0.144
-742.127	-200.000	0.020	0.193
-741.112	800.000	-0.098	0.321
-740.098	-160.201	0.277	0.015
-739.083	284.178	0.074	0.135
-738.069	-91.899	-0.269	-0.077
-737.054	-90.129	-0.122	0.036
-736.039	-72.054	-0.157	0.059
-735.025	299.839	-0.127	0.234
-734.010	-200.000	0.007	-0.173
-732.996	36.544	0.103	0.091
-731.981	179.624	-0.189	-0.278
-730.966	12.506	-0.164	0.127
-729.952	-148.970	-0.220	-0.018
-728.937	-37.016	-0.121	-0.065
-727.923	75.231	-0.283	0.300
-726.908	-200.000	0.033	-0.266
-725.894	-24.098	-0.400	-0.240
-724.879	-47.897	-0.349	0.170
-723.864	434.746	0.185	0.403
-722.850	13.722	-0.175	0.136
-721.835	214.786	0.068	-0.108
-720.821	800.000	-0.055	-0.239
-719.806	-141.541	-0.108	0.011
-718.791	800.000	0.006	-0.025
-717.777	-104.631	0.143	0.033
-716.762	-200.000	-0.022	-0.262
-715.748	-200.000	0.012	-0.164
-714.733	198.685	-0.083	0.128
-713.718	562.554	-0.064	0.155
-712.704	-92.215	-0.372	0.105
-711.689	484.510	-0.071	-0.163
-710.675	-200.000	0.059	0.417
-709.660	14.947	-0.112	0.088
-708.645	-200.000	-0.018	0.086
-707.631	221.679	0.110	-0.177
-706.616	59.887	0.108	0.107
-705.602	-74.098	-0.154	-0.056
-704.587	84.631	0.114	0.125
-703.572	-46.037	0.244	0.121
-702.558	37.705	-0.018	-0.016
-701.543	-57.353	0.359	0.158
-700.529	-173.428	-0.120	0.004
-699.514	-87.369	-0.144	-0.044
-698.499	8.329	-0.102	0.077
-697.485	-150.327	-0.119	-0.009
-696.470	526.905	0.005	0.012
-695.456	80.710	0.115	0.125
-694.441	254.604	0.047	0.081
-693.426	-42.920	-0.147	0.075
-692.412	-200.000	-0.020	-0.290
-691.397	-200.000	0.012	-0.064
-690.383	-91.998	0.126	0.036
-689.368	-200.000	-0.081	-0.360
-688.354	-93.079	-0.445	0.124
-687.339	-21.314	0.131	-0.080
-686.324	-78.240	-0.235	-0.081
-685.310	-35.072	0.265	0.145
-684.295	153.073	0.166	0.227
-683.281	-80.009	-0.316	0.106
-682.266	800.000	-0.113	-0.332
-681.251	50.694	0.111	-0.105
-680.237	676.870	0.083	0.215
-679.222	-91.589	-0.081	0.023
-678.208	-19.226	-0.141	0.088
-677.193	800.000	0.114	-0.459
-676.178	200.274	0.064	-0.099
-675.164	198.611	-0.338	-0.518
-674.149	278.093	0.198	-0.354
-673.135	800.000	-0.071	0.262
-672.120	349.929	-0.243	-0.481
-671.105	164.008	0.143	-0.202
-670.091	-95.800	-0.355	0.095
-669.076	-91.752	0.539	0.154
-668.062	36.173	-0.120	0.106
-667.047	800.000	-0.053	-0.160
-666.032	-200.000	-0.010	-0.230
-665.018	-192.958	0.127	0.001
-664.003	-177.920	0.028	0.001
-662.989	-41.854	0.071	-0.036
-661.974	-200.000	0.012	0.275
-660.959	-141.239	-0.092	-0.009
-659.945	23.850	0.091	0.075
-658.930	139.158	-0.214	-0.282
-657.916	136.479	-0.077	-0.101
-656.901	623.709	0.062	-0.157
-655.886	-48.938	0.174	-0.083
-654.872	380.362	-0.053	0.109
-653.857	-100.366	-0.170	-0.042
-652.843	-200.000	-0.048	-0.425
-651.828	-200.000	-0.020	0.117
-650.814	81.050	0.346	0.374
-649.799	-2.200	-0.294	0.207
-648.784	125.217	0.146	-0.184
-647.770	227.511	0.011	-0.018
-646.755	800.000	-0.015	-0.050
-645.741	800.000	-0.062	-0.242
-644.726	381.446	0.170	-0.349
-643.711	-200.000	0.018	-0.150
-642.697	800.000	0.037	-0.134
-641.682	-200.000	0.003	-0.159
-640.668	-3.354	0.073	0.051
-639.653	-200.000	0.013	0.095
-638.638	152.276	-0.202	-0.276
-637.624	258.225	-0.234	-0.403
-636.609	800.000	-0.084	-0.240
-635.595	50.114	0.138	0.131
-634.580	88.141	-0.122	0.135
-633.565	-119.798	0.308	-0.053
-632.551	-162.437	0.215	0.011
-631.536	-200.000	0.024	-0.205
-630.522	-50.086	-0.204	0.097
-629.507	-200.000	-0.008	0.125
-628.492	-70.832	0.373	-0.141
-627.478	-200.000	-0.011	-0.099
-626.463	-191.317	0.214	0.002
-625.449	-131.647	0.039	-0.005
-624.434	-200.000	0.005	-0.139
-623.419	-124.044	0.167	0.026
-622.405	-55.248	0.361	0.162
-621.390	-200.000	-0.000	0.035
-620.376	196.914	-0.113	-0.172
-619.361	-44.842	-0.092	-0.046
-618.346	-200.000	-0.082	0.367
-617.332	-118.864	-0.184	0.032
-616.317	69.608	0.186	-0.192
-615.303	149.311	-0.068	0.092
-614.288	-98.293	-0.170	-0.044
-613.273	800.000	-0.045	0.137
-612.259	-64.693	-0.517	-0.209
-611.244	-7.373	0.281	-0.190
-610.230	-69.523	-0.164	-0.063
-609.215	-136.345	-0.318	0.037
-608.201	800.000	-0.051	-0.152
-607.186	119.320	0.217	-0.268
-606.171	160.692	-0.112	0.156
-605.157	-14.581	-0.500	0.321
-604.142	-200.000	0.022	0.167
-603.128	-38.234	0.180	0.095
-602.113	-115.138	0.219	0.041
-601.098	88.623	-0.144	-0.160
-600.084	-200.000	0.014	0.357
-599.069	-200.000	-0.048	-0.274
-598.055	-200.000	0.018	0.125
-597.040	-200.000	0.023	0.104
-596.025	-10.366	-0.069	-0.045
-595.011	-80.260	0.252	-0.084
-593.996	121.429	-0.134	-0.167
-592.982	-100.870	-0.489	-0.120
-591.967	-72.850	-0.093	-0.034
-590.952	23.008	-0.297	0.244
-589.938	-157.521	0.071	0.004
-588.923	-55.434	-0.186	0.083
-587.909	66.329	0.165	0.167
-586.894	10.520	0.028	-0.021
-585.879	26.715	-0.280	0.234
-584.865	311.914	0.184	0.345
-583.850	281.310	-0.085	0.151
-582.836	-200.000	-0.045	0.320
-581.821	800.000	0.055	-0.163
-580.806	800.000	0.097	-0.334
-579.792	-43.346	0.168	-0.085
-578.777	-55.723	-0.342	-0.153
-577.763	-56.828	0.221	-0.097
-576.748	800.000	-0.053	-0.175
-575.733	270.089	-0.101	0.177
-574.719	-45.172	0.195	-0.097
-573.704	224.524	-0.132	0.213
-572.690	-200.000	-0.019	-0.124
-571.675	86.133	0.140	-0.154
-570.661	-21.929	0.294	0.178
-569.646	91.946	0.256	0.288
-568.631	256.256	-0.091	-0.156
-567.617	83.293	-0.143	-0.156
-566.602	-200.000	-0.052	-0.327
-565.588	68.987	0.118	0.121
-564.573	800.000	-0.082	0.241
-563.558	70.552	0.186	0.192
-562.544	-41.281	0.185	-0.095
-561.529	-200.000	-0.028	-0.291
-560.515	-46.851	-0.145	0.071
-559.500	69.140	-0.118	0.121
-558.485	11.059	0.042	-0.032
-557.471	17.516	0.062	-0.049
-556.456	-20.803	-0.158	0.097
-555.442	6.909	0.112	0.083
-554.427	165.758	-0.055	0.078
-553.412	-200.000	-0.075	-0.430
-552.398	-22.344	0.151	-0.091
-551.383	79.051	0.231	0.247
-550.369	-21.456	0.474	-0.288
-549.354	-155.642	-0.164	0.010
-548.339	-94.469	-0.279	0.076
-547.325	-5.210	-0.100	0.069
-546.310	-48.085	-0.264	-0.127
-545.296	-27.047	0.198	0.115
-544.281	35.007	0.175	0.153
-543.266	-7.272	0.196	0.133
-542.252	800.000	0.061	-0.248
-541.237	-200.000	0.004	-0.156
-540.223	39.945	-0.208	0.187
-539.208	-153.716	0.108	0.007
-538.193	133.605	-0.019	-0.024
-537.179	-55.042	-0.360	-0.161
-536.164	178.923	0.065	0.095
-535.150	489.199	-0.021	-0.048
-534.135	-182.339	-0.172	-0.003
-533.121	800.000	0.033	-0.134
-532.106	107.626	-0.087	-0.103
-531.091	71.908	0.202	-0.209
-530.077	-98.098	-0.117	0.030
-529.062	-81.015	0.239	0.079
-528.048	-121.091	-0.096	0.016
-527.033	-72.916	0.256	0.094
-526.018	-47.948	-0.366	0.176
-525.004	-200.000	-0.016	-0.274
-523.989	-135.716	0.135	0.016
-522.975	-116.695	0.086	-0.016
-521.960	800.000	0.077	-0.272
-520.945	-98.733	0.413	-0.105
-519.931	-169.866	-0.516	-0.018
-518.916	57.111	-0.096	0.094
-517.902	5.303	-0.160	-0.118
-516.887	240.808	0.099	0.165
-515.872	-116.227	-0.550	-0.102
-514.858	116.875	0.202	-0.247
-513.843	-102.866	0.110	-0.026
-512.829	-32.616	-0.210	0.116
-511.814	-73.855	0.324	-0.117
-510.799	-131.868	-0.467	0.061
-509.785	800.000	0.033	0.095
-508.770	-95.375	0.144	-0.039
-507.756	-39.326	0.122	0.064
-506.741	-138.766	0.061	0.007
-505.726	-188.726	0.189	0.002
-504.712	241.671	-0.098	-0.162
-503.697	213.236	0.105	-0.165
-502.683	479.460	0.061	0.137
-501.668	367.518	0.104	0.208
-500.653	30.534	0.214	-0.182
-499.639	-200.000	0.049	-0.305
-498.624	-144.050	0.139	-0.013
-497.610	549.700	-0.039	0.093
-496.595	-200.000	-0.010	0.348
-495.581	-18.623	-0.287	-0.178
-494.566	-200.000	-0.013	0.119
-493.551	-50.906	-0.244	-0.114
-492.537	523.179	-0.078	-0.183
-491.522	-46.799	0.237	-0.116
-490.508	358.802	-0.197	0.391
-489.493	-200.000	-0.078	0.538
-488.478	291.080	-0.056	-0.102
-487.464	-200.000	-0.008	0.071
-486.449	800.000	-0.078	-0.253
-485.435	6.708	0.123	-0.091
-484.420	469.209	0.081	0.181
-483.405	-200.000	0.044	-0.295
-482.391	-34.936	0.223	0.121
-481.376	-200.000	0.045	-0.196
-480.362	-36.529	-0.249	0.133
-479.347	-53.578	0.158	-0.072
-478.332	-128.419	-0.322	-0.046
-477.318	36.078	0.283	-0.248
-476.303	-64.242	0.124	0.050
-475.289	414.661	-0.064	0.136
-474.274	47.981	-0.026	0.025
-473.259	329.516	0.105	0.200
-472.245	-27.694	0.407	0.235
-471.230	516.809	-0.087	-0.202
-470.216	800.000	-0.081	-0.237
-469.201	39.583	0.117	0.104
-468.186	-200.000	-0.019	0.128
-467.172	-137.114	-0.309	0.035
-466.157	-137.950	0.274	0.030
-465.143	800.000	0.017	-0.067
-464.128	-38.246	0.097	0.051
-463.113	-179.771	-0.287	-0.006
-462.099	800.000	-0.179	-0.493
-461.084	161.802	0.145	-0.202
-460.070	-27.427	0.073	-0.042
-459.055	57.121	0.066	-0.064
-458.040	-200.000	0.019	0.185
-457.026	-121.370	0.371	-0.061
-456.011	182.006	0.242	0.354
-454.997	-101.121	-0.220	-0.053
-453.982	-200.000	-0.034	0.177
-452.968	87.959	-0.021	-0.024
-451.953	-151.849	0.120	0.009
-450.938	-14.939	-0.140	0.089
-449.924	800.000	-0.058	-0.210
-448.909	-48.827	-0.097	0.046
-447.895	76.697	0.111	0.117
-446.880	69.500	0.094	0.096
-445.865	-200.000	0.033	0.250
-444.851	90.855	0.184	-0.204
-443.836	-55.643	0.044	0.020
-442.822	243.468	-0.146	-0.243
-441.807	-46.248	0.251	0.123
-440.792	153.382	0.157	0.214
-439.778	800.000	0.035	-0.118
-438.763	-200.000	-0.006	-0.304
-437.749	-100.346	0.263	-0.065
-436.734	-200.000	-0.008	-0.143
-435.719	54.616	-0.346	-0.332
-434.705	800.000	-0.083	0.296
-433.690	-200.000	0.007	-0.240
-432.676	16.568	0.121	0.095
-431.661	686.678	0.076	-0.198
-430.646	-101.562	0.217	-0.052
-429.632	174.279	0.158	0.227
-428.617	268.398	0.069	-0.121
-427.603	-125.889	-0.489	0.073
-426.588	83.996	-0.083	-0.090
-425.573	31.155	-0.092	0.079
-424.559	170.475	0.163	0.232
-423.544	-200.000	-0.058	0.266
-422.530	-116.340	0.466	-0.085
-421.515	-86.266	-0.342	0.105
-420.500	-94.524	0.417	0.113
-419.486	-92.687	-0.282	0.078
-418.471	73.466	0.116	0.121
-417.457	102.371	0.107	-0.124
-416.442	-198.048	0.190	0.001
-415.428	800.000	0.014	-0.043
-414.413	-150.197	0.408	0.031
-413.398	-129.897	-0.160	0.022
-412.384	-147.612	0.145	-0.012
-411.369	490.737	-0.079	-0.179
-410.355	-200.000	0.081	0.411
-409.340	673.758	0.102	-0.262
-408.325	82.499	0.157	-0.169
-407.311	47.485	0.041	0.038
-406.296	-89.744	0.397	0.115
-405.282	-60.138	0.472	0.199
-404.267	37.039	0.125	-0.110
-403.252	-129.083	0.110	-0.015
-402.238	800.000	0.114	0.314
-401.223	39.938	0.272	0.242
-400.209	-95.975	0.456	-0.120
-399.194	100.191	-0.232	-0.266
-398.179	-126.365	-0.512	-0.076
-397.165	-27.718	0.296	0.170
-396.150	53.969	0.248	-0.236
-395.136	-91.965	-0.042	0.012
-394.121	477.212	-0.110	0.248
-393.106	45.436	-0.212	0.194
-392.092	-45.634	-0.175	0.086
-391.077	800.000	0.078	0.240
-390.063	-200.000	-0.006	0.086
-389.048	800.000	-0.038	-0.130
-388.033	-94.236	0.380	-0.103
-387.019	-200.000	-0.054	-0.299
-386.004	10.649	-0.298	0.225
-384.990	-44.721	0.097	0.048
-383.975	-123.549	0.063	-0.010
-382.960	22.774	0.179	0.146
-381.946	-11.392	-0.371	0.242
-380.931	800.000	0.065	-0.185
-379.917	412.891	0.017	0.036
-378.902	-57.028	0.135	-0.059
-377.888	800.000	-0.009	-0.026
-376.873	-35.873	-0.136	0.073
-375.858	719.046	-0.064	-0.167
-374.844	48.470	-0.077	0.072
-373.829	800.000	0.070	0.192
-372.815	19.551	-0.273	0.217
-371.800	800.000	-0.006	-0.018
-370.785	-200.000	-0.005	-0.077
-369.771	-140.535	0.145	0.015
-368.756	-39.983	0.358	0.185
-367.742	-73.003	0.220	0.080
-366.727	373.827	0.172	-0.346
-365.712	86.248	0.068	-0.074
-364.698	800.000	0.126	-0.509
-363.683	32.092	0.161	-0.137
-362.669	5.863	0.114	-0.084
-361.654	393.517	-0.118	0.243
-360.639	417.106	0.152	-0.321
-359.625	-200.000	-0.007	-0.093
-358.610	800.000	0.045	-0.130
-357.596	-200.000	-0.049	0.221
-356.581	-31.519	0.253	0.141
-355.566	523.809	0.060	-0.138
-354.552	800.000	0.090	0.324
-353.537	-41.392	-0.103	0.052
-352.523	-78.207	0.148	-0.050
-351.508	-39.230	-0.200	-0.104
-350.493	40.030	0.313	-0.278
-349.479	-70.302	0.168	0.063
-348.464	-137.591	-0.135	0.015
-347.450	-68.764	0.096	0.037
-346.435	709.501	0.051	0.133
-345.420	-102.695	0.295	-0.069
-344.406	351.788	-0.042	-0.082
-343.391	-200.000	0.008	-0.094
-342.377	57.306	-0.086	-0.083
-341.362	-131.417	-0.317	-0.041
-340.348	-29.555	0.170	0.096
-339.333	233.335	0.157	-0.256
-338.318	-98.121	0.069	0.018
-337.304	321.985	0.086	0.161
-336.289	-122.821	0.298	0.048
-335.275	376.192	-0.165	-0.334
-334.260	-200.000	-0.048	-0.324
-333.245	170.667	0.047	-0.066
-332.231	-57.952	0.301	-0.130
-331.216	800.000	0.048	0.184
-330.202	109.864	-0.301	0.357
-329.187	253.200	-0.104	0.175
-328.172	-107.069	-0.182	0.040
-327.158	-64.936	0.153	-0.061
-326.143	-134.300	-0.318	-0.039
-325.129	-103.866	0.079	-0.018
-324.114	-162.743	-0.366	-0.018
-323.099	-7.971	-0.225	-0.150
-322.085	-45.357	-0.413	-0.202
-321.070	-200.000	0.036	0.406
-320.056	-42.875	0.222	0.111
-319.041	-194.277	-0.047	0.000
-318.026	108.839	-0.081	0.096
-317.012	101.697	-0.239	-0.276
-315.997	-158.185	0.067	-0.004
-314.983	-160.280	0.152	0.008
-313.968	11.263	-0.258	0.195
-312.953	55.450	0.074	-0.071
-311.939	55.200	-0.321	-0.306
-310.924	-71.438	0.221	-0.082
-309.910	-200.000	-0.033	0.175
-308.895	-104.902	0.139	-0.032
-307.880	-200.000	-0.002	0.058
-306.866	-97.142	-0.229	0.059
-305.851	-150.365	-0.207	-0.016
-304.837	-150.141	-0.136	-0.010
-303.822	25.809	-0.140	0.115
-302.807	-86.862	-0.133	0.040
-301.793	33.886	-0.108	-0.093
-300.778	-200.000	-0.010	0.145
-299.764	20.609	-0.215	-0.172
-298.749	-107.175	-0.272	0.059
-297.735	132.487	-0.142	-0.180
-296.720	-98.897	-0.361	-0.091
-295.705	40.040	0.215	-0.190
-294.691	152.907	-0.158	0.213
-293.676	-110.937	0.344	0.070
-292.662	-14.833	0.151	-0.096
-291.647	-166.369	-0.223	-0.009
-290.632	800.000	-0.084	0.329
-289.618	-67.358	0.093	-0.036
-288.603	411.644	0.070	0.147
-287.589	105.987	0.242	0.283
-286.574	-2.275	0.238	0.165
-285.559	-200.000	-0.067	-0.312
-284.545	25.192	-0.231	-0.189
-283.530	-144.978	-0.291	0.026
-282.516	22.853	-0.106	-0.085
-281.501	-5.563	0.048	0.033
-280.486	-187.075	0.290	0.004
-279.472	293.566	0.172	-0.309
-278.457	95.279	-0.238	-0.268
-277.443	-30.165	-0.236	-0.133
-276.428	-97.420	0.177	0.045
-275.413	237.265	-0.176	0.288
-274.399	215.702	0.205	0.321
-273.384	800.000	0.096	0.268
-272.370	-200.000	0.035	0.166
-271.355	131.302	-0.143	-0.181
-270.340	-143.868	-0.095	0.009
-269.326	486.372	0.121	-0.271
-268.311	211.897	0.138	0.214
-267.297	231.626	0.205	0.331
-266.282	-200.000	0.058	0.605
-265.267	-128.912	0.329	0.046
-264.253	-135.822	0.147	-0.017
-263.238	517.780	0.136	0.315
-262.224	-200.000	0.103	-0.490
-261.209	99.485	-0.260	-0.297
-260.195	-200.000	0.022	0.109
-259.180	-34.890	0.378	0.203
-258.165	-200.000	0.022	0.169
-257.151	-136.141	0.173	0.020
-256.136	800.000	-0.080	0.284
-255.122	141.707	-0.107	0.140
-254.107	-0.689	0.179	-0.125
-253.092	478.322	-0.055	0.123
-252.078	249.789	0.224	0.374
-251.063	-135.236	0.509	0.060
-250.049	800.000	0.014	-0.046
-249.034	-200.000	0.014	0.224
-248.019	-112.887	-0.388	0.076
-247.005	-8.000	0.216	-0.144
-245.990	-96.677	0.324	-0.084
-244.976	126.589	-0.229	0.286
-243.961	-31.025	0.297	-0.165
-242.946	-146.105	0.239	-0.021
-241.932	-147.173	-0.101	-0.009
-240.917	-76.316	-0.332	0.115
-239.903	12.360	-0.014	-0.011
-238.888	120.890	-0.117	0.143
-237.873	-100.062	-0.098	-0.024
-236.859	64.847	0.190	-0.189
-235.844	-114.645	0.276	0.052
-234.830	-158.707	-0.261	-0.015
-233.815	-200.000	0.022	-0.244
-232.800	-56.516	0.197	0.086
-231.786	313.833	0.049	-0.092
-230.771	-73.589	-0.246	0.088
-229.757	277.997	0.144	0.252
-228.742	-78.520	-0.143	0.048
-227.727	23.768	-0.054	0.044
-226.713	-200.000	-0.018	-0.349
-225.698	121.296	-0.051	0.063
-224.684	-177.237	0.083	0.002
-223.669	-129.342	-0.351	0.048
-222.655	162.558	0.159	0.219
-221.640	421.697	-0.114	0.240
-220.625	-11.284	-0.332	0.215
-219.611	106.902	0.081	-0.095
-218.596	-200.000	0.038	-0.335
-217.582	-35.831	-0.057	-0.030
-216.567	-39.935	-0.212	0.109
-215.552	-76.508	-0.324	-0.112
-214.538	-27.380	0.010	0.006
-213.523	70.626	0.230	-0.235
-212.509	-37.971	-0.358	0.187
-211.494	-99.142	-0.097	0.024
-210.479	230.695	-0.044	-0.071
-209.465	92.284	-0.171	-0.190
-208.450	-200.000	0.019	-0.115
-207.436	251.267	-0.176	0.294
-206.421	-123.793	0.566	-0.088
-205.406	-153.454	0.129	0.009
-204.392	-40.315	0.183	0.094
-203.377	-146.433	-0.540	-0.046
-202.363	800.000	-0.085	-0.256
-201.348	800.000	-0.134	0.380
-200.333	109.846	-0.117	-0.138
-199.319	-105.126	0.229	0.051
-198.304	-68.762	-0.264	0.101
-197.290	124.210	-0.134	-0.166
-196.275	73.004	-0.289	-0.297
-195.260	-127.795	0.217	0.031
-194.246	-153.201	-0.490	-0.034
-193.231	800.000	0.035	0.115
-192.217	256.588	0.080	-0.136
-191.202	-42.293	0.099	0.049
-190.187	-196.954	-0.540	-0.003
-189.173	-67.718	0.110	-0.042
-188.158	800.000	0.096	-0.270
-187.144	328.632	0.099	-0.186
-186.129	339.664	-0.119	0.229
-185.114	-87.882	0.195	-0.058
-184.100	-11.328	0.197	0.127
-183.085	624.530	0.082	-0.203
-182.071	-200.000	0.032	-0.179
-181.056	-200.000	-0.069	0.375
-180.042	228.107	-0.060	0.096
-179.027	800.000	-0.083	-0.298
-178.012	-170.960	-0.382	-0.013
-176.998	-103.611	-0.133	0.031
-175.983	500.545	-0.089	-0.202
-174.969	-170.428	0.162	0.006
-173.954	44.527	-0.207	0.187
-172.939	396.910	-0.081	0.166
-171.925	101.240	0.293	0.335
-170.910	-91.109	-0.190	0.053
-169.896	-200.000	0.010	0.116
-168.881	11.916	-0.262	-0.198
-167.866	-15.189	-0.065	-0.041
-166.852	347.219	-0.167	-0.324
-165.837	-114.989	-0.340	0.064
-164.823	223.333	-0.084	-0.133
-163.808	72.885	-0.358	0.367
-162.793	94.792	-0.173	0.193
-161.779	112.763	-0.096	0.114
-160.764	15.096	-0.072	0.056
-159.750	272.136	-0.053	-0.092
-158.735	-8.126	-0.267	-0.176
-157.720	157.711	0.082	0.112
-156.706	800.000	-0.079	0.228
-155.691	138.980	-0.092	-0.119
-154.677	-200.000	0.053	0.262
-153.662	60.682	-0.070	0.068
-152.647	60.199	0.034	0.033
-151.633	671.269	0.087	-0.222
-150.618	-149.552	-0.037	-0.003
-149.604	36.399	-0.442	0.382
-148.589	-33.726	0.295	-0.160
-147.574	149.051	0.259	-0.343
-146.560	594.555	-0.073	-0.177
-145.545	800.000	-0.058	-0.163
-144.531	-183.435	-0.187	0.003
-143.516	236.602	-0.031	-0.050
-142.502	238.871	-0.033	-0.054
-141.487	800.000	0.119	-0.444
-140.472	-11.667	-0.312	-0.201
-139.458	800.000	0.079	-0.238
-138.443	621.305	-0.107	-0.264
-137.429	55.023	0.008	0.008
-136.414	55.052	-0.186	-0.176
-135.399	-153.375	-0.034	0.002
-134.385	-200.000	-0.037	-0.166
-133.370	474.708	0.230	0.510
-132.356	800.000	-0.127	-0.372
-131.341	-200.000	0.009	-0.051
-130.326	-200.000	-0.051	-0.423
-129.312	-25.489	-0.126	-0.073
-128.297	89.474	0.179	0.196
-127.283	-102.384	-0.272	0.064
-126.268	-200.000	-0.356	0.002
-125.253	-94.282	-0.236	0.063
-124.239	77.527	-0.087	-0.091
-123.224	-66.686	0.234	0.091
-122.210	111.434	0.101	0.119
-121.195	-80.171	0.335	0.110
