DTS Sentinel unit serial number:	SN413079Multiplexer serial number:	ORYXHardware model number:	OX4-SRSoftware version number:	ORYX F/W v4.00 Oryx Data Collector v3.7.2.0data status	okinstallation	princeton_trtdifferential loss correction	single-endedforward channel	channel 2reverse channel	N/Adate	2019/09/18time	17:03:35forward acquisition time	60.00reverse acquisition time	0.00gamma	496.2192k internal	0.2301k external	0.2301temperature offset calibration	1.0021default loss term (dB/km)	0.3790temperature slope calibration	1.0000multiplexer offset coefficient	1.0000multiplexer slope coefficient	1.0000fibre end	0.00T internal ref (°C)	40.00T ext. ref 1 (°C)	0.87T ext. ref 2 (°C)	33.14length (m)	temperature (°C)	Stokes	anti-Stokes-747.200	457.255	0.102	0.230
-746.185	106.791	-0.254	0.308
-745.171	-200.000	-0.007	0.212
-744.156	-38.413	-0.186	0.100
-743.142	-37.865	-0.271	0.147
-742.127	-200.000	0.004	0.285
-741.112	82.648	0.033	0.036
-740.098	-135.504	-0.296	0.036
-739.083	-129.396	0.033	-0.005
-738.069	800.000	0.046	0.170
-737.054	-88.999	-0.323	0.097
-736.039	66.529	0.164	0.170
-735.025	5.726	0.249	0.188
-734.010	-42.617	0.302	0.156
-732.996	10.989	0.124	0.096
-731.981	-153.829	0.050	-0.003
-730.966	14.357	-0.110	-0.087
-729.952	-179.081	-0.340	-0.008
-728.937	-200.000	-0.008	-0.055
-727.923	800.000	-0.052	-0.173
-726.908	800.000	0.040	-0.143
-725.894	28.767	-0.069	-0.060
-724.879	155.449	-0.173	-0.243
-723.864	-132.802	0.227	-0.030
-722.850	-54.701	-0.087	-0.040
-721.835	800.000	0.064	0.217
-720.821	716.564	0.051	-0.138
-719.806	27.688	0.075	0.064
-718.791	-93.794	0.079	-0.022
-717.777	205.770	-0.104	0.165
-716.762	770.809	-0.047	0.130
-715.748	-175.381	-0.454	-0.013
-714.733	65.856	-0.179	0.185
-713.718	-135.034	-0.240	-0.029
-712.704	-123.613	0.209	0.034
-711.689	-25.841	-0.319	-0.191
-710.675	-200.000	-0.019	-0.178
-709.660	-137.104	-0.191	0.022
-708.645	75.335	-0.299	-0.322
-707.631	145.444	0.111	-0.152
-706.616	37.711	0.138	0.125
-705.602	15.816	-0.274	-0.220
-704.587	800.000	0.085	-0.272
-703.572	437.166	-0.109	0.242
-702.558	-187.530	-0.133	-0.002
-701.543	-2.662	-0.110	0.078
-700.529	-0.931	0.079	-0.057
-699.514	800.000	0.058	0.220
-698.499	-200.000	-0.012	0.070
-697.485	-138.910	-0.085	0.009
-696.470	800.000	0.165	0.569
-695.456	114.704	0.220	-0.273
-694.441	107.522	0.168	0.203
-693.426	41.544	0.235	0.217
-692.412	800.000	0.072	0.203
-691.397	-31.846	-0.206	0.117
-690.383	176.105	0.139	0.206
-689.368	-98.795	0.301	0.078
-688.354	800.000	-0.109	0.313
-687.339	609.987	0.114	-0.290
-686.324	52.281	-0.073	-0.070
-685.310	-194.571	-0.375	-0.003
-684.295	-19.783	-0.229	0.144
-683.281	501.926	-0.067	-0.158
-682.266	239.846	-0.099	-0.168
-681.251	116.405	-0.146	-0.182
-680.237	216.119	0.122	-0.197
-679.222	523.699	-0.106	-0.252
-678.208	-136.771	0.072	0.008
-677.193	48.111	-0.096	-0.092
-676.178	-200.000	-0.006	-0.319
-675.164	5.512	0.326	0.244
-674.149	-3.940	0.114	-0.081
-673.135	-49.591	-0.082	-0.040
-672.120	-23.972	-0.123	-0.075
-671.105	-200.000	0.014	0.181
-670.091	39.700	-0.279	-0.254
-669.076	-200.000	-0.456	0.000
-668.062	-78.775	0.204	-0.071
-667.047	681.153	0.143	-0.378
-666.032	-106.680	-0.261	0.059
-665.018	-143.602	0.072	0.007
-664.003	208.995	-0.155	-0.246
-662.989	-86.323	-0.264	-0.083
-661.974	-104.036	-0.209	0.049
-660.959	14.530	-0.133	-0.105
-659.945	-13.580	0.023	0.015
-658.930	-83.968	-0.055	0.018
-657.916	-73.476	-0.248	0.092
-656.901	-154.569	-0.167	-0.011
-655.886	-17.853	-0.090	0.057
-654.872	-105.764	-0.096	0.022
-653.857	89.643	0.263	-0.298
-652.843	31.196	0.156	0.136
-651.828	800.000	-0.062	-0.181
-650.814	-28.782	-0.261	-0.153
-649.799	-200.000	-0.025	-0.124
-648.784	800.000	0.091	-0.296
-647.770	91.452	0.089	-0.102
-646.755	457.049	-0.099	-0.222
-645.741	103.050	-0.063	0.075
-644.726	-200.000	0.100	-0.000
-643.711	800.000	0.023	0.082
-642.697	-23.773	-0.294	0.179
-641.682	145.602	-0.107	-0.145
-640.668	261.385	-0.161	-0.283
-639.653	99.605	-0.001	-0.001
-638.638	-161.455	-0.161	0.008
-637.624	-109.691	0.360	0.077
-636.609	-200.000	-0.001	-0.051
-635.595	-114.584	0.115	0.022
-634.580	800.000	0.101	0.429
-633.565	106.958	-0.267	-0.322
-632.551	-200.000	-0.044	-0.254
-631.536	-200.000	-0.051	0.279
-630.522	263.941	-0.152	-0.268
-629.507	-200.000	-0.052	0.279
-628.492	-116.885	0.201	0.037
-627.478	-123.078	0.174	-0.028
-626.463	0.781	0.136	-0.099
-625.449	24.007	0.079	0.066
-624.434	221.223	0.038	0.062
-623.419	-147.018	-0.221	0.019
-622.405	-59.941	-0.387	0.168
-621.390	-3.993	-0.106	-0.075
-620.376	605.233	-0.020	-0.050
-619.361	161.948	-0.095	-0.135
-618.346	800.000	-0.040	0.141
-617.332	-40.811	-0.335	0.176
-616.317	-119.408	-0.038	0.007
-615.303	-41.804	-0.093	-0.048
-614.288	701.562	0.135	-0.361
-613.273	130.192	-0.145	0.188
-612.259	-200.000	0.022	-0.120
-611.244	-115.484	0.161	0.031
-610.230	65.168	0.047	0.048
-609.215	-13.660	0.102	0.067
-608.201	-81.361	-0.041	-0.014
-607.186	-200.000	0.048	0.270
-606.171	-200.000	-0.009	0.121
-605.157	-123.355	-0.121	0.020
-604.142	-89.153	0.283	-0.085
-603.128	-200.000	-0.287	-0.001
-602.113	-62.829	-0.181	-0.076
-601.098	395.978	0.079	-0.167
-600.084	800.000	-0.071	-0.251
-599.069	64.286	-0.273	0.278
-598.055	420.692	-0.034	-0.074
-597.040	626.744	0.139	-0.356
-596.025	-118.489	0.132	-0.024
-595.011	260.743	-0.169	0.297
-593.996	-49.410	0.305	0.147
-592.982	-200.000	0.039	0.257
-591.967	41.968	-0.202	0.186
-590.952	-132.790	-0.178	-0.023
-589.938	800.000	-0.075	-0.271
-588.923	30.857	-0.176	0.153
-587.909	-200.000	0.018	0.285
-586.894	800.000	0.067	-0.206
-585.879	-94.771	-0.259	0.071
-584.865	800.000	-0.104	-0.339
-583.850	-200.000	0.009	0.374
-582.836	404.953	-0.034	-0.072
-581.821	111.899	0.167	0.205
-580.806	-200.000	-0.016	-0.115
-579.792	-200.000	0.035	-0.159
-578.777	-200.000	0.021	-0.298
-577.763	113.062	0.236	-0.290
-576.748	-190.045	0.251	-0.003
-575.733	679.669	-0.129	0.341
-574.719	-46.208	-0.231	0.115
-573.704	-145.879	-0.360	-0.032
-572.690	-22.878	0.196	0.120
-571.675	244.817	0.142	0.242
-570.661	-86.753	0.403	0.125
-569.646	36.018	-0.080	-0.072
-568.631	141.807	-0.118	-0.159
-567.617	29.439	0.076	0.065
-566.602	-126.842	0.463	0.069
-565.588	800.000	0.052	0.188
-564.573	-200.000	0.015	-0.070
-563.558	185.871	0.151	-0.227
-562.544	-200.000	-0.010	-0.272
-561.529	-69.711	-0.324	-0.125
-560.515	382.397	0.070	-0.145
-559.500	139.878	0.111	0.148
-558.485	-200.000	-0.010	0.116
-557.471	-200.000	0.024	0.115
-556.456	398.102	0.065	-0.139
-555.442	378.408	-0.088	0.183
-554.427	800.000	0.062	-0.182
-553.412	380.621	-0.123	-0.255
-552.398	-200.000	0.042	-0.214
-551.383	-200.000	0.060	-0.298
-550.369	-200.000	0.007	-0.145
-549.354	-145.733	0.251	0.023
-548.339	427.355	-0.019	-0.042
-547.325	-77.947	0.593	0.207
-546.310	328.133	-0.193	-0.375
-545.296	-35.641	0.084	-0.046
-544.281	800.000	0.078	-0.229
-543.266	800.000	-0.072	-0.318
-542.252	90.247	0.019	-0.022
-541.237	-14.522	-0.196	0.128
-540.223	-117.200	0.094	0.017
-539.208	-44.461	0.344	-0.174
-538.193	-151.318	-0.067	-0.005
-537.179	-121.526	0.162	-0.027
-536.164	-56.588	0.193	-0.086
-535.150	-125.824	-0.210	-0.032
-534.135	504.453	0.062	0.146
-533.121	-200.000	-0.017	0.389
-532.106	-200.000	-0.026	-0.189
-531.091	-97.727	0.472	0.124
-530.077	-200.000	-0.002	-0.070
-529.062	800.000	-0.129	0.377
-528.048	18.026	-0.066	0.054
-527.033	111.034	0.066	0.080
-526.018	51.789	-0.201	-0.193
-525.004	129.020	-0.251	-0.324
-523.989	-96.535	0.104	0.028
-522.975	800.000	0.031	0.095
-521.960	14.114	-0.187	0.147
-520.945	60.559	0.141	0.141
-519.931	-200.000	-0.016	0.139
-518.916	47.986	0.283	0.267
-517.902	-43.661	-0.179	0.091
-516.887	-40.544	-0.080	-0.042
-515.872	37.051	0.100	-0.089
-514.858	-35.194	-0.176	0.097
-513.843	57.128	0.092	-0.091
-512.829	-45.106	0.306	-0.154
-511.814	-45.084	-0.173	0.087
-510.799	-161.731	0.159	-0.008
-509.785	-114.863	0.203	0.039
-508.770	241.290	0.101	-0.171
-507.756	800.000	0.024	0.096
-506.741	-200.000	0.014	-0.311
-505.726	-12.873	-0.072	-0.047
-504.712	29.020	0.424	0.363
-503.697	19.638	0.055	0.045
-502.683	33.276	0.119	-0.104
-501.668	-200.000	-0.063	0.281
-500.653	83.751	-0.123	-0.135
-499.639	-200.000	0.024	-0.130
-498.624	-200.000	0.014	0.117
-497.610	120.547	0.089	-0.112
-496.595	265.319	0.207	-0.364
-495.581	135.960	-0.115	-0.151
-494.566	-109.981	-0.247	-0.052
-493.551	36.313	-0.107	-0.096
-492.537	-137.610	0.103	0.012
-491.522	-200.000	-0.022	-0.252
-490.508	-177.816	0.259	-0.006
-489.493	-47.893	-0.212	-0.104
-488.478	-200.000	0.028	-0.366
-487.464	109.024	-0.122	0.147
-486.449	-147.411	0.271	-0.023
-485.435	21.747	0.252	0.207
-484.420	31.375	-0.130	-0.113
-483.405	159.496	-0.056	-0.079
-482.391	-200.000	0.007	0.089
-481.376	-200.000	0.033	-0.435
-480.362	-200.000	0.024	0.129
-479.347	85.788	-0.117	0.129
-478.332	22.952	-0.217	-0.180
-477.318	-45.937	0.194	-0.097
-476.303	800.000	-0.040	0.170
-475.289	622.911	0.053	-0.136
-474.274	-200.000	0.029	0.272
-473.259	183.242	0.127	0.190
-472.245	800.000	0.072	0.221
-471.230	-74.128	0.300	0.109
-470.216	236.896	-0.187	-0.312
-469.201	-145.972	-0.231	0.021
-468.186	-200.000	-0.011	0.334
-467.172	-200.000	0.008	0.240
-466.157	173.822	-0.028	0.041
-465.143	-31.372	-0.366	0.208
-464.128	-113.694	0.281	0.055
-463.113	-27.781	0.191	0.112
-462.099	-77.263	-0.098	-0.034
-461.084	-24.832	-0.220	0.132
-460.070	-200.000	0.062	-0.499
-459.055	-156.838	-0.375	0.023
-458.040	7.903	-0.294	0.222
-457.026	96.385	0.138	-0.160
-456.011	43.144	-0.083	0.076
-454.997	-13.057	0.101	0.066
-453.982	-68.423	0.205	-0.080
-452.968	313.461	0.066	0.125
-451.953	-148.280	-0.285	-0.024
-450.938	187.366	-0.072	0.108
-449.924	-51.230	-0.265	0.125
-448.909	687.511	0.092	0.242
-447.895	-96.552	0.404	-0.107
-446.880	-200.000	0.007	-0.212
-445.865	-36.724	0.091	0.049
-444.851	141.677	0.022	-0.030
-443.836	222.186	-0.079	0.128
-442.822	-138.312	0.163	-0.018
-441.807	-60.799	0.114	-0.049
-440.792	-68.475	0.020	0.008
-439.778	-31.355	-0.333	0.189
-438.763	14.680	-0.333	0.262
-437.749	781.880	0.077	0.213
-436.734	-40.295	0.104	0.054
-435.719	-200.000	0.108	0.000
-434.705	-105.713	0.132	-0.030
-433.690	132.703	0.086	-0.111
-432.676	-148.918	0.430	0.035
-431.661	473.529	0.052	-0.117
-430.646	-2.247	-0.114	0.080
-429.632	199.832	-0.128	0.198
-428.617	11.167	0.093	-0.072
-427.603	39.658	-0.149	0.135
-426.588	-6.288	-0.275	0.189
-425.573	-200.000	0.066	0.308
-424.559	-200.000	0.013	-0.278
-423.544	-200.000	-0.003	-0.151
-422.530	233.729	-0.066	0.109
-421.515	800.000	0.036	-0.107
-420.500	800.000	-0.031	0.113
-419.486	800.000	0.005	0.019
-418.471	6.939	0.109	-0.082
-417.457	-53.140	-0.065	0.030
-416.442	-200.000	0.038	-0.272
-415.428	-200.000	0.018	-0.196
-414.413	-63.545	0.169	0.070
-413.398	80.365	-0.244	0.265
-412.384	-145.878	0.229	-0.020
-411.369	-168.768	-0.303	0.012
-410.355	-200.000	0.018	0.159
-409.340	298.110	0.210	0.388
-408.325	-98.637	-0.247	0.063
-407.311	-20.511	-0.579	0.358
-406.296	-34.080	0.162	-0.090
-405.282	800.000	-0.082	-0.253
-404.267	10.127	-0.113	0.087
-403.252	-200.000	0.006	-0.469
-402.238	-200.000	0.107	0.502
-401.223	-16.277	-0.040	-0.025
-400.209	-79.817	-0.374	-0.127
-399.194	-123.349	0.366	0.059
-398.179	-82.463	-0.266	0.087
-397.165	-152.055	-0.226	0.017
-396.150	800.000	-0.026	-0.114
-395.136	-200.000	0.020	-0.245
-394.121	-200.000	-0.010	-0.067
-393.106	145.802	-0.145	-0.195
-392.092	-200.000	0.030	-0.181
-391.077	44.306	0.060	0.055
-390.063	700.981	-0.101	-0.267
-389.048	-59.216	0.150	0.065
-388.033	46.455	0.056	0.052
-387.019	195.692	0.051	-0.078
-386.004	84.188	-0.023	-0.025
-384.990	102.955	-0.248	0.292
-383.975	-112.631	0.123	-0.025
-382.960	-118.292	-0.478	-0.086
-381.946	242.433	-0.167	0.281
-380.931	-63.277	0.222	0.092
-379.917	-5.261	0.062	0.043
-378.902	-57.549	-0.229	0.101
-377.888	-12.600	0.098	0.065
-376.873	-111.840	-0.259	-0.053
-375.858	-111.262	0.452	0.093
-374.844	19.228	-0.168	-0.136
-373.829	-68.701	0.124	0.048
-372.815	-116.400	0.143	-0.027
-371.800	-133.990	-0.320	0.040
-370.785	-200.000	0.007	-0.116
-369.771	-117.562	0.168	-0.030
-368.756	-9.820	-0.296	-0.198
-367.742	-200.000	-0.005	-0.064
-366.727	-200.000	0.032	-0.144
-365.712	-67.100	0.024	0.009
-364.698	800.000	0.084	-0.316
-363.683	-111.868	0.198	-0.040
-362.669	104.486	-0.248	0.293
-361.654	177.130	0.102	-0.149
-360.639	-19.658	-0.122	-0.076
-359.625	197.510	-0.077	0.117
-358.610	-27.241	0.116	0.068
-357.596	-38.188	-0.239	-0.127
-356.581	0.557	-0.191	-0.137
-355.566	175.323	-0.087	0.127
-354.552	-80.495	0.143	0.048
-353.537	15.839	-0.186	-0.147
-352.523	72.135	0.104	-0.109
-351.508	319.082	-0.117	-0.223
-350.493	-56.031	0.188	-0.084
-349.479	170.541	0.214	0.307
-348.464	-200.000	-0.010	-0.123
-347.450	42.861	0.147	0.134
-346.435	103.703	0.064	0.075
-345.420	89.024	0.226	-0.253
-344.406	-8.903	0.142	-0.095
-343.391	800.000	-0.058	0.214
-342.377	-200.000	-0.008	0.136
-341.362	-200.000	-0.050	-0.226
-340.348	717.355	0.074	0.197
-339.333	147.992	-0.075	0.101
-338.318	-45.230	0.092	-0.046
-337.304	-144.313	-0.113	-0.011
-336.289	-200.000	0.012	0.117
-335.275	-200.000	-0.023	0.278
-334.260	245.696	-0.108	0.182
-333.245	800.000	-0.094	-0.296
-332.231	-28.495	0.356	-0.206
-331.216	58.965	0.177	-0.175
-330.202	123.745	0.100	0.126
-329.187	46.360	-0.148	-0.137
-328.172	85.406	-0.279	0.307
-327.158	436.422	0.055	0.121
-326.143	290.922	-0.085	-0.155
-325.129	108.438	0.108	-0.129
-324.114	-54.424	0.316	0.144
-323.099	-109.171	-0.116	0.025
-322.085	-58.193	0.245	-0.107
-321.070	-200.000	-0.012	-0.072
-320.056	800.000	-0.045	-0.143
-319.041	-4.582	0.100	0.069
-318.026	35.283	-0.207	-0.182
-317.012	-22.198	0.274	-0.166
-315.997	-36.858	0.319	-0.172
-314.983	-98.914	-0.208	-0.053
-313.968	418.933	-0.074	0.159
-312.953	-200.000	-0.001	-0.089
-311.939	402.793	0.216	-0.455
-310.924	-11.614	0.203	0.134
-309.910	4.067	0.096	0.071
-308.895	-165.520	0.095	0.004
-307.880	-200.000	0.015	-0.128
-306.866	109.703	-0.146	-0.176
-305.851	82.502	0.242	-0.264
-304.837	-14.966	0.239	-0.154
-303.822	-74.775	0.675	-0.243
-302.807	-39.988	-0.237	-0.124
-301.793	-82.545	-0.286	-0.093
-300.778	-200.000	-0.012	-0.131
-299.764	9.006	0.138	-0.104
-298.749	3.854	-0.255	0.186
-297.735	-57.210	-0.384	-0.169
-296.720	-200.000	0.034	-0.226
-295.705	-77.106	-0.198	-0.069
-294.691	-86.415	-0.138	0.043
-293.676	-82.440	0.159	0.052
-292.662	38.042	-0.132	0.117
-291.647	-58.163	0.117	0.051
-290.632	721.928	-0.174	0.463
-289.618	-22.639	0.282	0.171
-288.603	235.055	-0.191	-0.316
-287.589	-200.000	-0.057	0.299
-286.574	-130.591	0.302	-0.041
-285.559	-200.000	0.024	-0.179
-284.545	17.633	0.134	0.107
-283.530	240.611	-0.034	0.057
-282.516	132.794	-0.222	-0.286
-281.501	-102.731	0.231	0.055
-280.486	50.148	-0.095	0.090
-279.472	-200.000	0.022	-0.168
-278.457	337.175	0.085	-0.165
-277.443	-200.000	0.002	0.038
-276.428	-171.480	0.151	0.005
-275.413	643.755	0.077	0.197
-274.399	567.991	-0.058	0.140
-273.384	4.568	-0.441	0.324
-272.370	-177.232	0.017	0.000
-271.355	-104.635	-0.191	-0.044
-270.340	-200.000	-0.227	-0.000
-269.326	738.820	-0.027	0.074
-268.311	279.798	0.182	-0.326
-267.297	-39.246	0.063	0.033
-266.282	40.434	0.148	-0.134
-265.267	-41.019	0.406	-0.210
-264.253	-42.400	0.245	0.125
-263.238	-200.000	-0.011	0.222
-262.224	-54.751	0.134	0.060
-261.209	800.000	-0.093	-0.262
-260.195	113.812	-0.164	0.199
-259.180	104.801	0.065	0.077
-258.165	12.918	0.284	0.220
-257.151	-95.768	-0.423	0.113
-256.136	-0.036	-0.151	0.107
-255.122	200.867	-0.216	-0.332
-254.107	-127.564	-0.157	0.023
-253.092	-200.000	-0.012	0.151
-252.078	-137.912	-0.400	0.045
-251.063	-77.875	0.101	0.035
-250.049	180.294	0.009	0.013
-249.034	521.005	0.062	0.144
-248.019	59.695	0.081	0.080
-247.005	-42.131	0.124	-0.064
-245.990	88.442	0.218	0.242
-244.976	220.369	-0.153	-0.245
-243.961	31.507	0.205	-0.176
-242.946	800.000	0.008	-0.024
-241.932	-62.135	0.121	-0.050
-240.917	122.161	-0.217	0.271
-239.903	129.584	0.092	0.118
-238.888	344.166	0.127	-0.249
-237.873	-18.080	-0.264	-0.165
-236.859	27.504	0.134	-0.113
-235.844	186.444	-0.004	0.006
-234.830	243.571	0.118	0.198
-233.815	361.800	0.227	0.454
-232.800	-200.000	0.043	-0.230
-231.786	800.000	0.057	-0.210
-230.771	-106.027	-0.125	-0.028
-229.757	155.885	0.105	-0.144
-228.742	63.085	-0.262	0.262
-227.727	414.003	0.146	0.311
-226.713	-14.221	0.051	-0.033
-225.698	47.858	-0.493	-0.460
-224.684	298.114	0.078	0.143
-223.669	360.583	-0.088	0.177
-222.655	-200.000	0.058	0.401
-221.640	469.132	0.270	0.605
-220.625	-200.000	0.012	0.154
-219.611	-107.309	0.100	0.022
-218.596	125.101	0.080	-0.101
-217.582	76.147	-0.070	0.074
-216.567	18.691	-0.190	-0.152
-215.552	-34.259	-0.185	0.101
-214.538	-159.910	-0.303	0.017
-213.523	318.439	0.243	-0.459
-212.509	-200.000	-0.021	-0.242
-211.494	-200.000	0.052	0.239
-210.479	-44.050	-0.068	-0.034
-209.465	800.000	0.059	-0.209
-208.450	92.330	-0.121	-0.136
-207.436	4.022	0.345	0.252
-206.421	-200.000	-0.000	0.132
-205.406	57.919	-0.224	-0.219
-204.392	120.030	0.037	-0.046
-203.377	570.864	0.095	-0.231
-202.363	-83.109	0.028	0.009
-201.348	24.232	-0.198	0.164
-200.333	6.481	-0.259	0.192
-199.319	-71.065	0.342	0.128
-198.304	-7.897	-0.156	0.105
-197.290	-200.000	-0.019	-0.295
-196.275	88.097	-0.197	-0.218
-195.260	800.000	-0.084	0.305
-194.246	-16.035	0.200	-0.127
-193.231	198.432	-0.146	-0.223
-192.217	-200.000	-0.003	0.105
-191.202	-200.000	0.036	0.227
-190.187	-200.000	0.006	0.306
-189.173	134.859	0.139	-0.180
-188.158	-200.000	0.006	0.090
-187.144	-55.081	-0.393	0.177
-186.129	436.980	-0.147	0.319
-185.114	800.000	-0.036	0.142
-184.100	-30.856	-0.142	-0.080
-183.085	-52.677	-0.322	-0.148
-182.071	800.000	0.076	0.232
-181.056	-49.259	0.080	0.038
-180.042	333.918	-0.133	0.256
-179.027	-169.354	0.361	-0.013
-178.012	0.515	0.107	0.076
-176.998	800.000	-0.099	-0.339
-175.983	71.591	0.156	-0.162
-174.969	-200.000	0.007	0.389
-173.954	-200.000	0.015	0.367
-172.939	-200.000	-0.033	0.437
-171.925	-50.797	0.242	0.113
-170.910	-66.357	-0.235	0.093
-169.896	66.934	-0.195	-0.198
-168.881	-200.000	-0.003	0.134
-167.866	800.000	-0.212	0.667
-166.852	39.978	-0.223	-0.200
-165.837	800.000	-0.084	-0.333
-164.823	30.176	0.098	0.083
-163.808	498.564	-0.037	0.085
-162.793	800.000	0.056	0.235
-161.779	-170.591	0.316	0.011
-160.764	336.809	0.152	-0.295
-159.750	721.255	-0.117	-0.309
-158.735	76.174	-0.165	0.174
-157.720	155.497	-0.086	-0.118
-156.706	50.552	0.207	-0.195
-155.691	298.289	-0.125	-0.228
-154.677	-153.483	0.084	-0.006
-153.662	800.000	0.105	-0.309
-152.647	169.068	0.125	-0.178
-151.633	6.223	0.088	0.065
-150.618	-20.931	0.265	0.162
-149.604	-134.429	0.309	-0.038
-148.589	-35.346	-0.096	0.052
-147.574	372.149	-0.177	0.358
-146.560	-69.860	-0.116	0.044
-145.545	17.138	-0.405	-0.320
-144.531	-200.000	-0.013	-0.227
-143.516	-200.000	0.008	-0.224
-142.502	-43.206	0.097	0.049
-141.487	9.584	0.150	0.113
-140.472	157.666	-0.275	0.379
-139.458	36.940	0.143	-0.126
-138.443	-13.747	0.506	-0.326
-137.429	-200.000	-0.024	-0.183
-136.414	347.000	-0.134	-0.263
-135.399	154.061	-0.108	0.147
-134.385	-57.881	0.386	0.168
-133.370	-200.000	0.009	-0.046
-132.356	-150.432	-0.483	0.037
-131.341	361.421	-0.072	-0.143
-130.326	-200.000	0.009	-0.182
-129.312	800.000	0.075	0.288
-128.297	55.804	0.136	0.132
-127.283	800.000	0.064	-0.207
-126.268	-110.255	-0.222	0.046
-125.253	442.261	0.158	0.344
-124.239	-200.000	0.029	-0.235
-123.224	-27.737	0.219	-0.126
-122.210	800.000	0.100	-0.405
-121.195	-60.174	0.230	-0.098
-120.180	186.990	0.074	-0.110
