DTS Sentinel unit serial number:	SN413079Multiplexer serial number:	ORYXHardware model number:	OX4-SRSoftware version number:	ORYX F/W v4.00 Oryx Data Collector v3.7.2.0data status	okinstallation	princeton_trtdifferential loss correction	single-endedforward channel	channel 2reverse channel	N/Adate	2019/09/18time	12:59:35forward acquisition time	60.00reverse acquisition time	0.00gamma	496.2192k internal	0.2322k external	0.2322temperature offset calibration	0.9990default loss term (dB/km)	0.3790temperature slope calibration	1.0000multiplexer offset coefficient	1.0000multiplexer slope coefficient	1.0000fibre end	0.00T internal ref (°C)	33.37T ext. ref 1 (°C)	0.56T ext. ref 2 (°C)	31.03length (m)	temperature (°C)	Stokes	anti-Stokes-747.200	-7.446	-0.149	0.102
-746.185	412.325	-0.294	0.631
-745.171	8.367	0.157	-0.120
-744.156	-146.125	0.138	-0.012
-743.142	-191.351	0.230	0.002
-742.127	-8.419	-0.087	0.059
-741.112	-51.728	-0.043	-0.020
-740.098	-94.789	0.103	0.028
-739.083	-52.796	-0.222	-0.104
-738.069	310.748	-0.010	0.018
-737.054	-53.865	-0.226	-0.104
-736.039	-133.473	-0.198	-0.025
-735.025	10.528	0.283	-0.218
-734.010	-200.000	0.009	-0.081
-732.996	-121.782	-0.221	-0.037
-731.981	635.387	0.077	-0.197
-730.966	-104.144	0.274	-0.064
-729.952	281.596	-0.079	-0.144
-728.937	68.830	-0.317	0.329
-727.923	-134.991	0.230	0.028
-726.908	800.000	-0.035	-0.138
-725.894	-200.000	-0.002	-0.401
-724.879	-200.000	-0.009	0.305
-723.864	-200.000	-0.002	0.047
-722.850	367.305	0.104	-0.213
-721.835	48.685	-0.177	-0.168
-720.821	-157.932	-0.224	-0.013
-719.806	-142.335	-0.237	-0.024
-718.791	-13.607	-0.181	0.119
-717.777	-200.000	0.030	-0.135
-716.762	-57.370	-0.346	0.154
-715.748	-90.267	0.126	-0.037
-714.733	253.920	-0.089	0.153
-713.718	149.312	-0.103	-0.140
-712.704	-172.447	0.376	-0.012
-711.689	420.553	0.130	-0.282
-710.675	291.940	0.052	0.096
-709.660	-167.593	0.328	-0.013
-708.645	424.774	0.030	-0.064
-707.631	94.852	-0.163	0.187
-706.616	-90.294	0.071	-0.021
-705.602	28.535	-0.076	0.065
-704.587	60.240	0.135	-0.134
-703.572	-115.553	-0.279	0.053
-702.558	126.524	-0.124	-0.159
-701.543	-133.019	0.152	-0.019
-700.529	156.467	0.032	0.045
-699.514	-74.060	-0.155	-0.057
-698.499	-24.203	0.156	-0.094
-697.485	-200.000	-0.026	-0.213
-696.470	-7.163	0.284	-0.194
-695.456	46.130	-0.251	0.234
-694.441	-71.828	0.213	0.080
-693.426	-189.955	0.377	-0.004
-692.412	-99.546	0.164	-0.042
-691.397	-65.203	0.171	0.070
-690.383	12.167	0.126	0.098
-689.368	-13.754	0.184	0.120
-688.354	49.686	0.095	0.090
-687.339	-200.000	0.022	0.234
-686.324	0.020	-0.092	0.066
-685.310	-200.000	-0.062	0.335
-684.295	160.535	0.160	0.225
-683.281	-104.947	0.161	0.037
-682.266	173.430	0.059	-0.086
-681.251	574.500	-0.207	0.508
-680.237	-200.000	0.005	-0.023
-679.222	-200.000	0.028	-0.434
-678.208	145.341	0.166	-0.224
-677.193	-139.219	0.028	0.003
-676.178	21.458	0.164	0.135
-675.164	11.725	-0.077	0.060
-674.149	40.190	-0.323	-0.292
-673.135	229.941	0.205	-0.337
-672.120	-200.000	-0.046	-0.408
-671.105	36.847	-0.217	-0.193
-670.091	800.000	-0.087	0.315
-669.076	-62.903	-0.251	0.104
-668.062	-65.175	0.123	-0.050
-667.047	53.581	-0.195	-0.188
-666.032	-9.773	-0.109	-0.073
-665.018	-1.611	0.083	0.059
-664.003	-73.213	-0.234	-0.086
-662.989	747.664	-0.062	-0.169
-661.974	174.452	0.203	-0.295
-660.959	-12.141	0.137	-0.090
-659.945	114.150	-0.157	-0.193
-658.930	800.000	0.061	-0.204
-657.916	-108.782	-0.264	-0.057
-656.901	-112.903	-0.211	0.042
-655.886	175.984	-0.110	-0.161
-654.872	129.752	-0.092	0.118
-653.857	-62.707	0.391	0.163
-652.843	493.823	0.183	-0.422
-651.828	476.300	0.111	-0.251
-650.814	-29.375	-0.245	-0.141
-649.799	134.688	-0.317	-0.414
-648.784	-98.809	0.049	0.013
-647.770	701.889	0.069	0.183
-646.755	-200.000	0.013	-0.173
-645.741	215.126	-0.154	0.247
-644.726	-200.000	-0.013	-0.086
-643.711	42.795	-0.168	0.154
-642.697	240.229	-0.117	0.196
-641.682	282.809	0.139	-0.250
-640.668	-200.000	-0.005	-0.231
-639.653	518.300	-0.113	-0.266
-638.638	-180.402	0.299	0.006
-637.624	660.435	-0.075	0.195
-636.609	255.243	-0.134	-0.231
-635.595	-200.000	0.002	-0.039
-634.580	-31.728	0.284	0.160
-633.565	-77.291	0.163	0.057
-632.551	-87.471	0.347	-0.106
-631.536	-31.020	-0.093	0.053
-630.522	-118.382	0.225	0.040
-629.507	432.423	-0.110	-0.241
-628.492	4.694	0.086	0.064
-627.478	800.000	-0.068	0.197
-626.463	332.631	0.041	0.079
-625.449	-138.638	0.203	0.022
-624.434	563.487	-0.056	0.135
-623.419	-157.555	-0.064	-0.004
-622.405	527.882	-0.067	-0.158
-621.390	576.876	-0.141	-0.346
-620.376	143.683	-0.176	-0.236
-619.361	-70.510	-0.213	0.081
-618.346	-109.397	0.104	-0.022
-617.332	40.841	0.241	-0.219
-616.317	337.576	-0.152	-0.298
-615.303	-109.443	0.107	0.023
-614.288	495.081	-0.187	0.431
-613.273	306.966	-0.082	0.153
-612.259	-65.157	-0.293	0.119
-611.244	436.164	-0.105	0.231
-610.230	113.020	0.043	0.053
-609.215	-118.368	0.133	-0.024
-608.201	18.927	0.243	-0.196
-607.186	-32.741	-0.432	0.242
-606.171	800.000	-0.065	-0.203
-605.157	-84.489	-0.424	0.135
-604.142	-200.000	-0.024	0.131
-603.128	18.453	0.268	-0.215
-602.113	10.885	0.034	-0.026
-601.098	334.794	-0.139	-0.270
-600.084	-61.041	0.202	0.086
-599.069	-92.405	0.182	0.051
-598.055	111.441	-0.183	0.222
-597.040	209.508	0.205	-0.323
-596.025	30.831	0.092	-0.079
-595.011	800.000	-0.120	-0.434
-593.996	133.021	0.345	0.448
-592.982	-149.517	0.237	0.019
-591.967	315.379	0.112	0.212
-590.952	-138.989	0.411	0.045
-589.938	-200.000	0.016	0.313
-588.923	18.016	-0.291	0.233
-587.909	-174.573	-0.015	-0.000
-586.894	-200.000	-0.047	0.250
-585.879	201.648	0.187	-0.289
-584.865	-124.639	0.268	-0.042
-583.850	-92.682	0.176	-0.050
-582.836	243.858	-0.062	-0.105
-581.821	304.303	-0.025	0.046
-580.806	-200.000	0.041	0.260
-579.792	-129.425	-0.290	-0.040
-578.777	695.997	-0.059	-0.155
-577.763	-200.000	0.006	0.058
-576.748	139.995	0.273	-0.362
-575.733	800.000	0.071	-0.306
-574.719	800.000	0.105	-0.327
-573.704	-200.000	0.015	-0.104
-572.690	47.683	-0.271	-0.254
-571.675	67.661	-0.462	-0.474
-570.661	-30.908	0.170	0.097
-569.646	-184.169	-0.206	0.003
-568.631	800.000	0.069	0.225
-567.617	-24.799	0.330	0.197
-566.602	-200.000	-0.059	-0.351
-565.588	314.286	0.032	0.060
-564.573	528.031	0.071	0.169
-563.558	-7.475	0.189	0.128
-562.544	-200.000	0.023	0.343
-561.529	461.767	-0.053	0.119
-560.515	84.280	0.212	-0.232
-559.500	73.243	0.089	0.094
-558.485	-135.274	0.324	0.039
-557.471	505.737	0.059	-0.137
-556.456	-200.000	0.044	-0.273
-555.442	-79.965	0.253	0.085
-554.427	-65.744	-0.027	0.011
-553.412	-60.163	-0.062	0.026
-552.398	-142.302	0.187	0.019
-551.383	78.023	0.121	0.129
-550.369	-200.000	0.047	0.254
-549.354	-190.039	-0.399	0.004
-548.339	-145.605	-0.239	0.022
-547.325	503.102	-0.068	0.158
-546.310	-32.917	0.069	0.038
-545.296	-200.000	0.013	0.206
-544.281	43.314	0.308	-0.282
-543.266	43.337	-0.089	-0.082
-542.252	355.901	0.222	0.443
-541.237	-81.951	0.320	-0.105
-540.223	759.303	0.054	0.146
-539.208	-80.962	-0.298	-0.099
-538.193	-6.428	0.322	-0.220
-537.179	503.117	0.062	-0.143
-536.164	-30.891	0.326	0.185
-535.150	-200.000	0.016	-0.193
-534.135	-103.929	0.080	-0.019
-533.121	-45.477	0.171	-0.085
-532.106	-40.169	-0.237	0.123
-531.091	135.331	0.243	-0.316
-530.077	800.000	-0.085	-0.332
-529.062	-200.000	-0.005	-0.134
-528.048	100.897	-0.090	0.105
-527.033	41.990	-0.150	-0.136
-526.018	-93.401	-0.144	-0.040
-525.004	142.589	-0.163	-0.217
-523.989	325.811	0.059	0.113
-522.975	-29.081	-0.303	0.174
-521.960	31.032	-0.054	-0.046
-520.945	-68.808	-0.081	0.031
-519.931	-200.000	-0.025	-0.381
-518.916	143.198	-0.303	0.403
-517.902	-31.752	0.257	0.144
-516.887	146.931	0.065	-0.088
-515.872	800.000	0.064	-0.213
-514.858	800.000	-0.138	0.391
-513.843	800.000	0.035	0.121
-512.829	-123.275	0.110	-0.018
-511.814	-200.000	-0.124	0.576
-510.799	-200.000	0.023	0.183
-509.785	159.599	-0.033	-0.046
-508.770	-70.131	0.149	-0.057
-507.756	800.000	0.075	0.230
-506.741	84.789	-0.082	0.090
-505.726	-0.405	-0.355	0.253
-504.712	-9.545	-0.451	0.301
-503.697	95.825	-0.035	0.040
-502.683	520.243	-0.044	-0.102
-501.668	-92.381	-0.347	0.098
-500.653	800.000	0.104	-0.433
-499.639	86.142	-0.138	-0.152
-498.624	-71.883	-0.136	0.051
-497.610	180.781	-0.125	-0.183
-496.595	107.171	0.166	-0.198
-495.581	284.807	-0.053	0.096
-494.566	150.175	0.155	0.210
-493.551	-1.620	-0.076	0.053
-492.537	800.000	0.095	-0.328
-491.522	306.028	0.114	0.213
-490.508	-173.883	-0.446	-0.013
-489.493	-200.000	0.016	-0.119
-488.478	-200.000	-0.004	0.270
-487.464	55.765	0.180	-0.175
-486.449	-58.136	0.110	-0.048
-485.435	-48.556	-0.158	0.076
-484.420	800.000	0.052	-0.216
-483.405	4.525	-0.181	0.133
-482.391	168.824	0.088	-0.125
-481.376	-127.390	-0.019	-0.003
-480.362	-187.940	-0.299	0.004
-479.347	800.000	0.089	-0.274
-478.332	112.489	0.101	-0.123
-477.318	800.000	-0.043	-0.160
-476.303	-200.000	0.038	0.236
-475.289	-200.000	-0.045	-0.270
-474.274	-40.499	0.509	-0.264
-473.259	71.080	-0.203	0.211
-472.245	404.007	-0.104	0.220
-471.230	800.000	-0.016	0.047
-470.216	192.268	-0.126	-0.190
-469.201	88.588	-0.131	0.145
-468.186	-46.946	-0.078	0.038
-467.172	-200.000	0.078	0.341
-466.157	294.865	0.207	0.379
-465.143	-47.425	0.191	-0.093
-464.128	96.960	-0.151	-0.173
-463.113	-200.000	-0.025	-0.192
-462.099	-87.983	-0.201	-0.060
-461.084	-68.385	0.235	-0.091
-460.070	800.000	-0.077	0.232
-459.055	551.434	-0.112	0.269
-458.040	800.000	0.073	-0.253
-457.026	-101.207	0.363	-0.089
-456.011	-55.084	0.266	0.120
-454.997	800.000	-0.087	-0.291
-453.982	-200.000	0.019	-0.149
-452.968	105.955	0.122	-0.144
-451.953	-169.325	0.073	0.003
-450.938	266.124	0.107	0.187
-449.924	-189.842	0.338	-0.004
-448.909	-70.518	-0.271	-0.102
-447.895	-157.001	0.223	-0.014
-446.880	-8.185	-0.336	0.226
-445.865	24.030	-0.193	-0.159
-444.851	-11.346	-0.382	0.251
-443.836	130.133	-0.102	-0.131
-442.822	-156.944	-0.233	0.014
-441.807	-42.985	-0.042	0.021
-440.792	-200.000	0.026	-0.344
-439.778	-200.000	0.005	0.073
-438.763	742.263	0.090	0.240
-437.749	-114.645	0.120	0.023
-436.734	-68.363	-0.211	-0.082
-435.719	-200.000	-0.053	-0.266
-434.705	-34.276	-0.123	0.068
-433.690	-200.000	-0.010	-0.219
-432.676	-86.058	-0.032	0.010
-431.661	-7.949	0.241	-0.162
-430.646	727.363	-0.094	-0.251
-429.632	39.433	0.125	0.112
-428.617	-65.326	0.062	-0.025
-427.603	188.403	0.079	0.117
-426.588	297.579	-0.184	0.338
-425.573	606.509	-0.191	-0.475
-424.559	-76.709	-0.188	-0.066
-423.544	5.903	-0.098	0.073
-422.530	-200.000	-0.047	-0.430
-421.515	800.000	0.135	-0.417
-420.500	134.891	-0.099	0.129
-419.486	763.150	-0.119	-0.322
-418.471	-48.875	-0.113	-0.054
-417.457	101.757	-0.120	0.140
-416.442	-118.769	-0.361	0.063
-415.428	131.579	0.113	-0.144
-414.413	9.514	0.148	-0.112
-413.398	54.691	-0.112	-0.108
-412.384	-200.000	0.008	0.136
-411.369	-128.751	0.080	0.011
-410.355	460.340	0.087	-0.193
-409.340	58.320	0.043	0.042
-408.325	80.698	-0.126	0.136
-407.311	92.046	-0.201	0.226
-406.296	-58.945	0.125	-0.054
-405.282	-200.000	0.009	0.055
-404.267	173.950	-0.103	0.149
-403.252	-107.862	-0.097	-0.021
-402.238	-136.348	0.066	0.008
-401.223	-117.794	0.354	-0.063
-400.209	-200.000	-0.009	-0.319
-399.194	234.723	-0.149	-0.244
-398.179	431.534	0.102	0.220
-397.165	-88.403	-0.221	-0.066
-396.150	-69.659	-0.079	-0.030
-395.136	30.391	-0.113	0.097
-394.121	53.470	-0.233	0.222
-393.106	328.377	-0.170	-0.324
-392.092	-73.325	-0.256	-0.093
-391.077	-200.000	0.006	0.227
-390.063	-141.769	0.062	-0.006
-389.048	-200.000	-0.063	-0.535
-388.033	-11.769	0.372	-0.243
-387.019	-5.226	0.219	0.150
-386.004	-0.808	0.212	0.150
-384.990	-114.864	0.379	0.072
-383.975	-29.137	-0.117	-0.067
-382.960	-152.977	0.224	-0.016
-381.946	296.009	0.168	0.306
-380.931	-200.000	-0.007	-0.117
-379.917	-133.383	0.130	0.016
-378.902	651.386	-0.096	-0.244
-377.888	172.212	0.005	-0.007
-376.873	-60.073	-0.282	-0.120
-375.858	-200.000	0.032	-0.236
-374.844	-200.000	0.042	0.204
-373.829	167.491	0.127	0.180
-372.815	800.000	0.113	0.333
-371.800	-183.864	-0.071	-0.001
-370.785	119.688	-0.204	0.252
-369.771	-64.136	-0.116	-0.047
-368.756	-161.632	-0.425	-0.022
-367.742	-160.873	-0.339	0.018
-366.727	-36.333	0.263	-0.141
-365.712	800.000	-0.068	-0.270
-364.698	73.170	-0.114	0.119
-363.683	-200.000	-0.006	-0.244
-362.669	-200.000	0.025	0.207
-361.654	-180.669	-0.327	0.007
-360.639	-200.000	0.016	0.247
-359.625	143.161	-0.109	-0.144
-358.610	-200.000	-0.024	0.202
-357.596	-200.000	-0.027	-0.142
-356.581	59.254	0.124	-0.121
-355.566	638.542	0.052	-0.132
-354.552	-147.025	0.192	0.016
-353.537	292.106	-0.095	-0.172
-352.523	-200.000	-0.001	0.103
-351.508	88.789	0.140	0.155
-350.493	111.205	-0.166	-0.199
-349.479	240.916	-0.092	0.153
-348.464	82.809	-0.148	-0.160
-347.450	800.000	0.057	0.237
-346.435	-127.623	-0.236	-0.034
-345.420	-200.000	0.048	0.245
-344.406	-200.000	0.003	0.253
-343.391	-42.966	-0.120	0.061
-342.377	-124.196	-0.187	-0.029
-341.362	-80.200	-0.041	0.013
-340.348	-200.000	-0.011	0.120
-339.333	51.867	0.126	0.119
-338.318	-41.253	-0.190	0.097
-337.304	-200.000	0.027	0.162
-336.289	49.098	-0.083	-0.077
-335.275	57.085	0.118	0.114
-334.260	800.000	0.122	0.365
-333.245	544.443	0.097	-0.231
-332.231	-200.000	0.002	0.149
-331.216	-134.070	0.128	-0.016
-330.202	-200.000	-0.035	0.326
-329.187	800.000	0.088	-0.355
-328.172	215.968	-0.106	-0.167
-327.158	-89.330	0.146	-0.043
-326.143	-182.532	-0.072	-0.001
-325.129	66.911	0.158	-0.160
-324.114	-142.833	-0.362	-0.035
-323.099	-200.000	0.034	0.190
-322.085	-200.000	0.056	-0.346
-321.070	-200.000	0.031	0.223
-320.056	-200.000	-0.004	0.080
-319.041	800.000	-0.067	0.263
-318.026	-200.000	0.001	0.378
-317.012	-164.622	-0.122	-0.006
-315.997	-84.182	-0.098	0.031
-314.983	94.374	-0.297	-0.335
-313.968	300.420	0.117	0.214
-312.953	-92.794	0.331	-0.092
-311.939	-200.000	-0.011	-0.058
-310.924	33.804	-0.143	-0.124
-309.910	424.540	-0.128	-0.274
-308.895	-200.000	0.077	-0.350
-307.880	800.000	0.015	-0.051
-306.866	800.000	-0.110	0.356
-305.851	21.705	-0.110	0.089
-304.837	91.213	-0.114	-0.127
-303.822	88.077	-0.078	0.086
-302.807	-47.309	-0.193	-0.093
-301.793	96.640	-0.093	-0.106
-300.778	-111.454	-0.244	-0.049
-299.764	275.181	0.113	0.198
-298.749	196.960	-0.265	0.401
-297.735	-89.432	-0.307	0.090
-296.720	-78.659	0.299	0.101
-295.705	-200.000	0.009	0.105
-294.691	-200.000	-0.008	0.168
-293.676	-200.000	-0.034	-0.270
-292.662	93.949	-0.120	0.135
-291.647	-109.972	-0.057	0.012
-290.632	-92.740	-0.181	0.050
-289.618	544.787	-0.082	-0.194
-288.603	-200.000	-0.001	-0.195
-287.589	218.333	0.109	-0.173
-286.574	85.386	0.089	-0.097
-285.559	-44.475	-0.342	-0.170
-284.545	32.932	-0.194	-0.167
-283.530	125.619	0.142	-0.178
-282.516	76.718	0.045	-0.048
-281.501	-200.000	-0.021	-0.172
-280.486	800.000	0.042	0.126
-279.472	11.981	0.276	-0.211
-278.457	190.438	-0.008	-0.011
-277.443	-94.299	0.291	0.079
-276.428	800.000	-0.028	0.085
-275.413	-132.836	-0.126	0.016
-274.399	-168.095	-0.215	-0.008
-273.384	289.365	0.080	0.143
-272.370	72.133	0.068	0.070
-271.355	29.740	0.270	0.228
-270.340	-33.874	-0.272	0.149
-269.326	216.448	0.029	0.045
-268.311	176.308	-0.049	-0.070
-267.297	-200.000	-0.012	-0.098
-266.282	800.000	0.093	0.323
-265.267	18.171	-0.339	0.268
-264.253	98.110	-0.140	-0.160
-263.238	-40.143	0.082	-0.042
-262.224	45.761	-0.189	0.173
-261.209	253.761	0.185	0.314
-260.195	-200.000	-0.022	0.114
-259.180	800.000	-0.164	0.500
-258.165	339.980	-0.200	-0.386
-257.151	800.000	-0.067	0.265
-256.136	-56.466	0.161	0.071
-255.122	-60.177	-0.095	0.040
-254.107	259.097	0.015	0.025
-253.092	40.457	0.289	0.258
-252.078	-88.935	0.414	0.122
-251.063	-122.717	0.172	0.028
-250.049	106.650	0.273	-0.322
-249.034	27.808	-0.149	0.124
-248.019	157.154	-0.101	-0.138
-247.005	3.137	-0.208	-0.150
-245.990	-5.692	0.194	0.132
-244.976	243.650	-0.126	0.210
-243.961	23.657	-0.128	-0.104
-242.946	-31.305	0.147	0.082
-241.932	-124.866	0.196	-0.030
-240.917	143.381	-0.061	0.081
-239.903	56.847	0.084	-0.081
-238.888	-10.016	0.155	-0.102
-237.873	-78.121	0.209	0.071
-236.859	-91.075	-0.343	0.098
-235.844	-169.020	-0.212	0.008
-234.830	-163.369	0.147	-0.007
-233.815	-2.091	0.101	-0.070
-232.800	-25.927	0.197	-0.115
-231.786	-184.775	0.404	-0.006
-230.771	-116.310	0.268	-0.049
-229.757	800.000	-0.037	0.145
-228.742	-200.000	0.019	0.093
-227.727	145.001	0.291	-0.386
-226.713	800.000	0.075	-0.223
-225.698	307.741	-0.131	0.241
-224.684	-32.635	0.163	0.090
-223.669	69.079	0.169	-0.172
-222.655	65.397	0.120	-0.120
-221.640	-155.996	0.180	-0.011
-220.625	48.124	-0.177	-0.164
-219.611	-46.871	0.182	0.088
-218.596	-200.000	0.037	0.356
-217.582	327.442	0.098	0.186
-216.567	-82.145	-0.390	0.126
-215.552	46.213	0.304	0.279
-214.538	280.358	0.299	-0.528
-213.523	-200.000	0.000	-0.121
-212.509	-18.468	-0.144	0.089
-211.494	50.736	0.233	-0.218
-210.479	800.000	-0.034	-0.111
-209.465	800.000	-0.028	0.088
-208.450	56.139	0.164	0.157
-207.436	-200.000	-0.011	0.182
-206.421	-44.939	0.153	-0.075
-205.406	800.000	0.020	-0.076
-204.392	-37.996	0.283	-0.149
-203.377	800.000	0.077	0.221
-202.363	-32.965	-0.109	-0.060
-201.348	800.000	-0.042	-0.122
-200.333	50.009	-0.220	-0.205
-199.319	-151.698	0.132	0.010
-198.304	341.989	-0.195	0.376
-197.290	47.013	0.167	0.154
-196.275	-128.151	0.128	-0.018
-195.260	-200.000	-0.002	0.315
-194.246	308.340	-0.070	0.130
-193.231	161.896	-0.219	0.303
-192.217	-200.000	-0.029	-0.168
-191.202	233.530	0.193	-0.313
-190.187	-172.513	0.113	-0.004
-189.173	446.420	0.115	-0.251
-188.158	-73.498	0.117	0.042
-187.144	-200.000	0.013	0.176
-186.129	276.457	0.306	0.537
-185.114	-163.883	0.045	-0.002
-184.100	-162.509	0.210	0.010
-183.085	620.187	0.090	-0.223
-182.071	-27.336	0.093	0.054
-181.056	-115.133	-0.251	0.047
-180.042	439.759	-0.114	0.246
-179.027	-110.590	0.411	-0.084
-178.012	-126.030	-0.137	0.020
-176.998	548.468	-0.113	0.268
-175.983	-78.028	0.265	-0.090
-174.969	98.355	0.082	-0.094
-173.954	258.804	0.165	-0.281
-172.939	-32.604	-0.115	0.063
-171.925	104.929	-0.073	0.085
-170.910	-200.000	0.022	-0.141
-169.896	708.819	0.056	-0.146
-168.881	-200.000	-0.046	0.203
-167.866	800.000	0.091	-0.258
-166.852	-64.082	-0.233	0.094
-165.837	-200.000	0.067	-0.411
-164.823	800.000	-0.072	-0.263
-163.808	83.565	0.160	0.172
-162.793	243.110	-0.080	0.132
-161.779	-132.282	-0.303	-0.039
-160.764	-200.000	0.027	0.237
-159.750	46.730	0.069	0.063
-158.735	-200.000	-0.001	-0.057
-157.720	-36.253	-0.446	0.238
-156.706	-181.805	0.228	-0.004
-155.691	800.000	-0.005	0.016
-154.677	107.436	0.139	-0.163
-153.662	-31.288	-0.053	0.029
-152.647	-10.973	-0.121	0.079
-151.633	-102.934	-0.048	-0.011
-150.618	-174.355	0.260	0.007
-149.604	113.833	0.130	0.156
-148.589	709.970	-0.053	0.139
-147.574	106.204	0.190	0.222
-146.560	800.000	-0.054	0.209
-145.545	-3.711	0.108	-0.074
-144.531	214.034	0.089	0.139
-143.516	-200.000	-0.005	-0.058
-142.502	115.241	-0.125	-0.151
-141.487	-3.975	-0.296	0.203
-140.472	417.465	0.035	-0.073
-139.458	-35.844	0.006	0.003
-138.443	24.792	0.116	0.094
-137.429	20.586	-0.196	-0.157
-136.414	132.742	-0.203	-0.259
-135.399	31.251	-0.125	0.106
-134.385	800.000	-0.075	0.285
-133.370	-110.491	-0.227	0.046
-132.356	800.000	-0.073	0.225
-131.341	-69.902	-0.174	0.065
-130.326	44.105	0.300	-0.271
-129.312	-53.715	0.032	0.014
-128.297	85.108	-0.054	-0.059
-127.283	-114.439	0.322	0.061
-126.268	-200.000	0.034	-0.520
-125.253	-84.675	0.300	-0.093
-124.239	168.713	0.148	0.208
-123.224	603.420	-0.026	0.064
-122.210	139.665	0.127	-0.165
-121.195	-80.027	0.160	-0.053
