DTS Sentinel unit serial number:	SN413079Multiplexer serial number:	ORYXHardware model number:	OX4-SRSoftware version number:	ORYX F/W v4.00 Oryx Data Collector v3.7.2.0data status	okinstallation	princeton_trtdifferential loss correction	single-endedforward channel	channel 2reverse channel	N/Adate	2019/09/11time	09:29:11forward acquisition time	60.00reverse acquisition time	0.00gamma	496.2192k internal	0.2317k external	0.2317temperature offset calibration	0.9966default loss term (dB/km)	0.3790temperature slope calibration	1.0000multiplexer offset coefficient	1.0000multiplexer slope coefficient	1.0000fibre end	0.00T internal ref (°C)	34.69T ext. ref 1 (°C)	0.11T ext. ref 2 (°C)	31.41length (m)	temperature (°C)	Stokes	anti-Stokes-747.200	-25.564	-0.224	-0.134
-746.185	-27.745	-0.186	0.109
-745.171	-135.226	-0.438	0.053
-744.156	224.791	0.074	-0.122
-743.142	117.493	0.185	-0.231
-742.127	-38.466	0.149	0.080
-741.112	49.712	0.243	0.232
-740.098	-74.276	-0.079	-0.029
-739.083	484.432	0.185	0.426
-738.069	541.108	0.074	-0.177
-737.054	335.401	0.204	-0.400
-736.039	-30.384	-0.193	-0.111
-735.025	425.519	0.203	0.443
-734.010	-140.460	0.362	-0.038
-732.996	800.000	0.054	-0.189
-731.981	-200.000	-0.377	-0.001
-730.966	-108.420	0.211	0.046
-729.952	-200.000	0.008	-0.210
-728.937	371.734	-0.067	-0.139
-727.923	-200.000	0.000	-0.023
-726.908	-200.000	-0.042	-0.203
-725.894	-65.847	-0.351	-0.142
-724.879	-200.000	-0.018	-0.080
-723.864	-200.000	0.044	-0.201
-722.850	203.231	0.306	-0.478
-721.835	329.343	-0.055	-0.108
-720.821	-8.165	-0.170	-0.116
-719.806	-150.723	-0.381	0.029
-718.791	-200.000	0.020	-0.332
-717.777	627.628	0.035	0.089
-716.762	-180.209	-0.136	0.003
-715.748	-200.000	-0.005	-0.039
-714.733	382.641	-0.164	0.341
-713.718	-200.000	0.043	0.265
-712.704	-59.787	-0.223	-0.097
-711.689	800.000	0.060	0.179
-710.675	79.023	0.139	0.150
-709.660	514.559	0.036	-0.085
-708.645	-51.901	-0.312	-0.147
-707.631	301.261	0.221	0.413
-706.616	-13.329	0.139	-0.091
-705.602	-176.709	-0.044	0.001
-704.587	-93.470	0.060	0.017
-703.572	38.266	-0.219	0.197
-702.558	-49.206	-0.311	0.150
-701.543	-200.000	0.032	-0.233
-700.529	-117.279	-0.199	-0.037
-699.514	-200.000	-0.022	0.364
-698.499	800.000	0.014	0.040
-697.485	800.000	0.023	0.087
-696.470	146.217	0.052	-0.071
-695.456	-79.183	-0.249	0.085
-694.441	-20.473	-0.246	-0.153
-693.426	-120.401	-0.245	-0.042
-692.412	-18.761	0.180	0.114
-691.397	180.880	-0.028	-0.042
-690.383	-200.000	-0.016	0.174
-689.368	-200.000	-0.021	-0.166
-688.354	19.490	0.229	-0.186
-687.339	-30.875	-0.036	0.021
-686.324	154.208	0.145	-0.200
-685.310	576.568	0.083	0.204
-684.295	-92.188	-0.024	-0.007
-683.281	-200.000	0.008	-0.049
-682.266	26.433	0.147	-0.124
-681.251	163.319	0.060	-0.085
-680.237	-36.266	0.117	-0.064
-679.222	328.449	-0.080	-0.154
-678.208	-68.184	0.038	-0.015
-677.193	800.000	0.114	-0.338
-676.178	51.119	0.248	-0.238
-675.164	-108.665	-0.196	-0.042
-674.149	-150.378	0.270	0.021
-673.135	-116.391	-0.335	0.063
-672.120	-106.426	-0.146	-0.033
-671.105	-159.634	0.217	0.012
-670.091	-59.157	-0.240	-0.105
-669.076	-74.172	0.196	0.072
-668.062	-145.441	-0.149	-0.014
-667.047	55.684	0.140	-0.137
-666.032	-21.247	0.318	-0.196
-665.018	-137.240	-0.076	0.009
-664.003	-200.000	0.047	0.302
-662.989	63.866	0.284	0.288
-661.974	-24.161	-0.194	0.117
-660.959	23.325	-0.318	-0.263
-659.945	471.164	0.065	-0.147
-658.930	-91.861	-0.021	-0.006
-657.916	-200.000	-0.024	-0.112
-656.901	-200.000	-0.018	0.192
-655.886	265.965	0.178	-0.313
-654.872	-144.697	0.292	0.027
-653.857	-86.601	-0.312	0.097
-652.843	91.366	0.233	0.265
-651.828	17.392	-0.089	-0.071
-650.814	-31.234	-0.015	-0.009
-649.799	-50.673	-0.080	-0.038
-648.784	-200.000	0.016	0.197
-647.770	516.704	0.020	0.048
-646.755	144.066	0.191	-0.257
-645.741	54.702	0.270	0.263
-644.726	-114.819	-0.358	0.069
-643.711	473.193	0.074	-0.167
-642.697	-113.233	-0.121	-0.024
-641.682	-200.000	-0.064	0.302
-640.668	-103.782	0.112	0.026
-639.653	327.545	0.042	-0.081
-638.638	127.437	0.197	0.252
-637.624	-103.070	-0.133	0.032
-636.609	-200.000	0.007	0.145
-635.595	800.000	-0.127	-0.364
-634.580	800.000	0.082	-0.264
-633.565	-52.194	-0.272	0.127
-632.551	564.360	0.013	-0.031
-631.536	9.748	0.153	-0.117
-630.522	-120.442	0.390	0.067
-629.507	-164.246	-0.356	-0.017
-628.492	-138.591	-0.284	0.031
-627.478	96.767	0.005	-0.006
-626.463	-161.444	-0.161	-0.008
-625.449	-13.054	0.177	0.116
-624.434	-200.000	-0.039	-0.452
-623.419	-90.252	-0.126	0.037
-622.405	-35.792	0.195	-0.107
-621.390	-200.000	0.034	0.322
-620.376	-50.039	-0.219	-0.104
-619.361	687.171	-0.051	-0.134
-618.346	-38.177	0.291	-0.156
-617.332	315.143	-0.076	-0.144
-616.317	730.896	0.117	0.314
-615.303	-134.757	-0.476	0.058
-614.288	241.810	-0.136	-0.229
-613.273	-152.743	-0.082	0.006
-612.259	183.810	-0.188	0.280
-611.244	245.265	0.107	0.181
-610.230	-7.492	-0.315	-0.214
-609.215	237.294	0.168	-0.280
-608.201	-18.095	-0.221	-0.139
-607.186	798.577	-0.001	0.002
-606.171	-116.893	-0.177	0.033
-605.157	-164.000	0.208	0.010
-604.142	-200.000	0.040	-0.244
-603.128	800.000	0.025	-0.092
-602.113	-56.555	0.179	0.080
-601.098	-19.803	-0.369	0.229
-600.084	-4.890	-0.163	-0.113
-599.069	150.468	-0.131	-0.179
-598.055	114.725	-0.199	-0.245
-597.040	-200.000	0.012	0.228
-596.025	18.946	-0.162	0.131
-595.011	131.612	-0.031	-0.040
-593.996	-5.869	-0.080	-0.055
-592.982	327.301	0.037	0.072
-591.967	-152.510	-0.036	0.003
-590.952	531.143	-0.017	0.041
-589.938	-200.000	-0.075	-0.373
-588.923	-26.519	-0.297	-0.175
-587.909	-200.000	-0.063	-0.325
-586.894	14.200	0.288	-0.225
-585.879	196.779	-0.157	0.242
-584.865	464.688	0.171	0.386
-583.850	-67.676	0.182	0.072
-582.836	356.641	0.160	-0.321
-581.821	33.238	0.101	-0.088
-580.806	-200.000	0.027	-0.249
-579.792	800.000	-0.036	0.115
-578.777	268.523	-0.062	0.109
-577.763	95.383	0.070	0.081
-576.748	-139.522	-0.157	0.017
-575.733	212.290	0.172	0.273
-574.719	-53.836	-0.055	0.025
-573.704	-113.690	-0.160	0.031
-572.690	-28.645	-0.234	-0.136
-571.675	151.657	0.023	0.032
-570.661	-165.478	-0.147	-0.006
-569.646	-200.000	0.092	-0.418
-568.631	46.287	0.093	-0.087
-567.617	-200.000	0.018	-0.125
-566.602	-106.992	0.152	-0.034
-565.588	86.288	-0.195	-0.216
-564.573	-94.324	0.209	0.057
-563.558	-200.000	-0.031	0.159
-562.544	615.185	0.006	-0.016
-561.529	-200.000	0.029	-0.200
-560.515	10.273	0.215	0.165
-559.500	-112.522	-0.305	-0.061
-558.485	-41.585	-0.205	0.106
-557.471	-47.911	0.224	0.109
-556.456	28.164	0.255	0.216
-555.442	-200.000	0.018	-0.287
-554.427	-24.758	-0.146	0.087
-553.412	-200.000	0.026	-0.290
-552.398	-94.472	-0.313	-0.086
-551.383	509.163	-0.083	0.194
-550.369	-152.309	-0.251	0.018
-549.354	34.015	-0.085	0.074
-548.339	-45.865	-0.205	0.102
-547.325	-52.450	-0.167	-0.077
-546.310	-0.487	0.089	-0.064
-545.296	-28.625	-0.044	-0.026
-544.281	-200.000	0.023	0.208
-543.266	-41.637	-0.224	-0.116
-542.252	112.567	-0.016	-0.020
-541.237	800.000	-0.056	-0.201
-540.223	-150.087	-0.191	0.015
-539.208	61.687	-0.239	0.239
-538.193	-27.604	0.161	-0.094
-537.179	19.832	-0.125	-0.101
-536.164	-42.571	-0.296	0.152
-535.150	-135.825	0.223	0.026
-534.135	67.988	0.186	-0.191
-533.121	-126.991	-0.044	0.006
-532.106	-136.352	-0.089	0.010
-531.091	-2.226	-0.270	0.190
-530.077	-64.183	-0.195	-0.080
-529.062	298.492	-0.095	-0.176
-528.048	-106.918	0.130	0.029
-527.033	-200.000	0.020	0.146
-526.018	-28.004	-0.090	0.052
-525.004	800.000	-0.028	-0.108
-523.989	312.526	0.039	0.074
-522.975	800.000	0.015	0.050
-521.960	45.075	-0.267	0.247
-520.945	207.889	0.110	0.172
-519.931	-57.365	-0.201	0.089
-518.916	194.083	0.094	0.143
-517.902	-88.347	0.269	0.081
-516.887	-1.099	-0.155	-0.110
-515.872	-54.395	-0.278	-0.127
-514.858	-200.000	0.020	-0.146
-513.843	-200.000	-0.038	-0.298
-512.829	-65.956	-0.329	0.132
-511.814	-200.000	0.022	-0.166
-510.799	325.857	0.146	-0.281
-509.785	-22.015	-0.196	-0.120
-508.770	123.378	0.091	-0.115
-507.756	-148.868	0.297	0.024
-506.741	558.615	-0.043	0.104
-505.726	-200.000	-0.004	-0.148
-504.712	693.922	-0.076	0.201
-503.697	-129.127	0.058	0.008
-502.683	-65.077	-0.062	-0.025
-501.668	-48.989	-0.034	0.016
-500.653	800.000	0.067	-0.223
-499.639	44.396	-0.187	-0.172
-498.624	-105.802	0.517	0.117
-497.610	255.618	-0.189	0.324
-496.595	134.453	-0.120	0.156
-495.581	-89.183	0.224	-0.066
-494.566	111.611	0.200	0.242
-493.551	-200.000	-0.004	0.288
-492.537	-34.612	-0.238	0.131
-491.522	800.000	0.052	-0.188
-490.508	-60.303	0.177	0.076
-489.493	116.584	-0.305	-0.375
-488.478	-200.000	-0.049	0.277
-487.464	-145.034	-0.259	0.024
-486.449	800.000	-0.028	0.115
-485.435	-61.374	-0.168	0.071
-484.420	800.000	-0.062	-0.186
-483.405	-80.344	0.269	-0.090
-482.391	705.995	0.056	-0.147
-481.376	-65.459	0.117	0.047
-480.362	-9.076	0.110	0.074
-479.347	100.198	0.110	-0.128
-478.332	33.723	-0.110	0.096
-477.318	-200.000	-0.019	0.302
-476.303	19.513	-0.099	0.080
-475.289	48.916	0.163	-0.154
-474.274	-200.000	0.028	0.125
-473.259	789.113	-0.017	0.046
-472.245	-142.053	0.033	-0.003
-471.230	-200.000	-0.103	0.585
-470.216	-133.063	0.056	0.007
-469.201	267.580	0.151	0.264
-468.186	538.550	-0.105	0.249
-467.172	800.000	0.036	-0.150
-466.157	-12.247	0.193	-0.127
-465.143	-200.000	-0.015	0.240
-464.128	-80.953	-0.305	-0.101
-463.113	67.140	0.260	0.265
-462.099	800.000	0.070	0.244
-461.084	4.185	0.070	0.052
-460.070	-8.387	0.102	-0.068
-459.055	-143.407	0.106	-0.010
-458.040	270.929	0.101	-0.178
-457.026	-200.000	-0.085	-0.494
-456.011	-28.230	0.186	0.107
-454.997	-200.000	-0.100	0.476
-453.982	-200.000	-0.007	0.160
-452.968	622.141	-0.031	0.078
-451.953	-42.431	0.237	-0.121
-450.938	118.873	-0.044	0.055
-449.924	18.896	0.122	0.098
-448.909	-120.604	-0.102	-0.017
-447.895	800.000	-0.071	-0.232
-446.880	800.000	0.041	-0.143
-445.865	-156.465	-0.433	-0.027
-444.851	404.363	-0.112	0.236
-443.836	-66.115	0.122	0.049
-442.822	20.932	-0.296	-0.240
-441.807	-24.387	-0.336	-0.200
-440.792	122.154	0.142	0.177
-439.778	204.673	0.149	-0.232
-438.763	-200.000	0.049	0.237
-437.749	92.222	-0.171	0.193
-436.734	92.722	0.165	0.186
-435.719	331.227	0.066	-0.128
-434.705	-29.779	0.082	0.047
-433.690	800.000	0.028	0.114
-432.676	-19.905	-0.110	0.068
-431.661	-122.914	-0.431	-0.069
-430.646	158.834	-0.165	0.230
-429.632	8.957	0.388	0.293
-428.617	-200.000	0.022	0.267
-427.603	-200.000	0.074	-0.424
-426.588	-24.156	0.112	0.067
-425.573	-200.000	0.028	-0.285
-424.559	-200.000	0.038	0.183
-423.544	800.000	0.031	0.103
-422.530	190.378	-0.124	0.186
-421.515	-118.642	0.198	0.035
-420.500	800.000	-0.120	-0.346
-419.486	167.633	-0.136	-0.193
-418.471	-70.986	-0.274	-0.103
-417.457	800.000	0.071	0.197
-416.442	157.196	0.068	0.094
-415.428	-141.431	-0.524	0.053
-414.413	-200.000	0.005	-0.060
-413.398	-33.922	0.108	0.059
-412.384	-86.430	-0.012	-0.004
-411.369	53.508	-0.099	-0.095
-410.355	84.079	-0.172	-0.188
-409.340	-200.000	-0.030	-0.167
-408.325	-160.564	0.268	-0.014
-407.311	-43.262	0.212	0.107
-406.296	384.232	-0.139	0.287
-405.282	321.381	-0.127	-0.241
-404.267	77.536	0.099	0.106
-403.252	-200.000	-0.093	0.492
-402.238	-110.074	-0.342	-0.071
-401.223	55.590	-0.126	-0.122
-400.209	68.896	-0.083	0.085
-399.194	36.940	-0.043	-0.038
-398.179	800.000	0.108	-0.394
-397.165	-1.885	0.268	-0.188
-396.150	19.129	0.308	0.247
-395.136	27.721	0.260	-0.219
-394.121	-55.975	0.118	-0.053
-393.106	-86.387	-0.272	0.084
-392.092	-49.285	0.193	-0.092
-391.077	19.288	0.051	-0.041
-390.063	-162.578	-0.285	-0.014
-389.048	-36.429	-0.166	0.089
-388.033	223.587	0.014	0.022
-387.019	157.289	0.139	-0.191
-386.004	-41.876	-0.295	0.151
-384.990	-35.705	0.231	0.125
-383.975	18.527	-0.164	-0.131
-382.960	54.916	0.159	-0.153
-381.946	800.000	0.028	-0.097
-380.931	21.572	0.139	0.113
-379.917	-102.147	-0.041	0.010
-378.902	-200.000	-0.011	-0.080
-377.888	-200.000	-0.146	-0.000
-376.873	6.884	-0.118	0.088
-375.858	253.747	-0.081	0.138
-374.844	-74.105	-0.157	0.057
-373.829	-200.000	0.011	0.207
-372.815	-155.881	-0.148	-0.009
-371.800	-200.000	0.018	-0.174
-370.785	237.674	0.062	0.103
-369.771	-136.390	0.217	0.025
-368.756	43.477	0.041	0.038
-367.742	-159.475	0.268	0.015
-366.727	-200.000	0.006	0.029
-365.712	-134.418	0.264	-0.032
-364.698	37.071	-0.099	0.087
-363.683	45.814	0.232	-0.214
-362.669	-120.465	0.192	0.033
-361.654	13.020	0.239	0.184
-360.639	-35.001	-0.182	-0.099
-359.625	103.776	0.136	0.159
-358.610	262.071	-0.014	-0.024
-357.596	-100.552	-0.257	-0.063
-356.581	800.000	-0.050	0.174
-355.566	-200.000	-0.007	0.103
-354.552	-200.000	-0.028	0.204
-353.537	-200.000	-0.006	0.223
-352.523	-41.587	-0.210	0.107
-351.508	477.212	0.179	-0.403
-350.493	-29.609	0.066	-0.037
-349.479	-64.121	0.273	-0.111
-348.464	-59.659	0.037	-0.016
-347.450	337.843	-0.179	-0.346
-346.435	-68.511	0.149	0.058
-345.420	9.494	0.148	0.112
-344.406	-47.633	-0.304	0.147
-343.391	464.078	0.112	0.248
-342.377	-200.000	0.001	0.177
-341.362	-14.491	0.092	0.059
-340.348	113.908	-0.122	0.148
-339.333	23.067	-0.187	0.153
-338.318	-7.461	-0.421	-0.284
-337.304	-200.000	0.001	-0.073
-336.289	-200.000	0.091	0.432
-335.275	-200.000	-0.031	-0.165
-334.260	800.000	0.027	0.102
-333.245	248.787	-0.113	-0.190
-332.231	-200.000	-0.039	0.281
-331.216	66.795	-0.069	0.070
-330.202	-90.527	-0.141	-0.041
-329.187	-115.478	-0.080	-0.015
-328.172	-24.134	0.120	0.071
-327.158	-200.000	0.007	-0.084
-326.143	28.394	0.270	0.227
-325.129	92.568	0.258	0.290
-324.114	-200.000	0.001	0.182
-323.099	-200.000	0.014	0.244
-322.085	56.815	0.260	-0.253
-321.070	193.995	-0.195	-0.294
-320.056	-149.782	-0.210	0.016
-319.041	-145.096	0.196	0.018
-318.026	800.000	-0.065	0.202
-317.012	236.293	0.083	-0.138
-315.997	-48.774	0.212	-0.101
-314.983	-92.328	-0.108	-0.030
-313.968	19.094	0.140	-0.112
-312.953	-111.323	0.113	-0.023
-311.939	211.489	0.188	-0.294
-310.924	-160.512	-0.235	-0.013
-309.910	-200.000	0.042	0.203
-308.895	-200.000	-0.000	0.023
-307.880	-9.977	0.053	-0.035
-306.866	-200.000	-0.034	-0.653
-305.851	209.604	0.154	0.240
-304.837	-51.909	-0.352	0.163
-303.822	-54.854	-0.190	-0.085
-302.807	-125.272	-0.180	0.027
-301.793	-87.285	0.346	0.104
-300.778	137.415	-0.048	-0.062
-299.764	330.844	0.191	0.366
-298.749	-200.000	0.054	0.273
-297.735	800.000	-0.061	0.260
-296.720	-200.000	-0.017	0.090
-295.705	-200.000	0.026	0.172
-294.691	-200.000	-0.030	-0.165
-293.676	512.303	0.049	0.114
-292.662	-81.436	0.253	-0.083
-291.647	-25.463	-0.164	-0.096
-290.632	-26.677	-0.302	-0.176
-289.618	-200.000	0.035	-0.219
-288.603	-200.000	0.008	-0.167
-287.589	-5.972	0.304	0.207
-286.574	-22.185	0.165	0.100
-285.559	800.000	-0.113	0.414
-284.545	800.000	0.032	-0.120
-283.530	516.908	-0.085	0.197
-282.516	269.269	0.018	0.031
-281.501	-178.196	0.281	-0.007
-280.486	165.587	-0.149	-0.209
-279.472	605.809	-0.094	0.234
-278.457	-200.000	0.003	0.055
-277.443	510.455	0.128	0.296
-276.428	-200.000	0.017	-0.468
-275.413	-200.000	-0.103	-0.000
-274.399	105.807	0.076	-0.090
-273.384	-91.099	-0.165	-0.047
-272.370	-9.280	0.272	0.181
-271.355	-123.964	0.430	-0.067
-270.340	-200.000	-0.013	-0.157
-269.326	98.059	0.165	0.189
-268.311	0.573	-0.145	0.103
-267.297	-150.125	-0.595	0.046
-266.282	738.238	0.058	-0.156
-265.267	-200.000	0.070	-0.355
-264.253	-136.284	0.130	-0.015
-263.238	30.035	-0.151	-0.128
-262.224	-6.858	0.070	-0.047
-261.209	667.461	-0.059	-0.150
-260.195	-44.760	0.192	-0.095
-259.180	-133.841	0.214	0.026
-258.165	-45.300	0.163	-0.080
-257.151	800.000	0.104	-0.371
-256.136	244.394	0.135	-0.226
-255.122	136.063	-0.123	0.159
-254.107	-200.000	-0.011	0.162
-253.092	21.449	-0.150	-0.121
-252.078	182.628	0.115	0.168
-251.063	95.750	-0.305	-0.345
-250.049	-71.032	-0.080	-0.030
-249.034	20.813	-0.210	0.169
-248.019	559.127	0.071	-0.171
-247.005	257.302	-0.094	0.161
-245.990	166.442	0.021	-0.029
-244.976	-200.000	0.391	-0.001
-243.961	800.000	0.019	0.060
-242.946	-80.282	-0.218	-0.072
-241.932	800.000	0.095	-0.304
-240.917	-132.092	-0.117	0.015
-239.903	-200.000	-0.028	0.272
-238.888	-25.918	-0.115	0.067
-237.873	-2.530	-0.126	-0.087
-236.859	712.874	-0.077	-0.202
-235.844	165.094	-0.088	0.123
-234.830	-24.058	0.175	0.104
-233.815	-200.000	-0.003	0.018
-232.800	-155.397	0.147	0.009
-231.786	-71.758	-0.195	-0.072
-230.771	505.046	0.067	-0.154
-229.757	-67.621	0.232	0.090
-228.742	743.455	0.102	-0.272
-227.727	378.710	-0.138	-0.280
-226.713	-46.363	0.317	-0.155
-225.698	-13.841	-0.148	-0.095
-224.684	14.388	0.112	0.087
-223.669	-200.000	0.219	0.001
-222.655	296.438	-0.108	-0.196
-221.640	398.056	-0.062	0.129
-220.625	118.296	-0.173	-0.212
-219.611	-137.959	0.274	0.030
-218.596	-20.886	0.284	-0.172
-217.582	187.811	-0.101	0.150
-216.567	-200.000	0.006	0.123
-215.552	-197.159	0.363	0.002
-214.538	700.870	0.019	0.048
-213.523	-18.068	0.264	-0.164
-212.509	-200.000	-0.007	-0.406
-211.494	-200.000	0.016	0.265
-210.479	124.312	0.224	0.279
-209.465	-61.096	-0.120	0.050
-208.450	-200.000	-0.035	0.165
-207.436	-200.000	-0.005	-0.114
-206.421	-74.166	0.223	-0.080
-205.406	72.313	0.043	0.044
-204.392	-28.871	-0.174	-0.099
-203.377	320.961	-0.141	-0.266
-202.363	-200.000	0.064	-0.307
-201.348	-179.515	0.311	0.007
-200.333	7.112	0.345	-0.255
-199.319	800.000	-0.065	0.260
-198.304	800.000	-0.051	-0.216
-197.290	800.000	0.059	0.194
-196.275	78.675	0.291	-0.309
-195.260	-140.391	0.278	0.029
-194.246	-10.201	-0.144	-0.095
-193.231	238.082	-0.050	0.083
-192.217	-51.423	-0.171	-0.079
-191.202	-130.237	-0.662	-0.089
-190.187	-27.594	-0.290	-0.167
-189.173	-200.000	0.018	0.242
-188.158	-15.453	0.365	0.231
-187.144	-37.644	-0.379	0.200
-186.129	389.132	0.104	0.214
-185.114	-7.386	-0.053	-0.036
-184.100	800.000	-0.122	0.356
-183.085	455.538	0.089	-0.196
-182.071	305.558	0.103	0.190
-181.056	-200.000	0.039	-0.176
-180.042	51.441	0.187	-0.176
-179.027	-122.731	-0.222	0.036
-178.012	-25.398	0.318	-0.186
-176.998	-200.000	-0.046	-0.220
-175.983	-113.917	-0.129	0.025
-174.969	19.115	0.264	0.210
-173.954	246.898	0.180	0.301
-172.939	106.586	-0.164	-0.192
-171.925	-193.584	0.163	-0.001
-170.910	28.736	0.077	-0.064
-169.896	-155.455	-0.022	-0.001
-168.881	-46.358	0.181	-0.088
-167.866	214.798	0.098	-0.154
-166.852	-109.874	0.145	-0.030
-165.837	0.987	0.255	0.181
-164.823	129.644	0.243	-0.307
-163.808	-123.440	-0.159	0.025
-162.793	28.379	0.321	-0.268
-161.779	-137.130	0.336	0.038
-160.764	-200.000	-0.009	0.157
-159.750	-16.837	-0.038	-0.024
-158.735	-37.715	0.047	0.025
-157.720	-85.273	-0.278	-0.086
-156.706	-104.210	0.171	-0.039
-155.691	-200.000	0.017	0.160
-154.677	-45.516	0.286	-0.140
-153.662	800.000	-0.077	0.292
-152.647	80.246	0.210	0.224
-151.633	-73.683	-0.158	0.057
-150.618	-87.376	-0.317	-0.095
-149.604	663.225	0.075	0.190
-148.589	43.692	0.051	0.046
-147.574	-175.070	-0.208	0.006
-146.560	-200.000	0.005	-0.558
-145.545	-200.000	0.027	-0.130
-144.531	423.821	-0.116	-0.246
-143.516	-36.438	0.067	-0.036
-142.502	285.205	-0.179	-0.319
-141.487	11.256	-0.089	-0.068
-140.472	75.099	-0.216	-0.225
-139.458	83.749	-0.074	-0.080
-138.443	-27.180	-0.205	-0.118
-137.429	-4.284	-0.226	-0.155
-136.414	392.535	0.198	0.407
-135.399	-37.370	-0.287	0.151
-134.385	-11.727	0.117	0.076
-133.370	9.347	-0.141	-0.105
-132.356	187.483	-0.157	-0.231
-131.341	-53.673	-0.253	0.114
-130.326	256.014	0.172	-0.292
-129.312	490.420	-0.080	-0.182
-128.297	181.734	0.149	0.217
-127.283	-29.903	-0.248	-0.139
-126.268	800.000	0.052	0.190
-125.253	-1.613	0.071	0.049
-124.239	-93.908	-0.218	-0.059
-123.224	-200.000	0.015	0.148
-122.210	-106.611	0.341	-0.075
-121.195	-96.391	0.223	-0.058
