DTS Sentinel unit serial number:	SN413079Multiplexer serial number:	ORYXHardware model number:	OX4-SRSoftware version number:	ORYX F/W v4.00 Oryx Data Collector v3.7.2.0data status	okinstallation	princeton_trtdifferential loss correction	single-endedforward channel	channel 2reverse channel	N/Adate	2019/09/11time	03:57:10forward acquisition time	60.00reverse acquisition time	0.00gamma	496.2192k internal	0.2329k external	0.2329temperature offset calibration	0.9937default loss term (dB/km)	0.3790temperature slope calibration	1.0000multiplexer offset coefficient	1.0000multiplexer slope coefficient	1.0000fibre end	0.00T internal ref (°C)	29.56T ext. ref 1 (°C)	-0.29T ext. ref 2 (°C)	23.67length (m)	temperature (°C)	Stokes	anti-Stokes-747.200	130.272	0.204	0.263
-746.185	800.000	0.076	0.220
-745.171	118.598	-0.137	0.170
-744.156	-7.060	-0.164	0.112
-743.142	-41.460	0.070	-0.036
-742.127	106.580	-0.242	-0.289
-741.112	450.437	0.073	0.162
-740.098	-200.000	-0.107	0.500
-739.083	336.459	-0.076	0.148
-738.069	-200.000	-0.012	-0.119
-737.054	369.880	0.115	-0.235
-736.039	-83.232	-0.491	0.159
-735.025	-142.861	0.197	0.019
-734.010	-200.000	0.058	-0.511
-732.996	800.000	0.057	0.227
-731.981	97.743	-0.121	0.140
-730.966	-200.000	0.022	0.252
-729.952	212.387	-0.023	0.036
-728.937	-99.745	-0.276	-0.070
-727.923	-50.080	0.102	-0.049
-726.908	-97.850	-0.200	0.052
-725.894	314.779	0.099	-0.188
-724.879	-200.000	0.022	-0.391
-723.864	-130.936	-0.349	-0.047
-722.850	48.412	0.303	0.286
-721.835	-57.542	-0.189	0.084
-720.821	89.882	-0.163	-0.183
-719.806	111.075	0.065	-0.079
-718.791	-200.000	0.012	0.074
-717.777	-26.533	0.160	0.094
-716.762	-57.071	0.366	0.163
-715.748	127.458	0.137	-0.174
-714.733	-200.000	-0.023	0.160
-713.718	-66.737	0.307	0.122
-712.704	800.000	-0.081	0.353
-711.689	273.117	-0.100	-0.177
-710.675	-82.346	-0.212	0.069
-709.660	-200.000	-0.054	0.275
-708.645	-63.950	0.102	-0.042
-707.631	-100.143	0.254	0.064
-706.616	76.531	-0.077	0.082
-705.602	-90.793	0.156	0.045
-704.587	-48.858	0.099	0.048
-703.572	92.458	0.126	-0.142
-702.558	244.908	0.122	0.207
-701.543	-200.000	0.015	0.091
-700.529	-110.216	0.267	0.056
-699.514	89.735	-0.031	-0.035
-698.499	-129.558	-0.322	-0.045
-697.485	367.535	-0.085	-0.172
-696.470	71.902	0.043	-0.045
-695.456	800.000	0.089	0.266
-694.441	372.406	-0.077	-0.158
-693.426	-200.000	0.039	-0.264
-692.412	800.000	0.060	0.223
-691.397	85.060	0.176	-0.194
-690.383	-75.070	-0.087	0.031
-689.368	-200.000	-0.015	-0.254
-688.354	-200.000	0.012	0.137
-687.339	-200.000	-0.005	-0.139
-686.324	-200.000	0.018	0.354
-685.310	-200.000	0.011	-0.169
-684.295	-22.779	0.105	-0.064
-683.281	-31.103	-0.168	0.095
-682.266	-59.242	-0.348	0.151
-681.251	-63.458	0.100	-0.041
-680.237	25.000	-0.314	-0.262
-679.222	85.215	0.113	0.125
-678.208	-200.000	-0.013	-0.066
-677.193	138.851	0.168	0.222
-676.178	154.284	0.116	-0.160
-675.164	-124.932	-0.255	0.040
-674.149	83.037	0.074	0.081
-673.135	-119.154	-0.183	0.032
-672.120	-200.000	0.038	-0.173
-671.105	-57.608	-0.167	0.073
-670.091	108.558	-0.089	-0.107
-669.076	-200.000	-0.089	-0.411
-668.062	44.556	0.279	-0.257
-667.047	497.517	0.162	-0.375
-666.032	-130.773	-0.155	-0.021
-665.018	800.000	0.046	0.131
-664.003	-200.000	0.091	0.463
-662.989	-22.071	-0.229	-0.140
-661.974	-77.256	0.352	0.123
-660.959	-89.954	-0.036	0.010
-659.945	-130.014	0.163	0.022
-658.930	426.733	-0.113	-0.244
-657.916	-115.497	-0.122	-0.023
-656.901	215.127	0.064	0.102
-655.886	-94.975	-0.275	-0.075
-654.872	-60.972	-0.312	-0.132
-653.857	-66.208	0.052	-0.021
-652.843	-82.026	0.180	0.059
-651.828	162.874	-0.048	-0.067
-650.814	-45.959	0.206	-0.102
-649.799	14.055	-0.128	0.100
-648.784	11.659	-0.134	-0.103
-647.770	305.609	0.126	0.235
-646.755	125.747	-0.077	0.098
-645.741	45.883	-0.294	0.273
-644.726	77.999	-0.099	-0.106
-643.711	618.058	0.019	-0.049
-642.697	134.248	0.193	0.251
-641.682	181.753	-0.248	0.366
-640.668	-94.650	0.110	-0.030
-639.653	-82.807	0.231	0.075
-638.638	142.901	0.026	0.035
-637.624	-28.085	-0.092	0.053
-636.609	-42.291	-0.122	-0.063
-635.595	87.319	-0.242	-0.268
-634.580	-56.661	0.450	0.200
-633.565	-12.719	0.197	-0.129
-632.551	-200.000	-0.008	0.284
-631.536	800.000	-0.083	-0.237
-630.522	359.508	0.097	-0.194
-629.507	-18.836	-0.330	-0.206
-628.492	-200.000	-0.003	-0.054
-627.478	-72.470	0.186	0.069
-626.463	-77.276	-0.178	-0.062
-625.449	207.912	-0.135	-0.212
-624.434	-59.677	-0.574	-0.247
-623.419	800.000	-0.107	0.459
-622.405	-56.184	-0.184	0.082
-621.390	-96.149	-0.377	-0.100
-620.376	38.935	0.113	-0.101
-619.361	81.663	0.059	0.063
-618.346	-43.474	0.075	-0.038
-617.332	-24.857	0.156	-0.093
-616.317	-36.020	0.085	0.046
-615.303	115.718	0.034	-0.041
-614.288	110.018	0.259	-0.312
-613.273	-54.885	0.233	-0.105
-612.259	-34.852	0.038	-0.021
-611.244	170.202	0.191	-0.274
-610.230	-117.635	-0.115	0.021
-609.215	800.000	-0.046	0.175
-608.201	432.332	-0.047	0.101
-607.186	117.803	0.094	-0.116
-606.171	-134.828	0.206	0.025
-605.157	123.022	0.237	0.297
-604.142	2.122	0.298	-0.216
-603.128	-58.997	0.267	-0.116
-602.113	94.991	0.102	-0.117
-601.098	-7.380	0.163	0.111
-600.084	-111.900	0.239	-0.048
-599.069	694.345	-0.063	-0.166
-598.055	-34.168	-0.341	-0.188
-597.040	416.057	0.098	-0.209
-596.025	-110.996	-0.423	0.087
-595.011	85.683	-0.183	-0.202
-593.996	-90.591	-0.062	-0.018
-592.982	19.432	0.239	0.192
-591.967	176.598	-0.041	0.059
-590.952	800.000	-0.033	0.102
-589.938	403.535	-0.093	0.196
-588.923	151.907	-0.128	-0.174
-587.909	-98.334	-0.130	0.033
-586.894	90.218	-0.069	-0.077
-585.879	168.548	-0.220	0.314
-584.865	11.595	0.175	-0.134
-583.850	-136.665	0.248	0.029
-582.836	239.580	0.163	-0.271
-581.821	-179.058	-0.050	-0.001
-580.806	52.942	0.096	-0.092
-579.792	-46.555	0.140	0.069
-578.777	-77.914	-0.143	0.049
-577.763	55.005	0.073	-0.070
-576.748	-147.539	0.107	-0.009
-575.733	-103.782	-0.064	-0.015
-574.719	-20.763	0.289	0.178
-573.704	-170.324	-0.222	-0.008
-572.690	-77.686	-0.366	-0.127
-571.675	202.649	0.098	-0.151
-570.661	103.495	-0.345	-0.406
-569.646	-133.755	0.068	0.009
-568.631	358.027	-0.147	0.293
-567.617	-123.342	0.093	-0.015
-566.602	332.168	-0.109	-0.211
-565.588	-54.096	0.286	-0.130
-564.573	-143.165	-0.132	-0.013
-563.558	685.077	-0.097	-0.252
-562.544	-200.000	0.034	-0.196
-561.529	55.511	0.343	-0.332
-560.515	-122.442	-0.131	0.021
-559.500	10.168	-0.126	0.096
-558.485	240.889	-0.129	-0.215
-557.471	-24.237	-0.097	0.058
-556.456	129.989	-0.027	-0.035
-555.442	-159.427	-0.222	-0.012
-554.427	22.835	-0.298	0.245
-553.412	-57.134	0.346	0.152
-552.398	352.037	0.009	0.018
-551.383	800.000	-0.105	0.384
-550.369	-200.000	-0.006	0.185
-549.354	-59.853	0.060	-0.026
-548.339	-33.440	-0.213	-0.118
-547.325	16.642	0.099	0.078
-546.310	203.660	0.183	-0.284
-545.296	19.556	0.129	0.104
-544.281	-200.000	-0.006	-0.071
-543.266	-91.848	-0.311	-0.088
-542.252	-200.000	-0.049	-0.349
-541.237	-200.000	0.055	-0.281
-540.223	-34.155	0.079	-0.043
-539.208	280.693	-0.026	-0.047
-538.193	151.568	0.115	-0.156
-537.179	-200.000	0.016	-0.197
-536.164	9.179	0.098	0.074
-535.150	-3.490	0.094	-0.065
-534.135	116.947	0.153	-0.187
-533.121	96.440	-0.067	0.076
-532.106	31.877	-0.146	0.126
-531.091	112.151	0.138	0.167
-530.077	-200.000	0.068	0.389
-529.062	800.000	-0.031	0.128
-528.048	169.985	0.062	0.088
-527.033	118.094	-0.084	-0.103
-526.018	-200.000	0.050	-0.350
-525.004	-157.481	-0.385	-0.023
-523.989	498.430	0.030	-0.069
-522.975	-200.000	0.014	-0.188
-521.960	68.141	-0.130	-0.133
-520.945	-200.000	-0.002	-0.335
-519.931	-158.642	0.209	-0.012
-518.916	54.122	0.110	-0.106
-517.902	195.021	0.052	-0.079
-516.887	289.808	0.062	0.112
-515.872	-135.165	0.080	-0.010
-514.858	104.882	-0.086	-0.101
-513.843	-48.607	0.419	-0.201
-512.829	-200.000	0.015	0.233
-511.814	123.896	0.151	-0.190
-510.799	128.939	-0.162	-0.206
-509.785	800.000	-0.086	0.242
-508.770	361.664	-0.059	-0.119
-507.756	6.518	0.245	-0.182
-506.741	146.101	-0.105	0.141
-505.726	-200.000	-0.005	-0.217
-504.712	-83.017	-0.181	0.058
-503.697	-113.652	-0.367	0.071
-502.683	-17.181	0.281	0.177
-501.668	-69.277	0.029	-0.011
-500.653	-113.076	-0.341	-0.067
-499.639	198.675	-0.056	0.086
-498.624	-47.860	0.217	0.105
-497.610	-94.447	0.123	-0.034
-496.595	-23.322	-0.191	0.114
-495.581	196.964	-0.149	-0.227
-494.566	-148.186	0.275	-0.023
-493.551	-200.000	-0.038	0.425
-492.537	423.184	-0.066	0.140
-491.522	800.000	-0.028	0.094
-490.508	27.292	-0.219	0.184
-489.493	-35.645	0.313	0.169
-488.478	-67.721	-0.168	-0.066
-487.464	-138.885	0.392	0.043
-486.449	311.749	0.087	-0.164
-485.435	-72.856	-0.106	-0.039
-484.420	-22.706	-0.183	-0.110
-483.405	387.343	0.065	-0.134
-482.391	-155.221	0.176	0.011
-481.376	-56.854	-0.402	0.177
-480.362	190.131	0.155	-0.232
-479.347	-92.424	0.300	-0.084
-478.332	26.974	0.152	-0.127
-477.318	350.312	-0.248	0.488
-476.303	-90.547	-0.458	-0.132
-475.289	-200.000	0.017	-0.173
-474.274	-200.000	-0.009	0.041
-473.259	-4.004	-0.120	-0.083
-472.245	-57.286	-0.160	0.070
-471.230	-38.560	0.165	0.087
-470.216	-35.653	-0.344	0.186
-469.201	-21.028	-0.282	0.172
-468.186	-200.000	-0.054	0.236
-467.172	708.994	0.047	0.124
-466.157	41.419	0.291	-0.263
-465.143	10.139	-0.227	-0.172
-464.128	73.897	0.220	-0.230
-463.113	-120.832	-0.124	-0.021
-462.099	-188.927	-0.401	-0.005
-461.084	-151.811	-0.053	-0.004
-460.070	114.959	0.060	-0.073
-459.055	0.933	-0.076	0.055
-458.040	-10.132	-0.235	0.155
-457.026	800.000	0.083	-0.308
-456.011	27.036	0.107	-0.089
-454.997	608.687	0.080	0.198
-453.982	-60.073	-0.309	0.131
-452.968	-200.000	0.032	0.195
-451.953	49.463	0.050	-0.047
-450.938	340.770	-0.112	-0.218
-449.924	271.450	0.134	0.235
-448.909	-56.722	0.104	0.046
-447.895	-83.875	0.168	-0.053
-446.880	234.214	0.224	-0.368
-445.865	800.000	-0.037	0.153
-444.851	96.773	0.123	0.140
-443.836	122.156	-0.119	-0.148
-442.822	265.178	-0.068	-0.118
-441.807	-50.165	0.180	-0.085
-440.792	215.862	-0.092	-0.145
-439.778	800.000	-0.050	0.192
-438.763	-61.616	-0.049	0.020
-437.749	-90.302	-0.185	0.054
-436.734	-200.000	-0.034	0.580
-435.719	-116.289	0.131	0.024
-434.705	-200.000	-0.024	-0.278
-433.690	365.146	-0.057	-0.114
-432.676	301.992	0.179	0.330
-431.661	-141.480	0.216	-0.022
-430.646	95.062	0.085	-0.097
-429.632	13.921	0.082	0.064
-428.617	-95.331	-0.542	0.145
-427.603	-147.331	-0.382	-0.032
-426.588	548.640	-0.057	-0.137
-425.573	-200.000	-0.006	-0.221
-424.559	10.248	-0.289	-0.218
-423.544	-135.966	-0.245	-0.029
-422.530	35.839	0.172	0.151
-421.515	-46.863	-0.100	0.049
-420.500	-85.786	-0.384	-0.118
-419.486	-0.784	-0.189	0.133
-418.471	291.573	-0.143	-0.258
-417.457	25.218	0.131	0.108
-416.442	-200.000	0.036	-0.158
-415.428	-200.000	-0.027	-0.126
-414.413	-200.000	0.088	-0.410
-413.398	-200.000	0.011	-0.063
-412.384	800.000	-0.070	0.209
-411.369	-200.000	0.014	0.100
-410.355	800.000	-0.101	-0.432
-409.340	800.000	0.115	-0.478
-408.325	375.200	-0.124	0.252
-407.311	-200.000	0.035	0.222
-406.296	-200.000	-0.022	-0.200
-405.282	-200.000	-0.006	0.206
-404.267	-159.702	-0.070	-0.004
-403.252	147.611	0.269	-0.360
-402.238	34.842	0.168	-0.146
-401.223	47.541	0.167	-0.155
-400.209	-200.000	0.002	-0.140
-399.194	31.685	-0.274	-0.234
-398.179	-200.000	0.029	-0.148
-397.165	-117.311	-0.389	0.070
-396.150	-91.600	0.433	-0.123
-395.136	211.996	-0.163	0.256
-394.121	-71.672	0.080	0.030
-393.106	-49.066	-0.210	0.100
-392.092	-122.830	0.061	0.010
-391.077	151.280	-0.143	0.194
-390.063	-47.674	0.253	0.122
-389.048	-48.643	-0.234	0.112
-388.033	-183.691	0.140	0.002
-387.019	-179.447	0.295	0.006
-386.004	800.000	0.065	0.229
-384.990	-179.403	0.181	-0.004
-383.975	499.497	0.184	0.421
-382.960	-128.637	-0.370	0.052
-381.946	-200.000	-0.002	-0.139
-380.931	-200.000	0.008	0.166
-379.917	-51.775	-0.333	-0.154
-378.902	-87.842	0.081	-0.024
-377.888	375.914	-0.076	0.154
-376.873	-156.850	0.087	-0.005
-375.858	52.900	-0.040	-0.038
-374.844	19.187	0.038	0.031
-373.829	432.337	-0.024	0.052
-372.815	-11.439	0.276	-0.180
-371.800	-44.846	0.243	0.120
-370.785	-200.000	0.016	-0.320
-369.771	-1.848	-0.291	0.203
-368.756	-63.805	0.302	0.123
-367.742	-6.928	-0.192	0.130
-366.727	169.507	-0.168	-0.238
-365.712	-108.025	0.233	-0.050
-364.698	-125.429	-0.217	-0.033
-363.683	294.293	-0.093	-0.169
-362.669	-60.208	0.410	-0.173
-361.654	-200.000	0.056	-0.266
-360.639	-200.000	-0.011	-0.176
-359.625	139.870	0.269	0.351
-358.610	-200.000	-0.033	0.208
-357.596	363.372	-0.141	-0.281
-356.581	-132.005	0.323	0.042
-355.566	58.508	0.257	0.250
-354.552	774.978	0.051	0.138
-353.537	1.543	0.223	0.159
-352.523	236.599	0.287	0.472
-351.508	-67.103	-0.086	-0.034
-350.493	-174.591	0.423	-0.012
-349.479	800.000	0.098	-0.268
-348.464	-68.411	0.251	-0.097
-347.450	69.911	0.106	-0.108
-346.435	-46.079	0.089	-0.044
-345.420	-200.000	0.025	-0.147
-344.406	-105.352	-0.061	0.014
-343.391	-54.369	-0.175	0.079
-342.377	65.955	0.172	-0.173
-341.362	227.952	-0.202	0.326
-340.348	-85.926	0.123	0.038
-339.333	109.583	-0.164	-0.195
-338.318	-76.284	0.123	-0.043
-337.304	-59.678	0.217	0.092
-336.289	-129.580	0.209	0.029
-335.275	-35.448	-0.076	-0.041
-334.260	-59.679	-0.208	0.088
-333.245	-77.134	-0.137	0.047
-332.231	-200.000	0.011	0.266
-331.216	201.777	0.076	0.116
-330.202	72.824	0.143	-0.148
-329.187	-200.000	0.040	0.235
-328.172	-111.043	-0.364	0.074
-327.158	800.000	-0.068	-0.218
-326.143	-200.000	0.060	-0.420
-325.129	-128.452	-0.102	0.014
-324.114	-200.000	-0.012	0.158
-323.099	-53.144	-0.189	0.086
-322.085	-200.000	0.024	0.339
-321.070	-76.072	0.179	0.063
-320.056	-59.277	-0.091	-0.039
-319.041	148.801	-0.186	0.250
-318.026	21.797	-0.239	-0.193
-317.012	-77.548	0.188	-0.065
-315.997	-200.000	0.085	0.436
-314.983	196.279	-0.088	-0.133
-313.968	-54.524	-0.293	-0.132
-312.953	-200.000	-0.025	0.181
-311.939	120.003	-0.104	0.128
-310.924	445.353	-0.110	0.240
-309.910	-200.000	-0.017	0.203
-308.895	800.000	-0.109	-0.427
-307.880	185.824	0.065	-0.096
-306.866	162.915	-0.122	0.170
-305.851	-26.920	-0.128	0.074
-304.837	-34.374	-0.246	0.133
-303.822	800.000	-0.118	0.363
-302.807	217.639	0.105	0.166
-301.793	52.479	0.331	0.313
-300.778	-200.000	0.043	-0.246
-299.764	180.753	-0.127	0.185
-298.749	-63.340	0.158	-0.064
-297.735	-109.255	0.195	-0.041
-296.720	-200.000	0.020	-0.379
-295.705	-85.614	-0.140	0.043
-294.691	-39.406	-0.271	0.141
-293.676	512.979	0.097	0.223
-292.662	-32.259	-0.078	-0.043
-291.647	-148.764	0.046	-0.004
-290.632	-200.000	-0.015	0.233
-289.618	-132.826	0.027	0.003
-288.603	-60.993	0.391	-0.163
-287.589	800.000	0.072	-0.257
-286.574	624.958	-0.124	-0.309
-285.559	11.788	-0.115	0.087
-284.545	350.698	0.097	-0.190
-283.530	800.000	0.073	0.240
-282.516	-140.127	-0.237	-0.025
-281.501	-200.000	0.007	-0.038
-280.486	656.484	-0.075	0.189
-279.472	-37.718	-0.232	0.122
-278.457	173.380	-0.077	-0.110
-277.443	800.000	0.009	0.034
-276.428	-54.144	0.256	-0.115
-275.413	-142.718	-0.245	0.024
-274.399	800.000	0.089	0.279
-273.384	-0.768	-0.058	0.041
-272.370	-200.000	-0.007	0.291
-271.355	-133.917	-0.264	0.032
-270.340	16.958	-0.063	0.050
-269.326	-133.423	-0.284	-0.035
-268.311	47.696	-0.175	0.162
-267.297	576.206	0.015	-0.035
-266.282	103.289	0.040	0.047
-265.267	-94.546	-0.176	0.048
-264.253	-34.365	0.229	0.124
-263.238	-63.278	-0.151	0.062
-262.224	800.000	0.049	0.173
-261.209	178.344	0.172	-0.248
-260.195	110.751	0.204	-0.243
-259.180	-200.000	0.013	0.181
-258.165	-200.000	0.015	0.152
-257.151	32.098	0.173	0.148
-256.136	214.646	-0.134	0.210
-255.122	-24.578	0.328	0.193
-254.107	7.287	0.095	-0.070
-253.092	-48.275	-0.145	-0.069
-252.078	800.000	0.097	0.291
-251.063	212.476	-0.037	-0.058
-250.049	50.247	0.068	0.063
-249.034	633.897	-0.119	-0.298
-248.019	220.348	0.109	0.173
-247.005	-54.506	-0.169	-0.076
-245.990	133.990	0.107	-0.137
-244.976	-61.829	0.249	0.103
-243.961	-200.000	-0.062	0.347
-242.946	-200.000	-0.001	-0.178
-241.932	-133.966	0.179	-0.022
-240.917	-68.243	0.230	-0.088
-239.903	-200.000	0.019	0.148
-238.888	93.442	0.269	0.300
-237.873	3.718	-0.247	-0.178
-236.859	-4.634	0.161	0.110
-235.844	31.296	0.070	-0.059
-234.830	605.188	0.135	0.332
-233.815	633.330	-0.052	0.131
-232.800	31.765	0.249	-0.212
-231.786	-161.540	0.079	0.004
-230.771	-31.218	0.306	0.170
-229.757	-200.000	0.024	0.390
-228.742	80.699	0.130	0.139
-227.727	-200.000	-0.041	-0.271
-226.713	-200.000	0.031	-0.158
-225.698	-43.709	0.134	-0.067
-224.684	173.031	0.102	0.146
-223.669	329.746	0.118	0.223
-222.655	-60.011	0.246	0.104
-221.640	496.046	-0.119	-0.271
-220.625	37.308	-0.081	-0.071
-219.611	315.787	0.098	0.182
-218.596	36.923	-0.164	-0.143
-217.582	-94.307	-0.153	-0.041
-216.567	153.456	0.228	-0.308
-215.552	-94.829	-0.060	-0.016
-214.538	-25.229	-0.105	-0.061
-213.523	-32.309	0.155	0.086
-212.509	800.000	-0.094	-0.263
-211.494	-127.173	0.215	-0.031
-210.479	-185.413	-0.357	0.005
-209.465	-91.103	0.236	0.067
-208.450	33.028	-0.042	-0.036
-207.436	245.424	-0.061	0.101
-206.421	690.294	0.092	0.237
-205.406	474.147	0.105	-0.233
-204.392	-35.305	0.223	0.120
-203.377	-93.482	0.118	0.032
-202.363	-200.000	-0.011	-0.304
-201.348	206.593	-0.045	-0.069
-200.333	-98.493	-0.281	-0.071
-199.319	-23.215	0.160	-0.095
-198.304	-200.000	-0.064	0.280
-197.290	18.095	0.418	0.329
-196.275	39.342	-0.193	0.171
-195.260	-200.000	-0.018	0.171
-194.246	-40.977	-0.148	-0.075
-193.231	20.851	-0.167	0.133
-192.217	-69.853	0.176	-0.066
-191.202	65.456	0.099	0.098
-190.187	-200.000	0.036	0.170
-189.173	800.000	-0.067	-0.286
-188.158	800.000	0.043	-0.172
-187.144	285.398	0.142	-0.252
-186.129	156.807	0.122	-0.166
-185.114	219.974	-0.211	0.333
-184.100	-123.179	-0.510	-0.080
-183.085	508.516	-0.066	0.152
-182.071	-98.558	0.120	-0.030
-181.056	34.637	0.177	-0.152
-180.042	-149.119	0.138	-0.011
-179.027	7.432	0.345	-0.254
-178.012	-74.175	-0.272	-0.097
-176.998	-161.681	-0.315	-0.016
-175.983	-114.365	-0.031	-0.006
-174.969	-16.006	0.021	-0.013
-173.954	-26.337	-0.250	-0.145
-172.939	-155.711	-0.188	-0.012
-171.925	324.749	0.110	-0.207
-170.910	-145.723	-0.312	0.027
-169.896	705.517	0.126	0.328
-168.881	731.517	-0.068	0.178
-167.866	4.015	0.271	0.195
-166.852	587.073	0.175	0.424
-165.837	-200.000	0.003	-0.207
-164.823	800.000	-0.076	0.255
-163.808	450.854	-0.070	-0.153
-162.793	80.204	-0.488	-0.517
-161.779	-122.160	0.419	0.068
-160.764	709.681	0.041	0.108
-159.750	800.000	-0.055	-0.203
-158.735	36.894	-0.125	-0.109
-157.720	451.686	-0.115	0.251
-156.706	-150.020	-0.054	0.004
-155.691	617.768	0.095	-0.234
-154.677	504.218	-0.044	0.100
-153.662	-3.573	0.183	-0.125
-152.647	411.522	0.079	0.166
-151.633	-23.576	0.144	-0.085
-150.618	141.385	0.056	-0.072
-149.604	-143.160	-0.141	0.013
-148.589	-109.806	-0.254	-0.052
-147.574	153.690	-0.049	-0.066
-146.560	-23.000	-0.066	0.039
-145.545	-145.699	0.146	0.013
-144.531	800.000	0.007	-0.029
-143.516	-3.154	0.213	-0.146
-142.502	-200.000	-0.070	0.324
-141.487	294.082	-0.087	0.156
-140.472	-19.240	-0.077	-0.047
-139.458	409.928	-0.118	0.245
-138.443	123.270	-0.186	0.229
-137.429	-32.352	-0.234	-0.128
-136.414	-101.762	0.144	-0.034
-135.399	-102.688	-0.366	-0.086
-134.385	18.335	0.258	0.202
-133.370	800.000	0.156	0.429
-132.356	325.122	0.110	-0.208
-131.341	-52.685	-0.175	-0.079
-130.326	800.000	0.019	0.063
-129.312	-90.551	0.245	-0.070
-128.297	91.244	0.314	0.347
-127.283	387.234	-0.047	0.096
-126.268	-200.000	0.011	-0.122
-125.253	-200.000	-0.018	0.119
-124.239	-200.000	-0.052	0.238
-123.224	165.911	-0.159	0.222
-122.210	-200.000	0.017	0.137
-121.195	212.040	0.066	-0.102
