DTS Sentinel unit serial number:	SN413079Multiplexer serial number:	ORYXHardware model number:	OX4-SRSoftware version number:	ORYX F/W v4.00 Oryx Data Collector v3.7.2.0data status	okinstallation	princeton_trtdifferential loss correction	single-endedforward channel	channel 2reverse channel	N/Adate	2019/09/19time	14:35:34forward acquisition time	60.00reverse acquisition time	0.00gamma	496.2192k internal	0.2323k external	0.2323temperature offset calibration	1.0021default loss term (dB/km)	0.3790temperature slope calibration	1.0000multiplexer offset coefficient	1.0000multiplexer slope coefficient	1.0000fibre end	0.00T internal ref (°C)	32.36T ext. ref 1 (°C)	1.08T ext. ref 2 (°C)	29.29length (m)	temperature (°C)	Stokes	anti-Stokes-747.200	-200.000	-0.040	0.263
-746.185	72.856	0.221	0.233
-745.171	-200.000	0.005	-0.202
-744.156	71.032	-0.157	0.164
-743.142	-117.786	0.216	-0.039
-742.127	-200.000	0.019	-0.107
-741.112	24.347	-0.113	0.094
-740.098	5.386	-0.138	0.103
-739.083	800.000	-0.074	0.315
-738.069	111.139	-0.173	0.210
-737.054	-15.975	-0.211	-0.136
-736.039	-81.380	-0.451	-0.150
-735.025	-62.266	0.302	-0.127
-734.010	-38.028	-0.217	-0.116
-732.996	64.026	0.107	0.109
-731.981	34.200	-0.337	0.297
-730.966	-118.230	-0.265	-0.048
-729.952	115.975	-0.153	0.189
-728.937	509.799	-0.083	-0.195
-727.923	225.065	0.154	-0.252
-726.908	-117.183	0.412	-0.076
-725.894	386.417	0.100	0.209
-724.879	800.000	-0.100	-0.308
-723.864	206.650	0.080	-0.126
-722.850	-200.000	0.034	-0.214
-721.835	0.034	-0.155	-0.111
-720.821	380.900	-0.118	-0.245
-719.806	73.468	-0.066	0.070
-718.791	-25.856	-0.106	-0.063
-717.777	-42.232	-0.083	-0.043
-716.762	217.084	0.067	0.108
-715.748	13.645	-0.245	-0.192
-714.733	-200.000	0.024	-0.231
-713.718	800.000	-0.064	-0.226
-712.704	403.309	-0.117	0.249
-711.689	58.719	0.162	-0.161
-710.675	208.618	0.194	0.306
-709.660	-96.292	-0.329	0.088
-708.645	245.757	0.123	0.209
-707.631	262.051	0.084	0.148
-706.616	-80.000	-0.129	-0.044
-705.602	287.324	-0.082	-0.149
-704.587	-200.000	0.039	-0.199
-703.572	-126.174	0.127	0.019
-702.558	77.552	0.166	0.178
-701.543	-11.180	0.090	-0.060
-700.529	792.968	0.057	0.158
-699.514	800.000	0.074	-0.210
-698.499	-24.108	0.193	0.116
-697.485	-57.775	-0.075	0.033
-696.470	-95.911	0.035	-0.010
-695.456	131.231	0.105	0.136
-694.441	26.002	0.230	0.193
-693.426	-200.000	-0.026	-0.156
-692.412	-110.481	0.546	-0.114
-691.397	-84.605	0.162	-0.052
-690.383	-32.556	-0.230	-0.129
-689.368	-200.000	0.006	0.186
-688.354	46.731	0.129	-0.121
-687.339	-200.000	0.066	-0.435
-686.324	-17.470	0.071	0.045
-685.310	-200.000	-0.032	0.441
-684.295	-141.521	-0.139	-0.014
-683.281	-200.000	-0.045	-0.546
-682.266	-112.851	0.186	0.037
-681.251	139.547	-0.256	-0.340
-680.237	-68.132	0.293	-0.115
-679.222	-114.867	-0.390	0.075
-678.208	713.388	-0.036	-0.097
-677.193	-70.084	-0.437	0.168
-676.178	501.986	0.127	0.296
-675.164	-138.025	0.314	0.035
-674.149	100.434	-0.074	0.087
-673.135	-46.523	0.103	0.051
-672.120	52.985	0.182	-0.175
-671.105	-45.031	0.084	-0.042
-670.091	46.533	0.083	-0.077
-669.076	404.794	0.116	-0.246
-668.062	-200.000	0.008	-0.195
-667.047	542.359	-0.123	0.296
-666.032	142.414	-0.220	0.294
-665.018	-200.000	-0.015	-0.211
-664.003	-140.416	-0.239	-0.025
-662.989	-15.459	0.221	-0.142
-661.974	77.218	-0.102	-0.109
-660.959	162.940	-0.096	-0.135
-659.945	800.000	0.061	0.235
-658.930	-31.664	-0.104	0.059
-657.916	-200.000	0.025	-0.114
-656.901	-200.000	0.024	-0.285
-655.886	767.910	-0.087	0.238
-654.872	-200.000	-0.017	-0.125
-653.857	-84.427	-0.041	-0.013
-652.843	67.949	-0.036	0.037
-651.828	-35.681	0.246	0.134
-650.814	747.704	0.043	-0.117
-649.799	289.757	-0.218	-0.398
-648.784	-132.760	-0.272	-0.035
-647.770	-29.355	-0.195	0.112
-646.755	800.000	0.053	0.195
-645.741	-106.796	-0.267	0.060
-644.726	-87.293	-0.258	-0.079
-643.711	-110.072	0.175	0.037
-642.697	-33.105	0.241	0.135
-641.682	146.380	-0.026	0.035
-640.668	-48.933	-0.278	-0.134
-639.653	70.140	0.055	-0.057
-638.638	580.608	0.012	-0.029
-637.624	-25.228	0.024	-0.015
-636.609	370.508	0.071	-0.146
-635.595	-41.471	-0.090	-0.047
-634.580	-19.547	-0.216	-0.134
-633.565	800.000	0.063	0.179
-632.551	-54.851	0.198	-0.090
-631.536	-38.475	-0.212	0.113
-630.522	-200.000	0.025	-0.293
-629.507	156.487	-0.122	-0.169
-628.492	-200.000	-0.015	0.115
-627.478	800.000	-0.022	-0.087
-626.463	-200.000	-0.043	-0.245
-625.449	-2.136	0.141	0.100
-624.434	-200.000	0.051	-0.342
-623.419	-111.475	0.233	-0.048
-622.405	764.999	0.100	-0.274
-621.390	-102.752	0.151	-0.036
-620.376	473.804	-0.118	-0.268
-619.361	-26.550	-0.145	-0.085
-618.346	451.994	-0.057	0.128
-617.332	393.459	0.132	-0.276
-616.317	-200.000	0.002	-0.126
-615.303	-200.000	0.017	0.248
-614.288	-200.000	-0.052	0.250
-613.273	687.004	-0.087	0.228
-612.259	800.000	-0.029	0.091
-611.244	-123.186	-0.314	-0.050
-610.230	-5.310	0.184	0.127
-609.215	800.000	-0.012	-0.049
-608.201	-200.000	-0.016	0.140
-607.186	-75.161	-0.276	0.099
-606.171	800.000	0.021	-0.067
-605.157	53.788	0.166	-0.161
-604.142	6.102	-0.085	0.063
-603.128	-87.300	0.047	-0.014
-602.113	-11.767	-0.257	0.170
-601.098	800.000	-0.122	-0.346
-600.084	2.875	0.014	0.010
-599.069	-147.073	-0.095	-0.008
-598.055	0.264	0.118	-0.085
-597.040	-123.219	-0.121	0.019
-596.025	-200.000	0.006	-0.047
-595.011	155.874	0.302	-0.418
-593.996	69.990	-0.169	-0.175
-592.982	271.285	-0.113	-0.200
-591.967	259.931	0.078	-0.136
-590.952	-200.000	0.068	0.335
-589.938	-73.620	-0.472	-0.173
-588.923	-1.714	-0.244	-0.173
-587.909	105.788	-0.146	-0.173
-586.894	-200.000	-0.020	0.212
-585.879	-16.566	-0.146	0.093
-584.865	78.286	-0.116	0.124
-583.850	-200.000	-0.028	0.271
-582.836	800.000	-0.045	0.135
-581.821	40.186	0.010	0.009
-580.806	-86.074	-0.172	0.053
-579.792	16.801	0.228	0.181
-578.777	363.366	-0.061	0.123
-577.763	-30.627	0.037	0.021
-576.748	800.000	0.095	0.342
-575.733	740.070	-0.131	0.352
-574.719	-56.884	0.099	0.044
-573.704	1.712	-0.225	0.163
-572.690	300.249	0.038	-0.070
-571.675	-200.000	0.002	0.049
-570.661	17.486	0.367	-0.292
-569.646	-90.941	-0.285	-0.082
-568.631	-148.092	-0.398	0.033
-567.617	-200.000	0.029	-0.250
-566.602	-183.222	-0.380	-0.007
-565.588	-200.000	-0.028	0.142
-564.573	198.323	-0.194	-0.297
-563.558	390.715	-0.165	-0.342
-562.544	-75.031	0.258	-0.093
-561.529	-7.629	0.089	-0.060
-560.515	-98.638	0.080	0.020
-559.500	24.259	0.023	0.019
-558.485	111.017	-0.085	0.103
-557.471	-109.048	-0.198	-0.042
-556.456	-200.000	-0.010	0.083
-555.442	-142.995	0.142	0.014
-554.427	304.017	-0.061	0.114
-553.412	-77.157	0.064	-0.022
-552.398	800.000	-0.044	-0.158
-551.383	-137.848	0.362	-0.041
-550.369	114.373	0.253	0.308
-549.354	-26.762	0.175	0.102
-548.339	-40.512	-0.134	0.070
-547.325	-104.059	-0.165	0.039
-546.310	-200.000	0.025	0.193
-545.296	-7.796	-0.264	-0.179
-544.281	70.552	-0.111	-0.115
-543.266	27.311	0.114	0.096
-542.252	116.032	-0.076	-0.093
-541.237	-97.848	-0.255	0.066
-540.223	-200.000	0.007	-0.180
-539.208	-36.385	0.263	0.142
-538.193	52.519	0.014	0.013
-537.179	800.000	0.069	-0.285
-536.164	800.000	0.084	-0.288
-535.150	72.272	0.075	-0.078
-534.135	800.000	-0.058	0.198
-533.121	-159.928	-0.115	0.006
-532.106	-129.565	-0.145	-0.020
-531.091	-200.000	0.052	-0.284
-530.077	603.257	-0.056	0.140
-529.062	33.876	0.024	-0.021
-528.048	-200.000	-0.020	-0.256
-527.033	-35.706	-0.055	0.030
-526.018	80.466	0.163	0.176
-525.004	-14.461	0.303	0.195
-523.989	322.943	-0.120	-0.228
-522.975	-31.997	-0.189	0.106
-521.960	800.000	-0.014	-0.053
-520.945	162.115	0.059	-0.082
-519.931	-200.000	-0.016	-0.235
-518.916	-200.000	0.007	-0.192
-517.902	-16.572	-0.098	-0.062
-516.887	172.067	-0.240	-0.346
-515.872	345.712	-0.058	-0.115
-514.858	-133.213	0.082	0.010
-513.843	-35.909	0.076	-0.041
-512.829	-28.161	0.148	0.086
-511.814	-92.515	0.184	0.052
-510.799	411.186	-0.087	-0.185
-509.785	179.720	-0.270	-0.396
-508.770	-146.957	-0.277	-0.024
-507.756	-98.315	-0.138	-0.035
-506.741	311.580	0.082	-0.154
-505.726	-166.690	0.223	-0.009
-504.712	-7.323	0.222	-0.151
-503.697	-200.000	-0.013	0.325
-502.683	514.101	0.055	0.127
-501.668	40.269	0.138	0.124
-500.653	-90.849	-0.301	0.087
-499.639	-21.834	-0.186	0.113
-498.624	10.073	0.271	-0.206
-497.610	105.034	0.121	0.143
-496.595	170.312	0.202	0.289
-495.581	-42.221	-0.298	-0.152
-494.566	113.068	-0.179	-0.218
-493.551	-2.244	-0.184	0.129
-492.537	-7.891	-0.340	0.230
-491.522	-49.214	-0.073	-0.035
-490.508	-114.068	0.211	-0.041
-489.493	246.682	0.158	0.266
-488.478	387.214	0.075	-0.154
-487.464	-96.396	0.202	0.053
-486.449	154.057	0.249	-0.342
-485.435	40.941	0.121	-0.109
-484.420	-119.540	-0.242	-0.042
-483.405	663.308	-0.132	-0.339
-482.391	-166.646	0.119	-0.005
-481.376	56.925	-0.130	-0.127
-480.362	-200.000	-0.024	-0.234
-479.347	800.000	-0.045	-0.184
-478.332	-144.089	0.336	-0.032
-477.318	6.672	0.028	-0.020
-476.303	292.199	0.134	0.244
-475.289	-35.955	0.173	-0.094
-474.274	106.926	0.123	0.146
-473.259	-200.000	-0.002	0.080
-472.245	201.575	0.074	-0.114
-471.230	391.402	-0.071	-0.148
-470.216	-174.804	0.023	-0.001
-469.201	-200.000	0.041	0.286
-468.186	-31.548	-0.135	-0.076
-467.172	-200.000	-0.007	0.298
-466.157	800.000	-0.099	0.309
-465.143	800.000	-0.034	0.094
-464.128	-200.000	-0.020	-0.164
-463.113	249.087	0.235	-0.398
-462.099	-58.005	0.231	-0.101
-461.084	-134.001	-0.374	0.046
-460.070	-141.632	0.202	0.020
-459.055	132.643	-0.045	-0.058
-458.040	-140.759	0.066	0.007
-457.026	-105.846	0.124	0.028
-456.011	139.744	-0.123	-0.162
-454.997	561.610	0.034	0.083
-453.982	-32.508	0.364	0.202
-452.968	-5.267	0.217	0.149
-451.953	61.633	-0.279	-0.277
-450.938	271.154	0.174	-0.306
-449.924	75.174	-0.121	-0.128
-448.909	304.952	0.059	-0.110
-447.895	-46.867	-0.225	0.110
-446.880	373.605	-0.121	-0.246
-445.865	528.335	0.022	0.051
-444.851	800.000	-0.063	0.233
-443.836	-118.642	0.251	-0.044
-442.822	-200.000	-0.071	0.355
-441.807	-108.552	-0.273	-0.059
-440.792	419.975	-0.148	0.316
-439.778	-116.038	0.133	-0.025
-438.763	-84.105	0.094	0.030
-437.749	84.616	0.153	0.167
-436.734	800.000	0.058	0.184
-435.719	186.581	-0.116	-0.172
-434.705	729.421	0.066	-0.176
-433.690	21.801	0.089	0.072
-432.676	-65.081	-0.261	-0.105
-431.661	-7.732	-0.169	0.114
-430.646	-200.000	0.026	0.241
-429.632	-81.329	-0.085	0.028
-428.617	-122.747	0.359	0.058
-427.603	129.842	-0.055	0.070
-426.588	-200.000	-0.004	-0.137
-425.573	-35.726	-0.201	0.109
-424.559	-159.475	-0.144	0.008
-423.544	-3.833	-0.159	-0.110
-422.530	-35.517	-0.060	-0.032
-421.515	223.865	0.024	0.039
-420.500	-200.000	-0.006	0.122
-419.486	-109.706	-0.095	-0.020
-418.471	-125.934	-0.117	-0.018
-417.457	761.975	-0.056	0.151
-416.442	-146.595	-0.246	0.021
-415.428	-200.000	0.019	-0.227
-414.413	-134.598	0.209	-0.025
-413.398	42.142	0.070	0.064
-412.384	-60.798	0.217	-0.091
-411.369	800.000	-0.007	0.024
-410.355	-200.000	0.029	0.140
-409.340	95.624	-0.119	-0.135
-408.325	528.327	-0.152	-0.357
-407.311	-79.138	-0.302	-0.102
-406.296	61.102	0.136	-0.135
-405.282	25.594	0.267	0.221
-404.267	-139.737	-0.096	0.010
-403.252	78.506	-0.216	0.230
-402.238	41.180	0.026	-0.024
-401.223	-200.000	-0.022	-0.344
-400.209	-88.224	-0.088	0.026
-399.194	152.925	0.142	0.194
-398.179	-200.000	-0.047	0.264
-397.165	800.000	-0.017	0.054
-396.150	-103.057	0.123	-0.029
-395.136	139.866	-0.093	-0.122
-394.121	-113.733	0.069	0.013
-393.106	800.000	-0.010	0.030
-392.092	-200.000	0.018	-0.165
-391.077	34.084	-0.011	-0.010
-390.063	48.038	-0.041	0.039
-389.048	170.586	-0.139	0.198
-388.033	-57.515	-0.259	0.113
-387.019	-89.878	-0.073	0.021
-386.004	37.571	-0.134	-0.118
-384.990	-49.740	-0.015	0.007
-383.975	124.664	-0.077	0.097
-382.960	75.562	0.151	0.158
-381.946	-200.000	0.009	0.213
-380.931	54.055	0.112	-0.107
-379.917	-87.111	0.174	-0.053
-378.902	-200.000	-0.020	0.269
-377.888	-29.953	0.105	-0.059
-376.873	-149.311	0.287	0.023
-375.858	-153.916	0.120	0.008
-374.844	-42.865	-0.257	-0.130
-373.829	-70.206	0.285	-0.108
-372.815	18.362	-0.155	0.124
-371.800	36.939	0.173	-0.152
-370.785	-59.615	0.061	-0.026
-369.771	-158.665	0.051	0.003
-368.756	212.637	0.032	0.049
-367.742	-49.174	0.404	-0.192
-366.727	-86.188	-0.122	-0.037
-365.712	-200.000	0.025	-0.178
-364.698	-200.000	-0.087	0.396
-363.683	12.119	-0.321	-0.246
-362.669	46.967	0.079	0.073
-361.654	-154.792	-0.165	-0.011
-360.639	-63.589	-0.111	0.045
-359.625	22.180	0.207	0.168
-358.610	-56.980	-0.127	-0.056
-357.596	-118.745	-0.239	0.042
-356.581	322.537	-0.116	-0.220
-355.566	-89.490	-0.170	-0.050
-354.552	-119.834	0.104	0.018
-353.537	-200.000	-0.004	0.310
-352.523	-200.000	0.005	-0.226
-351.508	-137.000	-0.231	-0.026
-350.493	27.170	0.085	0.071
-349.479	437.254	0.150	0.324
-348.464	800.000	-0.032	0.121
-347.450	-156.554	0.130	-0.008
-346.435	-64.711	0.174	0.070
-345.420	178.374	-0.105	0.152
-344.406	-29.231	0.101	0.058
-343.391	-200.000	-0.049	0.219
-342.377	-154.281	-0.244	-0.016
-341.362	58.108	0.117	-0.114
-340.348	-200.000	0.000	-0.077
-339.333	135.278	-0.182	-0.235
-338.318	-200.000	-0.010	0.240
-337.304	-98.155	-0.064	-0.016
-336.289	-200.000	0.006	-0.038
-335.275	205.692	0.098	0.151
-334.260	-110.936	0.350	-0.072
-333.245	-200.000	0.016	-0.310
-332.231	-200.000	-0.030	0.271
-331.216	594.403	0.057	0.140
-330.202	800.000	0.080	0.286
-329.187	565.373	0.042	0.101
-328.172	384.192	-0.037	0.076
-327.158	75.782	-0.177	0.186
-326.143	750.160	-0.062	0.165
-325.129	-97.142	-0.367	0.095
-324.114	86.723	0.160	-0.176
-323.099	-100.216	0.171	-0.042
-322.085	162.379	-0.043	-0.060
-321.070	-62.396	-0.154	-0.064
-320.056	154.984	-0.074	0.100
-319.041	800.000	-0.078	0.319
-318.026	800.000	-0.037	0.131
-317.012	146.987	0.175	-0.234
-315.997	132.986	-0.123	0.158
-314.983	-200.000	-0.027	0.175
-313.968	221.111	0.073	-0.116
-312.953	653.989	0.036	-0.091
-311.939	-97.638	0.130	-0.033
-310.924	368.732	-0.066	0.133
-309.910	-147.652	0.394	0.033
-308.895	93.151	0.125	-0.141
-307.880	46.888	-0.102	0.094
-306.866	168.572	-0.131	0.185
-305.851	153.368	0.019	0.026
-304.837	-52.885	-0.107	-0.049
-303.822	378.618	0.040	-0.081
-302.807	-130.106	-0.332	-0.045
-301.793	408.252	-0.059	-0.123
-300.778	-200.000	0.026	0.265
-299.764	59.667	-0.162	0.159
-298.749	-18.433	-0.076	-0.047
-297.735	22.877	0.142	-0.115
-296.720	460.409	0.030	0.066
-295.705	-86.571	-0.132	0.040
-294.691	313.821	-0.017	-0.031
-293.676	-48.142	-0.159	-0.076
-292.662	166.429	0.100	-0.140
-291.647	642.126	-0.153	-0.388
-290.632	-106.421	-0.185	-0.041
-289.618	-70.398	0.115	-0.043
-288.603	-200.000	-0.066	0.300
-287.589	-150.888	-0.096	-0.007
-286.574	-200.000	0.008	0.196
-285.559	82.854	-0.193	-0.208
-284.545	232.475	-0.030	0.049
-283.530	759.821	0.091	-0.244
-282.516	-64.241	-0.289	-0.117
-281.501	-200.000	0.060	0.275
-280.486	-138.899	-0.134	-0.014
-279.472	-59.129	0.237	-0.102
-278.457	-200.000	0.003	-0.060
-277.443	45.099	-0.263	0.240
-276.428	12.114	0.267	0.203
-275.413	200.557	-0.105	0.159
-274.399	195.871	-0.101	-0.153
-273.384	800.000	-0.074	0.206
-272.370	280.834	0.065	0.115
-271.355	800.000	-0.039	0.107
-270.340	800.000	-0.082	0.239
-269.326	-24.537	0.246	-0.145
-268.311	290.054	0.171	-0.308
-267.297	-153.140	-0.225	0.016
-266.282	-94.523	0.363	0.098
-265.267	116.260	-0.083	-0.101
-264.253	800.000	-0.045	-0.169
-263.238	-164.971	0.229	-0.010
-262.224	63.896	0.102	-0.102
-261.209	-102.982	0.197	-0.046
-260.195	800.000	0.036	-0.153
-259.180	-110.781	-0.161	0.033
-258.165	-50.962	0.306	0.142
-257.151	408.773	0.141	-0.297
-256.136	381.391	-0.038	0.076
-255.122	-175.779	0.327	0.009
-254.107	-113.304	0.334	0.065
-253.092	76.463	0.172	-0.181
-252.078	-12.900	-0.138	0.089
-251.063	519.745	-0.116	0.269
-250.049	-140.365	-0.042	-0.004
-249.034	800.000	0.107	-0.461
-248.019	278.210	-0.064	-0.113
-247.005	-200.000	-0.044	0.204
-245.990	32.792	-0.131	-0.112
-244.976	-86.619	-0.219	0.067
-243.961	-28.809	0.065	-0.037
-242.946	800.000	-0.033	-0.142
-241.932	-52.578	0.126	0.058
-240.917	447.866	-0.083	0.181
-239.903	-97.880	0.159	0.041
-238.888	54.187	0.159	0.152
-237.873	157.801	0.197	0.270
-236.859	85.615	-0.524	0.570
-235.844	-97.941	0.314	-0.080
-234.830	-200.000	0.001	-0.169
-233.815	-20.095	0.215	-0.131
-232.800	10.061	-0.163	0.122
-231.786	-200.000	0.050	0.224
-230.771	417.209	-0.029	-0.062
-229.757	-50.208	0.120	0.056
-228.742	171.725	0.098	-0.139
-227.727	-175.219	0.196	-0.005
-226.713	466.045	0.095	0.210
-225.698	-31.632	0.361	-0.200
-224.684	368.603	0.093	0.187
-223.669	-3.707	-0.244	-0.168
-222.655	-65.315	0.098	0.039
-221.640	506.845	0.031	-0.072
-220.625	-181.798	-0.199	-0.004
-219.611	357.611	0.141	0.278
-218.596	348.730	0.125	-0.243
-217.582	21.311	0.313	-0.251
-216.567	-200.000	0.014	0.114
-215.552	800.000	-0.103	-0.322
-214.538	40.738	0.284	0.253
-213.523	-57.320	-0.503	0.219
-212.509	142.208	0.082	0.108
-211.494	18.878	0.270	-0.214
-210.479	110.273	-0.112	-0.133
-209.465	-44.080	0.048	0.024
-208.450	-200.000	0.008	-0.107
-207.436	582.801	0.052	0.127
-206.421	37.567	0.243	-0.213
-205.406	145.153	0.228	-0.301
-204.392	337.113	-0.020	0.037
-203.377	48.335	-0.135	-0.125
-202.363	-200.000	-0.002	-0.146
-201.348	-200.000	0.000	0.309
-200.333	-200.000	-0.001	0.124
-199.319	-151.116	0.213	0.016
-198.304	-200.000	-0.023	-0.108
-197.290	469.508	0.026	0.057
-196.275	-173.472	-0.122	0.004
-195.260	-74.938	0.259	-0.092
-194.246	44.724	0.153	-0.140
-193.231	800.000	0.076	-0.284
-192.217	-86.989	-0.181	0.055
-191.202	-200.000	-0.026	0.155
-190.187	-200.000	-0.011	0.157
-189.173	800.000	-0.011	-0.043
-188.158	-81.239	-0.065	-0.021
-187.144	-77.610	0.070	-0.024
-186.129	-3.186	0.212	-0.146
-185.114	59.577	0.114	-0.111
-184.100	92.596	0.082	0.091
-183.085	-95.566	-0.419	0.111
-182.071	279.357	-0.023	0.040
-181.056	-108.387	0.229	-0.049
-180.042	-130.788	0.282	-0.037
-179.027	-62.022	-0.075	0.031
-178.012	-200.000	0.005	0.072
-176.998	-200.000	-0.040	0.207
-175.983	228.849	0.029	0.046
-174.969	340.183	-0.122	0.236
-173.954	454.635	0.046	0.101
-172.939	9.375	0.158	0.118
-171.925	-31.291	0.064	-0.036
-170.910	-147.656	0.294	-0.024
-169.896	-34.985	0.402	-0.217
-168.881	123.865	0.157	0.195
-167.866	168.517	0.016	0.023
-166.852	-112.631	0.283	0.056
-165.837	-40.436	0.215	-0.110
-164.823	-55.618	-0.058	-0.026
-163.808	-200.000	-0.020	-0.213
-162.793	800.000	0.025	-0.087
-161.779	366.429	0.135	0.270
-160.764	250.645	-0.033	-0.056
-159.750	16.287	-0.180	0.140
-158.735	-0.374	-0.175	-0.123
-157.720	57.070	-0.099	-0.095
-156.706	27.712	-0.207	0.172
-155.691	-200.000	0.028	0.387
-154.677	-79.791	-0.150	-0.050
-153.662	39.443	0.339	0.299
-152.647	306.865	-0.049	-0.091
-151.633	800.000	0.059	0.191
-150.618	-2.943	-0.220	0.151
-149.604	-20.919	0.242	-0.146
-148.589	80.402	0.227	-0.241
-147.574	-103.891	-0.273	-0.063
-146.560	800.000	0.037	-0.157
-145.545	109.941	0.091	0.108
-144.531	336.059	0.107	0.204
-143.516	-7.290	0.301	0.201
-142.502	-153.514	0.297	0.020
-141.487	-103.626	-0.186	-0.043
-140.472	-200.000	-0.066	-0.382
-139.458	537.386	0.054	0.127
-138.443	208.242	-0.199	-0.307
-137.429	-200.000	-0.001	-0.131
-136.414	129.941	-0.279	-0.352
-135.399	-200.000	-0.022	0.123
-134.385	-136.426	-0.068	-0.008
-133.370	-99.568	-0.261	-0.065
-132.356	-94.679	0.225	0.060
-131.341	-132.687	-0.156	0.020
-130.326	-200.000	0.000	0.093
-129.312	251.628	-0.074	-0.123
-128.297	8.902	-0.372	0.276
-127.283	-200.000	0.006	0.264
-126.268	250.421	-0.019	0.032
-125.253	-92.622	-0.237	0.066
-124.239	6.228	0.312	0.228
-123.224	-18.124	0.275	0.170
-122.210	3.426	-0.141	-0.101
-121.195	-104.942	-0.195	0.044
