DTS Sentinel unit serial number:	SN413079Multiplexer serial number:	ORYXHardware model number:	OX4-SRSoftware version number:	ORYX F/W v4.00 Oryx Data Collector v3.7.2.0data status	okinstallation	princeton_trtdifferential loss correction	single-endedforward channel	channel 2reverse channel	N/Adate	2019/09/14time	06:39:35forward acquisition time	60.00reverse acquisition time	0.00gamma	496.2192k internal	0.2338k external	0.2338temperature offset calibration	1.0129default loss term (dB/km)	0.3790temperature slope calibration	1.0000multiplexer offset coefficient	1.0000multiplexer slope coefficient	1.0000fibre end	0.00T internal ref (°C)	26.37T ext. ref 1 (°C)	3.39T ext. ref 2 (°C)	20.44length (m)	temperature (°C)	Stokes	anti-Stokes-747.200	121.219	0.205	-0.256
-746.185	0.307	0.084	0.060
-745.171	240.773	-0.143	0.239
-744.156	-54.419	0.275	0.125
-743.142	-96.606	0.070	-0.019
-742.127	800.000	0.077	0.302
-741.112	51.511	0.028	-0.027
-740.098	-200.000	-0.002	-0.073
-739.083	-200.000	0.083	-0.449
-738.069	-60.210	-0.348	-0.149
-737.054	-78.039	-0.175	0.061
-736.039	-70.486	-0.149	-0.056
-735.025	-200.000	-0.004	-0.186
-734.010	118.517	0.189	0.234
-732.996	-17.472	0.092	-0.058
-731.981	-72.771	-0.290	-0.107
-730.966	-86.914	-0.061	0.019
-729.952	343.080	-0.089	0.174
-728.937	36.033	-0.379	-0.335
-727.923	348.167	-0.115	-0.228
-726.908	86.004	-0.143	-0.158
-725.894	106.415	-0.098	0.117
-724.879	-79.214	-0.148	0.050
-723.864	68.787	0.338	-0.348
-722.850	437.996	0.133	-0.291
-721.835	-76.220	-0.099	0.035
-720.821	-0.224	-0.126	-0.090
-719.806	800.000	0.077	-0.248
-718.791	-145.491	0.322	0.029
-717.777	16.844	-0.232	-0.184
-716.762	43.591	-0.148	0.136
-715.748	-15.443	0.265	-0.170
-714.733	-87.368	-0.266	0.081
-713.718	-65.336	0.282	0.114
-712.704	-151.169	0.072	0.005
-711.689	197.623	0.202	-0.309
-710.675	14.418	-0.403	-0.315
-709.660	-143.354	0.516	-0.049
-708.645	-104.317	-0.166	-0.038
-707.631	-57.544	-0.208	-0.091
-706.616	-13.788	-0.138	-0.089
-705.602	-26.250	-0.211	-0.124
-704.587	731.500	-0.078	0.210
-703.572	-67.252	0.155	-0.061
-702.558	-200.000	0.017	0.139
-701.543	-200.000	0.018	0.143
-700.529	-200.000	-0.035	0.212
-699.514	-79.342	-0.203	-0.069
-698.499	-21.788	-0.352	-0.214
-697.485	-200.000	0.010	-0.113
-696.470	-143.253	0.044	-0.004
-695.456	-200.000	-0.044	-0.258
-694.441	-84.632	-0.192	0.060
-693.426	800.000	-0.105	-0.425
-692.412	800.000	0.068	-0.262
-691.397	-200.000	-0.004	0.068
-690.383	-200.000	0.074	-0.328
-689.368	-18.151	0.212	-0.133
-688.354	-111.522	0.180	-0.037
-687.339	-126.146	-0.343	-0.051
-686.324	-106.321	0.165	0.037
-685.310	27.412	0.085	0.072
-684.295	630.913	-0.089	-0.226
-683.281	-117.050	0.194	-0.035
-682.266	16.036	0.094	-0.075
-681.251	-83.264	-0.289	0.093
-680.237	789.072	-0.094	-0.257
-679.222	800.000	-0.083	0.261
-678.208	194.381	0.059	0.090
-677.193	-19.400	0.144	0.089
-676.178	-30.195	0.323	-0.184
-675.164	398.019	-0.071	0.148
-674.149	-92.153	0.090	0.025
-673.135	-89.793	0.238	-0.070
-672.120	32.196	-0.116	0.100
-671.105	260.093	-0.150	0.259
-670.091	35.006	0.200	0.175
-669.076	-200.000	-0.041	0.260
-668.062	-108.284	0.171	0.037
-667.047	-200.000	0.020	-0.373
-666.032	125.317	-0.109	-0.137
-665.018	245.943	-0.146	0.246
-664.003	-72.023	0.072	0.027
-662.989	-23.311	0.088	0.053
-661.974	230.689	0.291	-0.477
-660.959	-12.408	0.271	0.177
-659.945	-56.374	-0.257	-0.114
-658.930	-200.000	-0.005	0.172
-657.916	27.538	0.214	-0.180
-656.901	-62.103	-0.288	-0.120
-655.886	-16.177	0.380	-0.242
-654.872	-103.740	0.283	0.066
-653.857	-2.396	-0.169	0.118
-652.843	-200.000	0.023	0.280
-651.828	331.152	-0.180	0.348
-650.814	258.074	-0.077	-0.133
-649.799	-3.649	0.322	0.224
-648.784	-62.481	-0.259	-0.108
-647.770	1.142	0.235	-0.169
-646.755	768.410	0.067	-0.181
-645.741	-145.559	-0.322	0.029
-644.726	-128.965	-0.320	-0.045
-643.711	-117.655	0.189	0.034
-642.697	800.000	0.045	-0.163
-641.682	-200.000	-0.004	-0.211
-640.668	25.124	-0.080	0.066
-639.653	-80.261	-0.057	0.019
-638.638	-119.585	-0.287	-0.050
-637.624	235.884	-0.121	0.200
-636.609	-200.000	-0.461	0.001
-635.595	-122.222	-0.209	-0.034
-634.580	-118.040	-0.162	-0.029
-633.565	-67.785	-0.294	-0.115
-632.551	-195.683	-0.117	-0.001
-631.536	9.193	-0.155	-0.117
-630.522	-140.267	-0.063	0.007
-629.507	310.158	0.034	-0.064
-628.492	95.592	0.167	-0.191
-627.478	-200.000	-0.003	-0.058
-626.463	196.228	-0.106	-0.162
-625.449	-80.274	0.206	0.069
-624.434	-200.000	-0.008	-0.106
-623.419	-183.660	-0.134	-0.002
-622.405	-16.230	0.190	-0.120
-621.390	311.539	-0.103	0.193
-620.376	247.803	-0.286	-0.482
-619.361	-114.679	-0.088	0.017
-618.346	-84.806	-0.330	-0.104
-617.332	-20.618	-0.288	0.176
-616.317	233.549	0.070	0.114
-615.303	-85.276	0.172	0.054
-614.288	-200.000	0.034	-0.201
-613.273	-200.000	-0.017	0.089
-612.259	-197.017	-0.223	-0.001
-611.244	-200.000	0.004	0.153
-610.230	-170.030	-0.326	0.012
-609.215	-200.000	-0.022	0.158
-608.201	185.089	-0.053	0.078
-607.186	-74.780	-0.350	0.125
-606.171	62.526	-0.403	0.402
-605.157	39.626	-0.157	0.140
-604.142	-57.004	0.114	-0.050
-603.128	-181.882	-0.128	-0.002
-602.113	19.528	-0.182	-0.146
-601.098	-48.963	0.176	-0.084
-600.084	-200.000	0.023	0.101
-599.069	-55.227	0.495	-0.222
-598.055	-200.000	-0.026	0.217
-597.040	470.001	0.018	-0.041
-596.025	-78.107	-0.462	-0.159
-595.011	-102.442	0.258	0.062
-593.996	-158.707	0.268	0.015
-592.982	155.163	0.077	-0.106
-591.967	-155.378	0.048	-0.003
-590.952	-178.248	0.263	0.006
-589.938	-23.756	-0.161	-0.096
-588.923	74.498	-0.205	0.215
-587.909	-200.000	0.004	0.108
-586.894	-69.156	-0.128	-0.049
-585.879	-118.771	0.131	0.023
-584.865	29.010	-0.208	0.176
-583.850	-93.005	0.211	0.059
-582.836	-109.921	-0.196	0.041
-581.821	7.421	-0.169	-0.126
-580.806	67.916	-0.172	-0.175
-579.792	35.942	-0.071	0.063
-578.777	-114.562	-0.307	0.059
-577.763	-140.491	0.295	0.031
-576.748	-40.169	0.121	0.063
-575.733	-19.216	-0.442	0.273
-574.719	67.866	-0.106	-0.108
-573.704	200.039	0.130	-0.200
-572.690	-60.939	-0.426	0.180
-571.675	-184.306	-0.097	-0.002
-570.661	676.133	-0.090	0.232
-569.646	-29.001	-0.301	0.172
-568.631	13.436	-0.117	0.090
-567.617	-96.492	-0.253	-0.067
-566.602	134.415	0.399	-0.515
-565.588	56.647	-0.130	-0.126
-564.573	509.293	-0.017	-0.040
-563.558	383.548	0.096	-0.198
-562.544	778.359	0.108	-0.294
-561.529	-68.212	0.188	0.073
-560.515	94.421	-0.260	-0.294
-559.500	-133.926	0.194	-0.024
-558.485	792.004	-0.067	0.185
-557.471	128.368	-0.077	-0.098
-556.456	74.030	0.153	0.160
-555.442	123.903	0.121	0.152
-554.427	-200.000	-0.051	-0.477
-553.412	-200.000	0.031	0.184
-552.398	154.224	0.159	0.218
-551.383	269.386	-0.134	0.234
-550.369	-200.000	-0.029	0.319
-549.354	-59.187	0.281	-0.121
-548.339	-91.040	-0.261	-0.075
-547.325	775.420	-0.027	-0.072
-546.310	130.661	-0.198	0.253
-545.296	239.647	-0.161	0.267
-544.281	-200.000	-0.008	-0.099
-543.266	167.940	-0.110	-0.156
-542.252	-55.078	0.265	-0.119
-541.237	800.000	-0.067	-0.284
-540.223	181.543	-0.117	0.171
-539.208	-141.988	0.310	0.031
-538.193	429.506	-0.040	0.086
-537.179	-130.369	-0.178	0.024
-536.164	-58.077	-0.034	0.015
-535.150	141.256	0.192	-0.252
-534.135	-60.257	-0.081	0.034
-533.121	-153.858	0.238	0.016
-532.106	800.000	0.071	0.268
-531.091	396.162	-0.124	0.257
-530.077	-66.863	-0.184	0.072
-529.062	-65.210	-0.186	0.075
-528.048	-97.317	0.450	-0.117
-527.033	72.586	0.190	-0.197
-526.018	-61.679	-0.049	-0.021
-525.004	-111.958	-0.296	-0.059
-523.989	-12.710	0.126	0.082
-522.975	123.042	-0.143	-0.179
-521.960	276.033	0.197	0.348
-520.945	-180.395	-0.106	-0.002
-519.931	-55.280	0.105	-0.047
-518.916	-1.143	0.254	-0.178
-517.902	-35.788	0.190	0.102
-516.887	-98.900	-0.152	0.038
-515.872	-200.000	-0.015	0.158
-514.858	-37.392	-0.177	-0.094
-513.843	535.162	0.078	-0.185
-512.829	800.000	-0.079	0.246
-511.814	606.966	-0.017	0.041
-510.799	-76.623	0.201	-0.070
-509.785	800.000	0.100	0.293
-508.770	530.038	0.152	-0.357
-507.756	-56.260	0.095	-0.042
-506.741	-200.000	0.004	-0.059
-505.726	-14.831	0.397	-0.253
-504.712	-48.480	0.309	-0.148
-503.697	447.025	0.074	-0.162
-502.683	-90.248	-0.250	0.072
-501.668	-119.159	0.328	0.057
-500.653	-34.109	-0.254	-0.138
-499.639	-41.442	-0.035	0.018
-498.624	-78.728	0.293	-0.099
-497.610	-109.536	0.243	0.051
-496.595	91.500	-0.126	0.140
-495.581	-57.634	0.362	-0.158
-494.566	96.677	0.161	-0.183
-493.551	-118.464	0.117	-0.021
-492.537	271.273	-0.110	-0.193
-491.522	221.445	-0.216	-0.345
-490.508	0.262	0.415	0.294
-489.493	-129.208	-0.233	0.032
-488.478	-51.916	0.298	0.138
-487.464	-30.605	0.166	0.093
-486.449	99.912	0.176	-0.203
-485.435	-69.021	-0.212	-0.081
-484.420	54.637	-0.125	-0.120
-483.405	321.095	-0.060	-0.113
-482.391	-148.550	0.421	0.034
-481.376	129.360	0.142	-0.180
-480.362	441.804	-0.083	0.181
-479.347	16.212	0.220	0.172
-478.332	-87.693	-0.246	-0.074
-477.318	29.535	-0.013	0.011
-476.303	-75.155	0.224	-0.080
-475.289	259.806	0.086	-0.148
-474.274	800.000	0.027	-0.096
-473.259	329.962	-0.136	-0.260
-472.245	0.138	-0.288	0.204
-471.230	420.353	-0.047	-0.099
-470.216	-170.357	-0.293	-0.010
-469.201	-43.530	-0.223	-0.112
-468.186	-200.000	0.042	0.190
-467.172	112.596	-0.027	0.033
-466.157	-139.585	-0.255	0.027
-465.143	-200.000	0.048	-0.331
-464.128	-139.454	0.146	-0.016
-463.113	368.576	0.027	0.055
-462.099	120.320	-0.056	0.068
-461.084	692.516	0.082	-0.214
-460.070	234.118	-0.138	-0.226
-459.055	6.114	0.375	-0.276
-458.040	-89.020	-0.150	0.044
-457.026	-106.024	-0.150	0.033
-456.011	-5.355	-0.226	-0.154
-454.997	399.560	0.060	-0.126
-453.982	-90.213	-0.263	0.076
-452.968	99.269	0.054	0.062
-451.953	800.000	0.071	0.214
-450.938	445.704	-0.162	0.354
-449.924	800.000	-0.110	0.311
-448.909	-200.000	-0.001	-0.271
-447.895	-41.252	-0.230	0.117
-446.880	-70.428	0.325	-0.122
-445.865	14.507	0.054	-0.042
-444.851	248.382	-0.036	-0.061
-443.836	199.526	-0.040	0.061
-442.822	-110.203	0.406	-0.084
-441.807	800.000	0.044	0.142
-440.792	379.819	0.061	-0.124
-439.778	732.720	-0.027	0.073
-438.763	-18.303	0.338	-0.210
-437.749	157.858	-0.067	-0.092
-436.734	-200.000	0.046	-0.329
-435.719	-15.948	-0.062	-0.039
-434.705	-0.530	0.171	0.120
-433.690	-63.805	0.236	0.096
-432.676	51.605	-0.134	-0.127
-431.661	-200.000	-0.013	0.308
-430.646	773.407	0.121	0.328
-429.632	227.408	0.115	-0.185
-428.617	-130.664	0.076	0.010
-427.603	-115.740	0.221	0.041
-426.588	247.004	0.219	-0.366
-425.573	-200.000	-0.005	-0.355
-424.559	800.000	0.063	0.217
-423.544	-200.000	0.045	0.275
-422.530	641.786	-0.046	-0.117
-421.515	-33.022	0.137	-0.075
-420.500	0.250	-0.269	-0.190
-419.486	-130.836	-0.241	0.032
-418.471	-200.000	0.013	-0.175
-417.457	603.373	-0.020	-0.050
-416.442	-140.492	-0.447	-0.046
-415.428	-60.942	-0.175	0.073
-414.413	221.461	-0.143	0.227
-413.398	322.010	-0.233	0.439
-412.384	-45.449	0.227	0.111
-411.369	-200.000	-0.025	-0.133
-410.355	233.641	-0.075	0.123
-409.340	-14.450	0.096	0.061
-408.325	-200.000	-0.004	0.037
-407.311	29.008	-0.161	-0.135
-406.296	-60.705	0.374	0.157
-405.282	27.920	-0.116	-0.097
-404.267	71.278	-0.086	-0.088
-403.252	32.556	-0.154	-0.132
-402.238	-80.365	-0.166	0.055
-401.223	41.997	0.212	-0.191
-400.209	-117.044	0.260	0.047
-399.194	-131.198	-0.377	0.050
-398.179	-73.057	-0.115	-0.042
-397.165	800.000	0.035	0.146
-396.150	324.494	0.096	-0.181
-395.136	-96.601	-0.356	-0.093
-394.121	675.743	-0.111	0.285
-393.106	-114.970	0.204	0.038
-392.092	-60.158	0.105	-0.044
-391.077	-200.000	-0.001	-0.067
-390.063	-170.356	-0.408	0.014
-389.048	71.088	0.225	0.230
-388.033	188.696	-0.138	-0.205
-387.019	199.030	-0.053	0.081
-386.004	-200.000	-0.008	-0.075
-384.990	189.735	0.105	0.156
-383.975	-102.122	-0.292	-0.069
-382.960	11.197	0.154	-0.116
-381.946	800.000	-0.044	-0.150
-380.931	-145.592	0.206	0.018
-379.917	-120.890	0.138	-0.023
-378.902	-38.170	-0.109	-0.057
-377.888	11.390	-0.113	-0.086
-376.873	1.758	-0.174	0.124
-375.858	-200.000	-0.004	0.180
-374.844	197.651	-0.132	-0.199
-373.829	-85.500	0.120	-0.037
-372.815	61.126	-0.137	-0.134
-371.800	91.712	0.095	0.105
-370.785	-102.263	0.131	0.031
-369.771	128.853	0.047	-0.060
-368.756	-45.173	0.163	-0.080
-367.742	-200.000	0.004	-0.058
-366.727	-22.928	-0.254	-0.151
-365.712	37.675	0.134	0.118
-364.698	-37.045	0.106	-0.056
-363.683	-200.000	-0.005	-0.491
-362.669	29.285	-0.240	0.202
-361.654	-24.076	0.182	-0.108
-360.639	31.240	-0.088	-0.074
-359.625	242.715	0.178	-0.295
-358.610	-22.731	-0.010	0.006
-357.596	800.000	0.017	0.064
-356.581	-78.085	0.026	-0.009
-355.566	-200.000	-0.057	0.324
-354.552	2.737	-0.116	-0.083
-353.537	-125.677	-0.368	-0.055
-352.523	-200.000	0.028	-0.200
-351.508	-77.381	0.244	0.084
-350.493	36.515	0.263	0.229
-349.479	-51.550	-0.085	0.039
-348.464	-7.257	0.238	-0.160
-347.450	-94.472	-0.113	-0.030
-346.435	-8.068	-0.060	0.040
-345.420	-20.562	-0.376	0.228
-344.406	-83.235	0.248	-0.079
-343.391	-165.791	0.086	0.004
-342.377	-55.398	0.295	-0.131
-341.362	-73.483	0.066	-0.024
-340.348	-26.557	0.215	0.124
-339.333	-184.860	0.280	0.004
-338.318	-200.000	0.036	0.316
-337.304	13.618	-0.100	0.077
-336.289	-67.379	0.177	0.069
-335.275	75.518	-0.294	0.306
-334.260	42.872	-0.207	-0.186
-333.245	-14.137	0.143	-0.091
-332.231	-23.255	-0.287	-0.170
-331.216	-146.859	0.091	-0.008
-330.202	70.794	0.215	0.219
-329.187	-200.000	0.009	-0.098
-328.172	-33.986	0.231	0.125
-327.158	272.940	0.095	-0.166
-326.143	170.936	0.115	0.162
-325.129	-167.640	-0.141	-0.006
-324.114	116.459	-0.083	-0.100
-323.099	-200.000	-0.032	-0.247
-322.085	9.844	0.223	0.167
-321.070	292.836	0.106	-0.191
-320.056	59.227	0.272	0.264
-319.041	-112.714	-0.382	0.075
-318.026	76.392	0.295	-0.308
-317.012	-60.188	0.147	0.062
-315.997	752.137	-0.080	0.213
-314.983	94.980	0.032	-0.036
-313.968	67.639	-0.111	0.112
-312.953	-135.539	0.022	-0.003
-311.939	742.317	0.021	0.054
-310.924	-49.032	0.331	-0.157
-309.910	-78.544	0.067	-0.023
-308.895	50.154	0.051	-0.048
-307.880	317.495	0.014	-0.025
-306.866	165.450	-0.126	0.176
-305.851	63.258	0.217	-0.214
-304.837	-44.004	0.324	-0.161
-303.822	800.000	0.056	-0.214
-302.807	-143.792	0.071	-0.007
-301.793	-102.993	0.282	0.066
-300.778	-5.853	0.301	0.203
-299.764	-76.033	0.050	0.017
-298.749	-200.000	-0.025	-0.140
-297.735	-200.000	0.029	-0.409
-296.720	-74.981	-0.086	-0.030
-295.705	800.000	-0.189	-0.547
-294.691	-68.143	-0.089	-0.034
-293.676	7.491	0.178	0.131
-292.662	64.646	0.064	0.064
-291.647	-6.361	-0.113	0.076
-290.632	118.713	-0.186	-0.227
-289.618	-110.300	0.232	0.047
-288.603	-25.078	0.208	0.121
-287.589	204.368	0.064	-0.098
-286.574	-31.235	-0.403	-0.224
-285.559	-200.000	0.009	-0.184
-284.545	-165.924	-0.100	-0.004
-283.530	394.111	-0.007	0.014
-282.516	90.907	-0.083	-0.092
-281.501	-90.875	0.516	-0.146
-280.486	-89.705	0.111	-0.032
-279.472	74.367	0.265	0.274
-278.457	99.965	0.067	-0.077
-277.443	-200.000	0.024	-0.175
-276.428	-200.000	0.000	0.110
-275.413	-45.868	0.281	-0.137
-274.399	-200.000	-0.006	-0.113
-273.384	-172.741	-0.507	0.016
-272.370	800.000	-0.051	0.166
-271.355	374.685	0.139	-0.278
-270.340	685.144	0.178	-0.459
-269.326	-77.489	-0.094	-0.032
-268.311	-200.000	-0.040	0.229
-267.297	-200.000	-0.048	0.208
-266.282	-200.000	-0.006	-0.124
-265.267	800.000	0.108	0.346
-264.253	-200.000	0.019	-0.174
-263.238	26.303	-0.166	-0.137
-262.224	170.320	0.042	0.059
-261.209	-109.266	-0.134	0.028
-260.195	-200.000	0.009	0.151
-259.180	-200.000	0.001	0.024
-258.165	-200.000	-0.042	0.224
-257.151	-200.000	-0.006	0.030
-256.136	-21.581	0.243	-0.146
-255.122	800.000	-0.049	0.190
-254.107	-200.000	-0.030	0.342
-253.092	479.547	0.111	-0.248
-252.078	-158.902	-0.229	0.013
-251.063	222.487	-0.093	-0.148
-250.049	-200.000	0.015	0.307
-249.034	800.000	-0.088	0.282
-248.019	168.690	-0.295	0.413
-247.005	-54.635	0.220	0.098
-245.990	773.060	0.122	-0.326
-244.976	-200.000	-0.041	-0.461
-243.961	241.125	0.178	0.292
-242.946	-56.333	0.185	0.081
-241.932	-200.000	0.002	0.339
-240.917	-200.000	0.049	0.334
-239.903	562.965	-0.098	0.234
-238.888	239.282	0.150	0.245
-237.873	-147.178	-0.156	-0.013
-236.859	236.322	0.206	0.335
-235.844	-171.664	-0.222	0.007
-234.830	-163.038	0.274	-0.013
-233.815	-134.685	-0.238	-0.029
-232.800	-200.000	-0.004	-0.413
-231.786	-200.000	-0.013	-0.112
-230.771	613.108	0.046	-0.114
-229.757	552.561	-0.101	-0.238
-228.742	800.000	0.088	0.304
-227.727	141.940	-0.116	-0.151
-226.713	-33.497	0.233	0.127
-225.698	-5.109	0.004	-0.003
-224.684	471.348	-0.101	0.224
-223.669	800.000	-0.135	0.374
-222.655	-200.000	-0.024	0.255
-221.640	800.000	0.041	-0.128
-220.625	77.713	-0.159	-0.166
-219.611	-27.489	0.289	0.165
-218.596	94.899	0.094	-0.105
-217.582	-141.806	-0.493	0.049
-216.567	800.000	0.048	0.200
-215.552	-103.909	-0.273	0.063
-214.538	-200.000	0.034	-0.304
-213.523	-122.007	-0.350	0.057
-212.509	-200.000	-0.012	0.192
-211.494	800.000	-0.040	0.154
-210.479	-102.225	-0.217	0.051
-209.465	-47.875	-0.200	0.095
-208.450	33.591	-0.127	0.108
-207.436	-77.200	-0.246	-0.084
-206.421	609.021	-0.117	-0.287
-205.406	-101.142	-0.071	0.017
-204.392	-98.648	0.175	0.044
-203.377	557.313	0.104	-0.247
-202.363	-200.000	0.008	0.150
-201.348	-200.000	0.086	0.468
-200.333	-149.097	0.434	-0.034
-199.319	-200.000	0.057	0.294
-198.304	-88.511	-0.141	-0.041
-197.290	-88.027	0.114	-0.034
-196.275	800.000	0.059	0.212
-195.260	80.841	0.099	0.105
-194.246	-200.000	-0.001	0.062
-193.231	102.733	0.224	0.258
-192.217	182.260	-0.049	-0.071
-191.202	-15.865	0.252	0.158
-190.187	-43.520	-0.083	0.041
-189.173	148.156	-0.108	-0.143
-188.158	-11.109	0.278	0.180
-187.144	65.085	-0.152	-0.151
-186.129	800.000	0.063	0.218
-185.114	298.267	-0.133	0.240
-184.100	31.846	0.172	0.145
-183.085	-200.000	-0.045	-0.300
-182.071	449.602	0.043	0.092
-181.056	115.726	0.279	0.335
-180.042	-200.000	-0.132	0.000
-179.027	223.824	0.076	-0.120
-178.012	800.000	0.150	-0.545
-176.998	-194.198	0.229	-0.002
-175.983	44.899	0.106	0.096
-174.969	-3.512	-0.441	-0.301
-173.954	195.124	0.044	0.065
-172.939	-105.665	0.374	0.083
-171.925	800.000	0.095	0.283
-170.910	-87.664	-0.341	-0.101
-169.896	44.254	-0.096	-0.087
-168.881	4.066	0.265	0.191
-167.866	-133.392	-0.077	-0.009
-166.852	-200.000	0.005	0.080
-165.837	199.315	-0.044	-0.066
-164.823	-115.214	0.364	0.068
-163.808	-86.288	0.090	-0.027
-162.793	-179.010	-0.199	0.004
-161.779	-161.024	0.157	0.008
-160.764	228.519	0.176	-0.281
-159.750	800.000	0.092	0.301
-158.735	-89.602	-0.428	0.123
-157.720	-3.003	0.100	-0.069
-156.706	-200.000	0.020	0.302
-155.691	778.278	0.106	0.283
-154.677	-118.956	-0.213	-0.037
-153.662	-105.553	-0.320	0.071
-152.647	2.242	0.170	-0.121
-151.633	-66.525	-0.210	0.082
-150.618	800.000	0.103	0.330
-149.604	-0.351	-0.200	0.139
-148.589	62.951	-0.090	-0.088
-147.574	215.081	0.081	0.125
-146.560	-64.433	-0.295	0.118
-145.545	-200.000	0.065	0.422
-144.531	-169.757	0.329	-0.012
-143.516	61.212	-0.208	0.202
-142.502	109.469	-0.293	0.344
-141.487	-146.491	0.198	0.017
-140.472	-200.000	0.015	-0.093
-139.458	91.879	-0.104	0.115
-138.443	-2.019	-0.312	-0.214
-137.429	-200.000	0.001	0.150
-136.414	35.885	-0.355	0.306
-135.399	86.509	0.298	-0.322
-134.385	-38.245	-0.089	-0.046
-133.370	-13.699	-0.283	-0.180
-132.356	800.000	0.135	-0.389
-131.341	-2.155	0.141	0.097
-130.326	-72.267	-0.525	-0.191
-129.312	71.352	-0.166	-0.169
-128.297	-131.047	-0.218	0.028
-127.283	-103.363	0.168	-0.039
-126.268	-68.523	0.206	-0.078
-125.253	-70.113	0.040	0.015
-124.239	-200.000	-0.032	0.144
-123.224	155.321	0.195	0.263
-122.210	256.064	-0.114	-0.192
-121.195	102.906	0.097	0.111
