DTS Sentinel unit serial number:	SN413079Multiplexer serial number:	ORYXHardware model number:	OX4-SRSoftware version number:	ORYX F/W v4.00 Oryx Data Collector v3.7.2.0data status	okinstallation	princeton_trtdifferential loss correction	single-endedforward channel	channel 2reverse channel	N/Adate	2019/09/16time	23:15:35forward acquisition time	60.00reverse acquisition time	0.00gamma	496.2192k internal	0.2330k external	0.2330temperature offset calibration	0.9974default loss term (dB/km)	0.3790temperature slope calibration	1.0000multiplexer offset coefficient	1.0000multiplexer slope coefficient	1.0000fibre end	0.00T internal ref (°C)	30.08T ext. ref 1 (°C)	0.09T ext. ref 2 (°C)	23.79length (m)	temperature (°C)	Stokes	anti-Stokes-747.200	465.673	-0.033	-0.075
-746.185	-119.478	-0.343	0.060
-745.171	-18.897	0.299	-0.187
-744.156	-200.000	0.055	0.278
-743.142	-25.177	0.152	0.091
-742.127	-200.000	0.012	0.164
-741.112	223.667	0.110	-0.178
-740.098	-200.000	0.020	-0.502
-739.083	-18.297	-0.153	-0.096
-738.069	-107.187	-0.238	-0.053
-737.054	344.582	-0.048	-0.095
-736.039	93.747	-0.142	0.162
-735.025	-200.000	0.023	0.332
-734.010	43.208	-0.129	0.119
-732.996	-200.000	-0.015	-0.395
-731.981	800.000	-0.053	0.195
-730.966	242.203	-0.053	0.088
-729.952	-161.276	0.370	0.019
-728.937	-118.015	0.108	0.019
-727.923	-76.510	-0.145	0.051
-726.908	800.000	-0.058	0.168
-725.894	-119.415	-0.122	-0.021
-724.879	309.846	-0.086	0.161
-723.864	-49.016	0.159	0.077
-722.850	-138.689	-0.141	0.015
-721.835	-6.877	0.168	0.115
-720.821	-200.000	-0.050	0.404
-719.806	20.190	0.030	-0.025
-718.791	-200.000	0.018	0.121
-717.777	166.686	-0.164	-0.235
-716.762	337.837	0.065	0.128
-715.748	-53.529	-0.128	-0.059
-714.733	2.784	0.193	-0.141
-713.718	127.085	0.172	-0.219
-712.704	673.760	-0.092	-0.240
-711.689	16.098	-0.184	0.145
-710.675	350.893	0.072	-0.143
-709.660	-37.129	-0.103	0.055
-708.645	-7.129	-0.073	-0.050
-707.631	-200.000	0.041	-0.251
-706.616	-200.000	0.065	-0.353
-705.602	-200.000	0.042	-0.276
-704.587	-65.459	-0.265	0.107
-703.572	-149.194	-0.248	0.020
-702.558	-56.202	-0.292	0.131
-701.543	190.634	-0.147	0.223
-700.529	265.997	-0.156	0.273
-699.514	-41.043	-0.541	-0.281
-698.499	800.000	-0.050	0.174
-697.485	-83.563	0.073	-0.024
-696.470	-33.643	-0.284	0.158
-695.456	-121.921	0.149	-0.025
-694.441	800.000	0.026	0.089
-693.426	-200.000	-0.008	-0.463
-692.412	-46.515	-0.196	0.097
-691.397	72.465	-0.123	0.129
-690.383	191.153	0.313	-0.473
-689.368	-139.328	-0.192	-0.021
-688.354	-89.795	-0.236	0.070
-687.339	-131.334	-0.163	-0.022
-686.324	-48.377	-0.145	-0.070
-685.310	-200.000	0.007	-0.076
-684.295	80.715	-0.131	0.142
-683.281	2.610	0.122	0.089
-682.266	-200.000	0.023	-0.109
-681.251	-160.299	0.308	-0.017
-680.237	-42.718	-0.317	-0.162
-679.222	-101.321	0.092	0.023
-678.208	-37.739	-0.072	0.038
-677.193	322.627	-0.078	-0.149
-676.178	-46.408	-0.123	-0.061
-675.164	800.000	-0.112	-0.325
-674.149	711.620	-0.051	-0.135
-673.135	-187.009	-0.144	0.002
-672.120	56.143	-0.165	-0.160
-671.105	-86.869	-0.308	0.094
-670.091	-200.000	0.011	-0.170
-669.076	237.629	-0.087	0.144
-668.062	-11.160	-0.106	0.070
-667.047	-89.146	0.135	-0.040
-666.032	140.863	-0.173	0.230
-665.018	176.349	0.108	0.157
-664.003	-54.080	0.116	0.053
-662.989	-113.512	-0.096	-0.019
-661.974	-56.888	0.124	0.055
-660.959	-200.000	-0.017	-0.179
-659.945	-200.000	0.064	-0.387
-658.930	-34.728	-0.148	-0.081
-657.916	251.190	-0.132	0.225
-656.901	-97.949	0.212	0.055
-655.886	-92.632	0.100	0.028
-654.872	-105.098	-0.165	-0.038
-653.857	-166.781	-0.270	0.011
-652.843	-83.479	-0.199	-0.064
-651.828	-92.548	-0.383	-0.108
-650.814	-152.317	0.220	0.016
-649.799	800.000	-0.050	0.216
-648.784	141.168	0.238	0.316
-647.770	-200.000	-0.027	-0.192
-646.755	-146.392	-0.145	0.013
-645.741	129.095	0.264	-0.337
-644.726	800.000	-0.117	-0.424
-643.711	-182.622	0.085	-0.002
-642.697	3.649	-0.132	0.097
-641.682	-31.244	0.126	0.071
-640.668	-44.272	0.269	-0.135
-639.653	-51.243	0.092	-0.043
-638.638	-29.953	0.287	-0.164
-637.624	800.000	0.068	0.202
-636.609	-28.923	-0.310	-0.179
-635.595	-98.386	-0.316	0.081
-634.580	97.494	-0.172	0.198
-633.565	-200.000	-0.031	-0.246
-632.551	-111.818	-0.273	0.055
-631.536	-124.295	0.171	0.027
-630.522	-200.000	-0.032	-0.175
-629.507	510.868	-0.087	-0.202
-628.492	-73.809	-0.207	0.076
-627.478	-200.000	0.020	0.197
-626.463	68.804	-0.064	-0.066
-625.449	-72.541	0.152	0.056
-624.434	-200.000	0.001	0.326
-623.419	14.716	-0.140	-0.110
-622.405	217.417	0.139	-0.222
-621.390	-98.030	-0.239	-0.062
-620.376	-177.222	-0.158	0.004
-619.361	90.714	-0.066	-0.074
-618.346	-200.000	0.021	0.219
-617.332	52.407	0.130	0.124
-616.317	800.000	-0.040	0.123
-615.303	-200.000	-0.067	-0.356
-614.288	-122.028	0.098	0.016
-613.273	1.314	0.098	-0.070
-612.259	194.135	-0.013	0.019
-611.244	436.246	-0.069	0.150
-610.230	-107.505	-0.112	0.025
-609.215	206.856	0.158	-0.246
-608.201	-91.882	0.246	-0.070
-607.186	-200.000	-0.004	0.035
-606.171	-200.000	0.063	0.431
-605.157	273.420	0.156	0.277
-604.142	-17.513	-0.065	-0.041
-603.128	30.744	-0.328	0.282
-602.113	199.019	0.148	-0.226
-601.098	485.219	-0.054	0.123
-600.084	33.260	-0.187	-0.163
-599.069	800.000	-0.117	-0.356
-598.055	-166.301	-0.206	0.009
-597.040	242.815	0.085	0.142
-596.025	-26.689	-0.347	0.203
-595.011	121.226	0.061	-0.076
-593.996	-171.362	0.202	-0.007
-592.982	506.635	0.107	-0.249
-591.967	-200.000	-0.012	-0.137
-590.952	-200.000	-0.032	-0.207
-589.938	38.471	0.276	0.247
-588.923	800.000	0.062	-0.261
-587.909	-49.450	0.315	-0.150
-586.894	57.039	-0.017	0.017
-585.879	30.518	0.146	0.125
-584.865	86.912	0.167	0.185
-583.850	800.000	0.142	0.426
-582.836	14.473	-0.223	0.175
-581.821	-76.393	-0.046	0.016
-580.806	95.653	-0.196	-0.224
-579.792	-4.966	0.124	0.085
-578.777	176.996	0.036	-0.052
-577.763	800.000	-0.099	0.282
-576.748	800.000	-0.057	-0.231
-575.733	21.102	-0.462	-0.375
-574.719	-200.000	0.037	0.298
-573.704	-0.249	-0.340	0.242
-572.690	142.429	-0.115	-0.153
-571.675	22.644	-0.272	-0.223
-570.661	160.016	-0.035	0.049
-569.646	-81.688	0.034	-0.011
-568.631	-70.407	-0.125	-0.047
-567.617	442.898	0.107	0.235
-566.602	-67.843	-0.172	0.067
-565.588	-200.000	0.068	-0.301
-564.573	-92.473	-0.438	0.123
-563.558	-161.183	0.152	-0.008
-562.544	521.664	0.129	0.303
-561.529	-200.000	-0.043	-0.231
-560.515	307.405	0.227	-0.424
-559.500	-80.701	0.199	-0.066
-558.485	184.252	-0.143	0.212
-557.471	-70.115	0.214	-0.082
-556.456	47.894	0.328	0.306
-555.442	800.000	0.104	-0.443
-554.427	240.894	-0.042	0.069
-553.412	-110.681	-0.342	0.071
-552.398	236.087	-0.023	-0.039
-551.383	-200.000	0.001	-0.065
-550.369	45.597	0.165	-0.152
-549.354	-139.360	-0.352	-0.038
-548.339	-143.608	-0.315	-0.030
-547.325	19.036	-0.130	0.104
-546.310	-87.404	-0.148	-0.045
-545.296	-170.033	-0.156	-0.006
-544.281	145.314	0.216	0.289
-543.266	-122.458	-0.220	0.036
-542.252	800.000	0.039	-0.126
-541.237	-149.674	0.205	-0.016
-540.223	-200.000	0.001	-0.263
-539.208	800.000	0.042	-0.153
-538.193	98.762	0.320	-0.369
-537.179	208.185	-0.130	-0.203
-536.164	211.212	0.108	0.170
-535.150	800.000	0.045	-0.126
-534.135	-56.251	0.351	0.156
-533.121	27.868	-0.077	-0.065
-532.106	-139.524	0.136	-0.014
-531.091	197.508	0.114	-0.174
-530.077	-114.784	0.127	-0.024
-529.062	-134.550	0.018	-0.002
-528.048	-90.566	0.032	0.009
-527.033	-48.477	-0.234	0.112
-526.018	-125.835	0.176	-0.026
-525.004	-176.056	-0.183	0.005
-523.989	-85.779	0.174	0.054
-522.975	-131.271	-0.007	0.001
-521.960	-200.000	0.030	0.301
-520.945	-200.000	-0.041	0.219
-519.931	391.857	-0.056	0.116
-518.916	1.320	-0.167	0.120
-517.902	800.000	-0.007	0.023
-516.887	68.077	0.155	-0.158
-515.872	233.509	-0.038	-0.062
-514.858	133.955	0.172	0.222
-513.843	668.190	-0.077	0.200
-512.829	800.000	-0.017	-0.053
-511.814	152.589	-0.069	0.094
-510.799	356.161	-0.099	-0.196
-509.785	138.095	-0.268	-0.351
-508.770	-119.165	-0.193	-0.034
-507.756	-200.000	0.001	-0.490
-506.741	-192.021	-0.269	-0.003
-505.726	-136.432	-0.148	-0.017
-504.712	-107.435	0.306	-0.067
-503.697	298.325	-0.096	0.176
-502.683	61.600	0.071	-0.071
-501.668	-76.399	0.280	0.098
-500.653	4.009	0.179	0.131
-499.639	152.821	-0.021	0.028
-498.624	-92.127	0.123	-0.035
-497.610	92.383	-0.046	0.051
-496.595	-38.084	-0.134	-0.071
-495.581	60.298	-0.063	-0.063
-494.566	-73.930	-0.144	0.052
-493.551	-85.222	-0.296	0.092
-492.537	31.353	0.289	0.247
-491.522	90.221	-0.105	-0.117
-490.508	-5.263	-0.345	0.237
-489.493	-200.000	0.006	0.305
-488.478	102.135	0.220	-0.256
-487.464	606.932	-0.121	0.301
-486.449	-92.349	0.272	-0.076
-485.435	45.091	-0.233	0.214
-484.420	-174.671	-0.065	0.002
-483.405	489.216	-0.113	0.258
-482.391	-77.707	0.248	-0.085
-481.376	-200.000	0.016	-0.094
-480.362	800.000	0.108	0.366
-479.347	155.087	0.264	0.361
-478.332	84.352	-0.112	-0.122
-477.318	-68.601	-0.409	-0.158
-476.303	211.641	0.067	-0.105
-475.289	-74.366	-0.111	-0.040
-474.274	-113.170	0.111	0.022
-473.259	-98.501	0.081	-0.021
-472.245	800.000	-0.066	-0.233
-471.230	199.202	0.060	0.091
-470.216	-10.445	-0.295	-0.195
-469.201	-200.000	-0.046	0.391
-468.186	-31.547	-0.283	0.158
-467.172	-60.513	-0.197	0.083
-466.157	249.660	0.103	-0.173
-465.143	-38.414	-0.303	0.160
-464.128	-4.542	0.295	-0.203
-463.113	-200.000	0.016	-0.091
-462.099	-200.000	-0.013	-0.230
-461.084	-61.967	-0.193	0.080
-460.070	-100.375	0.288	-0.071
-459.055	650.745	-0.052	-0.131
-458.040	-36.698	0.059	-0.032
-457.026	-63.566	0.437	-0.179
-456.011	53.388	-0.060	0.058
-454.997	-200.000	-0.004	-0.206
-453.982	-200.000	0.046	-0.201
-452.968	800.000	0.066	0.184
-451.953	-200.000	-0.023	-0.289
-450.938	370.966	0.109	-0.221
-449.924	-113.005	-0.105	-0.021
-448.909	-200.000	0.013	-0.089
-447.895	27.893	-0.070	0.058
-446.880	800.000	-0.030	0.099
-445.865	172.393	-0.350	0.501
-444.851	10.293	-0.163	0.123
-443.836	586.815	0.086	-0.211
-442.822	-9.617	-0.152	-0.101
-441.807	100.299	-0.209	-0.241
-440.792	73.908	0.006	0.006
-439.778	-42.237	0.316	-0.161
-438.763	-200.000	0.075	0.488
-437.749	71.355	-0.089	0.092
-436.734	-54.607	0.294	0.133
-435.719	-117.246	0.296	0.053
-434.705	800.000	0.024	-0.101
-433.690	603.104	0.056	0.138
-432.676	376.232	-0.064	-0.130
-431.661	-82.862	0.248	0.080
-430.646	-200.000	0.005	0.448
-429.632	-116.903	-0.340	-0.062
-428.617	121.897	0.132	-0.164
-427.603	418.782	0.011	-0.023
-426.588	68.506	0.185	0.189
-425.573	20.186	-0.284	-0.228
-424.559	58.439	0.081	-0.079
-423.544	86.259	-0.018	-0.020
-422.530	325.731	0.038	0.073
-421.515	465.974	-0.055	-0.122
-420.500	-82.418	-0.254	-0.082
-419.486	-61.417	0.197	-0.082
-418.471	800.000	-0.062	-0.208
-417.457	-6.870	0.224	0.151
-416.442	800.000	-0.027	0.095
-415.428	800.000	-0.060	0.205
-414.413	-32.010	0.142	0.079
-413.398	-123.956	0.317	-0.050
-412.384	-91.714	-0.189	0.053
-411.369	-200.000	0.014	-0.063
-410.355	103.267	-0.038	0.044
-409.340	-8.023	0.234	0.157
-408.325	7.258	-0.116	0.086
-407.311	-81.752	0.294	-0.096
-406.296	300.673	0.134	0.246
-405.282	-53.959	0.232	0.105
-404.267	-192.519	-0.201	-0.002
-403.252	-200.000	-0.037	-0.175
-402.238	-40.102	-0.299	0.155
-401.223	588.134	0.072	0.176
-400.209	800.000	-0.069	0.241
-399.194	-172.974	0.263	-0.008
-398.179	-101.996	-0.141	-0.034
-397.165	-200.000	-0.051	-0.221
-396.150	100.486	0.297	0.342
-395.136	236.881	0.242	0.397
-394.121	800.000	-0.040	-0.122
-393.106	-146.758	0.416	-0.036
-392.092	427.814	-0.163	-0.349
-391.077	-48.072	-0.363	-0.174
-390.063	287.557	0.058	0.103
-389.048	23.418	0.142	0.116
-388.033	280.036	0.110	0.195
-387.019	-79.188	0.172	-0.058
-386.004	420.986	-0.036	-0.076
-384.990	530.716	0.081	-0.190
-383.975	-124.766	0.279	0.043
-382.960	-64.571	-0.288	0.116
-381.946	466.432	0.007	0.016
-380.931	-44.301	-0.028	-0.014
-379.917	-153.614	-0.053	-0.004
-378.902	247.308	0.147	-0.247
-377.888	55.702	-0.092	-0.089
-376.873	589.874	-0.075	0.183
-375.858	137.468	-0.178	0.231
-374.844	275.109	-0.120	0.212
-373.829	460.436	-0.013	0.028
-372.815	-200.000	-0.006	-0.225
-371.800	102.321	-0.248	-0.288
-370.785	800.000	0.060	0.218
-369.771	-159.201	0.070	0.004
-368.756	277.411	0.021	0.036
-367.742	486.955	0.083	-0.189
-366.727	53.763	0.077	-0.074
-365.712	-140.316	0.281	-0.029
-364.698	-99.763	-0.343	-0.085
-363.683	93.454	0.099	-0.111
-362.669	113.917	0.043	0.052
-361.654	800.000	-0.034	-0.124
-360.639	-4.353	0.113	-0.077
-359.625	-103.548	-0.363	0.084
-358.610	-32.200	0.076	0.042
-357.596	52.839	-0.310	-0.294
-356.581	4.812	0.105	-0.076
-355.566	126.354	0.120	-0.151
-354.552	-114.092	-0.355	-0.068
-353.537	-200.000	0.081	-0.614
-352.523	-79.567	-0.118	0.039
-351.508	51.174	-0.213	0.200
-350.493	-64.573	-0.185	-0.074
-349.479	86.303	-0.141	0.155
-348.464	800.000	0.070	-0.245
-347.450	798.198	0.086	-0.236
-346.435	800.000	-0.068	-0.254
-345.420	430.582	0.064	-0.137
-344.406	-81.055	-0.023	-0.007
-343.391	800.000	0.076	-0.232
-342.377	-120.158	-0.284	0.048
-341.362	800.000	0.056	-0.194
-340.348	-200.000	0.048	-0.364
-339.333	283.522	0.063	-0.112
-338.318	-200.000	0.039	0.309
-337.304	800.000	-0.068	0.205
-336.289	800.000	-0.135	0.420
-335.275	-28.128	0.125	-0.072
-334.260	-96.154	0.418	0.110
-333.245	-181.580	-0.212	0.004
-332.231	800.000	-0.044	-0.134
-331.216	233.612	0.085	0.138
-330.202	228.447	0.101	0.163
-329.187	-200.000	-0.050	-0.249
-328.172	-46.652	-0.086	-0.042
-327.158	-17.619	0.075	-0.047
-326.143	-58.811	-0.314	-0.135
-325.129	-146.997	-0.380	0.032
-324.114	14.291	0.488	-0.377
-323.099	17.434	-0.265	-0.209
-322.085	-23.626	0.093	-0.055
-321.070	800.000	0.014	-0.042
-320.056	-200.000	-0.052	0.321
-319.041	-135.519	0.290	-0.034
-318.026	651.659	0.078	0.199
-317.012	370.624	-0.137	0.274
-315.997	77.708	-0.134	0.141
-314.983	-200.000	-0.093	0.470
-313.968	-20.459	0.288	0.175
-312.953	-71.830	0.357	0.132
-311.939	50.427	0.110	-0.103
-310.924	-200.000	0.038	-0.318
-309.910	-3.751	-0.211	0.145
-308.895	-75.378	-0.210	0.074
-307.880	42.537	0.180	0.162
-306.866	-59.765	0.094	-0.040
-305.851	-126.791	-0.236	-0.034
-304.837	64.120	-0.063	-0.062
-303.822	-198.422	0.406	-0.002
-302.807	-82.942	-0.347	-0.111
-301.793	-18.828	0.135	0.083
-300.778	800.000	-0.127	-0.414
-299.764	-56.936	-0.179	0.078
-298.749	-96.462	0.139	0.036
-297.735	-29.592	0.410	-0.232
-296.720	312.895	0.104	-0.194
-295.705	-140.830	0.120	0.012
-294.691	39.331	-0.227	-0.201
-293.676	-168.480	0.241	-0.009
-292.662	38.786	0.250	-0.221
-291.647	26.958	-0.167	-0.138
-290.632	179.463	-0.047	-0.068
-289.618	83.562	-0.078	0.085
-288.603	-200.000	-0.030	-0.138
-287.589	-80.134	0.094	0.031
-286.574	-54.413	0.302	-0.135
-285.559	-200.000	-0.025	-0.183
-284.545	197.308	-0.074	-0.112
-283.530	118.807	0.151	-0.184
-282.516	-49.442	0.146	0.069
-281.501	-200.000	0.022	0.322
-280.486	118.713	0.166	0.203
-279.472	173.012	0.257	0.366
-278.457	-200.000	0.005	-0.220
-277.443	-8.787	-0.143	-0.095
-276.428	-91.894	0.444	0.125
-275.413	38.678	-0.316	-0.279
-274.399	800.000	-0.057	-0.201
-273.384	-5.486	0.189	0.129
-272.370	-200.000	0.022	-0.131
-271.355	-200.000	-0.020	0.129
-270.340	117.009	-0.145	-0.176
-269.326	13.262	0.137	-0.105
-268.311	-200.000	0.011	0.070
-267.297	-22.774	-0.089	0.053
-266.282	-70.001	0.130	0.049
-265.267	-119.822	-0.334	-0.057
-264.253	800.000	0.007	-0.024
-263.238	-172.188	0.460	-0.015
-262.224	78.855	0.170	0.179
-261.209	-160.159	-0.098	0.005
-260.195	278.028	-0.141	-0.249
-259.180	-158.649	-0.108	-0.006
-258.165	2.978	0.125	0.090
-257.151	64.800	0.231	0.231
-256.136	-47.207	0.239	-0.115
-255.122	-105.381	-0.281	0.063
-254.107	711.466	0.083	0.218
-253.092	-200.000	0.025	0.273
-252.078	800.000	0.017	0.049
-251.063	351.481	0.089	0.174
-250.049	-116.331	-0.233	0.043
-249.034	-113.521	-0.286	0.055
-248.019	51.599	0.069	0.065
-247.005	-200.000	0.019	-0.241
-245.990	-79.807	0.119	0.040
-244.976	-200.000	-0.034	0.158
-243.961	105.896	0.204	0.238
-242.946	-200.000	0.012	0.148
-241.932	-15.511	-0.291	0.184
-240.917	10.599	-0.151	-0.114
-239.903	427.277	0.149	0.318
-238.888	800.000	0.051	0.190
-237.873	351.667	-0.119	0.233
-236.859	53.795	0.013	0.012
-235.844	-36.165	0.212	0.113
-234.830	-49.625	-0.071	0.033
-233.815	176.266	0.259	-0.372
-232.800	-76.005	0.458	0.160
-231.786	-200.000	-0.043	0.282
-230.771	-70.273	0.206	-0.077
-229.757	246.371	0.152	0.253
-228.742	650.286	-0.042	0.106
-227.727	-83.363	-0.340	-0.108
-226.713	67.963	-0.101	0.102
-225.698	432.020	-0.046	-0.098
-224.684	188.423	-0.307	-0.452
-223.669	-200.000	0.010	0.108
-222.655	-200.000	0.042	0.189
-221.640	-83.132	0.125	-0.040
-220.625	-70.175	-0.202	-0.076
-219.611	595.036	0.078	0.190
-218.596	-57.154	-0.226	0.098
-217.582	-115.224	-0.256	-0.048
-216.567	316.267	-0.107	-0.200
-215.552	-200.000	-0.009	-0.238
-214.538	92.151	0.038	0.042
-213.523	-94.016	0.017	-0.005
-212.509	337.063	0.084	-0.162
-211.494	-13.650	0.199	0.127
-210.479	93.228	-0.082	-0.091
-209.465	132.223	0.150	0.191
-208.450	451.586	0.039	0.086
-207.436	800.000	0.088	-0.244
-206.421	-200.000	-0.003	-0.132
-205.406	469.810	-0.100	-0.221
-204.392	-97.909	-0.204	0.052
-203.377	-72.411	0.127	0.046
-202.363	-25.396	0.172	-0.100
-201.348	344.590	-0.048	-0.092
-200.333	-17.339	0.198	-0.123
-199.319	400.772	0.165	0.340
-198.304	800.000	0.107	0.309
-197.290	196.266	0.063	0.095
-196.275	-59.186	-0.500	-0.212
-195.260	-102.772	-0.257	-0.060
-194.246	201.326	-0.013	0.020
-193.231	220.254	-0.079	0.125
-192.217	467.299	-0.073	0.161
-191.202	-106.081	0.153	-0.034
-190.187	-200.000	0.005	-0.075
-189.173	-200.000	-0.033	-0.173
-188.158	279.514	-0.119	-0.210
-187.144	-102.058	-0.323	-0.077
-186.129	-38.363	0.144	0.075
-185.114	-200.000	0.022	-0.244
-184.100	-156.214	-0.253	0.016
-183.085	-168.740	0.380	0.014
-182.071	1.684	0.369	0.262
-181.056	21.496	-0.113	0.091
-180.042	71.294	-0.166	0.169
-179.027	-135.478	0.140	0.016
-178.012	51.885	-0.051	-0.048
-176.998	-159.934	0.241	0.013
-175.983	390.273	0.061	0.124
-174.969	77.410	-0.187	-0.196
-173.954	-16.455	0.133	0.083
-172.939	-79.339	0.329	-0.110
-171.925	800.000	-0.086	-0.278
-170.910	102.599	0.219	0.252
-169.896	162.901	-0.098	0.135
-168.881	-89.751	0.243	0.070
-167.866	-73.850	-0.226	0.081
-166.852	-152.843	0.078	-0.005
-165.837	-43.657	0.225	-0.112
-164.823	-117.152	-0.303	0.054
-163.808	-183.863	-0.201	-0.003
-162.793	463.283	-0.076	0.167
-161.779	397.136	-0.121	0.248
-160.764	800.000	-0.033	0.112
-159.750	-106.786	-0.261	0.057
-158.735	206.413	-0.216	-0.332
-157.720	168.985	-0.193	0.272
-156.706	-81.315	-0.049	-0.016
-155.691	541.487	0.060	-0.142
-154.677	276.089	0.053	-0.092
-153.662	-82.658	-0.119	-0.038
-152.647	259.609	-0.145	0.247
-151.633	-96.446	0.280	0.073
-150.618	800.000	-0.087	-0.317
-149.604	800.000	0.098	-0.359
-148.589	103.072	0.179	0.207
-147.574	-41.283	-0.198	0.100
-146.560	796.458	0.142	0.386
-145.545	800.000	-0.095	0.284
-144.531	-115.131	0.252	0.047
-143.516	-200.000	0.052	-0.415
-142.502	-25.398	0.085	-0.049
-141.487	-60.157	0.321	0.135
-140.472	185.970	-0.082	-0.120
-139.458	-136.147	0.079	-0.009
-138.443	375.985	0.070	-0.141
-137.429	190.807	-0.219	-0.324
-136.414	143.897	-0.150	0.197
-135.399	-200.000	-0.016	0.072
-134.385	-200.000	-0.021	0.256
-133.370	318.244	-0.182	0.338
-132.356	349.888	0.086	0.166
-131.341	46.554	-0.031	0.029
-130.326	800.000	0.033	0.113
-129.312	22.038	0.361	-0.289
-128.297	-76.120	-0.223	0.078
-127.283	-119.543	-0.340	-0.058
-126.268	-118.670	0.228	-0.040
-125.253	-130.172	-0.104	0.014
-124.239	-200.000	-0.042	-0.262
-123.224	-33.422	0.160	-0.087
-122.210	800.000	0.078	0.334
-121.195	100.003	-0.137	-0.156
