DTS Sentinel unit serial number:	SN413079Multiplexer serial number:	ORYXHardware model number:	OX4-SRSoftware version number:	ORYX F/W v4.00 Oryx Data Collector v3.7.2.0data status	okinstallation	princeton_trtdifferential loss correction	single-endedforward channel	channel 2reverse channel	N/Adate	2019/09/16time	04:51:34forward acquisition time	60.00reverse acquisition time	0.00gamma	496.2192k internal	0.2335k external	0.2335temperature offset calibration	0.9977default loss term (dB/km)	0.3790temperature slope calibration	1.0000multiplexer offset coefficient	1.0000multiplexer slope coefficient	1.0000fibre end	0.00T internal ref (°C)	27.19T ext. ref 1 (°C)	10.95T ext. ref 2 (°C)	21.66length (m)	temperature (°C)	Stokes	anti-Stokes-747.200	-170.998	-0.475	0.016
-746.185	231.202	-0.116	0.190
-745.171	-47.097	0.366	-0.180
-744.156	166.380	-0.082	-0.116
-743.142	27.368	0.127	-0.107
-742.127	182.740	0.179	0.265
-741.112	284.677	-0.042	0.076
-740.098	7.693	-0.263	0.198
-739.083	-200.000	-0.010	0.159
-738.069	-70.861	-0.250	-0.095
-737.054	2.572	0.263	0.191
-736.039	-185.709	-0.494	-0.007
-735.025	153.358	0.319	0.438
-734.010	-200.000	0.009	-0.320
-732.996	147.594	-0.274	-0.371
-731.981	-9.012	-0.159	-0.107
-730.966	-200.000	0.018	-0.431
-729.952	309.722	-0.116	0.217
-728.937	-200.000	0.015	0.090
-727.923	-187.817	-0.297	-0.004
-726.908	-200.000	0.041	-0.318
-725.894	-200.000	-0.025	-0.222
-724.879	-200.000	0.014	0.434
-723.864	111.277	-0.068	-0.082
-722.850	-64.188	-0.069	0.028
-721.835	-45.347	0.339	-0.169
-720.821	-132.062	0.218	0.028
-719.806	-15.853	-0.178	-0.114
-718.791	384.387	0.127	-0.262
-717.777	-40.331	-0.130	0.068
-716.762	800.000	0.066	-0.291
-715.748	215.055	0.083	-0.132
-714.733	800.000	-0.030	0.089
-713.718	-7.821	0.304	-0.206
-712.704	-200.000	0.013	-0.114
-711.689	800.000	-0.113	0.400
-710.675	234.367	-0.186	0.307
-709.660	800.000	-0.075	-0.233
-708.645	-166.090	0.273	-0.012
-707.631	300.542	-0.054	-0.101
-706.616	-200.000	-0.020	0.144
-705.602	138.559	0.119	-0.156
-704.587	-55.224	0.158	0.071
-703.572	86.222	-0.052	0.057
-702.558	-200.000	0.019	-0.141
-701.543	22.876	-0.232	-0.191
-700.529	-161.791	-0.103	0.005
-699.514	119.459	-0.163	0.202
-698.499	-72.663	0.162	-0.060
-697.485	308.829	0.092	-0.172
-696.470	218.278	-0.027	-0.042
-695.456	574.415	-0.045	0.111
-694.441	-200.000	-0.018	-0.264
-693.426	74.188	-0.058	0.061
-692.412	-75.406	0.268	-0.096
-691.397	7.708	0.132	0.099
-690.383	57.002	-0.042	-0.041
-689.368	-59.749	-0.466	-0.200
-688.354	-200.000	0.030	0.258
-687.339	-114.954	-0.232	0.044
-686.324	-200.000	-0.043	-0.287
-685.310	278.599	0.017	0.031
-684.295	-68.862	-0.090	-0.035
-683.281	-200.000	-0.182	-0.000
-682.266	800.000	0.043	-0.182
-681.251	-21.548	-0.229	0.140
-680.237	-46.274	-0.184	-0.091
-679.222	-200.000	-0.019	-0.224
-678.208	150.191	-0.219	-0.298
-677.193	20.594	0.260	-0.210
-676.178	5.366	0.183	0.135
-675.164	-62.564	-0.259	-0.108
-674.149	-26.619	0.201	0.118
-673.135	-16.999	0.207	-0.131
-672.120	102.710	-0.183	-0.215
-671.105	-200.000	-0.024	-0.171
-670.091	280.389	-0.075	-0.134
-669.076	-67.237	0.145	0.057
-668.062	800.000	0.080	-0.286
-667.047	-135.931	0.170	-0.020
-666.032	-70.455	-0.034	0.013
-665.018	-200.000	-0.090	-0.000
-664.003	273.621	-0.031	0.054
-662.989	16.720	0.031	0.024
-661.974	-22.104	-0.055	0.033
-660.959	-200.000	0.018	-0.210
-659.945	106.935	-0.050	0.059
-658.930	-76.456	-0.262	-0.092
-657.916	37.065	-0.111	-0.099
-656.901	175.250	-0.038	-0.056
-655.886	46.118	0.143	0.133
-654.872	11.467	-0.132	-0.101
-653.857	-106.918	-0.382	-0.085
-652.843	-15.664	-0.240	-0.153
-651.828	-90.669	-0.116	0.033
-650.814	-124.550	-0.075	0.012
-649.799	-182.674	0.216	0.004
-648.784	-89.378	0.157	-0.046
-647.770	47.573	-0.139	-0.130
-646.755	710.206	0.065	-0.172
-645.741	-200.000	-0.018	0.151
-644.726	-111.256	0.292	0.060
-643.711	800.000	0.047	0.158
-642.697	-47.715	-0.159	0.077
-641.682	800.000	0.036	-0.124
-640.668	668.838	-0.034	0.089
-639.653	-5.841	-0.180	-0.124
-638.638	800.000	-0.076	-0.251
-637.624	-53.188	-0.231	0.106
-636.609	639.098	0.074	0.187
-635.595	-200.000	-0.020	-0.250
-634.580	-79.738	0.152	-0.051
-633.565	-87.421	-0.365	0.111
-632.551	-84.314	0.288	0.091
-631.536	49.685	-0.194	-0.182
-630.522	-28.304	0.203	-0.117
-629.507	-136.615	-0.485	0.056
-628.492	-97.581	-0.468	-0.121
-627.478	-51.277	0.216	0.101
-626.463	-113.341	-0.111	0.022
-625.449	15.981	-0.110	0.087
-624.434	107.469	0.065	-0.078
-623.419	66.190	0.292	0.296
-622.405	-71.498	-0.370	-0.138
-621.390	-93.564	-0.246	-0.068
-620.376	-50.969	0.127	-0.060
-619.361	-166.854	0.294	0.012
-618.346	-200.000	-0.039	-0.355
-617.332	12.160	-0.065	-0.050
-616.317	105.089	-0.280	-0.331
-615.303	433.336	0.062	0.134
-614.288	-200.000	-0.040	0.297
-613.273	178.001	-0.123	-0.179
-612.259	-24.608	0.268	-0.160
-611.244	-128.533	0.129	-0.018
-610.230	-152.650	-0.280	0.020
-609.215	-9.472	0.196	-0.131
-608.201	349.595	-0.125	0.247
-607.186	800.000	-0.069	-0.229
-606.171	-200.000	-0.021	-0.294
-605.157	6.020	0.011	-0.008
-604.142	-62.680	-0.155	0.064
-603.128	-79.323	0.153	-0.052
-602.113	-170.393	0.311	-0.011
-601.098	-11.522	0.017	0.011
-600.084	-15.449	-0.268	0.171
-599.069	-116.555	0.142	-0.026
-598.055	-104.136	-0.268	-0.062
-597.040	-100.733	0.211	-0.052
-596.025	63.600	0.136	-0.136
-595.011	-200.000	0.024	-0.210
-593.996	-35.209	-0.196	-0.107
-592.982	-200.000	-0.003	-0.303
-591.967	-102.088	-0.121	-0.029
-590.952	-163.451	0.123	-0.006
-589.938	572.410	-0.120	0.292
-588.923	636.170	-0.117	0.296
-587.909	25.675	-0.086	0.072
-586.894	-59.768	0.091	-0.039
-585.879	-200.000	-0.004	-0.054
-584.865	16.055	-0.089	-0.070
-583.850	-45.642	-0.178	0.088
-582.836	800.000	0.131	0.423
-581.821	-50.184	-0.055	0.026
-580.806	265.389	-0.077	-0.135
-579.792	-104.264	-0.107	0.025
-578.777	-63.953	0.173	-0.071
-577.763	224.803	-0.137	0.221
-576.748	292.348	-0.058	0.105
-575.733	-90.838	-0.197	0.057
-574.719	91.085	-0.157	-0.176
-573.704	-150.188	0.418	0.032
-572.690	800.000	0.100	-0.304
-571.675	94.320	-0.086	-0.098
-570.661	292.201	0.076	0.138
-569.646	-102.081	0.261	-0.063
-568.631	-200.000	0.007	-0.239
-567.617	1.809	0.198	-0.142
-566.602	151.136	-0.125	-0.170
-565.588	170.736	0.430	0.615
-564.573	198.422	-0.106	0.161
-563.558	-22.907	0.139	-0.084
-562.544	178.136	-0.324	-0.471
-561.529	-56.105	-0.172	-0.076
-560.515	262.831	0.133	-0.231
-559.500	766.242	-0.094	-0.256
-558.485	143.884	-0.237	0.315
-557.471	640.670	0.011	0.028
-556.456	549.300	0.063	0.150
-555.442	-183.342	0.117	0.002
-554.427	-11.940	0.135	-0.088
-553.412	800.000	0.065	-0.206
-552.398	-74.977	-0.391	-0.140
-551.383	66.014	-0.147	-0.148
-550.369	-42.885	0.224	-0.114
-549.354	-66.784	-0.073	0.029
-548.339	800.000	0.049	-0.148
-547.325	-7.013	0.087	-0.059
-546.310	104.205	-0.079	0.093
-545.296	-46.275	-0.184	-0.090
-544.281	71.407	-0.041	-0.042
-543.266	-83.064	0.191	0.061
-542.252	206.344	0.293	0.455
-541.237	-6.996	-0.269	0.182
-540.223	-134.360	-0.123	0.015
-539.208	-2.792	0.086	-0.060
-538.193	9.527	0.315	0.237
-537.179	268.325	0.141	0.247
-536.164	139.656	0.191	0.250
-535.150	-41.661	0.280	0.143
-534.135	-137.022	0.157	-0.018
-533.121	465.599	0.121	0.270
-532.106	-131.470	-0.288	-0.038
-531.091	94.233	-0.257	-0.290
-530.077	-183.518	0.134	0.002
-529.062	-186.545	-0.196	0.003
-528.048	-66.050	0.101	0.040
-527.033	-46.342	-0.280	0.137
-526.018	-60.148	0.263	-0.112
-525.004	-45.935	0.030	0.015
-523.989	-71.593	0.325	-0.121
-522.975	23.958	-0.304	-0.250
-521.960	-12.841	-0.293	0.190
-520.945	-177.589	-0.359	0.009
-519.931	-200.000	0.085	0.448
-518.916	454.703	0.057	0.125
-517.902	-30.631	0.043	-0.024
-516.887	800.000	-0.082	-0.229
-515.872	-7.289	-0.335	-0.226
-514.858	223.508	0.068	-0.109
-513.843	40.518	-0.062	-0.056
-512.829	800.000	-0.080	-0.289
-511.814	-105.904	0.242	0.054
-510.799	182.115	0.050	0.073
-509.785	35.585	0.107	0.093
-508.770	-132.751	0.301	-0.038
-507.756	-58.279	-0.077	0.033
-506.741	42.696	-0.194	0.175
-505.726	289.761	0.098	-0.177
-504.712	93.204	0.112	-0.126
-503.697	-139.476	0.269	-0.029
-502.683	-68.006	-0.109	-0.042
-501.668	752.407	0.068	0.183
-500.653	10.927	0.267	-0.203
-499.639	98.177	-0.145	0.166
-498.624	-133.603	0.125	-0.016
-497.610	121.875	-0.161	-0.200
-496.595	800.000	0.024	0.084
-495.581	800.000	0.083	0.236
-494.566	247.299	0.079	-0.134
-493.551	329.972	-0.112	-0.214
-492.537	-30.914	-0.152	-0.085
-491.522	456.140	0.071	0.156
-490.508	18.371	0.393	-0.312
-489.493	-126.914	-0.074	-0.011
-488.478	420.570	-0.127	0.271
-487.464	-27.128	-0.115	-0.067
-486.449	-200.000	0.034	-0.290
-485.435	-200.000	-0.014	0.481
-484.420	317.313	-0.020	0.038
-483.405	86.339	-0.151	-0.166
-482.391	-98.686	0.224	0.057
-481.376	-22.368	0.203	-0.122
-480.362	-53.948	-0.177	-0.080
-479.347	215.422	0.187	0.295
-478.332	112.009	0.141	0.170
-477.318	-200.000	0.016	0.364
-476.303	305.472	-0.070	-0.129
-475.289	110.551	0.068	-0.081
-474.274	-154.476	0.487	-0.032
-473.259	-0.789	-0.403	-0.284
-472.245	-200.000	0.104	-0.596
-471.230	-137.495	0.330	0.037
-470.216	-140.174	-0.248	-0.026
-469.201	-135.487	0.240	0.028
-468.186	-131.211	0.324	0.043
-467.172	-200.000	-0.001	0.085
-466.157	198.826	-0.263	0.401
-465.143	142.476	0.178	0.234
-464.128	800.000	-0.074	0.232
-463.113	360.677	0.080	-0.158
-462.099	-32.193	-0.110	-0.061
-461.084	219.073	-0.070	0.112
-460.070	84.962	0.166	-0.181
-459.055	195.780	0.118	-0.178
-458.040	-200.000	0.043	-0.242
-457.026	-117.584	-0.305	0.055
-456.011	-13.000	0.096	0.062
-454.997	-29.197	0.159	-0.090
-453.982	78.318	-0.042	-0.045
-452.968	-200.000	0.012	-0.288
-451.953	-57.207	-0.231	0.101
-450.938	73.640	0.149	-0.155
-449.924	-130.014	0.355	-0.048
-448.909	-179.095	0.063	-0.001
-447.895	-74.431	0.291	0.104
-446.880	-122.123	-0.197	0.032
-445.865	800.000	0.102	0.362
-444.851	16.124	-0.081	0.063
-443.836	52.042	0.023	0.021
-442.822	243.816	0.129	-0.215
-441.807	-55.041	-0.172	-0.077
-440.792	800.000	-0.041	0.124
-439.778	25.184	0.049	-0.040
-438.763	800.000	-0.101	-0.288
-437.749	-200.000	-0.023	-0.105
-436.734	-200.000	-0.082	-0.415
-435.719	33.341	0.092	-0.079
-434.705	-9.640	-0.204	0.135
-433.690	-200.000	0.032	0.282
-432.676	-7.091	-0.135	-0.091
-431.661	312.754	0.064	-0.119
-430.646	-55.033	0.282	-0.126
-429.632	-2.610	0.139	0.096
-428.617	-113.547	0.078	0.015
-427.603	87.199	-0.294	-0.323
-426.588	151.168	0.157	-0.211
-425.573	257.514	-0.131	0.223
-424.559	153.837	-0.078	-0.106
-423.544	7.431	0.056	0.042
-422.530	-30.144	-0.122	0.069
-421.515	-200.000	0.053	-0.262
-420.500	-200.000	-0.020	-0.193
-419.486	77.819	0.101	0.107
-418.471	-80.612	-0.166	-0.055
-417.457	210.870	-0.024	-0.038
-416.442	9.695	0.207	-0.156
-415.428	-200.000	-0.002	0.369
-414.413	195.781	-0.129	0.194
-413.398	-85.022	-0.228	-0.071
-412.384	166.051	0.028	0.040
-411.369	316.760	0.061	0.114
-410.355	549.476	-0.131	0.311
-409.340	-137.259	-0.125	0.014
-408.325	259.069	-0.075	-0.128
-407.311	27.768	-0.100	0.084
-406.296	66.151	0.107	-0.108
-405.282	0.272	0.196	0.138
-404.267	-47.737	0.057	-0.028
-403.252	-63.445	0.141	0.057
-402.238	674.499	0.104	0.268
-401.223	522.334	-0.119	-0.276
-400.209	-8.747	-0.092	0.061
-399.194	-9.226	-0.406	-0.269
-398.179	22.639	-0.194	-0.158
-397.165	104.909	0.085	0.099
-396.150	-84.774	-0.325	-0.101
-395.136	-200.000	0.031	0.331
-394.121	800.000	0.084	-0.231
-393.106	73.490	-0.161	0.167
-392.092	28.447	-0.160	0.134
-391.077	-68.116	0.148	-0.057
-390.063	98.507	-0.226	-0.258
-389.048	-133.811	-0.265	0.033
-388.033	-200.000	-0.042	-0.209
-387.019	-200.000	0.023	-0.160
-386.004	-122.600	-0.370	-0.059
-384.990	800.000	-0.027	-0.078
-383.975	585.315	-0.040	0.097
-382.960	339.994	0.079	0.152
-381.946	-200.000	-0.001	-0.103
-380.931	530.757	-0.124	-0.291
-379.917	-200.000	0.026	-0.255
-378.902	-71.610	-0.020	0.008
-377.888	-145.400	0.410	-0.037
-376.873	410.899	-0.099	-0.208
-375.858	461.265	0.110	-0.242
-374.844	-200.000	-0.051	0.322
-373.829	-200.000	0.037	-0.214
-372.815	800.000	0.062	-0.177
-371.800	-200.000	-0.004	-0.050
-370.785	-106.908	-0.383	-0.084
-369.771	-200.000	-0.092	-0.404
-368.756	-125.889	0.147	-0.022
-367.742	53.937	0.129	-0.123
-366.727	-113.332	0.210	0.041
-365.712	63.641	-0.131	-0.130
-364.698	-22.863	0.225	0.134
-363.683	354.767	0.144	0.283
-362.669	75.323	-0.380	0.397
-361.654	-95.960	0.274	-0.072
-360.639	-200.000	-0.013	-0.079
-359.625	88.118	0.196	0.216
-358.610	-113.987	0.148	-0.028
-357.596	-31.243	-0.040	0.022
-356.581	100.415	0.176	0.202
-355.566	587.626	-0.120	-0.292
-354.552	509.253	0.134	0.309
-353.537	-90.388	0.182	0.052
-352.523	-200.000	-0.004	-0.135
-351.508	-88.593	0.137	0.040
-350.493	800.000	0.089	-0.244
-349.479	-8.539	0.344	-0.229
-348.464	-117.122	-0.150	0.027
-347.450	113.961	-0.161	0.193
-346.435	34.648	0.113	0.098
-345.420	-200.000	0.038	-0.409
-344.406	-200.000	-0.016	-0.160
-343.391	168.317	0.234	0.329
-342.377	-89.957	0.361	0.104
-341.362	-0.083	-0.075	0.053
-340.348	-133.733	0.246	-0.030
-339.333	725.011	0.048	0.126
-338.318	-109.797	-0.044	0.009
-337.304	-106.609	-0.263	-0.058
-336.289	73.089	0.148	-0.153
-335.275	550.581	0.099	0.235
-334.260	87.897	-0.335	-0.367
-333.245	800.000	-0.058	0.199
-332.231	-56.480	0.192	0.084
-331.216	107.449	-0.226	0.266
-330.202	-200.000	-0.015	0.173
-329.187	228.194	0.249	-0.401
-328.172	-200.000	0.047	0.284
-327.158	-98.505	-0.209	-0.053
-326.143	-89.481	-0.216	0.063
-325.129	63.097	0.226	0.223
-324.114	120.447	0.128	0.158
-323.099	-189.714	-0.295	0.003
-322.085	232.563	-0.113	0.183
-321.070	-40.998	-0.279	-0.142
-320.056	-200.000	0.060	0.264
-319.041	-200.000	0.032	0.345
-318.026	42.187	0.057	-0.051
-317.012	119.044	0.104	0.126
-315.997	174.278	-0.120	-0.171
-314.983	-147.770	-0.155	-0.013
-313.968	-89.258	0.182	-0.053
-312.953	426.305	-0.113	0.241
-311.939	800.000	0.121	0.388
-310.924	800.000	-0.030	0.108
-309.910	800.000	0.048	0.169
-308.895	-200.000	0.025	0.192
-307.880	-130.094	0.258	-0.035
-306.866	-200.000	0.017	-0.281
-305.851	37.539	-0.074	-0.065
-304.837	78.709	-0.099	0.105
-303.822	-200.000	-0.003	0.255
-302.807	-53.441	-0.014	0.006
-301.793	164.281	0.160	0.222
-300.778	124.210	-0.202	-0.251
-299.764	623.972	0.183	-0.456
-298.749	-95.475	-0.189	-0.050
-297.735	-200.000	0.031	0.300
-296.720	-200.000	-0.005	-0.051
-295.705	91.855	0.176	-0.196
-294.691	124.571	-0.203	-0.252
-293.676	26.916	0.138	-0.114
-292.662	-74.017	-0.090	0.032
-291.647	-200.000	-0.079	-0.585
-290.632	-114.990	0.143	-0.027
-289.618	-76.400	0.083	0.029
-288.603	-49.953	-0.130	0.061
-287.589	91.394	0.163	-0.181
-286.574	594.216	0.114	-0.279
-285.559	122.715	0.200	0.247
-284.545	147.763	0.007	-0.009
-283.530	-150.475	0.119	0.009
-282.516	800.000	-0.068	0.208
-281.501	800.000	-0.068	0.239
-280.486	-87.419	0.437	0.131
-279.472	-200.000	-0.061	0.542
-278.457	-120.673	0.139	-0.023
-277.443	-21.920	-0.414	0.248
-276.428	-159.280	0.039	-0.002
-275.413	-200.000	0.010	-0.047
-274.399	299.116	-0.056	-0.102
-273.384	501.173	-0.032	0.074
-272.370	-128.956	0.243	0.034
-271.355	-131.573	0.221	0.029
-270.340	296.521	0.017	0.030
-269.326	19.708	-0.248	-0.197
-268.311	-47.932	-0.201	0.096
-267.297	-68.745	0.073	-0.028
-266.282	60.844	0.437	0.427
-265.267	800.000	-0.080	-0.243
-264.253	-200.000	0.018	0.402
-263.238	67.034	-0.242	-0.243
-262.224	-184.663	0.136	-0.002
-261.209	92.312	-0.152	0.169
-260.195	66.548	-0.301	0.301
-259.180	-200.000	0.023	0.322
-258.165	800.000	-0.058	0.184
-257.151	-200.000	0.035	0.211
-256.136	557.165	0.166	0.395
-255.122	3.219	-0.139	0.099
-254.107	-44.079	0.115	0.057
-253.092	-171.324	-0.176	-0.006
-252.078	-200.000	-0.005	0.142
-251.063	-200.000	-0.084	0.502
-250.049	9.170	-0.188	-0.140
-249.034	-200.000	0.006	0.175
-248.019	142.184	-0.097	0.127
-247.005	-47.770	-0.163	-0.078
-245.990	-34.613	-0.061	0.033
-244.976	46.831	0.146	0.134
-243.961	-107.485	-0.355	0.077
-242.946	-38.656	0.249	0.130
-241.932	800.000	-0.065	-0.182
-240.917	-36.475	-0.138	0.073
-239.903	800.000	-0.074	0.210
-238.888	241.222	0.062	-0.102
-237.873	-8.170	0.182	-0.121
-236.859	-200.000	0.042	-0.228
-235.844	494.293	-0.073	0.164
-234.830	205.609	-0.077	-0.117
-233.815	411.504	0.126	0.263
-232.800	800.000	-0.105	0.315
-231.786	-53.254	-0.187	0.085
-230.771	55.971	-0.148	-0.141
-229.757	800.000	0.113	-0.437
-228.742	-42.097	-0.357	-0.180
-227.727	800.000	-0.088	-0.249
-226.713	-51.375	-0.070	-0.032
-225.698	335.890	-0.211	-0.402
-224.684	-200.000	0.034	-0.580
-223.669	800.000	0.105	0.381
-222.655	800.000	-0.076	0.244
-221.640	-104.577	0.357	0.081
-220.625	369.586	0.011	-0.023
-219.611	409.698	-0.079	0.166
-218.596	-54.038	0.114	0.051
-217.582	296.742	0.238	-0.430
-216.567	285.017	0.144	-0.256
-215.552	-162.511	0.011	0.001
-214.538	-119.207	0.266	-0.046
-213.523	-123.260	-0.201	0.032
-212.509	-99.092	-0.420	-0.105
-211.494	-114.545	-0.277	0.052
-210.479	604.725	0.089	-0.219
-209.465	77.088	0.044	0.046
-208.450	-200.000	0.334	0.001
-207.436	-9.934	0.137	-0.090
-206.421	-43.547	-0.237	-0.118
-205.406	90.779	0.247	-0.273
-204.392	-10.260	0.115	0.075
-203.377	-45.342	0.117	0.057
-202.363	-24.318	0.149	0.087
-201.348	-200.000	0.016	0.144
-200.333	-200.000	0.001	0.069
-199.319	-91.930	0.331	0.092
-198.304	-197.969	-0.185	-0.001
-197.290	-38.933	-0.195	0.101
-196.275	778.705	-0.069	-0.185
-195.260	-73.359	0.107	0.038
-194.246	289.155	0.175	0.311
-193.231	-200.000	-0.003	0.207
-192.217	169.786	-0.125	0.176
-191.202	107.785	0.188	0.220
-190.187	366.426	-0.151	-0.300
-189.173	366.472	0.072	-0.143
-188.158	-200.000	-0.004	0.295
-187.144	-123.775	0.085	0.013
-186.129	394.190	-0.026	-0.053
-185.114	-21.312	-0.050	-0.030
-184.100	110.242	0.084	-0.099
-183.085	676.572	0.140	-0.357
-182.071	-12.758	-0.246	-0.158
-181.056	-31.809	-0.422	-0.233
-180.042	-189.874	-0.449	0.005
-179.027	-200.000	-0.046	0.230
-178.012	62.081	-0.203	-0.199
-176.998	-69.250	0.363	0.137
-175.983	800.000	0.040	0.114
-174.969	302.901	0.126	0.230
-173.954	-95.950	0.561	-0.147
-172.939	-33.910	-0.201	0.109
-171.925	-200.000	0.030	0.191
-170.910	621.138	-0.120	0.297
-169.896	381.730	0.033	0.066
-168.881	-122.303	0.236	-0.038
-167.866	-82.603	0.069	-0.022
-166.852	-24.115	-0.180	0.105
-165.837	74.608	0.209	-0.216
-164.823	88.063	-0.175	0.191
-163.808	-190.467	-0.093	0.001
-162.793	-175.109	0.160	-0.004
-161.779	-77.516	-0.166	0.056
-160.764	-93.330	-0.493	0.134
-159.750	92.835	0.049	0.054
-158.735	199.591	-0.051	0.076
-157.720	-200.000	0.001	0.165
-156.706	-113.818	-0.299	-0.057
-155.691	-200.000	0.061	0.395
-154.677	325.157	0.058	-0.109
-153.662	-200.000	-0.001	-0.299
-152.647	-200.000	-0.012	-0.285
-151.633	-200.000	0.050	-0.391
-150.618	-60.162	0.367	0.153
-149.604	800.000	-0.019	0.068
-148.589	-39.062	0.027	-0.014
-147.574	-71.315	0.241	0.088
-146.560	-83.020	0.160	0.051
-145.545	-156.051	-0.347	-0.022
-144.531	800.000	0.113	-0.429
-143.516	150.643	-0.032	0.043
-142.502	-88.127	0.219	0.064
-141.487	56.624	0.148	0.141
-140.472	-200.000	0.041	-0.355
-139.458	-200.000	-0.000	0.156
-138.443	-106.044	-0.160	0.035
-137.429	2.081	-0.070	0.049
-136.414	316.995	-0.148	0.274
-135.399	92.631	0.225	-0.249
-134.385	-96.910	-0.371	0.095
-133.370	111.223	0.246	0.291
-132.356	-52.235	-0.183	0.083
-131.341	-122.804	-0.100	-0.016
-130.326	-10.906	0.155	-0.100
-129.312	-18.851	0.092	0.056
-128.297	33.798	-0.173	0.148
-127.283	-160.451	-0.315	0.017
-126.268	-121.678	-0.199	0.032
-125.253	104.044	0.177	-0.204
-124.239	-83.346	0.285	0.090
-123.224	22.611	-0.263	0.211
-122.210	-16.310	0.194	0.121
-121.195	34.609	0.203	-0.174
