DTS Sentinel unit serial number:	SN413079Multiplexer serial number:	ORYXHardware model number:	OX4-SRSoftware version number:	ORYX F/W v4.00 Oryx Data Collector v3.7.2.0data status	okinstallation	princeton_trtdifferential loss correction	single-endedforward channel	channel 2reverse channel	N/Adate	2019/09/18time	13:07:35forward acquisition time	60.00reverse acquisition time	0.00gamma	496.2192k internal	0.2320k external	0.2320temperature offset calibration	0.9996default loss term (dB/km)	0.3790temperature slope calibration	1.0000multiplexer offset coefficient	1.0000multiplexer slope coefficient	1.0000fibre end	0.00T internal ref (°C)	33.70T ext. ref 1 (°C)	0.58T ext. ref 2 (°C)	31.53length (m)	temperature (°C)	Stokes	anti-Stokes-747.200	800.000	-0.008	-0.023
-746.185	-101.823	-0.239	0.059
-745.171	-200.000	0.001	0.255
-744.156	304.681	0.089	-0.167
-743.142	-72.046	-0.061	0.023
-742.127	-200.000	-0.008	0.126
-741.112	-200.000	0.005	0.129
-740.098	-200.000	-0.003	0.026
-739.083	-69.005	-0.158	0.062
-738.069	-200.000	-0.025	0.317
-737.054	-153.773	-0.075	0.005
-736.039	-108.024	-0.406	0.089
-735.025	251.590	0.176	0.303
-734.010	-186.649	-0.103	0.001
-732.996	308.070	-0.138	-0.260
-731.981	-16.264	-0.294	-0.189
-730.966	529.938	0.153	-0.366
-729.952	290.135	-0.085	0.156
-728.937	44.775	-0.244	-0.227
-727.923	151.861	0.168	-0.231
-726.908	-119.478	0.280	0.049
-725.894	-200.000	0.065	-0.293
-724.879	-200.000	0.007	-0.318
-723.864	-34.792	-0.217	-0.120
-722.850	392.006	-0.033	0.068
-721.835	558.927	0.091	-0.222
-720.821	-30.328	0.089	0.051
-719.806	-200.000	-0.016	-0.333
-718.791	-59.995	-0.332	-0.143
-717.777	-7.161	-0.053	-0.036
-716.762	-17.701	0.064	0.040
-715.748	-69.746	0.222	-0.086
-714.733	747.303	-0.019	-0.053
-713.718	97.722	0.219	0.254
-712.704	14.258	0.120	-0.094
-711.689	184.592	0.026	0.038
-710.675	-200.000	-0.005	0.072
-709.660	65.860	-0.053	-0.054
-708.645	168.947	0.077	0.111
-707.631	36.431	-0.327	-0.291
-706.616	281.745	-0.111	-0.201
-705.602	32.192	-0.198	-0.172
-704.587	224.926	-0.090	0.146
-703.572	-200.000	-0.026	0.160
-702.558	-79.425	-0.134	0.046
-701.543	495.424	-0.067	0.156
-700.529	-200.000	0.024	-0.166
-699.514	64.455	-0.227	0.231
-698.499	207.451	0.207	0.326
-697.485	-132.206	-0.334	0.044
-696.470	-106.854	0.072	0.016
-695.456	301.695	0.086	0.160
-694.441	-7.682	0.178	0.122
-693.426	545.834	-0.017	0.042
-692.412	800.000	0.031	-0.107
-691.397	-200.000	-0.008	0.049
-690.383	421.572	-0.089	-0.192
-689.368	-152.249	-0.146	0.011
-688.354	-191.328	-0.349	-0.004
-687.339	13.830	0.126	0.099
-686.324	800.000	-0.043	0.189
-685.310	-200.000	-0.004	-0.232
-684.295	800.000	0.042	-0.140
-683.281	47.736	0.052	0.049
-682.266	800.000	0.034	-0.143
-681.251	70.647	-0.048	0.051
-680.237	800.000	-0.046	-0.143
-679.222	232.354	-0.154	-0.255
-678.208	-41.235	-0.292	0.152
-677.193	-200.000	-0.002	0.069
-676.178	-126.248	0.302	-0.045
-675.164	333.817	-0.214	0.417
-674.149	-172.904	-0.210	-0.007
-673.135	529.737	-0.106	0.252
-672.120	-200.000	-0.025	-0.475
-671.105	254.435	0.143	-0.247
-670.091	368.201	-0.110	-0.224
-669.076	-175.622	-0.235	-0.006
-668.062	485.123	-0.144	-0.330
-667.047	399.065	0.052	0.111
-666.032	-22.081	0.087	-0.053
-665.018	-0.745	0.359	-0.256
-664.003	65.552	0.199	-0.204
-662.989	28.473	-0.064	-0.055
-661.974	65.117	0.053	-0.054
-660.959	169.102	-0.047	-0.067
-659.945	-47.420	-0.210	0.103
-658.930	-83.430	-0.402	-0.130
-657.916	-5.245	-0.056	-0.039
-656.901	-91.370	-0.173	0.050
-655.886	800.000	-0.106	0.307
-654.872	800.000	0.102	0.310
-653.857	-200.000	-0.032	-0.174
-652.843	108.612	-0.167	-0.201
-651.828	-137.394	-0.119	-0.014
-650.814	-200.000	-0.032	0.200
-649.799	-131.798	-0.013	-0.002
-648.784	800.000	0.086	-0.334
-647.770	-200.000	0.016	0.099
-646.755	-66.758	-0.254	-0.101
-645.741	31.225	-0.250	0.216
-644.726	-200.000	0.021	-0.222
-643.711	179.148	0.066	0.098
-642.697	-64.613	0.254	-0.104
-641.682	-153.673	-0.180	-0.013
-640.668	-91.070	-0.217	-0.063
-639.653	800.000	-0.082	-0.273
-638.638	6.570	-0.117	0.088
-637.624	-145.329	0.105	-0.010
-636.609	-127.792	-0.080	-0.012
-635.595	338.605	-0.063	-0.124
-634.580	44.334	0.321	-0.296
-633.565	-25.581	0.186	-0.111
-632.551	450.725	0.088	-0.195
-631.536	-87.270	-0.071	0.022
-630.522	-162.360	0.229	-0.011
-629.507	-83.516	0.151	-0.049
-628.492	350.304	0.097	-0.194
-627.478	330.730	-0.181	-0.350
-626.463	579.871	0.069	-0.170
-625.449	800.000	-0.061	-0.263
-624.434	23.712	0.062	-0.051
-623.419	7.548	-0.134	-0.101
-622.405	-200.000	-0.012	0.087
-621.390	92.676	-0.178	0.202
-620.376	440.945	0.102	-0.224
-619.361	133.986	-0.230	-0.300
-618.346	-200.000	0.081	0.506
-617.332	103.560	-0.099	-0.117
-616.317	-64.671	0.224	0.091
-615.303	-200.000	0.056	0.262
-614.288	-53.498	0.242	-0.112
-613.273	-153.290	0.262	0.018
-612.259	46.938	0.019	-0.018
-611.244	-200.000	0.013	0.281
-610.230	314.735	0.116	-0.219
-609.215	80.695	-0.112	0.121
-608.201	68.608	-0.123	-0.127
-607.186	368.629	-0.062	-0.126
-606.171	138.267	-0.193	0.255
-605.157	-109.610	-0.072	-0.015
-604.142	-95.676	0.293	-0.079
-603.128	-56.629	-0.079	0.035
-602.113	-121.608	-0.410	-0.068
-601.098	-65.565	0.136	0.055
-600.084	-200.000	-0.023	-0.192
-599.069	277.820	0.246	-0.440
-598.055	-45.322	0.037	0.018
-597.040	-139.742	0.229	0.024
-596.025	201.178	-0.050	0.077
-595.011	-46.174	-0.408	-0.202
-593.996	-31.801	-0.139	-0.079
-592.982	539.515	-0.172	-0.411
-591.967	800.000	-0.072	0.239
-590.952	800.000	0.049	0.172
-589.938	-200.000	-0.037	0.211
-588.923	-27.117	-0.157	-0.092
-587.909	-138.196	-0.028	0.003
-586.894	705.795	0.097	0.256
-585.879	-128.022	-0.064	-0.009
-584.865	-136.398	-0.367	0.043
-583.850	338.428	0.103	-0.202
-582.836	-64.872	-0.098	0.040
-581.821	-25.870	0.305	0.180
-580.806	-34.923	-0.117	0.064
-579.792	20.307	0.057	-0.046
-578.777	-88.048	-0.197	0.059
-577.763	426.453	-0.262	0.568
-576.748	276.671	-0.051	0.090
-575.733	-11.914	0.068	0.045
-574.719	73.254	-0.184	-0.193
-573.704	236.533	0.183	-0.303
-572.690	-86.521	-0.154	-0.047
-571.675	111.085	0.228	-0.276
-570.661	-200.000	0.008	-0.190
-569.646	94.245	0.038	-0.043
-568.631	-113.848	0.106	-0.021
-567.617	46.161	-0.195	0.182
-566.602	-117.606	0.066	-0.012
-565.588	-199.377	0.110	0.001
-564.573	546.562	0.064	-0.153
-563.558	-43.847	0.081	-0.041
-562.544	17.464	0.126	0.101
-561.529	-79.247	0.108	0.037
-560.515	-23.781	-0.166	0.100
-559.500	514.251	0.077	-0.180
-558.485	800.000	0.018	0.076
-557.471	-200.000	-0.050	0.310
-556.456	-90.471	0.250	0.073
-555.442	96.915	-0.104	0.119
-554.427	-65.754	0.188	0.076
-553.412	284.305	0.118	0.212
-552.398	800.000	0.064	0.189
-551.383	725.107	0.078	0.209
-550.369	-14.843	0.235	0.151
-549.354	-84.897	0.383	-0.121
-548.339	-78.113	0.302	-0.104
-547.325	-35.928	0.301	0.163
-546.310	103.187	0.080	0.094
-545.296	13.588	-0.239	0.186
-544.281	800.000	-0.125	0.416
-543.266	126.960	0.139	-0.176
-542.252	-163.340	0.080	0.004
-541.237	800.000	0.016	0.072
-540.223	254.414	-0.061	-0.105
-539.208	127.483	0.098	-0.125
-538.193	493.808	-0.064	0.146
-537.179	124.771	-0.097	-0.123
-536.164	800.000	0.022	0.062
-535.150	159.862	0.142	0.199
-534.135	-74.874	-0.071	-0.026
-533.121	-154.336	0.099	-0.007
-532.106	524.129	0.098	-0.230
-531.091	-100.475	0.284	0.071
-530.077	26.458	-0.105	-0.088
-529.062	-71.080	-0.244	0.092
-528.048	-156.804	-0.111	-0.007
-527.033	-61.548	0.114	-0.048
-526.018	720.158	0.083	-0.222
-525.004	332.912	-0.173	-0.336
-523.989	-94.891	-0.414	0.112
-522.975	-200.000	-0.067	-0.330
-521.960	540.026	-0.051	0.121
-520.945	20.127	0.162	0.131
-519.931	89.947	-0.265	0.296
-518.916	262.256	-0.027	-0.047
-517.902	169.572	0.080	0.115
-516.887	-200.000	0.001	-0.218
-515.872	-111.934	-0.243	-0.049
-514.858	800.000	0.071	-0.247
-513.843	29.018	-0.123	-0.105
-512.829	800.000	0.042	0.180
-511.814	41.516	0.203	0.184
-510.799	-200.000	-0.014	0.164
-509.785	183.546	0.189	0.280
-508.770	-80.485	-0.280	-0.094
-507.756	-200.000	0.031	0.261
-506.741	1.856	0.234	-0.169
-505.726	133.082	-0.314	0.406
-504.712	113.767	0.068	-0.082
-503.697	564.749	0.136	-0.330
-502.683	-10.956	-0.193	0.128
-501.668	159.539	0.196	-0.273
-500.653	18.575	-0.176	-0.141
-499.639	-176.025	-0.117	0.003
-498.624	-128.488	0.216	-0.031
-497.610	-200.000	0.036	-0.349
-496.595	163.762	-0.069	-0.097
-495.581	-200.000	-0.014	0.407
-494.566	-200.000	-0.030	0.195
-493.551	781.535	-0.073	-0.200
-492.537	-31.238	0.176	-0.099
-491.522	225.396	-0.135	-0.219
-490.508	-200.000	-0.047	-0.208
-489.493	-200.000	0.040	0.316
-488.478	246.085	-0.060	0.100
-487.464	66.417	-0.091	-0.093
-486.449	-63.828	0.145	-0.059
-485.435	168.643	-0.147	-0.210
-484.420	680.022	-0.103	0.267
-483.405	93.730	0.126	-0.143
-482.391	-200.000	0.039	0.266
-481.376	191.595	-0.095	-0.143
-480.362	67.365	-0.234	-0.239
-479.347	-111.029	-0.195	0.040
-478.332	-180.126	0.176	-0.004
-477.318	89.739	-0.031	-0.035
-476.303	-115.425	-0.128	0.024
-475.289	800.000	0.032	0.105
-474.274	-160.514	0.513	0.027
-473.259	486.067	-0.077	-0.175
-472.245	-53.607	-0.263	0.120
-471.230	-148.891	0.184	0.015
-470.216	-133.195	-0.159	0.020
-469.201	485.520	-0.150	0.341
-468.186	114.580	-0.122	0.148
-467.172	3.956	-0.131	-0.096
-466.157	274.394	-0.125	0.221
-465.143	224.070	-0.099	-0.160
-464.128	-27.697	-0.109	-0.063
-463.113	-167.597	0.090	-0.004
-462.099	-200.000	0.028	0.269
-461.084	67.686	-0.270	-0.276
-460.070	-11.399	0.244	0.161
-459.055	89.583	0.239	-0.266
-458.040	-200.000	0.112	-0.525
-457.026	77.147	-0.067	0.071
-456.011	19.032	0.215	0.172
-454.997	-123.589	-0.120	0.019
-453.982	-200.000	-0.030	0.213
-452.968	-200.000	0.008	-0.170
-451.953	-200.000	0.002	0.114
-450.938	142.145	0.052	-0.069
-449.924	-115.864	0.213	-0.040
-448.909	-167.793	0.173	0.007
-447.895	-18.355	0.073	0.046
-446.880	35.654	-0.139	0.122
-445.865	-94.076	-0.133	-0.037
-444.851	-126.520	0.183	0.027
-443.836	-112.991	-0.350	0.069
-442.822	-15.045	-0.259	-0.166
-441.807	800.000	-0.078	0.220
-440.792	-131.321	-0.159	0.021
-439.778	800.000	0.104	0.306
-438.763	-111.805	0.277	0.056
-437.749	-133.366	-0.170	-0.021
-436.734	444.106	0.162	-0.355
-435.719	-134.077	-0.413	0.051
-434.705	217.902	0.098	-0.155
-433.690	-114.801	0.295	-0.056
-432.676	246.664	-0.194	0.328
-431.661	-103.927	-0.124	-0.029
-430.646	51.965	-0.063	0.060
-429.632	800.000	-0.131	0.407
-428.617	-100.528	0.150	0.037
-427.603	24.747	-0.115	-0.095
-426.588	-64.892	0.131	0.053
-425.573	324.989	0.101	0.192
-424.559	127.877	-0.269	-0.342
-423.544	146.066	0.027	0.037
-422.530	317.036	-0.155	0.292
-421.515	174.792	-0.060	0.086
-420.500	-1.026	-0.165	0.117
-419.486	-119.237	-0.223	0.039
-418.471	-101.696	0.344	0.083
-417.457	-158.368	-0.087	0.005
-416.442	506.722	-0.087	-0.202
-415.428	-27.868	0.376	0.218
-414.413	197.547	-0.138	-0.210
-413.398	-22.462	0.284	-0.172
-412.384	216.775	0.223	0.354
-411.369	10.999	-0.284	0.216
-410.355	-132.591	-0.165	-0.021
-409.340	261.824	0.142	0.245
-408.325	153.468	0.047	-0.064
-407.311	153.658	-0.128	-0.175
-406.296	-28.245	0.307	-0.177
-405.282	-20.088	-0.128	-0.079
-404.267	-11.653	0.153	0.100
-403.252	31.788	0.043	-0.037
-402.238	-200.000	0.001	-0.062
-401.223	-200.000	0.036	0.238
-400.209	-200.000	-0.018	0.284
-399.194	-200.000	-0.238	0.000
-398.179	-200.000	-0.014	-0.187
-397.165	-57.941	0.343	0.149
-396.150	205.787	-0.059	0.091
-395.136	90.118	-0.104	-0.116
-394.121	784.905	-0.066	-0.181
-393.106	27.062	-0.182	-0.152
-392.092	-109.866	0.161	-0.034
-391.077	175.866	-0.072	-0.104
-390.063	-121.268	0.086	0.014
-389.048	-200.000	-0.042	-0.327
-388.033	-68.146	0.374	0.145
-387.019	592.038	0.133	-0.326
-386.004	-200.000	-0.044	-0.380
-384.990	-82.259	-0.148	0.048
-383.975	-200.000	-0.024	0.295
-382.960	-200.000	0.051	-0.323
-381.946	-102.989	0.256	-0.061
-380.931	151.575	-0.130	0.177
-379.917	219.659	-0.073	-0.117
-378.902	186.439	-0.134	0.198
-377.888	-105.140	-0.187	-0.043
-376.873	-168.069	-0.103	0.004
-375.858	-200.000	0.005	-0.034
-374.844	632.055	0.014	-0.035
-373.829	-105.090	0.182	-0.041
-372.815	-85.896	0.162	-0.050
-371.800	174.502	-0.141	-0.203
-370.785	750.057	0.076	-0.205
-369.771	-64.665	0.108	-0.044
-368.756	4.273	-0.357	-0.261
-367.742	70.108	0.324	0.333
-366.727	110.249	-0.148	0.177
-365.712	800.000	0.097	-0.301
-364.698	-104.011	-0.251	0.058
-363.683	-200.000	-0.021	0.115
-362.669	293.868	0.194	-0.353
-361.654	310.382	-0.047	0.089
-360.639	184.916	-0.142	0.210
-359.625	5.632	0.222	0.163
-358.610	-200.000	0.002	-0.176
-357.596	-114.985	-0.322	-0.061
-356.581	-200.000	0.010	-0.108
-355.566	-159.128	-0.214	-0.012
-354.552	-200.000	0.050	0.241
-353.537	-78.051	-0.005	-0.002
-352.523	-6.935	0.211	0.142
-351.508	-41.499	0.150	-0.077
-350.493	69.511	-0.353	0.362
-349.479	-36.444	-0.197	-0.105
-348.464	161.076	0.155	-0.216
-347.450	-111.483	0.290	0.059
-346.435	-200.000	0.035	-0.276
-345.420	800.000	-0.091	0.294
-344.406	-200.000	0.028	-0.241
-343.391	-62.515	0.369	0.152
-342.377	800.000	-0.067	0.258
-341.362	-15.443	0.204	-0.130
-340.348	28.315	0.195	-0.164
-339.333	99.865	-0.066	0.077
-338.318	87.822	-0.048	0.053
-337.304	-67.875	0.307	0.119
-336.289	-55.966	0.525	-0.233
-335.275	37.472	0.165	0.146
-334.260	35.341	0.155	0.135
-333.245	60.984	-0.099	-0.098
-332.231	58.932	-0.107	-0.105
-331.216	-200.000	0.030	-0.237
-330.202	-157.730	0.191	0.011
-329.187	101.491	-0.206	0.239
-328.172	371.681	0.057	-0.116
-327.158	800.000	0.044	0.142
-326.143	-200.000	0.026	0.116
-325.129	82.927	0.181	-0.196
-324.114	213.257	-0.073	0.114
-323.099	71.318	-0.164	0.169
-322.085	-37.587	-0.209	0.111
-321.070	110.535	0.209	-0.249
-320.056	-41.204	-0.305	-0.156
-319.041	62.838	0.080	0.079
-318.026	71.780	-0.212	0.219
-317.012	-200.000	-0.034	-0.163
-315.997	234.176	-0.085	0.140
-314.983	-200.000	0.012	0.291
-313.968	800.000	0.055	0.174
-312.953	-200.000	-0.042	0.220
-311.939	-67.277	-0.305	0.119
-310.924	-137.979	0.327	0.036
-309.910	-55.191	0.183	0.082
-308.895	-200.000	0.000	0.064
-307.880	-30.920	0.419	-0.235
-306.866	800.000	-0.106	-0.416
-305.851	130.056	-0.089	-0.113
-304.837	-59.408	0.146	0.062
-303.822	4.024	0.099	-0.072
-302.807	74.893	0.184	-0.192
-301.793	-38.350	-0.123	-0.065
-300.778	20.113	-0.173	-0.139
-299.764	-200.000	0.023	-0.395
-298.749	-106.530	-0.312	0.069
-297.735	-6.795	-0.268	0.181
-296.720	27.857	-0.118	-0.099
-295.705	153.477	0.065	-0.089
-294.691	-200.000	-0.055	0.254
-293.676	-80.610	0.176	-0.058
-292.662	-200.000	0.009	-0.456
-291.647	800.000	-0.075	-0.241
-290.632	-200.000	-0.029	0.359
-289.618	-67.599	0.076	0.029
-288.603	-200.000	-0.001	-0.521
-287.589	-96.892	-0.384	0.100
-286.574	44.820	0.215	0.197
-285.559	-108.564	-0.061	-0.013
-284.545	309.743	0.068	0.126
-283.530	365.725	-0.078	-0.156
-282.516	437.716	0.120	-0.259
-281.501	-177.283	-0.224	-0.006
-280.486	-113.875	-0.171	0.033
-279.472	79.991	-0.131	0.139
-278.457	773.898	0.047	0.127
-277.443	495.207	0.118	0.270
-276.428	191.691	-0.088	0.132
-275.413	113.389	-0.139	-0.167
-274.399	-64.412	0.110	-0.044
-273.384	-56.414	-0.334	0.147
-272.370	77.128	-0.106	0.112
-271.355	-61.215	0.245	-0.103
-270.340	-200.000	0.046	0.305
-269.326	2.982	-0.088	0.063
-268.311	-186.085	0.172	0.003
-267.297	-200.000	-0.035	0.311
-266.282	-110.375	0.087	-0.018
-265.267	-98.939	0.197	0.050
-264.253	303.598	-0.088	-0.161
-263.238	-131.189	0.449	0.059
-262.224	-200.000	0.015	-0.108
-261.209	-200.000	0.027	-0.250
-260.195	-200.000	0.045	-0.284
-259.180	56.322	0.047	-0.045
-258.165	-52.044	0.227	0.105
-257.151	-54.697	-0.091	-0.041
-256.136	129.467	-0.177	-0.224
-255.122	-3.140	-0.276	0.191
-254.107	-118.735	-0.083	-0.015
-253.092	44.187	-0.110	0.100
-252.078	-142.021	-0.134	-0.013
-251.063	-82.781	-0.095	-0.031
-250.049	-135.422	0.387	-0.046
-249.034	-200.000	0.001	-0.075
-248.019	-118.321	0.042	-0.007
-247.005	643.898	-0.034	0.086
-245.990	267.984	-0.227	0.393
-244.976	-35.027	-0.152	0.082
-243.961	-107.753	-0.098	0.021
-242.946	-101.109	-0.297	-0.072
-241.932	404.649	0.132	-0.275
-240.917	10.633	-0.109	0.082
-239.903	800.000	0.115	-0.372
-238.888	-74.666	-0.085	0.030
-237.873	-200.000	-0.011	-0.050
-236.859	599.821	0.071	0.174
-235.844	-132.748	0.124	-0.016
-234.830	96.159	-0.048	0.055
-233.815	390.355	-0.085	0.174
-232.800	25.420	0.116	-0.096
-231.786	-200.000	-0.029	0.207
-230.771	38.965	0.284	-0.251
-229.757	-46.553	0.313	0.152
-228.742	184.641	0.107	-0.157
-227.727	-200.000	0.018	0.185
-226.713	0.278	-0.340	0.241
-225.698	-95.221	0.120	0.032
-224.684	-72.754	-0.236	-0.086
-223.669	-145.396	-0.173	-0.015
-222.655	-71.964	0.138	-0.051
-221.640	778.788	-0.090	-0.245
-220.625	-39.323	-0.157	0.082
-219.611	-200.000	-0.017	0.277
-218.596	-68.737	-0.098	-0.038
-217.582	800.000	0.053	-0.200
-216.567	164.523	-0.049	-0.068
-215.552	-80.841	-0.183	0.060
-214.538	28.569	-0.076	-0.063
-213.523	800.000	0.060	0.180
-212.509	800.000	0.055	-0.213
-211.494	-200.000	-0.005	-0.272
-210.479	-148.556	0.318	0.026
-209.465	-14.814	0.087	-0.055
-208.450	71.996	-0.172	0.178
-207.436	800.000	0.013	0.048
-206.421	395.151	0.040	-0.083
-205.406	-6.399	-0.171	-0.115
-204.392	-200.000	0.054	-0.290
-203.377	-93.950	-0.335	0.091
-202.363	-161.097	0.402	-0.021
-201.348	108.458	-0.022	0.026
-200.333	121.259	-0.240	-0.296
-199.319	155.954	0.202	-0.276
-198.304	148.095	-0.205	-0.274
-197.290	-200.000	-0.072	0.415
-196.275	-200.000	0.031	-0.163
-195.260	-42.128	-0.130	-0.066
-194.246	800.000	-0.035	0.112
-193.231	-23.216	0.337	0.201
-192.217	-73.261	0.175	-0.063
-191.202	-200.000	0.011	-0.146
-190.187	164.242	-0.022	0.031
-189.173	110.376	0.195	0.231
-188.158	-200.000	0.018	0.241
-187.144	297.864	-0.040	-0.073
-186.129	-134.251	0.149	0.018
-185.114	132.719	-0.157	0.201
-184.100	46.263	-0.148	0.136
-183.085	43.963	-0.117	0.106
-182.071	247.580	0.144	-0.240
-181.056	-1.852	-0.397	0.276
-180.042	183.071	0.094	-0.137
-179.027	-47.741	0.159	0.076
-178.012	-200.000	0.048	0.303
-176.998	800.000	-0.053	0.168
-175.983	-146.299	0.324	0.028
-174.969	-200.000	0.054	0.326
-173.954	124.174	-0.088	-0.109
-172.939	-200.000	-0.009	-0.093
-171.925	346.243	0.023	-0.045
-170.910	294.000	0.093	-0.167
-169.896	351.302	0.155	0.303
-168.881	-89.478	-0.271	-0.079
-167.866	-200.000	0.043	0.296
-166.852	-8.117	0.137	-0.091
-165.837	-200.000	0.017	-0.161
-164.823	800.000	0.100	-0.334
-163.808	70.144	-0.126	-0.128
-162.793	-1.964	0.210	0.146
-161.779	341.935	-0.123	0.237
-160.764	1.207	-0.104	0.074
-159.750	-200.000	0.008	-0.047
-158.735	526.198	0.061	0.142
-157.720	23.219	0.254	0.206
-156.706	-153.749	0.105	-0.007
-155.691	-101.922	-0.255	-0.061
-154.677	334.100	0.074	-0.142
-153.662	108.118	0.082	0.097
-152.647	800.000	-0.106	0.457
-151.633	84.359	-0.194	0.210
-150.618	-79.588	0.404	-0.135
-149.604	21.597	0.047	0.038
-148.589	14.692	-0.056	-0.043
-147.574	-200.000	-0.027	-0.222
-146.560	-200.000	-0.027	-0.151
-145.545	-170.146	-0.322	0.011
-144.531	-200.000	0.003	0.152
-143.516	492.069	-0.033	-0.074
-142.502	203.275	-0.157	-0.240
-141.487	-18.223	0.096	-0.059
-140.472	-110.061	0.363	0.075
-139.458	-54.030	-0.166	0.075
-138.443	-57.821	0.106	0.046
-137.429	-200.000	-0.001	-0.217
-136.414	-160.957	0.358	-0.019
-135.399	-93.916	-0.154	0.042
-134.385	-60.263	0.237	-0.100
-133.370	408.049	-0.158	0.330
-132.356	800.000	0.043	-0.182
-131.341	-3.207	0.168	0.116
-130.326	-200.000	-0.071	0.334
-129.312	520.615	-0.152	-0.351
-128.297	-168.128	0.237	-0.009
-127.283	-57.782	-0.184	-0.079
-126.268	80.837	-0.181	-0.193
-125.253	0.324	-0.092	0.065
-124.239	-27.692	0.064	-0.037
-123.224	142.309	-0.041	-0.054
-122.210	-4.764	0.182	0.124
