DTS Sentinel unit serial number:	SN413079Multiplexer serial number:	ORYXHardware model number:	OX4-SRSoftware version number:	ORYX F/W v4.00 Oryx Data Collector v3.7.2.0data status	okinstallation	princeton_trtdifferential loss correction	single-endedforward channel	channel 2reverse channel	N/Adate	2019/09/12time	16:33:11forward acquisition time	60.00reverse acquisition time	0.00gamma	496.2192k internal	0.2321k external	0.2321temperature offset calibration	1.0113default loss term (dB/km)	0.3790temperature slope calibration	1.0000multiplexer offset coefficient	1.0000multiplexer slope coefficient	1.0000fibre end	0.00T internal ref (°C)	37.12T ext. ref 1 (°C)	2.60T ext. ref 2 (°C)	29.73length (m)	temperature (°C)	Stokes	anti-Stokes-747.200	800.000	-0.076	0.308
-746.185	-133.994	0.169	0.021
-745.171	-57.855	0.410	-0.181
-744.156	363.055	0.190	0.385
-743.142	-121.498	-0.379	-0.064
-742.127	1.859	-0.152	0.111
-741.112	-7.936	-0.216	-0.147
-740.098	407.204	0.112	-0.239
-739.083	576.604	0.046	-0.114
-738.069	37.775	-0.390	0.350
-737.054	-200.000	0.048	0.251
-736.039	-101.863	-0.368	0.090
-735.025	89.065	-0.046	-0.052
-734.010	-200.000	0.000	0.086
-732.996	-62.367	-0.073	0.031
-731.981	186.537	-0.101	0.152
-730.966	-200.000	0.031	-0.159
-729.952	233.737	0.190	-0.315
-728.937	-151.721	-0.290	0.022
-727.923	438.577	-0.041	-0.090
-726.908	-148.846	-0.273	0.022
-725.894	285.789	-0.180	-0.329
-724.879	-200.000	0.000	0.140
-723.864	-54.118	0.414	0.190
-722.850	-200.000	0.001	-0.187
-721.835	-121.802	-0.251	0.042
-720.821	-200.000	0.033	-0.333
-719.806	73.413	0.146	-0.154
-718.791	-200.000	0.022	0.160
-717.777	-38.913	-0.279	-0.148
-716.762	-100.059	0.159	0.040
-715.748	-168.153	-0.411	-0.016
-714.733	8.589	-0.274	0.208
-713.718	119.726	0.041	-0.052
-712.704	177.892	-0.051	-0.075
-711.689	-198.364	0.221	-0.001
-710.675	72.194	-0.080	0.084
-709.660	18.241	0.167	0.134
-708.645	-135.291	-0.239	-0.029
-707.631	18.949	-0.376	0.304
-706.616	-200.000	-0.003	0.409
-705.602	-149.652	0.173	-0.014
-704.587	757.583	-0.094	0.256
-703.572	800.000	-0.081	-0.263
-702.558	-200.000	0.007	-0.146
-701.543	201.686	0.198	-0.308
-700.529	800.000	0.091	-0.329
-699.514	145.563	-0.171	-0.232
-698.499	800.000	-0.079	0.270
-697.485	-166.881	-0.256	-0.011
-696.470	-110.172	-0.272	0.057
-695.456	-200.000	-0.006	0.130
-694.441	4.639	-0.136	0.101
-693.426	-156.650	0.329	-0.021
-692.412	-82.027	-0.334	-0.110
-691.397	134.447	0.015	-0.020
-690.383	-166.216	0.081	0.003
-689.368	-40.997	-0.306	-0.160
-688.354	-138.022	0.315	-0.035
-687.339	-97.738	-0.234	0.061
-686.324	-200.000	0.029	0.214
-685.310	800.000	-0.037	-0.112
-684.295	-70.752	-0.119	0.045
-683.281	135.165	0.159	0.208
-682.266	44.246	-0.144	0.133
-681.251	198.631	-0.152	0.234
-680.237	-20.569	0.149	0.092
-679.222	-200.000	-0.164	-0.000
-678.208	-200.000	0.063	-0.465
-677.193	-152.871	-0.349	-0.025
-676.178	116.298	0.066	0.081
-675.164	800.000	-0.018	0.072
-674.149	-52.399	-0.318	-0.148
-673.135	-107.249	-0.170	0.038
-672.120	363.941	-0.175	0.355
-671.105	-70.857	-0.304	0.115
-670.091	10.075	-0.264	0.202
-669.076	-174.187	-0.236	-0.007
-668.062	13.796	-0.220	-0.172
-667.047	-146.930	-0.070	-0.006
-666.032	-10.100	0.201	-0.134
-665.018	159.392	-0.148	-0.208
-664.003	218.524	0.143	-0.231
-662.989	-31.668	-0.080	0.045
-661.974	800.000	-0.145	-0.408
-660.959	138.675	0.072	-0.095
-659.945	-150.192	-0.349	-0.027
-658.930	172.628	0.122	-0.177
-657.916	800.000	0.079	0.263
-656.901	-137.298	-0.327	0.037
-655.886	-43.289	0.492	-0.251
-654.872	-200.000	-0.006	0.175
-653.857	615.417	-0.118	0.299
-652.843	31.752	0.198	-0.172
-651.828	-50.014	-0.267	0.127
-650.814	69.371	0.182	0.188
-649.799	-200.000	-0.064	-0.345
-648.784	-200.000	-0.030	-0.298
-647.770	-148.338	0.501	-0.041
-646.755	133.536	0.033	0.043
-645.741	-2.751	0.049	-0.035
-644.726	800.000	0.031	0.135
-643.711	107.272	-0.218	-0.261
-642.697	-200.000	0.023	0.232
-641.682	-165.746	-0.286	-0.012
-640.668	238.961	-0.043	-0.072
-639.653	-127.373	-0.408	0.060
-638.638	145.055	-0.100	-0.134
-637.624	-200.000	-0.006	0.166
-636.609	110.372	0.192	-0.232
-635.595	-91.654	0.277	-0.079
-634.580	115.634	-0.122	0.150
-633.565	-131.743	0.077	-0.010
-632.551	-51.639	-0.181	0.085
-631.536	-43.081	0.164	0.084
-630.522	476.914	-0.040	-0.092
-629.507	17.755	-0.343	-0.275
-628.492	800.000	0.062	-0.179
-627.478	-48.545	0.207	0.100
-626.463	-82.994	-0.062	-0.020
-625.449	-42.620	-0.333	0.170
-624.434	-200.000	-0.007	-0.075
-623.419	-161.605	-0.197	0.010
-622.405	326.546	0.027	0.051
-621.390	-36.950	-0.080	-0.043
-620.376	150.248	-0.145	0.198
-619.361	-100.384	-0.311	0.077
-618.346	72.173	-0.148	-0.155
-617.332	254.140	-0.087	-0.149
-616.317	283.605	0.042	0.075
-615.303	180.974	-0.102	0.150
-614.288	-184.755	0.357	-0.006
-613.273	68.465	0.155	-0.160
-612.259	-200.000	0.021	-0.165
-611.244	36.164	0.162	-0.143
-610.230	-158.324	-0.372	-0.022
-609.215	86.067	0.131	-0.145
-608.201	111.483	0.080	-0.097
-607.186	-122.835	-0.044	-0.007
-606.171	-200.000	-0.030	0.257
-605.157	-99.560	0.272	-0.069
-604.142	221.597	0.074	0.120
-603.128	159.546	0.108	0.151
-602.113	181.395	0.137	-0.202
-601.098	-11.900	0.412	0.271
-600.084	-78.513	0.287	0.099
-599.069	-153.988	0.250	0.017
-598.055	-68.276	0.489	0.191
-597.040	-91.829	0.149	-0.042
-596.025	-70.039	-0.445	-0.170
-595.011	-36.552	0.087	0.047
-593.996	430.931	0.047	0.103
-592.982	-171.069	-0.260	-0.009
-591.967	-69.576	-0.239	-0.092
-590.952	-125.994	-0.349	-0.053
-589.938	-143.983	0.381	-0.036
-588.923	800.000	-0.069	-0.209
-587.909	-171.187	-0.124	0.004
-586.894	86.835	0.090	-0.100
-585.879	-141.251	0.148	0.015
-584.865	275.199	-0.157	-0.279
-583.850	-134.717	0.285	0.035
-582.836	-174.704	-0.227	-0.006
-581.821	-99.909	0.181	0.045
-580.806	-200.000	0.066	0.326
-579.792	-200.000	-0.351	-0.001
-578.777	191.061	0.080	0.122
-577.763	112.172	-0.159	0.193
-576.748	-116.013	-0.176	-0.033
-575.733	-43.537	0.108	0.055
-574.719	104.404	-0.187	0.221
-573.704	-166.203	0.261	-0.011
-572.690	800.000	-0.078	0.270
-571.675	385.345	-0.061	-0.126
-570.661	186.034	0.110	-0.165
-569.646	82.468	0.118	0.129
-568.631	-37.194	-0.193	-0.104
-567.617	-200.000	0.023	0.359
-566.602	-85.474	-0.193	-0.060
-565.588	-50.735	0.195	-0.092
-564.573	434.401	0.013	-0.029
-563.558	147.848	-0.156	-0.211
-562.544	800.000	0.080	0.228
-561.529	103.097	0.063	-0.074
-560.515	-74.801	-0.183	-0.066
-559.500	-57.385	0.080	-0.035
-558.485	269.240	0.097	0.171
-557.471	411.110	0.014	0.029
-556.456	-100.758	-0.243	0.060
-555.442	107.343	0.147	0.176
-554.427	-200.000	0.007	0.151
-553.412	-69.102	0.189	-0.073
-552.398	-83.289	-0.413	0.133
-551.383	367.333	-0.189	0.382
-550.369	-14.665	0.185	-0.119
-549.354	-200.000	-0.007	0.052
-548.339	5.262	0.298	-0.220
-547.325	-200.000	-0.012	-0.259
-546.310	-171.379	0.184	-0.006
-545.296	-26.576	-0.142	0.083
-544.281	101.479	0.231	0.269
-543.266	-114.856	-0.132	-0.025
-542.252	-163.000	0.121	-0.006
-541.237	246.135	0.090	-0.153
-540.223	-132.691	-0.153	0.020
-539.208	800.000	-0.060	0.192
-538.193	800.000	-0.106	0.363
-537.179	800.000	0.082	-0.319
-536.164	800.000	-0.044	0.147
-535.150	694.925	-0.103	-0.270
-534.135	77.361	0.242	-0.258
-533.121	-200.000	-0.042	-0.321
-532.106	-66.131	-0.222	-0.089
-531.091	-37.018	-0.208	-0.112
-530.077	182.564	-0.098	0.145
-529.062	-21.884	0.197	-0.120
-528.048	-196.285	-0.100	-0.001
-527.033	533.333	-0.059	0.139
-526.018	-200.000	-0.025	0.190
-525.004	315.360	0.113	-0.213
-523.989	33.958	0.141	-0.123
-522.975	-20.014	-0.108	0.067
-521.960	-188.327	0.254	-0.003
-520.945	-56.000	-0.376	-0.168
-519.931	210.209	0.156	-0.245
-518.916	-25.968	0.277	-0.163
-517.902	10.958	-0.196	0.150
-516.887	121.525	-0.134	-0.167
-515.872	136.237	0.216	0.282
-514.858	73.982	0.084	-0.089
-513.843	-124.103	-0.256	-0.040
-512.829	-184.728	-0.441	-0.007
-511.814	800.000	-0.036	-0.105
-510.799	20.985	0.051	0.041
-509.785	-200.000	0.012	0.308
-508.770	33.285	-0.257	-0.223
-507.756	-7.710	0.086	-0.058
-506.741	29.465	0.054	-0.046
-505.726	-131.515	0.366	-0.048
-504.712	128.665	-0.103	-0.132
-503.697	566.000	0.118	0.285
-502.683	146.932	-0.168	0.226
-501.668	-139.305	0.265	-0.029
-500.653	-88.828	-0.087	0.026
-499.639	-124.321	0.257	0.040
-498.624	-137.440	0.337	0.038
-497.610	796.247	-0.050	0.139
-496.595	71.468	-0.264	0.274
-495.581	-2.774	-0.148	0.104
-494.566	-200.000	0.020	-0.089
-493.551	-166.207	-0.131	0.006
-492.537	-31.635	-0.308	0.173
-491.522	100.328	0.108	0.125
-490.508	8.629	0.254	-0.192
-489.493	104.034	0.209	-0.245
-488.478	-140.061	-0.067	0.007
-487.464	-63.859	-0.234	0.096
-486.449	238.817	-0.131	0.219
-485.435	-84.786	-0.084	-0.027
-484.420	155.969	-0.016	-0.022
-483.405	460.062	-0.100	0.223
-482.391	567.213	0.130	-0.315
-481.376	208.283	0.122	-0.191
-480.362	-178.196	0.147	0.003
-479.347	-6.013	0.217	-0.149
-478.332	286.004	0.080	0.144
-477.318	-157.617	0.285	-0.017
-476.303	800.000	-0.092	0.254
-475.289	349.930	0.171	0.338
-474.274	800.000	-0.064	-0.226
-473.259	124.666	-0.360	0.453
-472.245	-200.000	0.035	-0.233
-471.230	-28.513	-0.326	0.188
-470.216	-58.099	0.106	-0.046
-469.201	359.008	0.096	-0.191
-468.186	-185.410	-0.190	-0.003
-467.172	-200.000	-0.022	-0.174
-466.157	-114.027	0.340	-0.066
-465.143	-80.828	-0.376	0.125
-464.128	159.345	-0.058	-0.081
-463.113	147.940	-0.036	-0.049
-462.099	237.024	-0.092	0.153
-461.084	354.180	-0.179	-0.356
-460.070	150.459	-0.022	0.030
-459.055	-200.000	0.002	-0.049
-458.040	-47.820	-0.229	0.111
-457.026	-81.051	-0.211	0.070
-456.011	112.224	-0.218	0.263
-454.997	-4.407	0.198	-0.137
-453.982	800.000	-0.142	0.429
-452.968	-200.000	-0.012	-0.140
-451.953	-194.166	-0.211	-0.002
-450.938	38.622	0.090	0.080
-449.924	253.667	-0.065	-0.112
-448.909	264.165	-0.055	-0.096
-447.895	77.994	-0.098	-0.105
-446.880	-110.080	0.246	-0.051
-445.865	343.954	0.018	0.036
-444.851	-136.909	-0.169	0.019
-443.836	-107.780	0.058	-0.013
-442.822	-67.798	0.335	0.131
-441.807	-103.699	-0.207	0.049
-440.792	590.459	-0.120	0.295
-439.778	357.343	0.077	0.154
-438.763	417.490	0.052	-0.112
-437.749	306.225	0.292	0.544
-436.734	135.372	-0.046	0.060
-435.719	292.560	-0.243	-0.443
-434.705	30.185	0.278	0.237
-433.690	301.925	-0.066	0.122
-432.676	-200.000	-0.015	-0.141
-431.661	84.032	-0.043	0.046
-430.646	744.186	0.088	0.237
-429.632	-84.851	-0.414	-0.130
-428.617	-6.679	0.125	0.085
-427.603	-62.425	0.366	0.152
-426.588	63.546	-0.214	-0.214
-425.573	407.805	0.054	-0.114
-424.559	-200.000	0.035	0.358
-423.544	-110.898	0.175	0.036
-422.530	12.838	0.287	-0.221
-421.515	-200.000	0.003	-0.319
-420.500	-145.742	0.163	-0.014
-419.486	-26.645	-0.141	0.083
-418.471	22.823	0.197	-0.161
-417.457	-139.880	0.113	-0.012
-416.442	671.524	-0.084	-0.217
-415.428	800.000	0.109	-0.319
-414.413	113.289	-0.206	-0.250
-413.398	118.292	-0.162	-0.199
-412.384	-51.370	-0.194	-0.091
-411.369	420.005	0.035	0.074
-410.355	800.000	-0.053	-0.178
-409.340	-146.694	-0.222	0.019
-408.325	332.566	-0.063	0.122
-407.311	-68.204	-0.297	0.115
-406.296	-76.019	-0.118	0.042
-405.282	-51.461	-0.192	-0.090
-404.267	-77.777	0.220	0.076
-403.252	-200.000	0.005	0.185
-402.238	800.000	-0.081	-0.262
-401.223	800.000	-0.047	0.190
-400.209	-111.196	-0.203	0.041
-399.194	-171.731	0.329	-0.011
-398.179	-89.093	0.130	0.038
-397.165	118.313	-0.039	-0.048
-396.150	545.819	-0.170	-0.406
-395.136	800.000	0.092	-0.278
-394.121	668.533	-0.084	0.216
-393.106	800.000	0.051	-0.222
-392.092	300.995	-0.249	-0.458
-391.077	438.327	0.094	0.205
-390.063	125.170	-0.096	0.120
-389.048	800.000	0.045	0.177
-388.033	198.197	0.116	0.177
-387.019	-200.000	-0.018	0.130
-386.004	-43.093	-0.127	0.064
-384.990	-94.397	-0.099	0.027
-383.975	-31.022	-0.145	0.081
-382.960	78.473	0.132	0.140
-381.946	-111.967	0.395	-0.079
-380.931	325.624	-0.081	-0.154
-379.917	-127.345	0.304	0.044
-378.902	618.888	-0.068	0.170
-377.888	-86.357	-0.099	-0.030
-376.873	-102.993	-0.193	0.046
-375.858	-106.499	0.167	0.037
-374.844	-172.596	-0.083	-0.003
-373.829	-111.645	-0.027	0.006
-372.815	-97.814	-0.310	-0.080
-371.800	713.477	0.110	-0.291
-370.785	-76.265	0.187	-0.066
-369.771	-131.636	-0.346	0.045
-368.756	337.386	0.060	-0.116
-367.742	-19.919	-0.189	-0.116
-366.727	161.085	0.089	0.124
-365.712	-160.793	-0.278	-0.015
-364.698	-24.247	-0.119	-0.071
-363.683	-20.726	-0.258	0.157
-362.669	-90.725	0.175	0.050
-361.654	-94.696	0.201	0.054
-360.639	800.000	0.062	-0.262
-359.625	-41.949	0.323	-0.165
-358.610	-33.249	-0.237	-0.130
-357.596	246.399	0.053	-0.088
-356.581	11.394	-0.075	-0.057
-355.566	800.000	-0.067	0.208
-354.552	208.691	0.175	0.272
-353.537	-88.585	-0.280	0.083
-352.523	-69.127	0.205	-0.078
-351.508	785.621	-0.052	-0.143
-350.493	-80.570	-0.208	-0.069
-349.479	-150.601	-0.303	0.023
-348.464	57.655	-0.323	-0.314
-347.450	800.000	0.069	0.219
-346.435	-38.085	0.254	-0.134
-345.420	-200.000	-0.001	0.110
-344.406	-71.723	0.358	-0.133
-343.391	-88.938	-0.176	-0.052
-342.377	-119.431	-0.229	0.040
-341.362	-74.910	-0.083	0.030
-340.348	800.000	0.094	0.375
-339.333	-87.358	0.213	0.064
-338.318	-44.077	-0.129	0.064
-337.304	105.298	0.083	-0.097
-336.289	70.814	0.201	0.207
-335.275	382.359	-0.096	0.196
-334.260	289.293	0.078	-0.140
-333.245	-117.944	-0.179	-0.032
-332.231	-64.694	0.115	0.046
-331.216	800.000	-0.132	-0.397
-330.202	-86.132	0.326	0.100
-329.187	-59.153	0.196	-0.084
-328.172	369.518	0.047	-0.095
-327.158	-75.150	0.231	-0.082
-326.143	-144.235	0.147	-0.014
-325.129	-157.783	0.066	0.004
-324.114	-24.431	-0.190	-0.113
-323.099	-200.000	-0.057	-0.000
-322.085	631.613	-0.139	-0.350
-321.070	-113.557	0.136	0.026
-320.056	-42.814	0.094	-0.047
-319.041	-107.570	0.289	-0.063
-318.026	800.000	0.102	0.379
-317.012	-43.749	-0.090	0.045
-315.997	-137.856	0.214	0.024
-314.983	-200.000	-0.008	0.189
-313.968	-129.524	-0.164	-0.022
-312.953	800.000	-0.042	-0.182
-311.939	489.269	0.102	-0.232
-310.924	35.495	-0.145	-0.127
-309.910	109.707	-0.049	0.058
-308.895	-106.084	0.151	-0.034
-307.880	53.563	0.159	-0.152
-306.866	98.126	0.027	0.031
-305.851	9.782	-0.268	-0.202
-304.837	70.361	-0.099	-0.102
-303.822	334.982	-0.085	-0.164
-302.807	-82.861	0.148	-0.047
-301.793	-200.000	-0.005	0.431
-300.778	197.197	0.005	0.007
-299.764	-200.000	0.041	-0.240
-298.749	556.253	0.084	0.201
-297.735	-200.000	0.048	0.365
-296.720	345.290	0.079	0.154
-295.705	800.000	-0.074	-0.204
-294.691	-200.000	0.007	0.154
-293.676	248.589	0.141	-0.238
-292.662	-200.000	0.002	0.425
-291.647	192.093	-0.234	0.350
-290.632	800.000	0.025	-0.092
-289.618	206.059	-0.127	0.196
-288.603	444.795	0.037	-0.081
-287.589	-97.115	-0.232	-0.060
-286.574	800.000	-0.071	0.217
-285.559	-129.123	-0.309	0.043
-284.545	153.089	-0.156	0.212
-283.530	-27.678	0.257	-0.148
-282.516	382.643	0.231	0.471
-281.501	103.322	-0.061	0.072
-280.486	80.676	-0.163	-0.174
-279.472	-105.991	-0.219	0.049
-278.457	-92.171	-0.220	0.062
-277.443	174.456	0.284	-0.407
-276.428	-16.087	-0.094	-0.059
-275.413	800.000	0.050	0.143
-274.399	-200.000	-0.059	-0.368
-273.384	50.490	-0.197	-0.185
-272.370	800.000	0.088	-0.303
-271.355	-74.454	-0.231	0.083
-270.340	733.317	-0.018	-0.049
-269.326	500.839	-0.128	0.293
-268.311	451.380	0.063	-0.138
-267.297	-25.137	0.126	0.074
-266.282	703.054	-0.028	0.072
-265.267	739.407	0.046	-0.124
-264.253	-166.259	0.325	-0.014
-263.238	-38.888	0.229	0.120
-262.224	291.763	-0.194	-0.350
-261.209	471.653	0.025	0.056
-260.195	-149.051	0.254	-0.020
-259.180	225.594	0.091	0.147
-258.165	297.308	0.099	0.180
-257.151	486.176	0.022	-0.051
-256.136	800.000	0.103	0.325
-255.122	27.390	0.332	-0.276
-254.107	-135.761	0.179	-0.021
-253.092	-109.211	-0.398	-0.084
-252.078	20.213	0.197	-0.157
-251.063	195.944	0.273	-0.412
-250.049	-200.000	0.035	0.257
-249.034	800.000	0.063	0.193
-248.019	72.085	0.228	0.235
-247.005	-58.603	-0.133	-0.057
-245.990	-58.231	-0.036	-0.016
-244.976	-200.000	0.005	0.051
-243.961	18.049	-0.030	-0.024
-242.946	-45.283	0.244	0.120
-241.932	-11.674	0.071	0.046
-240.917	-10.529	-0.206	0.135
-239.903	-101.813	0.185	-0.044
-238.888	44.450	0.196	0.178
-237.873	32.013	0.099	0.084
-236.859	38.962	0.266	0.236
-235.844	16.219	-0.302	0.236
-234.830	-200.000	-0.005	0.078
-233.815	87.088	0.126	-0.137
-232.800	-200.000	-0.027	0.201
-231.786	-23.503	0.200	0.119
-230.771	5.629	-0.146	0.107
-229.757	227.587	0.036	0.058
-228.742	-90.888	0.126	0.036
-227.727	-200.000	-0.067	-0.350
-226.713	247.236	-0.103	0.172
-225.698	-27.475	0.342	0.197
-224.684	-25.349	0.096	-0.056
-223.669	800.000	-0.025	-0.103
-222.655	800.000	-0.031	0.100
-221.640	-110.939	0.195	-0.040
-220.625	-200.000	0.002	0.253
-219.611	63.880	0.179	-0.178
-218.596	735.295	-0.126	-0.335
-217.582	-200.000	-0.031	-0.159
-216.567	800.000	0.113	0.330
-215.552	-135.211	-0.039	0.005
-214.538	112.317	0.155	0.185
-213.523	441.158	-0.108	-0.235
-212.509	800.000	-0.088	-0.283
-211.494	-64.344	-0.074	0.030
-210.479	412.730	0.096	-0.202
-209.465	236.065	-0.108	-0.176
-208.450	94.061	0.102	0.115
-207.436	14.934	0.084	0.065
-206.421	-84.775	0.183	-0.057
-205.406	151.443	-0.161	-0.217
-204.392	524.725	-0.102	-0.238
-203.377	-200.000	-0.093	-0.446
-202.363	-98.247	-0.248	-0.063
-201.348	-72.104	-0.116	0.043
-200.333	-45.612	0.133	-0.065
-199.319	-200.000	-0.013	-0.481
-198.304	395.717	0.021	0.042
-197.290	-194.430	-0.231	0.002
-196.275	-69.269	0.410	0.156
-195.260	129.778	0.108	0.137
-194.246	38.672	0.191	-0.169
-193.231	342.058	-0.048	-0.092
-192.217	-200.000	-0.001	-0.199
-191.202	-127.247	0.120	-0.017
-190.187	800.000	0.028	-0.088
-189.173	322.946	-0.026	0.049
-188.158	18.801	-0.033	-0.026
-187.144	265.770	-0.208	0.359
-186.129	155.196	-0.235	0.320
-185.114	248.942	0.075	0.126
-184.100	-63.876	0.183	0.074
-183.085	396.709	-0.061	-0.126
-182.071	88.207	0.088	-0.097
-181.056	800.000	0.085	0.333
-180.042	132.286	-0.137	-0.175
-179.027	800.000	0.128	-0.446
-178.012	15.248	0.203	-0.158
-176.998	-137.796	-0.137	0.015
-175.983	413.920	0.028	-0.058
-174.969	163.372	-0.205	-0.284
-173.954	800.000	0.099	0.306
-172.939	800.000	0.069	0.271
-171.925	-200.000	0.030	-0.149
-170.910	97.741	-0.094	0.107
-169.896	85.671	-0.225	0.245
-168.881	115.451	0.028	0.034
-167.866	-200.000	0.007	0.106
-166.852	66.780	0.086	-0.087
-165.837	78.378	-0.108	-0.114
-164.823	101.838	-0.081	-0.094
-163.808	-91.249	0.138	0.039
-162.793	-90.129	-0.084	0.024
-161.779	-200.000	-0.016	0.132
-160.764	-144.160	-0.274	-0.025
-159.750	48.618	0.330	0.305
-158.735	-159.258	0.351	0.019
-157.720	-200.000	0.047	-0.248
-156.706	-200.000	-0.011	-0.138
-155.691	-15.030	-0.333	0.211
-154.677	-200.000	-0.227	0.001
-153.662	-200.000	0.053	0.242
-152.647	800.000	-0.104	0.416
-151.633	-143.392	-0.013	0.001
-150.618	-122.317	0.188	-0.030
-149.604	-200.000	-0.020	-0.170
-148.589	-200.000	-0.052	0.404
-147.574	-30.357	0.249	0.139
-146.560	703.628	-0.003	-0.008
-145.545	800.000	0.111	-0.406
-144.531	800.000	0.085	-0.275
-143.516	-128.992	-0.124	0.017
-142.502	473.604	0.050	0.112
-141.487	248.803	0.072	0.121
-140.472	120.291	0.072	0.089
-139.458	-101.023	0.373	0.090
-138.443	-153.641	0.129	0.009
-137.429	-132.142	0.242	0.031
-136.414	-74.095	0.118	0.042
-135.399	137.602	-0.344	-0.444
-134.385	-42.130	0.248	-0.125
-133.370	173.687	-0.230	-0.328
-132.356	-200.000	-0.045	-0.203
-131.341	214.459	0.068	0.106
-130.326	-100.408	-0.165	0.040
-129.312	-52.835	-0.262	-0.119
-128.297	-26.400	0.306	0.177
-127.283	-200.000	0.006	0.080
-126.268	-110.174	0.247	0.051
-125.253	135.067	0.147	0.189
-124.239	-200.000	-0.013	0.212
-123.224	521.001	-0.021	0.049
-122.210	-163.015	-0.448	0.021
