DTS Sentinel unit serial number:	SN413079Multiplexer serial number:	ORYXHardware model number:	OX4-SRSoftware version number:	ORYX F/W v4.00 Oryx Data Collector v3.7.2.0data status	okinstallation	princeton_trtdifferential loss correction	single-endedforward channel	channel 2reverse channel	N/Adate	2019/09/14time	15:47:35forward acquisition time	60.00reverse acquisition time	0.00gamma	496.2192k internal	0.2305k external	0.2305temperature offset calibration	1.0141default loss term (dB/km)	0.3790temperature slope calibration	1.0000multiplexer offset coefficient	1.0000multiplexer slope coefficient	1.0000fibre end	0.00T internal ref (°C)	38.75T ext. ref 1 (°C)	5.12T ext. ref 2 (°C)	34.18length (m)	temperature (°C)	Stokes	anti-Stokes-747.200	-118.849	-0.353	-0.063
-746.185	45.384	0.156	0.146
-745.171	24.557	0.191	-0.161
-744.156	227.122	0.194	0.321
-743.142	800.000	-0.127	0.378
-742.127	-76.663	-0.407	0.145
-741.112	800.000	-0.082	0.283
-740.098	276.124	0.110	0.199
-739.083	-127.125	-0.166	0.025
-738.069	-200.000	0.058	0.398
-737.054	264.820	-0.161	-0.286
-736.039	-1.270	-0.115	0.083
-735.025	800.000	-0.052	0.155
-734.010	-109.648	0.153	-0.033
-732.996	-103.340	-0.220	-0.053
-731.981	174.883	-0.100	0.147
-730.966	31.959	-0.296	0.260
-729.952	-80.553	-0.034	-0.012
-728.937	800.000	0.029	0.114
-727.923	-35.308	-0.188	0.104
-726.908	-61.683	-0.160	0.068
-725.894	800.000	-0.059	-0.178
-724.879	-120.951	-0.434	-0.074
-723.864	-200.000	0.011	-0.194
-722.850	-161.051	-0.262	-0.014
-721.835	-119.389	0.062	0.011
-720.821	-140.591	-0.466	0.049
-719.806	-120.358	0.223	-0.039
-718.791	-90.172	-0.160	-0.047
-717.777	-101.361	0.230	-0.057
-716.762	-181.643	0.115	-0.002
-715.748	9.243	-0.187	0.144
-714.733	8.362	0.026	-0.020
-713.718	-200.000	-0.044	-0.412
-712.704	669.141	-0.135	0.355
-711.689	64.337	0.172	-0.176
-710.675	-200.000	0.010	-0.314
-709.660	800.000	0.023	-0.088
-708.645	-149.094	0.200	-0.016
-707.631	-67.111	0.122	0.049
-706.616	-200.000	0.002	0.052
-705.602	170.583	-0.089	0.130
-704.587	-200.000	0.010	-0.091
-703.572	-200.000	0.011	0.313
-702.558	259.342	-0.187	0.328
-701.543	-22.250	-0.074	0.046
-700.529	-67.495	0.085	-0.034
-699.514	-189.192	-0.020	-0.000
-698.499	-200.000	-0.009	0.178
-697.485	106.079	-0.024	0.029
-696.470	-6.764	0.079	-0.054
-695.456	-200.000	0.006	0.391
-694.441	-200.000	-0.038	-0.295
-693.426	27.601	-0.096	-0.082
-692.412	-200.000	-0.014	-0.081
-691.397	-200.000	0.028	-0.139
-690.383	55.351	-0.212	-0.209
-689.368	-200.000	-0.023	-0.290
-688.354	-142.916	-0.195	-0.019
-687.339	-186.583	0.253	-0.004
-686.324	-161.399	0.188	0.010
-685.310	-10.157	-0.216	0.146
-684.295	-15.673	0.203	0.131
-683.281	-60.246	-0.091	0.039
-682.266	-200.000	-0.049	-0.310
-681.251	183.622	-0.061	-0.091
-680.237	-150.287	0.031	-0.002
-679.222	-139.070	0.219	-0.024
-678.208	264.877	0.070	0.124
-677.193	-58.937	-0.120	-0.052
-676.178	800.000	0.047	0.145
-675.164	-11.980	0.032	0.021
-674.149	183.972	0.111	0.167
-673.135	-44.785	0.294	-0.149
-672.120	353.836	-0.054	0.108
-671.105	67.141	-0.117	0.121
-670.091	-40.811	-0.231	-0.122
-669.076	-103.122	-0.147	0.035
-668.062	800.000	-0.092	0.395
-667.047	87.537	0.123	0.138
-666.032	-138.514	0.265	-0.030
-665.018	291.838	-0.119	0.221
-664.003	-200.000	-0.040	0.187
-662.989	-57.033	0.465	0.208
-661.974	-200.000	-0.010	-0.130
-660.959	-63.406	-0.367	0.153
-659.945	-129.100	-0.218	0.031
-658.930	-122.252	0.035	-0.006
-657.916	553.231	-0.044	0.108
-656.901	3.100	-0.070	0.052
-655.886	280.554	-0.253	-0.458
-654.872	-62.251	0.048	0.020
-653.857	489.143	0.010	-0.023
-652.843	-125.161	-0.196	0.030
-651.828	-53.904	0.082	0.038
-650.814	-124.661	-0.287	0.045
-649.799	-200.000	0.009	-0.058
-648.784	235.097	-0.080	-0.134
-647.770	-68.998	0.074	0.029
-646.755	800.000	-0.109	0.389
-645.741	-75.249	-0.365	0.132
-644.726	-60.132	-0.179	-0.077
-643.711	95.852	0.246	0.285
-642.697	-200.000	0.011	0.109
-641.682	338.954	-0.028	-0.055
-640.668	-56.939	0.157	-0.070
-639.653	-167.616	0.227	0.009
-638.638	759.994	-0.034	0.093
-637.624	429.992	-0.037	0.082
-636.609	-102.338	0.280	0.068
-635.595	-91.124	-0.271	-0.079
-634.580	141.802	0.204	-0.274
-633.565	117.884	0.127	0.158
-632.551	-200.000	-0.019	-0.180
-631.536	14.852	-0.201	-0.159
-630.522	153.430	-0.096	-0.133
-629.507	510.413	-0.108	0.254
-628.492	162.893	0.166	0.236
-627.478	-200.000	0.051	0.442
-626.463	155.143	0.041	-0.057
-625.449	-200.000	0.038	0.323
-624.434	26.600	-0.254	-0.215
-623.419	-39.153	0.154	-0.082
-622.405	475.082	-0.104	-0.238
-621.390	13.225	-0.184	-0.145
-620.376	139.283	0.067	0.090
-619.361	-38.869	0.133	-0.071
-618.346	-117.645	0.255	0.047
-617.332	-200.000	-0.010	0.052
-616.317	800.000	0.114	0.503
-615.303	-90.164	-0.218	-0.064
-614.288	-145.318	0.215	-0.020
-613.273	31.397	-0.098	0.086
-612.259	79.633	-0.266	0.289
-611.244	138.273	0.039	0.051
-610.230	602.083	0.017	0.043
-609.215	-200.000	-0.022	0.305
-608.201	-200.000	-0.060	-0.382
-607.186	800.000	-0.060	0.187
-606.171	280.361	-0.096	0.173
-605.157	-77.987	0.114	-0.040
-604.142	153.767	-0.270	0.374
-603.128	-46.880	-0.284	-0.141
-602.113	-200.000	0.020	0.167
-601.098	226.516	0.138	-0.227
-600.084	538.752	0.061	-0.147
-599.069	-18.650	0.068	0.043
-598.055	84.075	-0.150	-0.165
-597.040	-61.575	-0.254	-0.108
-596.025	320.105	0.044	-0.084
-595.011	-200.000	0.003	-0.043
-593.996	172.499	0.158	0.230
-592.982	-95.810	0.317	-0.086
-591.967	607.044	-0.075	0.190
-590.952	-137.236	-0.087	0.010
-589.938	197.471	-0.115	-0.177
-588.923	-89.559	-0.394	0.117
-587.909	-49.806	-0.302	-0.145
-586.894	130.417	0.128	0.166
-585.879	434.649	0.051	0.112
-584.865	800.000	-0.050	0.173
-583.850	105.001	-0.076	-0.090
-582.836	-130.316	0.215	-0.030
-581.821	-42.843	-0.238	0.122
-580.806	800.000	-0.110	0.350
-579.792	-60.922	-0.234	0.100
-578.777	-8.860	-0.066	-0.045
-577.763	240.697	-0.140	0.236
-576.748	-200.000	0.012	-0.081
-575.733	-78.392	0.170	-0.059
-574.719	63.297	0.093	0.095
-573.704	470.355	-0.125	0.284
-572.690	-18.354	0.130	-0.082
-571.675	64.774	-0.136	-0.139
-570.661	-91.376	-0.247	-0.072
-569.646	-82.902	-0.120	0.039
-568.631	82.092	-0.075	0.083
-567.617	54.276	-0.092	0.090
-566.602	-160.898	-0.099	0.005
-565.588	-2.513	-0.294	-0.208
-564.573	-200.000	-0.034	-0.211
-563.558	-200.000	-0.045	-0.236
-562.544	-11.351	0.208	-0.138
-561.529	-45.846	0.184	0.092
-560.515	-200.000	-0.091	-0.424
-559.500	-29.217	-0.141	0.082
-558.485	800.000	0.043	-0.164
-557.471	-183.079	0.218	0.004
-556.456	-200.000	0.063	-0.312
-555.442	-80.424	-0.363	-0.122
-554.427	-200.000	-0.004	0.024
-553.412	800.000	-0.021	-0.063
-552.398	-46.336	-0.073	-0.036
-551.383	800.000	-0.100	-0.278
-550.369	-114.116	-0.367	0.072
-549.354	244.852	-0.101	0.172
-548.339	-100.536	-0.038	0.010
-547.325	-24.136	0.043	0.026
-546.310	75.634	0.055	0.058
-545.296	-200.000	-0.002	-0.254
-544.281	-13.821	-0.226	-0.148
-543.266	144.967	0.160	0.217
-542.252	-155.476	0.213	0.014
-541.237	346.267	-0.155	-0.307
-540.223	333.384	0.107	0.209
-539.208	-110.905	-0.122	-0.025
-538.193	-58.833	0.272	-0.119
-537.179	184.155	0.226	-0.338
-536.164	-200.000	0.029	0.128
-535.150	-200.000	0.023	0.183
-534.135	118.182	0.080	0.100
-533.121	82.248	0.167	-0.182
-532.106	800.000	-0.022	-0.080
-531.091	-122.954	0.120	-0.020
-530.077	-89.398	0.005	0.002
-529.062	514.361	0.072	0.170
-528.048	620.815	0.148	-0.376
-527.033	200.684	-0.111	0.172
-526.018	-128.757	-0.369	-0.053
-525.004	-115.449	0.249	-0.047
-523.989	800.000	-0.079	-0.226
-522.975	-200.000	0.042	-0.332
-521.960	-49.809	0.258	0.123
-520.945	254.835	0.045	-0.077
-519.931	230.097	0.066	0.108
-518.916	129.404	-0.021	-0.028
-517.902	800.000	0.079	0.277
-516.887	-200.000	0.034	-0.154
-515.872	-86.034	-0.167	0.052
-514.858	147.644	0.055	0.075
-513.843	800.000	0.053	-0.233
-512.829	-49.635	-0.321	0.154
-511.814	-123.363	0.548	0.088
-510.799	123.335	-0.060	-0.076
-509.785	-200.000	-0.050	0.277
-508.770	105.625	-0.189	0.225
-507.756	-43.144	-0.246	0.126
-506.741	-153.241	-0.079	-0.006
-505.726	800.000	0.050	-0.187
-504.712	375.530	-0.146	-0.301
-503.697	75.363	-0.256	-0.272
-502.683	286.866	-0.127	0.231
-501.668	609.963	-0.040	0.102
-500.653	334.844	-0.106	-0.208
-499.639	89.816	0.117	-0.132
-498.624	18.950	0.264	-0.213
-497.610	-139.928	-0.414	0.044
-496.595	-115.408	0.345	0.066
-495.581	-30.497	-0.265	-0.151
-494.566	-126.274	0.231	0.035
-493.551	800.000	0.059	-0.260
-492.537	-166.694	-0.037	0.002
-491.522	-87.396	0.308	0.094
-490.508	-142.801	-0.226	-0.022
-489.493	107.302	0.176	-0.211
-488.478	-19.074	-0.103	0.065
-487.464	-200.000	0.049	0.352
-486.449	408.729	0.116	-0.247
-485.435	-200.000	-0.049	0.368
-484.420	49.194	0.049	0.047
-483.405	541.290	-0.062	-0.148
-482.391	37.302	0.143	-0.128
-481.376	-200.000	-0.011	-0.302
-480.362	53.426	-0.063	-0.061
-479.347	-111.326	-0.191	-0.039
-478.332	-30.979	0.303	0.172
-477.318	40.676	-0.243	-0.221
-476.303	-91.361	0.436	-0.126
-475.289	90.146	0.071	0.080
-474.274	800.000	0.061	-0.179
-473.259	74.335	0.198	0.209
-472.245	-82.953	-0.123	-0.040
-471.230	-33.638	0.145	-0.081
-470.216	126.114	-0.129	0.164
-469.201	-99.472	-0.267	0.068
-468.186	-102.684	0.460	-0.111
-467.172	-24.060	0.040	0.024
-466.157	-74.606	-0.092	0.033
-465.143	-0.410	0.380	-0.272
-464.128	-81.353	0.174	-0.058
-463.113	-200.000	0.027	0.468
-462.099	-200.000	-0.017	0.143
-461.084	43.734	0.121	0.112
-460.070	-200.000	0.010	0.048
-459.055	6.202	0.052	-0.039
-458.040	-81.685	-0.332	-0.110
-457.026	77.395	-0.060	0.064
-456.011	-200.000	0.035	0.197
-454.997	-34.236	0.270	0.149
-453.982	-200.000	-0.007	-0.045
-452.968	184.009	0.138	0.205
-451.953	-114.709	0.148	-0.028
-450.938	-167.701	-0.125	0.005
-449.924	16.728	-0.341	0.271
-448.909	-15.336	0.097	0.063
-447.895	604.785	0.130	-0.327
-446.880	-43.009	0.268	-0.137
-445.865	-52.416	-0.235	0.110
-444.851	-109.308	-0.273	-0.058
-443.836	-80.680	0.149	-0.050
-442.822	-67.395	0.159	-0.063
-441.807	-170.388	-0.351	0.012
-440.792	800.000	0.037	-0.133
-439.778	-22.110	0.256	-0.156
-438.763	37.811	-0.051	-0.046
-437.749	37.775	-0.214	0.191
-436.734	53.861	-0.157	-0.152
-435.719	-93.527	-0.256	-0.071
-434.705	-200.000	0.022	-0.218
-433.690	16.544	-0.203	0.161
-432.676	-93.808	0.363	-0.101
-431.661	-116.223	0.060	0.011
-430.646	-111.651	0.285	-0.058
-429.632	69.672	0.223	0.231
-428.617	-59.444	-0.210	-0.091
-427.603	-54.704	0.202	0.092
-426.588	93.622	0.060	-0.069
-425.573	98.223	0.138	-0.160
-424.559	800.000	-0.011	0.046
-423.544	-127.985	0.280	-0.040
-422.530	243.980	-0.370	-0.624
-421.515	-200.000	0.028	-0.435
-420.500	-115.400	-0.183	-0.035
-419.486	-25.829	-0.361	0.214
-418.471	173.707	0.089	-0.130
-417.457	-200.000	-0.026	-0.228
-416.442	-200.000	-0.025	0.167
-415.428	-200.000	-0.075	0.333
-414.413	-200.000	-0.017	0.193
-413.398	-200.000	0.016	-0.115
-412.384	-160.646	-0.360	0.019
-411.369	57.523	0.116	-0.114
-410.355	-111.459	0.210	0.043
-409.340	82.027	0.179	0.195
-408.325	-96.947	-0.038	0.010
-407.311	-111.736	-0.168	0.034
-406.296	142.675	-0.113	0.151
-405.282	-123.960	-0.146	-0.023
-404.267	-81.026	-0.126	0.042
-403.252	-11.725	-0.140	-0.092
-402.238	21.812	0.275	0.225
-401.223	-9.303	-0.212	-0.142
-400.209	147.497	0.030	-0.041
-399.194	-153.134	0.194	0.014
-398.179	418.495	0.136	-0.292
-397.165	-105.997	-0.111	-0.025
-396.150	-134.881	0.328	-0.040
-395.136	800.000	-0.049	-0.182
-394.121	-200.000	-0.025	0.240
-393.106	-127.344	-0.070	-0.010
-392.092	-101.630	-0.108	0.026
-391.077	115.495	0.099	-0.122
-390.063	-50.556	0.280	-0.132
-389.048	-45.702	-0.131	0.065
-388.033	71.529	-0.219	0.228
-387.019	548.911	0.075	0.181
-386.004	-104.897	-0.179	-0.041
-384.990	353.992	-0.103	-0.205
-383.975	752.528	-0.055	0.148
-382.960	-200.000	-0.003	-0.269
-381.946	-137.605	0.167	-0.019
-380.931	-135.222	-0.081	-0.010
-379.917	90.756	0.060	0.068
-378.902	263.889	-0.061	-0.107
-377.888	18.740	0.078	0.063
-376.873	-170.109	-0.280	0.010
-375.858	37.753	-0.465	0.414
-374.844	-159.096	0.004	-0.000
-373.829	438.491	-0.028	-0.062
-372.815	6.164	0.051	-0.038
-371.800	-39.997	0.129	-0.068
-370.785	241.807	-0.109	-0.182
-369.771	170.177	-0.080	0.114
-368.756	-200.000	0.062	0.346
-367.742	-11.359	-0.242	0.160
-366.727	138.333	0.227	-0.299
-365.712	-2.919	-0.204	-0.143
-364.698	-121.499	-0.368	0.061
-363.683	13.720	-0.225	0.176
-362.669	-101.023	0.437	0.108
-361.654	-14.467	0.178	0.115
-360.639	40.114	0.428	-0.386
-359.625	247.358	0.107	0.181
-358.610	800.000	-0.107	0.447
-357.596	-173.936	-0.049	0.001
-356.581	-6.792	0.296	-0.202
-355.566	-200.000	0.018	0.142
-354.552	151.705	0.235	0.321
-353.537	800.000	-0.054	0.203
-352.523	-102.639	-0.377	-0.090
-351.508	-2.567	-0.095	-0.067
-350.493	-200.000	0.015	0.248
-349.479	103.019	-0.171	-0.201
-348.464	-200.000	0.079	0.440
-347.450	800.000	0.028	0.124
-346.435	160.355	-0.059	-0.082
-345.420	-93.279	-0.251	-0.070
-344.406	325.253	-0.061	-0.117
-343.391	41.386	-0.198	-0.179
-342.377	23.855	-0.232	-0.192
-341.362	-185.751	0.194	0.003
-340.348	-101.501	-0.260	-0.063
-339.333	-12.155	0.237	0.155
-338.318	693.579	-0.094	0.247
-337.304	800.000	0.133	0.375
-336.289	-34.644	0.172	0.094
-335.275	-12.705	0.105	0.069
-334.260	-71.767	0.357	0.133
-333.245	99.899	0.256	-0.297
-332.231	-36.283	-0.042	0.023
-331.216	24.528	0.133	0.110
-330.202	-200.000	0.053	-0.410
-329.187	-20.404	-0.200	-0.123
-328.172	-200.000	0.041	-0.196
-327.158	312.177	0.041	0.077
-326.143	-124.925	-0.158	-0.024
-325.129	-37.951	0.084	0.045
-324.114	-200.000	0.011	-0.290
-323.099	-105.661	0.212	0.048
-322.085	-200.000	-0.004	0.079
-321.070	59.336	0.170	-0.168
-320.056	-162.948	0.105	0.005
-319.041	144.167	-0.098	-0.131
-318.026	800.000	-0.010	-0.034
-317.012	-15.135	0.091	-0.058
-315.997	-135.822	0.217	0.026
-314.983	-19.366	-0.434	-0.269
-313.968	201.262	0.162	0.250
-312.953	-8.963	-0.108	0.072
-311.939	255.594	-0.118	0.202
-310.924	31.299	-0.086	0.074
-309.910	73.557	-0.199	-0.209
-308.895	800.000	0.032	0.111
-307.880	172.389	-0.118	0.171
-306.866	103.532	0.063	-0.074
-305.851	593.717	-0.106	-0.263
-304.837	-35.558	-0.316	0.171
-303.822	360.445	-0.144	0.289
-302.807	339.044	-0.101	-0.197
-301.793	-69.314	0.015	-0.006
-300.778	40.680	-0.402	0.363
-299.764	-76.205	0.150	0.053
-298.749	-48.740	-0.051	0.025
-297.735	244.499	0.043	-0.072
-296.720	-2.941	0.125	-0.088
-295.705	268.628	-0.179	-0.313
-294.691	-119.851	0.122	0.021
-293.676	-111.040	0.156	0.032
-292.662	-200.000	0.025	-0.120
-291.647	800.000	0.021	0.072
-290.632	6.009	-0.176	-0.130
-289.618	24.478	-0.149	-0.123
-288.603	22.231	0.140	-0.114
-287.589	54.217	0.148	0.142
-286.574	-200.000	-0.044	0.305
-285.559	-200.000	-0.024	0.179
-284.545	-200.000	0.053	-0.357
-283.530	152.168	0.095	0.130
-282.516	264.261	-0.091	-0.158
-281.501	-59.407	0.235	0.101
-280.486	159.648	0.016	0.022
-279.472	800.000	-0.044	0.127
-278.457	-110.364	0.376	-0.078
-277.443	309.778	-0.032	-0.060
-276.428	-76.320	-0.222	-0.078
-275.413	-5.478	-0.217	-0.149
-274.399	375.348	0.015	0.030
-273.384	242.031	0.043	-0.073
-272.370	136.144	-0.134	0.174
-271.355	800.000	-0.032	-0.099
-270.340	-82.159	-0.322	0.105
-269.326	-123.799	0.309	0.049
-268.311	-200.000	0.026	0.123
-267.297	-34.068	-0.253	-0.139
-266.282	-4.098	-0.311	-0.215
-265.267	-75.059	-0.182	0.065
-264.253	-42.219	0.209	-0.107
-263.238	-53.246	-0.003	-0.001
-262.224	-200.000	-0.004	-0.081
-261.209	-200.000	-0.034	-0.287
-260.195	122.184	-0.070	-0.088
-259.180	-80.581	-0.149	0.050
-258.165	-27.470	0.346	-0.201
-257.151	-136.448	-0.246	-0.029
-256.136	-200.000	-0.016	-0.082
-255.122	111.875	0.025	0.030
-254.107	-200.000	-0.020	-0.248
-253.092	-18.182	-0.056	0.035
-252.078	28.864	0.170	0.144
-251.063	6.034	0.276	-0.204
-250.049	305.643	0.215	-0.400
-249.034	-48.444	-0.382	0.184
-248.019	-98.939	0.019	0.005
-247.005	176.565	0.050	-0.072
-245.990	757.801	0.057	-0.154
-244.976	-138.235	0.168	0.019
-243.961	715.948	-0.068	-0.181
-242.946	523.890	-0.036	0.085
-241.932	-200.000	-0.041	0.350
-240.917	58.095	0.082	-0.080
-239.903	54.455	0.142	-0.136
-238.888	756.566	-0.044	0.120
-237.873	-42.072	0.419	0.214
-236.859	-98.287	0.145	-0.037
-235.844	165.876	0.163	-0.230
-234.830	800.000	-0.005	-0.020
-233.815	222.638	0.133	-0.213
-232.800	-172.268	0.340	0.011
-231.786	180.813	-0.065	-0.095
-230.771	-200.000	0.049	-0.231
-229.757	-200.000	0.011	0.088
-228.742	-134.821	0.116	0.014
-227.727	492.473	-0.072	0.165
-226.713	-58.032	-0.099	0.043
-225.698	800.000	-0.074	0.238
-224.684	-138.873	-0.143	-0.016
-223.669	-200.000	0.023	0.232
-222.655	-200.000	0.101	0.476
-221.640	-120.169	-0.377	-0.064
-220.625	800.000	-0.048	-0.188
-219.611	-157.731	0.219	0.013
-218.596	150.349	-0.125	0.169
-217.582	-25.899	0.301	0.177
-216.567	-32.636	0.366	0.203
-215.552	-200.000	-0.005	-0.227
-214.538	18.040	-0.054	0.043
-213.523	18.125	0.152	-0.121
-212.509	123.207	-0.079	0.099
-211.494	-144.554	-0.189	-0.017
-210.479	-200.000	-0.053	-0.232
-209.465	72.582	0.076	-0.079
-208.450	26.535	0.262	-0.219
-207.436	39.470	0.206	-0.184
-206.421	-102.826	-0.172	0.041
-205.406	800.000	0.027	0.109
-204.392	-200.000	-0.004	-0.184
-203.377	-35.822	0.384	-0.207
-202.363	125.815	-0.068	-0.086
-201.348	122.122	-0.163	-0.203
-200.333	11.640	-0.100	-0.077
-199.319	344.559	-0.024	0.048
-198.304	250.686	0.165	0.279
-197.290	-80.601	0.258	-0.086
-196.275	148.799	0.234	0.316
-195.260	-45.520	-0.190	0.094
-194.246	-200.000	0.030	0.280
-193.231	-43.886	-0.220	-0.110
-192.217	139.569	0.023	-0.030
-191.202	265.961	0.098	-0.170
-190.187	-69.759	0.242	-0.092
-189.173	800.000	0.102	0.314
-188.158	-200.000	0.081	-0.385
-187.144	16.505	0.200	0.157
-186.129	800.000	0.025	-0.081
-185.114	800.000	0.029	0.122
-184.100	327.728	-0.114	0.218
-183.085	-200.000	-0.019	0.310
-182.071	3.893	-0.117	0.085
-181.056	-192.048	-0.119	0.001
-180.042	-200.000	-0.019	0.356
-179.027	800.000	-0.082	-0.301
-178.012	79.745	-0.177	-0.189
-176.998	800.000	-0.103	0.393
-175.983	-120.061	0.245	0.042
-174.969	-143.434	-0.317	-0.030
-173.954	88.431	0.343	0.379
-172.939	-200.000	0.031	0.141
-171.925	-200.000	-0.030	-0.229
-170.910	-123.656	0.203	0.032
-169.896	153.474	-0.165	0.225
-168.881	-200.000	0.009	0.172
-167.866	214.863	0.183	-0.289
-166.852	-92.116	-0.205	-0.058
-165.837	-69.782	0.322	0.122
-164.823	-178.705	-0.141	0.003
-163.808	210.031	0.059	0.092
-162.793	-200.000	-0.062	-0.474
-161.779	-200.000	-0.008	-0.161
-160.764	438.837	-0.051	0.110
-159.750	-62.519	-0.087	-0.036
-158.735	-55.298	-0.207	-0.093
-157.720	-200.000	0.026	0.464
-156.706	-5.194	0.156	0.107
-155.691	163.551	0.037	0.052
-154.677	548.195	0.107	0.256
-153.662	-200.000	0.004	0.255
-152.647	-13.585	0.340	-0.219
-151.633	208.993	0.157	-0.245
-150.618	-200.000	-0.014	0.078
-149.604	-94.912	-0.215	-0.058
-148.589	-51.699	0.272	0.126
-147.574	-10.201	-0.122	0.081
-146.560	-200.000	-0.026	-0.222
-145.545	15.320	0.172	-0.134
-144.531	613.055	-0.096	-0.240
-143.516	-29.310	0.186	0.106
-142.502	-123.321	0.081	0.013
-141.487	-93.593	-0.154	-0.042
-140.472	463.574	-0.056	-0.125
-139.458	518.596	0.033	-0.077
-138.443	677.663	0.071	0.184
-137.429	-62.352	0.208	-0.086
-136.414	153.334	0.186	-0.254
-135.399	-41.050	0.348	-0.179
-134.385	-66.030	-0.371	0.147
-133.370	648.551	-0.056	0.141
-132.356	-108.110	0.042	-0.009
-131.341	145.358	-0.230	0.306
-130.326	-79.403	0.237	-0.080
-129.312	-111.789	0.144	-0.029
-128.297	151.350	0.053	-0.072
-127.283	26.289	0.206	-0.171
-126.268	44.012	0.120	0.109
-125.253	-42.886	-0.381	0.192
-124.239	-200.000	0.015	0.157
-123.224	45.876	0.237	0.218
-122.210	120.782	0.123	0.152
