DTS Sentinel unit serial number:	SN413079Multiplexer serial number:	ORYXHardware model number:	OX4-SRSoftware version number:	ORYX F/W v4.00 Oryx Data Collector v3.7.2.0data status	okinstallation	princeton_trtdifferential loss correction	single-endedforward channel	channel 2reverse channel	N/Adate	2019/09/18time	10:11:35forward acquisition time	60.00reverse acquisition time	0.00gamma	496.2192k internal	0.2333k external	0.2333temperature offset calibration	0.9985default loss term (dB/km)	0.3790temperature slope calibration	1.0000multiplexer offset coefficient	1.0000multiplexer slope coefficient	1.0000fibre end	0.00T internal ref (°C)	27.81T ext. ref 1 (°C)	0.33T ext. ref 2 (°C)	24.25length (m)	temperature (°C)	Stokes	anti-Stokes-747.200	-126.303	0.170	0.025
-746.185	-159.498	0.069	0.004
-745.171	800.000	-0.130	-0.459
-744.156	-118.140	-0.179	0.032
-743.142	145.096	0.093	0.125
-742.127	-70.565	-0.070	-0.027
-741.112	-119.781	-0.176	0.031
-740.098	312.145	0.309	0.584
-739.083	-166.546	0.253	-0.011
-738.069	-164.444	-0.654	-0.030
-737.054	133.627	-0.201	0.262
-736.039	-38.245	-0.197	-0.105
-735.025	-200.000	0.011	-0.290
-734.010	-108.612	-0.304	0.066
-732.996	29.010	-0.356	-0.304
-731.981	-157.292	-0.347	0.021
-730.966	-84.007	0.201	0.064
-729.952	-109.256	-0.180	-0.038
-728.937	-110.294	0.099	-0.021
-727.923	15.857	0.212	-0.167
-726.908	-78.238	-0.194	-0.067
-725.894	-74.603	-0.213	0.077
-724.879	-200.000	-0.020	-0.149
-723.864	-120.504	-0.183	0.031
-722.850	259.877	-0.065	0.114
-721.835	109.625	0.189	0.227
-720.821	-37.227	0.005	-0.003
-719.806	-26.374	0.182	0.107
-718.791	800.000	-0.076	-0.247
-717.777	72.479	0.116	-0.121
-716.762	153.171	0.104	0.143
-715.748	-47.441	0.147	-0.072
-714.733	-200.000	0.040	-0.277
-713.718	-80.617	-0.293	-0.098
-712.704	-108.793	-0.391	-0.084
-711.689	-68.728	-0.112	0.043
-710.675	484.788	-0.078	-0.179
-709.660	-112.460	-0.364	-0.073
-708.645	-126.813	0.173	-0.026
-707.631	800.000	-0.087	0.350
-706.616	-38.289	0.190	-0.101
-705.602	8.985	-0.134	-0.101
-704.587	326.886	-0.111	0.213
-703.572	-200.000	-0.037	0.302
-702.558	82.381	-0.289	-0.315
-701.543	-88.468	-0.354	-0.106
-700.529	23.487	0.214	-0.177
-699.514	-50.135	0.186	-0.089
-698.499	474.052	-0.028	-0.062
-697.485	-86.347	-0.161	-0.050
-696.470	-139.263	0.124	-0.013
-695.456	333.999	0.091	-0.177
-694.441	-200.000	-0.032	0.216
-693.426	-12.371	0.178	0.116
-692.412	378.969	0.051	-0.106
-691.397	562.001	0.111	-0.270
-690.383	-162.504	-0.211	-0.010
-689.368	-66.740	-0.153	-0.061
-688.354	-200.000	0.014	0.143
-687.339	58.606	0.104	0.103
-686.324	-200.000	-0.093	-0.444
-685.310	800.000	0.024	0.082
-684.295	49.912	-0.086	-0.082
-683.281	4.917	-0.156	-0.115
-682.266	-79.171	-0.107	0.036
-681.251	170.232	0.164	0.235
-680.237	-200.000	0.012	0.258
-679.222	-90.214	-0.258	0.075
-678.208	-114.867	0.208	0.040
-677.193	-200.000	0.009	0.053
-676.178	-106.873	-0.337	-0.075
-675.164	243.069	0.097	-0.163
-674.149	-133.244	-0.512	-0.065
-673.135	-200.000	0.008	0.092
-672.120	677.602	0.077	0.201
-671.105	-153.647	-0.174	0.012
-670.091	-200.000	0.018	0.397
-669.076	-35.387	-0.127	-0.069
-668.062	-101.386	0.177	-0.043
-667.047	-110.079	0.298	0.062
-666.032	-200.000	-0.031	-0.319
-665.018	-58.225	-0.170	-0.074
-664.003	299.280	0.148	0.273
-662.989	-55.924	-0.318	0.142
-661.974	-65.133	0.107	-0.043
-660.959	64.270	0.194	-0.195
-659.945	458.398	-0.153	-0.342
-658.930	85.889	-0.165	-0.182
-657.916	-29.678	0.205	0.117
-656.901	-200.000	0.023	0.356
-655.886	800.000	0.075	0.289
-654.872	-56.454	-0.417	-0.185
-653.857	-200.000	0.043	-0.363
-652.843	-70.628	0.138	-0.052
-651.828	142.945	0.149	-0.198
-650.814	-200.000	0.014	0.420
-649.799	-7.666	-0.145	0.098
-648.784	208.830	0.074	0.116
-647.770	313.569	0.247	-0.465
-646.755	213.557	-0.096	-0.152
-645.741	54.276	0.247	0.238
-644.726	-70.714	-0.336	0.127
-643.711	-13.287	0.175	-0.114
-642.697	1.199	0.062	-0.045
-641.682	-22.620	-0.031	-0.019
-640.668	-200.000	-0.020	-0.539
-639.653	-107.722	-0.248	0.054
-638.638	-82.404	-0.298	0.097
-637.624	-200.000	-0.008	0.499
-636.609	-200.000	-0.013	-0.398
-635.595	369.703	0.031	-0.064
-634.580	800.000	-0.063	-0.194
-633.565	-123.708	0.292	-0.046
-632.551	110.241	0.106	0.128
-631.536	800.000	-0.188	-0.538
-630.522	381.866	-0.050	-0.103
-629.507	24.462	-0.329	0.272
-628.492	-26.028	0.172	0.101
-627.478	-153.871	-0.168	0.012
-626.463	-200.000	0.001	-0.015
-625.449	518.645	-0.077	-0.179
-624.434	-58.895	-0.017	0.008
-623.419	800.000	0.095	0.367
-622.405	-13.581	-0.333	0.216
-621.390	343.202	-0.047	0.093
-620.376	-200.000	-0.031	0.149
-619.361	-6.286	-0.094	-0.064
-618.346	225.626	-0.049	-0.080
-617.332	-17.030	0.050	0.032
-616.317	-200.000	0.065	0.299
-615.303	-115.731	-0.057	-0.011
-614.288	-49.073	0.522	-0.250
-613.273	-58.519	0.210	0.091
-612.259	38.800	0.108	0.096
-611.244	-27.181	-0.346	-0.202
-610.230	216.652	-0.071	-0.113
-609.215	66.791	-0.137	-0.140
-608.201	-186.412	-0.278	0.004
-607.186	-57.694	0.171	0.075
-606.171	-142.245	0.121	0.012
-605.157	-112.957	0.332	0.066
-604.142	-94.500	-0.276	-0.075
-603.128	135.527	-0.021	0.028
-602.113	-132.606	-0.295	-0.038
-601.098	800.000	0.122	-0.381
-600.084	285.275	-0.130	-0.234
-599.069	191.566	0.094	0.142
-598.055	-150.332	-0.233	0.018
-597.040	-16.215	-0.397	-0.252
-596.025	492.779	-0.062	0.142
-595.011	18.041	0.088	-0.070
-593.996	-120.768	0.166	0.028
-592.982	-108.306	-0.076	0.016
-591.967	580.845	-0.161	0.396
-590.952	-200.000	0.034	0.153
-589.938	272.408	0.127	0.223
-588.923	124.547	-0.016	0.020
-587.909	-200.000	0.019	-0.189
-586.894	-189.542	0.637	0.007
-585.879	164.421	0.019	0.027
-584.865	219.491	-0.079	-0.127
-583.850	343.434	-0.056	-0.110
-582.836	198.004	-0.190	0.290
-581.821	135.893	0.220	-0.286
-580.806	800.000	0.015	0.059
-579.792	800.000	0.060	-0.227
-578.777	800.000	0.153	0.453
-577.763	182.877	0.221	0.326
-576.748	-37.490	-0.308	0.164
-575.733	643.478	-0.074	0.189
-574.719	153.518	-0.168	0.230
-573.704	579.403	0.118	-0.287
-572.690	74.313	0.109	-0.114
-571.675	800.000	0.054	0.178
-570.661	384.256	0.099	0.204
-569.646	39.467	-0.152	0.136
-568.631	-200.000	0.013	-0.184
-567.617	-200.000	-0.041	-0.258
-566.602	726.772	-0.087	0.232
-565.588	-12.929	-0.278	-0.181
-564.573	50.439	-0.110	-0.103
-563.558	-31.181	0.196	-0.110
-562.544	91.458	0.054	-0.060
-561.529	-200.000	0.026	-0.322
-560.515	-190.037	0.417	-0.005
-559.500	4.388	-0.041	-0.030
-558.485	-33.602	-0.171	0.094
-557.471	-27.093	0.150	-0.087
-556.456	-118.851	0.101	-0.018
-555.442	52.960	-0.167	0.159
-554.427	-72.422	0.145	-0.054
-553.412	-54.532	-0.256	0.116
-552.398	800.000	0.073	0.278
-551.383	17.046	0.387	0.306
-550.369	-19.023	-0.255	0.158
-549.354	-11.375	-0.073	0.048
-548.339	293.501	-0.091	-0.165
-547.325	-200.000	0.022	0.213
-546.310	-169.791	-0.432	0.016
-545.296	491.538	0.044	-0.101
-544.281	59.331	-0.123	-0.121
-543.266	-184.171	-0.142	0.002
-542.252	441.117	0.005	0.011
-541.237	-200.000	0.003	-0.142
-540.223	20.009	0.132	0.107
-539.208	267.092	0.041	0.071
-538.193	-69.684	0.219	-0.084
-537.179	-32.621	0.066	0.037
-536.164	190.903	0.100	-0.150
-535.150	335.230	-0.045	0.087
-534.135	-124.734	0.249	-0.038
-533.121	-200.000	0.019	0.110
-532.106	-200.000	0.081	0.000
-531.091	-200.000	-0.017	0.189
-530.077	-91.890	-0.559	-0.158
-529.062	-170.565	0.073	-0.003
-528.048	83.286	-0.048	-0.052
-527.033	-103.449	0.181	0.042
-526.018	313.268	0.141	0.265
-525.004	382.416	-0.130	-0.267
-523.989	257.032	0.136	0.233
-522.975	-200.000	-0.015	-0.245
-521.960	-79.986	0.068	-0.023
-520.945	-91.925	0.322	0.091
-519.931	298.426	-0.145	-0.266
-518.916	-111.783	0.300	0.061
-517.902	289.841	-0.067	-0.121
-516.887	-127.448	0.422	-0.061
-515.872	132.720	0.130	-0.167
-514.858	156.341	0.232	-0.319
-513.843	60.406	0.140	-0.138
-512.829	800.000	0.074	-0.260
-511.814	-73.491	-0.252	-0.092
-510.799	-12.257	-0.271	0.177
-509.785	96.209	0.266	0.303
-508.770	-200.000	-0.024	-0.325
-507.756	800.000	-0.122	-0.381
-506.741	453.986	-0.102	-0.226
-505.726	19.723	0.177	0.142
-504.712	-149.351	-0.159	0.013
-503.697	-129.253	0.066	0.009
-502.683	-142.104	-0.503	0.050
-501.668	26.591	-0.254	0.212
-500.653	-157.868	-0.158	0.009
-499.639	752.844	0.058	-0.157
-498.624	587.557	-0.213	0.522
-497.610	-149.570	0.163	-0.013
-496.595	71.095	0.214	0.221
-495.581	22.674	0.338	0.276
-494.566	-18.294	-0.380	-0.236
-493.551	-104.051	0.078	-0.018
-492.537	82.175	-0.122	0.132
-491.522	43.553	0.124	-0.113
-490.508	30.588	0.192	-0.164
-489.493	196.226	0.070	0.105
-488.478	-171.187	0.238	0.008
-487.464	-134.750	0.228	0.028
-486.449	800.000	-0.063	-0.229
-485.435	13.038	-0.032	-0.025
-484.420	-87.780	0.262	0.079
-483.405	45.565	0.073	0.067
-482.391	-100.913	0.257	-0.063
-481.376	119.747	-0.039	0.049
-480.362	-144.917	0.203	-0.018
-479.347	-200.000	0.007	-0.247
-478.332	-4.810	0.209	0.143
-477.318	800.000	-0.111	0.331
-476.303	-90.763	-0.331	-0.095
-475.289	353.340	0.146	-0.289
-474.274	307.905	0.124	-0.230
-473.259	140.625	-0.264	-0.347
-472.245	32.364	0.075	-0.064
-471.230	42.465	-0.116	-0.105
-470.216	-87.067	-0.167	0.051
-469.201	-35.649	-0.210	0.113
-468.186	800.000	0.051	-0.192
-467.172	-102.830	-0.076	-0.018
-466.157	224.517	-0.057	-0.091
-465.143	-200.000	-0.052	-0.281
-464.128	-38.710	-0.027	0.014
-463.113	-200.000	-0.023	0.186
-462.099	320.880	0.038	0.071
-461.084	27.768	0.073	0.061
-460.070	-68.277	0.256	0.099
-459.055	178.147	0.085	0.124
-458.040	-200.000	0.064	-0.399
-457.026	-93.644	-0.316	-0.087
-456.011	27.955	0.056	0.047
-454.997	800.000	-0.113	-0.344
-453.982	32.942	-0.096	-0.082
-452.968	-145.122	0.647	-0.058
-451.953	114.171	0.110	-0.133
-450.938	800.000	0.023	0.071
-449.924	-200.000	-0.053	0.299
-448.909	136.437	-0.099	-0.129
-447.895	-136.485	0.118	0.014
-446.880	282.623	-0.083	0.147
-445.865	-165.545	-0.446	0.019
-444.851	193.959	0.169	0.255
-443.836	-200.000	0.026	-0.338
-442.822	-48.572	0.077	0.037
-441.807	99.344	0.181	0.208
-440.792	800.000	0.063	-0.235
-439.778	311.091	-0.065	0.121
-438.763	-47.654	-0.167	0.081
-437.749	-46.322	0.049	0.024
-436.734	-200.000	0.017	0.126
-435.719	-15.785	-0.314	-0.199
-434.705	-51.289	0.118	-0.055
-433.690	130.804	-0.070	0.089
-432.676	800.000	0.030	-0.126
-431.661	-102.625	0.296	-0.070
-430.646	730.908	0.192	-0.510
-429.632	434.928	0.092	0.200
-428.617	172.739	0.170	0.243
-427.603	301.266	-0.240	0.441
-426.588	6.544	-0.213	-0.157
-425.573	-198.454	0.101	0.001
-424.559	-200.000	0.009	0.109
-423.544	-3.845	0.094	-0.065
-422.530	200.889	-0.236	-0.361
-421.515	800.000	0.067	0.206
-420.500	350.959	0.175	-0.344
-419.486	-80.261	0.186	0.062
-418.471	661.053	-0.027	0.069
-417.457	106.305	-0.180	-0.212
-416.442	-200.000	-0.013	0.158
-415.428	221.406	-0.142	-0.227
-414.413	387.895	0.112	-0.229
-413.398	-91.499	0.287	-0.081
-412.384	9.332	0.096	0.072
-411.369	-71.438	0.154	-0.057
-410.355	-93.018	0.089	-0.025
-409.340	52.512	-0.095	-0.090
-408.325	-27.234	0.091	0.053
-407.311	-67.971	-0.136	-0.053
-406.296	5.213	-0.233	-0.170
-405.282	-120.221	0.141	0.024
-404.267	459.585	0.115	0.255
-403.252	-18.449	-0.289	0.179
-402.238	266.919	0.039	0.068
-401.223	235.371	0.098	0.161
-400.209	207.369	-0.116	0.179
-399.194	-70.885	-0.232	-0.087
-398.179	-168.637	-0.247	0.009
-397.165	276.330	-0.078	-0.138
-396.150	110.298	-0.237	0.283
-395.136	129.707	-0.067	0.085
-394.121	-17.727	0.096	-0.060
-393.106	-24.796	-0.202	0.119
-392.092	-137.531	0.354	0.040
-391.077	70.645	-0.162	0.166
-390.063	336.831	0.146	0.282
-389.048	-116.280	-0.108	-0.020
-388.033	188.603	-0.241	-0.358
-387.019	115.963	0.212	0.257
-386.004	433.963	-0.163	-0.350
-384.990	89.653	-0.261	-0.288
-383.975	-116.441	0.155	0.028
-382.960	35.529	0.123	-0.107
-381.946	-29.217	-0.375	0.213
-380.931	11.785	0.094	-0.072
-379.917	716.283	-0.127	0.334
-378.902	102.696	-0.169	0.196
-377.888	-40.523	-0.049	0.025
-376.873	-4.993	-0.163	-0.112
-375.858	395.714	-0.073	0.150
-374.844	-26.904	0.355	0.205
-373.829	800.000	0.074	0.301
-372.815	-200.000	0.007	-0.245
-371.800	-200.000	-0.020	0.269
-370.785	191.099	0.065	-0.096
-369.771	43.113	0.083	0.075
-368.756	236.698	0.183	-0.300
-367.742	361.274	-0.080	0.159
-366.727	-93.998	-0.087	-0.024
-365.712	247.351	-0.035	-0.059
-364.698	-74.516	0.252	0.090
-363.683	55.477	0.220	-0.211
-362.669	3.612	-0.249	0.180
-361.654	-73.576	0.217	-0.078
-360.639	-136.517	-0.095	-0.011
-359.625	471.995	-0.020	0.044
-358.610	178.050	-0.202	0.291
-357.596	-45.866	-0.411	0.201
-356.581	-52.288	-0.182	0.083
-355.566	-54.742	0.197	-0.088
-354.552	96.897	0.122	0.138
-353.537	113.433	0.276	-0.331
-352.523	-146.801	0.469	0.040
-351.508	50.495	0.251	0.235
-350.493	-200.000	-0.034	0.331
-349.479	102.274	-0.129	-0.150
-348.464	-57.787	-0.011	0.005
-347.450	47.495	0.117	0.108
-346.435	-116.273	-0.368	-0.067
-345.420	150.203	0.123	0.166
-344.406	199.017	0.032	-0.049
-343.391	54.907	-0.191	0.182
-342.377	28.296	0.272	0.228
-341.362	-121.915	0.326	0.053
-340.348	-28.729	-0.184	-0.105
-339.333	-161.984	-0.239	-0.012
-338.318	282.884	0.062	0.110
-337.304	91.135	-0.145	0.161
-336.289	-200.000	0.045	-0.254
-335.275	-178.040	0.217	-0.005
-334.260	44.133	0.021	-0.019
-333.245	100.881	-0.039	0.045
-332.231	-200.000	0.033	0.157
-331.216	42.302	0.019	-0.017
-330.202	-200.000	-0.032	0.289
-329.187	264.676	-0.080	-0.138
-328.172	23.570	0.110	-0.090
-327.158	-200.000	-0.016	-0.079
-326.143	-91.893	0.548	0.154
-325.129	105.798	-0.121	0.141
-324.114	-200.000	0.019	-0.099
-323.099	800.000	-0.105	-0.306
-322.085	800.000	0.090	0.292
-321.070	-200.000	0.035	0.450
-320.056	-14.153	0.219	-0.139
-319.041	-114.915	0.420	-0.079
-318.026	129.714	-0.117	-0.147
-317.012	-54.709	0.233	-0.104
-315.997	-200.000	0.000	-0.004
-314.983	430.451	0.051	-0.108
-313.968	-167.391	0.404	-0.016
-312.953	159.081	0.150	0.206
-311.939	179.219	-0.166	0.240
-310.924	-53.581	0.229	0.103
-309.910	-141.330	0.086	0.009
-308.895	10.869	-0.230	0.173
-307.880	-70.872	-0.247	0.092
-306.866	700.823	0.133	0.347
-305.851	135.770	-0.148	0.190
-304.837	1.429	0.164	-0.116
-303.822	800.000	-0.044	0.152
-302.807	-104.646	-0.049	0.011
-301.793	-39.174	0.192	-0.100
-300.778	-200.000	-0.014	-0.198
-299.764	236.769	0.043	-0.071
-298.749	-59.523	0.390	-0.165
-297.735	-200.000	0.018	-0.314
-296.720	121.761	0.275	-0.339
-295.705	-200.000	-0.015	-0.493
-294.691	-69.003	-0.261	-0.099
-293.676	-200.000	0.014	0.150
-292.662	146.965	-0.079	-0.104
-291.647	-144.037	-0.260	-0.024
-290.632	360.759	-0.074	0.146
-289.618	157.687	-0.046	-0.063
-288.603	6.540	0.243	0.178
-287.589	8.924	0.332	-0.247
-286.574	-78.202	-0.271	-0.092
-285.559	62.684	0.097	-0.096
-284.545	690.880	0.112	-0.291
-283.530	318.648	-0.055	0.104
-282.516	543.024	0.145	0.340
-281.501	102.276	-0.191	0.220
-280.486	-102.988	-0.309	-0.072
-279.472	11.121	0.163	-0.123
-278.457	800.000	-0.094	-0.381
-277.443	273.684	0.045	0.079
-276.428	-112.860	-0.148	0.029
-275.413	-111.744	0.262	-0.052
-274.399	800.000	-0.020	0.075
-273.384	-38.819	-0.033	0.017
-272.370	-95.367	0.325	-0.086
-271.355	-129.767	-0.339	0.046
-270.340	598.808	-0.100	0.245
-269.326	233.114	-0.174	-0.282
-268.311	-200.000	0.031	-0.223
-267.297	-200.000	-0.044	0.302
-266.282	-75.963	-0.183	0.064
-265.267	800.000	0.064	0.181
-264.253	-6.174	-0.045	-0.030
-263.238	-39.555	0.168	-0.087
-262.224	0.887	-0.113	0.080
-261.209	-200.000	-0.017	0.181
-260.195	524.222	-0.055	-0.128
-259.180	-174.742	-0.297	0.008
-258.165	100.910	-0.064	-0.074
-257.151	800.000	0.046	0.189
-256.136	-26.132	-0.131	-0.076
-255.122	191.289	-0.122	0.181
-254.107	139.801	-0.241	0.314
-253.092	800.000	0.072	0.245
-252.078	-133.490	0.126	-0.016
-251.063	-200.000	-0.037	-0.182
-250.049	800.000	0.042	0.155
-249.034	-200.000	-0.028	-0.185
-248.019	-1.756	-0.098	-0.068
-247.005	800.000	-0.048	-0.135
-245.990	608.312	-0.034	-0.082
-244.976	-98.556	0.141	-0.036
-243.961	800.000	-0.017	0.056
-242.946	75.835	0.227	0.237
-241.932	-59.650	-0.560	0.237
-240.917	-34.243	-0.224	0.121
-239.903	62.043	-0.038	-0.037
-238.888	83.318	0.353	-0.379
-237.873	405.612	-0.154	-0.320
-236.859	-87.516	-0.186	0.055
-235.844	47.080	-0.090	-0.083
-234.830	17.139	0.265	-0.207
-233.815	85.211	-0.111	0.120
-232.800	292.580	0.073	0.131
-231.786	608.436	-0.115	0.284
-230.771	-43.241	0.161	0.080
-229.757	5.284	-0.062	0.045
-228.742	-200.000	-0.022	-0.098
-227.727	3.100	-0.136	-0.098
-226.713	-200.000	0.027	0.141
-225.698	800.000	-0.017	-0.070
-224.684	-200.000	-0.014	0.111
-223.669	93.787	0.168	-0.188
-222.655	478.227	0.062	-0.137
-221.640	-200.000	0.001	0.191
-220.625	5.800	-0.164	0.120
-219.611	38.931	0.087	-0.076
-218.596	120.021	0.088	-0.108
-217.582	800.000	0.063	0.209
-216.567	-200.000	-0.037	-0.179
-215.552	800.000	-0.096	-0.340
-214.538	800.000	-0.031	-0.108
-213.523	800.000	0.106	-0.310
-212.509	72.579	0.112	0.115
-211.494	83.815	0.236	0.253
-210.479	67.923	-0.299	0.301
-209.465	42.907	0.013	-0.012
-208.450	418.730	-0.168	-0.355
-207.436	-132.209	0.104	-0.013
-206.421	-133.995	-0.156	0.019
-205.406	-84.540	0.247	0.077
-204.392	249.598	0.230	0.385
-203.377	295.932	0.087	-0.157
-202.363	-15.056	0.052	0.033
-201.348	-3.282	0.397	-0.272
-200.333	800.000	0.067	0.195
-199.319	576.502	-0.107	-0.257
-198.304	-85.030	0.075	0.023
-197.290	-3.260	0.402	0.276
-196.275	-12.347	-0.176	0.113
-195.260	-20.665	-0.200	-0.121
-194.246	-50.182	-0.615	-0.287
-193.231	-73.251	-0.071	-0.025
-192.217	-16.367	-0.145	0.091
-191.202	66.664	-0.267	-0.267
-190.187	-119.875	-0.183	-0.031
-189.173	25.601	-0.156	-0.128
-188.158	-200.000	0.027	-0.426
-187.144	318.143	-0.063	0.118
-186.129	238.892	0.208	-0.341
-185.114	-106.905	0.188	0.041
-184.100	-43.734	0.229	0.113
-183.085	565.431	0.173	0.412
-182.071	-200.000	0.042	0.230
-181.056	-85.174	-0.130	-0.040
-180.042	-151.005	-0.185	-0.014
-179.027	200.850	-0.054	0.082
-178.012	-37.055	0.166	-0.088
-176.998	256.611	-0.116	-0.196
-175.983	234.921	-0.041	-0.066
-174.969	-89.864	-0.200	0.058
-173.954	-200.000	-0.017	0.184
-172.939	-22.130	-0.116	0.069
-171.925	49.848	-0.172	0.160
-170.910	-77.354	-0.317	0.108
-169.896	-86.599	0.159	-0.048
-168.881	34.896	-0.324	-0.279
-167.866	-166.351	-0.385	-0.016
-166.852	197.835	0.184	0.276
-165.837	-46.959	0.326	-0.157
-164.823	-22.658	-0.380	-0.226
-163.808	423.125	0.220	0.464
-162.793	70.309	0.222	-0.225
-161.779	687.751	-0.045	0.115
-160.764	640.609	-0.082	0.205
-159.750	22.156	0.081	-0.065
-158.735	-200.000	-0.005	-0.028
-157.720	-77.362	-0.133	-0.045
-156.706	-147.127	-0.249	0.021
-155.691	408.420	0.106	0.220
-154.677	-86.299	0.231	-0.070
-153.662	800.000	-0.091	-0.306
-152.647	14.410	-0.098	0.075
-151.633	311.075	-0.061	0.112
-150.618	-94.894	-0.273	-0.073
-149.604	117.928	-0.167	0.202
-148.589	800.000	-0.046	-0.142
-147.574	-87.610	0.253	-0.075
-146.560	20.081	-0.334	0.265
-145.545	759.343	0.042	0.112
-144.531	403.037	0.172	0.355
-143.516	-22.978	0.177	-0.105
-142.502	188.521	-0.110	-0.162
-141.487	-65.713	0.173	0.068
-140.472	-200.000	-0.001	-0.210
-139.458	624.393	0.105	0.261
-138.443	-109.740	0.197	0.041
-137.429	-69.079	0.070	0.026
-136.414	184.179	0.102	0.148
-135.399	38.731	-0.185	0.162
-134.385	480.960	0.033	0.074
-133.370	-200.000	-0.031	-0.437
-132.356	-13.882	-0.352	0.223
-131.341	273.961	-0.021	0.037
-130.326	-11.275	-0.048	0.031
-129.312	800.000	0.091	0.354
-128.297	800.000	-0.041	0.149
-127.283	-109.028	0.325	0.068
-126.268	-88.255	0.074	0.022
-125.253	-171.994	-0.089	-0.003
-124.239	800.000	0.025	0.091
-123.224	550.928	-0.028	-0.067
-122.210	-200.000	-0.024	0.144
-121.195	10.738	0.211	0.158
-120.180	-55.515	0.091	-0.040
