DTS Sentinel unit serial number:	SN413079Multiplexer serial number:	ORYXHardware model number:	OX4-SRSoftware version number:	ORYX F/W v4.00 Oryx Data Collector v3.7.2.0data status	okinstallation	princeton_trtdifferential loss correction	single-endedforward channel	channel 2reverse channel	N/Adate	2019/09/16time	00:19:35forward acquisition time	60.00reverse acquisition time	0.00gamma	496.2192k internal	0.2337k external	0.2337temperature offset calibration	0.9959default loss term (dB/km)	0.3790temperature slope calibration	1.0000multiplexer offset coefficient	1.0000multiplexer slope coefficient	1.0000fibre end	0.00T internal ref (°C)	27.66T ext. ref 1 (°C)	9.50T ext. ref 2 (°C)	21.51length (m)	temperature (°C)	Stokes	anti-Stokes-747.200	272.063	-0.054	-0.095
-746.185	99.632	0.101	-0.117
-745.171	-135.128	-0.296	0.036
-744.156	456.750	0.219	0.489
-743.142	-167.293	0.322	0.013
-742.127	108.491	-0.168	0.201
-741.112	-150.236	-0.243	-0.019
-740.098	-88.988	-0.140	-0.042
-739.083	335.432	-0.071	0.138
-738.069	-200.000	-0.483	0.002
-737.054	27.422	-0.106	0.090
-736.039	800.000	-0.105	-0.294
-735.025	-179.343	0.161	-0.004
-734.010	-200.000	-0.007	-0.062
-732.996	288.078	-0.156	-0.283
-731.981	592.630	0.017	-0.042
-730.966	159.854	-0.185	-0.258
-729.952	634.037	0.096	-0.244
-728.937	84.614	-0.074	-0.081
-727.923	127.183	0.103	-0.132
-726.908	636.752	0.044	-0.113
-725.894	800.000	0.087	0.325
-724.879	800.000	0.028	-0.098
-723.864	-17.906	0.181	0.114
-722.850	-198.614	-0.550	0.003
-721.835	800.000	-0.086	-0.316
-720.821	-47.029	-0.115	0.056
-719.806	103.401	0.202	-0.237
-718.791	-66.961	0.335	-0.133
-717.777	-200.000	0.001	-0.532
-716.762	-34.216	-0.379	-0.209
-715.748	-200.000	0.048	-0.276
-714.733	13.359	0.151	0.117
-713.718	531.551	0.083	0.198
-712.704	-29.085	-0.218	0.125
-711.689	-200.000	-0.017	-0.132
-710.675	800.000	0.112	-0.441
-709.660	13.351	-0.042	-0.033
-708.645	425.129	0.049	0.105
-707.631	-200.000	-0.008	-0.066
-706.616	127.489	0.110	-0.140
-705.602	-200.000	0.001	-0.276
-704.587	-8.381	0.086	-0.058
-703.572	6.154	0.053	0.039
-702.558	-180.088	-0.468	-0.010
-701.543	-200.000	-0.012	0.251
-700.529	219.048	0.114	0.183
-699.514	343.239	-0.100	-0.196
-698.499	114.965	-0.090	-0.110
-697.485	37.415	0.145	-0.129
-696.470	-19.837	-0.263	-0.163
-695.456	215.894	-0.013	0.020
-694.441	283.983	0.062	-0.112
-693.426	800.000	-0.013	0.044
-692.412	-26.231	-0.273	-0.160
-691.397	-49.119	-0.237	-0.114
-690.383	34.447	-0.244	0.213
-689.368	619.939	-0.071	-0.178
-688.354	102.982	0.180	0.212
-687.339	327.285	-0.036	0.069
-686.324	434.217	-0.110	0.240
-685.310	-162.060	0.524	-0.026
-684.295	-7.042	-0.182	0.124
-683.281	-84.111	-0.450	-0.143
-682.266	397.506	-0.036	0.076
-681.251	318.057	0.095	-0.180
-680.237	-144.377	0.501	-0.047
-679.222	-3.168	0.246	0.172
-678.208	800.000	0.027	-0.080
-677.193	390.502	0.086	0.179
-676.178	631.613	0.028	0.072
-675.164	-200.000	-0.012	-0.195
-674.149	5.424	-0.226	0.167
-673.135	-147.070	0.712	-0.061
-672.120	-19.129	-0.315	0.196
-671.105	320.171	-0.076	0.145
-670.091	-112.054	-0.209	0.042
-669.076	208.136	-0.238	0.372
-668.062	800.000	-0.040	0.114
-667.047	-46.975	-0.118	-0.058
-666.032	182.684	0.139	-0.206
-665.018	383.698	-0.183	-0.377
-664.003	26.960	-0.159	0.133
-662.989	27.140	-0.291	-0.244
-661.974	-200.000	-0.041	-0.490
-660.959	-188.746	-0.252	0.003
-659.945	-113.315	-0.321	-0.063
-658.930	800.000	0.026	0.112
-657.916	800.000	-0.060	-0.168
-656.901	-200.000	-0.002	-0.148
-655.886	126.675	-0.044	-0.056
-654.872	-57.001	0.046	0.020
-653.857	296.066	-0.140	-0.257
-652.843	54.203	0.036	0.035
-651.828	-200.000	0.000	0.108
-650.814	93.181	0.219	0.248
-649.799	349.252	0.071	0.141
-648.784	57.684	0.107	-0.104
-647.770	91.589	0.127	-0.142
-646.755	258.487	-0.122	0.211
-645.741	-200.000	-0.053	-0.397
-644.726	-126.542	-0.166	-0.025
-643.711	800.000	-0.092	0.277
-642.697	-156.860	-0.283	-0.017
-641.682	222.624	0.089	0.144
-640.668	-200.000	0.007	0.046
-639.653	14.532	0.132	-0.103
-638.638	800.000	-0.011	0.037
-637.624	-11.185	-0.381	0.251
-636.609	154.158	-0.094	0.129
-635.595	475.765	-0.050	-0.113
-634.580	23.683	0.112	0.092
-633.565	208.332	-0.133	-0.208
-632.551	-200.000	-0.059	0.279
-631.536	145.129	0.044	0.059
-630.522	248.970	-0.104	0.177
-629.507	73.719	-0.141	0.148
-628.492	-46.653	0.422	-0.206
-627.478	800.000	0.104	-0.315
-626.463	-55.056	-0.233	0.105
-625.449	-37.502	-0.262	0.140
-624.434	-179.501	0.168	0.004
-623.419	-84.004	-0.273	-0.087
-622.405	-103.424	-0.437	0.103
-621.390	164.485	0.220	-0.310
-620.376	-74.959	-0.147	0.053
-619.361	-18.678	0.117	-0.073
-618.346	800.000	-0.083	-0.281
-617.332	-22.872	0.276	0.167
-616.317	-186.735	-0.065	-0.001
-615.303	-200.000	-0.014	0.102
-614.288	-29.115	0.263	0.151
-613.273	-6.073	0.098	0.067
-612.259	205.955	0.007	-0.011
-611.244	99.385	-0.151	-0.175
-610.230	308.938	0.044	-0.082
-609.215	10.689	-0.199	0.152
-608.201	-29.733	0.259	0.148
-607.186	-200.000	0.031	-0.185
-606.171	-47.420	0.303	-0.147
-605.157	-152.609	-0.281	-0.020
-604.142	-20.936	-0.006	0.004
-603.128	-200.000	0.007	0.208
-602.113	109.480	0.226	0.270
-601.098	-76.906	0.165	-0.058
-600.084	-200.000	0.004	0.141
-599.069	-200.000	0.030	0.293
-598.055	-61.434	0.125	0.052
-597.040	106.875	-0.177	0.210
-596.025	5.354	-0.196	0.144
-595.011	-47.431	0.158	0.077
-593.996	-5.546	0.064	-0.044
-592.982	494.901	0.043	0.098
-591.967	24.308	-0.173	-0.143
-590.952	-200.000	0.003	0.183
-589.938	146.945	-0.061	0.082
-588.923	-124.373	-0.282	-0.044
-587.909	-114.236	-0.252	-0.049
-586.894	-66.415	0.072	0.028
-585.879	-200.000	0.011	0.253
-584.865	-84.532	-0.129	0.040
-583.850	-58.852	0.145	-0.062
-582.836	-128.797	0.167	0.023
-581.821	174.491	0.163	0.236
-580.806	800.000	0.049	-0.146
-579.792	-78.291	-0.242	0.083
-578.777	300.325	0.247	-0.455
-577.763	-200.000	-0.045	0.217
-576.748	-96.375	0.167	0.044
-575.733	-39.016	0.248	-0.130
-574.719	-81.193	0.240	-0.079
-573.704	-150.252	-0.069	0.005
-572.690	-200.000	0.052	-0.273
-571.675	-108.188	-0.165	-0.036
-570.661	124.330	-0.169	0.212
-569.646	-65.040	-0.045	-0.018
-568.631	-69.693	0.121	0.046
-567.617	-14.235	0.191	-0.123
-566.602	-5.380	-0.244	0.167
-565.588	349.401	0.056	-0.110
-564.573	19.706	0.332	0.266
-563.558	-107.763	-0.349	-0.076
-562.544	-200.000	-0.018	-0.243
-561.529	-200.000	-0.019	0.120
-560.515	197.295	-0.096	0.145
-559.500	20.709	-0.202	0.163
-558.485	58.928	0.120	0.117
-557.471	-57.109	-0.026	-0.012
-556.456	-200.000	0.029	0.157
-555.442	-200.000	0.005	-0.027
-554.427	-200.000	-0.023	0.103
-553.412	-47.655	0.361	0.175
-552.398	414.417	-0.167	0.355
-551.383	-147.270	-0.150	0.013
-550.369	-200.000	-0.004	0.178
-549.354	118.184	0.118	0.145
-548.339	-91.641	0.127	0.036
-547.325	-118.914	-0.075	0.013
-546.310	-200.000	-0.009	0.198
-545.296	-200.000	0.011	-0.132
-544.281	-200.000	0.020	-0.154
-543.266	-37.157	0.279	-0.149
-542.252	-3.742	-0.303	0.209
-541.237	-59.499	0.317	-0.136
-540.223	-73.691	0.086	-0.031
-539.208	-200.000	0.047	-0.208
-538.193	-95.085	0.287	-0.077
-537.179	-18.488	0.205	0.128
-536.164	135.223	0.232	-0.300
-535.150	-62.448	-0.295	0.122
-534.135	78.817	-0.168	0.179
-533.121	320.899	-0.170	-0.322
-532.106	482.370	0.063	-0.143
-531.091	-200.000	-0.022	-0.099
-530.077	800.000	0.082	-0.232
-529.062	86.901	-0.127	0.139
-528.048	800.000	0.024	0.067
-527.033	800.000	-0.051	0.166
-526.018	-200.000	-0.028	-0.158
-525.004	-130.148	0.139	-0.019
-523.989	555.942	0.086	-0.206
-522.975	-200.000	0.039	0.343
-521.960	800.000	-0.108	0.323
-520.945	-15.819	0.154	0.097
-519.931	-56.748	0.304	-0.134
-518.916	186.036	0.108	0.160
-517.902	9.509	-0.159	0.120
-516.887	125.900	-0.104	0.131
-515.872	149.568	-0.182	-0.245
-514.858	-50.688	-0.143	-0.067
-513.843	-73.563	0.260	0.094
-512.829	800.000	-0.079	-0.339
-511.814	-79.923	-0.153	0.051
-510.799	223.960	0.072	-0.116
-509.785	56.461	-0.145	0.140
-508.770	97.990	0.065	0.075
-507.756	305.330	0.028	0.051
-506.741	620.895	-0.098	-0.246
-505.726	-99.444	0.105	-0.026
-504.712	-51.180	-0.352	0.164
-503.697	-60.149	0.122	0.052
-502.683	27.456	0.032	-0.027
-501.668	-36.748	-0.178	0.095
-500.653	160.150	-0.183	0.253
-499.639	-200.000	0.109	0.498
-498.624	-16.959	-0.134	0.084
-497.610	-30.643	-0.146	-0.082
-496.595	119.855	-0.077	-0.094
-495.581	-52.611	0.144	0.066
-494.566	-83.577	-0.255	-0.081
-493.551	-200.000	-0.075	-0.343
-492.537	723.586	0.046	0.122
-491.522	-51.221	-0.149	0.069
-490.508	-103.085	0.464	-0.109
-489.493	572.868	-0.047	0.113
-488.478	89.083	-0.184	-0.203
-487.464	800.000	0.065	-0.179
-486.449	341.085	0.202	-0.392
-485.435	800.000	-0.045	0.152
-484.420	-200.000	0.082	-0.486
-483.405	800.000	0.069	0.219
-482.391	80.488	-0.249	0.266
-481.376	123.797	-0.204	0.254
-480.362	-200.000	-0.055	0.361
-479.347	-98.208	-0.098	0.025
-478.332	-133.263	0.156	-0.020
-477.318	800.000	0.027	0.114
-476.303	800.000	-0.058	-0.176
-475.289	-45.005	0.026	-0.013
-474.274	-200.000	0.034	-0.218
-473.259	-200.000	-0.011	-0.121
-472.245	-47.288	0.152	0.073
-471.230	-168.605	-0.216	0.008
-470.216	-200.000	-0.027	-0.411
-469.201	-200.000	0.048	-0.240
-468.186	71.444	-0.154	-0.159
-467.172	-46.014	-0.399	0.196
-466.157	33.776	0.256	-0.221
-465.143	748.459	0.031	-0.084
-464.128	283.296	0.080	0.142
-463.113	-21.226	0.438	-0.266
-462.099	421.996	0.106	-0.225
-461.084	44.813	0.122	-0.111
-460.070	-68.233	-0.142	0.055
-459.055	719.893	-0.083	-0.220
-458.040	17.186	-0.071	-0.056
-457.026	-19.542	0.136	0.083
-456.011	324.634	0.129	-0.244
-454.997	96.475	-0.177	-0.201
-453.982	237.074	0.106	-0.175
-452.968	13.106	-0.077	0.059
-451.953	800.000	0.062	0.194
-450.938	-200.000	-0.013	-0.463
-449.924	57.507	-0.267	-0.259
-448.909	29.869	-0.153	-0.130
-447.895	124.474	0.011	-0.014
-446.880	800.000	-0.105	0.309
-445.865	376.596	0.121	-0.246
-444.851	-85.810	-0.278	0.086
-443.836	323.762	-0.057	-0.107
-442.822	568.730	-0.081	0.195
-441.807	73.544	0.034	0.035
-440.792	-90.294	0.210	-0.061
-439.778	-81.641	-0.335	-0.109
-438.763	508.540	0.038	-0.086
-437.749	343.686	-0.109	0.213
-436.734	-7.929	-0.200	-0.134
-435.719	18.463	-0.140	0.111
-434.705	-16.973	0.241	0.151
-433.690	-200.000	0.026	-0.231
-432.676	362.279	0.047	-0.093
-431.661	-172.225	-0.088	0.003
-430.646	107.266	0.094	0.111
-429.632	31.243	-0.183	-0.156
-428.617	105.302	0.270	-0.316
-427.603	-167.671	0.154	0.006
-426.588	-200.000	0.335	-0.001
-425.573	30.842	0.123	-0.104
-424.559	196.205	-0.067	-0.101
-423.544	379.714	0.103	0.209
-422.530	-60.540	0.183	0.077
-421.515	-104.500	-0.293	-0.067
-420.500	-200.000	0.049	-0.217
-419.486	-200.000	0.041	-0.197
-418.471	-200.000	-0.034	-0.278
-417.457	-119.445	-0.215	-0.037
-416.442	-24.369	0.215	-0.127
-415.428	-200.000	0.050	-0.271
-414.413	3.514	-0.317	-0.229
-413.398	-34.079	-0.084	0.046
-412.384	13.665	-0.141	0.109
-411.369	76.763	-0.139	-0.146
-410.355	-61.518	0.065	0.027
-409.340	336.293	-0.104	-0.200
-408.325	57.368	0.123	-0.119
-407.311	29.129	-0.269	0.226
-406.296	101.616	0.142	-0.164
-405.282	184.466	0.108	-0.158
-404.267	6.004	0.221	0.162
-403.252	107.456	-0.207	-0.244
-402.238	-51.432	-0.146	-0.067
-401.223	91.445	-0.112	-0.125
-400.209	72.965	0.264	-0.273
-399.194	-28.535	0.243	0.138
-398.179	800.000	0.043	-0.184
-397.165	288.299	0.122	-0.220
-396.150	-200.000	0.054	-0.341
-395.136	-200.000	0.032	-0.243
-394.121	587.688	0.047	0.115
-393.106	134.191	0.143	0.183
-392.092	-149.706	0.101	-0.008
-391.077	117.838	-0.268	0.326
-390.063	24.145	0.180	0.147
-389.048	-45.801	0.152	0.074
-388.033	-200.000	-0.053	-0.293
-387.019	-200.000	0.030	-0.327
-386.004	96.593	0.050	-0.057
-384.990	800.000	0.073	-0.199
-383.975	96.204	-0.225	-0.255
-382.960	193.571	-0.122	-0.183
-381.946	-96.117	-0.140	0.037
-380.931	172.029	0.182	0.259
-379.917	195.101	0.043	0.064
-378.902	-18.518	-0.065	-0.040
-377.888	-200.000	0.023	-0.206
-376.873	-200.000	-0.031	-0.276
-375.858	-166.417	-0.439	0.018
-374.844	386.417	-0.078	0.160
-373.829	-200.000	0.038	-0.176
-372.815	800.000	0.072	-0.254
-371.800	103.537	0.144	0.168
-370.785	-200.000	0.045	-0.319
-369.771	57.012	-0.167	0.161
-368.756	-168.555	-0.244	-0.009
-367.742	660.566	0.105	0.268
-366.727	-55.259	0.117	0.052
-365.712	-73.703	-0.013	0.005
-364.698	170.124	0.227	0.321
-363.683	-200.000	0.008	0.187
-362.669	283.759	0.023	0.041
-361.654	-117.875	0.111	-0.020
-360.639	-97.269	0.137	0.035
-359.625	-4.817	0.198	0.135
-358.610	-200.000	0.077	0.345
-357.596	-200.000	-0.024	-0.358
-356.581	800.000	-0.095	-0.265
-355.566	95.486	-0.227	0.256
-354.552	298.180	0.010	0.018
-353.537	159.082	-0.208	0.286
-352.523	-81.237	0.275	0.090
-351.508	264.028	-0.043	-0.074
-350.493	800.000	0.049	-0.148
-349.479	209.827	-0.157	-0.243
-348.464	-168.711	0.076	-0.003
-347.450	282.185	0.147	0.260
-346.435	16.665	-0.348	0.272
-345.420	-200.000	-0.024	0.340
-344.406	-51.535	0.155	0.071
-343.391	6.312	0.278	-0.204
-342.377	340.087	-0.025	0.048
-341.362	-122.151	-0.169	-0.027
-340.348	800.000	0.123	-0.351
-339.333	-200.000	0.004	0.120
-338.318	800.000	0.045	0.190
-337.304	531.003	0.093	-0.217
-336.289	-200.000	-0.036	-0.171
-335.275	47.520	0.109	-0.101
-334.260	-12.398	0.104	-0.067
-333.245	-132.429	-0.044	-0.006
-332.231	543.805	-0.043	0.102
-331.216	14.648	-0.216	0.167
-330.202	-58.394	-0.114	-0.049
-329.187	-63.287	-0.202	-0.082
-328.172	-154.117	-0.151	-0.010
-327.158	-36.740	0.252	0.134
-326.143	199.339	0.019	0.029
-325.129	-92.582	0.232	-0.064
-324.114	-108.637	-0.224	0.047
-323.099	-17.014	0.362	0.226
-322.085	-77.774	0.400	-0.136
-321.070	-58.458	-0.114	0.049
-320.056	-84.205	0.189	-0.059
-319.041	2.339	-0.119	-0.085
-318.026	106.277	-0.142	0.166
-317.012	-200.000	0.015	0.084
-315.997	-86.358	-0.280	-0.085
-314.983	-117.076	-0.201	-0.036
-313.968	-86.663	0.230	-0.070
-312.953	-86.756	-0.157	-0.047
-311.939	-120.204	-0.625	-0.105
-310.924	635.541	0.080	0.201
-309.910	168.500	0.106	-0.148
-308.895	379.886	-0.059	0.120
-307.880	-51.284	-0.084	0.039
-306.866	-150.221	-0.262	-0.020
-305.851	800.000	0.042	-0.121
-304.837	-157.783	-0.149	-0.009
-303.822	15.173	-0.175	0.135
-302.807	15.091	0.342	0.265
-301.793	-0.280	0.168	-0.118
-300.778	-93.877	0.208	-0.056
-299.764	-18.775	-0.246	0.151
-298.749	-10.737	-0.197	-0.128
-297.735	-102.652	0.012	0.003
-296.720	-74.379	-0.035	0.012
-295.705	-3.146	0.082	0.057
-294.691	-84.305	-0.103	0.032
-293.676	-95.943	-0.393	0.103
-292.662	-200.000	-0.010	-0.119
-291.647	-137.000	-0.214	0.024
-290.632	-31.552	-0.238	0.132
-289.618	-200.000	0.067	-0.339
-288.603	-94.314	0.257	-0.069
-287.589	24.601	-0.134	0.109
-286.574	110.427	-0.164	0.195
-285.559	331.370	0.121	0.229
-284.545	-50.604	0.204	-0.095
-283.530	78.452	0.273	-0.287
-282.516	-73.683	-0.270	-0.097
-281.501	48.081	-0.159	0.147
-280.486	-200.000	-0.072	0.415
-279.472	-95.338	0.352	-0.093
-278.457	-200.000	-0.010	0.165
-277.443	800.000	0.117	0.410
-276.428	-200.000	-0.044	0.252
-275.413	-200.000	-0.007	0.267
-274.399	800.000	-0.011	0.044
-273.384	332.551	0.025	0.047
-272.370	-127.683	0.286	-0.041
-271.355	-23.444	0.172	0.102
-270.340	160.911	-0.156	-0.215
-269.326	640.473	-0.128	-0.321
-268.311	-113.050	0.225	-0.044
-267.297	-53.441	-0.065	-0.029
-266.282	-200.000	0.004	-0.346
-265.267	-151.412	0.191	-0.014
-264.253	113.855	0.065	-0.078
-263.238	-67.389	0.271	0.105
-262.224	0.734	0.249	-0.176
-261.209	-95.769	0.224	0.059
-260.195	226.041	0.090	0.143
-259.180	27.482	0.066	-0.055
-258.165	800.000	-0.020	-0.079
-257.151	207.026	0.143	0.220
-256.136	86.750	-0.206	0.224
-255.122	100.039	0.188	-0.215
-254.107	378.019	0.020	-0.041
-253.092	92.098	-0.142	-0.157
-252.078	-145.484	-0.303	-0.027
-251.063	-200.000	0.275	0.001
-250.049	-185.643	-0.220	-0.003
-249.034	800.000	0.173	0.660
-248.019	28.851	-0.122	-0.102
-247.005	-0.009	0.119	-0.084
-245.990	38.744	0.115	0.101
-244.976	224.101	0.097	0.155
-243.961	-180.679	-0.236	-0.005
-242.946	90.671	-0.127	0.140
-241.932	-200.000	-0.018	-0.250
-240.917	21.957	-0.312	-0.251
-239.903	800.000	0.052	0.199
-238.888	124.031	0.098	0.121
-237.873	-63.053	-0.147	0.060
-236.859	188.981	0.147	0.217
-235.844	-131.142	0.259	-0.034
-234.830	-103.479	-0.097	-0.022
-233.815	89.045	0.130	-0.143
-232.800	-200.000	-0.079	0.517
-231.786	229.322	-0.128	-0.206
-230.771	-120.577	-0.218	-0.036
-229.757	-10.938	-0.137	0.089
-228.742	50.404	-0.238	0.221
-227.727	800.000	0.114	0.326
-226.713	-200.000	-0.017	-0.109
-225.698	-200.000	0.028	-0.231
-224.684	-181.359	-0.344	0.007
-223.669	170.951	-0.148	0.209
-222.655	-137.058	0.117	0.013
-221.640	127.197	-0.162	-0.202
-220.625	-93.826	-0.104	0.028
-219.611	259.586	0.089	0.152
-218.596	-132.607	-0.285	-0.036
-217.582	-86.964	0.198	0.059
-216.567	800.000	0.048	-0.191
-215.552	-200.000	0.005	0.034
-214.538	293.209	-0.092	0.165
-213.523	-125.840	0.259	0.038
-212.509	-151.903	-0.219	-0.016
-211.494	-90.902	-0.231	-0.065
-210.479	-81.974	0.262	0.084
-209.465	-200.000	0.005	-0.237
-208.450	62.809	0.128	0.125
-207.436	-124.820	-0.108	-0.016
-206.421	-200.000	-0.043	-0.337
-205.406	787.859	-0.011	-0.029
-204.392	204.208	0.031	0.047
-203.377	-200.000	0.019	-0.154
-202.363	800.000	0.129	-0.506
-201.348	71.798	-0.164	-0.168
-200.333	-64.131	0.164	0.066
-199.319	-29.745	-0.103	0.058
-198.304	-0.231	-0.310	0.217
-197.290	21.859	0.106	-0.085
-196.275	-22.625	0.308	0.183
-195.260	94.472	-0.231	-0.258
-194.246	800.000	-0.165	0.493
-193.231	5.758	0.244	-0.177
-192.217	-146.310	0.098	-0.008
-191.202	-3.120	-0.184	-0.126
-190.187	214.424	0.105	-0.164
-189.173	31.307	0.310	0.261
-188.158	170.175	0.150	0.211
-187.144	-49.540	-0.229	0.107
-186.129	-200.000	0.002	0.113
-185.114	-112.918	0.249	0.048
-184.100	-145.156	0.117	-0.010
-183.085	569.523	0.108	0.259
-182.071	-58.273	0.134	0.057
-181.056	159.507	-0.046	0.063
-180.042	31.528	-0.258	0.218
-179.027	-87.023	-0.059	0.018
-178.012	-135.191	-0.040	0.005
-176.998	97.065	0.110	0.124
-175.983	11.388	-0.255	-0.192
-174.969	-200.000	0.005	0.107
-173.954	205.290	0.025	-0.038
-172.939	143.543	0.079	0.104
-171.925	197.981	0.050	-0.075
-170.910	130.084	-0.075	0.094
-169.896	-98.611	-0.233	0.058
-168.881	118.639	0.091	-0.110
-167.866	-138.405	0.285	-0.031
-166.852	800.000	0.065	-0.209
-165.837	-42.980	-0.122	0.061
-164.823	-33.252	-0.108	-0.059
-163.808	-164.159	0.310	0.014
-162.793	-200.000	0.062	0.277
-161.779	237.647	0.117	0.191
-160.764	306.227	-0.088	0.160
-159.750	-67.382	0.206	-0.079
-158.735	-200.000	-0.022	-0.103
-157.720	-147.150	0.147	0.012
-156.706	235.554	0.072	-0.117
-155.691	598.677	-0.068	0.165
-154.677	179.933	-0.183	0.264
-153.662	-70.877	0.362	-0.134
-152.647	291.195	0.152	-0.271
-151.633	-155.484	0.082	-0.005
-150.618	280.727	0.290	-0.509
-149.604	-178.307	0.457	0.011
-148.589	155.836	-0.142	-0.192
-147.574	800.000	-0.067	-0.213
-146.560	46.019	-0.272	-0.246
-145.545	-109.761	-0.235	-0.049
-144.531	23.140	0.077	-0.062
-143.516	-30.492	-0.198	0.110
-142.502	-68.993	0.185	-0.070
-141.487	-68.323	0.116	0.044
-140.472	-83.039	-0.130	0.041
-139.458	-200.000	-0.001	0.201
-138.443	-200.000	-0.002	0.258
-137.429	480.619	0.142	0.316
-136.414	800.000	-0.048	0.194
-135.399	-31.771	0.102	-0.056
-134.385	197.653	0.135	0.202
-133.370	-200.000	0.011	-0.093
-132.356	-114.914	0.154	0.029
-131.341	-140.791	-0.317	0.032
-130.326	-200.000	-0.007	0.073
-129.312	800.000	-0.105	0.387
-128.297	24.753	0.278	-0.226
-127.283	-94.139	0.247	0.066
-126.268	70.022	0.145	-0.146
-125.253	-10.028	-0.198	0.129
-124.239	348.569	-0.114	0.221
-123.224	-200.000	0.041	-0.212
-122.210	265.923	0.067	-0.115
-121.195	284.692	0.168	0.296
-120.180	-76.049	-0.245	0.085
