DTS Sentinel unit serial number:	SN413079Multiplexer serial number:	ORYXHardware model number:	OX4-SRSoftware version number:	ORYX F/W v4.00 Oryx Data Collector v3.7.2.0data status	okinstallation	princeton_trtdifferential loss correction	single-endedforward channel	channel 2reverse channel	N/Adate	2019/09/12time	18:26:49forward acquisition time	15.00reverse acquisition time	0.00gamma	496.2192k internal	0.2323k external	0.2323temperature offset calibration	1.0125default loss term (dB/km)	0.3790temperature slope calibration	1.0000multiplexer offset coefficient	1.0000multiplexer slope coefficient	1.0000fibre end	0.00T internal ref (°C)	33.31T ext. ref 1 (°C)	2.98T ext. ref 2 (°C)	27.90length (m)	temperature (°C)	Stokes	anti-Stokes-747.200	-89.940	0.576	0.170
-746.185	192.826	0.155	0.236
-745.171	384.755	0.033	0.069
-744.156	-200.000	0.027	0.342
-743.142	104.725	-0.317	-0.377
-742.127	626.129	0.027	0.070
-741.112	800.000	-0.140	-0.571
-740.098	-141.344	-0.574	0.059
-739.083	242.848	0.377	0.637
-738.069	-161.407	-1.161	0.061
-737.054	560.663	0.175	-0.427
-736.039	800.000	0.314	-1.351
-735.025	-96.601	0.469	0.125
-734.010	86.103	-0.959	-1.066
-732.996	-200.000	0.012	0.395
-731.981	800.000	0.129	-0.548
-730.966	800.000	0.264	-0.756
-729.952	-144.295	-0.502	0.047
-728.937	120.200	-0.176	0.220
-727.923	-200.000	-0.063	0.968
-726.908	-15.515	0.287	-0.185
-725.894	-25.976	-0.859	-0.510
-724.879	-69.774	0.095	-0.037
-723.864	789.380	0.277	0.769
-722.850	-2.345	0.644	-0.456
-721.835	212.101	-0.315	0.501
-720.821	-200.000	-0.034	0.246
-719.806	666.223	-0.117	-0.305
-718.791	-20.427	0.646	0.401
-717.777	150.300	-0.384	0.526
-716.762	115.697	-0.231	-0.284
-715.748	195.824	0.111	0.170
-714.733	-200.000	-0.065	0.321
-713.718	-179.127	0.459	-0.010
-712.704	-1.506	-0.145	-0.103
-711.689	604.191	-0.159	-0.400
-710.675	36.382	-0.321	0.285
-709.660	-200.000	0.053	-0.543
-708.645	231.345	0.393	-0.649
-707.631	-91.574	0.373	-0.107
-706.616	128.359	-0.076	0.097
-705.602	80.874	0.675	0.734
-704.587	-12.632	0.665	0.437
-703.572	-65.021	-0.227	-0.092
-702.558	-139.131	-0.771	0.084
-701.543	-75.240	0.444	-0.160
-700.529	-31.637	0.382	0.216
-699.514	-110.655	-0.278	0.058
-698.499	109.952	-0.481	-0.582
-697.485	267.904	-0.287	-0.506
-696.470	-156.040	0.094	-0.006
-695.456	800.000	0.283	0.936
-694.441	164.682	0.194	0.275
-693.426	267.509	0.249	-0.439
-692.412	219.282	0.212	-0.343
-691.397	525.986	-0.206	0.489
-690.383	120.017	0.265	-0.331
-689.368	121.886	0.092	-0.116
-688.354	445.398	0.203	-0.450
-687.339	228.499	-0.434	-0.713
-686.324	364.733	0.069	0.141
-685.310	97.255	0.238	-0.275
-684.295	313.127	-0.318	0.602
-683.281	800.000	0.386	1.162
-682.266	800.000	0.112	0.338
-681.251	-47.909	0.146	0.071
-680.237	360.487	0.062	0.125
-679.222	-200.000	-0.054	-0.620
-678.208	161.723	0.342	-0.483
-677.193	-74.046	-0.705	0.257
-676.178	140.149	-0.212	0.281
-675.164	-134.708	0.109	0.013
-674.149	-33.256	0.295	-0.164
-673.135	-45.923	0.118	-0.059
-672.120	-200.000	0.149	-0.777
-671.105	127.309	-0.444	0.567
-670.091	-200.000	0.135	-0.656
-669.076	-169.649	-0.820	0.030
-668.062	305.708	-0.208	-0.389
-667.047	6.349	-0.443	-0.331
-666.032	-200.000	-0.060	-0.570
-665.018	-182.851	0.270	0.005
-664.003	-115.341	-0.256	-0.049
-662.989	-200.000	-0.069	-0.758
-661.974	-3.698	-0.583	-0.408
-660.959	-109.830	-0.754	-0.159
-659.945	-200.000	0.284	1.392
-658.930	165.337	-0.194	0.276
-657.916	-200.000	0.089	-0.489
-656.901	1.191	0.230	0.166
-655.886	800.000	0.103	0.296
-654.872	-93.673	-0.305	-0.085
-653.857	-137.355	0.249	-0.028
-652.843	-83.403	-0.142	0.046
-651.828	-161.517	0.753	0.039
-650.814	206.735	0.534	-0.837
-649.799	78.742	0.059	0.063
-648.784	135.595	-0.525	-0.688
-647.770	-26.637	0.721	0.424
-646.755	-200.000	0.128	-0.822
-645.741	106.340	-0.258	-0.308
-644.726	228.012	-0.272	0.445
-643.711	132.531	0.388	-0.504
-642.697	-68.617	-0.657	0.256
-641.682	-156.247	0.238	0.015
-640.668	-75.587	0.547	0.196
-639.653	-50.101	-0.205	-0.098
-638.638	800.000	0.092	-0.331
-637.624	-200.000	-0.012	-0.843
-636.609	-147.008	-0.074	-0.006
-635.595	133.167	-0.293	0.381
-634.580	658.002	0.243	0.628
-633.565	32.351	-0.212	-0.184
-632.551	-200.000	0.159	-1.170
-631.536	-200.000	-0.022	0.407
-630.522	64.025	-0.239	-0.242
-629.507	-195.871	0.604	-0.004
-628.492	-56.183	-0.058	0.026
-627.478	-200.000	-0.025	0.215
-626.463	-200.000	-0.070	0.689
-625.449	800.000	-0.177	-0.644
-624.434	98.582	-0.509	0.590
-623.419	94.536	-0.249	-0.284
-622.405	680.893	0.161	-0.422
-621.390	-43.525	-0.616	-0.313
-620.376	-200.000	-0.046	0.562
-619.361	-200.000	0.141	-0.995
-618.346	148.240	0.212	0.288
-617.332	-132.345	-0.432	-0.056
-616.317	425.799	-0.067	-0.144
-615.303	-32.287	0.910	0.511
-614.288	-64.932	0.560	-0.227
-613.273	-124.584	0.346	-0.054
-612.259	-86.285	-0.799	0.247
-611.244	143.387	-0.257	-0.344
-610.230	-101.159	-0.313	0.077
-609.215	291.890	0.090	-0.165
-608.201	77.896	0.456	-0.488
-607.186	550.425	0.336	-0.809
-606.171	-35.048	-0.659	-0.361
-605.157	301.028	-0.191	-0.354
-604.142	-25.734	0.131	0.078
-603.128	448.741	0.154	-0.341
-602.113	-109.564	1.080	-0.229
-601.098	-12.708	-0.661	-0.433
-600.084	-40.050	0.150	0.079
-599.069	711.233	-0.103	0.274
-598.055	45.067	0.118	0.109
-597.040	-98.282	0.251	-0.065
-596.025	-200.000	-0.038	0.266
-595.011	-139.384	-0.597	0.064
-593.996	-40.605	-0.578	-0.301
-592.982	291.241	0.233	0.425
-591.967	154.196	0.400	0.551
-590.952	800.000	-0.351	1.042
-589.938	360.662	0.139	-0.280
-588.923	-54.105	0.558	0.255
-587.909	-29.926	0.374	0.214
-586.894	-69.204	-0.322	-0.124
-585.879	30.355	0.116	0.099
-584.865	-200.000	0.031	-0.272
-583.850	-145.284	-0.892	-0.081
-582.836	-200.000	-0.001	0.777
-581.821	223.900	-0.453	-0.734
-580.806	-200.000	0.030	0.401
-579.792	444.366	0.267	0.588
-578.777	-36.743	-0.784	-0.422
-577.763	-200.000	0.040	0.312
-576.748	730.455	-0.122	-0.328
-575.733	-139.279	-0.887	-0.096
-574.719	38.191	0.261	0.233
-573.704	800.000	0.191	-0.555
-572.690	-43.951	0.147	0.074
-571.675	117.847	0.242	-0.299
-570.661	-200.000	-0.034	0.654
-569.646	128.614	-0.247	0.316
-568.631	-144.032	0.091	-0.009
-567.617	155.495	-0.099	0.137
-566.602	79.414	0.192	-0.206
-565.588	-200.000	0.096	1.342
-564.573	102.961	-0.347	-0.408
-563.558	-83.048	-0.438	0.141
-562.544	-2.700	-0.201	0.141
-561.529	-11.104	0.324	0.214
-560.515	-56.274	0.189	0.084
-559.500	-187.806	-0.688	-0.009
-558.485	140.708	0.150	-0.199
-557.471	800.000	-0.085	-0.313
-556.456	23.413	-0.201	-0.166
-555.442	-200.000	0.108	0.809
-554.427	292.189	-0.065	-0.119
-553.412	47.626	0.569	0.532
-552.398	-70.728	-0.224	-0.085
-551.383	450.700	-0.437	0.968
-550.369	-117.977	-0.109	-0.019
-549.354	-200.000	-0.019	-0.119
-548.339	-116.320	-1.254	-0.233
-547.325	169.103	0.558	-0.798
-546.310	-134.134	-0.103	-0.013
-545.296	-39.935	0.799	-0.418
-544.281	-18.444	0.331	0.207
-543.266	-115.009	-0.215	0.041
-542.252	5.517	-0.331	0.245
-541.237	38.212	-0.547	0.487
-540.223	269.102	0.331	0.582
-539.208	-33.306	0.313	0.174
-538.193	-136.980	0.868	0.100
-537.179	293.493	0.439	0.803
-536.164	-110.819	0.512	-0.106
-535.150	800.000	0.180	0.786
-534.135	-160.317	-0.280	-0.015
-533.121	361.693	0.295	-0.592
-532.106	-9.454	0.509	-0.340
-531.091	-200.000	-0.061	-0.344
-530.077	12.903	0.583	0.452
-529.062	-27.626	0.487	-0.283
-528.048	-59.579	0.406	-0.174
-527.033	-46.680	0.783	-0.384
-526.018	89.839	-0.235	-0.262
-525.004	146.471	0.137	-0.185
-523.989	-89.507	-0.983	-0.289
-522.975	256.079	-0.339	-0.582
-521.960	46.505	0.956	0.888
-520.945	180.233	0.305	-0.447
-519.931	-85.857	-0.499	-0.155
-518.916	-4.088	-0.264	0.183
-517.902	156.352	0.084	0.115
-516.887	-119.804	0.506	-0.087
-515.872	373.186	0.288	-0.585
-514.858	37.718	0.760	0.676
-513.843	-178.959	0.542	0.012
-512.829	-200.000	-0.020	-0.292
-511.814	-200.000	-0.029	-0.658
-510.799	800.000	0.187	0.738
-509.785	-108.115	0.289	-0.063
-508.770	-200.000	-0.117	0.649
-507.756	461.182	0.146	0.326
-506.741	42.354	-0.466	-0.424
-505.726	800.000	-0.128	-0.433
-504.712	153.003	-0.285	0.389
-503.697	-86.193	-0.747	0.230
-502.683	800.000	-0.196	-0.707
-501.668	-63.841	-0.228	0.094
-500.653	1.846	-0.245	0.177
-499.639	-200.000	0.049	0.582
-498.624	-200.000	0.026	-0.141
-497.610	52.955	0.445	0.426
-496.595	636.101	0.025	0.064
-495.581	392.162	-0.214	-0.445
-494.566	-25.420	0.304	0.180
-493.551	-200.000	-0.062	0.742
-492.537	-58.003	0.275	-0.120
-491.522	-200.000	0.032	0.185
-490.508	404.158	0.153	-0.321
-489.493	-63.048	-0.504	-0.208
-488.478	800.000	0.290	-0.880
-487.464	-65.454	-0.743	-0.298
-486.449	-104.137	-0.569	0.132
-485.435	-173.378	-0.302	0.009
-484.420	0.390	-0.128	0.092
-483.405	-200.000	0.058	0.253
-482.391	16.584	-0.450	0.356
-481.376	118.266	0.198	0.244
-480.362	55.337	-0.316	-0.305
-479.347	-47.146	-0.133	-0.065
-478.332	183.580	0.258	0.382
-477.318	-133.771	0.724	-0.090
-476.303	270.835	-0.324	0.570
-475.289	-43.712	0.608	0.306
-474.274	-112.911	-0.805	-0.159
-473.259	-42.878	-0.570	0.289
-472.245	800.000	-0.110	0.358
-471.230	-34.287	-0.478	-0.262
-470.216	-200.000	-0.104	-0.954
-469.201	406.048	0.247	0.520
-468.186	-61.981	-0.211	0.088
-467.172	-105.409	-0.345	0.078
-466.157	-74.671	0.630	0.226
-465.143	23.669	-0.313	0.257
-464.128	167.422	-0.192	0.272
-463.113	-12.840	0.315	-0.205
-462.099	-200.000	0.126	0.959
-461.084	-39.345	-0.506	0.265
-460.070	-8.662	0.226	-0.151
-459.055	-168.119	0.714	0.028
-458.040	-143.820	0.491	0.046
-457.026	235.821	0.018	0.030
-456.011	-145.690	0.573	0.051
-454.997	-145.572	-0.391	-0.035
-453.982	208.942	0.442	0.691
-452.968	-95.045	0.433	-0.117
-451.953	68.118	-0.334	-0.342
-450.938	602.550	0.320	-0.795
-449.924	181.546	-0.400	-0.587
-448.909	-200.000	-0.026	-0.186
-447.895	138.439	-0.125	0.164
-446.880	-200.000	0.021	0.360
-445.865	-200.000	-0.114	-0.823
-444.851	168.612	0.485	0.689
-443.836	-45.097	-0.504	-0.250
-442.822	-200.000	-0.057	-0.566
-441.807	422.972	-0.433	-0.928
-440.792	-142.564	0.982	0.096
-439.778	-135.492	-0.667	0.079
-438.763	-94.816	0.556	0.151
-437.749	-111.452	-0.410	0.083
-436.734	-200.000	0.033	-0.621
-435.719	-200.000	-0.011	0.136
-434.705	-155.713	0.410	0.026
-433.690	-164.168	0.941	-0.043
-432.676	-200.000	0.035	0.412
-431.661	800.000	-0.074	0.209
-430.646	-12.960	-0.390	-0.253
-429.632	140.351	0.307	-0.405
-428.617	-200.000	0.058	0.939
-427.603	-129.427	-0.330	-0.046
-426.588	800.000	-0.095	-0.384
-425.573	734.714	0.314	0.839
-424.559	421.164	0.273	0.585
-423.544	488.519	-0.262	0.597
-422.530	65.598	0.312	0.315
-421.515	800.000	0.093	-0.289
-420.500	-48.697	-0.382	0.183
-419.486	132.728	-0.387	-0.498
-418.471	34.996	-0.351	-0.307
-417.457	399.586	0.017	0.036
-416.442	-4.356	0.237	0.163
-415.428	-62.713	0.486	0.201
-414.413	106.302	-0.207	0.245
-413.398	800.000	0.036	0.107
-412.384	-200.000	0.050	0.484
-411.369	476.891	-0.386	-0.869
-410.355	641.004	-0.173	-0.440
-409.340	355.181	-0.048	0.095
-408.325	800.000	-0.275	0.981
-407.311	221.660	-0.212	-0.340
-406.296	-200.000	-0.087	-0.852
-405.282	800.000	-0.186	0.653
-404.267	-119.424	0.225	-0.039
-403.252	-200.000	0.139	0.701
-402.238	356.688	-0.210	-0.418
-401.223	19.355	0.650	-0.521
-400.209	-153.791	0.188	0.013
-399.194	-42.584	-0.270	0.137
-398.179	-107.619	0.757	-0.165
-397.165	800.000	-0.161	0.475
-396.150	-93.206	0.565	-0.156
-395.136	89.176	-0.248	-0.275
-394.121	28.188	-0.660	0.555
-393.106	-154.198	0.929	-0.063
-392.092	-25.343	-0.104	0.061
-391.077	358.860	-0.388	0.771
-390.063	800.000	0.206	0.665
-389.048	-200.000	-0.024	-0.000
-388.033	344.499	0.206	0.403
-387.019	207.005	-0.264	-0.410
-386.004	-200.000	-0.016	0.277
-384.990	-54.014	0.465	0.211
-383.975	-172.316	-0.913	-0.029
-382.960	-17.932	0.176	-0.110
-381.946	143.320	0.569	-0.754
-380.931	-90.376	-0.187	0.054
-379.917	-105.504	-0.219	0.050
-378.902	-66.726	-0.345	0.136
-377.888	800.000	-0.352	-1.137
-376.873	-132.006	0.121	-0.016
-375.858	444.984	0.133	0.291
-374.844	-87.605	0.495	-0.149
-373.829	800.000	0.021	-0.057
-372.815	278.487	-0.045	-0.079
-371.800	101.400	0.398	-0.461
-370.785	-200.000	0.081	-0.661
-369.771	-200.000	0.045	0.372
-368.756	-89.049	0.808	-0.238
-367.742	93.839	0.586	-0.661
-366.727	-50.690	0.957	-0.448
-365.712	176.671	-0.091	0.131
-364.698	-3.680	-0.380	0.263
-363.683	-77.924	-0.146	-0.050
-362.669	800.000	0.182	-0.669
-361.654	-37.459	-0.614	-0.326
-360.639	129.596	-0.260	-0.330
-359.625	496.086	0.058	0.132
-358.610	44.054	0.464	0.423
-357.596	-200.000	0.005	0.595
-356.581	-0.126	0.445	-0.315
-355.566	-86.807	0.070	-0.021
-354.552	522.985	0.298	-0.696
-353.537	-47.312	0.632	-0.306
-352.523	-200.000	0.015	0.745
-351.508	-97.059	0.442	0.115
-350.493	301.805	-0.275	-0.506
-349.479	112.230	-0.062	-0.074
-348.464	56.716	-0.676	-0.655
-347.450	800.000	0.173	-0.670
-346.435	273.807	-0.455	-0.800
-345.420	-200.000	-0.641	0.000
-344.406	-72.154	0.724	0.267
-343.391	-127.672	-0.339	0.049
-342.377	-127.149	0.460	-0.067
-341.362	142.541	-0.165	0.218
-340.348	-164.444	-0.216	0.010
-339.333	-34.245	-0.579	0.316
-338.318	-27.355	-0.209	0.121
-337.304	39.479	-0.703	0.626
-336.289	-169.406	-0.284	0.010
-335.275	-41.305	0.254	0.130
-334.260	164.761	0.263	0.368
-333.245	70.414	-0.399	0.410
-332.231	-182.829	0.622	0.011
-331.216	-200.000	0.141	0.623
-330.202	136.598	0.198	0.256
-329.187	-147.377	-0.496	-0.042
-328.172	-39.995	-0.471	-0.244
-327.158	-91.669	0.619	-0.175
-326.143	-68.320	0.439	-0.169
-325.129	371.525	0.228	0.460
-324.114	-51.534	-0.338	-0.157
-323.099	-179.553	1.000	-0.022
-322.085	353.921	0.143	-0.282
-321.070	222.941	0.296	0.473
-320.056	-159.417	-0.560	0.031
-319.041	-166.101	0.176	-0.007
-318.026	-132.379	-0.321	0.041
-317.012	-157.247	0.501	-0.030
-315.997	39.888	0.343	-0.306
-314.983	-8.716	0.110	0.073
-313.968	-61.331	0.354	0.148
-312.953	5.919	-0.378	-0.278
-311.939	64.667	-0.397	0.398
-310.924	313.850	-0.150	-0.281
-309.910	-23.753	0.282	-0.168
-308.895	-38.567	-0.056	-0.029
-307.880	110.522	0.229	-0.273
-306.866	-105.856	0.448	0.100
-305.851	800.000	-0.089	-0.354
-304.837	47.910	-0.293	0.272
-303.822	-200.000	-0.193	-0.859
-302.807	-14.280	0.271	-0.173
-301.793	800.000	-0.178	-0.592
-300.778	800.000	0.282	-0.826
-299.764	-200.000	0.044	0.583
-298.749	163.732	-0.663	-0.926
-297.735	30.563	-0.243	-0.206
-296.720	-53.837	-0.622	0.281
-295.705	-85.013	-1.089	0.339
-294.691	198.327	-0.062	-0.094
-293.676	1.255	0.078	-0.056
-292.662	-200.000	0.002	-0.516
-291.647	39.130	-0.231	-0.205
-290.632	265.854	0.348	-0.603
-289.618	459.123	0.155	-0.341
-288.603	69.550	-0.505	-0.516
-287.589	78.033	0.443	-0.469
-286.574	239.895	-0.317	-0.523
-285.559	-200.000	0.034	0.306
-284.545	-40.184	1.174	-0.606
-283.530	559.770	0.241	0.578
-282.516	-102.233	0.220	0.052
-281.501	180.931	0.174	-0.253
-280.486	-38.511	-0.099	0.052
-279.472	-84.996	0.393	0.122
-278.457	-175.336	0.441	-0.012
-277.443	-3.320	-0.388	0.268
-276.428	549.067	-0.114	-0.270
-275.413	-200.000	0.038	0.441
-274.399	184.967	-0.122	-0.179
-273.384	167.016	-0.461	-0.649
-272.370	-200.000	0.686	0.002
-271.355	800.000	0.242	-0.686
-270.340	69.806	-0.740	-0.756
-269.326	652.148	-0.287	0.729
-268.311	-21.450	0.263	-0.159
-267.297	23.950	0.577	0.471
-266.282	124.061	-0.034	-0.042
-265.267	-87.848	-0.610	-0.182
-264.253	800.000	-0.191	0.641
-263.238	-12.698	-0.804	0.520
-262.224	94.198	-0.415	0.467
-261.209	-32.604	-1.071	0.591
-260.195	-63.044	-0.291	-0.119
-259.180	462.196	-0.150	0.332
-258.165	73.002	0.260	-0.269
-257.151	94.594	0.036	0.040
-256.136	48.445	0.209	0.194
-255.122	-136.533	-0.414	-0.048
-254.107	-200.000	0.093	0.519
-253.092	800.000	0.337	0.939
-252.078	-158.169	0.617	0.036
-251.063	147.414	0.361	-0.482
-250.049	-74.726	0.307	-0.109
-249.034	-48.296	0.423	0.202
-248.019	94.533	0.637	-0.716
-247.005	-77.455	-0.282	0.097
-245.990	102.587	0.364	0.421
-244.976	-89.647	0.854	-0.248
-243.961	64.738	0.317	-0.317
-242.946	800.000	-0.136	-0.416
-241.932	-25.685	-0.219	0.128
-240.917	800.000	-0.197	0.745
-239.903	-83.095	-0.420	0.134
-238.888	-171.808	-0.347	0.011
-237.873	146.706	-0.583	0.776
-236.859	800.000	0.130	0.477
-235.844	14.168	-0.842	-0.649
-234.830	56.344	-0.428	0.412
-233.815	19.674	-0.285	-0.227
-232.800	-200.000	0.026	0.875
-231.786	800.000	0.098	0.359
-230.771	-121.616	0.309	-0.051
-229.757	-200.000	-0.049	0.358
-228.742	-151.604	-0.352	-0.026
-227.727	599.676	0.058	0.142
-226.713	602.274	-0.168	0.413
-225.698	-97.775	-0.519	-0.133
-224.684	-52.328	-0.146	0.067
-223.669	42.047	0.376	0.338
-222.655	800.000	-0.108	-0.366
-221.640	80.815	0.543	0.579
-220.625	637.487	0.076	-0.191
-219.611	314.493	-0.309	0.575
-218.596	-16.618	-0.063	0.040
-217.582	83.264	-0.797	-0.858
-216.567	-41.426	0.244	0.124
-215.552	42.069	-0.474	0.426
-214.538	-85.386	-0.393	-0.121
-213.523	-48.957	0.343	0.163
-212.509	747.586	0.226	0.601
-211.494	-94.374	-0.556	0.150
-210.479	-160.886	-0.747	-0.039
-209.465	-16.441	0.862	-0.540
-208.450	13.639	-0.297	0.228
-207.436	708.240	0.204	0.534
-206.421	224.224	-0.012	-0.019
-205.406	299.739	0.059	-0.107
-204.392	143.649	0.391	-0.515
-203.377	-198.846	0.431	0.002
-202.363	-76.488	0.663	0.230
-201.348	-90.349	-0.393	-0.113
-200.333	253.380	-0.077	-0.129
-199.319	149.825	-0.287	-0.385
-198.304	-97.610	-0.390	0.100
-197.290	-158.495	0.352	-0.020
-196.275	124.656	-0.113	-0.140
-195.260	-79.565	0.166	0.055
-194.246	659.522	0.383	-0.974
-193.231	800.000	-0.159	0.653
-192.217	800.000	0.106	-0.402
-191.202	-19.951	-0.364	-0.222
-190.187	800.000	-0.254	0.830
-189.173	-200.000	-0.011	-0.589
-188.158	114.227	-0.405	-0.487
-187.144	394.611	-0.094	0.194
-186.129	800.000	0.180	-0.770
-185.114	-147.679	-0.569	0.047
-184.100	800.000	-0.043	0.131
-183.085	322.443	0.264	-0.496
-182.071	-39.767	-0.340	0.176
-181.056	-200.000	0.013	0.066
-180.042	-129.482	-0.276	-0.038
-179.027	800.000	-0.157	0.672
-178.012	-131.985	-0.506	-0.065
-176.998	800.000	-0.038	-0.123
-175.983	-104.820	0.987	-0.224
-174.969	800.000	0.129	0.446
-173.954	-4.797	0.918	0.625
-172.939	147.637	-0.087	-0.115
-171.925	73.611	0.124	0.129
-170.910	-75.243	-0.517	0.182
-169.896	-200.000	0.022	0.799
-168.881	-86.198	0.068	-0.021
-167.866	634.677	0.233	-0.584
-166.852	6.445	0.331	-0.243
-165.837	-200.000	0.148	-1.455
-164.823	-200.000	0.001	0.045
-163.808	45.729	0.797	0.727
-162.793	-41.900	-0.527	-0.266
-161.779	-98.385	0.612	0.155
-160.764	259.267	0.389	0.662
-159.750	-165.110	-1.060	-0.046
-158.735	-200.000	-0.143	0.870
-157.720	-200.000	-0.144	0.626
-156.706	262.789	0.138	-0.236
-155.691	-113.014	0.669	-0.130
-154.677	-18.080	-0.651	-0.402
-153.662	524.031	0.221	-0.513
-152.647	-121.116	-0.639	0.106
-151.633	-25.713	-0.583	-0.339
-150.618	-163.641	0.713	0.033
-149.604	454.728	0.216	0.472
-148.589	309.971	-0.320	-0.592
-147.574	-200.000	-0.037	-0.214
-146.560	-118.420	-0.317	0.055
-145.545	-161.768	0.749	0.038
-144.531	64.821	0.243	-0.242
-143.516	82.041	-0.143	0.153
-142.502	-200.000	0.003	0.539
-141.487	-200.000	-0.011	0.851
-140.472	-115.625	-0.343	0.063
-139.458	13.248	0.486	0.371
-138.443	800.000	0.149	0.515
-137.429	-10.338	0.637	0.416
-136.414	800.000	0.275	0.948
-135.399	-102.023	0.213	0.051
-134.385	261.085	0.333	-0.569
-133.370	-86.185	-0.571	-0.174
-132.356	800.000	0.089	-0.244
-131.341	237.373	-0.142	-0.233
-130.326	-126.057	0.418	0.062
-129.312	103.809	-0.404	-0.468
-128.297	-200.000	-0.061	0.287
-127.283	-128.706	0.650	0.090
-126.268	275.013	-0.251	-0.438
-125.253	-117.229	-0.211	0.038
-124.239	6.592	0.453	-0.332
-123.224	-97.059	-1.125	-0.290
-122.210	74.985	-0.088	0.091
-121.195	-200.000	-0.092	-0.436
