DTS Sentinel unit serial number:	SN413079Multiplexer serial number:	ORYXHardware model number:	OX4-SRSoftware version number:	ORYX F/W v4.00 Oryx Data Collector v3.7.2.0data status	okinstallation	princeton_trtdifferential loss correction	single-endedforward channel	channel 2reverse channel	N/Adate	2019/09/15time	11:15:35forward acquisition time	60.00reverse acquisition time	0.00gamma	496.2192k internal	0.2315k external	0.2315temperature offset calibration	1.0020default loss term (dB/km)	0.3790temperature slope calibration	1.0000multiplexer offset coefficient	1.0000multiplexer slope coefficient	1.0000fibre end	0.00T internal ref (°C)	34.31T ext. ref 1 (°C)	5.03T ext. ref 2 (°C)	29.70length (m)	temperature (°C)	Stokes	anti-Stokes-747.200	155.903	-0.114	0.160
-746.185	800.000	0.055	0.220
-745.171	-110.559	0.141	0.029
-744.156	138.330	-0.076	0.101
-743.142	275.451	0.152	0.273
-742.127	360.559	-0.296	0.600
-741.112	-200.000	-0.019	-0.272
-740.098	-50.763	0.057	0.027
-739.083	800.000	0.052	0.211
-738.069	-200.000	-0.017	0.109
-737.054	149.358	-0.167	0.229
-736.039	80.574	-0.151	-0.165
-735.025	-75.806	0.097	0.035
-734.010	-57.784	-0.191	-0.085
-732.996	-161.667	0.290	-0.015
-731.981	-61.299	-0.115	0.049
-730.966	561.325	-0.069	-0.169
-729.952	143.829	0.143	-0.193
-728.937	800.000	0.096	-0.349
-727.923	68.287	-0.156	-0.162
-726.908	-200.000	0.017	-0.111
-725.894	-123.556	-0.327	-0.053
-724.879	-43.175	-0.152	0.078
-723.864	42.481	-0.252	0.232
-722.850	111.820	0.037	-0.045
-721.835	-200.000	-0.017	-0.674
-720.821	21.214	-0.313	0.257
-719.806	-66.079	0.211	0.085
-718.791	-87.867	0.186	0.057
-717.777	800.000	-0.098	0.373
-716.762	175.775	0.109	-0.160
-715.748	18.711	-0.138	-0.112
-714.733	359.188	-0.077	-0.155
-713.718	-49.024	-0.236	-0.114
-712.704	243.967	-0.167	-0.284
-711.689	-200.000	0.028	-0.164
-710.675	-200.000	-0.052	-0.234
-709.660	68.683	0.092	-0.096
-708.645	-38.202	-0.178	0.095
-707.631	-121.646	-0.319	-0.054
-706.616	-22.378	0.255	-0.156
-705.602	-24.343	0.185	-0.112
-704.587	284.677	-0.069	-0.125
-703.572	-200.000	-0.096	-0.437
-702.558	419.196	-0.074	-0.160
-701.543	34.654	0.108	0.095
-700.529	133.104	-0.140	-0.183
-699.514	165.098	0.092	0.131
-698.499	800.000	-0.092	-0.269
-697.485	151.842	-0.201	-0.277
-696.470	-158.297	0.344	0.020
-695.456	-47.483	-0.339	0.167
-694.441	-91.635	-0.083	-0.024
-693.426	617.524	-0.036	-0.092
-692.412	1.746	0.250	-0.182
-691.397	-200.000	-0.005	-0.354
-690.383	-91.752	-0.203	0.058
-689.368	-161.119	0.356	-0.019
-688.354	-70.899	0.091	-0.035
-687.339	169.544	-0.087	-0.126
-686.324	64.562	-0.175	0.178
-685.310	109.607	0.092	0.111
-684.295	64.267	0.053	-0.054
-683.281	-17.710	-0.180	0.114
-682.266	-6.252	-0.252	0.174
-681.251	-100.245	-0.234	0.059
-680.237	12.909	0.155	-0.121
-679.222	-200.000	-0.313	0.001
-678.208	-200.000	-0.037	0.202
-677.193	-200.000	0.015	0.071
-676.178	800.000	-0.048	-0.205
-675.164	171.334	-0.100	0.144
-674.149	-78.205	-0.241	0.084
-673.135	112.220	-0.118	0.144
-672.120	-200.000	-0.012	0.284
-671.105	140.808	-0.184	0.246
-670.091	800.000	-0.073	0.219
-669.076	-149.765	0.138	-0.011
-668.062	800.000	0.088	0.302
-667.047	-200.000	0.032	0.157
-666.032	6.884	-0.220	0.165
-665.018	-92.916	0.343	-0.097
-664.003	119.413	-0.039	0.049
-662.989	508.217	0.051	0.119
-661.974	316.095	0.151	0.288
-660.959	-43.201	-0.133	0.068
-659.945	-200.000	0.006	-0.034
-658.930	-200.000	0.029	0.531
-657.916	-47.906	-0.124	0.061
-656.901	-200.000	-0.044	0.432
-655.886	153.797	0.120	-0.167
-654.872	125.679	0.215	-0.274
-653.857	628.934	-0.168	-0.430
-652.843	551.865	-0.069	0.168
-651.828	-43.046	0.319	0.163
-650.814	8.134	0.165	0.125
-649.799	-19.965	-0.388	-0.242
-648.784	-38.195	-0.216	0.116
-647.770	800.000	-0.010	-0.036
-646.755	47.222	0.131	-0.123
-645.741	65.984	-0.274	-0.281
-644.726	107.041	-0.128	-0.153
-643.711	91.670	-0.146	0.166
-642.697	-138.943	-0.175	-0.019
-641.682	100.396	0.053	-0.062
-640.668	579.201	-0.064	-0.157
-639.653	296.663	0.061	0.113
-638.638	-25.463	-0.040	0.024
-637.624	154.137	-0.074	0.102
-636.609	122.355	-0.150	-0.189
-635.595	-200.000	0.038	0.269
-634.580	7.986	0.253	-0.192
-633.565	245.995	0.044	-0.074
-632.551	114.382	0.062	0.076
-631.536	-200.000	-0.019	0.172
-630.522	-200.000	-0.019	0.261
-629.507	-200.000	0.007	-0.048
-628.492	-115.711	-0.204	0.039
-627.478	692.205	-0.108	0.284
-626.463	800.000	0.057	-0.231
-625.449	-6.887	-0.108	0.074
-624.434	147.739	-0.100	-0.136
-623.419	-37.755	-0.106	-0.057
-622.405	-200.000	0.055	-0.307
-621.390	235.081	-0.038	-0.063
-620.376	-200.000	-0.037	0.425
-619.361	482.936	0.051	-0.117
-618.346	-110.323	-0.385	0.081
-617.332	291.686	-0.043	0.078
-616.317	-92.149	0.087	0.025
-615.303	-79.374	0.027	0.009
-614.288	-98.401	0.184	-0.048
-613.273	-91.712	0.089	-0.026
-612.259	-126.508	0.273	-0.041
-611.244	-121.773	0.275	0.046
-610.230	779.831	-0.111	0.307
-609.215	-63.125	-0.381	-0.158
-608.201	205.305	-0.070	0.110
-607.186	-200.000	-0.051	0.349
-606.171	800.000	-0.060	-0.192
-605.157	-92.968	-0.277	-0.078
-604.142	-200.000	0.019	-0.216
-603.128	-62.946	0.213	-0.089
-602.113	708.630	0.109	-0.291
-601.098	417.878	0.072	-0.155
-600.084	-26.839	-0.152	0.089
-599.069	16.654	0.200	-0.160
-598.055	223.459	0.192	-0.313
-597.040	137.592	0.046	0.061
-596.025	92.519	-0.061	0.069
-595.011	-105.625	-0.172	-0.039
-593.996	12.410	-0.048	-0.037
-592.982	800.000	-0.071	0.229
-591.967	243.475	-0.135	-0.228
-590.952	213.671	-0.242	-0.386
-589.938	325.794	-0.194	-0.374
-588.923	-83.408	-0.150	0.048
-587.909	-47.529	-0.107	0.053
-586.894	-200.000	0.002	-0.022
-585.879	-147.550	-0.340	-0.029
-584.865	-20.556	0.032	0.020
-583.850	-200.000	0.021	-0.180
-582.836	-200.000	-0.000	-0.075
-581.821	-200.000	0.005	0.233
-580.806	-100.021	-0.062	0.016
-579.792	-36.570	0.055	0.030
-578.777	382.497	0.176	-0.364
-577.763	-18.790	0.147	-0.092
-576.748	-166.434	0.224	0.009
-575.733	800.000	0.021	0.064
-574.719	-200.000	0.009	-0.154
-573.704	-200.000	0.030	0.146
-572.690	800.000	-0.142	0.472
-571.675	-23.222	0.323	0.195
-570.661	800.000	-0.121	-0.454
-569.646	-133.765	-0.301	-0.038
-568.631	114.312	0.186	0.228
-567.617	-96.537	-0.181	-0.048
-566.602	24.912	0.391	-0.326
-565.588	800.000	-0.021	0.066
-564.573	584.176	0.107	0.264
-563.558	-121.318	-0.048	-0.008
-562.544	-200.000	-0.006	0.114
-561.529	-9.984	0.161	-0.108
-560.515	130.681	0.141	0.182
-559.500	346.795	-0.044	-0.087
-558.485	80.005	-0.324	0.350
-557.471	800.000	0.029	0.090
-556.456	-64.234	0.323	-0.132
-555.442	-127.188	-0.272	-0.040
-554.427	82.082	-0.171	0.186
-553.412	62.540	0.086	-0.087
-552.398	-200.000	-0.050	0.254
-551.383	543.393	0.091	0.218
-550.369	-41.764	0.210	0.108
-549.354	225.536	-0.266	-0.434
-548.339	-3.064	-0.193	-0.135
-547.325	-80.116	0.109	-0.037
-546.310	44.083	0.043	-0.040
-545.296	-143.115	-0.400	-0.039
-544.281	71.663	0.043	0.044
-543.266	-200.000	0.038	-0.313
-542.252	93.670	-0.163	-0.185
-541.237	-96.940	0.054	-0.014
-540.223	-200.000	0.013	-0.171
-539.208	372.431	-0.073	0.149
-538.193	-153.516	0.041	-0.003
-537.179	-92.405	-0.221	0.062
-536.164	-200.000	0.011	0.161
-535.150	68.100	0.257	-0.265
-534.135	499.391	-0.089	-0.205
-533.121	-25.308	0.173	-0.103
-532.106	-18.163	-0.325	0.205
-531.091	-161.290	-0.172	-0.009
-530.077	-98.884	-0.640	-0.163
-529.062	-200.000	-0.045	0.405
-528.048	38.884	-0.174	0.157
-527.033	-146.493	-0.292	0.026
-526.018	539.194	-0.046	0.110
-525.004	-130.107	0.310	0.043
-523.989	-132.691	-0.169	-0.022
-522.975	-200.000	-0.009	0.115
-521.960	-53.607	-0.210	0.097
-520.945	-200.000	0.003	-0.132
-519.931	-63.473	0.091	-0.038
-518.916	-110.601	0.182	-0.038
-517.902	-157.391	-0.203	0.012
-516.887	800.000	0.054	-0.218
-515.872	-30.936	-0.164	0.093
-514.858	206.605	-0.094	-0.147
-513.843	49.322	-0.138	-0.131
-512.829	100.679	-0.086	0.101
-511.814	213.029	0.074	-0.117
-510.799	-120.680	0.203	-0.035
-509.785	-200.000	-0.007	-0.492
-508.770	356.300	0.009	0.018
-507.756	-88.614	-0.164	0.049
-506.741	-200.000	0.027	-0.389
-505.726	663.083	-0.033	-0.084
-504.712	-63.520	0.328	0.135
-503.697	-200.000	-0.053	-0.317
-502.683	-157.863	0.116	0.007
-501.668	-200.000	-0.004	0.071
-500.653	135.628	-0.244	0.318
-499.639	-200.000	-0.008	0.180
-498.624	19.079	-0.185	-0.149
-497.610	800.000	0.118	-0.361
-496.595	65.076	0.156	0.159
-495.581	-76.160	-0.292	-0.103
-494.566	-200.000	-0.017	-0.095
-493.551	107.779	-0.296	-0.354
-492.537	-200.000	0.002	-0.242
-491.522	-200.000	-0.042	0.229
-490.508	-44.314	0.139	0.070
-489.493	-143.847	-0.127	-0.012
-488.478	-200.000	-0.005	-0.024
-487.464	116.624	-0.164	0.202
-486.449	-44.825	-0.322	-0.161
-485.435	-200.000	0.031	-0.229
-484.420	107.390	0.078	-0.093
-483.405	156.475	0.066	-0.091
-482.391	198.971	-0.364	0.559
-481.376	48.404	-0.182	-0.171
-480.362	-114.638	0.263	0.051
-479.347	313.004	-0.097	0.183
-478.332	-200.000	0.015	0.353
-477.318	103.413	-0.175	-0.206
-476.303	-6.819	-0.243	0.166
-475.289	800.000	0.090	0.264
-474.274	58.146	0.128	-0.125
-473.259	38.253	-0.110	0.098
-472.245	-102.206	-0.040	0.010
-471.230	-200.000	-0.002	0.047
-470.216	-89.990	-0.091	0.027
-469.201	71.367	-0.061	0.064
-468.186	-200.000	-0.027	-0.199
-467.172	-200.000	-0.013	0.146
-466.157	-200.000	-0.032	0.432
-465.143	44.669	-0.102	-0.094
-464.128	113.222	-0.136	-0.165
-463.113	691.623	-0.167	0.439
-462.099	-26.341	0.530	0.312
-461.084	79.676	-0.112	-0.120
-460.070	-111.919	-0.101	-0.020
-459.055	-29.599	-0.253	-0.145
-458.040	-62.162	-0.158	0.066
-457.026	-200.000	0.000	-0.004
-456.011	-200.000	0.030	0.192
-454.997	-40.658	-0.059	-0.031
-453.982	800.000	-0.018	-0.074
-452.968	144.243	0.111	-0.149
-451.953	-82.240	-0.246	0.080
-450.938	538.693	0.047	0.111
-449.924	-149.426	-0.380	0.030
-448.909	-41.150	-0.080	0.042
-447.895	-96.044	-0.236	0.063
-446.880	-12.929	-0.037	0.024
-445.865	-200.000	0.010	-0.129
-444.851	-161.322	-0.174	0.009
-443.836	-120.019	0.382	-0.066
-442.822	283.203	0.214	-0.385
-441.807	-200.000	0.020	0.142
-440.792	-93.135	0.071	0.020
-439.778	44.067	0.174	0.160
-438.763	-200.000	0.002	-0.107
-437.749	-200.000	-0.015	-0.365
-436.734	-55.247	-0.180	0.081
-435.719	63.034	-0.295	0.296
-434.705	800.000	-0.097	-0.284
-433.690	439.151	-0.073	0.159
-432.676	-11.492	-0.110	-0.072
-431.661	-168.645	-0.115	0.004
-430.646	-10.872	0.395	-0.262
-429.632	-8.959	-0.056	-0.038
-428.617	-36.792	-0.042	0.023
-427.603	-67.054	-0.231	0.091
-426.588	2.083	-0.161	-0.116
-425.573	-24.004	-0.166	0.099
-424.559	-179.766	-0.287	0.006
-423.544	-52.254	0.124	-0.058
-422.530	537.919	-0.117	0.278
-421.515	795.913	-0.042	-0.116
-420.500	-149.697	-0.196	-0.015
-419.486	126.267	0.370	0.468
-418.471	160.692	0.088	0.123
-417.457	-140.676	-0.099	0.010
-416.442	2.387	0.250	0.181
-415.428	142.465	-0.101	-0.134
-414.413	176.113	-0.093	-0.135
-413.398	-97.462	0.117	0.030
-412.384	-109.445	0.440	0.093
-411.369	-112.835	0.212	-0.042
-410.355	800.000	0.022	-0.071
-409.340	342.882	-0.122	0.238
-408.325	-16.699	0.318	-0.201
-407.311	-12.058	0.062	-0.041
-406.296	96.984	0.096	0.110
-405.282	-152.024	0.363	0.026
-404.267	246.743	-0.130	-0.220
-403.252	84.436	-0.222	-0.243
-402.238	-39.082	0.283	0.149
-401.223	416.351	-0.064	0.137
-400.209	-200.000	0.050	-0.361
-399.194	25.569	0.157	-0.131
-398.179	800.000	-0.064	-0.227
-397.165	-179.368	0.319	0.007
-396.150	561.620	0.062	0.150
-395.136	-61.853	-0.086	-0.036
-394.121	-200.000	0.045	-0.249
-393.106	-35.796	0.448	-0.242
-392.092	486.992	0.033	0.076
-391.077	-47.448	-0.127	-0.062
-390.063	-200.000	-0.011	-0.050
-389.048	97.456	-0.157	0.180
-388.033	311.977	0.206	0.386
-387.019	106.711	-0.197	0.234
-386.004	-179.215	-0.172	0.004
-384.990	-111.856	0.344	0.070
-383.975	25.573	0.385	0.320
-382.960	195.944	-0.131	-0.199
-381.946	-88.559	-0.083	0.025
-380.931	800.000	-0.190	-0.553
-379.917	-33.599	0.238	-0.132
-378.902	800.000	0.119	-0.450
-377.888	800.000	-0.077	-0.218
-376.873	800.000	-0.091	0.326
-375.858	-44.031	0.309	0.155
-374.844	-87.542	0.279	-0.084
-373.829	112.703	-0.163	-0.197
-372.815	400.537	0.077	0.160
-371.800	222.620	-0.091	-0.147
-370.785	-200.000	0.064	-0.456
-369.771	298.148	0.132	-0.243
-368.756	-118.898	0.162	-0.028
-367.742	-78.432	0.100	-0.034
-366.727	-107.529	-0.079	0.017
-365.712	23.998	0.125	0.103
-364.698	-92.388	-0.478	0.134
-363.683	-86.882	0.323	0.098
-362.669	-73.510	-0.094	-0.034
-361.654	-200.000	-0.000	-0.186
-360.639	55.681	0.118	-0.114
-359.625	-200.000	-0.023	0.252
-358.610	-92.145	0.260	0.073
-357.596	195.813	0.127	0.192
-356.581	226.047	-0.156	-0.252
-355.566	-53.234	-0.148	-0.068
-354.552	159.528	-0.172	0.240
-353.537	800.000	0.058	-0.170
-352.523	800.000	-0.068	0.200
-351.508	129.923	0.119	-0.152
-350.493	-200.000	0.032	0.197
-349.479	98.635	-0.130	0.150
-348.464	318.519	-0.281	0.530
-347.450	770.743	-0.027	0.072
-346.435	800.000	-0.085	0.323
-345.420	800.000	0.061	-0.169
-344.406	-42.898	0.306	0.155
-343.391	-200.000	-0.003	0.088
-342.377	41.614	0.180	-0.163
-341.362	549.058	-0.136	-0.325
-340.348	-200.000	-0.011	-0.103
-339.333	-178.711	0.125	-0.003
-338.318	454.194	-0.042	-0.093
-337.304	-200.000	0.023	-0.153
-336.289	-122.409	0.201	-0.033
-335.275	-5.568	0.211	-0.144
-334.260	-104.631	-0.120	0.028
-333.245	234.355	0.051	-0.083
-332.231	6.048	-0.259	-0.192
-331.216	116.653	0.138	-0.169
-330.202	-65.191	0.138	0.055
-329.187	800.000	0.051	0.159
-328.172	590.418	-0.157	0.386
-327.158	-121.498	0.181	-0.030
-326.143	110.852	-0.181	0.218
-325.129	424.149	-0.008	-0.018
-324.114	171.761	0.022	-0.031
-323.099	-17.954	0.148	-0.092
-322.085	-122.298	-0.157	-0.026
-321.070	26.630	0.281	0.235
-320.056	13.867	-0.258	-0.200
-319.041	285.141	-0.091	0.163
-318.026	-200.000	0.010	-0.149
-317.012	186.805	-0.071	-0.105
-315.997	-200.000	0.014	-0.146
-314.983	-158.243	-0.127	0.007
-313.968	-200.000	0.048	-0.389
-312.953	-88.692	0.347	0.103
-311.939	-70.853	0.201	-0.076
-310.924	800.000	-0.056	-0.211
-309.910	467.899	0.132	0.294
-308.895	-114.121	0.143	0.028
-307.880	-12.020	-0.084	-0.055
-306.866	-72.808	-0.060	-0.022
-305.851	800.000	-0.011	0.038
-304.837	800.000	-0.028	-0.108
-303.822	-92.638	-0.135	0.038
-302.807	56.694	-0.114	0.110
-301.793	-200.000	0.040	0.280
-300.778	89.031	0.248	-0.274
-299.764	-24.561	0.211	0.125
-298.749	-189.706	-0.127	0.001
-297.735	800.000	0.025	0.082
-296.720	800.000	-0.030	0.120
-295.705	800.000	0.105	0.343
-294.691	217.163	0.058	-0.092
-293.676	-66.080	-0.227	-0.090
-292.662	-3.415	0.068	0.047
-291.647	95.992	-0.172	0.196
-290.632	92.683	0.107	0.120
-289.618	-102.455	0.137	-0.033
-288.603	-112.740	-0.023	-0.005
-287.589	72.557	0.105	-0.109
-286.574	-120.772	-0.065	-0.011
-285.559	222.303	-0.153	-0.245
-284.545	-200.000	-0.009	0.304
-283.530	800.000	-0.052	0.184
-282.516	800.000	0.065	0.181
-281.501	-43.775	0.258	0.129
-280.486	-135.305	0.288	-0.034
-279.472	-200.000	0.040	-0.295
-278.457	14.674	0.204	0.158
-277.443	92.642	-0.143	-0.161
-276.428	-197.664	0.091	0.001
-275.413	800.000	-0.078	-0.297
-274.399	-14.367	0.184	0.118
-273.384	-95.480	0.323	-0.086
-272.370	-55.386	-0.378	0.169
-271.355	-123.231	-0.022	-0.004
-270.340	-57.959	0.289	-0.125
-269.326	-32.869	0.264	0.146
-268.311	-200.000	-0.016	0.180
-267.297	800.000	0.016	0.049
-266.282	-5.963	-0.206	-0.140
-265.267	301.742	0.158	-0.291
-264.253	-99.526	0.159	-0.040
-263.238	-45.518	0.189	0.093
-262.224	229.813	0.148	0.241
-261.209	-67.784	-0.100	-0.039
-260.195	243.469	0.130	0.217
-259.180	-162.049	-0.117	-0.006
-258.165	57.267	0.128	-0.124
-257.151	-166.952	-0.169	0.007
-256.136	-25.543	0.179	-0.105
-255.122	-80.677	0.326	0.108
-254.107	-160.067	0.147	0.008
-253.092	-41.616	0.202	-0.103
-252.078	143.287	0.319	0.422
-251.063	-189.496	-0.226	-0.003
-250.049	25.116	-0.172	-0.142
-249.034	-19.063	-0.345	-0.213
-248.019	800.000	0.034	-0.131
-247.005	-99.200	-0.284	0.071
-245.990	118.786	0.179	0.219
-244.976	131.349	0.105	-0.134
-243.961	313.341	-0.120	0.224
-242.946	-133.154	0.252	-0.032
-241.932	181.200	-0.128	-0.186
-240.917	-135.023	-0.499	-0.060
-239.903	12.034	0.172	-0.132
-238.888	-88.437	-0.137	0.041
-237.873	-40.134	0.113	-0.058
-236.859	800.000	0.032	-0.124
-235.844	-43.485	-0.155	-0.078
-234.830	-40.852	0.401	0.206
-233.815	75.381	0.024	0.025
-232.800	151.993	0.134	0.181
-231.786	201.870	-0.151	-0.231
-230.771	135.778	0.146	0.189
-229.757	44.576	-0.256	0.234
-228.742	-81.589	0.433	0.141
-227.727	-1.806	-0.039	-0.027
-226.713	20.458	-0.083	-0.067
-225.698	-200.000	-0.011	-0.133
-224.684	-96.609	0.300	0.079
-223.669	-143.712	-0.253	-0.024
-222.655	-158.125	0.119	-0.007
-221.640	-24.252	-0.215	0.128
-220.625	212.521	0.153	0.239
-219.611	45.768	0.190	0.174
-218.596	185.304	0.121	-0.178
-217.582	-5.511	0.306	0.208
-216.567	-75.913	0.203	-0.071
-215.552	-31.005	-0.320	0.180
-214.538	444.356	-0.160	0.349
-213.523	-120.684	0.288	-0.048
-212.509	22.137	-0.182	-0.147
-211.494	201.182	0.018	-0.028
-210.479	-85.726	-0.287	-0.089
-209.465	439.498	0.031	0.067
-208.450	-141.251	0.497	0.050
-207.436	-71.867	0.245	0.091
-206.421	134.979	0.200	-0.258
-205.406	98.310	-0.110	-0.126
-204.392	-122.267	-0.388	0.063
-203.377	-34.524	-0.352	-0.191
-202.363	800.000	0.029	-0.098
-201.348	-39.441	-0.212	0.110
-200.333	-71.687	-0.243	0.090
-199.319	-200.000	0.001	0.173
-198.304	800.000	0.078	-0.236
-197.290	-32.113	0.217	0.120
-196.275	-200.000	0.013	0.166
-195.260	286.754	0.067	-0.120
-194.246	-149.412	0.118	-0.009
-193.231	427.429	0.042	-0.090
-192.217	122.761	0.140	0.173
-191.202	-103.440	-0.289	0.067
-190.187	-200.000	-0.016	0.175
-189.173	-200.000	-0.105	0.479
-188.158	10.473	-0.195	0.147
-187.144	800.000	-0.079	0.250
-186.129	-200.000	-0.089	0.411
-185.114	1.659	0.096	0.068
-184.100	608.489	0.139	-0.343
-183.085	22.017	0.144	-0.116
-182.071	-58.594	-0.207	-0.089
-181.056	-200.000	0.010	0.224
-180.042	-98.390	0.190	0.048
-179.027	413.906	0.084	-0.176
-178.012	-95.803	0.119	-0.031
-176.998	-87.754	-0.084	0.025
-175.983	-99.102	0.197	0.049
-174.969	-200.000	-0.023	0.109
-173.954	-85.049	0.315	0.098
-172.939	-47.697	0.315	-0.152
-171.925	695.963	0.126	-0.327
-170.910	109.467	0.262	-0.311
-169.896	-80.157	0.404	-0.134
-168.881	-61.622	-0.141	0.058
-167.866	-200.000	-0.009	-0.089
-166.852	-53.471	-0.237	0.108
-165.837	84.494	0.146	0.159
-164.823	440.783	-0.040	0.086
-163.808	-200.000	0.008	0.102
-162.793	304.825	0.081	0.150
-161.779	208.762	-0.078	-0.121
-160.764	46.239	0.168	0.154
-159.750	-86.316	-0.174	-0.053
-158.735	16.594	0.125	-0.098
-157.720	-76.420	-0.124	-0.043
-156.706	-81.823	0.122	-0.040
-155.691	186.572	-0.012	0.018
-154.677	-162.851	0.164	-0.008
-153.662	-153.804	0.185	-0.013
-152.647	-200.000	-0.013	0.106
-151.633	193.883	-0.215	0.322
-150.618	-17.552	0.267	0.166
-149.604	223.016	0.140	-0.224
-148.589	800.000	-0.078	0.322
-147.574	-92.391	-0.324	-0.090
-146.560	369.891	0.028	0.056
-145.545	-200.000	0.075	0.341
-144.531	196.737	-0.106	0.159
-143.516	422.307	-0.063	0.133
-142.502	14.841	-0.167	0.129
-141.487	44.997	-0.137	-0.125
-140.472	24.586	-0.173	0.142
-139.458	800.000	0.057	0.242
-138.443	-200.000	-0.006	0.086
-137.429	236.832	0.131	0.215
-136.414	698.655	0.136	0.354
-135.399	150.373	-0.054	0.073
-134.385	91.676	0.157	0.174
-133.370	-98.231	-0.466	0.118
-132.356	-149.801	-0.175	0.014
-131.341	-200.000	0.015	0.077
-130.326	72.005	-0.104	0.107
-129.312	-67.955	-0.304	-0.117
-128.297	-13.329	0.191	0.123
-127.283	265.008	-0.102	0.176
-126.268	512.440	0.096	0.221
-125.253	-200.000	0.055	0.332
-124.239	-151.954	-0.108	0.008
-123.224	20.092	0.150	0.120
-122.210	-200.000	0.068	0.404
-121.195	637.374	-0.114	0.286
