DTS Sentinel unit serial number:	SN413079Multiplexer serial number:	ORYXHardware model number:	OX4-SRSoftware version number:	ORYX F/W v4.00 Oryx Data Collector v3.7.2.0data status	okinstallation	princeton_trtdifferential loss correction	single-endedforward channel	channel 2reverse channel	N/Adate	2019/09/15time	22:11:34forward acquisition time	60.00reverse acquisition time	0.00gamma	496.2192k internal	0.2335k external	0.2335temperature offset calibration	0.9946default loss term (dB/km)	0.3790temperature slope calibration	1.0000multiplexer offset coefficient	1.0000multiplexer slope coefficient	1.0000fibre end	0.00T internal ref (°C)	29.56T ext. ref 1 (°C)	8.61T ext. ref 2 (°C)	22.93length (m)	temperature (°C)	Stokes	anti-Stokes-747.200	-19.967	-0.292	0.181
-746.185	242.372	-0.291	0.489
-745.171	473.142	-0.047	-0.107
-744.156	-169.964	-0.254	0.009
-743.142	102.121	-0.092	0.108
-742.127	-200.000	-0.017	-0.079
-741.112	-145.348	-0.057	0.005
-740.098	-200.000	0.028	0.376
-739.083	-200.000	-0.014	0.126
-738.069	-99.830	0.294	-0.074
-737.054	-133.442	-0.138	0.017
-736.039	-50.401	-0.349	-0.166
-735.025	-50.344	0.143	0.068
-734.010	-8.896	-0.057	0.038
-732.996	232.623	0.023	0.038
-731.981	-200.000	-0.007	-0.196
-730.966	-200.000	0.015	0.100
-729.952	-200.000	0.084	0.437
-728.937	-148.837	-0.186	-0.015
-727.923	-56.035	-0.047	-0.021
-726.908	286.359	0.037	0.068
-725.894	17.216	-0.067	0.053
-724.879	-55.686	-0.148	0.066
-723.864	-200.000	-0.026	-0.313
-722.850	-200.000	0.001	0.016
-721.835	-114.588	0.083	-0.016
-720.821	121.343	0.220	-0.275
-719.806	193.609	-0.023	-0.034
-718.791	-107.302	-0.409	-0.090
-717.777	-36.774	0.194	-0.105
-716.762	-200.000	0.045	-0.283
-715.748	345.957	-0.186	-0.368
-714.733	800.000	0.010	0.036
-713.718	-83.565	-0.268	0.086
-712.704	43.382	0.262	0.240
-711.689	-200.000	0.070	-0.333
-710.675	-51.229	-0.348	0.164
-709.660	-156.387	-0.235	0.015
-708.645	-155.767	0.368	-0.024
-707.631	-50.798	0.130	-0.061
-706.616	14.651	0.178	0.140
-705.602	800.000	0.060	0.195
-704.587	-200.000	0.014	0.126
-703.572	-200.000	0.027	-0.122
-702.558	-71.872	-0.141	-0.052
-701.543	-15.582	0.505	0.323
-700.529	174.793	0.245	-0.356
-699.514	-142.015	0.094	0.009
-698.499	522.833	0.018	-0.043
-697.485	27.538	-0.148	-0.125
-696.470	800.000	-0.099	-0.318
-695.456	410.860	0.086	-0.183
-694.441	-170.844	-0.255	0.009
-693.426	76.666	0.065	0.069
-692.412	396.222	-0.128	0.268
-691.397	-200.000	-0.048	0.357
-690.383	82.797	0.211	-0.230
-689.368	-68.464	-0.187	0.073
-688.354	800.000	0.061	0.263
-687.339	-124.735	-0.220	-0.034
-686.324	-119.496	0.329	0.057
-685.310	206.567	-0.172	0.268
-684.295	151.872	0.163	-0.223
-683.281	-105.128	-0.455	-0.104
-682.266	194.004	0.060	0.090
-681.251	-200.000	0.050	0.561
-680.237	155.237	0.209	-0.288
-679.222	186.274	-0.230	-0.343
-678.208	-200.000	-0.046	-0.393
-677.193	183.652	-0.144	0.213
-676.178	246.451	-0.133	-0.225
-675.164	100.681	-0.339	-0.395
-674.149	-105.555	0.446	-0.101
-673.135	-48.852	-0.075	0.036
-672.120	110.710	-0.105	0.127
-671.105	800.000	0.037	-0.144
-670.091	184.710	-0.169	-0.250
-669.076	-200.000	0.022	0.179
-668.062	-200.000	0.003	0.083
-667.047	318.393	-0.101	-0.192
-666.032	-86.252	-0.298	0.092
-665.018	78.418	-0.147	-0.157
-664.003	49.089	0.106	0.099
-662.989	-200.000	0.060	-0.341
-661.974	-200.000	0.200	-0.001
-660.959	-145.975	-0.300	0.027
-659.945	-200.000	-0.040	0.201
-658.930	64.811	0.240	0.242
-657.916	-29.244	0.210	0.121
-656.901	163.300	-0.112	0.157
-655.886	-200.000	0.027	-0.256
-654.872	-98.567	-0.150	0.038
-653.857	200.795	-0.080	0.124
-652.843	-53.856	-0.149	0.068
-651.828	-200.000	0.052	-0.458
-650.814	-120.789	-0.108	0.018
-649.799	431.756	-0.183	-0.396
-648.784	-200.000	0.029	0.284
-647.770	575.842	-0.127	0.311
-646.755	-48.732	-0.092	-0.044
-645.741	-166.083	0.132	-0.006
-644.726	45.432	-0.171	0.158
-643.711	33.869	-0.159	0.139
-642.697	555.631	0.146	-0.351
-641.682	-200.000	0.018	-0.165
-640.668	71.790	-0.192	-0.200
-639.653	-31.628	-0.335	0.188
-638.638	-200.000	-0.032	-0.236
-637.624	800.000	0.121	-0.382
-636.609	-9.159	0.101	-0.068
-635.595	800.000	-0.084	0.252
-634.580	2.027	0.141	0.102
-633.565	-178.356	0.260	-0.006
-632.551	-200.000	-0.038	0.299
-631.536	445.199	-0.014	-0.031
-630.522	-94.512	-0.226	0.062
-629.507	750.960	-0.104	-0.281
-628.492	800.000	0.032	0.098
-627.478	-117.550	-0.182	0.033
-626.463	2.341	-0.350	0.253
-625.449	217.094	-0.113	-0.180
-624.434	76.873	-0.111	-0.118
-623.419	-200.000	-0.025	-0.164
-622.405	-25.048	-0.304	-0.180
-621.390	220.826	0.117	-0.188
-620.376	-68.553	-0.369	0.143
-619.361	-79.947	-0.182	-0.061
-618.346	137.659	-0.022	0.029
-617.332	586.471	-0.038	-0.093
-616.317	47.120	0.236	0.220
-615.303	-134.586	-0.202	0.025
-614.288	19.157	0.299	0.240
-613.273	-1.208	-0.237	-0.167
-612.259	-41.280	0.316	-0.163
-611.244	-24.002	0.171	-0.102
-610.230	441.666	-0.125	-0.273
-609.215	-200.000	0.010	-0.254
-608.201	-45.411	0.119	-0.059
-607.186	800.000	0.067	-0.193
-606.171	259.881	-0.164	0.282
-605.157	410.123	0.130	-0.276
-604.142	-136.159	0.214	-0.025
-603.128	-192.895	-0.147	-0.001
-602.113	-99.222	-0.243	-0.061
-601.098	-7.867	-0.152	-0.102
-600.084	-80.062	-0.194	0.065
-599.069	-108.677	0.379	0.081
-598.055	267.021	-0.173	-0.302
-597.040	-140.919	0.298	-0.031
-596.025	-73.607	-0.183	0.067
-595.011	281.338	0.091	0.162
-593.996	800.000	-0.082	-0.244
-592.982	457.595	-0.049	-0.109
-591.967	-12.185	-0.221	0.144
-590.952	-107.300	-0.383	-0.084
-589.938	-132.114	0.088	0.011
-588.923	800.000	0.051	-0.194
-587.909	-200.000	0.021	-0.157
-586.894	-24.908	0.333	-0.197
-585.879	149.405	-0.096	-0.129
-584.865	138.789	-0.213	-0.280
-583.850	-135.277	0.178	0.021
-582.836	-136.492	0.070	-0.008
-581.821	580.548	0.009	-0.021
-580.806	155.609	-0.136	-0.187
-579.792	-170.436	0.071	-0.002
-578.777	18.037	0.056	-0.045
-577.763	-75.243	0.482	0.172
-576.748	-200.000	0.024	-0.214
-575.733	-88.940	0.406	-0.120
-574.719	-54.458	0.376	-0.170
-573.704	-156.909	-0.125	-0.008
-572.690	-109.529	-0.268	0.057
-571.675	-200.000	-0.024	0.323
-570.661	800.000	0.049	0.136
-569.646	-61.809	0.177	0.074
-568.631	66.852	-0.162	0.165
-567.617	-126.580	-0.209	-0.031
-566.602	592.756	0.053	-0.130
-565.588	207.939	-0.163	-0.253
-564.573	-163.352	-0.053	-0.003
-563.558	83.929	0.120	0.130
-562.544	-59.247	-0.358	0.154
-561.529	-200.000	-0.000	-0.011
-560.515	50.538	-0.083	0.078
-559.500	-200.000	-0.019	-0.171
-558.485	8.937	-0.252	0.190
-557.471	-119.778	-0.161	-0.028
-556.456	559.867	-0.082	0.196
-555.442	-179.520	-0.417	0.009
-554.427	800.000	-0.014	0.047
-553.412	-64.483	0.224	0.091
-552.398	-200.000	-0.025	-0.230
-551.383	-82.483	0.395	0.128
-550.369	-152.954	0.205	0.014
-549.354	-70.425	-0.261	0.099
-548.339	800.000	-0.029	-0.116
-547.325	-90.409	-0.276	0.080
-546.310	-200.000	0.004	0.078
-545.296	-200.000	0.003	0.066
-544.281	122.491	-0.066	-0.082
-543.266	800.000	0.034	0.125
-542.252	337.197	0.034	-0.066
-541.237	-95.428	0.363	-0.097
-540.223	-163.082	0.382	-0.018
-539.208	375.585	0.095	-0.194
-538.193	-29.704	0.042	-0.024
-537.179	6.622	0.189	-0.140
-536.164	-9.251	-0.124	-0.083
-535.150	59.521	0.083	-0.082
-534.135	11.093	0.354	0.270
-533.121	-200.000	0.013	0.130
-532.106	-200.000	-0.029	-0.260
-531.091	-200.000	0.028	-0.151
-530.077	-200.000	-0.004	0.080
-529.062	66.053	-0.109	0.110
-528.048	56.254	0.111	-0.108
-527.033	-200.000	-0.050	0.238
-526.018	-138.142	0.271	-0.030
-525.004	-200.000	-0.007	0.080
-523.989	-125.745	-0.141	0.021
-522.975	-32.359	-0.160	0.089
-521.960	345.407	0.036	-0.070
-520.945	-146.618	0.044	-0.004
-519.931	127.453	0.141	-0.179
-518.916	-119.308	-0.301	0.052
-517.902	-8.009	0.101	0.068
-516.887	800.000	0.037	-0.138
-515.872	10.715	0.148	-0.112
-514.858	357.578	0.069	-0.137
-513.843	-17.176	0.295	0.185
-512.829	-200.000	-0.010	0.113
-511.814	-200.000	-0.012	-0.186
-510.799	-200.000	-0.012	-0.100
-509.785	261.594	0.094	-0.162
-508.770	-200.000	0.031	-0.404
-507.756	-65.748	-0.208	-0.083
-506.741	-200.000	0.072	0.314
-505.726	706.198	0.098	-0.258
-504.712	433.755	-0.085	-0.184
-503.697	33.692	-0.090	-0.078
-502.683	-75.210	-0.196	0.070
-501.668	-21.590	0.281	0.171
-500.653	24.928	-0.130	0.107
-499.639	-37.519	-0.165	0.088
-498.624	460.865	-0.099	0.220
-497.610	187.246	0.104	-0.154
-496.595	-172.453	-0.180	0.006
-495.581	183.334	0.216	0.318
-494.566	-200.000	0.024	-0.161
-493.551	-67.130	-0.193	-0.076
-492.537	372.273	0.092	-0.185
-491.522	-55.978	-0.149	0.066
-490.508	133.186	0.179	0.231
-489.493	-26.341	0.072	-0.042
-488.478	192.846	-0.051	-0.077
-487.464	-200.000	0.034	-0.288
-486.449	800.000	-0.069	0.247
-485.435	-63.214	0.258	-0.106
-484.420	-125.489	-0.076	0.011
-483.405	746.070	-0.084	-0.226
-482.391	-200.000	-0.006	0.034
-481.376	643.095	0.032	0.081
-480.362	-200.000	0.004	-0.078
-479.347	-54.730	-0.181	0.081
-478.332	-173.845	-0.542	-0.016
-477.318	427.592	-0.186	-0.399
-476.303	-85.638	-0.201	0.062
-475.289	-103.710	-0.176	-0.041
-474.274	170.107	-0.062	-0.088
-473.259	-120.266	0.054	-0.009
-472.245	352.538	0.109	0.214
-471.230	-31.314	-0.257	-0.144
-470.216	-168.235	-0.329	0.013
-469.201	1.778	0.171	0.122
-468.186	770.518	0.098	0.264
-467.172	-57.492	-0.241	0.105
-466.157	163.292	0.150	-0.209
-465.143	-200.000	-0.011	-0.255
-464.128	-152.990	-0.389	-0.027
-463.113	800.000	-0.092	0.322
-462.099	88.309	-0.205	0.227
-461.084	-200.000	-0.006	0.322
-460.070	330.521	0.106	0.202
-459.055	-200.000	-0.032	0.143
-458.040	226.264	0.118	0.190
-457.026	-200.000	0.014	0.242
-456.011	-200.000	-0.056	-0.254
-454.997	-28.254	0.079	-0.045
-453.982	-157.690	-0.094	0.006
-452.968	-37.400	0.236	-0.125
-451.953	163.968	0.140	-0.195
-450.938	36.447	-0.355	-0.311
-449.924	-3.180	-0.171	-0.118
-448.909	18.862	-0.232	0.185
-447.895	-138.147	0.058	0.006
-446.880	-47.058	0.108	-0.052
-445.865	-200.000	0.007	-0.277
-444.851	800.000	0.151	0.416
-443.836	-186.852	-0.122	0.002
-442.822	17.536	-0.029	0.023
-441.807	-200.000	0.010	0.117
-440.792	-116.504	-0.168	0.031
-439.778	-82.276	0.129	-0.042
-438.763	-9.185	0.165	-0.109
-437.749	-200.000	-0.003	0.079
-436.734	-200.000	0.006	-0.033
-435.719	3.770	0.268	-0.194
-434.705	111.832	-0.052	-0.062
-433.690	800.000	0.035	-0.146
-432.676	-146.189	0.044	-0.004
-431.661	280.826	-0.102	0.181
-430.646	-35.309	0.237	0.128
-429.632	18.895	-0.224	-0.178
-428.617	-41.912	0.234	0.119
-427.603	70.851	0.055	-0.056
-426.588	100.106	0.161	-0.186
-425.573	677.118	-0.047	0.122
-424.559	-108.975	0.095	0.020
-423.544	285.990	0.143	-0.256
-422.530	-101.314	0.118	0.028
-421.515	-75.838	0.251	-0.088
-420.500	800.000	0.121	-0.360
-419.486	-200.000	0.014	0.095
-418.471	48.458	-0.060	-0.056
-417.457	-200.000	0.036	-0.234
-416.442	-98.687	-0.171	-0.043
-415.428	-74.529	-0.290	-0.103
-414.413	800.000	-0.169	0.496
-413.398	-11.417	0.526	-0.343
-412.384	10.146	-0.053	-0.040
-411.369	-30.230	0.199	0.112
-410.355	-83.374	-0.217	0.069
-409.340	-200.000	-0.049	0.301
-408.325	140.246	-0.134	0.176
-407.311	16.114	0.096	-0.075
-406.296	-200.000	0.016	-0.078
-405.282	-113.193	0.010	0.002
-404.267	88.902	0.072	0.079
-403.252	167.038	-0.196	0.275
-402.238	-82.962	0.185	0.059
-401.223	800.000	-0.041	-0.170
-400.209	-66.232	0.209	0.082
-399.194	-154.608	0.360	0.024
-398.179	415.546	-0.043	-0.090
-397.165	-129.630	0.165	-0.023
-396.150	-162.451	-0.275	-0.013
-395.136	-175.138	0.176	-0.005
-394.121	88.158	-0.161	0.177
-393.106	-99.881	0.192	-0.048
-392.092	-200.000	0.014	0.099
-391.077	0.429	0.195	0.138
-390.063	-9.166	-0.138	0.091
-389.048	-113.004	0.147	0.029
-388.033	-125.552	0.206	0.031
-387.019	74.684	-0.162	-0.169
-386.004	-113.716	-0.352	0.068
-384.990	-200.000	-0.024	-0.117
-383.975	539.559	-0.090	0.212
-382.960	-200.000	-0.009	-0.285
-381.946	-75.721	-0.207	-0.073
-380.931	11.750	0.189	0.144
-379.917	-149.794	-0.294	0.023
-378.902	-85.292	0.052	0.016
-377.888	-120.769	-0.226	0.038
-376.873	-40.206	-0.099	-0.051
-375.858	19.484	-0.155	0.124
-374.844	-144.231	0.084	-0.008
-373.829	-66.242	0.166	0.066
-372.815	-139.351	-0.169	0.018
-371.800	24.524	-0.186	-0.152
-370.785	-200.000	0.015	-0.290
-369.771	-200.000	-0.010	-0.131
-368.756	-68.016	0.145	-0.056
-367.742	311.138	-0.192	0.356
-366.727	52.704	-0.118	0.112
-365.712	13.393	-0.043	-0.033
-364.698	97.949	-0.065	0.074
-363.683	-116.263	0.123	-0.023
-362.669	-200.000	0.043	-0.227
-361.654	106.584	0.244	0.286
-360.639	-118.199	0.346	-0.061
-359.625	-19.646	0.159	-0.097
-358.610	215.996	-0.205	0.322
-357.596	-200.000	-0.062	-0.388
-356.581	-151.979	-0.383	0.028
-355.566	-42.729	-0.164	-0.083
-354.552	-6.980	-0.178	0.120
-353.537	436.015	-0.023	-0.049
-352.523	-130.424	0.265	-0.036
-351.508	-148.799	-0.074	0.006
-350.493	-42.419	-0.142	-0.072
-349.479	800.000	0.152	-0.429
-348.464	800.000	0.014	0.055
-347.450	64.937	0.258	0.258
-346.435	-110.172	0.255	0.053
-345.420	-55.361	0.215	-0.095
-344.406	-72.620	0.142	0.052
-343.391	-46.844	-0.095	-0.046
-342.377	213.839	0.084	0.131
-341.362	322.777	0.159	0.300
-340.348	10.683	-0.185	0.139
-339.333	-200.000	0.040	0.205
-338.318	-118.365	-0.338	0.059
-337.304	-95.782	-0.273	0.072
-336.289	-97.045	0.147	0.038
-335.275	800.000	0.066	-0.242
-334.260	-200.000	-0.003	0.101
-333.245	-0.672	-0.250	0.175
-332.231	-156.416	-0.186	-0.012
-331.216	-200.000	-0.002	-0.179
-330.202	-41.469	0.187	-0.095
-329.187	-159.432	-0.255	-0.014
-328.172	800.000	0.025	-0.073
-327.158	-200.000	-0.037	-0.297
-326.143	485.476	0.109	0.246
-325.129	-200.000	-0.016	-0.072
-324.114	-78.296	-0.179	-0.061
-323.099	800.000	0.037	-0.154
-322.085	-68.853	0.125	-0.048
-321.070	-22.100	-0.160	0.096
-320.056	741.450	0.042	-0.110
-319.041	39.460	0.095	-0.084
-318.026	-77.460	0.065	0.022
-317.012	4.378	0.177	-0.128
-315.997	648.462	0.061	-0.154
-314.983	-155.993	0.109	0.007
-313.968	209.361	0.130	-0.202
-312.953	-103.806	-0.341	0.079
-311.939	-110.489	-0.266	0.054
-310.924	-200.000	0.013	0.067
-309.910	326.452	-0.047	0.090
-308.895	-200.000	-0.007	-0.131
-307.880	55.996	-0.210	0.201
-306.866	-200.000	-0.031	0.409
-305.851	-142.226	0.137	0.013
-304.837	-55.651	0.268	0.118
-303.822	800.000	0.039	-0.147
-302.807	-200.000	-0.006	0.075
-301.793	15.704	-0.193	0.150
-300.778	69.769	-0.220	0.223
-299.764	-8.172	-0.061	-0.040
-298.749	-13.083	-0.057	-0.037
-297.735	13.299	0.189	0.145
-296.720	800.000	0.129	-0.357
-295.705	8.192	0.316	-0.235
-294.691	-58.400	-0.112	-0.048
-293.676	-200.000	0.010	0.199
-292.662	227.355	0.118	0.189
-291.647	445.763	-0.102	0.220
-290.632	227.221	0.185	0.296
-289.618	-200.000	0.012	0.123
-288.603	-200.000	-0.042	0.231
-287.589	-200.000	-0.029	-0.143
-286.574	104.744	0.194	-0.225
-285.559	83.242	0.092	-0.099
-284.545	-200.000	-0.474	0.002
-283.530	326.859	0.083	-0.157
-282.516	337.774	0.052	-0.100
-281.501	800.000	0.046	0.171
-280.486	11.825	-0.273	0.207
-279.472	-140.121	0.120	-0.012
-278.457	-43.683	0.384	-0.191
-277.443	-81.737	0.208	-0.067
-276.428	-25.515	0.221	0.129
-275.413	-32.207	-0.215	0.119
-274.399	-113.458	-0.292	0.057
-273.384	-136.567	0.306	0.035
-272.370	800.000	0.099	0.361
-271.355	135.580	0.195	-0.250
-270.340	-200.000	0.009	0.154
-269.326	-52.298	0.126	-0.057
-268.311	-31.448	0.283	0.157
-267.297	-24.960	-0.192	-0.112
-266.282	330.023	0.050	0.095
-265.267	-200.000	0.025	0.283
-264.253	100.184	0.193	0.221
-263.238	-200.000	-0.002	-0.045
-262.224	448.971	0.087	0.190
-261.209	128.890	0.073	-0.091
-260.195	-46.231	0.050	0.024
-259.180	-200.000	-0.051	0.373
-258.165	85.075	-0.177	0.191
-257.151	-200.000	-0.033	0.198
-256.136	67.461	0.045	0.045
-255.122	336.065	0.089	-0.169
-254.107	56.685	-0.152	-0.146
-253.092	266.654	-0.149	0.256
-252.078	639.139	0.140	0.351
-251.063	756.699	0.082	0.220
-250.049	-200.000	-0.014	0.416
-249.034	800.000	-0.049	-0.208
-248.019	-65.249	-0.214	-0.085
-247.005	51.781	0.195	0.182
-245.990	91.232	0.254	-0.281
-244.976	168.735	0.130	-0.183
-243.961	61.416	0.147	-0.144
-242.946	54.652	0.071	-0.067
-241.932	142.765	0.085	0.111
-240.917	800.000	0.045	-0.127
-239.903	-200.000	-0.000	-0.085
-238.888	328.739	-0.160	-0.303
-237.873	146.252	-0.094	0.124
-236.859	-200.000	0.002	0.040
-235.844	-200.000	0.008	-0.058
-234.830	177.330	-0.140	0.201
-233.815	-155.079	0.140	0.009
-232.800	-49.743	-0.219	-0.102
-231.786	92.072	0.056	0.062
-230.771	-66.663	0.499	-0.195
-229.757	130.382	-0.152	0.191
-228.742	1.081	-0.064	0.045
-227.727	-66.113	0.101	0.040
-226.713	-200.000	-0.013	-0.300
-225.698	-200.000	-0.061	-0.352
-224.684	-200.000	0.008	0.100
-223.669	-44.221	-0.089	0.044
-222.655	-94.303	0.103	0.028
-221.640	800.000	0.036	0.151
-220.625	-68.832	0.034	-0.013
-219.611	234.331	-0.169	-0.275
-218.596	82.062	-0.058	0.061
-217.582	0.394	0.199	0.140
-216.567	800.000	0.040	-0.147
-215.552	-200.000	0.017	0.352
-214.538	-69.810	0.212	-0.080
-213.523	-3.189	0.140	0.096
-212.509	329.322	0.167	0.315
-211.494	-200.000	0.064	0.314
-210.479	238.481	-0.094	-0.154
-209.465	-48.361	0.201	-0.095
-208.450	52.168	0.066	-0.062
-207.436	-119.176	0.197	-0.034
-206.421	-94.259	-0.345	0.093
-205.406	800.000	-0.061	0.172
-204.392	-164.007	0.102	0.005
-203.377	-50.295	-0.147	0.069
-202.363	45.643	-0.169	-0.153
-201.348	19.750	0.153	-0.121
-200.333	-200.000	0.007	-0.337
-199.319	-141.527	0.214	0.021
-198.304	93.570	0.018	-0.021
-197.290	-200.000	0.017	-0.186
-196.275	265.772	0.072	0.124
-195.260	105.927	-0.296	0.344
-194.246	25.130	0.064	-0.053
-193.231	-61.929	0.159	0.066
-192.217	-97.960	-0.083	0.021
-191.202	-151.087	-0.301	-0.022
-190.187	17.356	-0.180	0.140
-189.173	30.227	0.073	0.061
-188.158	-3.308	-0.350	0.240
-187.144	-67.864	0.078	-0.030
-186.129	204.833	-0.045	0.069
-185.114	-45.645	0.179	0.087
-184.100	117.630	0.263	0.318
-183.085	117.223	-0.190	0.229
-182.071	-24.313	-0.052	-0.031
-181.056	201.250	0.042	-0.063
-180.042	310.652	0.229	0.422
-179.027	194.925	-0.134	-0.199
-178.012	800.000	-0.049	0.161
-176.998	70.277	0.195	-0.198
-175.983	269.652	0.132	0.228
-174.969	-15.996	0.153	-0.095
-173.954	-73.947	-0.065	-0.023
-172.939	-200.000	-0.007	0.168
-171.925	62.352	0.153	-0.150
-170.910	-200.000	-0.004	-0.168
-169.896	-200.000	-0.012	-0.068
-168.881	-100.989	-0.085	0.020
-167.866	63.364	-0.176	-0.174
-166.852	77.489	-0.093	0.097
-165.837	-200.000	-0.017	0.399
-164.823	-119.719	0.490	-0.083
-163.808	-27.397	0.080	-0.046
-162.793	283.121	-0.189	0.333
-161.779	-16.614	-0.213	-0.132
-160.764	800.000	0.034	-0.138
-159.750	37.491	0.078	0.068
-158.735	190.873	0.151	-0.223
-157.720	626.907	0.185	-0.459
-156.706	-129.984	-0.331	0.044
-155.691	-23.753	-0.257	-0.151
-154.677	800.000	0.081	-0.292
-153.662	315.209	0.132	-0.245
-152.647	557.215	0.084	0.198
-151.633	-93.413	-0.212	-0.058
-150.618	-200.000	-0.039	0.237
-149.604	224.975	-0.020	0.032
-148.589	-52.194	0.075	0.034
-147.574	728.774	0.164	-0.430
-146.560	-164.690	-0.321	0.014
-145.545	210.597	-0.137	-0.211
-144.531	800.000	0.061	-0.245
-143.516	-200.000	-0.002	0.301
-142.502	391.511	-0.018	0.036
-141.487	454.363	0.113	-0.246
-140.472	126.094	0.054	0.067
-139.458	111.776	0.125	0.148
-138.443	-105.149	0.263	-0.059
-137.429	-170.751	0.407	-0.014
-136.414	55.518	-0.206	0.195
-135.399	-79.300	-0.326	-0.108
-134.385	369.288	-0.066	-0.131
-133.370	-200.000	-0.018	0.239
-132.356	-200.000	-0.009	0.152
-131.341	229.103	-0.075	-0.119
-130.326	-27.411	-0.189	0.108
-129.312	16.441	0.079	-0.061
-128.297	-46.537	0.251	0.121
-127.283	-89.515	0.223	-0.064
-126.268	297.988	-0.115	0.207
-125.253	-148.074	-0.408	-0.033
-124.239	329.524	-0.186	0.351
-123.224	800.000	-0.009	0.031
-122.210	-0.704	0.076	0.053
