DTS Sentinel unit serial number:	SN413079Multiplexer serial number:	ORYXHardware model number:	OX4-SRSoftware version number:	ORYX F/W v4.00 Oryx Data Collector v3.7.2.0data status	okinstallation	princeton_trtdifferential loss correction	single-endedforward channel	channel 2reverse channel	N/Adate	2019/09/16time	12:19:34forward acquisition time	60.00reverse acquisition time	0.00gamma	496.2192k internal	0.2304k external	0.2304temperature offset calibration	0.9949default loss term (dB/km)	0.3790temperature slope calibration	1.0000multiplexer offset coefficient	1.0000multiplexer slope coefficient	1.0000fibre end	0.00T internal ref (°C)	39.27T ext. ref 1 (°C)	13.29T ext. ref 2 (°C)	36.69length (m)	temperature (°C)	Stokes	anti-Stokes-747.200	800.000	0.037	0.163
-746.185	387.290	0.076	0.161
-745.171	454.405	-0.055	-0.124
-744.156	-76.136	-0.177	0.064
-743.142	800.000	-0.044	-0.135
-742.127	-200.000	-0.038	0.380
-741.112	735.732	0.023	-0.062
-740.098	-176.022	-0.167	-0.004
-739.083	46.574	-0.181	0.171
-738.069	-118.798	-0.191	-0.034
-737.054	800.000	0.049	-0.211
-736.039	19.347	-0.267	0.218
-735.025	-80.595	0.066	-0.022
-734.010	35.844	0.158	0.141
-732.996	-200.000	-0.114	-0.566
-731.981	800.000	0.048	-0.137
-730.966	800.000	-0.029	-0.108
-729.952	800.000	-0.053	0.186
-728.937	-200.000	-0.043	0.255
-727.923	172.704	-0.149	-0.218
-726.908	415.424	-0.115	-0.250
-725.894	800.000	0.035	0.149
-724.879	-56.761	-0.091	-0.041
-723.864	-200.000	0.021	-0.144
-722.850	153.163	0.246	-0.342
-721.835	-200.000	-0.045	-0.364
-720.821	800.000	-0.063	0.253
-719.806	-200.000	0.001	0.119
-718.791	237.621	0.145	0.245
-717.777	-50.564	-0.203	-0.097
-716.762	-200.000	-0.027	-0.293
-715.748	286.731	0.234	-0.430
-714.733	-26.096	-0.182	-0.109
-713.718	-37.047	0.219	0.119
-712.704	8.954	-0.266	-0.204
-711.689	-200.000	-0.013	0.121
-710.675	-54.584	0.235	0.108
-709.660	-51.382	-0.094	0.045
-708.645	151.238	-0.056	-0.077
-707.631	-200.000	0.023	0.201
-706.616	237.158	0.108	-0.182
-705.602	176.325	0.089	-0.131
-704.587	-29.844	0.098	0.057
-703.572	-200.000	-0.015	0.486
-702.558	-200.000	0.004	0.153
-701.543	31.440	0.096	0.084
-700.529	101.448	0.064	-0.076
-699.514	106.163	-0.063	0.076
-698.499	291.929	0.072	0.134
-697.485	305.298	-0.206	-0.389
-696.470	-75.247	-0.172	-0.062
-695.456	-111.361	-0.016	0.003
-694.441	-108.432	-0.194	0.042
-693.426	-101.141	-0.079	0.020
-692.412	-76.023	0.068	-0.024
-691.397	-101.391	0.052	-0.013
-690.383	15.006	0.087	-0.070
-689.368	270.455	-0.189	-0.338
-688.354	-80.253	-0.034	-0.011
-687.339	-200.000	0.010	0.115
-686.324	-200.000	-0.028	0.139
-685.310	273.901	0.107	0.193
-684.295	-200.000	0.036	-0.287
-683.281	297.019	0.020	0.037
-682.266	-150.608	0.159	-0.012
-681.251	409.451	0.070	-0.151
-680.237	-124.654	0.291	-0.046
-679.222	800.000	-0.084	-0.300
-678.208	800.000	-0.063	0.240
-677.193	32.808	0.065	0.057
-676.178	-183.731	-0.026	0.000
-675.164	40.493	-0.210	0.192
-674.149	148.166	-0.075	-0.103
-673.135	150.609	-0.059	-0.081
-672.120	125.212	-0.062	0.080
-671.105	61.885	0.145	0.147
-670.091	-36.740	-0.145	0.079
-669.076	243.721	0.055	-0.094
-668.062	180.210	0.075	0.112
-667.047	-57.183	-0.151	-0.068
-666.032	800.000	0.072	-0.283
-665.018	-143.437	-0.092	-0.009
-664.003	800.000	-0.028	0.087
-662.989	-185.234	-0.078	-0.001
-661.974	-49.901	-0.314	-0.151
-660.959	-60.045	0.380	-0.165
-659.945	145.114	0.126	-0.171
-658.930	618.268	0.094	-0.240
-657.916	-127.063	0.474	0.071
-656.901	323.172	0.050	0.097
-655.886	-167.223	0.278	0.011
-654.872	136.402	-0.098	-0.130
-653.857	54.209	0.198	-0.193
-652.843	174.370	-0.083	-0.122
-651.828	624.693	0.090	-0.231
-650.814	-200.000	-0.033	-0.204
-649.799	-141.305	-0.340	-0.035
-648.784	-111.209	-0.059	0.012
-647.770	-80.361	-0.507	-0.172
-646.755	-200.000	-0.005	-0.192
-645.741	-159.333	0.120	-0.007
-644.726	655.041	-0.009	0.023
-643.711	800.000	-0.059	0.186
-642.697	7.055	0.105	0.079
-641.682	-200.000	0.030	-0.181
-640.668	166.670	-0.185	0.267
-639.653	-92.010	-0.176	0.050
-638.638	-5.294	-0.236	0.165
-637.624	-107.775	0.402	-0.089
-636.609	113.849	0.047	-0.057
-635.595	-29.452	-0.333	0.193
-634.580	-200.000	-0.041	0.391
-633.565	142.226	-0.172	-0.231
-632.551	800.000	-0.049	0.205
-631.536	-4.333	0.051	-0.036
-630.522	800.000	-0.098	-0.343
-629.507	208.877	0.109	0.174
-628.492	-200.000	0.065	-0.386
-627.478	162.826	-0.157	-0.224
-626.463	-200.000	-0.004	0.227
-625.449	10.273	0.272	0.210
-624.434	-200.000	-0.056	-0.354
-623.419	107.120	0.191	-0.230
-622.405	800.000	0.006	-0.023
-621.390	53.032	-0.110	0.107
-620.376	-15.800	0.171	-0.111
-619.361	-116.084	-0.501	-0.095
-618.346	42.060	-0.227	0.209
-617.332	-58.505	0.304	0.134
-616.317	800.000	0.166	-0.514
-615.303	800.000	-0.138	-0.413
-614.288	-200.000	0.047	-0.212
-613.273	597.492	0.076	-0.191
-612.259	-59.757	-0.436	-0.189
-611.244	-200.000	0.030	0.162
-610.230	52.351	0.120	-0.115
-609.215	-91.149	0.102	-0.030
-608.201	5.747	-0.135	0.101
-607.186	-200.000	0.005	0.073
-606.171	-200.000	0.019	-0.200
-605.157	682.348	-0.114	-0.301
-604.142	306.609	-0.096	0.181
-603.128	-200.000	-0.029	-0.204
-602.113	800.000	-0.044	-0.134
-601.098	-91.387	-0.259	0.075
-600.084	15.400	-0.147	0.117
-599.069	158.951	0.067	0.095
-598.055	73.253	0.167	0.177
-597.040	-110.565	0.355	-0.074
-596.025	-5.692	-0.291	0.202
-595.011	-186.532	-0.319	-0.005
-593.996	-22.668	-0.103	0.063
-592.982	58.707	0.245	0.244
-591.967	-86.587	0.286	0.089
-590.952	-85.195	-0.151	0.048
-589.938	17.461	-0.184	-0.148
-588.923	-200.000	0.014	-0.224
-587.909	-200.000	-0.013	-0.347
-586.894	-52.303	-0.355	-0.167
-585.879	-75.634	-0.059	-0.021
-584.865	800.000	-0.039	-0.147
-583.850	-117.465	-0.379	0.069
-582.836	56.529	0.098	-0.097
-581.821	-126.602	-0.333	-0.050
-580.806	11.842	0.166	0.129
-579.792	-200.000	0.049	0.326
-578.777	800.000	0.027	0.092
-577.763	-92.329	0.112	-0.032
-576.748	254.988	0.061	0.105
-575.733	-200.000	-0.029	0.200
-574.719	-200.000	-0.030	-0.309
-573.704	115.694	-0.133	-0.164
-572.690	-177.694	0.127	0.003
-571.675	800.000	-0.130	0.375
-570.661	8.335	0.034	-0.026
-569.646	78.591	0.126	-0.136
-568.631	-62.963	0.183	0.077
-567.617	-89.521	-0.177	-0.053
-566.602	-50.147	-0.117	0.056
-565.588	21.580	0.166	-0.136
-564.573	-37.262	-0.222	-0.120
-563.558	-200.000	-0.054	-0.292
-562.544	218.857	0.187	-0.302
-561.529	-200.000	-0.026	0.243
-560.515	19.789	0.217	-0.176
-559.500	-45.588	-0.164	0.082
-558.485	40.976	-0.210	-0.191
-557.471	13.679	-0.229	0.180
-556.456	-70.037	0.098	0.038
-555.442	-8.202	-0.171	0.116
-554.427	800.000	-0.076	-0.310
-553.412	60.503	-0.028	0.028
-552.398	800.000	-0.074	0.241
-551.383	-200.000	-0.015	0.382
-550.369	-72.001	-0.130	0.049
-549.354	-46.495	-0.089	-0.044
-548.339	-71.803	-0.284	0.107
-547.325	-57.160	0.114	-0.051
-546.310	-177.792	-0.201	-0.005
-545.296	-200.000	0.060	-0.276
-544.281	169.219	0.247	-0.356
-543.266	-163.548	0.178	-0.008
-542.252	23.050	0.254	0.211
-541.237	-200.000	0.024	0.297
-540.223	45.847	-0.087	0.081
-539.208	-154.799	-0.337	0.023
-538.193	-62.522	-0.114	0.048
-537.179	94.649	0.161	0.185
-536.164	252.168	-0.103	-0.177
-535.150	-52.209	0.142	-0.067
-534.135	289.647	0.205	0.376
-533.121	132.708	-0.028	-0.037
-532.106	-200.000	0.062	-0.284
-531.091	-137.997	-0.334	-0.038
-530.077	-9.991	0.161	0.108
-529.062	566.019	0.205	-0.501
-528.048	17.336	0.120	0.096
-527.033	-41.266	0.214	0.111
-526.018	-61.906	-0.217	-0.092
-525.004	80.667	0.146	-0.159
-523.989	200.180	-0.139	-0.216
-522.975	-26.194	0.199	-0.118
-521.960	-44.046	-0.259	0.131
-520.945	234.376	-0.221	0.368
-519.931	800.000	0.022	0.083
-518.916	167.155	0.234	0.335
-517.902	800.000	0.038	0.164
-516.887	21.706	0.157	0.129
-515.872	20.410	0.303	0.247
-514.858	63.804	-0.140	0.142
-513.843	29.974	-0.214	-0.184
-512.829	-94.700	-0.370	0.101
-511.814	81.156	0.142	0.154
-510.799	800.000	-0.013	0.044
-509.785	11.738	0.084	-0.065
-508.770	688.104	-0.148	-0.390
-507.756	139.202	0.160	-0.213
-506.741	-71.648	0.343	0.129
-505.726	800.000	-0.091	0.283
-504.712	-200.000	0.010	-0.165
-503.697	-79.772	0.154	-0.052
-502.683	170.210	-0.189	-0.273
-501.668	512.629	-0.190	-0.447
-500.653	63.412	0.298	0.301
-499.639	131.231	-0.063	-0.081
-498.624	-113.299	0.166	-0.033
-497.610	-54.201	0.162	-0.074
-496.595	125.558	-0.051	-0.065
-495.581	-79.343	0.083	0.028
-494.566	-104.864	0.059	0.014
-493.551	60.092	0.239	-0.238
-492.537	-145.574	-0.358	0.032
-491.522	39.303	0.162	-0.146
-490.508	494.324	0.056	-0.131
-489.493	-135.434	-0.234	0.028
-488.478	-152.827	0.205	0.015
-487.464	-105.735	-0.228	0.052
-486.449	312.674	-0.059	0.112
-485.435	335.462	-0.081	0.158
-484.420	-62.982	0.052	0.021
-483.405	33.287	0.140	-0.123
-482.391	-123.772	-0.463	0.074
-481.376	-89.412	0.330	-0.098
-480.362	-64.843	-0.261	-0.106
-479.347	-147.313	0.186	0.016
-478.332	55.428	-0.286	0.279
-477.318	-200.000	0.019	0.089
-476.303	800.000	0.135	0.545
-475.289	409.867	0.163	0.348
-474.274	57.084	0.107	0.105
-473.259	5.548	-0.215	-0.160
-472.245	412.747	0.067	-0.143
-471.230	255.858	0.090	-0.156
-470.216	-67.159	0.237	0.094
-469.201	-197.720	0.194	0.001
-468.186	239.159	0.083	-0.140
-467.172	22.577	0.085	0.070
-466.157	224.638	-0.103	-0.167
-465.143	-184.219	0.045	0.001
-464.128	131.814	-0.084	-0.108
-463.113	-53.577	0.256	0.118
-462.099	-200.000	-0.006	0.315
-461.084	-67.133	0.074	0.029
-460.070	-200.000	0.069	-0.420
-459.055	-200.000	0.036	-0.196
-458.040	-35.295	0.239	0.131
-457.026	-121.051	-0.214	0.036
-456.011	800.000	0.004	0.016
-454.997	-51.142	-0.395	-0.186
-453.982	94.026	0.154	-0.175
-452.968	-200.000	-0.019	0.175
-451.953	-102.027	-0.212	-0.051
-450.938	-162.023	-0.175	-0.009
-449.924	-200.000	0.010	-0.278
-448.909	-15.472	0.176	0.113
-447.895	-103.646	0.084	0.020
-446.880	411.654	0.039	-0.084
-445.865	20.019	-0.332	-0.270
-444.851	63.926	-0.273	-0.276
-443.836	17.771	0.185	-0.148
-442.822	-92.884	-0.125	-0.035
-441.807	-144.619	-0.298	0.028
-440.792	-200.000	-0.006	-0.052
-439.778	180.291	0.107	0.158
-438.763	-138.198	0.173	-0.019
-437.749	18.145	-0.111	0.089
-436.734	95.118	0.204	-0.234
-435.719	462.184	0.095	-0.213
-434.705	-100.730	0.046	-0.011
-433.690	307.032	0.134	-0.250
-432.676	32.201	0.038	-0.033
-431.661	554.984	0.067	0.162
-430.646	5.853	0.165	-0.123
-429.632	756.244	-0.074	-0.200
-428.617	-47.331	-0.131	0.064
-427.603	-94.691	0.052	-0.014
-426.588	270.743	-0.097	0.171
-425.573	-124.282	0.063	0.010
-424.559	68.604	-0.153	0.158
-423.544	-86.993	-0.293	0.090
-422.530	211.623	-0.114	0.181
-421.515	-75.741	0.220	0.078
-420.500	32.264	0.140	0.121
-419.486	3.935	0.083	-0.061
-418.471	800.000	0.092	-0.352
-417.457	-19.989	0.152	-0.094
-416.442	-105.035	0.387	0.089
-415.428	-115.018	0.376	0.072
-414.413	-122.396	-0.072	0.012
-413.398	-130.217	0.275	-0.038
-412.384	50.908	0.198	0.188
-411.369	-200.000	-0.011	0.140
-410.355	71.650	0.190	0.198
-409.340	38.601	-0.099	0.088
-408.325	553.398	-0.141	0.341
-407.311	-200.000	-0.009	-0.410
-406.296	800.000	0.040	-0.119
-405.282	-67.468	-0.098	0.039
-404.267	93.597	0.172	0.195
-403.252	500.495	-0.048	0.111
-402.238	800.000	-0.004	-0.012
-401.223	496.333	0.069	0.159
-400.209	-200.000	-0.039	-0.281
-399.194	-172.267	-0.195	-0.006
-398.179	-91.910	0.209	-0.060
-397.165	800.000	-0.115	0.451
-396.150	-200.000	-0.030	0.162
-395.136	26.910	0.577	-0.486
-394.121	800.000	0.045	0.163
-393.106	-92.522	0.187	-0.053
-392.092	-200.000	0.008	-0.373
-391.077	-47.220	0.249	-0.122
-390.063	-148.996	-0.081	0.007
-389.048	800.000	0.080	-0.261
-388.033	-200.000	0.006	-0.252
-387.019	-156.941	0.243	0.015
-386.004	46.915	-0.170	-0.159
-384.990	743.629	0.073	-0.196
-383.975	64.218	-0.091	-0.092
-382.960	176.435	-0.042	-0.061
-381.946	-11.168	0.031	-0.020
-380.931	-75.387	0.226	0.081
-379.917	-200.000	-0.030	0.138
-378.902	-114.359	-0.071	-0.014
-377.888	-157.030	0.223	0.014
-376.873	-200.000	0.024	0.345
-375.858	426.335	-0.163	0.352
-374.844	88.582	-0.215	0.240
-373.829	-200.000	-0.014	0.106
-372.815	-45.499	-0.340	-0.169
-371.800	58.618	-0.136	0.134
-370.785	140.022	-0.190	0.252
-369.771	800.000	-0.117	0.363
-368.756	72.844	0.264	-0.277
-367.742	16.423	-0.167	0.133
-366.727	-129.589	-0.330	-0.046
-365.712	-6.638	-0.212	0.145
-364.698	-200.000	-0.017	-0.450
-363.683	-200.000	0.045	-0.326
-362.669	157.781	0.124	-0.172
-361.654	-48.034	-0.243	0.118
-360.639	75.992	-0.146	0.155
-359.625	178.121	0.167	0.245
-358.610	-51.289	-0.114	0.054
-357.596	-62.389	0.093	-0.039
-356.581	-200.000	-0.070	-0.352
-355.566	-73.440	0.068	0.025
-354.552	646.094	0.210	0.537
-353.537	-95.956	-0.284	0.076
-352.523	-190.486	0.092	0.001
-351.508	800.000	0.016	-0.060
-350.493	-155.286	0.386	0.025
-349.479	-200.000	-0.010	-0.055
-348.464	150.435	-0.046	0.062
-347.450	76.910	0.232	0.247
-346.435	-149.448	-0.167	-0.013
-345.420	160.504	0.102	0.143
-344.406	-93.570	-0.059	0.016
-343.391	-99.139	-0.129	0.033
-342.377	-1.012	0.149	-0.106
-341.362	-28.651	0.106	0.061
-340.348	588.708	0.103	0.254
-339.333	125.968	0.171	-0.217
-338.318	-53.943	0.012	0.005
-337.304	-200.000	-0.030	0.377
-336.289	-4.581	-0.258	0.178
-335.275	-200.000	0.026	0.309
-334.260	-49.251	-0.205	0.098
-333.245	84.003	-0.151	0.165
-332.231	-136.987	-0.289	0.033
-331.216	800.000	0.054	-0.183
-330.202	-82.278	0.079	-0.026
-329.187	3.997	-0.088	0.064
-328.172	-200.000	0.006	-0.060
-327.158	-41.352	0.267	0.138
-326.143	43.839	-0.162	-0.149
-325.129	-67.908	0.238	-0.093
-324.114	424.137	-0.065	0.140
-323.099	-8.751	0.347	-0.233
-322.085	65.890	0.104	-0.106
-321.070	66.972	-0.210	0.214
-320.056	-159.000	0.182	0.010
-319.041	-200.000	-0.074	-0.452
-318.026	231.637	0.026	0.042
-317.012	-117.407	0.284	-0.051
-315.997	77.609	0.284	0.302
-314.983	-84.854	0.220	-0.069
-313.968	92.678	-0.165	-0.187
-312.953	393.460	0.051	0.107
-311.939	-26.410	0.308	-0.181
-310.924	-35.491	-0.150	-0.082
-309.910	406.484	-0.047	-0.100
-308.895	-37.764	-0.191	-0.102
-307.880	0.602	-0.152	0.109
-306.866	-37.014	-0.111	0.060
-305.851	-200.000	0.002	0.078
-304.837	47.955	-0.250	-0.234
-303.822	-87.896	-0.153	-0.046
-302.807	17.354	-0.077	-0.061
-301.793	-100.446	0.276	-0.068
-300.778	800.000	0.124	0.379
-299.764	-200.000	-0.005	0.039
-298.749	-200.000	-0.022	-0.252
-297.735	313.566	0.101	-0.190
-296.720	153.735	-0.047	0.065
-295.705	138.869	0.033	0.044
-294.691	-41.011	-0.317	-0.164
-293.676	800.000	-0.131	0.433
-292.662	800.000	-0.062	0.238
-291.647	-82.735	-0.222	-0.072
-290.632	375.724	0.059	0.121
-289.618	24.847	0.202	-0.168
-288.603	-66.434	0.238	-0.095
-287.589	256.731	0.176	0.302
-286.574	800.000	0.022	-0.077
-285.559	-22.567	0.019	-0.012
-284.545	-121.436	-0.230	0.038
-283.530	-200.000	-0.016	0.299
-282.516	131.483	-0.135	0.173
-281.501	-108.645	0.139	0.030
-280.486	-186.374	0.237	0.003
-279.472	-200.000	0.005	-0.139
-278.457	-200.000	0.019	0.211
-277.443	-200.000	0.010	0.233
-276.428	91.117	-0.107	-0.120
-275.413	800.000	-0.023	0.098
-274.399	-137.711	-0.136	0.015
-273.384	-41.022	0.328	0.170
-272.370	240.972	-0.013	-0.022
-271.355	-200.000	-0.056	0.338
-270.340	-26.342	0.120	-0.070
-269.326	237.954	-0.072	0.119
-268.311	-200.000	-0.026	0.254
-267.297	388.094	0.171	0.354
-266.282	-200.000	0.044	0.204
-265.267	671.748	0.170	0.440
-264.253	97.779	-0.124	-0.142
-263.238	800.000	-0.154	-0.439
-262.224	52.187	-0.098	-0.094
-261.209	259.430	0.051	0.087
-260.195	269.402	-0.052	0.091
-259.180	800.000	0.044	-0.153
-258.165	31.650	-0.163	-0.140
-257.151	-200.000	-0.023	0.105
-256.136	120.576	-0.274	0.339
-255.122	365.329	-0.106	0.214
-254.107	-200.000	-0.027	-0.122
-253.092	-53.927	0.104	-0.047
-252.078	400.786	-0.136	-0.286
-251.063	-200.000	-0.006	-0.135
-250.049	-136.604	0.333	0.038
-249.034	-68.383	-0.315	-0.122
-248.019	388.498	-0.140	-0.289
-247.005	-47.460	-0.214	-0.104
-245.990	-200.000	0.013	0.236
-244.976	-200.000	0.003	0.081
-243.961	159.701	-0.056	-0.078
-242.946	252.575	0.204	0.348
-241.932	-74.222	-0.211	-0.076
-240.917	-62.703	0.189	-0.078
-239.903	-31.028	-0.238	-0.134
-238.888	-200.000	0.002	-0.187
-237.873	235.893	-0.011	-0.018
-236.859	-67.994	0.390	-0.152
-235.844	-71.207	-0.077	0.029
-234.830	-121.109	-0.214	-0.036
-233.815	326.376	-0.094	-0.179
-232.800	189.440	-0.184	-0.275
-231.786	-43.052	0.276	-0.140
-230.771	-200.000	0.054	-0.299
-229.757	-200.000	0.018	-0.234
-228.742	-35.152	-0.150	0.081
-227.727	-18.544	0.281	0.175
-226.713	146.899	0.097	-0.130
-225.698	214.681	-0.098	-0.154
-224.684	-166.553	-0.263	0.011
-223.669	130.865	-0.184	-0.235
-222.655	59.996	0.038	0.038
-221.640	-143.255	0.067	-0.006
-220.625	13.966	-0.184	0.143
-219.611	304.536	0.204	0.377
-218.596	277.182	0.138	-0.245
-217.582	-200.000	-0.010	0.203
-216.567	-118.394	-0.210	0.037
-215.552	30.942	0.206	-0.176
-214.538	-200.000	0.000	-0.204
-213.523	-71.316	-0.043	-0.016
-212.509	68.999	-0.071	-0.072
-211.494	115.702	0.205	0.250
-210.479	800.000	0.075	0.270
-209.465	-200.000	0.026	0.226
-208.450	90.718	-0.145	-0.162
-207.436	800.000	-0.020	-0.088
-206.421	-186.013	0.340	0.005
-205.406	-47.115	-0.133	-0.065
-204.392	-21.930	0.190	0.115
-203.377	-11.501	0.161	-0.105
-202.363	-44.213	-0.190	0.095
-201.348	-142.809	-0.300	0.029
-200.333	352.540	0.164	-0.325
-199.319	800.000	0.006	-0.021
-198.304	-200.000	-0.052	0.333
-197.290	-200.000	-0.017	0.165
-196.275	-86.417	-0.162	-0.050
-195.260	-132.151	-0.153	0.020
-194.246	28.890	0.063	-0.053
-193.231	-200.000	0.000	0.145
-192.217	22.113	-0.117	0.096
-191.202	153.729	0.125	-0.171
-190.187	-200.000	0.006	-0.131
-189.173	-12.274	0.134	0.087
-188.158	-81.528	0.236	0.077
-187.144	-59.996	-0.108	0.046
-186.129	-42.321	-0.353	0.180
-185.114	-18.373	-0.194	-0.120
-184.100	-200.000	0.027	-0.132
-183.085	-200.000	-0.055	0.344
-182.071	-59.630	0.202	0.086
-181.056	-94.076	0.247	-0.068
-180.042	-31.766	0.362	-0.202
-179.027	800.000	-0.015	-0.058
-178.012	83.988	-0.129	0.140
-176.998	221.250	0.172	-0.275
-175.983	3.075	0.127	0.092
-174.969	-61.105	0.078	-0.033
-173.954	48.977	0.167	-0.156
-172.939	53.957	0.081	0.078
-171.925	311.167	-0.082	0.154
-170.910	-200.000	-0.001	-0.026
-169.896	800.000	0.045	-0.138
-168.881	88.780	0.044	-0.048
-167.866	61.720	0.279	0.276
-166.852	-38.946	-0.186	0.097
-165.837	10.807	0.374	0.284
-164.823	227.355	0.116	0.187
-163.808	215.025	-0.056	-0.088
-162.793	-200.000	0.063	0.359
-161.779	-81.118	0.065	-0.021
-160.764	-85.143	0.188	-0.059
-159.750	-200.000	-0.015	-0.100
-158.735	330.008	0.082	-0.158
-157.720	-105.014	-0.068	-0.015
-156.706	212.518	0.057	0.090
-155.691	-7.815	-0.218	-0.146
-154.677	541.223	-0.177	0.420
-153.662	-200.000	-0.071	-0.627
-152.647	278.117	0.092	0.163
-151.633	-200.000	-0.037	-0.245
-150.618	139.910	0.174	-0.228
-149.604	200.939	-0.021	0.033
-148.589	-110.875	-0.256	-0.053
-147.574	-64.126	-0.221	-0.090
-146.560	259.027	-0.222	0.381
-145.545	153.679	0.155	-0.212
-144.531	319.612	-0.195	-0.368
-143.516	-200.000	-0.017	-0.524
-142.502	70.961	0.355	-0.366
-141.487	-28.062	0.240	-0.138
-140.472	190.347	0.134	-0.201
-139.458	85.795	-0.198	-0.217
-138.443	1.690	0.127	0.091
-137.429	-30.837	-0.225	0.126
-136.414	800.000	-0.106	0.361
-135.399	-19.203	0.199	-0.123
-134.385	166.898	0.058	0.082
-133.370	118.423	-0.127	0.156
-132.356	-45.626	0.436	-0.214
-131.341	236.337	-0.060	0.098
-130.326	-200.000	0.068	0.424
-129.312	-200.000	-0.005	-0.259
-128.297	-200.000	0.002	0.064
-127.283	30.993	0.178	-0.151
-126.268	800.000	0.041	-0.152
-125.253	198.245	-0.067	-0.102
-124.239	4.560	0.239	0.174
-123.224	680.723	0.037	0.097
-122.210	239.262	-0.229	0.378
-121.195	469.031	0.131	0.292
-120.180	800.000	-0.032	-0.097
