DTS Sentinel unit serial number:	SN413079Multiplexer serial number:	ORYXHardware model number:	OX4-SRSoftware version number:	ORYX F/W v4.00 Oryx Data Collector v3.7.2.0data status	okinstallation	princeton_trtdifferential loss correction	single-endedforward channel	channel 2reverse channel	N/Adate	2019/09/13time	15:43:34forward acquisition time	60.00reverse acquisition time	0.00gamma	496.2192k internal	0.2317k external	0.2317temperature offset calibration	1.0211default loss term (dB/km)	0.3790temperature slope calibration	1.0000multiplexer offset coefficient	1.0000multiplexer slope coefficient	1.0000fibre end	0.00T internal ref (°C)	34.81T ext. ref 1 (°C)	4.75T ext. ref 2 (°C)	29.20length (m)	temperature (°C)	Stokes	anti-Stokes-747.200	800.000	-0.016	-0.048
-746.185	6.437	-0.269	-0.202
-745.171	157.127	-0.144	0.201
-744.156	36.801	0.095	0.085
-743.142	346.542	0.053	-0.106
-742.127	17.537	-0.129	0.104
-741.112	457.388	-0.035	-0.080
-740.098	-35.703	0.277	0.152
-739.083	-154.592	-0.369	0.025
-738.069	-200.000	0.006	-0.099
-737.054	-30.782	-0.261	0.149
-736.039	-185.102	0.340	0.005
-735.025	-40.300	0.407	0.214
-734.010	120.737	0.059	0.074
-732.996	175.528	-0.171	0.251
-731.981	150.444	-0.159	0.219
-730.966	118.435	-0.197	0.246
-729.952	-40.856	-0.278	-0.146
-728.937	-21.948	-0.119	0.073
-727.923	-57.402	-0.139	0.062
-726.908	678.060	0.148	-0.391
-725.894	800.000	-0.051	-0.201
-724.879	-89.648	-0.121	-0.036
-723.864	100.919	-0.242	0.284
-722.850	-200.000	-0.048	-0.373
-721.835	-21.804	-0.410	-0.252
-720.821	161.858	-0.086	-0.122
-719.806	-17.421	-0.191	-0.122
-718.791	-159.779	-0.394	0.022
-717.777	38.493	-0.133	0.120
-716.762	-193.832	-0.172	-0.001
-715.748	-43.670	0.142	0.072
-714.733	-81.320	0.127	0.042
-713.718	800.000	0.032	0.114
-712.704	536.165	-0.080	-0.193
-711.689	48.441	-0.108	-0.103
-710.675	-200.000	-0.039	0.173
-709.660	15.087	0.030	0.024
-708.645	800.000	-0.045	0.142
-707.631	436.606	-0.120	-0.265
-706.616	-200.000	-0.042	-0.363
-705.602	-104.134	-0.118	0.028
-704.587	-133.715	-0.193	-0.024
-703.572	-159.997	-0.366	0.020
-702.558	-200.000	-0.023	0.182
-701.543	281.925	-0.231	0.419
-700.529	294.958	-0.259	-0.479
-699.514	54.728	0.139	0.135
-698.499	-200.000	-0.008	-0.115
-697.485	-200.000	-0.026	-0.335
-696.470	800.000	-0.133	-0.438
-695.456	-106.654	-0.381	-0.086
-694.441	-200.000	-0.014	0.084
-693.426	-5.666	-0.122	0.084
-692.412	800.000	-0.017	0.058
-691.397	-75.999	-0.057	-0.020
-690.383	-147.606	0.049	0.004
-689.368	-135.835	-0.299	-0.036
-688.354	107.469	-0.285	0.343
-687.339	-152.503	-0.134	0.010
-686.324	-6.998	0.068	0.047
-685.310	-95.522	0.146	0.040
-684.295	-200.000	-0.037	-0.187
-683.281	3.908	0.202	-0.149
-682.266	472.156	-0.088	-0.201
-681.251	40.482	0.076	0.069
-680.237	-200.000	-0.015	-0.175
-679.222	-200.000	0.009	-0.361
-678.208	-101.233	-0.112	0.028
-677.193	-110.901	0.136	0.028
-676.178	-200.000	-0.024	-0.119
-675.164	142.208	-0.024	0.033
-674.149	515.312	0.053	-0.125
-673.135	-18.060	-0.451	-0.285
-672.120	-143.916	-0.129	-0.012
-671.105	800.000	0.057	0.233
-670.091	-117.901	-0.095	-0.017
-669.076	-51.316	0.043	0.020
-668.062	32.119	0.127	-0.111
-667.047	-58.566	-0.087	-0.038
-666.032	-200.000	-0.010	0.062
-665.018	105.562	-0.220	0.262
-664.003	259.692	-0.106	0.185
-662.989	-200.000	-0.033	-0.223
-661.974	272.900	-0.202	0.360
-660.959	-111.893	-0.085	0.017
-659.945	-112.073	-0.069	-0.014
-658.930	-14.647	-0.212	-0.138
-657.916	-200.000	-0.050	-0.280
-656.901	-121.311	-0.249	0.042
-655.886	17.377	-0.207	0.166
-654.872	42.186	-0.251	0.230
-653.857	-84.280	0.230	-0.074
-652.843	-187.288	0.068	0.001
-651.828	-18.267	-0.076	0.048
-650.814	-107.349	-0.127	0.028
-649.799	800.000	-0.075	0.238
-648.784	34.827	-0.182	0.160
-647.770	-69.011	-0.331	0.129
-646.755	-135.480	-0.318	-0.038
-645.741	24.791	-0.178	-0.149
-644.726	-44.107	0.219	-0.111
-643.711	78.729	0.066	0.072
-642.697	412.631	0.165	0.353
-641.682	-165.815	0.174	-0.008
-640.668	405.677	-0.123	-0.262
-639.653	-200.000	-0.008	-0.338
-638.638	-27.412	0.071	-0.042
-637.624	-75.419	0.085	-0.031
-636.609	800.000	0.080	-0.267
-635.595	95.090	0.092	0.106
-634.580	60.342	-0.266	0.266
-633.565	257.809	0.170	-0.295
-632.551	413.678	-0.051	0.109
-631.536	-200.000	-0.015	-0.097
-630.522	113.234	0.193	-0.236
-629.507	31.382	0.092	-0.079
-628.492	-200.000	0.012	0.070
-627.478	150.831	0.111	-0.153
-626.463	-200.000	0.320	-0.000
-625.449	-17.897	0.329	-0.208
-624.434	-68.997	-0.159	0.062
-623.419	179.739	0.031	-0.046
-622.405	800.000	-0.064	0.186
-621.390	-19.444	-0.064	0.040
-620.376	-200.000	0.003	0.162
-619.361	-200.000	-0.004	0.119
-618.346	-81.994	-0.040	-0.013
-617.332	800.000	-0.104	0.366
-616.317	389.653	-0.055	-0.116
-615.303	24.734	0.188	-0.157
-614.288	32.257	0.287	-0.250
-613.273	46.881	0.174	0.163
-612.259	-83.158	0.428	0.139
-611.244	-74.747	0.141	0.051
-610.230	67.152	0.031	0.032
-609.215	800.000	0.096	-0.320
-608.201	101.001	0.151	-0.177
-607.186	161.949	0.162	0.229
-606.171	4.010	0.279	0.206
-605.157	-40.299	0.070	0.037
-604.142	-180.527	-0.240	-0.005
-603.128	-184.825	-0.177	0.003
-602.113	-174.214	-0.029	-0.001
-601.098	-152.865	-0.400	0.028
-600.084	691.332	-0.117	0.310
-599.069	327.335	0.019	-0.037
-598.055	15.884	-0.158	-0.125
-597.040	-200.000	-0.060	0.425
-596.025	-100.890	-0.179	0.044
-595.011	-13.650	-0.221	0.144
-593.996	42.815	-0.090	0.082
-592.982	143.539	0.089	-0.119
-591.967	-91.582	0.329	0.094
-590.952	-200.000	0.007	0.302
-589.938	800.000	-0.072	0.273
-588.923	-84.251	0.202	-0.064
-587.909	-81.492	-0.140	-0.046
-586.894	-68.372	-0.363	-0.142
-585.879	55.019	-0.176	0.171
-584.865	-75.242	-0.183	0.066
-583.850	381.202	-0.077	-0.159
-582.836	265.059	0.015	-0.026
-581.821	185.416	0.079	-0.118
-580.806	-10.236	0.040	-0.027
-579.792	-66.413	0.260	-0.104
-578.777	41.886	0.218	-0.199
-577.763	261.249	-0.070	0.123
-576.748	87.129	0.151	-0.168
-575.733	239.482	-0.105	-0.176
-574.719	-30.817	-0.199	-0.113
-573.704	800.000	0.017	0.070
-572.690	-78.785	-0.109	-0.037
-571.675	-27.852	0.193	0.113
-570.661	120.753	0.144	0.180
-569.646	-145.639	-0.176	-0.016
-568.631	217.430	0.324	-0.519
-567.617	371.675	-0.104	-0.213
-566.602	-54.280	-0.256	-0.117
-565.588	3.988	-0.123	0.091
-564.573	493.074	0.143	-0.329
-563.558	154.327	0.182	0.251
-562.544	-200.000	-0.024	-0.171
-561.529	158.257	0.095	-0.133
-560.515	-53.075	-0.370	-0.171
-559.500	756.110	0.086	-0.233
-558.485	1.778	-0.013	0.009
-557.471	-174.080	-0.082	0.002
-556.456	-43.193	-0.334	-0.170
-555.442	123.421	0.181	-0.228
-554.427	0.639	0.124	0.089
-553.412	37.787	0.198	-0.176
-552.398	-129.950	-0.176	-0.024
-551.383	-18.304	0.221	0.139
-550.369	-90.141	-0.414	-0.121
-549.354	-102.064	-0.376	0.091
-548.339	108.146	-0.207	0.248
-547.325	-58.712	0.115	0.050
-546.310	-140.542	0.230	-0.024
-545.296	108.249	0.186	0.223
-544.281	630.937	-0.137	-0.348
-543.266	-136.996	-0.306	-0.035
-542.252	-112.570	0.430	0.086
-541.237	-65.918	-0.227	0.091
-540.223	24.897	-0.212	-0.177
-539.208	1.583	-0.126	-0.091
-538.193	-26.668	0.134	0.079
-537.179	75.847	-0.088	0.094
-536.164	461.078	-0.079	0.176
-535.150	60.795	-0.218	0.217
-534.135	68.141	0.242	-0.249
-533.121	19.428	-0.117	-0.095
-532.106	91.613	-0.345	-0.389
-531.091	65.518	-0.200	-0.204
-530.077	122.879	0.132	-0.165
-529.062	267.165	0.161	-0.282
-528.048	-23.055	-0.212	0.128
-527.033	349.247	-0.054	0.107
-526.018	-200.000	-0.020	-0.251
-525.004	800.000	-0.077	-0.217
-523.989	-37.630	0.288	-0.154
-522.975	314.210	-0.105	-0.199
-521.960	-93.204	0.021	-0.006
-520.945	7.833	-0.029	-0.021
-519.931	-200.000	-0.035	0.233
-518.916	-200.000	0.012	0.214
-517.902	-200.000	0.016	0.378
-516.887	716.222	-0.006	0.015
-515.872	338.658	0.109	0.212
-514.858	248.704	-0.114	0.194
-513.843	-48.365	-0.279	0.135
-512.829	-56.267	-0.296	-0.132
-511.814	127.086	0.120	-0.153
-510.799	800.000	0.053	0.200
-509.785	-110.716	-0.199	-0.041
-508.770	67.060	0.199	-0.204
-507.756	751.276	-0.048	0.130
-506.741	-200.000	0.017	0.093
-505.726	-126.092	0.227	-0.034
-504.712	-82.499	0.467	-0.152
-503.697	-127.861	0.163	-0.024
-502.683	140.375	-0.035	0.047
-501.668	-200.000	0.005	0.184
-500.653	-200.000	-0.035	0.164
-499.639	-44.022	0.186	-0.094
-498.624	189.619	0.204	-0.307
-497.610	456.008	0.015	-0.034
-496.595	-94.844	-0.175	0.047
-495.581	-200.000	0.011	-0.113
-494.566	-200.000	0.032	-0.308
-493.551	-28.649	0.219	-0.126
-492.537	19.961	-0.193	0.156
-491.522	56.475	0.195	-0.191
-490.508	-200.000	-0.101	-0.570
-489.493	124.735	0.095	0.120
-488.478	800.000	0.083	-0.271
-487.464	-200.000	-0.014	-0.244
-486.449	327.099	0.043	-0.082
-485.435	800.000	-0.008	0.029
-484.420	-172.162	0.116	0.004
-483.405	15.028	0.192	0.151
-482.391	-200.000	0.070	0.344
-481.376	469.519	0.081	0.183
-480.362	-17.269	-0.449	-0.284
-479.347	90.925	-0.061	-0.068
-478.332	-82.852	-0.293	-0.095
-477.318	-147.023	0.130	0.011
-476.303	-159.747	-0.186	0.010
-475.289	-24.101	0.073	-0.044
-474.274	-43.832	-0.069	-0.035
-473.259	682.217	0.099	0.259
-472.245	721.516	0.071	-0.189
-471.230	-27.775	0.145	-0.085
-470.216	42.082	-0.040	0.036
-469.201	-126.769	-0.285	-0.042
-468.186	56.160	-0.329	-0.320
-467.172	-109.042	-0.172	0.037
-466.157	800.000	-0.039	-0.163
-465.143	-98.479	0.165	-0.042
-464.128	-12.793	0.148	0.096
-463.113	-52.887	-0.398	-0.184
-462.099	2.676	0.151	0.110
-461.084	129.554	-0.086	0.110
-460.070	4.952	0.201	0.148
-459.055	678.381	-0.057	0.149
-458.040	-200.000	-0.003	0.212
-457.026	-200.000	-0.005	-0.113
-456.011	-122.043	-0.178	-0.029
-454.997	642.756	0.089	0.226
-453.982	-93.284	0.085	-0.024
-452.968	-200.000	0.069	-0.352
-451.953	-200.000	-0.074	-0.386
-450.938	546.631	-0.101	0.243
-449.924	129.111	0.177	0.226
-448.909	-3.940	0.146	-0.102
-447.895	422.688	-0.067	0.144
-446.880	-21.158	0.196	-0.120
-445.865	-68.467	0.133	0.052
-444.851	91.211	-0.184	0.207
-443.836	-107.060	0.313	0.069
-442.822	10.807	0.112	0.086
-441.807	-200.000	0.019	0.234
-440.792	-45.653	-0.192	0.095
-439.778	57.312	-0.106	-0.104
-438.763	-200.000	-0.020	0.289
-437.749	-65.102	-0.282	-0.114
-436.734	313.296	0.135	0.254
-435.719	-93.601	-0.189	-0.052
-434.705	56.818	-0.152	-0.148
-433.690	453.720	0.123	0.272
-432.676	194.693	-0.086	-0.130
-431.661	143.327	-0.149	0.198
-430.646	-87.173	0.186	-0.057
-429.632	-128.251	0.218	-0.031
-428.617	187.845	-0.123	-0.184
-427.603	-200.000	-0.032	-0.398
-426.588	275.534	-0.091	0.162
-425.573	190.737	-0.069	-0.104
-424.559	-132.845	0.409	0.052
-423.544	27.770	0.234	0.197
-422.530	800.000	-0.062	-0.193
-421.515	-200.000	0.006	0.247
-420.500	-139.744	-0.043	0.005
-419.486	111.289	-0.054	-0.066
-418.471	53.984	0.130	-0.125
-417.457	-200.000	0.023	0.128
-416.442	800.000	0.100	0.396
-415.428	800.000	-0.012	0.044
-414.413	-38.114	-0.153	-0.081
-413.398	-96.149	-0.192	0.051
-412.384	53.177	-0.035	0.033
-411.369	-23.758	-0.195	0.117
-410.355	-49.115	-0.231	-0.110
-409.340	800.000	-0.049	-0.179
-408.325	-94.192	-0.456	0.125
-407.311	265.080	-0.168	-0.292
-406.296	118.503	0.093	0.115
-405.282	38.951	0.109	-0.098
-404.267	-26.451	-0.175	0.102
-403.252	61.094	-0.132	0.131
-402.238	800.000	-0.080	-0.269
-401.223	7.786	0.279	-0.209
-400.209	-200.000	-0.002	-0.026
-399.194	-59.124	0.228	-0.098
-398.179	93.440	0.267	0.302
-397.165	-54.566	0.116	0.053
-396.150	-62.447	0.097	0.040
-395.136	-36.718	-0.173	0.093
-394.121	153.852	-0.083	0.113
-393.106	800.000	0.043	-0.172
-392.092	-126.536	0.101	0.015
-391.077	-200.000	-0.000	-0.139
-390.063	-30.309	-0.230	-0.130
-389.048	-23.542	0.236	0.141
-388.033	-49.939	-0.042	0.020
-387.019	48.861	0.242	-0.227
-386.004	692.018	0.062	0.163
-384.990	74.209	0.173	0.182
-383.975	122.040	-0.113	-0.141
-382.960	-109.399	0.183	0.039
-381.946	32.084	0.146	-0.126
-380.931	800.000	0.101	0.303
-379.917	4.641	0.242	0.177
-378.902	-159.734	-0.169	-0.009
-377.888	-199.933	0.115	-0.001
-376.873	-200.000	-0.040	0.291
-375.858	-115.380	0.141	-0.027
-374.844	-200.000	-0.015	-0.150
-373.829	-200.000	-0.021	-0.104
-372.815	-176.420	-0.354	-0.009
-371.800	105.025	0.127	0.150
-370.785	800.000	-0.072	0.287
-369.771	-23.941	0.159	-0.095
-368.756	114.925	-0.191	-0.233
-367.742	91.740	0.072	-0.080
-366.727	-141.649	0.287	0.029
-365.712	251.753	-0.122	0.207
-364.698	213.363	0.028	-0.044
-363.683	-200.000	0.025	-0.319
-362.669	-62.354	-0.564	-0.234
-361.654	523.165	-0.142	0.333
-360.639	239.628	-0.059	0.098
-359.625	-126.758	0.456	-0.067
-358.610	800.000	-0.115	-0.467
-357.596	-160.463	-0.023	0.001
-356.581	110.693	-0.157	0.189
-355.566	27.439	0.185	-0.155
-354.552	-25.297	-0.231	0.136
-353.537	-168.952	-0.207	0.008
-352.523	76.164	0.233	-0.246
-351.508	712.192	-0.050	0.133
-350.493	528.764	-0.027	0.065
-349.479	534.819	-0.127	-0.300
-348.464	580.322	0.065	0.159
-347.450	32.508	0.130	-0.112
-346.435	-51.820	0.176	-0.082
-345.420	-200.000	0.043	0.337
-344.406	54.487	0.214	-0.205
-343.391	211.143	-0.101	0.158
-342.377	-142.151	0.112	-0.011
-341.362	-200.000	-0.008	0.053
-340.348	-200.000	0.015	0.266
-339.333	-200.000	0.005	0.025
-338.318	46.833	0.086	-0.080
-337.304	-64.721	0.038	0.015
-336.289	800.000	0.032	-0.101
-335.275	-62.807	-0.493	-0.203
-334.260	11.784	0.225	-0.172
-333.245	-20.197	-0.189	-0.116
-332.231	133.349	-0.151	-0.195
-331.216	-200.000	0.089	0.423
-330.202	-200.000	0.039	0.214
-329.187	421.203	0.134	0.287
-328.172	-101.687	-0.258	0.062
-327.158	267.864	-0.156	-0.272
-326.143	-167.490	0.137	-0.005
-325.129	62.266	-0.253	0.252
-324.114	186.066	0.064	0.095
-323.099	-92.288	-0.337	0.094
-322.085	-91.705	-0.481	-0.136
-321.070	25.483	-0.155	0.128
-320.056	584.341	0.052	-0.127
-319.041	-138.875	0.226	0.024
-318.026	-94.243	-0.292	-0.079
-317.012	-113.857	-0.104	0.020
-315.997	6.582	0.227	0.168
-314.983	800.000	-0.038	0.131
-313.968	-4.775	-0.262	0.180
-312.953	33.115	-0.078	0.067
-311.939	228.771	-0.086	-0.140
-310.924	800.000	0.044	-0.156
-309.910	-200.000	0.006	-0.057
-308.895	133.695	-0.179	-0.231
-307.880	-200.000	0.021	-0.119
-306.866	-200.000	0.023	-0.122
-305.851	291.568	-0.076	-0.137
-304.837	-135.383	0.398	-0.047
-303.822	-200.000	0.003	0.131
-302.807	-92.644	-0.318	-0.089
-301.793	-121.809	0.185	0.030
-300.778	-54.043	0.151	-0.068
-299.764	-200.000	-0.035	-0.429
-298.749	-97.916	-0.364	-0.094
-297.735	-200.000	0.009	0.061
-296.720	-200.000	0.008	-0.045
-295.705	-111.342	0.135	0.027
-294.691	387.190	0.032	-0.066
-293.676	-200.000	0.018	0.259
-292.662	-200.000	0.030	-0.193
-291.647	638.887	0.156	0.394
-290.632	-200.000	-0.023	0.393
-289.618	800.000	0.089	0.261
-288.603	-112.286	0.213	-0.042
-287.589	192.421	-0.150	0.225
-286.574	390.607	-0.049	0.100
-285.559	-5.314	-0.243	0.166
-284.545	-90.252	-0.329	-0.095
-283.530	-53.048	-0.090	-0.041
-282.516	-200.000	0.018	-0.214
-281.501	-25.245	-0.123	0.072
-280.486	217.759	0.022	-0.035
-279.472	-200.000	-0.004	0.184
-278.457	219.389	-0.117	0.187
-277.443	94.651	-0.144	0.163
-276.428	-71.682	0.271	0.100
-275.413	-35.816	0.414	0.223
-274.399	-61.902	-0.140	-0.058
-273.384	800.000	-0.074	-0.208
-272.370	-124.990	-0.275	-0.042
-271.355	-200.000	0.033	-0.192
-270.340	-79.673	0.297	0.099
-269.326	323.824	0.075	0.141
-268.311	-8.913	-0.120	0.080
-267.297	-25.452	0.403	-0.237
-266.282	800.000	-0.051	0.205
-265.267	127.241	0.116	0.146
-264.253	-200.000	0.046	-0.220
-263.238	-172.122	0.247	0.008
-262.224	-23.142	-0.154	-0.092
-261.209	800.000	-0.083	0.250
-260.195	-129.818	-0.057	-0.008
-259.180	-200.000	0.072	0.329
-258.165	800.000	0.096	0.289
-257.151	-200.000	-0.008	-0.048
-256.136	800.000	0.040	0.155
-255.122	282.133	-0.139	0.248
-254.107	472.802	0.062	0.139
-253.092	31.750	0.043	-0.037
-252.078	-200.000	-0.027	0.348
-251.063	800.000	0.051	-0.165
-250.049	153.855	-0.195	0.266
-249.034	-40.348	0.149	0.077
-248.019	-125.402	0.212	0.032
-247.005	24.646	-0.069	0.057
-245.990	-19.055	-0.131	0.081
-244.976	198.394	-0.064	0.097
-243.961	-69.935	0.140	0.053
-242.946	42.091	0.113	-0.102
-241.932	-110.636	0.053	-0.011
-240.917	-115.411	-0.359	0.067
-239.903	288.211	0.122	-0.219
-238.888	95.671	-0.138	0.157
-237.873	-200.000	0.042	-0.198
-236.859	-200.000	0.032	0.222
-235.844	-111.319	0.296	-0.060
-234.830	-123.607	0.194	0.031
-233.815	-57.744	0.243	-0.106
-232.800	800.000	0.055	0.231
-231.786	-200.000	-0.065	-0.337
-230.771	-132.822	-0.054	0.007
-229.757	86.844	0.107	0.118
-228.742	-61.002	-0.383	0.160
-227.727	83.308	-0.224	0.242
-226.713	240.150	-0.005	0.007
-225.698	-200.000	0.006	-0.065
-224.684	35.803	0.038	-0.033
-223.669	-62.123	0.292	-0.121
-222.655	800.000	0.042	-0.118
-221.640	-200.000	-0.062	0.658
-220.625	3.536	-0.205	0.148
-219.611	-85.719	-0.269	0.083
-218.596	-9.041	0.359	0.238
-217.582	-9.991	-0.034	0.022
-216.567	-100.857	0.205	0.050
-215.552	-200.000	0.020	-0.226
-214.538	272.009	0.209	-0.365
-213.523	-138.139	0.283	-0.031
-212.509	368.584	0.057	0.114
-211.494	40.069	0.233	-0.208
-210.479	38.736	0.187	-0.166
-209.465	-78.662	-0.513	-0.174
-208.450	800.000	0.045	-0.152
-207.436	-140.415	0.103	0.011
-206.421	-101.188	-0.174	0.042
-205.406	80.713	-0.077	-0.082
-204.392	-200.000	0.028	-0.225
-203.377	800.000	-0.019	-0.060
-202.363	-200.000	0.014	-0.176
-201.348	20.098	0.209	0.167
-200.333	-57.989	0.352	0.152
-199.319	48.092	-0.115	0.107
-198.304	-89.994	0.097	-0.028
-197.290	-200.000	0.003	-0.036
-196.275	-55.625	-0.170	-0.075
-195.260	-200.000	0.001	-0.336
-194.246	-53.730	0.219	-0.099
-193.231	8.103	-0.131	0.098
-192.217	149.468	-0.111	-0.149
-191.202	692.640	0.051	0.132
-190.187	-138.436	0.441	-0.048
-189.173	131.940	0.139	-0.177
-188.158	199.393	0.046	0.070
-187.144	36.814	-0.359	0.314
-186.129	107.433	0.158	0.186
-185.114	-2.758	-0.056	-0.039
-184.100	28.742	0.199	0.167
-183.085	221.486	0.080	-0.128
-182.071	800.000	-0.155	0.428
-181.056	-107.281	0.213	-0.046
-180.042	800.000	-0.041	-0.162
-179.027	180.855	0.045	0.065
-178.012	-200.000	0.044	-0.259
-176.998	130.316	-0.104	-0.132
-175.983	-32.531	-0.218	-0.120
-174.969	121.786	-0.173	0.213
-173.954	84.968	0.099	-0.108
-172.939	800.000	-0.074	-0.261
-171.925	84.420	-0.251	-0.271
-170.910	-200.000	0.004	-0.208
-169.896	800.000	-0.027	-0.089
-168.881	-148.953	0.167	-0.013
-167.866	-66.965	0.224	0.088
-166.852	-157.360	0.390	-0.023
-165.837	-200.000	-0.009	-0.044
-164.823	-65.055	-0.068	-0.027
-163.808	-200.000	0.026	-0.237
-162.793	363.212	0.059	0.118
-161.779	431.551	-0.057	0.122
-160.764	485.379	0.089	0.202
-159.750	-148.727	0.189	0.015
-158.735	-63.375	0.159	-0.065
-157.720	800.000	-0.066	0.208
-156.706	78.548	-0.139	0.147
-155.691	7.921	0.141	-0.105
-154.677	-42.282	-0.265	0.134
-153.662	-27.003	-0.194	0.112
-152.647	-152.207	0.253	0.018
-151.633	78.370	-0.430	-0.454
-150.618	583.335	0.103	-0.251
-149.604	280.240	-0.102	-0.180
-148.589	-200.000	0.058	0.427
-147.574	-3.484	0.210	-0.145
-146.560	-200.000	-0.037	0.229
-145.545	151.959	0.105	-0.141
-144.531	-200.000	0.010	-0.163
-143.516	-53.244	0.308	0.140
-142.502	4.523	0.262	0.190
-141.487	-184.020	-0.472	-0.008
-140.472	311.155	0.117	0.217
-139.458	800.000	-0.024	0.092
-138.443	800.000	-0.023	-0.090
-137.429	-200.000	0.037	0.338
-136.414	209.048	-0.061	-0.094
-135.399	-75.105	-0.167	0.059
-134.385	24.556	-0.180	0.147
-133.370	800.000	0.190	-0.550
-132.356	-200.000	0.023	0.242
-131.341	-198.271	0.059	0.000
-130.326	50.820	0.377	-0.353
-129.312	-4.956	0.173	0.117
-128.297	275.060	-0.090	-0.159
-127.283	133.319	-0.062	0.079
-126.268	-200.000	0.094	0.653
-125.253	29.588	-0.283	0.238
-124.239	-200.000	-0.010	-0.094
-123.224	-124.201	0.241	0.037
-122.210	41.779	0.141	-0.126
-121.195	85.738	-0.141	-0.153
