DTS Sentinel unit serial number:	SN413079Multiplexer serial number:	ORYXHardware model number:	OX4-SRSoftware version number:	ORYX F/W v4.00 Oryx Data Collector v3.7.2.0data status	okinstallation	princeton_trtdifferential loss correction	single-endedforward channel	channel 2reverse channel	N/Adate	2019/09/14time	20:31:35forward acquisition time	60.00reverse acquisition time	0.00gamma	496.2192k internal	0.2322k external	0.2322temperature offset calibration	1.0092default loss term (dB/km)	0.3790temperature slope calibration	1.0000multiplexer offset coefficient	1.0000multiplexer slope coefficient	1.0000fibre end	0.00T internal ref (°C)	33.52T ext. ref 1 (°C)	4.86T ext. ref 2 (°C)	28.12length (m)	temperature (°C)	Stokes	anti-Stokes-747.200	-12.746	-0.103	-0.068
-746.185	-200.000	0.068	0.328
-745.171	-125.810	-0.297	-0.045
-744.156	-189.267	0.312	0.004
-743.142	800.000	-0.102	0.361
-742.127	68.857	-0.029	0.030
-741.112	676.790	0.074	0.194
-740.098	-69.155	0.182	-0.071
-739.083	33.510	0.149	-0.131
-738.069	711.035	-0.107	0.285
-737.054	-85.894	0.245	-0.077
-736.039	-200.000	0.002	0.028
-735.025	-52.962	0.248	-0.115
-734.010	-89.555	-0.190	-0.056
-732.996	-111.425	0.131	-0.027
-731.981	271.570	-0.101	-0.180
-730.966	-71.016	-0.579	-0.220
-729.952	-110.379	-0.453	0.095
-728.937	-200.000	0.046	0.347
-727.923	370.137	-0.142	-0.290
-726.908	-135.024	0.299	-0.036
-725.894	373.029	0.039	0.080
-724.879	122.681	-0.029	0.037
-723.864	35.372	-0.249	-0.221
-722.850	-70.164	-0.056	0.021
-721.835	170.923	-0.089	0.129
-720.821	472.760	0.137	-0.311
-719.806	41.037	0.128	0.116
-718.791	406.466	-0.065	0.139
-717.777	74.609	0.163	-0.173
-716.762	126.393	-0.054	0.069
-715.748	-58.521	-0.317	0.139
-714.733	112.943	-0.134	-0.165
-713.718	43.013	0.303	-0.279
-712.704	800.000	-0.082	-0.238
-711.689	800.000	0.102	-0.309
-710.675	-121.131	-0.365	0.062
-709.660	-200.000	-0.006	0.045
-708.645	-126.303	0.218	0.033
-707.631	-200.000	-0.016	-0.283
-706.616	108.083	-0.192	-0.232
-705.602	-143.970	0.269	0.026
-704.587	800.000	-0.020	-0.060
-703.572	-21.241	-0.229	-0.141
-702.558	800.000	-0.046	0.177
-701.543	-186.367	0.284	-0.004
-700.529	-106.644	-0.294	0.066
-699.514	-200.000	0.071	-0.379
-698.499	-38.110	-0.353	0.189
-697.485	-94.536	0.031	0.008
-696.470	-200.000	0.030	-0.295
-695.456	203.581	0.020	-0.031
-694.441	800.000	0.077	-0.266
-693.426	55.167	-0.372	-0.362
-692.412	-109.849	0.381	-0.081
-691.397	87.993	-0.198	-0.221
-690.383	800.000	-0.060	0.197
-689.368	-4.747	-0.097	-0.067
-688.354	140.232	0.135	0.180
-687.339	109.207	-0.065	-0.079
-686.324	-200.000	-0.024	-0.177
-685.310	-143.113	0.036	-0.004
-684.295	-74.401	0.102	-0.037
-683.281	-70.331	0.226	0.086
-682.266	-40.009	-0.099	0.052
-681.251	650.555	-0.097	-0.250
-680.237	-34.045	-0.076	0.042
-679.222	30.384	-0.264	-0.227
-678.208	180.054	-0.176	0.261
-677.193	-200.000	-0.015	-0.078
-676.178	-200.000	0.022	0.216
-675.164	-68.959	0.108	-0.042
-674.149	68.962	0.337	-0.349
-673.135	-200.000	-0.292	-0.001
-672.120	149.694	0.196	-0.267
-671.105	-85.397	-0.382	0.120
-670.091	-69.931	-0.114	-0.044
-669.076	41.662	0.181	-0.165
-668.062	-63.043	-0.229	0.095
-667.047	800.000	0.086	-0.351
-666.032	-200.000	-0.026	-0.238
-665.018	208.554	0.261	0.411
-664.003	45.874	0.202	-0.188
-662.989	-62.294	0.188	-0.079
-661.974	-66.387	-0.069	-0.028
-660.959	-77.784	0.122	0.042
-659.945	517.280	-0.068	0.161
-658.930	246.634	0.051	-0.086
-657.916	-200.000	-0.028	-0.315
-656.901	487.066	0.077	-0.177
-655.886	-175.124	0.384	-0.011
-654.872	313.018	0.107	-0.202
-653.857	-200.000	-0.028	-0.139
-652.843	-15.639	0.345	-0.221
-651.828	278.658	-0.031	-0.055
-650.814	176.070	0.186	0.272
-649.799	790.545	-0.071	0.195
-648.784	-200.000	0.025	-0.237
-647.770	-30.207	-0.034	0.020
-646.755	-200.000	0.035	0.187
-645.741	-180.751	-0.091	0.002
-644.726	-200.000	-0.036	0.000
-643.711	386.495	0.072	-0.149
-642.697	118.908	-0.105	-0.130
-641.682	88.851	-0.259	-0.290
-640.668	98.767	0.064	-0.074
-639.653	-6.357	-0.038	0.026
-638.638	-52.861	-0.229	0.106
-637.624	341.473	-0.152	0.299
-636.609	-113.869	-0.109	0.021
-635.595	-170.600	0.194	0.007
-634.580	-117.428	-0.123	0.022
-633.565	-200.000	0.003	0.026
-632.551	-200.000	0.013	0.327
-631.536	665.678	0.060	-0.157
-630.522	227.989	-0.046	0.076
-629.507	800.000	0.019	-0.064
-628.492	21.838	-0.119	0.098
-627.478	-200.000	0.052	0.332
-626.463	311.975	0.107	0.202
-625.449	453.700	-0.085	-0.190
-624.434	754.991	-0.120	-0.327
-623.419	-45.006	-0.207	-0.104
-622.405	-48.562	0.267	0.129
-621.390	7.462	0.309	0.232
-620.376	717.686	-0.108	-0.287
-619.361	-139.901	-0.148	-0.016
-618.346	6.163	0.151	-0.112
-617.332	-88.614	0.160	0.048
-616.317	800.000	0.066	-0.273
-615.303	275.764	-0.204	-0.364
-614.288	-129.748	-0.081	-0.011
-613.273	79.300	-0.187	0.201
-612.259	-200.000	0.050	-0.257
-611.244	435.249	0.104	-0.226
-610.230	-72.840	0.427	0.158
-609.215	-104.144	0.203	-0.047
-608.201	800.000	0.069	-0.197
-607.186	207.982	0.132	0.207
-606.171	-200.000	0.030	-0.402
-605.157	-200.000	0.011	0.094
-604.142	-147.917	0.473	0.040
-603.128	800.000	0.032	0.138
-602.113	-44.807	0.162	-0.081
-601.098	383.272	0.136	-0.282
-600.084	-40.502	-0.234	0.122
-599.069	-18.101	-0.233	-0.147
-598.055	325.465	-0.022	0.042
-597.040	-63.959	0.175	0.072
-596.025	35.413	0.140	0.124
-595.011	12.783	-0.351	-0.272
-593.996	646.076	0.120	-0.308
-592.982	265.027	0.109	0.190
-591.967	164.761	-0.118	-0.167
-590.952	9.937	-0.351	-0.268
-589.938	-154.919	-0.237	-0.016
-588.923	226.889	0.091	0.148
-587.909	321.148	0.081	-0.154
-586.894	98.139	0.144	0.166
-585.879	-130.301	0.036	0.005
-584.865	186.733	-0.122	-0.183
-583.850	214.257	0.134	-0.213
-582.836	-7.797	0.172	-0.116
-581.821	-103.776	-0.100	-0.024
-580.806	800.000	-0.068	0.212
-579.792	242.307	-0.070	0.118
-578.777	-106.734	0.016	-0.004
-577.763	-18.120	0.083	0.052
-576.748	-45.089	-0.246	-0.123
-575.733	-122.806	0.165	0.027
-574.719	8.227	0.118	-0.089
-573.704	9.522	0.158	0.120
-572.690	-6.427	-0.009	0.006
-571.675	7.652	-0.340	-0.255
-570.661	107.638	-0.254	-0.303
-569.646	374.388	0.026	-0.053
-568.631	20.505	-0.241	-0.196
-567.617	-57.323	-0.181	-0.080
-566.602	-152.684	-0.418	0.030
-565.588	-196.926	0.336	-0.002
-564.573	800.000	-0.016	0.050
-563.558	-200.000	0.023	-0.233
-562.544	176.419	0.044	0.064
-561.529	-19.160	-0.174	0.109
-560.515	-200.000	0.003	-0.085
-559.500	-82.152	-0.219	0.072
-558.485	-37.724	0.035	0.019
-557.471	-85.607	0.084	-0.026
-556.456	180.333	-0.212	0.312
-555.442	-200.000	-0.013	0.139
-554.427	-109.201	-0.231	-0.049
-553.412	-200.000	-0.031	0.139
-552.398	800.000	0.058	-0.222
-551.383	242.330	0.129	0.216
-550.369	-106.840	0.087	-0.019
-549.354	-65.807	-0.363	-0.146
-548.339	800.000	-0.024	-0.102
-547.325	58.491	0.260	0.256
-546.310	-82.433	-0.012	-0.004
-545.296	762.480	0.067	-0.183
-544.281	7.929	-0.063	0.048
-543.266	-102.122	0.036	0.009
-542.252	-8.481	0.075	-0.050
-541.237	236.505	0.185	-0.306
-540.223	27.145	0.175	0.148
-539.208	-120.311	-0.341	-0.058
-538.193	79.717	0.191	0.206
-537.179	-45.365	-0.168	-0.084
-536.164	771.932	0.077	-0.212
-535.150	-42.715	-0.079	0.040
-534.135	-37.866	-0.123	-0.066
-533.121	-113.196	-0.273	0.054
-532.106	1.916	0.046	0.033
-531.091	374.663	0.090	0.183
-530.077	451.736	-0.081	-0.179
-529.062	706.763	-0.103	0.272
-528.048	192.559	0.122	0.184
-527.033	800.000	-0.041	-0.118
-526.018	55.335	0.099	0.096
-525.004	-61.840	-0.216	-0.091
-523.989	49.751	0.116	-0.110
-522.975	-190.895	0.167	-0.002
-521.960	220.551	-0.062	-0.100
-520.945	183.254	-0.059	-0.087
-519.931	154.465	-0.262	0.360
-518.916	-127.016	0.249	0.037
-517.902	404.531	-0.127	-0.268
-516.887	7.281	-0.108	0.080
-515.872	377.016	0.066	0.135
-514.858	5.444	-0.128	-0.095
-513.843	48.517	0.146	-0.137
-512.829	-72.302	0.204	0.076
-511.814	-117.427	-0.310	0.056
-510.799	-200.000	0.010	0.444
-509.785	188.049	-0.166	-0.248
-508.770	-81.652	0.199	-0.065
-507.756	800.000	0.023	-0.082
-506.741	81.949	-0.140	-0.152
-505.726	800.000	0.039	0.131
-504.712	229.949	0.169	-0.276
-503.697	116.218	-0.137	-0.167
-502.683	108.281	0.182	-0.218
-501.668	-43.423	0.148	-0.075
-500.653	-200.000	-0.031	-0.189
-499.639	-200.000	0.076	0.000
-498.624	84.821	-0.250	-0.275
-497.610	-200.000	0.019	0.119
-496.595	800.000	-0.026	0.112
-495.581	-17.103	-0.126	-0.079
-494.566	38.974	-0.179	0.160
-493.551	243.262	-0.133	-0.223
-492.537	-200.000	-0.027	0.168
-491.522	-109.479	-0.085	-0.018
-490.508	649.253	0.027	0.069
-489.493	-82.180	0.316	-0.103
-488.478	465.296	0.182	0.407
-487.464	-188.754	-0.274	0.003
-486.449	195.234	-0.080	-0.121
-485.435	-79.294	-0.125	0.042
-484.420	-92.315	-0.142	0.040
-483.405	-129.032	0.036	-0.005
-482.391	-200.000	-0.031	0.140
-481.376	-200.000	0.018	-0.197
-480.362	23.332	-0.255	0.209
-479.347	-135.734	0.266	-0.031
-478.332	-62.009	0.132	0.055
-477.318	-153.308	0.274	0.019
-476.303	800.000	0.092	0.323
-475.289	-171.814	-0.297	0.010
-474.274	-121.443	0.088	-0.015
-473.259	104.153	-0.259	-0.305
-472.245	46.100	0.166	0.154
-471.230	31.217	0.138	0.119
-470.216	9.674	-0.014	0.011
-469.201	-77.604	-0.123	-0.042
-468.186	35.561	-0.052	0.046
-467.172	800.000	-0.053	-0.189
-466.157	-13.324	-0.191	0.124
-465.143	92.439	0.071	0.080
-464.128	98.052	0.166	0.191
-463.113	-134.676	0.263	-0.032
-462.099	-135.712	0.150	-0.018
-461.084	-200.000	-0.002	-0.237
-460.070	-54.902	0.309	-0.139
-459.055	265.324	-0.055	0.096
-458.040	9.107	0.226	-0.170
-457.026	-34.228	-0.159	0.087
-456.011	800.000	0.081	-0.285
-454.997	338.863	-0.190	0.369
-453.982	-116.182	-0.246	0.046
-452.968	-200.000	0.042	-0.428
-451.953	50.050	-0.222	0.210
-450.938	-10.162	0.244	-0.162
-449.924	505.091	-0.134	-0.311
-448.909	800.000	0.051	0.144
-447.895	182.528	-0.053	0.079
-446.880	52.378	-0.207	-0.197
-445.865	-4.805	-0.042	-0.029
-444.851	-182.732	-0.036	-0.001
-443.836	-110.543	-0.197	0.041
-442.822	800.000	0.065	0.213
-441.807	-3.355	-0.042	-0.029
-440.792	-64.144	-0.340	-0.139
-439.778	800.000	0.112	-0.455
-438.763	-165.647	-0.293	0.013
-437.749	97.606	0.205	-0.235
-436.734	-95.544	-0.077	-0.021
-435.719	11.024	0.140	0.106
-434.705	55.232	-0.151	0.145
-433.690	800.000	-0.068	-0.215
-432.676	-200.000	0.003	0.088
-431.661	-92.568	0.121	-0.034
-430.646	-200.000	-0.013	-0.114
-429.632	-60.359	0.330	0.140
-428.617	-73.409	0.244	0.089
-427.603	139.183	0.074	-0.097
-426.588	-200.000	0.015	-0.369
-425.573	-200.000	0.001	0.023
-424.559	494.608	-0.053	0.121
-423.544	-95.908	0.316	-0.084
-422.530	800.000	-0.045	-0.156
-421.515	-200.000	-0.042	0.216
-420.500	60.271	0.066	-0.065
-419.486	177.176	0.183	0.265
-418.471	402.050	0.068	-0.142
-417.457	65.389	-0.288	0.291
-416.442	65.059	0.216	0.218
-415.428	248.181	0.017	-0.028
-414.413	-200.000	0.018	-0.094
-413.398	-118.910	-0.091	0.016
-412.384	-15.764	0.222	0.141
-411.369	-34.152	-0.152	0.083
-410.355	-74.094	0.355	0.128
-409.340	800.000	0.055	0.154
-408.325	-54.328	-0.081	0.036
-407.311	19.042	-0.134	-0.107
-406.296	-200.000	0.024	0.418
-405.282	91.486	-0.090	0.101
-404.267	207.530	0.266	0.414
-403.252	298.474	-0.040	0.073
-402.238	-18.497	-0.190	0.118
-401.223	-161.580	-0.203	0.010
-400.209	800.000	0.066	-0.253
-399.194	120.445	-0.232	0.288
-398.179	-188.204	-0.273	-0.003
-397.165	-156.542	0.239	-0.015
-396.150	-85.472	-0.376	0.117
-395.136	-52.750	0.301	-0.138
-394.121	800.000	-0.086	-0.278
-393.106	800.000	0.010	-0.045
-392.092	-177.433	-0.220	-0.005
-391.077	28.536	-0.179	0.151
-390.063	232.591	-0.157	0.258
-389.048	-21.054	-0.072	0.044
-388.033	-55.689	-0.128	0.057
-387.019	-154.810	0.129	0.008
-386.004	19.829	0.058	-0.046
-384.990	9.969	-0.221	-0.167
-383.975	-69.444	0.642	0.245
-382.960	14.257	-0.143	-0.111
-381.946	-57.092	0.306	0.134
-380.931	-200.000	0.038	-0.207
-379.917	-161.477	0.057	0.003
-378.902	-132.949	-0.223	-0.028
-377.888	-117.220	0.519	0.094
-376.873	-122.806	-0.115	-0.019
-375.858	30.459	0.081	0.069
-374.844	-87.520	-0.184	0.055
-373.829	105.160	0.250	0.294
-372.815	-16.735	0.155	0.098
-371.800	800.000	-0.078	-0.306
-370.785	-111.525	-0.097	-0.020
-369.771	-96.154	0.245	-0.065
-368.756	-58.359	-0.039	-0.017
-367.742	-9.192	0.187	-0.125
-366.727	54.963	-0.054	-0.052
-365.712	-160.932	0.360	-0.019
-364.698	-27.176	-0.205	-0.119
-363.683	-130.027	-0.336	-0.046
-362.669	41.943	-0.161	-0.145
-361.654	12.563	0.138	0.106
-360.639	29.366	0.072	0.061
-359.625	78.019	0.326	0.346
-358.610	-200.000	-0.025	0.425
-357.596	-133.367	0.296	-0.037
-356.581	-176.758	-0.200	0.005
-355.566	-35.838	-0.328	-0.177
-354.552	-200.000	0.043	-0.282
-353.537	-200.000	0.067	-0.330
-352.523	595.600	0.016	0.040
-351.508	-19.412	0.280	-0.173
-350.493	800.000	-0.103	0.332
-349.479	199.872	-0.076	0.115
-348.464	223.983	-0.085	0.137
-347.450	151.159	0.231	0.312
-346.435	-15.910	0.215	-0.136
-345.420	800.000	0.013	-0.052
-344.406	-50.082	0.533	-0.251
-343.391	238.889	0.087	-0.144
-342.377	685.578	-0.062	0.161
-341.362	-64.036	0.226	-0.092
-340.348	127.835	0.123	-0.156
-339.333	-121.523	0.204	-0.034
-338.318	-19.136	-0.151	0.093
-337.304	800.000	0.069	0.224
-336.289	357.546	0.059	-0.117
-335.275	-144.636	-0.153	-0.014
-334.260	118.463	-0.117	-0.144
-333.245	-86.476	-0.337	-0.103
-332.231	150.382	-0.221	-0.298
-331.216	-64.129	0.289	0.117
-330.202	182.017	0.193	-0.283
-329.187	-45.186	-0.019	0.010
-328.172	57.998	0.097	-0.094
-327.158	-0.832	-0.253	0.178
-326.143	-44.659	0.059	0.029
-325.129	198.675	-0.209	-0.318
-324.114	-12.463	0.485	-0.315
-323.099	-81.883	0.137	0.044
-322.085	238.560	-0.078	0.129
-321.070	-57.873	0.047	-0.020
-320.056	-32.692	-0.118	0.065
-319.041	289.028	0.125	0.226
-318.026	-200.000	0.065	0.309
-317.012	157.741	-0.129	0.177
-315.997	45.147	-0.097	-0.089
-314.983	-107.874	-0.146	-0.031
-313.968	113.876	0.226	-0.273
-312.953	-31.189	-0.180	-0.101
-311.939	138.355	-0.235	0.306
-310.924	800.000	-0.085	0.281
-309.910	-200.000	0.009	0.375
-308.895	-17.402	0.199	-0.124
-307.880	153.213	0.116	-0.158
-306.866	53.170	-0.156	0.149
-305.851	-88.427	0.300	-0.089
-304.837	800.000	-0.063	-0.175
-303.822	800.000	-0.094	-0.300
-302.807	-200.000	0.022	-0.264
-301.793	51.979	-0.118	-0.112
-300.778	-16.464	-0.188	0.118
-299.764	800.000	-0.072	0.292
-298.749	330.067	0.075	-0.144
-297.735	800.000	-0.072	-0.218
-296.720	-200.000	-0.021	0.128
-295.705	160.300	0.171	0.237
-294.691	-89.217	-0.124	-0.036
-293.676	-200.000	-0.008	0.050
-292.662	633.937	-0.146	0.367
-291.647	-200.000	-0.106	0.671
-290.632	314.693	0.058	-0.109
-289.618	45.390	-0.162	0.148
-288.603	-29.567	0.054	0.031
-287.589	-109.797	0.236	0.049
-286.574	-200.000	-0.055	-0.426
-285.559	-126.546	0.085	0.012
-284.545	-78.239	-0.266	0.091
-283.530	-58.984	-0.293	-0.126
-282.516	-126.293	-0.307	-0.045
-281.501	1.470	0.330	0.235
-280.486	142.383	-0.097	-0.128
-279.472	-144.214	0.098	0.009
-278.457	86.519	0.171	0.187
-277.443	603.232	-0.035	0.087
-276.428	-121.351	-0.173	-0.029
-275.413	800.000	0.040	-0.139
-274.399	-63.180	0.102	-0.042
-273.384	-200.000	0.016	-0.237
-272.370	800.000	-0.003	-0.011
-271.355	-200.000	0.057	-0.316
-270.340	800.000	-0.069	-0.270
-269.326	9.276	0.227	-0.171
-268.311	80.588	0.171	-0.183
-267.297	-2.414	0.089	0.062
-266.282	-134.218	0.113	-0.014
-265.267	135.200	-0.091	-0.117
-264.253	355.484	-0.073	0.144
-263.238	-33.008	-0.176	0.097
-262.224	-135.823	-0.033	-0.004
-261.209	-32.875	-0.304	-0.168
-260.195	-200.000	-0.016	-0.202
-259.180	-150.359	-0.448	-0.034
-258.165	-200.000	-0.001	0.183
-257.151	-44.198	-0.173	-0.086
-256.136	-51.280	0.269	-0.125
-255.122	-157.400	-0.264	0.016
-254.107	-200.000	-0.044	0.224
-253.092	129.653	-0.046	0.058
-252.078	234.297	-0.116	-0.189
-251.063	3.191	0.404	0.291
-250.049	-200.000	-0.008	0.074
-249.034	-200.000	-0.036	-0.343
-248.019	46.978	0.041	-0.038
-247.005	-1.410	-0.043	-0.030
-245.990	-200.000	0.016	-0.110
-244.976	-200.000	0.006	0.062
-243.961	-69.443	0.301	0.114
-242.946	25.478	0.128	0.106
-241.932	78.969	-0.272	-0.288
-240.917	800.000	0.020	0.081
-239.903	-193.383	-0.252	0.002
-238.888	-29.105	-0.239	-0.136
-237.873	800.000	-0.093	0.353
-236.859	154.454	0.083	0.113
-235.844	-32.025	0.274	0.152
-234.830	-64.785	0.187	-0.075
-233.815	-1.864	0.293	-0.204
-232.800	124.620	-0.074	0.092
-231.786	-200.000	0.030	0.266
-230.771	-16.800	-0.025	0.016
-229.757	-200.000	-0.001	0.102
-228.742	210.887	-0.099	-0.155
-227.727	-200.000	0.011	0.211
-226.713	28.646	-0.172	0.144
-225.698	242.166	-0.069	-0.115
-224.684	-82.919	-0.066	-0.021
-223.669	800.000	0.070	0.270
-222.655	-200.000	0.013	0.179
-221.640	-141.523	0.279	-0.028
-220.625	50.046	0.212	0.198
-219.611	-199.656	-0.185	-0.001
-218.596	19.678	0.301	-0.240
-217.582	661.234	-0.031	-0.080
-216.567	370.177	-0.063	0.126
-215.552	800.000	-0.070	0.203
-214.538	800.000	-0.066	0.233
-213.523	-77.948	-0.174	-0.060
-212.509	-200.000	0.008	-0.168
-211.494	-200.000	-0.033	0.205
-210.479	582.607	-0.092	-0.223
-209.465	0.740	0.249	-0.176
-208.450	-34.794	0.396	0.214
-207.436	129.041	0.068	0.086
-206.421	-5.641	-0.409	0.278
-205.406	800.000	-0.057	0.219
-204.392	278.616	-0.046	-0.081
-203.377	-152.692	0.201	-0.014
-202.363	678.671	0.057	-0.145
-201.348	68.744	-0.104	0.106
-200.333	-200.000	0.030	0.197
-199.319	594.529	-0.131	-0.321
-198.304	-99.124	-0.359	-0.090
-197.290	-200.000	-0.068	0.338
-196.275	8.822	-0.178	-0.133
-195.260	-63.279	0.233	0.095
-194.246	22.580	0.243	0.197
-193.231	-4.392	-0.308	0.211
-192.217	-200.000	0.059	0.393
-191.202	-154.063	0.372	0.025
-190.187	-60.527	0.193	-0.081
-189.173	159.920	-0.118	0.162
-188.158	390.846	0.022	-0.045
-187.144	119.955	-0.165	0.203
-186.129	-111.769	0.382	0.077
-185.114	12.568	-0.109	-0.083
-184.100	235.781	0.041	-0.066
-183.085	800.000	-0.116	-0.452
-182.071	-118.806	-0.051	0.009
-181.056	-200.000	-0.019	-0.126
-180.042	159.097	-0.100	0.138
-179.027	-10.936	-0.357	0.233
-178.012	-199.403	-0.224	-0.001
-176.998	737.767	0.078	-0.206
-175.983	120.702	-0.195	-0.239
-174.969	-194.357	0.174	-0.001
-173.954	48.159	0.147	0.136
-172.939	594.212	-0.019	-0.047
-171.925	-0.804	0.222	-0.156
-170.910	-200.000	-0.008	0.044
-169.896	-13.946	0.102	-0.065
-168.881	176.797	0.117	0.168
-167.866	350.332	0.068	-0.132
-166.852	398.199	-0.059	0.123
-165.837	70.640	-0.196	0.200
-164.823	98.335	0.085	-0.097
-163.808	35.978	0.168	0.146
-162.793	416.423	0.152	-0.320
-161.779	-54.048	-0.252	0.113
-160.764	207.818	-0.199	0.306
-159.750	-65.934	0.097	0.038
-158.735	188.651	0.100	0.148
-157.720	707.991	0.051	0.134
-156.706	-36.155	0.265	-0.141
-155.691	328.861	-0.093	-0.176
-154.677	-88.015	0.258	0.077
-153.662	-51.545	0.070	0.032
-152.647	91.590	0.060	0.067
-151.633	-142.057	0.131	-0.013
-150.618	-200.000	0.047	-0.225
-149.604	401.627	0.139	0.288
-148.589	800.000	0.083	-0.273
-147.574	468.794	0.084	0.187
-146.560	-29.211	0.151	0.086
-145.545	642.777	-0.097	-0.245
-144.531	390.841	0.050	0.103
-143.516	27.515	-0.165	-0.137
-142.502	800.000	-0.059	0.171
-141.487	-131.638	-0.471	0.061
-140.472	-122.479	-0.149	0.024
-139.458	206.747	-0.083	-0.127
-138.443	90.275	-0.120	0.132
-137.429	800.000	-0.140	0.495
-136.414	-200.000	-0.005	-0.104
-135.399	94.379	0.198	-0.221
-134.385	800.000	0.047	-0.188
-133.370	800.000	-0.035	-0.149
-132.356	-35.751	0.133	0.071
-131.341	-200.000	0.004	0.052
-130.326	-200.000	-0.062	0.301
-129.312	800.000	-0.145	-0.400
-128.297	69.073	-0.133	-0.135
-127.283	23.253	0.467	-0.378
-126.268	-200.000	0.038	0.206
-125.253	17.362	0.363	-0.285
-124.239	-68.030	0.144	0.056
-123.224	-38.322	-0.045	0.023
-122.210	716.745	0.166	-0.436
-121.195	-84.947	0.371	0.115
-120.180	-20.406	0.037	-0.023
