DTS Sentinel unit serial number:	SN413079Multiplexer serial number:	ORYXHardware model number:	OX4-SRSoftware version number:	ORYX F/W v4.00 Oryx Data Collector v3.7.2.0data status	okinstallation	princeton_trtdifferential loss correction	single-endedforward channel	channel 2reverse channel	N/Adate	2019/09/15time	11:55:35forward acquisition time	60.00reverse acquisition time	0.00gamma	496.2192k internal	0.2315k external	0.2315temperature offset calibration	1.0018default loss term (dB/km)	0.3790temperature slope calibration	1.0000multiplexer offset coefficient	1.0000multiplexer slope coefficient	1.0000fibre end	0.00T internal ref (°C)	34.37T ext. ref 1 (°C)	5.07T ext. ref 2 (°C)	29.99length (m)	temperature (°C)	Stokes	anti-Stokes-747.200	-200.000	0.010	-0.389
-746.185	616.588	-0.031	-0.078
-745.171	-200.000	-0.031	-0.326
-744.156	800.000	0.096	-0.313
-743.142	5.931	-0.112	-0.084
-742.127	-175.483	0.336	0.009
-741.112	-200.000	-0.034	-0.165
-740.098	-90.051	-0.267	-0.079
-739.083	800.000	-0.050	-0.187
-738.069	-100.744	0.052	0.013
-737.054	-115.440	-0.373	-0.071
-736.039	10.247	-0.310	0.239
-735.025	163.344	-0.090	-0.128
-734.010	-101.056	0.122	0.030
-732.996	-150.833	-0.309	0.024
-731.981	-200.000	0.010	-0.163
-730.966	-12.596	-0.095	0.063
-729.952	-89.013	-0.288	0.086
-728.937	550.005	0.104	-0.252
-727.923	-120.117	0.174	-0.030
-726.908	-22.764	0.459	-0.281
-725.894	-0.607	0.166	-0.119
-724.879	800.000	0.044	-0.158
-723.864	800.000	0.142	-0.398
-722.850	-125.477	0.126	0.019
-721.835	-7.658	-0.257	0.176
-720.821	623.065	-0.008	0.020
-719.806	-170.569	-0.023	-0.001
-718.791	453.903	0.041	0.092
-717.777	30.188	-0.070	0.060
-716.762	800.000	0.043	0.176
-715.748	-163.461	-0.180	0.009
-714.733	800.000	-0.054	-0.172
-713.718	-200.000	0.005	0.196
-712.704	110.056	0.113	-0.137
-711.689	-32.899	0.140	0.079
-710.675	-57.468	-0.349	-0.155
-709.660	-147.654	0.187	-0.016
-708.645	-200.000	-0.045	-0.301
-707.631	570.158	-0.020	-0.049
-706.616	32.767	-0.136	-0.119
-705.602	-200.000	0.092	0.450
-704.587	724.922	0.033	-0.089
-703.572	276.414	-0.085	0.153
-702.558	599.588	-0.102	-0.255
-701.543	146.125	-0.238	-0.323
-700.529	129.980	-0.173	0.224
-699.514	11.435	0.224	-0.174
-698.499	-150.163	0.144	-0.011
-697.485	-76.260	-0.217	-0.077
-696.470	-190.890	0.139	-0.001
-695.456	203.542	0.212	-0.331
-694.441	-193.659	-0.224	0.002
-693.426	-64.593	-0.248	0.102
-692.412	267.988	0.236	-0.419
-691.397	800.000	0.090	0.298
-690.383	-200.000	-0.034	-0.227
-689.368	-200.000	0.056	0.266
-688.354	-199.588	-0.201	0.001
-687.339	-73.523	-0.101	0.037
-686.324	629.579	0.098	-0.250
-685.310	103.915	0.312	-0.370
-684.295	-76.383	-0.238	-0.085
-683.281	-63.299	-0.259	-0.108
-682.266	530.083	0.053	-0.128
-681.251	-141.504	0.163	-0.017
-680.237	326.885	0.119	-0.230
-679.222	-130.285	-0.208	0.029
-678.208	-18.423	-0.040	-0.025
-677.193	12.341	0.263	-0.205
-676.178	296.619	-0.077	-0.143
-675.164	37.674	-0.257	-0.231
-674.149	-200.000	-0.043	0.314
-673.135	-171.283	-0.159	-0.005
-672.120	-20.669	0.280	-0.174
-671.105	-125.167	-0.091	-0.014
-670.091	-79.593	-0.424	-0.145
-669.076	11.077	0.319	-0.247
-668.062	135.000	0.228	-0.300
-667.047	-200.000	0.023	-0.233
-666.032	9.166	0.070	-0.053
-665.018	325.370	-0.095	-0.184
-664.003	800.000	0.097	-0.357
-662.989	-9.874	-0.252	0.170
-661.974	-53.020	0.181	0.084
-660.959	205.662	0.057	-0.090
-659.945	-200.000	0.004	-0.177
-658.930	103.548	-0.093	-0.111
-657.916	-23.318	-0.174	-0.106
-656.901	-32.183	-0.145	-0.082
-655.886	-19.437	0.131	0.082
-654.872	-188.104	0.361	-0.005
-653.857	100.803	0.073	-0.086
-652.843	-200.000	-0.012	-0.223
-651.828	-200.000	0.080	-0.532
-650.814	-37.795	0.120	-0.064
-649.799	-106.773	0.132	-0.030
-648.784	-149.033	-0.300	-0.024
-647.770	-85.335	-0.158	0.050
-646.755	-145.059	-0.304	-0.028
-645.741	-6.790	0.361	-0.248
-644.726	-31.176	0.178	0.101
-643.711	32.067	0.110	-0.096
-642.697	800.000	-0.044	-0.128
-641.682	-111.966	-0.217	-0.044
-640.668	800.000	0.051	0.157
-639.653	177.498	-0.057	-0.085
-638.638	130.424	0.113	0.146
-637.624	-22.138	-0.345	-0.212
-636.609	205.296	0.182	-0.286
-635.595	38.211	-0.239	0.215
-634.580	-200.000	-0.034	-0.314
-633.565	-200.000	0.009	-0.423
-632.551	-38.025	0.026	-0.014
-631.536	-59.975	0.060	-0.026
-630.522	800.000	-0.100	-0.394
-629.507	98.458	0.190	-0.221
-628.492	-88.551	0.021	-0.006
-627.478	-200.000	0.052	0.269
-626.463	-86.198	-0.177	-0.055
-625.449	-18.924	-0.256	-0.160
-624.434	-102.552	-0.185	0.045
-623.419	-200.000	0.003	-0.289
-622.405	-47.095	-0.212	-0.104
-621.390	135.718	-0.096	0.126
-620.376	5.965	0.083	-0.062
-619.361	-27.514	0.236	0.139
-618.346	-72.714	0.268	-0.100
-617.332	84.746	0.025	-0.027
-616.317	-200.000	0.055	-0.307
-615.303	-85.310	0.130	-0.041
-614.288	140.462	0.156	0.208
-613.273	-144.638	0.302	0.028
-612.259	235.189	-0.109	0.182
-611.244	-106.029	0.280	0.064
-610.230	-200.000	0.030	-0.205
-609.215	259.345	-0.181	-0.315
-608.201	-199.139	-0.124	0.001
-607.186	353.182	0.091	0.182
-606.171	-200.000	-0.073	0.344
-605.157	242.017	0.121	0.204
-604.142	763.756	0.034	0.094
-603.128	334.390	0.168	0.327
-602.113	-200.000	-0.065	0.297
-601.098	196.711	0.190	-0.293
-600.084	-200.000	0.034	0.166
-599.069	-24.513	0.073	-0.044
-598.055	-71.780	0.153	0.057
-597.040	188.206	0.187	-0.281
-596.025	800.000	-0.042	-0.131
-595.011	-130.880	-0.238	-0.032
-593.996	-200.000	-0.017	-0.076
-592.982	-60.767	0.131	0.056
-591.967	42.839	0.239	0.220
-590.952	498.486	-0.082	-0.190
-589.938	124.717	0.245	-0.311
-588.923	-126.190	-0.122	0.018
-587.909	-76.648	0.067	0.024
-586.894	-103.615	0.206	-0.049
-585.879	-41.628	0.314	0.163
-584.865	800.000	-0.039	0.137
-583.850	-76.034	-0.157	-0.056
-582.836	-95.953	-0.130	-0.035
-581.821	99.046	-0.089	0.104
-580.806	-4.073	0.104	-0.073
-579.792	301.114	-0.048	-0.089
-578.777	800.000	-0.067	-0.277
-577.763	-45.772	-0.135	0.067
-576.748	-200.000	0.008	0.302
-575.733	-200.000	0.053	0.357
-574.719	-200.000	-0.048	-0.285
-573.704	-122.277	0.204	-0.034
-572.690	-167.785	-0.179	-0.007
-571.675	-119.457	-0.247	0.043
-570.661	-42.745	0.166	0.085
-569.646	-200.000	-0.022	-0.196
-568.631	48.409	0.303	0.286
-567.617	13.488	-0.129	-0.100
-566.602	144.398	-0.028	0.037
-565.588	-200.000	-0.017	-0.180
-564.573	800.000	-0.056	0.221
-563.558	2.112	-0.287	0.208
-562.544	-200.000	0.026	-0.398
-561.529	-166.471	0.167	-0.007
-560.515	-93.255	0.353	-0.099
-559.500	800.000	-0.090	-0.312
-558.485	423.995	0.077	-0.167
-557.471	800.000	-0.064	-0.215
-556.456	251.943	-0.110	-0.188
-555.442	76.761	-0.110	-0.117
-554.427	-94.228	0.342	-0.094
-553.412	635.133	0.062	0.159
-552.398	-37.138	-0.320	0.172
-551.383	-114.372	-0.134	0.026
-550.369	-31.691	0.353	-0.199
-549.354	-73.970	-0.074	0.027
-548.339	-200.000	-0.019	0.268
-547.325	-200.000	0.006	0.054
-546.310	151.172	-0.133	0.183
-545.296	800.000	-0.117	0.352
-544.281	800.000	-0.045	-0.164
-543.266	-4.055	-0.141	0.099
-542.252	71.957	0.008	0.009
-541.237	60.579	0.193	-0.192
-540.223	53.206	0.332	-0.320
-539.208	-200.000	-0.049	-0.241
-538.193	800.000	-0.072	-0.283
-537.179	-144.461	0.146	-0.014
-536.164	-129.179	-0.149	-0.021
-535.150	-151.173	-0.288	-0.022
-534.135	-200.000	0.523	-0.002
-533.121	-118.737	-0.172	0.030
-532.106	-70.849	0.113	-0.043
-531.091	-200.000	0.010	-0.158
-530.077	-64.290	-0.098	-0.040
-529.062	-8.140	-0.107	-0.072
-528.048	37.490	-0.099	-0.088
-527.033	3.002	-0.251	-0.183
-526.018	-74.780	-0.157	0.057
-525.004	108.248	0.064	0.077
-523.989	-200.000	0.023	-0.313
-522.975	-200.000	-0.031	-0.222
-521.960	-109.004	-0.254	0.054
-520.945	800.000	0.070	-0.279
-519.931	231.040	-0.062	-0.103
-518.916	40.151	0.126	-0.114
-517.902	800.000	0.117	-0.417
-516.887	-28.208	-0.246	-0.143
-515.872	-35.175	-0.086	0.047
-514.858	267.774	-0.157	-0.276
-513.843	-106.137	-0.061	0.014
-512.829	198.436	0.071	-0.110
-511.814	169.252	-0.319	-0.457
-510.799	92.187	-0.326	-0.369
-509.785	0.262	0.181	0.130
-508.770	-200.000	0.055	0.426
-507.756	-124.284	-0.132	-0.021
-506.741	-200.000	0.018	-0.093
-505.726	-122.582	0.243	0.040
-504.712	-200.000	-0.071	-0.477
-503.697	-200.000	0.007	-0.182
-502.683	-123.266	-0.398	-0.064
-501.668	-200.000	-0.034	-0.160
-500.653	-127.078	0.221	-0.033
-499.639	-54.096	-0.484	0.221
-498.624	-128.637	-0.277	-0.039
-497.610	800.000	0.032	-0.109
-496.595	185.618	-0.204	0.304
-495.581	-91.976	-0.096	-0.027
-494.566	28.439	0.169	0.144
-493.551	128.425	0.088	-0.112
-492.537	-58.276	-0.021	-0.009
-491.522	52.215	0.180	0.172
-490.508	132.271	0.078	-0.101
-489.493	180.083	-0.252	-0.371
-488.478	-200.000	-0.017	0.156
-487.464	800.000	0.094	-0.341
-486.449	800.000	0.006	-0.019
-485.435	30.701	-0.149	0.128
-484.420	-47.768	0.051	0.025
-483.405	-60.446	-0.276	0.118
-482.391	-186.332	0.220	-0.003
-481.376	-19.862	-0.219	0.136
-480.362	-127.613	-0.272	0.040
-479.347	-54.911	-0.365	-0.165
-478.332	-200.000	-0.018	-0.110
-477.318	-200.000	0.049	-0.445
-476.303	-200.000	0.003	0.022
-475.289	96.257	0.165	0.189
-474.274	365.018	-0.043	-0.087
-473.259	-156.503	0.347	0.022
-472.245	-57.991	-0.180	0.079
-471.230	183.423	-0.130	0.193
-470.216	80.753	-0.099	0.107
-469.201	242.409	0.133	-0.223
-468.186	-200.000	-0.005	0.079
-467.172	-158.970	-0.159	-0.009
-466.157	10.486	0.192	0.147
-465.143	159.317	-0.267	-0.372
-464.128	133.640	-0.138	0.179
-463.113	399.523	-0.045	-0.095
-462.099	-27.980	-0.202	0.117
-461.084	23.152	0.078	0.064
-460.070	116.662	0.192	0.236
-459.055	-20.004	-0.118	0.073
-458.040	-10.434	0.195	0.129
-457.026	109.138	-0.040	0.048
-456.011	218.939	-0.063	0.101
-454.997	-10.122	-0.160	-0.106
-453.982	-56.355	0.420	-0.187
-452.968	206.800	-0.120	-0.187
-451.953	-200.000	-0.027	0.266
-450.938	269.369	0.146	-0.258
-449.924	-200.000	-0.026	0.291
-448.909	-200.000	-0.043	0.320
-447.895	304.829	0.184	-0.343
-446.880	-121.628	0.413	-0.069
-445.865	-200.000	0.021	-0.170
-444.851	-200.000	0.022	0.195
-443.836	35.074	-0.056	0.049
-442.822	-9.326	0.185	0.124
-441.807	-136.185	0.215	0.025
-440.792	12.538	-0.176	0.136
-439.778	-19.168	0.250	-0.155
-438.763	-121.455	-0.087	0.015
-437.749	739.100	-0.073	-0.195
-436.734	142.399	-0.102	0.136
-435.719	305.453	-0.110	0.205
-434.705	-72.600	0.153	0.056
-433.690	-200.000	-0.034	0.227
-432.676	800.000	-0.042	0.138
-431.661	800.000	0.069	0.241
-430.646	-3.822	0.220	-0.153
-429.632	-140.829	-0.100	-0.010
-428.617	59.317	0.143	0.141
-427.603	219.417	-0.122	0.195
-426.588	-40.264	-0.079	-0.041
-425.573	800.000	0.051	-0.204
-424.559	101.331	-0.091	0.106
-423.544	105.165	0.166	-0.196
-422.530	-150.102	0.223	-0.017
-421.515	19.907	0.150	-0.121
-420.500	135.909	0.211	0.275
-419.486	148.547	0.064	-0.087
-418.471	131.288	-0.115	0.148
-417.457	52.375	0.194	-0.185
-416.442	800.000	0.037	-0.149
-415.428	-51.799	-0.199	-0.093
-414.413	306.940	-0.082	-0.152
-413.398	-200.000	0.000	-0.044
-412.384	34.768	0.185	0.162
-411.369	-66.178	0.232	0.093
-410.355	205.219	-0.155	-0.242
-409.340	-123.241	-0.087	0.014
-408.325	260.304	0.046	-0.080
-407.311	9.514	-0.092	-0.070
-406.296	800.000	-0.117	0.325
-405.282	-83.045	0.360	-0.116
-404.267	136.885	0.155	-0.203
-403.252	-78.061	0.210	0.072
-402.238	-200.000	0.013	0.212
-401.223	-123.095	0.264	-0.042
-400.209	800.000	-0.085	0.278
-399.194	378.372	-0.158	0.323
-398.179	204.618	-0.125	0.194
-397.165	-134.649	-0.379	-0.046
-396.150	7.154	0.145	-0.108
-395.136	104.058	-0.150	-0.176
-394.121	533.186	-0.071	0.169
-393.106	800.000	-0.115	-0.395
-392.092	-200.000	-0.014	0.202
-391.077	-176.625	-0.153	-0.004
-390.063	-49.959	0.342	0.162
-389.048	16.385	0.207	-0.163
-388.033	-134.133	-0.056	-0.007
-387.019	135.722	0.098	0.127
-386.004	-84.104	0.411	-0.130
-384.990	-200.000	0.001	0.070
-383.975	-200.000	0.024	0.215
-382.960	-200.000	0.024	-0.106
-381.946	250.253	-0.067	0.113
-380.931	-86.411	0.083	0.025
-379.917	-200.000	-0.020	0.109
-378.902	-68.796	-0.173	0.067
-377.888	793.898	0.013	-0.035
-376.873	-114.451	-0.167	-0.032
-375.858	-101.098	-0.307	-0.075
-374.844	-68.313	0.375	0.146
-373.829	-200.000	0.037	0.210
-372.815	40.409	-0.147	-0.132
-371.800	-140.543	-0.260	0.027
-370.785	-55.108	-0.103	0.046
-369.771	127.052	0.217	0.275
-368.756	800.000	0.061	-0.259
-367.742	-200.000	-0.076	0.360
-366.727	800.000	0.037	-0.147
-365.712	-52.493	0.092	-0.043
-364.698	-118.905	0.283	-0.050
-363.683	240.988	-0.056	-0.094
-362.669	106.061	-0.134	0.158
-361.654	-77.291	0.161	-0.056
-360.639	800.000	0.028	-0.106
-359.625	-103.761	0.105	0.025
-358.610	47.778	0.098	0.092
-357.596	378.631	-0.110	-0.224
-356.581	-200.000	0.033	0.268
-355.566	-98.951	-0.234	-0.059
-354.552	-200.000	0.008	0.215
-353.537	-168.403	-0.158	-0.006
-352.523	488.194	-0.088	0.201
-351.508	-120.188	-0.241	-0.041
-350.493	-106.264	-0.131	0.029
-349.479	-108.476	0.220	0.047
-348.464	472.887	-0.120	0.271
-347.450	533.483	0.163	0.386
-346.435	-200.000	0.001	0.095
-345.420	-95.378	-0.081	0.022
-344.406	-200.000	-0.026	-0.142
-343.391	-61.283	-0.286	0.120
-342.377	4.769	-0.160	-0.117
-341.362	307.094	-0.077	0.143
-340.348	128.684	0.131	-0.167
-339.333	-200.000	-0.017	0.124
-338.318	-34.567	0.161	0.088
-337.304	-136.292	-0.168	0.020
-336.289	-75.668	0.260	0.092
-335.275	-200.000	-0.022	-0.359
-334.260	-138.952	-0.336	-0.036
-333.245	146.041	0.114	0.152
-332.231	-200.000	-0.040	0.256
-331.216	-73.606	-0.155	-0.056
-330.202	-115.760	0.398	-0.074
-329.187	93.123	0.192	0.216
-328.172	-123.867	0.164	-0.026
-327.158	346.850	0.059	-0.116
-326.143	-79.272	0.235	-0.079
-325.129	-200.000	0.023	-0.604
-324.114	-200.000	-0.000	0.060
-323.099	-92.448	-0.703	-0.197
-322.085	800.000	0.100	0.309
-321.070	0.411	0.190	0.135
-320.056	353.547	-0.017	-0.033
-319.041	-9.324	-0.280	-0.187
-318.026	-104.565	0.100	0.023
-317.012	-200.000	-0.007	-0.094
-315.997	155.552	-0.034	0.046
-314.983	135.581	0.165	-0.213
-313.968	-55.421	0.149	-0.067
-312.953	-121.791	0.120	0.020
-311.939	800.000	-0.029	-0.112
-310.924	-150.514	0.258	0.020
-309.910	-67.090	-0.215	-0.084
-308.895	-61.777	-0.201	0.084
-307.880	-95.531	-0.085	-0.023
-306.866	-38.063	0.209	-0.111
-305.851	105.520	0.099	0.117
-304.837	-32.498	-0.203	0.113
-303.822	-200.000	-0.012	-0.105
-302.807	-5.399	0.184	-0.126
-301.793	-200.000	0.035	0.316
-300.778	800.000	-0.060	0.205
-299.764	18.925	-0.039	-0.031
-298.749	-166.565	-0.171	-0.007
-297.735	-116.512	0.144	-0.026
-296.720	800.000	0.043	-0.183
-295.705	-86.452	0.007	-0.002
-294.691	800.000	0.063	-0.235
-293.676	-47.238	-0.228	-0.110
-292.662	262.969	-0.260	0.449
-291.647	-71.892	-0.299	-0.111
-290.632	357.744	-0.092	0.183
-289.618	178.633	-0.028	-0.041
-288.603	405.380	-0.125	0.262
-287.589	278.498	-0.059	-0.104
-286.574	-118.415	-0.322	-0.057
-285.559	-7.916	0.238	-0.160
-284.545	388.567	-0.103	0.211
-283.530	-108.581	0.387	-0.083
-282.516	535.102	-0.113	0.267
-281.501	-52.371	0.487	0.224
-280.486	-200.000	0.032	0.169
-279.472	-200.000	-0.055	0.298
-278.457	96.024	-0.026	0.030
-277.443	131.256	-0.249	0.319
-276.428	-92.373	-0.228	-0.064
-275.413	-35.797	-0.108	0.058
-274.399	-55.077	0.323	0.145
-273.384	252.777	0.131	-0.222
-272.370	79.171	-0.185	-0.197
-271.355	64.708	0.079	0.080
-270.340	465.523	0.060	-0.133
-269.326	-0.371	0.175	-0.123
-268.311	15.895	-0.024	-0.019
-267.297	-12.274	0.141	-0.091
-266.282	-200.000	-0.018	0.115
-265.267	-200.000	-0.036	0.352
-264.253	17.084	-0.141	-0.111
-263.238	-200.000	-0.043	0.294
-262.224	-116.519	0.133	0.024
-261.209	-200.000	-0.023	0.178
-260.195	150.176	0.212	0.285
-259.180	135.610	-0.185	0.239
-258.165	57.451	-0.153	0.148
-257.151	-105.338	-0.083	-0.019
-256.136	800.000	0.028	0.106
-255.122	-93.510	-0.269	-0.074
-254.107	-49.106	-0.160	0.076
-253.092	-200.000	-0.002	-0.010
-252.078	210.917	-0.244	-0.382
-251.063	-171.349	-0.220	-0.007
-250.049	-177.491	-0.171	0.004
-249.034	-200.000	0.033	-0.501
-248.019	17.681	0.121	0.096
-247.005	118.035	0.036	-0.044
-245.990	231.981	0.208	0.339
-244.976	-110.727	-0.206	0.042
-243.961	-65.123	0.226	-0.090
-242.946	295.226	-0.133	0.242
-241.932	-200.000	-0.014	0.247
-240.917	800.000	-0.086	-0.293
-239.903	45.490	-0.022	0.021
-238.888	800.000	-0.082	0.229
-237.873	800.000	-0.175	-0.493
-236.859	16.346	0.156	-0.122
-235.844	-85.216	-0.177	0.055
-234.830	4.390	0.144	-0.105
-233.815	-95.881	0.128	-0.034
-232.800	-200.000	0.051	0.358
-231.786	-37.173	-0.128	-0.068
-230.771	195.072	0.091	-0.137
-229.757	800.000	-0.052	0.194
-228.742	-200.000	0.001	0.178
-227.727	374.599	-0.070	-0.141
-226.713	800.000	-0.030	-0.116
-225.698	-6.750	0.227	0.153
-224.684	-144.551	-0.232	0.021
-223.669	-59.715	0.119	0.051
-222.655	677.455	0.072	-0.185
-221.640	-90.289	0.243	0.070
-220.625	-38.540	-0.265	0.139
-219.611	718.256	0.053	0.141
-218.596	40.030	0.135	-0.120
-217.582	-32.567	0.230	0.127
-216.567	-200.000	0.041	0.257
-215.552	134.373	-0.162	0.209
-214.538	511.840	-0.036	-0.083
-213.523	-116.492	0.327	-0.060
-212.509	-64.246	0.331	0.134
-211.494	101.619	-0.134	0.156
-210.479	-55.106	-0.165	0.074
-209.465	-110.909	0.153	0.031
-208.450	-144.505	-0.275	-0.025
-207.436	-145.314	-0.366	0.033
-206.421	117.387	0.118	0.144
-205.406	130.717	-0.164	0.209
-204.392	-127.778	0.245	-0.035
-203.377	65.316	-0.344	0.345
-202.363	154.864	-0.018	0.024
-201.348	-120.414	0.163	0.027
-200.333	-48.429	-0.108	0.052
-199.319	-161.215	-0.170	0.009
-198.304	-64.839	0.203	-0.081
-197.290	-62.089	-0.133	0.055
-196.275	183.319	0.114	0.167
-195.260	-144.244	0.165	-0.015
-194.246	-131.432	-0.200	-0.026
-193.231	-15.447	0.043	0.027
-192.217	-80.824	-0.267	0.088
-191.202	-200.000	0.083	0.000
-190.187	-149.644	-0.194	-0.015
-189.173	-23.669	-0.137	-0.082
-188.158	72.958	-0.206	-0.213
-187.144	-73.510	0.147	0.053
-186.129	577.173	0.048	0.116
-185.114	-39.163	0.248	0.129
-184.100	-37.667	0.190	-0.100
-183.085	228.421	0.061	0.098
-182.071	-6.528	0.170	0.115
-181.056	227.481	0.136	0.220
-180.042	-200.000	-0.026	0.265
-179.027	148.705	0.218	0.292
-178.012	-66.179	0.194	0.077
-176.998	-200.000	0.007	-0.099
-175.983	-113.588	-0.095	-0.018
-174.969	-16.876	-0.137	-0.086
-173.954	295.896	0.061	0.111
-172.939	780.740	0.104	0.283
-171.925	-70.653	-0.172	0.064
-170.910	-200.000	0.041	-0.188
-169.896	28.111	0.304	-0.254
-168.881	800.000	0.051	-0.187
-167.866	-200.000	0.004	0.283
-166.852	-14.076	-0.255	-0.163
-165.837	-87.349	-0.108	-0.033
-164.823	341.009	0.130	0.252
-163.808	14.293	0.236	-0.182
-162.793	165.178	-0.220	-0.308
-161.779	274.332	0.149	-0.260
-160.764	208.388	-0.150	-0.233
-159.750	21.720	0.204	-0.165
-158.735	800.000	0.062	-0.217
-157.720	-46.946	-0.141	-0.068
-156.706	439.136	0.109	0.235
-155.691	99.882	0.132	0.151
-154.677	-101.874	0.252	-0.060
-153.662	-53.524	0.224	-0.102
-152.647	-146.203	0.301	-0.026
-151.633	-28.330	-0.162	0.093
-150.618	-158.608	0.195	0.011
-149.604	-134.944	0.047	0.006
-148.589	150.414	0.141	-0.190
-147.574	800.000	0.053	0.204
-146.560	-200.000	-0.002	0.186
-145.545	-182.926	0.122	0.002
-144.531	-40.650	0.153	-0.078
-143.516	-200.000	-0.063	0.313
-142.502	-49.984	0.197	0.093
-141.487	800.000	-0.029	0.102
-140.472	112.441	-0.216	0.259
-139.458	800.000	0.021	0.071
-138.443	-56.435	0.101	0.044
-137.429	-102.675	-0.172	-0.041
-136.414	174.281	0.130	-0.186
-135.399	-200.000	-0.023	0.226
-134.385	170.791	0.054	0.077
-133.370	-200.000	0.010	0.194
-132.356	-145.387	0.156	0.014
-131.341	267.181	0.167	0.289
-130.326	-11.099	-0.089	-0.058
-129.312	73.729	-0.145	-0.150
-128.297	424.348	-0.092	0.197
-127.283	-1.551	-0.293	0.204
-126.268	8.564	0.333	0.248
-125.253	247.539	0.174	0.292
-124.239	-200.000	0.012	-0.102
-123.224	-200.000	-0.005	-0.155
