DTS Sentinel unit serial number:	SN413079Multiplexer serial number:	ORYXHardware model number:	OX4-SRSoftware version number:	ORYX F/W v4.00 Oryx Data Collector v3.7.2.0data status	okinstallation	princeton_trtdifferential loss correction	single-endedforward channel	channel 2reverse channel	N/Adate	2019/09/17time	19:59:35forward acquisition time	60.00reverse acquisition time	0.00gamma	496.2192k internal	0.2329k external	0.2329temperature offset calibration	0.9984default loss term (dB/km)	0.3790temperature slope calibration	1.0000multiplexer offset coefficient	1.0000multiplexer slope coefficient	1.0000fibre end	0.00T internal ref (°C)	33.34T ext. ref 1 (°C)	0.22T ext. ref 2 (°C)	22.99length (m)	temperature (°C)	Stokes	anti-Stokes-747.200	153.372	0.112	-0.155
-746.185	-200.000	-0.001	0.096
-745.171	271.345	0.201	0.357
-744.156	71.040	0.112	0.117
-743.142	55.371	0.258	0.251
-742.127	106.839	-0.382	0.457
-741.112	35.425	-0.113	0.100
-740.098	17.623	-0.209	-0.167
-739.083	800.000	0.192	0.541
-738.069	-13.199	0.194	-0.127
-737.054	88.125	0.301	-0.336
-736.039	-54.569	-0.214	0.097
-735.025	-88.538	0.502	0.151
-734.010	-200.000	-0.001	-0.165
-732.996	45.182	-0.268	-0.249
-731.981	-101.390	-0.385	0.095
-730.966	-200.000	-0.005	-0.292
-729.952	-120.401	-0.323	-0.055
-728.937	413.570	0.031	0.066
-727.923	800.000	0.057	-0.171
-726.908	-200.000	-0.063	-0.336
-725.894	800.000	0.105	-0.442
-724.879	-158.602	-0.196	-0.011
-723.864	-200.000	-0.031	-0.207
-722.850	85.315	-0.079	0.087
-721.835	-200.000	-0.022	0.448
-720.821	199.003	0.140	-0.215
-719.806	306.274	-0.077	0.143
-718.791	112.476	0.093	0.113
-717.777	-35.665	0.252	0.137
-716.762	201.433	0.231	-0.358
-715.748	111.226	0.105	0.127
-714.733	800.000	-0.083	0.339
-713.718	-26.356	0.168	-0.099
-712.704	7.766	-0.089	0.067
-711.689	-113.193	-0.229	-0.045
-710.675	-200.000	0.043	-0.303
-709.660	252.537	-0.115	-0.197
-708.645	42.329	0.096	0.088
-707.631	-200.000	-0.004	-0.193
-706.616	22.792	-0.201	0.165
-705.602	170.879	0.048	0.069
-704.587	333.263	-0.064	0.125
-703.572	74.191	-0.334	0.353
-702.558	568.854	0.011	0.028
-701.543	463.228	-0.107	0.240
-700.529	800.000	-0.034	-0.121
-699.514	-200.000	0.073	-0.504
-698.499	-139.588	-0.200	0.021
-697.485	-135.039	-0.424	0.051
-696.470	108.721	-0.056	0.068
-695.456	212.108	0.077	0.123
-694.441	-69.389	0.347	-0.134
-693.426	-184.662	0.205	0.003
-692.412	-200.000	-0.076	0.418
-691.397	540.496	-0.078	-0.186
-690.383	-49.538	-0.086	-0.041
-689.368	-42.725	0.050	0.025
-688.354	631.317	0.011	0.027
-687.339	156.334	0.069	0.096
-686.324	-131.601	0.161	0.021
-685.310	65.432	-0.183	0.186
-684.295	52.225	-0.079	0.076
-683.281	-124.912	0.222	0.034
-682.266	-44.773	-0.379	-0.190
-681.251	800.000	-0.029	-0.120
-680.237	-200.000	-0.016	-0.163
-679.222	5.899	0.262	0.195
-678.208	47.961	0.267	-0.251
-677.193	638.017	-0.068	-0.174
-676.178	275.088	-0.080	-0.142
-675.164	-116.732	-0.376	-0.069
-674.149	19.078	-0.087	-0.070
-673.135	-10.892	-0.341	-0.226
-672.120	-200.000	0.000	0.047
-671.105	-136.144	0.023	0.003
-670.091	-118.296	-0.161	-0.029
-669.076	-84.447	-0.386	0.122
-668.062	331.518	0.105	0.202
-667.047	333.717	-0.092	-0.178
-666.032	496.107	0.125	-0.289
-665.018	172.646	0.188	-0.272
-664.003	-4.847	0.131	-0.091
-662.989	1.442	0.377	-0.272
-661.974	210.545	-0.142	-0.224
-660.959	800.000	-0.065	0.246
-659.945	-164.687	-0.365	0.017
-658.930	-18.721	0.473	0.296
-657.916	-106.080	-0.387	0.087
-656.901	800.000	0.072	-0.258
-655.886	800.000	0.010	-0.033
-654.872	-135.817	-0.161	-0.019
-653.857	427.491	-0.106	-0.230
-652.843	-143.192	-0.277	0.027
-651.828	-200.000	0.025	0.204
-650.814	-70.184	-0.142	-0.054
-649.799	-99.653	-0.189	0.048
-648.784	184.381	-0.104	0.154
-647.770	-140.254	0.180	0.019
-646.755	134.416	-0.125	0.163
-645.741	-200.000	-0.049	0.272
-644.726	-34.227	-0.413	-0.228
-643.711	199.060	0.080	-0.123
-642.697	-200.000	-0.069	-0.373
-641.682	262.101	-0.032	0.056
-640.668	-148.620	-0.304	-0.025
-639.653	33.180	-0.149	0.129
-638.638	-89.135	0.133	-0.039
-637.624	314.516	-0.027	-0.051
-636.609	180.794	-0.130	-0.192
-635.595	203.218	0.152	0.236
-634.580	-35.779	-0.452	-0.246
-633.565	800.000	0.041	-0.177
-632.551	270.933	-0.146	-0.257
-631.536	-52.443	-0.182	-0.084
-630.522	-120.513	-0.216	0.037
-629.507	-18.592	0.176	0.110
-628.492	633.223	0.047	-0.118
-627.478	128.899	-0.059	-0.076
-626.463	-1.174	0.109	0.077
-625.449	-13.173	0.016	0.010
-624.434	-200.000	-0.003	0.021
-623.419	-200.000	-0.032	0.208
-622.405	-200.000	-0.004	-0.063
-621.390	-165.334	-0.342	-0.015
-620.376	800.000	-0.075	-0.279
-619.361	670.461	0.047	0.122
-618.346	224.832	0.148	0.240
-617.332	800.000	-0.028	-0.088
-616.317	38.369	0.156	0.139
-615.303	-23.518	-0.172	0.103
-614.288	800.000	0.031	-0.123
-613.273	800.000	0.073	-0.308
-612.259	-68.316	-0.121	-0.047
-611.244	-30.373	0.250	-0.142
-610.230	-115.954	-0.119	-0.022
-609.215	183.907	-0.069	-0.102
-608.201	83.477	-0.221	-0.242
-607.186	-130.283	0.388	-0.053
-606.171	-200.000	0.212	-0.001
-605.157	-152.452	-0.292	0.021
-604.142	-145.962	-0.223	0.020
-603.128	-89.958	-0.175	-0.051
-602.113	252.742	0.157	0.268
-601.098	20.010	-0.264	-0.213
-600.084	88.526	0.151	0.168
-599.069	-43.323	0.125	-0.064
-598.055	272.756	-0.121	-0.214
-597.040	800.000	-0.048	-0.145
-596.025	122.773	0.157	-0.197
-595.011	768.505	0.071	-0.195
-593.996	5.758	0.261	-0.194
-592.982	-122.935	-0.133	0.021
-591.967	-114.683	-0.411	-0.079
-590.952	97.197	0.268	-0.307
-589.938	-93.803	-0.331	-0.091
-588.923	-52.135	0.196	-0.091
-587.909	33.137	-0.378	0.328
-586.894	-200.000	-0.015	-0.085
-585.879	800.000	-0.080	0.228
-584.865	63.593	-0.144	0.145
-583.850	-3.584	0.195	0.136
-582.836	-63.060	-0.273	-0.113
-581.821	-66.791	-0.157	0.062
-580.806	-31.975	0.121	-0.068
-579.792	-37.167	0.278	-0.149
-578.777	-104.137	0.268	-0.062
-577.763	-200.000	-0.024	0.354
-576.748	104.222	0.154	0.182
-575.733	92.553	0.097	-0.110
-574.719	88.659	-0.146	-0.163
-573.704	-200.000	-0.032	-0.203
-572.690	12.722	0.146	-0.113
-571.675	-200.000	-0.007	0.279
-570.661	424.107	0.233	-0.500
-569.646	-113.952	0.128	0.025
-568.631	-200.000	-0.015	0.067
-567.617	-200.000	0.025	-0.214
-566.602	346.272	-0.091	-0.178
-565.588	800.000	-0.049	-0.180
-564.573	144.128	-0.112	0.149
-563.558	-142.500	0.424	-0.042
-562.544	10.860	-0.184	0.140
-561.529	-34.371	0.103	0.057
-560.515	302.694	0.038	0.069
-559.500	234.662	-0.034	0.056
-558.485	-54.313	0.138	0.063
-557.471	800.000	0.058	-0.190
-556.456	-200.000	0.033	0.144
-555.442	-200.000	-0.039	0.314
-554.427	-47.000	0.327	0.159
-553.412	-112.876	-0.149	-0.030
-552.398	-200.000	0.007	0.077
-551.383	-75.582	-0.146	-0.052
-550.369	164.657	-0.075	0.106
-549.354	103.085	-0.027	-0.031
-548.339	-200.000	-0.024	0.326
-547.325	-200.000	0.043	0.222
-546.310	59.235	-0.096	-0.094
-545.296	-68.673	0.175	-0.068
-544.281	29.852	-0.176	-0.150
-543.266	-200.000	0.054	-0.481
-542.252	422.741	-0.025	-0.054
-541.237	370.840	-0.059	-0.119
-540.223	-78.526	-0.318	0.109
-539.208	143.752	-0.041	0.055
-538.193	-200.000	-0.058	0.269
-537.179	-74.328	-0.432	0.156
-536.164	-123.143	0.231	-0.037
-535.150	196.991	0.296	0.451
-534.135	-200.000	0.007	0.091
-533.121	-200.000	-0.044	-0.202
-532.106	-32.230	0.265	0.148
-531.091	-172.242	-0.396	-0.013
-530.077	-161.463	-0.172	-0.009
-529.062	-200.000	0.020	0.114
-528.048	516.928	0.055	-0.130
-527.033	-112.780	-0.064	0.013
-526.018	-175.026	-0.157	-0.004
-525.004	-50.512	-0.273	0.129
-523.989	652.295	-0.022	0.056
-522.975	800.000	0.069	0.228
-521.960	177.320	0.103	-0.150
-520.945	35.473	0.159	0.140
-519.931	14.615	0.417	0.325
-518.916	-158.231	0.391	-0.023
-517.902	-200.000	-0.010	0.054
-516.887	-200.000	0.080	0.472
-515.872	-200.000	0.039	0.235
-514.858	772.217	-0.085	-0.230
-513.843	-200.000	0.074	0.370
-512.829	800.000	-0.085	0.325
-511.814	-200.000	0.019	0.161
-510.799	-54.505	-0.262	0.119
-509.785	39.765	0.232	-0.208
-508.770	800.000	0.080	0.244
-507.756	48.788	0.110	0.103
-506.741	168.981	0.115	0.164
-505.726	-200.000	-0.033	0.171
-504.712	569.902	-0.107	-0.261
-503.697	-109.535	-0.357	-0.075
-502.683	10.177	0.141	-0.107
-501.668	-22.942	0.196	-0.118
-500.653	-36.302	0.082	-0.044
-499.639	-106.768	0.046	0.010
-498.624	49.097	0.033	0.031
-497.610	5.629	-0.294	0.217
-496.595	41.297	0.165	0.148
-495.581	19.907	0.184	-0.148
-494.566	-200.000	0.033	-0.310
-493.551	-39.017	0.065	0.034
-492.537	683.949	0.068	-0.176
-491.522	-25.218	0.305	0.180
-490.508	-14.955	-0.117	-0.075
-489.493	269.618	-0.051	0.090
-488.478	54.061	0.227	0.217
-487.464	-200.000	0.004	-0.212
-486.449	9.215	-0.276	0.208
-485.435	-20.164	-0.286	-0.176
-484.420	-91.775	0.279	0.079
-483.405	-79.504	0.362	-0.122
-482.391	656.360	-0.083	0.213
-481.376	60.405	-0.071	0.070
-480.362	800.000	0.037	-0.150
-479.347	28.405	-0.064	-0.054
-478.332	-127.006	0.098	0.014
-477.318	-4.314	-0.123	-0.085
-476.303	20.793	-0.083	0.067
-475.289	-138.912	0.262	-0.028
-474.274	-30.818	-0.411	-0.232
-473.259	-17.741	0.298	-0.187
-472.245	-24.759	-0.172	-0.102
-471.230	-51.525	0.382	-0.178
-470.216	-200.000	0.045	0.199
-469.201	25.585	-0.227	-0.188
-468.186	800.000	0.017	0.071
-467.172	-200.000	0.021	-0.181
-466.157	-80.492	-0.211	-0.070
-465.143	-16.025	-0.174	-0.110
-464.128	-121.515	0.117	-0.019
-463.113	260.677	-0.168	0.290
-462.099	-200.000	0.010	0.080
-461.084	-200.000	0.043	0.250
-460.070	724.916	-0.047	-0.125
-459.055	183.734	0.212	0.312
-458.040	-90.555	-0.339	-0.098
-457.026	-200.000	0.032	-0.406
-456.011	-183.350	-0.182	0.003
-454.997	-200.000	-0.030	-0.279
-453.982	-200.000	-0.020	-0.108
-452.968	340.325	-0.107	0.209
-451.953	-200.000	-0.033	-0.201
-450.938	49.960	-0.215	-0.202
-449.924	103.227	0.156	0.182
-448.909	47.653	-0.094	-0.088
-447.895	388.890	0.128	-0.264
-446.880	447.696	0.099	0.216
-445.865	-186.425	-0.232	0.003
-444.851	-181.370	-0.034	0.001
-443.836	-200.000	-0.010	-0.277
-442.822	-14.559	0.088	-0.057
-441.807	758.303	0.140	0.377
-440.792	17.867	-0.203	-0.161
-439.778	800.000	-0.030	-0.093
-438.763	-151.507	-0.043	0.003
-437.749	-200.000	-0.014	-0.192
-436.734	18.924	-0.243	-0.194
-435.719	-72.992	-0.279	-0.102
-434.705	-35.327	0.108	0.058
-433.690	-43.733	0.260	0.130
-432.676	-200.000	-0.006	-0.266
-431.661	143.020	-0.081	-0.107
-430.646	95.322	0.187	-0.212
-429.632	-120.977	0.212	-0.035
-428.617	4.627	0.286	0.209
-427.603	77.025	-0.101	0.107
-426.588	800.000	-0.065	0.225
-425.573	-200.000	0.230	0.001
-424.559	-74.987	-0.204	0.073
-423.544	36.740	-0.061	0.054
-422.530	142.942	-0.135	0.178
-421.515	-92.366	0.209	-0.059
-420.500	800.000	0.031	0.086
-419.486	190.828	-0.083	0.124
-418.471	323.958	0.066	0.126
-417.457	159.855	0.173	-0.239
-416.442	54.679	0.147	0.141
-415.428	381.807	0.084	-0.172
-414.413	-200.000	-0.013	0.065
-413.398	372.525	0.200	0.403
-412.384	-92.273	-0.104	0.029
-411.369	-200.000	0.006	-0.036
-410.355	100.302	-0.131	0.151
-409.340	-66.611	-0.158	0.062
-408.325	285.292	0.029	0.052
-407.311	164.930	-0.062	-0.087
-406.296	800.000	-0.020	0.056
-405.282	191.462	0.113	0.169
-404.267	-76.902	0.339	0.118
-403.252	51.813	-0.055	-0.052
-402.238	-33.049	-0.177	0.097
-401.223	-131.417	0.286	0.038
-400.209	-69.439	-0.352	-0.134
-399.194	-6.612	-0.139	0.094
-398.179	-200.000	-0.012	-0.317
-397.165	-76.279	-0.276	0.097
-396.150	-200.000	-0.013	-0.167
-395.136	229.012	-0.012	-0.020
-394.121	-90.853	-0.195	-0.056
-393.106	-7.731	0.017	0.011
-392.092	800.000	0.086	-0.335
-391.077	11.789	0.214	-0.163
-390.063	658.643	0.139	0.355
-389.048	-200.000	-0.034	0.367
-388.033	800.000	-0.026	-0.106
-387.019	59.202	-0.180	-0.176
-386.004	125.755	0.049	-0.061
-384.990	133.239	0.168	-0.216
-383.975	-200.000	-0.035	-0.248
-382.960	4.338	0.301	-0.219
-381.946	25.709	0.065	0.054
-380.931	53.502	0.280	0.266
-379.917	215.435	0.084	-0.132
-378.902	133.079	-0.047	0.060
-377.888	-71.318	-0.262	0.097
-376.873	-82.197	-0.129	0.042
-375.858	69.457	-0.362	-0.370
-374.844	43.838	0.343	-0.312
-373.829	44.634	0.081	0.074
-372.815	11.310	0.084	0.064
-371.800	-200.000	0.009	-0.112
-370.785	-122.576	0.183	0.029
-369.771	244.129	-0.089	-0.149
-368.756	360.258	-0.154	0.307
-367.742	-106.898	0.069	0.015
-366.727	-27.590	-0.114	-0.066
-365.712	242.555	-0.078	-0.130
-364.698	148.808	0.103	-0.138
-363.683	-152.949	-0.401	0.028
-362.669	-200.000	-0.008	-0.214
-361.654	-160.172	0.095	-0.005
-360.639	-70.399	0.153	-0.058
-359.625	145.049	0.055	0.073
-358.610	-91.347	0.106	-0.030
-357.596	4.827	0.170	-0.124
-356.581	43.212	0.078	-0.071
-355.566	-69.038	0.087	-0.033
-354.552	14.009	-0.289	0.223
-353.537	800.000	0.008	0.033
-352.523	311.882	0.125	-0.232
-351.508	-200.000	0.026	-0.132
-350.493	322.385	0.125	0.237
-349.479	800.000	-0.060	0.185
-348.464	-165.055	0.157	-0.007
-347.450	800.000	0.080	0.228
-346.435	122.593	0.066	0.082
-345.420	349.267	0.097	0.190
-344.406	262.719	-0.102	-0.176
-343.391	-200.000	-0.009	0.182
-342.377	664.297	0.013	0.033
-341.362	8.519	-0.251	0.187
-340.348	416.354	0.076	0.160
-339.333	-114.554	-0.099	-0.019
-338.318	-200.000	-0.041	-0.358
-337.304	151.598	-0.263	-0.355
-336.289	-52.762	-0.089	-0.041
-335.275	25.880	-0.113	0.093
-334.260	-200.000	0.234	-0.001
-333.245	-158.816	-0.140	-0.008
-332.231	-162.037	-0.284	-0.014
-331.216	7.528	0.203	0.150
-330.202	93.163	0.180	-0.202
-329.187	9.274	0.259	0.194
-328.172	97.870	-0.049	-0.056
-327.158	-155.796	0.336	0.021
-326.143	97.723	-0.082	0.093
-325.129	271.955	0.135	-0.236
-324.114	-33.856	0.161	0.088
-323.099	469.069	-0.205	0.457
-322.085	-186.752	-0.177	-0.002
-321.070	89.882	-0.030	0.033
-320.056	-200.000	-0.087	-0.448
-319.041	617.996	0.071	-0.176
-318.026	-39.000	0.148	0.077
-317.012	-57.180	-0.211	-0.092
-315.997	-26.020	-0.147	0.086
-314.983	146.519	-0.096	0.128
-313.968	-99.284	-0.315	0.079
-312.953	-171.893	-0.126	-0.004
-311.939	5.349	-0.200	-0.146
-310.924	-141.378	-0.260	0.026
-309.910	-61.775	-0.162	-0.067
-308.895	-27.193	0.122	0.070
-307.880	42.617	-0.137	-0.123
-306.866	52.776	0.134	-0.127
-305.851	-200.000	-0.016	-0.133
-304.837	-44.295	-0.053	-0.026
-303.822	320.434	0.244	0.458
-302.807	490.210	0.144	0.326
-301.793	-41.033	0.107	0.055
-300.778	-99.005	-0.333	0.084
-299.764	232.849	-0.134	-0.217
-298.749	-124.040	-0.189	0.029
-297.735	800.000	-0.044	-0.166
-296.720	800.000	0.073	0.249
-295.705	-95.712	-0.210	-0.056
-294.691	-106.266	-0.080	0.018
-293.676	-200.000	0.008	0.155
-292.662	-113.108	0.357	0.070
-291.647	-2.403	-0.111	-0.077
-290.632	166.873	-0.144	-0.202
-289.618	-200.000	0.040	0.308
-288.603	800.000	-0.034	0.125
-287.589	-133.453	0.502	-0.062
-286.574	800.000	-0.099	-0.319
-285.559	6.435	0.273	-0.200
-284.545	125.898	-0.125	0.156
-283.530	-123.902	-0.233	-0.036
-282.516	-200.000	0.001	-0.181
-281.501	-153.555	0.266	-0.018
-280.486	800.000	0.087	-0.285
-279.472	55.574	0.122	-0.116
-278.457	71.247	0.094	0.096
-277.443	-115.358	0.161	0.030
-276.428	-200.000	-0.012	-0.183
-275.413	-121.071	0.059	0.010
-274.399	-117.028	0.092	-0.017
-273.384	146.024	0.188	-0.250
-272.370	-41.010	0.236	0.121
-271.355	84.384	0.240	-0.259
-270.340	-200.000	-0.015	-0.494
-269.326	159.628	0.131	-0.180
-268.311	739.113	0.078	0.206
-267.297	120.394	-0.069	0.085
-266.282	-83.188	-0.122	-0.039
-265.267	238.079	-0.037	0.060
-264.253	-200.000	0.031	-0.138
-263.238	-200.000	0.010	0.186
-262.224	252.966	-0.046	0.077
-261.209	-4.712	0.168	0.114
-260.195	170.178	0.104	0.148
-259.180	-82.423	-0.529	0.170
-258.165	-81.483	-0.207	-0.067
-257.151	-60.470	0.252	0.106
-256.136	72.218	-0.167	-0.172
-255.122	-200.000	-0.001	-0.030
-254.107	65.263	-0.064	0.064
-253.092	-200.000	0.149	0.000
-252.078	-130.152	0.137	0.018
-251.063	49.594	-0.135	0.125
-250.049	-200.000	-0.022	-0.108
-249.034	93.622	-0.133	0.149
-248.019	237.662	-0.155	0.254
-247.005	65.956	0.092	0.092
-245.990	413.465	0.037	-0.078
-244.976	-33.076	0.068	0.037
-243.961	800.000	-0.009	-0.033
-242.946	-41.992	0.226	0.115
-241.932	800.000	0.050	0.192
-240.917	800.000	0.058	-0.222
-239.903	114.179	0.131	-0.158
-238.888	33.290	0.067	0.058
-237.873	-20.078	0.246	0.150
-236.859	-142.393	-0.166	-0.016
-235.844	-200.000	0.013	-0.264
-234.830	107.214	-0.118	0.138
-233.815	-28.079	-0.212	-0.121
-232.800	-183.194	-0.114	0.002
-231.786	-104.741	-0.084	0.019
-230.771	26.548	-0.096	0.080
-229.757	800.000	-0.048	0.155
-228.742	-51.576	-0.249	-0.115
-227.727	-200.000	0.012	-0.150
-226.713	-200.000	0.025	0.373
-225.698	-95.727	0.212	0.056
-224.684	15.576	-0.129	-0.100
-223.669	-157.249	-0.175	0.010
-222.655	-117.936	0.164	0.029
-221.640	553.677	0.140	0.332
-220.625	800.000	-0.009	0.029
-219.611	-200.000	-0.010	-0.191
-218.596	-87.192	-0.110	0.033
-217.582	-30.670	-0.128	0.072
-216.567	478.829	0.060	0.134
-215.552	42.319	0.220	0.198
-214.538	-173.996	0.264	-0.008
-213.523	-200.000	-0.015	0.097
-212.509	-121.637	0.180	-0.029
-211.494	559.268	-0.043	0.102
-210.479	122.524	0.164	0.202
-209.465	27.097	0.150	-0.124
-208.450	606.431	0.049	0.121
-207.436	-93.440	0.399	-0.109
-206.421	800.000	0.063	-0.180
-205.406	98.982	0.139	0.159
-204.392	-200.000	0.018	0.086
-203.377	54.923	-0.224	0.213
-202.363	-200.000	-0.005	-0.136
-201.348	262.206	0.095	0.162
-200.333	-51.282	-0.200	0.092
-199.319	-200.000	0.029	0.131
-198.304	-72.491	0.073	-0.026
-197.290	102.925	-0.164	-0.189
-196.275	800.000	0.023	0.091
-195.260	-200.000	0.030	0.220
-194.246	-200.000	-0.018	-0.132
-193.231	-57.565	-0.281	0.121
-192.217	-119.314	-0.242	-0.041
-191.202	-200.000	0.013	-0.277
-190.187	539.751	0.087	0.204
-189.173	-70.170	0.235	-0.088
-188.158	800.000	0.084	-0.235
-187.144	37.492	0.209	-0.183
-186.129	-200.000	-0.001	-0.179
-185.114	-66.677	0.215	0.084
-184.100	-43.803	-0.168	0.084
-183.085	217.204	0.164	0.258
-182.071	336.226	0.174	0.333
-181.056	-80.740	0.247	-0.081
-180.042	61.875	-0.202	0.199
-179.027	241.970	-0.069	0.113
-178.012	-200.000	0.015	-0.148
-176.998	-200.000	0.085	-0.474
-175.983	-94.000	-0.115	-0.031
-174.969	800.000	-0.126	0.407
-173.954	524.321	0.053	-0.123
-172.939	-92.617	-0.293	-0.081
-171.925	71.431	-0.093	-0.095
-170.910	17.788	-0.115	-0.091
-169.896	-22.119	0.062	-0.037
-168.881	-161.462	-0.069	-0.003
-167.866	-200.000	-0.024	0.311
-166.852	-154.355	-0.167	0.011
-165.837	-200.000	-0.058	0.272
-164.823	-200.000	-0.026	0.220
-163.808	-157.073	0.308	-0.018
-162.793	800.000	0.030	0.086
-161.779	157.642	-0.065	0.089
-160.764	-200.000	-0.043	-0.196
-159.750	211.151	0.110	-0.170
-158.735	-50.307	-0.232	0.108
-157.720	-200.000	-0.025	-0.164
-156.706	-162.347	0.389	0.019
-155.691	-200.000	-0.023	0.259
-154.677	-200.000	-0.034	-0.198
-153.662	264.630	0.208	-0.357
-152.647	193.090	-0.104	-0.154
-151.633	-200.000	0.004	0.170
-150.618	-200.000	-0.000	0.265
-149.604	37.276	-0.204	-0.177
-148.589	371.128	0.061	0.123
-147.574	-200.000	-0.001	-0.265
-146.560	-49.916	-0.051	-0.024
-145.545	-123.870	-0.114	-0.018
-144.531	-96.580	-0.316	-0.082
-143.516	800.000	0.084	-0.312
-142.502	-52.329	-0.270	-0.123
-141.487	-120.377	0.237	-0.040
-140.472	-140.834	-0.340	-0.034
-139.458	-80.665	0.308	0.101
-138.443	83.718	-0.085	-0.091
-137.429	800.000	-0.022	-0.086
-136.414	-200.000	-0.029	0.174
-135.399	160.589	0.114	-0.157
-134.385	-33.027	0.319	-0.174
-133.370	-200.000	-0.002	-0.188
-132.356	-105.958	0.165	-0.037
-131.341	-19.431	0.215	-0.131
-130.326	113.841	0.154	0.184
-129.312	46.680	0.116	0.106
-128.297	265.133	0.142	0.244
-127.283	140.939	-0.194	-0.253
-126.268	232.559	-0.037	0.060
-125.253	36.376	-0.166	-0.144
-124.239	92.980	0.244	0.271
-123.224	-114.684	0.253	0.048
-122.210	-31.824	0.359	-0.198
-121.195	-78.998	0.247	0.083
