DTS Sentinel unit serial number:	SN413079Multiplexer serial number:	ORYXHardware model number:	OX4-SRSoftware version number:	ORYX F/W v4.00 Oryx Data Collector v3.7.2.0data status	okinstallation	princeton_trtdifferential loss correction	single-endedforward channel	channel 2reverse channel	N/Adate	2019/09/15time	20:11:34forward acquisition time	60.00reverse acquisition time	0.00gamma	496.2192k internal	0.2325k external	0.2325temperature offset calibration	0.9934default loss term (dB/km)	0.3790temperature slope calibration	1.0000multiplexer offset coefficient	1.0000multiplexer slope coefficient	1.0000fibre end	0.00T internal ref (°C)	34.78T ext. ref 1 (°C)	7.65T ext. ref 2 (°C)	25.76length (m)	temperature (°C)	Stokes	anti-Stokes-747.200	93.116	-0.058	-0.066
-746.185	800.000	-0.077	-0.325
-745.171	3.733	-0.195	0.144
-744.156	105.832	-0.218	0.260
-743.142	-24.288	-0.074	0.045
-742.127	15.714	0.122	-0.097
-741.112	487.379	-0.080	0.184
-740.098	63.383	-0.191	0.193
-739.083	-200.000	-0.015	0.335
-738.069	117.800	-0.143	0.178
-737.054	-162.457	-0.074	-0.004
-736.039	-111.651	-0.313	0.064
-735.025	674.170	0.108	0.283
-734.010	49.229	-0.148	-0.140
-732.996	-67.661	-0.312	0.123
-731.981	800.000	-0.050	0.142
-730.966	-200.000	-0.089	0.418
-729.952	-133.660	-0.464	-0.059
-728.937	800.000	-0.044	-0.147
-727.923	49.163	-0.126	-0.120
-726.908	3.380	-0.237	-0.174
-725.894	-200.000	0.019	-0.110
-724.879	20.714	0.292	-0.239
-723.864	-121.331	-0.208	0.035
-722.850	-200.000	-0.013	-0.125
-721.835	-111.284	-0.221	-0.046
-720.821	800.000	-0.084	-0.310
-719.806	-200.000	0.003	-0.256
-718.791	131.076	-0.019	-0.025
-717.777	-200.000	-0.044	-0.352
-716.762	-200.000	0.050	-0.294
-715.748	-65.315	-0.162	0.066
-714.733	312.434	0.141	0.267
-713.718	283.850	-0.093	0.168
-712.704	40.381	-0.136	0.123
-711.689	-110.368	-0.320	0.067
-710.675	57.148	0.175	0.172
-709.660	114.647	-0.228	0.280
-708.645	800.000	0.140	0.463
-707.631	-63.575	-0.045	-0.018
-706.616	-94.607	0.124	-0.034
-705.602	-124.094	0.319	-0.051
-704.587	-9.645	0.051	0.035
-703.572	287.767	-0.153	-0.280
-702.558	-121.846	-0.308	-0.051
-701.543	-103.617	0.246	0.058
-700.529	800.000	-0.056	0.180
-699.514	-85.310	-0.285	0.089
-698.499	-173.026	-0.439	0.014
-697.485	200.494	0.262	0.406
-696.470	-66.877	-0.269	0.107
-695.456	-153.336	-0.231	0.016
-694.441	-200.000	0.027	-0.145
-693.426	206.086	0.195	-0.306
-692.412	-173.280	0.377	0.012
-691.397	-200.000	0.026	-0.150
-690.383	-141.876	-0.384	0.039
-689.368	800.000	0.024	0.103
-688.354	800.000	0.058	0.234
-687.339	-200.000	0.000	0.412
-686.324	330.319	-0.179	-0.347
-685.310	-200.000	0.028	-0.201
-684.295	173.928	-0.098	-0.143
-683.281	50.936	0.027	0.026
-682.266	-200.000	0.034	-0.194
-681.251	252.503	0.075	-0.129
-680.237	91.099	-0.057	-0.065
-679.222	-200.000	0.014	-0.228
-678.208	-153.092	-0.304	0.022
-677.193	800.000	0.079	-0.262
-676.178	98.390	-0.378	-0.439
-675.164	45.737	0.186	0.173
-674.149	-38.375	-0.215	0.115
-673.135	284.150	0.050	0.090
-672.120	204.166	0.067	0.104
-671.105	-200.000	0.002	0.126
-670.091	260.906	-0.054	0.094
-669.076	57.775	-0.353	-0.347
-668.062	10.251	0.648	-0.496
-667.047	7.295	0.147	-0.110
-666.032	800.000	0.038	-0.165
-665.018	17.345	-0.068	0.054
-664.003	-27.918	0.537	-0.313
-662.989	-165.816	-0.125	0.005
-661.974	158.573	0.050	-0.070
-660.959	-138.095	0.168	0.019
-659.945	247.430	0.235	-0.400
-658.930	-14.067	0.202	0.131
-657.916	-200.000	-0.071	-0.423
-656.901	250.346	0.143	-0.244
-655.886	-170.942	-0.272	0.009
-654.872	-200.000	-0.020	-0.137
-653.857	-200.000	0.016	0.161
-652.843	8.565	-0.217	0.164
-651.828	-200.000	-0.013	0.074
-650.814	49.004	0.134	-0.126
-649.799	359.157	0.060	-0.121
-648.784	21.456	-0.104	0.085
-647.770	54.706	0.039	0.038
-646.755	-200.000	-0.064	0.527
-645.741	222.832	-0.107	0.174
-644.726	22.251	0.111	0.091
-643.711	48.535	0.082	-0.077
-642.697	-43.494	0.284	0.144
-641.682	-144.526	0.236	0.022
-640.668	296.238	-0.179	-0.330
-639.653	-117.383	-0.394	0.072
-638.638	-200.000	-0.027	-0.424
-637.624	-200.000	-0.031	-0.179
-636.609	82.673	0.127	0.139
-635.595	-51.658	0.396	0.186
-634.580	-110.877	-0.023	0.005
-633.565	8.085	0.108	-0.081
-632.551	-200.000	0.016	0.207
-631.536	325.869	0.031	-0.059
-630.522	-66.726	0.259	-0.103
-629.507	-81.130	-0.296	-0.098
-628.492	-20.356	0.208	0.128
-627.478	-200.000	-0.002	0.391
-626.463	233.621	-0.026	0.042
-625.449	-51.508	-0.139	0.065
-624.434	164.752	-0.178	0.252
-623.419	82.943	0.133	-0.146
-622.405	-149.842	-0.312	0.025
-621.390	800.000	-0.072	-0.291
-620.376	800.000	0.065	0.243
-619.361	593.422	-0.111	-0.276
-618.346	0.058	-0.221	-0.158
-617.332	-200.000	-0.006	-0.258
-616.317	-133.852	0.180	-0.022
-615.303	-200.000	-0.050	0.399
-614.288	307.826	0.129	0.241
-613.273	12.772	-0.206	0.159
-612.259	409.387	-0.051	-0.108
-611.244	114.431	-0.076	0.093
-610.230	231.126	-0.026	-0.042
-609.215	-200.000	0.047	-0.345
-608.201	-40.673	-0.033	-0.017
-607.186	800.000	0.083	0.257
-606.171	-164.215	-0.268	0.012
-605.157	-200.000	-0.041	-0.185
-604.142	663.502	-0.065	-0.168
-603.128	-42.844	0.143	0.073
-602.113	81.898	0.035	0.038
-601.098	87.279	-0.143	-0.159
-600.084	-110.928	0.085	0.018
-599.069	114.942	0.011	0.014
-598.055	36.669	-0.272	-0.241
-597.040	-122.423	0.191	-0.031
-596.025	397.513	-0.295	0.619
-595.011	332.125	-0.070	-0.136
-593.996	800.000	0.182	-0.523
-592.982	776.996	0.085	-0.232
-591.967	-197.709	0.351	0.002
-590.952	-154.457	0.088	-0.006
-589.938	-200.000	-0.004	-0.219
-588.923	180.441	0.087	-0.128
-587.909	-87.192	0.134	0.041
-586.894	108.262	-0.302	0.361
-585.879	-118.375	0.235	-0.042
-584.865	-200.000	-0.011	-0.370
-583.850	-174.141	-0.073	0.002
-582.836	59.611	-0.095	-0.094
-581.821	24.622	0.056	-0.047
-580.806	-189.111	0.273	0.003
-579.792	496.458	0.175	0.403
-578.777	56.826	0.158	-0.154
-577.763	17.794	-0.195	-0.156
-576.748	800.000	-0.033	-0.091
-575.733	23.593	0.124	-0.102
-574.719	-200.000	0.019	-0.171
-573.704	755.595	0.108	-0.293
-572.690	-55.910	-0.286	-0.128
-571.675	-200.000	-0.016	-0.141
-570.661	-140.393	-0.216	0.023
-569.646	44.011	0.307	0.282
-568.631	216.721	-0.159	-0.253
-567.617	-92.521	-0.121	0.034
-566.602	318.083	0.065	-0.123
-565.588	12.183	-0.112	0.086
-564.573	-9.520	-0.110	0.074
-563.558	30.439	-0.236	-0.202
-562.544	37.775	-0.206	0.184
-561.529	-99.502	-0.222	-0.056
-560.515	-5.284	0.363	-0.250
-559.500	-72.760	-0.206	0.076
-558.485	-113.643	-0.122	-0.024
-557.471	476.039	0.132	-0.298
-556.456	-133.434	0.081	-0.010
-555.442	44.085	-0.157	-0.145
-554.427	199.021	-0.258	-0.396
-553.412	197.039	0.186	-0.284
-552.398	-135.838	0.201	0.024
-551.383	62.669	-0.263	0.263
-550.369	800.000	-0.044	-0.159
-549.354	-193.254	0.144	-0.001
-548.339	287.424	-0.109	0.197
-547.325	-57.858	-0.258	0.113
-546.310	161.661	-0.136	0.191
-545.296	-33.306	0.443	0.245
-544.281	92.182	-0.087	0.098
-543.266	209.635	-0.088	0.138
-542.252	-200.000	-0.027	0.227
-541.237	-142.746	-0.422	-0.041
-540.223	80.405	-0.120	-0.129
-539.208	-71.752	0.297	0.111
-538.193	266.253	-0.078	0.137
-537.179	-200.000	0.013	0.232
-536.164	-200.000	-0.021	-0.466
-535.150	-46.767	-0.264	-0.129
-534.135	800.000	0.063	-0.191
-533.121	23.898	0.096	0.079
-532.106	82.804	-0.253	0.276
-531.091	-200.000	-0.024	0.129
-530.077	67.404	0.258	0.264
-529.062	-15.869	-0.085	0.054
-528.048	96.590	-0.135	0.155
-527.033	127.726	-0.086	-0.109
-526.018	800.000	0.066	0.238
-525.004	-66.350	-0.323	0.128
-523.989	-125.476	-0.253	0.039
-522.975	13.479	0.099	0.077
-521.960	507.192	0.063	-0.147
-520.945	722.498	-0.093	0.247
-519.931	-200.000	-0.001	0.123
-518.916	5.440	0.122	-0.090
-517.902	4.840	-0.127	-0.094
-516.887	-37.669	-0.323	0.172
-515.872	-200.000	-0.023	0.157
-514.858	-177.939	0.394	0.009
-513.843	78.825	-0.076	0.082
-512.829	-36.506	0.084	-0.045
-511.814	-200.000	-0.021	-0.291
-510.799	800.000	0.104	-0.319
-509.785	623.498	-0.077	0.194
-508.770	-103.895	0.286	0.067
-507.756	-24.470	0.306	-0.182
-506.741	61.903	-0.099	-0.099
-505.726	589.627	-0.048	-0.120
-504.712	-200.000	-0.007	0.394
-503.697	199.915	0.190	0.291
-502.683	-125.943	-0.402	0.061
-501.668	13.094	0.163	0.126
-500.653	731.081	-0.065	-0.174
-499.639	-105.522	-0.293	0.067
-498.624	182.015	-0.163	0.240
-497.610	139.981	-0.198	-0.260
-496.595	169.864	0.153	0.218
-495.581	-159.485	-0.323	0.018
-494.566	800.000	-0.068	-0.275
-493.551	6.686	-0.102	-0.076
-492.537	-96.634	-0.200	0.053
-491.522	-200.000	0.076	0.541
-490.508	201.173	-0.158	0.243
-489.493	183.355	-0.138	0.204
-488.478	-17.689	0.137	0.086
-487.464	-74.820	0.070	-0.025
-486.449	-200.000	0.083	-0.392
-485.435	-166.128	0.161	-0.007
-484.420	-129.772	0.157	-0.022
-483.405	-102.556	0.174	0.042
-482.391	-142.211	-0.077	-0.008
-481.376	243.962	0.041	0.069
-480.362	-89.882	0.269	0.079
-479.347	15.750	-0.068	-0.053
-478.332	21.996	-0.109	-0.089
-477.318	-83.577	0.131	-0.042
-476.303	-200.000	0.007	0.244
-475.289	-200.000	-0.042	-0.243
-474.274	-45.585	0.233	-0.115
-473.259	-92.823	0.217	0.061
-472.245	-50.953	-0.105	-0.049
-471.230	126.931	0.266	0.337
-470.216	-57.100	0.196	-0.086
-469.201	-44.509	-0.220	-0.110
-468.186	78.730	0.297	-0.317
-467.172	-200.000	-0.030	0.324
-466.157	800.000	0.045	0.183
-465.143	-81.383	-0.034	-0.011
-464.128	310.829	-0.047	0.089
-463.113	-81.338	0.138	0.046
-462.099	114.822	-0.096	-0.117
-461.084	800.000	-0.090	0.315
-460.070	-38.596	0.052	-0.028
-459.055	-200.000	0.013	-0.156
-458.040	800.000	0.041	-0.120
-457.026	-0.689	0.065	0.046
-456.011	127.373	-0.120	-0.153
-454.997	522.497	0.105	-0.245
-453.982	57.090	0.195	0.189
-452.968	56.724	0.212	0.206
-451.953	-40.876	-0.077	0.040
-450.938	44.910	-0.155	0.142
-449.924	431.513	0.087	-0.188
-448.909	-114.342	-0.192	-0.037
-447.895	778.665	0.047	-0.128
-446.880	238.388	-0.154	0.256
-445.865	-120.715	0.257	0.043
-444.851	-200.000	-0.026	0.146
-443.836	18.877	-0.100	-0.080
-442.822	-200.000	0.045	0.223
-441.807	-128.621	0.091	0.013
-440.792	236.202	-0.092	-0.152
-439.778	287.979	-0.060	-0.109
-438.763	-89.188	0.013	0.004
-437.749	40.976	0.219	-0.197
-436.734	509.148	0.083	0.193
-435.719	-57.156	-0.218	0.096
-434.705	800.000	0.093	-0.369
-433.690	290.894	0.109	-0.197
-432.676	61.965	-0.187	-0.186
-431.661	102.624	0.075	-0.088
-430.646	800.000	-0.114	0.333
-429.632	225.257	-0.238	0.383
-428.617	-21.611	0.072	-0.044
-427.603	-200.000	-0.028	0.273
-426.588	217.962	0.162	-0.258
-425.573	-122.948	-0.177	0.028
-424.559	162.568	0.114	-0.160
-423.544	26.659	-0.174	-0.145
-422.530	-62.179	0.309	0.128
-421.515	-61.875	-0.227	-0.095
-420.500	-200.000	0.070	0.343
-419.486	243.459	-0.028	-0.047
-418.471	675.958	-0.040	0.104
-417.457	-45.083	-0.167	-0.083
-416.442	-15.706	0.339	0.216
-415.428	-200.000	0.003	0.085
-414.413	-97.615	-0.424	-0.109
-413.398	70.824	-0.097	-0.100
-412.384	-1.651	0.128	0.090
-411.369	-115.331	-0.214	0.040
-410.355	59.415	-0.153	0.150
-409.340	800.000	-0.028	0.092
-408.325	-52.461	0.183	-0.084
-407.311	-99.815	-0.154	0.038
-406.296	560.848	0.126	0.304
-405.282	356.203	-0.095	0.189
-404.267	-121.982	0.273	-0.045
-403.252	800.000	0.053	0.178
-402.238	800.000	0.118	0.455
-401.223	-121.977	-0.313	-0.051
-400.209	-200.000	-0.007	0.031
-399.194	-131.278	-0.138	-0.018
-398.179	172.231	0.056	0.081
-397.165	800.000	-0.079	0.223
-396.150	-200.000	-0.038	0.285
-395.136	-18.466	-0.097	-0.060
-394.121	167.334	0.131	-0.185
-393.106	118.170	-0.131	0.161
-392.092	-11.054	-0.194	-0.127
-391.077	186.858	0.099	0.147
-390.063	-200.000	-0.015	-0.178
-389.048	14.891	0.110	-0.086
-388.033	-200.000	-0.037	0.309
-387.019	800.000	-0.085	-0.276
-386.004	69.276	0.081	-0.083
-384.990	186.714	0.152	0.226
-383.975	-1.570	-0.105	-0.074
-382.960	152.183	-0.056	-0.076
-381.946	-68.962	0.249	0.096
-380.931	133.623	-0.064	-0.082
-379.917	-72.498	0.157	0.058
-378.902	42.987	-0.225	0.204
-377.888	-9.643	-0.069	-0.046
-376.873	61.007	0.308	0.304
-375.858	800.000	-0.091	-0.270
-374.844	2.612	0.083	0.060
-373.829	-200.000	0.053	0.233
-372.815	-200.000	0.006	-0.142
-371.800	789.435	-0.080	0.218
-370.785	772.311	-0.068	0.185
-369.771	-200.000	0.035	-0.352
-368.756	-72.233	-0.104	-0.038
-367.742	-147.234	-0.179	0.015
-366.727	-200.000	0.044	-0.193
-365.712	42.295	0.285	0.257
-364.698	74.495	0.120	0.125
-363.683	-200.000	-0.040	-0.273
-362.669	738.729	0.102	-0.272
-361.654	-200.000	0.004	0.132
-360.639	800.000	-0.061	0.224
-359.625	-197.989	-0.100	-0.001
-358.610	-21.274	0.262	-0.159
-357.596	-38.472	0.139	-0.073
-356.581	1.932	0.023	-0.017
-355.566	800.000	-0.044	-0.135
-354.552	23.503	0.182	-0.149
-353.537	59.472	0.080	-0.078
-352.523	800.000	0.035	-0.139
-351.508	-91.025	-0.126	-0.036
-350.493	-21.074	0.292	-0.178
-349.479	-200.000	-0.000	-0.140
-348.464	-79.859	0.223	-0.075
-347.450	-68.684	0.204	0.078
-346.435	800.000	0.040	0.161
-345.420	7.388	-0.321	0.238
-344.406	69.895	0.039	0.040
-343.391	800.000	0.045	-0.152
-342.377	-102.636	0.219	0.052
-341.362	220.245	0.109	-0.173
-340.348	-200.000	-0.010	-0.206
-339.333	800.000	0.119	0.451
-338.318	215.278	0.082	-0.129
-337.304	-115.381	0.049	0.009
-336.289	652.641	0.052	0.132
-335.275	-174.603	0.278	-0.008
-334.260	93.419	-0.053	-0.060
-333.245	630.478	0.089	-0.222
-332.231	343.980	-0.049	-0.096
-331.216	-83.590	0.128	0.040
-330.202	-128.086	0.126	0.018
-329.187	-101.699	0.121	-0.029
-328.172	-92.242	0.213	0.060
-327.158	-139.679	-0.247	0.026
-326.143	-132.903	0.367	-0.046
-325.129	273.735	-0.013	0.023
-324.114	407.507	0.075	0.157
-323.099	353.786	0.041	-0.081
-322.085	-200.000	0.050	-0.261
-321.070	-200.000	-0.024	-0.124
-320.056	-200.000	-0.053	-0.345
-319.041	-62.631	0.485	-0.200
-318.026	-200.000	-0.290	-0.001
-317.012	800.000	-0.036	0.119
-315.997	-137.479	0.280	-0.031
-314.983	-88.229	-0.173	0.051
-313.968	-12.518	0.187	0.121
-312.953	-167.191	-0.177	0.007
-311.939	-41.112	-0.072	0.037
-310.924	477.750	0.021	0.048
-309.910	-168.131	-0.064	-0.002
-308.895	800.000	0.102	0.288
-307.880	-60.681	-0.123	0.052
-306.866	-200.000	-0.013	0.058
-305.851	-82.448	-0.228	-0.073
-304.837	794.060	0.065	-0.179
-303.822	-200.000	-0.040	0.184
-302.807	14.204	0.257	-0.199
-301.793	800.000	0.051	-0.202
-300.778	-200.000	-0.004	0.140
-299.764	-45.042	-0.059	0.029
-298.749	278.096	0.077	0.137
-297.735	-200.000	0.011	0.157
-296.720	39.075	-0.081	0.072
-295.705	-157.132	0.232	0.014
-294.691	-200.000	-0.017	-0.350
-293.676	324.032	-0.158	-0.299
-292.662	-55.253	0.282	-0.126
-291.647	-2.972	-0.258	-0.179
-290.632	-17.222	-0.229	0.143
-289.618	398.079	0.033	0.069
-288.603	-153.163	-0.045	-0.003
-287.589	800.000	0.068	-0.191
-286.574	14.225	0.166	-0.128
-285.559	-103.765	-0.484	-0.112
-284.545	365.186	0.075	-0.150
-283.530	-15.503	0.371	0.235
-282.516	338.682	-0.178	0.343
-281.501	-72.960	-0.224	-0.082
-280.486	717.937	-0.266	0.700
-279.472	800.000	0.083	-0.234
-278.457	368.581	0.118	0.237
-277.443	-200.000	-0.006	0.038
-276.428	40.855	0.336	-0.300
-275.413	194.908	-0.072	0.109
-274.399	583.261	-0.055	0.133
-273.384	-114.698	-0.256	0.048
-272.370	-133.587	-0.109	0.013
-271.355	-118.265	0.493	-0.087
-270.340	32.712	0.117	-0.100
-269.326	238.247	-0.136	0.223
-268.311	-41.191	0.323	0.165
-267.297	-59.969	-0.125	-0.053
-266.282	-31.172	0.113	-0.063
-265.267	-200.000	0.012	-0.158
-264.253	800.000	0.052	0.178
-263.238	-47.600	-0.035	0.017
-262.224	-200.000	0.016	-0.304
-261.209	461.439	0.051	0.113
-260.195	540.061	0.071	-0.167
-259.180	-96.262	-0.304	-0.080
-258.165	74.313	-0.439	-0.457
-257.151	800.000	-0.047	0.194
-256.136	104.649	0.263	-0.307
-255.122	-88.662	0.113	-0.033
-254.107	-200.000	-0.065	-0.437
-253.092	-82.796	0.227	-0.073
-252.078	-200.000	-0.004	0.063
-251.063	-200.000	0.003	0.135
-250.049	-133.968	0.087	0.011
-249.034	-75.957	-0.482	0.169
-248.019	-57.214	0.289	-0.126
-247.005	-85.292	0.228	-0.071
-245.990	-200.000	0.026	0.122
-244.976	148.446	-0.087	-0.116
-243.961	-150.764	0.114	-0.009
-242.946	-200.000	0.032	-0.268
-241.932	-153.086	-0.115	0.008
-240.917	89.643	0.086	-0.095
-239.903	-36.071	-0.272	-0.145
-238.888	-127.764	0.249	0.036
-237.873	-70.880	0.157	-0.059
-236.859	800.000	-0.113	0.337
-235.844	-26.625	0.448	-0.259
-234.830	50.546	-0.073	0.068
-233.815	-18.111	0.210	-0.130
-232.800	63.871	-0.168	0.167
-231.786	-200.000	-0.075	0.328
-230.771	101.954	0.129	-0.149
-229.757	103.619	-0.098	-0.114
-228.742	-11.710	0.145	0.094
-227.727	-22.398	-0.221	0.132
-226.713	104.065	-0.058	-0.067
-225.698	11.069	0.282	-0.213
-224.684	78.139	0.373	0.393
-223.669	213.556	0.138	0.215
-222.655	-200.000	-0.004	-0.075
-221.640	289.503	-0.109	0.196
-220.625	-88.881	0.062	-0.018
-219.611	-18.314	-0.173	0.107
-218.596	-200.000	-0.030	0.283
-217.582	-45.232	-0.182	0.089
-216.567	800.000	-0.064	0.197
-215.552	-5.094	0.099	0.067
-214.538	176.928	-0.159	-0.229
-213.523	262.931	0.121	-0.207
-212.509	-200.000	-0.001	-0.250
-211.494	-171.184	-0.151	-0.005
-210.479	480.263	0.200	-0.447
-209.465	-200.000	-0.015	-0.178
-208.450	-200.000	-0.014	0.252
-207.436	-40.812	-0.268	-0.137
-206.421	-6.427	0.122	0.083
-205.406	32.071	0.233	-0.199
-204.392	254.645	-0.064	-0.108
-203.377	453.729	-0.118	-0.258
-202.363	-169.130	0.155	0.006
-201.348	800.000	-0.052	-0.144
-200.333	-200.000	-0.031	0.176
-199.319	-110.633	-0.226	-0.046
-198.304	-126.070	0.160	-0.024
-197.290	-128.893	0.126	-0.017
-196.275	20.631	0.090	-0.072
-195.260	265.649	-0.155	0.268
-194.246	-132.283	0.085	0.011
-193.231	-90.863	-0.198	0.056
-192.217	800.000	0.027	-0.091
-191.202	155.004	-0.248	0.336
-190.187	-200.000	0.030	0.268
-189.173	334.285	-0.246	-0.471
-188.158	-200.000	-0.036	0.279
-187.144	50.600	0.147	-0.137
-186.129	-75.860	-0.143	-0.050
-185.114	105.730	-0.206	-0.241
-184.100	219.764	0.151	-0.238
-183.085	-200.000	0.017	0.153
-182.071	-116.978	0.100	-0.018
-181.056	-200.000	0.062	0.383
-180.042	-75.502	-0.258	-0.091
-179.027	-0.320	-0.163	-0.114
-178.012	800.000	-0.076	-0.243
-176.998	-49.318	-0.303	0.143
-175.983	800.000	-0.043	0.134
-174.969	-200.000	-0.033	-0.251
-173.954	108.220	0.127	-0.149
-172.939	613.815	-0.052	0.128
-171.925	180.164	-0.098	-0.142
-170.910	489.769	-0.065	-0.146
-169.896	-200.000	-0.031	0.142
-168.881	-179.266	0.102	0.002
-167.866	-136.566	-0.191	-0.022
-166.852	17.121	-0.199	0.156
-165.837	-200.000	-0.003	-0.183
-164.823	49.161	0.032	0.030
-163.808	-76.740	0.116	-0.040
-162.793	-13.979	-0.182	-0.116
-161.779	-110.982	0.242	-0.049
-160.764	-200.000	0.045	0.316
-159.750	-109.514	-0.203	-0.042
-158.735	-200.000	0.096	0.420
-157.720	-17.315	-0.301	-0.187
-156.706	173.007	0.024	0.035
-155.691	408.102	-0.047	-0.099
-154.677	-200.000	-0.039	-0.348
-153.662	76.717	0.140	0.146
-152.647	629.173	-0.095	-0.237
-151.633	268.251	-0.091	0.157
-150.618	-40.105	0.313	0.161
-149.604	800.000	0.034	0.136
-148.589	207.417	0.231	-0.355
-147.574	52.930	-0.093	-0.087
-146.560	221.766	0.115	0.183
-145.545	-200.000	0.036	0.271
-144.531	-141.327	-0.563	0.056
-143.516	-73.064	-0.181	-0.065
-142.502	-200.000	0.006	0.139
-141.487	-25.543	0.141	-0.082
-140.472	-53.467	-0.318	-0.143
-139.458	219.948	-0.030	-0.048
-138.443	54.021	0.119	-0.113
-137.429	-104.720	-0.226	-0.051
-136.414	22.015	0.056	0.045
-135.399	-17.076	-0.068	0.042
-134.385	19.040	0.048	-0.038
-133.370	-99.425	0.163	0.040
-132.356	-200.000	0.046	0.383
-131.341	-200.000	-0.034	0.344
-130.326	25.219	-0.242	0.198
-129.312	-134.353	0.102	-0.012
-128.297	-131.903	0.020	-0.003
-127.283	108.529	-0.079	0.092
-126.268	340.955	0.047	-0.090
-125.253	0.149	-0.103	0.072
-124.239	800.000	-0.016	0.050
-123.224	44.756	-0.294	-0.267
-122.210	800.000	0.038	0.132
-121.195	17.783	0.176	0.138
