DTS Sentinel unit serial number:	SN413079Multiplexer serial number:	ORYXHardware model number:	OX4-SRSoftware version number:	ORYX F/W v4.00 Oryx Data Collector v3.7.2.0data status	okinstallation	princeton_trtdifferential loss correction	single-endedforward channel	channel 2reverse channel	N/Adate	2019/09/12time	13:33:10forward acquisition time	60.00reverse acquisition time	0.00gamma	496.2192k internal	0.2296k external	0.2296temperature offset calibration	1.0083default loss term (dB/km)	0.3790temperature slope calibration	1.0000multiplexer offset coefficient	1.0000multiplexer slope coefficient	1.0000fibre end	0.00T internal ref (°C)	41.06T ext. ref 1 (°C)	2.10T ext. ref 2 (°C)	36.24length (m)	temperature (°C)	Stokes	anti-Stokes-747.200	-17.223	0.167	0.108
-746.185	-54.567	-0.257	-0.119
-745.171	-200.000	-0.048	-0.383
-744.156	-50.011	-0.088	0.042
-743.142	18.455	0.172	-0.141
-742.127	-200.000	-0.056	0.311
-741.112	-200.000	-0.013	-0.398
-740.098	-123.745	0.334	-0.054
-739.083	-73.920	-0.234	0.087
-738.069	800.000	-0.055	0.173
-737.054	-200.000	0.013	-0.109
-736.039	-35.308	-0.180	-0.100
-735.025	-72.157	0.301	0.114
-734.010	800.000	-0.069	-0.255
-732.996	498.834	-0.127	-0.298
-731.981	800.000	0.048	0.165
-730.966	158.383	0.114	0.162
-729.952	-200.000	0.021	-0.163
-728.937	13.818	0.224	-0.178
-727.923	320.698	-0.050	-0.097
-726.908	19.833	-0.390	0.321
-725.894	800.000	-0.065	0.217
-724.879	-200.000	0.072	-0.574
-723.864	-127.704	-0.259	-0.038
-722.850	-109.405	0.211	-0.045
-721.835	281.872	-0.180	0.329
-720.821	67.919	-0.177	-0.185
-719.806	800.000	0.076	-0.285
-718.791	800.000	0.137	0.413
-717.777	-200.000	0.015	0.336
-716.762	-200.000	0.032	0.184
-715.748	301.813	0.048	-0.090
-714.733	229.712	0.244	-0.406
-713.718	-120.287	-0.141	-0.025
-712.704	-74.087	-0.284	0.105
-711.689	615.271	-0.168	-0.431
-710.675	800.000	-0.170	-0.494
-709.660	-122.068	0.339	-0.057
-708.645	-200.000	-0.024	-0.248
-707.631	-154.505	0.187	0.013
-706.616	-200.000	-0.044	0.285
-705.602	156.450	0.210	0.296
-704.587	410.105	-0.047	0.102
-703.572	-33.226	-0.147	0.083
-702.558	145.748	0.045	0.061
-701.543	35.980	0.105	-0.094
-700.529	123.334	0.101	0.130
-699.514	-3.631	-0.168	0.119
-698.499	8.854	-0.278	0.214
-697.485	-200.000	-0.048	0.271
-696.470	800.000	-0.014	-0.042
-695.456	-61.700	-0.218	-0.093
-694.441	-126.937	-0.184	0.028
-693.426	800.000	-0.066	-0.221
-692.412	257.551	0.181	-0.317
-691.397	2.901	-0.069	-0.051
-690.383	1.495	-0.272	-0.199
-689.368	-200.000	0.004	-0.309
-688.354	466.082	-0.105	0.239
-687.339	26.223	0.287	0.244
-686.324	-200.000	-0.068	-0.368
-685.310	-11.080	-0.286	0.192
-684.295	-200.000	0.082	-0.404
-683.281	658.847	0.118	-0.309
-682.266	151.846	0.028	0.039
-681.251	341.906	0.038	-0.075
-680.237	114.879	0.163	0.202
-679.222	124.961	0.081	0.104
-678.208	-73.625	-0.260	-0.097
-677.193	-105.385	-0.320	0.074
-676.178	43.999	0.068	-0.064
-675.164	-99.196	-0.300	-0.077
-674.149	-180.200	-0.148	0.003
-673.135	-16.467	0.211	0.136
-672.120	-48.180	-0.186	-0.092
-671.105	7.405	-0.124	0.094
-670.091	187.017	-0.180	0.274
-669.076	114.670	0.130	0.162
-668.062	-10.664	-0.169	0.114
-667.047	-28.184	0.218	-0.128
-666.032	-29.303	-0.044	-0.025
-665.018	800.000	-0.081	0.248
-664.003	1.117	0.278	-0.203
-662.989	475.692	0.039	-0.091
-661.974	-86.057	-0.186	-0.059
-660.959	-69.683	-0.105	-0.041
-659.945	74.984	0.074	-0.079
-658.930	138.470	0.076	-0.102
-657.916	-65.598	0.210	0.086
-656.901	800.000	0.054	0.193
-655.886	-56.681	0.416	0.188
-654.872	348.276	0.044	-0.088
-653.857	-128.305	-0.074	0.011
-652.843	-32.870	0.165	-0.093
-651.828	55.366	-0.148	0.146
-650.814	-200.000	0.023	-0.109
-649.799	-114.952	0.157	-0.030
-648.784	245.491	-0.080	-0.137
-647.770	-64.860	0.243	-0.100
-646.755	606.485	-0.064	0.162
-645.741	381.507	0.120	0.251
-644.726	-200.000	-0.033	0.266
-643.711	-18.113	-0.160	0.102
-642.697	165.452	0.142	-0.204
-641.682	196.247	-0.153	0.237
-640.668	-200.000	-0.022	0.234
-639.653	122.956	-0.394	-0.502
-638.638	505.096	0.059	-0.139
-637.624	-24.808	0.152	-0.092
-636.609	110.457	0.210	0.257
-635.595	800.000	0.112	0.412
-634.580	290.211	0.127	-0.235
-633.565	180.260	-0.076	-0.113
-632.551	-150.274	0.266	0.021
-631.536	-6.090	-0.071	-0.049
-630.522	-98.787	0.277	0.072
-629.507	67.668	-0.150	0.156
-628.492	-97.043	0.147	0.039
-627.478	-200.000	-0.030	-0.190
-626.463	-191.017	-0.148	0.002
-625.449	356.742	0.045	-0.090
-624.434	173.265	-0.182	-0.267
-623.419	102.318	0.082	0.098
-622.405	83.417	-0.156	0.172
-621.390	-19.274	-0.010	0.006
-620.376	-200.000	0.092	0.451
-619.361	705.503	-0.052	-0.141
-618.346	-28.698	-0.134	-0.079
-617.332	-104.810	0.258	-0.060
-616.317	-92.167	0.359	-0.103
-615.303	-117.554	-0.219	0.040
-614.288	-69.220	0.110	-0.043
-613.273	288.545	0.145	-0.266
-612.259	-137.863	0.356	-0.040
-611.244	-200.000	-0.030	0.291
-610.230	-93.049	-0.069	-0.020
-609.215	-200.000	-0.055	-0.286
-608.201	-66.595	-0.297	-0.120
-607.186	-0.571	-0.151	0.109
-606.171	-59.046	-0.425	-0.186
-605.157	113.013	0.137	-0.169
-604.142	-200.000	-0.038	0.197
-603.128	595.892	0.102	0.257
-602.113	104.339	-0.207	0.248
-601.098	-159.397	0.183	0.010
-600.084	-151.530	-0.119	0.009
-599.069	-160.997	-0.344	0.018
-598.055	546.855	-0.080	-0.195
-597.040	473.137	0.050	0.115
-596.025	-200.000	-0.012	-0.068
-595.011	70.254	-0.149	-0.157
-593.996	273.086	-0.107	-0.192
-592.982	142.019	0.292	-0.394
-591.967	800.000	-0.068	0.209
-590.952	11.281	-0.174	0.136
-589.938	800.000	-0.065	-0.230
-588.923	189.075	-0.081	-0.123
-587.909	-200.000	0.019	0.132
-586.894	-108.443	-0.274	-0.060
-585.879	25.508	-0.188	0.159
-584.865	-137.635	0.152	0.017
-583.850	560.206	0.074	-0.182
-582.836	-200.000	0.032	-0.307
-581.821	131.473	0.032	-0.041
-580.806	-62.126	0.219	-0.093
-579.792	800.000	0.039	-0.156
-578.777	800.000	0.061	0.230
-577.763	133.990	-0.041	0.054
-576.748	211.067	-0.122	0.195
-575.733	-33.384	-0.078	-0.044
-574.719	-54.577	-0.307	-0.141
-573.704	-118.504	-0.369	-0.066
-572.690	-158.742	0.245	0.014
-571.675	263.649	-0.050	-0.088
-570.661	39.772	0.115	-0.105
-569.646	-69.880	-0.186	0.072
-568.631	-77.985	-0.038	0.013
-567.617	-65.473	0.422	-0.172
-566.602	-71.910	-0.083	-0.031
-565.588	-200.000	-0.027	-0.155
-564.573	-193.305	-0.423	-0.004
-563.558	-14.047	-0.037	0.024
-562.544	-1.968	-0.202	0.144
-561.529	-200.000	0.016	-0.109
-560.515	-200.000	-0.003	-0.050
-559.500	-145.179	-0.237	0.022
-558.485	-143.347	0.277	0.027
-557.471	147.088	-0.260	0.355
-556.456	-200.000	0.016	-0.117
-555.442	234.200	-0.086	0.143
-554.427	254.405	-0.056	0.097
-553.412	-7.701	-0.088	0.060
-552.398	112.220	0.246	-0.302
-551.383	255.149	-0.044	0.076
-550.369	800.000	0.081	0.346
-549.354	-19.032	-0.292	-0.184
-548.339	538.386	-0.093	0.225
-547.325	-37.715	-0.136	0.073
-546.310	-61.904	0.205	0.087
-545.296	-200.000	0.080	-0.554
-544.281	143.757	-0.110	-0.149
-543.266	19.878	0.180	0.147
-542.252	-42.940	-0.098	0.050
-541.237	89.502	-0.116	0.131
-540.223	-131.216	-0.351	-0.047
-539.208	244.109	-0.114	0.193
-538.193	157.937	-0.047	0.065
-537.179	65.365	-0.044	-0.045
-536.164	-68.917	-0.145	-0.057
-535.150	800.000	0.059	-0.182
-534.135	244.180	-0.110	0.187
-533.121	49.220	0.083	-0.079
-532.106	655.365	0.149	-0.387
-531.091	269.899	-0.022	0.040
-530.077	-161.177	-0.258	0.014
-529.062	-66.177	-0.099	0.040
-528.048	-62.976	0.194	0.081
-527.033	-15.156	0.504	-0.327
-526.018	218.619	-0.311	-0.503
-525.004	-138.329	0.122	0.014
-523.989	-68.344	0.186	-0.073
-522.975	89.096	-0.213	0.240
-521.960	-200.000	0.031	0.353
-520.945	800.000	-0.011	0.041
-519.931	211.548	0.026	0.042
-518.916	-200.000	0.027	-0.125
-517.902	-200.000	-0.007	-0.184
-516.887	-200.000	-0.002	-0.130
-515.872	17.706	-0.203	0.163
-514.858	478.482	0.040	-0.093
-513.843	184.569	-0.151	0.226
-512.829	81.955	0.012	0.013
-511.814	-129.740	0.071	0.010
-510.799	-27.610	0.163	0.096
-509.785	568.075	-0.065	0.159
-508.770	-200.000	-0.023	0.127
-507.756	-83.176	-0.490	-0.159
-506.741	-127.056	-0.088	-0.013
-505.726	-115.414	0.436	0.083
-504.712	-200.000	0.024	0.174
-503.697	800.000	-0.056	-0.155
-502.683	158.132	0.201	-0.282
-501.668	-33.701	0.101	-0.056
-500.653	-53.326	0.340	-0.158
-499.639	800.000	-0.106	0.392
-498.624	800.000	0.040	0.114
-497.610	800.000	0.061	0.191
-496.595	693.408	0.147	-0.391
-495.581	84.352	0.099	0.109
-494.566	-101.751	-0.213	0.052
-493.551	800.000	0.041	-0.140
-492.537	38.492	-0.074	0.067
-491.522	-126.084	0.133	-0.020
-490.508	154.129	0.170	-0.236
-489.493	-49.963	-0.090	-0.043
-488.478	-92.401	0.386	-0.110
-487.464	-57.283	0.214	0.095
-486.449	800.000	-0.096	0.351
-485.435	-55.087	-0.143	-0.065
-484.420	209.359	-0.193	0.307
-483.405	425.169	0.221	-0.480
-482.391	-176.648	0.220	0.006
-481.376	339.337	0.095	0.188
-480.362	80.298	0.111	-0.121
-479.347	-187.429	0.266	0.004
-478.332	228.419	0.095	0.156
-477.318	91.161	0.144	0.163
-476.303	-200.000	-0.007	-0.088
-475.289	17.917	0.460	-0.370
-474.274	76.535	-0.113	0.121
-473.259	-76.908	0.284	0.100
-472.245	-7.192	0.242	0.166
-471.230	306.075	0.172	0.324
-470.216	-200.000	0.062	-0.281
-469.201	-133.351	0.031	-0.004
-468.186	-101.747	-0.132	0.032
-467.172	796.011	0.126	-0.350
-466.157	121.544	0.225	-0.284
-465.143	275.183	0.154	-0.276
-464.128	310.771	0.043	0.082
-463.113	239.164	0.082	0.137
-462.099	-200.000	0.023	0.118
-461.084	-9.080	0.162	0.109
-460.070	-108.522	0.307	0.067
-459.055	0.930	0.022	-0.016
-458.040	800.000	0.106	-0.371
-457.026	-101.501	0.290	0.071
-456.011	-148.386	-0.127	0.011
-454.997	70.863	0.052	0.054
-453.982	10.356	0.200	0.154
-452.968	-200.000	0.045	-0.210
-451.953	-200.000	-0.000	0.175
-450.938	-200.000	0.014	-0.085
-449.924	84.417	0.059	0.065
-448.909	-122.971	0.167	0.027
-447.895	-200.000	0.072	-0.342
-446.880	414.017	-0.128	-0.274
-445.865	83.341	-0.162	0.178
-444.851	55.474	0.050	0.049
-443.836	800.000	-0.061	-0.227
-442.822	-65.118	-0.276	0.112
-441.807	-135.901	0.290	-0.035
-440.792	-59.870	-0.130	0.056
-439.778	8.274	0.312	0.237
-438.763	-12.526	-0.179	-0.118
-437.749	-200.000	-0.149	0.000
-436.734	800.000	0.061	-0.195
-435.719	-200.000	-0.035	0.245
-434.705	239.760	0.197	0.331
-433.690	-33.697	0.217	-0.121
-432.676	-74.821	0.043	0.016
-431.661	800.000	-0.072	0.280
-430.646	20.997	-0.315	-0.258
-429.632	23.639	0.088	-0.073
-428.617	-54.088	-0.089	0.041
-427.603	93.303	-0.133	-0.152
-426.588	-180.329	0.136	-0.003
-425.573	-155.159	-0.507	0.033
-424.559	-147.942	-0.278	-0.023
-423.544	-200.000	0.014	-0.302
-422.530	94.679	0.110	-0.126
-421.515	-123.614	0.048	-0.008
-420.500	800.000	0.098	0.353
-419.486	-200.000	-0.057	0.343
-418.471	-200.000	-0.030	0.319
-417.457	193.954	0.116	-0.177
-416.442	-16.225	-0.351	-0.225
-415.428	141.766	0.121	0.161
-414.413	710.099	0.032	-0.087
-413.398	-4.916	-0.257	0.178
-412.384	800.000	-0.014	-0.047
-411.369	-155.120	0.126	-0.008
-410.355	40.482	-0.057	0.051
-409.340	-45.724	-0.321	0.160
-408.325	800.000	-0.070	-0.220
-407.311	-69.647	0.171	0.066
-406.296	120.450	-0.207	0.259
-405.282	176.540	-0.225	-0.330
-404.267	250.030	0.259	-0.443
-403.252	-29.174	-0.127	0.074
-402.238	-200.000	0.084	0.448
-401.223	366.042	0.194	-0.394
-400.209	542.336	-0.170	-0.409
-399.194	-200.000	0.044	0.226
-398.179	-200.000	-0.002	0.370
-397.165	800.000	0.090	-0.292
-396.150	151.392	-0.093	-0.128
-395.136	-200.000	0.007	0.033
-394.121	-146.857	-0.181	0.016
-393.106	399.232	0.155	0.327
-392.092	-58.807	0.299	0.130
-391.077	800.000	0.083	0.254
-390.063	-200.000	0.078	0.431
-389.048	800.000	-0.111	0.311
-388.033	-70.524	0.196	-0.075
-387.019	111.476	0.166	-0.202
-386.004	127.071	-0.130	0.166
-384.990	179.205	0.055	-0.081
-383.975	111.197	-0.088	0.107
-382.960	14.117	0.174	-0.137
-381.946	251.644	-0.025	0.043
-380.931	25.134	-0.402	-0.336
-379.917	-200.000	0.016	-0.265
-378.902	-47.859	-0.193	-0.094
-377.888	61.753	-0.196	-0.197
-376.873	382.310	-0.038	0.078
-375.858	-200.000	0.026	0.270
-374.844	-24.888	0.247	0.148
-373.829	-56.920	-0.134	-0.060
-372.815	-107.475	0.124	0.027
-371.800	-152.054	0.061	-0.004
-370.785	35.491	0.200	-0.177
-369.771	-200.000	-0.011	0.252
-368.756	620.551	0.016	0.040
-367.742	23.573	0.050	0.042
-366.727	-131.231	-0.434	-0.058
-365.712	-200.000	-0.036	0.188
-364.698	-200.000	0.027	0.196
-363.683	30.802	-0.239	-0.206
-362.669	-41.573	0.396	-0.205
-361.654	800.000	-0.090	-0.279
-360.639	181.213	-0.127	0.188
-359.625	800.000	-0.075	0.265
-358.610	800.000	0.031	-0.114
-357.596	225.845	-0.103	-0.168
-356.581	-6.329	-0.194	-0.133
-355.566	-140.572	0.419	0.044
-354.552	-200.000	0.016	-0.097
-353.537	-55.866	0.125	0.056
-352.523	-121.193	-0.256	0.043
-351.508	-182.606	0.301	0.006
-350.493	295.579	-0.062	-0.114
-349.479	80.050	-0.142	0.154
-348.464	-76.538	0.173	-0.061
-347.450	-74.091	-0.025	0.009
-346.435	133.855	0.056	0.073
-345.420	744.194	0.040	0.107
-344.406	99.440	-0.259	-0.301
-343.391	800.000	0.089	0.249
-342.377	-146.200	0.350	0.031
-341.362	-34.266	0.141	0.078
-340.348	-8.084	0.191	0.129
-339.333	-41.066	-0.100	-0.052
-338.318	-200.000	-0.009	0.123
-337.304	35.991	0.228	-0.202
-336.289	-64.178	-0.317	-0.130
-335.275	-53.591	-0.303	-0.139
-334.260	-52.928	-0.056	-0.026
-333.245	223.856	0.122	0.199
-332.231	-165.179	0.181	0.008
-331.216	-115.756	0.280	0.053
-330.202	-200.000	0.014	0.236
-329.187	-85.048	-0.107	0.034
-328.172	109.820	-0.149	-0.180
-327.158	800.000	0.012	0.041
-326.143	-200.000	0.049	0.355
-325.129	-182.697	-0.222	0.004
-324.114	-200.000	-0.018	-0.272
-323.099	127.140	0.093	-0.118
-322.085	79.909	0.126	-0.136
-321.070	-63.149	-0.175	0.072
-320.056	19.873	-0.111	-0.090
-319.041	160.954	-0.178	-0.250
-318.026	-200.000	-0.054	-0.301
-317.012	-200.000	0.002	0.028
-315.997	-110.572	-0.117	-0.024
-314.983	-200.000	0.018	-0.165
-313.968	-92.094	0.071	-0.020
-312.953	-200.000	-0.014	-0.104
-311.939	209.894	0.048	-0.076
-310.924	-34.086	-0.115	0.063
-309.910	-23.183	0.117	0.071
-308.895	230.938	-0.109	0.179
-307.880	-136.937	-0.299	-0.034
-306.866	-200.000	0.023	0.311
-305.851	66.547	-0.185	-0.189
-304.837	-200.000	-0.021	0.272
-303.822	800.000	-0.064	-0.193
-302.807	170.399	0.176	0.253
-301.793	56.033	0.147	0.143
-300.778	-62.363	-0.306	-0.128
-299.764	-105.220	-0.140	0.032
-298.749	-39.919	0.033	-0.017
-297.735	76.993	0.074	-0.079
-296.720	-200.000	-0.041	0.200
-295.705	800.000	-0.056	0.173
-294.691	582.202	-0.056	-0.139
-293.676	397.444	0.043	0.089
-292.662	-27.598	-0.226	-0.132
-291.647	800.000	0.045	-0.127
-290.632	268.988	0.043	-0.075
-289.618	493.904	-0.025	-0.057
-288.603	152.416	-0.041	-0.056
-287.589	36.017	0.051	-0.045
-286.574	71.390	0.097	0.101
-285.559	-130.967	-0.343	0.046
-284.545	-114.767	-0.174	0.033
-283.530	-200.000	0.028	0.153
-282.516	677.611	-0.008	-0.021
-281.501	-158.669	0.037	-0.002
-280.486	100.686	-0.084	-0.098
-279.472	20.203	-0.113	0.091
-278.457	-73.617	-0.247	-0.090
-277.443	-32.109	-0.113	0.063
-276.428	452.613	0.180	0.399
-275.413	-200.000	0.008	0.182
-274.399	200.645	0.099	-0.152
-273.384	-9.716	0.231	-0.155
-272.370	38.884	-0.075	0.068
-271.355	240.191	0.048	-0.080
-270.340	-0.397	-0.327	-0.233
-269.326	-101.826	-0.202	0.049
-268.311	60.876	-0.200	0.199
-267.297	25.150	-0.250	0.208
-266.282	-42.080	0.422	-0.217
-265.267	462.788	-0.140	0.313
-264.253	91.746	0.097	0.110
-263.238	460.309	0.106	0.237
-262.224	-21.778	-0.079	0.048
-261.209	800.000	-0.064	-0.224
-260.195	557.403	-0.106	0.257
-259.180	7.498	-0.187	-0.140
-258.165	-200.000	0.013	-0.149
-257.151	-200.000	0.039	0.210
-256.136	-200.000	-0.028	-0.294
-255.122	-200.000	0.036	-0.258
-254.107	-6.067	0.147	-0.101
-253.092	353.086	-0.105	-0.210
-252.078	55.409	0.189	-0.183
-251.063	-53.980	0.056	-0.026
-250.049	-116.616	0.160	0.030
-249.034	155.172	0.208	0.287
-248.019	-200.000	0.065	-0.422
-247.005	-200.000	0.019	0.380
-245.990	301.177	-0.072	-0.133
-244.976	124.805	-0.246	0.310
-243.961	154.908	-0.039	0.053
-242.946	-200.000	-0.036	-0.332
-241.932	-200.000	-0.007	-0.183
-240.917	-96.762	0.174	-0.046
-239.903	-200.000	0.067	0.299
-238.888	638.470	-0.034	0.088
-237.873	-200.000	-0.002	-0.270
-236.859	46.753	-0.179	-0.167
-235.844	-24.110	0.339	0.203
-234.830	13.850	-0.060	0.047
-233.815	-115.174	-0.216	-0.041
-232.800	800.000	0.072	-0.224
-231.786	-26.624	0.255	0.149
-230.771	178.388	0.105	0.153
-229.757	289.775	0.044	-0.080
-228.742	800.000	0.046	-0.154
-227.727	-99.170	-0.279	-0.071
-226.713	-32.265	-0.137	-0.077
-225.698	-3.291	-0.201	-0.140
-224.684	15.866	0.168	0.132
-223.669	180.392	-0.156	-0.229
-222.655	-29.800	0.231	-0.132
-221.640	-152.277	-0.280	0.020
-220.625	-200.000	-0.026	0.368
-219.611	-98.908	-0.203	-0.052
-218.596	-200.000	-0.001	0.074
-217.582	-200.000	-0.019	0.131
-216.567	800.000	0.008	0.027
-215.552	-11.589	0.312	0.205
-214.538	92.188	-0.207	0.233
-213.523	-146.206	0.244	0.021
-212.509	476.114	0.098	0.222
-211.494	-123.810	0.229	-0.036
-210.479	55.901	0.017	0.017
-209.465	-134.193	-0.247	-0.030
-208.450	-115.911	0.367	0.069
-207.436	800.000	0.121	-0.412
-206.421	-132.839	0.055	-0.007
-205.406	-200.000	-0.001	0.237
-204.392	-66.579	0.090	0.036
-203.377	22.649	-0.076	0.062
-202.363	-200.000	-0.007	0.087
-201.348	-47.573	0.156	-0.076
-200.333	800.000	0.052	-0.161
-199.319	-200.000	0.065	0.310
-198.304	-142.599	-0.146	0.014
-197.290	153.157	0.329	0.450
-196.275	-149.236	-0.393	0.031
-195.260	800.000	-0.035	-0.112
-194.246	-200.000	0.005	0.312
-193.231	-19.053	-0.236	-0.147
-192.217	-52.899	0.221	0.102
-191.202	-62.077	0.311	-0.130
-190.187	513.839	0.081	0.189
-189.173	580.809	-0.114	0.280
-188.158	-145.597	-0.385	0.034
-187.144	-18.285	-0.141	0.088
-186.129	-200.000	0.001	0.039
-185.114	-47.889	0.179	-0.087
-184.100	167.169	-0.291	-0.413
-183.085	800.000	-0.049	-0.155
-182.071	472.282	0.145	0.327
-181.056	2.146	0.072	-0.052
-180.042	159.885	0.024	0.033
-179.027	-44.616	0.123	-0.061
-178.012	446.015	0.173	-0.380
-176.998	483.116	0.116	-0.264
-175.983	-200.000	0.010	-0.144
-174.969	4.376	-0.264	0.193
-173.954	-124.658	-0.063	0.010
-172.939	-2.762	0.066	0.046
-171.925	452.709	0.040	-0.087
-170.910	3.807	-0.253	-0.185
-169.896	-200.000	-0.004	-0.101
-168.881	-200.000	0.021	0.108
-167.866	-3.843	-0.178	0.123
-166.852	205.859	-0.091	0.142
-165.837	-200.000	-0.003	-0.033
-164.823	-23.177	0.232	-0.139
-163.808	800.000	-0.011	-0.042
-162.793	-32.613	0.080	0.044
-161.779	-200.000	0.004	-0.208
-160.764	52.865	-0.361	0.345
-159.750	-19.962	-0.217	-0.134
-158.735	800.000	0.068	-0.209
-157.720	307.784	0.049	0.091
-156.706	-20.077	0.123	-0.076
-155.691	-140.235	0.488	-0.051
-154.677	800.000	-0.043	-0.172
-153.662	-200.000	0.004	0.217
-152.647	-200.000	0.012	0.299
-151.633	108.409	0.135	0.160
-150.618	-200.000	-0.001	0.008
-149.604	65.318	0.164	0.165
-148.589	-200.000	-0.007	-0.092
-147.574	500.260	-0.111	0.256
-146.560	-52.747	0.156	0.072
-145.545	-16.447	-0.032	-0.020
-144.531	-134.653	-0.377	0.046
-143.516	-3.429	0.123	0.085
-142.502	127.685	0.062	0.078
-141.487	-200.000	0.003	0.120
-140.472	-86.476	0.214	0.066
-139.458	647.421	0.098	-0.249
-138.443	-103.354	-0.667	0.157
-137.429	94.473	-0.076	-0.086
-136.414	115.374	0.142	0.173
-135.399	800.000	0.091	-0.314
-134.385	163.824	-0.073	0.103
-133.370	-28.302	0.187	-0.108
-132.356	-200.000	0.010	-0.221
-131.341	-86.850	-0.364	-0.111
-130.326	-124.975	-0.227	-0.035
-129.312	75.063	-0.083	0.087
-128.297	-119.178	-0.308	-0.054
-127.283	228.471	-0.103	0.167
-126.268	-5.194	0.245	0.168
-125.253	-131.705	0.119	-0.016
-124.239	6.787	-0.144	-0.107
-123.224	323.792	-0.102	0.194
-122.210	-200.000	-0.033	-0.240
-121.195	34.687	-0.135	-0.118
