DTS Sentinel unit serial number:	SN413079Multiplexer serial number:	ORYXHardware model number:	OX4-SRSoftware version number:	ORYX F/W v4.00 Oryx Data Collector v3.7.2.0data status	okinstallation	princeton_trtdifferential loss correction	single-endedforward channel	channel 2reverse channel	N/Adate	2019/09/14time	17:51:35forward acquisition time	60.00reverse acquisition time	0.00gamma	496.2192k internal	0.2312k external	0.2312temperature offset calibration	1.0111default loss term (dB/km)	0.3790temperature slope calibration	1.0000multiplexer offset coefficient	1.0000multiplexer slope coefficient	1.0000fibre end	0.00T internal ref (°C)	37.44T ext. ref 1 (°C)	5.02T ext. ref 2 (°C)	32.40length (m)	temperature (°C)	Stokes	anti-Stokes-747.200	179.151	-0.062	-0.092
-746.185	800.000	0.061	-0.203
-745.171	-125.512	-0.266	0.041
-744.156	152.969	0.129	0.178
-743.142	800.000	0.068	0.245
-742.127	71.588	-0.212	0.224
-741.112	164.367	-0.188	0.269
-740.098	54.555	-0.200	0.196
-739.083	0.870	-0.187	0.136
-738.069	175.110	-0.235	0.346
-737.054	76.280	0.140	-0.151
-736.039	-147.245	-0.239	0.021
-735.025	-171.531	-0.220	0.007
-734.010	28.214	-0.103	-0.088
-732.996	-102.982	-0.118	0.028
-731.981	-70.591	-0.175	-0.067
-730.966	-84.680	0.186	-0.059
-729.952	-19.026	-0.322	-0.203
-728.937	340.659	-0.179	-0.354
-727.923	-63.930	0.184	0.076
-726.908	43.764	-0.007	-0.007
-725.894	-24.913	-0.217	0.131
-724.879	757.169	-0.035	-0.096
-723.864	60.571	0.254	0.255
-722.850	-3.833	0.253	-0.178
-721.835	783.542	0.134	-0.372
-720.821	-81.653	-0.099	-0.033
-719.806	525.755	0.043	0.103
-718.791	800.000	-0.027	0.091
-717.777	-23.539	-0.063	-0.038
-716.762	27.462	-0.114	0.097
-715.748	-33.586	0.242	-0.135
-714.733	800.000	-0.027	0.107
-713.718	-200.000	-0.023	0.119
-712.704	800.000	0.063	0.250
-711.689	-200.000	-0.027	0.144
-710.675	800.000	0.051	-0.184
-709.660	800.000	0.035	0.131
-708.645	-16.837	0.240	-0.154
-707.631	15.678	-0.239	0.190
-706.616	182.277	-0.154	0.230
-705.602	-78.626	-0.155	0.054
-704.587	375.235	-0.121	0.251
-703.572	-92.473	-0.120	0.034
-702.558	-49.834	0.128	0.062
-701.543	-200.000	-0.029	-0.169
-700.529	115.329	0.113	-0.140
-699.514	332.061	-0.144	-0.282
-698.499	-22.509	-0.123	0.075
-697.485	4.080	0.109	0.081
-696.470	-7.648	0.165	0.113
-695.456	9.465	-0.133	-0.102
-694.441	184.068	-0.134	-0.201
-693.426	-21.906	0.325	0.200
-692.412	-112.536	0.292	0.059
-691.397	555.284	0.029	0.071
-690.383	137.076	-0.096	0.127
-689.368	243.520	0.063	-0.107
-688.354	800.000	0.060	-0.203
-687.339	-61.330	0.196	-0.084
-686.324	-200.000	-0.004	0.047
-685.310	-172.331	0.274	0.009
-684.295	-139.578	0.319	0.034
-683.281	-200.000	-0.011	0.384
-682.266	800.000	-0.026	0.116
-681.251	726.248	-0.070	0.189
-680.237	480.663	-0.094	0.215
-679.222	275.223	-0.091	0.164
-678.208	-200.000	0.015	-0.231
-677.193	11.334	-0.097	-0.075
-676.178	-200.000	-0.045	0.200
-675.164	-169.142	0.224	0.008
-674.149	-200.000	-0.023	0.394
-673.135	68.907	-0.057	0.059
-672.120	57.023	0.103	0.101
-671.105	-135.482	0.164	-0.020
-670.091	-200.000	0.049	0.452
-669.076	-79.783	0.230	-0.078
-668.062	63.238	-0.159	0.161
-667.047	431.791	0.103	0.225
-666.032	-83.838	-0.146	0.047
-665.018	-200.000	0.004	0.118
-664.003	-109.230	-0.163	0.035
-662.989	39.393	0.313	0.284
-661.974	97.423	-0.236	0.274
-660.959	-88.669	0.169	-0.051
-659.945	220.535	-0.151	-0.244
-658.930	-175.465	0.206	-0.006
-657.916	140.931	0.153	0.205
-656.901	-21.406	0.220	0.136
-655.886	800.000	-0.050	-0.198
-654.872	-40.613	-0.243	0.127
-653.857	353.385	0.179	-0.359
-652.843	-70.478	0.093	0.035
-651.828	-82.964	-0.377	0.123
-650.814	-59.977	-0.353	0.152
-649.799	-2.036	0.278	0.197
-648.784	54.642	0.183	-0.178
-647.770	723.795	-0.069	-0.186
-646.755	-50.532	-0.351	0.168
-645.741	300.562	0.092	-0.172
-644.726	-48.214	-0.230	-0.112
-643.711	-30.380	-0.025	-0.014
-642.697	-79.973	0.104	0.035
-641.682	-94.870	-0.119	-0.033
-640.668	22.722	0.035	-0.029
-639.653	800.000	-0.039	-0.133
-638.638	-35.969	-0.131	-0.072
-637.624	-153.803	0.305	-0.021
-636.609	437.872	-0.018	0.039
-635.595	-54.418	0.047	-0.022
-634.580	-200.000	-0.013	-0.089
-633.565	172.144	-0.056	-0.082
-632.551	137.606	-0.189	0.250
-631.536	-200.000	-0.036	0.160
-630.522	-129.128	-0.059	0.008
-629.507	-187.015	0.189	0.003
-628.492	645.675	-0.071	-0.183
-627.478	253.512	-0.230	-0.396
-626.463	800.000	-0.057	-0.172
-625.449	134.110	0.078	-0.101
-624.434	17.307	0.200	0.160
-623.419	-106.358	0.245	-0.055
-622.405	12.747	-0.104	0.081
-621.390	-4.454	-0.178	0.124
-620.376	57.303	-0.143	0.141
-619.361	-73.076	0.031	0.011
-618.346	-93.466	-0.156	0.044
-617.332	-200.000	0.013	-0.260
-616.317	-149.627	0.137	0.011
-615.303	180.903	0.157	0.233
-614.288	44.108	-0.030	0.028
-613.273	800.000	-0.049	-0.151
-612.259	-200.000	-0.057	0.317
-611.244	-124.129	-0.028	0.004
-610.230	-86.611	-0.075	0.023
-609.215	581.116	-0.016	-0.040
-608.201	-200.000	-0.026	0.124
-607.186	-18.530	-0.156	-0.098
-606.171	377.065	-0.232	-0.479
-605.157	-200.000	-0.031	-0.296
-604.142	-200.000	0.016	-0.145
-603.128	349.720	0.046	-0.091
-602.113	-8.695	-0.117	-0.080
-601.098	800.000	0.033	0.134
-600.084	-200.000	-0.014	0.086
-599.069	214.168	0.119	0.190
-598.055	-200.000	0.012	-0.110
-597.040	-200.000	-0.019	-0.247
-596.025	-200.000	-0.001	0.082
-595.011	-200.000	-0.007	0.197
-593.996	-200.000	-0.036	0.190
-592.982	490.079	0.064	-0.148
-591.967	-200.000	-0.000	-0.054
-590.952	-87.327	-0.238	0.073
-589.938	163.543	0.235	0.333
-588.923	-11.564	-0.424	-0.281
-587.909	99.557	-0.040	-0.046
-586.894	-102.226	-0.160	0.039
-585.879	-200.000	0.007	0.047
-584.865	261.368	-0.094	-0.164
-583.850	303.844	0.015	0.028
-582.836	-7.376	0.149	0.102
-581.821	388.200	0.055	0.115
-580.806	-191.309	-0.235	-0.002
-579.792	-158.985	-0.198	-0.011
-578.777	-145.871	0.147	0.013
-577.763	-142.006	-0.083	-0.008
-576.748	-15.311	-0.128	-0.082
-575.733	-37.696	-0.056	0.030
-574.719	-60.686	0.320	-0.137
-573.704	-33.805	0.146	0.081
-572.690	-63.860	0.271	0.112
-571.675	334.543	0.075	-0.147
-570.661	-200.000	0.015	0.077
-569.646	135.312	0.079	0.103
-568.631	-6.558	-0.053	-0.036
-567.617	-19.097	-0.121	0.076
-566.602	50.716	-0.049	0.046
-565.588	203.357	-0.171	0.267
-564.573	-92.731	-0.310	0.087
-563.558	-200.000	-0.069	-0.433
-562.544	278.020	0.042	-0.075
-561.529	800.000	0.041	0.125
-560.515	-122.796	0.194	0.032
-559.500	-167.899	-0.286	-0.011
-558.485	637.583	0.179	0.458
-557.471	800.000	-0.056	0.164
-556.456	97.637	-0.219	-0.254
-555.442	163.566	-0.043	0.061
-554.427	-200.000	-0.013	0.180
-553.412	-113.302	0.301	0.060
-552.398	408.839	-0.050	-0.107
-551.383	281.007	-0.194	-0.350
-550.369	-200.000	0.023	0.281
-549.354	800.000	0.090	-0.300
-548.339	-200.000	-0.038	-0.184
-547.325	-118.711	-0.266	-0.047
-546.310	165.142	-0.134	-0.191
-545.296	-109.148	0.161	0.034
-544.281	-93.388	0.171	-0.048
-543.266	-200.000	0.050	-0.313
-542.252	-13.857	0.328	-0.213
-541.237	800.000	-0.123	0.412
-540.223	-81.868	0.031	-0.010
-539.208	-99.039	-0.106	-0.027
-538.193	-155.809	0.189	0.012
-537.179	-150.182	-0.069	-0.005
-536.164	460.657	0.137	-0.306
-535.150	532.195	-0.027	-0.063
-534.135	-122.720	-0.073	-0.012
-533.121	-53.255	-0.112	-0.052
-532.106	703.937	-0.132	0.350
-531.091	-18.240	-0.053	0.034
-530.077	800.000	0.060	0.253
-529.062	-161.508	0.176	-0.009
-528.048	309.175	-0.201	-0.379
-527.033	-142.860	-0.124	0.012
-526.018	-85.297	0.266	-0.084
-525.004	-139.704	0.318	-0.034
-523.989	-12.431	-0.243	-0.160
-522.975	-115.271	-0.218	0.042
-521.960	-119.377	0.164	0.029
-520.945	-109.194	0.174	-0.037
-519.931	18.455	-0.127	-0.102
-518.916	-200.000	0.030	0.158
-517.902	-12.777	0.020	-0.013
-516.887	-43.748	0.191	0.097
-515.872	800.000	0.114	0.366
-514.858	-1.073	0.158	0.113
-513.843	-200.000	0.014	0.117
-512.829	-105.823	0.068	-0.015
-511.814	32.538	0.118	0.103
-510.799	800.000	0.045	0.151
-509.785	517.505	0.144	-0.338
-508.770	106.402	-0.183	0.218
-507.756	177.728	0.176	-0.258
-506.741	366.668	0.058	0.117
-505.726	-26.127	0.149	0.088
-504.712	-114.022	-0.184	0.036
-503.697	800.000	0.132	-0.369
-502.683	-200.000	0.025	-0.145
-501.668	-74.948	0.246	-0.089
-500.653	-4.001	-0.413	0.288
-499.639	110.692	0.208	0.252
-498.624	-56.920	0.210	-0.093
-497.610	-200.000	0.025	0.203
-496.595	-61.043	-0.180	-0.076
-495.581	182.117	0.087	0.129
-494.566	103.183	-0.119	-0.140
-493.551	274.214	0.143	-0.255
-492.537	-27.624	0.221	-0.129
-491.522	-91.256	-0.100	-0.029
-490.508	-42.439	0.182	-0.093
-489.493	800.000	0.035	-0.121
-488.478	-136.346	-0.159	-0.019
-487.464	180.065	-0.114	-0.168
-486.449	-200.000	0.010	-0.376
-485.435	4.954	0.258	-0.191
-484.420	-131.224	0.137	-0.018
-483.405	-200.000	0.036	0.424
-482.391	-12.310	0.157	-0.103
-481.376	306.365	0.073	0.137
-480.362	-200.000	0.039	0.254
-479.347	248.872	-0.279	0.475
-478.332	42.176	-0.160	0.146
-477.318	80.529	0.047	0.050
-476.303	-130.208	0.305	0.042
-475.289	-94.486	-0.171	0.047
-474.274	-54.053	-0.086	0.039
-473.259	-112.690	-0.190	0.038
-472.245	-67.950	-0.185	-0.072
-471.230	-73.033	0.355	0.131
-470.216	216.305	0.085	0.135
-469.201	-24.804	0.419	-0.250
-468.186	-37.659	-0.154	0.082
-467.172	184.194	0.053	0.079
-466.157	-28.901	-0.234	-0.135
-465.143	-119.212	-0.222	-0.039
-464.128	-140.639	0.433	-0.045
-463.113	23.060	0.079	0.065
-462.099	48.769	-0.253	0.238
-461.084	-200.000	-0.031	0.210
-460.070	696.249	-0.038	-0.099
-459.055	-30.225	-0.372	-0.212
-458.040	35.058	0.363	-0.319
-457.026	-200.000	-0.007	-0.263
-456.011	-200.000	0.069	-0.392
-454.997	50.695	-0.245	0.233
-453.982	-13.116	-0.228	-0.148
-452.968	-130.622	0.289	-0.039
-451.953	-49.815	-0.282	0.134
-450.938	-200.000	0.272	0.001
-449.924	16.320	0.215	-0.170
-448.909	108.510	-0.069	-0.082
-447.895	20.534	0.085	0.069
-446.880	70.546	-0.257	-0.267
-445.865	-200.000	-0.043	-0.289
-444.851	-26.593	-0.121	-0.071
-443.836	-131.847	0.119	0.016
-442.822	-57.972	-0.090	-0.039
-441.807	-32.109	0.113	0.063
-440.792	-200.000	-0.009	-0.128
-439.778	-200.000	-0.016	-0.179
-438.763	-133.432	-0.152	0.019
-437.749	-134.482	-0.080	-0.010
-436.734	17.557	0.158	-0.126
-435.719	131.167	-0.057	0.074
-434.705	-51.229	0.131	0.061
-433.690	800.000	0.138	-0.441
-432.676	8.946	-0.108	0.082
-431.661	-6.701	0.241	-0.164
-430.646	-200.000	-0.019	-0.155
-429.632	590.766	0.048	0.118
-428.617	130.066	-0.087	0.112
-427.603	383.326	0.111	-0.230
-426.588	800.000	0.102	0.303
-425.573	-96.936	0.152	0.040
-424.559	184.333	0.149	0.222
-423.544	5.944	0.075	0.056
-422.530	192.377	-0.105	0.158
-421.515	-161.882	-0.358	-0.018
-420.500	-200.000	-0.019	0.192
-419.486	-200.000	0.009	0.077
-418.471	6.823	0.114	0.085
-417.457	209.399	0.063	-0.099
-416.442	-177.752	0.115	0.003
-415.428	-79.933	0.163	-0.055
-414.413	-67.712	-0.142	0.056
-413.398	-132.415	0.310	-0.040
-412.384	35.883	0.152	-0.134
-411.369	-200.000	0.002	0.210
-410.355	260.406	0.066	-0.114
-409.340	-157.301	-0.078	0.005
-408.325	249.739	-0.098	0.166
-407.311	395.770	-0.098	-0.205
-406.296	-178.745	0.073	-0.002
-405.282	10.951	-0.134	0.102
-404.267	52.513	-0.220	0.210
-403.252	-62.737	-0.194	-0.080
-402.238	-91.464	0.217	-0.062
-401.223	209.830	0.104	0.163
-400.209	195.744	-0.140	-0.213
-399.194	-105.399	0.508	0.116
-398.179	-200.000	-0.014	0.195
-397.165	-86.227	0.192	-0.059
-396.150	52.414	-0.022	-0.021
-395.136	-127.697	0.111	0.016
-394.121	67.084	-0.096	0.098
-393.106	143.853	0.095	0.127
-392.092	-38.875	-0.157	-0.083
-391.077	26.589	-0.040	-0.034
-390.063	-20.779	-0.109	-0.067
-389.048	54.442	0.207	-0.199
-388.033	561.764	-0.062	-0.149
-387.019	-41.586	0.151	-0.078
-386.004	-53.742	-0.054	-0.025
-384.990	106.885	0.081	0.096
-383.975	-119.519	-0.212	-0.037
-382.960	72.135	0.246	-0.257
-381.946	-200.000	0.018	-0.084
-380.931	-200.000	0.007	-0.081
-379.917	247.756	0.049	-0.084
-378.902	800.000	-0.065	0.238
-377.888	-98.997	-0.204	-0.052
-376.873	399.508	0.126	-0.265
-375.858	82.354	0.134	-0.146
-374.844	575.771	0.074	-0.181
-373.829	-200.000	0.049	0.305
-372.815	-101.687	-0.168	0.041
-371.800	-83.271	0.235	0.075
-370.785	800.000	0.020	0.076
-369.771	-78.103	-0.179	-0.062
-368.756	95.588	-0.186	-0.212
-367.742	-88.617	0.185	0.055
-366.727	25.374	-0.195	0.162
-365.712	-14.710	0.142	0.091
-364.698	-200.000	-0.037	0.227
-363.683	136.498	0.206	0.269
-362.669	46.837	-0.264	-0.245
-361.654	800.000	0.062	-0.171
-360.639	113.172	0.095	0.115
-359.625	-80.123	0.173	-0.058
-358.610	363.108	0.017	0.035
-357.596	-62.945	-0.137	0.057
-356.581	-200.000	-0.032	-0.139
-355.566	162.075	-0.062	-0.086
-354.552	58.890	0.102	-0.100
-353.537	-83.469	0.067	0.021
-352.523	800.000	-0.148	-0.422
-351.508	800.000	-0.020	0.073
-350.493	12.400	-0.345	0.266
-349.479	326.740	-0.146	-0.280
-348.464	-6.756	-0.149	0.101
-347.450	213.566	-0.147	0.232
-346.435	140.159	0.068	-0.090
-345.420	-106.247	0.355	0.080
-344.406	46.580	0.088	-0.081
-343.391	-91.207	0.166	0.047
-342.377	112.232	-0.152	0.183
-341.362	800.000	-0.017	-0.073
-340.348	-56.229	0.105	0.047
-339.333	59.937	-0.083	-0.082
-338.318	289.114	-0.134	0.243
-337.304	201.125	-0.181	-0.278
-336.289	-20.189	-0.256	0.157
-335.275	150.012	0.097	-0.131
-334.260	-0.464	0.097	-0.069
-333.245	-200.000	0.011	0.226
-332.231	53.082	-0.171	0.163
-331.216	149.405	-0.272	0.368
-330.202	-142.661	0.138	0.013
-329.187	-59.420	0.288	0.124
-328.172	-200.000	0.001	0.101
-327.158	-200.000	-0.022	-0.133
-326.143	61.611	0.047	-0.046
-325.129	-2.980	0.132	-0.092
-324.114	600.225	-0.189	-0.468
-323.099	8.471	-0.061	0.046
-322.085	30.949	-0.134	0.115
-321.070	30.393	-0.262	0.224
-320.056	-134.985	0.242	0.029
-319.041	176.605	0.083	-0.120
-318.026	76.436	-0.105	-0.111
-317.012	-145.856	0.192	0.017
-315.997	-72.056	0.633	-0.235
-314.983	15.251	-0.292	-0.228
-313.968	-200.000	-0.034	0.153
-312.953	577.618	0.052	-0.127
-311.939	-49.778	0.171	-0.081
-310.924	-50.790	-0.100	0.047
-309.910	289.860	-0.110	-0.200
-308.895	-5.350	0.138	0.095
-307.880	470.294	0.078	-0.174
-306.866	-114.127	0.096	-0.018
-305.851	800.000	0.035	-0.126
-304.837	423.669	0.090	0.193
-303.822	214.768	-0.052	0.083
-302.807	215.684	-0.122	0.193
-301.793	-200.000	0.036	0.225
-300.778	-187.774	-0.287	-0.004
-299.764	-116.069	-0.167	-0.031
-298.749	252.278	-0.174	0.295
-297.735	-200.000	0.041	-0.208
-296.720	-181.986	-0.269	-0.005
-295.705	-72.937	-0.251	0.092
-294.691	-197.573	0.090	0.001
-293.676	253.920	-0.100	0.170
-292.662	14.690	0.108	0.084
-291.647	756.553	-0.113	0.304
-290.632	-200.000	0.001	0.110
-289.618	116.836	-0.203	0.248
-288.603	-200.000	-0.092	0.404
-287.589	99.837	0.067	0.077
-286.574	324.292	0.155	-0.295
-285.559	-163.955	0.257	-0.012
-284.545	-69.228	-0.152	-0.058
-283.530	800.000	-0.066	0.264
-282.516	-96.794	-0.291	0.076
-281.501	-37.389	0.218	-0.116
-280.486	-93.887	-0.105	0.029
-279.472	704.925	-0.041	0.108
-278.457	11.069	0.255	-0.194
-277.443	0.367	-0.125	-0.089
-276.428	-48.094	-0.328	0.158
-275.413	85.620	0.069	-0.075
-274.399	-200.000	0.028	-0.125
-273.384	-200.000	0.019	-0.211
-272.370	-105.106	-0.115	-0.026
-271.355	800.000	0.052	0.148
-270.340	586.370	-0.110	0.269
-269.326	-200.000	-0.017	0.244
-268.311	697.711	0.148	0.388
-267.297	-73.998	0.035	-0.013
-266.282	-14.361	-0.111	-0.071
-265.267	-124.768	0.026	0.004
-264.253	315.771	0.048	-0.090
-263.238	769.451	0.034	0.091
-262.224	-30.277	-0.173	0.098
-261.209	269.109	0.078	0.136
-260.195	169.853	-0.176	-0.250
-259.180	-200.000	-0.082	-0.366
-258.165	-200.000	0.017	0.199
-257.151	-145.294	0.118	-0.011
-256.136	287.161	0.118	0.212
-255.122	797.553	0.013	-0.036
-254.107	-54.956	0.201	-0.090
-253.092	-31.868	0.140	-0.078
-252.078	47.695	-0.177	0.165
-251.063	28.580	-0.057	0.048
-250.049	-65.516	0.206	0.082
-249.034	-29.089	-0.058	0.033
-248.019	-126.110	0.052	-0.008
-247.005	244.215	-0.186	0.311
-245.990	352.388	-0.169	-0.332
-244.976	62.958	0.140	0.139
-243.961	139.756	0.109	-0.144
-242.946	-43.176	-0.171	-0.086
-241.932	-200.000	-0.046	-0.203
-240.917	-200.000	-0.058	-0.360
-239.903	3.002	0.063	0.046
-238.888	800.000	0.017	-0.068
-237.873	62.853	-0.146	-0.145
-236.859	90.417	-0.091	-0.102
-235.844	65.512	-0.192	0.194
-234.830	-7.519	0.198	0.133
-233.815	-114.275	-0.038	-0.007
-232.800	-200.000	-0.054	-0.303
-231.786	163.903	-0.127	-0.178
-230.771	-79.423	0.273	0.092
-229.757	-48.828	0.122	0.058
-228.742	500.491	0.029	0.066
-227.727	489.017	-0.186	0.422
-226.713	291.738	-0.192	0.347
-225.698	-144.439	-0.279	-0.026
-224.684	-200.000	-0.068	-0.304
-223.669	4.540	0.124	0.091
-222.655	178.765	-0.103	0.150
-221.640	219.014	0.101	0.161
-220.625	214.490	0.195	0.307
-219.611	-45.488	-0.162	-0.080
-218.596	-65.072	0.145	-0.058
-217.582	-92.454	-0.237	0.066
-216.567	-129.194	0.224	-0.031
-215.552	-111.756	-0.045	0.009
-214.538	240.949	0.210	0.349
-213.523	-112.103	-0.141	-0.028
-212.509	-164.948	-0.416	-0.018
-211.494	-130.912	0.402	0.053
-210.479	-139.002	0.153	0.016
-209.465	-138.791	0.256	0.028
-208.450	-23.819	0.063	-0.038
-207.436	800.000	-0.010	-0.036
-206.421	-26.296	-0.138	-0.081
-205.406	19.980	0.205	-0.164
-204.392	7.426	-0.172	-0.127
-203.377	-7.373	-0.084	0.057
-202.363	-184.871	-0.097	-0.002
-201.348	-81.644	0.372	0.121
-200.333	56.217	0.138	0.133
-199.319	-81.159	-0.065	0.021
-198.304	-128.218	0.067	-0.010
-197.290	-200.000	-0.009	0.110
-196.275	-36.204	-0.052	-0.028
-195.260	800.000	0.058	-0.164
-194.246	-200.000	0.013	0.409
-193.231	-109.886	-0.081	-0.017
-192.217	634.577	-0.066	-0.167
-191.202	-140.960	-0.158	0.016
-190.187	100.115	-0.309	0.356
-189.173	-200.000	0.006	-0.043
-188.158	32.685	0.129	-0.111
-187.144	15.502	-0.148	0.116
-186.129	-200.000	0.045	0.254
-185.114	-132.115	0.329	-0.042
-184.100	43.086	-0.054	-0.049
-183.085	-133.862	0.081	-0.010
-182.071	-74.752	0.150	-0.054
-181.056	333.007	-0.051	0.097
-180.042	142.692	0.117	-0.154
-179.027	45.670	0.155	0.142
-178.012	800.000	-0.075	-0.209
-176.998	347.638	0.119	-0.233
-175.983	-49.682	-0.231	0.109
-174.969	4.208	-0.194	-0.141
-173.954	130.754	-0.128	0.162
-172.939	-157.913	-0.103	0.006
-171.925	-161.580	-0.161	-0.008
-170.910	-91.845	-0.204	-0.057
-169.896	-88.736	0.252	-0.074
-168.881	-200.000	0.011	-0.309
-167.866	-16.884	0.091	-0.057
-166.852	-200.000	-0.020	0.238
-165.837	334.577	0.102	0.195
-164.823	5.708	-0.108	0.079
-163.808	800.000	0.039	0.149
-162.793	-126.446	0.268	0.040
-161.779	-81.505	0.198	0.065
-160.764	-61.850	-0.331	0.137
-159.750	200.506	-0.082	0.124
-158.735	160.385	-0.214	-0.297
-157.720	122.133	0.136	0.169
-156.706	800.000	-0.005	0.020
-155.691	276.287	0.125	-0.219
-154.677	800.000	-0.103	-0.361
-153.662	133.131	0.050	-0.064
-152.647	-76.768	0.215	0.075
-151.633	-200.000	0.016	-0.205
-150.618	-25.416	0.310	-0.182
-149.604	85.196	-0.104	0.113
-148.589	392.910	0.147	0.304
-147.574	490.800	-0.142	0.322
-146.560	452.798	-0.109	0.239
-145.545	300.281	-0.048	0.088
-144.531	-200.000	-0.002	0.072
-143.516	-200.000	0.002	0.133
-142.502	-171.629	0.312	0.010
-141.487	-200.000	-0.018	-0.163
-140.472	-200.000	0.012	0.303
-139.458	-0.307	0.189	0.133
-138.443	41.132	0.195	0.174
-137.429	-200.000	-0.035	-0.231
-136.414	31.033	-0.063	0.054
-135.399	-104.165	-0.318	0.073
-134.385	-140.106	0.161	0.017
-133.370	-200.000	-0.024	0.108
-132.356	-200.000	-0.016	0.352
-131.341	-20.617	0.111	-0.068
-130.326	-200.000	0.046	0.290
-129.312	-133.060	0.057	-0.007
-128.297	-200.000	-0.011	0.146
-127.283	800.000	0.054	-0.155
-126.268	800.000	0.092	0.269
-125.253	-127.195	-0.197	-0.029
-124.239	-70.158	0.350	0.132
-123.224	-130.833	-0.102	-0.014
-122.210	-21.348	0.502	0.303
-121.195	-200.000	0.017	0.214
