DTS Sentinel unit serial number:	SN413079Multiplexer serial number:	ORYXHardware model number:	OX4-SRSoftware version number:	ORYX F/W v4.00 Oryx Data Collector v3.7.2.0data status	okinstallation	princeton_trtdifferential loss correction	single-endedforward channel	channel 2reverse channel	N/Adate	2019/09/12time	19:57:48forward acquisition time	15.00reverse acquisition time	0.00gamma	496.2192k internal	0.2326k external	0.2326temperature offset calibration	1.0170default loss term (dB/km)	0.3790temperature slope calibration	1.0000multiplexer offset coefficient	1.0000multiplexer slope coefficient	1.0000fibre end	0.00T internal ref (°C)	31.75T ext. ref 1 (°C)	3.44T ext. ref 2 (°C)	26.35length (m)	temperature (°C)	Stokes	anti-Stokes-747.200	-113.949	-0.492	0.096
-746.185	-88.215	0.615	-0.186
-745.171	28.662	0.496	0.424
-744.156	-43.521	-0.220	0.112
-743.142	-38.919	-1.034	0.549
-742.127	-200.000	0.083	-0.625
-741.112	-200.000	0.062	-0.406
-740.098	-5.532	0.471	0.326
-739.083	-200.000	-0.516	0.000
-738.069	22.233	-0.501	-0.412
-737.054	4.845	-0.469	-0.347
-736.039	450.221	0.407	-0.906
-735.025	-39.116	-0.498	-0.264
-734.010	-200.000	0.034	-0.478
-732.996	-200.000	-0.056	-1.199
-731.981	71.272	-0.357	-0.373
-730.966	-66.962	-0.394	0.157
-729.952	-104.734	0.412	-0.096
-728.937	-71.807	0.282	0.106
-727.923	800.000	-0.169	0.480
-726.908	-108.315	0.501	-0.109
-725.894	288.969	0.269	0.491
-724.879	12.408	-0.245	-0.190
-723.864	73.524	0.252	-0.266
-722.850	476.463	-0.444	-1.011
-721.835	239.212	0.045	-0.075
-720.821	167.574	-0.372	0.532
-719.806	-99.209	-0.750	0.191
-718.791	509.316	-0.266	0.623
-717.777	100.325	-0.351	-0.411
-716.762	-53.031	-0.681	0.316
-715.748	-131.313	-0.402	0.054
-714.733	800.000	0.165	0.570
-713.718	-200.000	0.019	0.200
-712.704	-63.802	0.243	0.100
-711.689	-65.457	-0.296	0.120
-710.675	51.591	-0.534	0.511
-709.660	800.000	0.193	0.635
-708.645	-200.000	-0.033	0.216
-707.631	-48.979	-0.202	0.097
-706.616	-182.566	0.338	-0.006
-705.602	-200.000	0.025	-0.669
-704.587	-2.752	0.416	-0.293
-703.572	116.845	-0.077	0.095
-702.558	800.000	0.202	0.861
-701.543	-94.730	0.547	-0.150
-700.529	-85.507	-0.443	0.139
-699.514	-113.220	0.141	-0.028
-698.499	-200.000	-0.086	0.612
-697.485	-129.682	0.626	-0.087
-696.470	-155.016	-0.680	0.045
-695.456	-75.022	-1.331	-0.480
-694.441	373.788	0.463	-0.947
-693.426	-200.000	0.042	0.406
-692.412	-200.000	0.025	-1.141
-691.397	-200.000	-0.047	0.287
-690.383	-55.454	-0.631	-0.285
-689.368	125.205	-0.185	-0.235
-688.354	-26.456	0.408	0.241
-687.339	411.605	-0.254	0.542
-686.324	-200.000	0.160	1.045
-685.310	-124.955	-0.626	0.097
-684.295	-200.000	0.036	0.331
-683.281	105.540	-0.203	0.241
-682.266	36.687	-0.453	-0.402
-681.251	-125.045	0.425	-0.066
-680.237	500.996	-0.018	0.041
-679.222	410.998	0.262	-0.560
-678.208	8.066	0.294	-0.222
-677.193	-86.649	-0.647	0.199
-676.178	-27.962	0.293	0.171
-675.164	-200.000	-0.251	-1.155
-674.149	-81.011	-0.270	-0.090
-673.135	-131.238	0.603	0.081
-672.120	53.905	-0.189	-0.183
-671.105	-150.899	-0.147	-0.011
-670.091	400.787	0.170	-0.358
-669.076	800.000	-0.197	0.763
-668.062	62.784	0.683	0.687
-667.047	-23.971	0.241	0.145
-666.032	800.000	-0.153	-0.648
-665.018	-200.000	0.035	0.154
-664.003	-43.817	-0.236	-0.120
-662.989	-123.872	-0.128	0.020
-661.974	-107.359	-0.242	0.054
-660.959	-200.000	-0.037	0.591
-659.945	-38.376	0.082	0.044
-658.930	800.000	0.188	-0.669
-657.916	21.251	0.573	-0.468
-656.901	-108.072	-0.887	0.193
-655.886	157.967	0.442	0.616
-654.872	16.624	0.310	0.247
-653.857	-68.906	-0.488	-0.189
-652.843	429.229	-0.320	-0.696
-651.828	57.433	-0.604	0.593
-650.814	609.075	0.365	0.915
-649.799	-37.780	0.423	-0.226
-648.784	-200.000	0.238	1.154
-647.770	71.062	-0.558	0.581
-646.755	800.000	-0.230	0.731
-645.741	133.086	0.156	0.202
-644.726	-115.705	1.008	0.190
-643.711	196.774	-0.329	-0.503
-642.697	-47.802	0.375	0.182
-641.682	182.679	0.345	0.512
-640.668	-133.878	-0.305	0.038
-639.653	-61.928	1.143	-0.480
-638.638	-124.936	-0.626	-0.097
-637.624	-200.000	0.025	-0.780
-636.609	-14.999	-0.445	0.286
-635.595	-200.000	0.021	0.386
-634.580	-35.245	-0.712	-0.389
-633.565	72.868	-0.770	-0.807
-632.551	-200.000	0.012	-0.410
-631.536	16.061	-0.252	0.199
-630.522	40.861	0.175	-0.159
-629.507	19.095	0.454	0.365
-628.492	-200.000	0.046	0.397
-627.478	-172.983	-0.574	0.018
-626.463	-146.914	0.532	-0.046
-625.449	-61.292	0.047	0.020
-624.434	-200.000	-0.042	-0.291
-623.419	-200.000	0.074	0.446
-622.405	18.415	-0.570	0.457
-621.390	-12.141	-0.671	0.441
-620.376	800.000	-0.173	-0.664
-619.361	51.365	-0.486	-0.463
-618.346	-200.000	0.006	-0.806
-617.332	-71.302	-0.438	0.165
-616.317	-200.000	-0.031	-0.544
-615.303	-133.839	0.252	0.031
-614.288	-125.370	0.708	-0.108
-613.273	800.000	-0.289	0.865
-612.259	356.899	0.120	-0.241
-611.244	800.000	-0.078	0.296
-610.230	-124.109	0.936	0.147
-609.215	197.222	-0.520	0.797
-608.201	28.343	0.509	-0.431
-607.186	25.823	0.635	0.531
-606.171	-200.000	-0.012	-0.233
-605.157	76.776	0.334	-0.356
-604.142	-92.788	-0.401	0.113
-603.128	800.000	0.162	-0.473
-602.113	40.544	0.468	-0.423
-601.098	-200.000	0.165	0.869
-600.084	-200.000	0.094	0.829
-599.069	-83.167	-0.451	-0.145
-598.055	-200.000	-0.128	-0.730
-597.040	-142.195	-0.579	-0.058
-596.025	-200.000	-0.084	0.423
-595.011	218.863	0.268	-0.429
-593.996	-108.959	-0.775	0.166
-592.982	36.661	-0.527	0.467
-591.967	800.000	-0.221	-0.783
-590.952	-200.000	-0.021	0.267
-589.938	800.000	0.124	-0.520
-588.923	800.000	-0.315	1.103
-587.909	238.746	0.121	-0.202
-586.894	117.973	0.289	-0.357
-585.879	30.676	-0.792	0.679
-584.865	800.000	-0.119	-0.384
-583.850	70.955	0.200	0.208
-582.836	25.117	-0.146	-0.121
-581.821	242.983	0.235	0.395
-580.806	87.884	-0.462	-0.513
-579.792	102.172	-0.578	-0.677
-578.777	-156.403	0.286	0.018
-577.763	18.950	0.394	-0.317
-576.748	-115.748	0.890	-0.167
-575.733	-167.891	-0.440	-0.017
-574.719	800.000	-0.174	-0.533
-573.704	-200.000	-0.071	-0.436
-572.690	-200.000	0.086	-0.481
-571.675	47.203	0.800	0.746
-570.661	233.477	0.189	-0.311
-569.646	-39.793	-0.392	-0.205
-568.631	4.690	-0.294	-0.216
-567.617	800.000	-0.261	-0.821
-566.602	-200.000	-0.107	-0.678
-565.588	-110.952	-0.347	0.072
-564.573	45.656	-0.648	-0.600
-563.558	7.313	0.459	0.343
-562.544	-89.916	1.069	0.313
-561.529	-200.000	-0.017	-0.309
-560.515	-69.891	0.518	-0.198
-559.500	-157.726	-0.828	-0.049
-558.485	146.391	-0.383	0.515
-557.471	331.579	0.410	0.793
-556.456	-36.985	-0.367	0.197
-555.442	-4.974	0.251	-0.173
-554.427	-42.614	-0.270	0.138
-553.412	-75.842	0.109	-0.039
-552.398	337.014	0.349	0.679
-551.383	-146.205	-0.675	-0.059
-550.369	-0.722	-0.550	0.390
-549.354	-94.126	-0.290	0.080
-548.339	-92.578	-0.412	0.116
-547.325	-109.299	-0.258	-0.055
-546.310	-200.000	-0.140	0.842
-545.296	-200.000	0.008	0.096
-544.281	101.279	0.232	0.270
-543.266	-65.982	0.834	0.333
-542.252	800.000	-0.063	0.206
-541.237	-200.000	0.151	-0.894
-540.223	47.408	0.461	0.430
-539.208	-70.634	-0.171	-0.065
-538.193	-150.303	0.623	0.048
-537.179	-129.495	0.479	-0.066
-536.164	800.000	0.106	-0.297
-535.150	80.794	0.365	0.394
-534.135	70.006	0.448	0.463
-533.121	-200.000	-0.034	0.158
-532.106	-123.232	-0.873	0.140
-531.091	-112.293	-0.105	-0.021
-530.077	-95.610	-0.367	0.098
-529.062	-21.157	0.615	-0.376
-528.048	-200.000	0.035	0.179
-527.033	-123.792	-0.164	-0.026
-526.018	246.443	0.091	0.153
-525.004	-200.000	-0.080	0.514
-523.989	-105.017	1.011	0.232
-522.975	-34.554	0.452	-0.247
-521.960	-200.000	0.530	0.002
-520.945	635.320	-0.066	-0.168
-519.931	-200.000	0.101	-0.450
-518.916	250.019	-0.240	0.407
-517.902	199.264	0.208	-0.319
-516.887	81.005	-0.496	-0.536
-515.872	220.464	-0.408	-0.653
-514.858	-37.166	-0.509	0.272
-513.843	800.000	0.171	0.604
-512.829	33.440	-0.504	0.438
-511.814	800.000	0.038	0.132
-510.799	-91.845	-0.273	0.077
-509.785	-177.595	-0.384	0.009
-508.770	-58.801	0.546	0.236
-507.756	22.628	-0.693	-0.567
-506.741	-80.119	-0.186	0.062
-505.726	800.000	0.054	-0.223
-504.712	-96.570	-0.439	0.116
-503.697	800.000	0.047	-0.162
-502.683	800.000	0.015	0.055
-501.668	-169.610	-1.018	0.037
-500.653	-74.112	0.581	0.210
-499.639	45.914	-0.620	-0.573
-498.624	-114.479	0.842	0.162
-497.610	652.319	-0.121	-0.309
-496.595	800.000	-0.075	-0.297
-495.581	100.909	0.253	-0.294
-494.566	208.133	-0.072	-0.112
-493.551	570.064	0.217	-0.526
-492.537	116.912	0.302	0.370
-491.522	-6.079	0.429	0.293
-490.508	89.504	-0.737	-0.821
-489.493	611.330	0.151	-0.378
-488.478	39.050	-0.393	-0.350
-487.464	418.269	-0.219	-0.468
-486.449	-148.943	0.092	0.007
-485.435	-200.000	-0.093	1.413
-484.420	12.883	0.328	0.253
-483.405	-57.630	0.216	0.094
-482.391	-200.000	0.084	0.685
-481.376	7.890	0.235	-0.176
-480.362	522.550	0.228	-0.534
-479.347	-6.774	1.081	-0.734
-478.332	159.270	-0.109	0.151
-477.318	-48.331	-0.394	0.190
-476.303	800.000	-0.121	-0.446
-475.289	-200.000	-0.044	-0.446
-474.274	84.455	0.674	-0.736
-473.259	-159.350	-0.281	-0.016
-472.245	-104.511	-0.613	-0.141
-471.230	-75.903	-0.348	0.123
-470.216	266.303	0.216	0.377
-469.201	-125.988	0.851	-0.128
-468.186	-111.437	-0.235	-0.048
-467.172	-200.000	0.024	-0.350
-466.157	43.280	0.472	0.430
-465.143	-8.729	-0.334	0.223
-464.128	-1.660	-0.264	-0.185
-463.113	-87.246	0.557	0.169
-462.099	-100.219	-0.500	-0.124
-461.084	-141.290	-0.563	-0.057
-460.070	-111.514	-1.704	0.346
-459.055	-151.767	0.775	0.057
-458.040	800.000	0.134	0.495
-457.026	-117.514	-0.654	-0.118
-456.011	800.000	-0.040	-0.162
-454.997	175.275	-0.334	0.483
-453.982	-82.486	-0.025	0.008
-452.968	-135.137	0.598	-0.072
-451.953	800.000	-0.309	-1.144
-450.938	19.953	0.848	-0.682
-449.924	-57.115	0.683	-0.300
-448.909	-200.000	0.007	0.340
-447.895	-81.860	0.356	0.116
-446.880	197.579	0.171	0.260
-445.865	-200.000	-0.108	0.539
-444.851	221.448	-0.287	0.459
-443.836	30.375	-0.506	0.431
-442.822	-74.025	-0.444	0.160
-441.807	-35.167	-0.677	0.367
-440.792	97.397	-0.472	0.540
-439.778	-133.686	-0.685	0.085
-438.763	535.429	0.071	-0.167
-437.749	23.748	-0.469	0.385
-436.734	-64.318	-0.451	-0.183
-435.719	800.000	0.253	0.726
-434.705	-55.354	-0.341	-0.152
-433.690	-125.743	0.947	-0.143
-432.676	274.494	0.141	0.248
-431.661	183.359	-0.351	-0.517
-430.646	800.000	0.404	-1.112
-429.632	-140.346	-0.077	-0.008
-428.617	-19.615	-0.850	0.524
-427.603	-17.825	-0.347	-0.217
-426.588	-200.000	0.001	-0.064
-425.573	-112.417	-0.430	-0.086
-424.559	-200.000	0.023	-0.820
-423.544	-97.875	-0.757	-0.195
-422.530	25.442	-0.398	0.329
-421.515	35.914	-0.189	0.166
-420.500	731.145	0.160	0.427
-419.486	800.000	0.139	-0.487
-418.471	451.824	-0.223	0.490
-417.457	-37.060	-0.656	-0.350
-416.442	-32.396	0.846	0.470
-415.428	-23.439	0.435	0.260
-414.413	-200.000	-0.165	-0.898
-413.398	338.917	0.263	0.509
-412.384	99.513	-0.540	-0.622
-411.369	-173.406	-0.390	0.012
-410.355	-141.374	-0.603	-0.061
-409.340	-200.000	-0.153	1.032
-408.325	-136.661	-0.797	-0.092
-407.311	142.071	-0.764	1.009
-406.296	325.803	0.515	-0.981
-405.282	153.184	0.731	0.995
-404.267	-42.343	0.254	-0.129
-403.252	184.373	0.304	-0.448
-402.238	800.000	-0.079	0.238
-401.223	121.805	-0.399	-0.495
-400.209	170.927	0.297	0.424
-399.194	1.084	-0.265	-0.189
-398.179	-72.378	0.738	-0.272
-397.165	-200.000	0.028	0.245
-396.150	48.647	-0.243	0.227
-395.136	357.500	0.509	-1.009
-394.121	11.619	0.563	0.430
-393.106	293.080	-0.444	-0.805
-392.092	-200.000	-0.056	0.574
-391.077	-200.000	0.022	0.354
-390.063	184.168	0.231	-0.340
-389.048	-38.085	0.673	-0.355
-388.033	707.334	0.144	0.378
-387.019	-2.444	0.251	-0.175
-386.004	-149.568	0.494	-0.039
-384.990	800.000	-0.192	0.546
-383.975	360.073	0.039	-0.078
-382.960	397.038	-0.070	0.146
-381.946	135.383	0.084	0.109
-380.931	-65.020	0.337	-0.135
-379.917	-111.061	0.687	0.140
-378.902	-3.031	0.036	-0.025
-377.888	105.344	0.212	-0.249
-376.873	145.514	0.520	0.692
-375.858	-200.000	-0.023	0.306
-374.844	66.487	0.244	0.246
-373.829	78.778	-0.223	0.237
-372.815	-60.815	-0.271	0.114
-371.800	800.000	-0.068	0.238
-370.785	605.357	-0.192	0.474
-369.771	14.041	-0.338	-0.262
-368.756	-36.967	-0.458	0.244
-367.742	-71.625	0.134	-0.050
-366.727	76.591	-0.420	0.443
-365.712	216.933	-0.290	0.459
-364.698	-67.914	-0.417	-0.162
-363.683	116.391	0.205	-0.250
-362.669	-200.000	0.063	-0.357
-361.654	44.930	0.133	-0.121
-360.639	65.372	-0.473	-0.476
-359.625	-34.066	-0.678	0.370
-358.610	95.374	0.339	0.384
-357.596	-119.378	1.064	-0.184
-356.581	-181.827	-0.530	-0.010
-355.566	423.303	0.600	-1.280
-354.552	-42.874	0.054	0.027
-353.537	-51.527	0.710	-0.329
-352.523	-147.634	0.474	-0.040
-351.508	800.000	-0.445	-1.244
-350.493	72.174	0.343	0.354
-349.479	-126.443	-0.758	-0.112
-348.464	318.965	0.060	-0.112
-347.450	800.000	-0.141	0.476
-346.435	-60.798	0.299	0.126
-345.420	136.974	0.433	0.562
-344.406	800.000	-0.066	-0.185
-343.391	-53.315	-0.767	-0.349
-342.377	-65.952	-0.212	-0.084
-341.362	-109.207	0.806	0.170
-340.348	-61.109	-0.679	0.284
-339.333	-37.646	0.367	-0.194
-338.318	284.245	0.173	-0.310
-337.304	578.610	0.214	-0.519
-336.289	128.421	0.461	-0.583
-335.275	211.787	0.237	-0.370
-334.260	-166.055	-0.402	0.017
-333.245	-200.000	-0.076	0.397
-332.231	-200.000	-0.073	0.559
-331.216	-200.000	0.060	-1.064
-330.202	-79.591	0.385	0.129
-329.187	-96.093	-0.360	-0.095
-328.172	-62.567	0.349	-0.144
-327.158	-87.391	-1.170	-0.352
-326.143	-146.268	-0.557	0.048
-325.129	-200.000	0.251	0.001
-324.114	-81.550	-0.610	0.199
-323.099	-200.000	0.133	0.871
-322.085	30.747	0.129	0.109
-321.070	-200.000	-0.023	-0.189
-320.056	-6.827	-0.218	0.147
-319.041	800.000	-0.295	0.889
-318.026	531.031	0.350	0.822
-317.012	-87.378	-0.781	-0.235
-315.997	452.225	-0.199	-0.436
-314.983	-200.000	0.028	0.212
-313.968	-49.620	-0.181	0.085
-312.953	-200.000	-0.055	0.889
-311.939	51.828	-0.521	0.491
-310.924	156.309	-0.242	-0.332
-309.910	-33.305	0.124	0.068
-308.895	-200.000	0.027	-0.523
-307.880	-128.799	0.397	-0.055
-306.866	-200.000	0.086	-0.944
-305.851	117.519	0.175	0.214
-304.837	288.536	0.277	-0.497
-303.822	-37.755	0.351	-0.185
-302.807	-193.271	-0.869	0.008
-301.793	550.918	-0.204	0.486
-300.778	586.970	0.337	0.822
-299.764	185.677	0.180	0.266
-298.749	-64.004	-0.405	0.164
-297.735	-200.000	-0.128	0.568
-296.720	-164.725	-0.822	0.037
-295.705	153.885	0.357	0.485
-294.691	619.795	0.178	0.442
-293.676	-200.000	0.190	1.013
-292.662	86.678	-0.415	0.454
-291.647	-200.000	0.011	-0.421
-290.632	84.254	-0.235	0.254
-289.618	-200.000	-0.226	-1.133
-288.603	-43.873	0.385	0.192
-287.589	-64.279	0.640	-0.258
-286.574	-57.938	-0.837	-0.362
-285.559	-120.982	0.914	-0.152
-284.545	48.957	0.235	0.218
-283.530	800.000	-0.034	0.109
-282.516	559.938	0.182	0.435
-281.501	134.826	-0.331	0.426
-280.486	37.449	0.431	-0.378
-279.472	129.815	0.158	0.200
-278.457	-24.297	-0.145	-0.086
-277.443	-187.178	0.878	0.012
-276.428	20.262	-0.048	0.038
-275.413	-95.921	0.173	-0.046
-274.399	266.375	-0.256	-0.443
-273.384	16.545	0.432	-0.338
-272.370	81.368	0.519	0.555
-271.355	-116.668	-0.273	0.050
-270.340	286.063	0.241	0.430
-269.326	289.473	-0.222	0.399
-268.311	238.077	0.648	1.064
-267.297	800.000	0.217	-0.708
-266.282	413.912	-0.311	-0.655
-265.267	91.468	-0.209	0.232
-264.253	-200.000	0.002	-0.458
-263.238	-134.980	0.186	-0.022
-262.224	772.112	0.265	0.715
-261.209	-108.399	1.006	-0.215
-260.195	268.231	0.176	-0.305
-259.180	110.582	0.220	0.262
-258.165	-200.000	-0.039	-0.402
-257.151	-119.891	0.721	-0.123
-256.136	441.309	0.267	-0.578
-255.122	-53.558	0.817	0.370
-254.107	59.798	0.497	-0.486
-253.092	-13.396	0.470	0.301
-252.078	-44.154	-0.344	0.171
-251.063	-200.000	0.029	-0.318
-250.049	-20.049	-0.354	0.216
-249.034	-200.000	0.111	-0.675
-248.019	143.976	-0.151	0.200
-247.005	284.448	-0.088	0.156
-245.990	-79.807	0.481	0.160
-244.976	-200.000	-0.043	-0.542
-243.961	456.862	-0.127	-0.278
-242.946	26.487	-0.633	-0.524
-241.932	-200.000	-0.027	0.152
-240.917	-78.114	0.177	0.060
-239.903	-75.351	-0.243	-0.086
-238.888	-57.612	-1.004	-0.435
-237.873	-200.000	-0.074	-0.421
-236.859	48.345	-0.758	-0.701
-235.844	800.000	-0.277	-0.814
-234.830	136.043	0.233	0.300
-233.815	-64.786	0.204	0.081
-232.800	-104.742	0.112	0.025
-231.786	379.300	0.121	-0.245
-230.771	-200.000	0.229	-1.022
-229.757	264.348	-0.234	0.402
-228.742	89.662	-0.581	-0.641
-227.727	115.209	-0.092	0.111
-226.713	800.000	-0.159	0.576
-225.698	800.000	0.067	-0.214
-224.684	545.558	0.121	-0.286
-223.669	-133.132	0.372	0.047
-222.655	-200.000	-0.014	-0.354
-221.640	29.051	0.125	0.105
-220.625	-104.035	1.083	0.249
-219.611	-91.783	-0.211	0.059
-218.596	-200.000	-0.012	0.129
-217.582	116.427	-0.548	-0.664
-216.567	76.828	0.472	-0.495
-215.552	34.691	0.521	-0.450
-214.538	-200.000	0.012	-0.173
-213.523	-41.928	0.066	0.033
-212.509	-2.394	-0.661	0.458
-211.494	-75.202	0.462	-0.163
-210.479	-71.883	-0.299	0.110
-209.465	22.901	0.770	-0.624
-208.450	94.502	-0.683	-0.767
-207.436	-107.645	-0.388	0.084
-206.421	-200.000	0.077	-0.380
-205.406	246.854	0.324	0.539
-204.392	-200.000	0.185	1.076
-203.377	-200.000	-0.047	-0.721
-202.363	546.728	-0.299	-0.706
-201.348	800.000	-0.122	0.443
-200.333	86.112	0.389	0.423
-199.319	715.727	-0.097	0.255
-198.304	177.901	-0.416	0.598
-197.290	-200.000	-0.042	0.309
-196.275	800.000	0.156	-0.629
-195.260	260.930	0.293	0.500
-194.246	-93.053	-0.143	-0.039
-193.231	422.653	-0.469	-0.993
-192.217	464.539	0.134	0.296
-191.202	-110.175	-0.269	0.055
-190.187	-147.504	0.587	-0.049
-189.173	800.000	0.231	0.688
-188.158	-138.319	0.902	0.098
-187.144	257.286	-0.435	0.737
-186.129	800.000	-0.121	0.434
-185.114	-200.000	0.023	-0.601
-184.100	800.000	0.112	-0.410
-183.085	46.775	0.538	0.493
-182.071	168.792	0.592	-0.833
-181.056	-200.000	0.025	0.375
-180.042	64.519	-0.301	0.300
-179.027	-64.405	0.379	0.152
-178.012	-124.065	0.576	-0.089
-176.998	52.656	0.165	-0.156
-175.983	-94.328	-0.812	0.219
-174.969	12.324	0.690	0.525
-173.954	151.666	0.749	1.007
-172.939	106.030	-0.542	0.632
-171.925	-155.841	-0.789	-0.050
-170.910	709.642	-0.006	0.016
-169.896	244.689	0.322	-0.534
-168.881	-142.031	-0.550	-0.054
-167.866	168.582	-0.288	-0.405
-166.852	-16.103	-0.016	-0.010
-165.837	-200.000	-0.100	-0.760
-164.823	40.455	-0.599	0.531
-163.808	-200.000	0.041	0.671
-162.793	-67.199	0.654	0.254
-161.779	-176.117	0.263	-0.007
-160.764	29.142	0.200	-0.167
-159.750	56.968	0.749	0.720
-158.735	428.974	0.353	-0.752
-157.720	156.906	-0.231	0.314
-156.706	800.000	-0.052	0.166
-155.691	-200.000	-0.032	-0.384
-154.677	-200.000	0.073	-0.545
-153.662	800.000	-0.095	-0.351
-152.647	12.227	0.203	0.154
-151.633	-48.448	-0.228	0.108
-150.618	663.739	0.285	0.724
-149.604	800.000	0.206	0.715
-148.589	51.695	0.192	0.180
-147.574	401.495	0.371	0.767
-146.560	224.130	-0.310	0.494
-145.545	-200.000	-0.043	0.761
-144.531	-200.000	0.085	-0.659
-143.516	-200.000	-0.046	-0.507
-142.502	23.381	-0.187	0.151
-141.487	176.394	-0.191	0.273
-140.472	-200.000	0.135	-0.772
-139.458	439.119	-0.533	1.145
-138.443	153.129	-0.174	-0.234
-137.429	800.000	0.161	-0.497
-136.414	47.345	-0.182	-0.167
-135.399	-45.081	-0.209	-0.103
-134.385	-4.922	0.798	0.542
-133.370	10.925	0.110	-0.083
-132.356	760.062	-0.146	0.389
-131.341	-200.000	0.021	-0.324
-130.326	633.044	-0.054	-0.136
-129.312	13.605	-0.579	-0.443
-128.297	-39.237	-0.313	0.162
-127.283	-200.000	-0.040	-0.520
-126.268	-200.000	0.078	-0.413
-125.253	800.000	0.224	-0.670
-124.239	-155.058	-0.371	-0.024
-123.224	-69.596	-0.501	0.189
-122.210	215.729	0.388	0.606
-121.195	-200.000	-0.035	0.556
