DTS Sentinel unit serial number:	SN413079Multiplexer serial number:	ORYXHardware model number:	OX4-SRSoftware version number:	ORYX F/W v4.00 Oryx Data Collector v3.7.2.0data status	okinstallation	princeton_trtdifferential loss correction	single-endedforward channel	channel 2reverse channel	N/Adate	2019/09/16time	01:59:35forward acquisition time	60.00reverse acquisition time	0.00gamma	496.2192k internal	0.2335k external	0.2335temperature offset calibration	0.9969default loss term (dB/km)	0.3790temperature slope calibration	1.0000multiplexer offset coefficient	1.0000multiplexer slope coefficient	1.0000fibre end	0.00T internal ref (°C)	27.44T ext. ref 1 (°C)	10.09T ext. ref 2 (°C)	22.42length (m)	temperature (°C)	Stokes	anti-Stokes-747.200	-30.584	-0.063	-0.036
-746.185	290.163	-0.226	0.413
-745.171	-29.896	-0.025	0.014
-744.156	-21.851	-0.160	0.098
-743.142	-81.806	-0.096	0.032
-742.127	678.477	-0.166	0.435
-741.112	-200.000	0.002	0.175
-740.098	-112.650	-0.105	0.021
-739.083	-108.592	0.248	0.054
-738.069	-62.050	-0.330	0.138
-737.054	-200.000	0.054	-0.280
-736.039	-200.000	-0.050	0.240
-735.025	-200.000	-0.009	-0.282
-734.010	-120.948	-0.249	-0.042
-732.996	-200.000	0.040	-0.229
-731.981	208.941	-0.156	0.245
-730.966	800.000	0.074	0.221
-729.952	-110.466	-0.140	-0.029
-728.937	156.212	0.167	0.231
-727.923	800.000	0.091	0.289
-726.908	800.000	-0.108	0.446
-725.894	-30.895	-0.235	-0.133
-724.879	-104.482	-0.352	0.082
-723.864	80.451	0.077	0.083
-722.850	-5.456	-0.045	0.031
-721.835	-128.078	0.078	-0.011
-720.821	-68.117	0.048	-0.019
-719.806	-200.000	0.005	0.185
-718.791	-54.846	-0.239	-0.108
-717.777	-200.000	0.014	-0.248
-716.762	194.645	0.142	0.216
-715.748	102.388	-0.122	0.143
-714.733	-118.842	0.198	-0.035
-713.718	507.613	0.047	-0.109
-712.704	-64.860	0.424	-0.172
-711.689	-62.134	-0.069	0.029
-710.675	-57.760	0.120	0.053
-709.660	-200.000	0.006	-0.075
-708.645	427.482	0.210	0.454
-707.631	122.295	0.200	-0.251
-706.616	757.228	0.089	-0.242
-705.602	58.545	0.056	0.055
-704.587	90.474	0.055	-0.062
-703.572	-41.824	-0.143	0.074
-702.558	-101.257	0.076	0.019
-701.543	-122.782	-0.435	-0.070
-700.529	-106.425	0.259	-0.058
-699.514	43.252	0.102	0.093
-698.499	87.237	0.266	-0.295
-697.485	-106.356	-0.121	-0.027
-696.470	22.942	-0.061	-0.050
-695.456	231.858	0.056	-0.092
-694.441	-138.939	0.159	0.017
-693.426	-130.208	-0.091	0.012
-692.412	760.095	-0.078	0.211
-691.397	88.658	-0.074	0.082
-690.383	10.700	-0.186	0.142
-689.368	800.000	-0.030	-0.117
-688.354	-51.728	0.268	-0.125
-687.339	-86.126	0.240	-0.074
-686.324	-200.000	-0.475	0.000
-685.310	800.000	-0.036	0.111
-684.295	-93.864	0.448	0.124
-683.281	21.593	0.182	-0.149
-682.266	800.000	0.094	0.317
-681.251	8.653	0.278	0.210
-680.237	101.131	0.062	-0.073
-679.222	-59.597	0.158	-0.068
-678.208	-200.000	0.074	0.328
-677.193	-45.064	0.131	-0.065
-676.178	75.706	-0.142	0.151
-675.164	-200.000	0.015	0.215
-674.149	256.077	-0.050	0.086
-673.135	-107.274	-0.276	0.061
-672.120	57.505	-0.474	-0.464
-671.105	-200.000	-0.006	-0.374
-670.091	-93.820	0.097	-0.027
-669.076	-60.846	0.078	-0.033
-668.062	-200.000	0.034	0.189
-667.047	-130.656	-0.033	0.004
-666.032	800.000	0.122	-0.360
-665.018	389.540	-0.098	-0.203
-664.003	8.565	-0.245	-0.185
-662.989	-174.976	-0.047	0.001
-661.974	800.000	0.093	-0.338
-660.959	263.486	0.085	-0.149
-659.945	-3.568	0.173	0.121
-658.930	-121.267	-0.139	-0.023
-657.916	380.467	-0.092	-0.189
-656.901	-118.675	0.550	-0.097
-655.886	-135.188	-0.274	0.033
-654.872	97.037	-0.066	-0.076
-653.857	-90.388	-0.125	-0.036
-652.843	501.898	-0.125	-0.290
-651.828	-164.333	-0.178	-0.008
-650.814	-47.207	-0.074	0.036
-649.799	93.246	0.150	-0.170
-648.784	2.457	-0.379	0.275
-647.770	43.504	0.071	0.065
-646.755	-52.540	-0.204	0.094
-645.741	10.402	-0.144	0.110
-644.726	-108.716	-0.402	0.086
-643.711	-200.000	0.036	-0.166
-642.697	-200.000	-0.018	-0.079
-641.682	-132.181	0.218	0.028
-640.668	-39.251	-0.359	-0.189
-639.653	24.750	-0.130	0.107
-638.638	148.732	-0.144	-0.195
-637.624	-117.053	-0.045	-0.008
-636.609	-200.000	-0.005	0.148
-635.595	-164.223	0.077	0.004
-634.580	800.000	-0.070	0.283
-633.565	106.949	0.025	-0.030
-632.551	44.441	0.136	0.125
-631.536	-120.903	0.093	0.016
-630.522	-57.799	-0.171	-0.075
-629.507	-23.569	-0.121	0.072
-628.492	103.570	0.255	0.300
-627.478	-200.000	0.031	0.242
-626.463	77.960	-0.116	0.124
-625.449	-169.795	0.098	0.004
-624.434	-88.597	0.093	-0.028
-623.419	800.000	0.156	-0.640
-622.405	-177.442	-0.229	0.006
-621.390	800.000	0.048	-0.166
-620.376	-51.432	-0.297	0.139
-619.361	-4.352	0.188	-0.130
-618.346	-200.000	0.014	0.067
-617.332	146.375	-0.041	-0.056
-616.317	-107.966	-0.251	-0.054
-615.303	-168.146	-0.141	0.005
-614.288	-67.045	-0.137	0.054
-613.273	-57.254	0.208	0.091
-612.259	44.150	0.336	-0.308
-611.244	800.000	-0.052	0.157
-610.230	-89.906	-0.295	0.086
-609.215	45.416	0.139	-0.129
-608.201	-19.003	-0.023	-0.014
-607.186	248.576	-0.073	0.124
-606.171	800.000	0.055	-0.157
-605.157	-172.151	0.208	-0.007
-604.142	158.862	-0.070	0.097
-603.128	110.519	0.124	-0.149
-602.113	-56.488	0.305	0.135
-601.098	117.119	0.147	0.180
-600.084	-200.000	-0.004	-0.319
-599.069	-96.974	-0.193	-0.051
-598.055	-130.554	0.321	-0.043
-597.040	247.869	-0.206	0.347
-596.025	-50.411	0.177	-0.083
-595.011	-193.485	0.107	-0.001
-593.996	419.803	0.139	0.297
-592.982	-90.750	0.060	-0.017
-591.967	179.209	-0.062	0.090
-590.952	-168.614	0.105	0.004
-589.938	-200.000	0.022	0.210
-588.923	399.088	0.150	-0.315
-587.909	-26.636	0.043	0.025
-586.894	-74.090	-0.260	-0.094
-585.879	-172.154	-0.138	0.004
-584.865	29.690	0.105	0.089
-583.850	-99.878	-0.319	-0.079
-582.836	632.195	-0.046	0.117
-581.821	-200.000	-0.308	-0.001
-580.806	-171.703	0.294	-0.010
-579.792	52.947	-0.034	0.032
-578.777	800.000	0.061	-0.214
-577.763	586.828	0.013	-0.033
-576.748	84.098	0.216	0.235
-575.733	10.786	-0.050	-0.038
-574.719	800.000	-0.043	-0.122
-573.704	-101.118	0.268	0.066
-572.690	-200.000	-0.011	0.140
-571.675	0.668	-0.265	0.190
-570.661	-61.375	-0.184	0.077
-569.646	-104.050	0.227	-0.053
-568.631	214.034	-0.056	-0.089
-567.617	800.000	0.057	-0.167
-566.602	782.057	0.078	-0.212
-565.588	-84.768	-0.162	-0.051
-564.573	68.626	-0.071	0.073
-563.558	-200.000	0.006	-0.190
-562.544	-142.659	-0.135	0.013
-561.529	-3.149	0.021	-0.015
-560.515	-141.870	0.073	-0.007
-559.500	209.367	-0.087	-0.136
-558.485	-200.000	-0.004	-0.326
-557.471	139.740	-0.227	-0.299
-556.456	349.524	-0.145	-0.285
-555.442	-36.789	-0.312	-0.167
-554.427	74.673	-0.093	-0.097
-553.412	-61.689	-0.238	-0.100
-552.398	-67.460	0.461	0.181
-551.383	467.910	0.100	-0.224
-550.369	61.683	-0.269	0.267
-549.354	-200.000	-0.004	0.104
-548.339	-32.763	0.403	0.223
-547.325	-89.553	-0.041	0.012
-546.310	7.701	0.150	0.112
-545.296	-72.932	0.017	0.006
-544.281	-12.246	-0.419	0.273
-543.266	-200.000	0.007	0.123
-542.252	-3.042	-0.285	-0.198
-541.237	-200.000	0.016	0.208
-540.223	-122.512	-0.232	0.038
-539.208	-118.584	0.179	-0.031
-538.193	467.611	0.111	0.247
-537.179	-36.467	0.261	-0.140
-536.164	-200.000	0.052	-0.269
-535.150	526.850	0.107	-0.252
-534.135	429.000	-0.151	0.326
-533.121	-200.000	-0.024	0.206
-532.106	-137.767	-0.142	-0.016
-531.091	152.093	-0.206	-0.280
-530.077	-77.728	-0.234	0.080
-529.062	231.735	0.093	0.151
-528.048	-167.640	-0.291	0.012
-527.033	-150.454	0.310	-0.024
-526.018	549.952	0.115	0.275
-525.004	800.000	-0.049	-0.152
-523.989	-200.000	-0.094	-0.464
-522.975	-127.820	0.060	0.009
-521.960	119.195	0.192	-0.236
-520.945	0.988	0.124	-0.088
-519.931	-90.591	0.168	0.048
-518.916	248.758	0.046	-0.078
-517.902	-97.914	0.066	-0.017
-516.887	42.968	0.127	-0.115
-515.872	113.850	-0.155	0.188
-514.858	-71.829	0.094	0.035
-513.843	-56.953	-0.040	0.018
-512.829	-186.560	-0.346	-0.005
-511.814	-123.435	-0.062	-0.010
-510.799	-200.000	0.036	-0.257
-509.785	-86.557	0.294	-0.090
-508.770	-109.763	0.299	0.063
-507.756	45.543	0.149	-0.137
-506.741	143.572	-0.088	0.117
-505.726	188.371	-0.119	-0.178
-504.712	-79.927	0.149	0.050
-503.697	158.192	-0.098	0.136
-502.683	-200.000	0.032	-0.187
-501.668	-0.576	-0.256	0.181
-500.653	-61.126	-0.303	0.127
-499.639	800.000	0.050	0.206
-498.624	-27.925	-0.132	0.076
-497.610	-118.209	-0.263	0.047
-496.595	88.186	-0.105	-0.116
-495.581	-121.531	-0.241	-0.040
-494.566	-200.000	-0.012	-0.160
-493.551	63.523	0.099	-0.099
-492.537	-200.000	-0.078	-0.361
-491.522	-200.000	0.035	0.166
-490.508	-191.583	0.120	-0.001
-489.493	-165.921	-0.271	0.012
-488.478	-156.696	0.138	-0.008
-487.464	84.876	0.035	0.039
-486.449	1.274	0.530	0.379
-485.435	363.168	-0.089	0.178
-484.420	-26.058	-0.120	0.070
-483.405	696.741	0.051	0.134
-482.391	-160.651	-0.370	0.020
-481.376	-100.801	-0.448	0.110
-480.362	-56.374	0.369	-0.163
-479.347	800.000	0.084	-0.322
-478.332	-125.691	-0.158	-0.024
-477.318	433.608	0.024	-0.051
-476.303	-200.000	-0.034	0.266
-475.289	-124.853	0.229	-0.035
-474.274	66.326	0.493	-0.498
-473.259	-141.569	0.533	-0.053
-472.245	241.640	0.120	-0.199
-471.230	-97.172	-0.163	-0.042
-470.216	-200.000	-0.099	-0.603
-469.201	-200.000	0.037	-0.197
-468.186	-30.138	-0.166	0.094
-467.172	-79.732	-0.179	-0.060
-466.157	-136.454	0.387	-0.045
-465.143	-200.000	-0.078	0.361
-464.128	40.210	0.067	-0.059
-463.113	-200.000	0.052	-0.300
-462.099	36.493	-0.232	0.204
-461.084	800.000	-0.019	-0.067
-460.070	-104.187	0.180	0.042
-459.055	9.886	0.053	-0.040
-458.040	-200.000	0.027	0.163
-457.026	275.314	0.075	0.131
-456.011	39.588	-0.117	-0.104
-454.997	46.903	0.189	0.174
-453.982	-200.000	-0.005	-0.223
-452.968	800.000	-0.040	0.167
-451.953	-67.388	0.169	0.066
-450.938	-56.486	0.011	-0.005
-449.924	-50.415	-0.141	-0.066
-448.909	-40.454	0.067	0.034
-447.895	416.205	0.100	0.211
-446.880	169.199	-0.149	-0.210
-445.865	-78.437	-0.352	-0.120
-444.851	349.849	0.133	-0.261
-443.836	-72.662	0.188	-0.069
-442.822	177.247	-0.105	-0.152
-441.807	-138.644	0.154	-0.017
-440.792	-98.083	-0.397	-0.101
-439.778	-92.606	-0.472	0.132
-438.763	-200.000	-0.032	-0.175
-437.749	-49.313	0.016	-0.008
-436.734	6.966	0.240	0.178
-435.719	66.957	-0.120	0.121
-434.705	-47.332	-0.092	0.044
-433.690	48.759	-0.120	-0.112
-432.676	-105.854	0.290	-0.065
-431.661	279.640	0.093	0.165
-430.646	169.241	-0.073	0.103
-429.632	59.603	-0.092	0.090
-428.617	-160.889	-0.065	0.003
-427.603	681.466	-0.030	-0.077
-426.588	-109.064	0.141	0.030
-425.573	120.894	0.141	0.174
-424.559	-151.871	-0.360	-0.026
-423.544	-64.629	0.300	0.121
-422.530	-85.463	0.229	0.071
-421.515	-200.000	-0.008	-0.366
-420.500	-200.000	0.002	-0.012
-419.486	430.658	-0.276	-0.592
-418.471	-36.476	-0.210	0.112
-417.457	-200.000	-0.004	0.182
-416.442	-51.956	0.335	-0.154
-415.428	302.440	-0.130	0.238
-414.413	-200.000	-0.134	-0.001
-413.398	296.612	-0.173	0.314
-412.384	-200.000	-0.007	-0.147
-411.369	-134.456	-0.258	0.031
-410.355	-160.685	-0.203	-0.011
-409.340	82.498	0.257	-0.276
-408.325	-200.000	0.021	-0.143
-407.311	161.792	0.067	0.092
-406.296	-153.592	-0.407	0.028
-405.282	101.097	-0.256	-0.295
-404.267	-1.187	0.010	-0.007
-403.252	-200.000	0.035	0.179
-402.238	-200.000	-0.010	0.097
-401.223	-112.508	-0.202	-0.040
-400.209	280.666	0.197	-0.349
-399.194	64.703	-0.098	0.098
-398.179	75.280	0.057	0.060
-397.165	-93.469	-0.331	0.091
-396.150	218.201	0.208	0.328
-395.136	-44.051	-0.265	-0.132
-394.121	-200.000	0.016	-0.210
-393.106	42.756	-0.142	-0.128
-392.092	-104.978	0.249	0.057
-391.077	199.687	0.103	-0.156
-390.063	-31.209	-0.323	0.180
-389.048	117.372	0.137	0.167
-388.033	21.171	-0.062	-0.050
-387.019	-101.126	0.233	0.056
-386.004	-200.000	0.056	0.262
-384.990	308.989	-0.077	-0.142
-383.975	55.463	0.148	-0.142
-382.960	-61.161	0.219	-0.091
-381.946	800.000	0.097	0.352
-380.931	-200.000	-0.006	-0.166
-379.917	157.175	-0.158	-0.217
-378.902	-143.588	-0.079	-0.007
-377.888	-91.235	0.154	-0.044
-376.873	-200.000	0.007	-0.105
-375.858	-50.899	0.060	-0.028
-374.844	600.243	-0.079	0.195
-373.829	382.477	-0.084	-0.172
-372.815	253.274	0.095	-0.161
-371.800	-200.000	-0.029	-0.470
-370.785	-129.490	-0.292	-0.040
-369.771	445.941	0.061	0.132
-368.756	-72.726	-0.048	0.018
-367.742	-200.000	0.004	-0.299
-366.727	-200.000	-0.001	-0.106
-365.712	-23.539	0.164	-0.097
-364.698	-49.280	-0.203	-0.096
-363.683	-102.637	0.361	-0.085
-362.669	-19.817	0.202	-0.124
-361.654	-56.390	0.051	-0.023
-360.639	5.596	0.167	-0.122
-359.625	153.232	0.108	-0.146
-358.610	70.582	-0.131	0.134
-357.596	159.124	0.223	0.307
-356.581	9.762	0.355	0.266
-355.566	99.590	-0.094	0.108
-354.552	83.662	0.136	-0.146
-353.537	-76.551	-0.094	0.033
-352.523	466.355	-0.096	0.213
-351.508	-151.136	0.254	-0.019
-350.493	-120.696	-0.157	0.026
-349.479	155.363	0.097	0.132
-348.464	-31.354	-0.323	0.180
-347.450	144.728	-0.190	-0.251
-346.435	777.636	-0.100	0.271
-345.420	177.190	0.202	0.292
-344.406	-200.000	0.016	-0.192
-343.391	-87.841	0.225	0.067
-342.377	2.704	-0.088	-0.063
-341.362	-45.619	0.278	-0.136
-340.348	-200.000	-0.012	-0.062
-339.333	251.949	0.084	0.142
-338.318	27.677	0.188	0.157
-337.304	-22.187	0.146	0.087
-336.289	117.299	-0.139	-0.169
-335.275	-97.746	-0.199	0.051
-334.260	-138.789	-0.043	0.005
-333.245	-118.509	-0.535	0.094
-332.231	-200.000	0.010	0.157
-331.216	24.286	-0.199	0.162
-330.202	-53.905	0.230	0.104
-329.187	-200.000	-0.059	-0.303
-328.172	-200.000	0.041	-0.232
-327.158	22.014	-0.100	0.081
-326.143	-98.174	0.277	0.070
-325.129	237.555	-0.116	0.190
-324.114	665.247	0.079	0.201
-323.099	-200.000	-0.026	0.223
-322.085	-95.779	0.102	-0.027
-321.070	24.162	0.244	0.199
-320.056	800.000	-0.068	-0.197
-319.041	165.823	0.103	-0.144
-318.026	800.000	0.022	0.077
-317.012	165.548	-0.047	0.065
-315.997	319.147	0.086	0.161
-314.983	-25.748	0.282	-0.164
-313.968	-114.437	0.070	0.013
-312.953	54.278	0.047	0.045
-311.939	-200.000	0.039	-0.224
-310.924	800.000	-0.065	-0.243
-309.910	50.405	0.152	0.141
-308.895	-200.000	0.090	-0.404
-307.880	448.210	-0.063	-0.138
-306.866	-38.338	-0.126	-0.066
-305.851	596.227	-0.070	0.171
-304.837	800.000	-0.024	-0.073
-303.822	800.000	-0.104	-0.338
-302.807	-200.000	-0.012	-0.101
-301.793	91.735	-0.140	-0.155
-300.778	800.000	0.066	-0.187
-299.764	69.975	0.329	0.335
-298.749	176.944	0.084	0.121
-297.735	800.000	-0.024	-0.071
-296.720	-22.114	0.147	0.088
-295.705	159.982	0.062	-0.085
-294.691	237.495	0.165	-0.269
-293.676	151.312	0.400	-0.537
-292.662	567.783	0.141	-0.337
-291.647	657.660	0.048	-0.121
-290.632	-4.723	-0.138	-0.094
-289.618	164.931	0.049	-0.068
-288.603	63.648	0.084	-0.083
-287.589	188.343	0.115	-0.170
-286.574	-99.368	-0.246	0.061
-285.559	294.462	0.037	0.066
-284.545	-107.978	0.331	-0.071
-283.530	-139.257	-0.430	0.046
-282.516	25.249	-0.272	0.223
-281.501	-136.578	0.283	-0.032
-280.486	7.431	-0.078	0.057
-279.472	-28.518	-0.194	-0.110
-278.457	-106.196	0.214	0.047
-277.443	3.688	-0.063	-0.045
-276.428	800.000	0.021	0.072
-275.413	107.038	0.237	-0.278
-274.399	107.641	0.178	0.210
-273.384	-33.367	-0.182	-0.099
-272.370	-200.000	0.002	-0.020
-271.355	800.000	0.127	-0.473
-270.340	-82.652	-0.113	-0.036
-269.326	-54.000	0.133	-0.060
-268.311	-200.000	-0.008	0.187
-267.297	-30.935	0.318	0.177
-266.282	-45.435	0.157	0.077
-265.267	-200.000	-0.039	-0.240
-264.253	79.756	-0.302	-0.320
-263.238	-200.000	-0.016	0.128
-262.224	-4.302	0.188	0.128
-261.209	-19.309	0.295	0.180
-260.195	-20.671	-0.205	0.124
-259.180	-131.605	-0.205	0.027
-258.165	210.810	0.104	0.160
-257.151	-200.000	-0.027	0.241
-256.136	-89.213	-0.212	-0.062
-255.122	-117.804	0.304	-0.054
-254.107	-183.541	-0.229	-0.004
-253.092	-200.000	0.008	-0.159
-252.078	-118.893	0.214	0.037
-251.063	259.548	-0.085	0.145
-250.049	-200.000	-0.050	0.265
-249.034	607.947	-0.030	-0.073
-248.019	118.757	0.160	0.195
-247.005	-36.628	0.181	-0.096
-245.990	-200.000	0.047	-0.208
-244.976	-54.566	-0.195	-0.087
-243.961	800.000	-0.048	0.136
-242.946	-130.544	0.067	0.009
-241.932	-61.264	-0.061	0.025
-240.917	-185.799	0.252	-0.004
-239.903	-84.407	-0.250	0.078
-238.888	-50.057	-0.296	0.138
-237.873	178.050	0.098	0.141
-236.859	-76.416	0.164	-0.057
-235.844	-39.247	-0.185	-0.096
-234.830	-200.000	-0.040	-0.240
-233.815	128.712	0.080	-0.101
-232.800	-200.000	-0.007	0.103
-231.786	-55.514	-0.100	-0.044
-230.771	102.231	0.133	0.153
-229.757	-13.249	0.327	0.209
-228.742	-118.696	0.507	-0.088
-227.727	800.000	-0.084	-0.259
-226.713	800.000	0.104	0.418
-225.698	-56.642	-0.345	-0.150
-224.684	-138.111	-0.311	-0.034
-223.669	800.000	0.026	-0.113
-222.655	486.617	-0.068	-0.152
-221.640	800.000	-0.067	0.226
-220.625	-62.276	0.097	-0.040
-219.611	75.327	-0.172	0.178
-218.596	-142.256	-0.364	0.035
-217.582	74.192	-0.304	0.314
-216.567	50.985	-0.316	0.295
-215.552	-200.000	-0.299	0.001
-214.538	-41.744	0.063	-0.032
-213.523	445.951	-0.164	0.355
-212.509	-69.735	0.449	-0.169
-211.494	381.640	-0.073	-0.148
-210.479	-35.839	0.300	0.160
-209.465	157.703	-0.197	0.268
-208.450	-100.828	-0.137	0.033
-207.436	381.569	-0.105	-0.212
-206.421	800.000	-0.041	0.128
-205.406	800.000	-0.058	0.187
-204.392	188.186	0.115	0.168
-203.377	-200.000	-0.018	-0.272
-202.363	56.653	0.186	0.178
-201.348	-125.286	0.134	-0.020
-200.333	106.590	0.135	-0.157
-199.319	578.023	0.030	-0.073
-198.304	800.000	0.038	0.111
-197.290	-77.548	0.158	0.054
-196.275	-200.000	-0.037	0.181
-195.260	-200.000	0.002	0.303
-194.246	337.214	-0.080	0.153
-193.231	-72.177	0.154	0.056
-192.217	800.000	0.107	0.340
-191.202	138.052	-0.187	0.241
-190.187	-22.543	-0.068	-0.040
-189.173	15.630	0.193	0.149
-188.158	-159.804	-0.025	-0.001
-187.144	139.505	0.070	-0.091
-186.129	-200.000	0.038	0.243
-185.114	86.370	0.192	0.208
-184.100	34.177	0.140	-0.120
-183.085	-10.406	0.066	0.043
-182.071	84.163	-0.126	0.136
-181.056	59.567	-0.140	-0.136
-180.042	-200.000	-0.043	0.432
-179.027	58.534	-0.232	0.224
-178.012	-200.000	-0.016	0.376
-176.998	-1.831	-0.408	0.282
-175.983	800.000	-0.095	0.377
-174.969	-175.156	0.121	-0.003
-173.954	-124.146	0.370	0.057
-172.939	-200.000	-0.042	-0.233
-171.925	461.920	0.106	0.232
-170.910	229.988	-0.013	-0.021
-169.896	64.620	-0.065	0.064
-168.881	-88.976	0.344	-0.100
-167.866	-165.864	-0.060	0.003
-166.852	108.536	-0.021	-0.025
-165.837	-200.000	0.037	-0.276
-164.823	-200.000	0.032	-0.238
-163.808	129.126	-0.128	0.161
-162.793	162.944	-0.086	-0.119
-161.779	-38.672	-0.302	0.157
-160.764	201.272	0.104	-0.157
-159.750	127.688	0.047	0.059
-158.735	71.174	-0.166	0.169
-157.720	-12.043	0.232	0.149
-156.706	792.723	0.142	-0.382
-155.691	-59.904	-0.130	-0.055
-154.677	28.151	0.058	0.048
-153.662	-200.000	-0.070	0.353
-152.647	564.081	-0.053	-0.126
-151.633	205.604	0.095	-0.145
-150.618	2.535	-0.034	-0.024
-149.604	-115.363	0.134	-0.025
-148.589	86.773	-0.019	-0.020
-147.574	5.937	0.113	0.082
-146.560	-147.437	-0.040	-0.003
-145.545	-10.250	0.181	0.118
-144.531	-42.786	0.050	0.025
-143.516	-200.000	-0.034	0.310
-142.502	2.091	0.314	0.223
-141.487	-20.442	-0.198	0.119
-140.472	-0.551	-0.068	-0.047
-139.458	800.000	-0.057	0.189
-138.443	45.588	0.168	0.153
-137.429	-200.000	0.031	0.139
-136.414	218.668	0.087	-0.136
-135.399	172.616	0.068	-0.097
-134.385	-56.516	0.114	-0.050
-133.370	-196.257	-0.264	-0.002
-132.356	-40.572	-0.350	-0.178
-131.341	6.684	-0.213	-0.155
-130.326	-68.499	-0.206	-0.078
-129.312	-188.970	-0.076	-0.001
-128.297	-59.538	-0.274	-0.115
-127.283	-29.951	-0.478	0.267
-126.268	116.713	0.129	-0.155
-125.253	-102.332	-0.141	0.033
-124.239	75.397	-0.020	-0.020
-123.224	-200.000	-0.006	0.098
-122.210	-8.370	0.206	0.136
-121.195	-132.996	-0.037	-0.005
