DTS Sentinel unit serial number:	SN413079Multiplexer serial number:	ORYXHardware model number:	OX4-SRSoftware version number:	ORYX F/W v4.00 Oryx Data Collector v3.7.2.0data status	okinstallation	princeton_trtdifferential loss correction	single-endedforward channel	channel 2reverse channel	N/Adate	2019/09/15time	08:03:35forward acquisition time	60.00reverse acquisition time	0.00gamma	496.2192k internal	0.2325k external	0.2325temperature offset calibration	1.0030default loss term (dB/km)	0.3790temperature slope calibration	1.0000multiplexer offset coefficient	1.0000multiplexer slope coefficient	1.0000fibre end	0.00T internal ref (°C)	30.81T ext. ref 1 (°C)	4.98T ext. ref 2 (°C)	26.78length (m)	temperature (°C)	Stokes	anti-Stokes-747.200	-70.927	-0.103	0.039
-746.185	-200.000	0.028	0.209
-745.171	-200.000	-0.015	-0.206
-744.156	-37.897	0.305	0.164
-743.142	84.823	-0.135	0.150
-742.127	150.759	-0.087	-0.120
-741.112	82.582	-0.168	0.184
-740.098	-47.233	0.200	-0.098
-739.083	-129.875	-0.509	-0.070
-738.069	800.000	0.052	0.168
-737.054	-86.639	0.200	-0.062
-736.039	800.000	-0.062	0.189
-735.025	-200.000	-0.013	-0.293
-734.010	-200.000	0.015	-0.213
-732.996	163.080	-0.038	-0.054
-731.981	-131.667	0.258	-0.034
-730.966	308.738	0.078	0.147
-729.952	-61.660	0.067	-0.028
-728.937	-82.635	-0.499	0.163
-727.923	668.803	-0.088	0.230
-726.908	79.030	-0.126	-0.136
-725.894	-131.862	0.268	-0.035
-724.879	296.367	-0.268	-0.495
-723.864	-65.002	-0.166	-0.068
-722.850	623.855	0.131	0.332
-721.835	-104.125	0.154	-0.036
-720.821	-141.566	-0.305	0.031
-719.806	-200.000	0.039	-0.197
-718.791	0.451	0.067	0.048
-717.777	63.440	0.181	0.183
-716.762	13.210	-0.393	-0.307
-715.748	-140.779	-0.012	0.001
-714.733	122.491	-0.181	0.228
-713.718	116.669	-0.114	-0.141
-712.704	800.000	-0.103	0.334
-711.689	-88.114	0.113	0.034
-710.675	313.966	0.181	-0.344
-709.660	-84.507	-0.223	0.071
-708.645	-4.070	0.175	0.122
-707.631	-186.231	-0.485	-0.007
-706.616	-143.929	-0.178	-0.017
-705.602	87.943	-0.099	-0.111
-704.587	194.670	0.055	-0.084
-703.572	79.915	-0.035	-0.038
-702.558	800.000	-0.085	-0.349
-701.543	-89.313	0.081	-0.024
-700.529	-105.686	0.170	0.039
-699.514	103.163	-0.075	-0.089
-698.499	0.249	0.242	0.174
-697.485	-196.685	0.373	-0.002
-696.470	-200.000	-0.022	-0.231
-695.456	-76.929	0.274	0.096
-694.441	92.224	-0.105	-0.119
-693.426	775.753	-0.041	0.112
-692.412	-128.749	-0.309	-0.044
-691.397	-200.000	-0.018	0.096
-690.383	-114.361	-0.423	0.082
-689.368	-130.099	0.131	-0.018
-688.354	-200.000	-0.007	-0.052
-687.339	-118.210	0.295	0.053
-686.324	183.975	-0.094	0.140
-685.310	-64.537	-0.301	0.123
-684.295	-200.000	0.000	0.103
-683.281	-200.000	-0.004	-0.450
-682.266	-200.000	-0.002	-0.346
-681.251	-200.000	0.016	0.297
-680.237	-128.574	0.145	-0.021
-679.222	-101.906	-0.185	-0.045
-678.208	-104.112	-0.180	-0.042
-677.193	-20.373	0.007	-0.004
-676.178	101.133	0.269	-0.315
-675.164	-200.000	0.037	-0.187
-674.149	27.432	0.086	0.073
-673.135	-26.551	0.271	0.160
-672.120	-89.316	-0.100	-0.030
-671.105	109.440	-0.205	-0.247
-670.091	800.000	-0.019	0.074
-669.076	108.294	-0.212	-0.255
-668.062	32.356	-0.217	-0.189
-667.047	800.000	0.130	-0.386
-666.032	-40.151	-0.265	-0.139
-665.018	83.104	-0.009	-0.009
-664.003	37.032	-0.146	0.129
-662.989	800.000	0.052	0.177
-661.974	27.414	0.092	0.078
-660.959	107.150	-0.303	-0.362
-659.945	675.233	-0.118	0.309
-658.930	-42.572	0.280	-0.144
-657.916	283.527	-0.068	0.122
-656.901	-139.372	-0.496	0.054
-655.886	-200.000	0.006	-0.214
-654.872	-77.752	-0.173	0.060
-653.857	-130.480	0.235	-0.032
-652.843	149.558	0.140	0.191
-651.828	-159.856	-0.268	-0.015
-650.814	3.453	0.166	-0.122
-649.799	-200.000	0.030	0.263
-648.784	800.000	-0.017	0.062
-647.770	-24.437	-0.153	0.092
-646.755	-33.024	-0.234	0.130
-645.741	-200.000	-0.059	0.438
-644.726	800.000	-0.018	-0.064
-643.711	800.000	-0.079	0.239
-642.697	-48.645	-0.481	-0.232
-641.682	800.000	-0.107	0.319
-640.668	-156.793	0.261	-0.016
-639.653	800.000	-0.089	-0.247
-638.638	800.000	0.042	-0.178
-637.624	-15.125	0.145	0.093
-636.609	-200.000	-0.030	-0.345
-635.595	-200.000	-0.010	0.252
-634.580	117.631	0.151	0.187
-633.565	-200.000	-0.031	-0.417
-632.551	155.851	-0.101	0.140
-631.536	800.000	0.094	0.381
-630.522	-134.857	0.092	0.011
-629.507	12.216	-0.034	0.026
-628.492	52.101	-0.344	-0.330
-627.478	124.684	0.174	-0.220
-626.463	-157.223	0.110	0.007
-625.449	200.430	-0.132	-0.204
-624.434	-200.000	-0.011	-0.076
-623.419	13.513	0.156	0.122
-622.405	800.000	0.020	0.060
-621.390	202.924	-0.181	-0.281
-620.376	169.031	-0.151	-0.216
-619.361	-200.000	0.022	-0.544
-618.346	-85.109	-0.106	-0.033
-617.332	63.632	0.451	0.455
-616.317	-62.755	0.225	-0.094
-615.303	338.412	-0.118	-0.231
-614.288	-77.335	-0.266	-0.093
-613.273	74.182	-0.106	-0.112
-612.259	23.440	0.100	0.082
-611.244	-200.000	-0.001	-0.420
-610.230	-200.000	-0.031	-0.142
-609.215	102.353	-0.293	-0.343
-608.201	-104.344	-0.232	-0.054
-607.186	-123.610	0.354	-0.056
-606.171	-140.861	0.224	0.023
-605.157	120.306	-0.156	0.195
-604.142	-136.536	-0.181	-0.021
-603.128	43.317	-0.288	0.264
-602.113	-200.000	0.040	0.180
-601.098	-200.000	0.005	0.180
-600.084	-200.000	-0.037	-0.182
-599.069	-200.000	0.041	0.221
-598.055	800.000	0.098	-0.276
-597.040	-52.096	-0.120	-0.056
-596.025	48.599	-0.199	0.187
-595.011	-19.260	0.098	-0.061
-593.996	-200.000	0.029	0.142
-592.982	-154.403	-0.372	-0.025
-591.967	-134.470	0.354	0.043
-590.952	-153.908	-0.115	0.008
-589.938	-40.844	-0.085	0.044
-588.923	-59.489	-0.203	0.088
-587.909	-49.904	0.160	-0.076
-586.894	-26.941	-0.124	-0.073
-585.879	-62.574	0.096	-0.040
-584.865	-121.700	-0.124	0.020
-583.850	80.081	-0.191	0.206
-582.836	-9.122	-0.113	0.076
-581.821	14.275	-0.159	-0.124
-580.806	37.145	0.061	-0.054
-579.792	22.210	-0.257	-0.211
-578.777	213.628	0.158	-0.251
-577.763	92.970	-0.149	-0.169
-576.748	-110.519	-0.218	0.045
-575.733	-173.330	0.642	-0.020
-574.719	557.752	0.120	-0.291
-573.704	-54.979	-0.277	-0.125
-572.690	-138.750	-0.051	-0.006
-571.675	32.197	-0.277	0.240
-570.661	-200.000	-0.050	-0.301
-569.646	800.000	0.039	0.168
-568.631	-78.019	-0.147	0.051
-567.617	-71.023	0.121	-0.046
-566.602	800.000	-0.137	-0.400
-565.588	402.721	0.068	0.143
-564.573	-200.000	0.061	-0.310
-563.558	766.250	0.102	-0.277
-562.544	-160.160	-0.211	0.011
-561.529	290.306	-0.099	0.180
-560.515	-74.977	0.172	0.062
-559.500	-39.738	0.168	0.088
-558.485	194.301	0.175	0.265
-557.471	71.725	-0.059	-0.062
-556.456	583.170	-0.083	0.203
-555.442	-200.000	-0.037	0.232
-554.427	-41.740	-0.097	-0.050
-553.412	-200.000	-0.020	0.182
-552.398	183.607	-0.073	0.108
-551.383	58.961	-0.132	-0.130
-550.369	-200.000	0.225	0.001
-549.354	-173.900	0.059	-0.002
-548.339	-126.270	-0.289	-0.043
-547.325	96.901	-0.065	-0.074
-546.310	52.002	0.285	-0.271
-545.296	107.159	-0.119	0.141
-544.281	-123.255	-0.258	-0.041
-543.266	-200.000	-0.010	0.125
-542.252	-200.000	-0.009	-0.079
-541.237	-82.078	-0.089	0.029
-540.223	-148.118	0.330	0.027
-539.208	81.655	0.143	-0.155
-538.193	95.425	-0.164	0.187
-537.179	-176.215	-0.287	-0.008
-536.164	2.096	0.224	-0.162
-535.150	-80.794	-0.254	0.084
-534.135	15.326	-0.188	0.147
-533.121	800.000	-0.061	0.254
-532.106	800.000	0.114	-0.399
-531.091	-178.778	-0.196	0.004
-530.077	800.000	0.101	0.314
-529.062	392.926	-0.071	-0.148
-528.048	328.235	0.184	0.354
-527.033	87.143	-0.155	0.172
-526.018	-41.908	0.120	0.062
-525.004	390.183	0.046	0.095
-523.989	753.408	0.100	-0.271
-522.975	181.167	-0.124	-0.182
-521.960	-32.424	-0.153	0.085
-520.945	450.015	-0.147	-0.325
-519.931	800.000	-0.026	-0.104
-518.916	-86.556	-0.137	0.042
-517.902	24.602	0.242	0.201
-516.887	-82.988	-0.212	0.068
-515.872	-10.433	0.063	0.042
-514.858	-16.110	-0.325	-0.207
-513.843	-143.171	0.234	0.023
-512.829	800.000	0.024	0.068
-511.814	-200.000	0.034	-0.153
-510.799	76.675	0.063	0.066
-509.785	632.611	0.064	0.162
-508.770	-32.713	0.259	-0.144
-507.756	531.228	-0.154	-0.363
-506.741	20.304	0.137	0.111
-505.726	-200.000	0.009	-0.061
-504.712	-135.188	-0.064	0.008
-503.697	800.000	-0.060	-0.225
-502.683	-200.000	0.001	-0.365
-501.668	798.694	-0.054	-0.149
-500.653	-54.694	0.315	-0.142
-499.639	66.759	-0.136	-0.138
-498.624	-72.108	0.042	-0.016
-497.610	-142.215	-0.225	0.022
-496.595	-5.896	-0.088	0.060
-495.581	-40.289	0.253	0.132
-494.566	8.170	0.082	-0.061
-493.551	51.290	-0.403	0.382
-492.537	-200.000	-0.001	-0.190
-491.522	-1.106	0.255	-0.180
-490.508	-64.980	0.091	-0.037
-489.493	800.000	0.042	0.160
-488.478	-89.540	-0.301	-0.088
-487.464	35.696	-0.208	-0.183
-486.449	-14.596	-0.053	0.034
-485.435	153.551	-0.116	0.158
-484.420	156.726	0.094	0.130
-483.405	15.432	-0.166	-0.130
-482.391	-200.000	-0.010	0.050
-481.376	-200.000	-0.000	-0.242
-480.362	11.016	0.325	0.248
-479.347	458.848	0.029	0.065
-478.332	48.749	-0.244	0.228
-477.318	-17.142	0.279	-0.176
-476.303	74.081	0.153	0.161
-475.289	248.776	-0.152	0.258
-474.274	-21.342	-0.130	0.080
-473.259	36.268	-0.052	0.046
-472.245	116.356	0.062	0.076
-471.230	-51.674	0.301	-0.140
-470.216	-50.694	-0.205	0.097
-469.201	800.000	0.055	0.179
-468.186	112.285	-0.268	0.324
-467.172	800.000	0.029	0.126
-466.157	-116.648	-0.247	0.045
-465.143	-200.000	0.015	0.089
-464.128	48.590	-0.166	-0.156
-463.113	194.467	-0.197	0.298
-462.099	-51.774	0.051	0.024
-461.084	-200.000	-0.008	0.093
-460.070	560.231	-0.042	0.101
-459.055	-55.486	-0.170	-0.076
-458.040	-55.581	-0.296	0.132
-457.026	-123.695	0.187	0.030
-456.011	191.785	-0.065	0.098
-454.997	-105.800	-0.325	-0.073
-453.982	-200.000	-0.225	0.000
-452.968	-200.000	0.022	0.125
-451.953	63.019	-0.159	0.158
-450.938	-20.891	0.146	-0.089
-449.924	-200.000	0.039	0.216
-448.909	-163.808	-0.174	-0.008
-447.895	107.590	0.313	0.371
-446.880	-131.829	0.204	-0.027
-445.865	95.624	-0.156	0.177
-444.851	-105.297	0.158	-0.036
-443.836	800.000	0.047	-0.168
-442.822	109.788	-0.181	-0.216
-441.807	581.753	0.089	0.217
-440.792	800.000	-0.086	0.294
-439.778	-83.753	0.343	0.109
-438.763	427.919	-0.135	-0.290
-437.749	760.996	0.020	-0.054
-436.734	400.708	-0.069	0.145
-435.719	65.561	0.259	-0.262
-434.705	-24.452	0.198	-0.118
-433.690	-99.117	-0.035	0.009
-432.676	482.057	0.126	0.286
-431.661	-200.000	-0.012	-0.078
-430.646	367.529	-0.097	-0.196
-429.632	-56.665	0.228	0.100
-428.617	-131.688	0.156	0.020
-427.603	-129.677	0.475	-0.065
-426.588	61.746	-0.094	0.094
-425.573	493.426	-0.047	0.107
-424.559	-200.000	-0.026	0.190
-423.544	98.715	0.190	-0.218
-422.530	10.425	-0.032	-0.024
-421.515	-37.631	0.195	-0.103
-420.500	800.000	-0.052	0.174
-419.486	-116.773	0.059	-0.011
-418.471	-88.587	0.339	0.101
-417.457	-100.241	-0.266	0.066
-416.442	15.148	0.216	0.169
-415.428	-84.380	0.151	-0.048
-414.413	-200.000	0.012	-0.097
-413.398	-75.462	0.160	-0.057
-412.384	-75.211	0.498	0.177
-411.369	375.010	-0.061	-0.123
-410.355	206.459	-0.122	-0.189
-409.340	-75.571	-0.262	0.093
-408.325	-85.903	-0.255	0.079
-407.311	800.000	-0.023	-0.098
-406.296	95.218	-0.151	0.172
-405.282	131.926	0.171	-0.219
-404.267	88.406	0.207	-0.229
-403.252	46.033	0.194	0.179
-402.238	-19.847	-0.227	-0.140
-401.223	-5.981	-0.183	0.125
-400.209	800.000	0.066	0.234
-399.194	-121.498	0.389	-0.064
-398.179	-127.614	-0.311	-0.045
-397.165	-166.408	-0.384	0.016
-396.150	-150.222	-0.271	-0.021
-395.136	-200.000	0.044	0.342
-394.121	-200.000	-0.037	-0.221
-393.106	-127.541	0.104	0.015
-392.092	-68.748	-0.078	0.030
-391.077	751.356	0.055	0.147
-390.063	2.347	0.217	-0.156
-389.048	25.967	0.149	-0.124
-388.033	-182.323	-0.111	-0.002
-387.019	73.020	-0.231	0.240
-386.004	-77.498	-0.309	0.107
-384.990	800.000	0.033	-0.109
-383.975	-200.000	0.056	-0.317
-382.960	10.044	0.017	-0.013
-381.946	-103.315	0.086	-0.020
-380.931	446.731	-0.055	0.120
-379.917	-48.143	-0.297	-0.142
-378.902	169.853	-0.142	-0.202
-377.888	-138.164	-0.242	0.027
-376.873	800.000	0.063	0.238
-375.858	-200.000	0.001	0.038
-374.844	226.581	-0.118	-0.190
-373.829	0.050	0.353	-0.250
-372.815	44.868	0.029	-0.027
-371.800	-118.785	0.034	0.006
-370.785	-142.332	0.127	0.012
-369.771	-51.655	-0.242	0.112
-368.756	338.508	0.137	-0.264
-367.742	-21.691	0.155	0.094
-366.727	-200.000	0.019	0.216
-365.712	-75.823	-0.321	0.113
-364.698	-36.917	0.100	0.053
-363.683	-200.000	0.054	0.240
-362.669	-22.107	0.412	0.249
-361.654	-116.544	-0.129	0.024
-360.639	-200.000	-0.015	0.141
-359.625	529.015	0.060	-0.142
-358.610	800.000	-0.087	-0.328
-357.596	800.000	0.069	-0.231
-356.581	79.080	-0.194	-0.207
-355.566	13.882	-0.339	0.262
-354.552	77.671	-0.166	-0.176
-353.537	-10.459	0.116	-0.076
-352.523	-200.000	0.050	0.392
-351.508	-50.393	-0.281	0.132
-350.493	444.964	0.039	0.086
-349.479	240.576	-0.113	0.187
-348.464	156.853	-0.089	0.122
-347.450	-35.336	0.053	-0.029
-346.435	-200.000	0.007	0.070
-345.420	251.764	0.064	0.108
-344.406	-200.000	0.029	0.243
-343.391	145.683	-0.188	0.250
-342.377	117.831	0.037	-0.045
-341.362	158.307	0.077	0.106
-340.348	800.000	0.029	-0.102
-339.333	-27.540	0.167	0.096
-338.318	-42.713	0.131	-0.066
-337.304	-75.731	0.137	0.048
-336.289	-1.962	0.122	-0.085
-335.275	800.000	0.019	-0.053
-334.260	-12.210	0.133	0.086
-333.245	800.000	-0.044	-0.129
-332.231	-140.893	-0.064	0.007
-331.216	-97.079	0.316	0.082
-330.202	-61.014	0.170	-0.071
-329.187	-200.000	-0.006	-0.031
-328.172	10.933	0.186	-0.141
-327.158	-200.000	-0.033	0.214
-326.143	601.973	-0.118	0.292
-325.129	-200.000	0.059	0.266
-324.114	800.000	0.028	-0.119
-323.099	168.065	-0.035	-0.050
-322.085	-18.920	0.182	-0.112
-321.070	800.000	0.103	-0.444
-320.056	-200.000	-0.015	0.373
-319.041	519.823	-0.031	-0.071
-318.026	204.545	-0.108	0.166
-317.012	62.798	0.072	0.072
-315.997	-18.084	-0.200	-0.124
-314.983	380.395	-0.088	-0.178
-313.968	157.547	-0.238	-0.327
-312.953	208.815	-0.172	0.267
-311.939	-159.670	-0.376	0.021
-310.924	-35.994	-0.152	-0.081
-309.910	-8.389	0.156	0.104
-308.895	-149.059	-0.287	0.023
-307.880	-73.896	0.140	0.050
-306.866	119.373	0.214	-0.262
-305.851	168.656	0.101	0.142
-304.837	76.753	0.227	-0.238
-303.822	-94.301	-0.121	-0.033
-302.807	-123.682	-0.167	-0.026
-301.793	159.682	0.092	-0.127
-300.778	41.907	-0.197	-0.177
-299.764	347.361	-0.103	0.201
-298.749	359.633	-0.036	0.072
-297.735	-200.000	0.022	-0.180
-296.720	-69.940	0.169	-0.064
-295.705	329.659	0.106	-0.202
-294.691	800.000	0.118	0.358
-293.676	-27.757	0.302	0.174
-292.662	113.837	0.156	-0.187
-291.647	-53.165	0.430	-0.196
-290.632	131.453	-0.107	0.136
-289.618	-200.000	-0.007	0.092
-288.603	264.048	0.069	0.119
-287.589	172.197	0.177	0.252
-286.574	-139.074	-0.141	0.015
-285.559	-200.000	-0.072	-0.523
-284.545	238.461	-0.225	0.370
-283.530	422.981	-0.076	0.163
-282.516	96.105	0.117	-0.133
-281.501	72.895	-0.172	-0.178
-280.486	463.834	0.100	0.222
-279.472	-66.567	0.117	0.046
-278.457	163.936	-0.059	0.082
-277.443	-49.568	0.150	0.071
-276.428	800.000	0.056	0.184
-275.413	107.853	0.086	0.102
-274.399	17.219	0.173	-0.136
-273.384	800.000	0.100	-0.375
-272.370	-62.253	0.120	0.050
-271.355	-134.313	0.212	-0.026
-270.340	-72.944	-0.292	-0.106
-269.326	-25.474	0.188	-0.110
-268.311	800.000	-0.040	0.113
-267.297	-86.297	-0.258	0.079
-266.282	43.133	-0.033	-0.030
-265.267	421.938	0.120	0.255
-264.253	-0.451	-0.171	0.120
-263.238	88.713	0.159	-0.175
-262.224	-135.006	-0.425	0.051
-261.209	-200.000	-0.020	-0.193
-260.195	24.900	0.200	-0.164
-259.180	102.251	-0.019	-0.022
-258.165	800.000	0.069	-0.248
-257.151	-200.000	-0.005	-0.141
-256.136	-14.082	0.158	0.101
-255.122	800.000	-0.061	-0.246
-254.107	210.541	0.203	-0.316
-253.092	331.868	-0.138	-0.263
-252.078	800.000	0.065	0.202
-251.063	138.020	-0.095	0.123
-250.049	-126.837	0.395	0.058
-249.034	-52.020	0.280	-0.129
-248.019	-36.714	0.372	-0.198
-247.005	-200.000	0.018	0.118
-245.990	59.270	-0.298	-0.291
-244.976	-148.791	-0.128	0.010
-243.961	136.408	-0.170	0.220
-242.946	67.244	0.224	0.226
-241.932	404.708	-0.082	0.171
-240.917	-85.657	0.213	-0.065
-239.903	-74.039	-0.364	-0.131
-238.888	-43.182	0.207	0.104
-237.873	800.000	-0.004	0.016
-236.859	-155.570	-0.289	0.018
-235.844	-66.422	0.198	0.078
-234.830	-197.242	0.169	0.001
-233.815	-200.000	0.030	0.315
-232.800	800.000	0.062	0.256
-231.786	800.000	-0.023	0.076
-230.771	64.163	0.075	0.074
-229.757	-9.332	0.213	-0.141
-228.742	9.494	-0.276	-0.207
-227.727	-200.000	0.004	-0.102
-226.713	-200.000	0.005	-0.126
-225.698	-200.000	-0.039	0.341
-224.684	-56.834	-0.108	-0.047
-223.669	-50.017	-0.260	0.122
-222.655	-111.096	0.455	0.092
-221.640	-96.362	0.224	0.059
-220.625	-168.784	-0.154	-0.006
-219.611	100.124	0.093	-0.107
-218.596	-200.000	0.001	0.036
-217.582	-99.822	-0.100	0.025
-216.567	-86.363	0.299	-0.091
-215.552	279.337	0.156	-0.275
-214.538	29.724	0.034	-0.029
-213.523	67.923	-0.105	-0.106
-212.509	-154.240	-0.254	0.017
-211.494	800.000	0.044	-0.171
-210.479	113.720	0.185	-0.222
-209.465	-152.572	0.193	-0.014
-208.450	800.000	0.053	0.155
-207.436	-148.662	0.030	0.002
-206.421	113.750	-0.129	0.155
-205.406	-151.820	0.040	-0.003
-204.392	-36.864	-0.042	0.022
-203.377	-200.000	-0.030	0.295
-202.363	59.387	0.265	-0.258
-201.348	134.920	0.178	0.228
-200.333	-21.511	-0.225	-0.135
-199.319	87.259	0.108	0.118
-198.304	-89.422	0.152	0.044
-197.290	-2.656	-0.041	-0.028
-196.275	-200.000	0.007	0.204
-195.260	41.004	0.121	-0.107
-194.246	-66.632	-0.192	-0.075
-193.231	-82.997	-0.235	0.075
-192.217	-116.988	0.210	-0.038
-191.202	-110.667	0.211	-0.043
-190.187	198.389	-0.087	0.131
-189.173	-41.504	-0.286	-0.145
-188.158	443.769	0.147	0.319
-187.144	513.965	0.096	0.221
-186.129	-8.589	-0.188	-0.125
-185.114	407.716	0.149	0.312
-184.100	77.231	-0.070	-0.074
-183.085	800.000	-0.041	0.140
-182.071	-200.000	0.002	-0.282
-181.056	-141.209	0.134	0.014
-180.042	-160.833	0.427	0.022
-179.027	-200.000	0.044	-0.297
-178.012	-51.862	0.175	0.080
-176.998	800.000	0.008	-0.025
-175.983	144.487	-0.077	-0.101
-174.969	-112.038	-0.346	0.069
-173.954	-200.000	-0.138	0.001
-172.939	224.822	0.163	-0.260
-171.925	50.691	-0.336	-0.314
-170.910	800.000	0.031	0.108
-169.896	-200.000	-0.029	0.151
-168.881	-102.803	0.153	-0.036
-167.866	84.195	-0.241	0.260
-166.852	158.265	0.209	-0.286
-165.837	80.064	0.155	-0.164
-164.823	-76.929	0.604	-0.208
-163.808	-93.561	-0.310	-0.085
-162.793	-17.226	-0.039	0.024
-161.779	104.919	-0.089	0.103
-160.764	-133.069	0.332	-0.041
-159.750	-145.976	-0.070	0.006
-158.735	197.751	-0.071	-0.107
-157.720	-57.986	0.224	0.097
-156.706	-2.504	0.226	-0.156
-155.691	-193.845	-0.355	-0.003
-154.677	-200.000	-0.003	-0.092
-153.662	-200.000	-0.001	-0.055
-152.647	47.022	0.152	-0.139
-151.633	297.619	0.041	-0.074
-150.618	-139.945	-0.156	-0.016
-149.604	-200.000	-0.060	-0.294
-148.589	-110.415	0.204	0.042
-147.574	26.829	0.111	-0.091
-146.560	247.182	0.036	-0.060
-145.545	139.768	0.040	0.051
-144.531	240.223	0.188	0.309
-143.516	-42.681	-0.300	0.150
-142.502	-149.790	0.318	-0.025
-141.487	-200.000	-0.022	-0.111
-140.472	23.033	-0.111	0.089
-139.458	800.000	-0.127	0.350
-138.443	10.899	-0.254	0.191
-137.429	800.000	0.055	0.166
-136.414	-92.164	-0.377	0.105
-135.399	-7.375	0.103	0.069
-134.385	498.248	0.035	-0.079
-133.370	800.000	0.036	0.134
-132.356	99.737	-0.128	-0.146
-131.341	-89.263	-0.262	0.076
-130.326	145.689	0.107	-0.141
-129.312	-200.000	-0.030	0.155
-128.297	-55.530	0.203	0.089
-127.283	-133.813	-0.078	0.010
-126.268	-46.564	0.145	0.070
-125.253	341.679	-0.109	-0.210
-124.239	-200.000	-0.032	0.149
-123.224	800.000	0.041	-0.112
-122.210	-200.000	-0.019	-0.085
-121.195	213.720	-0.142	0.221
