DTS Sentinel unit serial number:	SN413079Multiplexer serial number:	ORYXHardware model number:	OX4-SRSoftware version number:	ORYX F/W v4.00 Oryx Data Collector v3.7.2.0data status	okinstallation	princeton_trtdifferential loss correction	single-endedforward channel	channel 2reverse channel	N/Adate	2019/09/14time	10:51:35forward acquisition time	60.00reverse acquisition time	0.00gamma	496.2192k internal	0.2315k external	0.2315temperature offset calibration	1.0144default loss term (dB/km)	0.3790temperature slope calibration	1.0000multiplexer offset coefficient	1.0000multiplexer slope coefficient	1.0000fibre end	0.00T internal ref (°C)	35.67T ext. ref 1 (°C)	4.32T ext. ref 2 (°C)	33.01length (m)	temperature (°C)	Stokes	anti-Stokes-747.200	-91.115	0.119	0.035
-746.185	-78.117	0.290	0.101
-745.171	800.000	-0.083	-0.270
-744.156	-200.000	-0.035	0.460
-743.142	-158.763	-0.146	0.008
-742.127	-200.000	0.017	-0.311
-741.112	782.973	0.022	-0.062
-740.098	-200.000	-0.043	0.231
-739.083	210.598	0.106	-0.169
-738.069	220.060	0.172	0.280
-737.054	-81.195	0.248	-0.083
-736.039	-200.000	-0.025	-0.145
-735.025	-108.103	0.193	0.042
-734.010	800.000	0.084	-0.363
-732.996	-200.000	0.012	-0.111
-731.981	-138.933	-0.284	0.031
-730.966	-70.118	-0.230	-0.089
-729.952	84.879	0.087	0.097
-728.937	-108.304	-0.276	0.060
-727.923	-200.000	0.084	-0.465
-726.908	135.626	-0.050	0.066
-725.894	-46.789	-0.084	-0.042
-724.879	790.861	-0.153	-0.427
-723.864	-115.749	-0.449	0.085
-722.850	-182.061	-0.131	-0.003
-721.835	-60.135	-0.098	-0.042
-720.821	23.416	-0.262	0.218
-719.806	71.711	-0.172	0.181
-718.791	6.531	-0.136	-0.103
-717.777	-154.512	-0.339	0.023
-716.762	-114.073	-0.369	-0.072
-715.748	800.000	0.059	0.229
-714.733	-172.696	0.107	-0.003
-713.718	103.387	-0.019	-0.023
-712.704	431.934	-0.079	-0.174
-711.689	196.558	0.176	0.271
-710.675	-67.999	0.070	-0.028
-709.660	-98.545	0.349	0.090
-708.645	-5.632	-0.253	-0.176
-707.631	-133.042	0.195	0.025
-706.616	-26.820	0.130	0.077
-705.602	453.944	-0.108	-0.242
-704.587	140.156	-0.166	0.222
-703.572	-200.000	-0.017	0.105
-702.558	-200.000	0.025	0.119
-701.543	48.516	0.221	-0.210
-700.529	-79.677	0.229	-0.078
-699.514	800.000	0.076	-0.247
-698.499	-56.754	0.024	0.011
-697.485	-106.583	0.172	0.039
-696.470	-138.399	-0.042	-0.005
-695.456	206.860	0.052	-0.082
-694.441	-167.004	-0.191	0.008
-693.426	107.128	-0.046	0.055
-692.412	-27.784	0.236	-0.138
-691.397	-67.634	0.205	-0.081
-690.383	176.030	0.101	0.149
-689.368	-200.000	0.023	-0.171
-688.354	-127.347	-0.198	0.029
-687.339	-200.000	-0.028	-0.167
-686.324	235.375	0.158	-0.263
-685.310	-200.000	-0.017	0.325
-684.295	167.434	-0.079	-0.114
-683.281	220.417	-0.037	0.060
-682.266	82.187	0.134	-0.147
-681.251	-133.875	-0.173	-0.022
-680.237	124.386	-0.023	0.030
-679.222	-23.801	0.179	-0.109
-678.208	7.136	-0.158	0.119
-677.193	165.028	-0.176	0.252
-676.178	103.677	-0.203	-0.241
-675.164	-200.000	-0.004	-0.170
-674.149	96.716	-0.227	-0.263
-673.135	453.272	0.089	-0.198
-672.120	106.288	0.042	-0.050
-671.105	-200.000	0.001	0.016
-670.091	-200.000	0.044	-0.387
-669.076	-60.462	0.185	-0.080
-668.062	800.000	0.019	0.057
-667.047	-200.000	-0.008	-0.083
-666.032	-200.000	-0.003	0.049
-665.018	242.354	0.086	-0.146
-664.003	-169.972	-0.226	0.008
-662.989	-200.000	0.013	-0.332
-661.974	2.888	-0.083	-0.061
-660.959	98.727	-0.039	-0.045
-659.945	-132.102	-0.120	0.016
-658.930	-132.833	-0.226	0.029
-657.916	59.195	-0.295	0.293
-656.901	-200.000	0.002	-0.217
-655.886	115.897	0.098	0.121
-654.872	-23.632	-0.278	-0.168
-653.857	102.046	0.160	-0.189
-652.843	-200.000	-0.019	-0.109
-651.828	-44.292	-0.182	0.092
-650.814	-200.000	-0.017	-0.194
-649.799	95.154	-0.100	-0.115
-648.784	-63.565	-0.505	0.209
-647.770	350.963	-0.092	-0.184
-646.755	-19.198	0.158	-0.099
-645.741	-85.015	-0.341	-0.108
-644.726	-200.000	-0.025	0.269
-643.711	-144.362	-0.196	0.018
-642.697	-200.000	-0.033	0.233
-641.682	-200.000	0.023	-0.110
-640.668	87.102	-0.062	-0.070
-639.653	-7.366	-0.088	-0.060
-638.638	-23.623	-0.099	0.060
-637.624	9.742	0.125	0.096
-636.609	-42.031	0.209	0.108
-635.595	-200.000	0.012	-0.168
-634.580	-200.000	0.012	-0.286
-633.565	-47.685	0.269	-0.132
-632.551	-27.303	-0.408	0.240
-631.536	97.428	-0.214	-0.248
-630.522	36.232	-0.088	0.078
-629.507	-200.000	0.035	-0.156
-628.492	273.906	-0.104	0.186
-627.478	111.338	0.236	0.287
-626.463	612.877	0.061	-0.154
-625.449	-19.616	0.077	0.048
-624.434	-123.265	0.043	-0.007
-623.419	66.315	-0.149	-0.153
-622.405	-5.805	-0.199	0.137
-621.390	-157.893	-0.099	-0.006
-620.376	33.257	-0.212	0.185
-619.361	82.668	0.073	-0.080
-618.346	-159.495	-0.279	-0.016
-617.332	-59.556	-0.094	0.041
-616.317	-112.088	-0.346	0.070
-615.303	-38.484	0.129	-0.069
-614.288	-200.000	-0.035	-0.307
-613.273	-71.380	-0.169	-0.064
-612.259	-67.451	-0.210	0.083
-611.244	-200.000	0.007	-0.274
-610.230	98.478	-0.178	-0.207
-609.215	800.000	-0.086	0.323
-608.201	457.834	0.105	-0.235
-607.186	800.000	0.072	0.218
-606.171	65.585	-0.218	-0.223
-605.157	-96.740	0.102	-0.027
-604.142	-200.000	0.021	-0.184
-603.128	-149.798	-0.122	0.010
-602.113	-108.023	0.169	0.037
-601.098	37.641	0.059	-0.053
-600.084	-56.223	-0.075	-0.033
-599.069	-123.008	-0.261	0.042
-598.055	96.775	0.167	-0.193
-597.040	-85.681	-0.175	-0.055
-596.025	489.695	-0.089	0.204
-595.011	37.831	-0.159	0.142
-593.996	306.744	-0.123	0.230
-592.982	280.832	0.115	-0.207
-591.967	288.496	-0.124	-0.226
-590.952	-127.455	-0.350	0.051
-589.938	-40.717	-0.226	-0.118
-588.923	783.930	-0.107	-0.295
-587.909	-200.000	-0.051	-0.296
-586.894	-200.000	-0.030	0.367
-585.879	223.096	-0.084	0.137
-584.865	-128.839	0.303	0.043
-583.850	-186.123	0.115	-0.002
-582.836	252.222	0.110	-0.188
-581.821	-155.107	-0.307	0.020
-580.806	271.354	0.140	-0.248
-579.792	13.361	0.295	0.231
-578.777	-90.643	-0.243	0.071
-577.763	31.396	0.107	-0.093
-576.748	7.214	-0.210	0.158
-575.733	800.000	0.078	-0.265
-574.719	277.051	0.153	0.273
-573.704	-48.870	0.107	0.052
-572.690	-200.000	-0.046	0.210
-571.675	185.739	-0.160	0.239
-570.661	387.388	-0.047	0.098
-569.646	-54.161	-0.269	-0.123
-568.631	800.000	-0.087	-0.259
-567.617	-146.895	0.213	-0.018
-566.602	-54.729	-0.183	-0.083
-565.588	-200.000	0.035	0.213
-564.573	-105.412	-0.112	0.026
-563.558	101.260	-0.261	-0.306
-562.544	175.997	-0.090	-0.132
-561.529	-56.500	-0.141	0.063
-560.515	-80.204	-0.283	0.095
-559.500	-45.636	0.210	0.104
-558.485	450.917	0.118	-0.262
-557.471	-108.894	0.350	-0.075
-556.456	-131.577	-0.209	-0.028
-555.442	800.000	0.101	-0.318
-554.427	-141.513	0.197	0.020
-553.412	-23.713	0.197	0.119
-552.398	732.766	0.055	0.148
-551.383	-60.592	-0.166	0.071
-550.369	319.263	-0.135	0.257
-549.354	59.746	-0.250	0.249
-548.339	-50.392	-0.146	-0.070
-547.325	-116.155	-0.405	-0.076
-546.310	800.000	-0.038	-0.124
-545.296	800.000	-0.026	-0.090
-544.281	-18.439	0.021	0.013
-543.266	-114.890	-0.131	0.025
-542.252	-200.000	-0.022	0.141
-541.237	158.685	-0.167	0.234
-540.223	-200.000	0.021	0.134
-539.208	800.000	-0.073	-0.271
-538.193	-200.000	0.055	-0.317
-537.179	16.149	-0.293	-0.232
-536.164	27.736	-0.256	-0.216
-535.150	-8.366	-0.145	0.098
-534.135	-200.000	-0.004	0.105
-533.121	-73.845	0.137	0.050
-532.106	54.446	0.173	-0.168
-531.091	-36.237	0.095	-0.051
-530.077	132.417	-0.124	-0.161
-529.062	21.003	0.103	0.084
-528.048	432.173	0.141	0.308
-527.033	68.402	0.042	0.043
-526.018	16.155	0.276	0.218
-525.004	6.770	-0.251	-0.188
-523.989	7.465	-0.211	0.159
-522.975	-5.342	-0.259	0.179
-521.960	252.104	-0.067	0.114
-520.945	-200.000	0.007	-0.063
-519.931	57.134	0.286	0.280
-518.916	-200.000	0.011	0.065
-517.902	276.240	-0.129	-0.230
-516.887	-200.000	0.030	0.227
-515.872	800.000	0.025	-0.100
-514.858	-186.787	-0.406	0.006
-513.843	-200.000	0.007	0.157
-512.829	34.601	0.174	-0.153
-511.814	-122.609	0.115	-0.019
-510.799	48.728	0.111	-0.105
-509.785	-200.000	-0.032	-0.285
-508.770	-200.000	-0.014	-0.142
-507.756	-47.101	-0.198	0.097
-506.741	-1.551	0.208	0.147
-505.726	-1.208	0.136	0.096
-504.712	-108.752	0.241	-0.052
-503.697	57.325	-0.420	-0.412
-502.683	-200.000	0.035	-0.270
-501.668	39.995	-0.378	0.341
-500.653	660.890	0.110	0.285
-499.639	-109.260	0.451	-0.096
-498.624	56.364	0.070	0.069
-497.610	800.000	0.026	-0.086
-496.595	-47.590	0.212	-0.103
-495.581	733.776	-0.102	-0.274
-494.566	-195.858	-0.198	0.001
-493.551	-44.760	0.226	0.113
-492.537	52.758	0.064	0.061
-491.522	-102.523	0.194	0.047
-490.508	-200.000	0.004	-0.204
-489.493	-68.645	0.147	-0.057
-488.478	800.000	0.072	0.241
-487.464	-119.567	-0.347	-0.060
-486.449	518.505	0.038	-0.088
-485.435	683.892	0.053	-0.140
-484.420	25.176	-0.223	0.185
-483.405	-122.843	-0.243	-0.039
-482.391	-65.218	-0.097	0.039
-481.376	197.007	0.119	0.181
-480.362	32.265	0.188	0.163
-479.347	163.176	-0.113	0.160
-478.332	-91.094	-0.291	0.084
-477.318	15.730	-0.269	-0.212
-476.303	243.045	-0.157	-0.263
-475.289	-0.623	-0.211	-0.150
-474.274	41.684	0.105	-0.095
-473.259	118.103	0.144	0.178
-472.245	-62.919	-0.128	-0.053
-471.230	355.072	-0.141	-0.282
-470.216	800.000	-0.057	-0.159
-469.201	144.675	-0.070	-0.094
-468.186	800.000	0.131	0.372
-467.172	163.307	-0.218	-0.307
-466.157	106.527	0.112	0.133
-465.143	-200.000	0.016	0.113
-464.128	78.175	-0.180	-0.192
-463.113	-200.000	0.028	-0.272
-462.099	-150.411	0.144	0.011
-461.084	-121.071	-0.262	-0.044
-460.070	800.000	-0.044	-0.132
-459.055	800.000	0.113	0.336
-458.040	132.478	0.111	0.144
-457.026	-145.421	-0.163	-0.015
-456.011	-81.106	-0.486	-0.161
-454.997	-8.408	0.135	0.091
-453.982	-1.839	-0.141	-0.099
-452.968	800.000	-0.061	-0.212
-451.953	-200.000	-0.004	-0.082
-450.938	-134.196	-0.047	-0.006
-449.924	417.321	-0.120	-0.256
-448.909	70.084	-0.069	0.072
-447.895	-103.147	-0.320	-0.076
-446.880	-200.000	0.013	-0.235
-445.865	96.822	-0.131	0.150
-444.851	800.000	-0.084	-0.282
-443.836	-7.726	-0.371	0.251
-442.822	118.620	0.212	0.262
-441.807	-50.907	0.298	0.140
-440.792	-200.000	0.161	-0.001
-439.778	-2.637	-0.215	0.151
-438.763	130.160	-0.047	0.060
-437.749	-200.000	0.016	-0.239
-436.734	-200.000	0.035	0.321
-435.719	-200.000	-0.003	-0.044
-434.705	75.354	0.211	0.223
-433.690	-0.857	0.135	0.096
-432.676	-107.107	-0.124	0.027
-431.661	184.668	-0.153	-0.226
-430.646	800.000	0.047	-0.144
-429.632	-200.000	-0.058	-0.362
-428.617	-146.038	0.428	0.038
-427.603	800.000	-0.028	-0.088
-426.588	800.000	-0.040	-0.139
-425.573	800.000	-0.023	-0.076
-424.559	103.015	0.028	-0.032
-423.544	33.431	-0.183	-0.159
-422.530	-200.000	0.028	-0.152
-421.515	-200.000	-0.019	0.099
-420.500	254.467	-0.091	-0.157
-419.486	317.692	0.112	-0.212
-418.471	-7.402	-0.128	-0.087
-417.457	-53.774	0.289	-0.132
-416.442	-71.293	0.146	-0.055
-415.428	413.383	-0.091	-0.194
-414.413	40.129	0.090	-0.081
-413.398	-144.510	0.230	0.021
-412.384	62.978	-0.271	0.271
-411.369	-74.991	0.046	-0.017
-410.355	59.785	-0.131	0.129
-409.340	106.815	-0.002	0.002
-408.325	-21.833	-0.241	-0.147
-407.311	-3.552	-0.177	-0.123
-406.296	164.452	0.058	-0.081
-405.282	800.000	0.081	0.327
-404.267	800.000	0.060	0.188
-403.252	-140.734	0.278	0.029
-402.238	-80.967	0.179	-0.059
-401.223	55.983	-0.181	0.176
-400.209	5.784	-0.128	-0.095
-399.194	-48.842	-0.047	-0.023
-398.179	144.413	-0.090	-0.120
-397.165	63.774	0.145	-0.145
-396.150	93.868	0.225	-0.255
-395.136	-200.000	-0.450	0.001
-394.121	-200.000	-0.006	0.057
-393.106	93.199	0.153	-0.173
-392.092	-200.000	-0.010	0.266
-391.077	-200.000	0.041	-0.209
-390.063	191.014	-0.014	0.021
-389.048	134.208	-0.166	-0.215
-388.033	65.711	-0.126	-0.128
-387.019	-142.723	-0.049	-0.005
-386.004	-107.343	-0.411	-0.090
-384.990	-94.655	0.118	0.032
-383.975	-83.554	-0.132	-0.042
-382.960	96.724	-0.091	-0.104
-381.946	635.046	-0.192	0.487
-380.931	385.232	-0.112	0.231
-379.917	315.099	0.082	0.155
-378.902	153.554	0.143	0.195
-377.888	160.823	-0.105	0.147
-376.873	-87.951	-0.041	-0.012
-375.858	800.000	-0.066	-0.189
-374.844	-200.000	-0.001	0.086
-373.829	66.786	0.330	0.335
-372.815	11.281	-0.308	-0.236
-371.800	228.580	0.166	0.270
-370.785	112.668	0.086	0.104
-369.771	-200.000	0.031	0.459
-368.756	-40.807	0.321	-0.166
-367.742	259.149	0.101	-0.174
-366.727	-200.000	0.004	0.109
-365.712	8.042	-0.299	-0.224
-364.698	800.000	-0.083	0.231
-363.683	344.502	0.087	-0.170
-362.669	-135.564	-0.244	-0.029
-361.654	199.748	0.110	-0.168
-360.639	-99.458	0.086	0.022
-359.625	-109.787	0.115	-0.024
-358.610	-200.000	-0.019	0.224
-357.596	36.185	-0.180	0.158
-356.581	-98.257	-0.405	0.104
-355.566	-75.867	0.152	0.054
-354.552	-25.650	-0.344	-0.203
-353.537	-8.816	0.196	-0.131
-352.523	-173.662	0.291	0.009
-351.508	-121.010	-0.349	-0.058
-350.493	800.000	0.075	-0.221
-349.479	602.980	-0.171	0.425
-348.464	70.630	-0.154	0.159
-347.450	-157.934	0.239	-0.014
-346.435	-151.454	-0.414	0.031
-345.420	-97.087	0.299	-0.078
-344.406	-60.146	-0.273	0.116
-343.391	-130.454	0.190	0.026
-342.377	-40.429	0.274	-0.142
-341.362	-70.064	-0.070	-0.027
-340.348	305.449	-0.102	0.189
-339.333	644.231	-0.151	0.384
-338.318	38.753	0.117	-0.105
-337.304	800.000	-0.036	-0.141
-336.289	800.000	0.048	-0.177
-335.275	-10.337	-0.278	0.184
-334.260	-200.000	-0.041	0.239
-333.245	-41.277	-0.142	0.073
-332.231	-137.764	0.257	0.029
-331.216	269.843	-0.095	-0.167
-330.202	-44.301	0.330	-0.165
-329.187	-200.000	0.002	-0.218
-328.172	-200.000	-0.038	0.178
-327.158	-191.293	0.072	-0.001
-326.143	506.874	0.124	-0.287
-325.129	217.673	0.109	-0.173
-324.114	117.575	-0.049	0.060
-323.099	800.000	0.071	0.237
-322.085	-128.805	0.316	-0.044
-321.070	664.363	0.170	0.437
-320.056	111.548	0.347	-0.417
-319.041	121.833	-0.094	0.117
-318.026	-165.244	0.309	0.014
-317.012	23.387	0.120	-0.098
-315.997	-83.285	0.177	-0.057
-314.983	21.798	0.177	0.143
-313.968	-130.693	-0.147	-0.020
-312.953	-93.874	-0.088	-0.024
-311.939	-200.000	0.008	0.110
-310.924	59.772	0.162	-0.159
-309.910	-200.000	0.003	0.021
-308.895	-200.000	-0.052	-0.269
-307.880	-103.706	-0.094	0.022
-306.866	-41.877	-0.055	0.028
-305.851	-200.000	0.062	-0.362
-304.837	-35.119	0.164	0.089
-303.822	800.000	-0.073	-0.252
-302.807	611.273	0.082	-0.204
-301.793	-200.000	-0.037	0.317
-300.778	580.435	-0.073	0.178
-299.764	338.746	-0.008	0.016
-298.749	264.418	0.201	-0.348
-297.735	687.155	0.125	0.326
-296.720	-66.423	-0.292	0.115
-295.705	200.971	0.103	0.158
-294.691	743.884	-0.063	-0.169
-293.676	84.289	0.329	0.358
-292.662	-87.317	-0.083	-0.025
-291.647	-66.945	0.330	-0.130
-290.632	-122.308	0.426	0.069
-289.618	-32.235	-0.067	-0.037
-288.603	33.292	0.042	0.037
-287.589	211.960	-0.139	0.218
-286.574	-200.000	0.014	0.162
-285.559	255.902	-0.121	0.207
-284.545	-200.000	-0.054	-0.297
-283.530	800.000	0.047	-0.172
-282.516	-200.000	-0.064	-0.470
-281.501	592.643	0.157	-0.386
-280.486	316.185	-0.084	-0.158
-279.472	-31.305	0.344	-0.193
-278.457	155.467	0.220	0.302
-277.443	-59.762	0.161	-0.069
-276.428	50.626	-0.219	0.206
-275.413	-18.959	-0.235	-0.145
-274.399	-29.158	0.152	0.087
-273.384	65.290	0.080	-0.081
-272.370	331.967	-0.251	-0.483
-271.355	800.000	0.030	0.102
-270.340	-200.000	0.004	0.506
-269.326	20.421	0.219	0.176
-268.311	-38.722	0.072	0.038
-267.297	-59.865	-0.060	-0.025
-266.282	-78.133	0.192	0.066
-265.267	-200.000	0.039	-0.226
-264.253	359.327	0.074	0.147
-263.238	800.000	-0.009	-0.033
-262.224	-200.000	0.013	0.297
-261.209	330.089	0.086	-0.165
-260.195	23.415	0.093	-0.076
-259.180	800.000	-0.149	0.548
-258.165	-63.992	0.248	0.101
-257.151	-200.000	-0.019	0.389
-256.136	800.000	0.064	-0.198
-255.122	-31.283	0.213	-0.119
-254.107	-200.000	0.019	0.147
-253.092	-200.000	0.020	0.111
-252.078	264.864	0.179	0.309
-251.063	644.093	-0.168	0.426
-250.049	-125.459	0.144	-0.022
-249.034	641.954	0.090	0.229
-248.019	370.007	-0.052	0.105
-247.005	96.068	0.145	-0.164
-245.990	12.968	0.192	-0.147
-244.976	-200.000	0.001	0.015
-243.961	-112.244	-0.128	0.026
-242.946	247.674	0.082	0.137
-241.932	-39.035	-0.177	-0.093
-240.917	-200.000	-0.002	0.008
-239.903	-24.922	0.208	0.122
-238.888	-200.000	0.033	-0.191
-237.873	209.131	0.147	-0.229
-236.859	211.642	0.142	-0.221
-235.844	38.734	0.114	0.101
-234.830	284.344	0.136	0.243
-233.815	70.602	0.098	0.100
-232.800	-200.000	-0.036	0.170
-231.786	477.179	-0.122	-0.275
-230.771	22.131	0.217	-0.176
-229.757	800.000	-0.066	0.193
-228.742	-140.761	-0.238	-0.024
-227.727	239.735	-0.070	-0.116
-226.713	-50.222	-0.199	-0.094
-225.698	377.096	0.074	0.150
-224.684	-163.906	0.264	0.012
-223.669	-110.084	-0.369	-0.077
-222.655	16.031	-0.268	-0.209
-221.640	-200.000	-0.003	-0.136
-220.625	-79.705	0.098	0.033
-219.611	-55.853	0.137	0.061
-218.596	-73.953	0.148	0.053
-217.582	-52.571	0.383	-0.176
-216.567	-31.999	-0.117	0.065
-215.552	184.927	0.049	0.073
-214.538	800.000	-0.091	-0.355
-213.523	2.089	-0.101	-0.072
-212.509	-40.835	-0.361	0.185
-211.494	488.481	-0.100	-0.227
-210.479	-158.260	0.132	0.008
-209.465	-107.054	-0.263	0.058
-208.450	-68.668	0.282	-0.108
-207.436	-86.884	0.560	-0.170
-206.421	-70.889	-0.349	-0.130
-205.406	-19.707	0.063	-0.038
-204.392	84.319	0.209	0.226
-203.377	-200.000	-0.029	0.268
-202.363	-62.793	0.060	-0.025
-201.348	151.052	0.141	-0.190
-200.333	-101.976	0.370	0.089
-199.319	-27.859	0.365	-0.210
-198.304	-200.000	0.034	0.314
-197.290	80.801	0.117	0.126
-196.275	800.000	0.020	-0.073
-195.260	-200.000	-0.310	0.001
-194.246	393.646	0.101	0.209
-193.231	777.587	0.097	0.263
-192.217	764.126	-0.041	0.110
-191.202	-15.679	-0.165	0.104
-190.187	-200.000	0.041	-0.259
-189.173	-200.000	0.042	0.284
-188.158	215.710	0.240	0.378
-187.144	416.021	0.029	0.061
-186.129	-200.000	-0.057	0.318
-185.114	800.000	0.045	0.140
-184.100	654.987	0.114	-0.289
-183.085	131.384	0.108	-0.138
-182.071	40.502	0.231	0.206
-181.056	-121.919	0.177	-0.029
-180.042	-108.968	0.291	0.062
-179.027	-156.901	0.305	-0.019
-178.012	756.694	-0.096	0.256
-176.998	392.731	0.191	0.395
-175.983	-14.965	0.212	-0.135
-174.969	12.810	-0.133	0.102
-173.954	-135.983	0.217	-0.025
-172.939	206.176	0.078	-0.120
-171.925	2.348	0.136	0.098
-170.910	55.468	0.243	0.233
-169.896	-200.000	-0.025	-0.227
-168.881	480.591	0.106	-0.238
-167.866	-73.390	0.058	0.021
-166.852	800.000	0.086	0.251
-165.837	505.349	0.118	-0.271
-164.823	124.797	-0.242	0.302
-163.808	470.583	0.078	-0.173
-162.793	-181.804	-0.274	0.005
-161.779	-200.000	-0.031	-0.135
-160.764	-16.355	0.219	-0.138
-159.750	116.468	0.080	0.097
-158.735	-200.000	-0.004	-0.144
-157.720	800.000	0.010	0.036
-156.706	-200.000	0.039	-0.327
-155.691	-64.321	0.235	-0.095
-154.677	800.000	0.007	0.025
-153.662	207.667	0.356	0.550
-152.647	-71.146	0.070	-0.026
-151.633	-92.946	0.353	0.098
-150.618	18.558	-0.229	0.181
-149.604	-200.000	0.057	-0.307
-148.589	49.115	0.080	0.075
-147.574	-125.326	0.394	0.060
-146.560	96.154	-0.074	0.084
-145.545	-3.004	-0.121	0.083
-144.531	29.919	0.134	-0.113
-143.516	800.000	0.118	0.346
-142.502	-200.000	0.006	0.501
-141.487	-129.740	0.286	0.039
-140.472	67.749	0.293	-0.296
-139.458	174.452	0.074	-0.106
-138.443	-200.000	-0.024	-0.169
-137.429	795.120	-0.035	0.095
-136.414	800.000	0.050	-0.187
-135.399	261.851	0.157	0.270
-134.385	-6.950	0.318	-0.214
-133.370	-142.306	-0.342	-0.033
-132.356	-200.000	-0.009	0.131
-131.341	-200.000	-0.016	0.271
-130.326	-45.407	0.080	-0.039
-129.312	139.932	0.277	0.362
-128.297	-18.179	-0.084	-0.052
-127.283	-200.000	0.035	0.282
-126.268	-200.000	0.050	0.255
-125.253	-26.918	-0.308	0.178
-124.239	4.265	0.354	0.256
-123.224	754.918	0.089	-0.239
-122.210	-157.694	0.221	-0.013
-121.195	121.280	0.234	0.288
