DTS Sentinel unit serial number:	SN413079Multiplexer serial number:	ORYXHardware model number:	OX4-SRSoftware version number:	ORYX F/W v4.00 Oryx Data Collector v3.7.2.0data status	okinstallation	princeton_trtdifferential loss correction	single-endedforward channel	channel 2reverse channel	N/Adate	2019/09/12time	17:21:11forward acquisition time	60.00reverse acquisition time	0.00gamma	496.2192k internal	0.2324k external	0.2324temperature offset calibration	1.0137default loss term (dB/km)	0.3790temperature slope calibration	1.0000multiplexer offset coefficient	1.0000multiplexer slope coefficient	1.0000fibre end	0.00T internal ref (°C)	34.91T ext. ref 1 (°C)	2.91T ext. ref 2 (°C)	28.80length (m)	temperature (°C)	Stokes	anti-Stokes-747.200	-90.402	0.313	0.092
-746.185	187.381	-0.160	0.240
-745.171	-97.467	0.284	-0.074
-744.156	-15.416	-0.083	0.053
-743.142	218.528	0.142	0.229
-742.127	-200.000	0.039	0.216
-741.112	-37.631	-0.196	-0.105
-740.098	-200.000	-0.037	0.248
-739.083	370.744	-0.142	-0.290
-738.069	556.693	-0.054	-0.132
-737.054	181.196	0.246	0.365
-736.039	-200.000	0.002	0.117
-735.025	-200.000	0.006	0.287
-734.010	-164.986	-0.163	0.007
-732.996	407.235	-0.066	0.140
-731.981	10.765	0.072	0.055
-730.966	67.640	0.252	0.260
-729.952	242.747	-0.069	-0.116
-728.937	-91.740	-0.111	0.032
-727.923	-200.000	0.064	-0.368
-726.908	-200.000	0.054	0.258
-725.894	-200.000	-0.004	0.423
-724.879	56.054	0.086	-0.085
-723.864	-156.110	-0.334	0.021
-722.850	-200.000	0.020	-0.154
-721.835	-66.986	0.267	0.106
-720.821	621.953	-0.043	0.108
-719.806	794.488	0.115	0.319
-718.791	79.321	0.267	0.289
-717.777	189.401	-0.070	0.105
-716.762	-200.000	-0.024	-0.378
-715.748	-103.004	0.152	-0.036
-714.733	800.000	0.039	-0.128
-713.718	26.432	-0.326	0.275
-712.704	-120.811	-0.097	-0.016
-711.689	112.266	0.073	0.089
-710.675	-150.401	0.183	-0.014
-709.660	435.257	0.026	0.057
-708.645	505.356	-0.105	-0.244
-707.631	199.316	0.183	-0.283
-706.616	800.000	-0.043	-0.147
-705.602	-86.548	-0.330	-0.102
-704.587	-66.119	-0.159	0.064
-703.572	-200.000	0.019	0.173
-702.558	371.237	0.157	0.321
-701.543	50.994	-0.156	-0.149
-700.529	800.000	0.077	0.327
-699.514	-200.000	-0.003	-0.368
-698.499	800.000	-0.038	0.117
-697.485	-6.381	-0.177	0.122
-696.470	-54.257	0.247	-0.113
-695.456	33.058	-0.180	0.158
-694.441	800.000	-0.051	0.165
-693.426	-200.000	0.047	-0.211
-692.412	28.858	-0.103	-0.088
-691.397	209.193	-0.122	-0.193
-690.383	-26.911	-0.276	0.162
-689.368	336.119	0.128	0.251
-688.354	-93.007	0.427	-0.120
-687.339	-109.418	-0.165	-0.035
-686.324	351.508	-0.071	-0.142
-685.310	-175.980	-0.281	-0.008
-684.295	-125.275	0.214	-0.033
-683.281	-200.000	0.034	-0.274
-682.266	558.446	-0.109	0.265
-681.251	800.000	-0.035	0.121
-680.237	800.000	0.044	0.144
-679.222	-200.000	0.041	0.287
-678.208	523.187	0.097	-0.230
-677.193	-200.000	0.007	0.069
-676.178	-78.971	-0.138	-0.047
-675.164	-148.506	0.091	-0.008
-674.149	696.140	-0.035	0.093
-673.135	-173.214	-0.103	0.003
-672.120	-16.942	0.195	-0.124
-671.105	-143.807	0.179	-0.017
-670.091	-200.000	-0.002	0.136
-669.076	32.665	0.089	-0.077
-668.062	-200.000	-0.047	0.279
-667.047	-55.029	-0.218	-0.099
-666.032	-79.673	0.246	-0.083
-665.018	-48.963	0.116	-0.056
-664.003	442.653	0.196	0.432
-662.989	102.022	0.164	0.193
-661.974	-120.327	-0.088	0.015
-660.959	223.208	-0.179	-0.290
-659.945	503.381	0.048	0.112
-658.930	250.787	-0.134	-0.229
-657.916	138.671	-0.028	-0.037
-656.901	-200.000	-0.012	0.098
-655.886	35.654	0.351	-0.310
-654.872	79.818	0.105	0.114
-653.857	-4.290	0.076	-0.053
-652.843	-200.000	0.005	-0.118
-651.828	-103.811	0.195	-0.046
-650.814	-64.195	-0.312	-0.128
-649.799	569.845	0.071	-0.175
-648.784	-200.000	0.024	0.330
-647.770	447.295	-0.050	-0.111
-646.755	-200.000	0.031	0.231
-645.741	-29.903	-0.168	0.096
-644.726	800.000	-0.049	0.175
-643.711	800.000	0.116	0.332
-642.697	-121.477	-0.221	0.037
-641.682	800.000	-0.088	0.317
-640.668	89.822	0.154	0.173
-639.653	-27.519	0.354	-0.207
-638.638	-94.069	0.193	-0.053
-637.624	-65.517	0.343	-0.139
-636.609	287.376	-0.096	0.174
-635.595	-200.000	-0.011	0.169
-634.580	-200.000	0.026	0.163
-633.565	-91.576	-0.226	-0.065
-632.551	117.574	-0.259	0.320
-631.536	800.000	-0.136	0.452
-630.522	43.101	-0.164	-0.151
-629.507	-32.533	-0.145	-0.081
-628.492	-200.000	-0.040	-0.189
-627.478	-114.627	0.029	0.006
-626.463	114.224	-0.087	-0.107
-625.449	156.330	0.099	0.137
-624.434	150.571	0.154	0.210
-623.419	-31.535	-0.134	0.076
-622.405	210.070	-0.030	-0.048
-621.390	116.003	0.152	0.187
-620.376	-200.000	-0.019	-0.241
-619.361	-53.369	0.173	-0.079
-618.346	11.359	-0.105	-0.081
-617.332	444.104	-0.147	-0.323
-616.317	127.717	0.007	-0.009
-615.303	-200.000	0.040	-0.252
-614.288	800.000	0.084	-0.274
-613.273	142.967	0.100	-0.134
-612.259	308.480	0.304	-0.570
-611.244	247.304	0.161	-0.273
-610.230	200.274	0.211	0.325
-609.215	625.527	0.122	-0.309
-608.201	558.629	0.043	0.104
-607.186	152.620	0.044	0.060
-606.171	300.443	-0.064	0.119
-605.157	271.538	0.148	-0.263
-604.142	165.208	-0.100	0.142
-603.128	28.967	0.094	0.080
-602.113	-13.882	0.043	0.028
-601.098	-93.194	-0.290	-0.081
-600.084	800.000	-0.055	-0.199
-599.069	800.000	0.032	-0.135
-598.055	-119.316	-0.170	0.030
-597.040	98.810	0.062	0.072
-596.025	-65.158	0.260	-0.105
-595.011	-56.088	0.070	0.031
-593.996	-200.000	-0.007	-0.106
-592.982	-67.619	-0.257	0.101
-591.967	93.779	-0.125	0.142
-590.952	-200.000	0.027	-0.177
-589.938	20.956	-0.112	0.091
-588.923	694.157	0.036	0.096
-587.909	800.000	0.054	0.170
-586.894	493.675	-0.134	0.308
-585.879	-200.000	0.021	0.303
-584.865	224.228	-0.185	-0.300
-583.850	-52.861	0.234	0.108
-582.836	-200.000	0.030	0.357
-581.821	207.598	0.129	-0.203
-580.806	-151.553	-0.122	0.009
-579.792	5.349	0.099	-0.073
-578.777	214.025	0.160	0.255
-577.763	-97.179	0.110	-0.029
-576.748	-39.361	-0.338	-0.178
-575.733	-200.000	-0.044	-0.266
-574.719	-65.554	-0.146	0.059
-573.704	231.800	-0.234	0.385
-572.690	233.223	0.134	-0.221
-571.675	-44.252	-0.056	0.028
-570.661	318.709	-0.112	0.212
-569.646	206.086	-0.223	0.348
-568.631	-115.678	0.235	-0.044
-567.617	-98.082	-0.078	-0.020
-566.602	191.754	0.056	0.084
-565.588	-200.000	-0.031	-0.189
-564.573	507.995	-0.111	0.258
-563.558	239.832	0.066	0.109
-562.544	-150.304	-0.310	-0.024
-561.529	-96.997	-0.340	-0.089
-560.515	47.528	-0.183	-0.171
-559.500	800.000	-0.099	0.315
-558.485	800.000	-0.025	0.104
-557.471	-200.000	0.325	-0.002
-556.456	311.086	0.179	-0.336
-555.442	-20.718	-0.194	-0.119
-554.427	330.757	-0.159	0.306
-553.412	-200.000	-0.009	0.050
-552.398	105.236	-0.153	-0.181
-551.383	99.237	-0.239	-0.277
-550.369	-65.332	0.085	-0.034
-549.354	-11.613	-0.390	-0.257
-548.339	-200.000	-0.025	-0.143
-547.325	-200.000	0.004	0.194
-546.310	-200.000	0.016	-0.248
-545.296	-20.216	0.062	0.038
-544.281	-200.000	-0.010	-0.155
-543.266	800.000	0.039	0.137
-542.252	-181.440	-0.521	-0.010
-541.237	-200.000	-0.089	0.446
-540.223	-91.811	0.236	-0.067
-539.208	-78.341	-0.098	-0.034
-538.193	-16.756	0.135	-0.085
-537.179	63.961	0.155	0.156
-536.164	800.000	-0.038	0.165
-535.150	211.276	0.142	0.224
-534.135	-44.389	0.265	-0.133
-533.121	3.747	-0.309	-0.226
-532.106	800.000	0.134	-0.412
-531.091	800.000	0.075	-0.236
-530.077	800.000	0.022	-0.093
-529.062	79.039	-0.167	-0.179
-528.048	27.442	-0.143	0.120
-527.033	-144.164	-0.264	-0.025
-526.018	-13.476	-0.075	-0.049
-525.004	58.297	0.203	-0.199
-523.989	-77.358	0.258	-0.090
-522.975	17.356	0.146	-0.116
-521.960	418.104	0.063	-0.134
-520.945	800.000	0.071	-0.266
-519.931	-200.000	-0.023	-0.151
-518.916	-200.000	-0.030	-0.160
-517.902	185.603	-0.147	0.219
-516.887	36.289	-0.126	-0.111
-515.872	257.025	0.116	-0.200
-514.858	-103.249	-0.381	0.090
-513.843	-200.000	0.005	0.099
-512.829	4.821	-0.021	-0.016
-511.814	499.886	0.053	-0.121
-510.799	-200.000	-0.017	0.138
-509.785	-200.000	0.045	-0.230
-508.770	800.000	-0.083	-0.327
-507.756	-74.140	-0.195	0.071
-506.741	70.877	0.249	0.258
-505.726	-200.000	0.019	-0.123
-504.712	-46.323	-0.161	-0.079
-503.697	-200.000	-0.003	0.053
-502.683	-164.641	0.057	0.003
-501.668	102.805	-0.214	0.251
-500.653	-165.384	-0.421	0.018
-499.639	800.000	-0.098	0.421
-498.624	-200.000	0.043	0.231
-497.610	-200.000	0.009	0.399
-496.595	-107.899	0.335	-0.073
-495.581	-200.000	-0.004	-0.300
-494.566	-200.000	0.011	0.168
-493.551	-200.000	0.072	0.534
-492.537	-13.526	0.090	0.058
-491.522	7.547	-0.249	-0.186
-490.508	81.972	0.115	-0.125
-489.493	-158.279	0.357	0.021
-488.478	114.666	-0.085	0.103
-487.464	-74.808	0.092	-0.033
-486.449	-52.666	-0.268	0.123
-485.435	-131.619	0.112	-0.015
-484.420	-200.000	0.005	-0.386
-483.405	-200.000	0.031	-0.156
-482.391	-67.576	-0.145	0.057
-481.376	-200.000	-0.015	0.317
-480.362	-138.045	-0.222	-0.025
-479.347	-40.641	-0.072	0.037
-478.332	800.000	-0.142	0.507
-477.318	-124.871	-0.238	-0.037
-476.303	-77.039	0.051	-0.018
-475.289	-41.230	0.384	0.198
-474.274	27.470	0.335	0.282
-473.259	51.841	-0.081	-0.077
-472.245	-89.767	0.131	-0.038
-471.230	-200.000	-0.025	-0.211
-470.216	15.292	-0.304	-0.238
-469.201	-83.201	0.127	0.041
-468.186	152.449	0.175	0.239
-467.172	564.314	-0.094	0.226
-466.157	-50.303	-0.199	-0.094
-465.143	300.224	-0.118	-0.216
-464.128	33.491	0.252	0.219
-463.113	123.840	0.052	-0.065
-462.099	-200.000	0.005	-0.037
-461.084	-200.000	-0.011	0.134
-460.070	-44.834	0.422	-0.210
-459.055	15.668	-0.295	-0.231
-458.040	-6.997	0.099	-0.067
-457.026	-137.450	0.141	0.016
-456.011	378.310	-0.111	-0.227
-454.997	-77.322	-0.165	-0.057
-453.982	800.000	0.042	-0.171
-452.968	-52.004	-0.223	-0.103
-451.953	438.234	0.108	-0.236
-450.938	-148.871	-0.245	0.020
-449.924	-107.277	-0.283	0.062
-448.909	-146.507	-0.382	-0.033
-447.895	-58.384	-0.190	0.083
-446.880	-119.813	-0.214	0.037
-445.865	89.482	0.205	-0.228
-444.851	-116.340	-0.146	-0.027
-443.836	62.136	-0.070	0.070
-442.822	-200.000	0.014	0.090
-441.807	800.000	-0.097	0.355
-440.792	-74.722	-0.204	0.073
-439.778	-29.143	0.102	-0.058
-438.763	800.000	-0.020	-0.066
-437.749	-98.631	-0.105	0.027
-436.734	572.680	0.089	0.216
-435.719	-113.367	-0.219	-0.043
-434.705	-130.579	0.189	0.025
-433.690	800.000	0.080	-0.296
-432.676	96.281	0.077	0.088
-431.661	279.718	-0.096	0.171
-430.646	114.865	0.059	0.072
-429.632	-133.540	-0.346	0.043
-428.617	-3.278	-0.303	0.210
-427.603	62.155	0.107	0.107
-426.588	-200.000	0.009	-0.069
-425.573	251.536	-0.064	-0.108
-424.559	121.893	-0.060	-0.074
-423.544	-136.964	0.209	-0.024
-422.530	142.431	-0.148	-0.196
-421.515	-40.991	-0.262	-0.135
-420.500	-69.540	0.145	0.055
-419.486	-200.000	0.054	-0.267
-418.471	29.446	0.208	0.176
-417.457	-200.000	0.006	0.212
-416.442	800.000	-0.061	0.203
-415.428	-75.018	-0.144	0.051
-414.413	-200.000	-0.013	-0.300
-413.398	614.526	-0.124	-0.309
-412.384	192.589	-0.104	-0.156
-411.369	-200.000	-0.045	0.271
-410.355	109.904	-0.162	0.194
-409.340	-66.359	0.185	0.073
-408.325	22.840	-0.081	-0.066
-407.311	184.827	-0.121	0.179
-406.296	-4.642	0.083	0.057
-405.282	-100.653	0.194	0.048
-404.267	-200.000	-0.031	-0.169
-403.252	-72.315	0.130	0.048
-402.238	90.693	0.131	0.146
-401.223	116.739	0.146	0.178
-400.209	-55.454	-0.099	0.044
-399.194	71.415	-0.161	0.167
-398.179	800.000	-0.057	-0.238
-397.165	800.000	0.067	-0.236
-396.150	46.153	-0.136	-0.125
-395.136	11.665	0.327	-0.250
-394.121	585.253	-0.155	0.379
-393.106	-200.000	0.017	0.091
-392.092	-109.811	-0.476	0.100
-391.077	-196.627	-0.230	0.002
-390.063	-200.000	-0.001	-0.023
-389.048	-195.552	-0.502	-0.004
-388.033	431.621	0.100	-0.215
-387.019	477.264	0.076	-0.171
-386.004	505.661	0.068	0.157
-384.990	6.234	0.150	-0.111
-383.975	-133.139	-0.331	-0.042
-382.960	-200.000	-0.015	-0.359
-381.946	-40.973	-0.223	0.115
-380.931	-200.000	-0.009	-0.071
-379.917	-86.545	0.225	0.069
-378.902	-98.688	0.115	-0.029
-377.888	-56.339	-0.347	-0.153
-376.873	-7.342	0.130	0.087
-375.858	28.032	0.139	-0.116
-374.844	800.000	-0.035	-0.132
-373.829	677.982	0.099	0.257
-372.815	266.950	-0.202	-0.351
-371.800	-200.000	0.002	0.012
-370.785	38.254	0.045	-0.040
-369.771	-24.762	-0.204	0.121
-368.756	-160.429	-0.306	0.016
-367.742	-200.000	-0.006	0.480
-366.727	-79.024	0.170	0.058
-365.712	-151.587	0.179	-0.013
-364.698	408.952	-0.088	-0.185
-363.683	-200.000	0.125	-0.550
-362.669	168.398	-0.082	0.116
-361.654	-117.830	0.148	-0.026
-360.639	-200.000	-0.044	0.257
-359.625	-92.381	-0.181	0.051
-358.610	800.000	-0.083	0.349
-357.596	-183.481	0.381	0.007
-356.581	124.960	-0.251	-0.315
-355.566	177.689	0.235	-0.341
-354.552	177.045	0.043	0.063
-353.537	-2.225	0.053	-0.037
-352.523	800.000	0.058	0.204
-351.508	-47.014	-0.269	-0.130
-350.493	55.049	0.301	-0.289
-349.479	15.134	0.211	0.164
-348.464	-98.185	-0.280	-0.071
-347.450	81.085	0.225	-0.241
-346.435	57.754	0.138	0.134
-345.420	121.189	0.188	0.232
-344.406	109.952	0.118	-0.140
-343.391	-59.769	-0.103	-0.044
-342.377	376.778	0.101	0.204
-341.362	-200.000	-0.002	-0.118
-340.348	-200.000	-0.008	0.101
-339.333	478.888	-0.175	0.394
-338.318	317.053	0.175	0.329
-337.304	32.307	-0.097	0.083
-336.289	-200.000	0.012	0.209
-335.275	-47.871	0.146	-0.070
-334.260	-200.000	0.003	-0.316
-333.245	-72.239	0.103	-0.038
-332.231	339.522	-0.049	0.095
-331.216	-200.000	-0.037	-0.216
-330.202	664.452	-0.086	-0.222
-329.187	-9.229	0.067	0.045
-328.172	-200.000	-0.004	0.163
-327.158	-160.390	0.475	0.025
-326.143	-62.346	0.238	0.099
-325.129	-109.716	-0.016	0.003
-324.114	139.169	-0.131	-0.171
-323.099	9.664	0.086	-0.065
-322.085	-200.000	-0.053	-0.295
-321.070	-200.000	0.000	-0.330
-320.056	-200.000	0.043	0.213
-319.041	67.291	0.059	0.060
-318.026	-145.523	0.169	0.015
-317.012	282.579	0.101	-0.180
-315.997	-200.000	-0.033	-0.235
-314.983	111.071	-0.226	-0.270
-313.968	800.000	0.079	-0.320
-312.953	-151.083	0.378	0.028
-311.939	800.000	-0.085	0.236
-310.924	-200.000	-0.038	-0.166
-309.910	161.008	-0.211	-0.293
-308.895	749.663	0.135	-0.362
-307.880	272.790	0.136	-0.238
-306.866	-200.000	0.065	-0.431
-305.851	447.693	0.099	0.216
-304.837	119.430	0.186	-0.229
-303.822	180.802	-0.206	0.301
-302.807	-200.000	0.034	0.202
-301.793	32.923	0.060	-0.051
-300.778	-200.000	-0.016	-0.077
-299.764	-20.547	0.102	0.062
-298.749	175.600	-0.230	0.331
-297.735	54.657	-0.096	-0.091
-296.720	-200.000	0.006	-0.298
-295.705	-104.032	0.162	-0.037
-294.691	-24.642	0.061	0.036
-293.676	56.370	0.057	0.055
-292.662	-79.502	-0.413	0.138
-291.647	800.000	0.062	0.265
-290.632	-106.153	0.189	-0.042
-289.618	522.133	0.124	-0.288
-288.603	299.322	0.093	0.170
-287.589	52.228	0.203	-0.192
-286.574	31.452	-0.066	0.056
-285.559	-43.673	-0.132	-0.066
-284.545	-86.714	0.257	0.078
-283.530	800.000	-0.026	-0.072
-282.516	70.138	-0.128	0.131
-281.501	-142.391	-0.116	0.011
-280.486	71.040	0.254	-0.261
-279.472	800.000	-0.044	-0.148
-278.457	800.000	-0.090	-0.272
-277.443	121.108	-0.203	0.250
-276.428	-84.150	-0.223	0.070
-275.413	-23.096	0.174	0.104
-274.399	-96.189	0.310	0.082
-273.384	19.692	0.074	-0.059
-272.370	-62.156	-0.201	-0.083
-271.355	-145.931	0.213	0.019
-270.340	144.633	0.047	0.062
-269.326	146.338	-0.166	-0.221
-268.311	-106.425	0.326	0.072
-267.297	-59.027	-0.137	0.059
-266.282	-200.000	0.049	0.242
-265.267	-76.822	0.378	-0.131
-264.253	-200.000	-0.019	-0.155
-263.238	121.460	0.090	0.111
-262.224	520.785	-0.114	0.265
-261.209	-55.911	-0.240	-0.106
-260.195	-89.526	0.249	0.073
-259.180	83.803	0.057	0.062
-258.165	-200.000	-0.001	0.087
-257.151	800.000	0.135	-0.438
-256.136	-158.000	-0.196	0.011
-255.122	800.000	-0.045	0.182
-254.107	155.950	-0.084	0.115
-253.092	-87.944	0.041	-0.012
-252.078	-75.808	-0.528	-0.185
-251.063	-200.000	-0.026	-0.212
-250.049	-60.275	0.237	-0.100
-249.034	-123.247	0.361	0.057
-248.019	31.528	0.076	-0.065
-247.005	800.000	-0.049	0.177
-245.990	-38.774	-0.070	-0.036
-244.976	-64.223	0.417	-0.168
-243.961	75.213	-0.055	0.058
-242.946	-200.000	0.011	0.194
-241.932	-200.000	0.008	0.048
-240.917	800.000	0.102	-0.305
-239.903	-4.681	0.113	-0.077
-238.888	234.125	0.262	0.427
-237.873	-73.905	-0.060	-0.022
-236.859	6.547	-0.198	-0.146
-235.844	-75.652	0.083	0.029
-234.830	-167.680	-0.228	0.009
-233.815	-200.000	-0.008	-0.069
-232.800	800.000	0.068	-0.187
-231.786	-200.000	0.001	-0.129
-230.771	10.331	0.220	0.165
-229.757	-200.000	-0.025	0.134
-228.742	800.000	0.035	-0.145
-227.727	-140.918	0.367	-0.037
-226.713	189.146	0.098	0.145
-225.698	182.649	0.169	0.246
-224.684	-137.167	0.160	0.018
-223.669	-38.539	0.033	0.017
-222.655	8.284	-0.238	0.177
-221.640	-20.948	-0.134	0.081
-220.625	-159.028	-0.298	-0.017
-219.611	-200.000	0.013	-0.450
-218.596	347.927	-0.069	-0.134
-217.582	-132.891	-0.524	0.066
-216.567	-38.428	-0.096	0.050
-215.552	-95.682	0.347	0.092
-214.538	371.453	-0.095	0.190
-213.523	332.695	0.096	-0.183
-212.509	800.000	0.034	0.095
-211.494	-119.372	0.435	0.075
-210.479	764.167	0.183	-0.493
-209.465	-200.000	0.048	0.332
-208.450	170.125	-0.035	-0.050
-207.436	-30.016	0.098	-0.055
-206.421	-31.136	-0.053	0.030
-205.406	107.518	0.225	-0.264
-204.392	800.000	0.045	-0.123
-203.377	609.498	-0.118	0.292
-202.363	-103.352	-0.288	-0.067
-201.348	216.908	0.130	-0.205
-200.333	-118.033	0.266	0.047
-199.319	-19.065	-0.128	0.079
-198.304	232.841	0.172	-0.280
-197.290	153.794	0.072	-0.097
-196.275	-49.197	0.163	-0.077
-195.260	243.208	0.238	-0.393
-194.246	-200.000	-0.032	0.197
-193.231	75.258	-0.047	0.049
-192.217	77.824	-0.276	-0.290
-191.202	32.210	0.125	-0.106
-190.187	-200.000	0.052	0.490
-189.173	-88.295	0.233	0.069
-188.158	120.980	-0.257	0.315
-187.144	11.424	-0.050	0.038
-186.129	-190.761	0.288	0.003
-185.114	-200.000	-0.034	0.226
-184.100	-138.510	0.443	0.048
-183.085	30.626	-0.302	0.255
-182.071	-41.936	-0.238	0.120
-181.056	-161.695	-0.194	-0.010
-180.042	-15.696	0.161	-0.101
-179.027	50.342	0.086	0.081
-178.012	267.142	-0.040	-0.069
-176.998	14.727	0.159	-0.122
-175.983	399.197	0.072	0.148
-174.969	620.376	-0.121	0.300
-173.954	31.633	-0.182	-0.154
-172.939	-112.296	-0.190	0.038
-171.925	117.821	0.169	-0.205
-170.910	-200.000	0.032	-0.220
-169.896	221.521	0.158	0.250
-168.881	150.533	-0.152	-0.203
-167.866	-200.000	-0.001	0.091
-166.852	800.000	-0.111	0.465
-165.837	800.000	0.057	-0.178
-164.823	-158.337	0.188	-0.011
-163.808	438.484	0.112	0.242
-162.793	160.930	0.289	0.398
-161.779	106.212	0.116	0.136
-160.764	800.000	0.043	0.134
-159.750	-57.011	-0.050	-0.022
-158.735	-200.000	-0.018	0.422
-157.720	86.428	0.244	0.266
-156.706	-200.000	-0.028	0.194
-155.691	108.297	-0.284	0.334
-154.677	-98.211	0.203	0.051
-153.662	343.006	-0.067	-0.129
-152.647	-77.766	-0.355	0.121
-151.633	35.513	0.289	-0.250
-150.618	80.928	0.036	-0.039
-149.604	-200.000	-0.046	-0.215
-148.589	299.379	-0.168	0.306
-147.574	164.955	-0.120	0.167
-146.560	206.330	0.147	-0.226
-145.545	20.493	-0.258	-0.205
-144.531	129.896	0.130	-0.164
-143.516	767.305	0.116	0.310
-142.502	26.667	-0.117	0.097
-141.487	-79.114	-0.011	0.004
-140.472	136.228	0.130	-0.167
-139.458	-120.510	0.136	-0.023
-138.443	-200.000	-0.003	0.027
-137.429	93.648	0.076	0.085
-136.414	-117.702	0.200	-0.035
-135.399	-52.168	-0.343	0.157
-134.385	180.806	0.212	0.307
-133.370	19.401	0.150	-0.119
-132.356	45.377	-0.265	0.241
-131.341	95.470	-0.258	-0.290
-130.326	-200.000	0.019	0.156
-129.312	-200.000	-0.002	0.351
-128.297	-91.256	0.432	0.122
-127.283	-165.834	-0.092	0.004
-126.268	69.208	-0.156	-0.158
-125.253	-48.122	0.187	-0.089
-124.239	33.320	-0.323	-0.276
-123.224	371.475	0.047	0.093
-122.210	-200.000	0.006	-0.248
-121.195	-179.459	-0.167	0.004
