DTS Sentinel unit serial number:	SN413079Multiplexer serial number:	ORYXHardware model number:	OX4-SRSoftware version number:	ORYX F/W v4.00 Oryx Data Collector v3.7.2.0data status	okinstallation	princeton_trtdifferential loss correction	single-endedforward channel	channel 2reverse channel	N/Adate	2019/09/14time	09:55:35forward acquisition time	60.00reverse acquisition time	0.00gamma	496.2192k internal	0.2320k external	0.2320temperature offset calibration	1.0130default loss term (dB/km)	0.3790temperature slope calibration	1.0000multiplexer offset coefficient	1.0000multiplexer slope coefficient	1.0000fibre end	0.00T internal ref (°C)	32.78T ext. ref 1 (°C)	3.97T ext. ref 2 (°C)	31.21length (m)	temperature (°C)	Stokes	anti-Stokes-747.200	35.137	0.056	0.050
-746.185	-66.069	-0.182	0.074
-745.171	79.914	0.139	0.151
-744.156	-200.000	0.022	0.254
-743.142	63.780	0.264	0.268
-742.127	800.000	-0.148	0.481
-741.112	-200.000	-0.046	0.293
-740.098	-87.203	-0.095	-0.029
-739.083	472.850	-0.039	-0.089
-738.069	-56.547	0.103	0.046
-737.054	-47.534	-0.263	-0.129
-736.039	-191.833	-0.266	-0.003
-735.025	-83.679	0.244	0.079
-734.010	-101.182	-0.235	0.058
-732.996	-200.000	0.040	0.259
-731.981	91.123	0.064	0.073
-730.966	-130.177	0.138	-0.019
-729.952	27.865	-0.022	-0.019
-728.937	-101.474	0.051	0.013
-727.923	89.808	-0.223	-0.251
-726.908	-200.000	-0.046	-0.277
-725.894	69.353	-0.091	-0.094
-724.879	29.984	0.124	-0.107
-723.864	-61.894	0.098	-0.041
-722.850	390.692	-0.144	-0.301
-721.835	109.743	0.068	-0.082
-720.821	-115.800	-0.212	0.040
-719.806	800.000	0.089	0.262
-718.791	-1.407	0.079	0.056
-717.777	-16.298	-0.037	0.024
-716.762	189.107	-0.122	-0.185
-715.748	89.992	-0.186	-0.210
-714.733	-115.396	0.106	0.020
-713.718	-43.011	-0.242	0.124
-712.704	-153.620	-0.330	-0.023
-711.689	13.123	-0.320	-0.251
-710.675	395.736	-0.175	-0.369
-709.660	-200.000	0.065	0.374
-708.645	800.000	0.095	0.311
-707.631	-153.724	0.084	0.006
-706.616	800.000	0.029	-0.095
-705.602	231.301	0.240	-0.397
-704.587	663.234	-0.139	0.362
-703.572	-200.000	0.000	-0.029
-702.558	6.449	-0.219	-0.164
-701.543	158.494	0.098	0.138
-700.529	116.371	0.133	0.165
-699.514	49.706	-0.113	0.107
-698.499	-60.913	0.109	0.047
-697.485	-17.833	-0.114	-0.072
-696.470	800.000	0.079	0.241
-695.456	-60.678	0.104	-0.045
-694.441	213.272	0.067	-0.107
-693.426	-76.291	-0.189	-0.067
-692.412	109.934	0.182	0.220
-691.397	800.000	-0.106	-0.314
-690.383	192.888	-0.139	0.212
-689.368	-100.013	0.146	-0.037
-688.354	-200.000	-0.023	-0.322
-687.339	86.118	-0.223	-0.248
-686.324	-106.574	0.112	-0.025
-685.310	486.267	-0.080	-0.183
-684.295	-200.000	-0.005	0.245
-683.281	-61.755	0.071	0.030
-682.266	-11.227	-0.075	0.050
-681.251	-146.687	0.284	0.025
-680.237	800.000	0.095	-0.384
-679.222	-114.257	0.124	-0.024
-678.208	-114.416	-0.157	-0.030
-677.193	-26.091	-0.172	-0.102
-676.178	-200.000	0.038	0.273
-675.164	13.438	0.184	-0.144
-674.149	660.221	-0.054	0.139
-673.135	800.000	-0.037	-0.117
-672.120	-184.893	0.145	-0.002
-671.105	800.000	-0.053	-0.159
-670.091	-168.314	-0.086	0.003
-669.076	-43.951	-0.248	0.126
-668.062	762.974	-0.174	-0.477
-667.047	81.029	-0.097	0.106
-666.032	-114.086	0.092	0.018
-665.018	148.346	0.169	-0.230
-664.003	11.781	-0.056	-0.043
-662.989	800.000	0.070	-0.259
-661.974	730.189	-0.034	-0.092
-660.959	346.968	0.150	-0.298
-659.945	-200.000	0.006	-0.134
-658.930	-179.246	0.403	-0.009
-657.916	-65.089	0.204	0.083
-656.901	174.093	-0.224	-0.326
-655.886	-16.831	-0.197	0.126
-654.872	-97.207	0.280	0.074
-653.857	195.326	-0.191	0.292
-652.843	800.000	-0.045	0.167
-651.828	7.515	-0.225	0.169
-650.814	14.420	0.136	0.107
-649.799	175.262	-0.127	0.186
-648.784	-200.000	-0.020	0.200
-647.770	72.482	0.110	0.115
-646.755	55.846	-0.463	-0.453
-645.741	73.563	-0.224	0.236
-644.726	-174.936	0.396	0.011
-643.711	-31.719	-0.079	0.045
-642.697	73.779	0.086	-0.091
-641.682	-92.483	0.078	-0.022
-640.668	103.435	0.145	-0.171
-639.653	216.864	0.043	-0.070
-638.638	610.416	-0.037	-0.093
-637.624	-123.926	-0.077	0.012
-636.609	418.442	-0.136	-0.292
-635.595	-127.817	-0.179	-0.026
-634.580	-200.000	0.013	-0.271
-633.565	42.499	-0.122	-0.112
-632.551	-200.000	0.017	-0.155
-631.536	-200.000	-0.067	-0.394
-630.522	312.389	0.075	0.142
-629.507	-53.306	-0.397	-0.183
-628.492	-200.000	0.016	-0.107
-627.478	-200.000	0.040	0.254
-626.463	-200.000	-0.003	-0.168
-625.449	-200.000	0.011	-0.351
-624.434	-75.226	-0.216	-0.078
-623.419	800.000	0.119	0.406
-622.405	79.275	0.212	-0.229
-621.390	189.774	-0.126	-0.190
-620.376	-146.879	-0.242	0.021
-619.361	212.362	-0.267	-0.423
-618.346	174.980	-0.162	-0.236
-617.332	-200.000	-0.074	0.401
-616.317	-99.843	0.484	0.122
-615.303	139.254	-0.170	-0.225
-614.288	-181.745	0.298	-0.006
-613.273	-200.000	-0.020	0.113
-612.259	-125.837	0.358	0.054
-611.244	27.968	-0.135	0.115
-610.230	-200.000	-0.006	0.100
-609.215	92.925	0.226	0.257
-608.201	622.371	0.078	0.198
-607.186	58.535	-0.152	-0.150
-606.171	100.295	0.200	-0.233
-605.157	-49.940	-0.193	-0.092
-604.142	-147.171	0.284	0.024
-603.128	800.000	0.041	0.142
-602.113	183.706	-0.068	-0.102
-601.098	-117.861	0.245	-0.044
-600.084	507.364	-0.073	0.170
-599.069	-119.061	0.320	-0.056
-598.055	244.284	-0.102	-0.172
-597.040	41.539	-0.139	-0.127
-596.025	800.000	0.026	0.095
-595.011	800.000	0.036	0.159
-593.996	-200.000	-0.058	-0.281
-592.982	-200.000	0.015	-0.085
-591.967	-106.506	-0.135	0.030
-590.952	155.696	0.052	0.072
-589.938	-42.499	0.200	-0.102
-588.923	-61.221	0.374	0.158
-587.909	-200.000	0.009	-0.052
-586.894	68.239	0.128	-0.132
-585.879	661.399	0.139	0.360
-584.865	165.564	-0.157	0.223
-583.850	-113.266	0.379	0.075
-582.836	82.266	0.265	-0.289
-581.821	-200.000	0.020	-0.202
-580.806	-35.240	-0.207	-0.113
-579.792	-200.000	0.022	0.124
-578.777	-120.440	-0.431	-0.074
-577.763	-52.032	-0.290	-0.135
-576.748	489.922	-0.036	0.083
-575.733	-200.000	0.005	-0.301
-574.719	557.607	-0.005	-0.012
-573.704	800.000	0.010	-0.035
-572.690	-144.361	-0.128	-0.012
-571.675	-126.845	-0.236	0.035
-570.661	-200.000	-0.020	0.213
-569.646	-200.000	-0.059	0.452
-568.631	800.000	-0.158	0.487
-567.617	665.521	0.119	0.309
-566.602	61.125	-0.165	0.165
-565.588	67.464	0.043	-0.044
-564.573	-200.000	-0.089	-0.000
-563.558	60.140	-0.146	0.145
-562.544	-57.066	0.121	0.054
-561.529	-20.229	0.213	-0.132
-560.515	-5.733	0.134	-0.092
-559.500	-69.706	-0.409	-0.157
-558.485	-10.552	0.228	-0.151
-557.471	-58.298	-0.254	-0.111
-556.456	-8.450	0.275	0.186
-555.442	108.828	-0.150	0.180
-554.427	-200.000	-0.013	-0.228
-553.412	-200.000	-0.001	-0.015
-552.398	-49.392	-0.103	-0.049
-551.383	255.319	0.076	0.131
-550.369	-114.873	0.297	-0.057
-549.354	-78.573	-0.226	0.078
-548.339	-171.137	-0.173	0.006
-547.325	-78.350	0.158	-0.054
-546.310	-74.390	-0.112	-0.040
-545.296	-87.691	-0.103	0.031
-544.281	-54.471	-0.534	0.243
-543.266	-200.000	-0.065	0.356
-542.252	19.706	-0.165	0.133
-541.237	4.244	-0.300	0.220
-540.223	-114.192	0.302	-0.059
-539.208	792.631	-0.085	0.233
-538.193	79.651	0.093	-0.100
-537.179	-200.000	0.037	-0.244
-536.164	66.616	-0.161	0.164
-535.150	-26.760	0.139	0.082
-534.135	-56.692	-0.140	0.062
-533.121	-77.373	0.224	0.078
-532.106	-200.000	0.049	-0.243
-531.091	-140.849	-0.200	0.021
-530.077	0.785	-0.192	-0.138
-529.062	800.000	-0.060	0.233
-528.048	-44.419	-0.254	-0.127
-527.033	-200.000	-0.043	-0.240
-526.018	-200.000	0.040	-0.209
-525.004	-18.083	0.135	-0.085
-523.989	800.000	0.045	-0.165
-522.975	125.781	-0.086	0.109
-521.960	-154.267	-0.139	0.009
-520.945	-200.000	-0.006	-0.066
-519.931	-200.000	-0.018	-0.119
-518.916	163.075	-0.182	0.256
-517.902	800.000	-0.100	0.355
-516.887	-200.000	-0.009	-0.223
-515.872	52.964	-0.293	-0.281
-514.858	31.339	0.094	-0.080
-513.843	620.075	-0.079	0.200
-512.829	180.482	-0.153	-0.225
-511.814	-107.538	0.308	-0.068
-510.799	20.230	-0.129	-0.104
-509.785	142.930	0.105	-0.140
-508.770	172.706	-0.199	0.287
-507.756	13.165	-0.206	0.159
-506.741	138.204	0.081	-0.106
-505.726	55.094	-0.061	0.059
-504.712	-200.000	0.045	-0.264
-503.697	20.058	-0.182	0.147
-502.683	-200.000	0.064	-0.709
-501.668	800.000	-0.012	0.037
-500.653	-131.324	-0.187	0.025
-499.639	-200.000	0.000	-0.020
-498.624	-200.000	-0.005	0.220
-497.610	-144.508	-0.238	-0.022
-496.595	-200.000	-0.006	-0.143
-495.581	395.542	-0.229	0.478
-494.566	17.310	0.111	-0.088
-493.551	-94.798	0.233	0.063
-492.537	-91.787	0.247	0.070
-491.522	283.215	-0.090	0.163
-490.508	800.000	-0.047	-0.146
-489.493	800.000	0.129	-0.393
-488.478	-68.906	-0.129	-0.050
-487.464	-200.000	-0.001	0.005
-486.449	-149.203	-0.209	-0.017
-485.435	-200.000	0.005	0.055
-484.420	-60.930	-0.393	-0.166
-483.405	800.000	0.049	-0.191
-482.391	108.654	0.109	-0.130
-481.376	800.000	-0.088	-0.364
-480.362	-200.000	-0.006	-0.032
-479.347	-18.938	0.366	-0.228
-478.332	7.632	0.051	-0.038
-477.318	27.521	0.260	0.219
-476.303	113.445	-0.317	0.385
-475.289	800.000	0.049	0.158
-474.274	432.651	-0.055	0.120
-473.259	-29.358	-0.144	-0.082
-472.245	617.450	0.127	-0.319
-471.230	-19.362	0.314	-0.195
-470.216	-121.821	-0.343	-0.057
-469.201	-200.000	0.009	0.467
-468.186	61.578	-0.085	-0.085
-467.172	-74.256	0.181	-0.065
-466.157	154.155	0.236	-0.324
-465.143	-200.000	0.008	-0.227
-464.128	-200.000	-0.016	0.116
-463.113	518.914	-0.100	0.235
-462.099	800.000	-0.083	0.250
-461.084	-25.920	-0.324	-0.191
-460.070	-2.789	0.210	-0.147
-459.055	50.384	0.037	-0.035
-458.040	-74.745	-0.362	-0.130
-457.026	-153.431	0.264	0.018
-456.011	620.290	0.176	-0.442
-454.997	-55.038	-0.309	-0.139
-453.982	548.302	0.026	0.062
-452.968	800.000	0.113	-0.331
-451.953	800.000	-0.032	-0.097
-450.938	37.578	-0.221	-0.196
-449.924	361.745	-0.091	-0.183
-448.909	114.365	-0.126	0.153
-447.895	-200.000	-0.009	0.546
-446.880	-44.043	0.242	-0.122
-445.865	127.916	0.155	-0.197
-444.851	-200.000	0.039	-0.194
-443.836	206.598	0.124	0.192
-442.822	-82.258	0.193	0.063
-441.807	-91.343	0.252	-0.072
-440.792	33.022	0.321	0.278
-439.778	156.770	-0.050	0.069
-438.763	-39.266	0.279	0.147
-437.749	800.000	0.008	-0.026
-436.734	-77.459	0.211	0.073
-435.719	-136.595	-0.116	0.013
-434.705	368.971	-0.036	0.073
-433.690	-200.000	-0.018	0.354
-432.676	-155.565	-0.186	0.012
-431.661	800.000	-0.103	-0.374
-430.646	-45.813	0.249	-0.123
-429.632	-200.000	-0.026	0.190
-428.617	-46.439	0.048	-0.024
-427.603	-200.000	-0.054	-0.353
-426.588	-90.875	0.310	-0.089
-425.573	653.309	0.041	-0.106
-424.559	-36.888	-0.201	-0.108
-423.544	81.286	-0.238	-0.256
-422.530	272.215	-0.162	0.285
-421.515	-37.547	0.009	-0.005
-420.500	-200.000	0.048	-0.415
-419.486	-189.579	0.267	-0.003
-418.471	800.000	0.061	-0.168
-417.457	208.450	-0.091	0.142
-416.442	-36.342	0.218	0.117
-415.428	-129.965	-0.216	0.030
-414.413	-76.926	0.039	-0.014
-413.398	148.015	0.121	0.163
-412.384	-91.499	-0.184	-0.053
-411.369	51.509	-0.123	-0.117
-410.355	227.367	0.100	-0.162
-409.340	48.104	0.182	-0.169
-408.325	-117.122	-0.107	-0.020
-407.311	-114.279	-0.367	-0.071
-406.296	-111.518	0.316	-0.064
-405.282	-123.490	-0.257	0.041
-404.267	178.322	-0.167	-0.244
-403.252	447.307	-0.083	-0.181
-402.238	-200.000	-0.009	0.080
-401.223	-152.862	-0.162	0.011
-400.209	-185.531	0.279	0.004
-399.194	613.688	0.112	-0.281
-398.179	7.596	-0.131	-0.098
-397.165	-44.439	-0.287	0.143
-396.150	-82.177	0.119	-0.039
-395.136	-91.028	0.332	-0.095
-394.121	800.000	0.019	0.081
-393.106	129.433	-0.058	-0.074
-392.092	528.171	-0.111	-0.261
-391.077	-27.939	-0.037	0.022
-390.063	-119.420	-0.214	-0.037
-389.048	194.241	0.039	0.059
-388.033	79.122	-0.115	-0.123
-387.019	409.251	0.118	0.248
-386.004	-74.190	-0.228	-0.082
-384.990	-200.000	0.039	0.195
-383.975	3.021	0.122	-0.088
-382.960	-33.271	0.076	0.042
-381.946	28.584	-0.432	-0.364
-380.931	-200.000	0.016	0.127
-379.917	-200.000	0.027	0.141
-378.902	87.152	-0.381	-0.420
-377.888	586.365	-0.056	-0.137
-376.873	-43.709	-0.066	-0.033
-375.858	-200.000	0.053	-0.238
-374.844	-12.848	-0.302	-0.196
-373.829	-182.712	-0.095	-0.002
-372.815	-53.081	0.244	-0.112
-371.800	-105.973	0.213	-0.048
-370.785	-3.711	-0.048	0.033
-369.771	50.295	-0.135	-0.127
-368.756	-4.719	-0.066	0.045
-367.742	-104.292	0.306	0.071
-366.727	14.959	-0.131	0.102
-365.712	-184.278	0.159	-0.003
-364.698	189.816	0.274	-0.409
-363.683	505.603	-0.077	0.178
-362.669	210.389	0.145	-0.226
-361.654	-142.953	-0.125	0.012
-360.639	86.391	0.168	0.185
-359.625	-91.944	0.193	0.054
-358.610	684.003	-0.110	0.286
-357.596	-104.088	0.260	-0.060
-356.581	508.694	-0.085	0.198
-355.566	-58.047	-0.046	-0.020
-354.552	800.000	0.008	0.027
-353.537	-200.000	-0.025	-0.174
-352.523	252.935	0.265	0.450
-351.508	78.620	-0.057	-0.061
-350.493	-49.004	-0.147	-0.070
-349.479	51.373	-0.079	-0.075
-348.464	17.536	0.162	-0.128
-347.450	312.741	-0.110	0.205
-346.435	19.857	0.054	-0.043
-345.420	492.229	-0.144	0.328
-344.406	800.000	0.065	0.277
-343.391	-144.000	0.234	0.022
-342.377	800.000	-0.094	-0.311
-341.362	-200.000	-0.006	0.267
-340.348	145.980	0.056	0.074
-339.333	156.130	0.165	0.227
-338.318	-116.040	0.243	0.045
-337.304	-84.062	0.115	0.036
-336.289	-200.000	0.001	0.345
-335.275	-200.000	0.021	-0.119
-334.260	800.000	0.013	0.043
-333.245	-100.211	0.340	-0.084
-332.231	247.638	0.180	0.302
-331.216	-200.000	0.041	-0.202
-330.202	-74.592	-0.107	-0.038
-329.187	-200.000	-0.005	0.038
-328.172	-51.992	0.089	0.041
-327.158	-157.994	0.067	0.004
-326.143	-200.000	-0.019	0.138
-325.129	148.629	0.028	0.038
-324.114	85.915	-0.140	0.153
-323.099	-14.617	-0.124	-0.080
-322.085	-200.000	-0.000	-0.191
-321.070	79.501	0.138	0.147
-320.056	800.000	-0.079	0.251
-319.041	-2.659	-0.126	0.087
-318.026	-153.969	-0.110	0.007
-317.012	-37.889	-0.317	-0.168
-315.997	29.897	-0.438	-0.371
-314.983	122.450	0.159	0.198
-313.968	-14.434	-0.117	0.075
-312.953	800.000	-0.025	0.094
-311.939	800.000	0.050	-0.158
-310.924	353.978	0.070	-0.139
-309.910	-46.005	0.211	-0.103
-308.895	-23.182	-0.215	-0.129
-307.880	-200.000	-0.020	-0.261
-306.866	-103.138	-0.302	-0.071
-305.851	65.538	-0.102	-0.102
-304.837	-110.321	0.041	-0.009
-303.822	-16.397	0.097	0.061
-302.807	-5.113	0.034	0.023
-301.793	53.516	-0.292	-0.278
-300.778	21.657	0.133	0.107
-299.764	800.000	0.024	0.100
-298.749	-41.606	0.247	0.126
-297.735	382.129	-0.111	0.228
-296.720	-127.364	-0.163	0.024
-295.705	112.377	-0.063	-0.076
-294.691	-200.000	0.039	-0.176
-293.676	136.282	0.196	-0.254
-292.662	106.011	-0.141	0.166
-291.647	60.363	0.257	0.253
-290.632	800.000	-0.023	-0.095
-289.618	-200.000	0.023	0.119
-288.603	42.276	0.325	0.293
-287.589	-16.425	0.036	-0.023
-286.574	-109.609	0.066	0.014
-285.559	744.698	-0.058	0.154
-284.545	338.192	-0.046	0.089
-283.530	-151.017	0.018	0.001
-282.516	129.694	0.045	-0.057
-281.501	10.792	0.082	-0.062
-280.486	-74.393	-0.073	-0.026
-279.472	-98.647	0.403	-0.102
-278.457	290.558	-0.083	0.150
-277.443	-181.038	0.297	-0.006
-276.428	-48.929	0.123	-0.059
-275.413	34.010	-0.187	0.162
-274.399	68.036	0.348	0.353
-273.384	183.565	0.183	0.269
-272.370	518.078	-0.121	-0.281
-271.355	-137.107	-0.266	0.030
-270.340	-200.000	-0.023	0.174
-269.326	184.072	0.053	-0.078
-268.311	25.793	-0.103	0.085
-267.297	-200.000	0.054	0.473
-266.282	449.609	0.124	-0.272
-265.267	104.018	0.081	-0.095
-264.253	86.375	-0.049	0.053
-263.238	-176.331	0.073	-0.002
-262.224	800.000	0.021	-0.074
-261.209	252.151	-0.125	-0.211
-260.195	14.292	0.060	0.046
-259.180	47.037	0.184	0.169
-258.165	-56.639	-0.240	0.105
-257.151	751.239	0.049	-0.131
-256.136	-68.095	-0.242	-0.094
-255.122	-46.415	0.203	0.099
-254.107	-200.000	-0.001	0.144
-253.092	-200.000	-0.164	0.001
-252.078	324.108	-0.049	-0.092
-251.063	-119.292	-0.183	0.032
-250.049	207.144	-0.132	0.205
-249.034	-44.949	-0.208	0.103
-248.019	-49.373	0.175	0.083
-247.005	602.449	-0.068	0.169
-245.990	-200.000	0.009	0.114
-244.976	-165.787	0.369	0.016
-243.961	-48.047	0.248	-0.119
-242.946	149.488	-0.064	-0.086
-241.932	-156.059	-0.148	0.009
-240.917	-200.000	-0.043	0.407
-239.903	-71.627	0.022	-0.008
-238.888	-149.043	0.080	-0.006
-237.873	-56.259	-0.152	-0.067
-236.859	-158.322	0.089	-0.005
-235.844	59.974	0.128	0.125
-234.830	800.000	-0.052	0.180
-233.815	-200.000	0.003	0.021
-232.800	278.318	0.115	-0.203
-231.786	-200.000	-0.002	-0.303
-230.771	163.309	-0.174	-0.242
-229.757	-167.385	-0.032	-0.001
-228.742	-200.000	0.054	-0.268
-227.727	-200.000	-0.005	0.367
-226.713	-99.293	0.180	0.045
-225.698	44.170	0.137	0.124
-224.684	116.018	0.128	0.155
-223.669	24.310	-0.422	0.346
-222.655	-145.510	0.179	0.016
-221.640	16.755	0.262	0.206
-220.625	380.189	0.090	-0.182
-219.611	-31.071	-0.058	0.033
-218.596	-200.000	0.001	0.114
-217.582	-27.032	0.195	0.113
-216.567	-11.924	0.121	0.079
-215.552	-83.900	0.139	-0.044
-214.538	-59.779	-0.046	0.019
-213.523	-101.660	0.342	-0.082
-212.509	-200.000	0.034	-0.154
-211.494	435.069	0.044	-0.096
-210.479	-200.000	-0.051	0.302
-209.465	183.264	-0.172	-0.251
-208.450	-200.000	-0.002	0.137
-207.436	37.331	0.243	0.214
-206.421	131.840	-0.214	0.273
-205.406	-26.503	-0.212	-0.123
-204.392	-102.856	0.283	0.067
-203.377	-200.000	-0.072	-0.334
-202.363	418.714	0.180	0.382
-201.348	274.147	-0.176	0.308
-200.333	415.256	0.036	0.075
-199.319	700.544	0.014	-0.036
-198.304	229.691	-0.036	-0.058
-197.290	-154.607	-0.213	-0.014
-196.275	-198.316	-0.032	0.000
-195.260	-200.000	-0.051	0.540
-194.246	73.155	-0.194	-0.201
-193.231	-71.609	0.147	0.054
-192.217	192.923	-0.045	0.068
-191.202	-200.000	0.030	-0.153
-190.187	92.035	-0.136	0.152
-189.173	-127.008	0.280	0.041
-188.158	-9.819	0.057	0.038
-187.144	86.353	0.188	0.205
-186.129	800.000	0.066	0.189
-185.114	-193.247	0.178	0.002
-184.100	-45.816	0.339	0.166
-183.085	-179.949	0.250	-0.005
-182.071	800.000	-0.066	-0.188
-181.056	800.000	-0.068	0.226
-180.042	-122.942	-0.007	0.001
-179.027	275.167	0.101	0.176
-178.012	-36.441	0.143	0.076
-176.998	110.872	-0.095	-0.113
-175.983	-200.000	0.011	0.341
-174.969	3.894	0.187	0.135
-173.954	55.757	0.121	-0.116
-172.939	-200.000	-0.279	-0.001
-171.925	-45.911	-0.289	-0.141
-170.910	366.412	0.081	0.162
-169.896	-29.109	-0.357	-0.202
-168.881	-107.230	-0.271	-0.059
-167.866	240.447	0.130	0.214
-166.852	-200.000	-0.015	-0.090
-165.837	-47.330	0.162	0.078
-164.823	-200.000	-0.022	0.099
-163.808	-137.314	0.248	0.028
-162.793	-200.000	0.015	-0.215
-161.779	-113.613	0.089	-0.017
-160.764	56.536	-0.246	-0.237
-159.750	-147.291	-0.552	0.046
-158.735	38.304	0.291	-0.256
-157.720	800.000	-0.076	0.254
-156.706	69.329	-0.088	-0.089
-155.691	-115.442	0.124	-0.023
-154.677	-34.796	-0.109	-0.059
-153.662	-83.963	0.076	-0.024
-152.647	-110.413	0.263	0.054
-151.633	-40.577	0.372	0.190
-150.618	200.517	0.072	0.110
-149.604	-192.291	0.194	0.002
-148.589	81.628	-0.079	0.085
-147.574	-30.940	0.121	-0.067
-146.560	87.157	0.083	0.090
-145.545	226.169	0.102	0.163
-144.531	-99.839	0.241	-0.060
-143.516	164.520	0.093	-0.129
-142.502	800.000	0.104	-0.443
-141.487	-6.817	0.176	-0.118
-140.472	76.517	0.213	0.223
-139.458	-24.750	0.111	-0.065
-138.443	-200.000	-0.034	-0.344
-137.429	-100.712	0.280	-0.068
-136.414	-200.000	-0.047	-0.245
-135.399	11.672	-0.376	-0.285
-134.385	87.361	-0.051	-0.056
-133.370	333.189	-0.093	0.178
-132.356	118.075	0.234	0.285
-131.341	800.000	-0.042	0.121
-130.326	-147.055	-0.198	-0.017
-129.312	-49.441	-0.076	0.036
-128.297	-40.986	0.159	-0.081
-127.283	-200.000	-0.040	-0.178
-126.268	-200.000	0.008	-0.320
-125.253	800.000	0.088	-0.246
-124.239	753.320	-0.060	0.160
-123.224	-124.442	0.163	0.025
-122.210	-89.223	-0.246	-0.072
