DTS Sentinel unit serial number:	SN413079Multiplexer serial number:	ORYXHardware model number:	OX4-SRSoftware version number:	ORYX F/W v4.00 Oryx Data Collector v3.7.2.0data status	okinstallation	princeton_trtdifferential loss correction	single-endedforward channel	channel 2reverse channel	N/Adate	2019/09/13time	00:15:34forward acquisition time	60.00reverse acquisition time	0.00gamma	496.2192k internal	0.2331k external	0.2331temperature offset calibration	1.0172default loss term (dB/km)	0.3790temperature slope calibration	1.0000multiplexer offset coefficient	1.0000multiplexer slope coefficient	1.0000fibre end	0.00T internal ref (°C)	28.50T ext. ref 1 (°C)	3.76T ext. ref 2 (°C)	23.19length (m)	temperature (°C)	Stokes	anti-Stokes-747.200	-200.000	0.069	0.342
-746.185	258.735	-0.093	0.161
-745.171	580.716	0.065	0.161
-744.156	84.850	-0.173	0.191
-743.142	-90.118	0.249	0.073
-742.127	-130.100	-0.176	-0.024
-741.112	-76.688	-0.270	0.095
-740.098	100.370	-0.049	0.057
-739.083	800.000	0.064	-0.214
-738.069	800.000	-0.036	0.144
-737.054	-26.978	0.271	-0.159
-736.039	329.590	-0.054	0.104
-735.025	344.165	0.080	0.158
-734.010	-130.728	-0.055	-0.007
-732.996	-91.697	-0.348	-0.100
-731.981	692.664	0.068	-0.180
-730.966	-200.000	0.000	-0.036
-729.952	-52.799	-0.050	0.023
-728.937	229.796	-0.144	0.236
-727.923	128.378	0.082	-0.105
-726.908	143.847	-0.173	0.232
-725.894	322.047	0.255	0.489
-724.879	93.345	-0.224	-0.255
-723.864	285.309	0.070	-0.128
-722.850	16.387	0.097	0.077
-721.835	-127.956	-0.075	0.011
-720.821	-126.869	-0.197	0.029
-719.806	71.638	-0.174	-0.182
-718.791	27.184	-0.287	0.243
-717.777	-167.771	0.319	-0.013
-716.762	-200.000	-0.019	-0.132
-715.748	-200.000	0.013	0.204
-714.733	-84.290	0.218	-0.069
-713.718	118.192	-0.096	0.119
-712.704	-200.000	0.026	0.210
-711.689	-147.272	0.182	0.016
-710.675	459.911	0.139	0.312
-709.660	-18.111	-0.256	0.161
-708.645	10.969	0.093	0.071
-707.631	-48.724	-0.350	0.169
-706.616	-133.071	-0.148	-0.019
-705.602	-200.000	0.009	-0.277
-704.587	239.636	0.180	0.301
-703.572	-76.142	0.205	-0.073
-702.558	159.188	0.037	0.052
-701.543	-200.000	-0.019	-0.300
-700.529	-200.000	-0.058	-0.399
-699.514	800.000	0.020	0.076
-698.499	-200.000	0.026	-0.190
-697.485	-3.859	-0.162	-0.113
-696.470	-112.609	-0.204	0.041
-695.456	622.496	-0.092	0.232
-694.441	551.299	0.076	-0.183
-693.426	800.000	0.064	0.278
-692.412	-112.873	-0.086	-0.017
-691.397	159.239	0.064	0.089
-690.383	-172.359	-0.180	0.006
-689.368	-21.499	0.207	0.127
-688.354	36.253	-0.111	-0.098
-687.339	170.191	-0.169	-0.243
-686.324	63.255	0.193	-0.195
-685.310	-40.983	-0.134	0.070
-684.295	-113.364	0.146	-0.029
-683.281	-169.965	0.072	-0.003
-682.266	14.126	-0.182	-0.143
-681.251	-29.291	-0.175	0.100
-680.237	121.883	0.187	0.234
-679.222	800.000	-0.052	0.162
-678.208	8.721	-0.158	-0.119
-677.193	-200.000	-0.000	-0.047
-676.178	-91.559	-0.070	0.020
-675.164	69.733	-0.106	0.110
-674.149	26.188	0.121	-0.101
-673.135	596.170	0.022	-0.054
-672.120	365.383	0.038	-0.078
-671.105	88.139	0.118	0.131
-670.091	-154.500	-0.310	-0.021
-669.076	-147.919	-0.184	0.015
-668.062	54.164	0.080	0.078
-667.047	53.860	0.125	-0.121
-666.032	800.000	-0.060	-0.167
-665.018	-200.000	-0.044	-0.370
-664.003	800.000	-0.060	-0.181
-662.989	216.571	0.148	-0.235
-661.974	31.346	-0.140	0.121
-660.959	648.911	0.108	-0.276
-659.945	401.778	0.044	0.092
-658.930	-61.703	0.177	0.074
-657.916	341.620	0.107	-0.209
-656.901	800.000	0.014	0.053
-655.886	-52.384	0.239	-0.111
-654.872	309.013	-0.082	-0.154
-653.857	-200.000	-0.024	-0.156
-652.843	525.361	-0.072	0.170
-651.828	-59.802	-0.263	0.113
-650.814	183.029	-0.048	-0.071
-649.799	29.802	-0.270	0.231
-648.784	800.000	0.042	0.172
-647.770	800.000	-0.058	0.219
-646.755	567.654	-0.045	0.108
-645.741	-3.499	-0.171	0.119
-644.726	-200.000	0.022	0.143
-643.711	-80.220	0.141	0.047
-642.697	-78.124	-0.103	0.035
-641.682	147.443	-0.113	-0.153
-640.668	800.000	0.090	-0.349
-639.653	-87.876	-0.100	0.030
-638.638	-18.753	0.105	-0.065
-637.624	-63.788	0.314	0.129
-636.609	51.309	0.093	-0.088
-635.595	-38.178	-0.042	-0.023
-634.580	798.545	-0.139	0.384
-633.565	-42.569	-0.155	0.079
-632.551	-97.720	0.247	0.064
-631.536	59.841	-0.070	-0.069
-630.522	-200.000	-0.019	0.224
-629.507	-200.000	0.041	-0.377
-628.492	-142.314	-0.176	-0.017
-627.478	102.088	0.109	0.128
-626.463	128.947	-0.209	-0.267
-625.449	29.293	-0.207	-0.176
-624.434	-63.137	-0.301	0.125
-623.419	260.830	0.077	-0.134
-622.405	-16.867	0.010	0.006
-621.390	-200.000	0.010	-0.168
-620.376	-118.616	0.293	-0.052
-619.361	9.766	-0.201	0.152
-618.346	556.742	0.112	-0.270
-617.332	-119.925	-0.229	-0.039
-616.317	-113.944	0.310	-0.060
-615.303	-200.000	0.032	0.346
-614.288	-68.472	-0.366	-0.142
-613.273	47.657	-0.099	-0.093
-612.259	-200.000	0.012	0.187
-611.244	87.341	0.194	0.214
-610.230	-144.429	0.225	0.021
-609.215	519.469	0.161	0.377
-608.201	105.696	-0.082	-0.097
-607.186	105.234	0.164	-0.193
-606.171	800.000	0.077	0.271
-605.157	180.579	0.122	-0.180
-604.142	120.313	0.092	-0.114
-603.128	70.822	0.251	0.260
-602.113	38.302	0.043	-0.038
-601.098	-72.260	0.061	-0.023
-600.084	377.186	0.069	-0.142
-599.069	248.579	-0.019	-0.031
-598.055	633.128	-0.091	0.231
-597.040	800.000	0.069	0.260
-596.025	8.936	0.136	-0.103
-595.011	230.245	0.101	0.165
-593.996	342.347	0.191	0.374
-592.982	-65.909	-0.216	-0.086
-591.967	131.900	-0.231	0.297
-590.952	-200.000	-0.037	0.298
-589.938	-15.417	0.082	-0.052
-588.923	-85.112	0.331	-0.104
-587.909	84.308	-0.235	-0.257
-586.894	-124.159	0.193	-0.030
-585.879	-111.795	-0.197	-0.040
-584.865	-1.319	0.084	-0.059
-583.850	-94.097	-0.131	-0.036
-582.836	-200.000	-0.041	-0.320
-581.821	79.985	-0.224	-0.241
-580.806	-200.000	-0.002	-0.108
-579.792	800.000	0.087	-0.277
-578.777	114.889	0.120	0.147
-577.763	-85.577	-0.159	-0.049
-576.748	-200.000	0.016	0.141
-575.733	-200.000	-0.020	0.125
-574.719	425.322	-0.072	0.154
-573.704	5.157	-0.172	-0.127
-572.690	-200.000	0.010	0.116
-571.675	-62.337	-0.155	0.065
-570.661	330.592	-0.033	0.063
-569.646	800.000	-0.045	-0.160
-568.631	-200.000	0.000	0.314
-567.617	141.827	-0.054	-0.071
-566.602	195.938	-0.134	-0.203
-565.588	-3.975	-0.026	0.018
-564.573	283.766	0.125	0.224
-563.558	-99.301	0.283	-0.071
-562.544	93.461	-0.027	-0.031
-561.529	14.395	0.222	0.173
-560.515	-200.000	-0.000	-0.288
-559.500	-152.188	-0.227	0.016
-558.485	-200.000	-0.015	0.089
-557.471	431.738	0.086	-0.186
-556.456	-66.145	0.413	-0.165
-555.442	-144.923	-0.215	0.020
-554.427	-200.000	0.088	-0.463
-553.412	-200.000	0.020	0.116
-552.398	434.992	0.149	-0.324
-551.383	-107.310	-0.076	0.017
-550.369	-33.237	-0.236	-0.131
-549.354	41.694	0.223	0.202
-548.339	-99.108	0.079	0.020
-547.325	-3.857	-0.268	0.186
-546.310	472.387	-0.046	-0.103
-545.296	316.236	-0.041	0.077
-544.281	-200.000	0.031	0.247
-543.266	-200.000	0.041	0.216
-542.252	222.839	0.137	-0.220
-541.237	383.570	0.089	-0.182
-540.223	-200.000	-0.017	0.123
-539.208	-143.584	-0.028	0.003
-538.193	-123.117	-0.116	0.019
-537.179	-41.384	-0.181	0.093
-536.164	-32.435	0.154	-0.086
-535.150	44.587	-0.285	-0.261
-534.135	229.059	0.032	0.052
-533.121	-200.000	-0.013	-0.124
-532.106	-200.000	0.062	0.304
-531.091	92.445	0.064	-0.073
-530.077	800.000	-0.040	-0.164
-529.062	93.327	0.191	0.215
-528.048	-200.000	0.054	0.289
-527.033	-38.503	0.395	0.208
-526.018	755.246	-0.149	0.401
-525.004	-200.000	0.004	-0.278
-523.989	38.341	-0.115	0.102
-522.975	800.000	0.082	-0.272
-521.960	-23.075	0.230	-0.138
-520.945	131.114	-0.054	0.069
-519.931	-50.953	-0.104	-0.049
-518.916	50.682	-0.207	-0.195
-517.902	113.656	-0.228	-0.276
-516.887	-200.000	0.018	-0.099
-515.872	-147.850	-0.011	0.001
-514.858	-14.292	-0.034	-0.022
-513.843	17.609	0.343	0.272
-512.829	-94.565	0.211	0.057
-511.814	800.000	-0.093	-0.338
-510.799	89.456	-0.051	-0.056
-509.785	-59.768	-0.296	-0.126
-508.770	27.849	-0.368	-0.309
-507.756	163.513	-0.094	-0.131
-506.741	-135.054	0.239	-0.029
-505.726	197.295	0.079	-0.121
-504.712	16.227	0.146	-0.115
-503.697	332.548	0.090	-0.174
-502.683	458.273	-0.128	0.283
-501.668	245.122	0.147	-0.246
-500.653	-37.007	0.112	0.060
-499.639	-200.000	0.047	-0.356
-498.624	-107.061	0.044	0.010
-497.610	-124.217	-0.261	0.041
-496.595	800.000	-0.069	0.266
-495.581	-200.000	-0.028	-0.213
-494.566	112.737	0.120	-0.145
-493.551	-11.846	-0.187	-0.122
-492.537	459.820	-0.149	0.330
-491.522	-25.148	0.247	0.146
-490.508	-200.000	0.037	0.214
-489.493	-112.545	-0.156	-0.031
-488.478	-94.176	-0.280	0.076
-487.464	-122.676	0.504	0.081
-486.449	-1.900	-0.320	-0.224
-485.435	-167.261	-0.347	-0.014
-484.420	172.401	-0.061	-0.087
-483.405	-200.000	-0.013	-0.098
-482.391	65.832	0.115	-0.116
-481.376	-143.636	0.202	0.019
-480.362	128.330	-0.066	0.084
-479.347	-64.170	-0.131	-0.053
-478.332	-114.264	0.169	-0.033
-477.318	-92.529	-0.186	-0.052
-476.303	-74.422	-0.049	0.018
-475.289	-36.266	0.060	0.032
-474.274	131.644	0.145	0.186
-473.259	-48.261	-0.328	0.157
-472.245	-200.000	0.026	0.184
-471.230	-200.000	-0.002	0.385
-470.216	800.000	0.050	0.168
-469.201	458.032	0.114	0.252
-468.186	800.000	0.017	0.048
-467.172	160.861	0.046	-0.064
-466.157	66.428	-0.130	-0.132
-465.143	800.000	0.121	0.336
-464.128	-200.000	-0.076	-0.357
-463.113	-43.933	0.321	0.161
-462.099	-124.392	0.327	-0.051
-461.084	59.333	-0.047	0.046
-460.070	247.750	0.067	-0.113
-459.055	-3.979	-0.130	0.090
-458.040	-83.716	-0.214	-0.068
-457.026	-138.885	0.100	0.011
-456.011	94.231	-0.098	-0.110
-454.997	-99.079	0.203	0.051
-453.982	800.000	0.096	-0.279
-452.968	800.000	-0.043	0.133
-451.953	72.517	-0.207	-0.215
-450.938	165.840	0.076	0.107
-449.924	-76.995	0.280	0.097
-448.909	-49.201	-0.187	-0.089
-447.895	800.000	0.056	0.224
-446.880	-122.111	0.364	-0.059
-445.865	-63.161	0.328	-0.135
-444.851	-200.000	-0.014	-0.127
-443.836	-138.621	0.169	-0.018
-442.822	5.565	-0.121	-0.089
-441.807	-27.223	0.380	0.220
-440.792	-156.870	0.486	-0.030
-439.778	-200.000	-0.049	0.220
-438.763	-85.977	-0.193	-0.059
-437.749	-200.000	-0.047	0.232
-436.734	-200.000	0.031	0.197
-435.719	-163.404	-0.190	0.009
-434.705	218.427	-0.039	-0.061
-433.690	-61.838	0.139	0.058
-432.676	689.834	0.076	0.199
-431.661	127.773	-0.161	0.204
-430.646	127.203	0.140	0.177
-429.632	-200.000	-0.007	0.117
-428.617	389.988	-0.175	-0.361
-427.603	-80.992	-0.157	0.052
-426.588	-93.591	0.310	0.085
-425.573	-51.246	-0.081	0.038
-424.559	-33.000	0.163	-0.090
-423.544	-67.558	0.149	-0.058
-422.530	623.325	-0.072	-0.180
-421.515	585.810	-0.074	0.180
-420.500	800.000	0.019	-0.056
-419.486	-52.555	-0.073	-0.034
-418.471	-121.392	-0.368	0.061
-417.457	-58.257	0.238	-0.103
-416.442	-158.530	-0.139	0.008
-415.428	-7.003	-0.373	0.252
-414.413	41.166	-0.155	0.140
-413.398	367.811	-0.022	-0.044
-412.384	199.836	-0.184	-0.281
-411.369	-13.388	0.180	-0.116
-410.355	34.215	0.283	0.245
-409.340	800.000	0.012	-0.047
-408.325	-85.922	0.348	0.107
-407.311	800.000	0.110	0.304
-406.296	580.134	-0.065	-0.157
-405.282	282.969	0.120	0.214
-404.267	485.572	0.077	-0.173
-403.252	12.347	-0.313	0.239
-402.238	-52.114	-0.266	0.122
-401.223	-91.183	0.345	-0.098
-400.209	-180.039	0.092	-0.002
-399.194	800.000	-0.018	-0.072
-398.179	800.000	-0.065	0.194
-397.165	-173.481	-0.205	-0.006
-396.150	89.989	-0.280	0.310
-395.136	-200.000	0.016	0.132
-394.121	-108.527	-0.188	-0.040
-393.106	-175.655	0.198	0.005
-392.092	800.000	0.095	0.376
-391.077	32.130	0.166	-0.142
-390.063	21.675	0.069	0.056
-389.048	-200.000	-0.013	0.133
-388.033	-77.082	0.311	0.108
-387.019	-72.369	0.132	0.048
-386.004	-200.000	0.078	-0.402
-384.990	-9.829	0.077	-0.051
-383.975	-85.455	0.016	0.005
-382.960	-23.809	0.163	0.097
-381.946	-85.219	-0.412	-0.128
-380.931	230.145	0.236	-0.382
-379.917	-65.778	-0.239	-0.095
-378.902	443.846	0.131	0.285
-377.888	550.687	0.010	0.024
-376.873	-82.020	0.121	-0.039
-375.858	-79.680	-0.176	0.059
-374.844	-44.738	-0.409	0.203
-373.829	199.696	-0.139	-0.212
-372.815	-155.739	-0.230	-0.015
-371.800	84.294	0.166	-0.180
-370.785	26.228	-0.290	0.240
-369.771	795.363	0.048	0.132
-368.756	-200.000	0.001	-0.058
-367.742	133.252	0.086	-0.110
-366.727	-67.224	0.352	-0.138
-365.712	-200.000	-0.058	-0.254
-364.698	-77.516	-0.480	-0.165
-363.683	800.000	-0.092	0.311
-362.669	-133.573	0.389	-0.048
-361.654	-166.143	-0.127	0.005
-360.639	267.957	0.107	0.185
-359.625	-15.790	-0.487	0.308
-358.610	-200.000	-0.013	0.188
-357.596	800.000	0.090	0.261
-356.581	330.992	-0.074	0.141
-355.566	-70.459	-0.344	0.129
-354.552	800.000	0.087	-0.316
-353.537	-200.000	-0.015	-0.089
-352.523	-39.523	-0.133	0.069
-351.508	-189.173	0.251	0.003
-350.493	755.318	0.031	0.083
-349.479	76.891	0.260	0.274
-348.464	800.000	-0.077	-0.263
-347.450	-46.079	-0.221	0.108
-346.435	101.626	0.314	0.362
-345.420	328.638	0.050	0.095
-344.406	-51.160	0.229	0.106
-343.391	-135.928	0.616	-0.072
-342.377	52.712	0.085	-0.080
-341.362	-200.000	0.032	0.151
-340.348	-121.437	-0.429	0.071
-339.333	-55.517	0.133	0.059
-338.318	800.000	-0.052	-0.168
-337.304	-37.243	-0.261	-0.138
-336.289	70.329	-0.226	0.232
-335.275	187.937	0.130	0.192
-334.260	224.724	0.076	-0.122
-333.245	217.896	-0.056	0.089
-332.231	5.261	0.150	-0.110
-331.216	-200.000	-0.014	-0.102
-330.202	46.027	-0.035	0.032
-329.187	800.000	0.067	0.234
-328.172	-44.525	-0.203	-0.100
-327.158	-200.000	-0.014	0.152
-326.143	800.000	-0.053	-0.165
-325.129	-12.789	0.051	-0.033
-324.114	-111.088	0.115	0.023
-323.099	-65.567	0.162	-0.064
-322.085	673.904	-0.023	-0.058
-321.070	800.000	0.032	-0.138
-320.056	-200.000	-0.073	0.000
-319.041	72.867	0.161	-0.166
-318.026	380.097	0.153	-0.311
-317.012	-65.192	0.133	-0.053
-315.997	-57.618	0.232	0.101
-314.983	28.773	-0.290	-0.243
-313.968	45.090	0.155	0.141
-312.953	-116.384	0.169	-0.031
-311.939	-68.594	-0.270	-0.104
-310.924	800.000	-0.035	0.126
-309.910	287.972	0.076	0.137
-308.895	658.857	0.087	0.221
-307.880	-175.449	0.174	0.005
-306.866	47.885	-0.240	0.222
-305.851	-200.000	0.014	0.096
-304.837	68.688	0.023	-0.023
-303.822	800.000	0.055	0.185
-302.807	-75.490	-0.155	0.055
-301.793	-43.303	-0.125	-0.063
-300.778	136.336	-0.117	-0.150
-299.764	800.000	-0.045	-0.155
-298.749	-0.573	0.524	-0.368
-297.735	-65.754	-0.132	0.052
-296.720	-200.000	-0.017	-0.110
-295.705	-41.441	0.181	-0.092
-294.691	-193.168	0.371	0.003
-293.676	-63.807	-0.438	0.177
-292.662	40.840	-0.065	-0.058
-291.647	800.000	-0.059	-0.235
-290.632	-200.000	0.020	-0.199
-289.618	-100.328	-0.207	0.051
-288.603	97.372	-0.204	-0.232
-287.589	370.240	-0.127	0.254
-286.574	71.973	0.289	-0.297
-285.559	-200.000	-0.008	-0.088
-284.545	-17.800	0.060	0.038
-283.530	-2.287	0.402	0.279
-282.516	161.704	-0.139	-0.192
-281.501	-26.512	0.135	0.078
-280.486	-147.497	0.158	0.013
-279.472	800.000	0.070	-0.269
-278.457	262.231	-0.062	-0.107
-277.443	-200.000	-0.002	-0.092
-276.428	-26.705	-0.340	0.196
-275.413	18.054	-0.252	-0.198
-274.399	-35.523	0.199	-0.106
-273.384	-19.840	0.088	0.054
-272.370	-140.393	0.068	-0.007
-271.355	1.388	0.229	-0.163
-270.340	800.000	-0.049	-0.204
-269.326	-73.417	-0.217	0.078
-268.311	-200.000	-0.010	0.352
-267.297	594.823	0.074	-0.180
-266.282	800.000	0.067	0.200
-265.267	137.134	-0.174	-0.224
-264.253	-163.353	0.139	-0.007
-263.238	-72.508	-0.055	0.020
-262.224	-200.000	0.027	-0.223
-261.209	800.000	-0.083	0.299
-260.195	-56.147	-0.281	-0.124
-259.180	166.479	0.144	0.202
-258.165	-119.781	-0.171	0.029
-257.151	491.970	-0.070	-0.159
-256.136	-20.017	-0.178	-0.108
-255.122	20.020	0.135	0.108
-254.107	628.012	-0.124	0.308
-253.092	416.591	0.093	-0.196
-252.078	111.718	-0.058	-0.069
-251.063	-87.232	0.271	0.081
-250.049	-99.781	-0.199	0.049
-249.034	-200.000	0.027	-0.237
-248.019	-46.207	-0.233	-0.113
-247.005	-8.241	-0.135	-0.089
-245.990	-200.000	-0.015	0.098
-244.976	-108.541	0.514	0.109
-243.961	-200.000	-0.047	0.297
-242.946	-120.131	0.229	-0.039
-241.932	-163.494	-0.212	0.010
-240.917	60.715	-0.151	0.148
-239.903	6.416	0.131	-0.096
-238.888	383.288	0.098	-0.198
-237.873	93.911	-0.357	-0.399
-236.859	59.524	0.125	0.122
-235.844	-200.000	-0.023	-0.194
-234.830	-111.270	-0.481	-0.097
-233.815	800.000	-0.074	0.294
-232.800	800.000	0.044	-0.159
-231.786	-16.642	-0.183	0.114
-230.771	229.419	0.196	-0.316
-229.757	-99.665	0.129	0.032
-228.742	800.000	-0.066	0.185
-227.727	28.439	-0.107	0.089
-226.713	-47.272	0.230	-0.110
-225.698	-200.000	-0.035	-0.168
-224.684	-200.000	0.008	0.051
-223.669	201.919	-0.105	-0.160
-222.655	-103.002	-0.042	0.010
-221.640	-83.827	-0.338	-0.106
-220.625	-34.056	-0.209	-0.113
-219.611	52.667	0.176	0.165
-218.596	46.907	-0.037	-0.034
-217.582	800.000	0.089	-0.250
-216.567	450.211	0.116	-0.252
-215.552	-200.000	-0.046	0.215
-214.538	735.963	0.083	-0.218
-213.523	33.127	-0.117	-0.100
-212.509	-101.721	-0.262	0.063
-211.494	-200.000	0.003	0.087
-210.479	-89.135	-0.190	-0.055
-209.465	-71.085	0.305	-0.113
-208.450	-101.496	-0.146	0.035
-207.436	-200.000	-0.000	0.038
-206.421	684.658	0.116	-0.299
-205.406	800.000	-0.031	0.105
-204.392	-143.725	-0.246	0.023
-203.377	800.000	-0.107	-0.323
-202.363	-60.701	0.347	0.145
-201.348	-104.956	0.135	0.031
-200.333	-200.000	-0.031	0.160
-199.319	101.495	0.156	-0.179
-198.304	458.782	0.213	0.466
-197.290	25.183	0.143	-0.117
-196.275	390.914	-0.151	-0.309
-195.260	-28.610	0.159	0.090
-194.246	429.484	-0.036	0.076
-193.231	187.186	-0.200	-0.294
-192.217	-56.889	0.102	-0.044
-191.202	-200.000	-0.015	0.243
-190.187	215.756	-0.181	-0.283
-189.173	-200.000	-0.066	-0.308
-188.158	113.399	-0.289	-0.345
-187.144	62.916	0.221	-0.218
-186.129	-125.045	0.279	0.042
-185.114	291.386	-0.097	0.173
-184.100	-11.491	0.136	0.088
-183.085	56.106	-0.181	0.173
-182.071	626.453	-0.136	0.337
-181.056	14.449	-0.159	0.122
-180.042	-112.456	0.187	-0.037
-179.027	-67.556	-0.120	0.046
-178.012	-200.000	-0.044	-0.386
-176.998	616.378	-0.113	-0.279
-175.983	146.621	-0.056	-0.074
-174.969	-94.360	0.258	-0.069
-173.954	-44.927	0.185	0.091
-172.939	800.000	0.055	0.149
-171.925	155.725	-0.194	0.263
-170.910	-94.367	0.302	0.081
-169.896	-39.372	-0.470	0.243
-168.881	224.995	-0.150	-0.239
-167.866	-29.639	-0.133	0.075
-166.852	-98.086	0.258	-0.065
-165.837	-196.428	0.037	0.000
-164.823	-96.062	0.168	-0.044
-163.808	-200.000	-0.031	0.175
-162.793	8.526	-0.251	0.186
-161.779	235.790	0.181	-0.294
-160.764	800.000	0.106	0.378
-159.750	-96.410	-0.236	-0.061
-158.735	119.655	-0.121	-0.148
-157.720	800.000	0.073	-0.239
-156.706	-200.000	0.024	0.260
-155.691	-200.000	0.001	0.090
-154.677	800.000	0.055	-0.227
-153.662	552.588	0.024	0.057
-152.647	-27.174	-0.249	-0.143
-151.633	-200.000	-0.019	0.099
-150.618	44.649	0.055	-0.050
-149.604	145.759	-0.081	0.106
-148.589	160.793	0.134	-0.184
-147.574	800.000	0.103	0.417
-146.560	-35.698	-0.288	0.153
-145.545	308.252	-0.097	0.179
-144.531	-200.000	-0.043	0.222
-143.516	-15.677	-0.038	0.024
-142.502	298.470	-0.126	-0.228
-141.487	-129.665	0.192	0.026
-140.472	-114.718	-0.139	-0.026
-139.458	-200.000	-0.001	0.143
-138.443	57.290	-0.131	-0.126
-137.429	566.101	-0.110	0.262
-136.414	-77.219	-0.343	0.117
-135.399	140.180	0.018	-0.023
-134.385	-167.119	0.123	-0.005
-133.370	-70.738	-0.068	0.025
-132.356	-146.228	-0.412	0.036
-131.341	-70.462	0.135	-0.050
-130.326	-106.160	0.201	0.044
-129.312	-87.440	-0.295	-0.088
-128.297	548.930	-0.057	0.134
-127.283	-68.576	-0.027	-0.010
-126.268	-3.458	-0.064	-0.044
-125.253	-1.037	0.264	-0.183
-124.239	-102.507	0.136	-0.032
-123.224	550.672	-0.006	-0.015
-122.210	130.001	-0.296	-0.372
-121.195	-50.149	0.305	-0.142
