DTS Sentinel unit serial number:	SN413079Multiplexer serial number:	ORYXHardware model number:	OX4-SRSoftware version number:	ORYX F/W v4.00 Oryx Data Collector v3.7.2.0data status	okinstallation	princeton_trtdifferential loss correction	single-endedforward channel	channel 2reverse channel	N/Adate	2019/09/15time	19:07:35forward acquisition time	60.00reverse acquisition time	0.00gamma	496.2192k internal	0.2300k external	0.2300temperature offset calibration	0.9928default loss term (dB/km)	0.3790temperature slope calibration	1.0000multiplexer offset coefficient	1.0000multiplexer slope coefficient	1.0000fibre end	0.00T internal ref (°C)	41.31T ext. ref 1 (°C)	7.09T ext. ref 2 (°C)	30.74length (m)	temperature (°C)	Stokes	anti-Stokes-747.200	390.547	-0.117	0.249
-746.185	58.737	-0.058	0.058
-745.171	-200.000	0.016	0.150
-744.156	-200.000	0.057	0.308
-743.142	280.973	-0.134	-0.245
-742.127	1.818	-0.121	0.089
-741.112	-115.603	-0.390	-0.075
-740.098	-137.598	-0.468	0.054
-739.083	-127.041	-0.145	-0.022
-738.069	60.315	-0.060	-0.061
-737.054	-147.278	-0.208	-0.018
-736.039	-130.433	-0.250	0.035
-735.025	800.000	-0.110	0.378
-734.010	352.208	0.058	-0.117
-732.996	544.949	-0.066	-0.161
-731.981	-0.611	-0.062	0.045
-730.966	-162.040	-0.100	0.005
-729.952	371.659	-0.157	-0.324
-728.937	394.541	0.223	-0.474
-727.923	800.000	0.064	-0.248
-726.908	137.007	-0.079	-0.105
-725.894	318.464	-0.122	-0.235
-724.879	-200.000	0.022	-0.223
-723.864	-95.571	-0.458	-0.125
-722.850	800.000	-0.051	-0.146
-721.835	800.000	0.080	0.246
-720.821	-180.471	-0.089	0.002
-719.806	-102.298	-0.250	0.061
-718.791	-9.890	-0.125	-0.085
-717.777	20.731	-0.135	-0.111
-716.762	800.000	-0.043	-0.124
-715.748	800.000	-0.107	-0.399
-714.733	226.244	-0.063	-0.105
-713.718	-114.517	-0.204	0.040
-712.704	800.000	-0.135	-0.449
-711.689	-61.002	-0.088	-0.038
-710.675	46.006	-0.240	-0.226
-709.660	-45.850	0.276	0.139
-708.645	-38.570	-0.092	0.050
-707.631	-1.591	0.130	-0.094
-706.616	-16.565	-0.232	0.150
-705.602	-48.038	0.120	-0.059
-704.587	-200.000	0.030	-0.156
-703.572	-15.929	-0.087	-0.056
-702.558	592.375	-0.163	-0.409
-701.543	234.595	0.119	0.199
-700.529	-0.380	0.179	-0.130
-699.514	155.734	-0.103	-0.145
-698.499	-200.000	-0.020	-0.146
-697.485	-66.844	0.157	0.063
-696.470	208.471	-0.097	0.155
-695.456	-77.153	-0.067	0.024
-694.441	86.756	-0.145	-0.163
-693.426	800.000	0.011	0.037
-692.412	-141.015	-0.140	-0.015
-691.397	800.000	0.050	0.201
-690.383	-200.000	-0.024	-0.156
-689.368	-64.339	-0.233	-0.096
-688.354	637.684	0.094	-0.244
-687.339	-155.471	-0.400	-0.026
-686.324	189.234	0.027	-0.042
-685.310	-200.000	-0.069	-0.346
-684.295	666.621	0.150	0.395
-683.281	-15.451	0.115	0.075
-682.266	426.352	0.094	-0.205
-681.251	-200.000	0.054	-0.443
-680.237	772.891	0.036	0.100
-679.222	-98.639	0.262	-0.068
-678.208	-187.671	-0.236	-0.003
-677.193	240.202	-0.173	-0.292
-676.178	16.842	0.176	-0.142
-675.164	-32.212	0.128	0.073
-674.149	678.216	-0.062	0.164
-673.135	268.785	-0.167	-0.298
-672.120	-104.866	0.265	0.062
-671.105	41.052	-0.088	-0.081
-670.091	-200.000	-0.007	-0.062
-669.076	571.657	0.153	-0.379
-668.062	-86.334	-0.147	-0.046
-667.047	-104.795	-0.058	0.014
-666.032	69.252	0.194	-0.203
-665.018	165.367	-0.277	-0.398
-664.003	50.906	-0.278	-0.268
-662.989	258.249	-0.178	0.311
-661.974	-113.994	0.186	0.037
-660.959	-4.193	-0.138	-0.097
-659.945	-70.953	0.042	0.016
-658.930	800.000	0.148	0.524
-657.916	-96.723	0.232	-0.062
-656.901	-200.000	-0.002	-0.209
-655.886	-31.168	0.545	-0.313
-654.872	-85.957	-0.201	0.063
-653.857	-200.000	-0.013	-0.088
-652.843	-109.500	0.363	0.078
-651.828	-176.071	0.391	0.010
-650.814	103.929	0.195	-0.233
-649.799	-141.046	0.151	0.016
-648.784	-200.000	0.012	0.125
-647.770	-127.253	-0.300	-0.045
-646.755	-98.786	0.161	-0.042
-645.741	30.394	0.263	-0.228
-644.726	667.748	-0.064	0.169
-643.711	197.694	0.116	0.180
-642.697	-120.209	-0.157	-0.027
-641.682	-66.932	0.196	-0.079
-640.668	9.235	0.170	-0.130
-639.653	1.573	-0.267	-0.195
-638.638	-7.696	-0.128	0.088
-637.624	800.000	0.056	0.211
-636.609	49.082	0.045	-0.043
-635.595	779.319	-0.096	0.268
-634.580	-44.683	0.094	0.048
-633.565	-200.000	-0.007	0.175
-632.551	-164.524	-0.319	-0.015
-631.536	-6.806	0.167	-0.115
-630.522	430.960	0.071	0.156
-629.507	-170.425	0.216	0.008
-628.492	-78.139	0.179	0.062
-627.478	-30.370	-0.170	0.098
-626.463	68.906	0.178	0.186
-625.449	800.000	-0.082	-0.325
-624.434	311.641	-0.135	-0.256
-623.419	-29.632	0.174	-0.101
-622.405	-65.886	0.316	-0.128
-621.390	421.546	0.104	-0.226
-620.376	-53.774	0.366	-0.169
-619.361	191.879	0.199	-0.304
-618.346	-200.000	0.037	0.432
-617.332	-128.311	0.174	0.025
-616.317	165.710	0.197	0.283
-615.303	-65.272	0.395	0.161
-614.288	-70.110	-0.213	-0.082
-613.273	49.658	-0.165	0.158
-612.259	-130.746	-0.182	-0.025
-611.244	-83.218	0.117	-0.038
-610.230	-200.000	0.005	0.058
-609.215	-37.413	0.240	0.130
-608.201	-200.000	-0.129	0.662
-607.186	-14.140	0.139	-0.091
-606.171	120.748	-0.125	0.158
-605.157	188.075	0.178	0.270
-604.142	-84.773	0.164	0.052
-603.128	518.219	-0.049	-0.117
-602.113	-160.204	-0.269	-0.015
-601.098	800.000	0.057	0.197
-600.084	94.173	-0.369	0.425
-599.069	320.829	0.035	-0.067
-598.055	800.000	0.093	-0.314
-597.040	-200.000	0.017	0.155
-596.025	800.000	-0.081	-0.241
-595.011	505.299	0.101	0.237
-593.996	53.042	0.185	-0.180
-592.982	38.049	0.251	-0.226
-591.967	26.941	0.256	-0.218
-590.952	52.514	-0.093	0.090
-589.938	800.000	0.107	-0.300
-588.923	-15.741	-0.212	-0.137
-587.909	250.911	-0.031	0.053
-586.894	-82.487	0.128	-0.042
-585.879	55.144	0.048	0.047
-584.865	800.000	-0.024	-0.074
-583.850	25.201	-0.353	0.297
-582.836	800.000	-0.046	-0.193
-581.821	800.000	-0.078	0.334
-580.806	78.509	-0.127	0.137
-579.792	89.397	0.072	0.082
-578.777	21.206	-0.270	0.222
-577.763	251.192	-0.137	0.236
-576.748	-28.131	0.266	0.156
-575.733	473.914	-0.047	-0.108
-574.719	-185.928	0.043	-0.001
-573.704	14.849	-0.144	-0.114
-572.690	75.911	0.279	-0.299
-571.675	-41.923	0.060	-0.031
-570.661	-200.000	0.025	-0.347
-569.646	182.495	-0.049	0.074
-568.631	-151.359	-0.192	0.014
-567.617	-43.256	0.279	-0.143
-566.602	198.517	-0.227	-0.351
-565.588	15.110	0.188	-0.149
-564.573	-200.000	0.068	-0.635
-563.558	207.643	0.163	-0.258
-562.544	41.695	-0.252	0.232
-561.529	800.000	0.035	0.149
-560.515	255.743	-0.131	-0.227
-559.500	-55.256	0.119	-0.054
-558.485	303.629	-0.140	-0.263
-557.471	-200.000	-0.024	-0.130
-556.456	194.715	-0.155	-0.238
-555.442	800.000	-0.042	-0.148
-554.427	-200.000	0.021	-0.225
-553.412	622.932	0.068	-0.174
-552.398	781.199	-0.066	0.184
-551.383	-164.601	0.137	-0.006
-550.369	-155.163	0.292	-0.019
-549.354	-200.000	-0.024	-0.171
-548.339	-60.339	-0.195	-0.084
-547.325	-72.844	0.471	-0.175
-546.310	184.165	-0.005	0.008
-545.296	-8.162	0.327	0.223
-544.281	-127.131	0.163	0.024
-543.266	331.611	0.052	0.101
-542.252	14.979	-0.291	-0.230
-541.237	-200.000	-0.040	0.414
-540.223	-17.060	0.064	0.041
-539.208	191.426	-0.039	-0.060
-538.193	-24.008	-0.154	0.093
-537.179	50.097	0.121	0.115
-536.164	239.736	0.086	-0.144
-535.150	21.001	-0.203	0.167
-534.135	-126.233	-0.200	-0.030
-533.121	-200.000	-0.006	0.050
-532.106	-200.000	0.049	-0.282
-531.091	-151.605	0.376	-0.028
-530.077	-124.429	0.071	-0.011
-529.062	358.388	-0.208	-0.420
-528.048	118.147	0.086	0.108
-527.033	-96.745	-0.356	0.095
-526.018	356.228	-0.105	0.212
-525.004	-200.000	-0.020	0.111
-523.989	243.986	0.048	0.082
-522.975	800.000	-0.157	-0.603
-521.960	-83.084	-0.335	0.109
-520.945	85.392	0.108	-0.120
-519.931	-144.446	-0.143	-0.013
-518.916	-200.000	-0.033	-0.186
-517.902	-192.635	-0.276	-0.003
-516.887	-200.000	-0.008	-0.074
-515.872	-17.650	0.048	0.030
-514.858	-114.370	0.241	-0.047
-513.843	-200.000	0.010	0.219
-512.829	22.010	0.271	0.223
-511.814	319.788	0.095	0.183
-510.799	425.561	0.024	0.051
-509.785	-200.000	-0.002	0.049
-508.770	-64.827	0.170	0.069
-507.756	208.305	0.184	-0.291
-506.741	800.000	-0.093	-0.305
-505.726	-200.000	-0.005	-0.219
-504.712	-105.301	-0.375	0.086
-503.697	-31.290	-0.266	-0.151
-502.683	-118.518	-0.262	0.047
-501.668	367.879	0.108	-0.220
-500.653	-67.343	0.130	0.052
-499.639	800.000	-0.043	0.183
-498.624	22.858	-0.135	0.112
-497.610	-53.508	0.200	0.093
-496.595	332.298	0.065	0.127
-495.581	227.866	-0.050	0.082
-494.566	-66.600	-0.255	0.102
-493.551	547.160	0.039	-0.095
-492.537	525.958	-0.111	-0.264
-491.522	-84.494	0.223	-0.071
-490.508	-107.236	0.312	-0.069
-489.493	800.000	-0.042	-0.183
-488.478	23.396	0.099	-0.082
-487.464	-200.000	0.015	0.073
-486.449	-73.746	-0.168	-0.062
-485.435	385.127	0.103	-0.215
-484.420	106.945	0.071	0.085
-483.405	-200.000	-0.027	-0.194
-482.391	-200.000	-0.009	0.168
-481.376	144.575	-0.101	-0.136
-480.362	-26.915	-0.140	0.083
-479.347	-177.179	-0.140	0.004
-478.332	565.637	0.023	-0.057
-477.318	-82.484	0.305	-0.100
-476.303	-96.444	0.147	-0.039
-475.289	0.022	0.181	0.130
-474.274	38.191	-0.234	0.210
-473.259	-184.023	-0.161	-0.003
-472.245	-171.734	0.176	-0.006
-471.230	800.000	0.013	0.058
-470.216	52.280	0.149	-0.144
-469.201	-55.401	0.150	-0.068
-468.186	-125.758	-0.244	0.037
-467.172	-200.000	0.076	0.344
-466.157	27.013	-0.161	0.137
-465.143	-111.625	-0.263	0.054
-464.128	177.708	0.165	0.242
-463.113	-45.754	-0.109	-0.054
-462.099	-60.774	0.175	-0.075
-461.084	-189.957	0.322	0.004
-460.070	800.000	0.079	-0.318
-459.055	800.000	0.092	-0.271
-458.040	-139.173	-0.096	-0.010
-457.026	-58.525	0.318	0.139
-456.011	485.420	0.191	0.438
-454.997	-140.961	-0.218	-0.023
-453.982	19.722	-0.168	-0.137
-452.968	-17.822	0.349	-0.221
-451.953	-116.969	-0.233	0.043
-450.938	176.910	0.179	-0.263
-449.924	-66.695	0.353	-0.141
-448.909	800.000	0.143	0.529
-447.895	-200.000	0.025	-0.182
-446.880	-35.672	0.194	0.106
-445.865	-33.927	0.163	-0.090
-444.851	-157.917	-0.193	-0.011
-443.836	-169.308	0.106	0.004
-442.822	25.164	-0.075	0.063
-441.807	-148.188	-0.340	0.028
-440.792	-81.154	0.276	-0.092
-439.778	-158.103	-0.282	-0.017
-438.763	-70.065	-0.163	0.063
-437.749	99.235	0.141	0.164
-436.734	665.036	-0.060	0.156
-435.719	55.173	-0.105	-0.102
-434.705	101.368	-0.154	-0.181
-433.690	-117.366	-0.348	0.064
-432.676	-87.377	0.255	-0.078
-431.661	-45.044	0.141	-0.071
-430.646	-135.028	0.119	-0.014
-429.632	588.617	0.088	-0.218
-428.617	-96.753	0.025	-0.007
-427.603	-66.426	0.165	0.066
-426.588	460.584	-0.058	0.129
-425.573	795.823	0.026	-0.072
-424.559	-200.000	-0.032	-0.207
-423.544	87.112	0.113	-0.126
-422.530	23.688	-0.267	-0.222
-421.515	-200.000	0.011	-0.325
-420.500	-19.279	-0.044	-0.028
-419.486	-48.932	-0.166	-0.080
-418.471	-200.000	-0.002	-0.075
-417.457	-160.928	-0.242	0.013
-416.442	111.590	-0.183	0.222
-415.428	-101.866	0.242	-0.059
-414.413	-200.000	0.041	0.239
-413.398	651.326	0.170	0.437
-412.384	-200.000	-0.014	0.064
-411.369	-200.000	0.142	0.000
-410.355	800.000	0.029	0.091
-409.340	-67.526	-0.485	-0.191
-408.325	-200.000	0.171	0.001
-407.311	-133.762	0.086	-0.011
-406.296	75.607	-0.121	-0.129
-405.282	-116.975	-0.480	-0.088
-404.267	-69.914	-0.153	-0.059
-403.252	188.858	0.029	0.043
-402.238	-76.363	0.135	-0.048
-401.223	106.482	0.141	-0.169
-400.209	69.117	0.217	0.224
-399.194	800.000	-0.073	0.266
-398.179	-200.000	0.011	0.124
-397.165	185.524	-0.020	-0.030
-396.150	-200.000	-0.042	-0.261
-395.136	-200.000	0.038	0.228
-394.121	-66.339	-0.227	-0.091
-393.106	-200.000	0.042	-0.236
-392.092	421.221	0.139	0.300
-391.077	180.944	-0.011	0.016
-390.063	-200.000	0.065	-0.339
-389.048	-200.000	0.014	0.090
-388.033	111.626	0.134	-0.163
-387.019	-200.000	-0.064	0.366
-386.004	-200.000	0.012	0.222
-384.990	-25.022	-0.171	-0.102
-383.975	22.879	-0.074	-0.061
-382.960	-72.033	-0.325	0.121
-381.946	-49.382	0.305	-0.146
-380.931	-38.101	-0.240	0.128
-379.917	-48.754	-0.302	0.146
-378.902	35.075	-0.178	-0.157
-377.888	800.000	0.031	0.135
-376.873	-200.000	-0.013	0.200
-375.858	-200.000	0.004	0.165
-374.844	-200.000	-0.024	0.246
-373.829	-135.960	-0.224	0.027
-372.815	-113.115	0.229	-0.045
-371.800	411.124	-0.041	-0.088
-370.785	-185.886	0.312	-0.005
-369.771	-200.000	0.022	-0.099
-368.756	-144.526	-0.416	-0.039
-367.742	-173.138	-0.093	-0.003
-366.727	-108.565	-0.225	0.049
-365.712	87.510	-0.120	-0.133
-364.698	-120.415	0.037	0.006
-363.683	309.796	-0.069	0.130
-362.669	-137.671	0.065	-0.007
-361.654	-200.000	0.008	0.120
-360.639	-134.420	-0.333	0.041
-359.625	-200.000	0.018	-0.092
-358.610	-81.123	-0.304	0.101
-357.596	493.798	-0.088	-0.203
-356.581	-9.621	0.400	0.268
-355.566	89.183	0.266	0.298
-354.552	800.000	-0.039	-0.146
-353.537	718.510	-0.070	0.186
-352.523	-26.510	-0.107	-0.063
-351.508	29.259	-0.198	0.169
-350.493	-141.802	-0.211	-0.021
-349.479	-200.000	0.007	-0.163
-348.464	-46.662	0.255	-0.125
-347.450	185.961	-0.236	0.353
-346.435	-24.228	0.176	0.106
-345.420	-200.000	-0.006	-0.396
-344.406	-200.000	-0.033	0.216
-343.391	407.529	-0.153	0.325
-342.377	-80.880	0.195	-0.065
-341.362	-36.750	-0.183	-0.099
-340.348	6.737	0.119	0.089
-339.333	-131.195	-0.120	0.016
-338.318	-200.000	0.031	0.447
-337.304	559.600	-0.050	0.122
-336.289	176.210	-0.116	0.170
-335.275	175.893	0.070	-0.102
-334.260	-200.000	0.005	0.187
-333.245	-21.129	0.149	-0.092
-332.231	-64.314	-0.306	-0.125
-331.216	120.243	-0.140	-0.175
-330.202	-85.446	-0.150	-0.047
-329.187	-11.335	0.222	0.146
-328.172	-81.319	0.029	0.010
-327.158	-200.000	-0.005	0.090
-326.143	-125.133	-0.300	-0.046
-325.129	-149.674	0.288	0.023
-324.114	-73.897	-0.159	-0.058
-323.099	-200.000	0.027	-0.287
-322.085	310.988	-0.045	-0.084
-321.070	-200.000	-0.017	0.105
-320.056	-78.706	0.059	-0.020
-319.041	-47.935	0.150	-0.073
-318.026	-118.120	0.355	0.064
-317.012	-50.509	-0.125	-0.059
-315.997	-124.645	0.221	0.034
-314.983	398.545	0.085	0.179
-313.968	-121.677	-0.085	0.014
-312.953	-122.005	0.150	-0.025
-311.939	-30.765	0.044	0.025
-310.924	-70.222	-0.217	0.083
-309.910	-32.756	-0.053	-0.029
-308.895	-200.000	0.042	-0.293
-307.880	-41.828	0.242	-0.125
-306.866	21.261	-0.134	-0.109
-305.851	-17.284	-0.133	0.084
-304.837	-177.526	-0.378	-0.009
-303.822	-200.000	-0.016	-0.163
-302.807	8.478	0.360	0.271
-301.793	161.209	-0.143	-0.200
-300.778	-19.185	0.221	-0.137
-299.764	-71.012	0.193	-0.073
-298.749	87.798	-0.283	0.314
-297.735	340.634	0.130	-0.255
-296.720	756.594	0.097	-0.263
-295.705	73.633	-0.106	-0.111
-294.691	62.876	-0.302	0.303
-293.676	-42.937	-0.017	-0.009
-292.662	62.271	0.202	-0.202
-291.647	-200.000	0.063	0.398
-290.632	0.018	-0.024	-0.017
-289.618	527.151	0.076	-0.180
-288.603	117.302	0.028	-0.034
-287.589	210.845	0.094	-0.147
-286.574	-73.484	-0.144	0.053
-285.559	-146.120	0.221	-0.019
-284.545	-169.596	0.262	-0.010
-283.530	-59.944	-0.058	0.025
-282.516	88.153	-0.211	0.235
-281.501	-200.000	-0.013	0.308
-280.486	234.884	-0.126	0.208
-279.472	-200.000	0.029	-0.431
-278.457	-200.000	0.035	-0.193
-277.443	800.000	-0.052	0.151
-276.428	-13.564	-0.181	0.118
-275.413	-150.871	0.136	-0.010
-274.399	-200.000	0.000	0.056
-273.384	-200.000	-0.014	0.209
-272.370	-104.974	-0.060	-0.014
-271.355	800.000	0.059	-0.233
-270.340	-39.676	0.334	0.175
-269.326	363.236	-0.027	0.053
-268.311	2.503	-0.251	-0.182
-267.297	-52.272	0.235	-0.109
-266.282	-200.000	0.017	0.101
-265.267	2.678	0.064	-0.047
-264.253	52.976	-0.191	-0.183
-263.238	-65.839	0.323	-0.129
-262.224	195.460	0.189	0.288
-261.209	800.000	-0.041	0.131
-260.195	-48.242	0.056	0.027
-259.180	433.552	0.027	0.058
-258.165	-23.038	-0.097	0.058
-257.151	-200.000	-0.008	-0.111
-256.136	146.619	0.063	0.085
-255.122	-172.290	-0.044	-0.001
-254.107	-131.269	-0.229	0.030
-253.092	-186.652	-0.101	0.001
-252.078	800.000	0.055	0.211
-251.063	-46.284	0.102	0.050
-250.049	-53.472	-0.035	-0.016
-249.034	800.000	-0.018	-0.073
-248.019	110.241	-0.107	-0.129
-247.005	87.331	-0.274	-0.303
-245.990	588.984	0.085	-0.209
-244.976	-29.226	-0.202	0.116
-243.961	464.305	-0.039	0.087
-242.946	647.117	0.019	0.048
-241.932	-103.526	-0.160	-0.038
-240.917	407.649	0.175	0.369
-239.903	-200.000	-0.018	0.102
-238.888	-83.694	-0.074	0.024
-237.873	-200.000	0.007	-0.088
-236.859	-121.475	0.342	-0.057
-235.844	-200.000	-0.002	-0.013
-234.830	-126.468	-0.233	0.035
-233.815	27.262	0.244	0.205
-232.800	800.000	-0.098	-0.302
-231.786	-95.817	-0.123	-0.033
-230.771	-58.224	-0.135	0.059
-229.757	383.695	0.131	-0.270
-228.742	-173.742	-0.177	-0.005
-227.727	-45.524	-0.189	0.094
-226.713	72.473	0.156	-0.162
-225.698	456.533	0.032	0.071
-224.684	7.280	0.100	-0.075
-223.669	50.388	0.260	-0.245
-222.655	-69.216	-0.221	0.085
-221.640	485.036	0.071	0.161
-220.625	31.342	0.094	-0.081
-219.611	-151.597	-0.198	-0.015
-218.596	-37.859	-0.294	0.156
-217.582	330.715	0.103	-0.198
-216.567	800.000	0.057	0.207
-215.552	110.747	0.281	0.338
-214.538	-35.037	0.052	-0.029
-213.523	-37.397	-0.188	-0.101
-212.509	-112.182	-0.156	-0.031
-211.494	-109.936	-0.182	-0.038
-210.479	-138.604	-0.043	-0.005
-209.465	800.000	0.128	0.369
-208.450	-163.539	-0.055	-0.003
-207.436	-200.000	-0.016	-0.160
-206.421	332.215	-0.136	0.262
-205.406	65.710	0.115	-0.117
-204.392	-94.819	-0.060	0.016
-203.377	-53.918	-0.204	0.093
-202.363	-111.809	0.072	0.014
-201.348	149.899	-0.153	0.208
-200.333	285.065	-0.079	-0.142
-199.319	-150.834	0.312	-0.024
-198.304	-6.723	0.213	0.144
-197.290	-89.712	-0.166	-0.048
-196.275	434.341	0.298	-0.647
-195.260	538.169	0.073	0.174
-194.246	29.336	0.125	-0.106
-193.231	-200.000	0.006	0.326
-192.217	-74.510	0.155	0.056
-191.202	800.000	0.051	0.143
-190.187	-92.901	0.074	0.021
-189.173	-200.000	-0.017	-0.132
-188.158	-14.814	-0.132	0.085
-187.144	-139.915	0.241	-0.025
-186.129	-61.584	-0.038	-0.016
-185.114	800.000	-0.071	-0.274
-184.100	-13.935	0.073	0.047
-183.085	-200.000	0.041	-0.358
-182.071	-0.295	0.305	-0.216
-181.056	-143.358	0.136	-0.013
-180.042	-145.097	-0.155	0.014
-179.027	793.180	-0.102	0.279
-178.012	-152.849	0.123	0.009
-176.998	152.403	0.104	0.141
-175.983	198.086	-0.115	-0.175
-174.969	-111.743	-0.375	0.076
-173.954	-14.198	0.317	0.204
-172.939	-81.234	-0.377	-0.124
-171.925	737.597	-0.053	0.141
-170.910	-165.069	0.344	0.015
-169.896	-166.811	-0.287	-0.012
-168.881	-32.479	-0.196	-0.109
-167.866	-17.884	0.241	0.151
-166.852	800.000	-0.037	0.112
-165.837	-144.587	0.306	0.028
-164.823	-200.000	-0.008	0.285
-163.808	-197.570	-0.304	0.002
-162.793	586.392	-0.157	0.386
-161.779	491.445	-0.160	0.365
-160.764	-200.000	-0.046	0.239
-159.750	-63.873	0.126	0.052
-158.735	340.829	-0.033	0.065
-157.720	800.000	-0.047	-0.142
-156.706	-114.526	0.346	0.066
-155.691	-200.000	0.072	-0.422
-154.677	-100.732	-0.240	0.059
-153.662	419.369	-0.139	-0.297
-152.647	-71.161	-0.315	-0.118
-151.633	62.106	-0.252	-0.250
-150.618	-120.260	-0.278	0.047
-149.604	-55.651	-0.157	0.070
-148.589	92.341	0.141	0.159
-147.574	-39.133	0.068	0.036
-146.560	16.318	-0.175	0.138
-145.545	-200.000	0.016	0.112
-144.531	-200.000	0.081	0.386
-143.516	-146.358	0.290	0.025
-142.502	-111.530	0.069	0.014
-141.487	469.960	0.031	0.070
-140.472	41.776	0.105	0.095
-139.458	-77.546	-0.097	-0.033
-138.443	3.456	0.251	0.182
-137.429	-200.000	-0.050	0.244
-136.414	-13.035	0.291	-0.188
-135.399	-200.000	0.003	0.077
-134.385	-200.000	0.037	-0.174
-133.370	302.398	0.054	0.100
-132.356	-182.985	-0.239	0.004
-131.341	-167.198	0.304	0.012
-130.326	220.071	0.113	-0.180
-129.312	177.904	-0.221	0.322
-128.297	485.966	0.112	0.254
-127.283	170.457	0.082	-0.117
-126.268	372.925	0.183	0.370
-125.253	19.411	-0.155	-0.124
-124.239	-113.523	0.286	0.056
-123.224	800.000	-0.019	0.073
