DTS Sentinel unit serial number:	SN413079Multiplexer serial number:	ORYXHardware model number:	OX4-SRSoftware version number:	ORYX F/W v4.00 Oryx Data Collector v3.7.2.0data status	okinstallation	princeton_trtdifferential loss correction	single-endedforward channel	channel 2reverse channel	N/Adate	2019/09/16time	13:19:35forward acquisition time	60.00reverse acquisition time	0.00gamma	496.2192k internal	0.2298k external	0.2298temperature offset calibration	0.9943default loss term (dB/km)	0.3790temperature slope calibration	1.0000multiplexer offset coefficient	1.0000multiplexer slope coefficient	1.0000fibre end	0.00T internal ref (°C)	41.31T ext. ref 1 (°C)	13.74T ext. ref 2 (°C)	39.28length (m)	temperature (°C)	Stokes	anti-Stokes-747.200	-76.354	-0.195	-0.070
-746.185	-200.000	0.006	0.029
-745.171	-200.000	0.026	0.337
-744.156	751.741	0.040	-0.110
-743.142	-200.000	0.035	-0.294
-742.127	-200.000	-0.032	0.485
-741.112	-200.000	0.081	0.530
-740.098	800.000	0.037	0.139
-739.083	-60.944	-0.130	-0.056
-738.069	17.718	0.249	0.203
-737.054	226.532	-0.173	0.287
-736.039	43.684	-0.111	0.104
-735.025	780.641	0.046	0.128
-734.010	50.822	-0.020	0.020
-732.996	167.303	-0.090	-0.131
-731.981	-17.689	-0.212	-0.136
-730.966	-76.328	0.180	0.065
-729.952	-200.000	-0.026	-0.676
-728.937	-103.403	-0.067	-0.016
-727.923	-200.000	0.033	0.330
-726.908	190.921	-0.081	0.125
-725.894	-200.000	0.007	0.128
-724.879	-17.012	-0.091	0.058
-723.864	409.900	0.164	-0.355
-722.850	97.926	-0.312	0.366
-721.835	-169.205	-0.319	0.012
-720.821	295.679	-0.154	0.287
-719.806	100.085	-0.288	-0.341
-718.791	-70.454	-0.142	-0.055
-717.777	225.709	-0.257	0.425
-716.762	554.270	0.006	-0.016
-715.748	-200.000	0.001	0.115
-714.733	46.205	0.130	0.123
-713.718	-33.527	-0.191	0.108
-712.704	-49.448	0.055	-0.027
-711.689	-200.000	0.044	-0.311
-710.675	-83.006	0.210	-0.069
-709.660	-11.553	-0.284	0.190
-708.645	4.814	-0.212	0.159
-707.631	800.000	0.050	-0.216
-706.616	84.600	0.269	-0.300
-705.602	-200.000	0.015	0.188
-704.587	-158.210	0.133	-0.008
-703.572	494.920	0.084	-0.197
-702.558	326.872	-0.060	-0.117
-701.543	80.069	-0.151	-0.165
-700.529	800.000	-0.015	-0.061
-699.514	94.388	-0.169	0.195
-698.499	-44.125	0.117	0.060
-697.485	186.180	0.171	-0.259
-696.470	690.355	-0.089	-0.238
-695.456	-124.187	-0.338	0.054
-694.441	-200.000	-0.002	-0.078
-693.426	800.000	0.097	0.383
-692.412	109.345	-0.296	-0.361
-691.397	-96.190	0.202	0.055
-690.383	121.411	-0.087	-0.110
-689.368	800.000	0.089	-0.257
-688.354	-2.200	-0.079	0.057
-687.339	-60.197	-0.292	0.127
-686.324	-200.000	-0.058	0.267
-685.310	214.465	-0.083	0.134
-684.295	-2.148	0.107	-0.077
-683.281	-97.501	0.005	0.001
-682.266	58.850	-0.191	0.191
-681.251	105.332	0.130	0.157
-680.237	95.651	0.095	-0.111
-679.222	-56.206	0.175	0.079
-678.208	210.924	0.070	-0.112
-677.193	-200.000	0.035	0.176
-676.178	-15.531	-0.294	0.191
-675.164	-56.024	-0.134	0.061
-674.149	-103.096	-0.144	-0.035
-673.135	-200.000	-0.043	0.225
-672.120	-152.127	-0.141	-0.010
-671.105	458.171	-0.041	-0.093
-670.091	474.052	-0.100	-0.230
-669.076	195.129	-0.166	-0.256
-668.062	800.000	0.030	-0.105
-667.047	11.048	0.097	-0.075
-666.032	-0.409	-0.158	0.114
-665.018	800.000	0.034	0.097
-664.003	4.490	0.337	-0.252
-662.989	92.150	0.146	0.167
-661.974	278.269	0.181	0.329
-660.959	-72.333	-0.403	0.152
-659.945	170.129	-0.194	0.283
-658.930	-74.601	0.360	-0.132
-657.916	32.192	-0.273	-0.240
-656.901	-43.556	0.090	0.046
-655.886	-200.000	-0.033	-0.147
-654.872	-73.009	-0.213	-0.079
-653.857	1.984	-0.132	-0.097
-652.843	-74.296	-0.498	-0.183
-651.828	-30.273	0.325	-0.188
-650.814	-122.780	-0.144	0.024
-649.799	154.065	-0.132	0.185
-648.784	-121.199	0.367	0.062
-647.770	-13.424	0.259	-0.171
-646.755	329.914	0.075	-0.147
-645.741	305.202	0.063	-0.118
-644.726	800.000	0.073	0.293
-643.711	-200.000	-0.053	0.462
-642.697	-21.896	-0.153	-0.095
-641.682	-56.690	-0.197	-0.089
-640.668	426.692	0.185	-0.405
-639.653	-200.000	0.028	0.208
-638.638	-41.366	0.229	-0.120
-637.624	53.089	-0.216	-0.210
-636.609	-71.369	-0.112	-0.043
-635.595	-154.474	0.102	0.007
-634.580	-130.016	0.040	-0.006
-633.565	800.000	0.017	-0.054
-632.551	155.420	-0.138	0.193
-631.536	43.115	0.102	-0.094
-630.522	-54.365	0.256	0.118
-629.507	244.031	0.082	-0.139
-628.492	-126.448	-0.303	-0.046
-627.478	89.227	0.203	-0.230
-626.463	721.630	-0.097	-0.263
-625.449	-23.232	0.217	-0.133
-624.434	227.218	0.129	0.213
-623.419	33.207	-0.186	-0.164
-622.405	-177.750	-0.086	0.002
-621.390	355.763	0.168	0.339
-620.376	800.000	0.073	0.211
-619.361	-64.346	-0.152	0.063
-618.346	44.412	-0.076	-0.071
-617.332	-41.233	-0.202	0.106
-616.317	-118.326	-0.148	-0.027
-615.303	800.000	-0.055	0.179
-614.288	44.040	0.077	0.072
-613.273	71.125	-0.232	-0.245
-612.259	477.883	-0.079	0.182
-611.244	124.698	0.129	-0.165
-610.230	540.515	0.064	-0.155
-609.215	337.188	-0.054	0.106
-608.201	-200.000	-0.080	-0.658
-607.186	290.541	-0.028	-0.053
-606.171	-200.000	-0.023	-0.345
-605.157	561.267	0.083	0.205
-604.142	800.000	0.038	-0.150
-603.128	-143.343	-0.188	-0.018
-602.113	800.000	-0.106	0.309
-601.098	54.926	0.086	0.084
-600.084	-200.000	0.031	0.339
-599.069	-62.345	-0.286	-0.121
-598.055	-151.832	0.203	-0.015
-597.040	-8.848	0.311	0.212
-596.025	-53.468	-0.211	-0.098
-595.011	-102.367	-0.418	0.102
-593.996	-200.000	0.030	0.174
-592.982	18.261	-0.145	0.117
-591.967	-70.580	-0.021	-0.008
-590.952	664.274	-0.050	0.130
-589.938	-200.000	-0.001	0.307
-588.923	-11.039	0.196	0.131
-587.909	-200.000	0.002	0.321
-586.894	158.009	-0.229	-0.322
-585.879	-25.754	-0.141	-0.084
-584.865	-83.544	0.267	0.087
-583.850	32.788	-0.174	-0.153
-582.836	-200.000	0.033	-0.187
-581.821	-80.565	0.156	0.053
-580.806	-18.009	0.241	-0.153
-579.792	800.000	-0.088	-0.294
-578.777	-136.585	0.196	-0.023
-577.763	405.480	0.168	-0.360
-576.748	-103.267	-0.104	-0.025
-575.733	-200.000	-0.004	0.262
-574.719	-139.275	-0.350	0.038
-573.704	750.904	-0.044	-0.121
-572.690	35.632	0.238	0.212
-571.675	-116.716	-0.392	0.073
-570.661	-89.364	-0.262	0.078
-569.646	-113.058	0.272	-0.054
-568.631	234.371	-0.248	-0.415
-567.617	43.629	-0.038	0.035
-566.602	-200.000	-0.051	-0.406
-565.588	-73.532	-0.054	-0.020
-564.573	-3.626	0.144	0.101
-563.558	-153.801	-0.132	-0.009
-562.544	-129.869	0.084	0.012
-561.529	-200.000	-0.000	0.154
-560.515	-14.162	0.176	-0.115
-559.500	-91.740	-0.141	-0.041
-558.485	16.321	-0.043	0.035
-557.471	-78.995	-0.306	0.106
-556.456	-76.235	0.177	-0.063
-555.442	12.360	-0.172	-0.134
-554.427	10.252	0.119	-0.092
-553.412	-53.564	-0.179	0.083
-552.398	-193.590	0.160	-0.001
-551.383	2.045	-0.155	-0.114
-550.369	10.683	0.147	-0.113
-549.354	-200.000	-0.002	0.038
-548.339	17.579	0.140	0.113
-547.325	687.265	-0.011	0.029
-546.310	224.317	-0.207	-0.339
-545.296	8.041	-0.132	-0.100
-544.281	42.087	-0.273	-0.251
-543.266	-23.475	-0.142	-0.086
-542.252	-81.130	0.152	0.051
-541.237	-51.615	-0.053	-0.025
-540.223	-184.707	0.314	-0.005
-539.208	-127.009	-0.322	-0.048
-538.193	6.136	0.071	-0.053
-537.179	-112.318	-0.325	0.066
-536.164	662.406	-0.093	0.242
-535.150	-27.075	-0.294	-0.174
-534.135	-163.178	0.144	-0.007
-533.121	-52.903	0.159	0.074
-532.106	-44.477	0.200	-0.101
-531.091	800.000	-0.044	-0.172
-530.077	20.157	0.116	0.095
-529.062	384.721	0.050	0.104
-528.048	151.939	-0.172	-0.237
-527.033	391.981	0.112	0.235
-526.018	559.851	-0.161	-0.394
-525.004	40.717	-0.105	0.096
-523.989	-7.735	-0.293	-0.200
-522.975	-200.000	-0.028	0.338
-521.960	321.379	-0.151	0.291
-520.945	-100.292	-0.313	-0.079
-519.931	-200.000	0.004	-0.208
-518.916	-23.841	-0.203	0.123
-517.902	-120.734	0.272	-0.046
-516.887	-200.000	-0.011	-0.054
-515.872	107.878	0.121	-0.146
-514.858	-51.034	0.285	0.135
-513.843	18.048	-0.255	-0.206
-512.829	-45.429	-0.158	-0.079
-511.814	-200.000	0.004	0.196
-510.799	-140.317	0.187	-0.020
-509.785	167.553	-0.304	0.437
-508.770	59.932	0.171	0.171
-507.756	26.531	0.289	-0.245
-506.741	-23.739	-0.249	-0.151
-505.726	63.799	0.058	-0.059
-504.712	-200.000	0.008	-0.065
-503.697	-200.000	-0.005	0.162
-502.683	-200.000	-0.040	-0.257
-501.668	800.000	0.053	-0.227
-500.653	185.332	-0.049	0.073
-499.639	-88.835	0.101	-0.030
-498.624	800.000	-0.064	0.260
-497.610	-55.554	0.093	-0.042
-496.595	-44.726	0.196	0.099
-495.581	93.349	0.156	-0.178
-494.566	299.873	-0.142	0.264
-493.551	-88.716	-0.154	0.046
-492.537	-110.067	0.393	-0.083
-491.522	-42.585	-0.160	0.083
-490.508	-17.653	-0.120	-0.076
-489.493	-200.000	0.003	-0.061
-488.478	-200.000	-0.055	0.378
-487.464	175.997	0.176	0.258
-486.449	-200.000	-0.050	-0.312
-485.435	-200.000	0.002	0.023
-484.420	21.765	-0.277	0.228
-483.405	-166.706	-0.069	-0.003
-482.391	-173.161	0.260	0.008
-481.376	174.756	-0.317	-0.463
-480.362	302.454	-0.064	0.120
-479.347	-90.373	0.161	-0.047
-478.332	163.364	0.035	-0.050
-477.318	-124.573	-0.156	0.024
-476.303	-45.470	0.128	-0.064
-475.289	-28.454	0.354	-0.206
-474.274	-127.521	-0.240	-0.035
-473.259	221.015	-0.055	-0.089
-472.245	506.500	0.115	0.269
-471.230	-66.305	-0.438	0.176
-470.216	-87.166	-0.147	-0.045
-469.201	174.355	0.077	-0.112
-468.186	-200.000	-0.003	-0.361
-467.172	-48.821	-0.229	0.111
-466.157	633.865	-0.141	0.360
-465.143	-200.000	-0.044	0.241
-464.128	-26.210	-0.101	-0.060
-463.113	120.593	0.242	0.304
-462.099	-200.000	-0.023	-0.533
-461.084	298.604	-0.072	0.134
-460.070	434.228	0.101	0.222
-459.055	800.000	0.058	-0.200
-458.040	-200.000	-0.062	-0.310
-457.026	-26.481	-0.084	-0.050
-456.011	-152.169	0.364	-0.027
-454.997	-137.099	-0.250	-0.029
-453.982	-38.581	-0.328	0.175
-452.968	763.306	-0.097	-0.266
-451.953	155.598	0.065	-0.090
-450.938	-200.000	-0.026	0.236
-449.924	655.234	0.057	0.147
-448.909	31.901	0.207	-0.180
-447.895	800.000	0.061	0.189
-446.880	-91.766	-0.354	-0.102
-445.865	-200.000	-0.051	0.434
-444.851	-11.345	0.017	-0.011
-443.836	-109.543	-0.152	0.032
-442.822	-30.476	-0.118	0.068
-441.807	0.294	0.113	-0.081
-440.792	-94.899	0.274	-0.075
-439.778	-138.361	0.387	0.043
-438.763	-109.512	0.163	-0.035
-437.749	403.846	-0.087	0.184
-436.734	341.988	0.122	0.242
-435.719	-117.518	-0.335	0.061
-434.705	-45.384	-0.154	-0.077
-433.690	-17.277	0.257	0.163
-432.676	258.821	-0.026	0.046
-431.661	63.617	0.218	-0.221
-430.646	-149.977	-0.255	-0.020
-429.632	-181.223	0.257	-0.005
-428.617	222.917	-0.140	-0.227
-427.603	-200.000	-0.038	-0.250
-426.588	155.164	-0.189	0.262
-425.573	800.000	-0.048	-0.175
-424.559	-32.827	-0.092	0.052
-423.544	29.200	0.273	0.233
-422.530	-57.512	0.173	0.077
-421.515	-200.000	0.010	-0.135
-420.500	-200.000	-0.050	0.409
-419.486	-200.000	0.005	-0.111
-418.471	-200.000	0.003	-0.123
-417.457	-86.738	0.061	-0.019
-416.442	-44.349	-0.116	-0.058
-415.428	-176.846	0.190	-0.005
-414.413	187.346	-0.087	0.130
-413.398	-200.000	-0.058	-0.350
-412.384	510.244	-0.041	-0.095
-411.369	800.000	-0.040	0.149
-410.355	104.928	0.219	0.260
-409.340	-41.748	-0.239	0.124
-408.325	-6.559	0.360	0.247
-407.311	-102.852	0.143	0.034
-406.296	-32.606	-0.295	0.166
-405.282	3.548	-0.274	0.201
-404.267	415.058	-0.049	-0.105
-403.252	-200.000	-0.021	-0.180
-402.238	-93.626	0.075	0.021
-401.223	-200.000	0.014	-0.197
-400.209	800.000	-0.091	-0.287
-399.194	157.147	0.097	0.135
-398.179	-200.000	-0.033	0.244
-397.165	750.914	0.057	0.155
-396.150	-2.921	0.323	-0.228
-395.136	-81.260	0.383	-0.127
-394.121	-200.000	0.050	-0.285
-393.106	-200.000	-0.090	0.415
-392.092	98.736	0.119	-0.139
-391.077	212.045	0.107	0.170
-390.063	-43.728	-0.288	-0.146
-389.048	-82.672	-0.378	-0.123
-388.033	-30.060	0.235	-0.134
-387.019	-15.947	-0.147	-0.094
-386.004	165.768	-0.011	0.015
-384.990	800.000	-0.086	-0.261
-383.975	-111.642	-0.263	0.054
-382.960	-200.000	-0.016	-0.402
-381.946	24.400	-0.306	-0.254
-380.931	-159.711	0.364	0.020
-379.917	-86.392	-0.364	-0.113
-378.902	41.251	0.150	0.136
-377.888	-200.000	-0.012	0.185
-376.873	-24.071	0.121	-0.073
-375.858	255.267	-0.112	0.193
-374.844	-163.081	-0.288	0.014
-373.829	-72.613	0.090	-0.033
-372.815	16.632	0.250	0.199
-371.800	0.519	-0.323	0.232
-370.785	99.372	-0.133	-0.155
-369.771	275.457	-0.064	0.114
-368.756	57.597	0.236	-0.232
-367.742	137.512	-0.082	0.108
-366.727	72.041	-0.127	0.133
-365.712	-34.111	-0.293	0.162
-364.698	-126.613	-0.246	-0.037
-363.683	39.538	-0.259	-0.233
-362.669	-200.000	0.043	-0.287
-361.654	30.782	-0.242	0.208
-360.639	800.000	0.016	-0.049
-359.625	-200.000	0.022	-0.134
-358.610	800.000	0.058	-0.232
-357.596	-200.000	0.009	-0.147
-356.581	38.124	0.076	0.068
-355.566	-144.249	0.353	0.033
-354.552	178.700	0.058	-0.085
-353.537	-106.927	0.561	0.125
-352.523	-51.845	-0.189	-0.088
-351.508	-11.233	0.394	-0.261
-350.493	-0.913	0.198	-0.141
-349.479	294.137	-0.155	-0.285
-348.464	66.495	-0.124	0.127
-347.450	271.957	-0.010	0.018
-346.435	312.981	-0.125	0.236
-345.420	-200.000	0.014	0.207
-344.406	-200.000	-0.014	-0.229
-343.391	32.857	0.247	0.215
-342.377	-87.710	-0.233	0.071
-341.362	-89.157	0.053	-0.016
-340.348	-200.000	0.019	0.218
-339.333	-31.717	0.136	-0.076
-338.318	-57.814	0.144	0.063
-337.304	55.379	0.179	0.174
-336.289	145.577	-0.021	0.028
-335.275	384.741	0.020	0.042
-334.260	244.150	0.095	0.161
-333.245	468.242	-0.085	-0.191
-332.231	-189.196	-0.128	0.002
-331.216	41.212	0.023	0.021
-330.202	272.781	0.147	0.260
-329.187	-48.241	0.388	-0.188
-328.172	38.032	-0.114	0.101
-327.158	-184.742	0.299	-0.005
-326.143	488.614	0.099	-0.227
-325.129	-14.188	-0.121	0.078
-324.114	75.905	0.096	0.102
-323.099	40.158	-0.239	0.216
-322.085	-53.261	0.407	-0.188
-321.070	-3.581	0.287	0.201
-320.056	32.480	0.230	0.199
-319.041	-11.622	0.107	-0.071
-318.026	495.374	0.114	-0.262
-317.012	143.841	0.213	-0.285
-315.997	-84.693	-0.045	-0.014
-314.983	156.890	-0.106	-0.148
-313.968	-200.000	0.037	-0.288
-312.953	800.000	0.066	-0.231
-311.939	750.734	-0.094	-0.254
-310.924	115.726	-0.026	0.032
-309.910	19.812	0.121	0.098
-308.895	-135.644	-0.301	0.036
-307.880	-99.925	-0.270	0.068
-306.866	-44.772	-0.215	0.108
-305.851	444.893	-0.007	-0.016
-304.837	800.000	-0.107	0.417
-303.822	219.309	-0.084	-0.135
-302.807	-40.111	-0.146	0.076
-301.793	24.841	-0.356	-0.296
-300.778	26.255	0.203	-0.170
-299.764	280.699	-0.055	0.098
-298.749	800.000	-0.055	0.214
-297.735	-26.201	0.224	0.132
-296.720	237.087	0.030	-0.050
-295.705	-16.516	0.226	-0.144
-294.691	42.171	0.131	0.119
-293.676	366.000	0.027	0.054
-292.662	90.796	0.201	-0.226
-291.647	-200.000	-0.005	-0.134
-290.632	-96.741	-0.156	-0.041
-289.618	-200.000	0.004	0.152
-288.603	-74.714	-0.342	-0.123
-287.589	-76.742	0.203	0.071
-286.574	-112.161	0.062	0.013
-285.559	87.698	0.046	0.051
-284.545	-200.000	0.044	0.264
-283.530	19.846	-0.041	0.033
-282.516	-200.000	-0.063	0.293
-281.501	-1.109	-0.395	-0.280
-280.486	-93.440	-0.201	0.056
-279.472	-83.151	-0.145	-0.047
-278.457	60.852	0.247	0.245
-277.443	-2.699	0.191	0.134
-276.428	21.496	-0.060	0.049
-275.413	-200.000	-0.162	0.000
-274.399	-123.041	-0.232	0.037
-273.384	-84.183	-0.210	-0.067
-272.370	-200.000	-0.024	-0.194
-271.355	-7.939	-0.069	-0.047
-270.340	-43.842	-0.095	-0.048
-269.326	215.625	0.250	0.398
-268.311	-57.928	0.339	-0.148
-267.297	702.437	0.083	0.220
-266.282	87.628	0.036	0.040
-265.267	-8.509	-0.090	0.061
-264.253	403.798	0.089	0.188
-263.238	-85.827	0.165	-0.051
-262.224	109.331	-0.126	-0.152
-261.209	-200.000	0.004	-0.251
-260.195	318.452	-0.037	-0.071
-259.180	-200.000	-0.009	0.086
-258.165	24.378	0.055	-0.045
-257.151	80.080	0.110	0.118
-256.136	490.978	-0.125	-0.286
-255.122	-114.078	-0.475	-0.092
-254.107	162.281	-0.067	-0.094
-253.092	-139.172	-0.342	-0.037
-252.078	45.923	0.161	-0.149
-251.063	-200.000	-0.009	0.173
-250.049	-28.479	0.178	0.103
-249.034	-132.871	0.213	-0.027
-248.019	110.476	-0.088	0.106
-247.005	589.918	-0.072	-0.178
-245.990	-93.524	-0.191	0.053
-244.976	148.251	-0.102	0.138
-243.961	-200.000	-0.021	0.330
-242.946	19.520	0.100	0.080
-241.932	510.994	0.078	-0.183
-240.917	800.000	-0.022	0.091
-239.903	-11.788	0.138	0.091
-238.888	-120.755	0.226	0.038
-237.873	-146.719	0.504	-0.044
-236.859	689.705	-0.048	-0.127
-235.844	-131.670	0.513	0.067
-234.830	-158.062	0.134	0.008
-233.815	68.049	0.169	0.173
-232.800	-200.000	-0.012	-0.155
-231.786	-114.904	-0.098	0.019
-230.771	-0.172	-0.175	-0.124
-229.757	238.278	0.117	-0.195
-228.742	800.000	-0.020	0.088
-227.727	394.345	0.066	0.138
-226.713	-187.177	-0.144	0.002
-225.698	244.900	-0.126	0.212
-224.684	-185.610	0.291	-0.004
-223.669	103.852	0.146	0.171
-222.655	49.074	0.273	0.256
-221.640	-200.000	0.002	0.393
-220.625	-200.000	-0.016	0.328
-219.611	-200.000	0.030	-0.139
-218.596	-66.616	0.119	-0.047
-217.582	-200.000	0.033	0.270
-216.567	-137.547	0.356	0.040
-215.552	320.419	0.039	-0.074
-214.538	-77.446	0.168	-0.058
-213.523	-124.670	0.032	0.005
-212.509	-26.030	0.129	-0.076
-211.494	257.195	0.148	-0.254
-210.479	-200.000	0.024	-0.123
-209.465	-117.556	-0.076	0.014
-208.450	-41.404	-0.278	-0.143
-207.436	800.000	-0.061	0.207
-206.421	-200.000	-0.091	-0.441
-205.406	-67.153	-0.220	-0.086
-204.392	7.070	0.093	0.069
-203.377	323.434	0.034	0.064
-202.363	800.000	0.018	0.076
-201.348	800.000	0.060	0.227
-200.333	-138.536	-0.090	0.010
-199.319	143.525	0.226	0.301
-198.304	-72.584	0.024	-0.009
-197.290	-120.825	0.212	0.036
-196.275	-61.124	-0.143	-0.060
-195.260	800.000	0.053	-0.152
-194.246	800.000	0.034	0.104
-193.231	-83.213	-0.155	0.050
-192.217	-44.059	0.245	-0.123
-191.202	182.535	-0.101	0.148
-190.187	46.719	-0.177	-0.165
-189.173	9.016	-0.301	-0.227
-188.158	-27.266	0.174	0.101
-187.144	800.000	-0.044	0.182
-186.129	-47.496	0.187	0.091
-185.114	-41.335	-0.140	-0.072
-184.100	-153.149	-0.286	0.020
-183.085	-101.345	0.260	-0.063
-182.071	-200.000	-0.051	0.412
-181.056	432.480	0.103	0.224
-180.042	-200.000	-0.020	-0.134
-179.027	-101.330	-0.320	-0.078
-178.012	18.430	0.492	0.393
-176.998	-45.210	-0.284	0.141
-175.983	-200.000	-0.080	-0.410
-174.969	695.778	-0.128	0.337
-173.954	228.170	0.055	-0.090
-172.939	-200.000	0.029	-0.427
-171.925	57.441	-0.156	-0.153
-170.910	122.360	0.096	0.120
-169.896	39.295	0.314	0.280
-168.881	-61.263	-0.036	-0.015
-167.866	-187.103	-0.047	0.001
-166.852	-191.274	0.169	0.002
-165.837	-18.703	0.399	-0.248
-164.823	-200.000	-0.019	-0.242
-163.808	670.422	-0.107	-0.278
-162.793	146.568	0.122	-0.163
-161.779	-8.742	0.172	-0.115
-160.764	473.281	-0.055	-0.125
-159.750	800.000	0.050	0.198
-158.735	12.032	-0.308	0.237
-157.720	800.000	0.047	0.196
-156.706	344.738	0.166	-0.326
-155.691	28.811	0.046	0.039
-154.677	800.000	-0.035	0.146
-153.662	-200.000	0.010	0.191
-152.647	354.106	0.043	0.085
-151.633	-200.000	-0.030	0.220
-150.618	291.452	0.187	0.340
-149.604	-24.069	-0.157	0.094
-148.589	93.577	0.042	0.047
-147.574	-94.634	-0.126	-0.034
-146.560	-176.206	0.280	-0.007
-145.545	285.013	-0.104	-0.187
-144.531	-40.667	-0.099	-0.051
-143.516	184.969	-0.209	-0.309
-142.502	800.000	0.030	-0.096
-141.487	800.000	-0.131	0.377
-140.472	-111.944	0.224	-0.045
-139.458	-200.000	-0.046	-0.226
-138.443	-122.375	-0.168	-0.027
-137.429	215.597	0.155	0.245
-136.414	-200.000	-0.001	0.088
-135.399	-200.000	0.053	0.299
-134.385	-200.000	0.074	0.000
-133.370	0.485	-0.108	-0.077
-132.356	113.207	0.162	0.196
-131.341	-200.000	-0.037	0.210
-130.326	-68.893	0.169	-0.065
-129.312	-57.711	0.182	-0.079
-128.297	99.571	-0.249	-0.287
-127.283	800.000	0.066	0.257
-126.268	-200.000	-0.029	0.145
-125.253	-192.681	-0.157	-0.001
-124.239	800.000	0.067	0.292
-123.224	48.777	-0.137	-0.128
-122.210	45.824	-0.217	-0.200
-121.195	209.095	0.175	0.273
