DTS Sentinel unit serial number:	SN413079Multiplexer serial number:	ORYXHardware model number:	OX4-SRSoftware version number:	ORYX F/W v4.00 Oryx Data Collector v3.7.2.0data status	okinstallation	princeton_trtdifferential loss correction	single-endedforward channel	channel 2reverse channel	N/Adate	2019/09/19time	11:47:35forward acquisition time	60.00reverse acquisition time	0.00gamma	496.2192k internal	0.2339k external	0.2339temperature offset calibration	1.0014default loss term (dB/km)	0.3790temperature slope calibration	1.0000multiplexer offset coefficient	1.0000multiplexer slope coefficient	1.0000fibre end	0.00T internal ref (°C)	25.75T ext. ref 1 (°C)	0.81T ext. ref 2 (°C)	21.63length (m)	temperature (°C)	Stokes	anti-Stokes-747.200	-52.300	-0.161	0.075
-746.185	137.367	-0.020	0.027
-745.171	405.466	0.077	-0.164
-744.156	119.583	-0.088	-0.110
-743.142	1.749	-0.178	0.129
-742.127	38.974	-0.143	0.128
-741.112	-161.055	-0.160	0.008
-740.098	800.000	-0.102	-0.301
-739.083	-148.014	-0.431	-0.036
-738.069	137.876	-0.169	-0.221
-737.054	-76.581	0.241	0.085
-736.039	301.102	-0.097	0.180
-735.025	-141.218	0.344	-0.035
-734.010	-200.000	-0.014	-0.548
-732.996	-200.000	-0.005	0.050
-731.981	195.289	-0.249	0.380
-730.966	-88.390	-0.340	0.102
-729.952	286.731	0.091	-0.165
-728.937	333.178	0.052	-0.100
-727.923	-200.000	-0.009	-0.117
-726.908	-1.313	-0.256	-0.181
-725.894	3.346	-0.336	0.245
-724.879	32.759	0.040	0.035
-723.864	-147.308	-0.122	-0.010
-722.850	782.510	-0.078	0.214
-721.835	-99.188	-0.185	0.047
-720.821	-200.000	0.017	0.352
-719.806	364.860	-0.044	-0.088
-718.791	-41.289	-0.249	0.129
-717.777	-118.937	0.320	-0.056
-716.762	111.296	0.112	-0.135
-715.748	292.139	-0.107	-0.194
-714.733	493.106	-0.063	-0.144
-713.718	800.000	0.148	-0.410
-712.704	-150.678	-0.209	0.016
-711.689	-200.000	-0.018	0.225
-710.675	-200.000	0.010	-0.203
-709.660	-200.000	-0.148	-0.000
-708.645	24.605	-0.199	-0.165
-707.631	106.371	-0.210	-0.249
-706.616	-26.955	-0.196	0.115
-705.602	800.000	0.133	-0.555
-704.587	-200.000	0.003	0.082
-703.572	-200.000	-0.019	0.117
-702.558	40.409	0.175	-0.158
-701.543	-118.254	-0.078	0.014
-700.529	-39.845	-0.292	-0.152
-699.514	-50.642	-0.175	-0.082
-698.499	322.042	-0.153	-0.292
-697.485	-178.083	0.473	-0.011
-696.470	265.739	-0.031	-0.055
-695.456	326.629	0.029	0.055
-694.441	-200.000	0.019	-0.285
-693.426	-200.000	0.020	-0.162
-692.412	48.716	0.097	-0.091
-691.397	-90.064	-0.263	0.077
-690.383	-200.000	0.020	-0.405
-689.368	12.299	0.086	0.066
-688.354	-128.786	-0.265	-0.037
-687.339	73.149	-0.160	0.168
-686.324	150.914	0.216	0.294
-685.310	-137.403	-0.099	-0.011
-684.295	503.421	-0.117	0.270
-683.281	-87.605	0.090	0.027
-682.266	162.342	0.146	-0.205
-681.251	123.561	-0.101	0.127
-680.237	121.951	0.088	0.110
-679.222	-112.992	-0.276	-0.055
-678.208	20.737	-0.267	-0.216
-677.193	800.000	-0.074	0.208
-676.178	124.986	-0.210	0.265
-675.164	123.775	0.200	-0.252
-674.149	-112.985	-0.356	0.070
-673.135	36.356	0.209	0.184
-672.120	800.000	0.096	-0.368
-671.105	-46.089	-0.301	-0.148
-670.091	448.453	-0.075	0.164
-669.076	250.683	0.073	0.124
-668.062	-200.000	-0.021	0.316
-667.047	545.020	-0.055	-0.131
-666.032	95.048	-0.165	-0.188
-665.018	137.185	-0.160	0.209
-664.003	-116.078	0.212	-0.039
-662.989	-31.424	-0.073	-0.041
-661.974	48.577	-0.223	-0.209
-660.959	-130.261	0.182	0.025
-659.945	-126.896	0.066	0.010
-658.930	12.181	0.165	0.127
-657.916	800.000	0.032	-0.101
-656.901	-78.209	-0.160	-0.055
-655.886	247.336	-0.186	-0.314
-654.872	-116.319	0.179	0.033
-653.857	7.460	-0.255	-0.190
-652.843	-200.000	-0.009	0.166
-651.828	-123.741	-0.141	-0.022
-650.814	105.727	-0.219	-0.259
-649.799	800.000	-0.041	-0.163
-648.784	-32.357	-0.178	0.099
-647.770	-12.992	-0.099	0.065
-646.755	158.568	0.052	0.072
-645.741	159.009	0.045	-0.063
-644.726	-76.209	0.334	0.118
-643.711	691.735	-0.120	0.314
-642.697	-38.044	-0.235	0.125
-641.682	-19.649	-0.064	-0.040
-640.668	-79.657	-0.106	0.036
-639.653	167.592	0.072	-0.102
-638.638	352.177	-0.064	-0.126
-637.624	-58.928	-0.069	0.030
-636.609	-200.000	0.001	0.031
-635.595	68.226	-0.087	0.089
-634.580	-138.792	0.186	-0.020
-633.565	800.000	-0.044	-0.137
-632.551	-10.553	-0.310	-0.205
-631.536	42.655	-0.199	-0.181
-630.522	-6.451	0.098	0.066
-629.507	800.000	-0.061	-0.177
-628.492	175.847	-0.079	-0.114
-627.478	406.601	-0.096	0.202
-626.463	21.191	-0.205	-0.166
-625.449	800.000	-0.029	0.103
-624.434	-43.549	0.096	-0.048
-623.419	-32.450	0.081	0.045
-622.405	-57.551	-0.084	0.037
-621.390	-18.003	-0.222	0.139
-620.376	421.286	0.039	-0.083
-619.361	-137.604	-0.263	-0.030
-618.346	143.631	-0.092	-0.123
-617.332	-200.000	-0.027	0.332
-616.317	278.791	-0.103	-0.183
-615.303	739.824	0.123	-0.331
-614.288	-123.212	-0.046	0.007
-613.273	800.000	0.064	0.275
-612.259	-171.970	0.324	-0.010
-611.244	-200.000	0.016	0.118
-610.230	95.974	0.163	-0.185
-609.215	-74.003	-0.166	-0.060
-608.201	71.612	-0.230	-0.239
-607.186	54.641	0.100	0.097
-606.171	-93.690	-0.069	0.019
-605.157	238.802	-0.104	-0.172
-604.142	-61.503	0.139	-0.058
-603.128	-200.000	-0.010	0.089
-602.113	278.118	-0.220	0.390
-601.098	203.957	-0.139	0.215
-600.084	170.098	0.099	0.141
-599.069	-200.000	-0.053	0.237
-598.055	14.053	-0.268	-0.208
-597.040	20.557	0.441	0.356
-596.025	59.148	0.369	0.362
-595.011	419.027	0.153	0.327
-593.996	54.861	-0.119	0.114
-592.982	-200.000	-0.010	-0.103
-591.967	28.916	-0.152	-0.128
-590.952	-200.000	0.005	-0.068
-589.938	169.312	0.050	0.072
-588.923	-62.119	0.199	-0.083
-587.909	322.236	0.063	-0.120
-586.894	24.142	-0.119	-0.098
-585.879	-78.572	-0.316	0.108
-584.865	4.393	0.074	-0.054
-583.850	-95.980	-0.123	0.033
-582.836	98.087	-0.080	-0.092
-581.821	142.223	0.265	0.350
-580.806	105.205	-0.289	-0.340
-579.792	299.046	-0.034	-0.062
-578.777	491.631	-0.022	-0.051
-577.763	800.000	0.045	0.192
-576.748	-200.000	0.007	0.169
-575.733	159.903	-0.414	0.575
-574.719	-24.906	-0.183	-0.108
-573.704	-26.137	-0.058	-0.034
-572.690	800.000	-0.027	0.089
-571.675	463.010	0.082	-0.182
-570.661	-200.000	-0.010	0.209
-569.646	-22.596	0.064	-0.038
-568.631	383.166	0.106	-0.218
-567.617	800.000	0.126	-0.349
-566.602	-200.000	-0.021	-0.172
-565.588	118.245	0.100	0.123
-564.573	-68.405	-0.186	0.072
-563.558	-102.812	0.047	0.011
-562.544	21.438	-0.033	-0.027
-561.529	-200.000	0.025	0.150
-560.515	-134.895	-0.509	0.061
-559.500	-31.580	0.258	0.144
-558.485	-200.000	-0.019	0.209
-557.471	632.664	0.082	0.206
-556.456	-58.383	0.218	-0.095
-555.442	-200.000	0.005	0.166
-554.427	-50.769	-0.105	-0.049
-553.412	-200.000	0.006	0.329
-552.398	-137.426	-0.204	0.023
-551.383	-112.125	0.310	-0.062
-550.369	-200.000	-0.053	0.247
-549.354	178.897	-0.105	0.152
-548.339	48.138	-0.126	0.117
-547.325	137.809	0.094	0.123
-546.310	-200.000	0.017	-0.240
-545.296	-200.000	0.015	0.118
-544.281	-115.827	-0.106	0.020
-543.266	-61.883	-0.159	0.066
-542.252	632.999	0.023	-0.059
-541.237	592.851	0.165	-0.406
-540.223	29.032	-0.050	-0.043
-539.208	437.851	-0.045	0.098
-538.193	150.239	-0.131	0.177
-537.179	237.209	0.087	-0.143
-536.164	-45.428	-0.184	0.091
-535.150	-200.000	0.010	0.066
-534.135	-200.000	0.056	0.246
-533.121	-200.000	0.035	0.169
-532.106	-150.020	0.125	-0.010
-531.091	-184.123	0.078	-0.001
-530.077	-200.000	0.049	0.360
-529.062	276.206	-0.092	-0.163
-528.048	12.019	-0.214	-0.163
-527.033	175.720	0.061	0.088
-526.018	27.122	-0.227	-0.189
-525.004	800.000	-0.086	-0.261
-523.989	-200.000	-0.055	0.368
-522.975	800.000	0.083	-0.340
-521.960	5.050	-0.048	-0.035
-520.945	-26.329	0.150	-0.088
-519.931	-60.714	0.187	-0.079
-518.916	209.752	-0.290	0.451
-517.902	-200.000	0.014	-0.164
-516.887	-0.822	-0.267	-0.188
-515.872	-200.000	-0.021	0.397
-514.858	-73.658	0.027	-0.010
-513.843	161.166	-0.211	-0.293
-512.829	800.000	0.034	-0.093
-511.814	-102.392	-0.146	0.035
-510.799	59.097	0.103	0.101
-509.785	-20.509	-0.220	-0.135
-508.770	-200.000	0.050	0.248
-507.756	346.918	-0.067	0.132
-506.741	149.372	0.139	0.186
-505.726	-188.300	0.038	-0.000
-504.712	800.000	0.067	-0.243
-503.697	-31.805	-0.197	-0.109
-502.683	-108.611	-0.430	0.092
-501.668	-200.000	-0.060	0.313
-500.653	-91.077	0.411	0.117
-499.639	250.292	-0.050	0.084
-498.624	9.023	0.190	-0.143
-497.610	-94.435	-0.334	0.091
-496.595	-14.970	0.166	0.106
-495.581	-175.765	0.213	-0.006
-494.566	-186.101	-0.283	-0.004
-493.551	-61.735	-0.173	-0.072
-492.537	-14.331	-0.168	0.108
-491.522	-39.634	-0.170	0.088
-490.508	-127.402	-0.183	0.026
-489.493	230.602	-0.116	-0.188
-488.478	324.092	-0.124	0.235
-487.464	-200.000	0.035	-0.154
-486.449	-200.000	0.004	-0.117
-485.435	-135.144	-0.661	0.079
-484.420	58.659	0.259	-0.253
-483.405	800.000	-0.028	-0.088
-482.391	-200.000	0.115	-0.621
-481.376	219.549	-0.094	-0.149
-480.362	-74.500	-0.343	0.123
-479.347	140.347	0.230	-0.301
-478.332	113.594	0.047	0.057
-477.318	-42.352	-0.160	-0.081
-476.303	-12.519	0.143	0.093
-475.289	-136.628	0.090	-0.010
-474.274	-132.600	-0.234	-0.030
-473.259	17.255	0.217	0.171
-472.245	156.964	0.057	0.079
-471.230	180.360	-0.115	-0.167
-470.216	123.216	0.157	0.195
-469.201	-90.954	0.191	-0.055
-468.186	800.000	0.010	-0.035
-467.172	-200.000	-0.015	0.131
-466.157	134.358	-0.229	0.295
-465.143	-200.000	-0.030	-0.373
-464.128	389.829	0.160	-0.329
-463.113	800.000	0.085	0.277
-462.099	103.576	0.098	0.114
-461.084	485.325	-0.045	-0.103
-460.070	265.695	0.194	-0.335
-459.055	84.293	0.175	0.189
-458.040	-200.000	0.010	0.077
-457.026	-19.972	-0.109	0.067
-456.011	800.000	0.090	0.378
-454.997	123.149	0.319	0.397
-453.982	-153.707	-0.140	0.010
-452.968	-66.499	0.278	-0.109
-451.953	-200.000	-0.004	-0.181
-450.938	-120.840	-0.057	0.010
-449.924	249.618	0.179	0.300
-448.909	183.486	-0.096	-0.140
-447.895	-47.459	0.332	0.160
-446.880	104.573	0.292	-0.341
-445.865	-151.279	-0.490	-0.036
-444.851	-12.994	-0.185	-0.120
-443.836	529.709	-0.064	-0.150
-442.822	-200.000	0.004	-0.212
-441.807	509.402	0.128	-0.296
-440.792	-127.783	-0.078	-0.011
-439.778	53.694	-0.112	-0.106
-438.763	-140.846	-0.153	-0.016
-437.749	-25.133	0.103	0.060
-436.734	22.284	0.328	0.265
-435.719	-87.601	0.376	-0.113
-434.705	-38.670	0.254	0.133
-433.690	-200.000	0.037	-0.180
-432.676	800.000	-0.096	0.282
-431.661	-159.462	0.259	0.014
-430.646	800.000	-0.018	0.070
-429.632	-134.874	-0.214	0.026
-428.617	-88.887	-0.518	0.152
-427.603	313.531	-0.098	-0.183
-426.588	800.000	0.049	0.181
-425.573	-78.297	-0.211	0.072
-424.559	-95.799	-0.048	-0.013
-423.544	362.991	-0.109	-0.217
-422.530	-29.800	-0.201	0.113
-421.515	537.184	0.126	0.295
-420.500	-192.784	0.300	-0.003
-419.486	8.237	0.120	-0.089
-418.471	-200.000	0.001	0.316
-417.457	59.732	0.044	-0.043
-416.442	800.000	-0.036	0.117
-415.428	105.073	0.202	-0.236
-414.413	19.079	0.113	-0.090
-413.398	-200.000	0.020	0.144
-412.384	-155.497	0.173	0.011
-411.369	-200.000	-0.036	-0.301
-410.355	800.000	0.061	-0.238
-409.340	-7.864	-0.105	0.070
-408.325	800.000	0.125	-0.493
-407.311	29.028	-0.157	0.132
-406.296	195.899	0.024	0.036
-405.282	-97.244	0.398	-0.103
-404.267	-47.622	0.249	0.120
-403.252	-121.933	0.263	0.043
-402.238	-122.069	-0.279	-0.045
-401.223	-79.932	0.155	0.052
-400.209	-200.000	-0.015	0.177
-399.194	267.637	0.143	-0.249
-398.179	614.353	-0.061	-0.150
-397.165	800.000	0.048	-0.148
-396.150	291.237	0.036	-0.065
-395.136	800.000	-0.061	-0.202
-394.121	-55.964	-0.028	-0.012
-393.106	202.175	-0.144	-0.220
-392.092	-63.009	-0.238	-0.097
-391.077	115.686	-0.059	0.071
-390.063	-70.916	0.152	0.057
-389.048	-90.361	0.016	-0.005
-388.033	-70.475	0.239	0.090
-387.019	-63.542	0.150	0.061
-386.004	121.629	0.058	-0.071
-384.990	800.000	0.028	-0.079
-383.975	-42.401	0.299	0.151
-382.960	-72.631	-0.355	0.129
-381.946	-15.422	-0.176	-0.111
-380.931	800.000	0.078	-0.229
-379.917	800.000	-0.059	-0.226
-378.902	195.429	0.053	-0.080
-377.888	-200.000	-0.006	-0.195
-376.873	39.931	-0.345	0.306
-375.858	-200.000	-0.043	-0.294
-374.844	-6.284	0.180	-0.122
-373.829	-32.584	0.114	0.063
-372.815	-136.216	0.294	-0.034
-371.800	72.317	-0.174	-0.179
-370.785	-200.000	0.027	0.187
-369.771	-36.509	-0.086	-0.046
-368.756	-200.000	0.029	-0.352
-367.742	253.537	-0.140	-0.236
-366.727	117.676	0.036	-0.044
-365.712	800.000	0.081	0.256
-364.698	106.658	0.072	0.084
-363.683	-29.050	-0.325	0.184
-362.669	120.396	0.082	-0.100
-361.654	-10.723	-0.151	0.099
-360.639	800.000	-0.046	-0.162
-359.625	-3.486	0.181	-0.124
-358.610	2.996	0.300	0.215
-357.596	64.599	-0.226	-0.225
-356.581	369.460	-0.158	0.316
-355.566	-200.000	-0.016	-0.073
-354.552	-141.154	-0.681	-0.069
-353.537	800.000	0.092	0.301
-352.523	-128.154	-0.164	0.023
-351.508	-43.867	0.123	0.061
-350.493	-66.985	0.388	0.151
-349.479	800.000	0.125	-0.419
-348.464	-54.891	-0.240	-0.107
-347.450	-142.352	0.103	0.010
-346.435	2.854	0.141	0.101
-345.420	51.938	0.217	0.204
-344.406	173.542	0.047	0.068
-343.391	-200.000	-0.017	0.228
-342.377	63.927	0.037	-0.036
-341.362	-71.443	0.080	0.030
-340.348	-36.953	-0.084	0.045
-339.333	-200.000	0.017	-0.123
-338.318	182.805	0.147	0.215
-337.304	-60.140	-0.394	-0.166
-336.289	29.970	0.220	0.185
-335.275	94.723	0.144	-0.162
-334.260	-53.593	-0.017	0.007
-333.245	-28.031	-0.119	-0.068
-332.231	-152.712	-0.096	0.007
-331.216	15.918	0.329	-0.256
-330.202	800.000	0.040	0.129
-329.187	-200.000	0.006	-0.243
-328.172	800.000	-0.068	-0.283
-327.158	-98.769	0.364	0.091
-326.143	292.189	0.151	-0.271
-325.129	-200.000	0.015	0.099
-324.114	-200.000	-0.012	0.128
-323.099	269.125	0.072	-0.125
-322.085	180.835	-0.147	-0.213
-321.070	800.000	-0.158	-0.458
-320.056	-72.635	-0.292	0.106
-319.041	800.000	0.024	-0.098
-318.026	97.414	-0.246	0.279
-317.012	800.000	0.016	-0.042
-315.997	48.158	-0.185	0.171
-314.983	386.011	0.107	0.219
-313.968	-9.584	-0.330	0.217
-312.953	-67.241	-0.080	0.031
-311.939	74.383	0.269	0.279
-310.924	-30.799	-0.159	-0.088
-309.910	31.561	0.212	-0.180
-308.895	-124.291	0.409	0.063
-307.880	800.000	-0.056	-0.227
-306.866	405.721	-0.107	-0.222
-305.851	800.000	0.100	0.272
-304.837	692.015	-0.048	-0.123
-303.822	-200.000	0.025	0.192
-302.807	-200.000	0.044	0.220
-301.793	97.123	0.080	0.091
-300.778	357.461	0.061	-0.119
-299.764	-33.741	-0.125	0.068
-298.749	51.657	0.253	-0.237
-297.735	11.992	0.145	-0.110
-296.720	-122.000	-0.148	0.024
-295.705	-94.290	0.341	-0.092
-294.691	800.000	-0.081	-0.313
-293.676	-47.522	-0.310	-0.148
-292.662	21.545	-0.089	-0.071
-291.647	800.000	-0.119	-0.344
-290.632	800.000	0.014	-0.039
-289.618	19.294	0.153	-0.121
-288.603	-83.308	0.187	-0.059
-287.589	800.000	0.087	-0.250
-286.574	-200.000	0.017	-0.115
-285.559	-62.061	0.074	0.030
-284.545	-200.000	0.001	-0.053
-283.530	-48.287	-0.009	0.004
-282.516	146.534	-0.059	0.079
-281.501	633.866	-0.059	-0.148
-280.486	-2.832	0.199	0.137
-279.472	637.978	-0.090	-0.226
-278.457	221.583	-0.223	-0.353
-277.443	659.725	0.093	-0.235
-276.428	-62.047	0.135	-0.056
-275.413	800.000	-0.072	0.203
-274.399	165.762	0.155	-0.216
-273.384	132.174	-0.155	-0.197
-272.370	79.253	0.264	0.278
-271.355	-133.477	-0.095	0.012
-270.340	-200.000	0.037	0.185
-269.326	800.000	-0.040	-0.144
-268.311	-13.325	-0.272	0.174
-267.297	190.183	0.159	-0.235
-266.282	194.655	0.226	-0.338
-265.267	-36.836	-0.227	-0.120
-264.253	29.415	-0.112	0.094
-263.238	74.237	-0.200	-0.207
-262.224	-43.243	0.160	0.080
-261.209	-12.495	-0.209	0.134
-260.195	-40.292	0.212	0.108
-259.180	-88.338	-0.328	-0.097
-258.165	499.404	-0.037	0.084
-257.151	243.838	-0.070	0.115
-256.136	563.505	0.054	0.128
-255.122	800.000	-0.050	0.151
-254.107	208.861	0.084	0.129
-253.092	-30.668	-0.315	-0.176
-252.078	21.792	0.246	0.197
-251.063	-200.000	-0.056	0.276
-250.049	800.000	-0.119	-0.341
-249.034	-200.000	-0.033	0.202
-248.019	11.503	0.180	0.135
-247.005	58.830	0.146	-0.141
-245.990	-82.560	0.104	0.033
-244.976	-72.584	0.174	-0.063
-243.961	205.542	0.157	-0.241
-242.946	800.000	-0.189	0.515
-241.932	-62.605	0.147	-0.060
-240.917	174.419	-0.240	-0.342
-239.903	-39.712	0.172	-0.089
-238.888	124.686	0.084	0.104
-237.873	391.259	0.297	0.605
-236.859	99.899	-0.103	0.118
-235.844	46.326	0.116	-0.106
-234.830	-200.000	-0.039	-0.183
-233.815	-200.000	0.012	-0.180
-232.800	38.004	0.158	-0.138
-231.786	33.981	-0.066	0.056
-230.771	-200.000	-0.013	-0.191
-229.757	-200.000	-0.017	0.288
-228.742	535.174	-0.115	0.269
-227.727	129.014	0.061	-0.076
-226.713	-200.000	-0.025	-0.125
-225.698	3.012	0.124	0.089
-224.684	-98.214	0.143	-0.036
-223.669	-200.000	0.010	-0.118
-222.655	101.647	-0.131	0.150
-221.640	159.165	0.154	0.210
-220.625	-200.000	0.413	0.001
-219.611	-18.270	0.056	0.034
-218.596	-106.550	-0.261	0.057
-217.582	-47.185	0.127	0.061
-216.567	111.539	-0.143	-0.169
-215.552	-200.000	0.006	0.384
-214.538	-86.944	0.367	0.110
-213.523	-119.892	-0.089	-0.015
-212.509	42.356	-0.187	0.167
-211.494	-178.126	0.347	-0.008
-210.479	23.458	0.065	0.053
-209.465	800.000	-0.043	-0.184
-208.450	800.000	0.091	0.294
-207.436	-150.202	-0.077	-0.006
-206.421	103.685	-0.117	-0.134
-205.406	-85.326	0.071	-0.022
-204.392	189.031	0.246	0.361
-203.377	-44.728	-0.208	-0.102
-202.363	-113.552	0.197	-0.038
-201.348	111.502	0.337	0.399
-200.333	32.338	-0.096	0.082
-199.319	185.931	-0.118	-0.173
-198.304	-56.152	-0.210	0.092
-197.290	-200.000	-0.021	-0.135
-196.275	-53.407	0.071	-0.032
-195.260	415.786	0.191	0.400
-194.246	36.472	0.226	0.196
-193.231	800.000	-0.073	-0.295
-192.217	-86.033	0.388	-0.118
-191.202	-200.000	-0.016	0.091
-190.187	-122.996	0.107	-0.017
-189.173	-126.401	-0.092	-0.013
-188.158	-141.117	-0.009	0.001
-187.144	-105.647	0.166	-0.037
-186.129	98.040	0.010	-0.012
-185.114	14.414	-0.205	0.157
-184.100	412.287	-0.086	-0.180
-183.085	-154.723	0.162	-0.011
-182.071	163.985	-0.141	0.195
-181.056	-200.000	-0.060	0.311
-180.042	-200.000	-0.025	-0.406
-179.027	231.669	0.099	-0.159
-178.012	211.094	-0.116	0.179
-176.998	53.542	0.066	-0.062
-175.983	-88.268	0.023	0.007
-174.969	-200.000	-0.009	-0.102
-173.954	-60.288	-0.172	-0.072
-172.939	-34.269	-0.111	-0.060
-171.925	-178.869	0.215	0.005
-170.910	113.890	0.317	-0.378
-169.896	-1.676	0.377	-0.260
-168.881	-86.118	0.187	0.057
-167.866	-43.851	-0.146	-0.072
-166.852	592.141	-0.103	-0.249
-165.837	-200.000	-0.022	-0.426
-164.823	-42.155	-0.179	-0.090
-163.808	-107.034	-0.266	0.058
-162.793	-200.000	0.020	0.174
-161.779	-33.816	-0.091	0.049
-160.764	163.303	-0.126	0.174
-159.750	-200.000	0.016	0.255
-158.735	-95.100	0.111	-0.029
-157.720	-151.476	0.218	-0.016
-156.706	-74.654	-0.169	0.060
-155.691	-121.478	-0.131	0.021
-154.677	-200.000	0.008	0.430
-153.662	96.714	0.289	0.324
-152.647	27.061	-0.134	-0.111
-151.633	-65.987	-0.243	-0.095
-150.618	81.625	0.287	0.304
-149.604	-122.841	0.530	0.084
-148.589	376.000	-0.075	-0.150
-147.574	172.111	-0.185	0.261
-146.560	-126.550	-0.170	0.025
-145.545	-200.000	0.044	-0.387
-144.531	15.510	-0.130	-0.100
-143.516	12.597	-0.074	-0.056
-142.502	-157.264	0.259	0.015
-141.487	-113.560	-0.153	-0.029
-140.472	385.221	0.027	0.055
-139.458	-100.025	-0.163	0.040
-138.443	-200.000	0.039	0.367
-137.429	-85.151	0.136	-0.042
-136.414	77.888	-0.334	-0.349
-135.399	306.582	0.166	0.302
-134.385	-12.539	-0.077	-0.049
-133.370	242.565	0.113	-0.185
-132.356	800.000	-0.074	-0.212
-131.341	-200.000	-0.027	0.319
-130.326	800.000	-0.027	-0.118
-129.312	-127.118	0.202	-0.029
-128.297	-200.000	-0.032	0.255
-127.283	191.573	0.179	0.263
-126.268	91.997	-0.333	-0.367
-125.253	-31.709	-0.063	-0.035
-124.239	800.000	-0.051	0.218
-123.224	12.055	-0.155	0.117
-122.210	86.278	0.169	0.182
-121.195	-194.778	0.335	0.003
