DTS Sentinel unit serial number:	SN413079Multiplexer serial number:	ORYXHardware model number:	OX4-SRSoftware version number:	ORYX F/W v4.00 Oryx Data Collector v3.7.2.0data status	okinstallation	princeton_trtdifferential loss correction	single-endedforward channel	channel 2reverse channel	N/Adate	2019/09/12time	21:11:35forward acquisition time	60.00reverse acquisition time	0.00gamma	496.2192k internal	0.2328k external	0.2328temperature offset calibration	1.0171default loss term (dB/km)	0.3790temperature slope calibration	1.0000multiplexer offset coefficient	1.0000multiplexer slope coefficient	1.0000fibre end	0.00T internal ref (°C)	30.69T ext. ref 1 (°C)	3.62T ext. ref 2 (°C)	25.28length (m)	temperature (°C)	Stokes	anti-Stokes-747.200	-42.554	0.197	0.101
-746.185	-107.958	0.434	0.095
-745.171	-72.375	-0.087	0.033
-744.156	83.161	-0.097	-0.107
-743.142	2.575	0.111	-0.081
-742.127	-200.000	-0.039	-0.265
-741.112	-156.588	-0.523	-0.033
-740.098	65.922	-0.129	0.131
-739.083	800.000	-0.087	-0.249
-738.069	800.000	0.051	0.145
-737.054	189.636	-0.222	-0.335
-736.039	-123.414	0.047	-0.008
-735.025	-200.000	-0.208	0.000
-734.010	267.414	-0.057	0.101
-732.996	-15.228	-0.089	0.057
-731.981	-68.730	-0.009	-0.003
-730.966	-200.000	0.009	-0.054
-729.952	-60.913	0.189	-0.081
-728.937	-200.000	0.027	-0.155
-727.923	-200.000	-0.001	-0.310
-726.908	1.821	-0.310	0.225
-725.894	405.954	-0.153	-0.324
-724.879	642.004	-0.100	-0.256
-723.864	-160.372	0.210	0.011
-722.850	484.823	0.032	-0.073
-721.835	148.163	-0.179	0.243
-720.821	-200.000	0.051	-0.236
-719.806	-55.901	0.120	-0.054
-718.791	-200.000	0.015	-0.197
-717.777	402.108	-0.120	-0.254
-716.762	-157.280	0.464	-0.028
-715.748	-177.510	-0.209	0.005
-714.733	2.237	-0.171	-0.124
-713.718	303.462	0.182	0.339
-712.704	-200.000	0.021	-0.104
-711.689	318.150	0.019	0.035
-710.675	-3.260	-0.227	0.159
-709.660	-95.610	0.240	0.065
-708.645	-130.363	-0.430	-0.059
-707.631	-10.999	0.154	0.102
-706.616	-109.660	0.228	-0.048
-705.602	-8.634	-0.146	-0.099
-704.587	29.135	-0.169	0.144
-703.572	800.000	-0.081	-0.308
-702.558	-53.912	-0.434	-0.199
-701.543	-193.750	-0.249	-0.002
-700.529	-87.936	0.055	-0.017
-699.514	-32.170	0.260	-0.146
-698.499	-200.000	0.043	-0.446
-697.485	1.571	0.359	0.260
-696.470	-200.000	-0.019	0.194
-695.456	150.565	0.350	0.479
-694.441	91.399	-0.156	0.177
-693.426	800.000	0.053	0.197
-692.412	-141.969	-0.048	0.005
-691.397	383.346	-0.066	-0.136
-690.383	-183.182	0.388	-0.007
-689.368	800.000	-0.084	-0.310
-688.354	262.724	-0.253	-0.442
-687.339	-108.158	0.350	-0.076
-686.324	-200.000	-0.037	-0.199
-685.310	48.469	-0.150	0.142
-684.295	-200.000	0.047	-0.233
-683.281	-200.000	0.008	-0.106
-682.266	-18.741	0.096	-0.060
-681.251	-200.000	0.065	-0.348
-680.237	92.131	-0.177	-0.200
-679.222	-171.293	-0.425	0.014
-678.208	349.244	-0.142	0.283
-677.193	800.000	-0.030	0.109
-676.178	588.730	-0.024	-0.059
-675.164	-200.000	0.066	-0.300
-674.149	523.619	-0.130	0.308
-673.135	-171.554	0.088	0.003
-672.120	-200.000	0.001	-0.069
-671.105	49.030	-0.103	0.097
-670.091	800.000	-0.020	0.057
-669.076	800.000	0.053	0.183
-668.062	-200.000	0.023	-0.390
-667.047	132.182	0.075	0.097
-666.032	225.145	-0.036	-0.058
-665.018	-200.000	0.015	-0.311
-664.003	148.067	0.323	-0.437
-662.989	51.908	-0.203	-0.194
-661.974	-60.301	-0.178	0.076
-660.959	82.297	0.017	-0.018
-659.945	75.646	0.126	-0.134
-658.930	113.665	-0.074	-0.091
-657.916	-200.000	-0.020	0.117
-656.901	-200.000	-0.058	-0.261
-655.886	70.979	-0.094	0.098
-654.872	66.955	-0.197	-0.201
-653.857	-132.704	-0.130	0.017
-652.843	30.785	0.140	-0.120
-651.828	-133.063	-0.340	-0.043
-650.814	141.718	-0.134	0.178
-649.799	-110.240	-0.184	0.038
-648.784	-200.000	0.026	-0.142
-647.770	-22.758	0.522	-0.316
-646.755	15.298	0.114	-0.090
-645.741	-9.035	-0.204	0.137
-644.726	-58.307	0.325	-0.142
-643.711	-200.000	-0.040	-0.246
-642.697	-77.878	-0.249	0.086
-641.682	-31.383	0.075	0.042
-640.668	292.061	-0.136	0.249
-639.653	-200.000	-0.023	-0.233
-638.638	36.884	0.159	0.141
-637.624	5.327	-0.174	0.129
-636.609	201.753	0.042	-0.065
-635.595	-148.827	0.352	0.029
-634.580	251.182	-0.101	-0.173
-633.565	-96.028	-0.287	0.077
-632.551	-61.495	0.342	0.144
-631.536	-58.483	-0.130	0.057
-630.522	386.657	0.146	0.302
-629.507	181.137	0.155	0.229
-628.492	800.000	-0.065	-0.225
-627.478	487.120	-0.057	-0.131
-626.463	-79.276	0.237	0.080
-625.449	-200.000	0.030	-0.202
-624.434	257.138	0.218	-0.376
-623.419	-40.151	0.239	-0.125
-622.405	-200.000	-0.016	-0.194
-621.390	-145.423	0.316	0.029
-620.376	-200.000	0.024	0.167
-619.361	96.917	-0.305	-0.350
-618.346	-143.841	-0.218	-0.021
-617.332	-94.147	-0.248	-0.068
-616.317	-101.569	-0.140	-0.034
-615.303	92.356	0.066	-0.075
-614.288	-134.098	-0.281	0.035
-613.273	235.925	0.156	-0.259
-612.259	181.778	-0.225	-0.332
-611.244	70.609	0.211	-0.219
-610.230	79.836	-0.217	0.234
-609.215	99.901	0.191	-0.222
-608.201	-4.271	0.234	0.162
-607.186	-200.000	-0.017	-0.165
-606.171	33.933	0.100	-0.088
-605.157	-170.976	-0.176	0.006
-604.142	800.000	-0.044	0.137
-603.128	800.000	-0.092	-0.278
-602.113	32.654	-0.114	0.098
-601.098	519.898	-0.056	-0.131
-600.084	-104.515	0.125	-0.029
-599.069	-35.498	-0.200	-0.109
-598.055	-30.581	-0.268	0.152
-597.040	24.822	-0.128	0.106
-596.025	-200.000	0.019	-0.239
-595.011	253.573	-0.053	-0.091
-593.996	22.318	0.241	-0.198
-592.982	295.773	-0.132	0.242
-591.967	-145.709	0.165	0.015
-590.952	6.354	-0.369	-0.274
-589.938	334.690	-0.147	-0.286
-588.923	37.989	-0.110	0.098
-587.909	351.627	-0.061	0.121
-586.894	20.456	0.252	0.204
-585.879	51.740	-0.123	0.117
-584.865	-94.564	-0.328	0.090
-583.850	259.695	0.127	-0.220
-582.836	-200.000	-0.024	-0.113
-581.821	140.414	0.226	-0.299
-580.806	20.968	-0.258	-0.210
-579.792	-120.081	-0.166	0.028
-578.777	-200.000	0.023	0.107
-577.763	7.367	0.138	0.103
-576.748	15.473	0.156	0.123
-575.733	-200.000	-0.043	-0.304
-574.719	-100.850	-0.123	0.030
-573.704	-81.648	0.358	-0.118
-572.690	-132.342	-0.214	-0.028
-571.675	5.462	0.114	0.084
-570.661	100.442	0.064	-0.075
-569.646	140.275	0.137	0.181
-568.631	-6.796	-0.295	-0.201
-567.617	-121.469	-0.463	-0.077
-566.602	-95.471	-0.131	0.035
-565.588	30.424	-0.098	-0.084
-564.573	-132.094	-0.178	0.023
-563.558	-200.000	-0.021	0.123
-562.544	25.888	0.232	0.194
-561.529	-55.239	-0.219	0.098
-560.515	800.000	0.004	0.014
-559.500	216.222	-0.186	-0.296
-558.485	184.521	0.214	-0.317
-557.471	800.000	0.034	0.122
-556.456	-200.000	-0.021	-0.177
-555.442	-95.329	0.044	-0.012
-554.427	548.074	0.019	-0.046
-553.412	-79.181	-0.517	-0.176
-552.398	800.000	0.046	0.165
-551.383	-200.000	0.040	0.191
-550.369	64.411	0.290	-0.292
-549.354	-200.000	-0.015	0.102
-548.339	800.000	-0.061	0.231
-547.325	-90.530	0.260	-0.075
-546.310	234.998	-0.140	-0.231
-545.296	136.612	-0.153	0.200
-544.281	363.748	-0.129	-0.260
-543.266	-134.971	0.067	-0.008
-542.252	-200.000	0.044	-0.366
-541.237	-18.016	-0.064	0.040
-540.223	-86.702	-0.199	0.061
-539.208	-15.090	0.136	0.087
-538.193	800.000	0.046	-0.150
-537.179	77.509	0.225	-0.239
-536.164	619.346	-0.028	-0.069
-535.150	80.123	-0.114	0.123
-534.135	176.311	0.152	0.220
-533.121	172.433	-0.094	0.136
-532.106	162.126	0.105	0.147
-531.091	-200.000	0.041	0.348
-530.077	97.896	-0.149	-0.172
-529.062	-127.685	0.379	-0.055
-528.048	219.768	-0.074	0.119
-527.033	-60.596	-0.348	-0.148
-526.018	385.755	0.134	0.276
-525.004	-200.000	0.007	0.051
-523.989	-123.651	-0.123	-0.019
-522.975	-87.658	0.071	-0.021
-521.960	-62.247	0.135	-0.056
-520.945	-86.046	-0.222	-0.069
-519.931	26.325	-0.065	0.054
-518.916	224.356	-0.134	-0.216
-517.902	106.830	-0.128	-0.152
-516.887	18.476	-0.316	0.253
-515.872	-13.272	-0.060	-0.039
-514.858	145.535	0.050	-0.068
-513.843	-2.705	-0.056	0.039
-512.829	-108.196	-0.137	-0.030
-511.814	220.128	-0.041	0.066
-510.799	-200.000	0.030	-0.173
-509.785	13.827	-0.060	-0.046
-508.770	-0.756	-0.110	-0.078
-507.756	-90.735	-0.119	-0.034
-506.741	-121.295	0.366	0.061
-505.726	221.713	0.199	-0.319
-504.712	-200.000	-0.017	-0.283
-503.697	484.267	-0.104	0.237
-502.683	31.023	-0.187	-0.160
-501.668	-140.578	-0.390	-0.040
-500.653	-56.807	-0.179	-0.079
-499.639	800.000	0.057	-0.162
-498.624	122.201	-0.270	0.337
-497.610	54.705	-0.172	-0.166
-496.595	-103.245	-0.275	0.065
-495.581	-200.000	0.057	-0.302
-494.566	-200.000	0.005	0.052
-493.551	179.851	0.187	0.274
-492.537	217.557	0.111	0.176
-491.522	-25.896	0.278	0.163
-490.508	-64.380	0.238	-0.097
-489.493	-157.445	-0.330	-0.020
-488.478	-5.813	-0.201	-0.137
-487.464	196.690	0.137	0.209
-486.449	800.000	0.106	-0.302
-485.435	445.984	-0.017	-0.037
-484.420	186.822	-0.052	-0.078
-483.405	244.884	-0.136	0.229
-482.391	-9.617	-0.342	0.228
-481.376	41.635	0.263	0.237
-480.362	542.654	-0.096	0.229
-479.347	-11.933	-0.131	0.086
-478.332	28.970	-0.194	-0.164
-477.318	-37.085	-0.146	-0.078
-476.303	-128.639	0.450	-0.064
-475.289	-179.478	0.119	0.003
-474.274	-200.000	0.058	-0.340
-473.259	-200.000	-0.013	-0.064
-472.245	69.725	0.112	-0.115
-471.230	-135.140	0.164	-0.020
-470.216	-200.000	-0.028	-0.139
-469.201	-170.252	-0.082	-0.003
-468.186	197.718	-0.088	0.134
-467.172	800.000	0.067	-0.210
-466.157	495.208	-0.095	0.217
-465.143	82.737	-0.206	0.223
-464.128	67.077	0.139	-0.142
-463.113	-101.738	-0.184	-0.045
-462.099	68.433	0.058	0.059
-461.084	16.962	0.113	0.089
-460.070	-121.382	0.117	0.019
-459.055	-109.900	0.178	-0.037
-458.040	800.000	0.061	0.201
-457.026	-112.575	0.077	0.015
-456.011	-50.332	0.176	0.083
-454.997	232.419	0.170	-0.278
-453.982	-200.000	0.006	-0.267
-452.968	-200.000	0.021	-0.188
-451.953	800.000	-0.037	0.130
-450.938	-127.785	0.089	-0.013
-449.924	-36.596	-0.380	0.204
-448.909	-200.000	-0.001	0.150
-447.895	490.728	-0.192	-0.438
-446.880	800.000	-0.067	-0.264
-445.865	298.613	0.184	-0.337
-444.851	-91.782	-0.196	-0.055
-443.836	99.236	0.106	0.122
-442.822	597.022	-0.117	0.289
-441.807	800.000	0.014	0.047
-440.792	6.791	-0.066	-0.049
-439.778	-49.256	0.213	0.101
-438.763	-200.000	-0.034	-0.251
-437.749	81.170	-0.218	0.234
-436.734	469.750	0.096	0.215
-435.719	800.000	-0.101	-0.345
-434.705	-27.581	-0.141	-0.082
-433.690	90.572	0.104	-0.116
-432.676	348.681	0.117	-0.230
-431.661	-200.000	0.000	-0.021
-430.646	-79.623	-0.099	0.033
-429.632	-168.033	-0.131	-0.005
-428.617	124.069	0.003	-0.004
-427.603	-113.354	0.215	-0.042
-426.588	-79.023	0.115	-0.039
-425.573	-6.227	-0.094	0.064
-424.559	437.327	-0.086	0.187
-423.544	48.805	0.186	-0.174
-422.530	800.000	-0.023	-0.071
-421.515	-72.340	-0.177	0.065
-420.500	43.586	0.175	0.159
-419.486	-50.063	-0.245	-0.116
-418.471	208.182	0.086	-0.133
-417.457	37.742	-0.145	-0.128
-416.442	200.111	-0.114	0.175
-415.428	-165.169	0.435	-0.019
-414.413	313.246	0.058	0.109
-413.398	-63.709	-0.147	-0.060
-412.384	-78.380	0.095	-0.032
-411.369	239.022	0.125	0.207
-410.355	-0.358	-0.367	-0.259
-409.340	-114.157	0.390	0.075
-408.325	-154.598	0.158	0.010
-407.311	140.419	-0.133	-0.175
-406.296	-200.000	0.096	0.447
-405.282	238.846	0.103	-0.170
-404.267	40.720	0.208	-0.187
-403.252	-58.725	-0.146	0.063
-402.238	-72.054	0.277	0.102
-401.223	-70.659	-0.179	0.067
-400.209	-200.000	0.013	0.108
-399.194	776.757	-0.055	0.148
-398.179	76.288	0.112	0.118
-397.165	-72.465	-0.142	-0.052
-396.150	-60.686	0.135	0.057
-395.136	-103.891	-0.239	0.056
-394.121	121.790	-0.227	0.282
-393.106	-136.559	-0.112	-0.013
-392.092	8.808	0.227	-0.170
-391.077	-115.788	0.107	0.020
-390.063	-107.218	0.137	0.030
-389.048	-200.000	0.013	0.171
-388.033	146.213	-0.058	-0.077
-387.019	4.790	-0.056	0.041
-386.004	-63.777	-0.226	-0.092
-384.990	80.385	0.276	0.296
-383.975	-200.000	-0.004	0.132
-382.960	799.074	0.012	-0.034
-381.946	-40.326	0.318	0.164
-380.931	800.000	0.057	-0.215
-379.917	427.331	0.020	-0.044
-378.902	-28.942	-0.111	-0.063
-377.888	-114.187	-0.226	-0.043
-376.873	-177.586	0.320	-0.008
-375.858	583.537	-0.068	-0.165
-374.844	-200.000	0.006	-0.034
-373.829	-200.000	0.064	0.527
-372.815	588.806	0.110	-0.269
-371.800	210.582	-0.199	0.311
-370.785	-74.503	0.178	0.064
-369.771	-200.000	0.032	-0.153
-368.756	-131.219	0.157	0.021
-367.742	54.224	-0.158	0.151
-366.727	3.217	-0.073	0.053
-365.712	191.033	-0.246	0.367
-364.698	361.922	0.060	-0.119
-363.683	-57.122	-0.080	-0.035
-362.669	-151.415	-0.226	0.017
-361.654	14.499	-0.214	-0.166
-360.639	72.548	-0.259	0.268
-359.625	52.166	0.379	-0.358
-358.610	-70.048	0.183	0.069
-357.596	84.256	-0.201	-0.219
-356.581	-200.000	-0.033	0.246
-355.566	-165.991	0.390	0.017
-354.552	-62.544	0.257	0.106
-353.537	-51.751	0.148	0.069
-352.523	-200.000	-0.010	-0.200
-351.508	-200.000	-0.019	0.289
-350.493	-12.309	0.174	-0.113
-349.479	-62.826	-0.421	0.173
-348.464	-139.585	0.157	-0.017
-347.450	-200.000	-0.068	-0.298
-346.435	-96.860	-0.170	-0.044
-345.420	55.714	-0.058	0.056
-344.406	-157.608	-0.194	0.012
-343.391	-15.257	0.222	-0.141
-342.377	-200.000	0.015	0.339
-341.362	-154.988	-0.172	0.011
-340.348	-200.000	0.005	-0.294
-339.333	-14.775	-0.109	0.069
-338.318	31.035	-0.142	-0.121
-337.304	-39.748	0.063	0.033
-336.289	154.438	-0.117	0.159
-335.275	-71.080	-0.254	-0.095
-334.260	27.645	0.063	0.053
-333.245	-70.979	-0.085	-0.032
-332.231	-200.000	0.005	-0.154
-331.216	-126.488	0.492	0.073
-330.202	-67.422	0.225	0.088
-329.187	-200.000	0.004	0.090
-328.172	571.502	-0.155	0.373
-327.158	4.968	-0.069	0.050
-326.143	16.689	-0.156	0.122
-325.129	800.000	-0.068	0.241
-324.114	637.396	0.063	0.158
-323.099	13.036	-0.305	-0.234
-322.085	-117.272	0.095	0.017
-321.070	79.786	-0.110	0.117
-320.056	138.110	0.189	0.246
-319.041	800.000	-0.018	-0.070
-318.026	138.458	0.146	0.190
-317.012	-113.482	0.309	-0.060
-315.997	99.391	-0.205	0.235
-314.983	140.379	0.324	0.423
-313.968	-76.836	-0.325	-0.113
-312.953	800.000	0.060	0.206
-311.939	44.555	0.217	0.197
-310.924	-188.371	-0.280	0.003
-309.910	14.741	-0.297	0.230
-308.895	478.272	-0.056	-0.125
-307.880	-21.206	0.112	-0.068
-306.866	-200.000	-0.011	-0.203
-305.851	-151.977	-0.141	0.010
-304.837	-78.234	-0.295	0.100
-303.822	800.000	-0.150	-0.453
-302.807	800.000	0.035	0.113
-301.793	800.000	-0.062	-0.174
-300.778	-200.000	-0.004	0.096
-299.764	283.831	0.017	-0.030
-298.749	800.000	-0.063	0.176
-297.735	321.951	0.018	0.034
-296.720	-97.227	0.222	0.057
-295.705	408.094	0.036	-0.075
-294.691	45.717	0.023	-0.021
-293.676	11.824	0.402	0.306
-292.662	-160.123	0.329	-0.018
-291.647	-49.191	-0.162	0.076
-290.632	-93.688	0.382	-0.104
-289.618	-99.086	0.138	-0.035
-288.603	800.000	0.082	-0.223
-287.589	-200.000	0.015	0.252
-286.574	800.000	0.088	0.241
-285.559	60.088	0.245	0.240
-284.545	293.223	0.223	0.403
-283.530	-200.000	-0.005	0.077
-282.516	-200.000	0.001	-0.047
-281.501	158.856	-0.029	-0.041
-280.486	-143.208	-0.108	0.010
-279.472	-29.228	-0.161	-0.091
-278.457	-200.000	0.036	-0.198
-277.443	35.806	-0.164	-0.143
-276.428	0.353	0.147	0.104
-275.413	-59.878	-0.452	-0.191
-274.399	243.058	0.114	0.189
-273.384	253.211	0.074	-0.125
-272.370	-86.919	0.163	0.049
-271.355	-12.428	0.312	0.201
-270.340	-104.874	-0.290	0.066
-269.326	-116.895	0.236	0.043
-268.311	800.000	0.070	0.243
-267.297	799.507	0.039	-0.107
-266.282	-97.964	0.190	-0.049
-265.267	-90.308	-0.350	-0.100
-264.253	9.291	0.086	0.065
-263.238	86.334	-0.429	0.467
-262.224	-200.000	0.008	-0.068
-261.209	-49.222	-0.233	0.110
-260.195	-131.150	0.068	0.009
-259.180	-95.389	0.260	0.069
-258.165	-200.000	-0.037	-0.270
-257.151	309.244	-0.046	-0.085
-256.136	-75.300	0.160	-0.056
-255.122	-200.000	-0.000	0.085
-254.107	-200.000	-0.085	-0.377
-253.092	104.592	0.114	-0.133
-252.078	-9.762	-0.179	-0.118
-251.063	322.362	-0.122	0.230
-250.049	-144.645	0.183	0.017
-249.034	-61.969	-0.197	-0.082
-248.019	177.796	0.260	0.374
-247.005	800.000	0.110	-0.402
-245.990	-79.226	0.185	-0.062
-244.976	-200.000	0.018	0.154
-243.961	-73.239	0.510	0.185
-242.946	212.576	0.093	-0.144
-241.932	-39.380	0.155	-0.081
-240.917	-169.963	-0.190	-0.007
-239.903	-200.000	0.064	0.373
-238.888	-61.067	0.115	-0.048
-237.873	800.000	-0.029	0.105
-236.859	-65.837	0.408	0.161
-235.844	107.204	0.141	-0.166
-234.830	-96.210	0.294	0.077
-233.815	-23.135	0.305	-0.181
-232.800	322.482	-0.128	-0.241
-231.786	-72.707	-0.201	0.073
-230.771	-200.000	-0.021	-0.230
-229.757	-200.000	0.001	-0.064
-228.742	-200.000	-0.003	0.062
-227.727	198.968	-0.126	-0.190
-226.713	503.202	-0.122	-0.279
-225.698	713.627	0.037	0.097
-224.684	800.000	-0.084	0.333
-223.669	-48.765	0.217	0.103
-222.655	800.000	-0.057	-0.172
-221.640	4.401	0.193	0.140
-220.625	-200.000	0.004	0.028
-219.611	30.842	0.057	0.049
-218.596	800.000	-0.054	-0.170
-217.582	-46.617	0.305	0.148
-216.567	-117.222	-0.204	-0.037
-215.552	175.621	0.092	-0.132
-214.538	29.376	0.090	-0.076
-213.523	-172.574	-0.231	0.007
-212.509	-56.530	0.238	0.104
-211.494	17.867	0.093	0.073
-210.479	537.823	-0.057	0.134
-209.465	800.000	0.053	0.225
-208.450	-87.822	0.315	0.094
-207.436	-54.024	0.138	0.062
-206.421	161.973	-0.158	-0.218
-205.406	127.236	0.140	-0.175
-204.392	800.000	0.070	-0.278
-203.377	800.000	0.027	-0.093
-202.363	58.544	-0.073	-0.071
-201.348	198.701	-0.141	-0.213
-200.333	-60.679	-0.267	0.112
-199.319	-200.000	0.007	0.217
-198.304	-43.747	0.341	0.170
-197.290	498.286	-0.069	-0.156
-196.275	303.411	0.182	0.332
-195.260	-200.000	0.018	0.314
-194.246	381.446	0.057	-0.115
-193.231	-72.998	-0.314	-0.114
-192.217	800.000	0.021	-0.062
-191.202	101.645	-0.050	-0.058
-190.187	81.703	0.331	0.353
-189.173	258.428	0.070	-0.118
-188.158	93.258	-0.116	0.129
-187.144	-140.365	0.302	-0.031
-186.129	100.776	0.206	0.237
-185.114	-61.963	-0.223	0.092
-184.100	454.413	0.049	-0.107
-183.085	-45.796	0.031	-0.015
-182.071	0.744	0.085	0.060
-181.056	-200.000	-0.004	-0.102
-180.042	173.083	-0.248	-0.352
-179.027	140.901	-0.155	0.202
-178.012	-139.624	-0.142	0.015
-176.998	-11.693	-0.353	0.228
-175.983	-200.000	0.027	0.384
-174.969	-147.235	0.179	0.015
-173.954	15.858	-0.091	0.070
-172.939	-200.000	-0.060	0.271
-171.925	-125.410	0.340	0.051
-170.910	85.741	-0.154	0.167
-169.896	-153.125	-0.176	-0.012
-168.881	-133.615	-0.109	-0.013
-167.866	-72.660	0.161	0.059
-166.852	-81.002	-0.325	0.106
-165.837	235.644	-0.115	-0.187
-164.823	-200.000	-0.019	-0.155
-163.808	-43.381	0.217	-0.108
-162.793	-196.038	-0.480	-0.003
-161.779	463.686	0.037	0.081
-160.764	-20.228	-0.231	-0.140
-159.750	800.000	-0.058	0.158
-158.735	117.652	-0.059	0.072
-157.720	-117.136	0.357	-0.064
-156.706	71.926	0.302	-0.310
-155.691	-162.948	0.050	-0.002
-154.677	-111.072	-0.193	0.039
-153.662	44.165	-0.189	0.171
-152.647	-200.000	-0.021	0.182
-151.633	800.000	0.100	-0.394
-150.618	174.384	0.106	-0.151
-149.604	-200.000	-0.092	0.528
-148.589	-82.207	-0.488	-0.157
-147.574	160.471	-0.197	-0.270
-146.560	-200.000	0.283	0.000
-145.545	-65.837	-0.039	-0.015
-144.531	-125.747	0.217	0.032
-143.516	118.560	0.075	-0.091
-142.502	15.133	0.274	0.212
-141.487	11.091	-0.135	-0.102
-140.472	-128.927	-0.144	0.020
-139.458	156.473	-0.134	-0.182
-138.443	-200.000	-0.002	0.041
-137.429	26.418	-0.150	0.123
-136.414	-200.000	0.037	0.197
-135.399	800.000	0.077	-0.312
-134.385	606.102	0.088	-0.217
-133.370	-200.000	-0.039	0.242
-132.356	-157.391	0.019	-0.001
-131.341	72.591	-0.236	0.242
-130.326	800.000	0.054	0.154
-129.312	800.000	-0.032	0.129
-128.297	43.868	0.289	-0.261
-127.283	73.277	0.117	-0.120
-126.268	-158.069	-0.289	0.017
-125.253	-61.640	0.182	-0.075
-124.239	-16.578	0.279	-0.174
-123.224	-200.000	-0.012	0.281
-122.210	67.527	0.037	-0.037
-121.195	-53.545	0.077	0.035
