DTS Sentinel unit serial number:	SN413079Multiplexer serial number:	ORYXHardware model number:	OX4-SRSoftware version number:	ORYX F/W v4.00 Oryx Data Collector v3.7.2.0data status	okinstallation	princeton_trtdifferential loss correction	single-endedforward channel	channel 2reverse channel	N/Adate	2019/09/13time	19:23:35forward acquisition time	60.00reverse acquisition time	0.00gamma	496.2192k internal	0.2329k external	0.2329temperature offset calibration	1.0158default loss term (dB/km)	0.3790temperature slope calibration	1.0000multiplexer offset coefficient	1.0000multiplexer slope coefficient	1.0000fibre end	0.00T internal ref (°C)	31.00T ext. ref 1 (°C)	3.63T ext. ref 2 (°C)	24.35length (m)	temperature (°C)	Stokes	anti-Stokes-747.200	-58.745	-0.091	0.040
-746.185	-92.085	-0.109	0.031
-745.171	519.843	0.145	-0.341
-744.156	-200.000	0.002	-0.026
-743.142	132.585	0.441	0.573
-742.127	171.601	-0.164	0.237
-741.112	-151.425	-0.257	0.019
-740.098	-62.056	0.415	0.175
-739.083	25.879	0.255	0.214
-738.069	-132.845	-0.422	0.054
-737.054	-17.279	-0.218	-0.138
-736.039	187.160	0.176	-0.265
-735.025	212.212	0.180	0.286
-734.010	10.645	-0.094	0.072
-732.996	31.889	-0.183	0.159
-731.981	800.000	0.079	-0.255
-730.966	586.640	-0.015	0.037
-729.952	-102.793	-0.145	-0.035
-728.937	-200.000	-0.012	-0.250
-727.923	432.421	0.101	-0.220
-726.908	591.508	0.064	-0.159
-725.894	-17.242	-0.155	0.099
-724.879	165.796	0.091	0.130
-723.864	549.105	-0.028	-0.068
-722.850	-7.623	-0.384	-0.262
-721.835	293.603	0.119	-0.219
-720.821	45.731	-0.251	-0.234
-719.806	-200.000	0.028	-0.414
-718.791	-126.297	-0.328	-0.049
-717.777	-200.000	-0.004	-0.239
-716.762	-145.573	0.154	-0.014
-715.748	765.796	-0.046	-0.125
-714.733	800.000	-0.040	-0.125
-713.718	226.929	0.227	-0.371
-712.704	800.000	0.056	0.189
-711.689	-200.000	-0.004	0.109
-710.675	-0.068	-0.088	-0.063
-709.660	178.052	-0.034	-0.050
-708.645	30.649	-0.139	-0.119
-707.631	800.000	0.049	-0.145
-706.616	281.213	0.129	-0.233
-705.602	-200.000	0.034	0.176
-704.587	-169.143	0.176	-0.007
-703.572	-200.000	0.044	0.214
-702.558	-68.703	-0.169	0.066
-701.543	-169.895	-0.173	-0.006
-700.529	313.545	0.167	0.316
-699.514	-200.000	0.010	0.049
-698.499	-0.527	-0.285	-0.204
-697.485	-129.535	-0.118	0.016
-696.470	25.987	-0.138	0.115
-695.456	-89.534	0.344	-0.102
-694.441	-117.559	-0.271	-0.049
-693.426	-200.000	-0.035	-0.182
-692.412	-200.000	0.006	0.075
-691.397	-91.882	-0.144	-0.041
-690.383	800.000	-0.018	-0.064
-689.368	81.540	-0.103	0.112
-688.354	-111.248	-0.408	0.084
-687.339	-200.000	-0.043	-0.309
-686.324	330.868	0.163	-0.316
-685.310	-200.000	0.034	-0.665
-684.295	248.988	-0.086	-0.146
-683.281	-200.000	-0.006	0.125
-682.266	75.888	-0.200	0.213
-681.251	-90.126	-0.264	0.077
-680.237	459.380	0.091	-0.204
-679.222	-149.519	0.140	-0.011
-678.208	-200.000	-0.038	-0.251
-677.193	354.161	0.057	-0.114
-676.178	-27.467	-0.201	-0.117
-675.164	-63.563	0.234	0.097
-674.149	-200.000	-0.010	0.087
-673.135	-53.186	0.125	0.058
-672.120	-47.682	0.169	-0.082
-671.105	105.056	0.131	-0.155
-670.091	-27.144	-0.381	-0.223
-669.076	-200.000	0.022	-0.402
-668.062	-200.000	0.018	-0.136
-667.047	28.869	0.182	-0.155
-666.032	-200.000	0.032	0.384
-665.018	-161.994	-0.234	0.012
-664.003	-81.282	-0.153	0.051
-662.989	-110.128	-0.211	-0.044
-661.974	-2.203	0.110	-0.078
-660.959	800.000	-0.008	-0.027
-659.945	96.515	-0.209	-0.240
-658.930	-80.178	-0.162	0.054
-657.916	-200.000	-0.002	0.033
-656.901	-44.682	-0.327	-0.164
-655.886	-111.536	-0.175	-0.036
-654.872	35.335	0.165	-0.146
-653.857	270.843	-0.051	-0.089
-652.843	-40.585	0.046	-0.024
-651.828	97.802	0.164	-0.190
-650.814	90.032	0.154	-0.172
-649.799	-65.505	0.260	0.105
-648.784	60.495	-0.273	-0.271
-647.770	125.182	-0.052	-0.066
-646.755	101.997	0.169	0.198
-645.741	17.938	-0.105	-0.084
-644.726	-22.832	-0.140	-0.084
-643.711	-200.000	0.018	-0.185
-642.697	17.752	0.140	0.112
-641.682	761.267	-0.108	0.293
-640.668	-200.000	0.033	-0.490
-639.653	-200.000	-0.013	-0.206
-638.638	7.144	-0.209	0.157
-637.624	-104.803	0.103	0.024
-636.609	-200.000	0.000	0.158
-635.595	-18.416	-0.201	-0.126
-634.580	-195.579	0.264	-0.002
-633.565	800.000	0.055	-0.199
-632.551	-49.370	-0.347	-0.166
-631.536	511.481	0.081	0.189
-630.522	141.602	-0.159	0.212
-629.507	106.365	-0.180	0.214
-628.492	800.000	-0.033	-0.119
-627.478	228.588	0.132	-0.216
-626.463	-5.443	-0.295	-0.203
-625.449	28.825	-0.121	-0.103
-624.434	-91.302	0.153	0.044
-623.419	-42.979	0.445	-0.226
-622.405	-94.954	0.195	-0.053
-621.390	-200.000	0.023	-0.258
-620.376	-200.000	-0.047	0.537
-619.361	-184.562	0.244	0.004
-618.346	-200.000	0.018	0.232
-617.332	276.896	0.102	0.181
-616.317	336.007	-0.068	-0.132
-615.303	-46.157	0.350	0.173
-614.288	-164.723	-0.155	-0.007
-613.273	-5.934	-0.362	0.248
-612.259	-57.932	-0.242	-0.106
-611.244	453.287	-0.088	-0.196
-610.230	-61.258	0.253	-0.107
-609.215	-200.000	-0.256	-0.000
-608.201	248.893	-0.112	0.191
-607.186	647.204	0.052	-0.134
-606.171	112.027	0.080	-0.097
-605.157	33.154	-0.165	-0.143
-604.142	59.160	0.120	-0.118
-603.128	-200.000	-0.066	0.307
-602.113	-90.899	-0.255	0.073
-601.098	-40.522	-0.172	-0.089
-600.084	694.322	0.043	-0.112
-599.069	197.671	0.187	0.286
-598.055	-200.000	-0.394	-0.002
-597.040	-44.514	0.509	0.255
-596.025	180.195	-0.241	0.354
-595.011	-169.989	0.190	0.007
-593.996	108.745	0.195	-0.233
-592.982	-6.998	0.148	0.101
-591.967	-200.000	0.036	0.267
-590.952	564.807	0.085	0.207
-589.938	-3.995	-0.156	0.108
-588.923	27.909	0.136	0.115
-587.909	-5.554	0.134	-0.092
-586.894	-18.406	0.124	-0.077
-585.879	282.242	-0.112	-0.201
-584.865	-47.235	-0.162	-0.079
-583.850	268.778	0.181	0.318
-582.836	280.185	-0.139	0.248
-581.821	6.287	0.209	0.155
-580.806	134.545	0.135	-0.176
-579.792	-200.000	-0.011	-0.059
-578.777	-195.314	-0.066	-0.000
-577.763	800.000	-0.079	-0.241
-576.748	-200.000	0.090	0.412
-575.733	440.935	0.107	0.233
-574.719	-200.000	0.022	-0.321
-573.704	800.000	-0.021	-0.080
-572.690	-195.402	0.086	-0.001
-571.675	351.794	0.118	-0.233
-570.661	51.246	0.124	-0.118
-569.646	-95.977	-0.346	0.092
-568.631	-17.189	-0.215	-0.135
-567.617	-135.495	0.186	-0.022
-566.602	748.043	0.022	-0.060
-565.588	506.937	0.119	-0.277
-564.573	-101.851	-0.150	0.036
-563.558	-107.254	-0.119	-0.026
-562.544	-88.354	-0.377	-0.113
-561.529	142.102	0.133	0.176
-560.515	800.000	-0.050	-0.163
-559.500	19.901	-0.098	0.079
-558.485	-119.948	0.209	-0.036
-557.471	180.054	0.143	-0.210
-556.456	-123.175	-0.365	-0.059
-555.442	-12.202	-0.113	0.074
-554.427	-200.000	-0.031	0.180
-553.412	147.906	-0.209	0.282
-552.398	-164.904	0.085	0.004
-551.383	800.000	0.025	0.093
-550.369	800.000	0.048	-0.204
-549.354	-78.580	0.311	0.106
-548.339	8.799	-0.125	-0.094
-547.325	269.096	-0.117	0.206
-546.310	44.553	-0.020	0.018
-545.296	-162.245	0.250	0.012
-544.281	119.580	-0.227	-0.281
-543.266	247.792	0.201	-0.339
-542.252	-36.997	0.194	0.104
-541.237	320.001	-0.203	0.385
-540.223	-200.000	-0.019	0.147
-539.208	151.506	-0.400	-0.544
-538.193	504.220	0.114	-0.263
-537.179	-29.488	0.164	0.094
-536.164	800.000	-0.027	-0.095
-535.150	-60.424	-0.185	0.079
-534.135	-87.530	-0.346	0.105
-533.121	-200.000	0.011	0.109
-532.106	-200.000	0.028	0.174
-531.091	-65.703	-0.235	-0.094
-530.077	800.000	-0.086	0.285
-529.062	-73.664	-0.388	-0.141
-528.048	-193.283	0.174	-0.002
-527.033	800.000	0.021	-0.069
-526.018	144.356	0.088	0.118
-525.004	-64.775	-0.200	-0.081
-523.989	115.793	-0.055	-0.067
-522.975	800.000	0.086	0.296
-521.960	-200.000	-0.014	-0.087
-520.945	244.833	-0.132	-0.222
-519.931	800.000	0.046	-0.142
-518.916	-9.863	0.166	-0.110
-517.902	-200.000	0.000	-0.083
-516.887	310.628	0.115	0.214
-515.872	152.044	-0.086	-0.117
-514.858	17.616	-0.109	0.087
-513.843	-36.171	-0.115	-0.062
-512.829	-130.733	-0.063	0.008
-511.814	698.352	-0.047	0.123
-510.799	-200.000	0.044	0.235
-509.785	-200.000	0.051	0.271
-508.770	218.221	0.174	-0.277
-507.756	491.685	-0.184	-0.421
-506.741	-200.000	0.005	0.334
-505.726	423.537	-0.073	0.156
-504.712	648.039	0.162	0.415
-503.697	-200.000	0.033	0.149
-502.683	79.267	0.149	-0.159
-501.668	-200.000	0.029	0.251
-500.653	340.443	-0.063	0.122
-499.639	-110.060	-0.247	-0.051
-498.624	-200.000	0.017	-0.169
-497.610	-170.992	-0.248	0.008
-496.595	-59.715	-0.189	0.081
-495.581	-200.000	-0.012	-0.141
-494.566	127.713	-0.114	0.144
-493.551	-79.852	0.241	-0.081
-492.537	309.566	-0.226	0.421
-491.522	-200.000	0.062	0.412
-490.508	278.829	-0.038	-0.068
-489.493	-58.193	0.201	0.087
-488.478	-20.036	-0.241	-0.148
-487.464	-35.429	-0.403	-0.218
-486.449	-16.133	-0.082	0.052
-485.435	-79.340	-0.135	0.046
-484.420	800.000	-0.107	0.344
-483.405	800.000	0.036	0.106
-482.391	-140.170	0.244	0.026
-481.376	-118.243	0.142	-0.025
-480.362	182.648	0.202	0.297
-479.347	247.320	0.183	0.308
-478.332	260.637	-0.018	-0.031
-477.318	98.113	0.114	0.131
-476.303	-181.211	-0.255	0.005
-475.289	156.604	0.132	-0.181
-474.274	418.586	-0.141	-0.301
-473.259	800.000	0.039	-0.129
-472.245	151.730	0.119	-0.162
-471.230	800.000	-0.089	0.275
-470.216	-136.846	0.400	-0.046
-469.201	190.534	0.203	-0.305
-468.186	-91.172	-0.063	-0.018
-467.172	-124.088	0.141	0.022
-466.157	349.568	0.049	-0.097
-465.143	67.314	0.079	-0.080
-464.128	800.000	0.099	-0.388
-463.113	20.075	0.362	-0.291
-462.099	-74.250	-0.099	-0.035
-461.084	800.000	-0.050	-0.195
-460.070	-70.253	-0.358	-0.136
-459.055	-108.464	-0.460	0.099
-458.040	506.474	-0.092	-0.212
-457.026	233.876	0.055	0.091
-456.011	122.930	0.089	0.111
-454.997	507.304	-0.139	0.321
-453.982	26.225	0.278	0.231
-452.968	535.238	-0.065	0.153
-451.953	-200.000	0.030	0.228
-450.938	800.000	0.116	-0.343
-449.924	-163.957	0.128	-0.006
-448.909	261.811	-0.065	-0.112
-447.895	-111.898	-0.098	-0.020
-446.880	171.704	0.154	0.220
-445.865	-4.214	0.502	0.346
-444.851	57.801	-0.160	-0.156
-443.836	-63.669	-0.421	-0.172
-442.822	-119.569	0.144	-0.025
-441.807	-147.524	-0.134	0.011
-440.792	-142.801	0.281	-0.027
-439.778	-19.462	-0.287	0.177
-438.763	-150.842	-0.279	0.021
-437.749	-200.000	-0.013	-0.233
-436.734	-200.000	0.023	-0.185
-435.719	180.604	0.229	0.335
-434.705	-42.366	-0.218	0.111
-433.690	162.565	0.086	0.120
-432.676	49.336	0.169	0.158
-431.661	800.000	-0.107	0.295
-430.646	1.821	-0.251	0.180
-429.632	-78.014	-0.086	-0.029
-428.617	-18.298	-0.270	0.168
-427.603	-20.581	0.211	-0.129
-426.588	800.000	-0.097	-0.291
-425.573	-87.720	0.118	-0.035
-424.559	-200.000	-0.018	-0.350
-423.544	301.673	0.210	0.386
-422.530	104.866	0.181	-0.212
-421.515	-165.010	0.298	-0.013
-420.500	24.712	0.143	0.118
-419.486	-28.204	-0.169	0.097
-418.471	376.373	0.062	0.127
-417.457	-123.570	0.267	-0.042
-416.442	27.626	-0.155	-0.130
-415.428	-200.000	-0.040	-0.184
-414.413	-106.632	0.015	0.003
-413.398	-76.286	0.238	0.083
-412.384	-85.818	0.046	0.014
-411.369	67.033	-0.095	-0.097
-410.355	-73.954	0.047	-0.017
-409.340	-200.000	-0.016	0.141
-408.325	150.209	0.250	-0.338
-407.311	-143.700	-0.184	-0.017
-406.296	-74.867	0.286	-0.102
-405.282	-143.433	0.089	-0.008
-404.267	-128.945	-0.419	-0.058
-403.252	800.000	0.038	0.138
-402.238	800.000	0.055	0.170
-401.223	-200.000	-0.020	0.137
-400.209	-81.648	-0.381	0.124
-399.194	386.430	-0.108	-0.221
-398.179	791.734	-0.022	-0.059
-397.165	-125.791	0.160	-0.024
-396.150	800.000	-0.157	-0.431
-395.136	-200.000	-0.041	-0.213
-394.121	38.348	-0.324	-0.287
-393.106	178.420	0.053	-0.076
-392.092	-200.000	-0.008	0.180
-391.077	-143.265	-0.050	-0.005
-390.063	216.048	-0.041	-0.065
-389.048	800.000	0.018	0.066
-388.033	136.870	0.234	0.304
-387.019	-200.000	-0.076	-0.531
-386.004	-81.648	-0.222	-0.072
-384.990	41.052	-0.139	0.125
-383.975	-127.558	-0.100	0.014
-382.960	124.291	0.269	-0.335
-381.946	-200.000	0.036	-0.425
-380.931	234.166	-0.109	0.178
-379.917	-26.732	0.076	-0.044
-378.902	-95.674	0.336	-0.089
-377.888	0.076	-0.226	-0.160
-376.873	-200.000	-0.024	0.140
-375.858	-91.258	0.062	0.018
-374.844	32.591	-0.108	0.092
-373.829	-113.549	-0.086	0.017
-372.815	-30.686	0.446	0.250
-371.800	117.889	-0.068	-0.083
-370.785	92.982	-0.093	0.105
-369.771	407.159	0.118	-0.247
-368.756	-78.744	0.144	-0.049
-367.742	-91.748	0.252	-0.071
-366.727	-27.269	0.206	0.119
-365.712	-22.356	0.161	0.097
-364.698	-200.000	-0.024	0.138
-363.683	-200.000	-0.006	-0.268
-362.669	33.323	0.022	-0.019
-361.654	-162.298	-0.140	0.007
-360.639	-77.212	-0.471	0.163
-359.625	-200.000	0.016	-0.117
-358.610	55.040	-0.063	-0.060
-357.596	105.280	-0.270	0.316
-356.581	-116.716	-0.271	-0.049
-355.566	106.594	0.159	-0.188
-354.552	17.417	-0.223	0.176
-353.537	666.224	-0.122	0.313
-352.523	-157.771	-0.234	-0.014
-351.508	-200.000	0.019	-0.086
-350.493	154.441	-0.093	0.126
-349.479	-116.286	0.126	-0.023
-348.464	40.786	0.074	0.066
-347.450	696.708	-0.094	-0.244
-346.435	26.380	0.135	0.112
-345.420	-97.366	-0.341	-0.088
-344.406	-71.519	0.036	0.014
-343.391	-58.907	0.146	-0.062
-342.377	-36.231	-0.351	-0.188
-341.362	-200.000	0.046	0.212
-340.348	-122.527	0.265	0.043
-339.333	-89.840	-0.172	0.050
-338.318	-40.512	-0.326	-0.168
-337.304	345.732	-0.101	0.196
-336.289	-154.022	0.147	0.010
-335.275	-124.626	-0.227	0.035
-334.260	172.427	0.090	0.129
-333.245	242.332	-0.073	0.121
-332.231	57.345	0.125	-0.121
-331.216	-40.126	0.031	0.016
-330.202	-86.242	-0.120	0.037
-329.187	141.234	0.032	-0.042
-328.172	800.000	0.067	0.271
-327.158	184.096	-0.028	-0.041
-326.143	800.000	-0.118	-0.342
-325.129	-41.399	0.284	-0.145
-324.114	-155.453	-0.313	-0.020
-323.099	406.813	0.083	0.173
-322.085	47.755	-0.244	0.226
-321.070	-200.000	-0.014	0.079
-320.056	-200.000	-0.056	0.302
-319.041	208.981	-0.246	0.381
-318.026	51.757	-0.180	-0.169
-317.012	-53.150	0.168	0.077
-315.997	-200.000	-0.049	0.246
-314.983	-161.081	-0.145	0.008
-313.968	-22.372	0.073	0.043
-312.953	140.583	-0.056	-0.073
-311.939	54.745	-0.255	-0.244
-310.924	127.301	0.040	-0.050
-309.910	-38.985	-0.224	0.117
-308.895	-6.820	-0.256	0.172
-307.880	-200.000	-0.001	-0.165
-306.866	705.127	-0.110	-0.287
-305.851	110.464	-0.062	-0.074
-304.837	-4.997	-0.109	0.074
-303.822	-200.000	0.003	-0.041
-302.807	692.590	-0.110	-0.285
-301.793	18.579	-0.209	0.166
-300.778	-200.000	0.010	-0.075
-299.764	-10.645	0.313	-0.205
-298.749	288.852	0.116	-0.209
-297.735	800.000	-0.136	0.388
-296.720	-200.000	-0.003	-0.035
-295.705	139.105	-0.114	-0.148
-294.691	0.399	-0.183	0.129
-293.676	203.868	0.142	0.218
-292.662	-49.899	-0.213	-0.100
-291.647	41.827	-0.261	0.234
-290.632	800.000	0.080	0.312
-289.618	368.031	-0.112	-0.224
-288.603	56.057	0.390	-0.375
-287.589	-21.089	0.067	-0.040
-286.574	252.895	-0.063	0.107
-285.559	-137.297	0.058	0.007
-284.545	-54.853	0.144	-0.064
-283.530	800.000	0.047	-0.197
-282.516	-135.075	-0.196	0.023
-281.501	-200.000	0.044	0.200
-280.486	18.607	0.244	0.193
-279.472	800.000	-0.009	-0.036
-278.457	-92.812	0.310	0.086
-277.443	123.740	0.159	-0.198
-276.428	-126.907	0.248	0.036
-275.413	-51.305	-0.225	0.104
-274.399	800.000	-0.058	-0.251
-273.384	-67.157	0.133	-0.052
-272.370	-200.000	-0.097	-0.448
-271.355	-95.480	0.266	-0.071
-270.340	800.000	0.062	-0.177
-269.326	44.636	-0.301	-0.274
-268.311	-171.089	0.263	-0.009
-267.297	219.366	0.117	-0.186
-266.282	-144.968	0.098	0.009
-265.267	-17.873	0.183	0.114
-264.253	79.134	0.155	-0.165
-263.238	800.000	-0.090	-0.331
-262.224	-200.000	0.014	-0.140
-261.209	81.890	0.037	0.040
-260.195	-156.349	0.270	0.017
-259.180	75.518	0.272	0.284
-258.165	-64.805	-0.257	0.103
-257.151	53.285	-0.312	-0.296
-256.136	237.836	-0.148	0.243
-255.122	271.122	0.129	-0.224
-254.107	101.979	-0.214	-0.247
-253.092	800.000	0.088	-0.301
-252.078	192.053	-0.203	-0.303
-251.063	-118.975	0.026	-0.004
-250.049	-200.000	0.000	-0.139
-249.034	800.000	0.042	-0.118
-248.019	34.374	-0.037	-0.032
-247.005	189.453	-0.123	0.183
-245.990	167.178	0.211	0.296
-244.976	800.000	0.077	-0.327
-243.961	100.368	-0.199	0.228
-242.946	-64.922	0.151	-0.060
-241.932	-53.489	0.046	-0.021
-240.917	141.696	0.076	-0.099
-239.903	-151.502	0.072	0.005
-238.888	154.198	0.094	-0.127
-237.873	-30.689	0.141	-0.079
-236.859	295.557	0.078	-0.141
-235.844	-4.818	-0.218	-0.148
-234.830	-200.000	0.529	-0.002
-233.815	46.039	-0.105	-0.096
-232.800	176.837	0.085	-0.122
-231.786	-64.621	0.253	0.101
-230.771	-136.239	0.331	-0.038
-229.757	261.683	-0.076	0.130
-228.742	23.722	-0.270	-0.220
-227.727	551.872	0.118	0.280
-226.713	-36.723	-0.133	0.071
-225.698	23.074	0.317	0.257
-224.684	800.000	0.098	-0.278
-223.669	247.651	-0.139	0.233
-222.655	-95.440	0.460	-0.122
-221.640	284.470	-0.184	-0.327
-220.625	-200.000	-0.020	0.200
-219.611	-4.192	0.086	0.059
-218.596	800.000	-0.042	-0.146
-217.582	800.000	-0.094	0.279
-216.567	-32.273	0.059	-0.033
-215.552	153.743	0.264	-0.357
-214.538	-200.000	-0.036	0.394
-213.523	-200.000	0.007	-0.218
-212.509	265.404	0.233	-0.401
-211.494	800.000	-0.096	-0.363
-210.479	800.000	-0.093	0.352
-209.465	208.749	0.131	-0.203
-208.450	58.324	-0.039	-0.038
-207.436	111.149	0.106	-0.125
-206.421	-54.317	0.332	0.148
-205.406	800.000	0.100	0.299
-204.392	126.069	-0.074	0.092
-203.377	113.566	0.074	0.089
-202.363	133.923	-0.219	-0.280
-201.348	296.759	0.121	-0.219
-200.333	400.195	-0.087	-0.180
-199.319	243.860	0.167	0.276
-198.304	274.642	0.237	0.414
-197.290	800.000	-0.175	0.514
-196.275	297.208	0.089	-0.160
-195.260	800.000	0.066	0.233
-194.246	800.000	0.118	-0.341
-193.231	494.700	-0.075	0.171
-192.217	308.766	-0.140	0.258
-191.202	-98.946	-0.074	0.019
-190.187	-200.000	0.039	0.310
-189.173	7.323	0.077	-0.056
-188.158	123.503	0.182	-0.224
-187.144	800.000	-0.111	0.324
-186.129	46.394	0.381	0.349
-185.114	-135.391	0.184	-0.022
-184.100	100.816	0.053	-0.060
-183.085	-93.679	-0.389	-0.106
-182.071	-47.103	-0.126	0.060
-181.056	28.560	0.104	-0.086
-180.042	-112.250	-0.144	-0.028
-179.027	233.036	-0.124	0.201
-178.012	20.484	0.221	0.176
-176.998	-200.000	-0.025	0.145
-175.983	144.071	-0.152	-0.200
-174.969	800.000	0.173	0.562
-173.954	-70.750	0.182	0.068
-172.939	677.207	0.095	0.244
-171.925	-78.080	0.229	0.078
-170.910	391.742	0.144	0.294
-169.896	363.990	-0.109	-0.216
-168.881	68.762	0.064	-0.065
-167.866	-54.109	0.252	-0.113
-166.852	-122.602	0.333	-0.053
-165.837	800.000	-0.093	-0.310
-164.823	800.000	0.074	0.259
-163.808	328.361	-0.083	0.158
-162.793	-200.000	0.043	0.189
-161.779	-160.946	-0.261	-0.014
-160.764	56.706	0.172	-0.165
-159.750	-33.253	-0.121	-0.066
-158.735	-40.399	0.133	0.068
-157.720	-75.390	-0.163	-0.057
-156.706	-145.838	-0.296	0.026
-155.691	185.186	0.015	-0.022
-154.677	-200.000	-0.027	0.141
-153.662	-71.212	0.176	-0.065
-152.647	-109.458	-0.181	-0.038
-151.633	-4.240	0.321	-0.218
-150.618	389.373	-0.070	-0.144
-149.604	-79.449	-0.227	0.075
-148.589	419.813	0.142	-0.299
-147.574	800.000	0.015	0.048
-146.560	-200.000	-0.041	0.268
-145.545	-157.372	0.681	-0.040
-144.531	-53.654	-0.204	-0.092
-143.516	125.758	-0.052	0.065
-142.502	57.183	0.132	0.127
-141.487	450.655	0.029	-0.063
-140.472	-200.000	-0.001	0.083
-139.458	-51.172	-0.123	0.057
-138.443	-122.300	0.065	-0.010
-137.429	403.301	0.080	0.165
-136.414	123.191	-0.042	0.052
-135.399	63.571	-0.171	0.169
-134.385	403.722	0.138	0.287
-133.370	-200.000	0.016	0.219
-132.356	-102.410	0.130	-0.031
-131.341	15.554	-0.056	0.043
-130.326	273.115	-0.075	0.131
-129.312	6.438	-0.125	0.091
-128.297	28.049	-0.195	-0.162
-127.283	800.000	0.102	-0.287
-126.268	106.277	-0.086	-0.101
-125.253	-200.000	-0.046	-0.227
-124.239	271.307	-0.050	-0.086
-123.224	-200.000	-0.033	0.151
-122.210	-59.675	0.043	-0.018
