DTS Sentinel unit serial number:	SN413079Multiplexer serial number:	ORYXHardware model number:	OX4-SRSoftware version number:	ORYX F/W v4.00 Oryx Data Collector v3.7.2.0data status	okinstallation	princeton_trtdifferential loss correction	single-endedforward channel	channel 2reverse channel	N/Adate	2019/09/16time	13:07:35forward acquisition time	60.00reverse acquisition time	0.00gamma	496.2192k internal	0.2300k external	0.2300temperature offset calibration	0.9940default loss term (dB/km)	0.3790temperature slope calibration	1.0000multiplexer offset coefficient	1.0000multiplexer slope coefficient	1.0000fibre end	0.00T internal ref (°C)	40.83T ext. ref 1 (°C)	13.64T ext. ref 2 (°C)	38.72length (m)	temperature (°C)	Stokes	anti-Stokes-747.200	-187.687	0.220	0.003
-746.185	-200.000	-0.025	0.433
-745.171	33.640	0.122	0.108
-744.156	587.123	-0.047	0.117
-743.142	800.000	-0.030	0.091
-742.127	800.000	0.035	0.104
-741.112	-45.725	0.239	0.121
-740.098	-48.993	-0.357	0.174
-739.083	-50.532	-0.242	0.116
-738.069	715.309	0.114	0.308
-737.054	119.544	-0.178	0.225
-736.039	264.007	-0.066	0.117
-735.025	-59.643	0.144	-0.063
-734.010	-32.409	-0.150	0.086
-732.996	-188.135	-0.366	-0.005
-731.981	32.789	0.283	-0.249
-730.966	-86.346	-0.390	-0.122
-729.952	291.052	0.156	-0.289
-728.937	-161.740	0.188	0.010
-727.923	-36.918	-0.114	-0.062
-726.908	380.279	0.085	-0.178
-725.894	-63.343	0.393	0.165
-724.879	398.562	0.110	-0.234
-723.864	-119.635	0.156	-0.027
-722.850	-120.722	-0.315	0.054
-721.835	-92.289	0.218	-0.063
-720.821	22.492	0.304	0.254
-719.806	549.513	0.056	-0.138
-718.791	292.719	-0.117	-0.218
-717.777	159.996	0.120	0.171
-716.762	77.606	-0.133	-0.145
-715.748	-93.829	-0.259	0.073
-714.733	28.971	-0.265	-0.229
-713.718	296.655	-0.154	-0.288
-712.704	800.000	-0.043	0.157
-711.689	800.000	0.027	0.105
-710.675	-29.175	0.246	0.144
-709.660	-200.000	-0.004	-0.268
-708.645	218.613	0.109	0.178
-707.631	-72.603	0.154	-0.058
-706.616	-60.670	-0.449	-0.194
-705.602	-200.000	0.005	0.078
-704.587	-200.000	-0.008	-0.049
-703.572	-23.327	0.151	-0.093
-702.558	228.779	0.060	-0.100
-701.543	-200.000	-0.001	0.157
-700.529	513.074	0.103	0.246
-699.514	-200.000	0.077	-0.366
-698.499	783.520	-0.064	-0.180
-697.485	-200.000	0.039	-0.338
-696.470	-112.170	0.350	0.072
-695.456	-200.000	-0.037	0.516
-694.441	-10.384	0.215	-0.145
-693.426	34.162	0.282	-0.250
-692.412	51.661	-0.175	-0.170
-691.397	221.473	0.049	0.080
-690.383	-200.000	0.064	0.499
-689.368	-200.000	-0.013	0.370
-688.354	-108.516	-0.199	-0.044
-687.339	384.270	-0.080	-0.167
-686.324	220.457	0.139	-0.227
-685.310	-200.000	-0.024	0.136
-684.295	447.476	-0.121	0.271
-683.281	-9.831	-0.247	0.167
-682.266	-31.745	0.190	0.109
-681.251	-108.540	-0.317	-0.069
-680.237	-19.412	0.171	-0.108
-679.222	-44.587	-0.094	-0.048
-678.208	-63.049	0.058	-0.024
-677.193	184.509	0.266	-0.401
-676.178	154.153	0.276	0.386
-675.164	-66.305	0.303	0.123
-674.149	35.988	-0.304	-0.272
-673.135	-200.000	0.020	-0.110
-672.120	146.421	0.122	0.166
-671.105	800.000	0.039	-0.146
-670.091	117.977	-0.053	0.067
-669.076	-200.000	-0.077	-0.423
-668.062	-0.487	0.043	-0.031
-667.047	-75.283	0.151	0.055
-666.032	-143.294	0.289	-0.028
-665.018	337.897	-0.125	0.247
-664.003	81.939	-0.395	-0.435
-662.989	788.563	-0.074	0.207
-661.974	64.001	-0.251	0.257
-660.959	-54.183	-0.157	-0.072
-659.945	80.527	0.090	-0.099
-658.930	-114.478	0.203	-0.040
-657.916	-55.554	-0.280	0.127
-656.901	61.651	0.249	0.252
-655.886	193.492	0.183	-0.282
-654.872	56.410	-0.289	0.285
-653.857	-83.770	-0.381	-0.123
-652.843	800.000	-0.075	-0.280
-651.828	-82.032	-0.269	-0.089
-650.814	-200.000	-0.010	-0.222
-649.799	-94.051	0.191	-0.053
-648.784	16.498	-0.152	-0.122
-647.770	749.523	0.092	0.252
-646.755	-200.000	-0.059	-0.299
-645.741	800.000	0.050	-0.162
-644.726	-164.992	0.208	-0.009
-643.711	143.834	0.138	-0.187
-642.697	407.549	-0.076	-0.164
-641.682	-101.407	0.193	0.048
-640.668	78.635	0.119	-0.129
-639.653	-200.000	-0.021	0.096
-638.638	-104.227	-0.116	-0.027
-637.624	270.632	0.083	-0.149
-636.609	140.693	-0.047	-0.064
-635.595	-200.000	-0.032	0.284
-634.580	-62.776	-0.272	0.115
-633.565	-7.509	-0.184	-0.127
-632.551	800.000	0.077	-0.249
-631.536	106.734	0.145	-0.175
-630.522	233.609	0.202	-0.338
-629.507	-82.772	-0.179	0.059
-628.492	33.691	0.165	0.146
-627.478	276.938	0.201	0.362
-626.463	-125.230	-0.173	0.027
-625.449	184.894	0.124	-0.187
-624.434	-158.859	0.122	-0.007
-623.419	60.173	0.143	0.143
-622.405	-48.966	0.170	-0.082
-621.390	463.725	0.157	-0.356
-620.376	-0.762	-0.075	-0.054
-619.361	800.000	0.022	0.065
-618.346	-66.586	0.290	-0.117
-617.332	-172.990	-0.493	-0.015
-616.317	147.539	-0.075	0.103
-615.303	-154.781	0.258	0.017
-614.288	-43.794	-0.154	-0.078
-613.273	800.000	-0.055	-0.196
-612.259	-200.000	0.013	-0.126
-611.244	-162.625	0.087	-0.004
-610.230	800.000	-0.038	0.129
-609.215	-178.824	0.154	0.004
-608.201	62.451	-0.110	0.111
-607.186	419.264	0.099	-0.216
-606.171	-28.748	-0.218	-0.127
-605.157	43.800	0.236	-0.219
-604.142	187.855	-0.200	0.303
-603.128	388.758	-0.113	0.237
-602.113	-124.729	0.090	0.014
-601.098	-112.883	-0.111	0.022
-600.084	366.701	0.129	0.263
-599.069	-54.983	0.127	0.058
-598.055	-135.787	-0.137	-0.016
-597.040	156.177	-0.057	-0.080
-596.025	482.769	-0.078	0.180
-595.011	-142.802	-0.334	-0.033
-593.996	-200.000	-0.002	0.033
-592.982	-64.035	-0.271	-0.112
-591.967	-122.873	-0.167	0.027
-590.952	553.379	0.185	-0.450
-589.938	-172.982	0.159	-0.005
-588.923	800.000	0.022	0.074
-587.909	-117.196	0.074	0.014
-586.894	8.991	-0.174	-0.133
-585.879	-200.000	-0.008	-0.069
-584.865	324.976	-0.163	0.316
-583.850	-135.851	0.019	-0.002
-582.836	-200.000	0.004	0.218
-581.821	-150.842	0.175	-0.013
-580.806	763.941	-0.013	0.035
-579.792	27.089	0.143	0.122
-578.777	73.228	0.163	0.172
-577.763	800.000	0.030	0.092
-576.748	-111.469	0.632	0.130
-575.733	-200.000	0.034	-0.202
-574.719	-200.000	-0.016	-0.097
-573.704	58.319	0.068	-0.068
-572.690	-29.714	-0.050	0.029
-571.675	800.000	0.076	0.256
-570.661	44.324	0.276	0.257
-569.646	-143.548	-0.199	-0.019
-568.631	80.708	-0.152	0.166
-567.617	-200.000	0.031	0.333
-566.602	-84.960	0.043	0.014
-565.588	-59.318	0.222	-0.097
-564.573	-200.000	-0.086	0.392
-563.558	41.751	0.136	-0.124
-562.544	133.481	0.171	-0.224
-561.529	425.435	-0.203	-0.443
-560.515	800.000	0.037	0.117
-559.500	-200.000	0.003	0.259
-558.485	-161.021	-0.249	-0.013
-557.471	433.523	0.159	-0.349
-556.456	-92.104	0.276	0.079
-555.442	-88.536	-0.457	0.138
-554.427	528.702	-0.092	0.220
-553.412	403.073	0.163	0.347
-552.398	-200.000	0.057	-0.304
-551.383	-2.026	-0.043	-0.031
-550.369	-200.000	0.013	-0.236
-549.354	-166.376	0.089	-0.004
-548.339	800.000	0.023	-0.088
-547.325	-200.000	0.000	-0.261
-546.310	548.276	0.094	0.228
-545.296	252.692	0.049	0.084
-544.281	368.489	0.130	-0.266
-543.266	651.012	-0.066	-0.171
-542.252	-64.616	0.365	-0.150
-541.237	-124.142	0.252	0.040
-540.223	44.899	0.146	0.136
-539.208	670.389	-0.066	0.172
-538.193	38.285	0.123	-0.111
-537.179	-82.439	-0.217	-0.071
-536.164	92.891	0.149	0.171
-535.150	47.331	-0.160	0.151
-534.135	-200.000	0.050	0.263
-533.121	-200.000	-0.007	-0.256
-532.106	-58.711	-0.067	-0.029
-531.091	61.168	0.248	0.250
-530.077	-107.059	0.273	0.061
-529.062	800.000	-0.062	0.199
-528.048	-69.604	-0.095	0.037
-527.033	33.423	-0.143	0.125
-526.018	-81.033	-0.196	0.066
-525.004	-78.924	0.232	0.080
-523.989	-145.708	0.147	-0.013
-522.975	-200.000	-0.028	-0.210
-521.960	196.396	0.080	0.123
-520.945	111.839	-0.157	-0.191
-519.931	14.078	-0.084	-0.066
-518.916	20.657	-0.101	0.082
-517.902	-28.421	-0.323	-0.189
-516.887	-102.902	-0.087	0.021
-515.872	-200.000	-0.004	-0.221
-514.858	161.128	-0.119	0.168
-513.843	326.510	0.148	0.286
-512.829	36.621	-0.113	-0.101
-511.814	-133.518	-0.086	-0.011
-510.799	87.264	0.056	0.063
-509.785	44.788	0.085	-0.079
-508.770	-89.624	0.357	-0.106
-507.756	-28.043	-0.359	-0.210
-506.741	-113.695	0.220	-0.043
-505.726	-119.163	0.155	-0.027
-504.712	110.265	0.090	-0.110
-503.697	-200.000	-0.028	0.262
-502.683	-27.668	-0.150	0.088
-501.668	130.056	-0.246	-0.318
-500.653	-120.968	0.134	-0.023
-499.639	-55.798	0.270	0.122
-498.624	-32.797	-0.174	-0.098
-497.610	-121.369	-0.203	-0.034
-496.595	95.295	-0.109	-0.126
-495.581	800.000	0.068	0.195
-494.566	282.966	-0.054	-0.097
-493.551	-0.800	-0.225	-0.161
-492.537	-114.930	0.152	0.029
-491.522	222.667	-0.169	0.275
-490.508	17.246	-0.132	0.106
-489.493	210.513	0.106	-0.167
-488.478	-200.000	0.011	-0.139
-487.464	270.504	0.149	-0.264
-486.449	-200.000	0.037	-0.354
-485.435	-4.295	-0.281	-0.196
-484.420	800.000	-0.004	0.014
-483.405	800.000	-0.062	-0.263
-482.391	-114.050	0.050	-0.010
-481.376	800.000	-0.087	-0.294
-480.362	-185.582	-0.084	-0.001
-479.347	-76.948	0.366	-0.129
-478.332	-32.845	0.163	0.092
-477.318	-6.107	0.160	-0.111
-476.303	-35.782	-0.189	0.104
-475.289	461.770	0.075	0.168
-474.274	-123.077	0.168	0.027
-473.259	-200.000	0.065	0.323
-472.245	-200.000	-0.061	0.472
-471.230	-64.141	-0.196	0.081
-470.216	32.745	-0.282	0.246
-469.201	-50.670	0.105	-0.050
-468.186	5.711	-0.111	0.082
-467.172	-21.598	-0.242	-0.149
-466.157	-200.000	-0.292	-0.001
-465.143	25.671	-0.162	0.136
-464.128	-10.258	0.088	0.059
-463.113	-200.000	0.006	0.037
-462.099	-43.149	0.400	-0.204
-461.084	-200.000	-0.009	-0.164
-460.070	-79.321	0.376	-0.128
-459.055	-126.472	0.144	-0.022
-458.040	-200.000	0.033	-0.156
-457.026	-200.000	0.001	-0.060
-456.011	7.089	-0.252	0.190
-454.997	-123.158	-0.037	0.006
-453.982	-45.923	0.167	-0.083
-452.968	266.207	0.112	-0.197
-451.953	-111.993	-0.287	0.058
-450.938	800.000	-0.078	0.237
-449.924	78.966	-0.233	0.252
-448.909	-92.206	-0.178	0.051
-447.895	2.987	0.159	-0.117
-446.880	-37.101	0.266	0.144
-445.865	43.952	-0.362	-0.334
-444.851	-200.000	0.073	-0.394
-443.836	800.000	0.044	-0.123
-442.822	-71.435	0.098	0.037
-441.807	-40.403	-0.278	0.146
-440.792	-200.000	-0.024	-0.359
-439.778	342.362	-0.071	-0.140
-438.763	301.925	-0.142	-0.264
-437.749	-29.940	0.245	0.140
-436.734	-200.000	0.038	0.353
-435.719	222.287	-0.252	0.409
-434.705	-126.086	-0.314	-0.048
-433.690	-58.986	0.232	0.101
-432.676	800.000	0.076	-0.219
-431.661	0.223	0.292	-0.210
-430.646	141.304	-0.130	-0.174
-429.632	170.556	-0.167	0.241
-428.617	800.000	-0.017	0.071
-427.603	-102.155	-0.171	0.041
-426.588	150.578	-0.233	-0.319
-425.573	145.763	0.120	0.162
-424.559	601.673	0.100	-0.251
-423.544	-134.921	0.220	0.027
-422.530	-200.000	-0.023	0.160
-421.515	-103.861	0.221	0.052
-420.500	-50.891	0.284	-0.134
-419.486	142.996	-0.053	0.071
-418.471	-24.607	0.345	0.207
-417.457	-27.316	-0.253	-0.148
-416.442	-25.365	-0.033	-0.020
-415.428	87.770	-0.207	-0.231
-414.413	-119.054	-0.105	-0.019
-413.398	-20.944	0.365	-0.225
-412.384	-69.596	0.138	-0.053
-411.369	387.924	-0.043	-0.089
-410.355	553.751	-0.100	0.241
-409.340	729.933	-0.089	0.239
-408.325	-200.000	0.042	-0.217
-407.311	800.000	-0.044	0.147
-406.296	800.000	-0.021	-0.075
-405.282	83.330	-0.447	0.490
-404.267	408.872	-0.102	0.216
-403.252	-165.055	-0.087	0.004
-402.238	14.489	0.094	0.074
-401.223	-128.973	-0.097	0.014
-400.209	53.750	-0.216	0.209
-399.194	-158.100	0.152	-0.009
-398.179	193.652	0.107	0.163
-397.165	535.651	0.121	0.289
-396.150	800.000	-0.144	0.446
-395.136	-137.215	0.173	-0.020
-394.121	-38.378	0.350	0.186
-393.106	800.000	-0.056	-0.176
-392.092	61.685	-0.206	0.206
-391.077	451.673	0.115	0.255
-390.063	52.580	-0.136	0.131
-389.048	800.000	0.137	0.455
-388.033	-200.000	-0.289	0.001
-387.019	90.022	0.080	-0.090
-386.004	49.127	0.211	-0.200
-384.990	-103.160	0.138	-0.033
-383.975	-200.000	0.009	0.290
-382.960	28.503	0.147	0.125
-381.946	-94.128	-0.240	0.066
-380.931	15.687	-0.008	-0.007
-379.917	387.487	-0.110	0.228
-378.902	-200.000	-0.021	0.527
-377.888	-117.635	0.077	-0.014
-376.873	800.000	0.125	-0.551
-375.858	-13.345	-0.160	-0.105
-374.844	25.262	-0.001	0.001
-373.829	22.779	-0.093	0.077
-372.815	38.391	-0.129	-0.116
-371.800	-96.896	-0.102	0.027
-370.785	-24.706	-0.200	0.120
-369.771	-154.842	-0.098	0.007
-368.756	-125.318	0.172	0.026
-367.742	-51.643	0.236	0.111
-366.727	-91.457	0.080	0.023
-365.712	207.785	0.092	0.145
-364.698	408.028	0.075	0.159
-363.683	147.323	0.050	0.068
-362.669	-200.000	0.013	0.066
-361.654	88.372	0.163	0.182
-360.639	37.966	0.051	-0.046
-359.625	28.024	-0.363	-0.308
-358.610	800.000	0.093	-0.296
-357.596	306.942	0.159	-0.297
-356.581	-97.982	-0.168	-0.044
-355.566	-98.597	-0.130	-0.033
-354.552	-21.977	-0.142	-0.086
-353.537	433.570	0.114	0.249
-352.523	-185.144	-0.430	0.007
-351.508	-3.789	-0.138	0.096
-350.493	800.000	0.056	-0.175
-349.479	280.623	-0.119	-0.214
-348.464	800.000	0.031	-0.102
-347.450	260.038	-0.220	-0.382
-346.435	-81.471	0.241	-0.080
-345.420	-134.425	-0.157	0.019
-344.406	225.880	-0.054	-0.088
-343.391	-126.978	0.509	0.075
-342.377	-75.482	-0.167	-0.060
-341.362	175.362	0.034	0.050
-340.348	-200.000	0.029	-0.243
-339.333	176.575	-0.145	-0.211
-338.318	-58.086	-0.056	0.024
-337.304	-41.227	0.109	-0.056
-336.289	-200.000	0.069	0.414
-335.275	-23.609	0.165	0.099
-334.260	-93.826	-0.246	0.068
-333.245	619.074	-0.065	-0.164
-332.231	-51.842	0.133	0.062
-331.216	14.095	-0.213	-0.166
-330.202	-26.062	-0.217	-0.128
-329.187	-101.630	-0.207	-0.050
-328.172	-110.437	0.405	-0.084
-327.158	35.723	-0.222	0.196
-326.143	-18.093	-0.488	0.307
-325.129	-136.103	0.206	-0.024
-324.114	116.703	-0.159	-0.196
-323.099	129.165	-0.176	0.226
-322.085	-136.887	-0.229	0.026
-321.070	207.063	-0.148	0.232
-320.056	308.625	-0.119	0.223
-319.041	-200.000	-0.007	-0.493
-318.026	-81.353	0.552	-0.183
-317.012	-52.208	-0.197	-0.092
-315.997	10.233	0.320	0.244
-314.983	-200.000	0.053	0.391
-313.968	-142.774	0.074	-0.007
-312.953	-200.000	0.003	-0.289
-311.939	132.133	-0.153	-0.198
-310.924	-74.048	-0.401	-0.146
-309.910	119.216	0.183	-0.227
-308.895	-32.401	0.224	-0.125
-307.880	219.320	-0.076	-0.122
-306.866	67.517	0.297	0.304
-305.851	-173.510	0.257	0.008
-304.837	-125.080	-0.212	-0.033
-303.822	112.684	-0.031	-0.037
-302.807	48.515	0.193	-0.182
-301.793	299.053	-0.043	-0.078
-300.778	83.941	0.224	-0.246
-299.764	154.955	0.139	-0.191
-298.749	-92.024	0.351	0.099
-297.735	-68.437	0.324	-0.126
-296.720	-91.961	0.171	0.049
-295.705	28.269	0.102	0.086
-294.691	82.208	0.275	0.299
-293.676	-146.089	-0.158	0.014
-292.662	-147.190	-0.205	0.018
-291.647	-200.000	-0.003	-0.097
-290.632	-200.000	-0.041	-0.221
-289.618	391.483	-0.100	-0.209
-288.603	-75.831	0.122	0.043
-287.589	-23.744	0.114	-0.068
-286.574	146.259	0.151	0.203
-285.559	33.137	-0.217	0.189
-284.545	-200.000	0.010	0.157
-283.530	-40.254	0.278	-0.145
-282.516	-6.905	-0.310	0.211
-281.501	800.000	0.082	0.249
-280.486	800.000	0.034	-0.120
-279.472	800.000	-0.154	-0.479
-278.457	3.682	-0.039	0.028
-277.443	-200.000	-0.018	0.169
-276.428	277.368	-0.063	-0.112
-275.413	800.000	0.068	-0.209
-274.399	-53.247	0.093	-0.043
-273.384	800.000	0.034	-0.100
-272.370	198.865	0.067	0.103
-271.355	75.436	0.081	0.085
-270.340	-42.783	0.107	-0.055
-269.326	-160.518	0.106	0.006
-268.311	-200.000	-0.029	0.200
-267.297	-200.000	-0.008	-0.064
-266.282	-200.000	-0.092	-0.413
-265.267	-200.000	-0.007	-0.065
-264.253	-47.532	0.206	-0.100
-263.238	109.750	-0.211	-0.253
-262.224	5.729	0.200	-0.148
-261.209	127.486	-0.008	0.010
-260.195	-1.231	-0.251	0.177
-259.180	800.000	0.048	0.158
-258.165	316.407	-0.067	0.127
-257.151	-106.030	0.234	-0.053
-256.136	32.611	-0.168	0.146
-255.122	251.401	-0.051	-0.086
-254.107	464.475	0.164	0.367
-253.092	800.000	0.077	0.286
-252.078	-200.000	0.104	0.460
-251.063	-99.605	-0.032	0.008
-250.049	761.190	0.137	-0.373
-249.034	-127.923	0.379	-0.055
-248.019	-200.000	-0.006	-0.038
-247.005	800.000	-0.111	-0.443
-245.990	-22.073	0.209	-0.127
-244.976	242.797	0.065	0.109
-243.961	-37.122	0.112	0.060
-242.946	-200.000	-0.001	-0.181
-241.932	-50.869	-0.206	0.097
-240.917	553.277	-0.109	0.261
-239.903	-32.097	-0.201	-0.112
-238.888	150.365	-0.175	0.238
-237.873	411.587	-0.134	0.285
-236.859	-69.998	-0.084	-0.032
-235.844	-98.519	0.167	-0.043
-234.830	-200.000	0.077	-0.405
-233.815	800.000	0.012	0.052
-232.800	-200.000	-0.015	-0.474
-231.786	-138.287	0.126	-0.014
-230.771	-25.631	0.195	-0.115
-229.757	-200.000	0.017	0.088
-228.742	7.270	0.023	-0.017
-227.727	800.000	-0.055	0.178
-226.713	-66.081	0.150	0.060
-225.698	-86.514	-0.308	-0.094
-224.684	79.944	-0.136	0.146
-223.669	7.109	0.068	-0.050
-222.655	103.487	-0.271	-0.318
-221.640	800.000	-0.076	0.256
-220.625	116.019	-0.021	0.025
-219.611	84.437	-0.116	0.127
-218.596	-200.000	0.008	-0.058
-217.582	-136.356	-0.176	0.020
-216.567	6.034	0.172	-0.127
-215.552	-200.000	0.094	-0.479
-214.538	800.000	0.054	0.175
-213.523	-66.274	0.152	0.060
-212.509	-119.025	-0.122	0.021
-211.494	-27.213	-0.272	0.159
-210.479	190.264	-0.172	0.258
-209.465	-49.934	-0.285	0.135
-208.450	-74.900	0.212	-0.076
-207.436	-183.588	0.277	-0.005
-206.421	269.304	0.191	0.335
-205.406	-200.000	-0.048	-0.363
-204.392	-46.971	-0.437	0.213
-203.377	-142.352	-0.167	0.016
-202.363	-37.186	-0.087	0.047
-201.348	800.000	0.098	0.273
-200.333	299.404	0.121	-0.223
-199.319	48.922	0.117	0.109
-198.304	-143.907	0.266	0.025
-197.290	-135.349	-0.348	0.042
-196.275	-200.000	0.016	0.317
-195.260	-126.908	-0.097	-0.014
-194.246	-138.464	0.240	0.026
-193.231	-99.801	0.211	-0.053
-192.217	-25.330	-0.086	0.051
-191.202	-137.899	0.106	0.012
-190.187	-200.000	0.004	-0.243
-189.173	-154.241	0.104	-0.007
-188.158	-90.129	-0.171	-0.050
-187.144	55.769	-0.231	-0.223
-186.129	-176.241	-0.201	0.005
-185.114	-94.248	-0.495	-0.135
-184.100	521.747	0.106	-0.247
-183.085	-88.781	-0.264	0.078
-182.071	100.654	-0.180	0.208
-181.056	498.248	0.132	-0.304
-180.042	-60.592	-0.128	-0.054
-179.027	-151.399	0.050	-0.004
-178.012	229.199	-0.185	0.302
-176.998	67.044	0.071	-0.072
-175.983	-31.514	-0.104	-0.058
-174.969	87.171	0.148	0.164
-173.954	800.000	0.086	-0.283
-172.939	336.418	-0.067	0.130
-171.925	-200.000	0.004	0.037
-170.910	-200.000	-0.013	-0.101
-169.896	-110.505	-0.266	-0.055
-168.881	-1.555	-0.089	-0.063
-167.866	747.062	0.073	0.196
-166.852	-94.478	-0.049	-0.013
-165.837	-172.839	0.247	-0.008
-164.823	-200.000	-0.021	-0.226
-163.808	-68.264	-0.322	0.125
-162.793	162.836	-0.213	0.298
-161.779	681.713	0.039	0.100
-160.764	-135.032	0.094	0.011
-159.750	82.904	0.203	0.220
-158.735	197.573	-0.093	-0.141
-157.720	-18.889	0.224	0.139
-156.706	800.000	0.040	0.161
-155.691	180.958	-0.065	-0.095
-154.677	30.547	-0.174	-0.148
-153.662	-82.967	-0.246	0.079
-152.647	-83.125	0.176	-0.056
-151.633	800.000	0.067	0.279
-150.618	-76.970	-0.082	-0.029
-149.604	52.212	0.134	-0.127
-148.589	136.027	0.076	-0.099
-147.574	-168.582	0.498	0.019
-146.560	-141.914	0.200	0.020
-145.545	-86.478	-0.270	-0.083
-144.531	-56.644	0.097	-0.043
-143.516	-200.000	0.006	-0.134
-142.502	77.611	0.080	-0.085
-141.487	127.892	-0.157	0.199
-140.472	158.893	-0.173	0.239
-139.458	-67.580	-0.096	-0.038
-138.443	-114.957	0.138	-0.026
-137.429	-150.875	-0.451	0.034
-136.414	66.617	0.144	0.146
-135.399	800.000	-0.063	-0.195
-134.385	-83.582	0.446	-0.142
-133.370	-49.399	0.273	0.130
-132.356	-200.000	0.007	0.185
-131.341	-48.392	0.212	0.102
-130.326	-151.303	-0.076	0.006
-129.312	15.626	0.437	0.342
-128.297	-200.000	-0.006	0.274
-127.283	-125.694	-0.206	-0.031
-126.268	34.801	-0.177	0.154
-125.253	492.442	0.085	0.194
-124.239	800.000	-0.167	-0.549
-123.224	-200.000	0.006	-0.072
-122.210	800.000	-0.025	-0.100
-121.195	-110.624	0.232	0.048
