DTS Sentinel unit serial number:	SN413079Multiplexer serial number:	ORYXHardware model number:	OX4-SRSoftware version number:	ORYX F/W v4.00 Oryx Data Collector v3.7.2.0data status	okinstallation	princeton_trtdifferential loss correction	single-endedforward channel	channel 2reverse channel	N/Adate	2019/09/14time	20:23:35forward acquisition time	60.00reverse acquisition time	0.00gamma	496.2192k internal	0.2322k external	0.2322temperature offset calibration	1.0091default loss term (dB/km)	0.3790temperature slope calibration	1.0000multiplexer offset coefficient	1.0000multiplexer slope coefficient	1.0000fibre end	0.00T internal ref (°C)	33.64T ext. ref 1 (°C)	4.85T ext. ref 2 (°C)	28.19length (m)	temperature (°C)	Stokes	anti-Stokes-747.200	126.283	0.270	-0.345
-746.185	-200.000	0.026	0.191
-745.171	560.639	-0.203	-0.496
-744.156	180.128	-0.124	-0.184
-743.142	749.880	0.054	-0.147
-742.127	-109.879	0.152	0.032
-741.112	-135.643	-0.374	-0.045
-740.098	-200.000	0.008	0.107
-739.083	-200.000	0.029	0.259
-738.069	-200.000	-0.016	0.277
-737.054	-36.668	0.374	0.203
-736.039	387.735	-0.105	-0.219
-735.025	198.621	-0.080	0.124
-734.010	-146.692	-0.159	-0.014
-732.996	455.594	0.157	-0.351
-731.981	-200.000	0.010	-0.270
-730.966	800.000	0.014	0.047
-729.952	-200.000	-0.011	0.120
-728.937	-5.102	0.143	0.100
-727.923	-137.116	0.190	0.022
-726.908	-30.031	-0.143	-0.082
-725.894	800.000	0.106	-0.308
-724.879	51.546	-0.370	-0.355
-723.864	705.441	-0.097	0.259
-722.850	105.746	0.303	-0.362
-721.835	-186.102	-0.257	-0.004
-720.821	-200.000	0.037	-0.213
-719.806	-200.000	0.009	-0.069
-718.791	-67.588	-0.352	0.139
-717.777	220.917	-0.185	-0.300
-716.762	43.168	0.069	-0.063
-715.748	-49.265	-0.159	0.077
-714.733	-200.000	-0.010	-0.283
-713.718	483.844	0.054	-0.125
-712.704	-94.252	0.029	0.008
-711.689	215.515	0.254	-0.407
-710.675	53.874	-0.134	0.130
-709.660	-31.268	0.188	0.107
-708.645	-200.000	0.049	0.232
-707.631	455.883	-0.107	0.239
-706.616	27.284	0.045	-0.038
-705.602	800.000	-0.071	-0.206
-704.587	-200.000	-0.005	-0.113
-703.572	-200.000	-0.027	-0.231
-702.558	-150.048	0.191	0.015
-701.543	83.553	-0.246	-0.270
-700.529	-162.669	-0.198	0.010
-699.514	-200.000	-0.001	0.131
-698.499	258.408	-0.121	0.210
-697.485	549.931	0.137	0.332
-696.470	-200.000	0.014	0.117
-695.456	-200.000	-0.077	-0.365
-694.441	524.489	-0.212	-0.504
-693.426	-18.295	0.149	0.094
-692.412	33.367	-0.267	-0.234
-691.397	-144.100	-0.100	-0.009
-690.383	123.267	-0.154	-0.195
-689.368	182.560	0.352	0.524
-688.354	-200.000	0.001	0.075
-687.339	189.250	0.124	0.187
-686.324	242.371	-0.137	0.231
-685.310	-11.580	-0.133	-0.088
-684.295	-200.000	-0.155	-0.000
-683.281	-200.000	0.055	-0.385
-682.266	-200.000	-0.035	0.198
-681.251	-200.000	0.010	0.054
-680.237	-200.000	-0.028	-0.162
-679.222	-87.584	0.136	-0.041
-678.208	-189.226	-0.112	0.001
-677.193	351.122	0.074	-0.147
-676.178	-92.270	-0.535	-0.152
-675.164	-32.105	0.138	0.078
-674.149	-200.000	0.039	-0.402
-673.135	-45.231	-0.127	-0.064
-672.120	800.000	0.030	0.123
-671.105	110.629	0.169	0.205
-670.091	-18.834	0.081	-0.051
-669.076	119.144	0.066	-0.083
-668.062	-3.085	-0.096	0.067
-667.047	-1.379	0.220	0.157
-666.032	800.000	0.106	-0.296
-665.018	-134.050	-0.160	-0.020
-664.003	-200.000	-0.024	0.108
-662.989	-3.797	0.022	0.016
-661.974	-50.620	0.060	-0.028
-660.959	-127.389	-0.343	0.050
-659.945	304.400	-0.128	-0.239
-658.930	88.940	0.131	-0.147
-657.916	31.473	-0.191	0.166
-656.901	-21.604	-0.195	-0.120
-655.886	800.000	0.071	-0.285
-654.872	-51.297	-0.217	-0.102
-653.857	800.000	-0.153	-0.437
-652.843	68.515	0.050	-0.052
-651.828	-10.422	-0.012	-0.008
-650.814	-41.123	0.169	0.088
-649.799	800.000	0.033	-0.106
-648.784	-73.707	0.386	0.141
-647.770	-71.661	-0.407	-0.153
-646.755	-128.749	-0.153	0.022
-645.741	242.078	-0.190	-0.319
-644.726	93.783	-0.197	-0.225
-643.711	-68.217	0.223	-0.088
-642.697	274.713	-0.230	-0.410
-641.682	-127.340	-0.059	-0.009
-640.668	188.783	-0.087	-0.131
-639.653	12.348	-0.015	0.012
-638.638	-173.418	-0.513	0.016
-637.624	70.992	-0.071	0.074
-636.609	-30.504	-0.181	0.103
-635.595	-200.000	-0.044	0.276
-634.580	-200.000	-0.039	0.257
-633.565	9.685	0.156	-0.119
-632.551	24.247	0.274	0.228
-631.536	-200.000	0.024	-0.323
-630.522	-120.353	-0.240	-0.041
-629.507	-170.957	0.272	-0.009
-628.492	119.386	-0.045	0.057
-627.478	-16.177	-0.154	-0.098
-626.463	238.010	0.078	-0.131
-625.449	651.247	-0.039	-0.100
-624.434	800.000	-0.054	0.185
-623.419	-200.000	-0.040	0.300
-622.405	152.139	-0.162	-0.222
-621.390	-97.708	0.310	-0.081
-620.376	-200.000	0.014	-0.084
-619.361	-200.000	-0.058	0.306
-618.346	-39.615	0.126	-0.066
-617.332	274.610	0.103	-0.183
-616.317	29.273	-0.060	0.051
-615.303	125.227	-0.224	-0.283
-614.288	-142.792	-0.081	0.008
-613.273	-103.666	-0.061	0.014
-612.259	-99.693	0.390	-0.098
-611.244	151.394	0.133	0.181
-610.230	213.264	0.144	-0.229
-609.215	-128.568	0.192	0.027
-608.201	-23.956	-0.122	-0.074
-607.186	265.179	-0.114	-0.199
-606.171	800.000	-0.060	0.224
-605.157	-110.987	-0.121	0.025
-604.142	251.633	-0.144	-0.247
-603.128	-57.728	-0.201	0.088
-602.113	183.358	-0.202	0.299
-601.098	-106.608	-0.207	0.046
-600.084	-5.601	-0.020	-0.014
-599.069	-49.305	-0.213	-0.102
-598.055	-34.575	-0.206	-0.113
-597.040	8.890	-0.041	-0.031
-596.025	-200.000	-0.088	-0.501
-595.011	172.150	0.310	-0.448
-593.996	-84.389	-0.158	0.050
-592.982	-181.613	-0.183	-0.004
-591.967	-156.798	-0.277	0.017
-590.952	-83.730	-0.225	-0.072
-589.938	167.879	-0.141	-0.201
-588.923	-87.644	0.292	0.089
-587.909	169.582	-0.089	0.127
-586.894	746.537	0.087	-0.236
-585.879	-114.178	0.098	0.019
-584.865	220.296	-0.143	-0.230
-583.850	51.547	0.147	0.141
-582.836	-200.000	-0.001	-0.206
-581.821	60.952	-0.077	0.077
-580.806	800.000	-0.026	0.087
-579.792	229.724	-0.064	-0.105
-578.777	565.288	0.072	-0.175
-577.763	342.765	0.124	0.244
-576.748	308.699	-0.213	0.399
-575.733	-130.898	0.186	-0.025
-574.719	392.188	-0.036	0.076
-573.704	-148.169	0.351	0.029
-572.690	-200.000	-0.002	0.138
-571.675	-200.000	-0.012	-0.214
-570.661	-200.000	-0.001	0.098
-569.646	-95.336	-0.039	-0.011
-568.631	-36.041	-0.192	0.104
-567.617	-41.894	0.284	0.146
-566.602	13.953	0.389	-0.304
-565.588	-74.308	-0.073	0.026
-564.573	-52.825	-0.034	-0.016
-563.558	-188.769	0.273	-0.003
-562.544	-123.362	0.389	0.062
-561.529	-143.635	0.180	0.017
-560.515	172.468	0.080	-0.115
-559.500	800.000	-0.117	-0.361
-558.485	-200.000	0.012	0.124
-557.471	-200.000	-0.033	0.218
-556.456	-200.000	-0.003	-0.310
-555.442	145.936	-0.092	0.124
-554.427	124.195	-0.104	0.131
-553.412	-200.000	0.003	-0.084
-552.398	-200.000	-0.011	-0.178
-551.383	161.551	-0.097	0.137
-550.369	-55.577	0.304	0.137
-549.354	66.084	-0.171	-0.174
-548.339	368.734	0.110	0.223
-547.325	-200.000	-0.013	-0.144
-546.310	800.000	-0.051	0.160
-545.296	-22.354	0.107	0.065
-544.281	466.479	-0.082	-0.184
-543.266	16.036	-0.264	0.208
-542.252	426.522	0.105	0.226
-541.237	-137.067	0.099	0.011
-540.223	-33.548	-0.490	-0.271
-539.208	800.000	-0.064	0.271
-538.193	-91.027	-0.030	-0.009
-537.179	-163.176	-0.346	-0.017
-536.164	-42.403	0.245	0.125
-535.150	-200.000	-0.022	0.155
-534.135	20.853	-0.042	0.034
-533.121	800.000	0.006	-0.025
-532.106	31.589	-0.240	0.207
-531.091	800.000	0.043	0.179
-530.077	3.259	-0.360	-0.262
-529.062	246.758	0.007	-0.012
-528.048	76.631	-0.117	-0.125
-527.033	-86.573	-0.149	-0.046
-526.018	-153.943	-0.467	-0.032
-525.004	-176.069	0.215	0.006
-523.989	68.803	-0.018	0.019
-522.975	-200.000	-0.033	0.407
-521.960	-200.000	-0.018	0.110
-520.945	369.824	0.084	-0.170
-519.931	137.614	0.248	0.325
-518.916	271.709	-0.091	0.160
-517.902	431.800	0.106	-0.230
-516.887	800.000	0.031	0.119
-515.872	-83.835	0.190	-0.061
-514.858	0.452	0.102	-0.073
-513.843	-12.122	-0.071	0.047
-512.829	378.001	0.174	0.356
-511.814	226.017	-0.063	-0.103
-510.799	-200.000	0.003	-0.180
-509.785	47.659	-0.078	0.073
-508.770	-143.006	-0.254	-0.025
-507.756	-166.086	-0.153	-0.007
-506.741	68.887	-0.295	0.303
-505.726	-59.271	0.122	0.053
-504.712	-122.382	0.428	-0.070
-503.697	-124.525	-0.066	-0.010
-502.683	328.466	-0.182	-0.349
-501.668	-95.184	-0.235	-0.063
-500.653	254.861	-0.095	-0.163
-499.639	109.170	-0.147	-0.177
-498.624	333.958	0.138	0.267
-497.610	-72.018	-0.168	0.063
-496.595	-13.773	-0.468	0.303
-495.581	800.000	0.116	0.346
-494.566	52.788	0.045	0.044
-493.551	57.127	-0.243	-0.237
-492.537	-85.819	-0.165	-0.051
-491.522	-200.000	-0.048	0.216
-490.508	179.798	0.096	0.141
-489.493	12.200	0.516	-0.397
-488.478	132.416	-0.264	-0.340
-487.464	-91.731	-0.144	0.041
-486.449	101.032	0.153	-0.178
-485.435	-56.859	0.249	-0.110
-484.420	116.874	-0.176	0.216
-483.405	339.359	-0.023	-0.045
-482.391	-139.429	-0.125	0.013
-481.376	800.000	-0.178	-0.501
-480.362	546.487	0.112	0.269
-479.347	167.600	-0.215	0.305
-478.332	800.000	-0.051	-0.161
-477.318	230.771	-0.106	0.174
-476.303	205.764	0.039	0.061
-475.289	800.000	0.054	0.218
-474.274	-22.977	-0.160	0.096
-473.259	398.158	-0.144	0.301
-472.245	-141.348	0.143	-0.014
-471.230	-113.569	0.174	0.034
-470.216	195.663	0.077	0.117
-469.201	-200.000	-0.007	0.306
-468.186	-200.000	0.018	0.172
-467.172	-120.147	-0.106	0.018
-466.157	-200.000	0.012	0.142
-465.143	72.138	0.217	0.226
-464.128	-200.000	0.004	0.178
-463.113	-79.286	-0.071	-0.024
-462.099	-132.711	-0.056	0.007
-461.084	656.479	0.109	0.279
-460.070	140.013	0.139	0.183
-459.055	-170.362	-0.271	0.009
-458.040	154.737	0.079	-0.108
-457.026	-139.928	-0.452	-0.048
-456.011	-127.181	-0.178	-0.026
-454.997	-17.109	0.094	0.059
-453.982	-75.330	-0.244	-0.087
-452.968	76.203	-0.248	-0.263
-451.953	45.457	0.339	-0.313
-450.938	-100.941	-0.091	-0.022
-449.924	34.040	0.159	-0.138
-448.909	-16.082	0.338	0.215
-447.895	-200.000	-0.037	-0.169
-446.880	-162.130	-0.340	0.017
-445.865	211.597	-0.146	-0.230
-444.851	118.555	-0.061	-0.075
-443.836	542.532	0.200	0.477
-442.822	109.700	-0.131	-0.157
-441.807	-54.369	-0.076	0.035
-440.792	-200.000	-0.005	0.060
-439.778	-138.344	0.271	0.030
-438.763	-34.114	0.046	0.025
-437.749	-102.538	-0.458	0.109
-436.734	8.271	0.247	0.186
-435.719	-14.949	0.238	-0.152
-434.705	-7.268	0.138	-0.093
-433.690	-200.000	-0.005	-0.169
-432.676	-28.655	0.069	0.040
-431.661	-200.000	-0.011	0.145
-430.646	-61.020	0.085	0.036
-429.632	181.421	-0.159	-0.234
-428.617	800.000	0.043	-0.156
-427.603	59.141	0.026	-0.025
-426.588	454.189	0.195	0.431
-425.573	177.218	0.040	0.058
-424.559	800.000	0.082	0.284
-423.544	385.966	-0.110	-0.226
-422.530	-200.000	0.023	-0.120
-421.515	158.689	-0.060	-0.083
-420.500	-99.770	0.168	0.042
-419.486	38.204	0.185	0.164
-418.471	156.824	-0.083	0.115
-417.457	23.073	0.320	-0.262
-416.442	-43.293	-0.025	-0.013
-415.428	-37.782	-0.300	-0.159
-414.413	-131.841	-0.192	-0.025
-413.398	142.121	-0.152	-0.201
-412.384	800.000	-0.023	0.070
-411.369	-198.581	0.253	-0.001
-410.355	502.052	-0.014	0.032
-409.340	-2.870	-0.166	0.116
-408.325	-35.642	0.178	0.097
-407.311	-102.011	-0.113	-0.027
-406.296	181.621	0.170	-0.249
-405.282	-200.000	0.046	-0.274
-404.267	204.807	-0.132	-0.204
-403.252	754.617	0.051	-0.139
-402.238	-1.899	0.249	0.174
-401.223	-61.062	-0.243	0.102
-400.209	-24.577	-0.051	0.030
-399.194	-50.023	0.193	-0.091
-398.179	78.513	0.219	0.233
-397.165	-96.758	0.320	-0.084
-396.150	-200.000	-0.007	-0.552
-395.136	-200.000	0.042	0.347
-394.121	-23.900	0.260	0.155
-393.106	402.865	-0.128	-0.268
-392.092	-124.214	-0.099	0.015
-391.077	731.914	-0.124	0.330
-390.063	-148.653	0.267	0.022
-389.048	-36.185	0.158	-0.085
-388.033	-200.000	-0.037	-0.382
-387.019	53.186	0.290	0.277
-386.004	-54.048	0.071	0.032
-384.990	-165.523	0.303	-0.013
-383.975	136.995	-0.195	-0.254
-382.960	216.897	-0.070	-0.111
-381.946	-143.466	0.162	-0.015
-380.931	154.205	0.220	-0.301
-379.917	-127.637	-0.102	0.015
-378.902	-42.297	-0.414	0.211
-377.888	-200.000	-0.028	0.142
-376.873	119.516	0.078	-0.096
-375.858	-39.019	-0.078	0.041
-374.844	-34.530	0.372	0.203
-373.829	18.191	0.118	0.094
-372.815	94.691	0.093	0.105
-371.800	126.288	-0.153	0.193
-370.785	225.166	-0.200	-0.322
-369.771	-200.000	0.011	-0.303
-368.756	800.000	0.032	-0.088
-367.742	-200.000	-0.040	-0.263
-366.727	717.424	0.057	-0.151
-365.712	704.849	0.028	-0.073
-364.698	-140.805	0.191	0.020
-363.683	-200.000	0.009	0.558
-362.669	37.242	0.082	-0.072
-361.654	-178.693	0.195	0.004
-360.639	-15.440	0.067	-0.043
-359.625	46.651	0.134	0.124
-358.610	-10.878	0.110	0.072
-357.596	-58.302	-0.249	0.108
-356.581	87.628	-0.139	0.154
-355.566	165.089	0.028	-0.039
-354.552	-138.170	0.144	0.016
-353.537	35.357	0.152	-0.133
-352.523	22.844	0.163	0.133
-351.508	104.692	0.201	-0.236
-350.493	388.868	-0.125	0.257
-349.479	-125.125	-0.340	-0.052
-348.464	31.867	0.062	-0.053
-347.450	-99.658	0.058	0.015
-346.435	-200.000	-0.035	-0.269
-345.420	225.470	0.119	0.191
-344.406	-44.115	0.057	-0.028
-343.391	-90.028	-0.146	0.042
-342.377	42.528	-0.124	-0.113
-341.362	15.271	-0.101	-0.079
-340.348	-119.394	0.054	0.009
-339.333	-174.741	-0.237	0.007
-338.318	-116.753	0.356	0.065
-337.304	-104.617	-0.143	0.033
-336.289	67.716	0.282	-0.286
-335.275	21.327	-0.149	0.121
-334.260	-100.418	0.328	0.081
-333.245	800.000	-0.054	0.218
-332.231	327.139	0.047	0.090
-331.216	-200.000	0.005	-0.156
-330.202	-57.701	-0.180	0.078
-329.187	800.000	-0.027	-0.101
-328.172	123.201	-0.034	0.042
-327.158	-200.000	-0.010	0.229
-326.143	227.521	0.159	-0.257
-325.129	-56.822	0.210	0.092
-324.114	-71.982	0.245	-0.091
-323.099	-66.704	-0.337	0.133
-322.085	-89.637	0.228	0.066
-321.070	132.742	0.247	0.317
-320.056	565.313	-0.140	0.337
-319.041	296.576	-0.117	0.213
-318.026	-186.981	-0.144	0.002
-317.012	48.026	-0.143	0.132
-315.997	-200.000	0.036	0.395
-314.983	-111.381	-0.175	0.035
-313.968	-82.807	0.176	0.057
-312.953	171.488	0.050	0.071
-311.939	188.899	-0.200	0.298
-310.924	-200.000	0.040	-0.392
-309.910	-83.531	0.099	-0.031
-308.895	66.500	0.201	0.203
-307.880	2.440	-0.034	-0.025
-306.866	404.616	0.027	-0.056
-305.851	93.571	-0.161	-0.181
-304.837	599.605	0.042	0.103
-303.822	548.409	-0.115	0.274
-302.807	-36.671	-0.324	-0.173
-301.793	-200.000	-0.010	-0.355
-300.778	-197.907	0.224	0.001
-299.764	2.533	-0.261	-0.188
-298.749	20.353	-0.234	-0.187
-297.735	595.695	0.073	0.180
-296.720	292.828	0.132	0.240
-295.705	-51.311	0.051	-0.024
-294.691	45.960	-0.130	0.120
-293.676	162.778	-0.206	-0.287
-292.662	800.000	0.168	-0.518
-291.647	448.430	0.150	-0.328
-290.632	-200.000	-0.061	0.337
-289.618	800.000	0.061	0.222
-288.603	-15.070	-0.267	-0.170
-287.589	800.000	-0.082	0.284
-286.574	-200.000	0.057	-0.310
-285.559	800.000	0.086	-0.275
-284.545	77.756	0.094	-0.100
-283.530	22.448	-0.074	0.060
-282.516	-171.730	-0.295	0.010
-281.501	-200.000	-0.018	-0.108
-280.486	-200.000	0.056	-0.253
-279.472	-2.372	-0.058	-0.041
-278.457	145.840	0.160	-0.213
-277.443	-103.338	-0.111	-0.026
-276.428	438.069	-0.169	0.367
-275.413	163.061	0.130	-0.182
-274.399	-0.223	0.347	0.245
-273.384	-89.948	-0.171	-0.050
-272.370	250.819	-0.068	0.115
-271.355	534.027	0.101	-0.238
-270.340	-97.532	0.231	-0.059
-269.326	800.000	-0.069	0.214
-268.311	-82.282	-0.092	0.030
-267.297	-58.386	0.262	0.113
-266.282	-200.000	0.018	-0.182
-265.267	-94.539	0.042	-0.011
-264.253	800.000	0.116	0.333
-263.238	800.000	-0.082	-0.280
-262.224	502.556	0.050	-0.114
-261.209	-125.467	-0.177	0.027
-260.195	82.490	0.333	-0.358
-259.180	31.002	0.152	-0.129
-258.165	370.065	-0.125	-0.251
-257.151	-141.878	-0.106	-0.010
-256.136	-99.376	0.186	0.046
-255.122	-148.094	0.191	-0.016
-254.107	280.419	-0.088	0.156
-253.092	80.219	-0.114	-0.122
-252.078	-4.832	0.278	-0.190
-251.063	-115.587	-0.074	-0.014
-250.049	178.769	-0.166	-0.240
-249.034	0.383	-0.280	0.198
-248.019	-89.933	-0.081	-0.024
-247.005	-1.385	-0.339	0.237
-245.990	-200.000	0.063	0.514
-244.976	800.000	-0.142	-0.498
-243.961	-87.133	-0.696	-0.210
-242.946	-200.000	-0.017	0.169
-241.932	-200.000	0.029	0.205
-240.917	132.542	-0.150	0.192
-239.903	259.584	0.211	-0.361
-238.888	-29.708	-0.072	0.041
-237.873	-0.683	-0.084	-0.059
-236.859	52.322	0.429	0.406
-235.844	-34.398	0.169	-0.092
-234.830	66.713	-0.212	-0.214
-233.815	332.651	0.082	0.157
-232.800	-200.000	0.002	0.085
-231.786	800.000	0.137	-0.509
-230.771	-114.981	0.343	0.065
-229.757	60.396	0.184	0.181
-228.742	37.418	-0.055	0.048
-227.727	27.418	0.115	-0.096
-226.713	-121.089	0.128	0.021
-225.698	591.246	0.097	0.238
-224.684	-103.650	0.249	-0.058
-223.669	-85.949	0.171	-0.052
-222.655	-200.000	-0.041	-0.207
-221.640	-76.967	-0.209	-0.072
-220.625	218.894	0.239	-0.378
-219.611	-92.063	0.365	-0.102
-218.596	800.000	0.081	-0.307
-217.582	485.009	0.163	-0.367
-216.567	121.812	-0.017	-0.021
-215.552	-93.046	0.133	-0.037
-214.538	301.278	-0.117	-0.215
-213.523	-131.901	0.242	-0.031
-212.509	199.146	0.228	0.346
-211.494	-200.000	0.017	-0.142
-210.479	-1.026	0.329	-0.230
-209.465	-200.000	-0.012	0.166
-208.450	-200.000	0.019	0.105
-207.436	-36.690	-0.123	-0.065
-206.421	-200.000	0.049	0.218
-205.406	800.000	-0.077	-0.306
-204.392	136.510	-0.191	0.246
-203.377	800.000	-0.096	0.268
-202.363	800.000	0.054	0.175
-201.348	50.850	0.214	-0.200
-200.333	97.008	0.097	-0.110
-199.319	24.017	-0.076	0.062
-198.304	-200.000	0.008	-0.036
-197.290	-67.474	-0.154	0.060
-196.275	193.122	-0.048	0.072
-195.260	-32.876	0.323	-0.178
-194.246	-200.000	0.050	-0.232
-193.231	-200.000	-0.035	0.281
-192.217	-122.210	-0.049	-0.008
-191.202	-45.555	0.219	0.107
-190.187	-200.000	0.002	0.054
-189.173	-112.622	0.371	0.073
-188.158	137.146	-0.150	0.193
-187.144	800.000	0.099	-0.283
-186.129	-200.000	-0.013	0.251
-185.114	-36.348	0.116	0.062
-184.100	52.734	0.090	0.085
-183.085	728.883	-0.060	0.158
-182.071	-200.000	-0.012	-0.116
-181.056	751.468	-0.067	-0.178
-180.042	117.023	0.069	0.084
-179.027	800.000	0.015	0.046
-178.012	-128.567	0.212	0.030
-176.998	-34.131	0.166	0.090
-175.983	58.847	-0.154	-0.150
-174.969	-200.000	-0.103	0.000
-173.954	59.341	-0.155	-0.151
-172.939	-107.533	-0.164	0.035
-171.925	300.123	0.058	-0.106
-170.910	-200.000	-0.026	0.272
-169.896	-5.451	-0.160	0.109
-168.881	-43.849	-0.200	0.099
-167.866	29.015	0.174	0.146
-166.852	54.999	-0.027	0.026
-165.837	0.899	-0.112	0.079
-164.823	800.000	-0.037	0.148
-163.808	-200.000	0.005	-0.086
-162.793	312.747	-0.087	-0.162
-161.779	117.241	-0.099	0.120
-160.764	-147.773	-0.143	0.012
-159.750	800.000	0.074	0.209
-158.735	-200.000	0.022	0.220
-157.720	800.000	-0.028	-0.115
-156.706	50.977	0.069	0.064
-155.691	-4.440	-0.119	-0.081
-154.677	-200.000	-0.021	0.103
-153.662	575.363	0.101	0.244
-152.647	580.738	0.131	0.316
-151.633	-146.391	-0.209	-0.018
-150.618	577.007	0.086	-0.208
-149.604	-176.655	-0.243	0.006
-148.589	-105.943	-0.337	-0.075
-147.574	-10.233	0.121	0.080
-146.560	320.454	-0.218	0.409
-145.545	-200.000	0.036	-0.216
-144.531	-136.392	0.460	-0.053
-143.516	-188.203	-0.229	0.003
-142.502	-200.000	-0.025	0.216
-141.487	396.699	-0.067	-0.139
-140.472	-92.692	0.294	-0.081
-139.458	-129.578	0.056	0.008
-138.443	-89.283	-0.394	0.114
-137.429	-130.804	0.066	-0.009
-136.414	296.973	-0.061	0.110
-135.399	86.669	0.187	0.203
-134.385	-55.072	0.162	-0.072
-133.370	-200.000	0.059	-0.312
-132.356	92.185	-0.025	0.027
-131.341	-140.416	-0.107	0.011
-130.326	-200.000	-0.018	-0.311
-129.312	66.354	0.316	0.317
-128.297	-200.000	-0.007	0.114
-127.283	800.000	-0.041	0.163
-126.268	800.000	-0.110	-0.320
-125.253	97.198	-0.107	-0.121
-124.239	-200.000	0.012	-0.145
-123.224	800.000	0.024	0.103
-122.210	-57.959	0.144	0.062
