DTS Sentinel unit serial number:	SN413079Multiplexer serial number:	ORYXHardware model number:	OX4-SRSoftware version number:	ORYX F/W v4.00 Oryx Data Collector v3.7.2.0data status	okinstallation	princeton_trtdifferential loss correction	single-endedforward channel	channel 2reverse channel	N/Adate	2019/09/19time	00:35:35forward acquisition time	60.00reverse acquisition time	0.00gamma	496.2192k internal	0.2353k external	0.2353temperature offset calibration	1.0015default loss term (dB/km)	0.3790temperature slope calibration	1.0000multiplexer offset coefficient	1.0000multiplexer slope coefficient	1.0000fibre end	0.00T internal ref (°C)	22.37T ext. ref 1 (°C)	0.74T ext. ref 2 (°C)	15.40length (m)	temperature (°C)	Stokes	anti-Stokes-747.200	-19.320	0.011	-0.007
-746.185	-141.105	-0.162	0.016
-745.171	136.016	0.121	-0.158
-744.156	118.630	0.049	-0.061
-743.142	92.350	0.194	0.218
-742.127	-200.000	0.009	-0.168
-741.112	-200.000	0.020	-0.121
-740.098	800.000	-0.099	0.416
-739.083	-160.617	-0.178	-0.009
-738.069	-200.000	-0.011	-0.176
-737.054	26.142	0.408	0.339
-736.039	-50.003	-0.311	0.147
-735.025	-197.140	0.309	0.002
-734.010	-74.768	-0.427	-0.153
-732.996	-35.964	-0.122	-0.066
-731.981	36.688	-0.188	0.166
-730.966	-51.684	0.037	-0.017
-729.952	164.267	-0.189	0.266
-728.937	93.747	0.166	0.187
-727.923	279.587	-0.195	0.347
-726.908	88.283	-0.153	-0.169
-725.894	80.342	-0.263	-0.282
-724.879	-200.000	0.014	-0.121
-723.864	-109.008	-0.310	0.066
-722.850	-108.552	0.167	-0.036
-721.835	88.885	-0.190	-0.210
-720.821	221.662	0.283	0.454
-719.806	-147.213	-0.050	-0.004
-718.791	585.792	0.038	0.093
-717.777	-4.579	0.153	-0.105
-716.762	-92.585	-0.296	-0.083
-715.748	-59.324	0.187	-0.080
-714.733	718.291	-0.080	0.213
-713.718	800.000	-0.088	-0.289
-712.704	-200.000	-0.399	0.002
-711.689	69.020	-0.049	-0.050
-710.675	-58.738	0.146	0.063
-709.660	239.963	-0.082	-0.137
-708.645	-85.995	0.035	0.011
-707.631	-200.000	-0.001	0.356
-706.616	-200.000	-0.003	0.154
-705.602	-200.000	0.005	0.102
-704.587	800.000	-0.056	0.163
-703.572	51.701	0.027	0.026
-702.558	-196.732	0.330	-0.002
-701.543	-164.907	0.044	0.002
-700.529	598.748	-0.108	-0.266
-699.514	69.335	0.153	-0.156
-698.499	-200.000	-0.006	0.034
-697.485	161.147	0.185	-0.258
-696.470	-200.000	0.015	-0.117
-695.456	800.000	-0.031	-0.127
-694.441	109.717	-0.092	-0.110
-693.426	-68.208	0.094	-0.036
-692.412	36.263	0.138	0.121
-691.397	-58.793	-0.088	-0.038
-690.383	-17.429	-0.292	0.183
-689.368	-200.000	-0.006	0.181
-688.354	224.389	-0.115	-0.185
-687.339	-170.558	-0.305	0.011
-686.324	-200.000	0.009	-0.327
-685.310	-194.792	-0.194	0.002
-684.295	43.102	-0.075	-0.068
-683.281	-99.983	-0.328	0.081
-682.266	64.856	0.211	-0.212
-681.251	204.207	0.237	-0.366
-680.237	47.062	-0.128	-0.118
-679.222	800.000	-0.066	-0.237
-678.208	236.152	-0.154	-0.253
-677.193	-44.734	0.389	-0.193
-676.178	69.397	-0.217	-0.223
-675.164	80.580	-0.356	-0.382
-674.149	76.678	-0.066	-0.070
-673.135	800.000	-0.020	-0.070
-672.120	31.125	-0.216	-0.184
-671.105	-200.000	-0.017	0.514
-670.091	293.305	0.093	0.169
-669.076	317.439	0.184	0.346
-668.062	142.887	-0.044	-0.058
-667.047	62.777	-0.086	-0.086
-666.032	-110.458	0.079	0.016
-665.018	91.848	0.228	-0.255
-664.003	770.643	0.105	0.285
-662.989	52.774	-0.090	-0.086
-661.974	-200.000	-0.007	-0.239
-660.959	-29.055	-0.121	-0.069
-659.945	800.000	-0.091	0.355
-658.930	42.256	0.282	0.255
-657.916	43.436	0.339	0.308
-656.901	-183.244	0.220	-0.004
-655.886	313.953	0.039	0.073
-654.872	-107.069	-0.236	0.052
-653.857	68.802	-0.311	0.317
-652.843	-92.301	-0.135	-0.038
-651.828	3.248	-0.144	0.104
-650.814	-49.736	-0.171	0.081
-649.799	-157.396	-0.358	0.021
-648.784	114.492	0.191	0.231
-647.770	-200.000	-0.006	0.403
-646.755	-194.289	0.150	0.001
-645.741	-30.327	-0.219	-0.124
-644.726	136.476	-0.060	0.077
-643.711	3.214	0.210	0.152
-642.697	-55.489	0.245	0.109
-641.682	637.055	-0.042	0.106
-640.668	732.963	0.024	-0.064
-639.653	-200.000	0.012	-0.117
-638.638	206.838	0.042	0.064
-637.624	185.531	0.068	0.100
-636.609	56.825	0.176	-0.170
-635.595	-200.000	-0.065	-0.308
-634.580	800.000	-0.016	0.046
-633.565	-71.560	0.271	-0.101
-632.551	395.593	0.125	0.260
-631.536	97.688	-0.139	0.158
-630.522	-62.986	-0.197	-0.081
-629.507	-46.613	-0.218	0.106
-628.492	-127.498	0.149	-0.021
-627.478	-200.000	-0.038	-0.283
-626.463	-63.587	-0.162	0.066
-625.449	-17.072	0.099	-0.062
-624.434	523.254	-0.059	0.138
-623.419	-34.801	-0.103	0.056
-622.405	800.000	0.058	0.216
-621.390	2.852	-0.333	-0.240
-620.376	-36.899	0.183	0.097
-619.361	149.954	-0.114	0.153
-618.346	509.403	-0.049	-0.114
-617.332	-200.000	0.087	-0.475
-616.317	-146.905	-0.174	-0.015
-615.303	-104.813	0.220	-0.050
-614.288	629.509	-0.100	0.251
-613.273	-194.308	-0.283	0.002
-612.259	224.462	-0.088	-0.141
-611.244	3.225	0.030	-0.022
-610.230	-200.000	-0.001	0.009
-609.215	14.946	-0.180	0.139
-608.201	-200.000	0.054	-0.245
-607.186	-135.255	0.248	-0.029
-606.171	-200.000	-0.008	0.089
-605.157	-18.778	-0.262	-0.162
-604.142	-92.136	-0.105	0.029
-603.128	-39.164	-0.432	0.225
-602.113	-61.860	0.310	-0.129
-601.098	-200.000	0.039	-0.509
-600.084	-74.896	0.090	-0.032
-599.069	-147.773	0.195	0.016
-598.055	800.000	-0.051	-0.176
-597.040	180.524	-0.096	-0.139
-596.025	519.987	0.095	-0.222
-595.011	800.000	-0.055	0.233
-593.996	-163.332	0.141	0.007
-592.982	-200.000	-0.009	-0.053
-591.967	263.846	-0.183	0.316
-590.952	-30.542	-0.238	0.134
-589.938	-189.023	0.135	-0.002
-588.923	-200.000	-0.014	-0.448
-587.909	-158.065	-0.272	-0.016
-586.894	-200.000	-0.001	-0.249
-585.879	-68.701	-0.285	0.109
-584.865	218.479	-0.091	-0.144
-583.850	-38.945	0.270	0.141
-582.836	-30.218	-0.272	0.153
-581.821	95.380	-0.178	-0.202
-580.806	-86.018	0.049	-0.015
-579.792	-3.563	-0.173	0.119
-578.777	-62.648	-0.101	-0.041
-577.763	-200.000	0.032	-0.285
-576.748	226.844	-0.055	0.088
-575.733	-26.737	-0.324	-0.188
-574.719	604.801	-0.110	0.272
-573.704	-200.000	0.031	-0.195
-572.690	800.000	-0.061	-0.251
-571.675	230.488	-0.172	-0.279
-570.661	-149.410	0.073	-0.006
-569.646	-9.104	0.090	0.060
-568.631	32.625	0.234	0.200
-567.617	38.852	0.240	-0.212
-566.602	115.417	-0.118	-0.143
-565.588	-112.081	0.260	-0.052
-564.573	607.889	-0.095	0.235
-563.558	-126.647	0.212	-0.031
-562.544	-200.000	0.009	0.069
-561.529	-104.148	0.061	0.014
-560.515	-200.000	0.002	-0.031
-559.500	-200.000	-0.051	0.363
-558.485	-130.687	0.177	0.024
-557.471	800.000	-0.053	-0.218
-556.456	800.000	-0.052	0.165
-555.442	5.740	0.140	0.102
-554.427	-200.000	0.009	-0.064
-553.412	-24.732	-0.306	-0.180
-552.398	-200.000	-0.026	-0.434
-551.383	685.950	-0.084	-0.217
-550.369	311.113	-0.335	0.621
-549.354	-12.891	-0.131	-0.085
-548.339	-47.647	0.065	-0.031
-547.325	-80.416	0.119	-0.039
-546.310	-200.000	0.034	-0.194
-545.296	-200.000	0.015	0.074
-544.281	34.058	-0.189	0.163
-543.266	209.855	0.072	-0.111
-542.252	28.747	-0.242	-0.203
-541.237	-142.376	-0.128	-0.012
-540.223	-153.000	-0.378	-0.026
-539.208	693.693	-0.131	-0.339
-538.193	-132.077	0.116	0.015
-537.179	37.469	0.024	0.021
-536.164	75.161	0.031	-0.032
-535.150	91.195	0.149	-0.166
-534.135	800.000	-0.114	-0.320
-533.121	-20.443	-0.131	-0.079
-532.106	-200.000	-0.032	0.339
-531.091	177.348	-0.225	-0.324
-530.077	-200.000	-0.085	-0.389
-529.062	56.195	-0.229	-0.220
-528.048	169.369	0.090	-0.127
-527.033	800.000	0.058	-0.210
-526.018	-64.702	0.320	-0.128
-525.004	27.261	-0.370	-0.307
-523.989	91.450	-0.173	0.192
-522.975	236.742	-0.083	-0.135
-521.960	640.980	0.131	-0.331
-520.945	-129.633	0.238	-0.032
-519.931	718.504	0.093	-0.244
-518.916	-188.648	0.075	0.001
-517.902	376.585	-0.067	0.135
-516.887	800.000	0.087	0.356
-515.872	-122.472	-0.126	-0.020
-514.858	-112.575	-0.554	0.109
-513.843	-60.625	0.212	0.089
-512.829	-12.400	-0.202	0.130
-511.814	800.000	-0.074	0.240
-510.799	-200.000	-0.005	-0.025
-509.785	496.421	-0.063	0.143
-508.770	-200.000	0.047	-0.332
-507.756	-200.000	-0.001	-0.107
-506.741	-200.000	-0.038	-0.166
-505.726	-200.000	0.059	-0.263
-504.712	109.559	0.065	0.077
-503.697	324.553	-0.072	0.136
-502.683	800.000	0.025	-0.074
-501.668	-13.252	0.091	-0.058
-500.653	290.110	0.099	0.178
-499.639	-0.002	0.139	-0.098
-498.624	-107.929	-0.062	0.013
-497.610	-158.269	-0.347	-0.020
-496.595	29.152	0.045	-0.038
-495.581	-182.290	-0.304	-0.006
-494.566	-82.825	0.278	-0.089
-493.551	-155.138	-0.102	0.007
-492.537	155.945	-0.038	-0.051
-491.522	295.869	0.040	-0.072
-490.508	800.000	-0.168	0.459
-489.493	376.110	0.088	0.177
-488.478	-200.000	-0.012	0.203
-487.464	800.000	-0.063	-0.209
-486.449	-99.118	0.121	-0.030
-485.435	-68.670	0.230	-0.088
-484.420	126.555	-0.163	-0.204
-483.405	455.243	0.218	-0.477
-482.391	-22.871	-0.394	0.235
-481.376	358.357	0.217	0.427
-480.362	401.894	-0.155	-0.321
-479.347	-10.158	-0.102	0.067
-478.332	292.360	-0.040	-0.072
-477.318	34.852	0.020	0.017
-476.303	800.000	-0.044	-0.120
-475.289	-62.977	0.140	-0.057
-474.274	366.432	0.055	0.109
-473.259	-200.000	-0.037	0.390
-472.245	513.612	-0.140	0.322
-471.230	-200.000	0.013	-0.244
-470.216	800.000	0.052	-0.156
-469.201	37.933	-0.148	0.130
-468.186	56.256	-0.246	-0.236
-467.172	131.059	0.112	-0.142
-466.157	-105.812	-0.031	0.007
-465.143	81.673	-0.125	-0.133
-464.128	38.411	-0.153	0.135
-463.113	17.218	0.164	-0.128
-462.099	-150.970	0.271	0.020
-461.084	-68.404	-0.121	-0.046
-460.070	800.000	0.029	-0.122
-459.055	800.000	0.087	0.260
-458.040	52.990	-0.103	-0.097
-457.026	800.000	-0.007	0.023
-456.011	800.000	-0.061	0.258
-454.997	-106.197	0.190	-0.042
-453.982	-48.371	-0.038	0.018
-452.968	800.000	-0.085	0.233
-451.953	123.418	-0.198	-0.245
-450.938	20.475	-0.219	-0.175
-449.924	-152.479	-0.344	0.024
-448.909	-107.067	-0.212	0.046
-447.895	-200.000	-0.003	-0.318
-446.880	779.725	0.063	-0.171
-445.865	-17.435	0.146	0.091
-444.851	538.998	0.069	-0.163
-443.836	22.754	-0.135	-0.109
-442.822	-35.101	0.141	-0.076
-441.807	-200.000	0.024	-0.242
-440.792	800.000	0.044	-0.155
-439.778	111.553	0.206	-0.245
-438.763	-150.918	-0.216	-0.016
-437.749	800.000	0.052	-0.152
-436.734	405.902	0.173	-0.360
-435.719	800.000	0.022	-0.063
-434.705	-200.000	0.097	0.423
-433.690	-200.000	-0.002	0.242
-432.676	-23.580	0.066	-0.039
-431.661	800.000	-0.068	0.207
-430.646	-200.000	-0.026	0.189
-429.632	-32.634	0.090	0.049
-428.617	-73.794	-0.179	0.064
-427.603	-33.067	-0.284	0.155
-426.588	-71.555	-0.032	0.012
-425.573	-188.950	-0.288	0.003
-424.559	-119.882	0.220	-0.037
-423.544	140.659	-0.132	0.171
-422.530	86.682	-0.245	0.267
-421.515	800.000	0.059	-0.220
-420.500	-129.750	0.205	0.028
-419.486	-44.330	0.128	0.063
-418.471	401.831	0.043	0.088
-417.457	-150.048	-0.225	0.017
-416.442	-200.000	-0.017	-0.224
-415.428	800.000	0.022	0.074
-414.413	88.278	-0.149	0.163
-413.398	-200.000	0.042	-0.211
-412.384	-17.756	0.081	-0.050
-411.369	133.248	0.357	0.454
-410.355	800.000	-0.062	0.253
-409.340	-61.299	-0.194	0.080
-408.325	81.607	0.142	-0.151
-407.311	227.144	-0.061	-0.097
-406.296	-50.917	-0.017	0.008
-405.282	-200.000	-0.001	-0.154
-404.267	-58.461	0.260	0.111
-403.252	800.000	0.007	0.025
-402.238	75.408	0.176	0.183
-401.223	119.497	-0.254	0.310
-400.209	-200.000	-0.003	0.172
-399.194	-109.077	-0.338	0.071
-398.179	-1.151	0.093	0.065
-397.165	220.849	-0.109	0.173
-396.150	-200.000	-0.048	0.283
-395.136	-117.226	0.055	0.010
-394.121	143.872	0.113	0.148
-393.106	72.195	0.079	-0.081
-392.092	58.073	-0.068	0.066
-391.077	-48.671	0.461	-0.218
-390.063	-80.582	-0.181	0.059
-389.048	-138.382	-0.074	0.008
-388.033	6.238	-0.245	-0.179
-387.019	-200.000	0.008	0.339
-386.004	38.210	-0.261	-0.228
-384.990	-14.673	0.260	0.164
-383.975	-200.000	-0.024	-0.246
-382.960	99.353	0.179	-0.203
-381.946	32.684	-0.143	-0.122
-380.931	-20.762	0.180	-0.109
-379.917	800.000	0.034	0.114
-378.902	-161.285	-0.186	0.010
-377.888	-179.199	-0.178	0.004
-376.873	-159.332	0.202	0.011
-375.858	-102.584	-0.320	-0.075
-374.844	-142.854	0.311	0.030
-373.829	115.522	-0.157	-0.188
-372.815	162.435	-0.112	0.155
-371.800	-60.212	0.260	-0.109
-370.785	800.000	-0.071	0.302
-369.771	-200.000	0.027	0.156
-368.756	-200.000	0.028	0.306
-367.742	-189.213	-0.233	0.003
-366.727	93.616	0.112	0.125
-365.712	-73.385	-0.119	0.043
-364.698	-200.000	0.014	-0.095
-363.683	-130.727	-0.350	0.046
-362.669	-200.000	-0.002	-0.246
-361.654	-69.106	0.219	-0.083
-360.639	-53.794	-0.163	0.073
-359.625	-30.858	0.087	-0.048
-358.610	91.729	0.145	0.160
-357.596	-47.764	0.140	0.067
-356.581	568.389	-0.016	0.039
-355.566	-45.604	-0.072	0.035
-354.552	50.237	0.190	0.176
-353.537	-200.000	-0.058	0.258
-352.523	20.806	0.130	0.104
-351.508	-77.531	0.175	-0.060
-350.493	-76.072	-0.103	0.036
-349.479	343.629	-0.041	0.079
-348.464	-200.000	-0.074	0.325
-347.450	-67.190	-0.108	0.042
-346.435	12.629	0.266	-0.201
-345.420	800.000	-0.020	-0.058
-344.406	-200.000	-0.047	-0.246
-343.391	-137.841	-0.112	0.012
-342.377	359.098	-0.075	0.146
-341.362	129.513	0.266	0.333
-340.348	-200.000	-0.006	-0.266
-339.333	-28.772	-0.051	-0.029
-338.318	-200.000	-0.026	0.139
-337.304	644.547	0.055	-0.138
-336.289	194.092	0.187	0.278
-335.275	33.827	-0.242	0.207
-334.260	-131.440	0.253	-0.033
-333.245	-36.723	-0.004	0.002
-332.231	246.286	-0.132	0.219
-331.216	119.091	0.222	-0.269
-330.202	349.919	-0.131	-0.254
-329.187	-200.000	0.058	0.258
-328.172	49.350	-0.134	0.124
-327.158	-200.000	0.012	-0.145
-326.143	-26.726	0.199	0.114
-325.129	114.808	-0.203	0.243
-324.114	-200.000	-0.026	0.309
-323.099	-122.759	0.248	0.039
-322.085	63.154	-0.131	-0.128
-321.070	38.387	0.211	-0.184
-320.056	-108.037	0.092	0.020
-319.041	-15.664	-0.075	-0.047
-318.026	33.021	0.330	0.281
-317.012	800.000	-0.023	-0.066
-315.997	55.987	0.070	-0.067
-314.983	-150.804	0.296	0.022
-313.968	-200.000	-0.001	-0.158
-312.953	-93.085	-0.012	-0.003
-311.939	68.252	-0.036	0.037
-310.924	26.379	0.126	0.103
-309.910	-121.590	-0.097	-0.016
-308.895	800.000	0.044	0.186
-307.880	-200.000	-0.037	0.440
-306.866	174.170	0.077	-0.108
-305.851	90.585	-0.220	-0.241
-304.837	90.693	-0.303	-0.333
-303.822	-3.919	-0.113	-0.077
-302.807	336.495	0.179	-0.340
-301.793	235.097	0.049	-0.080
-300.778	-200.000	0.005	-0.069
-299.764	-119.571	0.421	-0.071
-298.749	247.937	-0.058	-0.096
-297.735	-200.000	0.066	-0.351
-296.720	136.201	-0.180	-0.230
-295.705	-132.480	0.133	-0.017
-294.691	-106.731	0.265	0.058
-293.676	-5.061	0.332	0.224
-292.662	-115.294	0.532	0.099
-291.647	314.632	0.118	0.217
-290.632	-107.349	0.264	0.057
-289.618	721.115	-0.074	0.193
-288.603	66.194	-0.022	0.022
-287.589	227.244	0.101	-0.160
-286.574	-95.736	-0.151	0.040
-285.559	341.857	0.040	0.076
-284.545	-167.854	0.022	-0.001
-283.530	-200.000	-0.021	0.289
-282.516	-47.622	0.151	0.072
-281.501	155.488	-0.043	0.058
-280.486	145.528	0.194	0.255
-279.472	-29.632	-0.213	0.119
-278.457	-74.055	-0.160	0.057
-277.443	-37.128	-0.159	-0.083
-276.428	800.000	0.121	0.379
-275.413	-7.066	0.264	0.176
-274.399	-17.515	0.196	-0.121
-273.384	102.541	-0.032	0.036
-272.370	148.573	0.061	-0.080
-271.355	-0.145	-0.037	0.026
-270.340	-125.064	0.270	0.041
-269.326	-200.000	0.032	0.180
-268.311	1.192	0.087	-0.061
-267.297	-63.882	0.140	0.056
-266.282	-30.750	-0.249	0.138
-265.267	-200.000	-0.044	0.242
-264.253	-162.996	0.306	-0.014
-263.238	-49.267	-0.220	0.103
-262.224	436.246	0.102	-0.218
-261.209	-200.000	0.083	0.397
-260.195	-36.367	0.244	0.129
-259.180	-160.066	0.045	0.002
-258.165	800.000	0.065	0.198
-257.151	800.000	-0.046	0.128
-256.136	109.070	0.207	-0.242
-255.122	17.961	0.083	-0.064
-254.107	373.664	0.158	0.314
-253.092	57.691	-0.242	0.231
-252.078	-35.930	-0.108	-0.057
-251.063	-134.081	0.280	-0.034
-250.049	-70.277	-0.115	-0.043
-249.034	48.107	0.205	-0.187
-248.019	109.562	-0.063	-0.074
-247.005	189.942	0.196	-0.288
-245.990	553.438	0.139	-0.326
-244.976	53.360	0.241	-0.226
-243.961	133.728	-0.081	0.102
-242.946	-52.171	-0.182	0.082
-241.932	479.319	-0.042	-0.094
-240.917	51.074	-0.186	-0.172
-239.903	150.995	-0.368	-0.489
-238.888	41.872	-0.236	-0.209
-237.873	-172.077	0.168	-0.005
-236.859	1.073	0.081	0.057
-235.844	88.086	0.097	0.106
-234.830	800.000	0.134	-0.425
-233.815	-117.361	0.548	0.097
-232.800	800.000	-0.082	0.250
-231.786	800.000	0.180	0.617
-230.771	800.000	0.077	-0.222
-229.757	-164.517	-0.185	0.008
-228.742	-59.942	0.453	-0.189
-227.727	-120.844	0.089	0.015
-226.713	433.830	-0.183	-0.388
-225.698	800.000	0.032	-0.096
-224.684	672.636	0.164	0.414
-223.669	-200.000	0.038	0.241
-222.655	-77.809	-0.088	-0.030
-221.640	-103.332	-0.200	0.046
-220.625	50.352	0.081	-0.075
-219.611	-200.000	0.004	0.109
-218.596	207.846	-0.068	-0.104
-217.582	129.838	-0.218	-0.272
-216.567	-118.341	0.243	-0.042
-215.552	-44.235	0.161	0.079
-214.538	800.000	-0.077	-0.303
-213.523	409.409	-0.085	0.175
-212.509	35.826	-0.224	0.192
-211.494	-200.000	-0.082	0.362
-210.479	193.785	-0.179	0.264
-209.465	-26.706	-0.094	-0.054
-208.450	-110.339	-0.080	-0.016
-207.436	-90.179	0.270	0.077
-206.421	181.570	0.241	-0.346
-205.406	-200.000	-0.518	0.002
-204.392	-5.079	-0.220	-0.148
-203.377	-33.714	-0.034	0.018
-202.363	800.000	-0.017	-0.049
-201.348	-114.710	0.116	0.022
-200.333	-125.007	-0.300	-0.045
-199.319	-98.225	0.102	-0.026
-198.304	-80.380	0.130	-0.042
-197.290	100.769	-0.077	0.088
-196.275	-200.000	-0.026	0.344
-195.260	-69.150	0.300	-0.113
-194.246	25.680	-0.280	0.228
-193.231	-200.000	-0.019	-0.225
-192.217	247.209	-0.039	-0.064
-191.202	5.517	0.293	-0.211
-190.187	-5.996	0.064	-0.043
-189.173	-200.000	0.017	-0.156
-188.158	26.411	0.240	0.195
-187.144	-67.236	0.407	-0.156
-186.129	-200.000	-0.062	0.328
-185.114	286.627	-0.116	0.204
-184.100	-200.000	0.000	0.259
-183.085	97.572	-0.089	0.099
-182.071	128.714	0.094	0.117
-181.056	-85.693	0.222	0.067
-180.042	68.080	0.089	-0.089
-179.027	61.174	0.169	0.163
-178.012	-34.294	0.349	-0.187
-176.998	-200.000	-0.008	-0.244
-175.983	272.765	0.085	0.147
-174.969	125.245	-0.126	-0.154
-173.954	58.129	0.112	0.107
-172.939	-137.500	0.072	0.008
-171.925	-200.000	0.012	-0.075
-170.910	800.000	-0.094	0.315
-169.896	-115.815	0.068	0.012
-168.881	-127.109	0.204	0.029
-167.866	-98.981	-0.203	-0.050
-166.852	63.319	-0.288	0.282
-165.837	182.980	-0.350	-0.504
-164.823	-200.000	0.001	-0.098
-163.808	222.588	0.073	0.115
-162.793	-200.000	0.005	0.141
-161.779	205.556	-0.055	0.084
-160.764	-200.000	0.007	0.044
-159.750	-147.777	0.213	0.017
-158.735	232.250	0.049	0.078
-157.720	227.548	-0.078	-0.124
-156.706	84.399	-0.124	0.132
-155.691	587.421	0.078	-0.187
-154.677	-63.982	0.004	-0.002
-153.662	-178.406	0.228	-0.005
-152.647	113.100	-0.034	-0.040
-151.633	47.618	-0.246	-0.224
-150.618	800.000	0.082	-0.331
-149.604	-51.600	0.017	0.008
-148.589	-200.000	0.007	-0.192
-147.574	-23.365	-0.116	0.068
-146.560	-103.575	0.208	-0.048
-145.545	-33.179	0.318	0.172
-144.531	154.134	-0.116	-0.155
-143.516	-14.299	0.200	-0.125
-142.502	398.150	0.089	0.181
-141.487	-181.596	0.362	0.007
-140.472	-200.000	-0.026	0.169
-139.458	-57.371	-0.251	0.107
-138.443	-73.178	0.253	0.090
-137.429	75.600	0.252	0.259
-136.414	636.354	-0.073	-0.181
-135.399	-54.732	-0.046	-0.020
-134.385	-78.411	0.250	0.084
-133.370	185.756	0.226	0.328
-132.356	-200.000	0.052	-0.419
-131.341	-1.946	0.288	0.197
-130.326	86.044	-0.031	0.034
-129.312	-200.000	0.058	0.401
-128.297	480.868	0.055	-0.121
-127.283	175.847	0.195	-0.275
-126.268	-35.401	-0.198	-0.105
-125.253	695.972	0.026	-0.066
-124.239	-89.044	-0.112	0.032
-123.224	348.117	0.165	-0.317
-122.210	789.945	0.035	0.093
-121.195	-21.962	-0.251	-0.149
