DTS Sentinel unit serial number:	SN413079Multiplexer serial number:	ORYXHardware model number:	OX4-SRSoftware version number:	ORYX F/W v4.00 Oryx Data Collector v3.7.2.0data status	okinstallation	princeton_trtdifferential loss correction	single-endedforward channel	channel 2reverse channel	N/Adate	2019/09/12time	10:33:11forward acquisition time	60.00reverse acquisition time	0.00gamma	496.2192k internal	0.2310k external	0.2310temperature offset calibration	1.0068default loss term (dB/km)	0.3790temperature slope calibration	1.0000multiplexer offset coefficient	1.0000multiplexer slope coefficient	1.0000fibre end	0.00T internal ref (°C)	37.19T ext. ref 1 (°C)	1.88T ext. ref 2 (°C)	35.15length (m)	temperature (°C)	Stokes	anti-Stokes-747.200	-54.163	-0.206	-0.095
-746.185	-200.000	-0.010	0.191
-745.171	-153.671	0.257	0.018
-744.156	-130.786	-0.330	0.045
-743.142	51.934	0.101	0.098
-742.127	370.342	-0.141	0.290
-741.112	-111.886	-0.077	-0.016
-740.098	800.000	-0.046	-0.135
-739.083	-200.000	0.035	0.352
-738.069	-9.597	-0.132	0.089
-737.054	-60.074	0.186	-0.081
-736.039	-92.032	0.106	0.031
-735.025	800.000	0.022	0.082
-734.010	800.000	0.079	-0.252
-732.996	717.825	-0.011	0.030
-731.981	-0.496	0.146	-0.105
-730.966	-53.445	-0.276	0.128
-729.952	-107.452	0.054	0.012
-728.937	-56.557	-0.131	-0.059
-727.923	-157.218	0.269	0.017
-726.908	-13.663	-0.211	0.138
-725.894	-200.000	0.013	-0.134
-724.879	-98.945	-0.307	0.079
-723.864	54.166	0.085	-0.083
-722.850	39.056	0.023	-0.021
-721.835	-48.921	0.034	-0.017
-720.821	114.731	-0.194	0.240
-719.806	-66.576	0.270	-0.109
-718.791	-58.801	-0.164	0.072
-717.777	-200.000	0.011	0.133
-716.762	-36.208	0.301	-0.165
-715.748	39.821	-0.136	0.124
-714.733	313.328	-0.133	0.254
-713.718	37.118	-0.065	-0.058
-712.704	723.007	0.030	-0.082
-711.689	-20.238	-0.222	0.139
-710.675	73.489	-0.063	0.067
-709.660	-200.000	0.063	-0.299
-708.645	-51.788	-0.171	0.081
-707.631	313.841	-0.089	0.169
-706.616	-102.472	-0.229	0.056
-705.602	-177.159	0.231	-0.006
-704.587	37.267	-0.117	-0.105
-703.572	-200.000	-0.008	0.042
-702.558	152.506	0.039	0.054
-701.543	153.650	0.086	-0.119
-700.529	629.336	-0.047	0.120
-699.514	-175.038	-0.329	0.009
-698.499	-76.930	-0.275	-0.097
-697.485	-93.692	0.168	0.047
-696.470	104.489	0.221	-0.264
-695.456	-200.000	-0.487	-0.002
-694.441	-30.368	-0.379	-0.218
-693.426	-91.046	0.242	-0.070
-692.412	800.000	-0.040	0.137
-691.397	-192.282	-0.128	-0.001
-690.383	-200.000	-0.035	-0.324
-689.368	800.000	-0.121	0.353
-688.354	-104.167	-0.226	-0.053
-687.339	-48.502	0.282	-0.137
-686.324	77.083	-0.201	-0.217
-685.310	800.000	0.122	-0.454
-684.295	44.329	0.189	-0.176
-683.281	800.000	-0.030	0.126
-682.266	143.767	-0.221	0.298
-681.251	-29.021	-0.346	-0.201
-680.237	-92.290	-0.137	0.039
-679.222	-200.000	-0.029	0.243
-678.208	369.498	-0.129	-0.264
-677.193	26.106	-0.164	-0.138
-676.178	-89.336	0.118	0.035
-675.164	43.655	0.122	-0.113
-674.149	-37.088	-0.235	0.127
-673.135	-200.000	-0.029	0.140
-672.120	368.531	0.036	-0.074
-671.105	-102.137	0.240	-0.058
-670.091	186.542	0.189	0.285
-669.076	-159.149	0.194	0.011
-668.062	-75.525	0.043	0.015
-667.047	-104.566	-0.177	-0.041
-666.032	-200.000	-0.001	-0.052
-665.018	-105.111	0.253	-0.059
-664.003	800.000	-0.073	-0.244
-662.989	-139.312	-0.200	0.022
-661.974	29.804	-0.041	-0.036
-660.959	-200.000	0.016	0.286
-659.945	-200.000	-0.028	0.209
-658.930	550.154	-0.038	0.092
-657.916	47.333	0.139	0.131
-656.901	95.363	0.114	-0.132
-655.886	312.811	-0.083	-0.158
-654.872	-6.386	0.243	0.168
-653.857	76.871	0.255	-0.274
-652.843	2.613	0.082	0.060
-651.828	-182.039	0.383	0.007
-650.814	-200.000	0.001	-0.029
-649.799	-200.000	-0.005	-0.027
-648.784	800.000	0.081	-0.262
-647.770	137.579	-0.140	-0.186
-646.755	37.050	0.092	0.083
-645.741	-105.454	-0.309	0.071
-644.726	166.694	-0.166	-0.238
-643.711	-200.000	-0.013	0.069
-642.697	-102.556	-0.220	0.053
-641.682	-157.373	0.128	-0.008
-640.668	-192.690	-0.181	-0.002
-639.653	-46.708	0.407	0.201
-638.638	-131.881	0.459	-0.061
-637.624	115.676	-0.139	0.172
-636.609	-30.849	0.032	-0.018
-635.595	-7.726	-0.424	0.290
-634.580	310.071	-0.061	-0.116
-633.565	31.232	-0.262	0.227
-632.551	-129.192	0.197	-0.028
-631.536	140.184	0.009	0.013
-630.522	253.960	-0.148	-0.256
-629.507	40.669	-0.111	-0.101
-628.492	800.000	-0.128	-0.382
-627.478	-68.524	-0.254	-0.100
-626.463	-34.755	0.213	-0.118
-625.449	3.112	0.114	-0.084
-624.434	-22.342	0.061	0.037
-623.419	72.906	0.124	-0.131
-622.405	38.955	-0.088	0.079
-621.390	106.039	-0.105	0.125
-620.376	-16.559	-0.159	-0.101
-619.361	-69.380	0.039	0.015
-618.346	-200.000	0.041	0.226
-617.332	-46.810	-0.243	-0.120
-616.317	800.000	-0.103	0.346
-615.303	-108.134	0.164	0.036
-614.288	-163.655	-0.217	0.010
-613.273	100.218	0.058	0.068
-612.259	-200.000	-0.030	0.363
-611.244	-134.279	0.237	-0.029
-610.230	-158.870	0.205	0.012
-609.215	-87.625	-0.381	0.116
-608.201	284.788	0.050	-0.092
-607.186	-200.000	0.022	-0.226
-606.171	-10.842	-0.145	-0.097
-605.157	18.667	0.096	0.077
-604.142	94.943	-0.112	0.129
-603.128	-200.000	-0.010	0.233
-602.113	364.779	-0.056	-0.115
-601.098	-83.340	0.390	-0.126
-600.084	-81.683	0.200	-0.066
-599.069	-20.068	-0.225	-0.140
-598.055	285.728	-0.082	0.149
-597.040	100.041	-0.071	0.083
-596.025	800.000	-0.053	-0.178
-595.011	415.770	0.169	-0.364
-593.996	-200.000	-0.020	0.101
-592.982	800.000	0.019	0.052
-591.967	-124.886	-0.278	-0.043
-590.952	94.437	-0.200	0.229
-589.938	110.677	-0.061	-0.074
-588.923	-32.258	-0.202	0.114
-587.909	54.519	0.105	0.102
-586.894	22.637	-0.216	0.179
-585.879	-200.000	0.005	-0.262
-584.865	42.722	0.391	0.359
-583.850	-145.455	0.229	-0.021
-582.836	474.136	-0.086	0.195
-581.821	-127.095	0.198	-0.029
-580.806	67.481	-0.201	-0.207
-579.792	-9.016	-0.062	-0.042
-578.777	-184.476	-0.148	0.002
-577.763	-200.000	0.012	0.182
-576.748	19.734	-0.137	0.111
-575.733	-165.826	-0.203	-0.009
-574.719	156.881	0.045	-0.062
-573.704	483.495	0.094	-0.216
-572.690	-79.781	-0.318	-0.108
-571.675	800.000	0.080	-0.313
-570.661	9.187	0.426	-0.325
-569.646	57.807	0.096	-0.095
-568.631	-200.000	-0.001	-0.133
-567.617	544.834	0.114	0.276
-566.602	-13.733	0.105	-0.068
-565.588	201.732	-0.089	-0.138
-564.573	-200.000	-0.021	-0.134
-563.558	-200.000	0.002	-0.365
-562.544	-20.285	-0.170	-0.106
-561.529	-137.498	-0.250	0.028
-560.515	15.819	0.270	-0.214
-559.500	189.174	0.113	0.170
-558.485	-143.437	0.314	-0.030
-557.471	21.752	0.224	0.184
-556.456	-200.000	-0.005	0.305
-555.442	-47.940	0.396	0.193
-554.427	-11.552	-0.337	0.223
-553.412	-15.704	0.273	-0.176
-552.398	-200.000	-0.041	-0.347
-551.383	15.022	0.174	-0.137
-550.369	-40.549	-0.198	-0.103
-549.354	38.279	0.115	0.103
-548.339	31.853	-0.178	-0.154
-547.325	-91.254	0.267	-0.077
-546.310	-82.794	0.156	-0.051
-545.296	-125.998	-0.426	0.065
-544.281	-29.975	-0.443	0.254
-543.266	800.000	-0.073	0.244
-542.252	398.145	-0.106	-0.223
-541.237	123.904	-0.078	-0.099
-540.223	-8.450	0.155	-0.105
-539.208	215.838	-0.198	-0.317
-538.193	-110.703	-0.126	-0.026
-537.179	275.615	-0.178	-0.319
-536.164	-16.270	0.276	0.176
-535.150	-71.543	0.262	0.099
-534.135	-200.000	-0.022	0.202
-533.121	-200.000	0.021	0.219
-532.106	13.182	0.167	0.130
-531.091	-200.000	0.015	0.420
-530.077	-200.000	0.013	-0.072
-529.062	-57.707	-0.143	0.063
-528.048	163.936	0.027	-0.038
-527.033	-88.193	0.458	-0.138
-526.018	-69.308	0.325	0.126
-525.004	107.795	-0.040	-0.048
-523.989	21.794	-0.135	-0.110
-522.975	-200.000	-0.004	-0.207
-521.960	-91.319	-0.023	-0.007
-520.945	-91.671	-0.161	-0.046
-519.931	800.000	-0.065	-0.251
-518.916	165.693	0.153	0.218
-517.902	-92.053	0.101	-0.029
-516.887	-48.871	0.236	0.114
-515.872	142.725	-0.016	0.021
-514.858	-30.960	-0.098	-0.056
-513.843	-87.615	-0.244	-0.074
-512.829	-134.265	0.357	-0.044
-511.814	252.859	0.249	-0.428
-510.799	7.455	-0.377	0.283
-509.785	421.039	-0.076	-0.164
-508.770	-32.522	-0.192	-0.107
-507.756	-200.000	-0.025	0.223
-506.741	278.772	0.098	-0.176
-505.726	800.000	0.059	0.202
-504.712	313.743	-0.191	-0.361
-503.697	-65.298	0.133	-0.054
-502.683	-78.415	0.095	0.033
-501.668	800.000	0.112	-0.368
-500.653	514.461	0.122	-0.287
-499.639	-22.560	-0.314	0.191
-498.624	-200.000	0.047	0.508
-497.610	660.707	0.010	0.027
-496.595	-122.377	-0.438	-0.072
-495.581	443.485	-0.106	-0.234
-494.566	188.260	0.063	-0.095
-493.551	467.974	-0.067	-0.150
-492.537	184.583	-0.032	-0.048
-491.522	6.561	0.162	-0.121
-490.508	151.328	-0.084	0.115
-489.493	-59.867	-0.321	-0.138
-488.478	-200.000	0.005	-0.064
-487.464	-200.000	-0.040	-0.239
-486.449	-200.000	0.026	-0.231
-485.435	-200.000	-0.010	0.299
-484.420	-38.144	-0.126	0.067
-483.405	-200.000	0.016	0.077
-482.391	-98.902	0.205	-0.052
-481.376	-200.000	0.031	-0.153
-480.362	-78.628	0.073	-0.025
-479.347	53.940	-0.119	-0.115
-478.332	800.000	0.081	-0.233
-477.318	-200.000	0.020	0.122
-476.303	-86.744	0.190	-0.058
-475.289	-48.371	0.130	-0.063
-474.274	268.414	0.031	-0.054
-473.259	722.811	0.034	-0.092
-472.245	46.026	-0.245	-0.228
-471.230	123.782	0.059	0.074
-470.216	528.306	0.071	-0.169
-469.201	-27.295	-0.145	0.085
-468.186	134.876	-0.034	0.044
-467.172	-108.614	0.089	-0.019
-466.157	-68.487	-0.234	-0.091
-465.143	-200.000	0.002	-0.017
-464.128	255.622	0.262	0.452
-463.113	-88.722	0.275	0.082
-462.099	414.974	0.167	-0.358
-461.084	-5.658	0.182	-0.125
-460.070	6.614	0.037	0.028
-459.055	-116.377	0.334	-0.062
-458.040	104.339	-0.035	-0.041
-457.026	-198.112	0.210	0.001
-456.011	25.539	0.049	0.041
-454.997	76.190	0.187	0.199
-453.982	-95.183	0.276	0.075
-452.968	-35.135	-0.274	-0.150
-451.953	-127.380	-0.021	-0.003
-450.938	-103.302	0.069	0.016
-449.924	800.000	-0.070	0.224
-448.909	684.992	0.072	-0.188
-447.895	453.283	0.068	-0.151
-446.880	-200.000	0.004	-0.091
-445.865	237.961	-0.215	0.358
-444.851	-200.000	0.020	0.168
-443.836	-200.000	0.004	0.254
-442.822	-161.009	-0.323	-0.017
-441.807	-99.776	0.257	0.064
-440.792	-70.093	0.221	-0.084
-439.778	-200.000	0.064	0.296
-438.763	-200.000	0.041	0.251
-437.749	800.000	-0.021	0.088
-436.734	38.798	-0.136	-0.122
-435.719	130.895	0.273	0.352
-434.705	-71.249	0.174	0.065
-433.690	13.199	0.060	0.047
-432.676	-60.195	0.282	0.120
-431.661	-35.416	-0.376	-0.205
-430.646	215.184	-0.051	-0.081
-429.632	-200.000	0.001	0.347
-428.617	11.832	0.068	-0.052
-427.603	326.449	0.140	-0.269
-426.588	195.617	-0.104	-0.158
-425.573	-200.000	-0.056	-0.253
-424.559	471.176	-0.100	-0.226
-423.544	-104.878	-0.409	0.094
-422.530	-200.000	-0.048	-0.414
-421.515	-200.000	0.028	0.183
-420.500	-106.909	-0.048	0.011
-419.486	-50.493	-0.009	-0.004
-418.471	273.618	0.109	-0.193
-417.457	800.000	0.061	-0.199
-416.442	-139.933	-0.046	-0.005
-415.428	-195.276	0.093	0.001
-414.413	-200.000	-0.043	-0.472
-413.398	619.709	0.098	-0.247
-412.384	7.996	-0.053	-0.040
-411.369	358.069	-0.067	-0.134
-410.355	-83.119	0.138	-0.044
-409.340	-25.035	-0.080	-0.048
-408.325	37.925	-0.297	0.264
-407.311	149.720	0.128	-0.173
-406.296	-185.978	-0.174	0.003
-405.282	-200.000	0.001	0.198
-404.267	-64.196	0.147	0.060
-403.252	-200.000	-0.023	-0.185
-402.238	-135.516	0.013	-0.002
-401.223	-36.666	0.090	-0.048
-400.209	139.763	0.015	0.019
-399.194	63.732	-0.159	0.160
-398.179	-142.769	-0.259	-0.025
-397.165	-200.000	0.012	-0.055
-396.150	325.988	0.191	0.366
-395.136	-42.182	0.170	-0.087
-394.121	-200.000	0.045	-0.210
-393.106	-52.881	-0.424	0.196
-392.092	800.000	0.032	0.109
-391.077	-152.180	-0.133	-0.010
-390.063	-74.625	-0.340	-0.123
-389.048	114.649	-0.108	0.132
-388.033	-200.000	-0.003	0.047
-387.019	157.284	0.210	-0.291
-386.004	800.000	-0.086	-0.278
-384.990	-100.626	-0.300	-0.074
-383.975	616.650	-0.127	0.319
-382.960	666.366	-0.130	0.337
-381.946	212.625	0.056	-0.089
-380.931	-200.000	-0.020	-0.277
-379.917	-76.824	0.350	-0.123
-378.902	39.846	-0.290	-0.261
-377.888	-200.000	-0.013	-0.213
-376.873	-101.888	-0.375	-0.091
-375.858	178.279	-0.098	-0.143
-374.844	800.000	0.043	-0.144
-373.829	-55.687	-0.110	-0.049
-372.815	-33.257	-0.009	0.005
-371.800	-91.509	0.281	-0.080
-370.785	44.071	0.059	-0.054
-369.771	178.210	0.137	0.200
-368.756	92.632	0.197	-0.222
-367.742	-200.000	0.021	-0.177
-366.727	103.302	-0.095	0.111
-365.712	-185.299	-0.138	0.002
-364.698	800.000	-0.083	-0.261
-363.683	53.113	-0.075	-0.072
-362.669	-40.856	0.194	0.101
-361.654	-200.000	-0.009	-0.069
-360.639	800.000	-0.053	0.163
-359.625	-178.308	0.169	-0.004
-358.610	13.731	-0.263	0.204
-357.596	659.778	-0.137	0.353
-356.581	297.605	-0.131	0.241
-355.566	-200.000	-0.007	-0.184
-354.552	-200.000	-0.067	-0.398
-353.537	-105.378	0.193	-0.044
-352.523	168.464	0.103	0.146
-351.508	-76.276	0.286	0.101
-350.493	-200.000	-0.006	0.271
-349.479	-90.802	0.115	0.033
-348.464	337.484	-0.070	-0.136
-347.450	107.902	-0.110	-0.131
-346.435	485.621	0.085	-0.193
-345.420	148.141	0.128	0.172
-344.406	108.415	-0.067	0.079
-343.391	34.460	0.189	-0.165
-342.377	-160.687	0.210	-0.011
-341.362	-120.770	-0.377	0.064
-340.348	-89.028	0.478	0.141
-339.333	371.502	-0.145	0.294
-338.318	176.536	0.196	0.285
-337.304	435.774	-0.191	0.415
-336.289	-200.000	-0.093	0.444
-335.275	-200.000	0.046	0.575
-334.260	697.435	-0.022	-0.057
-333.245	-190.000	0.273	-0.003
-332.231	-200.000	0.024	0.210
-331.216	207.925	-0.069	-0.108
-330.202	-88.723	-0.151	-0.045
-329.187	-200.000	0.017	-0.086
-328.172	-163.951	-0.107	0.005
-327.158	-200.000	-0.022	0.123
-326.143	-200.000	-0.013	-0.309
-325.129	-158.412	-0.268	-0.016
-324.114	78.210	0.215	0.229
-323.099	-87.575	0.112	-0.034
-322.085	800.000	0.073	-0.205
-321.070	800.000	-0.034	0.109
-320.056	-45.264	0.066	0.033
-319.041	-60.450	-0.208	0.088
-318.026	-139.276	0.227	-0.024
-317.012	-75.370	-0.263	0.093
-315.997	-122.187	0.148	-0.024
-314.983	-62.490	-0.209	-0.087
-313.968	800.000	0.028	0.114
-312.953	755.844	-0.133	-0.359
-311.939	144.169	-0.072	0.096
-310.924	-113.674	0.371	0.072
-309.910	-200.000	0.027	-0.182
-308.895	-16.401	0.161	-0.102
-307.880	79.844	-0.323	0.347
-306.866	327.809	-0.115	0.220
-305.851	-200.000	0.045	-0.375
-304.837	-78.481	0.174	-0.060
-303.822	101.425	-0.196	0.228
-302.807	-143.168	0.280	0.027
-301.793	-62.582	0.109	0.045
-300.778	-45.577	-0.109	-0.054
-299.764	3.256	0.132	-0.096
-298.749	504.119	-0.041	-0.094
-297.735	246.864	0.215	0.362
-296.720	800.000	0.033	0.144
-295.705	-200.000	0.029	0.142
-294.691	-80.513	-0.257	0.085
-293.676	21.284	0.075	0.061
-292.662	-51.701	-0.341	0.159
-291.647	-65.628	0.348	-0.139
-290.632	-200.000	-0.027	0.298
-289.618	800.000	-0.086	0.242
-288.603	22.162	-0.148	-0.121
-287.589	8.202	-0.092	0.069
-286.574	212.861	0.137	0.216
-285.559	205.095	-0.235	0.365
-284.545	352.228	0.159	-0.315
-283.530	-35.769	-0.219	-0.118
-282.516	800.000	0.061	0.262
-281.501	-97.184	0.201	0.052
-280.486	-17.828	0.221	-0.138
-279.472	-88.899	-0.363	0.107
-278.457	-59.251	-0.064	-0.027
-277.443	-107.992	0.335	0.072
-276.428	-177.506	-0.314	-0.008
-275.413	19.459	-0.146	0.117
-274.399	-200.000	0.035	0.218
-273.384	686.638	-0.083	0.215
-272.370	147.967	0.183	-0.246
-271.355	-72.850	-0.196	0.072
-270.340	-49.530	0.299	-0.142
-269.326	-75.853	0.025	0.009
-268.311	118.818	0.009	0.011
-267.297	95.570	0.036	0.041
-266.282	800.000	0.105	-0.352
-265.267	-103.722	0.063	0.015
-264.253	170.549	-0.132	0.189
-263.238	800.000	0.058	0.188
-262.224	27.202	-0.109	-0.091
-261.209	-166.735	0.365	-0.015
-260.195	547.472	0.033	-0.080
-259.180	-200.000	0.039	0.188
-258.165	484.425	-0.065	-0.148
-257.151	-149.653	0.273	-0.021
-256.136	42.823	0.126	0.115
-255.122	-5.896	0.125	-0.085
-254.107	800.000	0.041	0.125
-253.092	178.203	0.087	-0.127
-252.078	-47.374	0.360	-0.175
-251.063	-200.000	0.004	-0.137
-250.049	-128.504	0.256	0.036
-249.034	48.189	-0.255	-0.237
-248.019	-116.419	0.183	-0.034
-247.005	273.355	0.158	-0.278
-245.990	749.861	-0.167	-0.449
-244.976	-115.000	0.145	-0.027
-243.961	-27.694	0.196	-0.114
-242.946	208.173	-0.041	-0.063
-241.932	468.181	0.054	0.121
-240.917	-18.167	-0.264	0.165
-239.903	-16.503	-0.259	0.163
-238.888	-65.918	0.034	-0.014
-237.873	332.695	-0.082	0.157
-236.859	492.902	-0.084	-0.191
-235.844	-17.238	0.195	0.122
-234.830	-200.000	0.003	0.086
-233.815	57.097	-0.148	-0.144
-232.800	40.403	0.147	0.132
-231.786	-111.440	0.402	0.081
-230.771	240.653	-0.133	-0.221
-229.757	-15.626	0.112	-0.071
-228.742	-32.939	0.376	0.208
-227.727	-200.000	0.008	0.236
-226.713	800.000	0.080	-0.227
-225.698	64.210	0.034	0.034
-224.684	-200.000	0.005	0.169
-223.669	6.895	-0.094	-0.069
-222.655	-200.000	0.028	0.149
-221.640	-200.000	0.041	0.309
-220.625	-200.000	-0.039	0.272
-219.611	8.973	-0.131	-0.098
-218.596	254.076	-0.099	-0.169
-217.582	518.019	0.080	0.186
-216.567	-200.000	0.024	0.195
-215.552	21.138	-0.222	0.179
-214.538	-47.509	0.170	-0.082
-213.523	154.903	0.097	0.132
-212.509	-88.663	-0.222	-0.066
-211.494	18.874	-0.297	0.237
-210.479	516.490	-0.130	-0.302
-209.465	52.375	-0.198	-0.188
-208.450	-113.001	0.263	-0.052
-207.436	277.444	0.232	-0.411
-206.421	-200.000	0.017	-0.127
-205.406	-199.664	-0.368	-0.002
-204.392	800.000	0.056	-0.162
-203.377	-32.163	0.179	0.100
-202.363	65.598	0.104	0.105
-201.348	263.385	0.050	-0.087
-200.333	196.820	0.032	-0.049
-199.319	-200.000	-0.005	-0.122
-198.304	411.471	-0.144	-0.303
-197.290	0.538	-0.198	-0.141
-196.275	800.000	0.026	0.113
-195.260	16.232	0.136	0.107
-194.246	-71.383	-0.110	-0.041
-193.231	-94.614	0.315	0.085
-192.217	-200.000	-0.040	0.345
-191.202	-200.000	0.015	0.421
-190.187	-153.943	-0.325	0.022
-189.173	-79.662	-0.183	0.061
-188.158	167.701	-0.063	0.089
-187.144	-29.734	0.136	0.077
-186.129	-136.574	-0.280	-0.032
-185.114	187.145	0.135	0.199
-184.100	800.000	-0.062	0.200
-183.085	51.523	0.068	0.064
-182.071	-182.767	0.006	0.000
-181.056	418.525	0.155	0.329
-180.042	118.725	-0.165	-0.202
-179.027	54.861	0.105	-0.101
-178.012	-200.000	0.005	-0.057
-176.998	-104.553	0.366	0.084
-175.983	-200.000	-0.043	0.229
-174.969	6.710	-0.018	0.013
-173.954	85.099	-0.164	-0.178
-172.939	-25.355	-0.238	0.140
-171.925	-1.959	0.424	-0.296
-170.910	-200.000	0.043	-0.218
-169.896	-200.000	0.007	0.048
-168.881	615.605	-0.134	0.335
-167.866	-200.000	-0.039	0.366
-166.852	-153.659	-0.131	0.009
-165.837	-72.787	-0.297	0.109
-164.823	-30.484	0.245	-0.138
-163.808	213.336	0.215	-0.337
-162.793	800.000	-0.058	0.200
-161.779	-36.371	-0.059	-0.031
-160.764	99.787	0.126	-0.144
-159.750	800.000	-0.075	0.245
-158.735	-102.942	-0.382	-0.090
-157.720	315.122	-0.084	0.157
-156.706	48.244	-0.026	0.024
-155.691	-148.203	-0.389	0.032
-154.677	57.783	0.047	-0.046
-153.662	-200.000	-0.002	0.083
-152.647	736.646	-0.115	0.305
-151.633	362.611	-0.119	-0.237
-150.618	249.259	0.212	0.357
-149.604	-8.614	-0.081	-0.054
-148.589	122.258	0.242	-0.299
-147.574	-10.243	0.148	-0.098
-146.560	38.756	0.076	-0.067
-145.545	423.593	-0.042	-0.089
-144.531	71.338	-0.160	0.164
-143.516	-28.730	-0.072	-0.041
-142.502	11.517	0.217	0.165
-141.487	203.352	0.166	-0.255
-140.472	-56.631	-0.178	0.078
-139.458	258.202	0.129	-0.220
-138.443	-37.169	0.093	-0.049
-137.429	139.578	0.164	-0.214
-136.414	-55.193	-0.252	0.112
-135.399	-145.339	-0.339	-0.030
-134.385	-63.921	0.143	-0.058
-133.370	-44.566	-0.190	-0.094
-132.356	800.000	-0.073	0.274
-131.341	-200.000	0.024	0.179
-130.326	-41.541	0.207	-0.105
-129.312	-142.005	0.094	-0.009
-128.297	800.000	-0.076	0.217
-127.283	-108.433	-0.200	0.043
-126.268	-110.171	0.127	0.026
-125.253	-89.884	-0.218	-0.063
-124.239	-16.188	-0.133	-0.084
-123.224	-200.000	0.043	-0.296
-122.210	-117.412	0.336	-0.060
