DTS Sentinel unit serial number:	SN413079Multiplexer serial number:	ORYXHardware model number:	OX4-SRSoftware version number:	ORYX F/W v4.00 Oryx Data Collector v3.7.2.0data status	okinstallation	princeton_trtdifferential loss correction	single-endedforward channel	channel 2reverse channel	N/Adate	2019/09/12time	04:53:11forward acquisition time	60.00reverse acquisition time	0.00gamma	496.2192k internal	0.2326k external	0.2326temperature offset calibration	1.0086default loss term (dB/km)	0.3790temperature slope calibration	1.0000multiplexer offset coefficient	1.0000multiplexer slope coefficient	1.0000fibre end	0.00T internal ref (°C)	31.69T ext. ref 1 (°C)	1.89T ext. ref 2 (°C)	27.18length (m)	temperature (°C)	Stokes	anti-Stokes-747.200	316.537	-0.150	0.285
-746.185	800.000	-0.101	0.338
-745.171	-200.000	0.005	-0.377
-744.156	18.311	-0.064	0.052
-743.142	-160.542	-0.179	0.010
-742.127	421.710	0.122	0.265
-741.112	-200.000	-0.049	-0.275
-740.098	510.235	-0.064	0.151
-739.083	-195.253	0.178	-0.001
-738.069	-51.908	-0.185	0.087
-737.054	-88.264	-0.208	0.063
-736.039	318.634	0.086	-0.164
-735.025	-200.000	-0.035	0.236
-734.010	321.526	-0.113	-0.217
-732.996	-0.852	-0.257	-0.183
-731.981	-200.000	0.015	-0.137
-730.966	365.087	0.018	0.036
-729.952	235.279	0.131	-0.217
-728.937	-78.662	-0.234	0.080
-727.923	165.601	0.071	0.102
-726.908	-159.735	-0.203	-0.011
-725.894	-200.000	-0.008	-0.177
-724.879	-76.268	0.364	0.129
-723.864	479.861	-0.138	-0.315
-722.850	-104.302	-0.276	-0.065
-721.835	-149.207	-0.124	0.010
-720.821	-187.205	0.237	0.003
-719.806	215.130	0.066	-0.105
-718.791	45.590	-0.248	0.231
-717.777	661.426	-0.137	-0.355
-716.762	686.292	-0.110	0.289
-715.748	-200.000	-0.016	0.437
-714.733	-200.000	-0.009	0.187
-713.718	800.000	-0.092	-0.325
-712.704	-38.908	0.230	-0.122
-711.689	-32.651	0.215	0.121
-710.675	-88.270	0.294	-0.089
-709.660	-130.696	0.205	0.028
-708.645	114.591	0.240	-0.295
-707.631	-49.228	0.300	0.144
-706.616	-141.491	-0.363	0.037
-705.602	3.064	-0.259	-0.189
-704.587	-39.993	0.220	-0.116
-703.572	11.002	0.038	0.030
-702.558	-200.000	-0.008	-0.387
-701.543	-200.000	0.077	-0.352
-700.529	-146.692	-0.197	0.017
-699.514	99.640	0.155	0.180
-698.499	48.634	-0.084	0.079
-697.485	280.301	-0.050	0.090
-696.470	-186.238	-0.466	0.007
-695.456	800.000	0.065	-0.212
-694.441	-159.058	0.138	0.008
-693.426	-70.366	0.220	0.084
-692.412	549.919	-0.013	-0.031
-691.397	321.497	0.146	-0.279
-690.383	800.000	0.037	0.146
-689.368	34.333	0.092	0.081
-688.354	148.256	-0.293	0.398
-687.339	-76.359	-0.231	-0.082
-686.324	470.863	0.044	-0.100
-685.310	492.943	-0.063	0.145
-684.295	-129.633	-0.216	-0.030
-683.281	800.000	-0.076	-0.249
-682.266	-182.412	-0.295	0.005
-681.251	365.109	0.016	-0.032
-680.237	115.464	-0.241	0.297
-679.222	95.968	0.203	0.234
-678.208	346.628	0.052	-0.103
-677.193	44.409	0.266	0.246
-676.178	-106.555	0.231	-0.052
-675.164	315.413	0.104	-0.197
-674.149	-70.317	-0.207	-0.079
-673.135	190.818	-0.090	-0.137
-672.120	-200.000	0.055	0.254
-671.105	-200.000	-0.048	0.212
-670.091	-1.485	-0.362	0.257
-669.076	-200.000	0.006	-0.511
-668.062	800.000	0.040	0.123
-667.047	-200.000	-0.056	-0.379
-666.032	-150.219	-0.475	-0.037
-665.018	65.980	0.233	-0.238
-664.003	27.718	-0.059	0.050
-662.989	369.165	-0.183	0.372
-661.974	-139.467	0.164	0.018
-660.959	94.901	0.132	0.151
-659.945	58.899	-0.074	0.073
-658.930	133.561	-0.191	-0.249
-657.916	608.252	-0.035	0.088
-656.901	88.034	0.157	-0.175
-655.886	639.918	0.063	0.162
-654.872	-6.330	0.135	0.093
-653.857	-48.041	0.080	0.039
-652.843	-96.482	-0.120	-0.032
-651.828	-65.968	-0.193	0.077
-650.814	34.086	-0.189	-0.165
-649.799	-160.280	0.249	0.013
-648.784	156.362	0.174	0.241
-647.770	-200.000	0.031	-0.294
-646.755	800.000	0.089	-0.369
-645.741	58.200	-0.171	-0.168
-644.726	75.271	0.202	-0.214
-643.711	-44.908	-0.302	0.151
-642.697	-200.000	-0.033	-0.266
-641.682	493.750	-0.133	0.307
-640.668	56.031	0.146	-0.143
-639.653	-103.355	-0.157	0.037
-638.638	-79.360	0.208	-0.071
-637.624	464.302	0.024	0.054
-636.609	-92.871	-0.304	0.085
-635.595	-79.896	0.230	0.078
-634.580	800.000	-0.039	0.143
-633.565	25.036	0.191	-0.159
-632.551	-76.178	-0.049	-0.017
-631.536	18.767	-0.268	0.215
-630.522	800.000	-0.069	-0.205
-629.507	-50.203	0.072	-0.034
-628.492	34.981	-0.108	-0.095
-627.478	-200.000	0.002	0.019
-626.463	-200.000	0.003	0.022
-625.449	-126.976	-0.048	0.007
-624.434	-71.428	0.316	0.119
-623.419	-109.450	0.188	0.040
-622.405	112.820	-0.138	0.168
-621.390	129.365	0.122	-0.156
-620.376	-96.039	-0.169	-0.045
-619.361	800.000	0.061	0.244
-618.346	-105.224	0.256	-0.059
-617.332	-16.811	0.100	-0.064
-616.317	800.000	0.040	0.140
-615.303	14.682	-0.033	0.026
-614.288	441.576	-0.121	0.265
-613.273	-9.804	-0.045	0.030
-612.259	-81.829	0.231	-0.076
-611.244	-200.000	0.096	0.523
-610.230	-193.436	-0.317	0.003
-609.215	-98.155	-0.144	0.037
-608.201	-27.994	0.166	-0.096
-607.186	-200.000	-0.029	0.189
-606.171	-108.774	0.184	0.040
-605.157	-123.951	0.224	-0.035
-604.142	-200.000	-0.007	-0.066
-603.128	-16.787	0.330	-0.210
-602.113	-86.530	0.158	0.048
-601.098	-200.000	-0.020	0.219
-600.084	88.693	-0.209	0.233
-599.069	-200.000	-0.026	0.267
-598.055	147.967	0.178	0.241
-597.040	-91.475	0.101	-0.029
-596.025	-200.000	0.142	0.687
-595.011	98.905	0.098	-0.113
-593.996	-200.000	-0.039	0.391
-592.982	-76.864	0.294	0.103
-591.967	15.104	-0.185	0.145
-590.952	-200.000	-0.018	-0.130
-589.938	27.002	-0.123	-0.104
-588.923	-30.800	-0.178	-0.101
-587.909	3.870	-0.085	0.063
-586.894	5.342	0.011	-0.008
-585.879	-90.550	0.386	-0.112
-584.865	23.377	0.098	-0.081
-583.850	-163.147	0.063	-0.003
-582.836	150.613	0.093	0.127
-581.821	-200.000	-0.042	0.228
-580.806	21.638	-0.234	-0.191
-579.792	11.103	-0.092	0.071
-578.777	-143.925	0.332	0.031
-577.763	-200.000	0.032	0.188
-576.748	-52.592	0.330	0.153
-575.733	-8.755	0.182	-0.122
-574.719	-200.000	0.013	0.362
-573.704	-10.775	-0.142	0.094
-572.690	-46.128	-0.144	0.071
-571.675	70.890	-0.150	-0.155
-570.661	442.314	0.081	0.177
-569.646	26.902	0.236	0.198
-568.631	159.576	-0.096	0.134
-567.617	140.611	-0.144	0.190
-566.602	-200.000	0.031	-0.215
-565.588	368.261	-0.063	0.127
-564.573	-59.522	-0.120	0.051
-563.558	267.369	-0.069	0.120
-562.544	-200.000	-0.073	-0.401
-561.529	324.558	0.145	-0.277
-560.515	35.650	0.052	0.046
-559.500	538.952	-0.060	-0.142
-558.485	-90.666	0.080	-0.023
-557.471	164.243	-0.060	-0.085
-556.456	-200.000	0.043	-0.402
-555.442	108.798	0.076	0.092
-554.427	-168.855	-0.343	0.013
-553.412	615.502	-0.102	0.257
-552.398	800.000	-0.133	-0.458
-551.383	116.576	-0.131	0.161
-550.369	23.316	-0.092	0.076
-549.354	148.664	-0.199	-0.269
-548.339	347.296	-0.110	0.217
-547.325	-132.580	-0.212	0.027
-546.310	223.851	0.087	-0.141
-545.296	-116.115	-0.157	0.029
-544.281	-200.000	0.014	-0.132
-543.266	433.066	-0.042	0.091
-542.252	16.413	0.034	-0.027
-541.237	211.273	-0.100	0.157
-540.223	-116.889	0.092	0.017
-539.208	-9.315	0.104	-0.070
-538.193	-88.196	0.126	-0.038
-537.179	-162.360	0.216	-0.011
-536.164	-53.392	0.203	0.093
-535.150	-10.449	-0.176	0.117
-534.135	-124.187	-0.134	0.021
-533.121	573.225	-0.175	0.426
-532.106	246.891	-0.233	-0.393
-531.091	5.021	0.216	0.159
-530.077	82.739	-0.089	0.097
-529.062	115.482	-0.105	-0.128
-528.048	-163.297	-0.143	-0.007
-527.033	204.018	-0.052	-0.080
-526.018	-13.181	-0.124	0.081
-525.004	-144.759	-0.216	-0.020
-523.989	357.519	-0.074	0.148
-522.975	-168.388	-0.176	-0.007
-521.960	-31.208	-0.197	-0.111
-520.945	-106.213	-0.106	-0.024
-519.931	-200.000	0.010	0.054
-518.916	106.053	0.125	0.148
-517.902	-89.152	-0.084	-0.025
-516.887	103.285	-0.041	-0.048
-515.872	455.782	0.082	0.183
-514.858	-52.213	-0.142	-0.066
-513.843	-72.462	-0.254	-0.094
-512.829	-73.164	0.192	-0.070
-511.814	-25.828	-0.263	0.155
-510.799	800.000	-0.062	-0.177
-509.785	194.803	-0.130	-0.198
-508.770	43.539	-0.241	0.220
-507.756	-180.690	-0.261	0.005
-506.741	-200.000	0.008	-0.417
-505.726	29.411	-0.171	-0.145
-504.712	653.625	-0.122	0.312
-503.697	13.223	-0.215	0.166
-502.683	800.000	-0.031	0.092
-501.668	398.596	-0.176	0.369
-500.653	-52.708	0.095	0.044
-499.639	96.081	-0.097	0.110
-498.624	800.000	-0.082	0.275
-497.610	242.531	0.106	-0.176
-496.595	500.392	0.158	-0.364
-495.581	-43.725	-0.031	-0.015
-494.566	-97.284	0.071	0.018
-493.551	-118.087	-0.353	-0.063
-492.537	188.229	0.293	-0.438
-491.522	-200.000	-0.016	-0.177
-490.508	-200.000	0.024	0.293
-489.493	125.691	0.176	-0.222
-488.478	-200.000	0.058	-0.255
-487.464	75.997	0.137	-0.145
-486.449	-200.000	0.037	0.244
-485.435	-200.000	0.012	0.116
-484.420	800.000	-0.107	-0.327
-483.405	280.885	-0.077	-0.137
-482.391	156.609	-0.071	0.098
-481.376	42.215	0.190	0.172
-480.362	-93.830	-0.238	-0.065
-479.347	474.181	0.135	0.304
-478.332	-4.559	0.130	-0.090
-477.318	800.000	0.099	-0.329
-476.303	-200.000	0.032	-0.424
-475.289	-200.000	0.060	0.294
-474.274	-200.000	0.018	-0.134
-473.259	92.563	0.300	-0.337
-472.245	-61.511	-0.052	0.022
-471.230	-52.476	-0.092	-0.042
-470.216	26.737	0.155	0.130
-469.201	573.007	-0.106	0.258
-468.186	-110.273	0.443	0.092
-467.172	391.470	-0.125	-0.259
-466.157	-153.303	0.270	0.019
-465.143	-125.952	-0.159	0.024
-464.128	-200.000	0.046	-0.397
-463.113	-200.000	-0.062	0.397
-462.099	410.634	-0.185	0.390
-461.084	-130.653	-0.364	-0.049
-460.070	3.794	0.126	-0.091
-459.055	800.000	-0.007	-0.027
-458.040	-81.088	0.298	0.098
-457.026	-200.000	-0.019	0.394
-456.011	800.000	0.008	0.036
-454.997	105.311	-0.075	-0.088
-453.982	132.803	0.131	0.168
-452.968	544.331	-0.117	0.278
-451.953	16.878	-0.060	-0.047
-450.938	55.934	0.109	0.106
-449.924	-183.091	0.164	0.003
-448.909	-70.828	-0.137	0.051
-447.895	1.868	-0.141	-0.101
-446.880	21.420	0.148	-0.120
-445.865	81.428	0.190	0.204
-444.851	-67.360	-0.091	-0.036
-443.836	-149.140	-0.123	-0.010
-442.822	-82.224	-0.169	-0.055
-441.807	800.000	0.082	-0.255
-440.792	-99.793	-0.108	-0.027
-439.778	-200.000	-0.005	0.097
-438.763	-120.791	-0.178	-0.030
-437.749	-97.370	0.346	-0.090
-436.734	-200.000	0.011	-0.343
-435.719	-30.310	-0.171	-0.097
-434.705	-200.000	-0.037	-0.369
-433.690	213.809	-0.103	-0.162
-432.676	-68.206	-0.292	-0.113
-431.661	-42.018	-0.100	0.051
-430.646	197.459	0.055	0.083
-429.632	-200.000	0.028	-0.299
-428.617	-90.863	-0.196	0.056
-427.603	12.010	0.198	0.152
-426.588	-200.000	0.056	0.358
-425.573	15.075	-0.148	0.115
-424.559	323.898	0.077	-0.146
-423.544	20.545	-0.076	0.062
-422.530	-200.000	-0.015	0.153
-421.515	141.547	0.148	0.195
-420.500	3.845	-0.292	0.213
-419.486	-200.000	-0.015	-0.106
-418.471	-30.241	0.316	-0.179
-417.457	406.629	-0.113	0.238
-416.442	-39.746	0.299	0.156
-415.428	24.423	-0.249	-0.205
-414.413	-200.000	0.017	0.133
-413.398	-68.724	-0.230	-0.089
-412.384	492.536	-0.027	-0.062
-411.369	-105.793	0.193	-0.043
-410.355	12.543	0.105	-0.081
-409.340	164.197	-0.104	0.146
-408.325	6.457	-0.128	0.095
-407.311	-75.714	0.151	-0.053
-406.296	-200.000	-0.032	0.207
-405.282	-1.874	-0.161	-0.113
-404.267	84.139	-0.270	0.294
-403.252	29.957	-0.203	-0.172
-402.238	80.664	-0.393	-0.422
-401.223	-200.000	-0.033	-0.267
-400.209	70.867	-0.010	0.011
-399.194	58.741	-0.041	-0.040
-398.179	-200.000	-0.034	0.334
-397.165	-200.000	0.049	0.424
-396.150	-46.137	0.208	0.102
-395.136	20.611	-0.139	0.112
-394.121	-116.817	0.337	0.061
-393.106	-200.000	0.053	-0.538
-392.092	-97.475	0.216	-0.056
-391.077	189.893	-0.266	-0.397
-390.063	-129.077	-0.133	-0.019
-389.048	261.320	0.137	0.236
-388.033	-92.953	0.264	-0.073
-387.019	-31.023	0.015	0.009
-386.004	-200.000	0.029	-0.164
-384.990	-92.164	0.252	-0.071
-383.975	800.000	-0.074	-0.309
-382.960	160.161	0.029	0.041
-381.946	100.437	-0.162	-0.187
-380.931	-153.880	-0.289	0.020
-379.917	-91.881	-0.012	-0.003
-378.902	15.604	-0.097	-0.076
-377.888	-70.951	0.345	-0.129
-376.873	16.694	-0.122	0.096
-375.858	68.948	0.082	0.084
-374.844	525.617	-0.147	0.344
-373.829	43.772	0.144	0.131
-372.815	-200.000	0.037	0.193
-371.800	-200.000	-0.095	-0.440
-370.785	45.705	-0.204	0.188
-369.771	-40.257	0.202	0.104
-368.756	-45.700	0.160	-0.079
-367.742	-200.000	-0.035	-0.272
-366.727	773.650	-0.104	-0.283
-365.712	66.578	0.111	-0.113
-364.698	-200.000	-0.010	0.108
-363.683	-200.000	0.016	-0.221
-362.669	-200.000	0.021	0.157
-361.654	242.296	-0.135	-0.224
-360.639	-144.984	0.186	-0.017
-359.625	35.634	0.168	0.147
-358.610	471.517	-0.136	0.305
-357.596	-121.155	-0.297	-0.049
-356.581	-124.121	-0.121	0.019
-355.566	-34.662	0.137	-0.074
-354.552	-7.281	-0.262	0.176
-353.537	104.103	-0.073	-0.085
-352.523	-27.158	0.206	-0.120
-351.508	800.000	0.054	-0.166
-350.493	-200.000	0.008	-0.127
-349.479	-200.000	-0.035	0.468
-348.464	0.180	0.270	-0.191
-347.450	800.000	-0.013	-0.044
-346.435	33.896	0.035	-0.030
-345.420	179.475	-0.181	-0.263
-344.406	179.057	-0.029	-0.043
-343.391	800.000	0.045	0.125
-342.377	112.678	0.115	-0.138
-341.362	432.886	-0.068	0.146
-340.348	-32.937	-0.368	-0.203
-339.333	800.000	0.034	-0.118
-338.318	-108.585	-0.416	-0.089
-337.304	-200.000	-0.004	-0.103
-336.289	-53.091	-0.327	0.149
-335.275	-105.986	0.188	0.042
-334.260	-83.124	0.105	0.033
-333.245	-200.000	0.033	-0.195
-332.231	672.362	0.179	-0.460
-331.216	48.755	-0.081	0.076
-330.202	179.766	0.141	0.205
-329.187	-200.000	0.031	0.151
-328.172	202.643	-0.044	0.068
-327.158	-200.000	-0.022	-0.225
-326.143	451.206	-0.092	-0.201
-325.129	-89.714	-0.275	0.080
-324.114	800.000	-0.088	-0.245
-323.099	-70.522	0.032	0.012
-322.085	114.318	-0.216	0.261
-321.070	-29.549	0.228	-0.129
-320.056	-36.766	-0.096	-0.051
-319.041	-93.422	0.206	0.057
-318.026	-134.662	-0.075	-0.009
-317.012	57.495	-0.342	-0.332
-315.997	800.000	0.044	-0.183
-314.983	-74.960	0.189	-0.067
-313.968	-200.000	-0.017	-0.227
-312.953	296.877	0.106	0.192
-311.939	23.672	-0.342	-0.279
-310.924	17.501	-0.134	0.106
-309.910	378.788	0.105	0.214
-308.895	189.882	0.034	0.051
-307.880	-47.057	0.191	-0.092
-306.866	-28.208	0.290	0.166
-305.851	715.790	-0.112	0.296
-304.837	196.581	0.247	0.373
-303.822	-151.603	0.388	-0.028
-302.807	-48.193	0.124	-0.059
-301.793	-200.000	-0.048	0.371
-300.778	51.871	0.064	0.060
-299.764	800.000	-0.050	0.179
-298.749	-125.503	-0.166	-0.025
-297.735	800.000	0.059	0.241
-296.720	800.000	0.091	-0.298
-295.705	-36.780	0.236	0.125
-294.691	-174.316	-0.243	0.007
-293.676	-61.195	-0.149	-0.062
-292.662	792.550	0.067	0.182
-291.647	144.434	-0.149	-0.197
-290.632	-200.000	0.022	-0.109
-289.618	-200.000	-0.004	0.242
-288.603	800.000	0.046	0.138
-287.589	800.000	0.152	0.468
-286.574	-200.000	0.048	0.216
-285.559	-200.000	-0.032	-0.146
-284.545	383.883	-0.152	-0.311
-283.530	800.000	0.016	0.054
-282.516	-200.000	0.033	-0.237
-281.501	-54.361	0.092	0.041
-280.486	-38.204	-0.371	0.195
-279.472	-115.867	-0.166	-0.031
-278.457	-17.582	0.124	0.077
-277.443	68.680	-0.294	0.299
-276.428	49.138	0.184	-0.171
-275.413	50.826	0.322	0.302
-274.399	-200.000	-0.088	0.485
-273.384	800.000	0.059	0.219
-272.370	-86.337	0.253	-0.077
-271.355	-200.000	-0.005	-0.085
-270.340	41.694	0.196	-0.176
-269.326	-200.000	0.044	-0.334
-268.311	670.511	0.198	0.508
-267.297	-70.820	-0.028	-0.010
-266.282	285.254	0.051	-0.091
-265.267	800.000	0.024	0.079
-264.253	-68.595	0.213	-0.081
-263.238	800.000	-0.059	0.211
-262.224	800.000	0.062	-0.196
-261.209	800.000	0.096	-0.373
-260.195	354.626	0.114	-0.224
-259.180	-81.212	0.137	-0.045
-258.165	238.097	0.091	0.149
-257.151	45.010	0.186	-0.169
-256.136	-200.000	0.052	0.296
-255.122	133.610	-0.216	-0.277
-254.107	-200.000	-0.024	-0.283
-253.092	-57.156	-0.113	0.049
-252.078	25.723	-0.143	0.118
-251.063	589.941	-0.148	-0.361
-250.049	-200.000	-0.016	-0.247
-249.034	9.274	-0.117	0.088
-248.019	207.098	-0.079	-0.121
-247.005	800.000	0.102	0.369
-245.990	-72.154	0.102	0.038
-244.976	25.684	0.187	0.154
-243.961	-38.899	-0.192	-0.100
-242.946	106.337	-0.070	0.082
-241.932	53.338	0.034	-0.033
-240.917	-49.771	0.065	0.030
-239.903	800.000	-0.039	0.110
-238.888	414.691	-0.076	-0.160
-237.873	-54.331	-0.268	-0.120
-236.859	101.523	-0.075	-0.086
-235.844	-12.762	0.210	-0.135
-234.830	-200.000	0.017	-0.093
-233.815	-99.009	0.305	0.076
-232.800	57.177	-0.076	-0.073
-231.786	-25.897	0.285	0.166
-230.771	42.590	-0.129	-0.116
-229.757	4.628	-0.202	-0.146
-228.742	-153.581	0.310	-0.021
-227.727	-155.117	-0.282	0.018
-226.713	374.053	0.075	0.151
-225.698	-200.000	-0.027	0.135
-224.684	200.465	-0.306	-0.464
-223.669	453.521	-0.120	-0.263
-222.655	-200.000	-0.005	-0.041
-221.640	158.240	0.191	-0.262
-220.625	545.827	0.137	0.323
-219.611	-200.000	-0.001	0.018
-218.596	-200.000	0.001	-0.175
-217.582	61.697	0.101	0.100
-216.567	-34.144	0.149	0.081
-215.552	126.259	0.064	-0.079
-214.538	-58.366	-0.186	-0.080
-213.523	-200.000	-0.008	0.089
-212.509	-78.513	0.072	-0.024
-211.494	-3.233	-0.185	0.127
-210.479	-200.000	-0.030	0.517
-209.465	486.831	0.105	0.236
-208.450	117.447	-0.124	-0.150
-207.436	118.365	0.145	-0.176
-206.421	105.516	-0.246	0.287
-205.406	93.037	-0.100	0.112
-204.392	-55.641	0.316	0.140
-203.377	800.000	0.046	-0.176
-202.363	800.000	-0.080	-0.279
-201.348	-8.260	-0.205	0.136
-200.333	37.552	0.182	-0.159
-199.319	-200.000	-0.031	-0.170
-198.304	237.618	0.238	-0.389
-197.290	-47.813	0.198	-0.095
-196.275	-86.860	-0.160	-0.048
-195.260	157.553	0.177	0.242
-194.246	-71.301	0.119	0.044
-193.231	17.503	-0.068	-0.053
-192.217	87.142	0.239	0.260
-191.202	320.093	-0.117	0.219
-190.187	-157.378	-0.363	-0.022
-189.173	-39.405	-0.235	-0.121
-188.158	183.044	-0.166	-0.242
-187.144	351.647	0.085	-0.166
-186.129	-131.755	0.305	-0.039
-185.114	-62.638	-0.191	0.078
-184.100	-92.084	0.387	-0.108
-183.085	-38.414	0.285	0.149
-182.071	406.000	0.194	-0.403
-181.056	23.567	0.126	0.102
-180.042	1.913	0.197	0.140
-179.027	13.833	0.346	0.265
-178.012	-10.693	-0.199	-0.130
-176.998	235.895	0.078	-0.127
-175.983	-84.994	-0.293	0.091
-174.969	112.839	-0.107	-0.128
-173.954	-88.253	0.149	0.044
-172.939	302.697	-0.110	0.201
-171.925	57.938	-0.077	0.075
-170.910	-200.000	-0.029	0.126
-169.896	-200.000	-0.068	-0.463
-168.881	-84.479	0.367	-0.114
-167.866	-129.278	0.173	0.024
-166.852	86.167	-0.144	-0.156
-165.837	-3.446	0.434	0.297
-164.823	178.275	-0.223	0.322
-163.808	78.597	0.116	-0.122
-162.793	-145.601	0.294	-0.026
-161.779	-47.105	0.285	-0.137
-160.764	64.278	0.223	0.221
-159.750	-200.000	-0.000	0.136
-158.735	5.020	-0.226	-0.164
-157.720	142.780	0.211	-0.276
-156.706	382.701	-0.070	-0.142
-155.691	174.764	-0.085	-0.121
-154.677	-166.457	-0.166	-0.007
-153.662	-91.299	-0.217	-0.061
-152.647	66.336	-0.037	-0.037
-151.633	-188.774	-0.227	-0.003
-150.618	2.137	-0.092	-0.065
-149.604	800.000	0.025	0.104
-148.589	-200.000	0.031	0.167
-147.574	-163.923	0.056	-0.003
-146.560	65.301	0.174	0.173
-145.545	-145.212	0.112	-0.010
-144.531	-5.096	-0.104	-0.071
-143.516	800.000	0.040	0.152
-142.502	-102.708	-0.288	0.068
-141.487	-130.728	-0.192	-0.025
-140.472	-200.000	0.043	-0.311
-139.458	473.548	0.061	0.136
-138.443	-44.071	0.139	-0.069
-137.429	-91.106	0.025	-0.007
-136.414	-200.000	0.048	0.279
-135.399	-200.000	-0.013	-0.075
-134.385	-200.000	-0.025	-0.128
-133.370	-65.457	0.108	0.043
-132.356	-200.000	0.007	0.147
-131.341	-81.533	0.104	-0.034
-130.326	50.042	-0.104	-0.097
-129.312	336.868	-0.122	-0.233
-128.297	-200.000	-0.052	0.236
-127.283	545.985	0.153	-0.360
-126.268	40.045	0.064	-0.057
-125.253	135.750	0.130	-0.167
-124.239	204.369	-0.118	-0.179
-123.224	-200.000	-0.024	-0.290
-122.210	364.269	0.128	-0.254
-121.195	-200.000	-0.030	-0.189
