DTS Sentinel unit serial number:	SN413079Multiplexer serial number:	ORYXHardware model number:	OX4-SRSoftware version number:	ORYX F/W v4.00 Oryx Data Collector v3.7.2.0data status	okinstallation	princeton_trtdifferential loss correction	single-endedforward channel	channel 2reverse channel	N/Adate	2019/09/16time	02:03:34forward acquisition time	60.00reverse acquisition time	0.00gamma	496.2192k internal	0.2336k external	0.2336temperature offset calibration	0.9966default loss term (dB/km)	0.3790temperature slope calibration	1.0000multiplexer offset coefficient	1.0000multiplexer slope coefficient	1.0000fibre end	0.00T internal ref (°C)	27.48T ext. ref 1 (°C)	10.10T ext. ref 2 (°C)	22.37length (m)	temperature (°C)	Stokes	anti-Stokes-747.200	800.000	-0.026	-0.107
-746.185	-200.000	-0.001	0.367
-745.171	-200.000	0.090	0.403
-744.156	-200.000	0.002	0.429
-743.142	50.544	-0.153	0.146
-742.127	-55.772	-0.124	0.056
-741.112	3.840	-0.204	0.150
-740.098	81.960	-0.065	0.070
-739.083	129.889	-0.213	-0.273
-738.069	65.427	-0.296	0.300
-737.054	-200.000	-0.032	-0.191
-736.039	-200.000	-0.013	0.123
-735.025	-200.000	-0.016	-0.083
-734.010	-41.895	-0.184	-0.095
-732.996	-200.000	-0.074	-0.361
-731.981	420.763	-0.163	-0.350
-730.966	-165.755	-0.303	-0.013
-729.952	800.000	0.056	0.176
-728.937	-200.000	-0.023	0.368
-727.923	82.641	0.093	-0.101
-726.908	800.000	-0.091	0.272
-725.894	-33.379	-0.131	-0.073
-724.879	-91.596	-0.342	-0.098
-723.864	-200.000	0.073	-0.340
-722.850	-134.599	-0.080	0.010
-721.835	-124.894	-0.182	-0.028
-720.821	-170.880	0.193	0.007
-719.806	800.000	0.031	0.112
-718.791	-18.003	-0.299	-0.188
-717.777	-90.357	0.340	0.099
-716.762	-52.890	-0.396	-0.183
-715.748	127.492	0.228	0.290
-714.733	43.133	-0.245	0.224
-713.718	-118.318	-0.170	-0.030
-712.704	800.000	0.094	-0.270
-711.689	-200.000	-0.011	0.210
-710.675	800.000	-0.019	-0.060
-709.660	-85.701	-0.316	0.098
-708.645	51.948	-0.184	0.175
-707.631	118.827	-0.025	-0.031
-706.616	21.415	-0.139	0.113
-705.602	-20.365	-0.417	-0.258
-704.587	-200.000	0.102	-0.000
-703.572	92.856	-0.145	-0.164
-702.558	-66.516	0.193	0.077
-701.543	-178.215	-0.329	0.008
-700.529	48.963	-0.080	-0.076
-699.514	12.362	-0.246	-0.190
-698.499	428.394	-0.020	0.043
-697.485	178.941	0.084	-0.123
-696.470	304.354	0.077	0.143
-695.456	800.000	0.050	0.146
-694.441	800.000	0.084	-0.251
-693.426	636.245	-0.066	0.169
-692.412	-42.828	0.046	-0.024
-691.397	86.503	-0.305	-0.337
-690.383	-88.489	0.172	-0.052
-689.368	-200.000	0.042	0.341
-688.354	-27.639	0.145	0.084
-687.339	-75.136	-0.160	-0.057
-686.324	276.035	-0.085	-0.151
-685.310	39.925	0.126	0.113
-684.295	-42.899	0.392	-0.199
-683.281	-35.219	-0.211	-0.115
-682.266	-9.813	-0.113	-0.075
-681.251	-63.647	-0.305	0.126
-680.237	-158.106	0.102	-0.006
-679.222	232.458	0.081	-0.133
-678.208	327.546	-0.104	-0.200
-677.193	-105.331	-0.209	0.048
-676.178	-200.000	0.025	-0.365
-675.164	467.968	-0.139	0.312
-674.149	46.719	0.316	0.294
-673.135	-200.000	0.010	-0.303
-672.120	172.568	-0.247	-0.356
-671.105	-117.585	0.362	-0.066
-670.091	-47.303	-0.240	0.117
-669.076	-80.627	-0.160	-0.053
-668.062	800.000	-0.026	0.092
-667.047	-171.260	0.173	0.006
-666.032	-200.000	0.004	-0.112
-665.018	47.143	0.090	-0.084
-664.003	-112.706	-0.234	-0.047
-662.989	800.000	0.011	0.046
-661.974	800.000	-0.066	-0.193
-660.959	-149.606	-0.274	0.022
-659.945	-84.489	-0.172	-0.054
-658.930	7.982	0.119	-0.089
-657.916	212.118	0.086	0.136
-656.901	-200.000	-0.015	-0.075
-655.886	-112.930	-0.259	0.051
-654.872	36.856	-0.355	-0.314
-653.857	800.000	-0.087	-0.366
-652.843	286.048	0.075	0.135
-651.828	439.553	-0.123	-0.269
-650.814	800.000	0.013	0.037
-649.799	484.093	-0.156	0.356
-648.784	-53.181	0.093	-0.043
-647.770	-200.000	0.315	0.000
-646.755	-79.768	-0.219	0.074
-645.741	364.336	-0.059	-0.118
-644.726	-91.236	0.369	0.106
-643.711	293.632	0.230	-0.421
-642.697	-57.987	-0.121	0.053
-641.682	27.437	0.069	-0.058
-640.668	-85.641	-0.472	0.147
-639.653	-100.992	-0.079	-0.019
-638.638	-104.113	-0.206	0.048
-637.624	527.880	-0.106	0.250
-636.609	43.229	0.075	0.068
-635.595	-172.672	-0.153	-0.005
-634.580	-121.710	-0.291	0.048
-633.565	444.679	0.037	-0.081
-632.551	800.000	0.093	-0.279
-631.536	-164.424	-0.199	-0.009
-630.522	-200.000	-0.031	-0.234
-629.507	-65.293	0.290	-0.117
-628.492	-24.298	-0.081	0.048
-627.478	-179.393	-0.036	-0.001
-626.463	-136.891	-0.225	0.026
-625.449	800.000	-0.075	-0.277
-624.434	800.000	0.035	-0.140
-623.419	-65.081	0.183	0.074
-622.405	290.952	0.048	-0.088
-621.390	800.000	-0.100	-0.376
-620.376	-165.086	-0.168	0.007
-619.361	-180.282	0.187	-0.004
-618.346	-80.504	-0.090	0.030
-617.332	-22.788	0.141	0.085
-616.317	351.342	-0.139	-0.276
-615.303	-60.461	-0.128	0.054
-614.288	600.502	-0.034	-0.085
-613.273	100.909	-0.207	-0.241
-612.259	463.517	0.112	0.251
-611.244	-22.436	-0.169	-0.102
-610.230	-169.610	-0.260	-0.009
-609.215	84.028	-0.179	-0.196
-608.201	279.760	-0.049	0.087
-607.186	-161.936	-0.301	0.015
-606.171	-160.687	0.094	-0.005
-605.157	-86.487	-0.349	-0.107
-604.142	110.483	-0.142	-0.170
-603.128	524.759	0.032	-0.075
-602.113	127.991	-0.166	0.211
-601.098	-200.000	-0.009	0.134
-600.084	52.956	0.115	-0.110
-599.069	-116.534	0.342	-0.063
-598.055	-200.000	0.024	-0.144
-597.040	68.315	0.265	-0.271
-596.025	-200.000	-0.061	-0.357
-595.011	343.014	0.078	-0.153
-593.996	503.509	-0.126	0.290
-592.982	205.602	-0.123	0.190
-591.967	488.339	-0.093	0.213
-590.952	-86.040	0.153	0.047
-589.938	715.768	0.034	0.089
-588.923	4.789	0.316	-0.232
-587.909	-200.000	-0.006	-0.256
-586.894	800.000	0.035	-0.128
-585.879	41.431	-0.073	-0.066
-584.865	800.000	-0.077	-0.321
-583.850	-94.753	-0.211	-0.057
-582.836	185.166	0.106	-0.158
-581.821	92.021	-0.169	-0.189
-580.806	463.692	-0.206	0.460
-579.792	-57.325	-0.311	0.136
-578.777	146.695	-0.074	-0.099
-577.763	163.194	0.104	0.146
-576.748	19.024	-0.133	-0.106
-575.733	258.521	-0.165	-0.284
-574.719	54.316	0.081	-0.078
-573.704	69.684	-0.128	0.131
-572.690	105.391	0.278	-0.327
-571.675	-36.505	0.179	-0.096
-570.661	194.659	-0.118	-0.179
-569.646	-63.787	-0.074	0.030
-568.631	-200.000	-0.027	-0.134
-567.617	-3.750	0.131	-0.090
-566.602	240.216	-0.165	0.274
-565.588	495.881	0.096	-0.219
-564.573	75.136	0.068	-0.071
-563.558	-66.760	0.093	-0.037
-562.544	-129.091	0.404	-0.056
-561.529	479.411	-0.171	0.386
-560.515	800.000	-0.054	0.197
-559.500	-200.000	0.051	0.398
-558.485	17.884	-0.188	-0.149
-557.471	120.328	-0.121	-0.149
-556.456	103.996	0.196	0.230
-555.442	229.173	0.074	-0.121
-554.427	-122.044	-0.249	0.041
-553.412	-85.478	0.173	-0.054
-552.398	-200.000	0.011	-0.050
-551.383	-86.043	0.299	0.092
-550.369	-200.000	0.017	0.218
-549.354	10.961	0.055	0.042
-548.339	8.661	-0.187	0.141
-547.325	383.506	-0.059	0.120
-546.310	-65.365	-0.245	-0.098
-545.296	800.000	-0.064	0.185
-544.281	-200.000	0.035	0.256
-543.266	-87.807	0.215	-0.064
-542.252	61.958	-0.192	-0.191
-541.237	154.210	-0.078	0.107
-540.223	-27.185	0.304	-0.177
-539.208	25.191	0.128	0.106
-538.193	800.000	0.095	-0.376
-537.179	-25.184	0.412	-0.243
-536.164	-85.920	-0.117	0.036
-535.150	-200.000	-0.070	0.374
-534.135	-200.000	0.015	0.291
-533.121	-200.000	-0.012	-0.105
-532.106	-106.371	-0.074	0.017
-531.091	15.276	0.206	-0.161
-530.077	-200.000	0.043	-0.359
-529.062	425.417	-0.050	0.108
-528.048	244.130	-0.065	0.109
-527.033	64.229	0.211	-0.211
-526.018	800.000	-0.070	0.244
-525.004	-111.512	0.408	-0.083
-523.989	-89.081	-0.165	-0.049
-522.975	-63.542	0.147	0.060
-521.960	171.624	-0.107	0.153
-520.945	81.116	0.164	0.177
-519.931	105.795	-0.146	0.172
-518.916	-6.938	-0.228	-0.154
-517.902	125.480	-0.156	0.197
-516.887	-35.829	-0.183	0.099
-515.872	642.252	-0.079	-0.201
-514.858	-166.048	0.172	0.007
-513.843	-200.000	-0.035	0.329
-512.829	-200.000	0.025	0.128
-511.814	-132.354	-0.398	-0.051
-510.799	-52.647	0.063	0.029
-509.785	-53.036	0.353	0.162
-508.770	800.000	-0.052	0.157
-507.756	-57.284	-0.078	0.034
-506.741	227.319	0.139	-0.224
-505.726	68.442	-0.100	0.102
-504.712	90.130	0.139	0.154
-503.697	665.363	0.134	-0.346
-502.683	-56.694	-0.322	-0.142
-501.668	68.543	-0.220	-0.225
-500.653	100.496	-0.301	-0.347
-499.639	-80.179	0.291	0.097
-498.624	-39.845	-0.085	-0.044
-497.610	-109.654	0.115	-0.024
-496.595	3.352	0.182	0.132
-495.581	8.383	0.223	0.167
-494.566	577.711	0.090	-0.218
-493.551	-74.050	0.200	-0.072
-492.537	-61.417	0.109	-0.046
-491.522	142.716	0.031	-0.041
-490.508	-100.459	-0.166	0.041
-489.493	-95.022	0.301	0.081
-488.478	800.000	0.127	-0.421
-487.464	151.761	0.172	-0.233
-486.449	-65.677	-0.378	-0.150
-485.435	-85.646	-0.090	0.028
-484.420	173.537	-0.142	0.204
-483.405	-200.000	0.015	0.116
-482.391	-55.997	-0.494	-0.219
-481.376	-188.957	0.511	-0.006
-480.362	800.000	0.100	0.277
-479.347	-200.000	-0.068	-0.321
-478.332	-200.000	0.017	-0.242
-477.318	-51.387	0.082	-0.038
-476.303	-61.057	0.299	0.125
-475.289	-85.004	-0.635	-0.198
-474.274	199.268	0.115	-0.176
-473.259	103.716	-0.117	-0.137
-472.245	534.651	0.098	-0.231
-471.230	63.778	-0.165	-0.165
-470.216	51.837	0.205	0.193
-469.201	100.492	0.134	0.154
-468.186	-200.000	0.056	0.382
-467.172	688.362	-0.093	0.242
-466.157	46.294	-0.271	-0.249
-465.143	244.624	0.177	-0.296
-464.128	584.900	-0.087	0.212
-463.113	-61.170	-0.220	0.092
-462.099	390.189	-0.066	-0.136
-461.084	-200.000	0.009	0.130
-460.070	76.009	0.257	0.271
-459.055	-137.120	0.363	0.041
-458.040	99.558	0.281	0.323
-457.026	-147.258	0.303	-0.026
-456.011	53.556	0.078	0.074
-454.997	-131.138	-0.170	0.022
-453.982	-145.849	-0.305	0.027
-452.968	-188.434	-0.207	-0.003
-451.953	-130.397	0.330	-0.044
-450.938	-146.513	0.290	-0.025
-449.924	-73.972	-0.303	-0.109
-448.909	39.490	0.049	0.043
-447.895	-112.483	0.195	-0.039
-446.880	93.982	0.225	0.253
-445.865	114.314	-0.172	0.208
-444.851	-65.677	-0.331	-0.132
-443.836	-37.737	0.116	0.061
-442.822	-200.000	-0.004	0.037
-441.807	800.000	-0.184	-0.508
-440.792	-144.371	0.435	-0.040
-439.778	59.953	-0.268	-0.263
-438.763	82.445	0.128	0.138
-437.749	394.406	0.093	-0.193
-436.734	-200.000	-0.009	-0.046
-435.719	-110.318	0.186	-0.038
-434.705	800.000	0.006	0.021
-433.690	-200.000	-0.005	-0.174
-432.676	800.000	0.073	-0.304
-431.661	800.000	0.062	0.219
-430.646	-5.259	-0.224	0.153
-429.632	800.000	0.094	0.304
-428.617	-200.000	0.024	0.490
-427.603	-200.000	-0.050	0.264
-426.588	19.731	-0.012	-0.010
-425.573	76.096	0.112	-0.118
-424.559	-147.669	0.282	0.024
-423.544	-200.000	0.007	0.104
-422.530	56.941	-0.300	0.290
-421.515	-43.042	0.163	0.082
-420.500	63.874	-0.261	0.260
-419.486	-200.000	-0.062	-0.291
-418.471	-78.557	0.207	0.070
-417.457	-200.000	0.002	-0.151
-416.442	-9.222	0.168	-0.112
-415.428	-200.000	0.054	-0.320
-414.413	38.653	0.186	-0.165
-413.398	87.147	-0.202	-0.221
-412.384	-101.915	0.293	0.070
-411.369	317.421	-0.124	0.233
-410.355	800.000	-0.045	-0.173
-409.340	-198.004	0.119	-0.001
-408.325	-138.095	-0.118	0.013
-407.311	-184.035	0.190	0.003
-406.296	-200.000	0.019	0.087
-405.282	-33.811	-0.114	-0.063
-404.267	-68.185	0.299	-0.115
-403.252	-21.861	-0.204	0.123
-402.238	800.000	-0.069	0.198
-401.223	-96.595	0.095	-0.025
-400.209	58.900	0.239	0.233
-399.194	83.117	-0.216	0.233
-398.179	-200.000	0.029	-0.193
-397.165	-173.392	-0.087	-0.003
-396.150	252.308	-0.210	0.354
-395.136	39.953	0.102	0.091
-394.121	-149.589	-0.471	0.037
-393.106	800.000	0.075	-0.219
-392.092	-200.000	-0.019	-0.121
-391.077	300.209	0.167	0.305
-390.063	-140.543	0.352	-0.036
-389.048	-12.623	0.070	-0.045
-388.033	137.305	-0.052	0.067
-387.019	-70.183	0.398	-0.150
-386.004	-200.000	0.007	-0.260
-384.990	113.055	0.167	-0.201
-383.975	21.592	0.073	0.059
-382.960	-95.926	0.016	-0.004
-381.946	746.863	-0.089	0.237
-380.931	285.487	-0.042	-0.075
-379.917	59.906	0.057	-0.056
-378.902	-91.330	-0.144	-0.041
-377.888	-200.000	0.013	-0.167
-376.873	91.206	0.370	0.412
-375.858	22.614	-0.194	0.157
-374.844	800.000	-0.143	-0.413
-373.829	-135.857	-0.214	0.025
-372.815	154.495	-0.167	-0.228
-371.800	42.494	-0.251	0.226
-370.785	195.629	0.188	0.283
-369.771	-91.130	0.222	0.063
-368.756	-10.587	0.057	0.037
-367.742	-68.039	-0.361	0.139
-366.727	-131.805	-0.440	0.057
-365.712	40.546	0.070	0.063
-364.698	76.201	-0.213	-0.224
-363.683	17.276	-0.257	-0.202
-362.669	-200.000	-0.016	0.181
-361.654	800.000	-0.041	-0.149
-360.639	-144.906	0.301	-0.027
-359.625	88.966	0.105	0.116
-358.610	-200.000	0.019	0.110
-357.596	-151.777	-0.170	-0.012
-356.581	800.000	0.034	0.110
-355.566	-108.756	0.067	-0.014
-354.552	-104.404	-0.096	-0.022
-353.537	-200.000	0.020	0.228
-352.523	-200.000	0.010	-0.081
-351.508	-112.199	0.185	0.037
-350.493	107.723	-0.212	-0.249
-349.479	446.814	-0.073	-0.158
-348.464	209.026	0.065	-0.100
-347.450	-200.000	0.002	0.283
-346.435	-23.629	0.244	0.145
-345.420	83.212	0.094	0.102
-344.406	-200.000	0.012	0.343
-343.391	800.000	-0.078	0.245
-342.377	349.164	0.135	0.263
-341.362	-81.251	-0.144	0.047
-340.348	-200.000	-0.022	-0.166
-339.333	610.336	0.059	-0.147
-338.318	-127.277	-0.246	0.035
-337.304	613.506	-0.107	-0.265
-336.289	87.276	-0.172	0.188
-335.275	-127.246	-0.321	-0.046
-334.260	-200.000	-0.050	-0.271
-333.245	-92.678	0.161	0.045
-332.231	-87.127	-0.113	-0.034
-331.216	304.421	0.132	-0.242
-330.202	-92.580	-0.211	-0.059
-329.187	399.482	0.194	-0.402
-328.172	-67.265	0.289	-0.112
-327.158	800.000	0.059	0.167
-326.143	192.676	0.062	0.092
-325.129	-113.304	-0.143	0.028
-324.114	-200.000	0.020	0.338
-323.099	5.664	0.036	-0.026
-322.085	-155.333	-0.121	0.008
-321.070	652.540	0.082	-0.208
-320.056	800.000	-0.057	-0.165
-319.041	-94.588	0.559	0.150
-318.026	-63.865	-0.208	-0.084
-317.012	-55.692	-0.153	0.068
-315.997	631.624	-0.189	0.473
-314.983	-200.000	-0.005	-0.051
-313.968	-0.192	0.071	0.050
-312.953	108.530	-0.062	0.074
-311.939	-94.414	-0.036	0.010
-310.924	-79.868	-0.235	-0.078
-309.910	-200.000	0.080	0.496
-308.895	30.516	0.228	0.192
-307.880	800.000	-0.061	0.199
-306.866	294.770	0.086	0.156
-305.851	800.000	0.075	-0.230
-304.837	-80.099	-0.362	0.120
-303.822	-200.000	-0.029	0.227
-302.807	800.000	-0.035	0.137
-301.793	-21.642	-0.194	-0.117
-300.778	-41.700	-0.221	-0.112
-299.764	-69.770	-0.123	-0.047
-298.749	-200.000	0.002	-0.197
-297.735	-200.000	-0.037	-0.375
-296.720	-200.000	-0.003	-0.077
-295.705	62.824	-0.169	-0.167
-294.691	-29.703	0.265	-0.149
-293.676	-0.357	0.100	-0.070
-292.662	62.077	-0.137	-0.135
-291.647	800.000	-0.034	0.132
-290.632	305.610	0.105	0.193
-289.618	47.456	0.134	-0.123
-288.603	-109.210	-0.310	0.065
-287.589	800.000	0.025	-0.087
-286.574	257.896	0.165	0.281
-285.559	-200.000	-0.026	-0.291
-284.545	215.879	0.054	-0.085
-283.530	48.854	-0.374	-0.346
-282.516	-42.524	0.051	-0.026
-281.501	-97.058	0.182	0.047
-280.486	559.508	-0.138	-0.330
-279.472	-200.000	0.009	0.267
-278.457	-58.501	-0.123	0.053
-277.443	25.235	-0.113	-0.093
-276.428	261.549	-0.115	0.197
-275.413	-91.035	-0.353	0.100
-274.399	-200.000	-0.002	-0.270
-273.384	65.316	-0.211	0.211
-272.370	355.920	0.066	-0.130
-271.355	32.732	0.137	0.117
-270.340	126.325	0.196	-0.244
-269.326	-113.823	-0.350	-0.067
-268.311	-192.869	0.160	0.001
-267.297	-122.181	0.363	-0.059
-266.282	18.089	0.271	0.213
-265.267	-200.000	-0.006	0.124
-264.253	-37.259	0.271	-0.143
-263.238	71.607	0.137	0.141
-262.224	162.506	-0.089	-0.123
-261.209	-200.000	0.075	-0.406
-260.195	-102.830	-0.207	0.048
-259.180	94.254	-0.109	-0.122
-258.165	800.000	-0.028	0.096
-257.151	-200.000	-0.003	-0.148
-256.136	382.101	-0.138	-0.280
-255.122	161.087	-0.110	-0.151
-254.107	-200.000	0.002	-0.130
-253.092	146.777	0.185	0.245
-252.078	800.000	0.041	0.121
-251.063	-38.872	-0.230	-0.119
-250.049	-2.434	0.073	0.050
-249.034	-11.998	-0.225	0.146
-248.019	-23.689	-0.170	0.101
-247.005	41.975	-0.055	0.050
-245.990	-200.000	-0.046	0.199
-244.976	-45.554	0.300	0.146
-243.961	-64.108	-0.194	-0.078
-242.946	800.000	0.055	-0.194
-241.932	-200.000	-0.092	0.439
-240.917	-80.741	0.421	0.138
-239.903	-97.598	-0.204	0.052
-238.888	-31.777	-0.077	0.043
-237.873	-200.000	-0.067	0.354
-236.859	-107.365	0.405	-0.088
-235.844	36.410	-0.214	0.186
-234.830	-200.000	0.005	0.026
-233.815	-62.312	0.268	0.110
-232.800	94.913	0.128	0.144
-231.786	19.893	-0.211	0.168
-230.771	17.750	0.238	0.187
-229.757	-43.969	0.321	-0.159
-228.742	210.353	0.131	-0.202
-227.727	147.429	-0.163	0.216
-226.713	58.718	-0.073	-0.071
-225.698	800.000	-0.004	-0.014
-224.684	-55.474	-0.202	-0.089
-223.669	-58.783	0.058	-0.025
-222.655	193.618	0.221	0.329
-221.640	-126.316	0.422	0.062
-220.625	800.000	0.094	0.265
-219.611	800.000	0.090	-0.294
-218.596	279.712	-0.138	0.242
-217.582	800.000	-0.070	0.241
-216.567	-57.054	0.445	-0.193
-215.552	42.352	0.048	-0.043
-214.538	-172.147	0.050	-0.002
-213.523	-200.000	-0.022	-0.300
-212.509	150.834	-0.035	0.047
-211.494	595.017	0.058	-0.141
-210.479	154.345	0.128	0.173
-209.465	-145.045	0.225	0.020
-208.450	139.771	0.077	0.100
-207.436	-32.468	0.146	0.080
-206.421	-76.436	-0.193	0.067
-205.406	-110.980	0.017	0.004
-204.392	800.000	-0.142	-0.401
-203.377	-165.104	0.349	0.015
-202.363	-18.080	0.122	-0.075
-201.348	488.158	0.044	0.099
-200.333	104.580	-0.117	-0.135
-199.319	-33.305	-0.223	0.121
-198.304	175.924	-0.197	0.282
-197.290	-113.162	0.295	-0.057
-196.275	98.942	0.165	0.187
-195.260	63.617	-0.260	-0.256
-194.246	-107.065	-0.105	-0.023
-193.231	-52.430	-0.078	-0.035
-192.217	800.000	0.098	-0.273
-191.202	-92.883	-0.190	0.052
-190.187	427.785	-0.036	-0.077
-189.173	-200.000	-0.046	-0.247
-188.158	-1.605	0.266	0.184
-187.144	-27.110	0.100	0.057
-186.129	60.875	-0.161	-0.157
-185.114	800.000	0.064	-0.242
-184.100	-123.359	-0.032	-0.005
-183.085	700.662	-0.103	0.267
-182.071	-146.803	-0.106	-0.009
-181.056	-200.000	0.120	0.000
-180.042	-122.728	0.134	-0.021
-179.027	-98.907	0.117	0.029
-178.012	-76.084	-0.055	-0.019
-176.998	-80.001	-0.096	-0.032
-175.983	-151.070	0.373	-0.028
-174.969	5.950	-0.152	-0.111
-173.954	321.132	-0.107	-0.199
-172.939	-200.000	-0.073	-0.325
-171.925	-160.396	0.169	0.009
-170.910	-41.552	0.219	-0.111
-169.896	800.000	-0.014	0.056
-168.881	22.909	0.244	0.196
-167.866	-200.000	-0.022	0.340
-166.852	-200.000	0.002	0.255
-165.837	799.519	-0.058	0.157
-164.823	800.000	-0.084	0.269
-163.808	800.000	0.072	-0.212
-162.793	60.298	-0.274	-0.266
-161.779	800.000	0.016	0.044
-160.764	527.923	0.145	0.336
-159.750	-176.662	-0.220	0.006
-158.735	-117.076	-0.298	0.053
-157.720	-67.141	0.429	-0.166
-156.706	317.298	-0.128	0.238
-155.691	-26.422	-0.254	0.146
-154.677	-102.767	-0.375	0.088
-153.662	-156.308	0.206	0.013
-152.647	442.246	0.057	-0.123
-151.633	174.658	0.130	0.185
-150.618	35.554	-0.314	0.270
-149.604	-57.658	-0.263	0.113
-148.589	-20.742	-0.079	-0.048
-147.574	-75.333	0.502	0.176
-146.560	-72.141	-0.287	0.104
-145.545	-200.000	-0.021	-0.191
-144.531	84.651	0.149	-0.160
-143.516	-86.427	-0.225	-0.068
-142.502	60.329	-0.124	0.121
-141.487	-114.577	-0.322	0.061
-140.472	49.727	-0.235	-0.217
-139.458	-200.000	0.100	0.477
-138.443	-120.024	0.179	-0.030
-137.429	-131.951	-0.307	-0.039
-136.414	-39.531	0.217	0.111
-135.399	243.222	-0.117	-0.193
-134.385	-200.000	-0.003	0.593
-133.370	800.000	0.075	-0.298
-132.356	-42.092	0.289	-0.145
-131.341	-200.000	0.022	0.518
-130.326	167.152	0.081	-0.113
-129.312	-88.505	-0.266	-0.078
-128.297	-166.937	-0.197	-0.008
-127.283	-69.393	-0.133	-0.050
-126.268	129.191	-0.070	0.087
-125.253	-153.901	0.076	0.005
-124.239	-49.301	-0.266	-0.124
-123.224	-4.701	-0.110	0.075
-122.210	156.156	-0.188	0.254
