DTS Sentinel unit serial number:	SN413079Multiplexer serial number:	ORYXHardware model number:	OX4-SRSoftware version number:	ORYX F/W v4.00 Oryx Data Collector v3.7.2.0data status	okinstallation	princeton_trtdifferential loss correction	single-endedforward channel	channel 2reverse channel	N/Adate	2019/09/12time	16:29:11forward acquisition time	60.00reverse acquisition time	0.00gamma	496.2192k internal	0.2320k external	0.2320temperature offset calibration	1.0113default loss term (dB/km)	0.3790temperature slope calibration	1.0000multiplexer offset coefficient	1.0000multiplexer slope coefficient	1.0000fibre end	0.00T internal ref (°C)	37.37T ext. ref 1 (°C)	2.56T ext. ref 2 (°C)	29.84length (m)	temperature (°C)	Stokes	anti-Stokes-747.200	-187.747	-0.098	-0.001
-746.185	-200.000	-0.022	0.148
-745.171	121.105	-0.191	0.240
-744.156	-200.000	-0.005	-0.031
-743.142	116.126	0.048	0.060
-742.127	773.400	0.030	-0.083
-741.112	-200.000	-0.022	0.186
-740.098	229.329	-0.160	0.264
-739.083	-31.191	0.183	-0.104
-738.069	800.000	-0.159	0.479
-737.054	116.953	0.060	-0.074
-736.039	-139.200	-0.287	0.031
-735.025	114.581	0.139	0.171
-734.010	286.122	0.187	0.342
-732.996	61.952	-0.386	-0.389
-731.981	-8.326	-0.233	-0.159
-730.966	-200.000	-0.075	-0.344
-729.952	-6.065	-0.316	0.218
-728.937	47.048	-0.039	-0.036
-727.923	-142.460	-0.144	-0.014
-726.908	-129.030	0.259	-0.037
-725.894	-36.817	0.394	-0.214
-724.879	-51.689	0.149	-0.070
-723.864	-118.909	0.129	0.023
-722.850	210.617	-0.102	0.162
-721.835	800.000	-0.038	-0.120
-720.821	-84.867	0.229	-0.073
-719.806	-200.000	0.008	0.114
-718.791	313.076	-0.179	-0.339
-717.777	3.503	-0.137	-0.101
-716.762	-97.708	-0.159	-0.041
-715.748	-20.957	0.076	-0.047
-714.733	-200.000	0.012	0.312
-713.718	-200.000	0.045	-0.373
-712.704	147.446	-0.114	0.155
-711.689	800.000	0.048	0.158
-710.675	545.395	-0.152	-0.368
-709.660	125.491	-0.112	0.142
-708.645	800.000	-0.066	-0.199
-707.631	800.000	-0.140	-0.392
-706.616	-200.000	0.075	-0.342
-705.602	73.423	-0.098	-0.103
-704.587	17.615	-0.165	-0.133
-703.572	800.000	0.049	0.152
-702.558	213.215	-0.146	-0.232
-701.543	800.000	0.035	0.146
-700.529	-48.394	0.190	-0.092
-699.514	-11.849	0.080	0.053
-698.499	14.309	-0.280	-0.221
-697.485	-200.000	-0.002	-0.072
-696.470	-200.000	0.051	-0.241
-695.456	628.077	-0.135	0.344
-694.441	-200.000	-0.017	-0.082
-693.426	-200.000	0.036	0.175
-692.412	-34.276	-0.390	0.216
-691.397	-146.480	-0.196	-0.017
-690.383	-12.025	-0.246	-0.163
-689.368	-11.958	0.156	-0.103
-688.354	278.549	0.088	0.158
-687.339	800.000	0.081	-0.242
-686.324	-200.000	0.012	-0.090
-685.310	159.526	-0.252	0.353
-684.295	-82.570	0.190	0.062
-683.281	-73.769	-0.402	0.148
-682.266	8.394	0.199	0.151
-681.251	-107.617	-0.422	-0.093
-680.237	473.750	-0.044	-0.101
-679.222	258.068	-0.097	0.169
-678.208	33.109	0.177	-0.155
-677.193	-67.531	-0.213	-0.084
-676.178	800.000	-0.091	-0.356
-675.164	-126.669	0.272	0.041
-674.149	-200.000	-0.081	0.497
-673.135	258.268	-0.028	0.049
-672.120	-170.779	-0.068	-0.002
-671.105	800.000	0.148	-0.438
-670.091	405.115	-0.076	0.161
-669.076	158.400	-0.076	0.106
-668.062	-200.000	0.000	-0.063
-667.047	-78.543	0.076	0.026
-666.032	144.791	0.028	-0.038
-665.018	-70.498	0.115	-0.044
-664.003	262.957	-0.056	0.097
-662.989	-75.611	0.119	0.043
-661.974	32.587	0.289	0.252
-660.959	800.000	0.072	-0.222
-659.945	-97.336	0.225	-0.059
-658.930	-111.851	0.354	-0.072
-657.916	8.599	0.097	0.073
-656.901	800.000	-0.052	-0.220
-655.886	100.273	-0.098	0.115
-654.872	-159.685	-0.275	-0.015
-653.857	-131.903	-0.256	-0.034
-652.843	-116.570	-0.068	0.013
-651.828	-200.000	0.060	-0.313
-650.814	-20.117	-0.078	-0.049
-649.799	-88.154	0.294	-0.089
-648.784	218.983	-0.103	-0.165
-647.770	800.000	-0.134	-0.441
-646.755	800.000	-0.025	-0.102
-645.741	-200.000	-0.056	0.347
-644.726	-118.391	0.360	0.064
-643.711	-100.089	0.225	-0.056
-642.697	24.581	-0.108	0.090
-641.682	46.667	-0.324	-0.303
-640.668	-37.305	-0.023	0.012
-639.653	560.967	-0.060	0.145
-638.638	-99.066	-0.174	0.044
-637.624	55.942	-0.132	-0.129
-636.609	-11.685	-0.183	0.121
-635.595	-79.829	-0.201	0.068
-634.580	393.332	0.079	-0.166
-633.565	-100.636	-0.427	0.106
-632.551	-79.944	0.152	0.051
-631.536	10.859	-0.341	0.262
-630.522	0.881	-0.038	-0.027
-629.507	-31.466	-0.199	-0.113
-628.492	-9.527	0.354	0.238
-627.478	353.312	-0.042	0.085
-626.463	-200.000	0.035	-0.182
-625.449	-133.603	-0.259	0.033
-624.434	687.722	-0.058	0.153
-623.419	5.386	-0.166	-0.123
-622.405	413.353	0.151	-0.323
-621.390	131.057	0.029	-0.037
-620.376	-200.000	0.053	0.237
-619.361	-42.857	0.072	0.037
-618.346	-2.420	0.079	0.056
-617.332	-200.000	0.050	0.443
-616.317	-126.429	-0.342	-0.051
-615.303	-37.891	-0.191	0.102
-614.288	-22.940	-0.140	-0.085
-613.273	-200.000	0.014	-0.397
-612.259	306.084	0.127	-0.238
-611.244	197.500	-0.255	-0.391
-610.230	-69.326	0.357	0.138
-609.215	-41.711	-0.023	-0.012
-608.201	-148.191	-0.267	0.022
-607.186	-71.240	-0.319	-0.121
-606.171	78.188	-0.164	-0.177
-605.157	-111.265	-0.147	0.030
-604.142	109.927	0.226	-0.273
-603.128	121.844	0.112	0.140
-602.113	-152.668	-0.521	0.037
-601.098	-196.493	0.222	0.002
-600.084	318.460	0.105	0.200
-599.069	-150.860	-0.274	-0.021
-598.055	4.533	0.336	0.248
-597.040	-200.000	-0.002	-0.047
-596.025	-200.000	-0.039	0.183
-595.011	339.649	0.214	-0.419
-593.996	195.031	-0.225	-0.344
-592.982	-182.439	-0.062	-0.001
-591.967	107.871	-0.033	-0.040
-590.952	181.844	-0.037	0.054
-589.938	62.065	0.071	-0.072
-588.923	-141.735	-0.090	0.009
-587.909	411.590	0.084	-0.180
-586.894	-81.958	0.211	-0.069
-585.879	422.550	-0.138	-0.297
-584.865	-44.796	0.177	-0.089
-583.850	736.101	0.111	-0.300
-582.836	171.444	0.049	0.071
-581.821	-58.694	0.073	-0.032
-580.806	191.234	0.209	-0.316
-579.792	104.280	0.051	0.060
-578.777	-52.548	0.096	0.045
-577.763	44.311	-0.142	-0.131
-576.748	-77.165	-0.193	-0.067
-575.733	-125.631	0.503	-0.077
-574.719	800.000	-0.075	-0.216
-573.704	-200.000	0.033	0.161
-572.690	800.000	-0.043	0.182
-571.675	-57.260	0.166	-0.073
-570.661	77.216	-0.163	-0.174
-569.646	-100.741	-0.325	0.080
-568.631	-91.091	0.235	-0.068
-567.617	-59.033	-0.195	0.084
-566.602	-22.239	0.216	-0.131
-565.588	-49.576	0.416	0.199
-564.573	80.045	-0.163	0.176
-563.558	-142.839	0.214	0.021
-562.544	-73.590	0.323	-0.118
-561.529	-108.446	-0.351	-0.076
-560.515	-113.048	-0.235	-0.047
-559.500	501.201	0.066	0.154
-558.485	327.514	-0.079	0.152
-557.471	-200.000	0.038	-0.211
-556.456	504.901	-0.111	-0.257
-555.442	57.961	0.055	0.054
-554.427	109.290	-0.167	-0.201
-553.412	-103.241	-0.287	0.068
-552.398	-196.534	0.136	0.001
-551.383	245.301	-0.188	0.318
-550.369	188.359	0.221	0.332
-549.354	23.017	0.094	-0.077
-548.339	-179.194	-0.105	-0.002
-547.325	-146.880	-0.107	-0.009
-546.310	95.344	0.149	-0.170
-545.296	750.072	-0.074	0.200
-544.281	-77.846	-0.147	0.051
-543.266	-131.923	0.285	0.037
-542.252	-37.078	-0.132	-0.071
-541.237	37.675	-0.246	0.219
-540.223	57.370	-0.118	0.115
-539.208	209.362	-0.170	0.268
-538.193	211.617	-0.145	0.229
-537.179	-175.470	0.284	-0.008
-536.164	110.889	-0.131	0.159
-535.150	-48.815	-0.285	0.137
-534.135	49.695	0.042	-0.040
-533.121	-26.374	-0.366	0.216
-532.106	-200.000	0.017	0.329
-531.091	-34.776	0.233	0.128
-530.077	-72.389	0.194	-0.072
-529.062	-135.086	0.269	0.032
-528.048	-110.041	-0.509	0.107
-527.033	300.696	-0.145	-0.269
-526.018	266.203	0.223	0.390
-525.004	-38.088	0.375	0.200
-523.989	-129.607	-0.194	-0.027
-522.975	-200.000	-0.057	0.395
-521.960	164.328	0.044	0.062
-520.945	-90.411	0.272	0.079
-519.931	158.270	0.100	0.139
-518.916	-200.000	0.013	0.140
-517.902	-200.000	-0.018	0.163
-516.887	-48.141	0.366	0.177
-515.872	-84.012	0.111	-0.035
-514.858	-118.575	0.123	-0.022
-513.843	-172.540	0.188	0.006
-512.829	-18.221	-0.163	-0.102
-511.814	-73.935	0.133	0.049
-510.799	800.000	-0.119	0.344
-509.785	-139.667	-0.355	0.038
-508.770	222.761	0.128	-0.207
-507.756	800.000	0.094	0.334
-506.741	599.725	-0.020	0.051
-505.726	-117.896	0.408	-0.073
-504.712	578.462	-0.100	0.245
-503.697	765.707	0.041	-0.110
-502.683	451.642	0.075	0.165
-501.668	-200.000	-0.015	0.278
-500.653	800.000	-0.082	0.320
-499.639	-57.454	-0.214	-0.094
-498.624	800.000	-0.071	-0.238
-497.610	800.000	-0.033	0.095
-496.595	10.514	0.264	0.202
-495.581	-58.287	0.281	-0.122
-494.566	800.000	0.088	-0.288
-493.551	-65.774	0.354	0.142
-492.537	204.027	0.154	-0.239
-491.522	-135.926	0.203	-0.024
-490.508	-200.000	-0.083	-0.543
-489.493	102.982	-0.065	0.076
-488.478	-200.000	-0.011	0.165
-487.464	-55.994	0.371	0.166
-486.449	162.195	-0.026	0.037
-485.435	800.000	-0.022	0.079
-484.420	106.658	-0.107	0.127
-483.405	-86.406	0.190	0.059
-482.391	251.468	0.037	-0.062
-481.376	580.388	-0.026	0.064
-480.362	-97.717	-0.405	-0.105
-479.347	15.613	-0.054	0.043
-478.332	40.340	-0.283	-0.255
-477.318	117.725	-0.180	-0.222
-476.303	-29.661	0.115	0.066
-475.289	62.924	-0.163	0.164
-474.274	-34.710	-0.262	-0.143
-473.259	-37.289	-0.362	-0.194
-472.245	397.598	-0.083	-0.174
-471.230	-174.073	0.343	-0.010
-470.216	-35.006	0.207	0.113
-469.201	-29.775	0.179	0.102
-468.186	29.403	0.198	0.169
-467.172	531.318	0.041	0.097
-466.157	800.000	-0.068	0.220
-465.143	74.989	-0.161	-0.170
-464.128	541.640	-0.134	-0.320
-463.113	340.829	0.172	-0.336
-462.099	-200.000	-0.014	-0.099
-461.084	166.160	0.157	0.222
-460.070	211.489	-0.040	0.063
-459.055	-81.167	-0.157	-0.052
-458.040	83.444	0.154	-0.168
-457.026	429.044	0.112	0.242
-456.011	-200.000	-0.009	-0.329
-454.997	150.605	0.053	-0.073
-453.982	-200.000	-0.004	0.037
-452.968	240.813	-0.108	0.180
-451.953	-200.000	0.082	-0.556
-450.938	-200.000	0.016	-0.112
-449.924	279.810	-0.055	0.099
-448.909	101.615	0.180	0.210
-447.895	-200.000	0.034	0.226
-446.880	-76.677	0.055	0.019
-445.865	-49.548	-0.054	0.026
-444.851	-200.000	0.029	-0.225
-443.836	-103.434	0.101	-0.024
-442.822	-0.204	0.174	0.123
-441.807	-200.000	-0.071	-0.314
-440.792	-167.711	-0.372	0.015
-439.778	80.800	0.067	-0.072
-438.763	-200.000	-0.036	0.274
-437.749	-99.617	0.083	-0.021
-436.734	6.317	-0.163	-0.121
-435.719	-94.708	-0.293	0.080
-434.705	-200.000	0.027	0.407
-433.690	-154.064	-0.251	0.017
-432.676	54.002	-0.173	0.167
-431.661	-41.830	-0.364	0.187
-430.646	800.000	-0.051	0.150
-429.632	-98.227	-0.007	-0.002
-428.617	402.375	-0.071	-0.150
-427.603	-6.397	-0.056	0.038
-426.588	-42.359	0.213	-0.109
-425.573	-86.564	0.170	0.052
-424.559	116.082	0.354	0.432
-423.544	54.138	0.100	0.096
-422.530	-3.128	0.115	0.080
-421.515	-15.889	-0.145	0.092
-420.500	136.564	-0.204	-0.266
-419.486	147.995	0.185	-0.249
-418.471	-200.000	0.008	-0.292
-417.457	-200.000	-0.001	0.134
-416.442	-57.282	0.086	0.038
-415.428	-85.520	-0.288	0.089
-414.413	1.751	-0.262	0.189
-413.398	67.180	0.268	-0.272
-412.384	-71.961	0.251	-0.093
-411.369	-78.408	0.235	0.080
-410.355	-44.383	0.062	0.031
-409.340	-13.624	-0.276	0.178
-408.325	39.058	-0.165	-0.147
-407.311	-155.580	-0.036	0.002
-406.296	-159.939	0.172	0.009
-405.282	-200.000	-0.024	-0.189
-404.267	82.908	-0.055	-0.059
-403.252	800.000	0.055	-0.208
-402.238	466.153	0.013	0.028
-401.223	-200.000	0.001	-0.011
-400.209	129.074	-0.087	-0.110
-399.194	-138.733	-0.267	-0.029
-398.179	800.000	0.065	0.273
-397.165	-200.000	0.144	0.000
-396.150	-129.123	0.161	0.022
-395.136	-200.000	-0.015	-0.611
-394.121	180.749	-0.155	-0.227
-393.106	-200.000	0.015	0.219
-392.092	-60.447	0.195	0.083
-391.077	-104.781	0.049	-0.011
-390.063	-69.357	-0.119	0.046
-389.048	30.217	-0.298	0.254
-388.033	-121.213	0.064	-0.011
-387.019	-135.160	0.249	-0.030
-386.004	313.847	-0.132	-0.247
-384.990	18.361	0.044	-0.035
-383.975	-122.970	0.185	0.030
-382.960	-200.000	-0.043	-0.298
-381.946	356.647	0.083	-0.165
-380.931	-70.027	0.189	0.072
-379.917	-200.000	-0.023	-0.205
-378.902	260.443	-0.148	-0.256
-377.888	-200.000	-0.000	0.017
-376.873	52.904	0.245	-0.234
-375.858	-200.000	0.087	0.420
-374.844	183.660	0.057	-0.084
-373.829	-200.000	0.006	-0.329
-372.815	-111.930	0.248	0.050
-371.800	596.313	0.042	-0.104
-370.785	-62.293	0.297	-0.123
-369.771	305.519	-0.165	-0.305
-368.756	69.278	0.228	0.233
-367.742	509.750	-0.057	0.133
-366.727	-78.948	-0.122	0.041
-365.712	43.398	0.198	0.180
-364.698	-90.449	-0.290	0.084
-363.683	-200.000	0.014	0.137
-362.669	-149.223	-0.109	-0.009
-361.654	7.019	-0.109	0.081
-360.639	-108.485	-0.234	0.050
-359.625	-130.089	-0.307	0.042
-358.610	796.346	-0.094	-0.258
-357.596	-200.000	0.009	-0.269
-356.581	-200.000	0.006	-0.306
-355.566	72.889	0.091	0.094
-354.552	-200.000	0.029	-0.133
-353.537	-55.398	0.316	0.141
-352.523	800.000	-0.013	0.046
-351.508	-169.701	-0.473	-0.017
-350.493	-4.858	0.137	-0.094
-349.479	235.315	0.208	-0.342
-348.464	-105.307	-0.197	0.045
-347.450	-68.086	-0.091	-0.035
-346.435	45.164	0.113	0.103
-345.420	-21.005	0.403	-0.245
-344.406	78.534	0.142	-0.151
-343.391	-30.990	0.087	-0.049
-342.377	-159.059	-0.032	-0.002
-341.362	-99.243	-0.299	-0.075
-340.348	-200.000	0.050	0.450
-339.333	-56.512	0.079	0.035
-338.318	201.513	-0.150	0.229
-337.304	-51.398	-0.216	-0.100
-336.289	-200.000	-0.031	-0.158
-335.275	130.503	0.065	0.084
-334.260	-200.000	0.017	0.365
-333.245	-36.629	0.137	0.073
-332.231	-9.737	0.168	0.111
-331.216	-200.000	-0.011	0.113
-330.202	83.524	-0.280	-0.303
-329.187	-200.000	-0.030	-0.168
-328.172	-200.000	0.007	-0.150
-327.158	-132.429	0.178	0.023
-326.143	-173.218	-0.145	0.004
-325.129	-176.262	-0.193	-0.005
-324.114	759.258	0.010	0.027
-323.099	-54.725	-0.186	0.084
-322.085	-76.408	0.237	-0.083
-321.070	-200.000	-0.036	-0.352
-320.056	-200.000	0.038	-0.224
-319.041	-200.000	-0.054	0.312
-318.026	58.551	0.228	0.222
-317.012	-200.000	0.018	0.319
-315.997	44.252	-0.173	0.158
-314.983	28.222	-0.235	-0.197
-313.968	-25.417	-0.091	-0.053
-312.953	-200.000	0.020	-0.273
-311.939	800.000	0.080	-0.247
-310.924	-200.000	0.012	-0.134
-309.910	445.262	0.065	0.142
-308.895	204.831	-0.096	-0.149
-307.880	-28.757	-0.220	-0.126
-306.866	343.913	0.041	0.079
-305.851	800.000	0.046	0.181
-304.837	-47.606	0.225	-0.109
-303.822	-200.000	-0.010	-0.059
-302.807	800.000	-0.066	0.225
-301.793	-200.000	-0.039	-0.251
-300.778	-43.649	-0.390	0.195
-299.764	-200.000	-0.006	0.104
-298.749	800.000	-0.089	-0.274
-297.735	-104.057	0.236	0.055
-296.720	154.471	-0.093	-0.127
-295.705	800.000	0.053	0.147
-294.691	-82.775	0.222	-0.071
-293.676	759.214	-0.062	-0.168
-292.662	-41.539	0.176	-0.090
-291.647	-92.822	-0.243	0.067
-290.632	-68.628	0.151	0.058
-289.618	-200.000	-0.072	0.438
-288.603	800.000	0.011	0.034
-287.589	-200.000	-0.002	0.098
-286.574	-18.070	0.324	0.201
-285.559	-200.000	0.014	-0.114
-284.545	11.687	0.103	0.079
-283.530	-3.406	-0.210	-0.145
-282.516	-200.000	-0.032	0.140
-281.501	-17.075	0.215	0.135
-280.486	-39.795	0.046	0.024
-279.472	-93.836	0.092	-0.025
-278.457	-99.568	0.130	0.033
-277.443	187.352	-0.110	0.163
-276.428	48.642	0.132	-0.123
-275.413	52.284	-0.235	0.223
-274.399	-184.833	-0.218	0.003
-273.384	198.873	0.106	-0.161
-272.370	800.000	0.062	-0.224
-271.355	-114.590	-0.034	0.006
-270.340	119.305	-0.126	0.155
-269.326	95.282	0.219	0.248
-268.311	-24.305	-0.072	0.043
-267.297	800.000	-0.052	-0.187
-266.282	-200.000	0.010	-0.188
-265.267	800.000	0.091	-0.275
-264.253	12.968	-0.134	-0.103
-263.238	-25.156	0.273	-0.161
-262.224	191.898	-0.162	0.243
-261.209	-21.856	-0.082	-0.050
-260.195	-32.398	-0.248	0.137
-259.180	-200.000	0.033	-0.279
-258.165	-144.210	0.133	-0.012
-257.151	-174.319	0.270	-0.008
-256.136	327.602	-0.124	0.235
-255.122	-200.000	0.040	-0.176
-254.107	-118.337	0.328	-0.058
-253.092	-200.000	0.211	0.001
-252.078	-7.569	0.256	-0.172
-251.063	47.182	0.224	-0.207
-250.049	-200.000	-0.035	-0.198
-249.034	446.811	-0.102	0.223
-248.019	82.757	0.009	0.010
-247.005	-53.226	-0.378	0.172
-245.990	-112.432	-0.057	0.011
-244.976	4.253	-0.130	0.094
-243.961	-200.000	-0.009	-0.259
-242.946	17.298	-0.099	-0.078
-241.932	-77.758	-0.278	0.095
-240.917	71.973	-0.086	-0.089
-239.903	-109.369	-0.556	0.117
-238.888	510.992	0.107	-0.246
-237.873	2.342	-0.306	0.219
-236.859	-200.000	-0.017	0.161
-235.844	-113.737	0.356	0.069
-234.830	-200.000	-0.011	0.172
-233.815	-147.452	0.253	-0.021
-232.800	-200.000	-0.018	-0.346
-231.786	-13.800	0.161	0.103
-230.771	-117.829	-0.260	-0.046
-229.757	699.363	0.015	-0.039
-228.742	-200.000	-0.027	-0.117
-227.727	-1.504	-0.133	-0.093
-226.713	523.055	0.109	0.253
-225.698	432.283	0.078	-0.168
-224.684	31.354	-0.208	0.177
-223.669	-200.000	-0.020	-0.149
-222.655	35.663	-0.253	-0.220
-221.640	-22.503	0.045	0.027
-220.625	-200.000	-0.004	0.394
-219.611	-200.000	-0.013	0.372
-218.596	-200.000	-0.005	0.149
-217.582	-46.805	-0.184	0.089
-216.567	240.884	0.046	0.076
-215.552	-63.479	0.083	-0.034
-214.538	-69.468	0.155	0.059
-213.523	-36.165	-0.111	0.059
-212.509	-83.372	-0.285	0.091
-211.494	-29.653	-0.051	0.029
-210.479	800.000	0.075	0.304
-209.465	150.019	-0.029	0.039
-208.450	-200.000	-0.032	0.279
-207.436	11.807	-0.098	-0.075
-206.421	8.822	0.353	-0.264
-205.406	-200.000	-0.226	0.001
-204.392	-200.000	0.012	-0.383
-203.377	800.000	0.115	0.316
-202.363	-61.746	-0.058	0.024
-201.348	-141.791	-0.184	0.018
-200.333	-165.975	-0.131	-0.006
-199.319	657.268	-0.032	0.081
-198.304	98.372	-0.182	0.208
-197.290	-200.000	-0.010	0.240
-196.275	-105.221	0.086	0.020
-195.260	-22.590	0.336	-0.201
-194.246	463.489	0.163	0.359
-193.231	703.022	0.037	-0.098
-192.217	-96.971	0.494	0.128
-191.202	73.343	0.026	-0.027
-190.187	52.715	-0.194	0.184
-189.173	-27.132	-0.065	0.037
-188.158	800.000	-0.014	0.061
-187.144	800.000	0.025	-0.079
-186.129	-104.732	0.075	0.017
-185.114	-75.766	0.383	0.134
-184.100	81.045	0.127	-0.135
-183.085	-155.514	0.336	-0.021
-182.071	418.299	0.121	0.255
-181.056	215.665	0.194	-0.305
-180.042	472.141	-0.141	-0.313
-179.027	-63.795	-0.212	-0.086
-178.012	-165.487	-0.118	-0.005
-176.998	-200.000	-0.005	-0.071
-175.983	800.000	0.118	0.388
-174.969	0.258	0.060	0.042
-173.954	800.000	0.011	0.037
-172.939	-41.436	0.197	-0.100
-171.925	800.000	-0.100	-0.298
-170.910	18.221	0.093	-0.074
-169.896	-200.000	0.036	0.181
-168.881	110.887	0.094	-0.112
-167.866	-200.000	0.011	-0.418
-166.852	-149.206	0.191	-0.015
-165.837	-42.465	-0.214	-0.108
-164.823	470.340	-0.089	-0.199
-163.808	313.611	-0.038	-0.071
-162.793	-48.246	0.305	-0.145
-161.779	129.802	-0.086	0.109
-160.764	-200.000	0.058	-0.256
-159.750	121.791	-0.039	-0.048
-158.735	267.257	0.033	-0.057
-157.720	-162.056	0.244	0.012
-156.706	-128.180	-0.287	-0.041
-155.691	400.037	0.071	0.147
-154.677	800.000	0.055	0.186
-153.662	314.146	-0.132	0.246
-152.647	-200.000	0.085	0.416
-151.633	800.000	-0.043	-0.134
-150.618	2.763	0.137	-0.098
-149.604	-123.094	-0.111	-0.018
-148.589	436.009	0.020	0.043
-147.574	-15.930	0.092	0.058
-146.560	-200.000	-0.138	0.711
-145.545	-140.397	0.475	0.049
-144.531	414.782	0.093	0.195
-143.516	-56.449	0.246	0.108
-142.502	-183.545	0.138	-0.002
-141.487	-93.575	0.311	-0.085
-140.472	-160.078	-0.185	0.010
-139.458	9.092	-0.040	-0.030
-138.443	212.633	-0.046	-0.072
-137.429	9.925	-0.077	0.058
-136.414	192.594	0.207	0.309
-135.399	141.376	0.103	-0.135
-134.385	-86.702	-0.180	-0.054
-133.370	-127.620	0.122	-0.017
-132.356	-128.653	-0.204	0.029
-131.341	171.607	0.034	-0.048
-130.326	-200.000	0.029	-0.327
-129.312	448.652	-0.162	-0.353
-128.297	18.932	-0.365	-0.288
-127.283	170.932	0.183	-0.259
-126.268	0.659	0.382	-0.269
-125.253	224.632	0.073	0.117
-124.239	51.797	0.243	-0.229
-123.224	-94.896	-0.041	0.011
-122.210	-77.795	-0.040	0.014
