DTS Sentinel unit serial number:	SN413079Multiplexer serial number:	ORYXHardware model number:	OX4-SRSoftware version number:	ORYX F/W v4.00 Oryx Data Collector v3.7.2.0data status	okinstallation	princeton_trtdifferential loss correction	single-endedforward channel	channel 2reverse channel	N/Adate	2019/09/19time	10:19:34forward acquisition time	60.00reverse acquisition time	0.00gamma	496.2192k internal	0.2343k external	0.2343temperature offset calibration	1.0005default loss term (dB/km)	0.3790temperature slope calibration	1.0000multiplexer offset coefficient	1.0000multiplexer slope coefficient	1.0000fibre end	0.00T internal ref (°C)	24.17T ext. ref 1 (°C)	0.70T ext. ref 2 (°C)	19.73length (m)	temperature (°C)	Stokes	anti-Stokes-747.200	8.035	-0.313	0.235
-746.185	178.985	-0.214	0.313
-745.171	-172.330	0.192	-0.006
-744.156	-78.329	-0.334	0.115
-743.142	800.000	-0.049	0.139
-742.127	-200.000	-0.062	0.462
-741.112	102.732	0.078	-0.092
-740.098	-200.000	0.005	-0.192
-739.083	-133.826	-0.145	-0.018
-738.069	-41.174	-0.264	0.136
-737.054	78.978	0.136	0.146
-736.039	68.438	-0.179	0.183
-735.025	316.782	0.058	0.110
-734.010	-77.030	-0.108	0.038
-732.996	117.134	-0.114	-0.140
-731.981	-71.709	-0.406	-0.152
-730.966	-200.000	-0.015	0.096
-729.952	-174.767	-0.302	-0.009
-728.937	-89.716	0.045	-0.013
-727.923	-167.730	-0.271	0.011
-726.908	-200.000	0.045	-0.461
-725.894	-171.730	0.089	-0.003
-724.879	274.232	0.091	-0.161
-723.864	-200.000	0.033	0.221
-722.850	-200.000	0.024	-0.120
-721.835	-102.678	-0.232	-0.055
-720.821	-88.823	-0.092	-0.027
-719.806	-86.339	-0.043	-0.013
-718.791	-112.585	-0.108	0.022
-717.777	51.860	-0.168	-0.160
-716.762	110.865	-0.084	0.101
-715.748	-54.076	-0.263	-0.120
-714.733	-200.000	-0.015	-0.309
-713.718	-170.516	0.300	0.010
-712.704	48.759	0.213	0.200
-711.689	-200.000	-0.013	0.065
-710.675	-188.116	-0.330	-0.004
-709.660	-87.269	0.180	0.055
-708.645	-200.000	-0.011	0.049
-707.631	-73.557	-0.174	0.063
-706.616	15.831	-0.176	0.138
-705.602	317.160	-0.105	0.198
-704.587	143.414	-0.093	-0.124
-703.572	-99.128	0.131	0.033
-702.558	-36.984	-0.099	-0.053
-701.543	19.576	0.036	-0.029
-700.529	-40.367	-0.067	-0.035
-699.514	-200.000	0.004	-0.171
-698.499	-200.000	0.004	0.113
-697.485	345.945	-0.104	0.205
-696.470	185.354	-0.049	-0.073
-695.456	-116.099	-0.188	-0.035
-694.441	-200.000	-0.021	0.231
-693.426	-200.000	0.013	-0.074
-692.412	-123.597	-0.223	0.035
-691.397	-103.313	-0.320	-0.075
-690.383	-98.294	0.461	0.118
-689.368	-171.940	-0.303	0.010
-688.354	111.450	-0.075	-0.090
-687.339	105.560	-0.023	0.027
-686.324	-125.908	0.129	-0.019
-685.310	-200.000	-0.038	-0.200
-684.295	294.974	0.112	-0.204
-683.281	-200.000	0.020	-0.134
-682.266	-200.000	0.008	0.139
-681.251	-30.544	0.270	-0.153
-680.237	-200.000	-0.015	-0.077
-679.222	67.628	-0.299	-0.305
-678.208	113.730	0.169	0.206
-677.193	-118.367	-0.121	0.021
-676.178	-163.582	-0.347	0.016
-675.164	402.089	-0.070	-0.147
-674.149	-81.588	-0.356	-0.117
-673.135	-48.500	0.188	-0.090
-672.120	-200.000	0.093	0.618
-671.105	800.000	0.083	0.248
-670.091	-200.000	-0.001	0.102
-669.076	-65.659	-0.252	0.101
-668.062	75.399	-0.062	-0.065
-667.047	-200.000	0.060	0.381
-666.032	133.305	-0.125	0.161
-665.018	162.364	0.077	0.108
-664.003	-14.301	-0.373	-0.240
-662.989	-10.018	0.056	-0.037
-661.974	-0.569	-0.097	-0.069
-660.959	234.600	-0.109	-0.179
-659.945	-26.324	-0.123	-0.072
-658.930	-152.341	0.051	-0.004
-657.916	-26.292	-0.076	-0.044
-656.901	-70.733	-0.118	-0.045
-655.886	-67.021	0.053	-0.021
-654.872	-200.000	0.016	-0.163
-653.857	767.165	-0.029	-0.079
-652.843	-92.303	-0.460	0.129
-651.828	800.000	-0.067	0.232
-650.814	93.430	0.167	-0.188
-649.799	543.158	-0.100	-0.237
-648.784	-116.544	0.197	-0.036
-647.770	800.000	0.027	-0.112
-646.755	-10.657	-0.273	0.180
-645.741	-200.000	-0.029	0.195
-644.726	-65.855	-0.079	-0.032
-643.711	-200.000	-0.082	0.364
-642.697	-139.828	0.127	0.013
-641.682	-24.603	-0.303	-0.180
-640.668	76.122	0.109	-0.115
-639.653	800.000	0.066	-0.242
-638.638	-27.120	-0.269	0.157
-637.624	-103.113	0.176	0.042
-636.609	512.788	-0.074	-0.172
-635.595	711.699	0.101	0.268
-634.580	-79.852	-0.151	0.050
-633.565	85.116	0.028	-0.031
-632.551	-200.000	0.004	-0.147
-631.536	255.387	0.098	0.167
-630.522	81.478	-0.093	-0.100
-629.507	-200.000	-0.085	-0.441
-628.492	-43.243	-0.186	-0.094
-627.478	800.000	0.044	0.137
-626.463	-77.674	-0.063	-0.022
-625.449	-200.000	0.016	-0.218
-624.434	-110.741	-0.116	-0.024
-623.419	80.410	0.317	-0.340
-622.405	-130.270	0.141	-0.019
-621.390	-200.000	0.043	0.282
-620.376	-135.620	-0.381	0.045
-619.361	-7.374	-0.212	-0.143
-618.346	650.780	0.088	-0.225
-617.332	-62.313	-0.177	0.073
-616.317	800.000	0.034	-0.147
-615.303	-91.487	0.190	-0.054
-614.288	-130.415	-0.098	0.013
-613.273	-121.948	-0.152	0.025
-612.259	-82.592	-0.114	-0.037
-611.244	-37.558	-0.164	0.087
-610.230	-163.448	-0.171	-0.008
-609.215	43.957	0.049	0.045
-608.201	-69.877	-0.147	-0.056
-607.186	199.622	-0.073	-0.112
-606.171	-0.458	0.107	0.075
-605.157	-33.948	-0.193	0.106
-604.142	-10.526	-0.145	0.096
-603.128	135.808	0.184	0.239
-602.113	-200.000	0.014	0.075
-601.098	176.041	-0.074	-0.107
-600.084	-90.240	-0.307	-0.089
-599.069	-124.997	0.371	0.057
-598.055	665.211	-0.061	0.157
-597.040	-200.000	-0.025	0.198
-596.025	150.789	0.147	-0.199
-595.011	800.000	0.143	-0.395
-593.996	-200.000	-0.011	0.073
-592.982	-185.969	-0.488	-0.007
-591.967	108.928	0.203	-0.241
-590.952	-23.328	-0.182	-0.109
-589.938	-63.884	-0.240	0.098
-588.923	-200.000	-0.003	0.207
-587.909	48.875	-0.165	0.154
-586.894	44.412	-0.285	-0.261
-585.879	-50.426	-0.158	0.074
-584.865	122.773	-0.177	-0.220
-583.850	800.000	-0.032	-0.128
-582.836	207.768	0.150	0.233
-581.821	58.909	-0.236	0.231
-580.806	800.000	0.097	-0.303
-579.792	-29.815	0.259	0.147
-578.777	800.000	0.041	-0.124
-577.763	-200.000	0.011	0.178
-576.748	-125.438	-0.167	-0.025
-575.733	24.235	0.113	0.093
-574.719	-187.545	0.128	-0.002
-573.704	-200.000	0.018	-0.107
-572.690	102.327	-0.232	-0.270
-571.675	-86.990	0.335	0.101
-570.661	-109.346	0.095	0.020
-569.646	-77.881	0.332	0.114
-568.631	-2.435	0.238	0.166
-567.617	106.533	-0.111	-0.131
-566.602	518.178	0.113	0.263
-565.588	64.325	-0.309	-0.309
-564.573	74.306	-0.128	0.134
-563.558	-200.000	-0.023	-0.229
-562.544	-70.624	-0.290	0.109
-561.529	-41.267	-0.122	0.063
-560.515	-31.487	-0.156	-0.087
-559.500	-200.000	0.002	-0.172
-558.485	800.000	0.110	-0.419
-557.471	-135.259	0.113	-0.013
-556.456	320.352	-0.160	0.303
-555.442	10.229	0.390	0.295
-554.427	141.082	-0.133	0.174
-553.412	-78.628	-0.171	-0.058
-552.398	278.879	0.137	-0.242
-551.383	800.000	0.058	-0.159
-550.369	-71.772	0.181	-0.067
-549.354	6.194	-0.132	0.097
-548.339	-60.641	-0.160	0.067
-547.325	152.237	0.360	0.489
-546.310	62.787	-0.019	-0.019
-545.296	-200.000	-0.009	-0.251
-544.281	312.901	0.075	0.141
-543.266	-138.664	0.397	0.043
-542.252	-162.998	0.223	-0.011
-541.237	223.700	0.101	-0.161
-540.223	-200.000	0.019	-0.142
-539.208	219.531	-0.088	0.140
-538.193	27.793	-0.361	-0.302
-537.179	-200.000	-0.012	-0.080
-536.164	17.346	0.071	-0.056
-535.150	-97.018	0.250	-0.065
-534.135	-200.000	0.005	-0.082
-533.121	158.874	0.184	-0.253
-532.106	13.926	-0.300	0.232
-531.091	800.000	-0.116	0.362
-530.077	-200.000	-0.075	-0.336
-529.062	-200.000	-0.024	-0.147
-528.048	-92.252	-0.099	0.028
-527.033	154.450	-0.078	0.106
-526.018	-82.111	0.308	0.100
-525.004	-68.601	0.067	0.026
-523.989	-200.000	0.011	-0.263
-522.975	79.290	-0.124	-0.132
-521.960	-1.051	0.207	0.145
-520.945	-55.298	-0.301	-0.134
-519.931	-149.614	-0.185	-0.014
-518.916	-40.643	0.191	-0.098
-517.902	800.000	0.010	0.036
-516.887	339.645	0.083	0.160
-515.872	447.480	0.145	0.317
-514.858	800.000	0.099	0.281
-513.843	800.000	-0.078	0.294
-512.829	-51.322	0.317	0.147
-511.814	237.131	-0.067	-0.110
-510.799	357.221	0.083	-0.164
-509.785	200.892	-0.066	-0.101
-508.770	-37.773	0.175	0.092
-507.756	-136.889	0.308	-0.035
-506.741	302.179	0.051	0.094
-505.726	274.351	0.141	0.247
-504.712	800.000	-0.087	0.370
-503.697	14.160	-0.163	0.126
-502.683	-21.419	-0.450	-0.273
-501.668	642.367	-0.097	-0.246
-500.653	114.419	-0.046	0.055
-499.639	13.234	-0.098	-0.075
-498.624	-57.390	0.033	-0.014
-497.610	-200.000	0.033	-0.191
-496.595	9.182	0.246	-0.184
-495.581	32.439	0.141	0.120
-494.566	189.346	-0.032	-0.047
-493.551	-28.959	0.192	0.109
-492.537	119.450	0.054	0.066
-491.522	800.000	0.033	0.096
-490.508	-8.300	-0.235	-0.157
-489.493	294.575	-0.059	0.107
-488.478	380.300	-0.055	0.112
-487.464	767.668	-0.031	0.084
-486.449	-192.120	-0.239	0.002
-485.435	-118.589	0.252	0.044
-484.420	-99.041	-0.048	-0.012
-483.405	753.136	-0.190	0.510
-482.391	-27.175	-0.333	0.193
-481.376	-69.237	-0.250	0.095
-480.362	224.407	0.191	0.307
-479.347	-42.965	0.246	0.124
-478.332	239.334	0.097	-0.159
-477.318	-80.851	0.179	-0.059
-476.303	-57.572	-0.195	0.085
-475.289	-200.000	-0.012	-0.137
-474.274	596.410	0.040	-0.097
-473.259	33.210	0.148	0.127
-472.245	149.599	-0.094	0.126
-471.230	-200.000	0.177	0.000
-470.216	-85.729	-0.337	-0.104
-469.201	365.313	-0.087	0.173
-468.186	84.604	0.075	-0.082
-467.172	-200.000	-0.014	-0.198
-466.157	-200.000	-0.048	0.227
-465.143	-118.464	-0.256	-0.045
-464.128	-68.697	0.104	-0.040
-463.113	-133.861	-0.035	-0.004
-462.099	-200.000	0.046	-0.349
-461.084	-138.382	0.162	0.018
-460.070	-167.080	0.284	0.011
-459.055	245.502	-0.191	-0.318
-458.040	-94.711	0.213	0.057
-457.026	-163.039	0.246	0.012
-456.011	245.743	-0.058	0.097
-454.997	-45.979	-0.371	0.181
-453.982	800.000	0.037	-0.147
-452.968	-126.300	0.142	0.021
-451.953	45.437	-0.152	0.139
-450.938	-86.979	-0.362	0.109
-449.924	-200.000	0.002	0.276
-448.909	86.511	0.117	0.127
-447.895	-177.758	-0.190	-0.005
-446.880	-86.631	0.123	0.037
-445.865	-39.281	0.203	-0.106
-444.851	800.000	-0.053	-0.154
-443.836	-74.619	-0.163	-0.058
-442.822	-32.782	-0.143	0.079
-441.807	254.737	0.120	-0.202
-440.792	122.791	-0.135	0.168
-439.778	-128.079	-0.235	-0.033
-438.763	-91.861	-0.184	0.052
-437.749	-200.000	0.016	0.167
-436.734	-59.726	0.160	-0.068
-435.719	333.743	-0.023	-0.045
-434.705	-78.541	-0.300	-0.102
-433.690	800.000	-0.047	-0.134
-432.676	175.084	0.076	-0.109
-431.661	61.178	0.138	0.136
-430.646	-86.795	0.231	0.070
-429.632	-100.930	0.253	-0.061
-428.617	608.600	0.035	-0.085
-427.603	8.635	0.244	-0.182
-426.588	-12.207	-0.283	0.183
-425.573	67.401	0.226	-0.228
-424.559	283.685	0.150	0.266
-423.544	-127.380	-0.251	0.036
-422.530	522.660	0.109	-0.253
-421.515	195.071	-0.091	0.136
-420.500	800.000	-0.005	0.019
-419.486	-49.890	0.155	-0.073
-418.471	421.081	0.172	0.364
-417.457	-200.000	-0.015	-0.068
-416.442	301.225	-0.107	-0.196
-415.428	19.646	-0.247	-0.197
-414.413	715.402	-0.046	0.121
-413.398	-200.000	0.029	0.126
-412.384	20.152	-0.255	0.204
-411.369	-64.371	-0.224	0.090
-410.355	-3.731	0.096	0.066
-409.340	94.452	0.147	-0.165
-408.325	-49.367	-0.076	0.036
-407.311	84.136	-0.055	-0.059
-406.296	-30.386	0.137	-0.077
-405.282	-200.000	-0.039	-0.170
-404.267	800.000	-0.058	-0.171
-403.252	-148.941	-0.143	-0.011
-402.238	38.825	0.181	0.160
-401.223	-35.476	-0.108	-0.058
-400.209	2.166	0.149	0.107
-399.194	-143.017	-0.035	-0.003
-398.179	6.357	0.285	0.209
-397.165	-200.000	-0.169	-0.000
-396.150	-23.923	0.253	0.150
-395.136	60.941	0.203	0.198
-394.121	69.893	-0.186	-0.189
-393.106	36.747	0.129	0.112
-392.092	-73.327	-0.260	-0.094
-391.077	159.345	0.331	-0.455
-390.063	18.081	0.067	-0.053
-389.048	-200.000	0.003	0.293
-388.033	-151.700	0.189	0.014
-387.019	-163.262	0.319	-0.015
-386.004	800.000	0.019	0.056
-384.990	800.000	-0.028	-0.113
-383.975	-129.046	0.369	0.051
-382.960	51.398	0.164	-0.154
-381.946	-200.000	0.025	0.194
-380.931	800.000	-0.068	-0.239
-379.917	-86.334	-0.271	0.082
-378.902	80.348	-0.089	-0.095
-377.888	-192.296	-0.104	0.001
-376.873	-91.556	0.259	-0.073
-375.858	20.287	-0.266	-0.212
-374.844	-200.000	0.014	0.216
-373.829	-53.466	-0.025	0.011
-372.815	525.784	-0.112	-0.261
-371.800	5.859	0.042	-0.031
-370.785	800.000	-0.048	0.172
-369.771	-56.888	0.185	-0.080
-368.756	-200.000	0.003	-0.026
-367.742	-136.656	0.270	0.031
-366.727	79.545	0.227	0.240
-365.712	-164.593	0.337	0.015
-364.698	-200.000	-0.016	0.186
-363.683	-117.324	0.114	0.020
-362.669	-200.000	0.010	0.208
-361.654	800.000	-0.096	-0.292
-360.639	-82.287	-0.245	0.079
-359.625	-200.000	-0.001	0.155
-358.610	-200.000	-0.013	0.238
-357.596	-56.119	-0.348	-0.153
-356.581	385.805	-0.167	0.339
-355.566	-27.907	-0.111	0.064
-354.552	63.931	0.224	-0.222
-353.537	128.110	0.212	-0.266
-352.523	-200.000	-0.025	-0.234
-351.508	-200.000	0.011	-0.075
-350.493	-200.000	-0.017	-0.150
-349.479	-119.223	-0.089	0.015
-348.464	800.000	-0.086	0.253
-347.450	-48.888	0.159	-0.075
-346.435	-5.585	0.351	-0.237
-345.420	3.378	-0.195	-0.140
-344.406	-16.305	0.214	-0.134
-343.391	-200.000	0.011	0.162
-342.377	59.344	-0.135	-0.131
-341.362	355.321	0.075	-0.148
-340.348	155.472	-0.246	0.334
-339.333	-97.770	0.165	-0.042
-338.318	-41.242	0.269	-0.137
-337.304	351.286	-0.161	-0.315
-336.289	800.000	-0.100	0.309
-335.275	-169.179	-0.201	-0.007
-334.260	800.000	0.031	0.123
-333.245	53.084	0.217	-0.205
-332.231	-129.311	-0.254	-0.035
-331.216	-164.229	-0.263	0.012
-330.202	34.305	0.291	-0.250
-329.187	800.000	0.095	-0.327
-328.172	-20.775	0.122	0.073
-327.158	-200.000	0.049	0.265
-326.143	-31.798	0.141	-0.078
-325.129	-157.890	-0.162	-0.009
-324.114	-1.748	-0.275	-0.191
-323.099	800.000	-0.050	-0.163
-322.085	-112.516	0.544	0.107
-321.070	418.100	0.126	0.266
-320.056	345.665	-0.091	0.176
-319.041	-200.000	0.001	0.111
-318.026	188.630	0.058	0.085
-317.012	800.000	-0.044	-0.186
-315.997	-9.028	-0.138	0.091
-314.983	-43.808	0.352	0.174
-313.968	-109.197	-0.189	-0.040
-312.953	-49.293	-0.334	0.157
-311.939	-78.900	-0.100	0.034
-310.924	-78.986	-0.045	0.015
-309.910	800.000	-0.082	0.317
-308.895	-93.607	0.323	-0.088
-307.880	-37.586	-0.155	0.081
-306.866	-200.000	-0.054	-0.276
-305.851	-41.373	0.192	0.097
-304.837	-200.000	-0.016	-0.134
-303.822	-61.483	-0.114	-0.047
-302.807	-200.000	-0.007	-0.349
-301.793	535.369	0.087	0.203
-300.778	-128.066	-0.290	0.041
-299.764	172.072	0.083	-0.118
-298.749	-200.000	-0.059	-0.466
-297.735	-200.000	-0.030	0.144
-296.720	-200.000	0.056	0.289
-295.705	800.000	-0.071	0.301
-294.691	113.187	0.128	0.153
-293.676	-106.827	0.214	0.047
-292.662	17.286	-0.024	-0.019
-291.647	445.284	-0.086	-0.187
-290.632	-23.746	-0.192	0.113
-289.618	800.000	0.046	-0.155
-288.603	4.880	-0.071	-0.051
-287.589	9.092	-0.123	0.091
-286.574	-200.000	0.081	0.416
-285.559	-200.000	-0.021	0.274
-284.545	217.015	-0.047	0.073
-283.530	-200.000	-0.034	0.161
-282.516	792.114	0.100	-0.271
-281.501	-200.000	-0.003	-0.057
-280.486	-200.000	-0.008	-0.333
-279.472	-143.816	-0.337	0.031
-278.457	-11.507	0.120	0.077
-277.443	-70.886	-0.381	-0.141
-276.428	112.342	0.136	0.161
-275.413	707.300	-0.037	-0.095
-274.399	-165.176	0.282	0.012
-273.384	54.651	0.091	-0.087
-272.370	-67.358	-0.505	-0.195
-271.355	-125.092	0.089	0.013
-270.340	-139.984	-0.045	-0.005
-269.326	-47.121	-0.141	0.068
-268.311	-87.625	0.101	-0.030
-267.297	30.891	-0.169	-0.142
-266.282	198.479	0.106	0.159
-265.267	75.797	0.180	-0.187
-264.253	10.815	-0.065	-0.048
-263.238	-200.000	-0.021	0.567
-262.224	-27.817	-0.112	-0.064
-261.209	-77.374	0.273	0.093
-260.195	33.667	0.089	0.076
-259.180	-200.000	0.008	0.039
-258.165	-200.000	-0.042	-0.326
-257.151	-81.314	-0.528	0.171
-256.136	800.000	-0.082	0.225
-255.122	248.474	-0.162	0.270
-254.107	-200.000	0.067	0.320
-253.092	-40.448	-0.033	0.017
-252.078	121.848	0.010	-0.013
-251.063	124.415	0.124	-0.153
-250.049	-200.000	0.169	0.000
-249.034	-145.866	-0.241	-0.021
-248.019	-46.817	0.267	-0.128
-247.005	572.770	-0.159	0.381
-245.990	-117.679	0.403	0.071
-244.976	-200.000	0.034	-0.248
-243.961	429.270	0.081	0.172
-242.946	-200.000	0.005	-0.364
-241.932	-148.905	-0.199	0.016
-240.917	0.900	0.167	-0.118
-239.903	-66.055	0.257	0.100
-238.888	-35.622	0.255	-0.136
-237.873	24.241	-0.182	0.147
-236.859	21.251	0.165	-0.131
-235.844	-200.000	-0.006	-0.212
-234.830	-200.000	0.043	-0.313
-233.815	-59.413	-0.136	0.057
-232.800	133.834	0.036	0.046
-231.786	150.357	0.160	-0.213
-230.771	-1.892	-0.237	-0.164
-229.757	800.000	-0.027	0.106
-228.742	800.000	-0.067	-0.194
-227.727	102.092	-0.061	-0.070
-226.713	-20.448	-0.214	-0.129
-225.698	465.461	0.061	-0.133
-224.684	42.712	-0.165	0.148
-223.669	-200.000	-0.055	0.326
-222.655	234.922	0.151	-0.245
-221.640	-66.256	-0.457	-0.179
-220.625	289.533	0.197	-0.350
-219.611	-125.452	-0.294	0.044
-218.596	409.643	-0.128	0.266
-217.582	-104.048	0.422	0.096
-216.567	-25.893	0.056	-0.032
-215.552	-200.000	0.004	-0.530
-214.538	-56.902	0.249	-0.108
-213.523	-200.000	-0.049	0.302
-212.509	-119.206	0.470	-0.080
-211.494	-200.000	-0.025	0.216
-210.479	38.233	0.030	0.026
-209.465	311.251	-0.109	0.200
-208.450	127.328	-0.099	0.123
-207.436	-115.664	0.146	0.027
-206.421	22.286	0.148	0.118
-205.406	231.299	-0.220	-0.353
-204.392	-99.992	-0.133	-0.033
-203.377	-200.000	0.007	0.128
-202.363	-200.000	0.014	0.269
-201.348	279.848	0.106	0.186
-200.333	-92.091	-0.292	-0.081
-199.319	-119.873	0.126	-0.021
-198.304	348.336	-0.140	0.271
-197.290	337.155	-0.043	-0.083
-196.275	-200.000	-0.026	-0.232
-195.260	18.754	-0.210	0.164
-194.246	199.777	0.205	-0.308
-193.231	188.588	-0.104	-0.152
-192.217	-200.000	-0.010	0.121
-191.202	86.729	0.166	-0.179
-190.187	-200.000	0.005	-0.247
-189.173	-178.508	0.219	-0.005
-188.158	800.000	0.108	0.352
-187.144	69.561	-0.086	-0.087
-186.129	800.000	-0.138	0.558
-185.114	-29.089	-0.390	-0.219
-184.100	109.196	0.121	-0.142
-183.085	96.715	0.286	-0.320
-182.071	19.495	0.329	-0.259
-181.056	-65.558	-0.287	-0.113
-180.042	-104.292	0.202	0.046
-179.027	-63.658	0.205	0.082
-178.012	-14.861	0.244	0.154
-176.998	618.521	-0.159	0.391
-175.983	516.720	0.153	-0.350
-174.969	208.101	-0.137	0.210
-173.954	-96.219	-0.070	0.018
-172.939	800.000	0.085	-0.305
-171.925	278.514	-0.089	-0.156
-170.910	-200.000	-0.073	-0.418
-169.896	800.000	-0.023	0.095
-168.881	34.786	0.216	0.185
-167.866	-112.467	0.321	-0.063
-166.852	-105.649	0.108	0.024
-165.837	10.746	0.386	0.288
-164.823	-200.000	-0.015	0.187
-163.808	293.236	0.228	-0.406
-162.793	-200.000	0.048	0.245
-161.779	-200.000	0.008	0.131
-160.764	-24.637	0.175	0.102
-159.750	-100.243	-0.166	0.040
-158.735	588.736	-0.035	0.084
-157.720	50.682	-0.288	-0.267
-156.706	-111.507	0.047	-0.009
-155.691	-54.601	-0.042	-0.019
-154.677	-104.566	0.098	-0.022
-153.662	185.352	-0.065	0.094
-152.647	800.000	0.092	0.351
-151.633	-33.946	-0.333	0.179
-150.618	-163.886	0.212	-0.010
-149.604	257.324	0.149	0.250
-148.589	303.237	-0.122	-0.221
-147.574	-200.000	0.041	0.185
-146.560	334.789	0.010	0.018
-145.545	460.277	-0.074	-0.162
-144.531	-200.000	-0.024	-0.108
-143.516	-49.608	-0.220	0.102
-142.502	800.000	0.084	0.302
-141.487	-49.714	-0.153	0.071
-140.472	-24.904	-0.118	-0.068
-139.458	-200.000	-0.025	0.158
-138.443	-200.000	-0.010	-0.214
-137.429	-128.133	-0.198	0.028
-136.414	57.404	-0.170	-0.162
-135.399	-200.000	-0.030	-0.233
-134.385	-94.886	-0.171	0.045
-133.370	-200.000	-0.048	-0.372
-132.356	181.997	0.112	-0.162
-131.341	426.727	0.132	0.278
-130.326	-200.000	-0.007	0.193
-129.312	55.032	-0.137	-0.129
-128.297	-48.987	-0.064	-0.030
-127.283	780.490	0.056	0.151
-126.268	-200.000	0.020	-0.182
-125.253	29.932	0.120	0.100
-124.239	-200.000	0.006	-0.245
-123.224	800.000	0.065	0.250
