DTS Sentinel unit serial number:	SN413079Multiplexer serial number:	ORYXHardware model number:	OX4-SRSoftware version number:	ORYX F/W v4.00 Oryx Data Collector v3.7.2.0data status	okinstallation	princeton_trtdifferential loss correction	single-endedforward channel	channel 2reverse channel	N/Adate	2019/09/16time	21:51:35forward acquisition time	60.00reverse acquisition time	0.00gamma	496.2192k internal	0.2328k external	0.2328temperature offset calibration	0.9967default loss term (dB/km)	0.3790temperature slope calibration	1.0000multiplexer offset coefficient	1.0000multiplexer slope coefficient	1.0000fibre end	0.00T internal ref (°C)	31.25T ext. ref 1 (°C)	0.06T ext. ref 2 (°C)	25.57length (m)	temperature (°C)	Stokes	anti-Stokes-747.200	97.000	0.082	-0.094
-746.185	31.888	-0.045	0.039
-745.171	233.056	0.093	-0.154
-744.156	226.171	-0.111	0.182
-743.142	3.676	-0.261	0.192
-742.127	180.131	-0.119	0.176
-741.112	237.981	-0.068	-0.113
-740.098	-200.000	0.012	0.239
-739.083	201.024	0.271	-0.421
-738.069	-200.000	0.006	-0.350
-737.054	244.165	-0.145	-0.245
-736.039	-200.000	-0.019	-0.156
-735.025	-200.000	-0.010	-0.051
-734.010	118.045	0.084	-0.104
-732.996	-200.000	-0.038	-0.569
-731.981	86.460	-0.015	-0.017
-730.966	800.000	0.012	-0.038
-729.952	39.746	-0.157	0.142
-728.937	800.000	0.076	-0.283
-727.923	370.910	0.043	-0.089
-726.908	800.000	-0.071	0.236
-725.894	-73.696	0.402	0.147
-724.879	-3.800	0.010	0.007
-723.864	-129.045	-0.257	-0.036
-722.850	122.574	0.134	-0.169
-721.835	-5.090	0.208	-0.144
-720.821	800.000	0.065	-0.227
-719.806	-200.000	-0.051	-0.228
-718.791	54.587	0.068	-0.066
-717.777	-69.576	0.200	-0.077
-716.762	800.000	-0.056	-0.158
-715.748	-140.381	0.224	-0.024
-714.733	-97.372	-0.191	0.050
-713.718	98.843	-0.068	0.079
-712.704	-94.367	0.142	0.039
-711.689	-14.715	0.093	-0.060
-710.675	399.371	0.146	-0.309
-709.660	55.742	-0.231	-0.225
-708.645	-200.000	-0.022	0.139
-707.631	160.340	0.067	-0.095
-706.616	-200.000	-0.023	0.262
-705.602	133.736	-0.220	-0.286
-704.587	-60.645	0.231	-0.099
-703.572	130.627	0.092	0.119
-702.558	800.000	0.017	-0.055
-701.543	800.000	0.097	-0.311
-700.529	232.000	-0.150	0.247
-699.514	115.646	-0.210	0.259
-698.499	-184.739	-0.128	0.002
-697.485	-200.000	0.051	-0.341
-696.470	194.107	-0.180	0.274
-695.456	128.705	0.061	0.078
-694.441	-110.246	-0.206	0.043
-693.426	447.085	0.112	0.249
-692.412	10.100	0.473	0.361
-691.397	10.579	-0.052	-0.040
-690.383	27.017	0.015	0.013
-689.368	800.000	-0.145	0.505
-688.354	-27.505	-0.140	-0.082
-687.339	517.083	0.121	0.285
-686.324	66.300	-0.068	-0.070
-685.310	580.913	-0.115	-0.282
-684.295	7.621	0.286	0.215
-683.281	800.000	0.051	0.160
-682.266	4.455	-0.292	-0.215
-681.251	-103.783	0.401	-0.094
-680.237	-200.000	0.058	-0.371
-679.222	-200.000	0.037	-0.265
-678.208	-50.149	-0.194	-0.092
-677.193	144.472	0.200	-0.268
-676.178	-200.000	0.072	0.335
-675.164	288.652	0.082	0.149
-674.149	-12.826	-0.226	-0.148
-673.135	93.910	-0.158	-0.180
-672.120	-65.918	-0.182	-0.073
-671.105	-200.000	-0.018	-0.217
-670.091	16.493	-0.164	-0.130
-669.076	111.075	-0.257	0.310
-668.062	149.195	0.030	-0.041
-667.047	235.791	-0.047	-0.078
-666.032	-115.771	-0.234	0.044
-665.018	-128.519	-0.186	-0.027
-664.003	13.100	-0.258	-0.200
-662.989	-200.000	0.013	-0.218
-661.974	658.753	0.176	-0.454
-660.959	-125.536	0.052	0.008
-659.945	171.059	-0.224	0.323
-658.930	-55.485	-0.140	-0.063
-657.916	-111.495	0.191	-0.039
-656.901	505.114	0.070	-0.164
-655.886	54.938	0.258	0.250
-654.872	-26.956	-0.227	-0.133
-653.857	284.440	-0.126	0.228
-652.843	-76.369	-0.170	-0.060
-651.828	75.303	0.185	-0.196
-650.814	-89.209	0.256	-0.076
-649.799	454.315	0.006	-0.013
-648.784	-200.000	0.044	0.298
-647.770	-200.000	0.015	-0.153
-646.755	-200.000	-0.075	-0.750
-645.741	-117.770	0.243	-0.044
-644.726	-111.937	-0.245	0.050
-643.711	-200.000	0.051	-0.242
-642.697	-200.000	0.015	0.146
-641.682	63.452	0.092	0.093
-640.668	-200.000	-0.010	-0.093
-639.653	800.000	0.083	0.302
-638.638	-200.000	0.016	-0.098
-637.624	-134.343	0.407	-0.050
-636.609	-200.000	-0.002	0.462
-635.595	-132.095	0.152	0.020
-634.580	-200.000	-0.033	-0.173
-633.565	336.700	-0.034	0.067
-632.551	113.828	-0.314	-0.382
-631.536	103.106	0.329	-0.387
-630.522	-130.497	-0.280	0.038
-629.507	-102.199	0.224	-0.054
-628.492	-190.312	0.375	-0.004
-627.478	85.439	-0.298	-0.328
-626.463	-200.000	-0.032	0.232
-625.449	152.326	0.112	0.154
-624.434	-34.266	0.104	0.057
-623.419	800.000	0.062	0.238
-622.405	-200.000	-0.012	-0.267
-621.390	-169.534	0.207	0.008
-620.376	650.710	-0.038	-0.099
-619.361	117.462	0.109	0.134
-618.346	324.501	-0.094	-0.180
-617.332	31.232	-0.115	-0.099
-616.317	-69.083	-0.104	-0.040
-615.303	800.000	-0.127	-0.368
-614.288	-193.154	0.121	0.001
-613.273	800.000	-0.041	-0.116
-612.259	127.366	0.085	0.108
-611.244	162.542	0.128	0.180
-610.230	-131.907	0.227	0.030
-609.215	800.000	-0.073	-0.289
-608.201	-39.445	0.352	0.185
-607.186	-46.299	0.142	0.070
-606.171	-200.000	-0.012	0.061
-605.157	-18.004	0.353	-0.222
-604.142	68.858	-0.120	-0.123
-603.128	-141.695	0.195	-0.020
-602.113	-37.397	-0.165	0.089
-601.098	-111.773	0.209	0.042
-600.084	23.666	-0.157	0.129
-599.069	90.700	-0.115	-0.129
-598.055	37.999	0.217	0.193
-597.040	151.794	-0.159	-0.218
-596.025	5.154	0.078	0.058
-595.011	-39.242	0.203	-0.107
-593.996	-35.616	0.032	-0.017
-592.982	-30.792	0.185	0.105
-591.967	154.251	0.210	-0.288
-590.952	-52.928	-0.113	-0.052
-589.938	-108.683	0.121	-0.026
-588.923	250.664	-0.101	-0.172
-587.909	280.828	0.131	0.235
-586.894	-200.000	-0.002	0.325
-585.879	-200.000	-0.012	-0.401
-584.865	-48.225	0.174	-0.084
-583.850	-200.000	-0.007	-0.060
-582.836	3.454	0.267	-0.194
-581.821	620.632	0.036	0.091
-580.806	778.186	0.081	0.220
-579.792	-200.000	0.047	0.207
-578.777	-200.000	-0.030	-0.210
-577.763	-65.902	-0.201	-0.080
-576.748	112.011	-0.124	-0.150
-575.733	-11.400	0.125	0.082
-574.719	-200.000	-0.011	-0.076
-573.704	800.000	-0.079	0.223
-572.690	480.226	0.169	0.383
-571.675	48.019	-0.196	0.183
-570.661	-200.000	0.058	0.297
-569.646	266.184	0.032	0.057
-568.631	-200.000	0.017	0.147
-567.617	-8.970	-0.128	0.086
-566.602	46.550	0.199	0.185
-565.588	-180.055	-0.278	-0.006
-564.573	-200.000	0.078	0.000
-563.558	-200.000	0.003	0.108
-562.544	-121.118	-0.227	0.038
-561.529	2.344	-0.083	-0.060
-560.515	-200.000	0.042	-0.440
-559.500	-4.981	0.214	0.147
-558.485	-99.425	-0.252	0.063
-557.471	142.042	-0.164	0.217
-556.456	30.017	0.094	0.080
-555.442	759.467	0.169	-0.458
-554.427	-200.000	0.008	-0.154
-553.412	-54.503	-0.162	0.074
-552.398	-110.979	0.063	0.013
-551.383	96.561	0.130	-0.149
-550.369	6.108	-0.083	0.061
-549.354	-73.793	-0.280	-0.102
-548.339	104.558	-0.104	0.122
-547.325	-124.827	-0.335	0.052
-546.310	230.658	-0.158	0.258
-545.296	-147.448	-0.182	-0.015
-544.281	-51.923	-0.194	0.090
-543.266	90.312	0.137	-0.153
-542.252	228.289	-0.285	-0.463
-541.237	44.905	0.176	0.162
-540.223	217.990	0.155	-0.248
-539.208	333.484	-0.060	0.117
-538.193	-20.255	-0.408	0.251
-537.179	-87.056	0.010	0.003
-536.164	-57.904	0.196	0.085
-535.150	472.395	0.024	-0.054
-534.135	21.597	0.183	0.149
-533.121	-200.000	0.015	-0.344
-532.106	423.423	-0.072	-0.154
-531.091	-200.000	0.025	-0.142
-530.077	-200.000	-0.002	-0.141
-529.062	215.776	0.270	-0.428
-528.048	-76.030	-0.130	0.046
-527.033	-18.428	-0.080	-0.050
-526.018	800.000	-0.054	-0.190
-525.004	300.534	0.076	0.140
-523.989	-83.377	-0.297	-0.095
-522.975	249.846	0.035	0.060
-521.960	-200.000	0.033	-0.180
-520.945	-28.032	0.072	-0.042
-519.931	800.000	0.027	0.103
-518.916	-73.680	-0.122	-0.044
-517.902	-63.015	0.057	0.023
-516.887	-84.330	0.247	-0.078
-515.872	-200.000	-0.081	-0.441
-514.858	800.000	0.039	-0.170
-513.843	7.576	-0.122	0.091
-512.829	800.000	0.046	0.185
-511.814	90.422	-0.214	0.239
-510.799	3.045	0.233	-0.169
-509.785	800.000	-0.036	0.137
-508.770	-200.000	-0.004	0.084
-507.756	-43.325	0.152	0.077
-506.741	-200.000	-0.045	0.217
-505.726	190.330	0.082	-0.122
-504.712	-200.000	0.083	0.549
-503.697	-120.094	-0.370	0.063
-502.683	-88.475	0.418	-0.125
-501.668	-126.539	0.089	0.013
-500.653	-46.245	-0.196	0.096
-499.639	21.473	0.103	-0.083
-498.624	35.557	0.131	0.115
-497.610	82.568	-0.290	-0.315
-496.595	-182.874	0.176	0.003
-495.581	583.274	0.056	-0.137
-494.566	-200.000	-0.039	0.241
-493.551	-25.780	0.046	0.027
-492.537	-194.048	-0.158	-0.001
-491.522	59.252	0.072	-0.071
-490.508	-77.757	0.203	-0.070
-489.493	169.728	0.207	-0.296
-488.478	386.068	-0.096	-0.198
-487.464	800.000	0.034	-0.148
-486.449	-200.000	0.009	0.228
-485.435	800.000	0.073	0.280
-484.420	-117.582	0.280	-0.050
-483.405	-200.000	0.015	-0.143
-482.391	800.000	-0.067	-0.243
-481.376	-159.797	-0.222	0.012
-480.362	363.157	0.099	-0.198
-479.347	275.330	-0.159	0.281
-478.332	50.162	0.168	-0.158
-477.318	240.632	0.142	-0.237
-476.303	-42.016	0.344	-0.176
-475.289	-200.000	0.016	-0.085
-474.274	82.909	0.097	-0.105
-473.259	-126.344	-0.184	0.027
-472.245	99.641	-0.316	0.365
-471.230	-200.000	-0.015	0.123
-470.216	-200.000	0.011	-0.064
-469.201	13.491	-0.366	-0.283
-468.186	45.069	-0.140	0.129
-467.172	-200.000	0.004	-0.228
-466.157	-117.551	0.191	0.034
-465.143	800.000	0.040	0.138
-464.128	-79.789	-0.263	0.088
-463.113	-21.971	-0.075	0.046
-462.099	800.000	0.033	-0.104
-461.084	-36.488	-0.229	0.123
-460.070	-41.749	0.200	-0.102
-459.055	-200.000	-0.007	-0.106
-458.040	70.348	-0.020	0.020
-457.026	91.305	-0.103	0.115
-456.011	-200.000	-0.000	-0.121
-454.997	-98.566	-0.275	-0.070
-453.982	21.516	-0.304	-0.246
-452.968	531.780	-0.076	-0.180
-451.953	-113.413	0.204	-0.040
-450.938	-17.523	-0.126	0.079
-449.924	46.344	-0.019	0.018
-448.909	26.166	0.233	0.193
-447.895	-48.761	-0.138	0.066
-446.880	800.000	-0.026	-0.082
-445.865	-86.865	0.105	0.032
-444.851	-200.000	-0.007	-0.062
-443.836	131.109	0.253	0.323
-442.822	-109.246	0.235	-0.050
-441.807	-159.341	0.095	-0.005
-440.792	96.033	-0.159	-0.181
-439.778	155.939	-0.070	0.096
-438.763	-200.000	-0.026	0.267
-437.749	-200.000	-0.037	0.285
-436.734	800.000	-0.027	-0.108
-435.719	-48.175	-0.194	-0.093
-434.705	-26.813	0.345	-0.201
-433.690	-43.626	-0.115	0.058
-432.676	-27.651	0.009	0.005
-431.661	-110.042	-0.491	0.102
-430.646	-200.000	0.018	0.245
-429.632	800.000	-0.038	0.138
-428.617	309.193	0.184	0.342
-427.603	-101.403	0.336	-0.082
-426.588	158.601	-0.083	0.115
-425.573	84.532	0.292	-0.318
-424.559	-20.273	-0.273	-0.167
-423.544	16.940	-0.175	0.138
-422.530	-147.216	0.077	0.007
-421.515	-200.000	0.036	-0.271
-420.500	-76.497	0.091	0.032
-419.486	-52.975	0.268	0.122
-418.471	14.913	-0.262	-0.204
-417.457	-136.957	0.047	-0.005
-416.442	25.063	-0.290	0.239
-415.428	-116.167	-0.129	-0.024
-414.413	-60.240	-0.223	-0.095
-413.398	-52.306	-0.072	0.033
-412.384	-200.000	0.032	0.268
-411.369	-200.000	-0.054	-0.271
-410.355	340.903	0.065	-0.126
-409.340	-200.000	0.045	0.302
-408.325	-88.008	0.139	0.041
-407.311	-15.893	0.155	0.098
-406.296	60.684	-0.064	-0.063
-405.282	245.741	0.153	0.256
-404.267	710.985	0.051	-0.135
-403.252	-200.000	-0.014	-0.146
-402.238	6.319	0.158	0.117
-401.223	-120.646	-0.299	-0.050
-400.209	-85.786	-0.161	0.050
-399.194	-93.947	0.175	-0.048
-398.179	154.422	0.077	0.106
-397.165	-37.572	-0.191	0.101
-396.150	59.109	0.189	0.185
-395.136	381.661	-0.096	0.196
-394.121	-12.391	-0.380	0.247
-393.106	-5.259	-0.303	0.207
-392.092	800.000	0.065	-0.208
-391.077	411.796	0.103	-0.217
-390.063	-200.000	-0.024	0.140
-389.048	-56.038	-0.130	-0.057
-388.033	-60.239	0.126	-0.053
-387.019	-76.438	-0.207	0.072
-386.004	-100.318	-0.270	-0.067
-384.990	123.792	0.020	-0.025
-383.975	-50.393	0.083	-0.039
-382.960	420.649	0.061	0.129
-381.946	-90.109	-0.090	0.026
-380.931	69.796	-0.147	0.151
-379.917	11.765	0.200	0.153
-378.902	422.064	-0.055	0.117
-377.888	-200.000	-0.008	-0.326
-376.873	45.675	0.139	-0.128
-375.858	-200.000	-0.031	-0.202
-374.844	-200.000	-0.021	-0.093
-373.829	544.697	-0.053	0.127
-372.815	-43.452	0.120	0.060
-371.800	-70.753	-0.133	0.050
-370.785	-124.526	-0.199	0.031
-369.771	-25.209	0.148	0.087
-368.756	-160.988	-0.080	0.004
-367.742	-69.835	-0.140	0.053
-366.727	-47.937	-0.181	0.087
-365.712	209.711	-0.084	-0.131
-364.698	34.492	0.076	-0.066
-363.683	-58.036	-0.381	-0.165
-362.669	-67.819	-0.170	0.066
-361.654	-200.000	0.282	0.000
-360.639	-177.499	-0.075	0.002
-359.625	483.259	0.096	-0.218
-358.610	-13.547	-0.168	-0.108
-357.596	142.049	-0.194	0.255
-356.581	-20.553	-0.083	0.050
-355.566	-33.549	-0.249	-0.137
-354.552	-19.362	0.388	-0.239
-353.537	-200.000	0.012	-0.226
-352.523	359.533	0.074	-0.147
-351.508	-113.149	-0.113	-0.022
-350.493	-129.572	-0.059	0.008
-349.479	131.032	-0.298	0.379
-348.464	-200.000	0.008	-0.063
-347.450	-14.341	-0.135	-0.086
-346.435	111.755	0.128	-0.153
-345.420	314.955	0.164	-0.307
-344.406	561.334	-0.146	-0.350
-343.391	58.970	-0.185	0.181
-342.377	12.186	-0.252	0.192
-341.362	73.815	0.395	0.411
-340.348	-200.000	0.001	0.311
-339.333	200.038	-0.023	-0.035
-338.318	-107.349	-0.384	-0.084
-337.304	-200.000	-0.023	-0.195
-336.289	-160.363	0.074	-0.004
-335.275	-147.777	-0.220	-0.018
-334.260	60.146	-0.329	-0.323
-333.245	-200.000	-0.035	-0.219
-332.231	-200.000	-0.047	-0.368
-331.216	8.421	-0.049	-0.036
-330.202	800.000	-0.076	-0.253
-329.187	-50.487	0.149	0.070
-328.172	-79.875	0.191	0.064
-327.158	-200.000	-0.007	0.103
-326.143	271.887	0.156	-0.273
-325.129	57.047	-0.169	-0.163
-324.114	-127.389	0.373	-0.054
-323.099	209.235	-0.111	0.172
-322.085	800.000	-0.137	-0.462
-321.070	-200.000	0.005	0.249
-320.056	364.942	-0.150	-0.299
-319.041	-149.260	0.229	0.018
-318.026	405.988	-0.022	-0.045
-317.012	35.438	0.036	-0.031
-315.997	22.189	-0.321	0.260
-314.983	-200.000	0.026	0.127
-313.968	800.000	-0.164	0.463
-312.953	600.666	0.053	0.131
-311.939	-30.556	0.035	-0.020
-310.924	174.641	-0.141	-0.202
-309.910	-200.000	-0.013	0.161
-308.895	120.056	0.124	-0.152
-307.880	-147.544	0.103	-0.009
-306.866	-72.719	-0.244	-0.089
-305.851	-142.112	0.137	-0.013
-304.837	93.197	-0.135	0.152
-303.822	-95.935	0.317	-0.084
-302.807	767.566	-0.121	0.327
-301.793	-22.596	0.130	0.078
-300.778	38.345	0.254	-0.224
-299.764	-71.091	-0.190	0.071
-298.749	-143.888	-0.220	-0.021
-297.735	-169.868	-0.126	0.004
-296.720	800.000	0.122	0.342
-295.705	800.000	0.047	0.203
-294.691	-128.063	-0.181	0.026
-293.676	-200.000	-0.001	-0.018
-292.662	-140.627	-0.398	0.041
-291.647	127.300	0.185	-0.232
-290.632	447.693	0.063	-0.137
-289.618	-59.320	0.219	-0.093
-288.603	92.817	-0.190	-0.212
-287.589	-117.830	-0.269	0.048
-286.574	-68.739	0.204	0.078
-285.559	-200.000	0.013	-0.109
-284.545	89.372	-0.037	-0.041
-283.530	-200.000	-0.008	0.283
-282.516	-126.612	0.091	0.013
-281.501	-93.687	0.218	0.059
-280.486	-80.002	0.165	0.055
-279.472	-200.000	-0.022	-0.118
-278.457	26.298	0.173	-0.143
-277.443	-1.778	-0.259	-0.180
-276.428	135.649	-0.206	0.265
-275.413	183.813	-0.078	-0.114
-274.399	-200.000	0.016	0.441
-273.384	-200.000	0.018	0.332
-272.370	45.447	0.187	0.171
-271.355	11.728	0.082	0.063
-270.340	-94.568	-0.176	0.047
-269.326	429.329	0.031	0.066
-268.311	249.727	0.070	0.117
-267.297	-173.243	-0.063	-0.002
-266.282	-200.000	0.016	-0.096
-265.267	17.194	-0.183	0.144
-264.253	213.754	0.122	0.191
-263.238	-20.350	-0.074	0.045
-262.224	-141.660	0.248	-0.025
-261.209	-35.501	0.255	0.137
-260.195	800.000	0.068	0.294
-259.180	-200.000	-0.021	0.308
-258.165	-200.000	0.014	-0.261
-257.151	800.000	-0.088	-0.258
-256.136	-200.000	0.010	0.114
-255.122	-200.000	0.017	0.104
-254.107	-129.379	0.430	-0.059
-253.092	-60.889	0.454	0.190
-252.078	44.145	0.109	0.099
-251.063	-114.549	-0.218	-0.041
-250.049	-10.434	-0.153	0.100
-249.034	-34.379	-0.128	-0.069
-248.019	375.778	0.141	-0.284
-247.005	800.000	-0.063	0.261
-245.990	260.024	0.131	-0.223
-244.976	-58.480	-0.342	0.147
-243.961	-53.041	0.266	0.121
-242.946	243.787	0.215	-0.356
-241.932	104.810	-0.069	0.080
-240.917	800.000	0.082	0.306
-239.903	192.852	0.140	0.209
-238.888	800.000	0.039	-0.160
-237.873	-200.000	-0.009	0.177
-236.859	747.921	0.094	0.250
-235.844	-200.000	0.032	0.175
-234.830	-54.499	-0.331	0.148
-233.815	-115.703	-0.186	0.034
-232.800	169.356	-0.121	-0.170
-231.786	-200.000	-0.014	-0.073
-230.771	-138.621	0.380	0.041
-229.757	135.956	0.112	0.144
-228.742	-200.000	-0.029	0.154
-227.727	375.614	0.020	-0.041
-226.713	702.680	0.038	0.100
-225.698	-182.868	0.043	-0.001
-224.684	-200.000	0.001	-0.156
-223.669	-140.491	0.209	0.022
-222.655	13.996	0.046	0.035
-221.640	108.668	-0.107	-0.127
-220.625	-42.145	0.134	0.068
-219.611	-26.415	-0.076	0.044
-218.596	-200.000	0.022	0.169
-217.582	-173.442	-0.383	0.011
-216.567	800.000	-0.081	0.300
-215.552	800.000	-0.001	-0.003
-214.538	-200.000	0.002	-0.053
-213.523	-17.963	-0.241	-0.149
-212.509	-72.148	0.107	0.039
-211.494	30.723	0.143	-0.121
-210.479	-64.292	-0.317	0.127
-209.465	370.857	-0.061	-0.122
-208.450	-68.992	0.451	0.171
-207.436	-30.563	-0.236	-0.132
-206.421	-200.000	0.105	-0.593
-205.406	427.232	0.090	0.191
-204.392	-167.665	0.050	0.002
-203.377	-200.000	-0.018	-0.169
-202.363	-83.617	0.352	-0.111
-201.348	-200.000	-0.006	-0.085
-200.333	-200.000	-0.007	0.236
-199.319	309.241	-0.151	0.278
-198.304	-18.085	0.255	-0.157
-197.290	-200.000	-0.034	0.294
-196.275	-200.000	0.020	-0.309
-195.260	800.000	0.063	-0.181
-194.246	7.900	-0.297	-0.220
-193.231	4.282	0.200	-0.144
-192.217	-49.925	0.412	0.193
-191.202	313.236	0.067	0.125
-190.187	-116.966	0.247	-0.044
-189.173	160.489	0.076	0.104
-188.158	65.197	0.267	-0.266
-187.144	-139.729	0.366	-0.038
-186.129	-93.200	-0.375	0.103
-185.114	-165.820	0.060	-0.003
-184.100	144.591	-0.118	0.156
-183.085	370.073	-0.080	-0.159
-182.071	142.218	-0.099	-0.129
-181.056	-115.788	-0.092	0.017
-180.042	800.000	-0.041	-0.165
-179.027	532.887	-0.116	0.271
-178.012	800.000	-0.073	-0.212
-176.998	222.197	-0.197	-0.313
-175.983	540.387	-0.085	-0.200
-174.969	-107.816	0.115	0.025
-173.954	116.494	0.095	-0.115
-172.939	4.311	-0.060	-0.044
-171.925	193.665	-0.054	0.081
-170.910	130.913	0.172	0.217
-169.896	2.289	-0.092	0.065
-168.881	-200.000	-0.016	-0.074
-167.866	-200.000	-0.064	0.450
-166.852	800.000	-0.012	0.049
-165.837	-150.599	-0.305	-0.023
-164.823	-38.357	0.556	0.290
-163.808	172.367	-0.044	0.063
-162.793	800.000	0.023	-0.090
-161.779	-67.079	0.134	0.052
-160.764	77.894	-0.237	0.248
-159.750	-84.623	0.195	-0.061
-158.735	56.066	0.103	0.099
-157.720	-40.535	-0.128	0.065
-156.706	-200.000	0.055	-0.258
-155.691	93.131	-0.119	0.133
-154.677	119.817	0.037	0.045
-153.662	596.115	-0.099	-0.241
-152.647	173.835	-0.056	0.080
-151.633	-200.000	-0.038	0.190
-150.618	94.333	-0.225	0.251
-149.604	800.000	-0.109	0.307
-148.589	59.992	0.165	-0.161
-147.574	800.000	0.045	-0.154
-146.560	177.502	-0.040	0.057
-145.545	170.722	0.061	-0.086
-144.531	327.607	0.125	0.236
-143.516	91.166	0.089	-0.099
-142.502	-200.000	-0.018	-0.091
-141.487	-23.068	-0.053	0.031
-140.472	-115.839	-0.037	0.007
-139.458	800.000	-0.035	0.124
-138.443	32.424	-0.222	0.189
-137.429	-47.830	0.115	0.055
-136.414	-122.189	-0.260	-0.042
-135.399	129.157	0.065	0.082
-134.385	10.970	-0.113	0.085
-133.370	-200.000	-0.010	-0.151
-132.356	-140.053	0.373	-0.039
-131.341	-88.023	-0.352	0.104
-130.326	217.968	0.090	-0.142
-129.312	-122.052	0.088	0.014
-128.297	800.000	0.045	0.162
-127.283	-200.000	0.064	-0.539
-126.268	94.827	-0.117	-0.131
-125.253	-147.433	0.044	-0.004
-124.239	800.000	-0.048	0.142
-123.224	17.353	0.091	0.071
-122.210	18.088	-0.058	-0.045
-121.195	-200.000	-0.014	-0.073
