DTS Sentinel unit serial number:	SN413079Multiplexer serial number:	ORYXHardware model number:	OX4-SRSoftware version number:	ORYX F/W v4.00 Oryx Data Collector v3.7.2.0data status	okinstallation	princeton_trtdifferential loss correction	single-endedforward channel	channel 2reverse channel	N/Adate	2019/09/12time	13:45:11forward acquisition time	60.00reverse acquisition time	0.00gamma	496.2192k internal	0.2298k external	0.2298temperature offset calibration	1.0082default loss term (dB/km)	0.3790temperature slope calibration	1.0000multiplexer offset coefficient	1.0000multiplexer slope coefficient	1.0000fibre end	0.00T internal ref (°C)	40.98T ext. ref 1 (°C)	2.14T ext. ref 2 (°C)	35.55length (m)	temperature (°C)	Stokes	anti-Stokes-747.200	16.332	0.133	-0.107
-746.185	189.621	-0.133	0.204
-745.171	759.527	0.111	0.307
-744.156	-99.902	0.205	0.052
-743.142	104.711	-0.177	-0.213
-742.127	330.479	-0.119	0.234
-741.112	656.638	-0.165	0.433
-740.098	-136.081	-0.030	-0.004
-739.083	206.723	0.258	-0.411
-738.069	-81.384	-0.133	-0.045
-737.054	-28.817	-0.288	0.169
-736.039	37.788	-0.024	-0.021
-735.025	523.115	0.020	-0.048
-734.010	-1.754	-0.269	0.193
-732.996	-129.376	-0.516	0.073
-731.981	88.415	0.087	0.099
-730.966	265.627	0.108	-0.192
-729.952	786.726	0.045	0.125
-728.937	586.671	-0.076	-0.191
-727.923	-200.000	-0.015	0.105
-726.908	800.000	0.025	0.107
-725.894	194.315	-0.024	0.037
-724.879	147.447	0.095	0.130
-723.864	-200.000	-0.044	-0.281
-722.850	167.763	0.146	0.211
-721.835	-125.823	0.282	-0.043
-720.821	57.179	0.054	-0.054
-719.806	-117.904	-0.513	-0.094
-718.791	174.806	-0.118	-0.174
-717.777	-104.081	-0.095	0.023
-716.762	80.341	-0.024	-0.026
-715.748	800.000	0.055	-0.240
-714.733	-200.000	-0.002	0.016
-713.718	63.083	0.109	-0.112
-712.704	244.599	-0.175	-0.300
-711.689	142.130	-0.059	0.080
-710.675	-75.978	-0.301	0.108
-709.660	309.299	-0.033	-0.064
-708.645	-192.975	-0.106	-0.001
-707.631	-200.000	-0.002	-0.465
-706.616	274.564	0.192	0.347
-705.602	-39.586	-0.050	0.027
-704.587	74.713	-0.165	-0.177
-703.572	-200.000	-0.033	-0.188
-702.558	-54.537	-0.182	0.084
-701.543	-117.277	-0.224	-0.042
-700.529	438.573	0.090	0.201
-699.514	-40.466	0.114	-0.060
-698.499	88.418	0.051	0.057
-697.485	-2.746	0.155	0.110
-696.470	-200.000	-0.177	0.000
-695.456	-200.000	-0.015	-0.300
-694.441	800.000	-0.093	0.283
-693.426	-92.700	-0.085	0.024
-692.412	295.750	0.112	-0.209
-691.397	-87.691	0.113	-0.035
-690.383	-165.222	0.094	-0.004
-689.368	800.000	-0.019	0.075
-688.354	-46.358	0.308	0.154
-687.339	-140.571	0.159	0.017
-686.324	-84.254	-0.325	-0.105
-685.310	8.892	-0.091	0.070
-684.295	153.714	-0.033	-0.045
-683.281	-200.000	-0.009	-0.189
-682.266	57.079	-0.045	-0.045
-681.251	5.623	0.245	0.185
-680.237	-117.685	0.074	-0.014
-679.222	177.048	-0.186	0.276
-678.208	-20.234	0.288	0.180
-677.193	-61.337	-0.424	0.182
-676.178	-200.000	-0.082	0.415
-675.164	-200.000	-0.000	-0.094
-674.149	106.033	0.251	0.302
-673.135	-182.275	-0.136	-0.003
-672.120	32.463	-0.201	-0.176
-671.105	-15.722	0.173	0.112
-670.091	-200.000	-0.013	-0.141
-669.076	-200.000	0.005	-0.320
-668.062	245.427	0.041	-0.071
-667.047	-164.013	0.099	-0.005
-666.032	74.401	-0.161	-0.172
-665.018	-200.000	0.001	0.346
-664.003	41.679	0.178	-0.164
-662.989	-200.000	0.024	-0.196
-661.974	-153.042	-0.024	-0.002
-660.959	101.419	0.109	0.129
-659.945	87.320	0.066	0.074
-658.930	-200.000	-0.022	-0.282
-657.916	-200.000	-0.009	-0.338
-656.901	145.356	0.212	0.288
-655.886	-119.557	-0.188	-0.033
-654.872	-200.000	-0.002	-0.106
-653.857	259.534	-0.088	-0.154
-652.843	-125.425	-0.145	-0.022
-651.828	-146.869	-0.385	-0.034
-650.814	-129.895	-0.243	-0.034
-649.799	502.213	0.073	-0.173
-648.784	-45.737	-0.386	0.194
-647.770	395.180	0.139	0.295
-646.755	147.599	-0.119	-0.163
-645.741	-26.548	-0.318	-0.189
-644.726	-200.000	0.073	-0.376
-643.711	-22.116	0.474	-0.293
-642.697	84.658	0.184	-0.205
-641.682	194.986	-0.022	-0.034
-640.668	-145.463	0.266	-0.024
-639.653	80.367	-0.261	-0.286
-638.638	-124.785	-0.180	-0.028
-637.624	-113.011	0.238	0.048
-636.609	-69.244	0.231	0.090
-635.595	-125.349	0.173	0.027
-634.580	28.999	-0.205	-0.177
-633.565	-200.000	-0.055	-0.297
-632.551	105.004	-0.210	-0.252
-631.536	53.188	-0.170	0.165
-630.522	-200.000	-0.045	-0.403
-629.507	-148.099	0.192	0.016
-628.492	139.159	0.073	0.098
-627.478	797.954	-0.123	0.345
-626.463	-155.063	0.243	0.016
-625.449	83.424	-0.106	-0.118
-624.434	-164.521	-0.072	-0.003
-623.419	-129.124	0.160	0.023
-622.405	-2.233	-0.341	-0.243
-621.390	116.455	-0.049	0.061
-620.376	-105.748	0.096	-0.022
-619.361	-142.630	-0.136	0.014
-618.346	647.348	-0.028	-0.072
-617.332	43.051	0.337	-0.313
-616.317	-126.495	-0.316	-0.048
-615.303	-8.527	-0.184	0.125
-614.288	-200.000	0.002	-0.325
-613.273	-200.000	-0.028	0.160
-612.259	109.310	-0.229	-0.278
-611.244	185.223	-0.189	-0.285
-610.230	118.851	-0.164	-0.206
-609.215	-97.508	-0.243	0.064
-608.201	213.262	0.077	0.123
-607.186	-88.977	-0.199	0.060
-606.171	-63.218	0.039	0.016
-605.157	62.710	-0.114	-0.116
-604.142	233.737	-0.108	0.180
-603.128	800.000	-0.049	-0.151
-602.113	-200.000	0.016	0.213
-601.098	29.630	0.068	-0.059
-600.084	-23.833	-0.081	0.049
-599.069	-200.000	-0.005	-0.132
-598.055	-179.799	-0.207	0.005
-597.040	-144.029	-0.075	-0.007
-596.025	800.000	0.057	0.167
-595.011	-136.392	-0.285	-0.034
-593.996	8.028	0.212	0.162
-592.982	-200.000	-0.035	-0.309
-591.967	-200.000	-0.035	-0.193
-590.952	-174.618	-0.079	0.002
-589.938	800.000	0.014	0.043
-588.923	-47.918	-0.130	-0.064
-587.909	800.000	0.112	-0.465
-586.894	800.000	0.051	0.147
-585.879	-148.351	-0.177	0.015
-584.865	126.123	0.195	0.250
-583.850	-89.119	0.289	0.087
-582.836	-200.000	-0.009	0.206
-581.821	50.998	-0.274	0.264
-580.806	-41.635	-0.161	0.084
-579.792	308.367	0.142	0.268
-578.777	-41.814	0.134	-0.070
-577.763	-81.555	0.346	0.115
-576.748	-200.000	0.001	-0.195
-575.733	197.683	-0.128	-0.198
-574.719	-137.038	0.154	-0.018
-573.704	-65.781	0.360	-0.146
-572.690	-94.181	-0.427	-0.119
-571.675	-118.031	-0.176	-0.032
-570.661	800.000	-0.076	0.328
-569.646	208.196	0.066	-0.105
-568.631	-141.098	-0.071	0.007
-567.617	352.291	0.081	0.162
-566.602	-106.146	-0.151	0.034
-565.588	162.643	0.112	0.159
-564.573	-180.898	-0.075	0.002
-563.558	589.270	0.072	0.179
-562.544	78.160	-0.241	-0.260
-561.529	85.130	-0.191	0.212
-560.515	-86.211	-0.238	-0.074
-559.500	294.577	0.138	-0.256
-558.485	418.923	-0.089	0.193
-557.471	800.000	0.070	0.305
-556.456	-36.389	-0.073	-0.040
-555.442	390.990	-0.093	0.195
-554.427	800.000	0.058	-0.206
-553.412	-153.961	-0.188	-0.013
-552.398	-44.334	-0.285	-0.144
-551.383	286.481	-0.086	0.157
-550.369	-185.786	0.260	-0.004
-549.354	-200.000	-0.011	-0.107
-548.339	-67.662	0.435	0.172
-547.325	-108.818	0.071	0.015
-546.310	-200.000	0.015	0.147
-545.296	32.073	-0.246	-0.214
-544.281	-33.225	-0.186	-0.104
-543.266	185.933	-0.074	0.111
-542.252	-172.896	0.186	-0.006
-541.237	800.000	0.095	0.329
-540.223	-200.000	-0.018	0.181
-539.208	338.059	-0.107	0.210
-538.193	12.175	-0.335	0.261
-537.179	62.736	-0.071	-0.071
-536.164	-0.446	0.439	-0.316
-535.150	272.918	0.054	0.097
-534.135	-200.000	0.019	-0.152
-533.121	-99.902	-0.119	0.030
-532.106	157.772	0.125	-0.176
-531.091	-78.865	0.177	-0.061
-530.077	-15.591	0.065	-0.042
-529.062	-55.578	-0.371	-0.168
-528.048	503.512	-0.063	0.148
-527.033	800.000	0.086	-0.263
-526.018	-55.487	-0.238	-0.108
-525.004	-108.847	-0.238	0.052
-523.989	-147.700	0.191	0.016
-522.975	-164.406	0.210	0.010
-521.960	-23.265	-0.181	-0.110
-520.945	-3.937	-0.149	0.105
-519.931	43.982	0.225	0.208
-518.916	168.170	0.288	-0.414
-517.902	-200.000	-0.046	-0.534
-516.887	212.430	-0.010	-0.016
-515.872	-131.172	-0.185	0.025
-514.858	800.000	0.090	0.255
-513.843	-200.000	-0.013	0.306
-512.829	-200.000	-0.037	0.285
-511.814	-153.742	-0.140	-0.010
-510.799	107.589	-0.094	-0.114
-509.785	285.606	0.126	0.230
-508.770	800.000	-0.073	-0.315
-507.756	-150.885	0.092	0.007
-506.741	800.000	-0.050	-0.147
-505.726	82.479	0.124	-0.136
-504.712	-200.000	0.051	0.330
-503.697	381.473	-0.072	-0.149
-502.683	-165.804	0.124	0.005
-501.668	800.000	0.107	-0.374
-500.653	-133.378	0.337	-0.043
-499.639	-181.150	-0.180	0.004
-498.624	73.313	0.030	0.032
-497.610	-66.447	-0.031	0.013
-496.595	-27.869	-0.212	0.124
-495.581	178.430	-0.117	0.172
-494.566	-165.434	-0.313	0.014
-493.551	466.098	-0.048	-0.110
-492.537	-92.090	0.052	0.015
-491.522	784.265	0.108	0.298
-490.508	14.954	-0.198	-0.157
-489.493	68.741	-0.117	0.122
-488.478	-2.019	0.016	-0.011
-487.464	149.483	0.068	-0.094
-486.449	-120.308	-0.073	0.013
-485.435	-129.740	0.088	-0.012
-484.420	262.620	-0.060	-0.106
-483.405	197.553	0.123	0.190
-482.391	-79.522	-0.142	-0.048
-481.376	300.313	-0.090	-0.168
-480.362	90.484	-0.139	-0.157
-479.347	-200.000	0.028	-0.256
-478.332	800.000	0.071	-0.259
-477.318	152.990	0.062	0.086
-476.303	-133.569	-0.163	-0.021
-475.289	89.578	-0.134	0.151
-474.274	-66.653	-0.373	-0.149
-473.259	-156.789	0.351	-0.022
-472.245	79.863	0.237	-0.258
-471.230	-200.000	-0.041	-0.182
-470.216	-200.000	0.014	0.069
-469.201	66.968	0.236	0.243
-468.186	93.626	0.191	-0.219
-467.172	116.200	0.044	0.054
-466.157	-128.498	0.315	0.045
-465.143	-73.209	-0.270	-0.100
-464.128	-111.430	0.272	-0.056
-463.113	732.191	-0.126	-0.339
-462.099	239.605	-0.067	-0.113
-461.084	-11.991	0.209	-0.138
-460.070	29.779	-0.102	-0.088
-459.055	-200.000	0.064	0.299
-458.040	-15.824	0.191	-0.123
-457.026	-87.492	-0.089	0.027
-456.011	-25.544	-0.051	0.030
-454.997	800.000	0.029	0.092
-453.982	800.000	0.061	0.218
-452.968	-136.298	-0.276	-0.033
-451.953	-67.176	0.070	0.028
-450.938	-200.000	0.034	0.278
-449.924	-187.575	0.292	-0.004
-448.909	-200.000	0.003	-0.038
-447.895	-200.000	-0.020	0.296
-446.880	800.000	0.079	-0.232
-445.865	15.660	-0.057	-0.045
-444.851	800.000	-0.062	0.186
-443.836	-49.926	-0.183	-0.088
-442.822	-135.050	0.368	0.045
-441.807	6.857	-0.105	0.079
-440.792	-200.000	-0.049	0.238
-439.778	80.150	0.057	0.062
-438.763	-68.719	0.032	0.013
-437.749	-200.000	0.005	-0.074
-436.734	-110.990	0.039	-0.008
-435.719	-200.000	-0.001	0.034
-434.705	12.214	-0.092	-0.072
-433.690	200.879	-0.248	0.385
-432.676	-123.802	-0.058	-0.009
-431.661	46.828	0.281	-0.264
-430.646	180.296	0.051	0.075
-429.632	-48.199	-0.092	-0.045
-428.617	-62.515	-0.372	-0.156
-427.603	611.409	0.116	0.293
-426.588	-117.941	0.253	-0.046
-425.573	367.938	-0.047	0.095
-424.559	76.477	0.257	0.274
-423.544	-200.000	0.011	0.225
-422.530	800.000	-0.058	0.222
-421.515	800.000	0.094	-0.334
-420.500	-200.000	0.029	0.245
-419.486	38.808	0.137	-0.123
-418.471	-136.595	-0.247	-0.029
-417.457	-81.979	-0.381	0.126
-416.442	272.272	-0.159	0.282
-415.428	54.561	0.141	0.137
-414.413	121.171	-0.102	-0.128
-413.398	-200.000	0.030	-0.214
-412.384	-126.523	0.360	-0.054
-411.369	-200.000	-0.031	0.529
-410.355	105.971	0.284	-0.339
-409.340	214.851	-0.155	-0.248
-408.325	29.713	0.090	-0.078
-407.311	-89.479	-0.072	-0.021
-406.296	-200.000	0.016	-0.138
-405.282	-106.716	0.180	0.040
-404.267	-43.121	-0.221	-0.113
-403.252	-76.395	0.285	0.101
-402.238	-200.000	0.005	0.261
-401.223	-71.579	0.062	-0.023
-400.209	-137.971	0.262	-0.029
-399.194	-96.761	-0.327	-0.087
-398.179	-200.000	0.036	-0.186
-397.165	-12.624	-0.129	0.084
-396.150	-109.162	-0.324	-0.069
-395.136	47.178	-0.137	0.128
-394.121	-200.000	-0.009	-0.111
-393.106	-200.000	0.023	-0.139
-392.092	-172.025	-0.147	0.005
-391.077	308.345	0.070	0.131
-390.063	16.730	0.151	-0.120
-389.048	-154.470	-0.102	-0.007
-388.033	-58.292	0.128	-0.056
-387.019	800.000	-0.031	-0.124
-386.004	79.900	0.156	0.168
-384.990	-200.000	0.000	0.035
-383.975	104.873	-0.126	-0.149
-382.960	-47.006	0.269	-0.132
-381.946	-200.000	0.018	0.529
-380.931	360.973	0.187	-0.377
-379.917	5.354	-0.077	-0.057
-378.902	-46.278	0.244	0.121
-377.888	-71.859	-0.170	0.064
-376.873	316.465	-0.081	-0.154
-375.858	542.841	0.052	0.125
-374.844	603.810	-0.024	0.059
-373.829	-200.000	-0.059	-0.435
-372.815	-200.000	0.017	0.097
-371.800	-50.963	0.201	0.095
-370.785	-29.348	-0.341	-0.196
-369.771	293.986	0.123	-0.225
-368.756	-200.000	0.185	0.001
-367.742	-116.269	0.243	0.045
-366.727	-2.850	-0.175	0.123
-365.712	-200.000	0.001	0.343
-364.698	800.000	0.074	-0.247
-363.683	28.703	-0.104	0.089
-362.669	800.000	-0.035	-0.154
-361.654	128.096	-0.024	-0.030
-360.639	275.134	-0.066	0.118
-359.625	-200.000	0.002	-0.261
-358.610	11.175	-0.217	-0.167
-357.596	-28.707	-0.311	-0.180
-356.581	221.795	0.062	0.100
-355.566	-147.864	0.114	-0.010
-354.552	-85.717	-0.053	0.017
-353.537	-152.393	-0.165	0.012
-352.523	630.354	0.043	-0.110
-351.508	535.051	-0.024	-0.058
-350.493	-158.336	0.270	0.016
-349.479	-66.362	-0.312	-0.125
-348.464	585.907	0.126	0.311
-347.450	103.110	-0.190	0.224
-346.435	800.000	-0.055	-0.196
-345.420	567.495	0.081	0.198
-344.406	-12.773	-0.182	-0.119
-343.391	-200.000	0.017	0.239
-342.377	-161.704	0.250	-0.013
-341.362	93.106	-0.246	-0.279
-340.348	-62.460	-0.171	0.072
-339.333	152.293	-0.120	-0.164
-338.318	-18.957	-0.203	0.127
-337.304	500.949	0.076	-0.177
-336.289	30.470	0.187	0.161
-335.275	-200.000	0.002	0.205
-334.260	800.000	0.013	-0.048
-333.245	-21.433	0.077	0.047
-332.231	-57.459	-0.126	0.056
-331.216	800.000	0.083	0.243
-330.202	85.172	0.104	-0.115
-329.187	-68.153	0.156	0.061
-328.172	213.512	0.169	-0.268
-327.158	-87.814	-0.109	-0.033
-326.143	-200.000	0.035	0.177
-325.129	-128.834	-0.162	-0.023
-324.114	-200.000	0.005	0.072
-323.099	215.342	0.076	0.121
-322.085	-8.484	-0.214	-0.144
-321.070	42.867	-0.220	-0.202
-320.056	41.181	-0.049	0.045
-319.041	105.981	-0.213	-0.253
-318.026	201.361	-0.186	-0.287
-317.012	-77.810	0.116	0.040
-315.997	-200.000	0.006	0.045
-314.983	290.518	-0.082	-0.150
-313.968	172.993	0.054	-0.078
-312.953	-57.289	-0.145	-0.064
-311.939	-26.143	-0.120	0.071
-310.924	-200.000	0.042	0.369
-309.910	-87.476	0.241	0.073
-308.895	-4.232	0.131	-0.091
-307.880	-18.236	0.065	0.041
-306.866	-156.209	0.069	-0.004
-305.851	152.788	-0.210	-0.287
-304.837	-58.260	-0.294	-0.128
-303.822	800.000	-0.018	0.056
-302.807	521.765	0.082	0.194
-301.793	-26.899	0.178	0.104
-300.778	-173.752	-0.147	-0.004
-299.764	189.481	-0.105	-0.158
-298.749	14.438	-0.017	0.013
-297.735	-125.364	0.118	-0.018
-296.720	683.353	-0.110	-0.289
-295.705	-100.592	-0.261	0.065
-294.691	736.770	-0.101	-0.272
-293.676	-11.051	0.555	0.368
-292.662	-200.000	0.021	0.344
-291.647	-200.000	0.003	0.082
-290.632	-144.148	-0.122	-0.011
-289.618	-200.000	0.009	-0.347
-288.603	-200.000	-0.011	0.434
-287.589	-24.047	-0.084	0.050
-286.574	184.600	0.109	0.162
-285.559	-200.000	-0.037	-0.187
-284.545	-10.679	-0.207	-0.138
-283.530	-61.393	-0.282	-0.119
-282.516	-28.351	0.233	-0.135
-281.501	800.000	0.025	-0.109
-280.486	-86.303	-0.333	-0.103
-279.472	-63.782	0.120	-0.049
-278.457	-53.136	0.073	-0.034
-277.443	5.322	0.306	0.226
-276.428	-134.033	0.294	0.036
-275.413	167.412	0.090	0.128
-274.399	551.363	0.071	-0.172
-273.384	-124.268	0.392	0.061
-272.370	-131.419	0.084	0.011
-271.355	-200.000	0.018	0.230
-270.340	100.580	0.057	-0.066
-269.326	-11.323	-0.406	0.268
-268.311	-108.783	0.405	0.087
-267.297	206.661	0.102	-0.159
-266.282	-157.847	-0.196	-0.012
-265.267	800.000	0.081	-0.270
-264.253	69.990	0.215	-0.222
-263.238	-180.300	0.152	0.003
-262.224	90.700	0.087	0.098
-261.209	78.703	-0.135	-0.145
-260.195	-83.874	0.045	0.014
-259.180	56.808	-0.176	-0.171
-258.165	20.468	0.246	-0.199
-257.151	-200.000	0.016	0.196
-256.136	-135.893	0.253	0.030
-255.122	-16.766	0.273	-0.173
-254.107	-72.902	0.116	-0.043
-253.092	-200.000	-0.019	-0.135
-252.078	-156.511	-0.398	-0.025
-251.063	179.077	0.239	0.350
-250.049	800.000	0.043	0.133
-249.034	-103.129	0.104	0.025
-248.019	-85.342	0.144	0.045
-247.005	-0.630	-0.103	-0.073
-245.990	-59.500	0.399	-0.172
-244.976	183.179	-0.035	0.052
-243.961	-124.558	0.395	0.061
-242.946	-104.402	0.115	-0.027
-241.932	-200.000	0.062	0.313
-240.917	92.478	-0.143	0.161
-239.903	800.000	0.077	0.311
-238.888	693.641	-0.060	0.157
-237.873	-53.241	-0.190	-0.087
-236.859	-57.078	-0.360	-0.159
-235.844	-166.767	0.267	-0.011
-234.830	-181.879	0.338	0.006
-233.815	800.000	0.061	0.217
-232.800	-56.058	0.149	-0.066
-231.786	31.148	-0.078	-0.067
-230.771	-110.561	-0.172	-0.036
-229.757	-200.000	0.009	0.288
-228.742	-61.713	-0.212	0.089
-227.727	-70.519	0.125	0.047
-226.713	-136.879	-0.230	0.026
-225.698	387.022	0.063	0.131
-224.684	797.243	-0.091	0.250
-223.669	-123.391	0.096	0.015
-222.655	800.000	-0.074	-0.244
-221.640	-155.121	0.103	-0.007
-220.625	-162.143	0.217	-0.011
-219.611	-101.838	-0.300	0.073
-218.596	417.665	-0.055	0.118
-217.582	-82.539	-0.094	-0.030
-216.567	20.682	0.070	-0.057
-215.552	-81.479	0.141	0.046
-214.538	800.000	0.121	-0.338
-213.523	688.039	-0.059	-0.153
-212.509	-200.000	-0.025	0.176
-211.494	783.095	0.022	-0.060
-210.479	40.037	0.155	-0.139
-209.465	-73.474	0.234	-0.086
-208.450	631.271	0.054	0.138
-207.436	-67.976	-0.288	0.112
-206.421	-162.412	0.205	0.010
-205.406	-118.906	-0.248	0.043
-204.392	203.486	-0.197	0.305
-203.377	592.268	-0.126	-0.310
-202.363	-156.091	-0.182	0.011
-201.348	-200.000	-0.003	0.155
-200.333	-29.223	-0.037	0.021
-199.319	-101.580	0.363	-0.088
-198.304	42.946	-0.068	-0.062
-197.290	-200.000	0.040	0.325
-196.275	800.000	-0.039	-0.137
-195.260	36.013	-0.161	-0.142
-194.246	165.061	-0.137	-0.193
-193.231	186.981	0.084	0.124
-192.217	-200.000	-0.007	-0.064
-191.202	174.239	0.053	-0.076
-190.187	180.930	-0.154	0.226
-189.173	-85.427	0.212	-0.066
-188.158	306.779	0.129	0.240
-187.144	-153.318	-0.199	0.014
-186.129	357.792	0.225	0.448
-185.114	-57.575	0.336	-0.147
-184.100	93.945	-0.058	0.066
-183.085	800.000	-0.067	0.231
-182.071	467.431	0.163	0.365
-181.056	740.482	0.132	0.353
-180.042	-39.409	-0.224	0.117
-179.027	784.376	0.070	-0.192
-178.012	344.943	-0.099	-0.193
-176.998	205.706	0.147	-0.229
-175.983	141.923	0.115	-0.152
-174.969	-180.681	-0.423	0.009
-173.954	-200.000	-0.019	-0.129
-172.939	-128.332	0.169	0.024
-171.925	-16.093	0.065	0.041
-170.910	154.995	-0.112	0.154
-169.896	159.139	0.119	-0.165
-168.881	-111.553	-0.280	0.057
-167.866	39.275	0.184	0.164
-166.852	800.000	0.129	0.362
-165.837	-200.000	-0.012	0.216
-164.823	-11.325	-0.026	0.017
-163.808	157.075	0.196	-0.271
-162.793	173.933	-0.195	0.280
-161.779	450.689	-0.080	-0.176
-160.764	-74.621	-0.132	-0.047
-159.750	166.080	0.274	0.388
-158.735	-134.079	0.134	0.016
-157.720	274.443	0.103	0.183
-156.706	-200.000	0.024	-0.413
-155.691	-200.000	-0.007	0.336
-154.677	-200.000	-0.015	-0.248
-153.662	670.041	0.070	0.181
-152.647	37.497	0.333	0.295
-151.633	800.000	-0.099	0.316
-150.618	800.000	-0.061	0.258
-149.604	-115.313	-0.287	-0.054
-148.589	800.000	0.018	-0.075
-147.574	649.891	-0.070	-0.179
-146.560	-125.614	0.175	-0.026
-145.545	-148.396	0.317	-0.026
-144.531	-108.324	-0.128	-0.028
-143.516	73.170	-0.094	0.098
-142.502	-61.664	0.281	-0.118
-141.487	-200.000	0.012	-0.114
-140.472	108.727	0.059	0.070
-139.458	800.000	0.094	0.334
-138.443	319.398	0.121	-0.229
-137.429	-55.279	-0.035	0.015
-136.414	-200.000	-0.021	0.222
-135.399	298.071	-0.114	0.209
-134.385	800.000	-0.057	0.193
-133.370	-200.000	-0.013	-0.134
-132.356	-200.000	-0.033	0.182
-131.341	505.500	0.169	-0.390
-130.326	495.180	0.079	0.181
-129.312	-200.000	0.009	-0.101
-128.297	-79.787	0.295	0.099
-127.283	54.059	0.232	0.222
-126.268	-156.259	-0.212	0.013
-125.253	134.847	0.039	-0.051
-124.239	-200.000	0.013	0.157
-123.224	203.968	0.149	0.230
