DTS Sentinel unit serial number:	SN413079Multiplexer serial number:	ORYXHardware model number:	OX4-SRSoftware version number:	ORYX F/W v4.00 Oryx Data Collector v3.7.2.0data status	okinstallation	princeton_trtdifferential loss correction	single-endedforward channel	channel 2reverse channel	N/Adate	2019/09/14time	10:11:35forward acquisition time	60.00reverse acquisition time	0.00gamma	496.2192k internal	0.2317k external	0.2317temperature offset calibration	1.0132default loss term (dB/km)	0.3790temperature slope calibration	1.0000multiplexer offset coefficient	1.0000multiplexer slope coefficient	1.0000fibre end	0.00T internal ref (°C)	33.70T ext. ref 1 (°C)	4.07T ext. ref 2 (°C)	32.01length (m)	temperature (°C)	Stokes	anti-Stokes-747.200	-57.514	-0.293	0.130
-746.185	442.371	0.110	0.245
-745.171	301.329	0.073	0.136
-744.156	-4.685	0.076	-0.053
-743.142	800.000	-0.148	0.616
-742.127	-200.000	-0.031	0.785
-741.112	-174.289	0.093	-0.003
-740.098	-61.554	-0.157	-0.067
-739.083	246.690	0.118	-0.201
-738.069	32.223	-0.194	0.169
-737.054	-94.939	0.298	-0.082
-736.039	-112.139	-0.249	-0.051
-735.025	20.481	0.091	-0.075
-734.010	-118.133	-0.244	0.044
-732.996	-200.000	-0.046	-0.452
-731.981	83.145	-0.135	-0.149
-730.966	-115.519	-0.229	-0.044
-729.952	-30.531	-0.172	0.099
-728.937	60.820	-0.153	0.154
-727.923	-200.000	-0.001	0.061
-726.908	627.570	-0.039	-0.099
-725.894	-200.000	-0.002	-0.180
-724.879	-200.000	-0.005	0.177
-723.864	-70.840	-0.136	0.052
-722.850	-161.755	-0.134	0.007
-721.835	-200.000	0.028	-0.177
-720.821	-67.261	-0.185	0.073
-719.806	408.020	-0.163	-0.348
-718.791	-58.861	-0.241	0.105
-717.777	-22.422	-0.077	0.047
-716.762	800.000	0.068	-0.287
-715.748	108.953	0.213	-0.257
-714.733	792.169	-0.088	0.246
-713.718	165.400	-0.142	-0.203
-712.704	-109.100	-0.152	0.033
-711.689	325.417	-0.063	-0.122
-710.675	239.062	-0.112	0.188
-709.660	-159.018	0.203	-0.012
-708.645	-50.344	-0.190	0.091
-707.631	-33.809	-0.166	-0.093
-706.616	-60.610	-0.190	-0.082
-705.602	111.937	-0.017	-0.020
-704.587	101.772	-0.255	0.301
-703.572	387.712	-0.065	-0.136
-702.558	-145.075	-0.194	0.018
-701.543	47.655	-0.089	-0.084
-700.529	-60.180	0.272	-0.117
-699.514	-144.608	-0.379	0.035
-698.499	-200.000	-0.016	0.114
-697.485	82.611	-0.172	-0.189
-696.470	-173.825	-0.087	0.003
-695.456	-51.550	-0.239	0.113
-694.441	745.487	0.071	-0.193
-693.426	26.272	-0.197	-0.167
-692.412	-63.035	0.213	-0.089
-691.397	28.128	0.089	0.076
-690.383	-200.000	-0.001	0.051
-689.368	-200.000	-0.033	-0.208
-688.354	-33.037	0.196	-0.110
-687.339	371.875	0.133	0.274
-686.324	-25.933	0.133	0.079
-685.310	104.911	0.161	0.192
-684.295	196.512	-0.130	-0.200
-683.281	138.551	-0.153	0.202
-682.266	-200.000	0.031	0.292
-681.251	-29.371	-0.122	0.071
-680.237	-200.000	0.022	-0.099
-679.222	-16.844	0.185	-0.118
-678.208	-6.816	-0.144	-0.099
-677.193	-13.319	-0.090	0.059
-676.178	-200.000	0.013	-0.325
-675.164	-200.000	0.030	-0.309
-674.149	-200.000	-0.003	-0.138
-673.135	92.883	-0.061	-0.069
-672.120	-80.913	-0.094	0.032
-671.105	663.522	0.043	-0.113
-670.091	-24.041	0.148	0.089
-669.076	-88.566	0.049	0.015
-668.062	135.832	0.040	-0.053
-667.047	-200.000	0.015	0.679
-666.032	-11.094	-0.191	0.127
-665.018	193.935	0.043	-0.066
-664.003	-52.637	0.314	0.146
-662.989	319.182	0.191	0.365
-661.974	21.984	-0.093	-0.076
-660.959	562.982	0.093	-0.228
-659.945	-200.000	-0.030	-0.148
-658.930	-200.000	-0.023	-0.114
-657.916	-200.000	0.052	-0.326
-656.901	-200.000	0.058	-0.380
-655.886	-200.000	-0.009	0.140
-654.872	-162.063	0.440	-0.022
-653.857	800.000	0.043	0.132
-652.843	24.609	0.051	-0.043
-651.828	-20.832	-0.246	0.152
-650.814	800.000	-0.078	-0.268
-649.799	-148.582	0.098	-0.008
-648.784	-43.919	0.221	-0.112
-647.770	-200.000	-0.069	0.000
-646.755	308.377	-0.144	0.270
-645.741	92.564	0.138	-0.157
-644.726	-21.499	0.126	0.077
-643.711	-92.446	-0.151	0.043
-642.697	278.884	-0.109	0.195
-641.682	-60.246	0.056	0.024
-640.668	-200.000	0.017	0.145
-639.653	-200.000	-0.034	-0.245
-638.638	800.000	0.159	0.449
-637.624	-94.873	0.039	-0.011
-636.609	86.636	0.185	-0.206
-635.595	376.856	0.079	0.162
-634.580	177.982	0.103	0.151
-633.565	224.718	-0.170	-0.278
-632.551	-90.557	-0.181	0.053
-631.536	569.711	-0.090	0.220
-630.522	-186.184	-0.127	-0.002
-629.507	574.266	0.031	0.077
-628.492	57.514	0.096	0.094
-627.478	-99.546	0.194	-0.049
-626.463	800.000	0.064	0.209
-625.449	57.529	-0.259	-0.255
-624.434	669.430	-0.113	-0.295
-623.419	-200.000	0.026	0.201
-622.405	476.451	0.068	-0.155
-621.390	484.649	0.039	-0.091
-620.376	-44.294	0.089	-0.045
-619.361	-200.000	0.024	0.225
-618.346	-135.323	0.229	-0.028
-617.332	351.903	-0.015	-0.031
-616.317	148.410	-0.272	-0.370
-615.303	-120.524	0.284	-0.049
-614.288	-22.730	-0.279	-0.170
-613.273	-28.494	-0.089	-0.052
-612.259	499.607	-0.133	-0.310
-611.244	-30.730	0.122	-0.069
-610.230	-160.426	0.270	-0.015
-609.215	-18.698	-0.103	-0.064
-608.201	96.717	-0.294	0.339
-607.186	-200.000	-0.014	-0.217
-606.171	264.700	0.120	-0.210
-605.157	-76.156	0.146	-0.052
-604.142	26.223	-0.068	0.057
-603.128	50.896	0.151	0.144
-602.113	216.856	-0.034	-0.055
-601.098	172.220	0.140	0.203
-600.084	423.151	-0.063	-0.137
-599.069	-196.317	0.288	-0.002
-598.055	-200.000	0.039	-0.197
-597.040	517.663	0.049	-0.114
-596.025	800.000	0.038	0.143
-595.011	-155.640	0.169	0.011
-593.996	-53.287	0.264	0.122
-592.982	-74.037	-0.264	-0.096
-591.967	-200.000	0.005	-0.112
-590.952	-91.465	-0.057	0.016
-589.938	-88.656	-0.047	-0.014
-588.923	397.830	0.086	-0.182
-587.909	-200.000	0.016	0.208
-586.894	603.737	0.105	0.263
-585.879	-21.914	-0.253	0.155
-584.865	95.940	0.062	-0.071
-583.850	114.638	0.107	0.131
-582.836	800.000	-0.027	-0.077
-581.821	-110.731	0.150	0.031
-580.806	-96.232	0.136	-0.036
-579.792	10.889	0.131	-0.101
-578.777	231.789	0.086	-0.142
-577.763	135.016	0.164	0.214
-576.748	9.003	-0.214	-0.162
-575.733	149.728	0.081	-0.110
-574.719	39.046	0.127	0.115
-573.704	-86.239	0.061	0.019
-572.690	-108.407	0.042	0.009
-571.675	800.000	-0.084	-0.293
-570.661	-2.111	-0.130	-0.092
-569.646	-140.059	-0.174	0.018
-568.631	134.465	0.041	-0.054
-567.617	-43.848	-0.125	-0.063
-566.602	117.390	0.085	-0.106
-565.588	-79.009	-0.234	-0.080
-564.573	378.973	-0.098	-0.201
-563.558	-8.590	0.101	-0.068
-562.544	-200.000	0.029	-0.163
-561.529	-200.000	0.002	-0.462
-560.515	702.626	0.103	-0.272
-559.500	-74.619	0.131	-0.048
-558.485	166.028	0.069	-0.098
-557.471	-200.000	-0.005	-0.145
-556.456	119.487	0.165	0.205
-555.442	-80.173	0.265	-0.089
-554.427	-59.775	0.181	-0.078
-553.412	-40.084	-0.199	0.104
-552.398	733.911	-0.053	0.142
-551.383	579.063	-0.032	-0.078
-550.369	280.453	-0.189	-0.340
-549.354	800.000	0.135	0.420
-548.339	-93.208	0.319	-0.089
-547.325	-94.625	-0.147	-0.040
-546.310	800.000	0.082	-0.316
-545.296	-200.000	0.011	-0.198
-544.281	-200.000	-0.010	0.058
-543.266	-129.210	-0.278	0.039
-542.252	-21.851	-0.089	0.054
-541.237	-49.720	0.044	0.021
-540.223	784.089	-0.029	0.081
-539.208	-200.000	-0.016	-0.107
-538.193	-200.000	-0.040	-0.347
-537.179	800.000	-0.006	0.019
-536.164	-17.199	0.100	0.063
-535.150	20.533	0.276	0.224
-534.135	-3.793	-0.164	0.115
-533.121	-81.955	-0.070	-0.023
-532.106	-200.000	0.090	-0.397
-531.091	-200.000	0.047	0.237
-530.077	124.762	0.104	0.131
-529.062	-104.924	-0.140	0.032
-528.048	168.766	-0.127	-0.182
-527.033	-35.294	0.100	-0.054
-526.018	49.383	-0.228	0.215
-525.004	-117.445	0.078	-0.014
-523.989	-41.826	0.180	0.092
-522.975	226.107	0.108	-0.175
-521.960	-73.766	0.046	0.017
-520.945	800.000	-0.185	0.551
-519.931	800.000	0.105	0.341
-518.916	-76.928	-0.064	0.022
-517.902	-16.037	-0.108	0.069
-516.887	800.000	-0.054	-0.208
-515.872	8.219	-0.198	0.150
-514.858	-200.000	0.023	0.264
-513.843	17.119	-0.327	0.260
-512.829	-200.000	-0.000	-0.219
-511.814	-19.277	-0.153	-0.096
-510.799	800.000	-0.159	-0.659
-509.785	-200.000	0.068	0.437
-508.770	253.951	0.221	0.379
-507.756	274.198	-0.082	-0.145
-506.741	-11.632	0.132	0.087
-505.726	242.721	-0.107	-0.180
-504.712	-86.167	-0.150	0.046
-503.697	800.000	0.055	0.183
-502.683	1.298	0.243	-0.175
-501.668	15.466	-0.168	0.133
-500.653	-162.480	0.438	-0.022
-499.639	-13.458	0.069	-0.045
-498.624	-16.921	-0.230	0.146
-497.610	233.878	-0.071	0.117
-496.595	-200.000	0.020	-0.113
-495.581	-133.979	-0.244	-0.030
-494.566	-200.000	0.060	0.277
-493.551	-200.000	0.044	0.217
-492.537	800.000	-0.028	-0.117
-491.522	189.399	-0.111	-0.167
-490.508	-178.939	0.063	-0.001
-489.493	352.518	-0.169	0.337
-488.478	800.000	0.147	0.501
-487.464	185.114	0.101	0.150
-486.449	-200.000	-0.030	0.184
-485.435	-176.000	-0.181	-0.005
-484.420	-187.176	0.115	-0.002
-483.405	217.801	0.067	-0.108
-482.391	173.799	-0.148	0.214
-481.376	25.403	-0.037	-0.031
-480.362	-59.515	-0.266	-0.114
-479.347	-150.691	-0.104	0.008
-478.332	-0.195	0.230	0.164
-477.318	-158.538	-0.071	0.004
-476.303	-42.254	0.436	-0.223
-475.289	-53.784	-0.263	0.120
-474.274	-6.334	0.207	0.142
-473.259	-166.865	-0.171	-0.007
-472.245	800.000	-0.028	-0.112
-471.230	-128.090	0.068	0.010
-470.216	101.380	0.046	0.054
-469.201	800.000	0.040	0.176
-468.186	-53.707	-0.202	-0.092
-467.172	-32.941	-0.109	-0.061
-466.157	-87.002	0.248	0.076
-465.143	141.739	0.191	-0.254
-464.128	-110.761	0.017	-0.003
-463.113	-17.718	-0.071	0.045
-462.099	-200.000	0.008	-0.064
-461.084	-86.814	-0.090	-0.027
-460.070	68.893	-0.139	-0.143
-459.055	-200.000	-0.006	0.282
-458.040	-174.842	-0.260	0.007
-457.026	46.405	-0.088	-0.082
-456.011	-21.299	0.073	0.045
-454.997	800.000	-0.032	-0.097
-453.982	94.730	-0.189	-0.215
-452.968	-200.000	0.026	0.223
-451.953	-128.655	-0.210	-0.030
-450.938	-200.000	-0.009	-0.163
-449.924	10.300	-0.102	0.077
-448.909	-50.243	-0.525	-0.249
-447.895	-70.696	0.164	-0.062
-446.880	-96.403	-0.115	0.030
-445.865	-54.847	-0.069	0.031
-444.851	589.537	0.041	0.101
-443.836	-82.090	-0.162	-0.053
-442.822	116.716	0.150	0.184
-441.807	22.546	0.027	-0.022
-440.792	-142.160	0.255	-0.025
-439.778	-200.000	-0.181	0.001
-438.763	367.085	-0.073	0.148
-437.749	-21.687	0.062	0.038
-436.734	533.970	0.170	0.404
-435.719	-200.000	-0.007	-0.128
-434.705	371.945	-0.041	-0.083
-433.690	30.371	-0.152	-0.130
-432.676	800.000	-0.097	0.294
-431.661	175.979	-0.255	0.371
-430.646	6.081	0.097	0.072
-429.632	337.453	0.136	0.264
-428.617	659.811	-0.074	-0.190
-427.603	171.221	0.020	-0.028
-426.588	643.960	0.065	-0.165
-425.573	352.001	0.116	-0.231
-424.559	-89.818	-0.156	0.046
-423.544	-200.000	0.006	-0.039
-422.530	177.120	-0.101	-0.148
-421.515	42.113	-0.088	0.080
-420.500	673.135	0.044	0.115
-419.486	203.978	-0.091	-0.141
-418.471	52.780	-0.139	-0.133
-417.457	21.962	-0.060	0.049
-416.442	508.430	-0.118	-0.275
-415.428	-200.000	-0.004	-0.135
-414.413	18.341	0.420	0.335
-413.398	800.000	-0.171	0.477
-412.384	-136.570	0.195	0.023
-411.369	-200.000	0.044	0.396
-410.355	-108.439	-0.233	-0.050
-409.340	800.000	0.059	-0.165
-408.325	102.317	0.179	-0.209
-407.311	177.972	0.040	0.058
-406.296	443.916	-0.124	0.271
-405.282	-97.217	-0.196	-0.051
-404.267	87.561	-0.210	0.233
-403.252	-200.000	0.014	0.148
-402.238	114.056	-0.121	-0.147
-401.223	-157.874	-0.292	0.017
-400.209	-200.000	-0.005	-0.127
-399.194	-200.000	-0.030	-0.148
-398.179	-82.521	-0.162	0.052
-397.165	795.029	-0.062	-0.172
-396.150	230.860	-0.074	0.121
-395.136	175.782	-0.057	-0.083
-394.121	692.926	0.024	-0.063
-393.106	318.691	0.062	-0.117
-392.092	-21.967	-0.151	0.091
-391.077	3.243	0.217	-0.158
-390.063	-31.714	-0.363	0.203
-389.048	-40.565	0.227	0.118
-388.033	66.472	0.161	-0.163
-387.019	-35.799	0.176	0.095
-386.004	487.299	0.197	-0.448
-384.990	-130.628	0.080	0.011
-383.975	-21.100	0.218	-0.133
-382.960	-9.462	0.143	0.096
-381.946	102.070	-0.073	0.085
-380.931	465.846	0.102	-0.227
-379.917	-29.791	-0.127	-0.072
-378.902	-200.000	0.022	-0.130
-377.888	-57.556	-0.166	-0.073
-376.873	198.182	-0.220	-0.335
-375.858	-12.998	0.165	-0.107
-374.844	147.821	-0.079	-0.106
-373.829	76.366	0.211	0.223
-372.815	-200.000	-0.001	-0.037
-371.800	65.376	-0.087	0.088
-370.785	800.000	-0.063	0.196
-369.771	-77.955	-0.388	-0.133
-368.756	-200.000	-0.081	0.387
-367.742	-200.000	0.030	0.167
-366.727	-5.215	-0.093	0.064
-365.712	-22.505	-0.097	0.058
-364.698	-200.000	-0.068	-0.316
-363.683	-75.083	0.201	0.072
-362.669	-21.090	-0.184	-0.112
-361.654	-193.836	-0.276	0.002
-360.639	-4.201	-0.281	0.194
-359.625	-99.241	0.349	-0.088
-358.610	-200.000	0.005	-0.223
-357.596	-200.000	-0.007	0.175
-356.581	167.600	0.226	0.321
-355.566	-163.843	0.421	-0.020
-354.552	800.000	0.065	-0.218
-353.537	87.322	-0.202	0.223
-352.523	800.000	-0.090	0.334
-351.508	-200.000	-0.022	0.312
-350.493	282.793	0.120	0.216
-349.479	42.271	0.269	-0.244
-348.464	-200.000	0.059	0.358
-347.450	-30.200	0.130	-0.074
-346.435	-128.797	0.324	0.045
-345.420	-200.000	-0.059	-0.347
-344.406	240.446	0.122	-0.203
-343.391	199.022	-0.100	0.152
-342.377	723.956	-0.031	-0.081
-341.362	383.480	-0.059	-0.122
-340.348	-140.481	0.028	0.003
-339.333	-99.068	0.515	-0.130
-338.318	-200.000	0.025	-0.440
-337.304	-178.383	-0.315	-0.007
-336.289	54.490	-0.031	-0.030
-335.275	-53.085	-0.125	0.057
-334.260	176.650	0.131	-0.189
-333.245	800.000	-0.080	-0.294
-332.231	313.871	-0.043	0.081
-331.216	258.168	0.031	0.052
-330.202	121.091	0.093	0.115
-329.187	-102.928	0.267	-0.063
-328.172	-200.000	-0.066	0.434
-327.158	-128.437	-0.332	-0.047
-326.143	312.693	-0.088	-0.164
-325.129	234.699	0.109	0.180
-324.114	-91.888	0.254	0.072
-323.099	-100.596	-0.296	0.073
-322.085	182.241	-0.130	-0.191
-321.070	339.768	0.066	-0.128
-320.056	-150.954	-0.161	-0.012
-319.041	-200.000	0.005	0.180
-318.026	-165.088	0.354	-0.016
-317.012	-194.067	-0.029	0.000
-315.997	117.563	0.041	-0.050
-314.983	800.000	-0.031	-0.119
-313.968	-59.639	-0.306	0.131
-312.953	239.241	-0.184	-0.306
-311.939	-186.311	-0.130	-0.002
-310.924	-200.000	-0.013	0.090
-309.910	-6.413	0.109	0.074
-308.895	800.000	0.035	-0.134
-307.880	-60.928	0.419	0.177
-306.866	-200.000	0.085	-0.400
-305.851	-22.809	-0.085	0.051
-304.837	-50.143	0.243	-0.115
-303.822	-27.484	-0.182	0.105
-302.807	82.465	0.233	0.252
-301.793	-24.031	0.073	0.044
-300.778	-19.777	-0.094	0.058
-299.764	25.202	-0.103	-0.085
-298.749	103.543	0.236	-0.276
-297.735	63.021	-0.216	-0.216
-296.720	95.795	0.186	0.211
-295.705	-200.000	0.016	-0.138
-294.691	269.494	0.153	0.267
-293.676	326.898	-0.091	-0.173
-292.662	-127.305	-0.139	-0.020
-291.647	270.023	-0.081	-0.142
-290.632	-22.253	0.185	0.111
-289.618	-29.051	-0.120	0.069
-288.603	-160.195	-0.051	0.003
-287.589	3.226	-0.020	-0.014
-286.574	-200.000	0.011	0.099
-285.559	800.000	-0.082	0.285
-284.545	-117.138	-0.253	0.046
-283.530	51.835	-0.159	0.151
-282.516	621.759	0.038	-0.095
-281.501	10.625	0.306	-0.232
-280.486	-98.568	-0.079	0.020
-279.472	94.020	-0.063	0.071
-278.457	-200.000	0.016	0.290
-277.443	116.941	-0.125	0.152
-276.428	-200.000	0.016	0.082
-275.413	-200.000	0.012	0.263
-274.399	-161.718	0.089	0.005
-273.384	-200.000	0.069	0.337
-272.370	13.847	0.234	0.181
-271.355	-125.519	-0.051	0.008
-270.340	-91.551	-0.087	0.025
-269.326	3.076	0.112	-0.081
-268.311	-102.087	0.128	-0.031
-267.297	-148.061	-0.136	-0.011
-266.282	-27.954	0.181	0.104
-265.267	-18.879	-0.132	-0.081
-264.253	-34.738	-0.203	0.110
-263.238	212.601	0.055	0.087
-262.224	800.000	-0.024	0.077
-261.209	800.000	0.103	0.369
-260.195	-50.357	-0.189	-0.089
-259.180	-99.002	0.516	0.130
-258.165	-33.709	0.053	0.029
-257.151	-200.000	-0.005	-0.252
-256.136	-200.000	0.011	0.209
-255.122	-79.923	-0.258	0.086
-254.107	342.436	0.149	0.291
-253.092	179.743	0.123	-0.178
-252.078	-77.311	0.300	-0.104
-251.063	-64.897	0.118	-0.047
-250.049	-38.067	-0.114	-0.060
-249.034	-110.574	0.373	0.077
-248.019	688.314	0.084	-0.219
-247.005	658.277	0.139	-0.354
-245.990	182.129	-0.106	0.154
-244.976	-200.000	0.032	-0.277
-243.961	-200.000	0.024	0.263
-242.946	-200.000	-0.011	0.150
-241.932	-135.270	-0.407	-0.048
-240.917	19.211	-0.215	-0.171
-239.903	570.524	-0.056	-0.136
-238.888	179.838	-0.171	-0.248
-237.873	-200.000	-0.010	0.072
-236.859	482.581	0.027	0.062
-235.844	-58.020	-0.253	0.110
-234.830	151.772	-0.186	-0.251
-233.815	81.422	0.043	-0.046
-232.800	155.410	-0.164	-0.224
-231.786	129.426	0.152	-0.193
-230.771	101.139	0.238	0.275
-229.757	-44.436	-0.219	0.109
-228.742	214.796	0.103	-0.161
-227.727	-7.665	0.177	0.119
-226.713	-190.369	0.460	-0.005
-225.698	263.498	-0.121	-0.208
-224.684	-200.000	0.007	0.225
-223.669	-35.943	0.251	0.135
-222.655	126.991	-0.128	-0.160
-221.640	-200.000	0.007	-0.303
-220.625	-143.985	-0.198	-0.018
-219.611	61.714	0.030	0.030
-218.596	-166.620	-0.282	0.012
-217.582	-127.082	0.413	-0.060
-216.567	-153.259	-0.185	-0.013
-215.552	63.301	0.279	0.277
-214.538	-113.564	0.265	0.051
-213.523	-130.948	0.191	-0.025
-212.509	180.842	-0.218	0.318
-211.494	-24.512	-0.148	0.087
-210.479	-104.649	0.104	-0.024
-209.465	-200.000	-0.021	-0.279
-208.450	-81.949	-0.147	-0.048
-207.436	278.007	-0.211	-0.373
-206.421	440.789	-0.060	-0.130
-205.406	800.000	0.060	0.255
-204.392	248.361	-0.052	-0.088
-203.377	229.284	0.035	0.057
-202.363	435.033	0.095	-0.204
-201.348	-184.072	-0.335	-0.006
-200.333	-200.000	-0.022	0.207
-199.319	15.953	-0.047	0.037
-198.304	217.573	-0.183	0.289
-197.290	90.464	-0.223	-0.247
-196.275	-23.705	-0.287	0.170
-195.260	13.233	-0.028	0.022
-194.246	-113.184	0.268	0.052
-193.231	-181.974	0.478	0.009
-192.217	144.495	0.234	-0.309
-191.202	-123.702	0.283	-0.044
-190.187	9.757	0.225	-0.169
-189.173	225.509	-0.270	0.433
-188.158	800.000	0.064	-0.223
-187.144	22.273	0.119	0.097
-186.129	-200.000	0.012	-0.055
-185.114	-90.169	-0.191	0.055
-184.100	668.045	0.083	-0.212
-183.085	-106.905	0.023	0.005
-182.071	-40.820	-0.129	-0.066
-181.056	-142.999	-0.387	-0.037
-180.042	150.433	-0.150	-0.202
-179.027	-97.946	0.185	-0.047
-178.012	101.607	-0.033	-0.038
-176.998	-188.354	0.064	-0.001
-175.983	255.595	0.047	0.080
-174.969	-1.339	-0.078	0.054
-173.954	-35.026	-0.161	0.087
-172.939	-124.346	0.118	0.018
-171.925	800.000	-0.026	-0.082
-170.910	-200.000	-0.021	0.185
-169.896	-16.202	0.163	0.102
-168.881	149.371	-0.052	-0.070
-167.866	800.000	-0.075	0.219
-166.852	-16.894	0.218	-0.136
-165.837	221.064	-0.019	-0.030
-164.823	800.000	0.049	-0.155
-163.808	-0.869	-0.072	-0.051
-162.793	-85.203	0.105	-0.033
-161.779	3.034	0.048	-0.035
-160.764	10.698	-0.290	-0.219
-159.750	13.988	-0.354	0.273
-158.735	502.794	0.030	0.069
-157.720	-6.120	-0.083	-0.056
-156.706	432.331	0.087	-0.186
-155.691	-46.359	0.231	-0.112
-154.677	186.685	0.135	0.200
-153.662	-78.890	0.088	-0.030
-152.647	-200.000	-0.009	-0.261
-151.633	-119.307	-0.113	0.019
-150.618	135.830	-0.271	-0.349
-149.604	-15.541	0.257	-0.162
-148.589	-29.063	0.179	0.102
-147.574	70.139	-0.122	0.125
-146.560	-200.000	0.055	0.290
-145.545	34.150	0.209	-0.181
-144.531	602.389	-0.122	0.299
-143.516	27.849	-0.199	-0.166
-142.502	800.000	0.029	-0.113
-141.487	80.931	0.155	0.166
-140.472	-200.000	0.028	0.180
-139.458	800.000	0.043	-0.126
-138.443	-14.690	0.228	-0.145
-137.429	800.000	0.030	0.087
-136.414	-200.000	0.007	-0.264
-135.399	-43.495	-0.209	0.104
-134.385	4.283	-0.077	-0.056
-133.370	-200.000	0.015	0.069
-132.356	-75.080	0.344	0.122
-131.341	800.000	-0.029	0.086
-130.326	99.058	0.161	-0.184
-129.312	353.995	-0.057	-0.112
-128.297	-160.155	0.272	-0.015
-127.283	-200.000	-0.001	0.121
-126.268	-115.272	-0.242	-0.045
-125.253	-200.000	-0.011	0.137
-124.239	519.938	-0.060	0.140
-123.224	-75.255	-0.132	-0.047
-122.210	-104.413	-0.130	0.030
