DTS Sentinel unit serial number:	SN413079Multiplexer serial number:	ORYXHardware model number:	OX4-SRSoftware version number:	ORYX F/W v4.00 Oryx Data Collector v3.7.2.0data status	okinstallation	princeton_trtdifferential loss correction	single-endedforward channel	channel 2reverse channel	N/Adate	2019/09/19time	13:55:34forward acquisition time	60.00reverse acquisition time	0.00gamma	496.2192k internal	0.2324k external	0.2324temperature offset calibration	1.0019default loss term (dB/km)	0.3790temperature slope calibration	1.0000multiplexer offset coefficient	1.0000multiplexer slope coefficient	1.0000fibre end	0.00T internal ref (°C)	30.94T ext. ref 1 (°C)	1.02T ext. ref 2 (°C)	28.21length (m)	temperature (°C)	Stokes	anti-Stokes-747.200	800.000	0.068	0.241
-746.185	-21.339	-0.222	-0.137
-745.171	-154.358	0.188	-0.013
-744.156	-35.202	0.401	0.220
-743.142	-138.685	-0.304	-0.034
-742.127	800.000	-0.117	0.468
-741.112	25.431	-0.175	-0.147
-740.098	-200.000	0.042	-0.307
-739.083	-113.325	-0.169	0.033
-738.069	69.239	-0.265	0.275
-737.054	527.143	-0.144	-0.344
-736.039	-119.670	0.062	-0.011
-735.025	72.779	0.114	0.120
-734.010	-3.179	0.038	0.027
-732.996	-61.730	-0.115	0.049
-731.981	438.084	0.079	-0.173
-730.966	-59.850	0.065	0.028
-729.952	-200.000	-0.009	0.073
-728.937	-109.169	-0.202	0.043
-727.923	-127.669	-0.329	0.048
-726.908	95.073	-0.352	-0.404
-725.894	-13.178	0.151	-0.099
-724.879	-200.000	0.062	-0.366
-723.864	31.126	-0.277	-0.240
-722.850	-130.824	-0.102	0.014
-721.835	-200.000	0.013	0.163
-720.821	-126.885	-0.243	-0.036
-719.806	-200.000	-0.005	-0.630
-718.791	-49.918	-0.200	-0.096
-717.777	167.150	-0.226	-0.323
-716.762	120.065	0.079	0.099
-715.748	-36.033	-0.061	0.033
-714.733	-21.894	0.266	-0.163
-713.718	112.955	-0.140	0.171
-712.704	795.847	-0.051	-0.143
-711.689	-126.193	-0.188	-0.028
-710.675	-76.746	0.567	0.200
-709.660	196.817	0.085	0.131
-708.645	-153.200	-0.198	0.014
-707.631	-72.958	-0.084	-0.031
-706.616	121.170	-0.217	0.272
-705.602	184.880	0.164	0.245
-704.587	800.000	-0.109	-0.379
-703.572	-51.503	0.112	0.053
-702.558	7.578	-0.167	0.126
-701.543	800.000	0.042	0.138
-700.529	-93.238	-0.053	0.015
-699.514	800.000	-0.048	-0.207
-698.499	800.000	0.109	0.380
-697.485	16.360	0.069	0.055
-696.470	106.658	0.091	0.109
-695.456	18.192	-0.308	-0.247
-694.441	159.100	0.188	-0.263
-693.426	285.860	0.025	0.046
-692.412	-136.078	-0.195	0.023
-691.397	-200.000	0.010	0.057
-690.383	800.000	-0.034	0.129
-689.368	47.530	0.331	-0.310
-688.354	115.110	-0.172	0.212
-687.339	800.000	-0.078	0.256
-686.324	-138.165	0.057	0.006
-685.310	-36.780	-0.055	0.030
-684.295	-161.904	0.134	0.007
-683.281	-69.844	-0.445	0.171
-682.266	308.502	-0.037	-0.069
-681.251	-200.000	-0.004	-0.073
-680.237	25.024	-0.119	-0.099
-679.222	132.735	-0.207	-0.269
-678.208	-113.632	-0.104	0.020
-677.193	-167.095	0.227	-0.009
-676.178	-41.334	-0.384	0.199
-675.164	189.207	0.058	-0.087
-674.149	-33.471	0.046	0.026
-673.135	317.753	0.152	-0.290
-672.120	-200.000	-0.079	-0.619
-671.105	279.181	-0.084	0.151
-670.091	-140.973	0.382	0.039
-669.076	-17.649	0.046	-0.029
-668.062	159.024	0.110	0.154
-667.047	434.446	-0.102	-0.223
-666.032	-70.146	-0.135	-0.052
-665.018	-200.000	0.002	0.177
-664.003	800.000	-0.036	-0.113
-662.989	334.250	0.159	0.310
-661.974	-200.000	0.003	0.418
-660.959	6.325	0.126	0.094
-659.945	-94.594	0.103	-0.028
-658.930	-200.000	0.029	-0.166
-657.916	-151.758	-0.355	0.026
-656.901	-67.956	-0.169	0.066
-655.886	-60.171	0.104	0.045
-654.872	-134.494	-0.124	0.015
-653.857	150.836	0.240	0.328
-652.843	111.920	0.124	0.150
-651.828	-98.416	0.115	-0.030
-650.814	-119.107	-0.256	0.045
-649.799	179.436	0.085	-0.125
-648.784	-35.771	-0.179	0.098
-647.770	-200.000	-0.020	-0.319
-646.755	-116.333	-0.384	-0.071
-645.741	-10.222	-0.287	0.191
-644.726	28.014	0.160	0.136
-643.711	-90.721	0.183	-0.053
-642.697	105.488	-0.241	-0.286
-641.682	257.224	0.146	0.253
-640.668	-200.000	-0.041	0.287
-639.653	14.488	-0.073	-0.057
-638.638	67.580	-0.284	-0.292
-637.624	800.000	-0.067	0.219
-636.609	161.417	-0.288	0.404
-635.595	20.430	-0.256	0.208
-634.580	-200.000	-0.077	0.383
-633.565	337.781	-0.014	0.028
-632.551	-200.000	-0.027	0.165
-631.536	-106.346	0.078	-0.017
-630.522	368.708	0.013	0.026
-629.507	13.836	0.312	0.244
-628.492	-22.293	-0.121	-0.074
-627.478	112.063	0.220	0.268
-626.463	-82.796	0.288	0.094
-625.449	-67.340	0.357	0.141
-624.434	-124.335	0.284	0.045
-623.419	-122.947	-0.129	-0.021
-622.405	800.000	0.036	-0.122
-621.390	4.566	0.142	0.105
-620.376	585.579	0.055	0.136
-619.361	-84.143	-0.399	0.127
-618.346	-89.389	0.197	0.058
-617.332	-50.157	0.429	0.204
-616.317	-118.876	-0.245	0.043
-615.303	-45.739	0.238	-0.118
-614.288	-200.000	0.013	0.152
-613.273	-69.526	-0.244	-0.094
-612.259	362.355	-0.178	-0.359
-611.244	-64.934	0.150	-0.061
-610.230	800.000	-0.060	0.175
-609.215	-200.000	-0.071	0.325
-608.201	-200.000	-0.043	0.375
-607.186	40.296	0.364	-0.329
-606.171	-57.796	0.098	0.043
-605.157	-40.942	-0.025	0.013
-604.142	346.530	0.066	0.130
-603.128	142.106	-0.089	0.119
-602.113	145.749	0.164	-0.221
-601.098	-200.000	0.014	0.088
-600.084	-166.335	0.269	-0.011
-599.069	800.000	0.016	-0.054
-598.055	-200.000	0.036	0.250
-597.040	539.690	-0.143	-0.342
-596.025	-57.287	-0.182	0.080
-595.011	800.000	-0.023	-0.066
-593.996	-200.000	-0.071	0.610
-592.982	-200.000	-0.008	0.306
-591.967	-44.961	0.100	0.050
-590.952	4.553	0.112	-0.082
-589.938	-143.104	0.165	-0.016
-588.923	7.516	-0.059	0.044
-587.909	406.400	-0.190	0.403
-586.894	217.757	0.076	0.122
-585.879	-9.650	-0.330	-0.221
-584.865	-41.662	-0.248	-0.128
-583.850	-200.000	-0.014	-0.126
-582.836	43.013	0.131	-0.120
-581.821	544.480	0.157	0.376
-580.806	-67.924	0.034	0.013
-579.792	76.653	-0.079	-0.084
-578.777	141.827	-0.213	0.283
-577.763	-133.501	-0.203	0.026
-576.748	40.972	-0.291	-0.263
-575.733	-16.581	0.310	-0.197
-574.719	-200.000	-0.028	-0.186
-573.704	-24.609	0.297	-0.177
-572.690	60.188	-0.102	-0.101
-571.675	22.591	0.071	0.058
-570.661	-200.000	0.029	0.352
-569.646	218.695	0.222	0.356
-568.631	-34.599	0.135	-0.074
-567.617	317.528	-0.030	-0.056
-566.602	59.552	0.119	-0.118
-565.588	-140.856	0.221	-0.023
-564.573	800.000	0.085	0.274
-563.558	-19.669	-0.209	0.130
-562.544	-103.217	0.379	0.090
-561.529	29.780	0.249	-0.212
-560.515	800.000	-0.110	-0.342
-559.500	41.698	0.090	-0.082
-558.485	116.318	-0.033	-0.040
-557.471	170.442	-0.117	0.167
-556.456	800.000	0.067	-0.188
-555.442	-25.787	0.231	0.137
-554.427	-25.380	-0.163	0.097
-553.412	140.111	-0.063	0.083
-552.398	-200.000	-0.023	-0.269
-551.383	-200.000	0.063	0.296
-550.369	424.380	-0.102	-0.220
-549.354	-29.412	0.182	-0.104
-548.339	-200.000	-0.012	-0.342
-547.325	364.055	-0.033	-0.067
-546.310	729.296	0.045	-0.121
-545.296	800.000	-0.141	-0.416
-544.281	-103.660	-0.128	-0.030
-543.266	42.554	-0.217	-0.198
-542.252	12.001	0.102	0.079
-541.237	-200.000	0.023	-0.164
-540.223	-149.658	-0.376	-0.030
-539.208	87.985	-0.121	0.134
-538.193	65.380	0.145	-0.147
-537.179	276.190	-0.088	-0.156
-536.164	-200.000	0.003	-0.034
-535.150	407.581	-0.036	0.076
-534.135	-64.504	0.186	-0.076
-533.121	800.000	0.066	0.192
-532.106	278.663	0.026	0.046
-531.091	616.783	-0.071	-0.179
-530.077	-61.035	-0.113	-0.048
-529.062	-200.000	-0.038	0.290
-528.048	53.098	-0.202	-0.193
-527.033	-96.906	0.314	0.083
-526.018	-38.653	0.275	0.145
-525.004	-37.790	0.095	0.051
-523.989	-99.093	0.231	-0.059
-522.975	-74.828	-0.259	-0.093
-521.960	-61.843	-0.129	-0.054
-520.945	-200.000	0.031	-0.137
-519.931	338.532	-0.081	-0.159
-518.916	422.047	-0.045	-0.096
-517.902	-118.911	-0.103	-0.018
-516.887	800.000	0.060	-0.234
-515.872	-94.725	-0.104	0.028
-514.858	25.774	-0.094	-0.079
-513.843	800.000	-0.008	0.023
-512.829	-41.245	0.249	-0.128
-511.814	-111.850	-0.450	-0.091
-510.799	-169.543	-0.084	-0.003
-509.785	-104.704	0.067	0.015
-508.770	-10.051	0.200	0.133
-507.756	129.474	-0.052	-0.066
-506.741	-200.000	-0.016	0.136
-505.726	-48.358	-0.188	-0.091
-504.712	800.000	0.067	-0.192
-503.697	-103.246	-0.201	0.047
-502.683	588.871	-0.027	-0.066
-501.668	-56.872	0.117	0.052
-500.653	60.763	-0.071	0.071
-499.639	175.166	-0.111	-0.161
-498.624	47.128	0.074	-0.069
-497.610	-87.813	-0.180	-0.054
-496.595	290.919	-0.041	0.075
-495.581	239.941	0.081	-0.135
-494.566	-122.482	0.278	0.045
-493.551	-140.010	0.235	-0.025
-492.537	77.763	0.083	0.088
-491.522	-200.000	-0.068	0.298
-490.508	148.858	0.128	0.173
-489.493	30.209	-0.237	-0.202
-488.478	-16.044	-0.129	0.082
-487.464	138.578	-0.033	-0.044
-486.449	-78.924	-0.516	0.176
-485.435	-200.000	-0.046	0.266
-484.420	800.000	0.061	0.232
-483.405	-200.000	-0.014	-0.219
-482.391	-46.829	0.271	0.133
-481.376	114.444	0.079	0.096
-480.362	-34.779	-0.164	-0.090
-479.347	91.703	0.180	-0.202
-478.332	277.845	-0.091	-0.162
-477.318	58.215	0.064	0.063
-476.303	26.073	-0.187	-0.156
-475.289	-94.635	0.047	0.013
-474.274	78.656	-0.214	0.228
-473.259	123.620	-0.072	-0.090
-472.245	316.236	-0.269	-0.507
-471.230	-39.452	-0.088	-0.046
-470.216	-8.849	0.274	0.183
-469.201	-200.000	0.007	0.119
-468.186	-14.413	-0.256	-0.164
-467.172	-11.430	-0.198	-0.130
-466.157	800.000	-0.024	-0.088
-465.143	787.161	-0.014	-0.038
-464.128	48.677	-0.077	0.072
-463.113	-200.000	0.007	0.128
-462.099	-71.462	-0.224	-0.084
-461.084	292.176	-0.072	-0.132
-460.070	39.002	0.044	-0.039
-459.055	71.509	0.194	-0.201
-458.040	-200.000	0.028	-0.206
-457.026	-127.826	-0.225	0.032
-456.011	157.075	-0.075	0.103
-454.997	30.071	-0.113	-0.096
-453.982	-200.000	-0.019	0.207
-452.968	787.877	-0.111	0.304
-451.953	-200.000	-0.001	-0.127
-450.938	289.146	-0.058	-0.105
-449.924	-200.000	0.093	0.480
-448.909	800.000	0.130	0.394
-447.895	-200.000	-0.002	-0.030
-446.880	-132.287	-0.138	-0.018
-445.865	3.490	-0.201	0.146
-444.851	477.541	-0.140	0.316
-443.836	593.636	0.112	0.276
-442.822	-119.175	-0.367	0.064
-441.807	-200.000	0.033	0.363
-440.792	-95.487	0.098	0.026
-439.778	129.781	0.086	-0.109
-438.763	-200.000	-0.019	0.094
-437.749	-33.180	-0.307	-0.170
-436.734	-151.323	-0.129	-0.010
-435.719	-151.593	-0.488	0.036
-434.705	-37.311	0.291	0.155
-433.690	9.150	-0.251	0.189
-432.676	-115.338	-0.328	-0.062
-431.661	-81.638	0.230	-0.075
-430.646	6.152	-0.233	-0.172
-429.632	208.316	-0.109	-0.170
-428.617	351.958	-0.073	0.144
-427.603	-108.983	0.206	-0.044
-426.588	-125.242	0.063	-0.010
-425.573	-22.779	0.113	0.068
-424.559	94.321	0.155	0.176
-423.544	-200.000	0.029	-0.235
-422.530	800.000	-0.014	-0.044
-421.515	800.000	0.075	-0.243
-420.500	-99.629	0.333	0.083
-419.486	800.000	0.080	-0.255
-418.471	-112.063	0.150	-0.030
-417.457	800.000	0.112	-0.360
-416.442	-98.376	-0.179	-0.046
-415.428	85.169	-0.242	0.264
-414.413	479.446	-0.135	0.305
-413.398	32.709	-0.255	-0.220
-412.384	-164.392	0.352	0.016
-411.369	670.045	0.040	0.104
-410.355	-82.062	-0.051	0.016
-409.340	244.888	0.062	-0.103
-408.325	271.244	-0.219	-0.384
-407.311	800.000	0.090	-0.279
-406.296	50.370	-0.076	-0.071
-405.282	-174.258	0.125	0.004
-404.267	20.624	-0.151	-0.121
-403.252	628.503	-0.039	-0.097
-402.238	-80.481	0.115	0.038
-401.223	-152.791	-0.136	-0.010
-400.209	-120.509	0.237	0.040
-399.194	-72.313	-0.291	0.107
-398.179	-151.399	0.154	-0.011
-397.165	-52.953	0.187	-0.086
-396.150	368.221	0.040	-0.080
-395.136	151.199	-0.145	-0.197
-394.121	-164.313	-0.176	0.008
-393.106	-85.871	0.134	0.041
-392.092	-198.719	-0.557	-0.003
-391.077	16.906	-0.369	0.291
-390.063	-200.000	0.009	0.042
-389.048	31.755	0.089	-0.076
-388.033	-92.701	0.161	0.045
-387.019	-98.353	-0.007	0.002
-386.004	800.000	-0.042	-0.176
-384.990	-117.837	-0.123	-0.022
-383.975	-160.299	-0.141	0.008
-382.960	-200.000	0.017	-0.198
-381.946	371.699	0.170	0.343
-380.931	-150.592	-0.055	0.004
-379.917	14.833	-0.201	-0.156
-378.902	68.169	0.199	0.202
-377.888	599.458	-0.084	0.208
-376.873	485.078	-0.089	0.201
-375.858	-174.158	-0.117	-0.003
-374.844	24.202	-0.166	0.136
-373.829	100.486	-0.211	0.244
-372.815	-22.719	-0.125	-0.075
-371.800	800.000	-0.013	0.055
-370.785	-70.889	0.254	-0.095
-369.771	522.687	0.066	-0.155
-368.756	-21.291	-0.179	-0.109
-367.742	-104.202	0.177	0.041
-366.727	-82.549	-0.101	-0.032
-365.712	84.716	0.054	-0.059
-364.698	-186.232	-0.086	0.001
-363.683	-200.000	-0.047	-0.230
-362.669	730.417	0.025	-0.067
-361.654	-200.000	-0.021	0.163
-360.639	-116.005	0.329	-0.061
-359.625	114.576	0.146	0.177
-358.610	-87.358	0.377	0.114
-357.596	-19.066	0.258	-0.159
-356.581	103.015	0.152	-0.177
-355.566	-200.000	0.026	0.154
-354.552	800.000	0.039	-0.118
-353.537	-152.542	0.234	0.017
-352.523	163.672	-0.131	0.183
-351.508	-200.000	0.021	0.423
-350.493	-70.346	0.291	0.110
-349.479	-106.904	0.093	-0.020
-348.464	124.250	0.062	-0.078
-347.450	57.518	0.077	0.075
-346.435	-129.271	0.176	-0.024
-345.420	-19.780	0.118	-0.072
-344.406	153.546	-0.120	-0.164
-343.391	800.000	-0.079	-0.335
-342.377	-200.000	0.049	-0.422
-341.362	-113.508	0.075	-0.015
-340.348	-200.000	0.026	-0.201
-339.333	-146.793	0.091	-0.008
-338.318	115.516	0.148	-0.180
-337.304	157.249	-0.078	-0.107
-336.289	-65.833	0.145	-0.058
-335.275	-91.337	0.324	0.092
-334.260	-200.000	0.022	0.212
-333.245	-6.300	0.035	0.024
-332.231	63.877	0.062	-0.062
-331.216	-200.000	0.011	-0.302
-330.202	91.466	0.168	0.187
-329.187	-42.455	0.118	0.060
-328.172	-200.000	-0.028	-0.303
-327.158	187.293	0.160	-0.236
-326.143	370.758	0.033	-0.067
-325.129	-120.112	-0.145	-0.025
-324.114	-23.990	0.152	-0.090
-323.099	800.000	0.128	0.420
-322.085	-93.464	0.228	-0.063
-321.070	-105.230	0.200	-0.045
-320.056	64.674	-0.351	-0.352
-319.041	-200.000	-0.001	-0.341
-318.026	-167.685	-0.122	0.005
-317.012	-31.881	-0.502	-0.279
-315.997	291.623	-0.125	-0.225
-314.983	181.572	-0.123	-0.179
-313.968	-200.000	-0.044	-0.239
-312.953	-69.455	-0.152	0.058
-311.939	800.000	0.125	0.434
-310.924	-200.000	0.085	0.485
-309.910	134.993	-0.222	0.286
-308.895	-200.000	0.016	-0.081
-307.880	46.204	-0.290	-0.267
-306.866	800.000	0.012	0.042
-305.851	48.567	-0.150	-0.140
-304.837	34.399	-0.112	0.097
-303.822	23.819	-0.031	0.025
-302.807	-200.000	0.008	-0.040
-301.793	148.176	0.070	-0.094
-300.778	292.278	-0.046	0.083
-299.764	-82.652	-0.186	0.060
-298.749	-112.176	-0.037	0.007
-297.735	254.177	-0.046	-0.078
-296.720	-100.322	0.282	0.069
-295.705	82.595	0.270	0.290
-294.691	-92.983	0.281	0.078
-293.676	-136.035	0.366	0.043
-292.662	-79.741	-0.352	0.118
-291.647	157.617	-0.049	0.068
-290.632	-40.991	-0.338	-0.173
-289.618	47.404	-0.174	0.161
-288.603	83.069	-0.131	0.141
-287.589	-200.000	0.014	0.095
-286.574	-111.663	0.452	0.091
-285.559	216.258	-0.022	-0.034
-284.545	-55.805	0.326	-0.144
-283.530	800.000	0.031	-0.115
-282.516	-121.772	-0.176	-0.029
-281.501	41.969	0.296	0.266
-280.486	-95.737	0.394	0.104
-279.472	-143.414	0.231	-0.022
-278.457	-169.835	-0.328	-0.012
-277.443	800.000	0.090	0.286
-276.428	-95.373	0.291	0.077
-275.413	-95.693	-0.165	0.044
-274.399	-48.181	-0.158	-0.075
-273.384	-43.893	-0.236	0.118
-272.370	74.032	-0.226	0.235
-271.355	482.094	0.060	0.136
-270.340	-134.941	0.227	0.027
-269.326	-173.581	-0.227	0.007
-268.311	-126.186	0.135	0.020
-267.297	163.844	-0.180	0.251
-266.282	202.918	-0.071	-0.109
-265.267	-52.027	0.079	-0.036
-264.253	284.975	0.065	0.117
-263.238	324.001	-0.137	0.259
-262.224	-2.538	0.193	-0.134
-261.209	-89.147	-0.178	0.052
-260.195	-200.000	0.010	-0.271
-259.180	-200.000	0.064	-0.287
-258.165	324.170	-0.024	0.045
-257.151	800.000	-0.031	-0.102
-256.136	-39.946	-0.237	0.123
-255.122	67.402	0.145	-0.147
-254.107	800.000	-0.017	-0.050
-253.092	-73.652	-0.244	0.088
-252.078	232.819	-0.066	-0.108
-251.063	-54.939	0.091	0.040
-250.049	14.642	0.050	-0.039
-249.034	800.000	0.068	-0.205
-248.019	77.603	0.244	-0.257
-247.005	108.809	-0.063	0.075
-245.990	75.775	-0.226	-0.236
-244.976	-79.221	0.094	-0.031
-243.961	24.462	-0.252	0.207
-242.946	-76.057	-0.299	-0.105
-241.932	-200.000	0.019	-0.220
-240.917	8.201	0.251	-0.187
-239.903	31.776	-0.181	0.154
-238.888	-58.181	0.227	-0.098
-237.873	647.744	-0.009	0.022
-236.859	-200.000	-0.046	-0.209
-235.844	-116.714	0.029	-0.005
-234.830	29.812	0.129	-0.109
-233.815	39.845	0.091	-0.081
-232.800	501.350	0.080	-0.182
-231.786	-63.252	-0.042	-0.017
-230.771	-200.000	0.034	-0.195
-229.757	190.131	-0.038	-0.056
-228.742	-186.813	0.144	0.002
-227.727	57.827	0.166	0.161
-226.713	334.604	0.157	0.300
-225.698	-112.833	-0.162	0.032
-224.684	152.916	0.072	-0.098
-223.669	165.440	-0.151	-0.212
-222.655	-25.016	-0.144	-0.084
-221.640	-124.747	0.150	-0.023
-220.625	-200.000	-0.026	0.132
-219.611	-133.465	0.229	-0.028
-218.596	755.438	-0.086	-0.230
-217.582	-58.453	-0.112	0.048
-216.567	800.000	-0.016	-0.048
-215.552	-77.071	0.096	0.033
-214.538	-200.000	0.029	0.305
-213.523	-16.438	-0.155	0.097
-212.509	-30.551	0.198	0.111
-211.494	-152.930	0.214	-0.015
-210.479	114.059	-0.152	0.182
-209.465	-46.791	0.458	0.221
-208.450	-158.626	-0.195	-0.011
-207.436	-194.644	-0.073	-0.001
-206.421	-60.289	-0.085	0.036
-205.406	-200.000	-0.024	0.437
-204.392	800.000	-0.086	0.250
-203.377	-3.413	0.135	0.093
-202.363	170.455	-0.169	0.239
-201.348	340.071	0.087	0.167
-200.333	-127.746	0.368	0.052
-199.319	-200.000	-0.010	0.069
-198.304	-105.466	-0.047	0.010
-197.290	-21.307	-0.214	-0.129
-196.275	85.502	0.180	-0.195
-195.260	800.000	-0.121	-0.385
-194.246	-130.596	0.251	-0.033
-193.231	-200.000	0.021	0.309
-192.217	-200.000	0.005	0.234
-191.202	719.943	0.086	-0.227
-190.187	-26.016	-0.223	-0.129
-189.173	-30.922	-0.146	0.081
-188.158	314.644	0.115	-0.213
-187.144	-163.953	0.065	0.003
-186.129	-147.972	-0.069	0.006
-185.114	-115.600	0.176	-0.033
-184.100	-200.000	0.018	-0.149
-183.085	366.610	-0.067	-0.134
-182.071	301.671	0.124	-0.226
-181.056	-101.725	-0.125	0.030
-180.042	76.864	0.217	-0.228
-179.027	97.912	-0.080	0.091
-178.012	-200.000	-0.018	0.280
-176.998	428.820	-0.046	0.099
-175.983	-200.000	-0.004	-0.186
-174.969	-200.000	0.035	0.290
-173.954	192.573	-0.070	0.104
-172.939	323.322	-0.106	0.200
-171.925	-142.422	-0.101	0.010
-170.910	-60.754	0.103	-0.043
-169.896	416.311	-0.117	-0.247
-168.881	392.894	0.207	-0.424
-167.866	27.528	0.246	-0.204
-166.852	-101.236	-0.240	-0.058
-165.837	-55.563	0.384	0.170
-164.823	25.471	0.205	-0.168
-163.808	-133.393	-0.167	-0.021
-162.793	-60.757	0.131	0.055
-161.779	265.777	0.054	-0.094
-160.764	-44.249	-0.227	0.112
-159.750	256.091	-0.087	-0.147
-158.735	800.000	-0.016	0.045
-157.720	268.673	0.031	-0.053
-156.706	630.700	0.084	-0.210
-155.691	45.825	-0.034	-0.031
-154.677	-200.000	0.013	0.060
-153.662	-64.963	0.215	0.086
-152.647	-130.677	0.363	-0.048
-151.633	-200.000	-0.010	0.092
-150.618	103.166	0.093	-0.107
-149.604	-61.323	-0.350	0.145
-148.589	800.000	-0.088	0.276
-147.574	238.616	0.132	0.216
-146.560	125.217	0.145	0.180
-145.545	800.000	-0.046	-0.164
-144.531	61.754	-0.170	-0.167
-143.516	16.887	0.202	0.158
-142.502	-123.708	0.206	0.032
-141.487	-200.000	-0.007	-0.215
-140.472	-94.652	0.120	-0.032
-139.458	50.322	0.177	-0.165
-138.443	14.325	-0.048	0.037
-137.429	116.597	0.126	0.153
-136.414	-117.970	-0.219	-0.039
-135.399	141.729	-0.247	0.322
-134.385	61.942	0.277	-0.273
-133.370	427.847	0.092	0.195
-132.356	-184.688	-0.086	0.001
-131.341	78.492	-0.148	0.156
-130.326	-200.000	-0.244	-0.001
-129.312	99.571	-0.112	0.128
-128.297	-4.378	-0.044	0.030
-127.283	800.000	-0.091	-0.380
-126.268	32.899	-0.072	-0.061
-125.253	-10.482	-0.174	0.113
-124.239	-200.000	0.021	0.123
-123.224	505.588	-0.025	0.056
-122.210	-200.000	-0.002	-0.075
