DTS Sentinel unit serial number:	SN413079Multiplexer serial number:	ORYXHardware model number:	OX4-SRSoftware version number:	ORYX F/W v4.00 Oryx Data Collector v3.7.2.0data status	okinstallation	princeton_trtdifferential loss correction	single-endedforward channel	channel 2reverse channel	N/Adate	2019/09/18time	05:27:35forward acquisition time	60.00reverse acquisition time	0.00gamma	496.2192k internal	0.2348k external	0.2348temperature offset calibration	0.9983default loss term (dB/km)	0.3790temperature slope calibration	1.0000multiplexer offset coefficient	1.0000multiplexer slope coefficient	1.0000fibre end	0.00T internal ref (°C)	23.44T ext. ref 1 (°C)	0.19T ext. ref 2 (°C)	17.06length (m)	temperature (°C)	Stokes	anti-Stokes-747.200	-200.000	-0.016	0.202
-746.185	117.670	-0.315	0.388
-745.171	-4.122	-0.321	-0.222
-744.156	800.000	0.101	0.282
-743.142	-200.000	-0.026	0.195
-742.127	-56.623	-0.428	0.189
-741.112	-16.003	0.151	0.096
-740.098	66.411	-0.191	0.194
-739.083	-200.000	-0.005	-0.077
-738.069	800.000	0.070	-0.209
-737.054	286.606	-0.081	0.145
-736.039	800.000	-0.044	-0.191
-735.025	-200.000	-0.013	0.060
-734.010	-132.493	-0.169	-0.022
-732.996	564.392	0.100	-0.243
-731.981	-200.000	-0.010	0.345
-730.966	800.000	0.017	0.051
-729.952	150.125	-0.289	0.392
-728.937	561.535	0.149	0.359
-727.923	800.000	0.067	-0.259
-726.908	27.184	-0.221	0.186
-725.894	124.385	-0.112	-0.141
-724.879	97.059	0.098	0.112
-723.864	94.803	0.203	-0.231
-722.850	-1.817	0.138	-0.097
-721.835	-200.000	0.022	0.147
-720.821	2.342	-0.382	0.276
-719.806	19.851	-0.154	-0.124
-718.791	87.098	0.068	0.075
-717.777	-1.683	0.154	0.108
-716.762	-200.000	0.004	-0.073
-715.748	-112.576	0.327	0.065
-714.733	-200.000	0.007	0.461
-713.718	-5.809	-0.246	0.168
-712.704	129.396	0.199	-0.253
-711.689	800.000	0.057	-0.239
-710.675	348.212	0.095	-0.188
-709.660	4.421	-0.169	0.123
-708.645	-200.000	-0.074	-0.408
-707.631	-17.379	-0.229	0.144
-706.616	638.108	0.146	0.370
-705.602	-60.005	0.417	-0.178
-704.587	-200.000	-0.033	-0.447
-703.572	492.410	0.071	0.163
-702.558	-200.000	0.073	0.441
-701.543	800.000	0.075	0.229
-700.529	-200.000	-0.091	-0.412
-699.514	-65.962	-0.116	-0.046
-698.499	669.261	0.037	-0.095
-697.485	225.714	0.063	-0.102
-696.470	12.476	-0.150	-0.115
-695.456	-113.583	0.047	0.009
-694.441	-26.024	0.229	0.134
-693.426	-200.000	-0.023	-0.264
-692.412	284.569	0.061	-0.109
-691.397	68.971	-0.146	-0.150
-690.383	92.244	-0.063	0.071
-689.368	-84.381	0.185	-0.058
-688.354	-85.592	-0.263	0.081
-687.339	6.066	0.355	-0.263
-686.324	800.000	0.070	-0.248
-685.310	67.873	0.151	-0.154
-684.295	-145.267	-0.120	-0.011
-683.281	55.338	0.103	0.099
-682.266	-37.615	-0.392	0.208
-681.251	-53.184	0.318	-0.146
-680.237	800.000	-0.035	0.120
-679.222	36.282	-0.003	0.003
-678.208	-200.000	0.021	0.220
-677.193	-13.675	0.180	0.116
-676.178	800.000	0.075	0.244
-675.164	122.276	-0.010	-0.013
-674.149	-36.128	-0.151	0.081
-673.135	42.527	-0.092	-0.083
-672.120	-118.606	-0.295	-0.052
-671.105	-141.811	-0.310	0.031
-670.091	-120.936	0.071	0.012
-669.076	17.747	-0.235	-0.187
-668.062	-31.306	0.181	-0.101
-667.047	-200.000	-0.003	-0.388
-666.032	-88.848	0.071	0.021
-665.018	-200.000	-0.002	0.065
-664.003	248.407	0.053	-0.090
-662.989	-200.000	-0.079	0.000
-661.974	-200.000	0.026	0.319
-660.959	-46.947	-0.131	0.064
-659.945	61.188	0.224	0.222
-658.930	22.531	0.366	0.298
-657.916	-65.291	-0.250	-0.100
-656.901	-200.000	0.017	-0.084
-655.886	-113.174	0.228	0.045
-654.872	-200.000	-0.025	-0.129
-653.857	336.690	0.161	-0.310
-652.843	-107.437	0.081	0.018
-651.828	659.486	0.096	-0.245
-650.814	-16.700	-0.074	-0.046
-649.799	18.996	0.244	0.195
-648.784	-200.000	0.024	0.184
-647.770	174.963	-0.080	-0.115
-646.755	184.473	0.089	-0.131
-645.741	-100.302	0.181	0.045
-644.726	-44.988	-0.096	0.047
-643.711	-200.000	0.012	0.191
-642.697	-27.537	-0.159	-0.092
-641.682	800.000	0.036	0.132
-640.668	655.258	-0.110	-0.280
-639.653	57.331	0.132	-0.128
-638.638	800.000	0.098	0.283
-637.624	-200.000	0.068	-0.386
-636.609	-1.437	-0.127	0.089
-635.595	-200.000	-0.046	-0.335
-634.580	-133.416	-0.478	0.060
-633.565	267.209	0.147	-0.256
-632.551	204.888	0.115	-0.178
-631.536	-92.082	-0.162	-0.046
-630.522	432.687	-0.097	-0.208
-629.507	111.410	0.091	-0.109
-628.492	-200.000	-0.028	0.190
-627.478	-200.000	0.001	-0.168
-626.463	-200.000	0.011	-0.105
-625.449	43.279	0.127	-0.115
-624.434	-200.000	-0.013	0.236
-623.419	-150.298	-0.249	0.019
-622.405	-106.270	-0.225	0.050
-621.390	-135.041	-0.132	-0.016
-620.376	138.028	0.332	-0.433
-619.361	-79.315	-0.444	0.149
-618.346	7.219	-0.173	0.128
-617.332	800.000	-0.079	-0.319
-616.317	264.547	0.046	-0.079
-615.303	-123.100	0.022	0.004
-614.288	86.177	0.079	-0.087
-613.273	-0.363	0.273	-0.193
-612.259	-200.000	-0.019	-0.278
-611.244	149.336	0.040	0.053
-610.230	3.394	-0.589	0.426
-609.215	-200.000	-0.007	-0.040
-608.201	-79.629	0.189	-0.063
-607.186	-177.826	-0.081	-0.002
-606.171	-82.019	-0.195	-0.063
-605.157	-38.686	-0.387	-0.203
-604.142	110.261	0.136	0.162
-603.128	-19.792	-0.180	-0.111
-602.113	800.000	-0.038	0.106
-601.098	-133.820	-0.298	0.037
-600.084	425.694	-0.271	0.581
-599.069	33.803	-0.211	0.183
-598.055	-54.913	0.270	0.121
-597.040	634.374	0.112	-0.283
-596.025	244.006	-0.205	-0.342
-595.011	120.943	-0.187	0.231
-593.996	105.955	0.055	0.065
-592.982	-2.798	-0.251	-0.174
-591.967	-153.130	0.106	0.007
-590.952	-19.849	0.168	0.103
-589.938	800.000	0.148	0.594
-588.923	25.976	0.231	-0.191
-587.909	-87.312	-0.164	-0.049
-586.894	-200.000	-0.242	-0.000
-585.879	55.898	0.180	0.173
-584.865	-200.000	0.028	0.161
-583.850	399.436	0.163	-0.339
-582.836	240.302	0.088	-0.145
-581.821	-132.961	-0.201	0.025
-580.806	-77.571	-0.221	0.076
-579.792	180.876	-0.080	0.117
-578.777	-200.000	0.012	-0.107
-577.763	47.495	0.159	0.147
-576.748	53.488	0.190	-0.181
-575.733	-82.447	0.309	-0.100
-574.719	-200.000	-0.020	0.179
-573.704	-200.000	0.017	0.138
-572.690	-135.562	0.079	-0.009
-571.675	-200.000	0.002	0.266
-570.661	88.478	-0.028	0.031
-569.646	-200.000	-0.006	-0.056
-568.631	213.910	-0.065	-0.102
-567.617	-194.501	-0.193	-0.002
-566.602	-37.993	-0.178	-0.094
-565.588	674.909	-0.048	0.123
-564.573	-104.452	0.353	0.081
-563.558	145.094	0.094	-0.124
-562.544	800.000	0.069	0.288
-561.529	47.225	-0.147	-0.136
-560.515	800.000	-0.014	-0.049
-559.500	37.815	-0.192	-0.169
-558.485	-200.000	-0.006	-0.087
-557.471	-39.064	-0.199	0.104
-556.456	361.771	0.202	0.402
-555.442	250.327	-0.136	0.229
-554.427	198.775	-0.198	-0.300
-553.412	138.437	0.038	0.049
-552.398	68.753	0.187	-0.190
-551.383	-143.074	-0.016	-0.002
-550.369	-28.225	0.171	-0.098
-549.354	-56.582	0.328	-0.144
-548.339	800.000	0.074	0.307
-547.325	97.350	-0.152	0.173
-546.310	-156.511	0.209	0.013
-545.296	480.181	-0.030	-0.068
-544.281	-200.000	-0.012	-0.060
-543.266	19.793	-0.097	0.077
-542.252	64.135	-0.192	-0.192
-541.237	116.673	-0.175	0.213
-540.223	363.510	-0.197	0.393
-539.208	-175.796	0.063	-0.002
-538.193	-96.578	-0.322	-0.084
-537.179	-99.457	-0.148	-0.037
-536.164	-45.788	0.175	-0.086
-535.150	44.129	-0.160	0.146
-534.135	-200.000	-0.036	0.240
-533.121	131.514	-0.194	0.247
-532.106	-78.417	-0.242	0.082
-531.091	-200.000	-0.010	0.160
-530.077	43.346	-0.087	0.078
-529.062	161.213	-0.027	0.037
-528.048	-61.282	0.117	0.049
-527.033	283.962	0.159	-0.283
-526.018	-64.060	-0.290	0.117
-525.004	-100.344	0.421	0.103
-523.989	120.225	-0.123	0.152
-522.975	576.222	0.098	0.236
-521.960	-178.898	-0.271	-0.006
-520.945	-77.257	-0.113	0.039
-519.931	-21.412	0.137	0.083
-518.916	336.461	-0.076	0.147
-517.902	-200.000	0.051	-0.332
-516.887	45.314	-0.276	-0.252
-515.872	-2.337	-0.333	-0.231
-514.858	-113.912	-0.322	0.062
-513.843	-128.512	-0.228	-0.032
-512.829	-35.549	0.129	-0.069
-511.814	800.000	-0.041	-0.134
-510.799	-78.105	0.209	-0.071
-509.785	800.000	0.050	0.178
-508.770	-81.937	0.296	0.096
-507.756	-200.000	-0.003	-0.150
-506.741	338.987	0.058	-0.112
-505.726	103.925	0.228	-0.266
-504.712	0.753	-0.031	0.022
-503.697	152.592	0.202	0.273
-502.683	-97.764	0.258	0.066
-501.668	20.588	-0.067	0.054
-500.653	-71.291	0.227	-0.084
-499.639	-125.547	0.129	0.019
-498.624	-105.190	-0.248	-0.056
-497.610	-114.121	-0.108	-0.021
-496.595	-200.000	0.008	0.091
-495.581	800.000	-0.103	-0.381
-494.566	-53.951	-0.309	0.139
-493.551	-49.184	0.160	0.076
-492.537	-200.000	-0.020	-0.244
-491.522	-75.493	0.281	0.099
-490.508	-48.061	0.335	-0.160
-489.493	62.180	0.186	0.183
-488.478	-30.701	0.294	-0.165
-487.464	143.216	-0.213	0.281
-486.449	335.016	-0.074	0.142
-485.435	-23.726	0.460	-0.273
-484.420	200.386	0.134	0.204
-483.405	-91.376	-0.227	-0.064
-482.391	290.266	-0.023	0.042
-481.376	83.934	0.157	0.170
-480.362	744.831	0.020	0.053
-479.347	-200.000	-0.096	0.421
-478.332	-69.071	0.134	-0.051
-477.318	520.269	-0.029	-0.066
-476.303	596.311	0.091	0.223
-475.289	-200.000	-0.047	0.257
-474.274	800.000	0.034	-0.093
-473.259	145.968	0.054	-0.071
-472.245	56.850	0.097	-0.094
-471.230	-92.715	-0.181	0.050
-470.216	768.183	0.080	-0.215
-469.201	665.902	-0.057	-0.146
-468.186	800.000	0.059	-0.212
-467.172	-200.000	-0.001	-0.103
-466.157	-124.969	-0.146	0.022
-465.143	-40.145	0.113	-0.058
-464.128	800.000	-0.066	0.262
-463.113	-134.487	0.420	-0.051
-462.099	433.682	-0.145	0.311
-461.084	-86.000	-0.364	0.111
-460.070	174.864	0.128	0.183
-459.055	-200.000	-0.000	0.026
-458.040	-14.906	-0.041	0.026
-457.026	43.384	-0.260	-0.234
-456.011	-55.122	-0.052	0.023
-454.997	-68.630	-0.188	-0.072
-453.982	800.000	0.027	0.113
-452.968	800.000	0.031	-0.104
-451.953	9.775	-0.203	-0.152
-450.938	-90.190	0.066	0.019
-449.924	-44.281	-0.146	0.072
-448.909	367.487	-0.074	0.148
-447.895	800.000	-0.048	-0.206
-446.880	739.625	0.024	0.063
-445.865	-137.205	0.060	-0.007
-444.851	328.613	-0.122	0.231
-443.836	-87.990	0.112	-0.033
-442.822	-67.060	0.275	-0.107
-441.807	-190.325	0.161	0.002
-440.792	-53.995	-0.147	-0.066
-439.778	-57.628	0.313	0.135
-438.763	500.120	-0.212	0.482
-437.749	355.292	-0.079	-0.156
-436.734	-166.756	0.265	-0.011
-435.719	800.000	-0.028	-0.081
-434.705	-200.000	-0.005	0.076
-433.690	763.609	-0.039	-0.105
-432.676	-200.000	0.058	-0.393
-431.661	521.322	0.086	-0.199
-430.646	-200.000	-0.009	-0.040
-429.632	800.000	0.067	-0.232
-428.617	82.326	-0.251	-0.269
-427.603	532.597	-0.045	0.104
-426.588	731.649	-0.170	0.449
-425.573	800.000	-0.161	0.542
-424.559	335.397	-0.105	0.201
-423.544	9.204	0.033	-0.025
-422.530	338.543	0.157	-0.302
-421.515	234.597	0.126	-0.204
-420.500	800.000	-0.023	-0.063
-419.486	800.000	-0.040	0.171
-418.471	637.563	0.093	-0.234
-417.457	-90.172	0.371	0.106
-416.442	-12.196	0.068	0.044
-415.428	800.000	-0.094	-0.317
-414.413	-14.017	0.161	-0.102
-413.398	350.666	0.048	-0.094
-412.384	259.651	0.141	0.240
-411.369	-25.397	-0.185	-0.108
-410.355	307.971	0.123	0.226
-409.340	-95.274	0.354	-0.094
-408.325	271.575	0.079	0.137
-407.311	-200.000	-0.046	0.419
-406.296	-63.708	-0.130	-0.052
-405.282	-200.000	0.035	-0.206
-404.267	-46.441	-0.206	0.100
-403.252	98.974	-0.193	0.220
-402.238	-151.336	-0.165	-0.012
-401.223	583.469	-0.149	-0.361
-400.209	33.829	-0.300	-0.257
-399.194	38.457	-0.147	-0.129
-398.179	233.604	-0.194	-0.315
-397.165	-168.728	-0.136	-0.005
-396.150	800.000	0.028	-0.106
-395.136	-41.393	-0.180	0.091
-394.121	153.156	-0.081	-0.109
-393.106	-200.000	-0.000	0.341
-392.092	199.892	-0.100	-0.151
-391.077	-38.974	-0.151	-0.078
-390.063	153.213	0.188	-0.254
-389.048	-200.000	0.032	-0.235
-388.033	459.196	-0.168	-0.369
-387.019	-52.518	-0.103	-0.047
-386.004	800.000	-0.036	0.107
-384.990	-200.000	-0.034	-0.433
-383.975	30.739	-0.322	-0.272
-382.960	-41.946	-0.228	-0.115
-381.946	668.598	-0.137	0.349
-380.931	-33.625	-0.337	-0.183
-379.917	-200.000	0.003	-0.314
-378.902	-71.044	0.224	0.083
-377.888	800.000	0.002	0.005
-376.873	-21.529	0.379	-0.228
-375.858	-88.408	-0.069	-0.020
-374.844	-54.758	0.413	-0.183
-373.829	283.490	0.021	0.038
-372.815	-200.000	-0.000	0.319
-371.800	134.880	-0.150	0.192
-370.785	800.000	-0.092	0.257
-369.771	-200.000	-0.025	0.328
-368.756	257.563	-0.055	0.092
-367.742	-1.868	0.174	0.120
-366.727	-200.000	0.033	-0.349
-365.712	-200.000	0.003	-0.284
-364.698	-45.013	0.288	-0.141
-363.683	88.282	0.233	-0.254
-362.669	800.000	0.085	0.346
-361.654	126.100	-0.152	-0.189
-360.639	22.341	-0.155	-0.124
-359.625	-200.000	-0.045	0.229
-358.610	-44.241	-0.055	0.027
-357.596	-200.000	-0.022	0.109
-356.581	-36.097	-0.222	-0.118
-355.566	482.182	0.125	-0.280
-354.552	-200.000	0.013	0.073
-353.537	-22.741	-0.109	0.065
-352.523	247.176	-0.119	0.197
-351.508	110.950	0.190	0.225
-350.493	800.000	0.097	0.397
-349.479	-92.824	0.159	0.044
-348.464	2.035	-0.179	-0.127
-347.450	-200.000	-0.006	0.047
-346.435	-35.908	0.582	-0.310
-345.420	216.389	-0.160	0.250
-344.406	-90.277	0.348	-0.099
-343.391	-40.148	-0.100	0.051
-342.377	447.624	0.095	0.205
-341.362	-98.481	0.397	-0.100
-340.348	43.021	-0.142	0.127
-339.333	-111.469	0.369	-0.074
-338.318	24.573	-0.178	0.145
-337.304	-157.828	0.232	0.013
-336.289	-171.224	0.044	0.001
-335.275	714.413	-0.077	0.200
-334.260	-90.939	-0.232	0.066
-333.245	97.302	0.035	-0.040
-332.231	-66.745	0.281	0.109
-331.216	800.000	0.047	-0.162
-330.202	800.000	0.081	0.321
-329.187	308.986	-0.125	0.229
-328.172	800.000	0.079	-0.265
-327.158	81.355	-0.199	-0.211
-326.143	-111.856	0.220	-0.044
-325.129	131.683	0.084	-0.107
-324.114	425.975	0.094	0.199
-323.099	83.099	0.140	-0.149
-322.085	-90.618	0.208	0.059
-321.070	-57.953	-0.211	-0.090
-320.056	-200.000	-0.022	0.328
-319.041	-152.226	0.104	0.007
-318.026	-120.663	0.302	0.050
-317.012	-200.000	0.043	-0.255
-315.997	-151.891	-0.200	0.014
-314.983	-77.328	0.214	-0.073
-313.968	-23.903	-0.045	0.026
-312.953	-112.374	0.142	0.028
-311.939	715.329	-0.020	0.051
-310.924	77.344	-0.271	0.283
-309.910	800.000	0.038	-0.126
-308.895	800.000	-0.040	0.157
-307.880	-119.123	0.307	-0.053
-306.866	-59.502	0.242	0.102
-305.851	349.135	0.032	-0.061
-304.837	35.354	0.242	0.209
-303.822	-48.156	-0.186	0.088
-302.807	0.274	0.229	0.161
-301.793	242.275	-0.099	-0.163
-300.778	-29.547	0.095	-0.053
-299.764	46.932	-0.094	-0.085
-298.749	-200.000	-0.019	0.400
-297.735	-200.000	-0.077	0.335
-296.720	-200.000	-0.017	-0.138
-295.705	-190.740	0.138	0.001
-294.691	62.715	0.166	0.163
-293.676	-95.547	-0.064	-0.017
-292.662	-20.508	0.039	0.024
-291.647	800.000	0.018	-0.071
-290.632	77.759	0.128	-0.134
-289.618	-25.687	-0.213	-0.124
-288.603	-200.000	-0.003	-0.155
-287.589	-129.633	0.235	-0.032
-286.574	12.751	-0.063	-0.048
-285.559	800.000	0.061	-0.234
-284.545	133.077	0.137	-0.173
-283.530	-200.000	0.019	0.096
-282.516	92.245	-0.092	0.102
-281.501	-108.839	-0.080	0.017
-280.486	-142.421	0.362	-0.035
-279.472	-200.000	-0.037	-0.343
-278.457	-96.207	0.194	0.050
-277.443	533.017	-0.038	-0.089
-276.428	223.220	-0.107	0.169
-275.413	166.736	0.126	0.176
-274.399	258.647	0.148	0.250
-273.384	-135.015	-0.178	-0.021
-272.370	800.000	0.061	-0.212
-271.355	14.488	0.041	-0.031
-270.340	-200.000	-0.001	0.378
-269.326	-32.038	0.185	-0.102
-268.311	800.000	-0.086	0.252
-267.297	-55.046	-0.450	-0.199
-266.282	-200.000	-0.024	0.193
-265.267	30.611	-0.045	0.037
-264.253	-200.000	0.017	0.103
-263.238	154.436	-0.043	0.057
-262.224	-185.564	-0.140	0.002
-261.209	261.682	-0.146	-0.248
-260.195	-200.000	0.043	0.258
-259.180	-191.106	-0.340	-0.003
-258.165	118.390	0.125	-0.151
-257.151	-77.655	-0.095	-0.032
-256.136	-125.191	-0.215	0.032
-255.122	800.000	0.025	-0.088
-254.107	91.156	-0.087	-0.096
-253.092	622.246	-0.133	0.329
-252.078	-40.874	0.068	0.034
-251.063	-200.000	-0.037	-0.167
-250.049	793.021	-0.100	0.268
-249.034	46.078	0.086	0.078
-248.019	9.304	0.176	0.130
-247.005	-24.383	0.213	0.125
-245.990	50.670	-0.174	0.162
-244.976	-200.000	-0.007	-0.081
-243.961	-200.000	0.005	-0.044
-242.946	-2.302	0.197	-0.135
-241.932	408.888	-0.230	-0.477
-240.917	-42.349	0.242	-0.121
-239.903	194.089	-0.093	0.139
-238.888	367.729	-0.259	-0.513
-237.873	99.412	0.249	-0.283
-236.859	256.450	-0.212	-0.356
-235.844	127.949	0.238	0.296
-234.830	-200.000	0.032	0.275
-233.815	436.479	-0.017	-0.036
-232.800	-54.341	0.357	-0.158
-231.786	-11.831	-0.187	0.120
-230.771	-92.444	0.245	-0.067
-229.757	205.353	0.253	-0.384
-228.742	-67.892	0.124	0.048
-227.727	333.618	0.163	-0.309
-226.713	-200.000	0.025	0.150
-225.698	-200.000	-0.007	-0.189
-224.684	-89.729	-0.132	-0.038
-223.669	-200.000	-0.048	-0.349
-222.655	-78.045	-0.137	-0.046
-221.640	-200.000	-0.014	-0.103
-220.625	800.000	0.024	0.075
-219.611	-77.725	-0.140	0.047
-218.596	125.475	0.248	-0.306
-217.582	470.434	-0.067	-0.147
-216.567	257.787	-0.067	0.113
-215.552	-67.725	-0.148	-0.057
-214.538	-195.099	0.174	0.001
-213.523	46.281	0.116	-0.105
-212.509	72.682	-0.123	0.125
-211.494	419.090	-0.030	0.064
-210.479	-35.366	0.065	-0.034
-209.465	683.229	-0.036	-0.091
-208.450	-200.000	0.003	-0.236
-207.436	800.000	-0.064	-0.200
-206.421	5.923	0.130	0.094
-205.406	-99.534	0.178	-0.044
-204.392	76.347	-0.071	0.074
-203.377	-83.074	0.082	-0.026
-202.363	215.792	-0.130	0.202
-201.348	-194.735	0.136	0.001
-200.333	-200.000	0.026	-0.321
-199.319	-200.000	0.008	0.056
-198.304	800.000	0.017	-0.061
-197.290	-15.261	-0.167	0.104
-196.275	159.407	-0.148	-0.202
-195.260	484.571	-0.107	0.237
-194.246	-138.200	-0.252	-0.027
-193.231	-200.000	0.074	0.401
-192.217	18.541	-0.374	-0.292
-191.202	-108.125	0.062	0.013
-190.187	38.406	0.230	-0.200
-189.173	800.000	0.028	-0.106
-188.158	363.176	0.074	-0.146
-187.144	40.869	-0.048	0.043
-186.129	-17.389	-0.055	0.034
-185.114	88.892	-0.121	0.132
-184.100	739.006	-0.078	0.205
-183.085	-179.074	0.182	-0.004
-182.071	301.770	-0.064	0.115
-181.056	800.000	-0.072	0.203
-180.042	-38.323	-0.064	0.033
-179.027	188.610	0.180	0.264
-178.012	-91.764	-0.162	0.045
-176.998	750.385	0.035	0.093
-175.983	-200.000	-0.002	-0.187
-174.969	-63.705	-0.062	-0.025
-173.954	-78.172	0.288	-0.097
-172.939	10.000	0.264	-0.196
-171.925	45.357	0.158	0.142
-170.910	286.971	0.114	0.202
-169.896	-200.000	-0.038	0.187
-168.881	-171.910	-0.144	-0.005
-167.866	-66.209	0.095	-0.037
-166.852	-165.494	0.181	0.008
-165.837	-88.475	-0.350	0.102
-164.823	-200.000	0.027	0.174
-163.808	605.323	0.035	-0.085
-162.793	-200.000	0.006	-0.147
-161.779	4.087	-0.039	-0.028
-160.764	-200.000	0.014	0.120
-159.750	800.000	-0.134	0.365
-158.735	556.730	0.119	0.281
-157.720	-200.000	-0.004	-0.062
-156.706	-76.101	-0.115	0.040
-155.691	-15.838	0.086	0.054
-154.677	-123.558	-0.233	0.036
-153.662	-116.171	0.359	-0.065
-152.647	507.947	-0.045	0.101
-151.633	82.114	0.121	-0.128
-150.618	800.000	0.027	0.087
-149.604	-200.000	-0.019	-0.251
-148.589	785.750	-0.029	0.076
-147.574	-60.195	0.283	-0.118
-146.560	-200.000	-0.050	-0.292
-145.545	-117.774	-0.532	0.093
-144.531	7.180	-0.217	-0.158
-143.516	-93.406	0.458	0.124
-142.502	-86.413	-0.280	-0.084
-141.487	-200.000	0.021	-0.099
-140.472	-200.000	-0.010	-0.054
-139.458	332.417	0.137	-0.258
-138.443	800.000	-0.042	-0.154
-137.429	-127.828	0.183	0.026
-136.414	25.911	-0.225	0.183
-135.399	-167.949	0.045	0.002
-134.385	-34.957	0.328	0.174
-133.370	800.000	0.056	-0.188
-132.356	-75.895	-0.068	0.024
-131.341	-88.201	-0.067	0.020
-130.326	-75.594	-0.095	-0.033
-129.312	800.000	-0.019	-0.055
-128.297	-104.969	0.257	-0.058
-127.283	-86.328	-0.221	-0.066
-126.268	800.000	-0.124	0.504
-125.253	0.723	-0.486	-0.339
-124.239	404.059	0.111	0.228
-123.224	-97.313	0.326	-0.083
-122.210	800.000	0.106	0.307
-121.195	251.501	-0.129	-0.214
