DTS Sentinel unit serial number:	SN413079Multiplexer serial number:	ORYXHardware model number:	OX4-SRSoftware version number:	ORYX F/W v4.00 Oryx Data Collector v3.7.2.0data status	okinstallation	princeton_trtdifferential loss correction	single-endedforward channel	channel 2reverse channel	N/Adate	2019/09/12time	02:01:10forward acquisition time	60.00reverse acquisition time	0.00gamma	496.2192k internal	0.2326k external	0.2326temperature offset calibration	1.0090default loss term (dB/km)	0.3790temperature slope calibration	1.0000multiplexer offset coefficient	1.0000multiplexer slope coefficient	1.0000fibre end	0.00T internal ref (°C)	32.75T ext. ref 1 (°C)	2.08T ext. ref 2 (°C)	27.15length (m)	temperature (°C)	Stokes	anti-Stokes-747.200	-16.983	-0.376	0.239
-746.185	93.650	-0.298	0.340
-745.171	-48.750	-0.274	0.133
-744.156	35.423	0.154	0.136
-743.142	53.002	-0.199	0.192
-742.127	444.288	-0.048	0.106
-741.112	-83.929	-0.107	0.034
-740.098	-200.000	-0.000	0.026
-739.083	-158.320	-0.267	-0.016
-738.069	800.000	0.024	0.074
-737.054	-92.420	-0.249	0.071
-736.039	-200.000	-0.047	0.342
-735.025	139.482	0.406	0.539
-734.010	-200.000	0.007	-0.108
-732.996	-45.405	0.241	-0.121
-731.981	-200.000	0.051	-0.375
-730.966	386.317	0.125	-0.261
-729.952	-96.225	-0.459	-0.123
-728.937	35.466	-0.224	-0.198
-727.923	154.228	0.155	-0.215
-726.908	8.991	-0.203	-0.154
-725.894	-33.315	-0.024	0.014
-724.879	-71.157	-0.216	-0.082
-723.864	140.903	-0.199	-0.265
-722.850	-45.126	-0.120	0.060
-721.835	73.314	-0.128	-0.135
-720.821	800.000	0.043	-0.136
-719.806	-200.000	-0.010	-0.379
-718.791	800.000	-0.115	-0.353
-717.777	134.406	0.134	-0.175
-716.762	-66.563	-0.246	0.098
-715.748	-105.005	0.190	0.044
-714.733	32.902	0.125	-0.109
-713.718	-71.207	-0.283	0.107
-712.704	-132.438	-0.341	-0.044
-711.689	-164.172	0.333	-0.015
-710.675	63.979	0.159	0.161
-709.660	125.718	-0.204	-0.259
-708.645	-57.685	0.260	-0.115
-707.631	-200.000	0.018	-0.125
-706.616	-200.000	0.013	0.573
-705.602	-35.511	0.069	0.038
-704.587	139.119	-0.250	-0.331
-703.572	800.000	-0.066	0.273
-702.558	-88.681	-0.107	0.032
-701.543	-112.747	-0.221	-0.044
-700.529	-61.253	-0.086	-0.036
-699.514	109.407	-0.166	0.200
-698.499	-101.944	0.087	0.021
-697.485	-166.243	0.490	0.021
-696.470	-172.870	-0.316	-0.010
-695.456	-179.649	0.269	0.006
-694.441	800.000	-0.054	-0.157
-693.426	800.000	0.027	-0.096
-692.412	-78.093	0.190	0.066
-691.397	130.125	0.118	0.152
-690.383	-200.000	-0.039	-0.277
-689.368	800.000	0.028	0.109
-688.354	232.043	0.120	-0.197
-687.339	-60.000	0.080	-0.035
-686.324	-200.000	0.096	0.473
-685.310	-69.456	0.104	0.040
-684.295	776.699	0.065	0.178
-683.281	-200.000	-0.001	-0.203
-682.266	8.882	-0.246	0.187
-681.251	-200.000	-0.014	0.182
-680.237	800.000	0.046	0.136
-679.222	-49.770	0.078	-0.037
-678.208	443.312	-0.061	-0.136
-677.193	-141.865	0.250	-0.025
-676.178	-200.000	0.006	0.086
-675.164	550.016	0.073	-0.176
-674.149	71.557	0.110	-0.115
-673.135	484.864	0.081	0.186
-672.120	13.436	0.193	-0.151
-671.105	595.272	0.116	-0.289
-670.091	800.000	0.101	-0.387
-669.076	23.695	-0.164	0.136
-668.062	-200.000	-0.008	-0.104
-667.047	797.893	-0.128	0.355
-666.032	-69.641	-0.323	-0.124
-665.018	-15.623	0.099	-0.064
-664.003	-200.000	0.030	-0.267
-662.989	-155.839	-0.228	0.015
-661.974	47.026	-0.191	0.179
-660.959	30.360	-0.023	0.020
-659.945	-2.147	-0.285	0.201
-658.930	-39.242	-0.128	-0.068
-657.916	-139.637	0.320	0.034
-656.901	800.000	0.088	0.288
-655.886	142.241	0.138	0.184
-654.872	-64.564	-0.251	-0.102
-653.857	-35.813	0.162	-0.088
-652.843	-149.166	0.397	-0.032
-651.828	312.478	0.108	0.205
-650.814	58.112	0.166	0.163
-649.799	800.000	0.030	0.131
-648.784	-200.000	0.028	-0.183
-647.770	-51.393	0.106	-0.050
-646.755	-125.090	-0.077	0.012
-645.741	-200.000	-0.051	-0.267
-644.726	-200.000	0.017	-0.097
-643.711	-28.599	-0.185	0.107
-642.697	-200.000	-0.004	0.113
-641.682	-126.547	0.243	-0.036
-640.668	57.067	-0.349	-0.342
-639.653	-88.336	0.319	-0.096
-638.638	85.766	0.395	-0.436
-637.624	-137.860	0.238	0.027
-636.609	313.644	0.062	-0.117
-635.595	392.287	-0.109	0.228
-634.580	423.640	-0.111	0.240
-633.565	-200.000	0.045	-0.229
-632.551	800.000	0.081	-0.291
-631.536	800.000	0.044	-0.160
-630.522	183.320	0.069	0.102
-629.507	198.641	-0.122	-0.188
-628.492	20.381	0.141	-0.115
-627.478	-200.000	-0.023	-0.110
-626.463	100.919	-0.201	-0.235
-625.449	116.849	0.147	-0.181
-624.434	-200.000	0.017	-0.280
-623.419	800.000	-0.103	0.293
-622.405	62.755	-0.191	0.192
-621.390	110.864	-0.044	0.053
-620.376	176.116	-0.221	-0.322
-619.361	-39.792	-0.358	-0.188
-618.346	381.141	-0.136	0.279
-617.332	-26.868	0.277	0.163
-616.317	800.000	-0.039	0.108
-615.303	-149.841	0.260	-0.020
-614.288	249.871	0.109	0.186
-613.273	31.467	-0.011	0.010
-612.259	-200.000	-0.074	-0.471
-611.244	800.000	0.066	-0.273
-610.230	-200.000	0.000	-0.093
-609.215	-131.250	-0.384	0.051
-608.201	342.718	-0.229	-0.450
-607.186	-43.720	-0.144	0.073
-606.171	140.788	-0.039	-0.051
-605.157	-62.984	0.281	-0.117
-604.142	-200.000	0.002	-0.183
-603.128	340.293	-0.116	0.227
-602.113	48.225	-0.292	-0.274
-601.098	42.537	0.091	-0.083
-600.084	-140.455	-0.441	-0.046
-599.069	405.788	-0.183	-0.387
-598.055	713.384	-0.088	-0.234
-597.040	219.514	-0.062	-0.100
-596.025	303.184	0.055	-0.103
-595.011	-17.921	0.317	0.200
-593.996	-105.199	-0.324	0.074
-592.982	265.825	-0.271	-0.474
-591.967	-118.012	0.294	0.053
-590.952	132.067	-0.240	0.309
-589.938	95.503	-0.049	-0.056
-588.923	-32.807	0.225	-0.125
-587.909	-64.507	-0.113	0.046
-586.894	157.890	-0.068	0.095
-585.879	-200.000	0.009	0.179
-584.865	800.000	-0.022	-0.064
-583.850	-91.137	-0.208	0.060
-582.836	-49.773	-0.023	-0.011
-581.821	-77.352	-0.147	-0.051
-580.806	-66.580	-0.267	-0.106
-579.792	-200.000	-0.048	-0.375
-578.777	800.000	0.080	-0.229
-577.763	40.106	0.099	-0.089
-576.748	-70.847	0.282	0.106
-575.733	174.428	-0.103	-0.150
-574.719	800.000	0.047	-0.147
-573.704	800.000	-0.032	-0.138
-572.690	-136.362	-0.152	-0.018
-571.675	10.501	-0.063	0.048
-570.661	498.033	-0.056	0.130
-569.646	-16.407	0.322	-0.205
-568.631	-107.368	-0.495	-0.109
-567.617	-8.091	0.382	-0.258
-566.602	68.258	0.284	0.291
-565.588	-142.524	-0.140	0.014
-564.573	-99.521	-0.178	-0.045
-563.558	601.912	-0.091	0.226
-562.544	-200.000	-0.004	0.059
-561.529	-109.407	0.182	0.039
-560.515	-3.902	-0.116	0.081
-559.500	659.031	0.049	-0.126
-558.485	800.000	-0.070	-0.218
-557.471	38.905	0.137	-0.123
-556.456	-20.665	0.098	-0.060
-555.442	59.181	-0.027	0.027
-554.427	800.000	0.034	0.124
-553.412	-77.924	-0.347	-0.120
-552.398	-132.443	-0.180	-0.023
-551.383	-75.168	0.208	0.075
-550.369	264.721	-0.043	-0.074
-549.354	489.410	0.067	0.154
-548.339	533.397	-0.169	0.402
-547.325	-39.212	-0.228	-0.120
-546.310	198.703	-0.100	0.153
-545.296	81.752	0.122	0.133
-544.281	-11.326	0.095	-0.062
-543.266	-200.000	-0.008	0.115
-542.252	-134.761	0.155	0.019
-541.237	800.000	0.131	-0.521
-540.223	-10.662	-0.267	-0.177
-539.208	99.442	-0.073	-0.084
-538.193	-98.554	-0.257	-0.066
-537.179	69.748	0.286	-0.295
-536.164	-94.526	0.374	-0.102
-535.150	-200.000	0.035	-0.157
-534.135	-71.374	-0.059	-0.022
-533.121	-200.000	-0.018	0.154
-532.106	-155.962	0.310	-0.020
-531.091	-200.000	-0.019	-0.205
-530.077	-200.000	-0.011	-0.234
-529.062	48.536	-0.158	-0.148
-528.048	-56.827	-0.272	0.120
-527.033	-98.971	-0.149	0.038
-526.018	-90.823	0.187	-0.054
-525.004	635.270	-0.092	0.233
-523.989	800.000	0.085	0.263
-522.975	-80.412	0.204	0.068
-521.960	58.289	-0.087	0.085
-520.945	-68.669	0.246	-0.095
-519.931	800.000	0.066	-0.266
-518.916	-98.558	-0.165	-0.042
-517.902	-63.562	0.272	0.112
-516.887	-151.345	-0.088	-0.007
-515.872	-10.006	-0.284	0.189
-514.858	-200.000	-0.046	0.279
-513.843	-142.080	0.393	-0.039
-512.829	-55.717	-0.262	0.117
-511.814	800.000	-0.034	-0.127
-510.799	225.030	0.129	-0.208
-509.785	-200.000	0.016	-0.137
-508.770	800.000	-0.081	0.224
-507.756	395.824	0.110	0.230
-506.741	-14.672	0.328	-0.211
-505.726	-64.873	-0.181	0.073
-504.712	115.636	0.296	-0.361
-503.697	-200.000	0.080	0.485
-502.683	-83.820	0.309	0.098
-501.668	175.172	0.106	0.154
-500.653	-131.665	-0.148	0.019
-499.639	800.000	-0.037	-0.129
-498.624	-200.000	-0.010	-0.059
-497.610	353.880	-0.175	-0.346
-496.595	72.309	0.278	-0.289
-495.581	131.917	0.042	-0.054
-494.566	87.058	0.088	0.098
-493.551	37.372	-0.045	-0.040
-492.537	-200.000	-0.007	0.533
-491.522	188.060	0.053	-0.080
-490.508	-35.132	0.181	0.098
-489.493	357.828	0.152	-0.304
-488.478	-128.243	-0.046	-0.007
-487.464	-200.000	0.018	0.151
-486.449	683.680	-0.051	0.134
-485.435	-26.577	-0.256	-0.150
-484.420	-122.817	-0.189	0.030
-483.405	-176.577	-0.348	0.009
-482.391	800.000	-0.053	0.210
-481.376	204.804	-0.068	-0.106
-480.362	114.461	0.093	0.113
-479.347	86.438	-0.300	0.330
-478.332	-116.685	-0.061	0.011
-477.318	-54.123	-0.390	-0.177
-476.303	313.779	-0.092	0.173
-475.289	11.334	-0.265	0.202
-474.274	34.193	-0.164	0.143
-473.259	-200.000	0.031	-0.339
-472.245	-200.000	-0.002	0.200
-471.230	-200.000	0.016	-0.180
-470.216	119.843	-0.146	-0.181
-469.201	594.651	0.106	-0.262
-468.186	-85.694	-0.076	0.024
-467.172	800.000	0.027	-0.079
-466.157	13.102	-0.340	0.263
-465.143	-96.959	0.199	0.052
-464.128	800.000	-0.091	-0.293
-463.113	800.000	0.006	-0.019
-462.099	-200.000	-0.027	0.212
-461.084	-90.119	-0.196	0.057
-460.070	-114.501	0.252	-0.048
-459.055	127.757	0.147	0.187
-458.040	163.466	0.179	0.250
-457.026	323.286	-0.094	-0.178
-456.011	4.179	-0.254	0.185
-454.997	-0.067	-0.349	-0.248
-453.982	589.875	0.054	0.132
-452.968	-200.000	0.039	0.186
-451.953	800.000	0.071	-0.260
-450.938	-141.815	-0.111	-0.011
-449.924	212.868	-0.046	-0.072
-448.909	-17.381	-0.260	0.163
-447.895	-126.199	0.191	0.029
-446.880	-71.151	0.190	0.071
-445.865	242.971	0.136	-0.227
-444.851	24.032	0.143	-0.118
-443.836	-63.642	-0.081	0.033
-442.822	-41.130	0.320	-0.165
-441.807	-200.000	0.100	0.450
-440.792	-200.000	-0.005	0.093
-439.778	25.766	-0.078	-0.065
-438.763	8.781	0.196	0.147
-437.749	99.897	0.080	-0.092
-436.734	-200.000	-0.050	0.239
-435.719	-200.000	0.044	0.333
-434.705	-96.815	0.159	0.042
-433.690	5.394	0.105	0.078
-432.676	-16.854	-0.083	-0.052
-431.661	18.218	-0.167	0.133
-430.646	59.640	-0.117	0.115
-429.632	-200.000	-0.003	-0.110
-428.617	-200.000	0.018	0.267
-427.603	284.525	0.133	0.239
-426.588	106.130	-0.169	0.200
-425.573	10.099	-0.170	0.128
-424.559	14.295	0.102	0.079
-423.544	-200.000	-0.077	-0.354
-422.530	165.071	0.197	-0.277
-421.515	-48.943	0.188	0.090
-420.500	112.487	-0.273	-0.329
-419.486	381.806	0.091	0.186
-418.471	800.000	-0.042	-0.126
-417.457	126.471	-0.118	-0.149
-416.442	289.326	0.019	-0.034
-415.428	-150.565	0.324	-0.025
-414.413	5.733	-0.325	-0.239
-413.398	327.565	0.139	-0.265
-412.384	-74.474	0.298	-0.107
-411.369	9.479	-0.133	0.100
-410.355	108.705	0.146	0.174
-409.340	17.862	0.166	0.132
-408.325	21.398	0.148	0.120
-407.311	-200.000	0.010	-0.278
-406.296	-40.686	-0.564	-0.291
-405.282	257.318	-0.226	0.386
-404.267	-157.465	0.333	0.020
-403.252	-96.784	0.133	0.035
-402.238	-153.561	0.057	0.004
-401.223	-57.984	0.143	-0.062
-400.209	360.873	0.070	-0.139
-399.194	-200.000	0.005	0.244
-398.179	232.306	0.090	0.146
-397.165	-50.228	0.176	0.083
-396.150	447.253	-0.076	0.166
-395.136	-2.429	-0.212	0.148
-394.121	-74.832	0.226	0.081
-393.106	695.608	0.162	-0.423
-392.092	313.750	-0.135	-0.253
-391.077	-38.619	-0.176	-0.092
-390.063	81.133	0.164	0.176
-389.048	-132.904	0.232	0.029
-388.033	-27.008	-0.239	0.139
-387.019	-200.000	0.041	0.297
-386.004	1.324	0.294	-0.210
-384.990	-88.811	0.261	-0.077
-383.975	800.000	0.033	-0.093
-382.960	-146.128	0.143	0.013
-381.946	-200.000	-0.030	0.290
-380.931	69.563	-0.191	0.196
-379.917	-200.000	0.078	-0.376
-378.902	-46.033	0.072	0.035
-377.888	628.583	0.113	0.284
-376.873	131.829	-0.041	0.052
-375.858	49.138	0.159	-0.149
-374.844	-43.487	-0.121	-0.061
-373.829	21.376	-0.105	0.085
-372.815	107.031	-0.208	0.245
-371.800	-33.928	0.126	0.069
-370.785	-138.619	-0.084	-0.009
-369.771	553.281	0.076	0.183
-368.756	167.350	-0.147	0.208
-367.742	-39.276	-0.141	-0.074
-366.727	-71.992	0.206	-0.076
-365.712	-65.817	-0.104	0.041
-364.698	160.607	-0.130	-0.181
-363.683	76.763	-0.124	0.131
-362.669	-85.474	-0.121	0.037
-361.654	-200.000	0.057	-0.382
-360.639	21.970	-0.075	0.061
-359.625	-200.000	0.002	-0.278
-358.610	-79.920	-0.146	0.049
-357.596	-200.000	-0.033	-0.294
-356.581	-94.446	0.355	0.096
-355.566	109.809	0.095	0.113
-354.552	-161.362	0.356	-0.018
-353.537	367.809	0.065	-0.130
-352.523	-132.497	-0.221	-0.028
-351.508	-200.000	0.089	0.414
-350.493	-87.046	-0.474	-0.143
-349.479	-200.000	0.005	0.111
-348.464	215.546	0.074	-0.117
-347.450	431.592	-0.052	0.113
-346.435	800.000	0.090	0.273
-345.420	-70.566	0.315	0.119
-344.406	-56.194	-0.119	0.052
-343.391	-151.092	-0.150	0.011
-342.377	418.657	0.158	0.336
-341.362	-41.939	-0.149	-0.076
-340.348	-200.000	-0.035	0.224
-339.333	529.309	0.189	0.444
-338.318	114.358	-0.168	0.203
-337.304	-28.956	0.221	0.126
-336.289	3.662	-0.099	-0.072
-335.275	0.741	-0.149	0.106
-334.260	161.157	0.145	-0.201
-333.245	-130.807	-0.203	0.027
-332.231	-138.599	0.174	0.019
-331.216	800.000	0.117	0.444
-330.202	-115.000	-0.136	0.026
-329.187	-169.616	-0.376	0.014
-328.172	32.205	-0.174	0.149
-327.158	20.726	-0.146	-0.117
-326.143	-153.399	-0.352	0.024
-325.129	-200.000	-0.022	0.131
-324.114	-200.000	0.097	0.429
-323.099	-73.913	0.216	0.078
-322.085	109.981	-0.049	0.058
-321.070	800.000	-0.044	0.126
-320.056	6.198	0.167	-0.123
-319.041	800.000	0.037	0.146
-318.026	-0.481	0.171	0.120
-317.012	-200.000	0.003	0.070
-315.997	800.000	-0.119	0.343
-314.983	-60.784	0.075	-0.032
-313.968	343.499	-0.093	-0.180
-312.953	-23.733	0.251	0.149
-311.939	800.000	-0.111	0.345
-310.924	-200.000	0.031	-0.289
-309.910	-77.103	0.128	0.044
-308.895	-200.000	-0.013	-0.122
-307.880	-51.188	0.091	0.042
-306.866	-200.000	0.007	-0.381
-305.851	369.821	-0.087	-0.175
-304.837	-99.345	0.295	-0.074
-303.822	-43.993	0.156	0.078
-302.807	126.276	0.141	-0.177
-301.793	-125.890	0.189	-0.028
-300.778	-107.479	0.216	-0.047
-299.764	800.000	0.076	0.234
-298.749	-14.893	-0.052	0.033
-297.735	-67.260	0.153	0.060
-296.720	-76.926	0.263	0.091
-295.705	800.000	0.080	-0.241
-294.691	342.574	0.027	-0.052
-293.676	99.691	-0.052	0.059
-292.662	800.000	0.101	0.330
-291.647	158.453	-0.146	0.200
-290.632	-145.669	-0.134	0.012
-289.618	800.000	0.146	0.604
-288.603	-1.434	-0.316	-0.221
-287.589	355.103	0.020	0.039
-286.574	-77.448	-0.142	-0.049
-285.559	-200.000	0.002	-0.143
-284.545	800.000	0.055	-0.158
-283.530	205.523	0.110	-0.169
-282.516	-200.000	-0.014	-0.244
-281.501	-151.109	0.244	0.018
-280.486	124.424	-0.173	-0.216
-279.472	-77.566	0.263	0.090
-278.457	-200.000	-0.044	0.239
-277.443	-63.218	0.216	-0.088
-276.428	-127.419	0.182	0.026
-275.413	445.823	0.097	0.211
-274.399	20.384	0.277	-0.222
-273.384	-7.594	-0.105	-0.071
-272.370	185.281	-0.140	0.206
-271.355	-142.210	0.134	0.013
-270.340	-106.892	-0.258	0.057
-269.326	-81.488	-0.389	-0.127
-268.311	-200.000	0.006	0.031
-267.297	-200.000	0.046	-0.294
-266.282	394.669	-0.098	0.202
-265.267	-200.000	0.018	0.273
-264.253	-26.468	0.252	0.146
-263.238	800.000	0.038	0.157
-262.224	-78.306	-0.325	-0.110
-261.209	-137.398	0.298	-0.033
-260.195	-200.000	-0.013	0.201
-259.180	145.570	0.121	0.160
-258.165	584.361	0.082	0.200
-257.151	-139.167	0.071	-0.008
-256.136	65.787	-0.145	-0.146
-255.122	-14.437	-0.323	0.205
-254.107	-31.890	-0.198	-0.110
-253.092	274.226	0.086	0.150
-252.078	-35.181	0.025	0.014
-251.063	800.000	-0.125	0.393
-250.049	-89.923	0.256	0.074
-249.034	-8.818	-0.113	0.075
-248.019	-121.173	-0.125	-0.021
-247.005	29.912	0.157	-0.133
-245.990	800.000	0.092	0.289
-244.976	-200.000	0.028	0.192
-243.961	-70.238	-0.214	-0.080
-242.946	0.492	-0.117	-0.083
-241.932	-129.312	0.199	0.027
-240.917	143.467	-0.094	-0.124
-239.903	-144.046	-0.117	0.011
-238.888	-200.000	0.003	-0.209
-237.873	112.268	0.182	-0.218
-236.859	-158.427	-0.136	0.008
-235.844	800.000	0.070	-0.210
-234.830	520.616	-0.074	-0.172
-233.815	-45.035	0.093	-0.046
-232.800	800.000	0.034	-0.127
-231.786	21.370	0.145	-0.116
-230.771	-83.919	-0.200	0.063
-229.757	-94.153	0.091	0.025
-228.742	800.000	-0.046	-0.159
-227.727	-122.884	-0.083	-0.013
-226.713	-43.365	0.172	0.086
-225.698	-71.724	0.111	0.041
-224.684	125.519	-0.040	0.050
-223.669	-130.462	-0.050	0.007
-222.655	800.000	-0.070	-0.255
-221.640	99.887	-0.188	-0.215
-220.625	71.277	0.056	-0.058
-219.611	-127.637	-0.144	0.021
-218.596	-2.733	0.258	-0.178
-217.582	-86.162	0.342	0.104
-216.567	623.961	0.023	-0.058
-215.552	-71.736	0.570	-0.210
-214.538	-74.845	-0.232	0.082
-213.523	-33.833	-0.295	0.161
-212.509	-123.748	-0.115	0.018
-211.494	-128.106	-0.148	-0.021
-210.479	19.032	0.137	-0.108
-209.465	-29.237	0.052	-0.029
-208.450	-9.010	0.062	0.041
-207.436	-200.000	0.026	0.147
-206.421	-200.000	-0.003	0.218
-205.406	174.179	0.034	-0.049
-204.392	42.461	0.119	-0.107
-203.377	-200.000	-0.039	-0.210
-202.363	-133.461	0.035	-0.004
-201.348	-200.000	0.003	-0.150
-200.333	-3.445	-0.181	0.124
-199.319	-137.055	0.341	-0.039
-198.304	-119.283	0.157	0.027
-197.290	28.978	-0.191	0.160
-196.275	-200.000	-0.005	0.069
-195.260	58.344	-0.128	0.124
-194.246	213.171	-0.067	-0.105
-193.231	98.851	-0.253	0.289
-192.217	-200.000	0.011	-0.327
-191.202	168.738	-0.048	0.067
-190.187	289.756	-0.060	-0.107
-189.173	48.273	0.080	0.074
-188.158	-200.000	-0.005	-0.417
-187.144	-111.693	0.403	-0.081
-186.129	293.288	-0.081	-0.145
-185.114	-106.665	-0.209	-0.046
-184.100	279.240	0.168	0.295
-183.085	-129.088	-0.271	-0.037
-182.071	-86.682	-0.252	-0.076
-181.056	330.818	-0.162	0.309
-180.042	-14.928	-0.083	0.052
-179.027	-200.000	0.002	0.210
-178.012	-200.000	-0.008	0.166
-176.998	101.025	0.015	-0.018
-175.983	-40.937	0.164	0.084
-174.969	59.067	0.207	0.201
-173.954	428.416	-0.039	-0.084
-172.939	-47.288	-0.077	-0.037
-171.925	-163.658	-0.461	0.021
-170.910	-200.000	0.011	0.078
-169.896	-200.000	-0.041	-0.379
-168.881	-47.016	0.120	-0.058
-167.866	800.000	-0.046	0.173
-166.852	800.000	0.048	0.139
-165.837	-57.752	0.223	0.096
-164.823	345.090	0.075	0.146
-163.808	-135.950	0.258	0.030
-162.793	-86.416	-0.092	-0.028
-161.779	703.916	0.023	-0.060
-160.764	-70.084	-0.042	-0.016
-159.750	-200.000	-0.011	-0.426
-158.735	-66.624	-0.136	0.053
-157.720	-200.000	-0.003	-0.119
-156.706	13.349	0.163	-0.125
-155.691	800.000	-0.081	0.326
-154.677	-55.249	0.109	0.048
-153.662	153.750	0.045	-0.061
-152.647	-0.172	-0.210	0.147
-151.633	-106.642	0.121	-0.027
-150.618	70.531	-0.100	-0.102
-149.604	-25.351	0.058	0.034
-148.589	-141.985	-0.082	0.008
-147.574	74.821	0.070	-0.072
-146.560	588.320	-0.071	-0.171
-145.545	800.000	-0.124	0.407
-144.531	-50.550	0.130	-0.060
-143.516	33.376	0.122	-0.105
-142.502	-139.001	0.400	0.043
-141.487	-87.489	-0.146	-0.044
-140.472	-124.502	-0.280	0.043
-139.458	-200.000	0.019	0.267
-138.443	-69.404	0.110	0.042
-137.429	196.545	0.100	0.150
-136.414	800.000	-0.049	-0.178
-135.399	-28.505	0.272	-0.155
-134.385	435.510	0.056	0.120
-133.370	800.000	-0.035	0.113
-132.356	136.615	-0.384	0.494
-131.341	199.742	-0.252	-0.381
-130.326	498.676	0.120	0.271
-129.312	134.376	-0.104	0.132
-128.297	212.636	-0.179	-0.278
-127.283	-76.296	-0.214	-0.074
-126.268	-200.000	0.001	-0.063
-125.253	96.583	0.048	-0.055
-124.239	141.100	-0.073	-0.095
-123.224	-200.000	0.010	0.290
-122.210	50.419	-0.319	-0.297
-121.195	-144.290	-0.162	-0.015
