DTS Sentinel unit serial number:	SN413079Multiplexer serial number:	ORYXHardware model number:	OX4-SRSoftware version number:	ORYX F/W v4.00 Oryx Data Collector v3.7.2.0data status	okinstallation	princeton_trtdifferential loss correction	single-endedforward channel	channel 2reverse channel	N/Adate	2019/09/12time	14:13:11forward acquisition time	60.00reverse acquisition time	0.00gamma	496.2192k internal	0.2301k external	0.2301temperature offset calibration	1.0086default loss term (dB/km)	0.3790temperature slope calibration	1.0000multiplexer offset coefficient	1.0000multiplexer slope coefficient	1.0000fibre end	0.00T internal ref (°C)	40.31T ext. ref 1 (°C)	2.24T ext. ref 2 (°C)	35.70length (m)	temperature (°C)	Stokes	anti-Stokes-747.200	-56.092	-0.199	0.091
-746.185	100.940	-0.070	0.083
-745.171	529.899	0.063	0.151
-744.156	800.000	0.051	0.178
-743.142	75.487	0.268	-0.288
-742.127	-64.420	0.186	0.077
-741.112	739.411	0.086	0.237
-740.098	-200.000	-0.018	0.417
-739.083	126.359	-0.192	0.247
-738.069	-59.155	0.183	0.080
-737.054	-200.000	-0.037	0.300
-736.039	-139.031	0.258	-0.028
-735.025	-84.867	0.171	0.055
-734.010	-200.000	0.058	-0.307
-732.996	12.367	0.054	-0.042
-731.981	-101.257	-0.119	-0.030
-730.966	263.991	-0.210	0.372
-729.952	-200.000	0.063	-0.294
-728.937	-100.791	-0.160	0.040
-727.923	-61.131	-0.199	-0.086
-726.908	124.573	-0.096	0.123
-725.894	293.127	0.065	0.121
-724.879	-131.902	-0.294	-0.039
-723.864	800.000	0.111	-0.383
-722.850	-200.000	-0.031	-0.378
-721.835	-72.263	-0.003	-0.001
-720.821	230.159	-0.107	-0.179
-719.806	-59.606	0.244	0.107
-718.791	66.849	-0.091	-0.094
-717.777	-61.353	-0.063	-0.027
-716.762	-200.000	0.018	0.133
-715.748	-155.402	-0.207	-0.014
-714.733	-29.963	-0.120	-0.069
-713.718	800.000	0.055	0.162
-712.704	-151.796	-0.175	0.013
-711.689	-5.229	0.242	0.169
-710.675	783.679	0.039	0.110
-709.660	50.256	-0.214	0.206
-708.645	-200.000	0.021	0.135
-707.631	0.586	-0.253	0.184
-706.616	-160.819	-0.189	-0.010
-705.602	-85.924	-0.101	0.032
-704.587	-200.000	-0.015	-0.239
-703.572	-105.514	0.336	-0.078
-702.558	-159.162	0.100	-0.006
-701.543	-200.000	-0.024	0.149
-700.529	-193.494	-0.092	0.001
-699.514	109.750	-0.001	-0.002
-698.499	176.361	0.090	-0.134
-697.485	-53.525	0.204	-0.095
-696.470	428.291	-0.046	0.101
-695.456	-189.068	0.412	0.005
-694.441	-43.429	-0.152	0.078
-693.426	-61.312	0.453	-0.194
-692.412	-200.000	0.011	-0.076
-691.397	618.835	0.101	-0.258
-690.383	-80.225	-0.116	-0.039
-689.368	-200.000	-0.012	0.215
-688.354	3.509	0.365	-0.270
-687.339	223.915	-0.188	0.308
-686.324	2.793	0.157	0.116
-685.310	62.389	-0.074	0.075
-684.295	800.000	0.101	0.340
-683.281	-200.000	-0.016	-0.293
-682.266	-79.708	-0.120	-0.041
-681.251	-38.882	0.298	-0.160
-680.237	196.285	-0.012	0.019
-679.222	800.000	-0.025	0.076
-678.208	800.000	0.061	0.171
-677.193	-12.835	0.301	-0.199
-676.178	37.434	-0.108	0.097
-675.164	-124.930	-0.244	0.038
-674.149	-130.260	-0.373	-0.052
-673.135	281.646	0.142	-0.259
-672.120	168.306	0.146	-0.211
-671.105	-200.000	-0.018	0.202
-670.091	627.865	0.077	-0.198
-669.076	226.576	-0.055	-0.091
-668.062	-200.000	-0.004	-0.124
-667.047	-101.326	0.348	-0.086
-666.032	-200.000	0.003	0.065
-665.018	-63.796	0.120	-0.050
-664.003	-78.259	-0.111	0.039
-662.989	-41.006	-0.177	-0.093
-661.974	-9.778	0.141	-0.095
-660.959	-76.016	-0.315	0.113
-659.945	800.000	0.126	-0.357
-658.930	-48.491	0.124	0.061
-657.916	-64.888	-0.144	0.059
-656.901	210.818	0.130	-0.208
-655.886	422.626	-0.087	0.190
-654.872	800.000	0.014	0.048
-653.857	308.406	-0.041	0.077
-652.843	105.454	0.150	-0.180
-651.828	-149.984	0.286	-0.023
-650.814	83.103	-0.178	0.197
-649.799	-200.000	0.013	0.216
-648.784	106.779	0.195	0.235
-647.770	-162.582	0.123	0.006
-646.755	800.000	-0.095	0.292
-645.741	-143.274	-0.218	0.021
-644.726	-95.106	0.514	-0.141
-643.711	57.317	0.113	0.112
-642.697	800.000	-0.050	-0.192
-641.682	800.000	-0.123	-0.364
-640.668	-122.274	-0.406	-0.067
-639.653	209.631	-0.133	-0.212
-638.638	135.760	0.090	-0.119
-637.624	-200.000	-0.007	0.175
-636.609	196.710	0.189	0.293
-635.595	800.000	0.033	-0.137
-634.580	182.414	0.108	-0.162
-633.565	5.343	0.223	0.167
-632.551	54.376	0.059	-0.058
-631.536	-200.000	0.023	0.291
-630.522	-200.000	0.008	0.355
-629.507	599.302	-0.063	-0.158
-628.492	-200.000	-0.024	-0.183
-627.478	-91.382	0.053	-0.015
-626.463	800.000	-0.038	-0.142
-625.449	252.132	-0.092	-0.159
-624.434	-200.000	-0.000	0.187
-623.419	409.202	-0.071	-0.154
-622.405	52.823	0.091	0.088
-621.390	800.000	-0.043	0.125
-620.376	252.245	0.169	0.292
-619.361	-127.169	-0.316	-0.047
-618.346	800.000	-0.101	0.325
-617.332	-200.000	0.062	0.412
-616.317	472.069	-0.104	-0.236
-615.303	668.453	0.151	-0.396
-614.288	391.072	-0.042	-0.089
-613.273	666.620	-0.037	-0.097
-612.259	434.331	-0.084	-0.185
-611.244	774.956	-0.039	-0.107
-610.230	-73.592	0.276	-0.102
-609.215	800.000	0.043	0.184
-608.201	240.665	-0.098	0.166
-607.186	-109.984	0.102	0.022
-606.171	221.330	-0.023	-0.037
-605.157	-200.000	-0.007	0.086
-604.142	310.061	0.116	0.220
-603.128	-118.883	0.023	0.004
-602.113	56.384	0.122	-0.120
-601.098	-46.717	-0.185	-0.092
-600.084	236.095	0.251	0.421
-599.069	-200.000	-0.033	-0.293
-598.055	148.041	0.073	0.100
-597.040	800.000	0.017	0.053
-596.025	-200.000	-0.038	0.267
-595.011	800.000	-0.109	-0.347
-593.996	434.369	-0.158	-0.349
-592.982	800.000	0.066	-0.213
-591.967	470.177	0.182	-0.415
-590.952	421.305	-0.094	0.204
-589.938	-29.720	-0.294	-0.170
-588.923	-200.000	-0.034	-0.254
-587.909	91.330	-0.077	0.088
-586.894	457.126	0.093	0.208
-585.879	208.782	-0.117	-0.186
-584.865	59.624	-0.098	-0.098
-583.850	286.942	-0.118	-0.216
-582.836	195.634	0.020	-0.031
-581.821	-35.240	-0.077	-0.042
-580.806	29.195	-0.246	-0.212
-579.792	8.945	-0.393	0.300
-578.777	-53.208	-0.267	0.124
-577.763	159.915	0.102	-0.144
-576.748	-110.395	0.305	0.064
-575.733	-108.410	0.287	0.063
-574.719	130.770	-0.211	0.275
-573.704	381.339	0.118	0.245
-572.690	213.900	-0.097	0.155
-571.675	-101.944	0.311	0.076
-570.661	138.218	-0.067	-0.089
-569.646	178.485	-0.029	0.043
-568.631	230.944	-0.125	-0.207
-567.617	-200.000	-0.067	0.317
-566.602	-200.000	0.064	0.405
-565.588	-93.247	-0.296	0.083
-564.573	800.000	0.056	-0.190
-563.558	244.126	0.050	-0.085
-562.544	-29.002	-0.234	0.136
-561.529	-101.780	-0.155	-0.038
-560.515	-60.561	-0.166	0.071
-559.500	252.893	-0.176	0.305
-558.485	-125.170	0.029	-0.005
-557.471	-153.581	-0.193	-0.014
-556.456	-84.051	-0.114	-0.037
-555.442	13.481	0.175	-0.138
-554.427	-30.128	0.102	-0.059
-553.412	-171.359	-0.101	-0.003
-552.398	120.026	0.072	-0.091
-551.383	800.000	-0.015	-0.047
-550.369	148.202	0.221	0.302
-549.354	-171.380	-0.404	-0.014
-548.339	158.842	-0.284	0.399
-547.325	12.269	-0.204	0.159
-546.310	-200.000	-0.025	-0.333
-545.296	-81.288	0.050	-0.017
-544.281	800.000	-0.024	-0.101
-543.266	-200.000	-0.007	0.072
-542.252	403.790	0.152	-0.323
-541.237	-166.664	-0.167	-0.007
-540.223	387.463	-0.032	-0.067
-539.208	-200.000	-0.009	-0.093
-538.193	-24.221	-0.211	0.127
-537.179	-130.576	0.026	-0.004
-536.164	-200.000	-0.010	0.057
-535.150	-200.000	-0.031	-0.139
-534.135	-200.000	-0.055	0.284
-533.121	-200.000	-0.001	0.221
-532.106	72.416	-0.246	-0.260
-531.091	-200.000	-0.002	-0.163
-530.077	-15.316	0.198	0.128
-529.062	610.946	0.080	0.203
-528.048	69.121	-0.040	-0.042
-527.033	-126.579	0.136	0.020
-526.018	-200.000	0.010	-0.070
-525.004	26.540	0.229	-0.193
-523.989	68.454	-0.224	-0.232
-522.975	-104.449	-0.136	-0.032
-521.960	141.646	0.144	0.193
-520.945	560.420	0.105	0.257
-519.931	45.698	0.127	0.119
-518.916	-92.341	0.282	-0.080
-517.902	-105.776	-0.169	-0.039
-516.887	-188.160	0.136	0.002
-515.872	-200.000	0.209	-0.000
-514.858	-74.829	-0.141	-0.051
-513.843	51.546	-0.073	0.070
-512.829	786.580	0.042	0.118
-511.814	800.000	0.063	0.194
-510.799	-154.792	0.016	-0.001
-509.785	-200.000	-0.003	-0.089
-508.770	-200.000	-0.029	0.136
-507.756	-45.297	-0.162	-0.081
-506.741	800.000	0.016	0.059
-505.726	16.286	-0.195	-0.155
-504.712	-153.061	-0.058	0.004
-503.697	-89.957	0.088	-0.026
-502.683	-66.558	0.092	0.037
-501.668	-200.000	-0.004	0.188
-500.653	800.000	0.011	-0.041
-499.639	117.763	0.143	0.178
-498.624	-200.000	0.006	0.345
-497.610	800.000	-0.052	-0.207
-496.595	-100.821	0.409	0.102
-495.581	-34.890	0.157	0.087
-494.566	-7.581	0.026	-0.018
-493.551	-200.000	-0.007	0.074
-492.537	-26.592	-0.073	0.043
-491.522	-137.086	-0.294	-0.034
-490.508	-51.068	0.235	-0.111
-489.493	249.884	-0.199	0.341
-488.478	-26.283	-0.080	-0.048
-487.464	-83.011	0.072	0.023
-486.449	137.345	0.170	-0.224
-485.435	705.183	-0.094	-0.251
-484.420	37.287	0.143	-0.128
-483.405	371.439	0.032	0.066
-482.391	-45.161	0.261	0.131
-481.376	-0.012	-0.252	0.181
-480.362	728.418	-0.068	-0.184
-479.347	-34.732	-0.087	0.048
-478.332	-42.403	0.082	-0.042
-477.318	800.000	-0.057	-0.216
-476.303	65.001	-0.069	0.070
-475.289	-200.000	-0.003	0.014
-474.274	800.000	-0.052	-0.203
-473.259	69.139	0.110	-0.114
-472.245	-200.000	0.004	-0.132
-471.230	-83.705	0.207	-0.067
-470.216	387.515	-0.156	0.325
-469.201	800.000	0.018	0.079
-468.186	-179.684	-0.046	0.001
-467.172	-26.462	0.292	-0.173
-466.157	800.000	-0.037	-0.151
-465.143	-57.664	0.381	-0.168
-464.128	-157.467	-0.342	0.021
-463.113	68.668	0.126	0.130
-462.099	-49.977	-0.251	-0.120
-461.084	-63.096	-0.234	-0.098
-460.070	284.023	0.181	-0.328
-459.055	-200.000	0.040	0.247
-458.040	-98.225	-0.268	-0.069
-457.026	800.000	0.056	-0.177
-456.011	-200.000	0.001	-0.183
-454.997	-67.894	0.251	0.099
-453.982	800.000	0.063	-0.184
-452.968	-200.000	-0.038	-0.177
-451.953	651.535	-0.069	-0.178
-450.938	11.670	0.127	0.099
-449.924	206.126	0.142	0.223
-448.909	167.111	0.186	0.267
-447.895	743.026	0.108	-0.292
-446.880	-45.587	-0.136	0.068
-445.865	248.306	0.096	-0.164
-444.851	-200.000	-0.027	-0.306
-443.836	-122.764	0.290	-0.047
-442.822	-173.382	-0.371	0.011
-441.807	800.000	-0.080	-0.295
-440.792	-33.154	0.051	-0.028
-439.778	756.020	-0.023	0.063
-438.763	25.400	-0.262	0.219
-437.749	24.513	-0.079	0.066
-436.734	-90.166	-0.112	0.033
-435.719	-200.000	-0.015	0.157
-434.705	723.177	-0.079	0.211
-433.690	800.000	0.059	0.257
-432.676	-144.405	-0.170	0.016
-431.661	-200.000	0.015	-0.106
-430.646	-200.000	0.019	0.243
-429.632	-119.003	-0.295	-0.052
-428.617	-200.000	0.015	0.094
-427.603	-101.870	-0.191	0.047
-426.588	800.000	-0.059	-0.181
-425.573	432.579	-0.077	0.169
-424.559	-200.000	0.003	-0.214
-423.544	-163.861	-0.328	-0.015
-422.530	269.665	-0.081	0.143
-421.515	-200.000	0.008	0.086
-420.500	-22.652	-0.070	-0.042
-419.486	-200.000	0.062	0.313
-418.471	-160.592	0.032	0.002
-417.457	-200.000	0.020	0.174
-416.442	-54.897	0.216	0.098
-415.428	-143.666	0.177	-0.017
-414.413	-49.976	-0.251	-0.120
-413.398	205.653	0.082	-0.128
-412.384	-194.180	0.190	-0.002
-411.369	-170.711	0.303	0.011
-410.355	-92.118	-0.391	-0.111
-409.340	421.557	0.032	-0.069
-408.325	-146.458	0.151	0.013
-407.311	16.802	0.156	-0.124
-406.296	380.521	-0.090	0.185
-405.282	-171.748	0.275	-0.009
-404.267	-200.000	0.017	-0.077
-403.252	-200.000	-0.072	0.367
-402.238	11.607	0.150	0.116
-401.223	-45.733	-0.127	-0.063
-400.209	139.043	0.022	0.029
-399.194	-15.965	0.137	0.088
-398.179	96.638	0.225	-0.259
-397.165	196.865	-0.263	-0.403
-396.150	-85.015	-0.348	-0.110
-395.136	-85.689	-0.287	0.090
-394.121	-200.000	0.032	-0.305
-393.106	-200.000	-0.006	-0.344
-392.092	134.131	-0.116	-0.151
-391.077	-200.000	0.004	0.059
-390.063	800.000	-0.118	0.371
-389.048	-70.356	-0.136	0.052
-388.033	-112.164	0.210	0.042
-387.019	-30.469	-0.064	0.037
-386.004	-168.547	-0.219	-0.008
-384.990	-189.791	-0.244	0.003
-383.975	-200.000	-0.001	-0.392
-382.960	118.144	-0.112	0.139
-381.946	-127.690	-0.292	0.042
-380.931	800.000	-0.085	0.268
-379.917	176.400	0.028	-0.041
-378.902	2.456	-0.113	-0.082
-377.888	-189.966	0.281	0.003
-376.873	-50.062	-0.319	0.152
-375.858	119.787	0.120	0.149
-374.844	498.825	0.046	-0.107
-373.829	-200.000	0.002	-0.320
-372.815	800.000	-0.104	0.320
-371.800	-200.000	-0.008	0.221
-370.785	-31.495	-0.301	-0.170
-369.771	-33.239	0.405	-0.225
-368.756	-119.919	0.082	-0.014
-367.742	-200.000	0.004	-0.177
-366.727	-200.000	0.052	-0.309
-365.712	-154.372	0.434	-0.029
-364.698	-106.192	0.490	0.110
-363.683	-182.815	-0.069	0.001
-362.669	-129.843	0.221	-0.030
-361.654	-33.105	0.034	-0.019
-360.639	78.057	-0.131	-0.141
-359.625	123.400	-0.083	-0.105
-358.610	-106.698	0.135	0.030
-357.596	800.000	0.044	0.169
-356.581	-22.245	0.113	0.069
-355.566	-200.000	-0.026	-0.215
-354.552	168.138	0.174	-0.248
-353.537	-147.219	0.128	-0.011
-352.523	800.000	-0.001	-0.003
-351.508	-15.542	0.101	0.065
-350.493	-87.167	-0.351	-0.107
-349.479	-200.000	-0.001	-0.010
-348.464	800.000	-0.086	0.260
-347.450	-184.491	0.151	-0.002
-346.435	4.776	-0.076	-0.056
-345.420	63.892	-0.209	-0.211
-344.406	9.782	0.077	-0.059
-343.391	-200.000	-0.011	-0.112
-342.377	479.722	0.118	-0.268
-341.362	-77.480	0.278	-0.097
-340.348	31.567	-0.181	0.156
-339.333	-200.000	-0.012	0.066
-338.318	-93.220	0.184	0.051
-337.304	-133.765	0.246	-0.031
-336.289	282.907	0.096	0.172
-335.275	800.000	0.011	-0.045
-334.260	-59.853	0.030	-0.013
-333.245	46.394	-0.133	-0.124
-332.231	582.257	-0.044	0.108
-331.216	-158.141	0.304	-0.018
-330.202	-200.000	-0.017	0.256
-329.187	-200.000	0.001	-0.439
-328.172	-98.071	-0.212	0.055
-327.158	-70.530	-0.190	0.072
-326.143	-117.533	0.344	-0.062
-325.129	-114.026	-0.511	-0.099
-324.114	-72.842	0.534	0.197
-323.099	564.232	0.040	-0.098
-322.085	69.620	-0.290	0.300
-321.070	-22.077	-0.138	0.084
-320.056	-43.373	0.345	-0.175
-319.041	108.105	-0.093	-0.111
-318.026	-200.000	0.058	0.388
-317.012	-30.617	0.221	-0.125
-315.997	-200.000	0.022	-0.308
-314.983	-200.000	-0.021	0.146
-313.968	58.787	-0.151	0.149
-312.953	-97.831	-0.143	-0.037
-311.939	-144.202	0.297	0.028
-310.924	-89.189	-0.070	-0.021
-309.910	600.953	-0.051	0.127
-308.895	-58.028	0.117	0.051
-307.880	48.664	0.229	0.215
-306.866	-100.453	-0.105	0.026
-305.851	-38.528	-0.139	0.074
-304.837	800.000	0.068	-0.230
-303.822	96.813	-0.199	-0.229
-302.807	-200.000	-0.005	0.234
-301.793	647.776	-0.012	0.030
-300.778	-83.164	0.204	0.066
-299.764	-86.665	-0.247	0.076
-298.749	-48.286	0.313	-0.151
-297.735	-93.379	0.081	0.022
-296.720	150.399	0.023	-0.031
-295.705	-200.000	-0.004	-0.360
-294.691	204.311	-0.062	-0.097
-293.676	-200.000	-0.013	-0.296
-292.662	112.418	0.061	-0.074
-291.647	259.857	0.196	0.339
-290.632	-79.066	0.198	0.067
-289.618	8.242	0.262	0.197
-288.603	-108.101	-0.176	0.038
-287.589	800.000	0.077	0.254
-286.574	-93.359	0.032	-0.009
-285.559	780.931	-0.132	0.362
-284.545	-200.000	-0.040	0.443
-283.530	-200.000	0.018	0.124
-282.516	308.588	-0.034	0.063
-281.501	-126.962	0.078	-0.011
-280.486	10.156	0.090	-0.068
-279.472	-97.355	-0.212	-0.055
-278.457	279.818	-0.137	-0.246
-277.443	521.376	-0.031	-0.072
-276.428	715.677	-0.184	0.490
-275.413	-93.532	-0.134	0.037
-274.399	-200.000	-0.001	0.092
-273.384	-34.941	0.338	0.185
-272.370	-144.845	-0.206	-0.019
-271.355	292.811	0.251	-0.457
-270.340	-53.936	0.268	-0.122
-269.326	-35.899	-0.149	-0.081
-268.311	-84.937	0.437	0.137
-267.297	28.941	0.039	0.033
-266.282	-84.189	0.106	-0.034
-265.267	800.000	-0.068	-0.193
-264.253	800.000	-0.060	0.210
-263.238	54.646	0.216	0.208
-262.224	-200.000	-0.028	-0.133
-261.209	-75.509	-0.071	-0.025
-260.195	87.241	0.121	0.133
-259.180	78.191	0.108	-0.115
-258.165	-200.000	-0.025	-0.313
-257.151	204.658	-0.170	0.263
-256.136	351.878	-0.067	0.133
-255.122	-200.000	0.001	-0.209
-254.107	-200.000	0.012	0.191
-253.092	359.595	-0.083	-0.166
-252.078	18.571	-0.188	0.150
-251.063	383.554	-0.058	0.120
-250.049	-64.187	-0.050	-0.020
-249.034	-72.136	0.320	0.119
-248.019	583.919	-0.076	-0.188
-247.005	631.140	-0.035	-0.088
-245.990	177.063	-0.036	0.053
-244.976	432.367	-0.146	-0.316
-243.961	800.000	0.059	0.230
-242.946	57.281	0.319	0.312
-241.932	-98.736	0.209	-0.053
-240.917	39.827	0.163	-0.146
-239.903	630.021	0.028	-0.071
-238.888	211.521	0.096	-0.151
-237.873	256.654	-0.176	0.301
-236.859	88.700	0.190	0.211
-235.844	800.000	-0.098	-0.324
-234.830	276.355	-0.146	-0.260
-233.815	-132.277	-0.119	-0.015
-232.800	-120.843	-0.112	-0.019
-231.786	631.607	0.081	-0.204
-230.771	800.000	-0.110	-0.360
-229.757	166.308	0.211	-0.298
-228.742	305.512	-0.234	0.434
-227.727	-37.737	-0.111	0.059
-226.713	800.000	-0.064	0.265
-225.698	-200.000	-0.004	0.250
-224.684	-107.082	-0.192	0.042
-223.669	-9.344	0.047	-0.032
-222.655	252.440	-0.165	-0.281
-221.640	-200.000	0.028	0.126
-220.625	-200.000	-0.016	0.183
-219.611	-158.536	0.176	-0.010
-218.596	-200.000	-0.042	0.250
-217.582	-200.000	0.008	-0.091
-216.567	60.827	-0.105	-0.104
-215.552	-94.558	-0.223	0.061
-214.538	-54.987	-0.451	-0.203
-213.523	-138.155	0.236	0.026
-212.509	-29.466	0.210	-0.120
-211.494	-27.578	-0.132	0.076
-210.479	-36.013	0.303	0.164
-209.465	-27.001	0.103	0.060
-208.450	800.000	-0.088	0.324
-207.436	-10.772	-0.318	0.210
-206.421	-98.876	-0.057	-0.014
-205.406	-98.402	0.145	-0.037
-204.392	624.077	0.075	-0.190
-203.377	800.000	0.075	0.235
-202.363	145.443	0.095	-0.127
-201.348	221.804	-0.082	-0.131
-200.333	146.649	0.053	0.072
-199.319	-14.054	0.129	0.083
-198.304	109.908	0.069	-0.083
-197.290	540.310	0.129	0.306
-196.275	119.855	-0.104	0.129
-195.260	-101.593	0.280	0.068
-194.246	-109.244	0.160	-0.034
-193.231	-200.000	0.028	0.125
-192.217	93.169	-0.226	-0.255
-191.202	800.000	-0.049	0.143
-190.187	-55.814	-0.216	0.096
-189.173	-39.072	-0.180	-0.095
-188.158	-200.000	-0.027	-0.311
-187.144	-188.071	-0.144	0.002
-186.129	609.584	-0.107	-0.267
-185.114	-200.000	-0.003	0.294
-184.100	83.330	-0.066	-0.071
-183.085	262.530	-0.124	-0.214
-182.071	-200.000	0.000	-0.093
-181.056	-141.170	0.231	-0.024
-180.042	76.470	0.099	-0.105
-179.027	-30.526	0.373	0.211
-178.012	-0.882	0.246	-0.174
-176.998	245.312	-0.137	-0.230
-175.983	-200.000	0.014	-0.208
-174.969	800.000	-0.059	0.164
-173.954	-120.978	0.247	-0.041
-172.939	584.152	0.096	-0.235
-171.925	-200.000	-0.007	-0.197
-170.910	415.582	0.044	-0.094
-169.896	-200.000	0.020	0.120
-168.881	800.000	0.050	-0.147
-167.866	-34.860	-0.086	-0.047
-166.852	-200.000	0.065	0.296
-165.837	427.002	-0.160	-0.345
-164.823	-86.970	-0.106	-0.032
-163.808	-200.000	0.015	-0.272
-162.793	102.158	0.038	-0.044
-161.779	-4.689	-0.081	-0.056
-160.764	-200.000	0.029	0.197
-159.750	48.097	-0.110	-0.103
-158.735	244.639	0.050	0.084
-157.720	219.860	-0.150	0.239
-156.706	609.383	0.026	-0.065
-155.691	-200.000	0.010	-0.102
-154.677	-115.298	0.236	-0.044
-153.662	-133.901	-0.333	0.041
-152.647	183.737	0.137	0.202
-151.633	800.000	0.073	0.286
-150.618	15.630	-0.046	0.036
-149.604	125.061	-0.061	-0.077
-148.589	-200.000	0.029	0.246
-147.574	-123.653	-0.155	0.024
-146.560	458.600	0.069	-0.153
-145.545	673.698	0.021	0.054
-144.531	800.000	-0.082	-0.266
-143.516	800.000	0.026	0.091
-142.502	193.952	0.072	-0.108
-141.487	-59.410	0.328	0.141
-140.472	-34.770	0.027	0.014
-139.458	800.000	-0.114	0.361
-138.443	-142.713	-0.254	-0.025
-137.429	63.055	0.045	-0.045
-136.414	113.948	-0.179	-0.217
-135.399	283.682	0.061	0.110
-134.385	295.339	-0.100	-0.183
-133.370	359.159	0.236	-0.469
-132.356	191.718	0.312	0.468
-131.341	-200.000	0.028	0.185
-130.326	10.914	0.087	-0.066
-129.312	-67.512	0.126	-0.049
-128.297	-48.121	0.100	-0.048
-127.283	-84.719	-0.070	0.022
-126.268	-117.472	-0.185	0.033
-125.253	-200.000	0.018	-0.111
-124.239	-200.000	0.001	-0.071
-123.224	91.559	0.131	0.147
