DTS Sentinel unit serial number:	SN413079Multiplexer serial number:	ORYXHardware model number:	OX4-SRSoftware version number:	ORYX F/W v4.00 Oryx Data Collector v3.7.2.0data status	okinstallation	princeton_trtdifferential loss correction	single-endedforward channel	channel 2reverse channel	N/Adate	2019/09/19time	12:43:34forward acquisition time	60.00reverse acquisition time	0.00gamma	496.2192k internal	0.2333k external	0.2333temperature offset calibration	1.0019default loss term (dB/km)	0.3790temperature slope calibration	1.0000multiplexer offset coefficient	1.0000multiplexer slope coefficient	1.0000fibre end	0.00T internal ref (°C)	27.70T ext. ref 1 (°C)	0.90T ext. ref 2 (°C)	25.86length (m)	temperature (°C)	Stokes	anti-Stokes-747.200	-130.826	-0.242	0.033
-746.185	800.000	-0.034	0.098
-745.171	-134.979	0.269	0.033
-744.156	192.723	-0.115	-0.174
-743.142	282.283	0.038	0.068
-742.127	-74.551	-0.311	0.113
-741.112	-200.000	-0.037	0.208
-740.098	-164.072	0.198	-0.009
-739.083	-137.755	0.124	-0.014
-738.069	-196.542	-0.155	-0.001
-737.054	800.000	0.018	0.070
-736.039	-81.165	-0.382	0.127
-735.025	-182.749	0.294	-0.005
-734.010	-200.000	0.011	-0.172
-732.996	58.193	-0.209	-0.206
-731.981	-200.000	-0.024	-0.113
-730.966	-79.501	-0.021	0.007
-729.952	-30.538	-0.272	0.155
-728.937	-45.452	-0.203	0.101
-727.923	-28.157	0.234	0.136
-726.908	-56.257	0.216	-0.096
-725.894	616.146	-0.024	0.061
-724.879	375.754	0.059	-0.122
-723.864	-34.997	-0.118	-0.065
-722.850	-200.000	0.051	-0.281
-721.835	-25.356	0.248	-0.147
-720.821	-116.010	0.096	-0.018
-719.806	94.561	-0.233	-0.266
-718.791	-200.000	0.024	-0.229
-717.777	368.607	0.052	-0.106
-716.762	-200.000	0.006	-0.030
-715.748	373.954	-0.150	-0.306
-714.733	16.902	0.192	0.153
-713.718	-163.504	-0.352	-0.017
-712.704	737.984	0.163	0.439
-711.689	-19.755	-0.264	-0.164
-710.675	31.967	-0.069	0.059
-709.660	-200.000	0.035	-0.171
-708.645	-86.204	0.277	0.086
-707.631	-48.064	0.361	-0.175
-706.616	81.871	-0.117	0.127
-705.602	-189.810	-0.287	-0.003
-704.587	349.374	0.036	-0.072
-703.572	17.939	-0.121	-0.096
-702.558	163.878	-0.090	0.128
-701.543	704.938	-0.106	-0.280
-700.529	274.838	0.136	-0.242
-699.514	151.898	-0.050	-0.069
-698.499	-200.000	-0.022	-0.261
-697.485	-200.000	0.247	0.001
-696.470	129.547	-0.069	0.089
-695.456	800.000	0.067	-0.246
-694.441	1.739	0.047	0.034
-693.426	542.692	0.137	0.328
-692.412	-24.197	0.067	0.040
-691.397	-86.880	-0.230	-0.070
-690.383	-134.029	-0.078	0.010
-689.368	-200.000	-0.019	0.094
-688.354	-81.009	-0.100	-0.033
-687.339	-36.265	-0.159	0.086
-686.324	126.767	-0.072	0.091
-685.310	50.489	-0.118	0.112
-684.295	-17.955	0.046	0.029
-683.281	-83.712	0.067	-0.021
-682.266	-23.657	-0.197	-0.118
-681.251	227.101	-0.083	-0.136
-680.237	800.000	-0.034	0.133
-679.222	103.501	0.101	0.119
-678.208	-200.000	-0.002	-0.039
-677.193	350.456	0.061	-0.121
-676.178	-200.000	-0.017	0.133
-675.164	122.192	0.096	-0.120
-674.149	113.549	0.223	0.271
-673.135	128.130	0.118	-0.151
-672.120	80.918	-0.167	0.180
-671.105	-200.000	-0.009	0.235
-670.091	-114.525	0.100	-0.019
-669.076	-160.253	-0.148	0.008
-668.062	85.974	-0.149	-0.165
-667.047	-200.000	-0.027	0.147
-666.032	-22.354	0.401	0.243
-665.018	122.930	-0.167	0.210
-664.003	53.460	0.144	-0.138
-662.989	-37.692	-0.151	0.081
-661.974	761.131	-0.042	0.114
-660.959	800.000	0.040	0.123
-659.945	800.000	-0.008	0.030
-658.930	-200.000	-0.011	-0.213
-657.916	589.905	-0.049	-0.122
-656.901	-76.556	0.108	-0.038
-655.886	13.089	-0.105	0.081
-654.872	-200.000	-0.028	-0.328
-653.857	136.712	-0.028	-0.036
-652.843	-67.034	0.142	0.056
-651.828	210.681	0.113	-0.178
-650.814	508.934	-0.097	-0.225
-649.799	113.477	-0.046	-0.057
-648.784	-52.941	0.195	0.090
-647.770	-200.000	-0.021	0.193
-646.755	-117.914	-0.197	0.035
-645.741	-120.522	0.168	-0.029
-644.726	800.000	0.047	0.158
-643.711	152.976	-0.175	0.240
-642.697	182.677	0.223	-0.329
-641.682	-38.793	-0.208	-0.110
-640.668	-40.660	-0.143	0.074
-639.653	-108.732	0.444	-0.095
-638.638	-200.000	0.020	0.113
-637.624	-86.303	0.143	0.044
-636.609	800.000	0.051	-0.204
-635.595	342.270	0.156	-0.305
-634.580	44.366	-0.149	0.137
-633.565	-200.000	-0.041	-0.459
-632.551	40.157	-0.151	-0.136
-631.536	-200.000	0.104	-0.462
-630.522	26.991	0.435	-0.366
-629.507	34.762	0.236	-0.207
-628.492	-180.752	0.153	-0.003
-627.478	103.268	-0.119	0.139
-626.463	-200.000	-0.013	-0.070
-625.449	-48.168	0.153	0.074
-624.434	-34.560	-0.313	-0.172
-623.419	45.326	-0.248	-0.228
-622.405	11.190	0.181	-0.139
-621.390	-49.082	0.131	-0.063
-620.376	6.502	-0.187	0.139
-619.361	-123.575	0.060	0.009
-618.346	342.717	0.065	0.128
-617.332	-200.000	-0.308	-0.000
-616.317	360.783	-0.090	-0.181
-615.303	60.982	0.136	-0.135
-614.288	-183.222	0.288	-0.005
-613.273	-19.729	0.050	-0.031
-612.259	544.736	0.046	0.110
-611.244	206.401	0.099	-0.154
-610.230	-125.885	0.189	-0.029
-609.215	-25.320	0.287	-0.170
-608.201	-200.000	-0.033	-0.506
-607.186	-5.159	-0.206	-0.142
-606.171	461.977	0.142	0.318
-605.157	-105.596	-0.185	0.042
-604.142	32.684	0.088	-0.076
-603.128	130.689	-0.184	0.236
-602.113	-57.878	0.262	-0.115
-601.098	316.098	-0.111	0.210
-600.084	101.942	-0.040	0.047
-599.069	-13.092	-0.217	-0.141
-598.055	-104.358	0.293	0.068
-597.040	55.098	-0.145	0.140
-596.025	419.903	-0.125	0.267
-595.011	-89.193	-0.163	0.048
-593.996	-115.237	0.261	-0.049
-592.982	189.911	0.032	0.049
-591.967	84.144	-0.173	0.188
-590.952	54.341	-0.186	-0.179
-589.938	87.830	-0.235	-0.260
-588.923	-135.376	-0.268	0.032
-587.909	-200.000	-0.008	-0.104
-586.894	-177.681	-0.129	-0.003
-585.879	155.592	-0.207	-0.285
-584.865	-65.920	-0.112	-0.045
-583.850	21.304	-0.132	-0.107
-582.836	-80.832	0.402	0.133
-581.821	-200.000	-0.052	0.241
-580.806	154.356	0.085	-0.117
-579.792	800.000	-0.078	0.288
-578.777	189.322	-0.046	0.070
-577.763	-166.626	0.293	-0.012
-576.748	-200.000	0.053	-0.266
-575.733	-54.877	-0.258	0.116
-574.719	-130.387	-0.044	0.006
-573.704	170.353	0.201	0.288
-572.690	84.618	0.228	-0.249
-571.675	-200.000	0.020	-0.201
-570.661	154.372	-0.252	-0.346
-569.646	-200.000	-0.054	-0.317
-568.631	-65.678	0.108	-0.043
-567.617	72.472	0.111	0.116
-566.602	33.979	0.213	0.186
-565.588	66.263	-0.149	0.151
-564.573	492.848	-0.080	-0.183
-563.558	-135.214	-0.144	-0.017
-562.544	-91.366	0.191	-0.055
-561.529	18.412	-0.143	-0.114
-560.515	-103.318	0.147	0.035
-559.500	-17.334	0.201	0.126
-558.485	302.714	-0.114	-0.211
-557.471	-200.000	0.022	-0.245
-556.456	-48.352	0.159	0.076
-555.442	354.410	0.038	0.076
-554.427	-25.270	-0.325	0.192
-553.412	447.329	-0.105	0.230
-552.398	181.629	0.125	-0.183
-551.383	-30.970	-0.331	-0.187
-550.369	358.941	0.135	-0.268
-549.354	485.743	0.074	0.167
-548.339	-96.240	0.248	-0.066
-547.325	224.570	-0.017	-0.027
-546.310	-200.000	0.021	0.127
-545.296	-124.963	-0.086	0.013
-544.281	-127.123	-0.255	0.037
-543.266	44.974	0.086	0.079
-542.252	446.823	0.106	0.233
-541.237	-7.383	0.207	-0.140
-540.223	138.349	-0.076	-0.100
-539.208	22.655	-0.160	-0.131
-538.193	-200.000	0.002	-0.311
-537.179	-200.000	-0.016	-0.082
-536.164	116.016	-0.270	0.329
-535.150	-171.751	-0.040	0.001
-534.135	-15.155	0.204	0.130
-533.121	0.538	0.114	-0.081
-532.106	149.709	-0.066	-0.089
-531.091	-147.121	0.080	-0.007
-530.077	330.511	-0.055	0.106
-529.062	-16.022	0.048	0.030
-528.048	11.343	-0.281	0.214
-527.033	-200.000	-0.008	-0.231
-526.018	445.360	0.064	0.140
-525.004	54.244	0.206	0.197
-523.989	575.943	-0.139	0.339
-522.975	-126.413	-0.094	-0.014
-521.960	-109.525	-0.533	0.112
-520.945	-200.000	-0.017	0.291
-519.931	-87.370	0.237	0.072
-518.916	131.574	0.091	0.117
-517.902	-82.691	0.357	0.115
-516.887	28.973	0.243	0.205
-515.872	-100.719	-0.104	-0.026
-514.858	-35.277	0.186	0.101
-513.843	800.000	0.062	-0.214
-512.829	87.534	0.110	-0.121
-511.814	500.684	-0.117	-0.269
-510.799	-174.690	-0.377	0.011
-509.785	39.484	0.138	0.123
-508.770	800.000	0.022	0.095
-507.756	-158.588	0.171	0.010
-506.741	178.597	-0.162	0.235
-505.726	-200.000	0.017	-0.378
-504.712	-92.986	-0.086	-0.024
-503.697	265.242	0.016	0.028
-502.683	29.520	0.150	0.127
-501.668	107.300	-0.114	0.135
-500.653	69.494	0.081	0.083
-499.639	163.352	-0.148	0.207
-498.624	-90.425	-0.340	0.098
-497.610	-200.000	0.021	0.175
-496.595	359.819	0.096	-0.191
-495.581	410.866	-0.099	-0.208
-494.566	109.098	-0.120	0.142
-493.551	-51.303	-0.181	-0.084
-492.537	65.823	-0.082	0.082
-491.522	-200.000	-0.061	-0.414
-490.508	20.827	0.032	0.026
-489.493	-200.000	-0.057	0.336
-488.478	172.029	0.246	-0.352
-487.464	106.729	-0.110	0.130
-486.449	-168.907	-0.079	0.003
-485.435	-64.504	-0.341	-0.138
-484.420	-97.696	0.144	-0.037
-483.405	-64.609	0.296	-0.119
-482.391	101.371	-0.182	0.211
-481.376	-93.525	0.319	-0.088
-480.362	-200.000	-0.014	-0.199
-479.347	341.795	-0.053	0.104
-478.332	-96.960	-0.267	0.070
-477.318	-200.000	0.025	0.157
-476.303	-152.470	0.151	0.011
-475.289	-200.000	-0.044	0.263
-474.274	-118.667	0.288	-0.051
-473.259	-200.000	0.025	-0.464
-472.245	-22.765	0.346	0.208
-471.230	-200.000	-0.026	-0.279
-470.216	-128.270	-0.139	0.020
-469.201	469.528	0.163	0.365
-468.186	-64.958	-0.240	-0.097
-467.172	-200.000	-0.007	0.677
-466.157	-105.743	-0.063	-0.014
-465.143	-200.000	0.011	-0.131
-464.128	-49.208	0.240	0.114
-463.113	-96.062	-0.144	-0.038
-462.099	800.000	-0.084	0.310
-461.084	-13.585	0.162	-0.105
-460.070	90.535	-0.302	-0.336
-459.055	159.359	-0.183	0.254
-458.040	553.950	0.136	-0.326
-457.026	-106.762	0.386	0.085
-456.011	48.332	-0.233	0.217
-454.997	92.860	-0.118	-0.133
-453.982	63.293	-0.164	-0.163
-452.968	87.128	0.104	-0.115
-451.953	-84.981	0.139	-0.043
-450.938	653.592	-0.136	-0.346
-449.924	-67.953	-0.241	-0.094
-448.909	-44.198	-0.165	-0.082
-447.895	39.992	-0.330	-0.295
-446.880	59.093	-0.110	0.107
-445.865	83.129	-0.120	0.130
-444.851	-20.120	0.059	-0.036
-443.836	-61.687	0.163	-0.068
-442.822	-44.758	0.362	-0.180
-441.807	-83.496	-0.132	-0.042
-440.792	454.914	0.051	-0.113
-439.778	-200.000	-0.027	0.310
-438.763	185.266	0.044	0.065
-437.749	191.522	0.081	-0.121
-436.734	-200.000	-0.003	0.200
-435.719	-25.435	-0.084	-0.049
-434.705	-84.873	-0.072	-0.023
-433.690	-200.000	-0.042	0.217
-432.676	-132.818	0.201	0.026
-431.661	-97.596	0.252	-0.065
-430.646	800.000	0.019	-0.074
-429.632	-29.308	-0.220	-0.125
-428.617	-126.817	-0.398	-0.058
-427.603	800.000	-0.050	0.140
-426.588	-124.229	0.237	0.037
-425.573	187.022	0.320	0.474
-424.559	-37.868	-0.121	0.064
-423.544	179.047	0.223	0.324
-422.530	-28.325	0.078	-0.045
-421.515	39.658	-0.270	-0.241
-420.500	73.583	-0.100	-0.104
-419.486	-77.769	0.144	0.050
-418.471	-200.000	-0.012	0.178
-417.457	800.000	-0.096	0.273
-416.442	446.304	-0.075	0.164
-415.428	204.313	0.092	0.142
-414.413	494.443	-0.040	-0.090
-413.398	-134.020	0.237	-0.029
-412.384	-200.000	0.036	0.204
-411.369	-200.000	0.004	0.152
-410.355	-200.000	-0.034	-0.375
-409.340	-56.887	0.338	-0.148
-408.325	-200.000	0.036	0.000
-407.311	307.785	-0.089	-0.165
-406.296	-71.486	0.084	0.031
-405.282	-200.000	-0.028	0.254
-404.267	-89.486	-0.292	-0.085
-403.252	-200.000	-0.010	-0.123
-402.238	-200.000	-0.030	0.227
-401.223	157.049	0.096	0.132
-400.209	-97.677	0.075	0.019
-399.194	345.902	-0.070	-0.137
-398.179	-63.586	-0.185	-0.075
-397.165	-200.000	-0.037	0.179
-396.150	28.452	-0.216	-0.181
-395.136	8.970	-0.242	0.181
-394.121	96.362	-0.187	0.212
-393.106	133.316	0.182	0.233
-392.092	-3.465	0.071	-0.049
-391.077	-130.379	-0.185	0.025
-390.063	139.148	-0.098	-0.128
-389.048	-200.000	-0.016	-0.217
-388.033	-87.851	-0.391	0.117
-387.019	800.000	0.093	0.300
-386.004	29.197	-0.165	0.139
-384.990	539.339	-0.097	0.230
-383.975	-59.614	-0.388	0.165
-382.960	-200.000	-0.025	-0.265
-381.946	-72.836	-0.379	-0.138
-380.931	-88.767	0.177	0.052
-379.917	-64.183	-0.081	0.033
-378.902	367.414	-0.033	-0.066
-377.888	165.977	-0.199	0.279
-376.873	319.905	-0.047	0.089
-375.858	-65.230	-0.256	-0.102
-374.844	-200.000	0.050	-0.381
-373.829	426.382	0.132	-0.281
-372.815	5.734	0.167	-0.122
-371.800	800.000	0.068	0.233
-370.785	-41.683	0.241	0.122
-369.771	800.000	0.023	0.077
-368.756	190.523	-0.049	-0.073
-367.742	-66.654	0.086	0.034
-366.727	423.087	-0.051	0.109
-365.712	800.000	-0.044	0.171
-364.698	58.347	-0.224	0.217
-363.683	447.712	-0.068	0.148
-362.669	535.024	0.072	-0.170
-361.654	-175.538	0.370	-0.010
-360.639	11.340	-0.174	-0.132
-359.625	-200.000	0.004	0.216
-358.610	-200.000	0.034	0.175
-357.596	800.000	0.044	-0.162
-356.581	216.097	-0.177	0.279
-355.566	584.657	0.063	0.152
-354.552	-17.801	-0.081	-0.051
-353.537	79.394	-0.136	-0.145
-352.523	640.770	0.092	-0.232
-351.508	-104.549	-0.120	-0.027
-350.493	-34.074	0.129	-0.070
-349.479	-45.988	0.249	-0.122
-348.464	-200.000	0.027	-0.174
-347.450	34.074	0.156	0.135
-346.435	209.564	-0.143	-0.222
-345.420	128.833	0.296	0.373
-344.406	58.928	0.200	-0.194
-343.391	-200.000	0.006	0.266
-342.377	35.451	-0.163	-0.142
-341.362	-200.000	0.003	-0.089
-340.348	91.918	-0.168	0.187
-339.333	800.000	0.030	-0.084
-338.318	-35.030	-0.113	-0.061
-337.304	-114.069	0.118	-0.023
-336.289	-82.579	-0.124	-0.040
-335.275	97.098	-0.223	-0.253
-334.260	-94.674	0.207	-0.056
-333.245	724.937	0.056	0.147
-332.231	-78.332	-0.100	-0.034
-331.216	-163.440	0.331	-0.016
-330.202	-86.913	0.456	0.138
-329.187	182.272	0.093	-0.136
-328.172	51.695	0.444	-0.417
-327.158	390.424	0.234	0.480
-326.143	81.937	-0.233	-0.250
-325.129	183.424	0.097	-0.142
-324.114	-67.792	0.306	0.118
-323.099	-59.165	0.279	-0.119
-322.085	-61.864	-0.443	-0.183
-321.070	54.320	-0.184	0.175
-320.056	-40.225	0.167	-0.086
-319.041	-200.000	0.002	-0.014
-318.026	415.380	-0.087	0.184
-317.012	183.558	0.136	0.198
-315.997	-200.000	0.021	-0.106
-314.983	-200.000	-0.049	-0.368
-313.968	204.130	-0.051	-0.077
-312.953	143.618	-0.158	0.208
-311.939	150.238	-0.234	0.313
-310.924	75.212	-0.146	0.152
-309.910	800.000	0.030	-0.116
-308.895	-30.060	0.300	-0.169
-307.880	-200.000	0.327	0.000
-306.866	-200.000	0.024	0.320
-305.851	-114.646	-0.223	0.042
-304.837	356.206	0.152	0.298
-303.822	-18.040	-0.168	-0.104
-302.807	64.780	0.089	0.088
-301.793	-200.000	0.020	-0.114
-300.778	109.461	-0.334	-0.395
-299.764	513.074	-0.059	-0.136
-298.749	-200.000	0.030	0.238
-297.735	-77.792	-0.134	0.046
-296.720	-200.000	0.025	0.116
-295.705	-6.950	-0.139	-0.093
-294.691	-148.071	-0.040	0.003
-293.676	140.517	-0.114	0.148
-292.662	-7.141	0.365	0.244
-291.647	-159.059	-0.416	0.023
-290.632	67.306	-0.072	0.072
-289.618	-200.000	0.001	-0.058
-288.603	-115.201	-0.263	0.049
-287.589	764.210	-0.159	0.427
-286.574	800.000	0.041	0.116
-285.559	-68.352	-0.220	-0.084
-284.545	-190.116	-0.054	0.001
-283.530	341.525	0.049	-0.095
-282.516	-200.000	-0.000	-0.283
-281.501	185.051	0.256	0.375
-280.486	28.044	-0.081	-0.068
-279.472	-200.000	-0.013	0.092
-278.457	800.000	-0.053	0.146
-277.443	-21.008	0.249	0.151
-276.428	-1.649	-0.118	-0.082
-275.413	80.842	-0.204	0.217
-274.399	169.611	-0.231	-0.326
-273.384	800.000	0.064	-0.176
-272.370	77.289	-0.197	-0.207
-271.355	-200.000	0.016	-0.087
-270.340	-115.429	0.205	-0.038
-269.326	347.451	-0.103	0.200
-268.311	246.705	0.089	0.148
-267.297	128.415	-0.180	0.226
-266.282	108.975	-0.126	-0.149
-265.267	-129.641	0.364	-0.050
-264.253	776.769	-0.027	-0.073
-263.238	316.695	-0.260	-0.485
-262.224	-93.072	0.290	-0.080
-261.209	-200.000	0.052	0.307
-260.195	-27.554	-0.155	0.089
-259.180	800.000	-0.041	0.160
-258.165	41.518	-0.107	-0.096
-257.151	221.152	-0.029	-0.046
-256.136	-4.360	-0.167	-0.114
-255.122	412.072	-0.043	-0.089
-254.107	-121.452	0.243	-0.040
-253.092	-156.323	0.166	-0.010
-252.078	-118.576	-0.166	0.029
-251.063	248.439	-0.063	-0.106
-250.049	-77.988	0.439	0.149
-249.034	-200.000	0.035	-0.153
-248.019	155.572	0.097	-0.132
-247.005	296.565	0.095	0.173
-245.990	-178.681	-0.092	0.002
-244.976	-23.232	0.239	0.142
-243.961	-200.000	-0.050	0.276
-242.946	-51.099	0.112	-0.052
-241.932	-123.966	0.299	0.046
-240.917	382.760	-0.121	0.246
-239.903	-75.590	-0.150	-0.053
-238.888	290.062	0.098	0.176
-237.873	-56.784	0.099	-0.043
-236.859	6.118	-0.109	-0.080
-235.844	-98.285	0.300	-0.076
-234.830	-11.799	-0.344	-0.222
-233.815	-164.540	0.143	-0.006
-232.800	-60.849	-0.309	-0.129
-231.786	-137.190	0.411	-0.046
-230.771	-68.292	0.194	-0.074
-229.757	-35.361	-0.261	0.140
-228.742	-65.904	-0.176	-0.069
-227.727	139.495	0.064	-0.082
-226.713	80.343	0.117	0.124
-225.698	-200.000	0.015	0.084
-224.684	800.000	0.052	0.212
-223.669	-104.886	-0.119	0.027
-222.655	-200.000	0.038	-0.254
-221.640	-200.000	0.001	-0.028
-220.625	-48.854	0.140	0.066
-219.611	-179.528	0.172	-0.004
-218.596	-200.000	0.045	0.214
-217.582	-11.600	0.034	-0.022
-216.567	4.087	0.131	0.094
-215.552	-200.000	-0.002	-0.143
-214.538	-99.402	0.069	0.017
-213.523	-115.262	-0.227	0.042
-212.509	-160.654	-0.286	0.015
-211.494	-76.810	-0.188	-0.065
-210.479	-65.191	-0.219	0.087
-209.465	39.023	0.236	-0.208
-208.450	-139.313	0.147	0.016
-207.436	800.000	0.051	0.160
-206.421	800.000	0.067	0.186
-205.406	-83.267	0.319	0.101
-204.392	-27.306	0.093	-0.054
-203.377	187.893	-0.064	-0.095
-202.363	-200.000	0.013	0.153
-201.348	-200.000	-0.057	-0.301
-200.333	191.701	0.170	-0.253
-199.319	455.633	-0.075	0.164
-198.304	-200.000	-0.005	-0.189
-197.290	-137.925	0.202	0.022
-196.275	-200.000	0.050	-0.223
-195.260	457.715	0.066	-0.144
-194.246	-78.377	-0.191	0.064
-193.231	-121.339	0.225	-0.037
-192.217	-10.259	-0.191	0.124
-191.202	89.393	-0.215	0.236
-190.187	53.219	0.320	-0.301
-189.173	698.969	0.061	-0.157
-188.158	10.464	0.217	-0.163
-187.144	-181.579	0.039	0.001
-186.129	-111.592	-0.195	0.039
-185.114	800.000	0.015	-0.050
-184.100	800.000	0.077	-0.214
-183.085	114.943	0.077	0.093
-182.071	506.741	0.150	0.342
-181.056	-200.000	-0.232	0.000
-180.042	-108.014	0.089	0.019
-179.027	137.196	0.251	0.323
-178.012	-200.000	-0.012	0.213
-176.998	-35.674	-0.232	-0.124
-175.983	208.974	0.068	-0.104
-174.969	93.702	-0.092	0.103
-173.954	422.919	0.095	-0.201
-172.939	-200.000	0.006	0.034
-171.925	-26.438	-0.033	0.019
-170.910	249.561	-0.179	0.298
-169.896	78.558	-0.196	0.206
-168.881	-16.945	-0.199	-0.123
-167.866	-100.668	0.113	-0.027
-166.852	-102.776	-0.087	0.020
-165.837	-200.000	0.012	-0.415
-164.823	-5.613	0.100	-0.067
-163.808	6.919	-0.392	0.287
-162.793	-146.330	0.193	-0.017
-161.779	-96.289	0.088	0.023
-160.764	-115.432	-0.187	0.035
-159.750	-152.183	0.308	0.022
-158.735	-40.467	-0.249	-0.127
-157.720	524.357	-0.090	-0.209
-156.706	140.114	0.168	0.218
-155.691	33.680	0.179	-0.153
-154.677	-152.169	0.525	0.037
-153.662	-47.219	-0.117	-0.056
-152.647	529.618	0.036	0.085
-151.633	-200.000	-0.031	-0.329
-150.618	267.484	0.066	0.113
-149.604	-113.653	0.131	0.025
-148.589	-8.787	-0.239	0.158
-147.574	445.206	-0.077	0.165
-146.560	17.643	-0.315	-0.246
-145.545	-75.698	-0.224	-0.078
-144.531	-20.474	0.328	-0.198
-143.516	-200.000	0.018	-0.106
-142.502	10.504	-0.223	0.167
-141.487	-200.000	0.002	-0.163
-140.472	184.961	0.182	0.266
-139.458	191.239	0.091	-0.134
-138.443	-88.587	-0.373	0.109
-137.429	112.830	0.065	0.077
-136.414	83.014	0.160	0.171
-135.399	-48.310	0.128	-0.060
-134.385	58.479	0.160	-0.155
-133.370	800.000	0.067	-0.194
-132.356	-151.888	0.180	0.013
-131.341	-49.602	-0.280	-0.131
-130.326	-200.000	-0.016	0.191
-129.312	350.208	-0.069	0.134
-128.297	141.477	0.057	0.074
-127.283	311.199	-0.236	-0.435
-126.268	-108.141	-0.087	0.018
-125.253	-105.156	0.164	-0.037
-124.239	-151.763	-0.158	0.011
-123.224	207.826	-0.071	0.109
-122.210	800.000	-0.088	0.286
