DTS Sentinel unit serial number:	SN413079Multiplexer serial number:	ORYXHardware model number:	OX4-SRSoftware version number:	ORYX F/W v4.00 Oryx Data Collector v3.7.2.0data status	okinstallation	princeton_trtdifferential loss correction	single-endedforward channel	channel 2reverse channel	N/Adate	2019/09/11time	05:53:11forward acquisition time	60.00reverse acquisition time	0.00gamma	496.2192k internal	0.2330k external	0.2330temperature offset calibration	0.9937default loss term (dB/km)	0.3790temperature slope calibration	1.0000multiplexer offset coefficient	1.0000multiplexer slope coefficient	1.0000fibre end	0.00T internal ref (°C)	29.42T ext. ref 1 (°C)	-0.21T ext. ref 2 (°C)	23.44length (m)	temperature (°C)	Stokes	anti-Stokes-747.200	-200.000	-0.004	-0.264
-746.185	-200.000	-0.009	-0.068
-745.171	9.392	0.207	0.158
-744.156	-151.008	0.081	0.006
-743.142	-12.819	-0.183	0.120
-742.127	800.000	-0.078	0.287
-741.112	800.000	0.053	-0.170
-740.098	208.128	-0.079	-0.124
-739.083	-200.000	-0.007	0.233
-738.069	-200.000	0.049	0.316
-737.054	800.000	0.029	-0.093
-736.039	-200.000	0.044	-0.327
-735.025	-14.255	0.021	0.014
-734.010	-32.871	0.192	-0.107
-732.996	-200.000	-0.030	-0.138
-731.981	179.808	-0.040	-0.059
-730.966	147.111	0.057	-0.077
-729.952	-108.260	-0.253	0.055
-728.937	-22.491	0.109	0.067
-727.923	-85.819	-0.252	0.079
-726.908	601.458	-0.201	0.502
-725.894	686.604	-0.037	0.098
-724.879	97.232	0.072	0.084
-723.864	-0.867	0.235	-0.168
-722.850	-200.000	-0.007	-0.031
-721.835	-200.000	0.019	-0.162
-720.821	-98.242	-0.123	0.032
-719.806	-116.287	-0.364	-0.068
-718.791	76.094	-0.116	-0.123
-717.777	-64.807	-0.220	-0.089
-716.762	101.689	0.154	-0.181
-715.748	118.196	0.144	0.179
-714.733	-4.523	-0.449	-0.312
-713.718	-115.689	-0.138	-0.026
-712.704	-73.380	-0.147	-0.054
-711.689	48.616	0.135	-0.127
-710.675	1.369	-0.329	-0.238
-709.660	99.803	-0.259	0.302
-708.645	82.605	0.067	-0.073
-707.631	-200.000	0.014	-0.466
-706.616	-79.192	-0.175	-0.060
-705.602	-95.883	-0.200	0.053
-704.587	-200.000	0.033	-0.325
-703.572	82.162	-0.067	-0.073
-702.558	-64.574	-0.212	-0.087
-701.543	78.915	-0.038	0.040
-700.529	800.000	-0.028	-0.111
-699.514	151.635	-0.048	0.066
-698.499	-200.000	-0.043	-0.232
-697.485	-161.885	-0.579	0.029
-696.470	125.071	0.188	-0.238
-695.456	60.073	0.108	0.107
-694.441	-42.576	0.326	-0.167
-693.426	-17.879	-0.260	-0.164
-692.412	207.258	-0.181	0.284
-691.397	-200.000	0.013	0.117
-690.383	71.186	-0.185	-0.193
-689.368	196.015	-0.188	-0.287
-688.354	30.831	0.190	0.163
-687.339	-200.000	-0.020	-0.137
-686.324	173.689	-0.105	0.152
-685.310	-90.692	-0.131	-0.038
-684.295	-119.328	-0.128	0.022
-683.281	271.749	0.040	-0.071
-682.266	-200.000	0.011	0.059
-681.251	-98.361	0.346	0.089
-680.237	-53.007	0.100	0.046
-679.222	-97.656	0.262	0.068
-678.208	-200.000	-0.007	-0.043
-677.193	597.825	0.120	-0.300
-676.178	-200.000	0.004	0.025
-675.164	55.894	-0.169	0.165
-674.149	-200.000	0.016	0.136
-673.135	78.602	-0.270	-0.290
-672.120	-99.264	0.243	-0.062
-671.105	-88.978	-0.335	-0.100
-670.091	-200.000	0.004	-0.019
-669.076	-200.000	0.014	-0.113
-668.062	-55.817	-0.266	-0.119
-667.047	-97.297	-0.229	0.060
-666.032	800.000	-0.036	-0.101
-665.018	123.865	-0.167	-0.211
-664.003	66.135	-0.129	-0.132
-662.989	-181.016	-0.086	0.002
-661.974	800.000	-0.100	0.290
-660.959	-72.713	0.433	-0.160
-659.945	-55.288	-0.323	-0.146
-658.930	-118.238	0.211	0.038
-657.916	3.624	0.187	-0.137
-656.901	-2.404	0.035	-0.024
-655.886	-200.000	0.002	-0.317
-654.872	-200.000	0.015	-0.205
-653.857	188.657	-0.147	0.220
-652.843	-25.442	0.129	0.076
-651.828	-89.169	-0.306	0.091
-650.814	-56.841	-0.225	0.100
-649.799	63.204	0.155	-0.155
-648.784	800.000	-0.073	0.260
-647.770	176.788	-0.104	0.151
-646.755	-116.783	-0.206	-0.038
-645.741	254.631	0.147	-0.252
-644.726	1.274	-0.252	-0.182
-643.711	34.921	0.202	-0.177
-642.697	-188.250	0.085	-0.001
-641.682	-8.382	0.318	0.215
-640.668	800.000	-0.116	0.376
-639.653	110.336	-0.230	-0.277
-638.638	-33.109	0.132	0.074
-637.624	-116.994	0.315	0.058
-636.609	-85.032	-0.157	-0.049
-635.595	503.344	0.052	0.120
-634.580	-117.477	0.108	-0.020
-633.565	-4.284	0.130	0.090
-632.551	127.291	-0.104	-0.133
-631.536	-39.584	-0.130	0.068
-630.522	-89.327	0.120	0.036
-629.507	-200.000	-0.004	-0.125
-628.492	127.291	0.086	0.109
-627.478	-27.057	0.387	-0.226
-626.463	800.000	0.065	-0.199
-625.449	15.717	0.200	-0.157
-624.434	-200.000	0.058	-0.367
-623.419	224.097	-0.283	-0.458
-622.405	800.000	0.103	-0.393
-621.390	-100.807	-0.149	0.037
-620.376	-35.997	0.119	-0.064
-619.361	75.893	0.103	0.110
-618.346	23.732	-0.206	-0.170
-617.332	4.782	-0.494	-0.364
-616.317	-76.399	0.246	0.087
-615.303	87.950	-0.148	0.164
-614.288	-200.000	-0.041	0.222
-613.273	-200.000	0.004	0.433
-612.259	92.150	-0.163	-0.183
-611.244	165.777	0.129	-0.182
-610.230	-21.875	-0.259	0.158
-609.215	610.487	-0.088	-0.221
-608.201	-12.211	-0.126	0.082
-607.186	18.023	0.192	0.154
-606.171	8.470	0.302	-0.227
-605.157	-105.752	-0.204	-0.046
-604.142	-200.000	-0.005	-0.125
-603.128	-68.106	-0.130	0.051
-602.113	-77.557	-0.264	-0.092
-601.098	348.287	-0.016	0.031
-600.084	682.882	-0.159	0.416
-599.069	57.551	0.093	0.091
-598.055	372.539	-0.101	-0.206
-597.040	-101.203	0.255	-0.062
-596.025	-167.947	0.360	-0.014
-595.011	-200.000	-0.023	-0.263
-593.996	800.000	-0.080	0.289
-592.982	-133.005	-0.371	0.047
-591.967	-57.746	0.054	-0.024
-590.952	585.857	0.071	0.174
-589.938	14.607	0.124	-0.097
-588.923	-0.336	-0.321	-0.229
-587.909	-16.083	-0.112	0.071
-586.894	-200.000	0.026	-0.287
-585.879	194.509	-0.052	-0.078
-584.865	-106.867	0.102	-0.023
-583.850	-200.000	0.038	-0.338
-582.836	115.984	0.120	0.147
-581.821	-200.000	0.057	-0.260
-580.806	-200.000	0.008	0.223
-579.792	-81.521	-0.038	0.013
-578.777	-98.042	0.225	0.058
-577.763	-35.583	-0.102	-0.056
-576.748	237.089	0.099	0.164
-575.733	800.000	0.021	0.064
-574.719	105.975	-0.127	0.150
-573.704	-72.796	-0.305	-0.112
-572.690	-200.000	0.024	0.266
-571.675	-4.633	-0.274	0.189
-570.661	240.282	-0.086	0.143
-569.646	281.182	-0.039	-0.069
-568.631	800.000	-0.073	0.249
-567.617	-144.737	-0.217	0.020
-566.602	229.060	-0.066	0.107
-565.588	-200.000	0.007	-0.200
-564.573	106.454	-0.173	-0.205
-563.558	-87.037	-0.291	-0.089
-562.544	-200.000	-0.021	0.126
-561.529	133.032	-0.135	-0.174
-560.515	-6.361	-0.223	0.152
-559.500	-139.750	-0.304	0.032
-558.485	5.402	-0.380	0.280
-557.471	-200.000	0.021	0.326
-556.456	-174.567	-0.133	-0.004
-555.442	-141.663	0.327	0.033
-554.427	16.469	0.169	-0.133
-553.412	-130.427	-0.134	-0.018
-552.398	800.000	0.120	0.428
-551.383	514.017	0.120	0.279
-550.369	557.590	-0.013	0.031
-549.354	-200.000	-0.046	-0.262
-548.339	-88.873	-0.374	0.111
-547.325	355.896	-0.143	0.284
-546.310	-200.000	-0.310	0.001
-545.296	-64.404	0.132	-0.054
-544.281	228.987	0.119	-0.193
-543.266	-147.578	-0.093	0.008
-542.252	8.514	0.324	0.243
-541.237	800.000	-0.052	-0.220
-540.223	-200.000	-0.012	0.085
-539.208	-164.309	0.342	0.016
-538.193	748.253	-0.023	-0.062
-537.179	69.396	-0.149	0.154
-536.164	326.477	0.130	0.249
-535.150	713.929	0.087	0.230
-534.135	227.584	0.270	0.438
-533.121	-38.005	-0.408	-0.216
-532.106	195.210	-0.238	-0.361
-531.091	800.000	-0.089	-0.265
-530.077	584.946	0.056	0.138
-529.062	-200.000	-0.108	0.000
-528.048	-95.344	0.171	-0.046
-527.033	254.606	0.095	0.162
-526.018	-18.468	-0.211	0.132
-525.004	-68.116	-0.167	0.065
-523.989	-200.000	-0.028	0.212
-522.975	800.000	-0.052	-0.205
-521.960	12.455	0.195	-0.150
-520.945	-200.000	-0.020	-0.134
-519.931	-139.881	0.048	0.005
-518.916	-73.894	-0.267	0.097
-517.902	800.000	-0.090	-0.320
-516.887	1.367	0.463	0.332
-515.872	185.221	0.196	-0.291
-514.858	-66.216	0.232	0.092
-513.843	443.113	-0.050	0.110
-512.829	-200.000	-0.030	0.345
-511.814	114.427	0.162	-0.196
-510.799	726.739	-0.055	0.145
-509.785	-26.753	-0.171	0.100
-508.770	-124.610	-0.254	-0.039
-507.756	-30.417	-0.130	0.074
-506.741	-143.244	0.077	0.007
-505.726	-57.697	0.064	-0.028
-504.712	121.279	-0.055	0.068
-503.697	-118.757	0.185	0.033
-502.683	130.676	-0.224	0.286
-501.668	-200.000	-0.017	0.207
-500.653	-129.711	0.201	0.028
-499.639	47.459	0.077	0.072
-498.624	-200.000	-0.051	-0.302
-497.610	303.074	-0.059	0.109
-496.595	-29.038	0.231	-0.132
-495.581	82.727	-0.293	-0.318
-494.566	-11.770	0.457	-0.299
-493.551	144.432	-0.173	-0.231
-492.537	-13.933	0.262	0.169
-491.522	-200.000	0.010	0.122
-490.508	196.691	0.049	-0.075
-489.493	-200.000	-0.013	-0.063
-488.478	-112.238	0.092	0.018
-487.464	-51.707	-0.089	0.041
-486.449	-149.797	0.060	0.005
-485.435	8.628	0.082	-0.062
-484.420	248.530	0.111	-0.188
-483.405	53.015	0.271	-0.259
-482.391	55.127	0.133	0.128
-481.376	31.315	-0.152	0.130
-480.362	-133.832	0.069	0.009
-479.347	800.000	0.047	-0.133
-478.332	140.873	-0.152	-0.201
-477.318	-18.042	-0.096	-0.060
-476.303	-38.144	-0.436	0.231
-475.289	-100.532	0.260	0.064
-474.274	-107.982	-0.112	0.024
-473.259	-200.000	0.030	-0.298
-472.245	387.433	-0.080	-0.166
-471.230	17.401	0.076	0.060
-470.216	800.000	0.059	-0.257
-469.201	-200.000	0.007	0.247
-468.186	-200.000	0.022	0.103
-467.172	-4.859	-0.124	0.085
-466.157	449.934	-0.094	0.206
-465.143	-91.691	0.088	0.025
-464.128	89.122	-0.294	0.326
-463.113	-96.973	0.434	0.113
-462.099	-3.146	-0.254	0.176
-461.084	-98.489	0.090	-0.023
-460.070	-81.698	-0.394	-0.129
-459.055	237.038	0.189	-0.312
-458.040	-48.189	0.357	0.172
-457.026	74.679	-0.079	0.083
-456.011	-82.223	0.191	-0.062
-454.997	-200.000	-0.019	-0.195
-453.982	-151.779	-0.109	0.008
-452.968	2.358	0.143	-0.103
-451.953	21.764	0.055	-0.045
-450.938	-200.000	0.045	-0.264
-449.924	217.947	0.086	0.136
-448.909	560.348	-0.099	0.237
-447.895	-157.616	-0.300	-0.018
-446.880	22.261	0.094	-0.076
-445.865	-102.461	0.337	0.080
-444.851	-11.987	0.344	0.225
-443.836	-26.735	-0.197	-0.115
-442.822	-78.733	-0.204	0.069
-441.807	-200.000	-0.572	0.002
-440.792	-200.000	0.036	-0.223
-439.778	800.000	0.031	0.109
-438.763	-33.237	-0.357	-0.197
-437.749	152.002	-0.082	0.112
-436.734	-101.172	-0.106	-0.026
-435.719	52.927	-0.306	0.292
-434.705	44.094	-0.163	0.149
-433.690	716.443	-0.055	-0.146
-432.676	-137.924	0.083	0.009
-431.661	-37.986	0.193	0.102
-430.646	-148.006	0.051	0.004
-429.632	481.395	-0.229	0.516
-428.617	-29.723	0.222	-0.126
-427.603	51.248	0.109	-0.103
-426.588	-1.356	-0.215	0.151
-425.573	116.877	-0.190	-0.233
-424.559	-158.911	0.046	0.003
-423.544	-138.001	0.173	-0.019
-422.530	-30.485	-0.187	0.105
-421.515	-126.028	0.238	-0.035
-420.500	-133.828	0.133	-0.016
-419.486	-107.934	0.241	0.052
-418.471	-17.606	-0.150	-0.094
-417.457	-153.511	0.190	-0.013
-416.442	800.000	-0.086	-0.298
-415.428	-176.838	0.181	0.005
-414.413	503.606	-0.229	-0.526
-413.398	-200.000	-0.088	0.590
-412.384	-200.000	0.082	0.365
-411.369	27.312	-0.006	-0.005
-410.355	-109.478	-0.036	0.007
-409.340	-47.701	-0.025	0.012
-408.325	-115.672	0.375	0.070
-407.311	153.264	-0.153	0.207
-406.296	107.736	-0.106	-0.126
-405.282	-200.000	-0.003	-0.381
-404.267	-65.559	0.316	0.126
-403.252	-107.487	0.302	-0.066
-402.238	-72.656	-0.302	0.111
-401.223	-200.000	0.030	-0.164
-400.209	-135.539	0.292	-0.034
-399.194	0.071	0.236	0.167
-398.179	-135.032	0.341	0.041
-397.165	-200.000	-0.021	-0.270
-396.150	-28.784	0.252	0.144
-395.136	15.281	-0.133	0.104
-394.121	-118.528	0.351	-0.062
-393.106	404.345	0.085	0.177
-392.092	-30.244	-0.252	0.142
-391.077	-114.363	0.384	-0.073
-390.063	-148.392	-0.436	0.036
-389.048	480.273	0.038	-0.085
-388.033	-18.102	-0.243	0.151
-387.019	118.548	0.131	0.161
-386.004	113.236	-0.089	0.107
-384.990	-61.653	-0.116	0.048
-383.975	197.723	0.140	-0.213
-382.960	-86.987	0.046	-0.014
-381.946	-52.630	-0.211	0.097
-380.931	-124.024	-0.211	0.033
-379.917	165.519	-0.105	-0.148
-378.902	-122.901	-0.108	0.017
-377.888	-96.331	0.124	0.033
-376.873	72.303	-0.160	-0.165
-375.858	401.907	-0.037	-0.078
-374.844	-63.794	-0.186	-0.076
-373.829	87.125	0.149	-0.164
-372.815	-72.798	0.383	-0.140
-371.800	800.000	0.045	-0.195
-370.785	-155.950	0.088	-0.006
-369.771	-47.395	-0.244	-0.118
-368.756	-117.746	-0.434	0.077
-367.742	-200.000	-0.003	0.024
-366.727	87.210	0.056	-0.062
-365.712	-179.739	-0.391	-0.008
-364.698	-22.484	-0.135	-0.081
-363.683	-106.804	0.013	-0.003
-362.669	-129.096	0.157	0.022
-361.654	-91.795	0.117	0.033
-360.639	-200.000	0.006	0.100
-359.625	-200.000	-0.043	0.344
-358.610	-99.397	-0.301	0.075
-357.596	-93.901	-0.313	0.085
-356.581	-124.420	-0.347	-0.054
-355.566	273.770	-0.113	0.198
-354.552	-73.135	-0.153	-0.056
-353.537	-200.000	-0.026	-0.330
-352.523	60.024	0.054	-0.053
-351.508	-141.883	-0.428	0.042
-350.493	33.261	-0.069	-0.060
-349.479	47.458	-0.163	-0.151
-348.464	-50.493	-0.101	0.047
-347.450	-9.419	-0.159	-0.106
-346.435	167.411	0.146	-0.205
-345.420	800.000	-0.051	-0.156
-344.406	-106.635	0.306	0.068
-343.391	120.245	-0.052	0.064
-342.377	255.172	-0.078	-0.133
-341.362	800.000	-0.134	0.404
-340.348	-120.762	-0.155	-0.026
-339.333	-150.699	-0.013	-0.001
-338.318	-146.422	-0.131	0.011
-337.304	310.020	-0.078	0.145
-336.289	-200.000	0.028	-0.129
-335.275	-75.932	0.152	0.053
-334.260	-53.681	0.288	-0.130
-333.245	-10.100	0.261	-0.172
-332.231	-145.083	-0.080	0.007
-331.216	800.000	-0.044	0.187
-330.202	-200.000	0.025	0.266
-329.187	4.786	0.095	0.069
-328.172	-40.401	0.174	0.090
-327.158	71.186	0.149	0.153
-326.143	-141.047	-0.128	-0.013
-325.129	217.407	0.135	0.213
-324.114	-91.947	-0.197	0.055
-323.099	-22.062	0.203	-0.122
-322.085	-9.209	0.114	-0.075
-321.070	-200.000	0.031	0.332
-320.056	-169.106	-0.307	-0.011
-319.041	206.615	0.117	0.180
-318.026	-200.000	0.038	0.252
-317.012	-142.980	0.214	-0.021
-315.997	-153.431	0.359	-0.025
-314.983	-200.000	-0.004	0.095
-313.968	-76.150	0.200	-0.070
-312.953	-4.859	0.175	-0.119
-311.939	-171.014	-0.217	-0.007
-310.924	71.673	0.173	0.178
-309.910	-200.000	0.057	0.335
-308.895	-112.472	-0.259	0.051
-307.880	-96.826	0.231	-0.060
-306.866	193.901	0.147	0.220
-305.851	-200.000	-0.053	-0.275
-304.837	533.077	-0.023	0.053
-303.822	-4.242	-0.142	-0.097
-302.807	-200.000	0.051	-0.248
-301.793	-69.734	0.198	0.075
-300.778	-100.556	0.446	-0.109
-299.764	-101.997	-0.176	-0.042
-298.749	-57.985	-0.378	-0.164
-297.735	357.686	0.208	-0.411
-296.720	-200.000	0.008	-0.061
-295.705	800.000	0.102	0.401
-294.691	800.000	0.020	0.083
-293.676	-65.880	0.186	0.074
-292.662	-200.000	0.044	-0.237
-291.647	-35.460	0.137	0.073
-290.632	78.387	0.048	0.051
-289.618	135.305	-0.078	0.101
-288.603	-73.171	-0.128	-0.047
-287.589	-97.963	0.236	-0.060
-286.574	219.662	-0.124	0.197
-285.559	0.011	-0.125	-0.088
-284.545	37.953	0.152	-0.133
-283.530	-103.048	-0.253	0.059
-282.516	340.974	0.155	0.299
-281.501	-168.381	0.112	0.004
-280.486	5.505	0.132	-0.096
-279.472	44.311	0.242	0.220
-278.457	-80.781	0.164	-0.054
-277.443	800.000	0.056	0.242
-276.428	121.584	0.088	0.109
-275.413	-168.268	0.172	-0.007
-274.399	-200.000	0.040	-0.227
-273.384	800.000	-0.041	0.157
-272.370	-200.000	-0.012	-0.057
-271.355	-5.794	-0.216	-0.146
-270.340	-97.102	-0.162	-0.042
-269.326	-49.691	0.116	-0.055
-268.311	670.467	0.095	-0.243
-267.297	313.433	0.120	-0.224
-266.282	-200.000	-0.003	0.061
-265.267	-85.752	-0.076	0.023
-264.253	-9.912	-0.082	-0.054
-263.238	-200.000	-0.007	0.072
-262.224	348.458	-0.031	-0.060
-261.209	-200.000	-0.007	-0.082
-260.195	95.078	0.030	0.034
-259.180	356.818	-0.168	-0.330
-258.165	-58.351	0.240	0.103
-257.151	-200.000	-0.022	0.251
-256.136	-94.231	-0.222	0.060
-255.122	-10.725	0.260	0.170
-254.107	58.922	-0.065	-0.063
-253.092	-200.000	0.026	-0.129
-252.078	800.000	0.135	-0.408
-251.063	67.687	-0.068	0.069
-250.049	305.503	0.150	-0.276
-249.034	102.829	-0.059	0.068
-248.019	-172.294	-0.336	-0.011
-247.005	-118.585	-0.377	-0.066
-245.990	129.005	-0.035	0.044
-244.976	100.552	-0.034	-0.039
-243.961	-200.000	0.074	0.423
-242.946	240.522	0.190	-0.313
-241.932	79.653	-0.214	0.226
-240.917	28.513	-0.029	0.025
-239.903	-107.008	-0.388	0.085
-238.888	320.968	0.138	-0.259
-237.873	-18.849	0.241	-0.148
-236.859	593.452	0.031	0.076
-235.844	460.843	-0.026	-0.056
-234.830	-200.000	0.004	0.074
-233.815	1.809	-0.081	-0.058
-232.800	-122.585	-0.211	0.034
-231.786	-71.888	0.319	0.117
-230.771	800.000	-0.066	0.217
-229.757	37.825	-0.160	0.140
-228.742	-85.388	0.260	-0.080
-227.727	45.110	-0.178	0.162
-226.713	-109.908	0.358	0.074
-225.698	-54.178	-0.128	-0.057
-224.684	689.236	-0.018	-0.048
-223.669	-121.005	0.348	0.058
-222.655	-26.648	0.433	-0.250
-221.640	-111.614	-0.473	-0.095
-220.625	-146.536	0.512	-0.044
-219.611	-200.000	-0.008	-0.158
-218.596	36.910	0.050	0.043
-217.582	70.632	-0.176	-0.180
-216.567	-72.566	0.217	0.079
-215.552	800.000	-0.162	0.497
-214.538	-145.038	-0.160	0.014
-213.523	-200.000	-0.014	-0.066
-212.509	800.000	0.028	-0.111
-211.494	-128.455	-0.158	0.022
-210.479	-118.633	0.267	0.047
-209.465	64.540	0.207	-0.206
-208.450	371.980	-0.123	0.246
-207.436	-47.841	0.171	-0.082
-206.421	-155.014	-0.234	-0.015
-205.406	-144.773	-0.086	0.008
-204.392	-86.600	-0.329	-0.100
-203.377	-126.620	0.156	0.023
-202.363	800.000	-0.078	0.276
-201.348	101.617	0.286	0.328
-200.333	800.000	-0.046	-0.154
-199.319	26.992	-0.245	0.202
-198.304	-150.950	-0.293	-0.022
-197.290	-200.000	-0.023	-0.438
-196.275	-38.663	0.149	-0.078
-195.260	81.518	0.177	-0.189
-194.246	66.810	-0.084	-0.085
-193.231	-200.000	-0.016	0.071
-192.217	32.084	0.171	-0.145
-191.202	243.553	-0.075	0.123
-190.187	-200.000	0.007	-0.130
-189.173	71.245	0.192	0.196
-188.158	-68.981	-0.133	0.051
-187.144	122.733	0.054	-0.067
-186.129	-200.000	0.001	0.247
-185.114	1.995	0.123	0.087
-184.100	0.497	0.165	0.116
-183.085	40.075	0.269	-0.239
-182.071	800.000	0.032	0.097
-181.056	800.000	0.077	0.220
-180.042	-151.795	0.065	0.005
-179.027	-200.000	-0.048	-0.445
-178.012	94.728	-0.341	0.382
-176.998	-200.000	-0.001	0.391
-175.983	-81.142	0.155	0.051
-174.969	336.542	0.110	-0.211
-173.954	-200.000	0.026	-0.310
-172.939	14.626	-0.153	0.118
-171.925	-50.775	0.053	0.024
-170.910	800.000	-0.045	-0.191
-169.896	-88.285	0.556	0.164
-168.881	-200.000	-0.030	-0.301
-167.866	64.064	0.312	-0.309
-166.852	-165.819	-0.285	0.012
-165.837	82.239	0.043	-0.046
-164.823	800.000	-0.031	-0.109
-163.808	-145.553	0.388	0.034
-162.793	32.004	-0.061	0.052
-161.779	15.217	0.174	-0.134
-160.764	91.739	0.216	-0.239
-159.750	-144.009	-0.290	0.027
-158.735	800.000	-0.059	-0.176
-157.720	511.997	0.061	-0.140
-156.706	180.157	-0.118	0.170
-155.691	-45.086	-0.175	-0.086
-154.677	23.580	0.037	-0.030
-153.662	309.018	-0.169	-0.310
-152.647	800.000	-0.008	-0.032
-151.633	-166.842	0.076	0.003
-150.618	202.741	-0.139	0.210
-149.604	800.000	-0.085	0.278
-148.589	-3.872	0.311	-0.212
-147.574	-109.635	-0.073	-0.015
-146.560	292.597	-0.104	0.187
-145.545	-200.000	-0.029	-0.287
-144.531	-109.650	0.166	0.034
-143.516	88.218	0.162	0.177
-142.502	-200.000	0.016	0.419
-141.487	-157.342	-0.124	0.007
-140.472	367.002	-0.095	-0.188
-139.458	78.035	-0.172	-0.181
-138.443	100.905	-0.111	0.127
-137.429	-127.522	-0.243	0.035
-136.414	-175.959	0.043	-0.001
-135.399	191.810	0.091	0.135
-134.385	-66.798	0.258	0.100
-133.370	159.141	0.123	0.169
-132.356	-200.000	0.021	0.157
-131.341	-85.131	0.136	-0.042
-130.326	740.919	-0.053	-0.140
-129.312	67.958	0.136	0.137
-128.297	454.457	0.059	-0.129
-127.283	4.304	0.155	-0.112
-126.268	-124.623	0.161	0.025
-125.253	-181.551	-0.285	0.005
-124.239	-200.000	-0.023	0.236
-123.224	-14.660	-0.532	0.336
-122.210	5.646	0.246	-0.179
-121.195	-200.000	-0.052	-0.235
