DTS Sentinel unit serial number:	SN413079Multiplexer serial number:	ORYXHardware model number:	OX4-SRSoftware version number:	ORYX F/W v4.00 Oryx Data Collector v3.7.2.0data status	okinstallation	princeton_trtdifferential loss correction	single-endedforward channel	channel 2reverse channel	N/Adate	2019/09/16time	05:23:35forward acquisition time	60.00reverse acquisition time	0.00gamma	496.2192k internal	0.2335k external	0.2335temperature offset calibration	0.9978default loss term (dB/km)	0.3790temperature slope calibration	1.0000multiplexer offset coefficient	1.0000multiplexer slope coefficient	1.0000fibre end	0.00T internal ref (°C)	27.25T ext. ref 1 (°C)	11.08T ext. ref 2 (°C)	22.10length (m)	temperature (°C)	Stokes	anti-Stokes-747.200	560.495	-0.150	0.364
-746.185	-150.711	0.501	0.038
-745.171	190.478	0.109	-0.164
-744.156	722.476	0.144	0.386
-743.142	800.000	0.050	0.160
-742.127	58.455	-0.319	0.315
-741.112	-142.270	-0.083	-0.008
-740.098	-54.640	-0.087	0.039
-739.083	-91.128	-0.291	0.084
-738.069	-125.672	-0.293	-0.045
-737.054	344.302	0.034	-0.067
-736.039	-200.000	0.019	-0.381
-735.025	104.213	0.266	0.314
-734.010	7.645	-0.206	0.155
-732.996	128.913	-0.066	-0.085
-731.981	-28.134	-0.314	-0.182
-730.966	-30.819	-0.310	-0.176
-729.952	143.459	-0.251	-0.335
-728.937	-99.625	0.228	0.058
-727.923	-42.549	-0.178	0.091
-726.908	-10.027	-0.234	-0.156
-725.894	800.000	-0.029	0.119
-724.879	-200.000	0.026	0.231
-723.864	-53.076	-0.217	-0.100
-722.850	800.000	0.010	0.030
-721.835	53.484	-0.204	-0.197
-720.821	112.799	-0.114	-0.139
-719.806	-119.983	0.122	0.021
-718.791	800.000	0.094	-0.391
-717.777	-34.348	-0.102	0.056
-716.762	-200.000	-0.040	0.179
-715.748	106.225	-0.140	0.166
-714.733	-15.506	0.022	-0.014
-713.718	-44.627	0.254	0.128
-712.704	-200.000	0.031	-0.224
-711.689	5.347	-0.163	-0.121
-710.675	-46.108	0.288	-0.142
-709.660	-3.075	-0.299	-0.209
-708.645	-200.000	-0.009	0.095
-707.631	409.084	-0.027	-0.058
-706.616	169.457	-0.203	-0.291
-705.602	-200.000	-0.032	-0.437
-704.587	-137.542	-0.338	0.038
-703.572	26.911	-0.032	0.027
-702.558	-24.406	0.151	-0.090
-701.543	-131.966	-0.402	-0.053
-700.529	-200.000	-0.015	-0.143
-699.514	495.193	-0.067	-0.154
-698.499	71.440	-0.051	0.053
-697.485	-10.018	0.011	-0.008
-696.470	402.192	-0.109	0.229
-695.456	218.668	-0.183	0.293
-694.441	-156.144	0.074	0.005
-693.426	-54.148	-0.091	0.042
-692.412	800.000	0.075	-0.243
-691.397	60.256	0.133	-0.131
-690.383	800.000	-0.036	0.140
-689.368	-23.957	0.281	-0.168
-688.354	434.287	-0.057	-0.125
-687.339	177.902	0.089	-0.130
-686.324	97.909	-0.078	-0.090
-685.310	89.497	-0.257	0.287
-684.295	-75.145	-0.059	-0.021
-683.281	151.251	-0.120	-0.164
-682.266	-53.822	0.148	-0.068
-681.251	-46.622	-0.172	0.084
-680.237	60.189	0.056	0.055
-679.222	71.416	-0.163	0.170
-678.208	-200.000	0.031	0.163
-677.193	-200.000	0.004	-0.102
-676.178	-90.006	0.363	0.106
-675.164	-200.000	-0.021	-0.191
-674.149	-67.684	-0.129	-0.051
-673.135	409.623	-0.017	-0.035
-672.120	-200.000	0.056	-0.369
-671.105	338.722	0.149	-0.291
-670.091	288.842	0.033	-0.059
-669.076	23.304	-0.160	0.132
-668.062	-138.196	0.227	-0.025
-667.047	-71.155	-0.170	0.064
-666.032	-200.000	0.003	0.034
-665.018	-61.317	-0.206	0.087
-664.003	-49.235	0.062	0.030
-662.989	-128.115	-0.579	-0.083
-661.974	171.418	0.191	0.274
-660.959	20.546	-0.090	-0.073
-659.945	18.776	-0.255	-0.204
-658.930	687.960	-0.121	0.318
-657.916	-71.372	0.226	0.085
-656.901	30.041	0.144	0.123
-655.886	-63.007	-0.072	0.030
-654.872	800.000	-0.094	-0.292
-653.857	30.558	0.152	0.130
-652.843	-50.641	-0.278	0.131
-651.828	10.912	0.191	0.146
-650.814	-200.000	-0.010	-0.132
-649.799	-90.493	0.411	-0.119
-648.784	-200.000	-0.051	-0.318
-647.770	-121.948	-0.235	-0.039
-646.755	-132.928	-0.283	0.036
-645.741	112.347	0.065	-0.078
-644.726	-200.000	-0.037	-0.212
-643.711	2.928	0.037	-0.027
-642.697	-144.919	-0.153	0.014
-641.682	82.582	-0.274	0.297
-640.668	-64.287	-0.279	0.114
-639.653	-86.632	-0.158	-0.048
-638.638	-200.000	0.017	-0.101
-637.624	114.257	-0.127	-0.154
-636.609	375.297	0.129	0.263
-635.595	-70.928	-0.230	0.087
-634.580	-130.043	0.263	0.036
-633.565	-42.240	-0.113	-0.058
-632.551	-200.000	-0.215	-0.001
-631.536	-83.977	-0.326	0.104
-630.522	65.719	-0.191	0.194
-629.507	-89.309	-0.123	0.036
-628.492	-67.769	-0.272	-0.107
-627.478	800.000	-0.042	0.168
-626.463	102.780	0.147	0.172
-625.449	16.226	0.178	-0.141
-624.434	800.000	0.025	-0.081
-623.419	156.257	-0.218	-0.301
-622.405	-55.851	-0.134	-0.060
-621.390	-200.000	0.043	-0.346
-620.376	-200.000	0.013	0.111
-619.361	389.921	0.037	-0.077
-618.346	367.906	0.090	0.183
-617.332	-144.516	-0.021	0.002
-616.317	-92.762	-0.257	0.072
-615.303	-50.265	-0.174	-0.082
-614.288	32.486	-0.104	0.090
-613.273	-31.892	0.194	0.109
-612.259	-200.000	0.016	-0.111
-611.244	800.000	0.089	0.260
-610.230	-71.919	-0.324	0.120
-609.215	13.320	0.200	0.155
-608.201	2.781	-0.263	-0.191
-607.186	132.086	0.090	-0.116
-606.171	247.649	0.159	-0.269
-605.157	-44.985	0.150	0.074
-604.142	-200.000	0.090	0.606
-603.128	800.000	-0.060	-0.197
-602.113	-108.130	0.066	0.014
-601.098	182.668	-0.077	0.114
-600.084	-200.000	0.025	0.453
-599.069	-200.000	0.012	0.240
-598.055	318.196	0.078	-0.148
-597.040	100.986	0.089	-0.103
-596.025	-200.000	0.049	-0.368
-595.011	27.921	-0.109	0.092
-593.996	800.000	-0.057	0.186
-592.982	171.442	-0.050	-0.071
-591.967	41.039	-0.105	-0.095
-590.952	-86.958	0.070	0.021
-589.938	105.153	-0.144	-0.170
-588.923	189.398	0.168	0.251
-587.909	44.469	0.048	0.044
-586.894	-106.242	0.078	-0.017
-585.879	27.853	-0.246	-0.207
-584.865	800.000	-0.049	-0.200
-583.850	-200.000	0.027	-0.262
-582.836	800.000	0.083	0.321
-581.821	38.484	0.128	0.114
-580.806	578.836	-0.122	-0.298
-579.792	-50.300	0.400	-0.189
-578.777	800.000	-0.077	0.269
-577.763	486.986	-0.074	0.167
-576.748	-35.597	-0.086	-0.046
-575.733	-43.206	-0.212	-0.107
-574.719	-200.000	0.015	-0.319
-573.704	-102.553	0.203	0.048
-572.690	469.432	0.127	-0.285
-571.675	-200.000	0.029	-0.159
-570.661	113.249	0.020	-0.024
-569.646	30.459	0.163	-0.139
-568.631	58.479	0.231	0.226
-567.617	-115.020	0.344	0.065
-566.602	316.617	0.020	-0.038
-565.588	-12.640	-0.167	-0.109
-564.573	800.000	0.103	0.344
-563.558	167.327	-0.172	-0.244
-562.544	174.260	-0.198	0.286
-561.529	-200.000	0.003	0.372
-560.515	-200.000	-0.025	-0.212
-559.500	-200.000	-0.030	0.341
-558.485	748.958	0.055	0.147
-557.471	628.122	-0.073	0.184
-556.456	-70.395	0.114	-0.043
-555.442	217.096	-0.133	0.212
-554.427	-107.925	-0.290	-0.063
-553.412	800.000	-0.016	-0.055
-552.398	-111.327	0.425	0.087
-551.383	581.142	0.139	-0.341
-550.369	800.000	-0.024	0.098
-549.354	102.212	0.255	0.297
-548.339	-29.242	-0.189	0.108
-547.325	30.513	0.287	0.245
-546.310	-140.940	0.314	-0.032
-545.296	7.006	0.096	0.072
-544.281	259.883	0.073	0.126
-543.266	468.388	0.109	-0.244
-542.252	800.000	0.067	-0.200
-541.237	-73.638	-0.038	0.014
-540.223	800.000	0.040	0.172
-539.208	-116.799	-0.340	-0.062
-538.193	800.000	0.016	0.048
-537.179	100.386	0.092	-0.107
-536.164	-20.665	-0.275	-0.168
-535.150	800.000	-0.060	0.234
-534.135	800.000	-0.054	0.172
-533.121	135.818	0.139	0.180
-532.106	-135.689	-0.210	-0.025
-531.091	800.000	0.031	-0.095
-530.077	111.019	-0.063	-0.075
-529.062	-200.000	-0.032	0.205
-528.048	-66.926	0.102	-0.040
-527.033	-23.238	0.021	0.012
-526.018	-87.841	-0.094	-0.028
-525.004	800.000	0.024	-0.086
-523.989	6.904	0.086	-0.064
-522.975	-60.773	0.248	-0.105
-521.960	-200.000	-0.001	0.168
-520.945	178.870	0.130	0.190
-519.931	-50.809	-0.194	0.091
-518.916	-27.177	-0.167	-0.097
-517.902	-29.746	-0.218	-0.124
-516.887	132.317	-0.053	-0.068
-515.872	800.000	0.089	-0.285
-514.858	9.014	0.181	0.136
-513.843	-200.000	-0.007	0.125
-512.829	727.026	0.034	-0.091
-511.814	-57.126	-0.215	-0.094
-510.799	60.901	0.068	0.068
-509.785	37.172	0.114	-0.100
-508.770	-200.000	0.025	0.191
-507.756	24.951	0.100	0.082
-506.741	5.273	0.017	-0.012
-505.726	-9.225	-0.145	-0.097
-504.712	-158.190	0.320	-0.019
-503.697	140.108	-0.260	-0.341
-502.683	800.000	-0.088	0.267
-501.668	507.561	0.112	-0.259
-500.653	-52.086	0.081	-0.038
-499.639	652.854	0.020	0.052
-498.624	10.132	-0.229	-0.173
-497.610	-200.000	0.004	0.097
-496.595	-200.000	-0.025	0.156
-495.581	36.947	-0.153	0.135
-494.566	-123.744	-0.641	0.101
-493.551	-44.223	-0.283	-0.141
-492.537	304.851	0.101	-0.187
-491.522	-200.000	0.002	0.201
-490.508	-129.020	0.442	0.062
-489.493	-86.430	-0.231	0.070
-488.478	364.671	-0.127	-0.254
-487.464	-181.792	0.324	-0.006
-486.449	800.000	-0.065	0.275
-485.435	536.767	0.156	0.368
-484.420	755.731	0.106	0.284
-483.405	248.640	-0.165	-0.277
-482.391	-115.572	0.160	-0.030
-481.376	-85.966	-0.219	0.067
-480.362	386.649	-0.048	0.098
-479.347	109.670	0.141	0.168
-478.332	-22.037	0.194	0.117
-477.318	525.326	0.022	-0.051
-476.303	-27.465	-0.148	0.085
-475.289	-200.000	0.026	-0.159
-474.274	-53.349	-0.103	-0.047
-473.259	-35.522	0.130	-0.070
-472.245	194.018	-0.188	0.283
-471.230	617.608	0.028	0.070
-470.216	15.088	0.089	-0.069
-469.201	-47.108	0.054	0.026
-468.186	406.162	-0.049	0.103
-467.172	-150.709	0.238	-0.018
-466.157	153.189	0.099	-0.134
-465.143	-143.635	0.244	-0.023
-464.128	-123.275	0.121	0.019
-463.113	287.056	0.052	0.093
-462.099	-44.529	0.176	0.088
-461.084	494.466	-0.061	0.138
-460.070	-95.013	0.230	0.062
-459.055	-200.000	-0.039	0.408
-458.040	14.681	0.150	0.117
-457.026	1.271	-0.137	-0.098
-456.011	453.673	-0.105	-0.230
-454.997	800.000	-0.027	0.083
-453.982	-103.955	0.169	-0.039
-452.968	-14.756	-0.233	0.148
-451.953	260.672	0.103	0.177
-450.938	542.026	-0.059	0.139
-449.924	-200.000	-0.039	0.171
-448.909	-134.427	0.361	0.044
-447.895	800.000	-0.044	-0.167
-446.880	-23.977	-0.011	0.006
-445.865	800.000	-0.069	0.219
-444.851	-200.000	-0.007	0.100
-443.836	-200.000	-0.022	-0.195
-442.822	-49.100	-0.076	0.036
-441.807	-3.340	0.195	0.135
-440.792	-53.148	-0.436	0.199
-439.778	24.079	0.154	0.126
-438.763	284.059	-0.059	0.105
-437.749	-200.000	0.010	0.077
-436.734	-66.133	-0.164	-0.065
-435.719	238.957	-0.085	-0.141
-434.705	-102.847	0.348	-0.082
-433.690	-72.882	0.217	-0.079
-432.676	-38.240	-0.225	-0.118
-431.661	800.000	0.049	-0.146
-430.646	579.830	0.154	-0.374
-429.632	-200.000	0.039	-0.330
-428.617	-114.375	0.102	0.019
-427.603	-200.000	0.003	-0.021
-426.588	224.497	0.151	0.243
-425.573	88.124	-0.134	0.148
-424.559	-146.871	0.231	0.020
-423.544	-160.448	-0.158	-0.008
-422.530	-34.341	0.339	-0.185
-421.515	107.354	-0.092	0.108
-420.500	150.225	0.277	0.373
-419.486	712.181	-0.075	0.196
-418.471	225.715	0.128	-0.206
-417.457	19.561	-0.315	0.251
-416.442	139.965	0.205	-0.268
-415.428	-65.690	-0.063	0.025
-414.413	-2.273	0.215	-0.149
-413.398	-71.444	0.136	0.050
-412.384	393.201	0.122	-0.251
-411.369	-113.834	-0.119	0.023
-410.355	163.177	-0.107	0.149
-409.340	800.000	0.014	-0.039
-408.325	-5.137	0.155	0.106
-407.311	109.527	-0.218	0.259
-406.296	-200.000	0.009	-0.108
-405.282	800.000	-0.054	0.230
-404.267	296.813	0.041	-0.074
-403.252	659.725	-0.090	-0.231
-402.238	-17.683	0.186	0.116
-401.223	-200.000	0.020	-0.115
-400.209	301.215	-0.062	-0.114
-399.194	148.739	-0.225	0.301
-398.179	540.791	-0.101	0.239
-397.165	-125.303	0.023	0.003
-396.150	-174.635	0.449	0.013
-395.136	349.013	0.087	0.170
-394.121	-200.000	-0.043	-0.202
-393.106	359.247	-0.074	-0.146
-392.092	24.226	-0.149	-0.122
-391.077	-101.774	0.068	-0.016
-390.063	-135.892	0.113	0.013
-389.048	26.975	-0.127	0.105
-388.033	361.751	0.100	-0.199
-387.019	-200.000	0.028	0.247
-386.004	111.865	0.082	-0.098
-384.990	89.143	-0.019	0.021
-383.975	126.431	0.195	-0.244
-382.960	-200.000	-0.039	-0.361
-381.946	-126.211	0.059	-0.009
-380.931	37.846	-0.124	-0.109
-379.917	-200.000	-0.037	0.272
-378.902	447.532	0.037	-0.080
-377.888	-53.398	-0.317	-0.144
-376.873	54.053	-0.064	0.061
-375.858	388.583	0.065	0.133
-374.844	487.725	-0.107	-0.242
-373.829	516.303	-0.049	0.114
-372.815	-70.919	0.183	0.068
-371.800	-155.257	0.261	-0.017
-370.785	169.382	-0.475	-0.671
-369.771	-200.000	0.008	-0.120
-368.756	-200.000	-0.031	-0.349
-367.742	139.281	-0.124	0.161
-366.727	116.594	-0.254	0.309
-365.712	-8.597	-0.143	0.095
-364.698	-99.051	-0.145	0.036
-363.683	60.560	-0.073	-0.072
-362.669	631.998	0.104	0.261
-361.654	69.408	0.210	0.214
-360.639	-11.069	0.159	-0.104
-359.625	91.998	-0.144	0.161
-358.610	153.682	0.061	0.083
-357.596	-200.000	-0.045	-0.343
-356.581	800.000	-0.079	-0.261
-355.566	104.857	0.003	-0.003
-354.552	-186.691	0.248	0.003
-353.537	800.000	-0.070	0.288
-352.523	1.661	-0.326	-0.232
-351.508	81.490	0.101	0.108
-350.493	-200.000	0.034	-0.348
-349.479	-200.000	-0.014	0.124
-348.464	-92.755	-0.243	-0.067
-347.450	377.723	0.093	0.188
-346.435	200.881	0.129	0.196
-345.420	103.400	-0.232	-0.270
-344.406	67.837	0.069	0.070
-343.391	-2.507	0.260	-0.180
-342.377	-0.417	0.136	-0.096
-341.362	800.000	-0.092	-0.291
-340.348	-151.477	-0.246	-0.018
-339.333	695.364	0.061	0.159
-338.318	13.594	0.089	-0.068
-337.304	378.346	0.058	0.117
-336.289	-200.000	0.084	0.477
-335.275	379.365	-0.028	0.057
-334.260	-39.521	-0.168	0.087
-333.245	-70.157	-0.089	-0.033
-332.231	800.000	0.018	0.051
-331.216	800.000	-0.038	0.150
-330.202	418.248	0.058	-0.123
-329.187	-30.066	0.433	-0.243
-328.172	-200.000	-0.007	0.282
-327.158	-101.245	-0.135	0.033
-326.143	535.313	0.098	0.229
-325.129	-63.540	0.385	-0.156
-324.114	-31.823	0.339	-0.188
-323.099	-62.024	-0.193	-0.080
-322.085	-200.000	0.006	-0.070
-321.070	58.656	-0.194	-0.189
-320.056	800.000	0.071	-0.227
-319.041	150.861	-0.107	0.144
-318.026	-62.875	0.152	-0.062
-317.012	-134.300	-0.360	-0.044
-315.997	-200.000	0.005	-0.033
-314.983	62.802	-0.305	0.302
-313.968	-200.000	-0.008	0.051
-312.953	-31.223	-0.207	0.115
-311.939	-69.796	-0.322	-0.122
-310.924	-146.885	-0.109	0.009
-309.910	158.623	-0.055	-0.075
-308.895	708.844	0.063	0.164
-307.880	24.646	-0.128	-0.105
-306.866	329.023	-0.047	0.089
-305.851	800.000	-0.035	0.107
-304.837	800.000	-0.128	-0.349
-303.822	-200.000	-0.025	0.171
-302.807	-67.744	-0.084	-0.032
-301.793	-2.925	0.171	0.118
-300.778	-52.212	-0.026	0.012
-299.764	75.379	-0.168	0.175
-298.749	-49.935	0.177	-0.083
-297.735	17.387	-0.105	0.082
-296.720	-23.311	-0.196	0.116
-295.705	-125.095	-0.202	-0.031
-294.691	-0.701	0.089	0.062
-293.676	49.118	-0.222	-0.205
-292.662	256.850	0.070	0.119
-291.647	-46.343	0.096	0.047
-290.632	-26.116	0.232	-0.135
-289.618	305.266	-0.168	0.309
-288.603	167.939	-0.134	-0.188
-287.589	132.363	0.166	-0.211
-286.574	31.858	-0.188	0.159
-285.559	-60.566	-0.284	-0.119
-284.545	-149.387	-0.352	0.028
-283.530	761.430	-0.011	-0.030
-282.516	-7.946	-0.080	-0.053
-281.501	-51.889	0.160	-0.074
-280.486	800.000	0.052	-0.156
-279.472	403.422	0.160	0.333
-278.457	-143.336	0.186	0.018
-277.443	-59.505	0.162	-0.069
-276.428	-92.174	-0.074	-0.021
-275.413	-22.316	-0.059	0.035
-274.399	16.514	0.318	-0.248
-273.384	-39.603	0.280	0.144
-272.370	11.580	0.179	0.136
-271.355	-94.385	0.326	0.088
-270.340	800.000	0.062	0.239
-269.326	-200.000	-0.015	-0.224
-268.311	260.062	0.205	0.350
-267.297	-200.000	0.070	-0.402
-266.282	-54.777	0.201	-0.090
-265.267	-200.000	-0.008	-0.192
-264.253	336.794	-0.056	0.108
-263.238	-2.950	-0.176	-0.121
-262.224	89.449	-0.122	0.135
-261.209	800.000	-0.120	-0.431
-260.195	-200.000	-0.022	-0.269
-259.180	1.495	0.129	0.091
-258.165	-200.000	-0.026	0.119
-257.151	131.502	-0.086	-0.109
-256.136	-70.216	0.195	0.073
-255.122	109.206	-0.057	0.068
-254.107	-56.829	0.307	-0.134
-253.092	27.248	-0.229	-0.189
-252.078	333.184	0.036	0.069
-251.063	44.760	-0.078	-0.071
-250.049	277.331	0.080	-0.141
-249.034	250.481	-0.146	-0.244
-248.019	90.219	-0.224	0.247
-247.005	-92.782	-0.016	0.004
-245.990	-48.922	-0.291	-0.137
-244.976	205.441	0.191	-0.292
-243.961	-99.622	0.352	0.087
-242.946	30.721	0.325	0.274
-241.932	-97.545	-0.244	-0.062
-240.917	-20.297	0.079	-0.048
-239.903	64.266	-0.234	0.232
-238.888	800.000	-0.026	0.080
-237.873	99.646	-0.105	-0.120
-236.859	-28.371	-0.155	-0.088
-235.844	149.922	-0.217	0.290
-234.830	-5.582	0.286	-0.193
-233.815	554.060	-0.125	0.295
-232.800	-52.941	0.092	-0.041
-231.786	74.098	-0.066	0.069
-230.771	14.659	-0.253	-0.195
-229.757	-65.968	-0.169	0.066
-228.742	-200.000	-0.012	0.278
-227.727	81.942	0.102	-0.109
-226.713	120.230	-0.060	0.074
-225.698	36.532	0.082	-0.071
-224.684	-105.164	0.253	-0.057
-223.669	238.109	0.101	0.166
-222.655	-200.000	-0.002	0.076
-221.640	298.852	0.135	0.244
-220.625	163.659	0.234	-0.324
-219.611	100.239	-0.146	-0.166
-218.596	-22.618	-0.062	0.037
-217.582	-111.465	0.351	-0.070
-216.567	800.000	0.019	-0.059
-215.552	69.359	0.135	0.137
-214.538	-200.000	-0.076	-0.418
-213.523	-164.095	0.106	-0.005
-212.509	457.387	-0.090	0.196
-211.494	151.499	-0.056	-0.076
-210.479	135.196	-0.172	0.220
-209.465	800.000	-0.102	-0.281
-208.450	800.000	-0.045	-0.164
-207.436	461.091	0.058	-0.127
-206.421	43.311	0.042	0.038
-205.406	141.068	-0.103	-0.134
-204.392	22.250	0.028	-0.023
-203.377	100.275	-0.052	-0.059
-202.363	224.584	-0.056	0.090
-201.348	137.101	0.064	0.083
-200.333	397.655	0.090	0.184
-199.319	737.216	0.118	-0.312
-198.304	-117.642	0.350	0.062
-197.290	-99.771	0.232	0.057
-196.275	-200.000	-0.032	0.361
-195.260	-177.351	0.242	-0.006
-194.246	126.370	0.224	-0.279
-193.231	-70.094	-0.163	-0.061
-192.217	-48.870	-0.150	-0.071
-191.202	-200.000	-0.045	0.229
-190.187	141.022	-0.107	-0.139
-189.173	-97.794	-0.148	0.038
-188.158	-73.648	0.331	-0.119
-187.144	248.011	0.039	0.065
-186.129	-72.102	-0.440	-0.161
-185.114	-200.000	0.034	-0.386
-184.100	396.904	0.057	-0.117
-183.085	-200.000	-0.004	-0.231
-182.071	-121.944	-0.061	0.010
-181.056	35.351	0.082	0.071
-180.042	-125.992	0.237	0.035
-179.027	-65.459	-0.343	-0.136
-178.012	-200.000	0.026	0.162
-176.998	141.268	0.137	-0.178
-175.983	25.543	0.244	0.199
-174.969	-76.569	0.095	0.033
-173.954	80.085	-0.180	-0.190
-172.939	63.922	-0.084	0.083
-171.925	-118.328	0.197	-0.034
-170.910	-125.453	-0.411	0.061
-169.896	695.687	0.057	0.146
-168.881	31.126	0.086	-0.072
-167.866	16.958	0.142	-0.110
-166.852	-127.575	-0.174	-0.025
-165.837	-21.052	0.063	0.038
-164.823	-49.655	0.100	0.047
-163.808	-200.000	0.030	-0.270
-162.793	27.330	-0.078	0.064
-161.779	-200.000	-0.029	-0.289
-160.764	80.793	-0.068	0.072
-159.750	-97.665	0.183	0.047
-158.735	258.820	-0.152	-0.257
-157.720	-44.112	-0.049	-0.024
-156.706	76.615	0.017	0.017
-155.691	731.022	-0.126	-0.330
-154.677	344.555	0.084	-0.162
-153.662	-200.000	0.070	0.497
-152.647	-3.780	-0.205	-0.140
-151.633	800.000	0.093	0.279
-150.618	2.005	0.189	0.134
-149.604	261.005	-0.094	-0.160
-148.589	-53.701	0.155	-0.070
-147.574	78.246	-0.126	-0.132
-146.560	4.494	-0.177	0.128
-145.545	56.093	0.120	-0.115
-144.531	-66.270	-0.390	0.152
-143.516	-138.520	0.352	-0.038
-142.502	66.498	0.128	-0.127
-141.487	-60.634	-0.055	-0.023
-140.472	62.623	0.072	0.071
-139.458	-2.502	-0.132	0.091
-138.443	-161.035	-0.335	0.017
-137.429	-200.000	0.009	0.093
-136.414	313.310	-0.070	-0.128
-135.399	-8.777	-0.447	-0.294
-134.385	-23.878	-0.144	0.085
-133.370	-19.487	-0.174	-0.106
-132.356	-200.000	-0.022	-0.130
-131.341	173.280	-0.062	0.087
-130.326	196.124	0.133	-0.199
-129.312	89.133	-0.259	0.283
-128.297	-172.808	-0.147	0.005
-127.283	-8.323	-0.108	-0.071
-126.268	-13.530	-0.107	-0.068
-125.253	-107.796	-0.277	-0.059
-124.239	-200.000	-0.037	0.295
-123.224	-97.366	0.250	0.064
-122.210	53.997	-0.315	-0.297
-121.195	318.443	-0.098	0.182
-120.180	800.000	0.033	0.099
