DTS Sentinel unit serial number:	SN413079Multiplexer serial number:	ORYXHardware model number:	OX4-SRSoftware version number:	ORYX F/W v4.00 Oryx Data Collector v3.7.2.0data status	okinstallation	princeton_trtdifferential loss correction	single-endedforward channel	channel 2reverse channel	N/Adate	2019/09/14time	19:31:35forward acquisition time	60.00reverse acquisition time	0.00gamma	496.2192k internal	0.2321k external	0.2321temperature offset calibration	1.0089default loss term (dB/km)	0.3790temperature slope calibration	1.0000multiplexer offset coefficient	1.0000multiplexer slope coefficient	1.0000fibre end	0.00T internal ref (°C)	34.75T ext. ref 1 (°C)	4.86T ext. ref 2 (°C)	28.91length (m)	temperature (°C)	Stokes	anti-Stokes-747.200	13.897	0.167	0.131
-746.185	-200.000	0.004	0.132
-745.171	800.000	-0.041	0.134
-744.156	-57.467	0.349	0.155
-743.142	341.547	0.182	-0.359
-742.127	23.170	-0.443	0.368
-741.112	-56.938	-0.462	-0.206
-740.098	-133.181	-0.325	0.041
-739.083	31.376	-0.205	0.178
-738.069	-200.000	-0.001	0.086
-737.054	-6.563	-0.077	-0.053
-736.039	-79.614	-0.077	0.026
-735.025	-67.130	0.107	0.043
-734.010	800.000	-0.135	-0.507
-732.996	60.168	0.086	0.086
-731.981	-200.000	0.017	0.270
-730.966	-92.783	-0.091	-0.026
-729.952	40.668	-0.195	-0.177
-728.937	-82.133	-0.252	0.083
-727.923	-116.495	0.089	0.017
-726.908	-137.071	-0.357	-0.041
-725.894	2.601	0.117	0.086
-724.879	499.917	0.065	-0.150
-723.864	-48.164	-0.165	0.080
-722.850	-10.062	-0.132	-0.088
-721.835	-16.226	-0.121	-0.078
-720.821	-155.300	0.101	-0.007
-719.806	543.387	0.018	0.043
-718.791	-70.897	0.053	-0.020
-717.777	800.000	0.071	0.217
-716.762	43.362	0.172	0.158
-715.748	60.899	-0.071	-0.071
-714.733	-14.677	-0.237	-0.154
-713.718	-105.901	0.123	-0.028
-712.704	800.000	-0.049	-0.181
-711.689	77.582	-0.271	0.291
-710.675	567.567	0.128	0.313
-709.660	-121.965	0.357	-0.059
-708.645	-48.890	-0.358	0.173
-707.631	-200.000	0.011	0.201
-706.616	800.000	0.119	-0.350
-705.602	-200.000	0.006	-0.229
-704.587	99.969	0.213	0.249
-703.572	27.317	0.269	-0.228
-702.558	-40.012	0.363	-0.191
-701.543	800.000	-0.055	-0.191
-700.529	-200.000	-0.007	-0.214
-699.514	-17.812	0.078	-0.050
-698.499	-108.243	0.261	-0.057
-697.485	211.796	-0.142	0.225
-696.470	134.873	-0.214	0.280
-695.456	-39.673	-0.205	0.108
-694.441	4.941	-0.307	-0.228
-693.426	-118.973	-0.186	0.033
-692.412	149.229	0.253	-0.345
-691.397	212.484	-0.105	-0.167
-690.383	800.000	0.039	-0.161
-689.368	-71.303	-0.267	-0.101
-688.354	53.965	0.395	-0.383
-687.339	-69.928	-0.133	-0.051
-686.324	-82.465	0.119	0.039
-685.310	-93.704	0.288	-0.080
-684.295	-5.567	0.080	-0.056
-683.281	-41.352	0.150	-0.078
-682.266	-177.479	-0.317	-0.008
-681.251	-200.000	0.010	-0.380
-680.237	334.747	0.199	-0.388
-679.222	-200.000	-0.049	-0.530
-678.208	-62.226	-0.374	-0.157
-677.193	775.388	0.028	-0.076
-676.178	-200.000	0.004	-0.146
-675.164	47.006	-0.331	-0.311
-674.149	14.508	0.144	-0.114
-673.135	-200.000	0.009	-0.047
-672.120	297.750	-0.217	-0.402
-671.105	-200.000	0.002	-0.042
-670.091	-200.000	0.002	0.224
-669.076	-23.983	0.276	-0.167
-668.062	267.134	-0.167	0.295
-667.047	-104.897	-0.232	-0.054
-666.032	245.286	0.130	0.220
-665.018	-84.171	0.185	0.059
-664.003	132.561	-0.237	0.308
-662.989	36.128	0.155	-0.137
-661.974	-57.126	-0.311	0.138
-660.959	76.500	0.195	0.208
-659.945	40.549	-0.142	-0.129
-658.930	800.000	-0.036	0.105
-657.916	800.000	0.057	-0.184
-656.901	-38.475	-0.178	-0.095
-655.886	35.204	0.076	-0.067
-654.872	18.279	-0.235	0.189
-653.857	-200.000	0.024	0.105
-652.843	-41.989	0.209	-0.108
-651.828	-78.838	0.178	0.061
-650.814	-135.867	0.106	-0.013
-649.799	192.803	-0.073	-0.111
-648.784	-158.950	-0.238	-0.014
-647.770	-55.421	-0.247	0.112
-646.755	-81.490	0.143	-0.047
-645.741	-64.885	0.244	0.099
-644.726	-89.212	-0.491	-0.146
-643.711	-124.103	0.255	-0.040
-642.697	-148.566	-0.040	0.003
-641.682	-200.000	0.055	0.251
-640.668	0.852	0.184	-0.133
-639.653	-200.000	-0.178	-0.000
-638.638	6.037	-0.097	-0.072
-637.624	-1.592	0.242	0.172
-636.609	-72.906	0.372	0.138
-635.595	-200.000	-0.014	0.079
-634.580	-59.238	0.206	-0.089
-633.565	-64.134	-0.171	0.070
-632.551	-126.958	0.095	-0.014
-631.536	-63.880	-0.271	0.111
-630.522	-121.722	0.275	-0.046
-629.507	800.000	-0.040	0.135
-628.492	-200.000	-0.014	-0.286
-627.478	-200.000	-0.029	-0.146
-626.463	-132.883	0.232	0.030
-625.449	-120.252	0.376	-0.065
-624.434	130.903	-0.046	-0.060
-623.419	97.187	0.111	0.128
-622.405	223.728	-0.175	-0.284
-621.390	-200.000	-0.027	-0.278
-620.376	19.969	-0.094	-0.077
-619.361	-200.000	-0.033	-0.205
-618.346	91.363	-0.175	-0.198
-617.332	104.278	0.056	-0.066
-616.317	142.549	-0.082	0.109
-615.303	224.890	-0.038	0.062
-614.288	185.955	0.258	-0.386
-613.273	197.712	0.285	-0.437
-612.259	-200.000	-0.055	0.320
-611.244	262.907	0.070	0.123
-610.230	-66.870	-0.278	0.110
-609.215	-78.786	-0.258	-0.088
-608.201	-37.475	-0.166	-0.089
-607.186	-200.000	0.021	-0.097
-606.171	53.200	-0.123	0.119
-605.157	68.455	0.177	0.182
-604.142	620.621	-0.115	-0.291
-603.128	-200.000	-0.011	0.334
-602.113	-89.801	-0.374	0.110
-601.098	-200.000	0.010	0.270
-600.084	3.817	0.293	-0.215
-599.069	478.698	0.029	0.067
-598.055	33.318	0.203	0.177
-597.040	159.312	0.084	-0.117
-596.025	-200.000	0.001	0.430
-595.011	38.447	0.072	0.064
-593.996	45.378	-0.313	-0.290
-592.982	-153.688	-0.293	0.020
-591.967	-128.517	0.171	0.024
-590.952	-102.592	0.296	0.071
-589.938	-137.782	0.146	-0.016
-588.923	-200.000	0.050	-0.230
-587.909	-80.063	0.134	0.045
-586.894	535.120	0.122	0.291
-585.879	21.954	-0.061	0.050
-584.865	-36.322	0.150	0.081
-583.850	49.695	-0.114	-0.108
-582.836	-51.885	0.137	-0.064
-581.821	-165.435	0.249	-0.011
-580.806	-70.183	0.151	-0.058
-579.792	254.381	0.143	0.245
-578.777	-64.859	-0.265	-0.108
-577.763	-200.000	-0.022	-0.214
-576.748	800.000	-0.043	-0.164
-575.733	15.733	0.420	0.332
-574.719	28.824	-0.216	0.184
-573.704	-200.000	-0.022	0.390
-572.690	439.146	0.037	-0.082
-571.675	242.073	0.063	-0.106
-570.661	-16.917	0.213	-0.135
-569.646	61.908	0.093	0.093
-568.631	800.000	-0.017	-0.055
-567.617	-110.680	-0.429	0.089
-566.602	-142.855	0.062	-0.006
-565.588	187.640	0.068	0.102
-564.573	-176.580	-0.085	-0.002
-563.558	-200.000	-0.008	-0.081
-562.544	154.036	0.080	0.110
-561.529	29.078	0.076	0.065
-560.515	800.000	-0.014	-0.057
-559.500	300.265	0.029	0.053
-558.485	-20.475	0.243	0.150
-557.471	153.656	0.150	0.207
-556.456	131.123	-0.109	0.141
-555.442	62.129	0.131	-0.131
-554.427	232.309	0.059	0.097
-553.412	800.000	-0.081	0.253
-552.398	800.000	0.058	0.164
-551.383	-36.780	0.256	-0.138
-550.369	-155.715	0.219	-0.014
-549.354	800.000	-0.057	0.220
-548.339	-200.000	-0.396	0.000
-547.325	295.889	-0.216	0.396
-546.310	777.696	0.028	0.076
-545.296	-197.027	-0.418	0.003
-544.281	-200.000	-0.023	0.161
-543.266	800.000	-0.040	-0.149
-542.252	165.168	0.205	0.290
-541.237	-200.000	0.010	0.259
-540.223	-41.921	0.127	-0.065
-539.208	427.981	0.107	-0.231
-538.193	-102.387	-0.181	-0.043
-537.179	590.419	0.038	0.093
-536.164	-183.723	-0.354	-0.006
-535.150	260.291	-0.108	0.187
-534.135	-57.419	0.110	-0.048
-533.121	800.000	-0.028	-0.091
-532.106	800.000	-0.037	-0.106
-531.091	268.697	0.184	-0.324
-530.077	800.000	-0.069	-0.260
-529.062	591.504	-0.015	-0.038
-528.048	11.103	0.033	0.025
-527.033	93.046	-0.135	-0.153
-526.018	611.658	-0.087	0.219
-525.004	108.746	-0.065	0.078
-523.989	65.666	0.078	-0.079
-522.975	166.663	0.150	-0.213
-521.960	-117.471	-0.369	-0.067
-520.945	238.928	-0.147	0.244
-519.931	800.000	-0.117	-0.382
-518.916	-176.068	-0.128	-0.003
-517.902	-121.009	0.354	-0.060
-516.887	-126.411	0.273	0.041
-515.872	258.579	-0.159	-0.275
-514.858	-128.434	-0.238	0.034
-513.843	800.000	-0.096	-0.273
-512.829	9.630	-0.234	0.178
-511.814	6.677	0.247	0.184
-510.799	800.000	0.026	0.115
-509.785	-200.000	-0.017	-0.104
-508.770	50.007	0.221	0.209
-507.756	-71.853	0.135	0.050
-506.741	-200.000	-0.018	-0.325
-505.726	-200.000	0.027	-0.344
-504.712	-200.000	0.015	0.319
-503.697	269.230	0.062	-0.109
-502.683	-21.480	0.089	-0.055
-501.668	-32.737	0.265	-0.147
-500.653	107.867	0.044	-0.052
-499.639	-33.074	0.221	0.123
-498.624	163.558	0.145	0.205
-497.610	-200.000	0.041	0.185
-496.595	-116.860	0.115	0.021
-495.581	-1.451	-0.109	-0.077
-494.566	104.528	-0.286	0.337
-493.551	-200.000	0.032	0.157
-492.537	-107.447	0.182	0.040
-491.522	-2.975	-0.274	-0.191
-490.508	-200.000	0.033	0.178
-489.493	193.061	0.030	-0.046
-488.478	-125.623	-0.112	-0.017
-487.464	-200.000	0.007	-0.115
-486.449	-16.895	-0.301	-0.190
-485.435	418.745	0.105	0.224
-484.420	-200.000	-0.006	0.248
-483.405	-12.179	-0.192	-0.126
-482.391	276.735	-0.173	-0.308
-481.376	800.000	0.073	-0.221
-480.362	613.940	-0.063	-0.158
-479.347	-200.000	0.010	0.235
-478.332	118.536	0.181	-0.224
-477.318	800.000	-0.065	0.255
-476.303	-72.716	0.315	-0.116
-475.289	-88.336	-0.093	0.028
-474.274	-200.000	0.038	-0.215
-473.259	465.414	-0.094	-0.211
-472.245	-200.000	0.043	0.226
-471.230	7.988	-0.151	-0.113
-470.216	-75.693	-0.537	-0.191
-469.201	-82.200	-0.255	0.083
-468.186	-104.278	-0.062	0.014
-467.172	-23.138	0.142	0.086
-466.157	-71.277	-0.233	0.087
-465.143	348.272	-0.175	-0.344
-464.128	-177.789	0.094	0.002
-463.113	800.000	-0.046	0.151
-462.099	-174.061	-0.133	0.004
-461.084	-137.347	-0.301	-0.034
-460.070	-200.000	0.079	0.422
-459.055	285.025	0.042	-0.076
-458.040	-188.602	0.141	-0.002
-457.026	-19.740	0.128	-0.079
-456.011	-162.440	-0.151	0.007
-454.997	-32.503	0.013	0.007
-453.982	-143.553	0.149	0.014
-452.968	-200.000	0.000	0.096
-451.953	-98.016	0.123	-0.032
-450.938	-74.188	-0.138	0.050
-449.924	-130.816	-0.464	-0.062
-448.909	-38.966	0.318	-0.167
-447.895	-68.563	-0.048	0.018
-446.880	-9.851	-0.048	0.032
-445.865	553.550	0.121	0.290
-444.851	800.000	-0.028	0.078
-443.836	-86.262	-0.151	0.046
-442.822	-76.850	-0.189	0.066
-441.807	-81.034	0.211	0.070
-440.792	14.036	-0.115	0.089
-439.778	-42.899	0.180	-0.091
-438.763	159.228	0.090	0.125
-437.749	-43.149	-0.330	0.167
-436.734	13.952	-0.265	0.206
-435.719	-44.987	-0.253	-0.126
-434.705	210.961	0.212	-0.333
-433.690	-7.807	-0.258	0.174
-432.676	-133.211	-0.170	-0.022
-431.661	-36.048	0.278	0.150
-430.646	-152.026	-0.276	0.020
-429.632	-32.986	-0.014	-0.008
-428.617	-121.004	0.358	-0.060
-427.603	-87.436	-0.236	-0.071
-426.588	794.349	-0.062	-0.170
-425.573	-200.000	-0.056	0.280
-424.559	32.996	0.291	0.252
-423.544	800.000	-0.054	-0.194
-422.530	-173.218	-0.340	-0.010
-421.515	145.769	0.155	-0.207
-420.500	318.342	0.105	-0.199
-419.486	43.801	0.036	0.033
-418.471	-133.516	0.264	0.033
-417.457	478.194	-0.148	-0.335
-416.442	-74.025	0.101	0.036
-415.428	-79.316	0.167	0.056
-414.413	454.264	-0.086	-0.189
-413.398	23.642	-0.334	-0.274
-412.384	-129.517	-0.165	-0.023
-411.369	-116.927	0.353	-0.064
-410.355	-100.116	0.112	-0.028
-409.340	625.870	-0.046	-0.116
-408.325	-113.786	0.292	0.057
-407.311	38.426	0.113	0.101
-406.296	800.000	-0.041	-0.141
-405.282	-9.233	0.466	-0.310
-404.267	-119.607	-0.307	0.053
-403.252	-109.622	0.204	0.043
-402.238	-140.476	-0.122	0.013
-401.223	-136.221	-0.348	0.041
-400.209	-200.000	0.014	0.112
-399.194	-16.874	0.118	-0.075
-398.179	86.236	0.245	0.269
-397.165	-200.000	-0.005	-0.187
-396.150	-74.165	0.312	0.113
-395.136	-83.235	0.167	-0.054
-394.121	-34.652	-0.221	-0.121
-393.106	800.000	0.024	0.076
-392.092	0.136	-0.022	-0.016
-391.077	23.715	0.276	-0.226
-390.063	-199.303	0.275	-0.001
-389.048	100.836	-0.127	0.148
-388.033	-200.000	-0.021	-0.214
-387.019	-28.524	-0.071	-0.041
-386.004	219.264	-0.086	0.137
-384.990	-200.000	0.016	-0.327
-383.975	-46.060	0.195	-0.096
-382.960	800.000	0.109	-0.389
-381.946	458.176	-0.047	-0.104
-380.931	292.629	-0.058	-0.105
-379.917	-156.038	-0.315	-0.020
-378.902	-200.000	-0.054	0.436
-377.888	254.868	0.154	0.262
-376.873	41.420	-0.198	-0.179
-375.858	-119.016	-0.070	-0.012
-374.844	-116.246	0.208	0.038
-373.829	68.591	-0.078	-0.080
-372.815	-2.939	0.203	-0.141
-371.800	-160.681	0.437	-0.023
-370.785	-104.275	0.240	-0.056
-369.771	-200.000	0.021	-0.103
-368.756	246.879	-0.138	-0.232
-367.742	58.841	-0.088	-0.086
-366.727	800.000	-0.040	-0.170
-365.712	800.000	-0.074	-0.268
-364.698	800.000	-0.053	-0.168
-363.683	800.000	-0.029	0.104
-362.669	-73.440	0.186	0.067
-361.654	-39.101	0.172	0.090
-360.639	-200.000	-0.002	0.009
-359.625	189.409	0.058	0.086
-358.610	82.595	-0.064	0.070
-357.596	-143.173	0.059	0.006
-356.581	142.169	-0.190	0.250
-355.566	-165.906	0.439	0.019
-354.552	800.000	0.025	-0.079
-353.537	-71.288	0.371	0.139
-352.523	-200.000	0.019	-0.220
-351.508	-48.206	-0.128	0.061
-350.493	-39.903	0.221	-0.115
-349.479	109.033	0.028	-0.033
-348.464	-133.827	-0.264	0.033
-347.450	-139.673	-0.329	-0.035
-346.435	800.000	-0.036	0.145
-345.420	535.037	-0.066	0.156
-344.406	-200.000	0.013	-0.137
-343.391	800.000	-0.058	0.182
-342.377	-111.936	-0.473	0.095
-341.362	-200.000	0.004	-0.253
-340.348	91.089	0.048	0.053
-339.333	800.000	0.034	-0.109
-338.318	-172.195	0.261	0.008
-337.304	414.461	0.043	0.092
-336.289	-54.091	0.120	0.054
-335.275	186.778	0.147	0.218
-334.260	-55.020	-0.419	-0.188
-333.245	142.473	0.206	0.272
-332.231	595.440	-0.060	-0.149
-331.216	-53.678	0.267	0.121
-330.202	-87.667	0.331	0.099
-329.187	-44.579	-0.423	-0.210
-328.172	-200.000	-0.047	-0.229
-327.158	69.257	0.042	0.043
-326.143	131.194	-0.103	0.132
-325.129	800.000	-0.065	-0.219
-324.114	109.146	0.093	0.110
-323.099	47.408	-0.163	-0.151
-322.085	-200.000	-0.010	-0.349
-321.070	-200.000	0.015	-0.085
-320.056	-200.000	0.007	0.051
-319.041	-119.711	0.214	-0.037
-318.026	-9.881	-0.020	0.013
-317.012	-23.008	-0.026	-0.016
-315.997	-15.768	-0.158	0.100
-314.983	144.774	0.194	-0.257
-313.968	104.024	0.217	-0.253
-312.953	-165.594	0.202	-0.009
-311.939	-1.311	0.087	0.061
-310.924	-39.232	-0.440	0.230
-309.910	-48.242	-0.189	0.091
-308.895	-31.470	0.072	-0.040
-307.880	-57.365	-0.263	0.115
-306.866	255.353	-0.194	0.330
-305.851	800.000	-0.053	0.178
-304.837	443.012	0.024	-0.051
-303.822	-200.000	-0.006	0.275
-302.807	-167.226	-0.287	-0.012
-301.793	190.106	0.221	0.330
-300.778	-200.000	0.002	0.052
-299.764	-200.000	0.024	-0.186
-298.749	-73.229	0.185	0.067
-297.735	-65.508	0.092	-0.037
-296.720	96.765	0.086	0.097
-295.705	683.397	0.063	-0.162
-294.691	31.632	-0.100	0.085
-293.676	-151.133	0.301	0.022
-292.662	414.151	0.105	-0.221
-291.647	-50.282	0.155	-0.073
-290.632	-34.531	0.028	-0.015
-289.618	706.768	-0.106	0.277
-288.603	-121.045	0.142	-0.024
-287.589	-200.000	-0.004	0.155
-286.574	141.244	-0.064	-0.084
-285.559	84.277	0.353	-0.383
-284.545	-117.331	-0.348	-0.063
-283.530	-28.131	0.112	0.064
-282.516	162.687	-0.098	-0.137
-281.501	432.976	-0.098	-0.211
-280.486	322.137	-0.088	0.166
-279.472	103.229	0.056	0.065
-278.457	180.022	-0.142	-0.206
-277.443	162.822	-0.144	-0.200
-276.428	-200.000	0.055	0.293
-275.413	-70.082	0.259	0.098
-274.399	119.801	0.171	0.210
-273.384	203.212	-0.142	-0.218
-272.370	34.767	0.125	0.109
-271.355	-49.058	0.342	0.162
-270.340	-59.064	-0.431	0.185
-269.326	-88.701	0.146	-0.043
-268.311	800.000	0.116	-0.403
-267.297	277.091	0.049	-0.086
-266.282	22.648	-0.191	-0.155
-265.267	0.215	0.309	0.219
-264.253	382.959	-0.191	0.390
-263.238	154.369	-0.036	-0.049
-262.224	-24.267	-0.142	-0.084
-261.209	730.170	-0.161	0.426
-260.195	293.713	0.192	0.348
-259.180	259.897	-0.029	0.049
-258.165	800.000	0.055	-0.196
-257.151	-50.163	0.305	-0.143
-256.136	139.752	0.197	-0.257
-255.122	-182.675	-0.348	0.006
-254.107	41.928	0.078	-0.071
-253.092	625.192	0.025	-0.064
-252.078	366.703	0.046	-0.093
-251.063	-153.680	-0.226	-0.015
-250.049	800.000	-0.090	0.336
-249.034	196.355	-0.197	0.297
-248.019	-14.776	0.081	-0.052
-247.005	62.799	0.139	0.138
-245.990	-200.000	0.009	0.135
-244.976	7.106	0.116	0.085
-243.961	-200.000	-0.040	0.412
-242.946	-124.818	-0.292	0.045
-241.932	403.010	0.132	-0.275
-240.917	-200.000	0.003	-0.087
-239.903	-200.000	0.012	-0.262
-238.888	325.703	0.050	0.094
-237.873	189.161	-0.201	0.298
-236.859	-55.462	0.092	-0.041
-235.844	29.570	0.234	0.197
-234.830	-54.022	0.039	-0.017
-233.815	-200.000	-0.028	-0.210
-232.800	-63.156	-0.125	0.051
-231.786	356.478	0.067	-0.133
-230.771	193.073	-0.126	0.188
-229.757	185.161	0.278	-0.409
-228.742	-43.622	0.100	0.050
-227.727	-200.000	0.002	-0.290
-226.713	-136.506	-0.084	0.010
-225.698	501.630	-0.064	-0.146
-224.684	-65.842	0.161	-0.064
-223.669	-200.000	0.016	0.207
-222.655	318.905	0.060	-0.112
-221.640	-200.000	-0.446	-0.002
-220.625	88.319	0.364	0.401
-219.611	-103.307	0.281	0.066
-218.596	-200.000	-0.050	0.310
-217.582	-200.000	0.064	0.471
-216.567	-111.396	-0.315	-0.064
-215.552	-120.110	0.425	0.072
-214.538	-200.000	0.038	-0.288
-213.523	-2.125	-0.299	-0.208
-212.509	-79.659	-0.231	-0.077
-211.494	-83.046	0.206	0.066
-210.479	45.597	0.152	-0.139
-209.465	-122.754	-0.187	0.030
-208.450	39.104	-0.095	0.084
-207.436	173.710	0.109	-0.156
-206.421	-200.000	0.019	0.139
-205.406	-124.078	0.227	-0.035
-204.392	324.455	0.081	0.153
-203.377	425.824	-0.062	-0.133
-202.363	-119.151	0.193	-0.033
-201.348	-46.059	-0.167	0.081
-200.333	132.039	0.074	-0.094
-199.319	-49.019	-0.273	-0.129
-198.304	466.540	-0.096	0.213
-197.290	128.043	0.196	0.247
-196.275	232.504	-0.176	-0.286
-195.260	-15.537	-0.059	0.037
-194.246	22.358	-0.233	-0.188
-193.231	199.761	-0.132	-0.201
-192.217	-102.574	0.079	0.019
-191.202	-31.358	-0.302	0.168
-190.187	-200.000	0.033	0.207
-189.173	465.076	-0.044	0.097
-188.158	-200.000	0.015	0.095
-187.144	800.000	-0.049	-0.181
-186.129	800.000	0.038	-0.147
-185.114	-200.000	-0.028	0.199
-184.100	39.358	0.161	0.142
-183.085	92.224	0.114	0.127
-182.071	-87.797	-0.292	0.087
-181.056	-93.880	-0.155	0.042
-180.042	-46.011	0.252	-0.123
-179.027	-161.889	-0.122	0.006
-178.012	-99.856	-0.388	0.096
-176.998	78.190	-0.107	-0.113
-175.983	495.107	0.140	-0.317
-174.969	26.065	0.292	0.241
-173.954	-146.909	-0.083	0.007
-172.939	800.000	0.051	-0.191
-171.925	-155.655	0.222	-0.014
-170.910	104.325	-0.279	0.324
-169.896	-27.676	-0.089	-0.051
-168.881	-182.428	-0.124	0.002
-167.866	-83.125	-0.217	0.069
-166.852	343.731	-0.091	-0.177
-165.837	800.000	-0.071	-0.198
-164.823	357.527	0.108	-0.213
-163.808	-159.178	0.059	0.003
-162.793	191.815	-0.172	0.256
-161.779	800.000	0.022	0.086
-160.764	-30.673	-0.261	-0.146
-159.750	-104.933	-0.160	0.036
-158.735	-39.812	-0.075	-0.039
-157.720	-200.000	0.021	0.113
-156.706	-135.704	-0.155	-0.018
-155.691	469.440	-0.065	0.144
-154.677	-166.499	0.226	-0.009
-153.662	-200.000	-0.037	-0.233
-152.647	96.658	-0.098	-0.111
-151.633	70.535	0.088	-0.090
-150.618	169.630	-0.105	0.148
-149.604	-157.602	0.265	0.016
-148.589	-52.122	0.159	0.073
-147.574	-68.745	-0.169	0.065
-146.560	298.733	-0.115	0.209
-145.545	-130.690	0.148	-0.020
-144.531	-64.825	0.219	-0.088
-143.516	800.000	-0.112	0.421
-142.502	28.528	0.263	-0.220
-141.487	-47.094	-0.132	-0.063
-140.472	81.357	0.258	0.276
-139.458	380.371	0.154	0.312
-138.443	-38.713	0.269	0.140
-137.429	18.646	-0.180	0.142
-136.414	91.649	-0.148	-0.165
-135.399	-200.000	-0.016	-0.104
-134.385	-200.000	0.444	0.000
-133.370	-20.877	0.167	-0.101
-132.356	800.000	-0.117	0.322
-131.341	-156.686	0.256	0.016
-130.326	-100.588	0.154	-0.038
-129.312	778.324	0.139	-0.376
-128.297	-127.234	-0.050	-0.007
-127.283	-200.000	-0.021	0.116
-126.268	712.933	0.077	0.202
-125.253	-200.000	0.037	0.221
-124.239	-117.878	-0.244	-0.043
-123.224	-200.000	-0.018	-0.374
-122.210	-16.843	-0.189	-0.118
-121.195	28.329	0.202	-0.168
