DTS Sentinel unit serial number:	SN413079Multiplexer serial number:	ORYXHardware model number:	OX4-SRSoftware version number:	ORYX F/W v4.00 Oryx Data Collector v3.7.2.0data status	okinstallation	princeton_trtdifferential loss correction	single-endedforward channel	channel 2reverse channel	N/Adate	2019/09/19time	14:31:35forward acquisition time	60.00reverse acquisition time	0.00gamma	496.2192k internal	0.2323k external	0.2323temperature offset calibration	1.0022default loss term (dB/km)	0.3790temperature slope calibration	1.0000multiplexer offset coefficient	1.0000multiplexer slope coefficient	1.0000fibre end	0.00T internal ref (°C)	32.20T ext. ref 1 (°C)	1.06T ext. ref 2 (°C)	29.32length (m)	temperature (°C)	Stokes	anti-Stokes-747.200	-200.000	-0.036	0.187
-746.185	308.733	0.167	-0.316
-745.171	-116.264	0.428	-0.080
-744.156	66.414	-0.466	0.479
-743.142	-75.058	0.076	0.028
-742.127	-200.000	0.026	0.128
-741.112	27.000	-0.041	-0.034
-740.098	29.654	0.223	-0.192
-739.083	-74.621	-0.297	-0.108
-738.069	425.899	-0.069	0.151
-737.054	-116.846	-0.268	-0.050
-736.039	800.000	-0.026	-0.095
-735.025	-126.811	0.173	-0.026
-734.010	-26.159	-0.382	-0.227
-732.996	-21.400	-0.155	0.095
-731.981	-173.808	-0.346	-0.010
-730.966	-39.087	-0.293	-0.156
-729.952	322.253	0.063	0.121
-728.937	-200.000	-0.055	-0.342
-727.923	-81.895	0.097	0.032
-726.908	283.391	0.066	0.119
-725.894	91.309	-0.189	-0.214
-724.879	-16.958	-0.359	0.229
-723.864	-200.000	-0.024	0.121
-722.850	374.414	0.128	-0.262
-721.835	-200.000	-0.105	0.000
-720.821	-106.332	0.138	0.031
-719.806	-31.741	-0.261	-0.147
-718.791	205.624	-0.149	-0.234
-717.777	800.000	0.072	-0.222
-716.762	-84.143	-0.309	0.099
-715.748	-32.374	-0.306	-0.172
-714.733	800.000	-0.109	-0.416
-713.718	-200.000	0.033	0.336
-712.704	147.946	0.135	0.184
-711.689	800.000	0.058	0.183
-710.675	85.197	0.213	0.236
-709.660	207.191	-0.035	0.056
-708.645	-62.003	0.096	0.040
-707.631	-200.000	0.043	0.191
-706.616	-59.575	0.208	0.090
-705.602	-108.051	-0.153	0.034
-704.587	-116.488	0.174	-0.032
-703.572	-200.000	0.003	-0.241
-702.558	-200.000	0.072	-0.424
-701.543	-200.000	-0.025	0.264
-700.529	-9.135	0.048	0.032
-699.514	-115.454	-0.024	-0.005
-698.499	99.183	-0.245	-0.285
-697.485	-81.818	-0.289	0.095
-696.470	-200.000	0.019	0.086
-695.456	-186.289	-0.212	-0.003
-694.441	442.838	0.124	0.274
-693.426	347.228	-0.063	-0.124
-692.412	-116.591	-0.318	0.059
-691.397	34.307	0.221	-0.194
-690.383	30.644	0.120	0.103
-689.368	-31.269	-0.253	-0.144
-688.354	141.531	-0.206	-0.274
-687.339	61.307	-0.194	-0.194
-686.324	-103.499	-0.220	0.052
-685.310	246.729	-0.257	0.437
-684.295	800.000	-0.037	0.114
-683.281	-24.231	-0.301	-0.181
-682.266	60.473	0.190	-0.189
-681.251	-200.000	0.001	-0.081
-680.237	-200.000	0.008	-0.034
-679.222	49.434	-0.123	-0.117
-678.208	18.627	0.144	0.116
-677.193	24.936	-0.198	0.165
-676.178	367.806	-0.211	-0.429
-675.164	-200.000	-0.021	0.266
-674.149	54.419	-0.128	-0.124
-673.135	800.000	-0.011	0.047
-672.120	-200.000	0.006	0.049
-671.105	-176.383	-0.209	-0.005
-670.091	128.056	0.116	0.148
-669.076	-83.410	-0.185	-0.060
-668.062	-137.123	-0.336	-0.039
-667.047	39.799	-0.224	0.203
-666.032	41.570	-0.241	-0.220
-665.018	90.591	-0.153	0.172
-664.003	28.944	0.111	0.095
-662.989	363.459	-0.122	0.248
-661.974	125.140	-0.219	0.278
-660.959	-139.526	-0.227	-0.024
-659.945	-40.648	-0.386	-0.202
-658.930	-145.393	-0.206	-0.019
-657.916	466.376	-0.147	0.331
-656.901	80.446	-0.068	-0.074
-655.886	-44.037	-0.074	-0.037
-654.872	-102.034	0.133	-0.032
-653.857	-200.000	0.042	-0.244
-652.843	358.072	0.144	-0.290
-651.828	110.200	-0.160	-0.193
-650.814	800.000	-0.111	-0.373
-649.799	272.873	-0.064	0.113
-648.784	-98.354	0.102	-0.026
-647.770	-104.014	0.329	0.077
-646.755	-200.000	-0.041	0.206
-645.741	-93.284	-0.168	-0.047
-644.726	6.603	-0.220	0.165
-643.711	-57.199	0.191	0.085
-642.697	244.657	-0.222	0.376
-641.682	-59.247	0.332	0.144
-640.668	-200.000	-0.012	0.544
-639.653	800.000	-0.026	0.092
-638.638	-200.000	-0.036	0.163
-637.624	791.677	0.098	-0.270
-636.609	-7.060	0.324	-0.221
-635.595	-69.102	-0.140	-0.054
-634.580	-160.992	-0.303	-0.016
-633.565	307.181	-0.126	0.236
-632.551	61.719	-0.096	-0.097
-631.536	-129.169	-0.116	-0.016
-630.522	-200.000	0.040	0.184
-629.507	-106.384	0.070	-0.016
-628.492	24.427	-0.302	0.251
-627.478	-101.699	0.221	-0.054
-626.463	51.454	-0.243	0.232
-625.449	-162.430	-0.218	-0.011
-624.434	-132.406	-0.296	0.038
-623.419	359.896	0.111	0.224
-622.405	-0.624	-0.110	-0.079
-621.390	123.586	0.135	-0.171
-620.376	94.346	0.231	-0.264
-619.361	-200.000	0.072	-0.353
-618.346	-53.234	-0.256	-0.118
-617.332	31.416	-0.159	-0.137
-616.317	24.823	-0.227	0.189
-615.303	800.000	0.019	0.059
-614.288	-200.000	0.077	-0.343
-613.273	191.251	0.185	0.279
-612.259	-200.000	-0.052	-0.235
-611.244	48.667	-0.173	-0.163
-610.230	41.080	0.196	0.178
-609.215	-26.753	0.133	-0.078
-608.201	-120.374	0.267	0.046
-607.186	-200.000	-0.095	-0.423
-606.171	800.000	-0.050	0.158
-605.157	-58.646	-0.038	0.016
-604.142	-200.000	-0.002	-0.283
-603.128	-186.518	-0.110	0.002
-602.113	-200.000	0.019	0.113
-601.098	800.000	-0.106	-0.421
-600.084	-152.915	0.102	-0.007
-599.069	-109.356	0.137	0.029
-598.055	592.083	-0.090	-0.224
-597.040	800.000	0.055	-0.153
-596.025	800.000	-0.014	0.057
-595.011	-133.385	0.178	0.023
-593.996	-24.910	-0.314	0.187
-592.982	243.584	0.056	-0.094
-591.967	-200.000	-0.047	-0.274
-590.952	-111.148	-0.051	-0.010
-589.938	-84.235	0.130	0.041
-588.923	-15.870	-0.162	0.104
-587.909	27.480	-0.204	0.173
-586.894	-72.405	-0.218	0.081
-585.879	193.176	-0.077	0.117
-584.865	109.263	0.092	0.111
-583.850	300.611	-0.138	-0.256
-582.836	24.591	0.355	0.295
-581.821	51.005	-0.216	0.205
-580.806	5.719	0.360	0.267
-579.792	-76.332	-0.202	-0.071
-578.777	42.474	-0.178	-0.162
-577.763	126.645	-0.140	-0.177
-576.748	-2.078	-0.087	0.061
-575.733	800.000	-0.049	0.179
-574.719	-18.231	-0.116	0.073
-573.704	-200.000	-0.042	-0.241
-572.690	-200.000	-0.023	-0.216
-571.675	124.072	0.087	-0.109
-570.661	628.894	0.158	0.399
-569.646	441.420	-0.023	-0.051
-568.631	119.033	0.179	0.222
-567.617	-100.547	0.387	0.096
-566.602	65.764	0.060	-0.061
-565.588	-200.000	-0.018	-0.201
-564.573	-45.550	-0.252	0.125
-563.558	-51.128	-0.049	-0.023
-562.544	253.223	-0.092	-0.157
-561.529	-200.000	-0.071	0.341
-560.515	-103.119	-0.037	0.009
-559.500	148.716	0.242	0.327
-558.485	-200.000	-0.017	0.136
-557.471	-114.841	-0.266	0.051
-556.456	-162.757	0.320	0.016
-555.442	-104.046	-0.299	0.070
-554.427	-103.378	0.256	-0.060
-553.412	14.789	-0.275	-0.215
-552.398	-200.000	-0.021	0.277
-551.383	-200.000	0.022	0.203
-550.369	346.805	0.127	0.251
-549.354	-102.295	-0.061	0.015
-548.339	120.777	-0.198	-0.246
-547.325	-97.134	0.175	0.046
-546.310	800.000	0.146	0.455
-545.296	-200.000	-0.022	-0.107
-544.281	22.785	0.291	-0.239
-543.266	-200.000	0.002	-0.126
-542.252	800.000	-0.072	-0.245
-541.237	31.763	0.210	-0.181
-540.223	93.300	-0.115	0.131
-539.208	-25.900	0.135	-0.080
-538.193	50.557	-0.361	0.342
-537.179	23.964	-0.312	-0.257
-536.164	178.487	0.097	0.143
-535.150	-200.000	-0.021	-0.204
-534.135	-200.000	0.022	0.133
-533.121	-19.609	-0.167	0.103
-532.106	-61.370	0.134	0.057
-531.091	271.720	0.029	0.050
-530.077	800.000	-0.040	-0.143
-529.062	408.150	-0.092	-0.196
-528.048	-37.994	-0.186	-0.099
-527.033	-36.293	0.286	0.154
-526.018	800.000	0.014	0.041
-525.004	-115.460	-0.099	0.019
-523.989	-50.523	0.187	-0.088
-522.975	107.133	-0.126	-0.150
-521.960	108.386	0.110	-0.132
-520.945	124.896	-0.121	-0.152
-519.931	-68.300	0.184	-0.072
-518.916	218.374	-0.056	0.089
-517.902	-200.000	-0.033	-0.400
-516.887	78.665	-0.143	-0.153
-515.872	13.852	0.151	-0.118
-514.858	-200.000	-0.006	0.168
-513.843	40.661	-0.120	0.109
-512.829	-90.362	-0.221	-0.064
-511.814	287.836	-0.118	0.213
-510.799	-200.000	0.035	-0.192
-509.785	395.672	-0.086	-0.180
-508.770	-200.000	-0.019	-0.093
-507.756	413.802	-0.074	-0.157
-506.741	-200.000	0.018	0.173
-505.726	-24.091	-0.220	-0.131
-504.712	584.036	0.116	0.284
-503.697	123.716	0.068	0.085
-502.683	800.000	-0.075	-0.234
-501.668	800.000	-0.019	0.052
-500.653	-136.593	0.209	0.024
-499.639	-200.000	0.015	0.105
-498.624	-80.623	0.358	0.119
-497.610	-200.000	0.048	0.373
-496.595	-3.020	-0.269	0.188
-495.581	585.821	0.166	-0.408
-494.566	226.878	0.149	-0.242
-493.551	-128.925	-0.177	0.025
-492.537	165.755	-0.225	0.318
-491.522	-96.838	0.046	-0.012
-490.508	56.323	0.005	-0.005
-489.493	-141.466	-0.095	0.010
-488.478	-56.919	0.276	-0.122
-487.464	98.285	0.017	0.020
-486.449	-86.393	0.175	0.054
-485.435	800.000	-0.054	-0.232
-484.420	125.753	0.063	0.080
-483.405	197.390	-0.288	0.439
-482.391	57.999	0.101	0.099
-481.376	-91.441	-0.114	-0.032
-480.362	800.000	0.052	0.152
-479.347	93.910	-0.204	0.231
-478.332	-23.342	-0.103	0.062
-477.318	-49.250	-0.155	-0.074
-476.303	-109.391	-0.222	-0.047
-475.289	-168.515	-0.273	-0.010
-474.274	-21.078	0.346	-0.212
-473.259	-80.187	0.301	0.101
-472.245	-200.000	0.025	0.128
-471.230	-96.433	-0.307	0.081
-470.216	800.000	0.092	-0.317
-469.201	340.788	0.139	-0.270
-468.186	241.402	-0.039	0.065
-467.172	-19.300	0.326	-0.202
-466.157	-36.318	0.328	-0.176
-465.143	409.361	0.135	-0.286
-464.128	-64.707	0.109	-0.044
-463.113	-200.000	-0.010	0.327
-462.099	-110.809	0.229	0.047
-461.084	212.122	-0.132	-0.208
-460.070	5.958	0.177	0.131
-459.055	39.960	0.074	0.066
-458.040	-120.644	-0.368	-0.062
-457.026	374.519	0.150	-0.305
-456.011	800.000	-0.054	0.168
-454.997	8.645	0.039	-0.029
-453.982	205.214	0.076	-0.117
-452.968	-76.390	0.103	-0.036
-451.953	800.000	-0.129	0.374
-450.938	21.444	-0.234	-0.190
-449.924	21.051	-0.166	-0.134
-448.909	-110.276	0.163	-0.034
-447.895	-200.000	0.020	0.172
-446.880	-149.788	-0.158	0.012
-445.865	-58.958	-0.410	-0.177
-444.851	62.114	0.162	0.162
-443.836	207.708	0.038	-0.058
-442.822	-200.000	-0.012	-0.289
-441.807	800.000	-0.077	-0.332
-440.792	180.165	0.052	0.077
-439.778	-61.405	0.078	-0.033
-438.763	68.277	-0.259	0.265
-437.749	12.177	-0.239	-0.183
-436.734	-200.000	0.039	-0.197
-435.719	410.269	-0.154	-0.326
-434.705	-13.019	0.021	0.014
-433.690	317.733	-0.104	0.197
-432.676	294.235	0.114	0.207
-431.661	800.000	0.037	-0.103
-430.646	-1.676	0.017	0.012
-429.632	53.212	-0.156	0.149
-428.617	556.512	-0.158	0.381
-427.603	-147.600	0.182	-0.015
-426.588	-193.434	-0.251	0.002
-425.573	420.163	-0.091	-0.194
-424.559	194.016	-0.141	0.212
-423.544	-44.196	-0.160	-0.080
-422.530	47.988	0.102	0.095
-421.515	-117.121	-0.155	0.028
-420.500	-200.000	-0.043	0.264
-419.486	-200.000	-0.044	-0.252
-418.471	-200.000	-0.012	-0.111
-417.457	-64.163	-0.275	0.112
-416.442	800.000	-0.043	-0.172
-415.428	-88.976	0.252	0.074
-414.413	34.528	-0.143	0.124
-413.398	290.154	0.112	-0.203
-412.384	-23.566	-0.202	0.121
-411.369	-26.217	-0.058	0.034
-410.355	100.693	0.076	0.088
-409.340	515.569	0.060	-0.139
-408.325	-200.000	-0.025	-0.154
-407.311	-200.000	-0.014	0.063
-406.296	-34.439	0.383	0.209
-405.282	76.295	0.090	0.095
-404.267	-200.000	0.059	0.271
-403.252	-1.915	-0.121	0.085
-402.238	-49.790	-0.267	0.126
-401.223	159.150	0.081	0.112
-400.209	-200.000	-0.018	0.225
-399.194	800.000	0.060	-0.176
-398.179	-95.228	0.351	-0.094
-397.165	-169.475	0.309	-0.011
-396.150	493.867	0.082	-0.187
-395.136	28.333	0.310	-0.261
-394.121	243.813	-0.211	-0.352
-393.106	48.248	0.170	-0.158
-392.092	130.804	0.164	0.210
-391.077	-163.890	0.226	-0.011
-390.063	-200.000	0.009	-0.048
-389.048	-200.000	0.031	-0.225
-388.033	-63.075	-0.284	0.117
-387.019	96.194	0.183	0.208
-386.004	-83.215	-0.045	0.014
-384.990	-70.428	-0.308	0.116
-383.975	86.744	0.174	-0.191
-382.960	-141.955	-0.224	-0.022
-381.946	160.787	0.052	0.072
-380.931	800.000	0.060	-0.227
-379.917	-47.819	-0.350	0.169
-378.902	14.103	0.377	0.292
-377.888	611.825	-0.162	-0.404
-376.873	211.420	0.166	-0.260
-375.858	322.319	-0.309	-0.585
-374.844	800.000	-0.089	-0.308
-373.829	-200.000	-0.011	-0.096
-372.815	-200.000	-0.009	0.097
-371.800	348.851	0.195	0.383
-370.785	800.000	0.107	0.339
-369.771	180.809	0.291	-0.425
-368.756	302.238	0.129	0.237
-367.742	39.460	-0.090	-0.080
-366.727	-42.226	-0.189	-0.096
-365.712	-200.000	0.027	0.139
-364.698	142.497	-0.061	0.081
-363.683	-132.830	-0.453	0.058
-362.669	-100.522	-0.135	0.033
-361.654	-73.849	0.247	-0.089
-360.639	-200.000	0.003	0.039
-359.625	-55.773	0.356	-0.158
-358.610	228.912	0.192	-0.311
-357.596	295.145	-0.212	-0.385
-356.581	589.082	-0.043	0.106
-355.566	-200.000	-0.008	0.241
-354.552	353.270	-0.159	-0.314
-353.537	-200.000	-0.041	0.211
-352.523	-52.687	-0.050	0.023
-351.508	-164.326	-0.214	0.010
-350.493	199.959	-0.163	0.249
-349.479	-9.423	-0.324	0.215
-348.464	261.384	-0.052	-0.089
-347.450	-109.248	-0.134	-0.028
-346.435	-200.000	0.046	-0.512
-345.420	800.000	0.024	-0.082
-344.406	-50.544	-0.111	0.052
-343.391	-117.325	-0.157	-0.028
-342.377	15.098	-0.148	0.115
-341.362	-47.560	0.133	-0.064
-340.348	200.110	0.270	-0.412
-339.333	606.455	-0.069	-0.171
-338.318	-0.281	0.128	0.090
-337.304	157.176	-0.029	0.040
-336.289	495.045	0.042	0.097
-335.275	19.018	-0.173	0.138
-334.260	-181.737	-0.126	0.002
-333.245	153.155	-0.065	0.088
-332.231	276.856	-0.241	0.425
-331.216	800.000	-0.034	-0.106
-330.202	-44.667	0.156	-0.078
-329.187	-10.948	-0.173	0.113
-328.172	604.528	-0.139	-0.343
-327.158	19.646	-0.238	0.190
-326.143	76.554	0.226	-0.238
-325.129	0.352	0.384	0.272
-324.114	-116.329	0.207	-0.038
-323.099	-11.391	0.144	0.094
-322.085	800.000	-0.055	0.199
-321.070	-199.435	-0.104	0.001
-320.056	-7.241	0.232	-0.156
-319.041	-200.000	0.029	-0.170
-318.026	800.000	0.028	0.111
-317.012	-200.000	0.019	-0.344
-315.997	-67.547	-0.063	-0.024
-314.983	800.000	0.107	0.347
-313.968	-200.000	-0.007	-0.145
-312.953	-200.000	0.009	0.062
-311.939	20.577	-0.237	-0.190
-310.924	-11.393	0.192	-0.125
-309.910	-32.935	-0.182	-0.100
-308.895	-70.660	-0.199	-0.075
-307.880	81.132	0.162	0.174
-306.866	117.232	0.110	-0.134
-305.851	195.420	0.136	0.206
-304.837	-61.128	0.185	0.077
-303.822	202.989	-0.106	-0.162
-302.807	-133.021	0.529	-0.067
-301.793	28.362	0.103	-0.086
-300.778	800.000	-0.043	0.139
-299.764	-200.000	-0.038	0.275
-298.749	-200.000	-0.057	0.266
-297.735	25.570	0.209	0.173
-296.720	-200.000	0.010	-0.119
-295.705	11.323	0.158	0.120
-294.691	800.000	-0.032	-0.097
-293.676	-99.906	0.097	-0.024
-292.662	-13.956	-0.404	-0.259
-291.647	-130.766	-0.237	0.032
-290.632	198.567	0.059	-0.089
-289.618	199.376	0.008	-0.013
-288.603	-108.908	-0.101	0.021
-287.589	-3.149	-0.392	0.271
-286.574	-140.304	0.166	-0.017
-285.559	367.012	0.147	0.294
-284.545	-200.000	0.030	0.319
-283.530	200.310	0.190	0.289
-282.516	-12.590	0.220	0.143
-281.501	-64.317	0.198	0.080
-280.486	334.071	0.075	0.144
-279.472	-82.661	0.186	0.060
-278.457	179.910	0.115	0.167
-277.443	-60.222	-0.240	-0.101
-276.428	146.682	-0.035	0.047
-275.413	800.000	0.100	0.317
-274.399	62.025	-0.146	0.144
-273.384	800.000	-0.040	0.143
-272.370	-55.667	-0.100	-0.045
-271.355	544.400	0.197	-0.466
-270.340	800.000	0.005	0.017
-269.326	-88.110	-0.138	-0.041
-268.311	52.234	0.076	0.072
-267.297	145.832	0.190	0.253
-266.282	-124.302	0.056	0.009
-265.267	-200.000	-0.027	0.127
-264.253	-200.000	0.017	-0.313
-263.238	-19.234	0.283	0.174
-262.224	389.767	-0.095	0.194
-261.209	800.000	0.022	-0.064
-260.195	485.890	-0.080	0.181
-259.180	118.608	-0.133	-0.162
-258.165	800.000	0.011	-0.035
-257.151	-107.541	0.162	-0.035
-256.136	-200.000	-0.009	0.199
-255.122	32.074	-0.216	0.185
-254.107	19.685	0.191	0.152
-253.092	-112.532	-0.102	0.020
-252.078	-176.050	-0.219	0.006
-251.063	-200.000	-0.037	0.277
-250.049	27.315	-0.084	0.070
-249.034	302.208	0.035	0.064
-248.019	-128.748	0.206	-0.029
-247.005	-164.368	0.104	-0.005
-245.990	-37.827	-0.285	-0.150
-244.976	-22.668	0.080	0.048
-243.961	-24.059	0.131	0.077
-242.946	-51.406	0.398	0.184
-241.932	769.757	-0.134	-0.362
-240.917	676.078	0.130	0.333
-239.903	346.739	0.106	-0.207
-238.888	-200.000	-0.030	-0.281
-237.873	-30.816	0.071	0.040
-236.859	-177.008	0.130	-0.003
-235.844	-111.815	0.238	0.048
-234.830	-21.576	-0.066	-0.040
-233.815	517.996	0.076	-0.177
-232.800	-26.974	-0.369	-0.213
-231.786	-118.911	-0.108	-0.019
-230.771	800.000	-0.072	0.223
-229.757	-75.082	0.247	-0.087
-228.742	-200.000	-0.084	-0.445
-227.727	-180.459	-0.308	0.006
-226.713	-25.099	0.292	0.171
-225.698	-56.745	-0.424	-0.186
-224.684	436.882	-0.102	-0.219
-223.669	-95.907	0.035	0.009
-222.655	-78.541	0.284	0.096
-221.640	76.915	0.067	0.071
-220.625	584.204	-0.081	-0.197
-219.611	-39.542	0.162	0.084
-218.596	-200.000	-0.027	-0.123
-217.582	-200.000	-0.022	0.186
-216.567	215.469	0.062	0.097
-215.552	0.895	-0.309	-0.219
-214.538	-169.847	-0.438	-0.016
-213.523	-118.939	0.213	0.037
-212.509	254.204	0.262	0.443
-211.494	74.075	0.061	-0.063
-210.479	-11.230	-0.207	-0.135
-209.465	-8.686	-0.085	-0.056
-208.450	19.196	-0.344	-0.273
-207.436	-76.618	-0.146	-0.050
-206.421	-58.949	0.317	0.135
-205.406	-31.609	0.154	0.085
-204.392	752.162	-0.044	0.117
-203.377	-200.000	-0.019	0.195
-202.363	256.004	0.122	-0.206
-201.348	-0.529	0.098	-0.069
-200.333	-116.436	0.095	-0.017
-199.319	277.987	-0.238	-0.418
-198.304	800.000	-0.092	-0.266
-197.290	-112.768	0.104	-0.020
-196.275	-14.806	-0.066	-0.042
-195.260	-109.787	-0.033	-0.007
-194.246	-117.821	0.054	0.010
-193.231	800.000	0.122	0.364
-192.217	-200.000	-0.058	0.290
-191.202	347.170	-0.122	0.237
-190.187	113.801	0.226	0.272
-189.173	-38.654	0.281	-0.146
-188.158	-101.144	0.256	-0.062
-187.144	-102.924	-0.177	0.042
-186.129	-200.000	0.031	0.294
-185.114	283.004	0.146	-0.259
-184.100	-18.108	-0.153	-0.095
-183.085	-200.000	-0.012	-0.186
-182.071	-68.138	0.140	0.054
-181.056	-47.619	0.224	-0.107
-180.042	800.000	0.109	-0.323
-179.027	800.000	0.049	0.205
-178.012	-78.739	0.051	0.017
-176.998	130.716	0.065	0.082
-175.983	-200.000	-0.032	-0.146
-174.969	-76.535	0.104	-0.036
-173.954	800.000	0.072	0.290
-172.939	56.300	0.169	0.162
-171.925	-76.708	0.234	0.081
-170.910	24.921	-0.195	0.160
-169.896	-128.539	0.232	0.033
-168.881	-87.418	-0.299	0.089
-167.866	619.870	-0.102	-0.254
-166.852	133.887	0.214	-0.274
-165.837	-120.858	0.204	-0.034
-164.823	-200.000	-0.009	-0.171
-163.808	55.377	-0.202	-0.193
-162.793	104.772	0.071	-0.083
-161.779	-5.722	-0.103	-0.070
-160.764	-47.385	0.180	-0.086
-159.750	182.714	0.177	0.257
-158.735	-85.272	-0.061	0.019
-157.720	-12.707	-0.176	-0.113
-156.706	157.415	-0.252	-0.344
-155.691	-85.747	0.184	0.056
-154.677	130.531	-0.085	-0.107
-153.662	154.073	0.138	-0.186
-152.647	-92.611	0.204	0.056
-151.633	44.716	-0.056	0.051
-150.618	293.022	0.065	-0.117
-149.604	521.692	-0.063	0.146
-148.589	42.520	0.226	0.203
-147.574	-200.000	-0.021	-0.093
-146.560	259.723	-0.104	-0.178
-145.545	18.972	-0.129	-0.102
-144.531	-200.000	-0.009	0.259
-143.516	-14.788	-0.133	-0.084
-142.502	-119.929	-0.183	0.031
-141.487	-115.318	-0.340	0.063
-140.472	71.289	0.108	0.111
-139.458	-200.000	-0.019	0.241
-138.443	404.591	-0.073	0.152
-137.429	263.831	-0.143	-0.246
-136.414	-129.368	0.239	0.033
-135.399	-200.000	0.014	-0.124
-134.385	-99.664	-0.063	0.016
-133.370	-62.313	-0.185	-0.076
-132.356	-38.611	0.147	-0.076
-131.341	450.466	0.142	-0.309
-130.326	158.608	-0.205	-0.281
-129.312	-200.000	0.078	-0.463
-128.297	-109.737	-0.075	-0.016
-127.283	258.974	-0.075	-0.128
-126.268	16.025	0.018	-0.014
-125.253	-150.867	-0.348	0.026
-124.239	-27.975	-0.404	-0.231
-123.224	800.000	0.022	0.091
-122.210	-86.973	-0.493	0.148
