DTS Sentinel unit serial number:	SN413079Multiplexer serial number:	ORYXHardware model number:	OX4-SRSoftware version number:	ORYX F/W v4.00 Oryx Data Collector v3.7.2.0data status	okinstallation	princeton_trtdifferential loss correction	single-endedforward channel	channel 2reverse channel	N/Adate	2019/09/19time	10:07:35forward acquisition time	60.00reverse acquisition time	0.00gamma	496.2192k internal	0.2345k external	0.2345temperature offset calibration	1.0006default loss term (dB/km)	0.3790temperature slope calibration	1.0000multiplexer offset coefficient	1.0000multiplexer slope coefficient	1.0000fibre end	0.00T internal ref (°C)	23.94T ext. ref 1 (°C)	0.68T ext. ref 2 (°C)	19.70length (m)	temperature (°C)	Stokes	anti-Stokes-747.200	109.659	-0.137	-0.164
-746.185	185.480	-0.073	0.108
-745.171	-109.570	0.350	-0.074
-744.156	-113.058	-0.255	-0.050
-743.142	-89.404	0.285	-0.084
-742.127	162.915	0.225	0.315
-741.112	683.033	0.109	0.286
-740.098	-171.965	-0.251	-0.008
-739.083	65.382	-0.251	-0.254
-738.069	-137.207	-0.171	0.019
-737.054	-36.722	-0.236	-0.127
-736.039	-123.284	-0.098	-0.016
-735.025	131.190	0.042	0.054
-734.010	-32.838	-0.260	-0.144
-732.996	-200.000	0.041	0.235
-731.981	-159.110	0.140	0.008
-730.966	-103.364	-0.127	-0.030
-729.952	591.745	-0.006	0.016
-728.937	-200.000	0.038	-0.480
-727.923	37.048	0.217	-0.192
-726.908	20.774	0.072	-0.058
-725.894	-11.033	-0.178	-0.117
-724.879	-153.399	-0.296	0.021
-723.864	-200.000	-0.031	-0.220
-722.850	-200.000	-0.024	0.422
-721.835	32.809	0.320	0.276
-720.821	101.644	-0.178	0.208
-719.806	494.871	0.109	-0.251
-718.791	140.719	-0.031	0.041
-717.777	91.507	0.154	0.173
-716.762	-90.818	-0.161	-0.046
-715.748	-40.949	-0.117	-0.061
-714.733	158.092	-0.043	0.059
-713.718	-45.309	-0.287	-0.142
-712.704	-29.011	0.188	0.108
-711.689	800.000	0.108	0.386
-710.675	-68.868	0.377	0.145
-709.660	15.761	0.156	0.123
-708.645	800.000	-0.018	-0.060
-707.631	-26.218	0.232	-0.136
-706.616	-200.000	0.019	0.206
-705.602	71.067	0.114	-0.119
-704.587	153.811	-0.202	-0.276
-703.572	800.000	0.049	-0.150
-702.558	17.474	0.372	0.296
-701.543	-153.972	0.087	0.006
-700.529	188.782	-0.053	0.079
-699.514	240.576	0.119	0.198
-698.499	250.741	0.127	0.215
-697.485	800.000	-0.049	0.185
-696.470	-77.510	-0.338	-0.117
-695.456	-200.000	-0.028	-0.123
-694.441	-114.629	-0.354	-0.068
-693.426	84.191	0.092	-0.100
-692.412	76.536	-0.061	-0.065
-691.397	-200.000	0.162	0.000
-690.383	-142.228	-0.173	-0.017
-689.368	-47.448	-0.252	-0.122
-688.354	-200.000	0.011	-0.323
-687.339	225.517	0.073	-0.118
-686.324	-19.535	-0.178	-0.110
-685.310	-81.234	-0.248	0.082
-684.295	-63.763	0.172	-0.070
-683.281	343.628	-0.120	0.235
-682.266	-110.668	-0.321	0.066
-681.251	-140.617	0.188	0.019
-680.237	56.573	0.087	0.085
-679.222	-62.096	-0.113	-0.047
-678.208	-133.752	0.290	0.036
-677.193	-144.192	0.274	-0.026
-676.178	-42.208	0.169	-0.086
-675.164	17.011	-0.142	-0.112
-674.149	72.112	-0.172	0.178
-673.135	-200.000	-0.055	-0.285
-672.120	-200.000	0.019	0.204
-671.105	-34.547	-0.120	0.066
-670.091	57.465	0.215	0.209
-669.076	-200.000	0.047	-0.367
-668.062	-22.334	-0.108	-0.065
-667.047	-29.058	-0.259	-0.148
-666.032	402.175	0.027	-0.057
-665.018	73.745	0.240	-0.251
-664.003	42.451	-0.198	-0.179
-662.989	-168.568	-0.102	0.004
-661.974	-48.354	-0.453	-0.218
-660.959	436.354	-0.060	0.131
-659.945	-114.323	-0.011	-0.002
-658.930	76.941	-0.034	-0.036
-657.916	-172.907	-0.219	0.007
-656.901	326.868	0.090	-0.172
-655.886	211.873	0.121	-0.190
-654.872	1.587	-0.090	-0.065
-653.857	-86.218	0.132	0.040
-652.843	10.558	-0.146	-0.111
-651.828	-200.000	0.001	0.012
-650.814	-101.656	-0.274	-0.066
-649.799	-52.736	0.196	0.090
-648.784	-1.780	-0.215	0.151
-647.770	49.219	0.197	-0.184
-646.755	-142.560	0.290	-0.028
-645.741	-170.656	-0.229	-0.008
-644.726	-100.908	0.182	0.045
-643.711	-77.403	0.065	-0.023
-642.697	-197.988	-0.422	-0.003
-641.682	-200.000	-0.017	0.156
-640.668	800.000	0.040	-0.135
-639.653	313.681	0.099	-0.185
-638.638	124.441	-0.089	0.111
-637.624	69.906	-0.168	-0.172
-636.609	-69.820	0.194	-0.074
-635.595	800.000	0.082	-0.299
-634.580	-28.919	-0.272	0.156
-633.565	-200.000	0.016	-0.177
-632.551	440.255	-0.047	0.103
-631.536	310.419	0.120	0.223
-630.522	800.000	0.007	-0.028
-629.507	-126.351	-0.299	0.044
-628.492	-1.686	0.342	0.240
-627.478	214.458	0.122	-0.192
-626.463	-5.391	0.159	-0.109
-625.449	-28.274	-0.117	-0.067
-624.434	141.349	0.101	-0.134
-623.419	800.000	-0.103	0.347
-622.405	800.000	-0.062	0.206
-621.390	800.000	-0.067	0.210
-620.376	75.573	-0.160	-0.169
-619.361	100.394	-0.078	0.090
-618.346	21.860	-0.323	-0.262
-617.332	-200.000	0.015	0.313
-616.317	174.104	0.104	-0.150
-615.303	-113.551	-0.134	-0.026
-614.288	-200.000	0.079	0.353
-613.273	222.886	-0.150	0.241
-612.259	58.665	-0.115	-0.113
-611.244	800.000	0.156	-0.530
-610.230	78.277	-0.144	-0.153
-609.215	-97.968	0.145	-0.037
-608.201	-135.847	-0.247	-0.029
-607.186	-109.003	-0.195	0.041
-606.171	-100.018	0.043	0.011
-605.157	80.488	-0.231	0.248
-604.142	172.033	-0.112	0.161
-603.128	-143.872	0.182	-0.017
-602.113	-133.721	0.094	-0.012
-601.098	-45.566	-0.236	-0.116
-600.084	-98.834	0.123	0.031
-599.069	-200.000	0.066	0.306
-598.055	-200.000	0.023	0.127
-597.040	-50.242	-0.200	-0.094
-596.025	-200.000	-0.017	-0.095
-595.011	119.097	-0.034	-0.042
-593.996	-81.307	-0.110	-0.036
-592.982	790.305	-0.099	0.271
-591.967	111.083	0.120	-0.144
-590.952	-125.811	0.092	-0.014
-589.938	-28.616	0.167	-0.095
-588.923	-34.275	0.173	0.094
-587.909	-200.000	0.015	0.210
-586.894	456.614	0.037	0.082
-585.879	-112.048	-0.193	0.039
-584.865	61.563	0.193	0.191
-583.850	-132.664	-0.309	0.039
-582.836	-127.528	-0.068	-0.010
-581.821	-200.000	-0.016	-0.210
-580.806	800.000	-0.010	0.035
-579.792	-200.000	-0.020	0.169
-578.777	-88.776	-0.114	0.034
-577.763	-200.000	-0.029	0.337
-576.748	18.498	-0.104	0.083
-575.733	-49.571	0.220	0.104
-574.719	-101.805	-0.318	0.077
-573.704	-121.083	0.200	-0.033
-572.690	13.947	-0.064	0.049
-571.675	-200.000	-0.014	0.317
-570.661	155.539	0.112	0.153
-569.646	201.903	-0.086	0.132
-568.631	357.106	0.059	-0.117
-567.617	-41.161	-0.174	0.089
-566.602	-10.159	-0.174	-0.115
-565.588	-150.468	-0.249	-0.019
-564.573	121.393	-0.129	0.160
-563.558	-100.607	-0.190	0.047
-562.544	800.000	0.070	0.286
-561.529	339.222	-0.122	-0.236
-560.515	-30.963	-0.215	0.121
-559.500	-187.518	-0.436	-0.006
-558.485	-38.093	-0.114	-0.060
-557.471	-124.323	0.129	-0.020
-556.456	179.774	0.194	-0.283
-555.442	583.526	-0.072	-0.176
-554.427	118.754	0.088	-0.108
-553.412	489.278	-0.067	-0.151
-552.398	-60.636	0.130	0.055
-551.383	800.000	0.029	-0.110
-550.369	114.416	0.174	0.210
-549.354	-200.000	-0.011	-0.064
-548.339	-115.323	-0.318	-0.060
-547.325	201.279	0.114	0.174
-546.310	-140.216	-0.181	0.019
-545.296	800.000	0.025	-0.080
-544.281	77.021	0.102	-0.107
-543.266	-200.000	-0.001	0.012
-542.252	-7.483	0.292	-0.196
-541.237	79.340	0.131	0.139
-540.223	39.985	-0.158	-0.141
-539.208	-45.768	-0.110	0.054
-538.193	-118.786	0.388	-0.068
-537.179	800.000	-0.051	-0.152
-536.164	-12.954	-0.299	-0.193
-535.150	-10.659	-0.059	-0.039
-534.135	34.242	0.146	-0.126
-533.121	-200.000	0.053	-0.421
-532.106	-167.531	0.061	-0.002
-531.091	257.864	-0.089	-0.152
-530.077	-200.000	-0.030	-0.231
-529.062	475.950	-0.105	-0.236
-528.048	265.476	-0.122	0.211
-527.033	-200.000	0.059	-0.279
-526.018	-88.898	-0.205	0.060
-525.004	380.239	0.109	-0.222
-523.989	-94.826	0.035	-0.010
-522.975	800.000	-0.103	-0.348
-521.960	-2.448	-0.109	-0.076
-520.945	-21.627	0.375	0.227
-519.931	79.650	0.041	0.044
-518.916	142.126	0.138	0.181
-517.902	-198.186	0.122	0.001
-516.887	-104.850	-0.177	0.040
-515.872	-200.000	-0.012	0.189
-514.858	-163.196	0.349	0.017
-513.843	-19.133	0.174	-0.107
-512.829	31.913	-0.044	0.038
-511.814	-83.001	0.169	-0.054
-510.799	-75.405	-0.152	0.054
-509.785	-101.651	-0.276	-0.066
-508.770	267.412	-0.165	0.285
-507.756	491.236	-0.163	-0.369
-506.741	-56.852	-0.162	0.071
-505.726	800.000	-0.016	0.050
-504.712	308.999	0.087	-0.162
-503.697	204.012	0.087	-0.133
-502.683	-38.088	0.148	0.078
-501.668	-200.000	-0.010	-0.378
-500.653	-200.000	0.004	-0.288
-499.639	-200.000	-0.005	-0.051
-498.624	239.267	0.044	-0.073
-497.610	44.282	-0.087	-0.079
-496.595	-4.467	0.271	0.186
-495.581	-32.188	0.211	-0.117
-494.566	-200.000	-0.069	0.370
-493.551	26.593	-0.040	0.033
-492.537	-132.168	0.335	0.043
-491.522	248.497	0.019	0.032
-490.508	-122.394	-0.360	-0.058
-489.493	-89.895	0.210	0.061
-488.478	-171.473	0.175	-0.006
-487.464	-13.807	-0.058	0.037
-486.449	21.728	0.210	-0.169
-485.435	-42.576	0.145	-0.073
-484.420	-62.377	-0.162	0.067
-483.405	-200.000	-0.003	0.119
-482.391	690.491	-0.110	0.285
-481.376	-200.000	-0.010	-0.082
-480.362	-41.535	-0.213	-0.108
-479.347	800.000	0.021	0.089
-478.332	-20.530	-0.134	-0.082
-477.318	110.427	0.194	-0.231
-476.303	-78.595	-0.374	-0.127
-475.289	800.000	-0.146	0.411
-474.274	4.954	0.101	-0.074
-473.259	529.440	-0.012	-0.029
-472.245	-186.023	0.324	-0.005
-471.230	-4.020	0.275	0.189
-470.216	459.772	-0.069	0.152
-469.201	-200.000	0.010	0.062
-468.186	319.826	-0.112	-0.210
-467.172	467.713	0.166	0.368
-466.157	800.000	0.078	0.297
-465.143	-200.000	-0.008	0.105
-464.128	147.577	-0.189	0.252
-463.113	800.000	0.095	-0.361
-462.099	-58.687	-0.101	0.043
-461.084	-61.400	0.255	0.106
-460.070	32.885	-0.406	0.348
-459.055	-122.038	-0.347	0.056
-458.040	387.994	0.025	0.052
-457.026	-45.450	0.057	-0.028
-456.011	5.761	-0.221	0.161
-454.997	-200.000	-0.004	0.172
-453.982	682.495	0.140	0.361
-452.968	140.855	0.109	-0.143
-451.953	183.182	0.125	-0.183
-450.938	-133.578	-0.192	-0.024
-449.924	56.350	-0.124	-0.119
-448.909	136.189	0.149	-0.192
-447.895	171.827	-0.147	0.208
-446.880	647.374	0.103	-0.261
-445.865	53.091	-0.171	-0.162
-444.851	2.696	-0.287	0.206
-443.836	-10.008	-0.139	0.091
-442.822	800.000	-0.045	0.175
-441.807	-53.946	-0.297	-0.134
-440.792	-74.317	-0.080	-0.029
-439.778	-109.463	0.156	0.033
-438.763	-200.000	0.013	0.078
-437.749	-200.000	-0.008	-0.071
-436.734	357.783	-0.040	0.079
-435.719	-18.178	-0.172	0.106
-434.705	39.085	0.366	-0.323
-433.690	11.213	0.105	-0.079
-432.676	88.457	-0.256	0.281
-431.661	485.588	-0.121	0.273
-430.646	-191.259	-0.070	0.001
-429.632	-109.778	0.306	0.064
-428.617	-45.545	-0.053	-0.026
-427.603	-130.974	-0.205	0.027
-426.588	800.000	0.080	0.267
-425.573	800.000	0.091	0.310
-424.559	-1.035	0.090	0.063
-423.544	-200.000	-0.048	0.361
-422.530	21.547	0.172	0.139
-421.515	-200.000	0.003	-0.032
-420.500	-200.000	-0.025	-0.270
-419.486	-115.467	0.164	0.030
-418.471	66.829	0.196	-0.198
-417.457	-72.074	0.485	0.178
-416.442	-200.000	0.018	0.170
-415.428	800.000	0.150	-0.425
-414.413	-135.737	-0.281	-0.033
-413.398	-85.894	-0.413	-0.126
-412.384	-125.367	-0.157	-0.024
-411.369	-155.017	0.144	-0.009
-410.355	800.000	0.093	-0.347
-409.340	-200.000	-0.028	-0.339
-408.325	-71.405	-0.152	0.056
-407.311	72.991	0.223	0.230
-406.296	-200.000	0.015	0.095
-405.282	104.662	0.220	-0.256
-404.267	88.639	0.173	0.190
-403.252	667.755	0.083	-0.212
-402.238	524.006	0.092	0.212
-401.223	128.469	-0.111	0.140
-400.209	-83.456	-0.486	0.154
-399.194	502.397	0.117	-0.267
-398.179	-74.239	0.146	0.052
-397.165	-70.238	-0.021	-0.008
-396.150	-200.000	-0.026	0.515
-395.136	-137.793	0.345	-0.038
-394.121	244.817	-0.100	-0.166
-393.106	187.170	0.212	-0.311
-392.092	340.087	0.160	0.308
-391.077	-200.000	-0.033	0.234
-390.063	800.000	-0.082	-0.317
-389.048	38.755	-0.291	0.257
-388.033	-8.097	0.066	0.044
-387.019	60.570	0.089	-0.087
-386.004	-43.150	0.123	-0.061
-384.990	108.181	-0.297	-0.350
-383.975	411.709	-0.212	0.444
-382.960	-125.156	0.231	-0.035
-381.946	149.813	0.202	-0.270
-380.931	-144.115	-0.225	-0.021
-379.917	53.100	0.177	-0.167
-378.902	472.344	0.087	0.192
-377.888	800.000	-0.072	-0.245
-376.873	158.439	0.116	-0.158
-375.858	65.355	-0.230	-0.230
-374.844	-15.781	-0.283	-0.178
-373.829	-63.065	0.175	0.071
-372.815	-200.000	0.038	0.210
-371.800	800.000	-0.182	-0.505
-370.785	210.919	0.039	-0.060
-369.771	-200.000	0.012	-0.341
-368.756	-42.720	0.269	-0.135
-367.742	-8.920	-0.308	0.204
-366.727	-93.520	0.068	-0.019
-365.712	115.136	0.080	-0.096
-364.698	189.807	-0.118	0.175
-363.683	218.199	-0.097	-0.152
-362.669	-200.000	0.086	0.403
-361.654	800.000	-0.106	0.443
-360.639	219.995	-0.067	-0.105
-359.625	-200.000	-0.038	0.208
-358.610	37.541	0.224	-0.196
-357.596	138.994	-0.127	0.165
-356.581	157.737	-0.030	-0.041
-355.566	-113.404	-0.158	-0.031
-354.552	-12.078	-0.461	0.297
-353.537	107.808	-0.209	-0.245
-352.523	800.000	-0.084	-0.239
-351.508	-123.638	0.384	0.060
-350.493	-51.835	-0.202	-0.092
-349.479	-200.000	-0.005	-0.185
-348.464	-200.000	-0.008	-0.092
-347.450	800.000	0.034	-0.125
-346.435	-200.000	0.023	-0.265
-345.420	-39.548	0.064	-0.033
-344.406	589.080	0.033	0.081
-343.391	-138.515	-0.143	-0.015
-342.377	-4.013	0.216	0.147
-341.362	-44.454	0.353	0.174
-340.348	72.742	-0.157	-0.162
-339.333	48.565	0.212	-0.196
-338.318	79.356	0.262	-0.276
-337.304	-200.000	0.038	0.431
-336.289	-200.000	0.000	0.183
-335.275	-200.000	-0.003	-0.204
-334.260	800.000	0.072	-0.272
-333.245	-93.868	0.169	-0.046
-332.231	212.102	-0.224	0.348
-331.216	-200.000	0.017	-0.080
-330.202	-35.696	-0.113	-0.061
-329.187	34.136	0.118	-0.101
-328.172	745.159	0.078	0.206
-327.158	-87.277	0.355	0.106
-326.143	62.420	-0.204	-0.200
-325.129	-106.807	0.170	0.037
-324.114	190.690	-0.050	0.074
-323.099	-200.000	0.008	0.339
-322.085	136.044	-0.165	0.211
-321.070	541.864	0.031	-0.072
-320.056	169.724	0.045	-0.063
-319.041	-200.000	0.009	0.125
-318.026	-3.624	0.056	-0.038
-317.012	153.626	0.066	-0.089
-315.997	19.102	0.256	0.202
-314.983	-160.419	0.266	0.014
-313.968	-89.092	0.181	0.053
-312.953	184.950	-0.206	-0.300
-311.939	-78.260	0.144	-0.049
-310.924	-67.833	0.285	-0.110
-309.910	-68.352	-0.303	0.116
-308.895	301.345	0.078	-0.142
-307.880	-49.309	0.400	0.188
-306.866	271.355	-0.081	-0.140
-305.851	-77.601	0.167	0.057
-304.837	-24.432	0.031	-0.018
-303.822	800.000	-0.066	0.194
-302.807	328.482	0.043	-0.082
-301.793	640.162	-0.073	0.184
-300.778	35.489	0.197	0.170
-299.764	-57.886	-0.147	0.063
-298.749	800.000	0.089	0.283
-297.735	216.079	0.166	-0.259
-296.720	-48.310	-0.047	0.022
-295.705	-68.420	-0.155	-0.059
-294.691	-200.000	-0.025	0.158
-293.676	800.000	-0.080	0.245
-292.662	-200.000	0.036	-0.171
-291.647	72.113	-0.088	0.090
-290.632	63.511	-0.074	-0.073
-289.618	-128.159	0.304	-0.043
-288.603	-200.000	0.000	0.103
-287.589	-200.000	-0.035	0.412
-286.574	181.525	-0.241	0.349
-285.559	697.511	-0.080	0.206
-284.545	-200.000	-0.008	-0.172
-283.530	-200.000	-0.006	0.314
-282.516	800.000	0.054	-0.211
-281.501	251.886	0.159	0.266
-280.486	800.000	-0.085	0.294
-279.472	11.799	0.173	-0.131
-278.457	-84.582	-0.217	-0.067
-277.443	-34.550	-0.353	-0.190
-276.428	800.000	0.048	0.138
-275.413	-197.607	0.298	0.002
-274.399	-126.334	0.233	0.034
-273.384	-125.935	-0.238	0.035
-272.370	219.795	0.160	-0.252
-271.355	-65.517	-0.123	-0.048
-270.340	-200.000	0.019	0.138
-269.326	-200.000	0.044	0.317
-268.311	-113.653	-0.133	0.025
-267.297	-151.054	-0.113	0.008
-266.282	-200.000	0.040	0.178
-265.267	363.535	0.139	0.275
-264.253	800.000	-0.033	-0.093
-263.238	-200.000	-0.022	0.507
-262.224	-148.543	-0.425	0.034
-261.209	1.607	-0.227	-0.160
-260.195	800.000	0.056	0.168
-259.180	309.977	0.051	-0.094
-258.165	694.916	0.113	0.292
-257.151	-96.085	0.129	0.034
-256.136	-124.772	0.302	-0.046
-255.122	105.433	0.230	-0.267
-254.107	-160.706	-0.174	-0.009
-253.092	800.000	0.016	0.054
-252.078	6.828	0.072	0.053
-251.063	-200.000	0.036	-0.515
-250.049	-54.490	-0.468	-0.208
-249.034	210.063	-0.053	-0.082
-248.019	-6.957	-0.147	-0.098
-247.005	-200.000	-0.008	0.069
-245.990	-116.341	0.336	0.061
-244.976	-200.000	0.049	-0.276
-243.961	-13.029	-0.268	-0.171
-242.946	101.711	0.262	-0.300
-241.932	19.681	0.089	-0.070
-240.917	-18.316	-0.122	0.075
-239.903	-200.000	0.045	-0.205
-238.888	-131.675	-0.061	0.008
-237.873	-200.000	-0.028	0.377
-236.859	-165.733	0.137	0.006
-235.844	191.730	-0.130	-0.191
-234.830	69.882	-0.097	-0.099
-233.815	-32.437	0.148	-0.081
-232.800	189.367	-0.201	-0.295
-231.786	-150.077	0.030	-0.002
-230.771	-79.488	-0.151	0.050
-229.757	-59.230	-0.095	0.040
-228.742	-42.577	-0.018	0.009
-227.727	462.381	-0.156	-0.340
-226.713	169.786	0.036	0.051
-225.698	18.247	-0.118	0.092
-224.684	-10.480	0.366	-0.238
-223.669	85.880	0.038	0.041
-222.655	-0.431	-0.114	-0.079
-221.640	800.000	-0.041	-0.136
-220.625	394.708	-0.066	-0.135
-219.611	376.202	0.089	0.179
-218.596	345.503	0.078	-0.151
-217.582	-81.806	-0.413	-0.133
-216.567	154.175	0.050	-0.067
-215.552	-200.000	0.044	-0.237
-214.538	-200.000	0.008	0.093
-213.523	-39.933	0.239	-0.122
-212.509	80.615	-0.092	-0.097
-211.494	-200.000	0.039	-0.185
-210.479	391.670	0.032	-0.066
-209.465	-90.404	0.216	0.061
-208.450	52.364	0.040	0.037
-207.436	-51.102	-0.249	-0.115
-206.421	-15.112	0.372	-0.233
-205.406	800.000	0.055	-0.183
-204.392	484.473	-0.144	-0.322
-203.377	-78.707	0.263	-0.088
-202.363	-16.153	-0.092	-0.057
-201.348	-68.789	0.486	0.184
-200.333	-118.861	0.244	-0.042
-199.319	-71.479	-0.434	0.159
-198.304	-86.899	0.216	0.064
-197.290	-128.562	-0.165	-0.023
-196.275	94.153	-0.034	0.038
-195.260	-160.382	0.222	0.012
-194.246	73.918	0.273	0.280
-193.231	132.034	-0.135	0.170
-192.217	19.396	0.144	-0.114
-191.202	-128.894	-0.078	-0.011
-190.187	112.567	0.199	0.235
-189.173	464.643	-0.038	-0.084
-188.158	83.458	-0.119	0.127
-187.144	253.401	-0.086	-0.144
-186.129	-108.183	-0.331	-0.070
-185.114	-21.702	0.130	-0.078
-184.100	517.892	0.025	0.057
-183.085	-200.000	0.047	-0.237
-182.071	284.555	-0.195	-0.344
-181.056	-115.331	0.089	-0.017
-180.042	-198.962	0.275	-0.001
-179.027	-22.517	0.171	0.101
-178.012	-200.000	-0.003	0.052
-176.998	-41.602	0.481	0.242
-175.983	29.253	-0.126	-0.105
-174.969	-200.000	-0.043	-0.291
-173.954	-200.000	0.008	-0.110
-172.939	-73.904	0.197	0.070
-171.925	-200.000	0.050	-0.251
-170.910	95.380	0.216	0.241
-169.896	-200.000	0.006	0.191
-168.881	113.682	0.100	-0.118
-167.866	-50.584	0.324	0.150
-166.852	180.468	-0.103	0.148
-165.837	-63.348	0.181	0.073
-164.823	397.226	-0.155	-0.317
-163.808	73.174	0.168	0.172
-162.793	-61.941	-0.035	0.015
-161.779	-114.153	0.160	-0.030
-160.764	-200.000	0.037	0.165
-159.750	-147.923	-0.171	-0.014
-158.735	-132.015	-0.406	0.052
-157.720	158.889	0.123	-0.167
-156.706	65.803	-0.169	0.167
-155.691	180.977	-0.156	-0.223
-154.677	51.785	-0.173	0.161
-153.662	371.525	0.184	0.364
-152.647	-75.839	-0.433	0.150
-151.633	271.267	-0.276	-0.475
-150.618	83.005	-0.111	-0.118
-149.604	59.402	0.179	0.172
-148.589	800.000	0.118	0.422
-147.574	-118.093	-0.099	0.017
-146.560	240.659	0.128	0.208
-145.545	-141.584	0.355	-0.035
-144.531	667.954	0.071	-0.180
-143.516	-94.139	-0.278	-0.074
-142.502	800.000	0.062	0.248
-141.487	-200.000	-0.002	0.284
-140.472	-88.916	0.347	-0.101
-139.458	106.607	0.140	-0.163
-138.443	586.502	0.088	0.210
-137.429	-200.000	0.042	0.383
-136.414	-151.972	0.288	-0.021
-135.399	-12.449	-0.258	0.165
-134.385	-167.917	0.299	-0.011
-133.370	-65.042	0.099	-0.039
-132.356	318.578	-0.030	-0.055
-131.341	-14.005	0.059	0.037
-130.326	800.000	0.066	-0.281
-129.312	60.937	0.032	-0.031
-128.297	-157.403	-0.099	-0.006
-127.283	522.190	-0.124	0.284
-126.268	-166.696	-0.195	-0.008
-125.253	-89.730	-0.078	0.022
-124.239	419.924	0.071	-0.148
-123.224	-60.452	-0.079	0.033
-122.210	800.000	-0.046	-0.148
