DTS Sentinel unit serial number:	SN413079Multiplexer serial number:	ORYXHardware model number:	OX4-SRSoftware version number:	ORYX F/W v4.00 Oryx Data Collector v3.7.2.0data status	okinstallation	princeton_trtdifferential loss correction	single-endedforward channel	channel 2reverse channel	N/Adate	2019/09/11time	10:49:10forward acquisition time	60.00reverse acquisition time	0.00gamma	496.2192k internal	0.2309k external	0.2309temperature offset calibration	0.9967default loss term (dB/km)	0.3790temperature slope calibration	1.0000multiplexer offset coefficient	1.0000multiplexer slope coefficient	1.0000fibre end	0.00T internal ref (°C)	36.92T ext. ref 1 (°C)	0.17T ext. ref 2 (°C)	33.45length (m)	temperature (°C)	Stokes	anti-Stokes-747.200	-15.268	-0.314	0.204
-746.185	54.720	0.196	0.192
-745.171	114.685	-0.147	0.182
-744.156	-200.000	0.034	0.284
-743.142	-12.724	-0.188	0.125
-742.127	136.509	-0.062	0.082
-741.112	-200.000	-0.062	-0.404
-740.098	187.876	-0.143	0.217
-739.083	-200.000	0.084	0.407
-738.069	800.000	0.128	0.426
-737.054	-39.349	0.182	0.097
-736.039	273.447	-0.165	-0.296
-735.025	22.283	-0.207	0.172
-734.010	136.934	-0.066	0.088
-732.996	-200.000	0.003	-0.178
-731.981	85.373	0.151	-0.168
-730.966	178.228	0.151	0.224
-729.952	629.306	0.040	-0.103
-728.937	-200.000	0.004	0.245
-727.923	92.894	-0.209	-0.240
-726.908	-5.693	-0.184	-0.128
-725.894	-110.086	-0.207	0.044
-724.879	529.094	-0.111	0.266
-723.864	235.562	-0.104	-0.174
-722.850	-96.731	-0.460	0.123
-721.835	82.453	-0.095	0.105
-720.821	-32.789	-0.289	0.163
-719.806	-62.725	0.190	-0.080
-718.791	-5.739	-0.249	-0.173
-717.777	-65.102	-0.166	-0.068
-716.762	-200.000	-0.079	-0.395
-715.748	800.000	0.032	-0.123
-714.733	-154.768	-0.485	0.033
-713.718	-143.422	0.261	-0.025
-712.704	-200.000	-0.032	0.218
-711.689	-81.205	-0.307	-0.103
-710.675	-200.000	0.048	-0.344
-709.660	-4.080	0.129	0.091
-708.645	317.100	0.077	0.147
-707.631	553.826	-0.061	0.148
-706.616	-129.578	0.411	-0.058
-705.602	-191.601	0.126	0.001
-704.587	214.037	0.088	0.141
-703.572	235.197	0.119	-0.199
-702.558	-71.123	0.390	-0.149
-701.543	-200.000	0.062	0.484
-700.529	20.830	0.166	-0.136
-699.514	800.000	0.072	-0.211
-698.499	177.539	-0.123	-0.182
-697.485	175.602	-0.190	-0.280
-696.470	800.000	0.016	0.059
-695.456	83.252	0.172	-0.190
-694.441	-18.757	-0.162	-0.102
-693.426	-102.486	-0.393	-0.095
-692.412	-200.000	0.017	-0.138
-691.397	28.280	-0.101	0.086
-690.383	183.461	-0.241	-0.361
-689.368	-200.000	0.072	-0.403
-688.354	36.605	0.104	-0.093
-687.339	-200.000	0.001	0.146
-686.324	-40.144	-0.485	-0.256
-685.310	84.422	0.110	-0.122
-684.295	151.240	-0.103	0.141
-683.281	185.091	-0.173	0.260
-682.266	335.385	-0.161	0.317
-681.251	-200.000	-0.021	0.179
-680.237	800.000	-0.090	0.280
-679.222	-200.000	0.076	-0.441
-678.208	263.066	-0.130	0.229
-677.193	-175.510	0.201	-0.006
-676.178	-47.111	0.265	-0.131
-675.164	-200.000	0.001	-0.421
-674.149	146.485	0.082	-0.112
-673.135	800.000	-0.058	0.185
-672.120	12.021	0.110	0.086
-671.105	-13.447	-0.098	0.064
-670.091	800.000	0.043	0.151
-669.076	180.730	-0.138	-0.206
-668.062	-149.991	-0.096	-0.008
-667.047	-160.593	0.276	-0.015
-666.032	-40.650	-0.104	-0.054
-665.018	83.237	0.137	0.151
-664.003	-130.563	0.344	-0.047
-662.989	-200.000	0.006	0.176
-661.974	36.896	-0.228	0.204
-660.959	-109.093	-0.227	-0.049
-659.945	-59.947	0.263	-0.114
-658.930	80.939	0.025	-0.027
-657.916	422.279	-0.031	-0.068
-656.901	-102.592	0.229	0.055
-655.886	626.322	0.060	0.153
-654.872	-142.420	-0.084	-0.008
-653.857	-142.372	-0.190	-0.019
-652.843	-200.000	0.046	-0.206
-651.828	800.000	-0.037	0.110
-650.814	-33.082	-0.100	-0.056
-649.799	-19.004	-0.316	0.199
-648.784	-104.296	-0.261	-0.061
-647.770	318.576	-0.096	-0.184
-646.755	-180.395	-0.405	0.009
-645.741	118.249	-0.148	-0.184
-644.726	-200.000	-0.069	0.339
-643.711	-200.000	0.005	-0.252
-642.697	24.803	0.168	0.141
-641.682	-43.812	0.156	0.080
-640.668	-200.000	0.029	0.155
-639.653	-30.749	0.401	-0.230
-638.638	-42.333	0.123	0.063
-637.624	-189.495	0.127	0.001
-636.609	89.162	0.064	-0.072
-635.595	63.653	0.129	0.131
-634.580	290.141	-0.044	-0.081
-633.565	244.235	-0.071	0.121
-632.551	137.363	-0.129	-0.170
-631.536	11.097	-0.034	0.026
-630.522	103.654	0.288	-0.342
-629.507	-159.524	0.288	0.016
-628.492	-200.000	0.046	-0.306
-627.478	247.250	-0.005	0.008
-626.463	32.165	0.113	0.099
-625.449	-82.923	0.105	0.034
-624.434	-163.447	-0.258	0.012
-623.419	-63.774	0.324	0.134
-622.405	-136.867	0.118	0.014
-621.390	-4.499	0.122	0.085
-620.376	22.786	0.122	-0.101
-619.361	334.520	0.093	0.182
-618.346	40.975	-0.122	-0.111
-617.332	281.490	-0.238	-0.431
-616.317	128.027	0.163	0.209
-615.303	154.881	-0.074	0.102
-614.288	-200.000	-0.054	0.299
-613.273	-152.253	-0.179	0.013
-612.259	-193.848	0.587	0.005
-611.244	800.000	0.023	-0.085
-610.230	-3.673	0.186	0.131
-609.215	-200.000	0.047	-0.227
-608.201	-134.031	0.143	-0.018
-607.186	36.296	-0.270	0.240
-606.171	90.563	-0.158	-0.179
-605.157	-74.596	0.283	0.103
-604.142	-146.466	-0.469	-0.041
-603.128	-4.797	-0.349	0.243
-602.113	-93.176	-0.296	-0.083
-601.098	-65.699	0.326	-0.132
-600.084	-0.487	-0.045	-0.032
-599.069	364.983	-0.077	-0.156
-598.055	60.654	0.108	0.108
-597.040	800.000	0.141	0.455
-596.025	162.141	-0.146	-0.207
-595.011	-126.627	0.068	-0.010
-593.996	29.449	0.039	-0.034
-592.982	60.586	0.251	0.251
-591.967	347.946	-0.103	0.205
-590.952	-20.012	0.073	-0.045
-589.938	-23.922	-0.040	-0.024
-588.923	562.463	0.044	0.107
-587.909	-82.355	0.145	-0.048
-586.894	-2.564	0.104	0.073
-585.879	-90.009	0.167	0.049
-584.865	81.744	-0.082	-0.089
-583.850	3.991	0.158	0.117
-582.836	800.000	0.046	-0.157
-581.821	69.268	0.238	0.247
-580.806	321.074	0.118	0.227
-579.792	800.000	-0.030	0.087
-578.777	-83.483	-0.158	0.051
-577.763	-200.000	0.015	-0.068
-576.748	69.363	0.084	0.087
-575.733	127.940	-0.152	0.195
-574.719	22.383	-0.026	0.021
-573.704	400.642	-0.135	0.285
-572.690	800.000	0.013	-0.043
-571.675	-71.523	-0.152	0.057
-570.661	30.626	0.051	0.044
-569.646	132.628	-0.032	0.042
-568.631	-146.944	-0.193	0.017
-567.617	-86.788	-0.047	-0.015
-566.602	26.404	0.143	-0.121
-565.588	-200.000	0.022	0.121
-564.573	800.000	-0.048	0.201
-563.558	-11.153	-0.189	-0.126
-562.544	30.386	-0.167	-0.144
-561.529	-18.039	0.274	-0.173
-560.515	272.123	-0.057	0.102
-559.500	-102.707	-0.177	0.043
-558.485	129.037	-0.184	0.237
-557.471	61.073	-0.156	-0.156
-556.456	30.019	-0.176	-0.151
-555.442	67.644	-0.212	-0.219
-554.427	38.287	-0.078	0.070
-553.412	-200.000	-0.049	-0.314
-552.398	800.000	-0.028	-0.118
-551.383	-200.000	0.038	0.270
-550.369	-200.000	0.008	-0.361
-549.354	36.241	0.295	-0.262
-548.339	800.000	-0.093	-0.268
-547.325	-21.221	0.156	0.096
-546.310	354.587	0.050	-0.101
-545.296	-106.632	0.189	0.042
-544.281	47.594	-0.046	0.043
-543.266	659.170	0.080	0.207
-542.252	393.837	-0.078	0.163
-541.237	-200.000	-0.030	-0.387
-540.223	-200.000	-0.046	0.274
-539.208	657.410	-0.101	-0.263
-538.193	-133.560	-0.107	0.014
-537.179	14.940	-0.236	-0.186
-536.164	38.884	-0.169	-0.152
-535.150	-52.907	-0.212	-0.099
-534.135	-200.000	-0.035	-0.441
-533.121	-79.621	0.258	-0.088
-532.106	-200.000	-0.008	-0.051
-531.091	-200.000	-0.062	-0.385
-530.077	67.170	-0.231	-0.237
-529.062	-200.000	0.014	0.064
-528.048	-17.549	0.139	0.088
-527.033	-121.343	0.527	0.088
-526.018	81.081	-0.296	0.322
-525.004	166.648	-0.061	-0.088
-523.989	381.456	0.064	-0.132
-522.975	-74.530	-0.174	0.063
-521.960	-89.914	-0.158	0.047
-520.945	-122.276	-0.465	-0.077
-519.931	-134.614	0.279	0.034
-518.916	800.000	-0.052	0.153
-517.902	140.842	0.019	0.026
-516.887	74.002	-0.109	0.115
-515.872	-200.000	0.004	0.083
-514.858	-76.179	0.173	0.062
-513.843	180.428	-0.076	-0.112
-512.829	-77.484	-0.148	0.052
-511.814	14.272	-0.155	0.121
-510.799	628.958	-0.014	-0.035
-509.785	-200.000	-0.039	0.224
-508.770	-120.688	0.157	0.027
-507.756	697.009	-0.109	-0.288
-506.741	-32.638	0.075	0.042
-505.726	800.000	0.040	0.164
-504.712	800.000	-0.092	-0.342
-503.697	-200.000	0.031	0.546
-502.683	-200.000	0.004	-0.235
-501.668	88.112	-0.151	0.168
-500.653	-200.000	0.045	-0.507
-499.639	-200.000	-0.019	0.164
-498.624	263.282	0.093	-0.163
-497.610	211.718	-0.011	-0.018
-496.595	38.129	-0.270	0.242
-495.581	41.244	-0.193	0.175
-494.566	-92.706	-0.110	-0.031
-493.551	109.209	0.064	-0.077
-492.537	267.587	0.056	0.098
-491.522	439.902	0.053	-0.117
-490.508	122.454	0.194	-0.244
-489.493	-200.000	0.021	-0.146
-488.478	43.498	-0.123	-0.113
-487.464	236.126	0.132	-0.220
-486.449	-39.372	0.056	-0.030
-485.435	800.000	0.090	0.254
-484.420	18.530	-0.078	0.062
-483.405	-200.000	-0.037	0.191
-482.391	-117.640	-0.160	0.029
-481.376	-47.443	0.171	-0.083
-480.362	34.400	0.117	0.102
-479.347	208.833	0.077	-0.122
-478.332	-68.578	-0.318	-0.124
-477.318	498.950	-0.059	-0.137
-476.303	-200.000	-0.015	0.273
-475.289	-200.000	0.004	-0.131
-474.274	-80.240	-0.199	-0.067
-473.259	-125.578	-0.382	-0.058
-472.245	800.000	0.182	0.568
-471.230	-36.880	0.200	0.108
-470.216	-200.000	0.056	0.307
-469.201	-200.000	0.014	0.160
-468.186	1.557	-0.205	-0.148
-467.172	-200.000	0.037	-0.191
-466.157	-167.641	0.113	-0.005
-465.143	66.216	-0.120	0.122
-464.128	-31.735	-0.125	-0.071
-463.113	-187.015	-0.266	-0.004
-462.099	-22.889	0.112	0.068
-461.084	298.823	-0.194	0.358
-460.070	800.000	-0.133	0.453
-459.055	319.416	0.025	-0.047
-458.040	-11.187	-0.127	0.084
-457.026	-112.489	-0.251	0.050
-456.011	-46.264	0.274	-0.136
-454.997	-200.000	-0.095	-0.537
-453.982	-200.000	-0.015	0.137
-452.968	-100.706	0.378	0.094
-451.953	-199.603	0.103	0.001
-450.938	-200.000	-0.002	-0.156
-449.924	-138.641	0.309	-0.034
-448.909	583.676	0.005	0.013
-447.895	294.655	0.024	0.044
-446.880	-139.908	-0.253	-0.027
-445.865	-24.450	-0.402	-0.240
-444.851	-3.688	0.136	-0.095
-443.836	-200.000	0.024	-0.249
-442.822	21.038	-0.125	0.102
-441.807	-97.898	-0.021	0.005
-440.792	-200.000	-0.079	-0.367
-439.778	800.000	-0.035	0.104
-438.763	-1.044	-0.201	0.143
-437.749	275.537	0.068	0.122
-436.734	89.167	0.214	-0.239
-435.719	-82.423	0.172	0.056
-434.705	307.453	0.106	0.199
-433.690	36.215	-0.140	0.124
-432.676	-128.709	0.456	-0.065
-431.661	800.000	-0.021	-0.076
-430.646	-200.000	-0.031	0.190
-429.632	800.000	0.123	-0.347
-428.617	99.314	-0.121	-0.140
-427.603	-29.321	0.445	-0.256
-426.588	-61.977	-0.114	0.048
-425.573	-200.000	-0.004	0.380
-424.559	-58.923	-0.351	0.152
-423.544	103.866	0.076	-0.089
-422.530	-69.216	-0.039	0.015
-421.515	-50.712	0.253	0.120
-420.500	800.000	-0.082	-0.328
-419.486	-200.000	0.023	0.159
-418.471	-200.000	0.009	0.149
-417.457	800.000	-0.006	-0.022
-416.442	24.387	-0.265	0.220
-415.428	-27.667	-0.124	0.072
-414.413	653.894	0.053	0.137
-413.398	-171.613	0.038	0.001
-412.384	309.908	0.101	0.190
-411.369	-173.839	-0.188	0.006
-410.355	82.796	0.064	0.070
-409.340	254.506	0.060	0.103
-408.325	159.475	-0.102	-0.142
-407.311	717.617	-0.060	0.159
-406.296	-85.193	-0.316	-0.099
-405.282	55.781	0.202	-0.197
-404.267	11.915	0.376	0.290
-403.252	-32.148	-0.358	0.201
-402.238	319.713	-0.170	-0.323
-401.223	170.878	-0.123	-0.177
-400.209	-68.047	-0.067	-0.026
-399.194	77.457	-0.130	-0.139
-398.179	-140.127	0.172	-0.018
-397.165	138.300	0.134	-0.176
-396.150	-200.000	0.034	-0.289
-395.136	-200.000	0.024	-0.282
-394.121	800.000	-0.112	-0.330
-393.106	-13.776	0.268	-0.174
-392.092	5.637	0.126	-0.093
-391.077	56.418	-0.119	-0.115
-390.063	-200.000	-0.060	0.403
-389.048	800.000	0.049	0.170
-388.033	-200.000	-0.000	0.033
-387.019	-129.154	0.035	0.005
-386.004	-200.000	0.013	0.191
-384.990	-200.000	0.032	0.201
-383.975	-200.000	0.006	-0.151
-382.960	81.310	0.151	0.163
-381.946	-200.000	0.009	0.264
-380.931	35.451	-0.165	0.145
-379.917	78.301	-0.416	0.444
-378.902	-200.000	-0.004	0.133
-377.888	-200.000	0.024	0.322
-376.873	-42.031	-0.211	0.108
-375.858	-40.926	0.578	-0.299
-374.844	-75.315	-0.249	-0.089
-373.829	-31.151	-0.289	0.163
-372.815	-80.880	0.363	-0.121
-371.800	-70.800	-0.060	0.023
-370.785	8.288	-0.209	-0.157
-369.771	-200.000	-0.031	0.141
-368.756	-58.041	0.436	0.191
-367.742	8.494	-0.072	0.055
-366.727	97.768	0.067	0.078
-365.712	-46.488	-0.106	0.052
-364.698	-200.000	0.135	0.000
-363.683	800.000	-0.024	0.095
-362.669	-117.765	0.044	-0.008
-361.654	-73.969	-0.047	-0.017
-360.639	-47.011	0.149	0.073
-359.625	-200.000	0.007	-0.292
-358.610	-113.301	0.132	-0.026
-357.596	800.000	-0.067	-0.194
-356.581	-200.000	0.010	-0.119
-355.566	57.828	-0.117	0.115
-354.552	189.381	-0.030	0.046
-353.537	-200.000	0.009	-0.155
-352.523	466.079	0.018	0.040
-351.508	-110.308	-0.188	-0.039
-350.493	-10.431	0.149	0.099
-349.479	800.000	0.093	-0.292
-348.464	5.766	0.229	-0.170
-347.450	299.610	0.028	-0.052
-346.435	-200.000	0.007	-0.092
-345.420	-101.673	0.116	0.028
-344.406	-200.000	-0.003	-0.063
-343.391	-200.000	-0.004	-0.278
-342.377	139.539	0.062	0.081
-341.362	-5.900	0.150	0.103
-340.348	194.137	0.066	0.100
-339.333	-87.114	0.060	0.018
-338.318	248.246	-0.165	0.279
-337.304	800.000	-0.054	0.206
-336.289	-90.446	0.221	0.064
-335.275	800.000	-0.035	-0.145
-334.260	-200.000	-0.036	-0.178
-333.245	800.000	-0.056	-0.187
-332.231	-139.415	-0.196	0.021
-331.216	-155.591	-0.080	-0.005
-330.202	-200.000	0.020	-0.177
-329.187	-118.887	-0.152	-0.027
-328.172	-119.338	-0.329	-0.057
-327.158	-200.000	-0.123	0.567
-326.143	547.121	-0.170	0.406
-325.129	-200.000	0.046	-0.242
-324.114	-88.245	-0.199	0.059
-323.099	55.411	-0.165	0.159
-322.085	138.071	-0.082	0.107
-321.070	168.304	0.068	0.097
-320.056	94.003	0.113	-0.128
-319.041	800.000	-0.092	-0.321
-318.026	-200.000	-0.001	0.280
-317.012	-200.000	0.052	0.312
-315.997	-68.767	0.072	-0.028
-314.983	800.000	0.046	0.148
-313.968	-200.000	-0.002	0.288
-312.953	90.678	-0.053	-0.059
-311.939	-200.000	0.011	0.110
-310.924	-151.685	0.133	-0.010
-309.910	210.379	-0.193	-0.302
-308.895	76.993	0.184	-0.196
-307.880	-35.873	0.322	0.174
-306.866	134.407	-0.160	0.207
-305.851	-137.170	-0.165	0.019
-304.837	-200.000	-0.006	0.233
-303.822	-136.548	0.021	-0.002
-302.807	284.508	0.144	-0.258
-301.793	86.659	0.154	0.170
-300.778	-84.488	-0.211	-0.066
-299.764	17.149	0.146	-0.115
-298.749	-93.503	-0.118	0.033
-297.735	318.381	-0.219	-0.415
-296.720	-157.046	0.151	0.009
-295.705	57.673	-0.201	0.196
-294.691	-31.839	0.119	-0.067
-293.676	124.326	-0.147	-0.185
-292.662	-61.946	0.221	0.092
-291.647	-87.221	-0.178	0.054
-290.632	800.000	0.053	-0.205
-289.618	111.540	0.235	0.283
-288.603	-135.809	0.182	0.022
-287.589	-62.715	-0.130	-0.054
-286.574	171.590	-0.229	0.328
-285.559	567.969	0.106	0.258
-284.545	-94.434	-0.075	-0.020
-283.530	-200.000	-0.049	-0.223
-282.516	-156.727	0.246	0.015
-281.501	317.091	-0.169	-0.318
-280.486	-34.241	-0.163	-0.089
-279.472	251.997	0.145	0.246
-278.457	-133.531	0.187	0.023
-277.443	629.518	0.064	-0.162
-276.428	120.876	0.221	0.274
-275.413	182.206	0.060	0.088
-274.399	-62.220	-0.021	-0.009
-273.384	-200.000	-0.026	-0.159
-272.370	268.048	0.069	-0.121
-271.355	-19.611	-0.221	0.136
-270.340	360.952	0.054	-0.109
-269.326	-4.004	-0.198	-0.137
-268.311	800.000	-0.013	-0.048
-267.297	-200.000	0.008	0.068
-266.282	-157.101	0.286	0.017
-265.267	-200.000	0.005	-0.206
-264.253	-109.410	-0.259	-0.055
-263.238	-35.560	0.182	-0.099
-262.224	207.924	0.136	-0.212
-261.209	-200.000	-0.081	0.393
-260.195	-89.417	-0.162	0.048
-259.180	129.941	-0.092	-0.118
-258.165	116.146	-0.104	0.127
-257.151	-143.341	-0.259	0.025
-256.136	800.000	0.091	-0.263
-255.122	-200.000	0.003	0.047
-254.107	-200.000	-0.003	0.119
-253.092	-200.000	0.048	0.243
-252.078	560.383	0.037	0.090
-251.063	161.269	-0.167	-0.233
-250.049	-151.415	0.194	0.014
-249.034	28.002	0.266	0.224
-248.019	-200.000	0.127	0.000
-247.005	-154.830	-0.364	0.024
-245.990	-149.429	0.317	-0.025
-244.976	-161.822	-0.124	-0.006
-243.961	471.043	0.091	-0.203
-242.946	628.145	0.063	-0.159
-241.932	125.171	-0.281	-0.352
-240.917	-62.355	-0.299	-0.124
-239.903	-54.245	0.412	0.187
-238.888	-200.000	-0.030	0.174
-237.873	41.756	-0.103	0.093
-236.859	72.999	0.079	0.082
-235.844	12.706	0.188	-0.144
-234.830	-128.859	0.249	-0.035
-233.815	-200.000	0.027	-0.241
-232.800	-98.566	0.084	-0.021
-231.786	-56.927	-0.085	-0.037
-230.771	528.366	-0.120	-0.283
-229.757	96.325	0.107	0.121
-228.742	75.833	0.157	-0.165
-227.727	44.799	-0.159	-0.145
-226.713	63.058	0.066	0.065
-225.698	-200.000	0.015	-0.224
-224.684	-40.505	-0.558	-0.289
-223.669	-116.821	0.464	0.085
-222.655	151.868	0.159	0.216
-221.640	-77.114	0.094	0.033
-220.625	-16.106	0.154	0.098
-219.611	-45.272	-0.329	-0.163
-218.596	-5.292	0.160	0.110
-217.582	-71.132	-0.074	0.028
-216.567	-104.098	-0.247	-0.057
-215.552	138.317	0.208	0.271
-214.538	-200.000	0.005	0.026
-213.523	207.672	-0.118	-0.183
-212.509	111.368	-0.051	0.061
-211.494	91.378	0.035	0.039
-210.479	-78.533	-0.308	0.105
-209.465	-119.607	0.407	-0.070
-208.450	283.231	0.143	0.256
-207.436	-1.196	-0.110	0.077
-206.421	-146.060	0.239	0.021
-205.406	-200.000	-0.000	0.267
-204.392	-200.000	-0.008	0.105
-203.377	181.944	0.087	-0.127
-202.363	36.561	-0.324	-0.284
-201.348	287.031	0.147	0.265
-200.333	168.059	0.042	0.060
-199.319	800.000	-0.103	-0.363
-198.304	800.000	-0.050	-0.171
-197.290	800.000	-0.185	-0.582
-196.275	-167.431	0.065	0.003
-195.260	-167.472	0.562	-0.022
-194.246	-200.000	0.172	-0.001
-193.231	-3.267	-0.188	-0.130
-192.217	-119.179	-0.621	0.108
-191.202	-59.260	0.059	0.025
-190.187	-85.161	0.222	-0.069
-189.173	-93.951	0.432	-0.118
-188.158	-81.694	0.539	0.176
-187.144	-200.000	-0.013	-0.178
-186.129	162.625	-0.071	-0.100
-185.114	56.589	0.118	0.114
-184.100	-114.225	-0.109	-0.021
-183.085	-200.000	0.033	0.228
-182.071	-67.092	0.057	-0.022
-181.056	-106.465	0.283	-0.063
-180.042	-87.626	0.398	-0.120
-179.027	11.567	0.217	-0.165
-178.012	-200.000	0.012	-0.284
-176.998	-131.792	-0.218	0.028
-175.983	732.643	0.109	-0.291
-174.969	-130.138	-0.224	0.030
-173.954	138.135	0.087	-0.114
-172.939	-186.533	0.274	0.004
-171.925	-106.460	0.095	0.021
-170.910	-65.746	-0.286	0.114
-169.896	-91.011	-0.026	-0.007
-168.881	-200.000	-0.033	0.166
-167.866	146.987	0.092	-0.122
-166.852	800.000	0.020	0.082
-165.837	32.575	-0.166	-0.143
-164.823	-26.134	-0.092	-0.054
-163.808	-200.000	-0.029	0.217
-162.793	-184.679	-0.354	0.006
-161.779	-62.940	0.107	0.044
-160.764	800.000	-0.016	-0.058
-159.750	95.560	0.164	-0.186
-158.735	-155.927	-0.162	-0.010
-157.720	-200.000	0.021	0.231
-156.706	530.601	0.053	0.125
-155.691	-29.766	-0.035	0.020
-154.677	-28.886	-0.370	0.211
-153.662	-200.000	0.012	0.182
-152.647	13.635	0.113	-0.087
-151.633	-45.772	0.365	0.179
-150.618	416.539	0.058	0.124
-149.604	-49.815	-0.088	0.042
-148.589	-47.184	-0.320	-0.155
-147.574	83.396	0.063	-0.068
-146.560	-7.040	-0.146	0.098
-145.545	-75.772	0.119	0.042
-144.531	-48.912	-0.109	-0.052
-143.516	10.057	-0.069	-0.052
-142.502	202.361	0.074	0.113
-141.487	-200.000	-0.038	-0.185
-140.472	-35.365	-0.292	-0.157
-139.458	-83.324	0.258	0.082
-138.443	-166.745	0.260	-0.011
-137.429	800.000	0.077	-0.321
-136.414	460.936	-0.051	-0.113
-135.399	-200.000	0.066	0.406
-134.385	12.717	0.197	-0.151
-133.370	166.658	0.068	0.095
-132.356	800.000	0.115	0.370
-131.341	-99.524	0.074	-0.018
-130.326	67.686	0.174	0.177
-129.312	385.799	-0.068	0.139
-128.297	-2.759	0.132	0.092
-127.283	-118.430	-0.063	0.011
-126.268	-182.200	-0.215	-0.004
-125.253	73.667	-0.222	0.231
-124.239	-159.461	-0.247	0.014
-123.224	354.493	0.187	0.369
-122.210	-54.770	0.077	-0.035
-121.195	581.486	-0.158	-0.385
