DTS Sentinel unit serial number:	SN413079Multiplexer serial number:	ORYXHardware model number:	OX4-SRSoftware version number:	ORYX F/W v4.00 Oryx Data Collector v3.7.2.0data status	okinstallation	princeton_trtdifferential loss correction	single-endedforward channel	channel 2reverse channel	N/Adate	2019/09/14time	19:27:34forward acquisition time	60.00reverse acquisition time	0.00gamma	496.2192k internal	0.2320k external	0.2320temperature offset calibration	1.0098default loss term (dB/km)	0.3790temperature slope calibration	1.0000multiplexer offset coefficient	1.0000multiplexer slope coefficient	1.0000fibre end	0.00T internal ref (°C)	34.83T ext. ref 1 (°C)	4.87T ext. ref 2 (°C)	28.94length (m)	temperature (°C)	Stokes	anti-Stokes-747.200	-86.237	-0.187	-0.058
-746.185	-200.000	0.031	0.284
-745.171	157.062	-0.199	0.278
-744.156	228.630	0.100	0.164
-743.142	34.209	0.060	-0.053
-742.127	-200.000	0.009	0.319
-741.112	-68.584	-0.203	-0.079
-740.098	-90.955	0.170	0.050
-739.083	-34.222	0.391	0.217
-738.069	-136.863	-0.054	0.006
-737.054	38.851	-0.124	-0.112
-736.039	-200.000	-0.072	-0.360
-735.025	-43.252	0.100	0.051
-734.010	156.512	-0.200	-0.279
-732.996	-139.584	-0.045	-0.005
-731.981	286.214	-0.034	0.062
-730.966	-200.000	-0.002	-0.196
-729.952	-200.000	0.031	0.389
-728.937	-110.704	-0.058	0.012
-727.923	136.851	-0.082	-0.108
-726.908	789.835	0.079	-0.218
-725.894	-83.167	-0.112	-0.036
-724.879	22.501	0.221	-0.183
-723.864	244.706	-0.049	-0.083
-722.850	-67.049	-0.337	0.134
-721.835	-40.185	-0.090	0.047
-720.821	38.406	-0.242	-0.218
-719.806	-200.000	0.015	0.502
-718.791	-67.527	-0.220	-0.087
-717.777	-72.629	0.329	-0.123
-716.762	-39.775	-0.193	0.102
-715.748	-200.000	0.015	-0.135
-714.733	-95.944	0.125	0.034
-713.718	15.823	-0.216	-0.171
-712.704	199.845	0.055	0.085
-711.689	-89.200	0.210	0.063
-710.675	311.435	0.073	0.138
-709.660	-68.899	-0.126	0.049
-708.645	764.274	0.036	0.100
-707.631	800.000	-0.036	0.127
-706.616	15.022	-0.206	-0.163
-705.602	5.608	0.128	-0.095
-704.587	800.000	-0.106	-0.310
-703.572	207.069	-0.160	-0.252
-702.558	-47.509	-0.238	-0.117
-701.543	239.629	-0.162	-0.272
-700.529	-200.000	-0.010	0.195
-699.514	-200.000	0.021	0.351
-698.499	-33.061	-0.176	0.099
-697.485	-200.000	-0.018	-0.256
-696.470	276.981	0.238	-0.426
-695.456	575.577	0.179	-0.440
-694.441	232.943	-0.142	-0.235
-693.426	66.815	0.103	0.106
-692.412	221.535	0.210	-0.340
-691.397	179.495	0.047	0.069
-690.383	-116.476	0.372	-0.069
-689.368	-124.262	-0.182	-0.029
-688.354	153.119	-0.206	-0.285
-687.339	-114.138	-0.188	-0.037
-686.324	800.000	0.030	0.089
-685.310	86.818	-0.276	-0.307
-684.295	-107.401	0.114	-0.025
-683.281	800.000	-0.047	0.172
-682.266	4.659	-0.117	0.087
-681.251	159.406	-0.116	0.162
-680.237	-102.326	0.077	-0.019
-679.222	36.592	-0.184	-0.164
-678.208	-36.337	0.050	0.027
-677.193	-36.784	0.107	-0.058
-676.178	36.677	0.107	-0.095
-675.164	-41.175	-0.201	-0.105
-674.149	119.912	-0.109	0.136
-673.135	-35.346	-0.146	-0.080
-672.120	403.452	-0.135	-0.286
-671.105	-141.046	-0.319	0.033
-670.091	-54.769	0.198	-0.090
-669.076	58.931	-0.213	0.211
-668.062	800.000	0.124	0.363
-667.047	47.936	-0.096	-0.091
-666.032	21.960	-0.162	-0.133
-665.018	281.182	0.080	0.144
-664.003	-5.898	-0.172	0.119
-662.989	104.257	-0.142	-0.169
-661.974	97.147	0.198	0.229
-660.959	-200.000	-0.054	0.250
-659.945	-200.000	0.040	-0.333
-658.930	120.358	-0.093	0.116
-657.916	529.878	0.025	-0.059
-656.901	-20.688	0.241	0.149
-655.886	124.232	-0.097	0.123
-654.872	-45.164	-0.292	-0.146
-653.857	-200.000	0.016	0.370
-652.843	800.000	0.099	0.343
-651.828	41.797	0.162	0.148
-650.814	-139.316	-0.067	0.007
-649.799	-200.000	-0.029	-0.162
-648.784	-115.145	0.185	0.035
-647.770	-180.921	0.195	-0.004
-646.755	109.996	-0.051	-0.062
-645.741	800.000	0.028	0.120
-644.726	423.125	0.152	-0.328
-643.711	800.000	-0.076	-0.299
-642.697	241.011	-0.104	-0.175
-641.682	-200.000	-0.044	0.202
-640.668	-200.000	0.041	0.531
-639.653	800.000	0.056	0.173
-638.638	-200.000	0.018	-0.256
-637.624	-98.218	0.082	0.021
-636.609	-30.634	-0.078	-0.045
-635.595	276.908	0.089	-0.159
-634.580	44.207	-0.188	-0.174
-633.565	-200.000	-0.000	-0.028
-632.551	-78.804	-0.153	0.052
-631.536	39.549	0.081	0.073
-630.522	-125.897	-0.343	0.052
-629.507	-52.655	-0.129	-0.060
-628.492	-62.628	0.345	-0.144
-627.478	800.000	-0.090	0.278
-626.463	114.025	-0.152	-0.186
-625.449	146.169	-0.168	-0.227
-624.434	-13.459	0.264	0.172
-623.419	177.408	-0.045	0.066
-622.405	23.488	0.096	-0.079
-621.390	-84.628	0.196	-0.062
-620.376	-18.326	-0.101	0.063
-619.361	56.236	-0.247	0.242
-618.346	-168.755	-0.156	-0.006
-617.332	52.626	0.377	-0.362
-616.317	-33.018	-0.025	-0.014
-615.303	-181.252	-0.270	0.005
-614.288	150.817	0.053	0.072
-613.273	-200.000	0.023	-0.139
-612.259	98.304	-0.109	-0.127
-611.244	-69.166	0.170	-0.066
-610.230	-48.950	-0.163	-0.079
-609.215	-200.000	-0.002	-0.022
-608.201	-56.284	0.169	-0.075
-607.186	800.000	-0.041	0.140
-606.171	45.074	0.154	-0.143
-605.157	-119.921	-0.215	-0.037
-604.142	800.000	0.103	0.327
-603.128	-200.000	0.012	-0.292
-602.113	251.285	0.163	-0.278
-601.098	175.319	-0.153	-0.223
-600.084	-156.276	-0.202	-0.013
-599.069	-20.465	0.115	0.071
-598.055	800.000	-0.040	0.116
-597.040	-200.000	-0.083	-0.387
-596.025	95.925	-0.166	-0.191
-595.011	-86.378	-0.339	0.105
-593.996	-91.472	0.159	-0.046
-592.982	245.295	0.088	0.148
-591.967	-112.768	0.348	-0.070
-590.952	626.142	0.103	-0.262
-589.938	176.532	0.089	0.131
-588.923	-200.000	0.012	-0.217
-587.909	-106.231	0.265	0.060
-586.894	-200.000	0.003	0.201
-585.879	122.914	0.284	0.357
-584.865	-158.126	0.293	0.017
-583.850	-149.458	-0.188	-0.015
-582.836	-200.000	0.033	-0.303
-581.821	-82.981	0.208	-0.067
-580.806	-200.000	-0.073	-0.339
-579.792	-27.830	-0.176	-0.102
-578.777	-44.772	-0.292	-0.146
-577.763	-106.009	0.162	0.037
-576.748	-25.165	0.189	-0.112
-575.733	-88.106	0.114	0.034
-574.719	800.000	-0.042	0.161
-573.704	-45.346	-0.175	-0.087
-572.690	50.762	-0.058	-0.056
-571.675	-68.714	0.224	-0.087
-570.661	143.509	0.101	0.135
-569.646	-16.845	0.299	0.190
-568.631	-83.676	-0.131	0.042
-567.617	-127.443	0.086	-0.013
-566.602	-39.358	0.041	-0.021
-565.588	800.000	0.078	0.285
-564.573	36.360	-0.059	0.053
-563.558	-200.000	0.033	0.358
-562.544	67.206	0.115	0.118
-561.529	645.083	0.159	0.407
-560.515	800.000	0.023	0.101
-559.500	-200.000	-0.020	-0.258
-558.485	-16.666	-0.315	0.200
-557.471	16.306	-0.164	0.130
-556.456	-55.394	-0.194	0.087
-555.442	-200.000	0.006	-0.191
-554.427	-200.000	-0.006	0.108
-553.412	-113.927	-0.299	0.058
-552.398	-115.438	0.261	-0.049
-551.383	-200.000	-0.046	0.256
-550.369	165.686	-0.163	-0.231
-549.354	389.319	-0.080	-0.166
-548.339	-200.000	-0.017	-0.096
-547.325	-200.000	-0.000	-0.114
-546.310	-156.227	0.278	0.018
-545.296	-131.247	0.190	-0.025
-544.281	73.957	-0.131	0.138
-543.266	-124.778	0.249	-0.039
-542.252	407.215	-0.011	0.024
-541.237	-172.104	-0.086	-0.003
-540.223	532.671	-0.074	0.175
-539.208	800.000	0.024	0.089
-538.193	0.761	-0.176	-0.127
-537.179	-20.468	-0.245	-0.151
-536.164	-200.000	-0.040	-0.222
-535.150	394.467	0.142	0.296
-534.135	-184.338	0.214	-0.004
-533.121	38.687	-0.201	0.180
-532.106	-6.518	-0.096	-0.066
-531.091	603.100	0.077	-0.191
-530.077	-200.000	-0.004	-0.122
-529.062	-83.108	0.254	0.082
-528.048	-138.468	-0.247	-0.027
-527.033	-42.590	-0.138	0.070
-526.018	-113.332	-0.174	-0.034
-525.004	-200.000	-0.040	0.258
-523.989	-152.681	-0.148	0.011
-522.975	-200.000	0.009	-0.073
-521.960	-105.745	0.060	0.014
-520.945	-46.090	-0.242	0.120
-519.931	-103.608	0.389	0.092
-518.916	-200.000	0.035	-0.180
-517.902	-200.000	-0.006	0.035
-516.887	-200.000	0.046	-0.229
-515.872	-8.968	-0.147	-0.099
-514.858	190.378	0.122	0.184
-513.843	-100.793	0.243	-0.060
-512.829	-74.522	-0.135	0.049
-511.814	800.000	-0.100	-0.299
-510.799	130.905	-0.068	-0.087
-509.785	-65.389	0.252	-0.102
-508.770	-200.000	0.014	0.130
-507.756	-200.000	0.017	-0.077
-506.741	-19.950	0.124	-0.077
-505.726	118.217	-0.307	-0.379
-504.712	691.090	-0.058	0.151
-503.697	-200.000	-0.052	0.240
-502.683	47.346	0.138	0.128
-501.668	-162.572	-0.232	0.011
-500.653	-71.204	-0.132	-0.050
-499.639	-49.911	0.138	-0.066
-498.624	373.624	0.022	0.046
-497.610	422.610	-0.086	-0.186
-496.595	720.797	-0.075	0.201
-495.581	97.745	-0.116	-0.134
-494.566	731.180	0.112	-0.301
-493.551	21.587	0.092	-0.075
-492.537	-200.000	-0.009	0.129
-491.522	141.897	-0.157	-0.209
-490.508	85.379	0.215	-0.236
-489.493	-67.622	0.235	-0.092
-488.478	471.923	0.115	-0.259
-487.464	-168.196	-0.217	-0.008
-486.449	-71.642	-0.236	0.088
-485.435	-117.121	-0.247	0.045
-484.420	102.268	0.261	-0.306
-483.405	40.252	-0.077	0.069
-482.391	52.246	-0.107	-0.102
-481.376	-117.388	-0.167	-0.030
-480.362	-24.676	0.140	0.084
-479.347	800.000	0.062	-0.247
-478.332	-128.449	-0.518	-0.074
-477.318	-140.408	-0.168	0.018
-476.303	193.563	0.141	0.214
-475.289	215.903	-0.022	0.034
-474.274	-143.391	0.166	0.016
-473.259	-149.205	-0.113	0.009
-472.245	-200.000	-0.086	0.512
-471.230	-70.170	0.300	-0.114
-470.216	-200.000	-0.268	-0.001
-469.201	-200.000	-0.028	0.323
-468.186	671.279	-0.073	-0.189
-467.172	35.675	-0.083	0.073
-466.157	-200.000	0.001	0.131
-465.143	-200.000	-0.012	0.541
-464.128	547.001	0.047	-0.113
-463.113	-200.000	-0.046	-0.304
-462.099	-200.000	0.041	-0.246
-461.084	800.000	-0.017	-0.052
-460.070	-94.026	-0.276	0.076
-459.055	-67.200	0.244	-0.096
-458.040	-90.294	-0.143	-0.042
-457.026	514.183	-0.118	0.275
-456.011	-200.000	0.006	0.219
-454.997	800.000	0.028	-0.118
-453.982	-94.399	-0.230	-0.063
-452.968	-150.406	0.230	0.018
-451.953	-143.934	-0.129	0.012
-450.938	164.290	0.215	-0.303
-449.924	-32.592	-0.213	0.119
-448.909	107.566	0.183	0.217
-447.895	-29.780	-0.074	0.042
-446.880	800.000	0.149	-0.489
-445.865	-114.416	0.195	0.038
-444.851	387.048	-0.145	-0.300
-443.836	491.299	-0.057	-0.130
-442.822	218.475	-0.094	0.150
-441.807	800.000	0.071	0.263
-440.792	-181.183	-0.178	-0.004
-439.778	-39.492	0.241	-0.126
-438.763	19.485	-0.215	0.172
-437.749	-102.383	-0.204	0.049
-436.734	162.894	-0.013	-0.018
-435.719	-200.000	0.037	0.218
-434.705	72.667	-0.165	0.172
-433.690	163.154	0.195	-0.274
-432.676	-133.533	0.375	0.047
-431.661	-81.620	-0.096	0.032
-430.646	-17.507	-0.115	-0.072
-429.632	-33.411	0.365	0.201
-428.617	106.939	0.199	-0.235
-427.603	800.000	-0.062	-0.211
-426.588	151.254	-0.118	0.160
-425.573	-126.506	0.122	-0.018
-424.559	-33.623	-0.189	0.104
-423.544	-200.000	-0.074	-0.328
-422.530	800.000	0.060	0.214
-421.515	-200.000	0.016	-0.160
-420.500	-175.914	-0.205	-0.005
-419.486	-200.000	-0.005	0.199
-418.471	-200.000	0.031	0.146
-417.457	-200.000	0.004	-0.086
-416.442	-29.193	-0.133	-0.076
-415.428	-3.317	-0.500	-0.347
-414.413	-200.000	-0.068	0.329
-413.398	-33.804	0.212	0.117
-412.384	798.112	-0.110	-0.303
-411.369	-200.000	-0.003	0.303
-410.355	-200.000	-0.046	0.326
-409.340	-132.520	-0.226	0.029
-408.325	-82.400	-0.139	0.045
-407.311	605.796	0.047	0.118
-406.296	800.000	-0.076	0.312
-405.282	-51.775	0.153	0.071
-404.267	371.564	-0.117	-0.238
-403.252	-200.000	-0.021	-0.294
-402.238	-8.249	0.261	-0.175
-401.223	800.000	0.008	0.024
-400.209	119.301	0.081	-0.100
-399.194	-142.977	0.301	0.029
-398.179	800.000	-0.082	0.262
-397.165	210.667	-0.126	0.198
-396.150	242.395	-0.187	0.312
-395.136	-200.000	0.042	0.237
-394.121	-200.000	-0.011	0.296
-393.106	-167.392	0.108	0.004
-392.092	-123.742	0.291	0.046
-391.077	39.911	0.118	-0.106
-390.063	-57.477	0.109	0.048
-389.048	-200.000	-0.000	-0.010
-388.033	-43.248	-0.104	-0.052
-387.019	331.164	-0.087	-0.166
-386.004	-155.228	0.151	0.010
-384.990	800.000	0.103	0.298
-383.975	-128.530	0.305	0.043
-382.960	800.000	-0.093	-0.289
-381.946	-70.828	-0.210	0.079
-380.931	-88.620	-0.207	-0.061
-379.917	23.075	0.229	0.188
-378.902	112.211	0.101	-0.122
-377.888	-69.559	-0.230	0.088
-376.873	106.959	-0.136	-0.161
-375.858	403.754	0.167	0.351
-374.844	-112.122	0.034	0.007
-373.829	198.456	0.060	-0.092
-372.815	-200.000	-0.023	-0.233
-371.800	800.000	0.099	-0.420
-370.785	127.744	0.237	-0.300
-369.771	107.747	0.126	-0.149
-368.756	-12.009	-0.217	-0.142
-367.742	404.003	0.161	-0.337
-366.727	217.211	-0.213	0.338
-365.712	588.936	-0.015	0.037
-364.698	636.359	-0.067	0.170
-363.683	-181.624	0.186	0.004
-362.669	467.352	-0.149	0.332
-361.654	150.187	0.087	0.118
-360.639	-39.085	-0.184	-0.096
-359.625	-200.000	0.040	0.223
-358.610	183.614	0.124	-0.182
-357.596	-200.000	0.035	-0.336
-356.581	800.000	0.130	-0.419
-355.566	-28.425	0.331	0.190
-354.552	-70.841	-0.076	0.028
-353.537	-24.647	-0.125	-0.074
-352.523	228.722	0.070	0.114
-351.508	5.367	-0.218	0.160
-350.493	68.104	-0.073	0.074
-349.479	-121.432	0.352	-0.058
-348.464	131.435	-0.046	0.059
-347.450	206.806	-0.207	0.322
-346.435	800.000	0.024	-0.069
-345.420	33.767	-0.300	-0.260
-344.406	-75.352	0.113	-0.040
-343.391	-69.241	0.107	-0.041
-342.377	-88.166	0.153	-0.046
-341.362	-139.760	0.372	-0.039
-340.348	-87.568	0.102	0.031
-339.333	204.006	0.115	0.177
-338.318	1.777	-0.191	0.137
-337.304	28.906	0.115	0.097
-336.289	-188.445	-0.058	-0.001
-335.275	-200.000	0.010	-0.165
-334.260	46.567	-0.309	-0.286
-333.245	243.379	-0.075	0.125
-332.231	572.736	-0.150	-0.364
-331.216	-89.559	-0.365	-0.107
-330.202	800.000	-0.048	-0.162
-329.187	-200.000	0.032	0.194
-328.172	-0.555	0.221	0.156
-327.158	-87.177	0.186	0.056
-326.143	320.667	0.053	-0.101
-325.129	-37.008	-0.167	0.089
-324.114	90.319	-0.128	0.143
-323.099	431.295	-0.022	-0.047
-322.085	-150.952	0.320	-0.024
-321.070	15.111	-0.299	-0.233
-320.056	118.747	0.303	-0.372
-319.041	26.115	0.346	0.287
-318.026	800.000	0.056	-0.164
-317.012	-156.781	0.109	0.007
-315.997	-138.751	-0.135	-0.015
-314.983	800.000	-0.108	-0.354
-313.968	-79.307	-0.443	-0.149
-312.953	-91.466	0.368	0.104
-311.939	-26.441	0.149	0.087
-310.924	8.941	0.212	0.159
-309.910	-36.954	0.212	0.113
-308.895	60.752	-0.175	-0.173
-307.880	-17.782	-0.091	0.057
-306.866	-40.277	0.272	-0.141
-305.851	800.000	-0.020	-0.067
-304.837	323.271	0.044	-0.083
-303.822	54.253	-0.166	0.159
-302.807	-1.087	-0.143	0.101
-301.793	-200.000	-0.014	0.165
-300.778	-131.948	0.148	0.019
-299.764	-5.283	-0.104	0.071
-298.749	185.580	-0.110	0.163
-297.735	-89.081	0.172	-0.051
-296.720	17.491	0.049	0.039
-295.705	-200.000	-0.029	0.161
-294.691	-77.487	0.021	0.007
-293.676	-150.998	-0.186	0.014
-292.662	298.460	-0.031	0.056
-291.647	-106.029	-0.157	0.035
-290.632	-154.622	0.281	0.019
-289.618	800.000	-0.085	-0.237
-288.603	252.107	-0.062	-0.105
-287.589	75.626	0.105	-0.110
-286.574	800.000	0.069	-0.233
-285.559	-10.668	-0.113	0.074
-284.545	600.334	-0.124	0.306
-283.530	-33.471	-0.116	0.064
-282.516	182.423	0.101	0.148
-281.501	649.418	0.075	0.190
-280.486	-119.696	0.146	0.025
-279.472	-28.273	0.076	-0.044
-278.457	85.672	0.058	-0.064
-277.443	30.777	-0.240	-0.204
-276.428	-153.023	0.116	-0.008
-275.413	-70.710	-0.201	-0.075
-274.399	76.027	0.225	-0.236
-273.384	138.366	-0.133	0.173
-272.370	-200.000	0.001	-0.182
-271.355	30.769	0.230	0.195
-270.340	-200.000	0.014	0.360
-269.326	370.445	0.074	0.148
-268.311	-200.000	-0.017	0.454
-267.297	800.000	0.034	-0.105
-266.282	800.000	0.140	-0.430
-265.267	-200.000	0.017	-0.220
-264.253	800.000	-0.085	-0.244
-263.238	720.248	-0.101	0.267
-262.224	44.112	0.171	-0.156
-261.209	-105.942	-0.072	0.016
-260.195	-108.386	-0.149	0.032
-259.180	-200.000	-0.086	0.400
-258.165	-193.492	0.159	0.001
-257.151	-66.738	-0.350	-0.138
-256.136	45.339	0.242	0.222
-255.122	47.226	0.279	0.258
-254.107	800.000	-0.032	0.130
-253.092	-161.107	-0.023	-0.001
-252.078	-23.795	-0.096	-0.057
-251.063	-200.000	-0.007	-0.278
-250.049	-52.332	-0.471	0.216
-249.034	4.729	0.230	-0.168
-248.019	-62.520	0.073	0.030
-247.005	-117.389	0.210	-0.038
-245.990	800.000	-0.057	0.198
-244.976	-106.172	-0.236	0.053
-243.961	-59.476	0.168	-0.072
-242.946	-111.500	0.181	0.037
-241.932	-200.000	-0.012	-0.254
-240.917	-16.796	0.124	-0.078
-239.903	-200.000	-0.033	0.462
-238.888	48.377	0.142	0.132
-237.873	-200.000	-0.003	0.105
-236.859	-182.324	0.202	0.004
-235.844	131.752	-0.039	0.050
-234.830	154.033	0.193	-0.262
-233.815	392.744	-0.040	-0.083
-232.800	82.414	0.172	-0.185
-231.786	-25.119	0.332	0.195
-230.771	111.309	0.141	0.168
-229.757	28.682	-0.208	-0.175
-228.742	115.418	-0.127	-0.154
-227.727	337.429	0.236	0.454
-226.713	-74.963	0.165	0.058
-225.698	0.690	0.182	-0.129
-224.684	235.656	0.048	0.078
-223.669	-51.514	-0.277	0.128
-222.655	-200.000	-0.012	0.286
-221.640	17.461	-0.192	-0.151
-220.625	149.745	-0.084	-0.113
-219.611	147.561	0.098	-0.130
-218.596	-200.000	-0.043	0.263
-217.582	-20.667	-0.288	0.175
-216.567	-200.000	-0.000	-0.016
-215.552	800.000	0.075	0.262
-214.538	-72.335	0.195	-0.071
-213.523	-14.677	-0.368	0.234
-212.509	-200.000	-0.024	-0.159
-211.494	42.693	0.220	0.198
-210.479	-200.000	-0.019	0.090
-209.465	151.724	-0.130	-0.176
-208.450	-147.794	0.166	-0.014
-207.436	-16.355	-0.306	0.192
-206.421	-200.000	0.039	0.199
-205.406	183.206	-0.125	0.183
-204.392	313.232	-0.191	-0.356
-203.377	-100.670	-0.371	-0.091
-202.363	-86.774	0.164	-0.050
-201.348	140.357	-0.025	0.033
-200.333	-120.575	0.201	-0.034
-199.319	-200.000	-0.012	0.112
-198.304	678.054	0.049	0.127
-197.290	-11.995	0.249	-0.161
-196.275	-66.748	-0.248	-0.097
-195.260	81.687	0.134	-0.143
-194.246	-89.910	-0.403	0.117
-193.231	139.177	0.313	0.408
-192.217	45.653	-0.177	0.162
-191.202	-44.328	-0.129	-0.064
-190.187	171.685	-0.017	-0.025
-189.173	-200.000	-0.030	0.245
-188.158	-129.479	-0.234	0.032
-187.144	-160.474	0.168	0.009
-186.129	-157.960	0.361	-0.021
-185.114	800.000	0.002	0.007
-184.100	-200.000	0.030	0.179
-183.085	800.000	0.058	-0.175
-182.071	266.712	0.109	0.188
-181.056	730.796	-0.067	-0.178
-180.042	-56.117	-0.184	-0.081
-179.027	27.957	-0.178	0.148
-178.012	-200.000	-0.007	0.138
-176.998	114.267	0.201	-0.242
-175.983	109.137	0.183	-0.216
-174.969	-200.000	-0.011	-0.405
-173.954	-183.126	-0.321	-0.006
-172.939	-192.249	-0.218	-0.002
-171.925	173.495	-0.207	-0.296
-170.910	-200.000	-0.004	0.021
-169.896	-200.000	0.046	-0.283
-168.881	800.000	0.017	-0.054
-167.866	110.883	0.076	-0.090
-166.852	-158.031	-0.034	0.002
-165.837	800.000	0.046	-0.158
-164.823	-73.911	-0.195	0.070
-163.808	163.125	0.078	0.109
-162.793	46.157	-0.075	0.069
-161.779	119.931	-0.143	0.175
-160.764	800.000	0.087	-0.253
-159.750	-200.000	0.022	0.222
-158.735	-95.035	-0.047	0.013
-157.720	-146.368	0.198	0.017
-156.706	517.671	-0.046	-0.107
-155.691	-200.000	-0.056	0.297
-154.677	-200.000	-0.001	-0.024
-153.662	41.414	-0.117	0.104
-152.647	74.151	0.177	0.184
-151.633	-200.000	-0.006	-0.067
-150.618	502.353	-0.157	0.358
-149.604	-62.507	0.122	-0.050
-148.589	22.925	-0.315	0.255
-147.574	-149.357	0.296	0.023
-146.560	143.560	-0.172	-0.226
-145.545	-129.414	-0.346	0.047
-144.531	227.568	-0.128	0.206
-143.516	800.000	0.055	-0.170
-142.502	-70.248	-0.233	0.087
-141.487	800.000	-0.071	-0.199
-140.472	800.000	0.041	0.155
-139.458	58.552	-0.128	0.124
-138.443	21.100	-0.040	0.032
-137.429	200.857	-0.084	0.127
-136.414	350.491	0.138	0.269
-135.399	-152.935	-0.117	0.008
-134.385	-43.988	0.222	0.110
-133.370	544.478	-0.179	0.421
-132.356	82.591	0.099	0.107
-131.341	-200.000	0.047	0.307
-130.326	800.000	0.064	0.175
-129.312	-17.180	-0.186	0.116
-128.297	-59.660	-0.187	-0.079
-127.283	-107.927	0.159	-0.034
-126.268	-85.891	0.569	0.174
-125.253	292.226	-0.115	0.206
-124.239	678.498	-0.069	0.176
-123.224	-11.630	-0.213	0.138
-122.210	-26.946	-0.158	-0.091
