DTS Sentinel unit serial number:	SN413079Multiplexer serial number:	ORYXHardware model number:	OX4-SRSoftware version number:	ORYX F/W v4.00 Oryx Data Collector v3.7.2.0data status	okinstallation	princeton_trtdifferential loss correction	single-endedforward channel	channel 2reverse channel	N/Adate	2019/09/13time	18:47:35forward acquisition time	60.00reverse acquisition time	0.00gamma	496.2192k internal	0.2324k external	0.2324temperature offset calibration	1.0183default loss term (dB/km)	0.3790temperature slope calibration	1.0000multiplexer offset coefficient	1.0000multiplexer slope coefficient	1.0000fibre end	0.00T internal ref (°C)	32.53T ext. ref 1 (°C)	4.08T ext. ref 2 (°C)	25.73length (m)	temperature (°C)	Stokes	anti-Stokes-747.200	337.950	0.131	-0.258
-746.185	-58.853	0.385	-0.168
-745.171	-200.000	-0.058	-0.265
-744.156	455.561	0.097	0.217
-743.142	-88.898	0.128	-0.038
-742.127	26.259	-0.184	0.155
-741.112	800.000	0.150	0.485
-740.098	-200.000	-0.023	0.353
-739.083	800.000	0.054	-0.177
-738.069	22.329	0.099	0.082
-737.054	5.495	0.209	-0.156
-736.039	344.353	-0.159	0.315
-735.025	51.057	0.043	0.041
-734.010	-77.130	-0.122	-0.043
-732.996	279.651	0.230	-0.414
-731.981	-40.869	-0.301	0.157
-730.966	-200.000	0.031	0.146
-729.952	-91.355	-0.230	0.066
-728.937	269.475	-0.174	0.308
-727.923	-78.290	0.150	-0.052
-726.908	160.035	-0.030	0.043
-725.894	93.268	-0.263	-0.300
-724.879	-114.798	-0.033	0.006
-723.864	57.219	0.116	0.114
-722.850	-24.261	0.271	-0.163
-721.835	-10.969	0.102	0.068
-720.821	800.000	0.082	0.235
-719.806	67.191	-0.129	-0.132
-718.791	-80.846	-0.138	-0.046
-717.777	45.751	0.088	0.082
-716.762	27.925	0.198	0.169
-715.748	-39.503	-0.111	-0.059
-714.733	-102.527	-0.264	-0.064
-713.718	-86.260	-0.220	-0.068
-712.704	-4.531	-0.289	0.201
-711.689	524.080	0.107	-0.254
-710.675	-147.111	0.213	-0.018
-709.660	50.838	0.323	0.309
-708.645	464.153	0.149	0.335
-707.631	288.597	-0.107	-0.196
-706.616	-200.000	-0.016	-0.105
-705.602	143.846	0.165	-0.222
-704.587	64.680	-0.049	-0.050
-703.572	40.698	0.030	0.027
-702.558	-1.177	0.149	0.106
-701.543	800.000	-0.036	0.110
-700.529	-143.964	-0.336	-0.032
-699.514	-109.348	-0.256	-0.055
-698.499	18.642	-0.155	-0.125
-697.485	240.323	0.336	0.565
-696.470	288.679	0.191	0.349
-695.456	-200.000	0.011	-0.091
-694.441	-125.994	0.130	0.020
-693.426	-134.182	0.250	-0.031
-692.412	-81.358	0.189	-0.063
-691.397	-86.633	-0.245	-0.076
-690.383	-200.000	0.032	0.342
-689.368	-24.164	-0.055	0.033
-688.354	-111.739	0.134	0.027
-687.339	800.000	-0.044	-0.163
-686.324	66.379	0.144	0.147
-685.310	-22.539	-0.055	-0.034
-684.295	443.298	0.054	0.119
-683.281	800.000	-0.154	-0.563
-682.266	-84.471	-0.098	-0.031
-681.251	141.009	-0.152	-0.202
-680.237	-172.716	0.464	-0.015
-679.222	54.480	-0.196	-0.190
-678.208	525.099	0.106	-0.251
-677.193	-200.000	0.021	-0.103
-676.178	-63.346	0.276	-0.114
-675.164	146.487	-0.124	-0.168
-674.149	89.732	-0.004	-0.005
-673.135	270.090	-0.073	0.128
-672.120	-7.299	-0.188	-0.128
-671.105	567.253	0.111	-0.271
-670.091	-10.268	-0.112	-0.075
-669.076	-114.170	-0.171	-0.033
-668.062	-1.663	0.109	0.077
-667.047	-200.000	-0.001	0.217
-666.032	-150.482	0.089	0.007
-665.018	-103.626	0.205	-0.048
-664.003	167.708	0.152	0.218
-662.989	800.000	-0.102	0.328
-661.974	451.268	0.077	-0.170
-660.959	-17.548	-0.199	-0.126
-659.945	111.196	0.268	0.325
-658.930	800.000	0.132	0.393
-657.916	32.731	-0.155	-0.135
-656.901	8.276	-0.084	-0.063
-655.886	-50.955	0.348	-0.164
-654.872	-39.324	0.403	-0.213
-653.857	-73.239	-0.150	-0.055
-652.843	-89.237	-0.258	0.077
-651.828	776.752	-0.026	-0.071
-650.814	-107.196	0.240	0.053
-649.799	-178.884	-0.056	-0.001
-648.784	-28.315	0.189	-0.110
-647.770	-200.000	-0.054	-0.278
-646.755	97.678	0.029	-0.034
-645.741	-200.000	-0.037	-0.282
-644.726	-200.000	-0.003	0.225
-643.711	-200.000	0.009	0.299
-642.697	159.099	0.211	-0.294
-641.682	800.000	-0.049	0.156
-640.668	800.000	-0.023	-0.079
-639.653	-114.177	-0.176	0.034
-638.638	-122.138	0.101	-0.017
-637.624	800.000	-0.028	-0.120
-636.609	1.392	0.145	0.105
-635.595	150.262	0.049	-0.067
-634.580	-40.788	0.162	0.084
-633.565	-41.738	0.210	0.108
-632.551	800.000	0.074	0.265
-631.536	-68.201	-0.164	0.064
-630.522	-58.293	0.169	-0.074
-629.507	800.000	-0.031	-0.124
-628.492	-93.716	-0.162	0.045
-627.478	202.000	0.129	0.201
-626.463	26.158	-0.220	-0.185
-625.449	210.169	0.262	-0.413
-624.434	-43.810	0.149	0.075
-623.419	-121.793	0.050	0.008
-622.405	22.257	-0.313	-0.257
-621.390	713.115	0.083	-0.221
-620.376	800.000	0.048	-0.194
-619.361	-15.072	0.189	-0.122
-618.346	-64.487	-0.094	-0.038
-617.332	555.160	0.072	0.175
-616.317	-141.820	-0.351	0.035
-615.303	414.435	-0.152	0.326
-614.288	-127.879	-0.211	0.031
-613.273	663.484	-0.118	-0.305
-612.259	800.000	0.089	-0.303
-611.244	-4.555	0.219	0.152
-610.230	23.880	-0.173	0.143
-609.215	800.000	-0.010	-0.032
-608.201	-200.000	-0.051	0.323
-607.186	-168.963	-0.215	0.008
-606.171	-164.878	0.122	-0.005
-605.157	155.778	-0.089	0.123
-604.142	183.176	-0.105	0.155
-603.128	800.000	-0.021	0.071
-602.113	711.146	0.092	0.245
-601.098	-100.811	-0.159	0.039
-600.084	15.158	-0.255	-0.201
-599.069	-105.308	0.173	-0.040
-598.055	-7.038	0.192	0.131
-597.040	-194.919	0.410	0.003
-596.025	-26.040	-0.071	0.042
-595.011	-182.919	-0.152	0.003
-593.996	169.360	-0.117	-0.168
-592.982	-22.529	0.082	-0.050
-591.967	-103.530	0.231	0.054
-590.952	-200.000	-0.055	-0.282
-589.938	29.327	-0.125	-0.107
-588.923	-153.892	0.083	0.006
-587.909	296.875	-0.070	0.128
-586.894	736.013	-0.073	-0.195
-585.879	453.828	0.101	0.225
-584.865	-200.000	-0.010	-0.127
-583.850	-200.000	-0.045	-0.220
-582.836	-16.882	0.218	-0.138
-581.821	-38.874	0.274	-0.145
-580.806	401.680	0.121	-0.255
-579.792	-31.432	-0.102	-0.058
-578.777	111.029	0.086	-0.103
-577.763	-200.000	-0.004	0.365
-576.748	266.864	0.119	-0.208
-575.733	-200.000	-0.063	-0.306
-574.719	-195.171	-0.575	0.004
-573.704	252.035	0.093	-0.159
-572.690	113.212	-0.120	-0.146
-571.675	-200.000	0.001	-0.077
-570.661	157.000	-0.057	-0.079
-569.646	800.000	-0.138	-0.469
-568.631	111.601	-0.120	-0.145
-567.617	-82.037	-0.014	-0.005
-566.602	-47.645	0.093	0.045
-565.588	87.906	0.194	0.216
-564.573	-133.490	0.268	-0.034
-563.558	800.000	-0.054	0.158
-562.544	177.747	0.092	-0.134
-561.529	58.412	0.269	-0.264
-560.515	-200.000	0.013	-0.258
-559.500	-23.314	0.081	0.049
-558.485	-200.000	0.213	-0.001
-557.471	-138.528	0.096	-0.011
-556.456	10.524	-0.212	0.162
-555.442	-200.000	0.005	0.321
-554.427	-30.290	0.218	-0.124
-553.412	315.380	-0.155	-0.293
-552.398	111.697	0.251	0.303
-551.383	-9.181	-0.150	-0.100
-550.369	-92.938	0.098	-0.028
-549.354	-136.009	-0.079	0.009
-548.339	16.253	0.224	0.177
-547.325	628.465	-0.132	0.334
-546.310	-19.870	0.180	0.111
-545.296	-141.157	-0.629	-0.064
-544.281	32.618	0.020	0.018
-543.266	11.484	-0.388	-0.298
-542.252	62.937	-0.215	-0.216
-541.237	166.516	-0.213	0.302
-540.223	-6.917	0.268	0.182
-539.208	118.078	-0.081	-0.100
-538.193	-112.075	-0.138	-0.028
-537.179	25.982	0.111	0.093
-536.164	-118.692	0.073	0.013
-535.150	-32.124	-0.292	-0.163
-534.135	-200.000	-0.037	0.186
-533.121	-145.500	0.229	0.021
-532.106	-126.660	0.325	-0.048
-531.091	-89.099	0.236	-0.070
-530.077	-109.730	-0.160	-0.034
-529.062	91.051	-0.147	0.165
-528.048	-200.000	0.005	0.069
-527.033	-200.000	-0.211	0.001
-526.018	-115.810	-0.169	-0.032
-525.004	800.000	-0.109	0.341
-523.989	-200.000	-0.219	0.000
-522.975	39.147	0.042	0.037
-521.960	-39.446	0.361	-0.189
-520.945	86.388	0.233	-0.257
-519.931	-38.902	-0.214	-0.113
-518.916	336.046	0.091	0.176
-517.902	123.580	0.113	0.142
-516.887	800.000	-0.054	0.182
-515.872	340.897	-0.083	0.162
-514.858	-200.000	-0.025	-0.424
-513.843	102.083	0.260	0.304
-512.829	-133.420	-0.152	-0.019
-511.814	-86.306	-0.308	0.095
-510.799	143.354	-0.074	0.099
-509.785	-103.666	-0.145	-0.034
-508.770	-200.000	-0.011	-0.151
-507.756	-200.000	-0.009	0.198
-506.741	16.922	-0.184	0.146
-505.726	104.394	-0.189	0.223
-504.712	-200.000	-0.002	0.099
-503.697	-41.378	-0.228	-0.118
-502.683	-160.443	0.390	-0.021
-501.668	-40.287	-0.260	0.135
-500.653	-57.160	0.307	0.135
-499.639	465.281	0.047	0.104
-498.624	173.632	-0.160	-0.231
-497.610	-183.696	-0.281	0.005
-496.595	-200.000	-0.358	0.001
-495.581	-200.000	-0.055	-0.469
-494.566	18.163	0.155	0.124
-493.551	254.854	-0.041	0.069
-492.537	-30.399	0.242	0.137
-491.522	112.799	-0.123	0.148
-490.508	486.256	0.168	0.383
-489.493	128.339	-0.071	-0.090
-488.478	800.000	0.028	0.095
-487.464	-200.000	-0.010	-0.141
-486.449	29.361	-0.022	-0.019
-485.435	-30.022	-0.117	0.067
-484.420	70.447	-0.119	-0.123
-483.405	52.136	0.057	-0.054
-482.391	800.000	-0.102	-0.285
-481.376	-76.268	0.460	0.162
-480.362	137.858	0.098	0.129
-479.347	-57.000	-0.195	-0.086
-478.332	800.000	-0.097	-0.288
-477.318	174.836	0.080	-0.115
-476.303	-200.000	0.041	0.243
-475.289	-200.000	-0.074	0.384
-474.274	134.443	-0.143	0.185
-473.259	238.374	-0.093	-0.154
-472.245	-47.475	0.547	0.265
-471.230	-94.827	-0.205	0.055
-470.216	-200.000	-0.024	0.175
-469.201	182.000	0.177	0.260
-468.186	76.681	-0.137	0.145
-467.172	800.000	-0.039	0.156
-466.157	800.000	-0.030	0.096
-465.143	-61.161	-0.324	0.137
-464.128	648.977	-0.134	-0.341
-463.113	77.195	-0.207	-0.220
-462.099	-44.170	0.200	-0.100
-461.084	-12.558	0.239	0.156
-460.070	-9.743	-0.114	-0.075
-459.055	-95.720	-0.159	-0.043
-458.040	-41.583	0.094	0.048
-457.026	-80.280	-0.082	-0.027
-456.011	190.497	-0.137	-0.205
-454.997	31.503	-0.204	-0.175
-453.982	-164.670	0.365	0.016
-452.968	800.000	0.101	-0.339
-451.953	67.029	0.084	-0.085
-450.938	800.000	0.125	-0.360
-449.924	-200.000	0.026	0.121
-448.909	513.304	0.147	-0.341
-447.895	-42.215	0.206	-0.105
-446.880	17.467	0.294	0.233
-445.865	-83.148	0.218	-0.070
-444.851	-200.000	0.014	0.193
-443.836	28.330	0.085	0.072
-442.822	-54.605	0.315	-0.142
-441.807	287.731	0.043	-0.078
-440.792	44.223	0.116	-0.106
-439.778	200.133	0.097	-0.148
-438.763	-200.000	-0.019	-0.091
-437.749	63.821	0.175	0.175
-436.734	478.457	0.109	-0.246
-435.719	-200.000	0.017	-0.212
-434.705	-16.264	-0.030	-0.019
-433.690	-200.000	-0.004	-0.129
-432.676	-49.980	-0.173	0.082
-431.661	-77.535	0.073	-0.025
-430.646	234.291	0.141	0.232
-429.632	-200.000	0.029	-0.354
-428.617	577.597	0.087	0.211
-427.603	-200.000	0.022	-0.172
-426.588	41.890	-0.281	0.254
-425.573	-36.520	0.161	-0.087
-424.559	89.226	-0.097	0.108
-423.544	-83.554	-0.153	-0.049
-422.530	-164.684	0.249	-0.011
-421.515	27.050	0.240	-0.200
-420.500	-93.191	-0.248	0.069
-419.486	-66.253	0.497	0.197
-418.471	44.316	-0.172	0.157
-417.457	38.968	-0.217	0.194
-416.442	-200.000	0.022	0.152
-415.428	800.000	-0.089	0.331
-414.413	-200.000	0.001	-0.168
-413.398	153.726	0.131	-0.179
-412.384	800.000	0.094	0.260
-411.369	30.570	0.177	-0.151
-410.355	-92.462	-0.249	-0.070
-409.340	-107.537	0.139	-0.030
-408.325	-200.000	0.016	-0.173
-407.311	217.319	0.086	0.136
-406.296	-200.000	-0.058	-0.324
-405.282	53.600	-0.025	-0.024
-404.267	-200.000	0.050	-0.444
-403.252	-3.628	-0.050	0.035
-402.238	-31.730	0.155	0.087
-401.223	-123.132	-0.092	-0.015
-400.209	222.435	-0.193	-0.310
-399.194	-200.000	-0.052	0.382
-398.179	78.820	-0.176	-0.187
-397.165	-200.000	-0.005	-0.269
-396.150	-200.000	0.150	-0.000
-395.136	-166.949	0.189	-0.008
-394.121	-78.985	-0.245	-0.083
-393.106	800.000	-0.069	0.284
-392.092	-112.776	0.035	-0.007
-391.077	-106.832	-0.108	0.024
-390.063	24.422	-0.114	-0.094
-389.048	433.006	0.019	0.040
-388.033	140.958	-0.016	-0.021
-387.019	-200.000	0.053	0.260
-386.004	95.290	0.077	-0.087
-384.990	155.402	-0.152	-0.208
-383.975	800.000	0.044	-0.145
-382.960	606.788	-0.152	-0.376
-381.946	-71.256	0.187	-0.070
-380.931	-123.838	-0.223	0.035
-379.917	-200.000	-0.053	-0.251
-378.902	295.854	0.084	-0.153
-377.888	34.543	0.091	0.079
-376.873	-200.000	0.042	-0.350
-375.858	-54.120	-0.081	-0.037
-374.844	-42.377	0.178	-0.090
-373.829	581.209	0.044	-0.106
-372.815	148.897	-0.063	0.085
-371.800	69.176	-0.061	-0.063
-370.785	-145.091	0.239	0.022
-369.771	251.758	-0.111	-0.188
-368.756	410.939	0.085	-0.179
-367.742	-200.000	0.033	-0.219
-366.727	-111.393	0.094	0.019
-365.712	73.998	-0.308	0.321
-364.698	800.000	-0.062	-0.239
-363.683	107.115	-0.162	0.191
-362.669	-200.000	-0.008	-0.095
-361.654	-97.029	-0.384	-0.100
-360.639	-49.714	0.247	-0.117
-359.625	10.019	-0.232	-0.176
-358.610	-200.000	0.005	0.059
-357.596	226.090	-0.127	0.205
-356.581	-200.000	-0.012	0.177
-355.566	-22.886	0.322	0.193
-354.552	-158.779	-0.180	0.010
-353.537	95.183	0.300	0.340
-352.523	-162.721	0.231	-0.011
-351.508	223.771	-0.031	0.050
-350.493	-200.000	0.005	0.102
-349.479	-138.758	-0.383	0.042
-348.464	-200.000	0.040	0.190
-347.450	800.000	-0.018	0.069
-346.435	5.741	0.193	-0.142
-345.420	23.889	0.236	-0.193
-344.406	617.461	0.057	-0.143
-343.391	-89.837	-0.232	0.068
-342.377	-152.595	0.303	-0.021
-341.362	-49.925	0.037	0.017
-340.348	516.430	-0.037	0.087
-339.333	-200.000	0.069	0.309
-338.318	-24.098	0.306	0.182
-337.304	-200.000	0.018	0.152
-336.289	-72.525	0.211	0.078
-335.275	-168.790	-0.386	-0.014
-334.260	63.410	-0.104	-0.104
-333.245	799.682	-0.063	-0.172
-332.231	-107.493	0.287	0.062
-331.216	350.475	0.168	-0.331
-330.202	800.000	-0.131	0.393
-329.187	800.000	-0.048	-0.152
-328.172	427.371	-0.149	0.318
-327.158	-80.679	-0.196	0.065
-326.143	507.327	-0.044	0.102
-325.129	373.414	0.081	0.163
-324.114	-55.593	-0.243	0.108
-323.099	-47.420	0.139	0.067
-322.085	27.146	0.217	0.181
-321.070	-3.353	-0.103	-0.071
-320.056	-200.000	-0.017	-0.216
-319.041	800.000	-0.062	-0.187
-318.026	610.654	0.084	-0.207
-317.012	-200.000	0.008	-0.320
-315.997	-53.189	-0.374	-0.171
-314.983	-200.000	0.006	-0.059
-313.968	-84.039	-0.127	0.040
-312.953	20.357	0.023	0.018
-311.939	25.997	0.104	0.086
-310.924	8.135	-0.194	-0.145
-309.910	33.878	0.292	0.252
-308.895	43.092	-0.263	0.238
-307.880	278.645	-0.050	0.089
-306.866	7.655	-0.177	0.131
-305.851	-200.000	-0.054	-0.345
-304.837	800.000	0.080	0.306
-303.822	196.129	0.227	0.343
-302.807	-35.852	0.293	-0.157
-301.793	261.584	-0.116	0.199
-300.778	800.000	-0.087	-0.256
-299.764	507.372	-0.152	-0.351
-298.749	55.550	-0.223	-0.215
-297.735	800.000	-0.062	0.224
-296.720	-7.234	0.130	-0.087
-295.705	-62.354	0.074	-0.030
-294.691	16.036	-0.484	0.378
-293.676	79.626	-0.130	0.138
-292.662	-72.153	0.231	0.085
-291.647	-200.000	-0.072	0.336
-290.632	-200.000	-0.004	0.291
-289.618	34.642	-0.079	0.069
-288.603	275.109	-0.078	0.136
-287.589	800.000	0.056	0.189
-286.574	-200.000	-0.015	0.319
-285.559	496.677	-0.067	-0.152
-284.545	-27.540	-0.160	-0.092
-283.530	298.936	-0.135	-0.247
-282.516	-200.000	0.005	-0.103
-281.501	-61.318	0.109	-0.046
-280.486	-48.161	0.243	0.116
-279.472	18.416	-0.189	0.150
-278.457	-146.224	0.108	0.009
-277.443	-100.551	-0.176	-0.043
-276.428	-73.256	0.241	0.087
-275.413	-158.483	-0.189	0.011
-274.399	-94.937	-0.039	0.011
-273.384	-109.821	-0.300	0.062
-272.370	-38.538	0.214	-0.112
-271.355	-98.164	0.182	-0.046
-270.340	732.155	-0.162	-0.430
-269.326	-104.258	0.065	0.015
-268.311	-200.000	-0.001	0.365
-267.297	-124.952	-0.214	0.033
-266.282	-25.134	0.287	0.169
-265.267	617.547	-0.036	0.089
-264.253	60.967	0.133	-0.130
-263.238	-102.703	-0.259	-0.061
-262.224	19.482	-0.172	0.137
-261.209	-34.799	-0.100	-0.054
-260.195	-150.993	-0.052	0.004
-259.180	-200.000	-0.019	-0.089
-258.165	148.535	0.199	0.266
-257.151	-128.766	-0.175	0.024
-256.136	-141.972	0.286	0.028
-255.122	-68.223	-0.065	-0.025
-254.107	800.000	-0.096	0.278
-253.092	-91.242	0.153	0.043
-252.078	167.756	0.243	-0.342
-251.063	-200.000	-0.012	0.130
-250.049	86.146	0.057	0.062
-249.034	58.299	0.129	-0.125
-248.019	-200.000	0.035	0.224
-247.005	-200.000	-0.026	0.172
-245.990	193.419	0.178	-0.267
-244.976	-137.416	-0.257	0.029
-243.961	-51.838	-0.246	0.113
-242.946	-48.789	-0.164	0.078
-241.932	85.973	0.097	0.106
-240.917	-200.000	0.005	-0.267
-239.903	-9.680	-0.185	0.122
-238.888	-77.299	-0.180	-0.062
-237.873	-191.670	0.217	0.002
-236.859	-200.000	-0.064	0.279
-235.844	800.000	0.067	0.213
-234.830	280.283	0.063	0.112
-233.815	-47.227	0.236	0.114
-232.800	-200.000	0.033	0.179
-231.786	-158.157	0.081	-0.005
-230.771	514.761	-0.094	-0.216
-229.757	9.680	0.017	0.013
-228.742	120.084	-0.113	-0.139
-227.727	-19.014	0.176	0.108
-226.713	-200.000	0.010	0.304
-225.698	-200.000	0.023	-0.121
-224.684	330.310	0.158	-0.301
-223.669	-200.000	-0.041	0.347
-222.655	23.359	-0.005	0.004
-221.640	70.375	0.145	0.148
-220.625	-200.000	0.065	-0.302
-219.611	636.791	-0.077	0.194
-218.596	-123.010	-0.186	-0.030
-217.582	41.274	0.143	0.128
-216.567	289.600	-0.073	0.132
-215.552	-170.125	0.298	0.010
-214.538	800.000	-0.018	0.076
-213.523	-81.233	-0.264	0.086
-212.509	245.052	0.176	-0.293
-211.494	800.000	-0.025	-0.081
-210.479	-69.078	0.253	0.096
-209.465	-200.000	-0.418	0.001
-208.450	-151.226	0.078	-0.006
-207.436	63.113	-0.083	-0.082
-206.421	-200.000	0.057	-0.313
-205.406	-200.000	0.028	-0.141
-204.392	185.875	0.274	-0.403
-203.377	89.227	0.077	0.085
-202.363	-108.655	0.241	0.051
-201.348	800.000	0.012	-0.051
-200.333	363.554	0.148	-0.295
-199.319	82.690	0.084	0.090
-198.304	-181.138	0.189	0.004
-197.290	208.941	0.139	0.215
-196.275	-66.556	-0.108	-0.042
-195.260	409.768	0.129	-0.270
-194.246	-147.711	-0.177	0.015
-193.231	-200.000	-0.003	0.069
-192.217	-200.000	-0.031	0.146
-191.202	800.000	-0.047	0.186
-190.187	252.642	-0.088	-0.148
-189.173	70.392	0.091	-0.093
-188.158	413.597	0.207	0.435
-187.144	117.841	-0.111	-0.135
-186.129	-31.999	-0.291	-0.161
-185.114	-200.000	-0.016	-0.142
-184.100	-22.324	-0.126	-0.075
-183.085	-73.663	-0.284	0.102
-182.071	-95.473	-0.479	0.127
-181.056	-127.299	-0.150	0.022
-180.042	-55.227	0.141	-0.062
-179.027	61.673	-0.013	-0.013
-178.012	-187.205	-0.198	-0.003
-176.998	433.701	0.086	-0.183
-175.983	184.373	-0.164	-0.240
-174.969	417.113	-0.097	-0.204
-173.954	210.075	0.028	-0.043
-172.939	-200.000	0.012	0.613
-171.925	-200.000	0.041	0.187
-170.910	-124.522	0.345	0.053
-169.896	-200.000	0.025	-0.170
-168.881	190.542	-0.184	-0.273
-167.866	45.228	-0.136	0.124
-166.852	327.356	0.094	0.178
-165.837	-200.000	0.026	0.320
-164.823	158.810	-0.067	0.092
-163.808	-18.024	0.119	-0.074
-162.793	18.008	-0.073	0.058
-161.779	-200.000	-0.001	0.068
-160.764	-68.336	0.215	-0.082
-159.750	174.807	-0.127	-0.181
-158.735	-111.959	0.459	0.091
-157.720	-85.278	-0.191	-0.059
-156.706	-35.184	0.069	-0.037
-155.691	-64.729	-0.154	0.062
-154.677	101.920	0.167	0.193
-153.662	-82.056	0.185	0.060
-152.647	431.429	-0.172	-0.367
-151.633	619.053	0.192	0.475
-150.618	94.691	0.287	-0.322
-149.604	800.000	-0.114	-0.437
-148.589	-64.881	0.152	0.061
-147.574	-7.667	0.041	-0.027
-146.560	120.032	0.233	0.285
-145.545	-121.995	0.069	-0.011
-144.531	23.290	-0.152	-0.123
-143.516	-200.000	0.006	0.046
-142.502	-200.000	0.108	-0.679
-141.487	-200.000	-0.003	0.196
-140.472	-200.000	-0.017	0.162
-139.458	469.277	-0.049	0.108
-138.443	-200.000	0.012	0.000
-137.429	-117.877	0.420	-0.074
-136.414	-200.000	0.048	-0.273
-135.399	800.000	-0.021	0.070
-134.385	127.953	-0.145	0.182
-133.370	-48.255	-0.152	0.072
-132.356	109.484	-0.021	-0.025
-131.341	83.350	0.122	-0.131
-130.326	710.883	-0.090	-0.234
-129.312	-200.000	-0.013	0.309
-128.297	61.499	0.122	0.120
-127.283	14.281	0.116	0.089
-126.268	60.959	0.101	-0.099
-125.253	733.516	0.035	-0.092
-124.239	-61.274	0.210	0.087
-123.224	800.000	-0.041	-0.119
-122.210	-77.698	-0.137	-0.047
-121.195	-45.222	-0.246	0.120
