DTS Sentinel unit serial number:	SN413079Multiplexer serial number:	ORYXHardware model number:	OX4-SRSoftware version number:	ORYX F/W v4.00 Oryx Data Collector v3.7.2.0data status	okinstallation	princeton_trtdifferential loss correction	single-endedforward channel	channel 2reverse channel	N/Adate	2019/09/16time	11:11:34forward acquisition time	60.00reverse acquisition time	0.00gamma	496.2192k internal	0.2314k external	0.2314temperature offset calibration	0.9957default loss term (dB/km)	0.3790temperature slope calibration	1.0000multiplexer offset coefficient	1.0000multiplexer slope coefficient	1.0000fibre end	0.00T internal ref (°C)	37.12T ext. ref 1 (°C)	12.82T ext. ref 2 (°C)	33.26length (m)	temperature (°C)	Stokes	anti-Stokes-747.200	62.131	0.336	0.340
-746.185	189.967	-0.097	0.148
-745.171	-17.813	-0.302	0.192
-744.156	63.870	0.362	0.369
-743.142	206.593	0.274	0.433
-742.127	800.000	0.148	0.474
-741.112	-152.205	0.231	-0.017
-740.098	244.019	-0.119	0.203
-739.083	469.287	0.117	0.267
-738.069	64.887	0.212	0.217
-737.054	-200.000	0.064	0.292
-736.039	-17.353	-0.135	0.086
-735.025	-81.200	-0.106	0.035
-734.010	-200.000	-0.015	-0.426
-732.996	279.021	-0.144	0.259
-731.981	-200.000	0.088	0.425
-730.966	190.162	-0.133	0.202
-729.952	-98.443	-0.290	-0.075
-728.937	71.467	0.180	-0.189
-727.923	-100.447	0.279	0.070
-726.908	-200.000	-0.035	-0.162
-725.894	-200.000	0.020	-0.169
-724.879	-96.813	0.081	-0.022
-723.864	-200.000	-0.040	0.313
-722.850	12.145	0.052	-0.041
-721.835	-168.675	-0.065	0.002
-720.821	192.780	-0.176	-0.269
-719.806	95.871	-0.348	-0.402
-718.791	326.221	-0.078	-0.151
-717.777	239.566	-0.054	0.090
-716.762	-88.866	-0.431	-0.129
-715.748	-200.000	0.028	-0.156
-714.733	-200.000	0.027	-0.332
-713.718	800.000	-0.057	-0.169
-712.704	63.858	-0.146	0.149
-711.689	800.000	-0.026	0.075
-710.675	80.853	0.274	-0.299
-709.660	188.820	0.113	0.171
-708.645	-200.000	-0.015	-0.264
-707.631	-200.000	0.032	-0.147
-706.616	38.669	-0.164	0.148
-705.602	214.340	0.167	0.268
-704.587	161.309	0.192	-0.271
-703.572	800.000	-0.115	-0.342
-702.558	21.189	-0.148	-0.121
-701.543	413.756	0.126	-0.272
-700.529	-195.323	-0.213	0.002
-699.514	-62.270	0.283	0.119
-698.499	-103.030	0.220	0.053
-697.485	91.709	0.164	-0.187
-696.470	-200.000	-0.040	0.277
-695.456	-9.289	-0.212	-0.143
-694.441	-66.085	-0.257	0.104
-693.426	-200.000	0.042	-0.344
-692.412	558.068	0.034	-0.084
-691.397	108.884	0.197	-0.238
-690.383	800.000	0.055	0.191
-689.368	234.571	0.181	0.302
-688.354	-35.266	0.152	0.084
-687.339	268.569	0.028	0.050
-686.324	800.000	0.068	-0.255
-685.310	-200.000	-0.025	0.223
-684.295	-105.246	0.196	0.045
-683.281	747.346	0.021	-0.058
-682.266	-200.000	0.015	-0.073
-681.251	-200.000	0.003	0.088
-680.237	-200.000	0.031	-0.233
-679.222	-45.455	-0.158	0.079
-678.208	97.160	-0.160	0.185
-677.193	-200.000	0.033	-0.293
-676.178	86.108	-0.232	-0.258
-675.164	-163.103	0.308	-0.015
-674.149	-138.814	-0.163	-0.018
-673.135	800.000	-0.073	0.279
-672.120	-48.949	0.018	0.009
-671.105	-132.605	0.128	-0.017
-670.091	800.000	-0.061	-0.201
-669.076	800.000	-0.049	-0.210
-668.062	283.605	0.098	-0.179
-667.047	-200.000	0.012	0.127
-666.032	-117.916	-0.151	0.027
-665.018	-15.754	-0.127	-0.082
-664.003	403.908	-0.048	-0.102
-662.989	-80.525	-0.289	0.097
-661.974	221.404	0.101	-0.164
-660.959	184.026	-0.131	-0.196
-659.945	-200.000	-0.012	-0.457
-658.930	-90.881	-0.100	0.029
-657.916	-60.225	0.186	-0.080
-656.901	54.730	0.097	-0.095
-655.886	-83.756	-0.428	0.138
-654.872	800.000	-0.038	0.169
-653.857	-110.678	0.317	-0.066
-652.843	-47.222	0.081	-0.040
-651.828	172.942	0.073	-0.106
-650.814	143.762	-0.159	-0.214
-649.799	800.000	0.079	0.337
-648.784	-141.778	0.185	-0.019
-647.770	-99.815	-0.357	-0.090
-646.755	-99.666	-0.095	-0.024
-645.741	-200.000	0.034	0.318
-644.726	800.000	0.057	0.169
-643.711	387.592	0.059	0.123
-642.697	126.961	0.168	-0.215
-641.682	-200.000	-0.017	-0.085
-640.668	-115.971	0.236	0.044
-639.653	348.844	0.106	-0.212
-638.638	-115.898	-0.276	0.052
-637.624	-16.660	-0.117	0.075
-636.609	-200.000	-0.033	0.204
-635.595	-26.105	-0.070	0.042
-634.580	-200.000	-0.027	0.221
-633.565	-10.618	0.242	0.162
-632.551	161.592	-0.146	-0.206
-631.536	-118.435	0.104	-0.019
-630.522	-5.256	-0.280	0.194
-629.507	-158.930	0.114	-0.007
-628.492	-200.000	0.039	-0.430
-627.478	800.000	-0.034	-0.149
-626.463	139.140	0.029	-0.039
-625.449	83.709	0.185	0.204
-624.434	-200.000	0.017	0.090
-623.419	-118.357	0.230	-0.041
-622.405	-194.760	0.223	0.002
-621.390	-200.000	-0.000	-0.047
-620.376	123.002	-0.335	0.423
-619.361	79.567	-0.065	0.071
-618.346	-118.082	-0.034	0.006
-617.332	-200.000	-0.035	-0.270
-616.317	348.687	-0.022	0.044
-615.303	10.288	0.153	0.118
-614.288	66.102	0.210	-0.215
-613.273	383.334	0.160	0.332
-612.259	687.247	-0.029	-0.076
-611.244	-131.839	-0.233	-0.031
-610.230	86.026	-0.176	0.196
-609.215	-34.659	-0.336	-0.185
-608.201	-143.690	-0.131	-0.012
-607.186	215.128	0.071	0.113
-606.171	-80.285	-0.186	-0.063
-605.157	389.782	-0.180	0.375
-604.142	200.298	0.155	0.241
-603.128	73.372	0.128	0.135
-602.113	-112.540	0.224	-0.045
-601.098	-125.342	0.350	-0.054
-600.084	229.607	0.170	0.279
-599.069	800.000	-0.071	-0.209
-598.055	800.000	-0.073	-0.235
-597.040	800.000	0.061	-0.224
-596.025	-200.000	-0.097	-0.593
-595.011	-200.000	0.008	-0.405
-593.996	800.000	-0.030	0.101
-592.982	-1.278	-0.203	-0.145
-591.967	61.364	-0.147	0.147
-590.952	-140.368	0.086	0.009
-589.938	210.007	-0.041	-0.065
-588.923	262.119	-0.057	0.100
-587.909	-100.008	-0.145	0.036
-586.894	492.776	0.117	-0.270
-585.879	367.415	-0.094	-0.192
-584.865	-200.000	-0.018	0.139
-583.850	-200.000	-0.038	-0.189
-582.836	-58.869	0.149	0.065
-581.821	-200.000	0.008	0.119
-580.806	143.300	0.115	0.154
-579.792	-136.517	-0.160	0.019
-578.777	-64.800	-0.088	0.036
-577.763	-71.405	-0.113	0.043
-576.748	274.123	0.076	0.135
-575.733	141.750	0.157	-0.209
-574.719	297.988	-0.209	-0.386
-573.704	281.316	0.126	-0.227
-572.690	2.047	-0.063	0.046
-571.675	-127.937	0.215	0.031
-570.661	22.078	-0.147	-0.120
-569.646	-59.678	0.252	-0.109
-568.631	-200.000	0.000	-0.252
-567.617	-134.886	0.139	-0.017
-566.602	800.000	-0.074	0.292
-565.588	800.000	0.003	0.010
-564.573	-42.165	0.077	0.040
-563.558	73.978	0.067	-0.071
-562.544	800.000	0.070	0.256
-561.529	-157.725	-0.252	0.015
-560.515	461.077	-0.202	0.452
-559.500	-63.645	0.142	0.059
-558.485	-113.703	0.234	-0.046
-557.471	19.094	0.265	0.214
-556.456	66.234	0.214	0.218
-555.442	-200.000	-0.028	0.235
-554.427	-155.032	0.283	0.019
-553.412	-200.000	0.016	0.178
-552.398	-200.000	-0.018	0.294
-551.383	15.568	-0.089	-0.070
-550.369	-81.092	0.082	0.027
-549.354	-200.000	0.027	0.192
-548.339	-200.000	0.032	0.215
-547.325	36.667	-0.269	-0.239
-546.310	133.271	0.033	-0.043
-545.296	107.581	0.008	0.010
-544.281	91.702	-0.308	0.349
-543.266	-177.070	0.160	-0.004
-542.252	414.584	0.214	0.457
-541.237	-75.784	-0.266	-0.095
-540.223	645.858	0.121	0.310
-539.208	-81.950	-0.422	-0.139
-538.193	112.050	-0.162	0.196
-537.179	99.434	-0.210	-0.244
-536.164	729.693	0.176	-0.472
-535.150	0.107	-0.087	0.062
-534.135	-119.545	0.209	0.036
-533.121	30.551	-0.023	0.019
-532.106	-200.000	0.072	-0.526
-531.091	111.549	-0.126	-0.153
-530.077	-141.054	-0.270	-0.028
-529.062	800.000	0.053	0.193
-528.048	-200.000	0.013	-0.180
-527.033	-105.672	-0.235	-0.054
-526.018	-141.766	0.111	-0.011
-525.004	91.930	-0.180	-0.203
-523.989	-200.000	-0.050	0.372
-522.975	58.033	-0.375	-0.369
-521.960	620.672	-0.045	-0.113
-520.945	4.811	0.029	-0.021
-519.931	140.569	0.148	0.196
-518.916	-161.657	-0.125	-0.006
-517.902	-200.000	0.012	0.068
-516.887	-8.915	-0.100	0.068
-515.872	493.820	0.074	0.171
-514.858	87.358	-0.159	0.177
-513.843	-96.778	-0.294	0.078
-512.829	-200.000	-0.004	-0.112
-511.814	-90.336	-0.418	-0.122
-510.799	800.000	-0.087	-0.267
-509.785	-151.199	0.205	-0.015
-508.770	268.005	-0.162	0.285
-507.756	-89.185	-0.117	0.035
-506.741	-35.125	0.064	0.035
-505.726	-103.001	0.255	0.061
-504.712	231.404	-0.235	-0.386
-503.697	800.000	-0.076	-0.273
-502.683	-149.396	0.350	-0.028
-501.668	-65.789	-0.133	-0.054
-500.653	-95.448	-0.323	-0.087
-499.639	-55.017	-0.070	0.032
-498.624	34.459	-0.134	0.117
-497.610	178.775	0.229	-0.335
-496.595	259.523	-0.130	0.225
-495.581	325.573	0.087	-0.167
-494.566	14.859	0.286	-0.224
-493.551	-68.983	0.353	-0.137
-492.537	-56.394	0.214	-0.095
-491.522	81.761	0.156	-0.169
-490.508	-200.000	-0.026	0.176
-489.493	46.402	-0.209	0.195
-488.478	-200.000	0.063	0.306
-487.464	36.501	-0.119	0.105
-486.449	-5.914	-0.129	0.089
-485.435	-70.458	0.130	-0.049
-484.420	800.000	0.029	-0.115
-483.405	14.083	-0.165	0.129
-482.391	28.900	0.156	-0.133
-481.376	-90.251	0.201	0.059
-480.362	-135.604	0.209	-0.025
-479.347	-200.000	-0.004	-0.056
-478.332	227.521	0.056	-0.091
-477.318	-47.729	-0.263	-0.128
-476.303	-13.336	-0.232	-0.151
-475.289	727.709	0.067	-0.179
-474.274	800.000	0.067	-0.208
-473.259	800.000	-0.022	-0.085
-472.245	800.000	0.020	0.077
-471.230	32.593	0.248	0.215
-470.216	-200.000	-0.051	0.445
-469.201	26.691	-0.063	0.053
-468.186	-200.000	0.023	0.305
-467.172	-132.119	0.238	0.031
-466.157	-95.830	0.151	0.040
-465.143	-200.000	0.007	-0.230
-464.128	-200.000	0.006	-0.147
-463.113	-200.000	0.025	0.126
-462.099	800.000	-0.105	0.386
-461.084	800.000	-0.044	-0.182
-460.070	-103.794	-0.102	-0.024
-459.055	60.597	0.034	0.034
-458.040	-124.328	0.251	0.039
-457.026	151.964	0.159	-0.217
-456.011	127.285	-0.131	-0.167
-454.997	-70.252	-0.262	-0.100
-453.982	307.356	-0.101	-0.189
-452.968	800.000	0.022	-0.075
-451.953	800.000	-0.105	0.398
-450.938	-28.705	-0.349	-0.201
-449.924	-171.847	0.209	-0.007
-448.909	-52.426	-0.047	0.022
-447.895	47.342	-0.096	-0.089
-446.880	-200.000	0.046	-0.367
-445.865	44.621	0.084	-0.077
-444.851	800.000	0.062	0.175
-443.836	403.012	0.078	-0.165
-442.822	-20.900	0.333	0.204
-441.807	102.814	0.143	0.168
-440.792	-173.764	0.258	0.008
-439.778	227.315	0.156	-0.254
-438.763	800.000	0.065	-0.205
-437.749	-111.529	0.124	0.025
-436.734	156.238	-0.052	-0.072
-435.719	518.641	0.204	0.477
-434.705	-81.016	0.142	0.047
-433.690	-90.807	-0.197	0.057
-432.676	800.000	-0.104	0.451
-431.661	54.883	0.027	0.026
-430.646	17.678	-0.124	-0.099
-429.632	-49.553	-0.358	-0.171
-428.617	-200.000	0.018	-0.288
-427.603	57.548	0.224	-0.219
-426.588	800.000	-0.210	0.629
-425.573	18.250	0.194	0.155
-424.559	-36.248	0.137	-0.074
-423.544	188.587	-0.184	-0.276
-422.530	529.150	-0.111	-0.262
-421.515	65.674	-0.134	0.136
-420.500	423.797	-0.095	-0.204
-419.486	318.311	0.092	0.174
-418.471	175.352	-0.178	0.259
-417.457	-133.594	-0.333	0.042
-416.442	280.313	-0.018	0.033
-415.428	-92.524	0.209	-0.059
-414.413	-105.948	-0.227	0.051
-413.398	650.124	0.073	-0.186
-412.384	20.742	-0.198	-0.161
-411.369	59.289	-0.041	-0.040
-410.355	-199.260	-0.163	0.001
-409.340	800.000	-0.070	0.238
-408.325	800.000	0.046	-0.171
-407.311	263.930	-0.095	-0.166
-406.296	-65.692	-0.070	0.028
-405.282	-155.770	-0.228	-0.015
-404.267	19.901	-0.095	-0.077
-403.252	341.537	-0.083	-0.162
-402.238	800.000	-0.076	-0.211
-401.223	68.007	0.136	-0.139
-400.209	366.405	0.020	-0.040
-399.194	92.759	0.083	0.093
-398.179	165.461	-0.072	-0.101
-397.165	-89.791	-0.312	-0.091
-396.150	-200.000	0.053	0.262
-395.136	33.602	0.359	0.312
-394.121	-136.300	-0.224	0.026
-393.106	399.665	0.044	-0.093
-392.092	-182.826	0.141	-0.003
-391.077	123.698	0.085	-0.107
-390.063	422.246	-0.200	0.429
-389.048	-119.329	0.062	-0.011
-388.033	302.135	0.085	-0.157
-387.019	-146.951	0.157	0.013
-386.004	85.722	-0.101	-0.111
-384.990	-67.529	0.138	-0.054
-383.975	-200.000	0.017	-0.136
-382.960	-30.555	-0.016	0.009
-381.946	-200.000	-0.006	-0.189
-380.931	-200.000	-0.018	-0.194
-379.917	351.224	0.128	0.252
-378.902	43.200	0.140	0.128
-377.888	800.000	-0.076	0.245
-376.873	-92.988	0.223	0.062
-375.858	-63.968	0.258	-0.106
-374.844	61.729	-0.086	-0.085
-373.829	-189.283	0.313	0.004
-372.815	-114.724	0.354	-0.068
-371.800	-200.000	0.003	-0.072
-370.785	505.792	0.081	-0.188
-369.771	39.297	-0.025	0.022
-368.756	-200.000	0.000	0.005
-367.742	-200.000	-0.019	-0.235
-366.727	66.930	0.149	-0.152
-365.712	26.893	-0.498	0.417
-364.698	-129.329	-0.103	0.014
-363.683	800.000	-0.082	0.312
-362.669	-168.716	0.097	0.004
-361.654	-97.080	-0.205	-0.053
-360.639	-173.182	0.234	-0.007
-359.625	800.000	-0.046	0.147
-358.610	-172.314	0.283	0.009
-357.596	-117.816	-0.476	-0.085
-356.581	-54.453	0.083	0.038
-355.566	-127.938	-0.279	-0.040
-354.552	-49.039	-0.103	-0.049
-353.537	445.027	-0.035	-0.076
-352.523	60.831	-0.124	0.122
-351.508	800.000	0.113	-0.345
-350.493	-46.472	-0.137	0.067
-349.479	-31.380	0.092	-0.052
-348.464	10.066	-0.067	-0.051
-347.450	15.596	0.203	0.159
-346.435	9.282	0.102	0.077
-345.420	800.000	-0.021	0.065
-344.406	-82.370	-0.416	-0.135
-343.391	23.889	0.075	-0.061
-342.377	67.635	-0.219	0.224
-341.362	-200.000	0.020	0.090
-340.348	-146.131	0.049	-0.004
-339.333	-173.051	0.049	-0.002
-338.318	49.953	0.130	-0.123
-337.304	11.813	0.094	0.072
-336.289	82.353	0.054	0.058
-335.275	101.417	-0.130	-0.152
-334.260	800.000	-0.105	0.314
-333.245	492.289	0.057	0.129
-332.231	47.696	-0.090	-0.084
-331.216	-64.804	-0.188	0.076
-330.202	-200.000	-0.001	0.084
-329.187	-200.000	-0.001	-0.099
-328.172	-138.185	-0.369	-0.041
-327.158	-200.000	0.058	-0.493
-326.143	3.199	0.309	-0.224
-325.129	-38.771	-0.254	-0.133
-324.114	13.060	-0.132	-0.102
-323.099	800.000	-0.042	-0.141
-322.085	-95.553	-0.233	0.062
-321.070	220.015	-0.165	0.263
-320.056	-200.000	0.002	-0.049
-319.041	-74.254	0.283	0.102
-318.026	-83.748	0.312	0.099
-317.012	-172.613	-0.119	-0.004
-315.997	800.000	-0.042	0.157
-314.983	800.000	0.112	-0.319
-313.968	-158.139	-0.106	0.006
-312.953	-200.000	-0.103	-0.578
-311.939	-74.912	-0.139	0.050
-310.924	638.327	0.088	-0.224
-309.910	-53.002	0.240	-0.110
-308.895	789.998	0.067	0.182
-307.880	202.943	0.113	-0.174
-306.866	6.853	0.088	-0.065
-305.851	35.024	-0.220	-0.192
-304.837	-63.583	0.419	0.171
-303.822	300.476	-0.187	0.343
-302.807	133.446	0.179	0.231
-301.793	13.366	-0.151	-0.116
-300.778	422.704	0.149	0.319
-299.764	72.860	-0.194	0.202
-298.749	-200.000	0.026	0.462
-297.735	-55.856	-0.248	0.110
-296.720	800.000	-0.101	-0.417
-295.705	-200.000	0.003	-0.129
-294.691	24.342	-0.143	0.118
-293.676	-31.112	0.148	-0.083
-292.662	-40.048	-0.173	-0.090
-291.647	22.080	-0.230	-0.187
-290.632	-118.264	0.361	0.064
-289.618	-200.000	-0.030	0.587
-288.603	-109.226	0.362	-0.077
-287.589	-133.513	0.351	-0.044
-286.574	6.956	-0.178	0.132
-285.559	-35.402	0.149	0.081
-284.545	-114.156	-0.431	-0.083
-283.530	75.333	-0.097	-0.102
-282.516	-128.381	-0.245	-0.035
-281.501	-52.668	-0.241	-0.111
-280.486	168.752	-0.028	-0.039
-279.472	-200.000	-0.034	-0.381
-278.457	-200.000	0.044	0.467
-277.443	67.648	0.065	-0.066
-276.428	232.693	0.160	-0.261
-275.413	56.722	0.277	0.268
-274.399	-77.256	-0.122	-0.042
-273.384	71.794	-0.253	-0.261
-272.370	-200.000	0.005	-0.152
-271.355	-192.907	0.069	-0.001
-270.340	239.339	-0.173	0.286
-269.326	-134.945	0.347	-0.042
-268.311	-200.000	-0.052	-0.467
-267.297	-118.058	-0.255	0.045
-266.282	79.806	0.183	-0.196
-265.267	193.680	-0.142	0.214
-264.253	-200.000	0.047	0.394
-263.238	800.000	0.050	0.208
-262.224	-200.000	-0.032	0.191
-261.209	294.075	0.062	0.112
-260.195	663.020	0.102	0.261
-259.180	-78.269	-0.236	0.081
-258.165	-200.000	-0.001	-0.060
-257.151	34.186	0.040	0.035
-256.136	-200.000	-0.018	-0.126
-255.122	-19.787	0.170	-0.105
-254.107	-200.000	-0.007	-0.042
-253.092	-25.748	0.254	0.149
-252.078	-200.000	0.011	0.061
-251.063	-58.531	0.232	-0.100
-250.049	-93.577	-0.123	-0.034
-249.034	-17.340	0.291	-0.182
-248.019	-147.785	-0.321	-0.027
-247.005	-200.000	-0.029	0.192
-245.990	342.997	0.119	-0.232
-244.976	-3.876	-0.105	0.072
-243.961	-200.000	-0.038	0.169
-242.946	-200.000	0.038	0.327
-241.932	48.538	-0.202	-0.188
-240.917	164.924	-0.099	0.138
-239.903	4.749	-0.220	-0.161
-238.888	-96.671	0.199	-0.052
-237.873	246.263	0.049	-0.082
-236.859	-27.053	-0.245	0.142
-235.844	-200.000	-0.014	0.122
-234.830	170.360	0.148	-0.211
-233.815	-20.626	-0.210	-0.128
-232.800	-6.289	-0.165	-0.112
-231.786	69.072	0.152	-0.155
-230.771	-48.566	0.393	-0.188
-229.757	-35.677	-0.126	-0.068
-228.742	-98.435	0.466	-0.119
-227.727	-98.967	0.213	0.054
-226.713	97.293	-0.241	0.275
-225.698	445.844	-0.069	0.150
-224.684	-67.781	-0.145	0.056
-223.669	-27.872	0.119	0.069
-222.655	-41.668	0.291	0.148
-221.640	-200.000	-0.033	-0.326
-220.625	-18.244	-0.061	-0.038
-219.611	307.130	0.108	0.200
-218.596	-119.969	-0.199	-0.034
-217.582	-119.141	0.110	-0.019
-216.567	324.374	0.056	-0.107
-215.552	-53.071	0.270	0.123
-214.538	-153.239	0.491	0.034
-213.523	95.820	0.166	0.188
-212.509	-32.005	-0.204	-0.113
-211.494	800.000	-0.071	0.279
-210.479	-69.625	0.104	0.039
-209.465	133.548	0.221	-0.284
-208.450	-200.000	0.048	-0.255
-207.436	759.765	-0.097	0.260
-206.421	-89.129	-0.064	-0.019
-205.406	-134.711	0.167	0.020
-204.392	-8.761	-0.193	0.128
-203.377	100.971	-0.210	-0.243
-202.363	261.436	-0.060	0.104
-201.348	112.861	-0.023	0.028
-200.333	-73.106	0.213	-0.077
-199.319	-87.054	0.351	-0.106
-198.304	65.085	0.135	-0.135
-197.290	141.608	0.063	-0.082
-196.275	800.000	0.009	0.027
-195.260	-45.789	-0.372	-0.183
-194.246	-97.813	0.151	0.039
-193.231	-19.209	0.236	0.146
-192.217	-200.000	0.014	-0.078
-191.202	212.972	0.040	0.062
-190.187	-162.942	-0.084	-0.004
-189.173	277.019	-0.086	0.151
-188.158	224.336	0.139	0.222
-187.144	-9.434	0.047	-0.031
-186.129	95.035	0.091	0.102
-185.114	-3.451	0.054	-0.037
-184.100	198.173	-0.087	0.132
-183.085	-58.324	-0.229	0.099
-182.071	-118.656	-0.195	0.034
-181.056	-30.743	-0.187	-0.105
-180.042	800.000	0.032	-0.134
-179.027	800.000	-0.081	-0.336
-178.012	5.785	0.142	-0.104
-176.998	-25.413	0.092	0.054
-175.983	29.587	-0.069	-0.058
-174.969	92.980	0.275	0.308
-173.954	14.364	-0.126	0.097
-172.939	0.247	-0.293	0.207
-171.925	-38.834	0.260	0.136
-170.910	-47.544	0.269	-0.129
-169.896	6.958	0.251	0.186
-168.881	-200.000	-0.043	-0.275
-167.866	800.000	0.052	0.209
-166.852	-200.000	0.016	-0.370
-165.837	-20.578	-0.103	0.063
-164.823	207.339	-0.136	0.210
-163.808	-105.609	-0.071	-0.016
-162.793	163.110	0.201	-0.280
-161.779	419.636	0.046	0.097
-160.764	-155.263	-0.301	0.019
-159.750	-166.781	0.126	0.005
-158.735	230.318	-0.048	0.078
-157.720	645.974	-0.073	-0.185
-156.706	-46.722	0.110	-0.053
-155.691	-58.337	-0.100	-0.043
-154.677	-173.766	0.125	0.004
-153.662	-200.000	-0.006	-0.180
-152.647	800.000	0.050	0.153
-151.633	800.000	0.023	-0.082
-150.618	-200.000	0.024	0.153
-149.604	3.197	0.064	0.046
-148.589	-89.218	-0.223	0.065
-147.574	800.000	-0.046	0.138
-146.560	-84.897	-0.223	0.069
-145.545	11.072	0.263	-0.199
-144.531	247.173	0.129	0.216
-143.516	-200.000	-0.002	0.064
-142.502	-47.685	0.249	-0.119
-141.487	-200.000	0.004	0.339
-140.472	468.955	-0.106	0.235
-139.458	172.220	0.162	-0.231
-138.443	153.166	-0.094	-0.128
-137.429	-44.095	-0.296	-0.147
-136.414	16.701	0.168	-0.132
-135.399	108.337	0.088	0.104
-134.385	117.083	0.160	-0.194
-133.370	-77.871	0.123	0.042
-132.356	276.028	-0.067	0.118
-131.341	-72.330	0.264	0.097
-130.326	-107.474	0.229	0.050
-129.312	41.612	-0.063	-0.056
-128.297	402.044	0.051	-0.106
-127.283	545.824	-0.107	0.252
-126.268	-168.837	0.363	-0.014
-125.253	7.002	0.109	-0.081
-124.239	-42.335	0.238	0.120
-123.224	-39.379	-0.384	-0.199
-122.210	-144.556	-0.222	0.020
-121.195	800.000	-0.073	0.310
