DTS Sentinel unit serial number:	SN413079Multiplexer serial number:	ORYXHardware model number:	OX4-SRSoftware version number:	ORYX F/W v4.00 Oryx Data Collector v3.7.2.0data status	okinstallation	princeton_trtdifferential loss correction	single-endedforward channel	channel 2reverse channel	N/Adate	2019/09/12time	16:45:10forward acquisition time	60.00reverse acquisition time	0.00gamma	496.2192k internal	0.2324k external	0.2324temperature offset calibration	1.0118default loss term (dB/km)	0.3790temperature slope calibration	1.0000multiplexer offset coefficient	1.0000multiplexer slope coefficient	1.0000fibre end	0.00T internal ref (°C)	36.50T ext. ref 1 (°C)	2.75T ext. ref 2 (°C)	29.66length (m)	temperature (°C)	Stokes	anti-Stokes-747.200	68.422	-0.068	0.070
-746.185	-108.251	0.212	-0.046
-745.171	800.000	-0.073	0.235
-744.156	-200.000	-0.056	0.768
-743.142	800.000	-0.079	-0.326
-742.127	-35.272	-0.134	0.074
-741.112	151.799	0.027	0.037
-740.098	800.000	-0.079	0.241
-739.083	-92.019	0.218	0.062
-738.069	305.027	-0.056	-0.104
-737.054	-85.062	0.198	-0.063
-736.039	81.986	0.047	0.051
-735.025	-200.000	-0.060	-0.324
-734.010	37.438	-0.130	0.116
-732.996	101.834	0.100	-0.118
-731.981	-48.783	-0.282	0.137
-730.966	207.511	-0.072	0.114
-729.952	-59.687	-0.348	-0.150
-728.937	40.211	-0.199	-0.180
-727.923	800.000	-0.112	0.350
-726.908	723.350	-0.068	-0.182
-725.894	800.000	0.052	0.148
-724.879	92.877	0.267	0.304
-723.864	800.000	0.041	0.175
-722.850	-200.000	-0.032	0.288
-721.835	-200.000	0.032	0.276
-720.821	-200.000	0.023	0.161
-719.806	227.426	-0.097	-0.159
-718.791	157.426	0.150	-0.210
-717.777	-200.000	-0.007	-0.130
-716.762	800.000	0.016	0.051
-715.748	-28.411	-0.270	0.157
-714.733	205.759	-0.121	-0.190
-713.718	496.354	0.185	-0.430
-712.704	178.342	0.228	-0.336
-711.689	-38.359	0.201	0.107
-710.675	-26.047	-0.180	-0.107
-709.660	14.119	0.112	0.088
-708.645	-43.962	0.238	-0.121
-707.631	-116.006	0.170	0.032
-706.616	-75.015	-0.209	-0.075
-705.602	-200.000	0.014	-0.165
-704.587	-200.000	0.002	0.028
-703.572	-200.000	-0.039	0.336
-702.558	-96.837	-0.169	-0.045
-701.543	173.614	0.006	-0.008
-700.529	-200.000	-0.052	-0.240
-699.514	-154.758	-0.205	0.014
-698.499	-116.198	-0.128	0.024
-697.485	-58.660	-0.190	-0.083
-696.470	-35.635	-0.151	0.083
-695.456	79.327	-0.169	-0.182
-694.441	-200.000	-0.004	-0.092
-693.426	-200.000	0.029	-0.355
-692.412	511.647	-0.042	-0.098
-691.397	580.983	-0.119	-0.293
-690.383	-87.600	-0.229	-0.070
-689.368	-86.305	-0.097	0.030
-688.354	42.793	0.299	0.275
-687.339	515.393	-0.075	-0.176
-686.324	-108.465	-0.056	0.012
-685.310	90.762	0.183	-0.207
-684.295	-169.001	0.122	-0.005
-683.281	-53.071	0.317	0.147
-682.266	260.949	-0.172	-0.300
-681.251	-103.139	-0.105	-0.025
-680.237	-200.000	-0.014	-0.225
-679.222	-200.000	-0.060	-0.281
-678.208	-180.228	0.280	-0.006
-677.193	-200.000	-0.019	0.192
-676.178	800.000	-0.046	-0.187
-675.164	30.344	-0.191	-0.165
-674.149	-97.091	0.117	0.031
-673.135	-100.092	-0.257	0.064
-672.120	800.000	-0.094	-0.311
-671.105	-138.249	-0.224	0.025
-670.091	57.132	-0.196	-0.193
-669.076	575.504	-0.025	0.062
-668.062	-53.268	0.233	-0.107
-667.047	294.344	0.070	0.128
-666.032	208.292	-0.047	0.074
-665.018	-82.763	0.172	-0.056
-664.003	-200.000	-0.017	0.167
-662.989	-39.982	-0.288	-0.151
-661.974	-75.437	0.142	-0.051
-660.959	-7.085	0.267	0.183
-659.945	64.923	0.167	-0.170
-658.930	-85.730	0.169	-0.053
-657.916	159.030	0.119	0.167
-656.901	-200.000	0.049	0.290
-655.886	-200.000	-0.022	-0.357
-654.872	-34.971	-0.196	-0.108
-653.857	-25.645	0.028	0.016
-652.843	48.121	0.044	0.041
-651.828	-71.972	-0.342	0.128
-650.814	-200.000	0.010	-0.111
-649.799	-35.106	0.199	-0.109
-648.784	-200.000	0.018	0.118
-647.770	683.724	-0.129	-0.337
-646.755	-63.378	-0.213	-0.088
-645.741	-200.000	-0.069	-0.390
-644.726	35.882	-0.226	0.200
-643.711	-200.000	-0.013	0.113
-642.697	-104.988	0.056	-0.013
-641.682	24.865	0.276	0.230
-640.668	178.298	-0.059	0.086
-639.653	-17.457	0.061	-0.039
-638.638	25.901	-0.363	-0.304
-637.624	-200.000	0.016	-0.206
-636.609	-160.668	0.189	0.010
-635.595	-200.000	0.003	0.143
-634.580	-152.361	-0.103	0.007
-633.565	-200.000	-0.005	0.118
-632.551	244.044	-0.245	0.414
-631.536	50.216	0.167	-0.158
-630.522	52.687	-0.171	-0.164
-629.507	89.456	-0.187	-0.209
-628.492	800.000	0.092	-0.272
-627.478	154.799	0.155	0.214
-626.463	612.794	0.129	-0.325
-625.449	135.781	-0.234	0.306
-624.434	-136.897	-0.150	-0.017
-623.419	-200.000	0.018	-0.091
-622.405	800.000	-0.152	0.422
-621.390	-200.000	0.002	0.043
-620.376	800.000	-0.120	0.358
-619.361	25.458	-0.187	-0.156
-618.346	-131.955	-0.127	0.017
-617.332	183.949	0.049	-0.073
-616.317	-173.445	-0.304	0.009
-615.303	-164.388	0.110	0.005
-614.288	6.210	-0.199	-0.148
-613.273	-114.272	0.103	-0.020
-612.259	314.857	-0.068	0.129
-611.244	-178.222	0.063	0.001
-610.230	800.000	0.011	0.042
-609.215	149.926	-0.147	-0.200
-608.201	-200.000	-0.039	0.299
-607.186	-52.012	-0.202	0.094
-606.171	-200.000	0.019	0.247
-605.157	-83.145	-0.053	-0.017
-604.142	-129.210	-0.223	-0.031
-603.128	39.055	0.404	0.363
-602.113	607.854	0.158	-0.397
-601.098	76.451	-0.190	-0.202
-600.084	123.616	0.085	-0.107
-599.069	190.877	0.062	0.093
-598.055	-3.276	0.133	0.093
-597.040	-38.227	-0.148	-0.079
-596.025	-39.044	0.010	-0.005
-595.011	-31.222	-0.123	-0.070
-593.996	-91.558	0.177	0.051
-592.982	-200.000	0.017	-0.160
-591.967	55.838	0.170	-0.166
-590.952	44.485	0.268	0.247
-589.938	-85.154	-0.203	0.064
-588.923	177.015	0.074	0.109
-587.909	800.000	0.056	-0.230
-586.894	36.861	-0.068	0.061
-585.879	800.000	0.018	0.052
-584.865	-132.245	-0.041	0.005
-583.850	800.000	0.029	0.119
-582.836	-160.533	-0.180	-0.010
-581.821	35.217	-0.233	-0.205
-580.806	-77.190	0.126	0.044
-579.792	34.535	0.214	-0.188
-578.777	171.673	0.065	0.093
-577.763	-200.000	-0.022	-0.144
-576.748	-110.153	0.166	-0.035
-575.733	135.482	0.136	-0.177
-574.719	-200.000	-0.018	-0.257
-573.704	-200.000	0.028	-0.183
-572.690	-200.000	-0.086	-0.521
-571.675	-200.000	-0.029	-0.506
-570.661	-30.035	0.114	0.065
-569.646	563.990	0.072	0.175
-568.631	67.996	-0.172	-0.176
-567.617	-200.000	-0.013	0.401
-566.602	34.285	0.078	0.068
-565.588	-200.000	0.028	-0.144
-564.573	3.449	-0.107	0.078
-563.558	80.975	0.255	0.275
-562.544	-200.000	-0.027	0.121
-561.529	132.164	0.133	0.171
-560.515	1.687	-0.492	-0.355
-559.500	189.179	0.126	-0.189
-558.485	88.750	-0.159	-0.177
-557.471	449.435	0.070	-0.155
-556.456	419.627	0.030	-0.064
-555.442	745.286	-0.068	-0.184
-554.427	-95.785	-0.225	-0.060
-553.412	-200.000	0.004	-0.029
-552.398	281.758	-0.062	0.111
-551.383	526.854	0.030	0.071
-550.369	11.782	0.214	-0.165
-549.354	-150.550	0.205	-0.016
-548.339	-81.987	0.260	-0.085
-547.325	-104.811	-0.172	0.040
-546.310	-149.276	-0.076	-0.006
-545.296	-54.783	0.139	0.063
-544.281	-176.698	0.168	0.004
-543.266	-122.869	-0.221	-0.036
-542.252	-200.000	-0.107	0.480
-541.237	529.685	0.115	0.272
-540.223	-200.000	-0.021	0.217
-539.208	-52.226	0.335	0.156
-538.193	211.750	-0.173	0.273
-537.179	-109.637	0.343	-0.072
-536.164	23.777	0.274	0.226
-535.150	10.288	-0.116	-0.088
-534.135	-109.386	-0.211	-0.045
-533.121	131.592	-0.087	0.112
-532.106	100.774	-0.139	0.161
-531.091	190.341	0.160	0.241
-530.077	-83.050	0.068	-0.022
-529.062	-98.588	0.153	0.039
-528.048	-132.563	-0.449	-0.058
-527.033	-200.000	-0.032	-0.160
-526.018	-10.590	0.049	0.032
-525.004	-105.886	0.236	-0.053
-523.989	3.802	0.240	-0.175
-522.975	9.733	-0.132	0.100
-521.960	-95.255	0.125	-0.034
-520.945	68.821	0.028	-0.028
-519.931	-200.000	-0.015	-0.110
-518.916	779.254	-0.046	0.126
-517.902	450.720	0.143	-0.316
-516.887	-200.000	-0.011	0.158
-515.872	-100.379	0.305	-0.076
-514.858	253.568	-0.042	-0.071
-513.843	-179.033	0.185	-0.004
-512.829	800.000	-0.094	0.330
-511.814	-55.014	0.229	0.103
-510.799	-100.744	-0.197	0.049
-509.785	-200.000	-0.018	-0.143
-508.770	-29.416	0.166	0.095
-507.756	195.617	0.176	0.267
-506.741	-91.652	-0.424	0.121
-505.726	205.224	0.132	-0.206
-504.712	-18.478	-0.260	-0.163
-503.697	800.000	-0.113	-0.375
-502.683	208.449	0.172	0.269
-501.668	-65.230	-0.019	0.008
-500.653	-200.000	0.032	-0.183
-499.639	-200.000	-0.026	-0.286
-498.624	-56.572	-0.249	-0.110
-497.610	-19.218	0.065	-0.040
-496.595	800.000	0.079	0.257
-495.581	-24.078	0.259	-0.155
-494.566	-200.000	0.041	-0.350
-493.551	437.995	-0.110	0.240
-492.537	-94.547	-0.176	0.048
-491.522	48.757	-0.093	-0.087
-490.508	800.000	-0.049	0.170
-489.493	-51.362	-0.030	0.014
-488.478	7.449	0.320	0.239
-487.464	1.807	-0.027	-0.019
-486.449	-200.000	0.058	0.400
-485.435	-147.199	0.146	0.012
-484.420	-157.118	0.191	0.012
-483.405	387.186	-0.050	-0.103
-482.391	-106.020	-0.379	-0.085
-481.376	37.768	-0.081	0.071
-480.362	2.401	-0.031	0.022
-479.347	-36.763	-0.124	0.066
-478.332	-200.000	-0.060	0.488
-477.318	85.176	0.036	-0.039
-476.303	59.751	-0.161	0.158
-475.289	-78.814	0.075	-0.026
-474.274	417.448	-0.160	-0.341
-473.259	-89.002	-0.080	-0.024
-472.245	-107.886	0.190	-0.041
-471.230	-200.000	0.040	-0.179
-470.216	61.433	-0.295	-0.293
-469.201	15.953	0.127	0.100
-468.186	757.427	-0.092	0.248
-467.172	-45.043	0.122	0.061
-466.157	408.490	-0.056	0.118
-465.143	-118.047	0.203	0.036
-464.128	213.679	0.147	-0.232
-463.113	-73.549	-0.042	0.015
-462.099	-159.705	-0.339	0.019
-461.084	-200.000	0.028	-0.279
-460.070	800.000	0.095	-0.311
-459.055	87.668	-0.154	0.170
-458.040	-178.615	-0.143	0.003
-457.026	-108.671	0.124	-0.027
-456.011	230.987	0.086	0.141
-454.997	115.127	0.147	0.179
-453.982	800.000	0.058	-0.243
-452.968	-168.891	0.368	0.014
-451.953	-200.000	-0.057	-0.266
-450.938	800.000	-0.085	-0.347
-449.924	583.287	-0.042	-0.102
-448.909	-146.254	-0.208	0.018
-447.895	21.858	0.074	0.060
-446.880	-145.194	-0.252	0.023
-445.865	-139.418	0.022	-0.002
-444.851	181.292	0.131	-0.192
-443.836	59.493	-0.074	0.072
-442.822	-200.000	0.022	-0.244
-441.807	-200.000	0.024	-0.280
-440.792	165.423	0.299	-0.422
-439.778	-26.358	0.142	-0.083
-438.763	-52.042	-0.436	0.202
-437.749	-85.010	-0.294	0.092
-436.734	-174.993	0.415	0.012
-435.719	171.469	-0.117	-0.167
-434.705	54.320	-0.311	-0.299
-433.690	87.155	-0.026	0.029
-432.676	475.478	0.101	0.226
-431.661	-134.200	0.115	0.014
-430.646	-83.670	0.260	-0.083
-429.632	59.463	-0.245	0.241
-428.617	5.290	0.280	0.206
-427.603	800.000	-0.061	0.230
-426.588	183.259	0.173	-0.255
-425.573	32.439	-0.145	-0.125
-424.559	-200.000	0.035	0.173
-423.544	800.000	-0.050	-0.141
-422.530	-200.000	-0.045	0.217
-421.515	-200.000	0.042	0.212
-420.500	-105.752	-0.235	-0.053
-419.486	236.607	0.152	-0.251
-418.471	-93.334	-0.165	0.046
-417.457	359.609	-0.152	0.303
-416.442	192.183	-0.018	0.027
-415.428	-157.903	0.168	-0.010
-414.413	800.000	0.018	0.077
-413.398	245.728	0.189	0.318
-412.384	-200.000	-0.020	-0.110
-411.369	-200.000	-0.002	0.020
-410.355	-88.025	0.346	-0.104
-409.340	-2.488	0.265	0.185
-408.325	-84.669	0.236	0.074
-407.311	800.000	-0.084	-0.286
-406.296	-200.000	-0.020	0.094
-405.282	177.158	-0.131	0.190
-404.267	-2.633	-0.115	0.080
-403.252	-110.863	-0.079	-0.016
-402.238	111.536	-0.104	-0.125
-401.223	295.495	-0.121	0.220
-400.209	214.417	-0.090	0.142
-399.194	37.414	0.164	0.145
-398.179	118.694	0.020	-0.025
-397.165	-31.499	-0.321	0.180
-396.150	24.005	-0.312	-0.256
-395.136	-200.000	-0.061	0.399
-394.121	390.164	-0.109	0.225
-393.106	121.278	0.180	-0.224
-392.092	-141.708	0.273	-0.027
-391.077	-49.923	-0.137	0.065
-390.063	-66.718	0.130	0.051
-389.048	-80.026	-0.408	0.136
-388.033	-200.000	-0.028	-0.274
-387.019	800.000	-0.026	-0.073
-386.004	112.010	-0.082	0.098
-384.990	-65.739	-0.130	0.052
-383.975	-70.909	0.399	0.150
-382.960	487.089	0.062	0.140
-381.946	164.639	-0.101	-0.141
-380.931	-200.000	0.009	0.115
-379.917	-168.365	-0.213	-0.008
-378.902	74.414	-0.317	-0.332
-377.888	-200.000	0.036	-0.258
-376.873	-147.901	0.141	-0.012
-375.858	-64.766	-0.301	-0.121
-374.844	692.648	0.057	-0.148
-373.829	385.910	-0.191	-0.392
-372.815	144.821	0.078	0.104
-371.800	150.539	-0.032	0.043
-370.785	95.496	-0.160	-0.182
-369.771	13.401	-0.205	-0.158
-368.756	-200.000	0.003	0.098
-367.742	14.024	-0.235	-0.182
-366.727	470.802	0.032	-0.071
-365.712	-184.300	0.281	-0.005
-364.698	125.657	0.248	-0.312
-363.683	-200.000	-0.121	-0.001
-362.669	65.780	0.176	0.177
-361.654	-29.886	-0.273	-0.155
-360.639	16.709	0.273	-0.215
-359.625	-121.308	0.347	0.058
-358.610	-200.000	0.017	-0.206
-357.596	-41.607	0.288	-0.147
-356.581	318.231	-0.147	-0.276
-355.566	74.464	-0.213	0.222
-354.552	800.000	0.084	-0.246
-353.537	10.169	-0.086	0.065
-352.523	33.972	-0.089	-0.077
-351.508	-1.400	-0.218	0.153
-350.493	-89.054	-0.035	-0.010
-349.479	188.603	0.075	-0.111
-348.464	-66.358	-0.225	0.089
-347.450	-200.000	0.017	-0.248
-346.435	-134.952	0.275	-0.033
-345.420	800.000	0.045	-0.158
-344.406	-135.007	0.122	-0.015
-343.391	388.233	0.071	-0.146
-342.377	-200.000	0.026	-0.296
-341.362	-11.373	-0.179	0.117
-340.348	-2.516	0.325	-0.226
-339.333	-10.590	-0.191	-0.126
-338.318	-73.176	0.157	0.057
-337.304	44.571	0.256	0.234
-336.289	104.530	0.171	0.200
-335.275	-77.686	0.137	-0.047
-334.260	-135.771	-0.161	0.019
-333.245	-4.150	-0.251	0.172
-332.231	-200.000	-0.025	0.267
-331.216	97.247	0.176	-0.200
-330.202	-38.531	0.251	-0.132
-329.187	-200.000	0.011	0.294
-328.172	800.000	0.071	0.266
-327.158	520.218	0.120	0.279
-326.143	-200.000	0.000	0.026
-325.129	256.899	-0.083	0.141
-324.114	213.354	0.078	0.122
-323.099	-15.169	0.123	-0.078
-322.085	800.000	0.075	-0.210
-321.070	-50.060	0.378	0.178
-320.056	-129.769	0.358	-0.049
-319.041	-25.558	0.213	0.125
-318.026	-108.183	0.210	0.045
-317.012	43.239	-0.157	0.143
-315.997	800.000	0.036	-0.141
-314.983	164.702	0.112	0.157
-313.968	165.721	-0.138	0.194
-312.953	-193.111	-0.269	0.002
-311.939	-200.000	0.015	-0.223
-310.924	120.186	0.161	0.198
-309.910	-200.000	-0.032	-0.239
-308.895	-65.418	-0.091	-0.036
-307.880	-200.000	0.004	-0.087
-306.866	-140.724	-0.208	-0.021
-305.851	27.475	-0.204	0.170
-304.837	6.450	0.488	0.360
-303.822	186.292	0.109	-0.161
-302.807	92.606	-0.242	0.270
-301.793	-200.000	-0.040	0.318
-300.778	10.107	0.252	0.190
-299.764	-184.055	-0.270	0.004
-298.749	-84.399	-0.189	-0.059
-297.735	-67.717	0.105	-0.041
-296.720	-200.000	0.017	-0.128
-295.705	53.092	0.112	-0.106
-294.691	178.877	-0.176	-0.255
-293.676	-200.000	-0.006	-0.098
-292.662	800.000	-0.023	-0.084
-291.647	640.547	-0.113	-0.285
-290.632	-200.000	0.005	0.169
-289.618	-200.000	-0.073	-0.366
-288.603	-200.000	0.010	0.445
-287.589	-93.529	-0.167	-0.046
-286.574	-44.173	-0.214	-0.107
-285.559	96.631	-0.064	0.073
-284.545	151.060	0.137	0.185
-283.530	800.000	-0.047	0.184
-282.516	53.450	-0.302	0.287
-281.501	-125.782	0.170	-0.025
-280.486	-61.244	0.227	0.095
-279.472	800.000	0.016	0.053
-278.457	-152.912	-0.298	0.021
-277.443	56.743	-0.283	-0.273
-276.428	-200.000	-0.039	-0.387
-275.413	800.000	0.058	0.164
-274.399	256.694	0.305	-0.520
-273.384	800.000	-0.034	-0.120
-272.370	-187.401	-0.423	-0.006
-271.355	-113.656	0.484	-0.094
-270.340	-23.321	-0.293	-0.175
-269.326	800.000	-0.089	-0.262
-268.311	16.223	0.356	0.278
-267.297	-26.627	-0.064	-0.037
-266.282	237.479	-0.067	0.111
-265.267	27.505	-0.147	0.123
-264.253	440.270	-0.143	-0.310
-263.238	-200.000	-0.013	0.065
-262.224	-200.000	0.003	-0.019
-261.209	-5.236	0.219	-0.149
-260.195	-13.665	-0.185	-0.119
-259.180	718.085	-0.089	-0.235
-258.165	-11.066	0.195	-0.128
-257.151	-156.048	0.176	0.011
-256.136	-200.000	0.322	-0.001
-255.122	-200.000	0.001	0.044
-254.107	-87.793	-0.244	-0.073
-253.092	-200.000	-0.005	0.171
-252.078	193.314	0.192	-0.287
-251.063	-75.784	0.282	-0.099
-250.049	-163.368	-0.320	-0.015
-249.034	-187.260	-0.218	-0.003
-248.019	-200.000	0.019	0.214
-247.005	257.315	0.103	-0.176
-245.990	20.822	-0.248	-0.199
-244.976	800.000	-0.094	-0.391
-243.961	333.687	0.089	0.170
-242.946	24.127	0.274	-0.224
-241.932	-30.658	0.094	0.053
-240.917	-50.667	0.338	-0.158
-239.903	-200.000	0.023	0.262
-238.888	82.649	0.170	0.183
-237.873	-43.967	-0.279	0.139
-236.859	127.359	-0.036	0.046
-235.844	8.981	-0.358	0.268
-234.830	-66.996	0.150	0.059
-233.815	-200.000	0.005	0.035
-232.800	-35.612	-0.268	0.144
-231.786	23.946	-0.338	0.276
-230.771	217.727	-0.263	0.414
-229.757	-7.482	-0.048	-0.032
-228.742	421.548	0.048	0.103
-227.727	88.897	0.128	0.141
-226.713	76.270	0.118	-0.124
-225.698	-61.804	-0.147	0.061
-224.684	-80.994	-0.409	0.134
-223.669	-19.725	-0.234	0.143
-222.655	-2.583	0.271	-0.188
-221.640	-42.248	-0.193	0.098
-220.625	288.429	-0.209	0.375
-219.611	-182.507	0.122	-0.002
-218.596	-117.305	0.232	0.042
-217.582	-119.226	0.475	-0.082
-216.567	-69.255	0.202	-0.077
-215.552	-200.000	0.029	0.185
-214.538	142.947	0.204	-0.268
-213.523	-128.924	0.249	0.035
-212.509	41.290	-0.174	0.155
-211.494	-94.418	0.058	-0.016
-210.479	413.095	0.019	0.039
-209.465	516.213	0.183	0.423
-208.450	49.116	0.128	0.119
-207.436	-16.869	-0.164	0.103
-206.421	211.606	0.031	0.048
-205.406	-200.000	-0.018	-0.264
-204.392	-85.547	-0.140	-0.043
-203.377	-126.511	-0.274	-0.040
-202.363	71.744	-0.264	0.272
-201.348	406.160	-0.036	-0.075
-200.333	-200.000	-0.014	0.480
-199.319	20.572	-0.138	0.110
-198.304	-47.669	-0.332	0.159
-197.290	191.779	0.144	-0.215
-196.275	-11.600	-0.272	0.177
-195.260	-129.502	0.172	-0.024
-194.246	89.050	-0.040	0.044
-193.231	-200.000	-0.002	-0.107
-192.217	34.973	0.185	-0.160
-191.202	194.907	-0.209	0.313
-190.187	-112.792	0.081	0.016
-189.173	-138.018	0.140	0.015
-188.158	-162.341	-0.194	0.010
-187.144	-120.757	-0.383	-0.064
-186.129	127.430	-0.186	-0.234
-185.114	44.506	0.144	-0.131
-184.100	-13.222	-0.244	-0.156
-183.085	-30.278	0.293	-0.164
-182.071	73.579	-0.187	-0.194
-181.056	-200.000	-0.029	0.127
-180.042	-200.000	0.009	-0.120
-179.027	-145.719	-0.300	0.026
-178.012	-200.000	0.065	0.458
-176.998	-200.000	0.230	0.001
-175.983	-104.746	0.111	-0.025
-174.969	-200.000	0.019	0.181
-173.954	-48.897	0.075	-0.036
-172.939	-61.240	-0.218	0.091
-171.925	-142.716	0.580	-0.056
-170.910	34.269	0.228	-0.197
-169.896	-8.878	0.365	0.242
-168.881	-200.000	-0.024	0.247
-167.866	339.476	0.195	-0.374
-166.852	121.025	-0.087	0.107
-165.837	154.146	-0.148	-0.201
-164.823	15.342	0.250	0.193
-163.808	110.577	-0.064	0.076
-162.793	553.209	0.083	0.198
-161.779	222.094	0.097	0.154
-160.764	-41.112	-0.195	0.099
-159.750	733.860	-0.056	-0.147
-158.735	-200.000	0.036	-0.250
-157.720	800.000	0.033	0.091
-156.706	800.000	0.065	0.217
-155.691	-122.711	0.282	0.045
-154.677	-66.159	0.276	0.108
-153.662	73.388	0.069	-0.071
-152.647	-34.307	-0.174	0.094
-151.633	-94.587	0.108	-0.029
-150.618	-20.573	-0.256	-0.155
-149.604	74.637	0.089	0.092
-148.589	154.586	-0.113	0.153
-147.574	128.246	0.148	0.186
-146.560	121.212	-0.031	-0.038
-145.545	-200.000	-0.010	0.089
-144.531	334.370	0.065	-0.125
-143.516	-139.951	-0.202	0.021
-142.502	-127.164	0.217	-0.031
-141.487	55.917	-0.060	-0.057
-140.472	-200.000	0.006	0.038
-139.458	-20.325	0.193	-0.117
-138.443	88.199	-0.189	-0.207
-137.429	-92.144	0.165	0.046
-136.414	-31.531	0.128	-0.071
-135.399	183.647	0.189	0.275
-134.385	274.284	0.092	-0.160
-133.370	-200.000	0.007	-0.428
-132.356	-28.123	-0.108	0.062
-131.341	-69.176	-0.215	-0.081
-130.326	-121.477	0.318	-0.052
-129.312	-200.000	0.004	-0.275
-128.297	-200.000	0.012	0.087
-127.283	-80.718	-0.121	-0.040
-126.268	329.843	0.024	-0.046
-125.253	63.915	0.103	0.102
-124.239	800.000	0.040	-0.167
-123.224	131.069	-0.068	-0.086
-122.210	270.586	0.104	0.180
-121.195	92.261	-0.029	0.033
