DTS Sentinel unit serial number:	SN413079Multiplexer serial number:	ORYXHardware model number:	OX4-SRSoftware version number:	ORYX F/W v4.00 Oryx Data Collector v3.7.2.0data status	okinstallation	princeton_trtdifferential loss correction	single-endedforward channel	channel 2reverse channel	N/Adate	2019/09/14time	09:27:35forward acquisition time	60.00reverse acquisition time	0.00gamma	496.2192k internal	0.2324k external	0.2324temperature offset calibration	1.0130default loss term (dB/km)	0.3790temperature slope calibration	1.0000multiplexer offset coefficient	1.0000multiplexer slope coefficient	1.0000fibre end	0.00T internal ref (°C)	31.33T ext. ref 1 (°C)	3.84T ext. ref 2 (°C)	29.06length (m)	temperature (°C)	Stokes	anti-Stokes-747.200	411.547	0.161	0.345
-746.185	-59.994	0.080	0.034
-745.171	-95.636	-0.175	-0.047
-744.156	-200.000	0.004	0.565
-743.142	-165.947	0.257	-0.011
-742.127	-47.563	-0.174	-0.086
-741.112	-85.048	-0.121	-0.038
-740.098	136.725	-0.061	0.080
-739.083	-34.389	-0.173	0.096
-738.069	11.660	-0.125	-0.097
-737.054	1.175	0.140	0.102
-736.039	-42.072	-0.294	-0.152
-735.025	112.229	0.114	0.139
-734.010	27.757	-0.231	-0.196
-732.996	-200.000	0.029	-0.145
-731.981	-95.838	0.018	0.005
-730.966	800.000	-0.104	-0.325
-729.952	475.209	-0.054	-0.124
-728.937	-107.471	0.162	0.036
-727.923	-132.358	0.135	-0.018
-726.908	207.939	-0.157	0.247
-725.894	317.141	-0.086	-0.165
-724.879	529.161	0.102	-0.244
-723.864	138.959	0.268	-0.355
-722.850	-16.138	0.185	0.119
-721.835	-200.000	-0.001	-0.170
-720.821	68.839	-0.098	-0.102
-719.806	-168.198	-0.485	-0.019
-718.791	-137.343	-0.166	0.019
-717.777	606.873	0.092	-0.232
-716.762	-117.052	-0.156	-0.029
-715.748	244.396	0.109	0.185
-714.733	104.761	-0.194	0.231
-713.718	-2.319	-0.125	-0.088
-712.704	406.915	-0.117	0.248
-711.689	-108.867	0.272	-0.059
-710.675	-10.936	-0.221	-0.147
-709.660	-103.976	-0.166	-0.039
-708.645	-151.388	-0.161	0.012
-707.631	-113.926	-0.174	0.034
-706.616	-200.000	0.011	0.111
-705.602	-72.019	-0.273	0.102
-704.587	225.459	0.169	-0.277
-703.572	457.008	0.183	-0.409
-702.558	-30.437	0.065	-0.037
-701.543	800.000	-0.075	-0.244
-700.529	-2.782	0.295	0.208
-699.514	122.963	-0.117	0.148
-698.499	-112.518	-0.234	-0.047
-697.485	177.312	0.041	-0.061
-696.470	-135.243	-0.207	-0.025
-695.456	113.499	0.082	-0.100
-694.441	219.043	-0.044	0.071
-693.426	800.000	-0.097	-0.415
-692.412	-200.000	0.079	-0.376
-691.397	-79.213	-0.093	-0.032
-690.383	-45.767	0.047	-0.024
-689.368	-175.012	-0.186	0.005
-688.354	18.315	-0.056	-0.045
-687.339	-70.027	0.109	-0.042
-686.324	573.532	-0.100	0.245
-685.310	175.331	0.006	0.008
-684.295	-200.000	-0.018	-0.314
-683.281	-80.116	-0.162	-0.055
-682.266	184.145	0.187	-0.279
-681.251	-200.000	0.049	-0.284
-680.237	-55.509	-0.290	-0.131
-679.222	15.535	-0.066	-0.052
-678.208	-29.772	-0.077	-0.044
-677.193	-46.306	-0.250	0.124
-676.178	-200.000	-0.000	0.094
-675.164	-152.261	0.419	-0.031
-674.149	800.000	-0.089	-0.317
-673.135	179.677	0.183	0.270
-672.120	-200.000	0.037	-0.166
-671.105	285.901	0.098	-0.179
-670.091	-66.838	-0.166	0.066
-669.076	-200.000	0.009	-0.243
-668.062	-12.253	-0.036	-0.024
-667.047	800.000	0.135	0.483
-666.032	76.153	-0.074	-0.079
-665.018	-65.340	-0.099	0.040
-664.003	15.139	-0.133	0.105
-662.989	132.782	0.122	0.158
-661.974	154.165	-0.130	-0.179
-660.959	-92.975	-0.233	0.065
-659.945	51.581	0.239	-0.228
-658.930	53.761	0.425	-0.411
-657.916	147.669	-0.072	-0.098
-656.901	69.502	0.017	-0.018
-655.886	422.211	-0.158	-0.340
-654.872	800.000	-0.093	0.346
-653.857	800.000	-0.050	-0.191
-652.843	-117.944	-0.366	-0.066
-651.828	46.342	0.286	-0.267
-650.814	-200.000	-0.002	-0.386
-649.799	764.496	0.078	-0.214
-648.784	-71.500	0.019	-0.007
-647.770	-15.946	-0.065	-0.042
-646.755	43.819	-0.057	0.052
-645.741	-146.946	0.206	-0.018
-644.726	-43.294	0.118	-0.060
-643.711	-82.736	0.195	-0.063
-642.697	-185.622	0.134	-0.002
-641.682	191.020	-0.241	-0.365
-640.668	198.493	0.193	0.297
-639.653	-67.756	-0.136	-0.053
-638.638	-200.000	0.054	0.498
-637.624	217.497	0.149	-0.238
-636.609	764.342	0.043	0.118
-635.595	-77.299	-0.186	-0.065
-634.580	1.940	-0.129	-0.094
-633.565	7.505	0.031	-0.023
-632.551	-97.242	-0.099	0.026
-631.536	-42.815	0.370	-0.189
-630.522	-62.255	-0.344	0.144
-629.507	291.410	-0.107	-0.195
-628.492	154.979	0.072	-0.099
-627.478	800.000	-0.126	-0.522
-626.463	-74.818	-0.095	-0.034
-625.449	323.533	-0.094	-0.179
-624.434	-51.071	0.253	0.119
-623.419	-200.000	0.048	0.244
-622.405	-123.801	0.378	-0.060
-621.390	169.986	0.197	-0.282
-620.376	13.154	0.104	-0.081
-619.361	-28.161	-0.167	-0.097
-618.346	-29.828	0.083	-0.047
-617.332	-81.036	-0.206	0.068
-616.317	19.679	0.245	-0.198
-615.303	27.215	0.081	-0.068
-614.288	-118.937	-0.031	0.006
-613.273	-52.751	0.073	-0.034
-612.259	-7.827	0.133	0.090
-611.244	-71.982	-0.126	-0.047
-610.230	-127.691	-0.268	0.039
-609.215	1.240	-0.209	0.151
-608.201	800.000	0.084	-0.348
-607.186	800.000	-0.028	0.110
-606.171	-191.735	0.340	-0.003
-605.157	-105.864	-0.153	0.035
-604.142	-87.097	0.353	0.108
-603.128	-117.807	-0.265	0.048
-602.113	108.250	0.229	0.275
-601.098	475.030	0.079	0.180
-600.084	-200.000	-0.289	0.001
-599.069	-157.063	-0.300	-0.018
-598.055	-200.000	-0.010	-0.068
-597.040	106.469	-0.156	0.186
-596.025	34.600	0.214	0.187
-595.011	-94.767	-0.119	-0.032
-593.996	-200.000	-0.006	0.054
-592.982	313.562	0.154	-0.291
-591.967	0.192	0.031	0.022
-590.952	22.967	-0.115	-0.095
-589.938	40.358	0.355	0.321
-588.923	800.000	-0.066	-0.213
-587.909	-77.455	-0.394	-0.137
-586.894	167.343	-0.087	-0.124
-585.879	-97.498	-0.199	-0.052
-584.865	34.385	0.260	-0.228
-583.850	-200.000	0.035	-0.184
-582.836	-194.094	0.264	-0.002
-581.821	235.617	-0.042	-0.070
-580.806	-200.000	0.039	0.255
-579.792	88.002	0.177	-0.197
-578.777	-128.842	-0.209	0.030
-577.763	800.000	0.071	-0.252
-576.748	800.000	0.017	-0.067
-575.733	800.000	0.047	0.172
-574.719	-200.000	-0.002	-0.378
-573.704	800.000	0.012	-0.044
-572.690	130.733	0.102	-0.131
-571.675	-85.420	0.046	-0.014
-570.661	-79.430	0.102	0.035
-569.646	-200.000	0.052	0.389
-568.631	-55.599	-0.136	0.061
-567.617	-200.000	0.022	-0.129
-566.602	-37.372	-0.266	-0.143
-565.588	250.550	-0.264	-0.450
-564.573	328.062	0.182	-0.350
-563.558	-87.928	0.299	-0.090
-562.544	69.800	-0.107	0.111
-561.529	-115.938	-0.114	0.021
-560.515	800.000	0.043	-0.142
-559.500	-78.538	0.150	0.051
-558.485	-24.437	-0.103	-0.062
-557.471	54.618	-0.102	0.098
-556.456	-84.652	0.111	-0.035
-555.442	-29.933	-0.120	-0.069
-554.427	-25.909	0.333	-0.197
-553.412	-38.980	-0.070	0.037
-552.398	-134.667	-0.352	-0.043
-551.383	-78.162	0.325	-0.112
-550.369	8.723	-0.049	-0.037
-549.354	-155.064	-0.315	-0.021
-548.339	-123.513	0.096	-0.015
-547.325	-118.823	0.467	-0.082
-546.310	-149.530	0.242	0.019
-545.296	-138.783	0.062	-0.007
-544.281	-107.408	-0.220	0.048
-543.266	51.099	0.103	-0.098
-542.252	88.485	0.040	0.045
-541.237	386.954	0.195	0.404
-540.223	34.555	-0.186	0.163
-539.208	-134.309	-0.158	-0.019
-538.193	-200.000	0.020	0.191
-537.179	312.056	-0.254	0.477
-536.164	-15.262	-0.203	-0.130
-535.150	-14.512	-0.078	-0.050
-534.135	-182.965	0.118	0.002
-533.121	2.912	-0.474	0.344
-532.106	-41.458	0.086	-0.044
-531.091	78.949	0.233	0.250
-530.077	-82.372	0.098	-0.032
-529.062	-75.453	-0.086	0.031
-528.048	-29.245	-0.117	0.067
-527.033	32.370	-0.054	-0.047
-526.018	9.097	-0.234	0.177
-525.004	126.773	-0.024	-0.030
-523.989	-111.259	-0.138	0.028
-522.975	-34.836	0.067	-0.036
-521.960	800.000	-0.101	0.323
-520.945	10.250	-0.263	0.200
-519.931	126.457	-0.115	0.145
-518.916	-22.436	-0.053	-0.032
-517.902	101.991	0.089	0.104
-516.887	86.930	-0.058	0.064
-515.872	508.419	-0.094	-0.219
-514.858	800.000	-0.073	0.251
-513.843	33.569	-0.047	-0.041
-512.829	185.215	0.049	0.073
-511.814	8.296	0.157	0.118
-510.799	-80.338	-0.254	-0.085
-509.785	-193.363	-0.141	0.001
-508.770	357.229	-0.061	-0.121
-507.756	187.912	0.219	-0.327
-506.741	-154.896	-0.274	-0.018
-505.726	655.838	-0.092	0.235
-504.712	6.470	-0.081	-0.060
-503.697	-22.952	0.129	-0.078
-502.683	-135.562	-0.146	-0.017
-501.668	-106.063	-0.318	-0.072
-500.653	-199.428	-0.106	-0.001
-499.639	-124.427	-0.265	0.041
-498.624	-72.690	-0.153	0.057
-497.610	-65.067	0.098	0.039
-496.595	-200.000	-0.014	-0.200
-495.581	-168.031	-0.571	0.022
-494.566	-79.662	0.102	-0.034
-493.551	367.629	0.097	0.197
-492.537	4.439	-0.130	0.095
-491.522	-200.000	0.048	0.209
-490.508	-101.329	0.142	0.035
-489.493	-200.000	0.000	0.085
-488.478	141.029	-0.145	-0.192
-487.464	800.000	0.044	0.151
-486.449	-115.109	0.440	-0.083
-485.435	-160.669	0.143	0.008
-484.420	-185.811	-0.216	-0.003
-483.405	74.626	0.111	0.117
-482.391	-80.670	0.200	0.067
-481.376	-57.768	0.155	0.068
-480.362	-9.597	-0.200	0.133
-479.347	-81.565	-0.283	0.093
-478.332	187.494	0.137	-0.204
-477.318	-145.284	-0.211	-0.019
-476.303	305.206	0.091	-0.169
-475.289	78.768	-0.353	0.377
-474.274	-99.357	-0.030	-0.008
-473.259	-41.963	0.290	-0.149
-472.245	-100.574	0.157	0.039
-471.230	463.978	-0.093	0.207
-470.216	89.972	0.039	-0.043
-469.201	556.458	0.060	0.144
-468.186	-200.000	-0.034	-0.225
-467.172	303.927	0.012	0.023
-466.157	-200.000	0.024	0.114
-465.143	-84.183	-0.131	0.042
-464.128	479.757	-0.142	0.320
-463.113	800.000	0.117	-0.324
-462.099	-74.968	0.214	-0.077
-461.084	-196.476	0.104	-0.001
-460.070	300.773	0.170	-0.313
-459.055	-87.751	-0.405	0.122
-458.040	502.143	-0.017	0.039
-457.026	171.475	0.124	0.177
-456.011	-90.230	-0.256	-0.074
-454.997	-88.695	-0.183	-0.054
-453.982	-62.473	-0.334	0.139
-452.968	-200.000	-0.018	0.165
-451.953	-25.411	-0.274	0.162
-450.938	800.000	0.052	-0.156
-449.924	31.557	0.137	0.118
-448.909	-67.624	0.185	-0.072
-447.895	73.567	-0.146	-0.152
-446.880	800.000	-0.054	-0.211
-445.865	-43.294	0.155	0.078
-444.851	-51.735	-0.206	-0.096
-443.836	94.930	0.212	0.241
-442.822	-17.045	0.168	0.106
-441.807	-200.000	0.060	0.000
-440.792	-51.078	-0.256	0.120
-439.778	-53.349	-0.161	-0.074
-438.763	135.116	0.113	0.146
-437.749	-200.000	0.014	0.248
-436.734	-200.000	0.033	-0.147
-435.719	800.000	0.058	-0.201
-434.705	-46.659	0.238	-0.116
-433.690	-200.000	-0.015	-0.122
-432.676	800.000	0.050	-0.157
-431.661	70.456	-0.286	0.295
-430.646	-200.000	0.013	-0.209
-429.632	148.678	0.140	-0.189
-428.617	-200.000	0.034	0.240
-427.603	-97.330	0.020	-0.005
-426.588	-17.879	0.344	-0.215
-425.573	7.347	-0.145	-0.108
-424.559	-200.000	-0.011	-0.220
-423.544	-24.735	-0.171	-0.102
-422.530	-87.607	0.131	0.039
-421.515	-200.000	-0.037	-0.187
-420.500	-79.580	-0.280	0.094
-419.486	374.491	0.214	0.435
-418.471	-39.523	0.491	-0.257
-417.457	-200.000	0.015	-0.097
-416.442	-34.272	-0.146	0.080
-415.428	171.505	0.058	0.083
-414.413	-200.000	-0.001	-0.060
-413.398	-162.070	0.375	-0.019
-412.384	-41.702	-0.295	0.151
-411.369	-127.362	-0.379	0.055
-410.355	-85.729	0.070	0.022
-409.340	-9.258	-0.303	-0.202
-408.325	-78.193	-0.317	0.109
-407.311	-200.000	0.020	-0.095
-406.296	-145.714	-0.263	-0.023
-405.282	150.505	0.106	-0.143
-404.267	112.132	0.121	0.146
-403.252	-143.052	0.064	-0.006
-402.238	800.000	-0.075	-0.317
-401.223	189.089	-0.134	-0.199
-400.209	800.000	-0.035	-0.138
-399.194	-86.820	-0.421	-0.128
-398.179	-96.000	0.355	-0.094
-397.165	791.330	0.158	-0.432
-396.150	-64.106	-0.206	-0.084
-395.136	66.400	0.189	-0.192
-394.121	800.000	0.047	-0.145
-393.106	79.435	0.040	-0.042
-392.092	-200.000	-0.007	0.034
-391.077	800.000	0.045	-0.167
-390.063	715.499	0.187	-0.494
-389.048	-90.269	0.285	-0.083
-388.033	125.559	0.180	0.226
-387.019	215.418	-0.056	0.088
-386.004	152.329	0.167	-0.226
-384.990	381.150	0.095	-0.195
-383.975	-34.316	-0.200	-0.109
-382.960	407.893	0.094	0.197
-381.946	-165.478	0.409	-0.018
-380.931	-85.568	0.269	-0.083
-379.917	275.501	-0.219	0.387
-378.902	289.357	0.167	-0.301
-377.888	221.050	0.098	-0.157
-376.873	-53.981	-0.155	0.070
-375.858	555.091	-0.160	0.382
-374.844	-48.405	0.083	-0.040
-373.829	-39.324	0.193	-0.101
-372.815	147.061	0.172	0.230
-371.800	-59.894	0.059	0.025
-370.785	186.001	0.126	-0.186
-369.771	-200.000	0.021	-0.108
-368.756	-126.227	-0.077	-0.012
-367.742	-122.747	-0.305	0.049
-366.727	-18.165	-0.220	-0.137
-365.712	200.468	0.122	0.186
-364.698	67.914	-0.102	0.103
-363.683	161.821	-0.175	0.244
-362.669	-119.384	0.207	0.036
-361.654	800.000	-0.090	0.347
-360.639	-200.000	0.053	-0.237
-359.625	-156.287	0.189	-0.012
-358.610	594.586	-0.071	0.174
-357.596	604.309	-0.143	-0.354
-356.581	137.392	0.283	-0.368
-355.566	-134.233	-0.193	0.024
-354.552	46.035	-0.141	-0.130
-353.537	158.435	-0.058	0.080
-352.523	-200.000	0.046	-0.205
-351.508	-200.000	-0.022	0.104
-350.493	403.617	-0.106	-0.221
-349.479	-200.000	-0.009	-0.316
-348.464	112.185	-0.332	0.399
-347.450	-122.357	0.139	-0.023
-346.435	-118.798	0.195	0.034
-345.420	-76.132	0.178	0.062
-344.406	-200.000	0.028	-0.391
-343.391	-74.782	-0.125	0.045
-342.377	352.142	-0.161	0.318
-341.362	-200.000	0.008	0.634
-340.348	800.000	-0.101	-0.384
-339.333	26.499	-0.139	-0.116
-338.318	-54.169	0.234	0.106
-337.304	-200.000	0.011	0.192
-336.289	-100.446	-0.201	-0.049
-335.275	-200.000	0.016	0.441
-334.260	426.583	0.051	0.110
-333.245	-51.226	0.180	0.084
-332.231	160.652	-0.104	0.144
-331.216	-21.179	-0.190	-0.115
-330.202	44.510	-0.101	-0.092
-329.187	11.693	-0.213	0.163
-328.172	-80.869	0.108	-0.036
-327.158	-110.069	-0.298	0.062
-326.143	800.000	0.084	0.350
-325.129	-200.000	0.022	0.217
-324.114	-50.991	0.057	-0.027
-323.099	-158.921	-0.396	-0.022
-322.085	60.294	-0.237	0.233
-321.070	19.075	0.087	-0.069
-320.056	-200.000	-0.016	0.134
-319.041	96.133	0.193	0.219
-318.026	800.000	0.120	0.353
-317.012	-200.000	0.071	0.397
-315.997	800.000	-0.005	-0.017
-314.983	-129.332	0.123	0.017
-313.968	29.545	-0.075	0.064
-312.953	800.000	-0.075	-0.288
-311.939	406.719	-0.038	0.079
-310.924	129.726	-0.196	0.248
-309.910	-50.144	0.123	-0.058
-308.895	117.021	0.184	0.225
-307.880	134.333	0.119	-0.153
-306.866	-114.531	0.165	0.031
-305.851	-200.000	0.060	-0.346
-304.837	800.000	0.038	0.108
-303.822	800.000	-0.024	-0.069
-302.807	-82.102	0.138	-0.045
-301.793	224.680	-0.133	-0.213
-300.778	-74.872	0.264	-0.094
-299.764	185.766	-0.127	0.187
-298.749	-200.000	0.047	-0.504
-297.735	-200.000	0.001	0.050
-296.720	230.539	0.054	-0.088
-295.705	-200.000	-0.010	0.246
-294.691	800.000	0.046	0.183
-293.676	-58.988	-0.124	-0.053
-292.662	206.254	-0.107	0.166
-291.647	-31.182	-0.346	-0.193
-290.632	-200.000	0.046	-0.373
-289.618	-200.000	0.006	-0.122
-288.603	-200.000	-0.022	-0.096
-287.589	11.429	0.220	-0.167
-286.574	58.978	0.129	0.126
-285.559	569.940	-0.093	0.224
-284.545	612.578	-0.102	-0.254
-283.530	-48.085	0.145	0.070
-282.516	800.000	-0.018	0.078
-281.501	-147.375	0.040	-0.003
-280.486	-106.153	0.259	-0.058
-279.472	46.657	-0.060	0.055
-278.457	70.330	-0.315	-0.323
-277.443	-200.000	-0.003	-0.048
-276.428	-16.554	0.342	-0.215
-275.413	-176.223	0.184	0.005
-274.399	-104.617	0.251	-0.057
-273.384	800.000	0.052	0.203
-272.370	-17.164	0.045	0.028
-271.355	41.249	-0.104	-0.093
-270.340	-200.000	-0.018	-0.094
-269.326	800.000	0.034	0.108
-268.311	668.537	0.042	-0.109
-267.297	-8.336	-0.050	0.034
-266.282	500.764	0.044	-0.101
-265.267	-76.098	0.209	0.073
-264.253	677.541	0.121	0.311
-263.238	62.863	0.244	0.242
-262.224	274.409	0.168	0.294
-261.209	-114.122	-0.212	0.041
-260.195	475.260	0.141	0.316
-259.180	193.438	0.098	0.146
-258.165	800.000	0.018	-0.064
-257.151	-18.928	-0.117	-0.072
-256.136	537.787	0.025	-0.059
-255.122	325.762	-0.091	0.173
-254.107	60.731	-0.230	-0.226
-253.092	48.572	-0.169	0.157
-252.078	800.000	0.063	0.213
-251.063	-132.881	0.260	0.033
-250.049	686.705	-0.082	0.213
-249.034	292.211	-0.136	-0.245
-248.019	800.000	0.048	-0.142
-247.005	379.142	-0.222	-0.450
-245.990	-110.194	0.205	0.042
-244.976	83.448	0.291	0.314
-243.961	-104.592	-0.179	0.041
-242.946	199.924	0.160	0.243
-241.932	209.961	0.094	0.146
-240.917	281.150	-0.037	-0.066
-239.903	135.121	-0.141	0.182
-238.888	62.217	-0.169	0.167
-237.873	130.941	-0.183	0.233
-236.859	800.000	0.114	0.359
-235.844	336.166	0.034	0.066
-234.830	800.000	-0.067	-0.257
-233.815	225.170	0.031	-0.049
-232.800	354.864	-0.101	-0.199
-231.786	-196.558	0.229	0.002
-230.771	40.056	0.167	-0.148
-229.757	800.000	0.070	0.303
-228.742	-200.000	0.011	0.148
-227.727	52.953	-0.079	-0.075
-226.713	-133.419	-0.182	0.023
-225.698	529.011	0.119	0.279
-224.684	-13.099	-0.121	0.078
-223.669	800.000	0.106	0.353
-222.655	-7.797	0.238	-0.159
-221.640	29.347	0.302	0.254
-220.625	-51.155	-0.199	0.092
-219.611	-49.026	-0.041	0.019
-218.596	-23.343	-0.064	0.038
-217.582	-75.078	0.145	0.051
-216.567	-60.494	0.172	-0.072
-215.552	80.918	0.126	-0.135
-214.538	-155.292	0.065	0.004
-213.523	19.851	0.084	-0.067
-212.509	-95.679	-0.175	-0.046
-211.494	71.907	0.230	-0.236
-210.479	-4.441	0.097	0.066
-209.465	-91.758	-0.187	-0.052
-208.450	-57.227	0.098	0.043
-207.436	800.000	0.031	0.097
-206.421	-24.123	0.209	-0.123
-205.406	-200.000	0.045	-0.211
-204.392	45.229	0.200	-0.183
-203.377	43.191	0.256	0.231
-202.363	-200.000	-0.029	0.184
-201.348	-111.406	0.342	0.069
-200.333	-200.000	-0.002	0.077
-199.319	-146.373	-0.151	-0.013
-198.304	31.713	-0.172	-0.146
-197.290	-31.130	-0.219	-0.122
-196.275	-200.000	0.027	0.145
-195.260	28.330	-0.132	0.110
-194.246	-4.625	0.145	-0.099
-193.231	-61.778	-0.137	0.057
-192.217	48.839	0.049	0.046
-191.202	2.174	-0.140	0.100
-190.187	-200.000	-0.021	0.135
-189.173	16.799	0.107	-0.083
-188.158	-15.395	-0.352	0.222
-187.144	-200.000	-0.004	-0.025
-186.129	331.550	0.076	0.145
-185.114	-200.000	0.005	0.040
-184.100	-101.226	0.265	0.064
-183.085	720.243	-0.081	-0.213
-182.071	-135.160	-0.105	-0.012
-181.056	800.000	-0.130	0.359
-180.042	43.579	-0.065	0.058
-179.027	-200.000	0.012	-0.077
-178.012	55.698	0.092	-0.088
-176.998	192.779	-0.068	0.101
-175.983	113.026	-0.141	-0.169
-174.969	338.339	-0.038	0.073
-173.954	-33.179	-0.227	-0.124
-172.939	-200.000	-0.014	0.170
-171.925	6.318	-0.255	-0.187
-170.910	800.000	0.049	-0.198
-169.896	-89.100	0.121	0.035
-168.881	111.671	0.102	-0.121
-167.866	89.136	0.133	-0.146
-166.852	-200.000	0.012	-0.255
-165.837	-200.000	-0.007	-0.204
-164.823	-112.438	0.293	0.058
-163.808	-106.652	-0.071	0.016
-162.793	-117.093	-0.366	-0.066
-161.779	-200.000	-0.003	0.020
-160.764	7.177	0.075	-0.055
-159.750	-200.000	0.045	0.200
-158.735	-74.448	0.171	0.061
-157.720	12.598	-0.432	-0.329
-156.706	-9.242	0.174	-0.115
-155.691	-200.000	0.001	0.195
-154.677	116.692	0.093	-0.113
-153.662	776.522	-0.173	-0.466
-152.647	180.889	0.112	-0.162
-151.633	-200.000	0.106	0.464
-150.618	-157.433	-0.008	0.000
-149.604	-130.878	-0.111	-0.015
-148.589	53.226	0.172	-0.163
-147.574	-132.908	-0.395	-0.050
-146.560	800.000	-0.029	0.084
-145.545	50.192	-0.274	0.256
-144.531	-7.283	-0.196	0.131
-143.516	284.389	-0.147	0.261
-142.502	800.000	-0.105	0.324
-141.487	-200.000	0.025	-0.148
-140.472	-200.000	0.013	0.156
-139.458	-181.613	-0.313	0.006
-138.443	-109.818	0.122	-0.025
-137.429	190.683	0.123	-0.183
-136.414	292.729	0.124	-0.223
-135.399	-200.000	-0.031	0.209
-134.385	-49.964	0.047	-0.022
-133.370	-200.000	-0.004	0.151
-132.356	78.613	0.092	0.097
-131.341	-200.000	-0.010	-0.191
-130.326	-69.065	-0.122	-0.046
-129.312	230.760	-0.118	0.191
-128.297	25.139	-0.214	0.175
-127.283	-176.443	0.251	0.006
-126.268	11.730	-0.216	-0.164
-125.253	-200.000	0.011	0.126
-124.239	-97.315	0.371	-0.095
-123.224	171.632	-0.088	-0.124
-122.210	23.949	-0.086	-0.070
-121.195	557.251	0.037	0.088
