DTS Sentinel unit serial number:	SN413079Multiplexer serial number:	ORYXHardware model number:	OX4-SRSoftware version number:	ORYX F/W v4.00 Oryx Data Collector v3.7.2.0data status	okinstallation	princeton_trtdifferential loss correction	single-endedforward channel	channel 2reverse channel	N/Adate	2019/09/14time	01:35:34forward acquisition time	60.00reverse acquisition time	0.00gamma	496.2192k internal	0.2337k external	0.2337temperature offset calibration	1.0124default loss term (dB/km)	0.3790temperature slope calibration	1.0000multiplexer offset coefficient	1.0000multiplexer slope coefficient	1.0000fibre end	0.00T internal ref (°C)	26.44T ext. ref 1 (°C)	3.19T ext. ref 2 (°C)	21.48length (m)	temperature (°C)	Stokes	anti-Stokes-747.200	-200.000	-0.009	-0.318
-746.185	114.422	0.076	0.093
-745.171	40.491	0.290	0.263
-744.156	-200.000	-0.034	0.265
-743.142	-64.079	0.058	0.024
-742.127	-200.000	-0.008	0.378
-741.112	699.463	-0.094	-0.248
-740.098	-85.904	0.154	-0.048
-739.083	12.502	0.257	-0.199
-738.069	-200.000	0.005	-0.132
-737.054	-137.254	0.161	-0.018
-736.039	546.351	-0.057	-0.137
-735.025	126.770	0.161	0.205
-734.010	490.797	-0.136	-0.312
-732.996	-200.000	-0.089	-0.429
-731.981	151.716	0.192	-0.262
-730.966	800.000	0.044	0.121
-729.952	-23.261	0.156	0.094
-728.937	88.782	0.333	-0.372
-727.923	-114.960	-0.007	0.001
-726.908	-200.000	0.030	0.277
-725.894	313.995	-0.066	-0.125
-724.879	-105.667	-0.032	-0.007
-723.864	-130.360	-0.282	0.038
-722.850	106.268	-0.310	-0.368
-721.835	-79.640	0.368	-0.124
-720.821	184.984	0.166	-0.247
-719.806	-200.000	0.002	0.205
-718.791	-121.551	0.295	-0.049
-717.777	197.537	-0.035	0.054
-716.762	800.000	-0.085	0.359
-715.748	-89.404	0.081	0.024
-714.733	-117.818	-0.046	0.008
-713.718	-118.777	0.158	0.028
-712.704	-152.697	0.141	-0.010
-711.689	-52.137	0.554	-0.257
-710.675	95.840	-0.140	0.161
-709.660	256.286	-0.049	-0.084
-708.645	-200.000	-0.030	-0.202
-707.631	800.000	0.015	0.048
-706.616	800.000	0.125	-0.423
-705.602	62.921	0.089	0.089
-704.587	-23.795	0.065	0.039
-703.572	-200.000	0.018	0.192
-702.558	-64.391	-0.090	-0.037
-701.543	-121.018	0.257	-0.043
-700.529	-118.179	-0.101	0.018
-699.514	798.828	0.121	0.336
-698.499	800.000	0.085	-0.288
-697.485	120.082	0.137	-0.170
-696.470	585.499	0.206	-0.507
-695.456	2.010	-0.344	-0.249
-694.441	-128.928	0.258	0.036
-693.426	-140.818	-0.110	0.011
-692.412	97.027	0.139	0.159
-691.397	-200.000	-0.009	0.048
-690.383	-111.615	0.128	0.026
-689.368	-107.689	-0.144	0.032
-688.354	-200.000	-0.007	-0.266
-687.339	800.000	0.069	-0.211
-686.324	667.630	0.024	-0.062
-685.310	-76.186	0.107	0.038
-684.295	-37.334	0.201	-0.107
-683.281	72.026	0.133	-0.138
-682.266	-16.361	0.422	-0.268
-681.251	96.653	-0.089	-0.102
-680.237	-91.274	-0.207	0.059
-679.222	800.000	0.046	-0.191
-678.208	483.495	0.091	-0.207
-677.193	65.508	-0.194	0.196
-676.178	-16.911	-0.080	-0.051
-675.164	-200.000	-0.014	-0.279
-674.149	342.497	-0.232	-0.455
-673.135	-61.470	-0.231	-0.097
-672.120	-102.844	-0.149	-0.035
-671.105	180.176	-0.161	0.237
-670.091	46.665	-0.331	-0.308
-669.076	-128.867	0.200	-0.028
-668.062	111.578	0.144	0.174
-667.047	-168.443	0.173	0.007
-666.032	-67.037	-0.189	0.075
-665.018	-99.878	0.498	-0.125
-664.003	-200.000	-0.066	0.447
-662.989	6.781	-0.269	0.201
-661.974	-131.366	0.289	0.038
-660.959	6.403	-0.011	-0.009
-659.945	11.657	-0.101	-0.077
-658.930	-200.000	-0.030	-0.244
-657.916	511.582	-0.042	0.098
-656.901	-110.667	-0.070	0.014
-655.886	84.433	0.262	-0.286
-654.872	124.680	-0.298	-0.376
-653.857	190.895	0.140	-0.211
-652.843	-88.026	0.160	-0.048
-651.828	166.568	0.134	0.190
-650.814	270.231	0.101	0.177
-649.799	380.037	0.138	0.284
-648.784	-200.000	0.008	-0.121
-647.770	46.260	-0.166	-0.153
-646.755	-88.415	-0.390	-0.116
-645.741	-41.213	-0.227	0.117
-644.726	97.550	-0.350	0.403
-643.711	-56.308	0.289	-0.129
-642.697	-68.628	-0.313	0.121
-641.682	-200.000	0.001	-0.394
-640.668	-200.000	0.009	-0.319
-639.653	-48.801	-0.352	0.169
-638.638	46.950	-0.037	0.034
-637.624	-118.816	0.438	-0.077
-636.609	-200.000	-0.015	0.110
-635.595	58.802	-0.168	0.165
-634.580	-78.653	0.263	-0.090
-633.565	-153.385	-0.300	-0.021
-632.551	197.364	-0.100	-0.153
-631.536	800.000	0.058	0.189
-630.522	97.106	-0.105	0.120
-629.507	-130.679	-0.089	-0.012
-628.492	-189.926	-0.153	0.002
-627.478	795.251	-0.119	-0.328
-626.463	-2.832	0.159	-0.111
-625.449	147.403	0.176	0.237
-624.434	-200.000	0.018	0.326
-623.419	37.567	0.150	-0.133
-622.405	-200.000	0.023	0.152
-621.390	-174.613	0.158	0.005
-620.376	175.631	0.138	0.201
-619.361	800.000	-0.122	-0.498
-618.346	-200.000	0.037	-0.218
-617.332	256.902	0.138	-0.237
-616.317	93.258	-0.300	-0.339
-615.303	800.000	0.041	0.127
-614.288	475.383	-0.072	0.162
-613.273	-200.000	-0.029	0.324
-612.259	23.031	0.214	-0.176
-611.244	100.064	-0.053	0.062
-610.230	-200.000	0.012	-0.289
-609.215	467.830	0.040	0.089
-608.201	404.822	-0.013	0.028
-607.186	-73.825	-0.282	-0.102
-606.171	441.525	-0.099	-0.216
-605.157	800.000	-0.012	0.036
-604.142	-39.763	0.237	0.123
-603.128	37.445	0.196	-0.173
-602.113	1.194	0.015	-0.011
-601.098	-200.000	0.020	-0.243
-600.084	-83.839	0.171	0.054
-599.069	-200.000	0.002	-0.158
-598.055	-4.128	-0.279	0.193
-597.040	-12.383	0.105	-0.069
-596.025	-200.000	0.003	0.430
-595.011	-85.829	-0.196	-0.061
-593.996	-200.000	0.000	-0.238
-592.982	477.234	-0.130	0.292
-591.967	-142.906	0.255	0.025
-590.952	-124.279	0.265	-0.041
-589.938	-72.660	-0.278	0.102
-588.923	-200.000	-0.028	-0.146
-587.909	35.156	-0.101	-0.088
-586.894	5.639	-0.200	-0.147
-585.879	290.818	0.095	-0.171
-584.865	-200.000	-0.051	0.231
-583.850	-89.549	0.353	-0.103
-582.836	-30.518	-0.135	-0.076
-581.821	-200.000	0.026	0.153
-580.806	-75.265	0.213	-0.076
-579.792	-124.503	0.265	0.041
-578.777	101.418	-0.179	-0.208
-577.763	118.662	-0.198	0.244
-576.748	-200.000	-0.029	-0.147
-575.733	559.819	0.140	0.337
-574.719	-155.909	-0.225	0.014
-573.704	358.357	0.036	-0.072
-572.690	-200.000	-0.041	-0.204
-571.675	-200.000	0.018	-0.130
-570.661	-80.896	-0.173	0.057
-569.646	30.756	0.149	0.127
-568.631	74.701	-0.040	-0.042
-567.617	-76.698	0.409	-0.143
-566.602	106.563	0.280	-0.331
-565.588	-131.456	0.023	-0.003
-564.573	62.006	0.180	-0.178
-563.558	800.000	-0.082	0.287
-562.544	-200.000	0.086	0.489
-561.529	-45.167	0.087	0.043
-560.515	800.000	0.052	0.157
-559.500	-200.000	0.041	-0.356
-558.485	-172.270	-0.458	-0.015
-557.471	-55.195	0.111	-0.050
-556.456	708.222	-0.045	-0.118
-555.442	249.027	-0.114	0.192
-554.427	-88.011	-0.172	0.051
-553.412	-154.962	-0.282	0.018
-552.398	-200.000	0.038	0.232
-551.383	-175.347	0.121	-0.003
-550.369	-123.001	0.232	-0.037
-549.354	186.630	-0.155	-0.229
-548.339	-132.810	0.151	0.019
-547.325	-72.067	-0.143	-0.053
-546.310	-200.000	0.083	-0.390
-545.296	-200.000	-0.018	0.102
-544.281	-63.441	0.145	-0.059
-543.266	473.416	0.116	-0.261
-542.252	-71.694	0.519	-0.193
-541.237	-107.685	-0.245	0.053
-540.223	178.970	0.122	0.178
-539.208	-25.364	0.314	-0.185
-538.193	800.000	0.047	-0.176
-537.179	-127.774	0.308	0.044
-536.164	92.742	-0.098	-0.110
-535.150	88.250	-0.098	-0.108
-534.135	439.331	0.026	0.057
-533.121	-11.712	0.165	-0.108
-532.106	-149.587	-0.404	0.032
-531.091	-52.796	0.140	0.064
-530.077	-41.087	0.086	0.044
-529.062	-27.758	-0.318	-0.184
-528.048	-151.724	0.364	-0.027
-527.033	-200.000	0.019	0.188
-526.018	28.621	-0.270	0.227
-525.004	-54.530	0.122	-0.055
-523.989	800.000	-0.006	0.020
-522.975	-200.000	-0.007	0.140
-521.960	-3.640	0.345	-0.239
-520.945	3.986	0.103	0.075
-519.931	3.299	-0.304	0.220
-518.916	-101.347	-0.561	-0.136
-517.902	-82.411	0.170	-0.055
-516.887	-200.000	-0.004	-0.237
-515.872	52.594	-0.164	0.156
-514.858	88.076	0.156	-0.172
-513.843	-200.000	-0.001	0.014
-512.829	0.438	-0.318	0.226
-511.814	-79.930	0.398	0.133
-510.799	800.000	-0.033	0.111
-509.785	-178.748	0.357	-0.008
-508.770	-200.000	0.037	0.223
-507.756	8.744	-0.206	-0.154
-506.741	78.064	0.237	0.251
-505.726	-200.000	0.038	-0.242
-504.712	-49.046	0.174	0.083
-503.697	305.467	0.068	0.125
-502.683	-123.351	-0.323	0.051
-501.668	-121.343	0.074	-0.012
-500.653	-118.192	0.277	-0.049
-499.639	208.588	0.110	-0.172
-498.624	-108.617	0.064	-0.014
-497.610	-200.000	0.068	0.307
-496.595	-51.411	0.372	-0.173
-495.581	-173.924	-0.280	0.008
-494.566	83.098	0.132	0.143
-493.551	105.973	0.238	-0.280
-492.537	800.000	0.094	-0.266
-491.522	34.745	0.219	-0.191
-490.508	-68.782	-0.333	-0.128
-489.493	-200.000	0.030	-0.250
-488.478	-26.937	-0.225	-0.131
-487.464	800.000	-0.056	-0.169
-486.449	306.850	0.079	0.147
-485.435	-98.904	-0.201	0.051
-484.420	800.000	-0.022	-0.085
-483.405	-98.723	-0.286	0.072
-482.391	-200.000	-0.007	0.321
-481.376	-155.628	0.157	0.010
-480.362	-15.358	-0.016	0.010
-479.347	-123.305	0.104	-0.017
-478.332	-23.540	-0.120	0.071
-477.318	-200.000	-0.001	0.030
-476.303	4.495	-0.293	-0.214
-475.289	26.546	-0.132	0.109
-474.274	800.000	-0.045	-0.159
-473.259	-91.582	-0.081	0.023
-472.245	-86.288	-0.163	-0.050
-471.230	735.624	0.006	-0.015
-470.216	800.000	0.159	-0.486
-469.201	8.856	-0.132	0.099
-468.186	-49.692	-0.367	-0.173
-467.172	-73.274	0.139	-0.051
-466.157	800.000	-0.070	0.209
-465.143	-200.000	0.490	-0.002
-464.128	-27.563	0.301	0.174
-463.113	236.544	-0.079	0.130
-462.099	195.234	0.042	-0.063
-461.084	184.899	-0.167	0.246
-460.070	-8.901	-0.266	0.177
-459.055	-57.245	-0.176	0.077
-458.040	49.146	0.078	-0.073
-457.026	-95.993	0.037	0.010
-456.011	800.000	0.097	-0.390
-454.997	-97.487	-0.187	-0.048
-453.982	-54.386	0.323	0.145
-452.968	44.456	-0.359	-0.327
-451.953	303.006	0.072	0.132
-450.938	95.551	0.057	0.065
-449.924	-200.000	-0.025	0.221
-448.909	-200.000	-0.031	-0.187
-447.895	-100.822	-0.156	0.038
-446.880	-111.577	0.027	0.005
-445.865	85.898	-0.171	-0.186
-444.851	231.943	0.180	0.293
-443.836	-31.938	0.144	0.080
-442.822	-123.292	-0.436	-0.069
-441.807	-41.260	0.179	0.091
-440.792	-152.544	0.299	0.021
-439.778	85.675	0.144	-0.157
-438.763	-55.334	0.227	-0.101
-437.749	-165.122	0.075	-0.003
-436.734	-142.052	0.397	0.039
-435.719	-200.000	-0.050	0.309
-434.705	97.009	0.201	0.229
-433.690	800.000	0.032	-0.092
-432.676	-200.000	-0.046	-0.213
-431.661	2.588	0.239	0.172
-430.646	800.000	-0.067	0.201
-429.632	-200.000	-0.025	0.135
-428.617	-68.238	0.364	0.140
-427.603	-91.940	-0.265	-0.075
-426.588	79.853	-0.139	-0.148
-425.573	-200.000	0.039	0.189
-424.559	329.993	0.081	-0.154
-423.544	456.886	-0.082	-0.180
-422.530	127.781	0.100	0.127
-421.515	19.078	0.214	0.170
-420.500	800.000	-0.057	0.217
-419.486	-200.000	-0.011	-0.074
-418.471	-200.000	0.019	-0.105
-417.457	800.000	-0.052	-0.213
-416.442	-21.931	-0.095	-0.057
-415.428	294.338	0.079	0.143
-414.413	328.914	-0.129	-0.246
-413.398	8.123	-0.043	0.032
-412.384	-101.600	0.254	0.061
-411.369	800.000	0.014	0.051
-410.355	-75.967	0.241	0.085
-409.340	-127.668	0.136	-0.019
-408.325	-92.654	-0.245	-0.068
-407.311	800.000	-0.022	0.063
-406.296	175.126	0.211	-0.303
-405.282	38.526	0.238	0.210
-404.267	105.607	-0.397	0.464
-403.252	505.376	-0.084	0.193
-402.238	71.294	-0.469	0.482
-401.223	-185.147	0.265	0.004
-400.209	-112.497	-0.325	-0.064
-399.194	-100.787	0.092	0.022
-398.179	400.437	0.079	-0.163
-397.165	-167.753	-0.179	-0.007
-396.150	43.106	0.156	-0.141
-395.136	-137.410	-0.231	-0.026
-394.121	-130.250	-0.348	0.047
-393.106	800.000	0.044	-0.130
-392.092	-57.426	0.113	-0.049
-391.077	-116.138	0.217	0.040
-390.063	-132.663	-0.065	0.008
-389.048	-40.234	0.100	0.052
-388.033	129.518	-0.183	-0.232
-387.019	150.232	-0.234	0.314
-386.004	-105.996	-0.094	0.021
-384.990	-50.154	0.401	-0.188
-383.975	800.000	0.049	0.210
-382.960	253.030	-0.121	-0.205
-381.946	800.000	0.078	0.216
-380.931	-37.427	-0.335	-0.177
-379.917	-41.967	-0.219	0.111
-378.902	30.662	0.409	-0.347
-377.888	-138.124	0.273	0.030
-376.873	1.572	-0.251	0.178
-375.858	270.062	-0.078	0.135
-374.844	-47.297	-0.275	0.133
-373.829	-0.834	-0.243	-0.170
-372.815	224.228	-0.079	0.126
-371.800	-200.000	-0.013	0.301
-370.785	-101.837	-0.383	0.092
-369.771	-73.207	-0.448	0.162
-368.756	30.554	0.142	0.121
-367.742	-200.000	-0.003	-0.033
-366.727	55.858	0.145	0.139
-365.712	-200.000	-0.034	0.296
-364.698	-61.142	0.371	-0.155
-363.683	156.433	-0.131	-0.179
-362.669	17.913	-0.271	0.214
-361.654	-155.002	0.122	0.008
-360.639	-1.753	0.239	0.166
-359.625	-79.127	-0.156	0.052
-358.610	-200.000	-0.039	-0.185
-357.596	339.513	-0.081	0.156
-356.581	-85.269	0.178	-0.055
-355.566	60.560	-0.051	0.050
-354.552	118.389	0.064	-0.078
-353.537	111.012	0.066	0.079
-352.523	735.662	0.161	-0.428
-351.508	-139.023	0.123	-0.013
-350.493	-131.695	-0.167	-0.022
-349.479	-115.315	-0.381	0.071
-348.464	-200.000	-0.020	0.389
-347.450	148.005	0.077	0.103
-346.435	-68.136	0.291	0.112
-345.420	800.000	-0.042	0.155
-344.406	264.222	-0.088	0.151
-343.391	-200.000	-0.018	-0.086
-342.377	157.571	0.054	-0.074
-341.362	101.718	0.134	0.155
-340.348	-115.524	0.188	0.035
-339.333	-34.300	-0.309	-0.168
-338.318	183.306	0.169	0.246
-337.304	-9.591	0.134	0.088
-336.289	130.555	0.102	-0.130
-335.275	-6.964	-0.092	0.062
-334.260	-132.418	-0.086	0.011
-333.245	-88.749	-0.069	-0.020
-332.231	-48.073	-0.248	0.118
-331.216	-139.624	-0.343	-0.036
-330.202	395.144	-0.158	0.325
-329.187	188.632	0.222	0.328
-328.172	-129.065	-0.171	-0.024
-327.158	51.219	0.162	-0.152
-326.143	-200.000	0.024	0.140
-325.129	-79.757	-0.449	-0.149
-324.114	-145.454	-0.052	-0.005
-323.099	219.415	0.145	-0.229
-322.085	800.000	0.054	0.226
-321.070	266.534	-0.121	0.209
-320.056	-200.000	-0.014	-0.095
-319.041	-112.526	0.190	0.037
-318.026	29.736	0.246	-0.206
-317.012	-200.000	0.029	0.300
-315.997	330.264	0.129	0.246
-314.983	125.852	0.057	-0.071
-313.968	-200.000	0.227	-0.001
-312.953	198.360	0.088	0.133
-311.939	-66.173	-0.222	0.087
-310.924	-200.000	-0.002	-0.287
-309.910	-200.000	0.025	0.157
-308.895	-116.656	0.403	-0.073
-307.880	668.986	0.115	-0.295
-306.866	800.000	0.041	-0.121
-305.851	-136.195	-0.163	0.019
-304.837	45.879	0.095	0.087
-303.822	-44.002	-0.193	0.096
-302.807	-200.000	0.035	-0.286
-301.793	-53.041	-0.192	-0.087
-300.778	-167.133	-0.120	0.005
-299.764	800.000	-0.045	-0.176
-298.749	307.066	-0.094	0.172
-297.735	-200.000	-0.012	0.121
-296.720	420.556	0.057	0.120
-295.705	236.258	-0.049	0.081
-294.691	-9.672	0.108	0.071
-293.676	-88.597	-0.607	-0.178
-292.662	260.008	-0.149	-0.254
-291.647	-145.359	0.129	-0.011
-290.632	-42.854	0.350	0.175
-289.618	462.200	-0.083	-0.182
-288.603	-37.457	-0.165	0.087
-287.589	-200.000	-0.003	0.035
-286.574	-3.027	0.350	-0.241
-285.559	-97.377	-0.101	0.026
-284.545	800.000	0.066	-0.197
-283.530	64.193	0.159	-0.158
-282.516	372.053	0.043	0.087
-281.501	-33.340	-0.432	-0.236
-280.486	-200.000	-0.034	0.157
-279.472	-94.725	-0.266	-0.071
-278.457	131.594	-0.141	-0.179
-277.443	-68.012	-0.115	-0.044
-276.428	195.775	0.062	-0.093
-275.413	65.207	-0.023	0.023
-274.399	257.370	-0.201	0.341
-273.384	-146.419	-0.106	0.009
-272.370	-200.000	0.012	0.070
-271.355	188.705	0.171	0.252
-270.340	565.664	0.129	0.308
-269.326	211.968	-0.193	-0.300
-268.311	-200.000	-0.061	0.337
-267.297	7.624	-0.122	-0.090
-266.282	22.236	-0.111	-0.089
-265.267	-200.000	-0.017	-0.368
-264.253	84.241	0.145	-0.157
-263.238	800.000	0.088	-0.253
-262.224	320.489	0.038	-0.071
-261.209	-2.918	0.050	-0.034
-260.195	54.634	0.138	-0.131
-259.180	-200.000	0.014	0.066
-258.165	179.329	0.140	-0.202
-257.151	-138.169	-0.105	-0.011
-256.136	649.797	-0.135	0.341
-255.122	-200.000	0.039	-0.174
-254.107	-103.372	0.058	0.013
-253.092	-200.000	-0.050	-0.263
-252.078	-170.745	-0.207	0.007
-251.063	419.185	0.126	-0.266
-250.049	-200.000	-0.007	0.111
-249.034	-43.967	-0.239	-0.118
-248.019	368.840	0.106	-0.211
-247.005	-30.428	0.243	-0.135
-245.990	357.942	-0.069	-0.136
-244.976	-169.473	0.349	0.013
-243.961	-176.418	0.184	-0.005
-242.946	-91.624	-0.078	0.022
-241.932	-112.271	0.246	-0.049
-240.917	-6.537	-0.229	-0.154
-239.903	-16.821	-0.376	-0.234
-238.888	103.565	0.074	0.085
-237.873	800.000	-0.068	0.287
-236.859	-200.000	-0.026	-0.138
-235.844	99.928	0.165	-0.188
-234.830	800.000	0.079	0.219
-233.815	-92.288	0.163	0.045
-232.800	-12.153	-0.047	0.030
-231.786	-200.000	0.145	0.000
-230.771	800.000	0.056	-0.186
-229.757	277.738	0.153	-0.268
-228.742	356.929	-0.015	-0.030
-227.727	240.755	0.095	-0.156
-226.713	83.122	0.142	-0.152
-225.698	-21.008	0.201	-0.121
-224.684	659.831	-0.115	0.290
-223.669	800.000	-0.057	-0.196
-222.655	800.000	0.089	0.348
-221.640	-52.619	0.185	0.084
-220.625	-2.078	0.098	-0.067
-219.611	800.000	0.082	0.260
-218.596	-200.000	0.065	-0.398
-217.582	195.375	-0.109	0.162
-216.567	226.962	0.057	-0.091
-215.552	-61.490	0.055	-0.023
-214.538	800.000	0.138	0.408
-213.523	-200.000	-0.007	0.071
-212.509	-200.000	-0.024	0.188
-211.494	-200.000	0.023	0.141
-210.479	-13.137	-0.204	-0.131
-209.465	-200.000	0.019	0.146
-208.450	-200.000	-0.002	-0.182
-207.436	55.532	-0.102	0.097
-206.421	49.115	0.094	-0.087
-205.406	-150.268	-0.167	0.013
-204.392	73.170	-0.082	-0.084
-203.377	-114.782	0.226	-0.042
-202.363	-200.000	0.001	0.350
-201.348	-76.312	0.130	-0.045
-200.333	182.050	0.175	0.253
-199.319	-90.141	-0.300	0.086
-198.304	-88.980	0.057	-0.017
-197.290	800.000	-0.100	-0.280
-196.275	473.974	-0.024	0.054
-195.260	-62.133	0.270	0.111
-194.246	-75.601	-0.269	-0.094
-193.231	-200.000	-0.021	-0.213
-192.217	-75.459	-0.285	0.100
-191.202	-77.364	-0.053	0.018
-190.187	56.461	0.182	0.174
-189.173	-200.000	0.048	0.216
-188.158	-64.316	-0.193	0.077
-187.144	-200.000	-0.046	0.263
-186.129	260.199	0.125	0.213
-185.114	-29.760	-0.020	0.011
-184.100	248.901	-0.058	0.097
-183.085	68.025	-0.057	0.057
-182.071	-200.000	-0.004	-0.202
-181.056	-79.917	-0.079	0.026
-180.042	-200.000	-0.010	-0.159
-179.027	-66.237	-0.239	-0.093
-178.012	-69.242	-0.027	0.010
-176.998	335.187	-0.016	-0.030
-175.983	35.961	0.229	0.198
-174.969	800.000	0.025	-0.072
-173.954	38.498	0.147	0.129
-172.939	-64.851	-0.386	0.153
-171.925	-200.000	-0.069	0.349
-170.910	-200.000	0.077	-0.558
-169.896	36.050	-0.174	-0.151
-168.881	290.100	-0.109	0.195
-167.866	-52.999	0.217	0.098
-166.852	165.281	-0.044	0.061
-165.837	486.338	0.186	-0.417
-164.823	-75.097	0.139	0.049
-163.808	-63.807	-0.285	0.115
-162.793	-5.484	-0.252	0.170
-161.779	179.232	0.065	-0.093
-160.764	138.525	0.211	0.272
-159.750	-200.000	0.060	0.000
-158.735	133.937	0.041	-0.052
-157.720	79.600	-0.071	0.075
-156.706	437.762	-0.127	-0.271
-155.691	83.240	-0.216	-0.231
-154.677	58.130	0.132	-0.127
-153.662	-77.337	0.407	-0.139
-152.647	-200.000	0.011	-0.064
-151.633	60.411	0.158	0.153
-150.618	-40.617	-0.110	-0.056
-149.604	800.000	-0.050	0.154
-148.589	800.000	0.052	-0.152
-147.574	-200.000	0.097	0.453
-146.560	427.606	0.115	-0.242
-145.545	-18.404	0.191	-0.117
-144.531	24.428	0.178	0.144
-143.516	-200.000	0.011	-0.111
-142.502	800.000	0.145	0.453
-141.487	-200.000	0.018	0.087
-140.472	-200.000	0.119	0.569
-139.458	-111.207	0.455	0.091
-138.443	-200.000	0.008	0.274
-137.429	36.531	0.198	0.171
-136.414	-200.000	0.023	0.137
-135.399	-200.000	-0.027	-0.127
-134.385	178.071	0.069	-0.098
-133.370	-65.502	0.209	0.082
-132.356	152.252	-0.183	0.244
-131.341	178.913	0.280	0.402
-130.326	-12.621	-0.221	0.141
-129.312	-200.000	0.017	-0.085
-128.297	-20.957	-0.329	-0.198
-127.283	-97.284	0.276	0.070
-126.268	800.000	-0.066	-0.212
-125.253	-200.000	0.002	-0.188
-124.239	243.035	0.010	-0.017
-123.224	26.468	0.089	-0.073
-122.210	216.942	0.130	0.203
-121.195	-127.531	0.396	0.056
