DTS Sentinel unit serial number:	SN413079Multiplexer serial number:	ORYXHardware model number:	OX4-SRSoftware version number:	ORYX F/W v4.00 Oryx Data Collector v3.7.2.0data status	okinstallation	princeton_trtdifferential loss correction	single-endedforward channel	channel 2reverse channel	N/Adate	2019/09/11time	11:41:11forward acquisition time	60.00reverse acquisition time	0.00gamma	496.2192k internal	0.2303k external	0.2303temperature offset calibration	0.9970default loss term (dB/km)	0.3790temperature slope calibration	1.0000multiplexer offset coefficient	1.0000multiplexer slope coefficient	1.0000fibre end	0.00T internal ref (°C)	38.47T ext. ref 1 (°C)	0.17T ext. ref 2 (°C)	35.89length (m)	temperature (°C)	Stokes	anti-Stokes-747.200	60.962	0.043	-0.044
-746.185	89.770	-0.154	0.176
-745.171	-200.000	-0.027	-0.288
-744.156	101.879	-0.388	0.461
-743.142	-31.429	-0.194	0.111
-742.127	-12.083	-0.273	0.182
-741.112	155.309	0.224	-0.315
-740.098	-167.865	0.109	-0.004
-739.083	-110.439	0.138	0.029
-738.069	10.875	-0.232	0.180
-737.054	-43.183	0.025	-0.013
-736.039	-79.204	-0.330	0.114
-735.025	800.000	0.056	0.225
-734.010	-126.821	0.130	0.020
-732.996	763.322	-0.082	-0.228
-731.981	-200.000	-0.066	-0.371
-730.966	529.024	-0.089	0.214
-729.952	-200.000	-0.025	-0.419
-728.937	174.293	-0.165	-0.243
-727.923	800.000	-0.082	-0.363
-726.908	-131.411	-0.126	-0.017
-725.894	19.485	-0.338	-0.277
-724.879	96.720	0.181	-0.211
-723.864	-156.849	-0.196	0.012
-722.850	169.217	-0.182	-0.265
-721.835	-200.000	-0.008	0.171
-720.821	-74.996	-0.210	0.077
-719.806	800.000	0.021	-0.087
-718.791	800.000	-0.029	0.125
-717.777	-200.000	-0.001	-0.114
-716.762	-106.740	-0.215	0.049
-715.748	-48.316	-0.209	0.102
-714.733	-200.000	0.020	-0.110
-713.718	21.730	-0.068	0.057
-712.704	800.000	-0.011	-0.045
-711.689	-95.068	-0.222	-0.061
-710.675	260.836	-0.145	-0.255
-709.660	-200.000	-0.025	0.171
-708.645	312.321	0.042	0.081
-707.631	18.262	0.209	0.170
-706.616	-112.809	-0.121	0.024
-705.602	-149.523	-0.137	-0.011
-704.587	390.103	0.040	0.084
-703.572	652.248	-0.060	-0.157
-702.558	800.000	-0.046	-0.184
-701.543	769.331	0.055	-0.154
-700.529	590.286	0.045	-0.112
-699.514	-153.048	-0.466	-0.033
-698.499	-200.000	-0.022	0.227
-697.485	3.134	-0.261	-0.193
-696.470	301.355	0.129	0.243
-695.456	-96.045	-0.119	0.032
-694.441	-63.586	0.508	-0.212
-693.426	-92.416	0.212	0.061
-692.412	104.478	-0.225	0.269
-691.397	308.231	-0.061	0.116
-690.383	-63.976	0.110	0.046
-689.368	-38.942	-0.087	-0.047
-688.354	-122.452	-0.072	0.012
-687.339	85.767	-0.101	0.113
-686.324	106.207	0.199	0.240
-685.310	-200.000	-0.055	-0.480
-684.295	-200.000	-0.040	-0.254
-683.281	154.898	-0.029	-0.041
-682.266	-200.000	-0.089	-0.449
-681.251	53.001	0.055	-0.054
-680.237	-23.966	-0.185	0.112
-679.222	-200.000	-0.011	-0.259
-678.208	-139.789	-0.175	-0.019
-677.193	522.073	-0.107	0.254
-676.178	800.000	0.051	0.208
-675.164	139.748	0.112	-0.150
-674.149	-170.779	-0.162	-0.006
-673.135	33.275	-0.052	0.046
-672.120	707.274	0.075	0.201
-671.105	84.829	-0.204	0.227
-670.091	-105.376	0.371	0.086
-669.076	-125.098	-0.209	-0.033
-668.062	800.000	-0.048	0.140
-667.047	-200.000	-0.045	0.263
-666.032	-114.442	-0.175	-0.034
-665.018	33.249	0.136	0.120
-664.003	706.249	-0.119	-0.318
-662.989	-200.000	-0.023	0.170
-661.974	-31.154	-0.266	-0.152
-660.959	-87.258	0.215	-0.066
-659.945	800.000	0.039	0.160
-658.930	-157.065	-0.378	0.023
-657.916	-189.409	0.288	-0.003
-656.901	-200.000	0.006	0.177
-655.886	-35.894	0.195	0.107
-654.872	25.414	0.099	0.084
-653.857	-200.000	0.037	0.381
-652.843	90.831	0.138	0.157
-651.828	54.343	0.118	0.115
-650.814	-112.943	-0.209	0.042
-649.799	305.252	-0.126	0.237
-648.784	-117.849	-0.434	0.079
-647.770	15.970	-0.171	-0.137
-646.755	76.081	0.269	0.289
-645.741	-200.000	-0.017	0.411
-644.726	147.189	-0.016	-0.022
-643.711	284.351	0.122	-0.224
-642.697	-91.108	-0.267	-0.078
-641.682	8.709	0.215	0.164
-640.668	94.476	0.176	0.203
-639.653	125.696	0.120	-0.154
-638.638	-55.779	0.122	0.055
-637.624	57.762	-0.103	0.102
-636.609	-107.162	0.383	-0.086
-635.595	-51.253	-0.188	0.089
-634.580	-128.450	0.321	0.046
-633.565	675.397	0.071	-0.187
-632.551	-168.112	-0.510	0.020
-631.536	249.955	0.064	0.111
-630.522	-91.495	-0.145	0.042
-629.507	-200.000	-0.090	-0.521
-628.492	-82.891	0.195	-0.064
-627.478	-144.510	0.299	-0.028
-626.463	-125.462	0.091	0.014
-625.449	-78.156	-0.371	-0.129
-624.434	395.251	0.106	0.225
-623.419	196.216	-0.118	0.182
-622.405	-200.000	0.022	0.163
-621.390	-200.000	-0.011	0.447
-620.376	800.000	0.043	-0.161
-619.361	72.757	-0.152	-0.161
-618.346	13.538	0.130	0.103
-617.332	-97.485	-0.055	-0.014
-616.317	-200.000	-0.025	0.231
-615.303	800.000	-0.029	0.124
-614.288	-200.000	0.005	-0.141
-613.273	-50.994	-0.167	0.079
-612.259	274.670	0.085	0.152
-611.244	-123.363	-0.235	-0.038
-610.230	-200.000	0.024	0.289
-609.215	-200.000	0.030	-0.190
-608.201	-79.554	-0.493	0.169
-607.186	97.198	-0.260	0.302
-606.171	-132.837	-0.230	0.030
-605.157	-200.000	-0.005	-0.265
-604.142	-200.000	-0.028	0.199
-603.128	82.712	-0.226	-0.249
-602.113	-200.000	-0.027	0.219
-601.098	-14.428	0.073	-0.048
-600.084	-200.000	-0.021	-0.125
-599.069	137.624	0.213	-0.283
-598.055	-38.665	0.012	0.006
-597.040	554.413	0.049	0.120
-596.025	-68.158	-0.094	-0.037
-595.011	-141.639	0.298	0.030
-593.996	-103.855	-0.079	0.019
-592.982	-59.749	-0.343	0.149
-591.967	800.000	0.149	-0.523
-590.952	297.180	-0.097	0.181
-589.938	-200.000	-0.005	0.142
-588.923	-2.478	0.261	0.185
-587.909	-32.753	-0.208	0.117
-586.894	-200.000	0.016	-0.318
-585.879	-144.025	-0.090	0.009
-584.865	-52.126	-0.408	0.192
-583.850	-57.430	-0.246	-0.110
-582.836	800.000	-0.097	0.289
-581.821	-137.468	-0.165	0.019
-580.806	800.000	0.011	-0.041
-579.792	-2.309	-0.180	-0.128
-578.777	-200.000	0.007	-0.114
-577.763	-124.975	0.119	0.018
-576.748	-41.603	0.360	0.187
-575.733	21.516	0.294	0.242
-574.719	-200.000	0.046	0.310
-573.704	84.212	0.043	-0.048
-572.690	800.000	-0.049	-0.205
-571.675	-200.000	-0.027	-0.187
-570.661	-71.090	-0.195	0.074
-569.646	246.216	0.227	-0.388
-568.631	41.313	-0.142	-0.130
-567.617	-148.739	0.191	-0.016
-566.602	1.055	-0.452	-0.328
-565.588	132.602	0.140	-0.182
-564.573	772.617	-0.110	0.303
-563.558	-200.000	-0.023	0.276
-562.544	-113.569	0.116	-0.023
-561.529	-200.000	0.066	0.475
-560.515	242.223	0.159	-0.268
-559.500	-106.160	-0.131	0.030
-558.485	1.299	0.122	-0.088
-557.471	-70.079	0.292	0.112
-556.456	254.690	0.032	0.056
-555.442	424.888	-0.056	0.122
-554.427	-103.162	-0.091	0.022
-553.412	-81.557	0.105	0.035
-552.398	-200.000	-0.058	-0.329
-551.383	-7.389	0.360	-0.247
-550.369	-23.589	-0.199	-0.121
-549.354	-95.990	-0.047	-0.013
-548.339	-103.693	0.039	-0.009
-547.325	234.035	0.123	0.205
-546.310	84.575	0.272	-0.301
-545.296	-95.699	-0.145	-0.039
-544.281	-93.425	0.214	0.060
-543.266	75.888	0.037	0.039
-542.252	-22.633	0.161	-0.098
-541.237	-29.940	-0.056	0.032
-540.223	-78.535	-0.133	0.046
-539.208	-129.332	0.392	0.055
-538.193	-200.000	-0.054	0.326
-537.179	-89.988	-0.063	0.018
-536.164	75.417	0.184	0.196
-535.150	-7.805	0.114	-0.078
-534.135	-59.982	0.060	-0.026
-533.121	-42.068	0.084	-0.043
-532.106	-108.781	-0.152	0.033
-531.091	-200.000	-0.007	-0.148
-530.077	-163.316	-0.175	0.008
-529.062	-68.393	-0.054	0.021
-528.048	-105.469	0.065	-0.015
-527.033	800.000	0.092	0.368
-526.018	58.310	0.249	0.246
-525.004	298.242	-0.258	-0.480
-523.989	800.000	0.131	-0.504
-522.975	39.489	0.260	-0.235
-521.960	-103.330	0.229	-0.055
-520.945	-200.000	0.003	0.190
-519.931	-26.560	-0.171	-0.101
-518.916	112.542	-0.243	-0.297
-517.902	366.113	0.023	-0.046
-516.887	-60.390	0.161	-0.069
-515.872	-200.000	0.002	-0.150
-514.858	729.813	0.087	-0.235
-513.843	800.000	-0.042	-0.164
-512.829	-200.000	-0.280	-0.001
-511.814	-200.000	0.009	-0.088
-510.799	484.338	-0.213	0.489
-509.785	-52.380	-0.148	0.069
-508.770	800.000	0.059	-0.211
-507.756	-180.265	-0.330	-0.007
-506.741	-200.000	0.038	0.210
-505.726	-8.921	-0.220	-0.149
-504.712	-69.675	-0.178	0.069
-503.697	-20.269	-0.179	0.112
-502.683	497.454	0.044	0.102
-501.668	283.724	0.078	0.141
-500.653	-200.000	-0.275	0.000
-499.639	-61.859	0.337	-0.142
-498.624	-14.230	-0.118	-0.077
-497.610	461.735	-0.111	-0.249
-496.595	-74.600	0.226	0.082
-495.581	-200.000	-0.007	-0.198
-494.566	800.000	-0.007	0.021
-493.551	-148.506	0.214	0.018
-492.537	14.900	0.027	0.021
-491.522	85.524	0.083	-0.092
-490.508	-61.011	0.227	-0.097
-489.493	-50.257	0.193	-0.092
-488.478	800.000	0.044	0.192
-487.464	15.217	-0.196	-0.155
-486.449	39.660	0.078	-0.071
-485.435	579.505	-0.107	-0.265
-484.420	8.748	-0.127	-0.096
-483.405	249.598	0.022	-0.037
-482.391	391.596	-0.120	0.252
-481.376	85.723	-0.150	0.166
-480.362	800.000	-0.146	-0.500
-479.347	-10.068	-0.388	0.260
-478.332	296.778	0.091	-0.168
-477.318	-200.000	0.023	-0.254
-476.303	-16.895	-0.146	0.093
-475.289	-63.979	-0.177	-0.073
-474.274	-162.216	-0.275	-0.014
-473.259	506.857	-0.160	-0.374
-472.245	-118.477	0.421	0.075
-471.230	800.000	-0.091	-0.287
-470.216	-6.407	-0.110	0.075
-469.201	307.786	0.054	0.101
-468.186	-120.974	0.098	0.017
-467.172	-200.000	-0.024	-0.127
-466.157	-9.982	-0.050	-0.033
-465.143	-200.000	0.027	0.240
-464.128	-24.921	0.146	0.087
-463.113	638.494	0.073	0.187
-462.099	-200.000	-0.102	-0.485
-461.084	-200.000	-0.042	0.250
-460.070	539.201	0.046	-0.111
-459.055	-145.597	0.283	0.026
-458.040	800.000	-0.138	0.389
-457.026	168.602	-0.166	-0.238
-456.011	26.584	0.189	-0.160
-454.997	-106.792	-0.023	-0.005
-453.982	106.661	0.133	0.159
-452.968	167.385	0.063	0.090
-451.953	380.093	-0.107	-0.220
-450.938	-200.000	-0.018	-0.164
-449.924	228.085	-0.101	-0.166
-448.909	503.318	0.169	-0.395
-447.895	-0.826	0.102	0.073
-446.880	-77.883	0.175	-0.061
-445.865	-42.309	0.259	0.133
-444.851	51.746	0.219	0.209
-443.836	-200.000	0.035	0.216
-442.822	-82.287	0.086	-0.028
-441.807	-97.964	-0.273	-0.071
-440.792	135.605	0.187	-0.245
-439.778	-200.000	-0.006	-0.030
-438.763	-115.428	0.489	-0.093
-437.749	-86.879	0.275	-0.084
-436.734	-200.000	-0.039	0.444
-435.719	48.904	0.183	-0.173
-434.705	799.961	-0.038	-0.107
-433.690	35.190	-0.257	-0.227
-432.676	90.758	-0.117	-0.132
-431.661	-200.000	-0.019	0.108
-430.646	194.991	-0.116	-0.177
-429.632	201.597	0.080	-0.123
-428.617	-143.256	0.158	-0.015
-427.603	-200.000	0.012	-0.081
-426.588	93.988	0.013	-0.015
-425.573	-200.000	0.064	0.394
-424.559	32.625	-0.084	-0.073
-423.544	761.579	-0.102	0.279
-422.530	56.944	0.059	0.058
-421.515	464.589	-0.154	0.347
-420.500	-200.000	0.016	0.086
-419.486	-107.010	-0.306	-0.068
-418.471	-124.335	0.035	-0.005
-417.457	66.575	-0.142	-0.146
-416.442	-69.708	-0.263	-0.101
-415.428	258.484	-0.145	-0.251
-414.413	-102.892	0.050	0.012
-413.398	34.016	-0.164	-0.144
-412.384	320.163	-0.084	0.161
-411.369	-200.000	0.007	-0.135
-410.355	-118.145	-0.156	-0.028
-409.340	800.000	-0.057	-0.204
-408.325	-143.073	0.274	0.027
-407.311	800.000	-0.084	0.311
-406.296	128.152	-0.242	0.310
-405.282	289.702	0.075	0.137
-404.267	80.329	0.174	-0.188
-403.252	-151.418	-0.468	-0.035
-402.238	-200.000	-0.019	0.330
-401.223	385.539	0.123	-0.256
-400.209	295.401	0.091	0.167
-399.194	-200.000	0.160	0.000
-398.179	-140.425	-0.275	-0.029
-397.165	-165.523	-0.012	-0.001
-396.150	150.217	-0.179	-0.245
-395.136	800.000	-0.051	-0.165
-394.121	800.000	0.060	-0.232
-393.106	-78.785	0.142	0.049
-392.092	-83.982	-0.295	-0.094
-391.077	-172.015	-0.258	0.008
-390.063	33.903	0.212	0.185
-389.048	-200.000	0.026	0.142
-388.033	-40.035	0.166	-0.087
-387.019	63.801	-0.250	-0.252
-386.004	800.000	-0.042	-0.178
-384.990	217.949	-0.123	-0.197
-383.975	114.447	-0.184	0.226
-382.960	800.000	0.076	0.315
-381.946	-200.000	-0.011	0.141
-380.931	-172.912	0.189	0.006
-379.917	152.019	-0.030	-0.041
-378.902	-2.523	0.203	-0.143
-377.888	-71.228	-0.169	-0.064
-376.873	-45.487	-0.167	0.083
-375.858	10.445	0.066	0.051
-374.844	-185.629	-0.210	-0.003
-373.829	-180.987	-0.456	-0.009
-372.815	-27.636	0.265	-0.154
-371.800	126.933	0.051	-0.065
-370.785	152.240	-0.063	0.086
-369.771	-200.000	-0.003	0.115
-368.756	-137.894	0.050	-0.006
-367.742	32.093	0.055	0.048
-366.727	125.804	0.137	-0.173
-365.712	-54.242	0.336	0.153
-364.698	-49.079	-0.161	-0.077
-363.683	17.814	0.151	0.120
-362.669	201.081	-0.123	0.190
-361.654	-57.520	-0.485	0.214
-360.639	207.386	-0.118	0.185
-359.625	29.529	0.259	0.221
-358.610	58.573	0.061	0.060
-357.596	-137.783	0.117	0.013
-356.581	-124.145	0.252	-0.040
-355.566	-23.672	0.100	0.060
-354.552	9.615	-0.379	-0.288
-353.537	-10.251	-0.022	-0.015
-352.523	-47.886	-0.102	-0.050
-351.508	-101.317	0.086	0.021
-350.493	-60.513	-0.355	0.151
-349.479	138.740	0.229	-0.302
-348.464	-200.000	0.014	-0.068
-347.450	-8.767	0.253	0.170
-346.435	-200.000	0.002	0.128
-345.420	13.389	-0.046	0.035
-344.406	-200.000	0.014	0.202
-343.391	215.337	0.057	0.090
-342.377	-200.000	-0.020	-0.104
-341.362	-31.186	-0.192	-0.109
-340.348	-167.087	0.187	-0.008
-339.333	414.731	-0.134	0.286
-338.318	68.462	-0.228	0.235
-337.304	334.103	-0.239	0.464
-336.289	-200.000	0.015	-0.477
-335.275	88.529	0.122	0.136
-334.260	740.915	0.063	-0.169
-333.245	22.112	-0.096	0.078
-332.231	189.740	0.158	-0.238
-331.216	-200.000	-0.057	0.279
-330.202	195.581	0.141	0.215
-329.187	346.598	0.121	0.239
-328.172	188.406	0.130	-0.195
-327.158	149.400	0.068	-0.093
-326.143	174.264	0.159	-0.231
-325.129	-131.901	0.321	0.042
-324.114	311.648	0.045	-0.085
-323.099	-50.202	0.077	0.037
-322.085	23.074	-0.103	-0.085
-321.070	-200.000	0.017	0.178
-320.056	89.812	-0.286	0.320
-319.041	2.397	0.164	0.119
-318.026	223.229	-0.094	0.151
-317.012	3.220	0.316	0.230
-315.997	389.918	0.074	0.153
-314.983	386.672	-0.059	-0.122
-313.968	142.609	-0.298	-0.396
-312.953	-82.038	0.223	-0.073
-311.939	-136.477	-0.237	0.028
-310.924	800.000	0.110	0.319
-309.910	-78.207	0.297	-0.102
-308.895	501.230	-0.093	-0.216
-307.880	35.456	-0.167	0.147
-306.866	102.484	-0.207	-0.243
-305.851	-200.000	0.028	-0.305
-304.837	-138.789	0.039	-0.004
-303.822	-200.000	0.011	-0.119
-302.807	800.000	-0.032	0.118
-301.793	-28.773	0.036	0.021
-300.778	112.421	-0.142	-0.173
-299.764	405.937	0.203	0.429
-298.749	39.393	-0.088	0.079
-297.735	58.724	0.091	0.089
-296.720	214.464	-0.062	0.098
-295.705	-133.883	0.149	0.018
-294.691	-148.834	0.205	-0.017
-293.676	-48.704	-0.233	0.112
-292.662	800.000	-0.049	0.147
-291.647	800.000	-0.067	-0.272
-290.632	137.454	-0.265	-0.346
-289.618	-140.245	0.193	0.020
-288.603	-1.689	0.171	-0.121
-287.589	272.350	-0.130	0.230
-286.574	-99.900	0.160	-0.040
-285.559	56.280	0.092	-0.089
-284.545	-96.460	0.217	0.057
-283.530	-166.118	0.110	0.005
-282.516	-200.000	-0.001	0.309
-281.501	-50.498	-0.286	-0.135
-280.486	-52.494	0.411	-0.190
-279.472	130.473	0.162	-0.207
-278.457	317.009	0.100	0.189
-277.443	-94.289	-0.158	0.043
-276.428	-187.849	0.193	0.003
-275.413	800.000	0.083	0.331
-274.399	96.116	-0.270	0.309
-273.384	-60.586	0.198	-0.084
-272.370	-148.191	-0.169	0.014
-271.355	-104.276	-0.294	0.068
-270.340	-200.000	0.006	-0.256
-269.326	-200.000	0.039	-0.403
-268.311	-103.783	0.155	-0.036
-267.297	-56.670	0.226	0.100
-266.282	-50.484	0.337	-0.159
-265.267	-53.455	0.249	0.114
-264.253	800.000	-0.047	0.180
-263.238	-200.000	0.050	-0.385
-262.224	-14.008	-0.339	0.219
-261.209	104.812	0.057	0.067
-260.195	16.500	0.164	0.129
-259.180	800.000	0.044	0.142
-258.165	394.304	-0.057	0.118
-257.151	-134.961	0.330	-0.040
-256.136	40.085	0.141	0.127
-255.122	800.000	-0.048	-0.137
-254.107	-200.000	0.027	0.204
-253.092	-200.000	-0.005	-0.030
-252.078	90.907	0.104	-0.116
-251.063	-200.000	-0.028	-0.387
-250.049	800.000	0.027	0.076
-249.034	-131.788	0.417	-0.055
-248.019	-87.091	0.201	-0.061
-247.005	-143.712	0.176	0.017
-245.990	-117.479	0.145	-0.026
-244.976	800.000	-0.047	0.162
-243.961	-200.000	0.042	0.267
-242.946	-200.000	0.040	0.211
-241.932	58.314	0.027	-0.027
-240.917	-200.000	0.013	0.125
-239.903	2.374	0.229	0.165
-238.888	-200.000	0.025	0.207
-237.873	-71.917	-0.181	0.067
-236.859	-135.218	-0.308	-0.037
-235.844	-45.345	-0.103	-0.051
-234.830	-200.000	0.026	-0.220
-233.815	800.000	-0.102	-0.417
-232.800	-111.418	-0.198	0.040
-231.786	-117.876	0.185	0.033
-230.771	179.245	0.299	-0.437
-229.757	246.768	-0.074	-0.125
-228.742	-140.114	0.149	0.016
-227.727	214.111	0.130	-0.206
-226.713	-200.000	-0.049	0.337
-225.698	454.467	0.056	-0.125
-224.684	67.709	0.353	0.360
-223.669	201.621	-0.217	0.333
-222.655	800.000	0.057	-0.156
-221.640	-139.567	-0.199	-0.021
-220.625	-120.659	0.109	0.018
-219.611	-180.923	-0.147	0.003
-218.596	93.329	0.168	0.189
-217.582	-89.494	-0.166	-0.049
-216.567	800.000	-0.052	-0.161
-215.552	93.372	0.170	-0.192
-214.538	-103.301	0.392	0.092
-213.523	7.432	0.210	-0.156
-212.509	-200.000	-0.044	0.283
-211.494	-4.675	-0.136	0.094
-210.479	-200.000	-0.006	-0.263
-209.465	395.916	-0.142	-0.295
-208.450	800.000	-0.057	-0.247
-207.436	287.292	0.195	0.352
-206.421	751.254	-0.072	0.194
-205.406	-43.672	-0.324	0.163
-204.392	81.085	-0.118	-0.127
-203.377	190.516	-0.112	-0.168
-202.363	-200.000	-0.009	0.196
-201.348	400.180	0.130	-0.273
-200.333	-40.685	-0.208	-0.107
-199.319	50.683	0.204	-0.192
-198.304	572.328	0.127	0.308
-197.290	-12.374	0.300	-0.195
-196.275	-120.659	-0.146	-0.025
-195.260	352.279	0.110	0.218
-194.246	-84.153	-0.324	-0.102
-193.231	63.598	0.177	0.177
-192.217	-200.000	-0.003	0.156
-191.202	-9.052	-0.321	0.214
-190.187	-200.000	-0.024	-0.198
-189.173	566.743	0.080	-0.194
-188.158	213.354	-0.075	0.118
-187.144	-200.000	-0.038	0.358
-186.129	47.659	-0.132	-0.122
-185.114	107.792	-0.211	0.250
-184.100	-63.765	-0.258	-0.105
-183.085	155.985	0.293	-0.403
-182.071	405.163	-0.216	-0.454
-181.056	238.773	0.146	-0.242
-180.042	36.722	0.158	-0.139
-179.027	-26.754	-0.164	0.095
-178.012	-119.877	-0.239	-0.041
-176.998	-67.770	-0.313	0.122
-175.983	243.489	0.272	0.455
-174.969	152.353	0.071	0.097
-173.954	-149.556	0.288	0.023
-172.939	-86.855	-0.222	-0.067
-171.925	-3.007	-0.219	-0.152
-170.910	800.000	0.120	-0.351
-169.896	-200.000	0.020	0.223
-168.881	-90.467	-0.076	0.022
-167.866	-42.423	0.124	0.063
-166.852	15.188	-0.140	-0.110
-165.837	421.641	0.066	0.140
-164.823	84.611	-0.023	0.025
-163.808	800.000	0.042	0.148
-162.793	-15.547	-0.095	-0.060
-161.779	-200.000	0.010	0.081
-160.764	567.744	0.089	-0.216
-159.750	42.572	0.129	-0.116
-158.735	-200.000	-0.007	0.133
-157.720	69.464	-0.301	-0.309
-156.706	-40.144	0.128	0.066
-155.691	-200.000	0.034	0.186
-154.677	733.789	-0.055	-0.146
-153.662	-68.403	-0.205	0.079
-152.647	-38.091	-0.251	0.133
-151.633	-180.517	0.300	0.006
-150.618	-73.604	-0.241	-0.088
-149.604	295.021	-0.170	0.309
-148.589	-16.191	-0.148	0.094
-147.574	156.105	0.193	0.265
-146.560	800.000	-0.082	0.230
-145.545	-97.281	0.110	-0.028
-144.531	-42.590	-0.073	0.037
-143.516	-131.608	0.310	0.041
-142.502	206.477	-0.081	0.126
-141.487	42.828	0.212	0.192
-140.472	60.927	-0.177	-0.174
-139.458	235.480	-0.115	-0.189
-138.443	-200.000	-0.028	0.185
-137.429	231.331	-0.113	-0.184
-136.414	-200.000	-0.016	-0.208
-135.399	86.353	-0.234	-0.257
-134.385	-200.000	-0.008	0.042
-133.370	-200.000	0.036	0.228
-132.356	-104.925	0.226	-0.052
-131.341	-128.448	-0.233	0.033
-130.326	800.000	0.079	0.218
-129.312	-136.677	-0.099	-0.011
-128.297	-189.860	-0.238	-0.003
-127.283	800.000	-0.111	0.342
-126.268	-92.313	0.395	0.111
-125.253	-74.090	0.153	0.055
-124.239	800.000	-0.066	0.228
-123.224	-200.000	0.035	0.205
-122.210	-115.981	-0.187	0.035
-121.195	-60.656	0.305	0.129
