DTS Sentinel unit serial number:	SN413079Multiplexer serial number:	ORYXHardware model number:	OX4-SRSoftware version number:	ORYX F/W v4.00 Oryx Data Collector v3.7.2.0data status	okinstallation	princeton_trtdifferential loss correction	single-endedforward channel	channel 2reverse channel	N/Adate	2019/09/13time	04:51:35forward acquisition time	60.00reverse acquisition time	0.00gamma	496.2192k internal	0.2336k external	0.2336temperature offset calibration	1.0187default loss term (dB/km)	0.3790temperature slope calibration	1.0000multiplexer offset coefficient	1.0000multiplexer slope coefficient	1.0000fibre end	0.00T internal ref (°C)	26.55T ext. ref 1 (°C)	4.06T ext. ref 2 (°C)	21.02length (m)	temperature (°C)	Stokes	anti-Stokes-747.200	-200.000	-0.047	-0.227
-746.185	-39.278	-0.256	0.135
-745.171	329.164	-0.034	0.065
-744.156	170.611	0.279	0.401
-743.142	-39.598	0.512	0.269
-742.127	293.192	-0.171	0.313
-741.112	355.216	0.126	0.252
-740.098	440.648	-0.103	0.226
-739.083	261.291	-0.040	0.069
-738.069	10.284	0.044	0.034
-737.054	-57.917	-0.296	-0.130
-736.039	121.625	-0.080	0.100
-735.025	-127.987	0.216	-0.031
-734.010	-200.000	-0.046	-0.223
-732.996	-200.000	0.023	-0.276
-731.981	-66.490	0.078	0.031
-730.966	-117.885	-0.214	0.039
-729.952	136.979	-0.054	-0.071
-728.937	116.440	0.023	0.028
-727.923	-200.000	0.019	-0.286
-726.908	390.914	-0.119	-0.249
-725.894	86.231	-0.308	0.341
-724.879	-122.079	-0.304	0.050
-723.864	-110.060	-0.366	0.077
-722.850	374.476	-0.091	-0.186
-721.835	227.296	-0.036	-0.059
-720.821	424.793	0.109	0.235
-719.806	-111.904	-0.283	0.057
-718.791	-200.000	-0.001	-0.053
-717.777	-109.917	0.206	0.043
-716.762	-200.000	0.008	0.043
-715.748	40.268	0.141	0.127
-714.733	125.602	0.030	-0.037
-713.718	-52.665	-0.316	-0.146
-712.704	13.563	-0.237	-0.185
-711.689	-200.000	0.030	-0.196
-710.675	180.516	-0.063	0.092
-709.660	-200.000	0.002	0.364
-708.645	-5.873	0.214	-0.147
-707.631	-115.853	-0.087	0.016
-706.616	-144.738	0.176	-0.016
-705.602	-1.578	-0.158	-0.112
-704.587	18.954	0.205	-0.165
-703.572	229.093	-0.151	-0.247
-702.558	1.998	0.101	-0.073
-701.543	-132.358	-0.186	0.024
-700.529	800.000	0.077	-0.239
-699.514	6.736	0.081	-0.060
-698.499	-30.857	0.171	-0.097
-697.485	295.717	0.124	0.228
-696.470	-18.725	-0.186	-0.116
-695.456	250.244	0.035	-0.059
-694.441	70.276	-0.315	0.327
-693.426	-29.288	0.134	0.077
-692.412	-200.000	-0.033	0.197
-691.397	-5.616	0.120	-0.083
-690.383	741.714	-0.051	0.137
-689.368	-159.171	-0.298	0.017
-688.354	86.138	0.036	-0.040
-687.339	-200.000	0.055	0.501
-686.324	-48.818	-0.098	-0.047
-685.310	701.934	0.152	0.400
-684.295	-200.000	0.015	0.204
-683.281	133.633	0.133	0.172
-682.266	50.673	-0.060	0.057
-681.251	702.360	-0.165	0.436
-680.237	-200.000	-0.026	0.237
-679.222	518.647	0.035	-0.082
-678.208	800.000	-0.063	0.180
-677.193	-114.560	-0.411	-0.079
-676.178	290.750	0.095	-0.173
-675.164	800.000	-0.046	0.130
-674.149	-52.476	-0.130	-0.060
-673.135	800.000	-0.033	0.115
-672.120	-200.000	-0.024	-0.368
-671.105	58.059	0.150	-0.147
-670.091	47.368	-0.159	0.148
-669.076	113.724	0.197	-0.240
-668.062	800.000	0.056	0.188
-667.047	482.846	-0.092	0.210
-666.032	-200.000	0.046	0.308
-665.018	-49.741	-0.147	-0.070
-664.003	800.000	0.079	-0.229
-662.989	132.808	0.270	0.349
-661.974	-200.000	0.007	0.548
-660.959	-200.000	-0.076	-0.372
-659.945	800.000	-0.017	0.070
-658.930	-146.745	0.443	0.038
-657.916	-54.286	-0.182	0.083
-656.901	-162.185	-0.191	0.010
-655.886	-200.000	-0.026	0.154
-654.872	-136.164	0.041	-0.005
-653.857	65.315	-0.078	-0.079
-652.843	-200.000	0.046	0.234
-651.828	-91.285	-0.248	0.071
-650.814	188.654	0.119	-0.178
-649.799	238.173	0.141	-0.234
-648.784	457.711	-0.064	0.143
-647.770	800.000	-0.030	-0.099
-646.755	152.038	-0.195	-0.266
-645.741	4.989	0.219	0.161
-644.726	-200.000	-0.069	0.409
-643.711	63.532	-0.118	0.119
-642.697	87.288	0.187	-0.207
-641.682	-32.765	-0.053	-0.030
-640.668	-200.000	-0.018	-0.112
-639.653	-96.990	-0.188	-0.049
-638.638	-66.711	0.039	-0.016
-637.624	-160.943	0.192	0.010
-636.609	658.382	-0.094	0.242
-635.595	-30.438	0.387	-0.220
-634.580	246.097	-0.178	-0.300
-633.565	49.184	-0.202	0.190
-632.551	625.986	0.084	0.212
-631.536	57.327	-0.122	-0.119
-630.522	16.549	0.048	-0.038
-629.507	106.218	0.113	-0.134
-628.492	451.750	0.017	-0.038
-627.478	-200.000	-0.052	-0.230
-626.463	-10.027	-0.227	0.151
-625.449	-56.971	-0.126	0.056
-624.434	-18.072	0.239	0.150
-623.419	-109.672	0.090	-0.019
-622.405	55.925	0.124	0.120
-621.390	-69.116	-0.137	0.053
-620.376	-136.742	-0.274	0.032
-619.361	-41.167	-0.113	0.058
-618.346	124.837	0.058	-0.073
-617.332	800.000	0.120	0.416
-616.317	-141.606	-0.017	-0.002
-615.303	427.319	-0.083	0.179
-614.288	354.356	-0.193	-0.383
-613.273	-20.763	-0.087	0.054
-612.259	-200.000	0.044	-0.241
-611.244	-200.000	0.042	-0.274
-610.230	-151.514	-0.322	0.024
-609.215	-134.110	0.138	0.017
-608.201	-32.760	0.299	-0.166
-607.186	800.000	-0.103	0.355
-606.171	-200.000	0.226	0.001
-605.157	2.326	-0.172	-0.124
-604.142	62.903	-0.100	-0.100
-603.128	-151.516	-0.198	0.015
-602.113	88.620	-0.237	-0.263
-601.098	-200.000	0.049	-0.488
-600.084	260.115	0.039	-0.068
-599.069	-139.166	-0.369	-0.040
-598.055	-37.677	0.142	0.075
-597.040	-120.296	-0.370	0.063
-596.025	-32.657	-0.378	-0.210
-595.011	-38.731	-0.215	-0.113
-593.996	106.793	0.095	-0.113
-592.982	-185.702	-0.357	-0.005
-591.967	-104.793	-0.211	-0.048
-590.952	800.000	-0.076	-0.296
-589.938	26.139	-0.227	-0.189
-588.923	116.389	-0.154	-0.189
-587.909	-145.016	-0.081	-0.007
-586.894	-23.392	0.177	0.106
-585.879	-76.206	0.152	0.054
-584.865	594.285	0.123	-0.302
-583.850	512.824	0.026	0.061
-582.836	296.087	-0.034	-0.063
-581.821	-133.817	0.235	0.029
-580.806	-26.324	-0.111	-0.065
-579.792	-85.890	0.203	-0.063
-578.777	135.014	-0.044	0.057
-577.763	116.077	0.219	-0.268
-576.748	800.000	-0.072	-0.231
-575.733	416.303	0.154	-0.327
-574.719	213.550	0.126	-0.198
-573.704	-200.000	-0.026	0.127
-572.690	321.340	0.041	0.077
-571.675	-124.935	-0.077	-0.012
-570.661	-38.160	-0.081	-0.043
-569.646	183.107	-0.068	0.100
-568.631	-68.178	0.304	0.118
-567.617	-2.417	0.145	-0.101
-566.602	200.865	-0.150	0.230
-565.588	-82.131	-0.197	-0.064
-564.573	800.000	0.052	-0.158
-563.558	-91.450	0.042	0.012
-562.544	-200.000	0.023	0.253
-561.529	-133.610	-0.352	-0.044
-560.515	109.374	-0.065	-0.077
-559.500	-156.903	-0.205	-0.013
-558.485	-200.000	0.015	0.280
-557.471	61.885	0.035	0.035
-556.456	800.000	-0.037	0.124
-555.442	749.745	-0.051	0.138
-554.427	-1.942	0.163	0.114
-553.412	-1.726	0.111	-0.078
-552.398	75.608	0.124	-0.131
-551.383	-36.859	-0.201	0.107
-550.369	-157.739	-0.203	-0.012
-549.354	610.471	0.114	-0.285
-548.339	243.575	0.140	0.234
-547.325	90.267	0.032	-0.035
-546.310	53.859	0.143	-0.136
-545.296	-155.345	-0.121	-0.008
-544.281	-40.834	-0.032	0.017
-543.266	14.942	0.089	-0.069
-542.252	-199.060	-0.086	-0.000
-541.237	-34.458	0.069	0.038
-540.223	-27.183	-0.312	-0.181
-539.208	-86.878	0.066	0.020
-538.193	-16.695	-0.330	-0.208
-537.179	-28.811	0.063	0.036
-536.164	-187.410	0.212	-0.003
-535.150	0.780	0.223	0.159
-534.135	159.913	0.053	-0.073
-533.121	-41.662	0.071	-0.036
-532.106	-200.000	0.001	-0.384
-531.091	300.017	0.171	-0.315
-530.077	-43.400	0.185	-0.093
-529.062	-130.167	-0.216	0.029
-528.048	-93.314	0.278	-0.077
-527.033	-25.105	-0.206	0.122
-526.018	-110.208	-0.310	-0.064
-525.004	-200.000	0.016	0.260
-523.989	-82.400	-0.042	0.013
-522.975	440.646	-0.001	-0.001
-521.960	-200.000	-0.067	-0.386
-520.945	203.626	0.115	0.177
-519.931	-167.756	0.197	-0.008
-518.916	-57.181	0.424	0.186
-517.902	-54.606	-0.357	0.161
-516.887	-34.632	0.212	-0.115
-515.872	-64.221	-0.357	-0.145
-514.858	540.869	-0.090	-0.214
-513.843	231.164	0.049	0.079
-512.829	19.605	-0.081	0.065
-511.814	-14.761	0.336	0.215
-510.799	800.000	-0.049	0.172
-509.785	222.737	-0.158	0.253
-508.770	125.252	-0.045	-0.057
-507.756	-132.645	-0.184	0.023
-506.741	58.388	0.034	-0.033
-505.726	22.932	0.214	-0.175
-504.712	-23.821	-0.170	0.101
-503.697	-41.597	-0.530	-0.271
-502.683	-200.000	-0.031	-0.222
-501.668	52.241	-0.132	-0.125
-500.653	-124.995	-0.437	0.067
-499.639	-59.679	-0.176	-0.075
-498.624	800.000	-0.087	0.326
-497.610	728.044	0.100	0.265
-496.595	800.000	0.029	0.106
-495.581	409.618	-0.044	-0.092
-494.566	18.597	-0.263	-0.209
-493.551	15.384	-0.064	0.050
-492.537	-92.989	-0.176	0.049
-491.522	375.277	0.037	0.074
-490.508	800.000	0.073	0.249
-489.493	-88.346	0.068	-0.020
-488.478	-200.000	0.033	-0.395
-487.464	152.411	-0.073	0.099
-486.449	139.734	0.144	-0.189
-485.435	-147.524	0.151	-0.013
-484.420	-122.783	0.203	0.033
-483.405	581.719	0.021	0.052
-482.391	-101.458	-0.209	0.051
-481.376	-109.535	-0.118	-0.025
-480.362	-106.612	-0.087	0.019
-479.347	-23.423	0.037	-0.022
-478.332	355.359	-0.008	-0.017
-477.318	-61.550	-0.121	0.051
-476.303	-43.454	0.156	-0.078
-475.289	763.358	0.102	0.276
-474.274	13.540	-0.185	-0.143
-473.259	271.741	-0.179	-0.314
-472.245	11.007	0.210	0.160
-471.230	111.225	0.066	0.079
-470.216	-200.000	-0.009	-0.164
-469.201	409.058	-0.094	0.197
-468.186	609.044	-0.151	-0.373
-467.172	-166.657	0.245	-0.010
-466.157	24.520	-0.239	-0.197
-465.143	-200.000	0.045	0.223
-464.128	-200.000	-0.015	-0.112
-463.113	153.014	0.123	-0.167
-462.099	120.633	-0.151	-0.186
-461.084	800.000	0.013	-0.050
-460.070	-200.000	0.001	0.243
-459.055	-200.000	-0.028	-0.181
-458.040	-140.626	0.370	0.038
-457.026	-127.021	0.193	0.028
-456.011	258.156	-0.010	-0.018
-454.997	-71.862	0.188	0.070
-453.982	182.942	-0.062	0.091
-452.968	-200.000	0.009	0.354
-451.953	-81.927	-0.124	0.040
-450.938	-165.394	-0.300	0.013
-449.924	-40.364	-0.153	0.079
-448.909	370.989	0.132	0.266
-447.895	101.041	-0.060	0.069
-446.880	-72.179	0.330	0.122
-445.865	148.350	0.139	-0.186
-444.851	363.809	-0.153	0.305
-443.836	69.918	0.079	-0.080
-442.822	-77.288	-0.036	-0.012
-441.807	-200.000	0.002	0.175
-440.792	-150.076	0.275	0.021
-439.778	86.011	0.385	-0.420
-438.763	607.113	-0.056	0.139
-437.749	33.706	0.152	-0.131
-436.734	24.136	-0.189	-0.155
-435.719	192.741	0.138	-0.207
-434.705	-200.000	0.007	0.033
-433.690	-141.225	0.302	-0.031
-432.676	-4.109	-0.329	0.226
-431.661	-200.000	0.051	-0.327
-430.646	-94.971	0.173	-0.046
-429.632	6.457	0.220	0.162
-428.617	82.153	-0.302	-0.325
-427.603	-29.196	-0.244	0.139
-426.588	800.000	0.130	-0.364
-425.573	800.000	0.067	-0.259
-424.559	-58.845	0.264	-0.113
-423.544	-159.565	-0.260	0.014
-422.530	57.362	0.349	-0.338
-421.515	-53.818	0.181	0.082
-420.500	800.000	0.082	-0.287
-419.486	339.277	-0.145	-0.280
-418.471	-94.140	0.100	-0.027
-417.457	21.756	-0.293	0.236
-416.442	-50.716	0.221	0.103
-415.428	26.179	0.166	0.137
-414.413	-200.000	0.021	-0.401
-413.398	800.000	0.073	-0.221
-412.384	10.542	-0.173	0.131
-411.369	-62.242	-0.192	0.079
-410.355	-200.000	0.032	0.158
-409.340	38.684	-0.251	-0.222
-408.325	61.616	0.162	-0.159
-407.311	-41.040	-0.237	-0.121
-406.296	-122.327	-0.327	-0.053
-405.282	-92.945	0.199	0.055
-404.267	-88.043	-0.206	-0.061
-403.252	86.249	0.098	0.107
-402.238	-45.645	-0.201	-0.099
-401.223	771.793	-0.074	0.200
-400.209	-140.098	0.161	0.017
-399.194	312.021	-0.043	0.079
-398.179	-107.177	-0.190	0.042
-397.165	-108.479	-0.387	0.082
-396.150	-200.000	-0.004	-0.060
-395.136	-200.000	-0.010	0.112
-394.121	611.436	0.089	0.220
-393.106	800.000	-0.044	0.147
-392.092	376.976	0.084	-0.169
-391.077	-200.000	-0.036	0.246
-390.063	212.955	0.105	0.163
-389.048	47.523	-0.057	-0.052
-388.033	4.533	-0.165	0.120
-387.019	-58.059	0.338	0.146
-386.004	-129.011	0.073	0.010
-384.990	-109.275	0.110	0.023
-383.975	-200.000	-0.072	-0.338
-382.960	-200.000	-0.007	-0.096
-381.946	800.000	-0.035	0.141
-380.931	-200.000	0.015	0.454
-379.917	367.893	-0.175	0.351
-378.902	-200.000	-0.016	-0.343
-377.888	-43.651	-0.092	0.046
-376.873	-107.228	0.336	-0.073
-375.858	-13.866	0.134	0.085
-374.844	-2.902	-0.243	0.168
-373.829	680.962	0.104	-0.267
-372.815	-101.702	0.109	0.026
-371.800	271.476	-0.008	-0.015
-370.785	-20.220	-0.257	-0.157
-369.771	12.397	-0.315	0.241
-368.756	6.685	0.132	0.097
-367.742	-200.000	-0.017	-0.073
-366.727	-200.000	-0.012	0.079
-365.712	-51.568	-0.107	0.049
-364.698	141.375	0.125	-0.164
-363.683	45.022	0.226	0.206
-362.669	14.031	-0.057	0.044
-361.654	169.849	0.280	0.396
-360.639	39.815	0.065	-0.058
-359.625	29.299	0.382	-0.321
-358.610	-48.524	-0.261	-0.124
-357.596	137.803	0.084	0.109
-356.581	461.855	0.031	0.069
-355.566	325.638	0.095	-0.180
-354.552	-4.833	0.269	0.184
-353.537	800.000	0.122	0.353
-352.523	-194.349	0.268	0.002
-351.508	-200.000	-0.037	-0.240
-350.493	49.612	-0.092	0.085
-349.479	99.926	-0.165	0.189
-348.464	800.000	-0.103	-0.354
-347.450	-130.100	0.145	0.020
-346.435	314.826	0.088	0.165
-345.420	-51.238	0.429	0.199
-344.406	125.777	-0.247	-0.308
-343.391	37.387	-0.115	0.101
-342.377	-200.000	0.021	-0.136
-341.362	-174.864	-0.241	-0.007
-340.348	144.134	-0.146	0.193
-339.333	41.791	-0.045	-0.041
-338.318	525.288	0.083	0.192
-337.304	669.159	-0.034	0.087
-336.289	-88.685	0.349	0.103
-335.275	61.153	-0.367	0.360
-334.260	78.445	-0.148	0.156
-333.245	-200.000	-0.056	0.318
-332.231	728.193	0.142	0.374
-331.216	35.498	-0.266	-0.231
-330.202	-84.158	0.541	0.169
-329.187	800.000	0.010	0.034
-328.172	-61.348	-0.517	-0.215
-327.158	554.831	0.124	-0.294
-326.143	197.208	0.101	0.152
-325.129	-95.700	0.085	0.022
-324.114	158.378	0.192	0.263
-323.099	800.000	-0.077	0.263
-322.085	-119.549	-0.199	0.034
-321.070	800.000	0.047	-0.159
-320.056	-32.352	0.433	-0.239
-319.041	-56.424	-0.192	0.084
-318.026	-123.496	-0.009	-0.001
-317.012	470.619	0.092	-0.205
-315.997	233.853	0.200	0.326
-314.983	-200.000	0.037	-0.467
-313.968	-200.000	0.040	-0.248
-312.953	-123.386	-0.140	-0.022
-311.939	181.051	-0.077	0.112
-310.924	212.376	-0.199	0.310
-309.910	-200.000	0.011	-0.358
-308.895	-166.004	0.165	0.007
-307.880	-82.424	0.019	0.006
-306.866	-60.458	0.214	0.090
-305.851	202.619	-0.166	0.254
-304.837	106.728	0.241	-0.282
-303.822	-200.000	-0.007	-0.120
-302.807	-4.053	0.192	0.131
-301.793	-90.054	-0.304	0.088
-300.778	225.762	0.242	-0.387
-299.764	800.000	-0.085	-0.273
-298.749	119.378	0.174	-0.212
-297.735	272.353	0.109	0.190
-296.720	195.506	0.137	0.206
-295.705	-45.730	-0.334	0.163
-294.691	-44.521	-0.226	0.111
-293.676	102.820	-0.015	0.017
-292.662	-72.558	-0.110	-0.040
-291.647	763.094	0.080	0.213
-290.632	-200.000	-0.036	-0.359
-289.618	62.501	0.139	0.137
-288.603	395.533	0.131	-0.269
-287.589	-92.231	0.323	-0.090
-286.574	-46.483	-0.317	0.154
-285.559	-200.000	0.018	0.113
-284.545	-77.747	-0.270	0.092
-283.530	285.594	-0.143	0.254
-282.516	-64.731	0.308	-0.123
-281.501	800.000	-0.102	0.278
-280.486	-40.265	0.077	0.040
-279.472	64.540	-0.131	-0.130
-278.457	-125.266	0.089	0.013
-277.443	-200.000	0.022	-0.134
-276.428	388.866	-0.069	-0.142
-275.413	800.000	0.013	-0.055
-274.399	64.747	-0.130	-0.130
-273.384	-30.990	0.183	-0.102
-272.370	-20.888	0.031	-0.019
-271.355	66.391	0.233	-0.234
-270.340	-200.000	0.007	0.280
-269.326	-200.000	0.027	0.143
-268.311	-200.000	-0.063	0.328
-267.297	426.783	0.077	0.164
-266.282	800.000	0.081	0.330
-265.267	-200.000	-0.055	-0.275
-264.253	436.564	0.179	0.383
-263.238	-94.676	-0.151	-0.040
-262.224	67.577	0.117	-0.118
-261.209	-200.000	-0.007	-0.248
-260.195	800.000	-0.063	0.223
-259.180	-200.000	-0.193	0.000
-258.165	379.989	0.035	0.071
-257.151	733.505	0.105	0.276
-256.136	165.191	-0.215	-0.299
-255.122	182.318	0.186	0.270
-254.107	-61.947	-0.030	-0.012
-253.092	-40.704	0.079	-0.040
-252.078	-61.502	0.316	-0.131
-251.063	304.347	-0.038	-0.070
-250.049	170.234	-0.265	0.373
-249.034	-200.000	-0.040	0.258
-248.019	242.072	-0.048	-0.079
-247.005	-95.948	0.150	0.039
-245.990	-66.586	-0.152	0.059
-244.976	-38.523	-0.138	-0.072
-243.961	-1.872	0.214	-0.148
-242.946	-11.269	-0.122	0.079
-241.932	-187.744	-0.254	-0.003
-240.917	-55.947	0.292	0.128
-239.903	43.077	0.299	0.269
-238.888	56.721	-0.165	-0.159
-237.873	117.347	-0.134	0.162
-236.859	91.098	-0.036	0.040
-235.844	-145.887	0.209	0.018
-234.830	-56.608	-0.323	0.141
-233.815	200.335	-0.297	-0.449
-232.800	800.000	0.103	0.291
-231.786	800.000	0.064	0.272
-230.771	-200.000	0.011	0.126
-229.757	-200.000	-0.030	-0.305
-228.742	-145.743	-0.258	-0.023
-227.727	-11.724	-0.135	0.087
-226.713	-68.903	0.056	-0.021
-225.698	-33.503	0.087	-0.047
-224.684	164.320	0.157	0.217
-223.669	44.968	-0.098	-0.088
-222.655	-105.544	-0.484	0.108
-221.640	800.000	-0.013	0.051
-220.625	-200.000	-0.003	0.163
-219.611	22.302	0.270	0.217
-218.596	-72.453	0.167	0.061
-217.582	-46.120	-0.070	-0.034
-216.567	49.941	-0.056	-0.052
-215.552	-178.227	0.091	-0.002
-214.538	179.409	0.107	-0.154
-213.523	-34.082	0.169	0.091
-212.509	-43.122	-0.214	-0.107
-211.494	-75.863	-0.124	-0.043
-210.479	86.600	-0.213	-0.231
-209.465	421.079	0.048	-0.101
-208.450	241.323	-0.062	0.101
-207.436	800.000	-0.022	0.064
-206.421	-200.000	-0.019	0.100
-205.406	207.600	-0.040	-0.061
-204.392	-20.664	0.072	-0.044
-203.377	-77.377	0.256	0.087
-202.363	-93.775	-0.067	0.018
-201.348	-200.000	0.007	-0.178
-200.333	-30.061	-0.042	-0.023
-199.319	325.231	0.067	0.126
-198.304	800.000	-0.049	0.162
-197.290	109.331	-0.061	-0.071
-196.275	93.616	-0.240	-0.267
-195.260	800.000	0.062	-0.180
-194.246	577.000	0.102	-0.244
-193.231	50.231	0.168	0.156
-192.217	-126.294	0.196	0.029
-191.202	-147.902	-0.221	-0.018
-190.187	-197.235	-0.228	-0.001
-189.173	-200.000	-0.020	0.216
-188.158	-109.049	-0.161	0.034
-187.144	297.047	0.059	0.107
-186.129	88.865	0.141	-0.154
-185.114	-200.000	0.016	-0.127
-184.100	33.527	0.466	0.398
-183.085	-22.674	-0.229	0.136
-182.071	-77.662	0.324	-0.110
-181.056	201.657	-0.130	-0.197
-180.042	-15.053	0.160	0.101
-179.027	-39.933	0.154	-0.079
-178.012	460.513	0.138	0.303
-176.998	800.000	-0.097	0.330
-175.983	-200.000	0.002	0.409
-174.969	-4.467	0.207	0.141
-173.954	-84.510	-0.325	-0.101
-172.939	-126.845	0.395	0.057
-171.925	-200.000	-0.059	-0.283
-170.910	81.786	-0.186	0.198
-169.896	-37.830	0.201	-0.105
-168.881	90.761	0.013	0.014
-167.866	800.000	-0.066	0.244
-166.852	474.521	-0.147	-0.325
-165.837	-37.661	0.382	-0.200
-164.823	-44.524	0.085	0.042
-163.808	434.960	0.155	-0.332
-162.793	-104.012	0.158	-0.036
-161.779	-200.000	-0.010	0.225
-160.764	143.819	0.248	0.324
-159.750	136.996	-0.089	-0.114
-158.735	800.000	-0.046	0.145
-157.720	66.734	-0.147	-0.147
-156.706	-55.791	0.364	-0.160
-155.691	629.721	0.057	-0.142
-154.677	549.242	0.018	0.042
-153.662	-166.668	0.345	-0.014
-152.647	121.380	0.156	-0.191
-151.633	-200.000	-0.022	0.385
-150.618	537.569	0.128	0.298
-149.604	-5.835	0.135	-0.091
-148.589	-200.000	0.064	-0.282
-147.574	163.959	0.193	0.267
-146.560	-21.570	-0.307	0.183
-145.545	-200.000	0.042	0.430
-144.531	571.645	0.084	0.200
-143.516	352.840	-0.115	0.224
-142.502	60.720	-0.015	-0.014
-141.487	173.834	0.120	0.171
-140.472	-200.000	-0.027	-0.224
-139.458	800.000	0.056	-0.225
-138.443	800.000	-0.107	-0.307
-137.429	-81.732	-0.022	-0.007
-136.414	-200.000	0.038	0.347
-135.399	320.056	-0.099	-0.184
-134.385	-111.479	0.324	0.065
-133.370	41.963	0.208	-0.185
-132.356	-182.034	0.306	-0.006
-131.341	-200.000	-0.012	0.085
-130.326	-101.018	-0.301	0.072
-129.312	-24.457	-0.279	-0.163
-128.297	88.331	0.295	0.321
-127.283	-39.903	0.177	0.090
-126.268	92.182	-0.133	0.146
-125.253	69.169	-0.069	-0.070
-124.239	646.796	0.094	0.236
-123.224	-102.265	-0.054	0.013
-122.210	765.264	-0.103	0.275
-121.195	316.817	0.134	0.248
-120.180	7.567	-0.247	0.181
