DTS Sentinel unit serial number:	SN413079Multiplexer serial number:	ORYXHardware model number:	OX4-SRSoftware version number:	ORYX F/W v4.00 Oryx Data Collector v3.7.2.0data status	okinstallation	princeton_trtdifferential loss correction	single-endedforward channel	channel 2reverse channel	N/Adate	2019/09/14time	16:35:35forward acquisition time	60.00reverse acquisition time	0.00gamma	496.2192k internal	0.2307k external	0.2307temperature offset calibration	1.0125default loss term (dB/km)	0.3790temperature slope calibration	1.0000multiplexer offset coefficient	1.0000multiplexer slope coefficient	1.0000fibre end	0.00T internal ref (°C)	38.00T ext. ref 1 (°C)	5.05T ext. ref 2 (°C)	33.97length (m)	temperature (°C)	Stokes	anti-Stokes-747.200	-200.000	-0.002	0.097
-746.185	81.466	0.223	0.245
-745.171	-87.601	-0.076	0.023
-744.156	110.958	-0.116	0.142
-743.142	-137.354	0.481	0.055
-742.127	800.000	-0.138	0.412
-741.112	800.000	0.032	-0.109
-740.098	466.521	-0.071	0.162
-739.083	-56.656	0.201	-0.090
-738.069	112.851	0.258	0.318
-737.054	-38.505	0.164	0.088
-736.039	444.086	-0.255	-0.568
-735.025	-133.253	0.212	-0.027
-734.010	-87.316	-0.202	0.062
-732.996	200.788	-0.177	-0.276
-731.981	106.322	-0.028	0.034
-730.966	607.298	0.060	-0.151
-729.952	296.183	0.177	0.329
-728.937	-82.387	0.133	0.044
-727.923	800.000	-0.084	-0.276
-726.908	319.885	-0.109	-0.209
-725.894	-200.000	-0.046	0.218
-724.879	28.923	-0.153	-0.132
-723.864	-200.000	-0.025	-0.156
-722.850	800.000	-0.173	-0.667
-721.835	-91.314	-0.027	-0.008
-720.821	-131.819	0.211	0.028
-719.806	31.548	-0.069	-0.060
-718.791	800.000	0.086	-0.321
-717.777	-137.541	-0.143	0.016
-716.762	209.573	0.166	-0.264
-715.748	800.000	0.109	0.483
-714.733	-100.559	-0.250	-0.063
-713.718	-141.670	-0.556	-0.057
-712.704	-200.000	0.022	-0.183
-711.689	583.441	0.021	-0.053
-710.675	-200.000	0.059	-0.280
-709.660	170.485	-0.031	0.045
-708.645	800.000	-0.057	-0.248
-707.631	7.490	0.390	-0.296
-706.616	-88.091	-0.156	0.047
-705.602	-56.199	-0.214	-0.097
-704.587	-128.766	0.256	-0.037
-703.572	-200.000	-0.026	-0.176
-702.558	-200.000	-0.019	-0.133
-701.543	296.442	-0.068	-0.127
-700.529	-24.001	-0.050	0.030
-699.514	-54.167	-0.279	0.129
-698.499	102.092	-0.028	-0.034
-697.485	-22.788	-0.201	-0.123
-696.470	725.692	0.105	0.283
-695.456	255.015	-0.154	-0.268
-694.441	-200.000	-0.004	-0.171
-693.426	66.773	0.028	-0.029
-692.412	-200.000	0.062	-0.322
-691.397	292.944	-0.189	-0.350
-690.383	-164.528	0.268	0.012
-689.368	-64.464	-0.472	-0.195
-688.354	800.000	-0.119	-0.334
-687.339	303.229	0.124	-0.234
-686.324	38.886	0.058	0.052
-685.310	-200.000	-0.016	-0.235
-684.295	58.327	0.328	-0.327
-683.281	-6.570	0.052	-0.036
-682.266	-154.983	0.357	0.024
-681.251	-200.000	0.021	0.132
-680.237	126.705	-0.304	0.391
-679.222	341.103	0.044	0.086
-678.208	-200.000	0.024	-0.140
-677.193	272.016	0.131	-0.235
-676.178	769.763	-0.116	-0.321
-675.164	457.460	-0.073	0.164
-674.149	-32.595	0.305	-0.172
-673.135	411.824	-0.161	-0.346
-672.120	85.068	-0.189	0.210
-671.105	-16.899	0.157	-0.101
-670.091	-200.000	-0.063	-0.323
-669.076	68.101	-0.251	0.260
-668.062	174.585	-0.035	0.051
-667.047	-111.500	-0.316	-0.065
-666.032	-101.771	-0.242	0.059
-665.018	111.479	0.084	-0.103
-664.003	-135.754	0.384	-0.046
-662.989	185.316	0.081	0.122
-661.974	65.359	0.209	0.215
-660.959	-200.000	-0.079	-0.544
-659.945	-162.126	-0.330	0.017
-658.930	55.711	-0.013	-0.013
-657.916	800.000	-0.137	-0.408
-656.901	800.000	-0.007	-0.031
-655.886	-14.103	0.388	0.254
-654.872	-200.000	0.002	-0.091
-653.857	281.240	0.176	0.320
-652.843	71.060	-0.171	0.180
-651.828	-141.941	-0.269	0.027
-650.814	313.550	0.089	0.169
-649.799	-103.280	0.232	-0.055
-648.784	12.000	-0.244	-0.190
-647.770	-90.222	-0.288	-0.085
-646.755	-52.484	-0.128	0.060
-645.741	287.505	-0.087	0.158
-644.726	494.541	0.190	-0.443
-643.711	149.706	0.133	-0.182
-642.697	-184.950	0.267	0.004
-641.682	-82.165	-0.282	-0.093
-640.668	55.706	-0.164	-0.161
-639.653	-50.325	0.313	0.150
-638.638	-200.000	-0.004	0.213
-637.624	371.692	0.094	-0.194
-636.609	-200.000	-0.006	0.133
-635.595	28.963	0.160	-0.137
-634.580	83.026	-0.184	0.203
-633.565	-200.000	0.002	-0.249
-632.551	-200.000	0.002	0.390
-631.536	-175.930	-0.181	-0.005
-630.522	136.365	-0.101	0.134
-629.507	46.860	-0.080	-0.075
-628.492	-136.822	-0.197	-0.023
-627.478	569.497	0.006	-0.015
-626.463	-162.958	0.137	-0.007
-625.449	800.000	-0.054	0.178
-624.434	282.955	-0.124	-0.225
-623.419	800.000	0.044	0.154
-622.405	-200.000	-0.011	0.262
-621.390	800.000	-0.039	0.137
-620.376	-55.230	0.282	0.128
-619.361	-9.491	0.166	0.112
-618.346	800.000	0.057	-0.222
-617.332	-200.000	0.063	-0.317
-616.317	322.837	-0.153	0.295
-615.303	-83.947	-0.148	0.048
-614.288	46.244	-0.191	-0.179
-613.273	-46.973	-0.195	0.096
-612.259	-200.000	0.015	-0.134
-611.244	-200.000	-0.042	-0.192
-610.230	82.591	-0.103	-0.113
-609.215	-75.958	-0.137	0.049
-608.201	348.953	0.109	-0.217
-607.186	205.115	-0.122	0.192
-606.171	-200.000	-0.025	0.152
-605.157	-79.879	0.225	-0.076
-604.142	386.777	-0.201	-0.420
-603.128	-62.588	-0.128	0.054
-602.113	-36.315	-0.267	0.146
-601.098	168.627	0.025	0.036
-600.084	34.970	0.024	0.021
-599.069	437.833	-0.039	-0.086
-598.055	244.316	-0.056	-0.095
-597.040	-105.740	-0.387	-0.089
-596.025	448.486	0.100	-0.223
-595.011	68.304	-0.180	-0.187
-593.996	239.983	-0.175	-0.294
-592.982	273.365	0.132	0.236
-591.967	-24.856	0.116	-0.070
-590.952	-165.000	-0.188	0.008
-589.938	800.000	0.046	-0.198
-588.923	29.427	0.088	-0.076
-587.909	64.372	0.088	0.089
-586.894	-125.084	0.101	0.016
-585.879	-200.000	-0.030	-0.202
-584.865	-149.108	-0.493	0.040
-583.850	-71.896	-0.188	-0.071
-582.836	-200.000	0.005	-0.269
-581.821	109.003	-0.089	-0.107
-580.806	-148.203	-0.028	-0.002
-579.792	547.438	0.056	-0.136
-578.777	395.936	-0.094	0.199
-577.763	69.323	-0.154	0.160
-576.748	142.377	0.121	0.163
-575.733	33.983	0.246	0.217
-574.719	350.302	0.033	0.067
-573.704	-49.317	0.227	-0.109
-572.690	-74.222	0.239	-0.087
-571.675	-200.000	0.045	-0.285
-570.661	181.413	-0.023	0.035
-569.646	551.022	0.095	-0.230
-568.631	800.000	0.034	0.106
-567.617	-48.982	0.008	0.004
-566.602	-200.000	0.024	-0.203
-565.588	29.424	0.371	-0.318
-564.573	-200.000	-0.013	-0.162
-563.558	-132.489	0.283	-0.037
-562.544	-6.566	-0.081	-0.056
-561.529	-200.000	-0.020	-0.102
-560.515	450.808	-0.074	0.165
-559.500	-117.450	0.203	0.037
-558.485	-200.000	0.000	-0.030
-557.471	800.000	-0.123	0.355
-556.456	190.879	-0.109	0.165
-555.442	-136.066	0.187	-0.022
-554.427	-200.000	0.001	-0.126
-553.412	-102.742	-0.155	0.037
-552.398	-108.925	-0.125	-0.027
-551.383	291.811	0.061	-0.112
-550.369	800.000	0.044	-0.175
-549.354	-146.475	-0.362	-0.032
-548.339	68.660	0.137	0.142
-547.325	297.873	0.151	-0.279
-546.310	-11.798	-0.115	-0.076
-545.296	-18.837	-0.270	-0.170
-544.281	-18.986	0.159	-0.100
-543.266	469.168	-0.074	0.167
-542.252	800.000	-0.034	0.106
-541.237	262.529	0.133	-0.232
-540.223	800.000	-0.107	-0.308
-539.208	-165.409	0.466	0.021
-538.193	378.895	-0.107	0.222
-537.179	-113.369	0.010	-0.002
-536.164	-200.000	-0.015	-0.314
-535.150	-200.000	0.056	-0.322
-534.135	253.899	-0.188	-0.323
-533.121	-200.000	-0.008	0.250
-532.106	-21.309	0.040	0.024
-531.091	-162.178	-0.101	-0.005
-530.077	800.000	0.024	-0.081
-529.062	-200.000	-0.002	0.085
-528.048	-111.786	0.451	-0.092
-527.033	-200.000	0.019	-0.177
-526.018	-200.000	0.024	-0.130
-525.004	659.761	0.042	-0.109
-523.989	561.885	-0.055	-0.135
-522.975	254.426	-0.090	-0.156
-521.960	42.733	-0.221	-0.203
-520.945	-200.000	-0.012	-0.112
-519.931	23.843	-0.072	-0.060
-518.916	14.426	0.169	-0.133
-517.902	-200.000	0.003	-0.341
-516.887	-22.326	0.186	-0.114
-515.872	-157.158	0.080	0.005
-514.858	796.902	-0.073	-0.202
-513.843	-176.966	0.252	0.006
-512.829	-200.000	0.005	-0.152
-511.814	-111.323	-0.093	0.019
-510.799	-135.245	-0.257	-0.031
-509.785	18.447	-0.193	-0.155
-508.770	-92.339	0.157	-0.045
-507.756	-78.561	0.271	0.093
-506.741	-28.190	0.306	0.178
-505.726	284.246	-0.088	0.159
-504.712	-158.628	-0.370	-0.021
-503.697	-157.881	-0.269	-0.016
-502.683	-84.504	-0.239	-0.076
-501.668	33.371	0.210	0.183
-500.653	-10.556	-0.211	-0.141
-499.639	-200.000	-0.042	-0.550
-498.624	-135.192	-0.051	0.006
-497.610	-200.000	-0.006	0.040
-496.595	800.000	-0.146	-0.455
-495.581	-200.000	0.008	-0.105
-494.566	-66.396	-0.096	0.039
-493.551	-28.453	-0.048	-0.028
-492.537	-143.308	0.274	-0.026
-491.522	-25.541	0.281	0.167
-490.508	27.364	0.164	0.138
-489.493	-96.365	0.338	-0.090
-488.478	-90.904	-0.080	-0.023
-487.464	800.000	-0.044	-0.136
-486.449	-23.540	-0.063	-0.038
-485.435	0.416	-0.114	-0.082
-484.420	-113.421	0.064	-0.013
-483.405	-151.685	-0.475	0.035
-482.391	81.980	-0.144	0.157
-481.376	-49.203	-0.112	-0.054
-480.362	119.566	0.260	-0.324
-479.347	-42.734	-0.297	-0.152
-478.332	-110.861	0.351	0.073
-477.318	-105.469	-0.303	0.069
-476.303	-4.725	0.099	0.069
-475.289	-52.841	0.248	-0.115
-474.274	-200.000	0.055	0.427
-473.259	-51.220	0.381	-0.180
-472.245	-200.000	-0.026	0.255
-471.230	-44.916	0.110	0.055
-470.216	-74.102	-0.174	-0.063
-469.201	-145.634	0.107	0.010
-468.186	36.989	0.193	0.172
-467.172	-200.000	-0.027	0.140
-466.157	-34.622	0.211	-0.116
-465.143	-10.244	0.211	0.141
-464.128	-19.407	-0.345	-0.215
-463.113	205.925	-0.071	-0.110
-462.099	-71.214	0.175	0.066
-461.084	37.100	-0.264	0.235
-460.070	-131.653	0.513	-0.068
-459.055	-65.443	0.193	0.078
-458.040	155.077	0.127	0.175
-457.026	-47.159	-0.151	-0.074
-456.011	-36.382	-0.348	0.188
-454.997	343.264	0.092	-0.181
-453.982	-99.454	0.266	-0.067
-452.968	128.220	-0.047	-0.061
-451.953	191.182	-0.143	-0.217
-450.938	-87.611	0.105	-0.032
-449.924	684.067	-0.127	-0.332
-448.909	-200.000	-0.031	0.307
-447.895	66.354	0.299	0.306
-446.880	-200.000	-0.017	-0.216
-445.865	-83.767	0.287	-0.092
-444.851	63.266	0.270	-0.272
-443.836	-200.000	-0.001	-0.302
-442.822	800.000	-0.040	-0.132
-441.807	29.146	0.160	0.136
-440.792	371.872	0.038	0.078
-439.778	271.717	-0.202	0.357
-438.763	-67.408	-0.478	0.189
-437.749	-36.184	-0.285	0.155
-436.734	71.478	0.226	0.236
-435.719	-130.320	-0.184	0.025
-434.705	-61.400	0.067	-0.028
-433.690	148.080	0.087	-0.118
-432.676	-200.000	0.026	-0.365
-431.661	800.000	-0.074	0.229
-430.646	42.469	-0.054	0.049
-429.632	34.061	-0.197	-0.172
-428.617	-107.421	0.168	-0.037
-427.603	-200.000	0.003	-0.311
-426.588	-71.880	-0.248	-0.093
-425.573	22.157	0.050	0.041
-424.559	-200.000	0.000	0.092
-423.544	-34.024	-0.165	0.091
-422.530	341.355	-0.217	-0.425
-421.515	93.468	-0.068	-0.077
-420.500	91.202	0.077	0.087
-419.486	321.977	-0.072	0.137
-418.471	800.000	-0.043	0.140
-417.457	-66.338	0.240	0.096
-416.442	-70.734	0.056	-0.021
-415.428	-146.374	-0.319	-0.028
-414.413	800.000	-0.056	0.212
-413.398	71.423	-0.147	-0.153
-412.384	800.000	-0.093	0.273
-411.369	800.000	0.019	-0.063
-410.355	-200.000	0.055	0.254
-409.340	718.966	0.029	-0.076
-408.325	-122.357	0.307	0.050
-407.311	-129.845	-0.219	-0.030
-406.296	-200.000	-0.036	0.344
-405.282	-118.014	0.328	-0.059
-404.267	0.154	-0.477	0.341
-403.252	-102.722	-0.157	0.038
-402.238	-141.533	-0.296	0.030
-401.223	795.586	-0.096	-0.266
-400.209	-97.674	-0.089	0.023
-399.194	68.063	-0.164	-0.168
-398.179	103.519	-0.148	-0.174
-397.165	-25.142	0.230	0.137
-396.150	-200.000	0.009	-0.234
-395.136	-104.115	-0.171	-0.040
-394.121	-200.000	-0.007	0.061
-393.106	77.068	-0.144	-0.153
-392.092	166.474	-0.045	0.064
-391.077	-129.971	0.250	0.034
-390.063	800.000	0.121	-0.340
-389.048	-130.614	-0.342	0.046
-388.033	46.609	0.080	0.075
-387.019	51.236	-0.237	0.226
-386.004	91.648	0.225	0.253
-384.990	140.258	0.144	-0.190
-383.975	87.514	0.240	0.267
-382.960	800.000	-0.031	-0.119
-381.946	186.319	0.184	-0.275
-380.931	328.767	-0.101	0.194
-379.917	-90.552	-0.328	-0.095
-378.902	-63.467	0.285	-0.117
-377.888	-200.000	-0.070	-0.578
-376.873	-67.148	0.097	0.038
-375.858	800.000	-0.090	0.352
-374.844	7.913	0.237	-0.178
-373.829	-18.052	-0.099	0.062
-372.815	111.679	0.126	-0.152
-371.800	582.360	-0.093	-0.229
-370.785	345.017	0.071	0.139
-369.771	-173.911	0.156	0.005
-368.756	130.764	-0.164	0.211
-367.742	236.277	-0.101	0.168
-366.727	295.781	0.087	-0.160
-365.712	-49.436	0.127	0.061
-364.698	-65.089	-0.214	-0.086
-363.683	82.352	0.047	0.051
-362.669	560.599	0.093	0.224
-361.654	536.901	0.154	0.367
-360.639	57.552	-0.149	0.146
-359.625	313.856	-0.058	-0.110
-358.610	800.000	-0.100	-0.319
-357.596	128.068	-0.058	0.074
-356.581	-200.000	-0.011	0.207
-355.566	800.000	0.094	0.316
-354.552	-152.421	-0.040	-0.003
-353.537	-24.676	0.213	0.127
-352.523	-13.588	-0.389	-0.252
-351.508	148.027	0.129	-0.174
-350.493	-121.655	0.220	-0.036
-349.479	321.170	0.030	0.058
-348.464	32.324	0.128	-0.111
-347.450	229.286	0.204	-0.334
-346.435	-9.890	-0.224	0.149
-345.420	-200.000	0.010	0.044
-344.406	61.332	-0.152	0.151
-343.391	110.455	-0.135	0.162
-342.377	45.977	0.176	0.163
-341.362	800.000	0.007	0.021
-340.348	-81.607	-0.099	-0.032
-339.333	-38.923	-0.178	-0.094
-338.318	257.263	0.059	0.102
-337.304	26.956	0.220	-0.185
-336.289	-200.000	-0.007	-0.175
-335.275	-28.890	0.126	0.072
-334.260	-128.271	-0.398	0.057
-333.245	-199.749	0.149	0.001
-332.231	-104.630	-0.215	-0.050
-331.216	165.668	0.088	0.125
-330.202	-72.242	-0.362	0.134
-329.187	212.499	0.107	-0.169
-328.172	67.232	0.141	-0.144
-327.158	800.000	-0.096	0.362
-326.143	-133.235	-0.103	-0.013
-325.129	-200.000	-0.001	0.065
-324.114	273.585	-0.165	-0.292
-323.099	338.343	0.186	0.362
-322.085	-51.511	0.134	-0.063
-321.070	-162.728	0.325	0.016
-320.056	-200.000	0.061	0.413
-319.041	-103.447	-0.133	0.031
-318.026	307.788	-0.135	0.253
-317.012	-23.695	0.187	0.112
-315.997	117.071	-0.047	-0.058
-314.983	-200.000	-0.004	0.058
-313.968	92.232	0.068	0.076
-312.953	-38.263	-0.211	0.112
-311.939	-200.000	-0.062	0.345
-310.924	800.000	-0.070	0.206
-309.910	-71.726	0.209	0.078
-308.895	-120.342	0.302	0.051
-307.880	-132.014	0.224	0.029
-306.866	-136.049	-0.082	0.010
-305.851	3.542	0.266	0.194
-304.837	314.117	0.204	-0.383
-303.822	-76.415	0.371	-0.131
-302.807	111.010	0.272	-0.327
-301.793	-200.000	0.051	-0.383
-300.778	532.243	-0.056	-0.133
-299.764	540.780	-0.048	0.113
-298.749	-140.578	0.187	-0.019
-297.735	-84.512	-0.102	-0.032
-296.720	800.000	0.113	0.353
-295.705	-200.000	0.036	-0.200
-294.691	-200.000	0.037	-0.167
-293.676	-200.000	0.043	0.196
-292.662	-200.000	0.023	0.112
-291.647	800.000	0.146	0.459
-290.632	137.599	0.153	0.201
-289.618	75.705	-0.059	0.062
-288.603	139.245	-0.136	0.178
-287.589	-49.946	0.027	-0.013
-286.574	165.160	0.135	-0.191
-285.559	-83.340	-0.195	0.062
-284.545	-55.694	-0.214	-0.096
-283.530	-114.179	-0.242	-0.047
-282.516	50.761	0.261	-0.247
-281.501	94.890	-0.075	-0.085
-280.486	185.248	-0.170	-0.252
-279.472	-114.805	0.354	-0.067
-278.457	-142.854	0.289	0.028
-277.443	-200.000	0.041	-0.279
-276.428	598.033	-0.092	-0.229
-275.413	-118.879	0.374	-0.066
-274.399	127.364	-0.282	0.357
-273.384	388.054	0.163	0.336
-272.370	116.605	-0.159	-0.195
-271.355	-173.380	0.070	-0.002
-270.340	-131.219	-0.438	-0.058
-269.326	416.651	0.067	-0.144
-268.311	180.596	0.119	0.174
-267.297	7.329	-0.245	0.183
-266.282	-200.000	0.026	0.331
-265.267	-200.000	-0.071	0.377
-264.253	431.254	-0.110	0.238
-263.238	-132.326	0.121	0.016
-262.224	623.558	-0.096	0.243
-261.209	501.410	-0.114	0.263
-260.195	136.482	-0.010	0.012
-259.180	-87.457	-0.245	-0.074
-258.165	-200.000	-0.037	0.246
-257.151	-200.000	0.011	0.153
-256.136	-70.664	0.284	-0.107
-255.122	370.991	-0.109	0.220
-254.107	31.867	0.032	-0.028
-253.092	800.000	0.022	-0.090
-252.078	-6.344	-0.303	-0.206
-251.063	-62.988	0.116	0.048
-250.049	-61.204	0.039	-0.016
-249.034	-86.164	-0.288	-0.089
-248.019	-140.350	0.084	0.009
-247.005	800.000	0.045	-0.195
-245.990	479.883	0.139	-0.314
-244.976	-7.192	-0.155	-0.105
-243.961	44.660	0.101	-0.093
-242.946	-200.000	0.017	0.153
-241.932	283.675	-0.107	-0.191
-240.917	-8.021	0.267	0.180
-239.903	-101.431	-0.261	0.063
-238.888	29.942	0.119	0.101
-237.873	-124.899	0.391	0.060
-236.859	50.557	0.015	-0.014
-235.844	800.000	0.048	0.192
-234.830	-94.861	0.281	-0.076
-233.815	387.598	-0.124	0.256
-232.800	-81.056	0.071	0.023
-231.786	651.373	-0.027	0.068
-230.771	-200.000	-0.033	0.362
-229.757	-19.114	-0.114	-0.071
-228.742	179.940	0.071	0.104
-227.727	-92.856	-0.286	0.080
-226.713	27.357	0.200	-0.167
-225.698	41.545	0.093	0.084
-224.684	125.008	0.120	-0.150
-223.669	-200.000	-0.025	-0.111
-222.655	-200.000	-0.012	0.097
-221.640	164.062	0.158	-0.222
-220.625	-200.000	-0.087	-0.439
-219.611	691.081	0.143	-0.373
-218.596	800.000	-0.117	0.419
-217.582	790.867	0.149	0.408
-216.567	800.000	-0.049	0.154
-215.552	247.328	-0.163	-0.274
-214.538	-200.000	-0.015	0.158
-213.523	-200.000	-0.063	0.438
-212.509	80.177	0.251	0.269
-211.494	81.501	-0.117	0.126
-210.479	58.252	0.183	0.179
-209.465	93.021	0.039	-0.043
-208.450	-200.000	0.008	-0.158
-207.436	800.000	0.055	0.154
-206.421	644.313	0.089	0.225
-205.406	-157.861	0.277	-0.016
-204.392	-35.087	-0.128	-0.070
-203.377	247.187	0.198	-0.332
-202.363	-30.026	-0.222	0.126
-201.348	-76.842	0.079	0.028
-200.333	269.809	0.209	0.365
-199.319	800.000	0.059	0.213
-198.304	38.052	0.155	-0.137
-197.290	-7.592	-0.327	-0.220
-196.275	-200.000	-0.039	-0.349
-195.260	-61.831	0.257	0.107
-194.246	779.966	0.082	0.222
-193.231	72.813	-0.330	0.342
-192.217	-54.905	0.269	-0.121
-191.202	81.159	-0.052	-0.056
-190.187	-200.000	-0.037	0.542
-189.173	-71.990	-0.254	0.094
-188.158	618.550	-0.076	0.189
-187.144	-112.068	-0.234	-0.047
-186.129	172.544	-0.093	-0.133
-185.114	-62.063	-0.302	-0.125
-184.100	-46.946	0.136	-0.066
-183.085	15.205	-0.054	0.042
-182.071	-200.000	0.026	0.168
-181.056	119.399	0.275	-0.339
-180.042	800.000	0.037	0.126
-179.027	195.672	0.055	0.083
-178.012	-200.000	-0.025	-0.243
-176.998	-200.000	-0.059	-0.305
-175.983	95.139	-0.143	0.162
-174.969	-8.979	0.103	0.068
-173.954	-64.977	0.342	0.137
-172.939	-47.224	0.195	-0.094
-171.925	111.234	-0.142	0.170
-170.910	291.531	-0.132	0.238
-169.896	41.192	-0.072	0.065
-168.881	-88.785	0.232	-0.069
-167.866	-67.057	-0.137	0.054
-166.852	157.773	-0.115	0.159
-165.837	227.314	0.146	0.236
-164.823	-65.664	0.257	-0.102
-163.808	-153.880	-0.173	-0.012
-162.793	411.203	-0.145	0.307
-161.779	-31.019	-0.267	-0.150
-160.764	414.189	-0.017	0.035
-159.750	77.837	-0.188	0.199
-158.735	-56.886	0.350	0.153
-157.720	242.480	-0.138	0.230
-156.706	103.831	-0.106	0.124
-155.691	-168.353	-0.242	-0.009
-154.677	800.000	-0.086	0.351
-153.662	110.101	0.111	-0.133
-152.647	157.790	0.031	0.042
-151.633	-200.000	-0.039	-0.265
-150.618	-74.107	-0.196	-0.071
-149.604	-23.338	-0.128	0.076
-148.589	-6.435	0.221	0.150
-147.574	-200.000	-0.069	0.414
-146.560	108.480	0.136	0.162
-145.545	93.607	-0.071	0.080
-144.531	-200.000	-0.011	-0.155
-143.516	-200.000	0.019	-0.104
-142.502	6.228	0.130	-0.096
-141.487	206.196	0.085	0.132
-140.472	-38.241	-0.317	-0.167
-139.458	297.070	0.047	-0.085
-138.443	800.000	0.082	-0.230
-137.429	49.651	0.163	-0.152
-136.414	-200.000	0.079	-0.491
-135.399	-200.000	0.026	0.192
-134.385	-7.697	-0.071	0.047
-133.370	-32.596	0.062	0.034
-132.356	164.571	-0.105	0.147
-131.341	-200.000	-0.006	-0.048
-130.326	-63.968	-0.085	0.034
-129.312	-100.314	-0.377	0.093
-128.297	-135.232	-0.475	-0.057
-127.283	-200.000	0.018	0.275
-126.268	18.390	0.108	0.086
-125.253	-78.893	0.375	-0.127
-124.239	121.534	-0.097	-0.120
-123.224	-2.047	0.071	-0.049
-122.210	61.686	0.165	-0.163
