DTS Sentinel unit serial number:	SN413079Multiplexer serial number:	ORYXHardware model number:	OX4-SRSoftware version number:	ORYX F/W v4.00 Oryx Data Collector v3.7.2.0data status	okinstallation	princeton_trtdifferential loss correction	single-endedforward channel	channel 2reverse channel	N/Adate	2019/09/16time	14:43:34forward acquisition time	60.00reverse acquisition time	0.00gamma	496.2192k internal	0.2298k external	0.2298temperature offset calibration	0.9941default loss term (dB/km)	0.3790temperature slope calibration	1.0000multiplexer offset coefficient	1.0000multiplexer slope coefficient	1.0000fibre end	0.00T internal ref (°C)	41.58T ext. ref 1 (°C)	14.34T ext. ref 2 (°C)	35.80length (m)	temperature (°C)	Stokes	anti-Stokes-747.200	362.917	0.104	0.214
-746.185	574.225	0.138	0.343
-745.171	162.407	-0.061	-0.088
-744.156	216.909	-0.294	0.478
-743.142	397.672	-0.106	0.226
-742.127	246.200	0.222	0.383
-741.112	800.000	0.067	-0.274
-740.098	-163.067	0.512	0.025
-739.083	-67.096	-0.177	-0.071
-738.069	-200.000	-0.001	0.014
-737.054	-92.036	-0.378	-0.109
-736.039	153.253	-0.045	-0.063
-735.025	47.539	0.297	0.283
-734.010	-200.000	-0.038	0.227
-732.996	-200.000	-0.028	-0.274
-731.981	-42.501	0.225	0.117
-730.966	-200.000	0.006	0.074
-729.952	370.103	0.134	0.277
-728.937	-135.350	-0.422	-0.052
-727.923	-200.000	0.026	-0.299
-726.908	62.304	-0.193	0.197
-725.894	-47.390	-0.042	-0.021
-724.879	-135.072	0.182	-0.022
-723.864	800.000	0.096	0.314
-722.850	300.491	-0.022	-0.041
-721.835	5.021	-0.112	0.084
-720.821	-60.850	-0.117	0.050
-719.806	800.000	0.023	0.098
-718.791	800.000	0.024	0.077
-717.777	-115.769	-0.133	-0.025
-716.762	-180.336	0.282	-0.006
-715.748	123.192	-0.225	0.288
-714.733	-82.952	-0.648	0.213
-713.718	-57.804	0.035	-0.016
-712.704	-103.837	0.104	0.025
-711.689	689.130	0.021	0.057
-710.675	-186.464	-0.280	0.004
-709.660	-84.753	-0.221	-0.071
-708.645	273.730	0.083	-0.150
-707.631	800.000	-0.100	0.404
-706.616	-68.092	-0.252	0.100
-705.602	336.697	-0.019	-0.038
-704.587	-106.302	-0.205	0.047
-703.572	89.923	0.097	-0.110
-702.558	-68.371	-0.076	-0.030
-701.543	64.687	-0.143	-0.147
-700.529	-200.000	0.026	-0.130
-699.514	237.357	0.170	-0.287
-698.499	-93.668	-0.074	0.021
-697.485	-89.049	0.215	-0.065
-696.470	800.000	-0.032	0.119
-695.456	-200.000	-0.023	-0.291
-694.441	-163.399	-0.304	0.015
-693.426	-1.907	-0.204	-0.146
-692.412	-109.768	0.027	0.006
-691.397	-75.650	0.348	0.126
-690.383	-32.148	0.184	-0.105
-689.368	661.145	0.030	-0.079
-688.354	-96.369	-0.263	0.071
-687.339	376.095	0.156	-0.323
-686.324	800.000	-0.115	-0.385
-685.310	-200.000	0.029	-0.283
-684.295	-200.000	-0.007	0.091
-683.281	-200.000	-0.030	0.464
-682.266	-57.172	-0.152	0.068
-681.251	-19.456	-0.239	0.151
-680.237	59.053	-0.154	0.154
-679.222	800.000	-0.015	-0.044
-678.208	800.000	0.066	-0.239
-677.193	-37.011	-0.131	0.071
-676.178	217.955	0.271	-0.439
-675.164	-106.740	-0.242	-0.055
-674.149	50.896	-0.114	0.109
-673.135	800.000	0.049	-0.179
-672.120	178.873	-0.129	0.192
-671.105	-200.000	0.252	0.000
-670.091	43.557	0.071	0.066
-669.076	-39.480	-0.137	0.073
-668.062	-90.143	-0.478	-0.142
-667.047	43.712	0.282	0.262
-666.032	-200.000	-0.052	0.253
-665.018	201.190	-0.075	0.117
-664.003	-200.000	0.005	-0.130
-662.989	133.427	0.086	0.114
-661.974	-22.666	0.344	0.212
-660.959	363.151	0.136	0.278
-659.945	-200.000	0.021	0.388
-658.930	681.612	0.112	-0.297
-657.916	123.223	0.115	-0.147
-656.901	182.147	0.116	0.174
-655.886	-116.292	0.214	-0.040
-654.872	-44.103	0.078	-0.040
-653.857	231.151	0.148	-0.247
-652.843	800.000	0.042	-0.186
-651.828	800.000	-0.130	-0.496
-650.814	168.122	-0.045	0.065
-649.799	-200.000	0.003	0.103
-648.784	-200.000	-0.033	-0.305
-647.770	214.387	-0.069	0.111
-646.755	-0.440	0.047	0.034
-645.741	98.488	0.149	0.174
-644.726	65.321	0.112	-0.115
-643.711	-35.945	0.066	-0.036
-642.697	214.465	-0.252	0.405
-641.682	800.000	-0.048	-0.192
-640.668	-200.000	-0.001	0.155
-639.653	-131.608	0.198	-0.026
-638.638	37.360	-0.089	0.081
-637.624	-161.283	-0.330	-0.017
-636.609	23.523	-0.076	0.063
-635.595	-65.154	-0.103	0.042
-634.580	71.708	0.037	0.039
-633.565	-131.149	-0.059	-0.008
-632.551	307.916	0.037	-0.070
-631.536	43.441	0.382	-0.355
-630.522	800.000	-0.062	-0.177
-629.507	70.685	-0.332	-0.349
-628.492	-90.088	0.099	0.029
-627.478	704.356	-0.038	0.101
-626.463	174.038	0.066	0.097
-625.449	-148.187	-0.209	0.018
-624.434	-43.896	0.115	-0.059
-623.419	242.346	-0.239	-0.407
-622.405	1.301	0.259	-0.189
-621.390	105.457	-0.089	-0.107
-620.376	16.989	-0.193	-0.155
-619.361	109.909	0.061	0.074
-618.346	-79.533	-0.241	0.083
-617.332	182.533	-0.181	0.271
-616.317	800.000	-0.096	0.387
-615.303	-200.000	0.004	-0.158
-614.288	156.270	-0.143	-0.200
-613.273	456.919	-0.077	-0.175
-612.259	-156.557	-0.300	-0.019
-611.244	180.983	0.310	-0.462
-610.230	409.811	-0.166	-0.358
-609.215	-15.106	-0.272	0.177
-608.201	182.526	0.044	0.066
-607.186	-70.965	0.133	0.051
-606.171	-200.000	-0.040	0.215
-605.157	800.000	-0.059	-0.187
-604.142	66.946	-0.089	0.092
-603.128	720.952	-0.052	-0.139
-602.113	-24.001	0.127	-0.077
-601.098	250.688	0.115	-0.199
-600.084	800.000	-0.110	0.364
-599.069	-179.989	0.031	0.001
-598.055	-102.856	0.210	-0.051
-597.040	154.837	-0.146	-0.204
-596.025	800.000	-0.054	-0.226
-595.011	-200.000	-0.025	-0.128
-593.996	-36.858	-0.054	0.030
-592.982	-174.711	-0.302	-0.009
-591.967	-200.000	0.015	-0.191
-590.952	-152.041	0.234	-0.017
-589.938	-16.337	-0.218	0.140
-588.923	290.566	-0.176	-0.325
-587.909	-70.661	0.384	-0.147
-586.894	-67.321	0.041	0.017
-585.879	-16.505	-0.270	-0.174
-584.865	-88.651	0.300	0.091
-583.850	-116.130	-0.285	0.054
-582.836	14.742	0.256	-0.203
-581.821	51.596	0.210	-0.203
-580.806	3.975	-0.278	0.206
-579.792	-122.766	-0.099	-0.016
-578.777	-102.006	-0.367	-0.090
-577.763	-124.812	0.260	0.041
-576.748	246.860	-0.087	0.149
-575.733	-133.259	-0.355	0.045
-574.719	353.481	-0.085	-0.171
-573.704	368.676	-0.139	0.284
-572.690	17.163	-0.302	-0.242
-571.675	-135.718	0.291	-0.035
-570.661	-46.274	-0.250	0.124
-569.646	306.238	0.254	0.480
-568.631	-81.069	0.024	0.008
-567.617	592.496	-0.069	-0.172
-566.602	106.776	0.174	-0.209
-565.588	-11.897	-0.080	-0.054
-564.573	-76.647	0.292	0.104
-563.558	-121.344	0.269	-0.045
-562.544	-12.704	0.310	0.205
-561.529	-89.678	-0.381	-0.113
-560.515	-200.000	0.015	-0.177
-559.500	110.766	-0.111	-0.135
-558.485	-70.056	-0.105	0.041
-557.471	109.259	-0.168	-0.204
-556.456	8.643	0.144	0.110
-555.442	2.009	0.171	-0.125
-554.427	-200.000	0.023	0.235
-553.412	3.405	0.252	-0.186
-552.398	-200.000	0.013	-0.113
-551.383	41.962	-0.037	-0.034
-550.369	-200.000	0.040	-0.191
-549.354	-59.439	-0.074	0.032
-548.339	-171.238	0.141	0.005
-547.325	-200.000	-0.009	0.087
-546.310	-89.487	-0.366	-0.109
-545.296	388.638	-0.103	-0.216
-544.281	-200.000	0.074	0.330
-543.266	-133.203	-0.285	0.037
-542.252	529.203	0.068	-0.164
-541.237	-62.949	-0.145	0.061
-540.223	-50.962	-0.199	0.095
-539.208	195.125	0.177	0.272
-538.193	299.844	-0.054	0.101
-537.179	-200.000	-0.041	-0.353
-536.164	7.929	-0.126	-0.095
-535.150	-83.904	0.233	0.075
-534.135	-113.373	0.235	-0.047
-533.121	-51.731	-0.153	-0.072
-532.106	53.643	0.084	0.082
-531.091	121.142	-0.086	-0.108
-530.077	-18.448	-0.249	0.158
-529.062	-92.393	0.263	-0.075
-528.048	64.139	0.135	-0.138
-527.033	75.561	-0.078	-0.083
-526.018	-131.292	-0.064	0.009
-525.004	-20.166	-0.068	0.042
-523.989	83.129	-0.012	-0.013
-522.975	-58.390	0.200	0.088
-521.960	-200.000	0.039	-0.320
-520.945	120.068	-0.114	-0.143
-519.931	-200.000	-0.042	0.000
-518.916	800.000	0.086	0.310
-517.902	-143.099	-0.142	0.014
-516.887	-200.000	-0.017	-0.132
-515.872	-161.429	-0.322	-0.017
-514.858	-53.144	-0.146	0.068
-513.843	-182.704	-0.327	0.006
-512.829	-108.804	0.086	-0.019
-511.814	78.056	0.283	-0.305
-510.799	-36.921	0.257	-0.139
-509.785	-151.958	0.268	0.020
-508.770	-16.726	-0.200	0.128
-507.756	-111.223	0.147	0.030
-506.741	94.441	-0.268	0.308
-505.726	-116.131	0.207	0.039
-504.712	-53.868	-0.172	-0.079
-503.697	28.862	-0.102	-0.087
-502.683	-200.000	-0.030	0.221
-501.668	-200.000	0.010	0.055
-500.653	-29.526	0.175	0.101
-499.639	475.702	0.066	-0.151
-498.624	80.368	0.065	0.071
-497.610	-84.974	0.317	0.100
-496.595	-76.071	0.187	-0.067
-495.581	77.997	-0.076	0.082
-494.566	-106.077	-0.144	-0.033
-493.551	-39.949	-0.238	0.126
-492.537	800.000	0.085	-0.299
-491.522	-35.922	0.190	-0.104
-490.508	-200.000	-0.013	-0.364
-489.493	-137.263	-0.168	-0.019
-488.478	24.866	0.213	-0.178
-487.464	-200.000	-0.018	0.142
-486.449	-200.000	-0.033	-0.241
-485.435	-200.000	0.002	-0.037
-484.420	-200.000	-0.013	0.298
-483.405	97.259	-0.064	-0.074
-482.391	429.110	-0.089	-0.194
-481.376	438.964	-0.031	0.068
-480.362	437.788	0.081	-0.177
-479.347	-142.145	0.206	0.021
-478.332	39.112	-0.136	0.123
-477.318	308.057	-0.043	0.081
-476.303	-187.624	-0.297	-0.004
-475.289	134.902	0.080	-0.105
-474.274	800.000	0.028	0.107
-473.259	124.456	-0.134	0.170
-472.245	3.829	-0.078	0.057
-471.230	800.000	0.052	-0.223
-470.216	118.488	0.151	-0.188
-469.201	-62.773	0.227	0.095
-468.186	91.916	-0.194	0.220
-467.172	37.722	-0.096	-0.086
-466.157	800.000	-0.029	0.094
-465.143	75.400	-0.337	0.359
-464.128	455.033	-0.137	0.306
-463.113	-74.571	-0.162	0.059
-462.099	-12.428	0.293	-0.193
-461.084	-200.000	-0.008	0.114
-460.070	150.424	0.107	-0.147
-459.055	-10.801	0.188	0.126
-458.040	800.000	0.039	-0.154
-457.026	-12.802	0.151	-0.099
-456.011	-67.154	0.230	0.091
-454.997	261.983	0.108	0.188
-453.982	-49.734	0.466	-0.224
-452.968	-29.809	0.364	0.209
-451.953	800.000	-0.042	0.132
-450.938	-80.540	-0.262	-0.088
-449.924	710.444	0.077	0.206
-448.909	-200.000	-0.001	-0.354
-447.895	800.000	-0.068	0.302
-446.880	107.846	0.149	0.179
-445.865	-46.707	-0.018	0.009
-444.851	-200.000	-0.001	-0.267
-443.836	118.932	-0.043	-0.053
-442.822	-136.414	0.066	0.008
-441.807	50.744	0.088	-0.084
-440.792	300.529	-0.050	0.093
-439.778	-87.987	0.227	-0.069
-438.763	-89.976	-0.269	-0.079
-437.749	128.238	0.037	0.047
-436.734	650.040	-0.070	0.181
-435.719	155.313	-0.204	-0.284
-434.705	-63.886	0.112	-0.046
-433.690	174.246	0.178	0.259
-432.676	16.969	0.156	-0.125
-431.661	-67.098	0.280	0.111
-430.646	86.336	0.164	0.182
-429.632	-95.309	-0.226	0.061
-428.617	-200.000	-0.041	0.228
-427.603	800.000	-0.049	0.143
-426.588	401.133	-0.050	-0.106
-425.573	-200.000	-0.040	-0.190
-424.559	-127.463	0.235	-0.034
-423.544	278.578	-0.099	-0.178
-422.530	-91.017	-0.189	0.055
-421.515	66.592	-0.138	0.141
-420.500	525.099	-0.066	0.156
-419.486	118.868	-0.228	0.285
-418.471	293.330	0.130	0.238
-417.457	764.263	0.040	-0.110
-416.442	-60.078	0.345	0.148
-415.428	-11.234	0.078	0.052
-414.413	749.403	0.122	0.330
-413.398	-200.000	-0.030	0.136
-412.384	-183.023	-0.252	-0.005
-411.369	-135.544	-0.136	0.016
-410.355	-200.000	-0.032	0.280
-409.340	-152.854	-0.355	-0.025
-408.325	800.000	0.028	-0.111
-407.311	209.135	0.090	0.142
-406.296	-77.832	0.446	0.155
-405.282	-152.191	-0.142	-0.010
-404.267	74.894	0.197	-0.209
-403.252	-53.565	0.251	0.116
-402.238	-61.239	-0.176	0.075
-401.223	-200.000	-0.025	-0.119
-400.209	13.392	0.095	-0.074
-399.194	-12.288	0.148	-0.097
-398.179	-200.000	-0.045	0.247
-397.165	166.554	0.111	-0.158
-396.150	-200.000	-0.002	-0.011
-395.136	148.108	0.016	0.022
-394.121	75.720	-0.090	-0.096
-393.106	-56.802	-0.163	0.073
-392.092	43.225	-0.421	0.387
-391.077	-52.983	0.165	0.077
-390.063	-5.665	-0.397	0.274
-389.048	-77.626	0.207	0.072
-388.033	-52.492	-0.317	0.148
-387.019	-105.359	-0.007	0.002
-386.004	-200.000	-0.033	-0.157
-384.990	-200.000	-0.010	-0.048
-383.975	-200.000	-0.018	0.093
-382.960	-200.000	-0.026	0.273
-381.946	-112.013	-0.052	-0.011
-380.931	257.808	-0.072	0.124
-379.917	341.423	-0.065	-0.128
-378.902	-151.840	0.167	0.012
-377.888	-200.000	-0.016	-0.221
-376.873	-147.341	0.304	0.026
-375.858	-70.622	0.501	-0.191
-374.844	-114.075	0.294	0.057
-373.829	499.154	0.093	-0.215
-372.815	141.935	-0.122	-0.163
-371.800	-72.586	0.120	0.044
-370.785	128.990	0.249	0.320
-369.771	-200.000	0.007	-0.229
-368.756	-28.957	0.101	0.058
-367.742	21.868	0.254	0.209
-366.727	-109.040	0.371	-0.079
-365.712	9.098	-0.492	-0.374
-364.698	800.000	-0.142	0.458
-363.683	-62.035	-0.163	0.068
-362.669	140.845	0.115	-0.153
-361.654	-159.802	-0.221	0.012
-360.639	145.795	0.075	-0.101
-359.625	-54.838	0.080	0.036
-358.610	115.151	0.249	-0.306
-357.596	-200.000	0.015	-0.235
-356.581	-6.411	-0.335	-0.230
-355.566	-200.000	0.015	-0.210
-354.552	-109.230	0.079	-0.017
-353.537	7.490	0.199	0.150
-352.523	253.683	0.224	0.385
-351.508	659.577	0.043	0.111
-350.493	800.000	0.070	0.253
-349.479	65.075	0.038	0.039
-348.464	15.182	-0.093	-0.073
-347.450	-74.098	0.326	-0.119
-346.435	800.000	0.046	-0.182
-345.420	314.399	0.154	-0.291
-344.406	800.000	-0.088	0.261
-343.391	121.257	0.167	0.209
-342.377	800.000	-0.032	0.093
-341.362	-200.000	0.021	0.332
-340.348	-200.000	-0.034	0.364
-339.333	540.340	0.146	-0.350
-338.318	-200.000	-0.010	0.050
-337.304	-200.000	-0.035	0.169
-336.289	-53.651	0.311	-0.143
-335.275	210.069	0.137	-0.216
-334.260	40.462	-0.243	-0.219
-333.245	451.863	0.146	-0.325
-332.231	-91.481	0.095	-0.027
-331.216	-22.779	0.073	0.044
-330.202	-123.569	0.244	0.039
-329.187	193.336	-0.114	0.173
-328.172	358.679	-0.104	0.208
-327.158	88.386	0.229	0.255
-326.143	800.000	-0.057	-0.165
-325.129	-22.994	-0.176	0.107
-324.114	156.221	-0.082	0.114
-323.099	-189.792	-0.188	-0.002
-322.085	-200.000	0.027	-0.123
-321.070	-200.000	0.032	-0.414
-320.056	-12.662	0.209	-0.137
-319.041	0.611	-0.088	0.063
-318.026	294.884	0.155	0.284
-317.012	-34.082	-0.056	-0.031
-315.997	-29.066	-0.360	0.208
-314.983	14.787	-0.009	0.007
-313.968	-110.698	0.187	0.039
-312.953	732.238	0.090	0.243
-311.939	463.631	-0.160	0.358
-310.924	-70.415	-0.271	-0.103
-309.910	-29.453	-0.080	-0.046
-308.895	-86.080	0.188	-0.058
-307.880	-112.803	0.147	-0.029
-306.866	270.540	0.057	0.101
-305.851	-153.097	0.190	0.013
-304.837	-127.325	-0.073	0.011
-303.822	110.233	0.169	0.204
-302.807	4.557	-0.064	0.047
-301.793	-117.386	-0.192	-0.035
-300.778	-101.243	-0.296	0.073
-299.764	-62.219	-0.146	-0.061
-298.749	-57.132	-0.140	-0.062
-297.735	-200.000	-0.010	0.136
-296.720	-13.026	0.207	0.135
-295.705	310.319	0.166	0.311
-294.691	-79.271	0.238	0.081
-293.676	214.450	-0.075	0.120
-292.662	-200.000	-0.013	0.184
-291.647	80.992	0.248	0.268
-290.632	263.862	0.217	0.379
-289.618	60.437	0.085	0.084
-288.603	23.173	0.101	0.083
-287.589	-33.495	-0.086	-0.048
-286.574	49.515	-0.119	0.112
-285.559	-30.030	0.337	-0.192
-284.545	800.000	0.066	0.210
-283.530	280.805	-0.070	-0.125
-282.516	-22.634	0.137	0.083
-281.501	-79.627	-0.484	-0.164
-280.486	-96.574	-0.135	-0.036
-279.472	-82.792	0.068	-0.022
-278.457	800.000	0.033	-0.122
-277.443	-200.000	-0.033	-0.182
-276.428	800.000	-0.024	0.092
-275.413	-45.400	-0.137	0.068
-274.399	-37.322	0.205	0.110
-273.384	245.698	0.081	-0.136
-272.370	52.169	0.339	-0.324
-271.355	-50.743	-0.203	0.096
-270.340	86.993	-0.172	0.190
-269.326	208.114	0.212	-0.333
-268.311	526.082	-0.165	0.389
-267.297	-176.443	0.241	0.006
-266.282	-52.746	-0.269	-0.124
-265.267	31.904	0.151	-0.130
-264.253	-90.643	-0.459	-0.133
-263.238	418.502	-0.073	0.156
-262.224	410.975	0.191	0.406
-261.209	800.000	0.094	0.283
-260.195	238.295	0.223	-0.371
-259.180	-200.000	-0.010	-0.080
-258.165	-90.432	0.116	-0.034
-257.151	-159.804	0.197	0.011
-256.136	-200.000	-0.089	-0.413
-255.122	-200.000	-0.041	-0.264
-254.107	145.962	-0.093	0.125
-253.092	-143.685	-0.176	-0.017
-252.078	-114.914	0.297	-0.057
-251.063	-200.000	-0.074	0.340
-250.049	462.101	-0.103	-0.230
-249.034	800.000	0.082	-0.296
-248.019	458.676	0.126	0.281
-247.005	-103.160	-0.274	-0.065
-245.990	800.000	-0.051	0.200
-244.976	-153.550	0.225	0.016
-243.961	-10.810	-0.224	0.148
-242.946	-108.334	0.257	-0.055
-241.932	-125.151	-0.134	-0.021
-240.917	-23.397	-0.363	-0.218
-239.903	-200.000	0.014	-0.149
-238.888	50.474	-0.191	-0.181
-237.873	362.773	-0.022	-0.045
-236.859	316.860	-0.069	0.130
-235.844	-200.000	-0.010	0.237
-234.830	47.502	-0.090	0.084
-233.815	-200.000	-0.008	0.266
-232.800	92.825	-0.021	0.024
-231.786	749.268	-0.022	-0.060
-230.771	143.799	-0.079	-0.105
-229.757	-200.000	0.025	-0.400
-228.742	264.029	-0.215	0.373
-227.727	-16.740	-0.152	-0.096
-226.713	800.000	0.008	0.024
-225.698	-33.986	0.256	0.141
-224.684	160.976	0.146	-0.205
-223.669	-73.607	0.152	0.055
-222.655	-38.727	0.153	-0.081
-221.640	-16.732	0.357	0.226
-220.625	84.621	0.053	0.058
-219.611	227.546	0.051	-0.082
-218.596	57.705	-0.067	-0.065
-217.582	-200.000	0.029	-0.408
-216.567	-61.575	0.077	0.032
-215.552	800.000	-0.147	-0.419
-214.538	-68.610	-0.339	-0.131
-213.523	-48.673	-0.304	0.146
-212.509	348.161	0.048	0.095
-211.494	-42.023	0.190	0.097
-210.479	-7.292	-0.349	0.236
-209.465	800.000	-0.053	0.188
-208.450	35.215	-0.146	-0.128
-207.436	327.108	0.052	0.100
-206.421	155.156	0.085	0.116
-205.406	358.885	-0.095	-0.190
-204.392	673.712	-0.091	-0.237
-203.377	179.147	-0.099	0.144
-202.363	-200.000	0.048	-0.252
-201.348	-122.188	0.134	0.022
-200.333	-114.531	0.113	0.022
-199.319	542.583	0.042	-0.099
-198.304	-87.179	-0.213	-0.065
-197.290	-137.993	0.465	-0.052
-196.275	-200.000	0.002	-0.020
-195.260	-200.000	0.008	-0.081
-194.246	-102.516	-0.243	-0.058
-193.231	340.623	0.031	0.061
-192.217	800.000	-0.042	-0.129
-191.202	-59.195	0.132	0.057
-190.187	104.751	-0.160	-0.188
-189.173	-130.215	0.342	0.046
-188.158	-13.053	-0.191	-0.124
-187.144	301.125	-0.042	0.078
-186.129	-200.000	-0.002	-0.102
-185.114	-98.395	-0.111	-0.028
-184.100	800.000	-0.066	0.266
-183.085	27.146	-0.139	0.116
-182.071	110.284	0.185	-0.221
-181.056	800.000	0.060	-0.175
-180.042	-5.132	0.308	-0.212
-179.027	-200.000	-0.061	0.272
-178.012	639.267	0.137	0.349
-176.998	237.227	-0.113	0.187
-175.983	-200.000	0.032	0.152
-174.969	67.550	-0.250	-0.255
-173.954	-200.000	0.010	-0.133
-172.939	291.843	0.093	0.169
-171.925	122.038	0.113	0.141
-170.910	41.043	-0.148	0.133
-169.896	-78.999	-0.237	-0.080
-168.881	-72.577	-0.433	0.160
-167.866	-140.682	0.201	0.021
-166.852	-13.645	-0.093	0.060
-165.837	-91.478	0.278	-0.079
-164.823	37.452	0.147	-0.130
-163.808	721.387	-0.070	-0.187
-162.793	-79.896	0.142	0.048
-161.779	-160.819	0.160	-0.008
-160.764	-94.092	-0.176	-0.048
-159.750	800.000	-0.089	-0.291
-158.735	94.673	-0.095	0.108
-157.720	-0.885	-0.105	0.074
-156.706	800.000	-0.019	-0.067
-155.691	5.951	-0.242	0.179
-154.677	-8.099	-0.101	0.068
-153.662	130.336	-0.073	-0.093
-152.647	518.099	0.154	-0.361
-151.633	149.881	-0.094	-0.127
-150.618	336.285	0.115	-0.222
-149.604	-46.007	0.357	-0.176
-148.589	235.507	-0.070	-0.115
-147.574	-148.033	0.145	0.012
-146.560	166.169	0.126	0.177
-145.545	118.332	-0.121	-0.148
-144.531	46.199	-0.105	0.097
-143.516	326.959	0.084	0.161
-142.502	721.687	-0.220	0.584
-141.487	-65.523	-0.115	0.046
-140.472	266.952	0.145	0.253
-139.458	-106.312	0.121	0.027
-138.443	-36.307	-0.331	0.178
-137.429	-98.293	0.208	0.053
-136.414	-117.835	0.206	-0.037
-135.399	-8.371	0.311	-0.209
-134.385	103.540	0.140	-0.163
-133.370	-7.387	-0.076	0.052
-132.356	160.834	-0.090	-0.126
-131.341	-113.201	0.081	-0.016
-130.326	179.842	-0.063	-0.092
-129.312	-143.888	-0.112	-0.011
-128.297	-98.952	-0.144	0.037
-127.283	800.000	0.111	0.312
-126.268	-54.989	0.270	0.121
-125.253	-152.369	0.173	-0.012
-124.239	2.842	-0.214	0.155
-123.224	29.881	0.051	-0.044
-122.210	183.534	-0.146	0.216
-121.195	-200.000	0.086	-0.511
