DTS Sentinel unit serial number:	SN413079Multiplexer serial number:	ORYXHardware model number:	OX4-SRSoftware version number:	ORYX F/W v4.00 Oryx Data Collector v3.7.2.0data status	okinstallation	princeton_trtdifferential loss correction	single-endedforward channel	channel 2reverse channel	N/Adate	2019/09/18time	17:31:35forward acquisition time	60.00reverse acquisition time	0.00gamma	496.2192k internal	0.2298k external	0.2298temperature offset calibration	1.0012default loss term (dB/km)	0.3790temperature slope calibration	1.0000multiplexer offset coefficient	1.0000multiplexer slope coefficient	1.0000fibre end	0.00T internal ref (°C)	40.14T ext. ref 1 (°C)	0.89T ext. ref 2 (°C)	36.19length (m)	temperature (°C)	Stokes	anti-Stokes-747.200	-200.000	0.030	0.181
-746.185	-39.991	-0.065	-0.035
-745.171	161.196	0.234	0.333
-744.156	545.286	0.040	0.098
-743.142	-33.033	-0.281	-0.159
-742.127	104.542	0.081	0.098
-741.112	69.646	0.021	-0.022
-740.098	-15.340	-0.217	0.142
-739.083	194.320	0.023	-0.035
-738.069	-200.000	0.009	0.195
-737.054	115.277	-0.128	-0.160
-736.039	800.000	-0.008	-0.023
-735.025	-27.982	0.285	0.168
-734.010	-43.226	-0.190	-0.098
-732.996	84.545	-0.275	-0.307
-731.981	-15.761	0.105	0.068
-730.966	177.354	-0.179	-0.266
-729.952	74.352	-0.063	-0.068
-728.937	-168.144	-0.207	0.008
-727.923	-58.095	0.118	-0.053
-726.908	96.283	-0.181	-0.211
-725.894	139.817	-0.160	-0.216
-724.879	-47.837	-0.240	0.119
-723.864	-73.482	0.328	0.122
-722.850	59.836	-0.342	0.344
-721.835	-25.046	-0.393	-0.237
-720.821	-85.644	-0.245	0.078
-719.806	-200.000	0.050	0.288
-718.791	-200.000	-0.054	-0.354
-717.777	-200.000	0.046	0.328
-716.762	-200.000	-0.030	0.147
-715.748	761.271	-0.023	-0.064
-714.733	141.555	0.125	-0.169
-713.718	-88.437	0.068	0.021
-712.704	-200.000	-0.044	0.244
-711.689	217.243	-0.136	0.220
-710.675	3.202	-0.106	0.079
-709.660	-115.705	0.139	0.027
-708.645	-164.066	0.234	0.011
-707.631	-200.000	-0.049	-0.256
-706.616	-200.000	-0.010	-0.073
-705.602	280.931	-0.117	-0.213
-704.587	288.547	0.156	0.289
-703.572	-140.219	0.280	0.030
-702.558	-94.971	0.198	0.055
-701.543	65.763	-0.152	0.157
-700.529	25.104	0.205	-0.173
-699.514	194.614	0.319	-0.492
-698.499	-200.000	-0.035	0.471
-697.485	-200.000	0.012	-0.164
-696.470	82.904	0.165	0.183
-695.456	800.000	0.085	-0.327
-694.441	-200.000	0.028	-0.138
-693.426	45.157	0.148	-0.139
-692.412	-5.143	-0.124	0.087
-691.397	368.348	0.142	0.293
-690.383	-133.148	-0.125	-0.016
-689.368	800.000	0.025	-0.074
-688.354	-200.000	0.083	0.513
-687.339	-200.000	0.008	-0.106
-686.324	182.574	-0.232	-0.349
-685.310	278.864	0.140	-0.255
-684.295	-200.000	0.049	0.251
-683.281	-40.708	-0.154	0.081
-682.266	-200.000	-0.019	-0.274
-681.251	26.954	-0.430	-0.367
-680.237	-200.000	0.004	0.136
-679.222	800.000	-0.030	0.130
-678.208	-200.000	-0.015	0.428
-677.193	-200.000	-0.007	0.212
-676.178	-119.737	0.082	-0.014
-675.164	800.000	0.026	0.087
-674.149	-57.218	0.312	-0.140
-673.135	142.660	0.054	0.073
-672.120	-90.042	0.152	0.045
-671.105	-1.753	-0.043	0.031
-670.091	279.610	-0.194	-0.353
-669.076	427.776	0.153	-0.337
-668.062	-162.924	0.349	0.017
-667.047	-104.232	-0.240	-0.057
-666.032	-76.018	0.237	0.085
-665.018	-125.621	0.065	0.010
-664.003	219.378	-0.068	0.111
-662.989	-100.879	-0.259	-0.065
-661.974	5.308	-0.178	0.133
-660.959	-69.754	-0.142	-0.055
-659.945	58.202	0.038	-0.038
-658.930	-83.318	0.239	0.078
-657.916	-20.187	0.222	-0.139
-656.901	-58.639	-0.091	-0.040
-655.886	-91.448	-0.227	-0.066
-654.872	800.000	-0.124	-0.527
-653.857	617.258	-0.066	-0.168
-652.843	-62.324	0.325	-0.138
-651.828	-61.958	0.249	0.106
-650.814	-13.149	0.366	-0.242
-649.799	-82.173	0.084	0.028
-648.784	17.761	0.253	-0.205
-647.770	-94.198	-0.145	0.040
-646.755	-2.703	-0.175	0.124
-645.741	-200.000	-0.043	0.212
-644.726	-29.051	-0.163	-0.095
-643.711	-154.376	0.235	0.016
-642.697	-55.002	0.275	-0.126
-641.682	33.272	0.151	-0.133
-640.668	-119.529	-0.234	-0.041
-639.653	-135.301	-0.146	-0.018
-638.638	48.770	-0.241	0.230
-637.624	-104.048	0.200	-0.047
-636.609	25.363	0.276	-0.234
-635.595	-200.000	-0.044	0.294
-634.580	-200.000	-0.026	0.391
-633.565	-200.000	-0.038	0.179
-632.551	798.748	0.050	-0.140
-631.536	184.256	0.115	0.173
-630.522	63.632	0.103	0.105
-629.507	457.093	-0.081	-0.183
-628.492	-200.000	-0.078	-0.590
-627.478	800.000	-0.085	-0.301
-626.463	5.448	0.148	-0.111
-625.449	12.537	-0.253	-0.198
-624.434	-116.829	0.217	-0.040
-623.419	-21.297	-0.381	0.236
-622.405	272.157	-0.013	-0.024
-621.390	800.000	0.029	0.086
-620.376	414.892	0.167	0.362
-619.361	-147.225	-0.301	-0.026
-618.346	-49.257	0.205	0.099
-617.332	800.000	-0.097	-0.339
-616.317	800.000	-0.050	0.164
-615.303	81.971	-0.094	0.103
-614.288	114.249	0.199	0.246
-613.273	-119.317	-0.174	-0.031
-612.259	-200.000	0.011	-0.134
-611.244	-200.000	-0.010	0.281
-610.230	101.165	-0.096	-0.113
-609.215	-11.498	0.071	0.047
-608.201	-88.234	-0.299	-0.091
-607.186	-102.085	-0.295	-0.072
-606.171	800.000	-0.083	-0.342
-605.157	-76.153	-0.126	-0.045
-604.142	-130.163	0.347	-0.048
-603.128	-146.797	-0.185	0.016
-602.113	-199.760	0.145	0.001
-601.098	28.088	0.068	0.058
-600.084	318.551	0.078	-0.150
-599.069	-152.035	0.180	-0.013
-598.055	-200.000	-0.049	-0.292
-597.040	432.256	0.075	-0.166
-596.025	-35.754	-0.219	-0.120
-595.011	-37.137	0.202	-0.110
-593.996	-48.957	0.226	-0.110
-592.982	-99.329	0.194	0.050
-591.967	-151.489	-0.201	-0.015
-590.952	87.561	-0.088	-0.099
-589.938	-200.000	0.039	0.256
-588.923	-68.808	0.292	-0.115
-587.909	47.698	0.251	0.238
-586.894	197.362	0.187	0.290
-585.879	-200.000	0.029	0.250
-584.865	22.734	-0.035	0.029
-583.850	-134.736	-0.174	0.022
-582.836	143.649	0.064	-0.086
-581.821	67.358	-0.045	-0.047
-580.806	-41.146	-0.105	-0.055
-579.792	-60.650	-0.261	-0.112
-578.777	7.292	0.108	0.082
-577.763	800.000	-0.064	-0.190
-576.748	105.158	-0.133	0.159
-575.733	-200.000	0.026	0.242
-574.719	-99.232	0.219	-0.056
-573.704	49.504	0.140	-0.134
-572.690	82.916	-0.057	-0.063
-571.675	347.144	-0.021	0.042
-570.661	-29.644	0.072	-0.042
-569.646	-172.195	-0.219	0.007
-568.631	276.648	-0.100	0.179
-567.617	-96.290	-0.307	-0.083
-566.602	800.000	0.059	-0.177
-565.588	82.307	-0.283	-0.311
-564.573	-200.000	0.007	0.411
-563.558	0.226	0.271	-0.196
-562.544	-144.192	0.140	0.013
-561.529	800.000	-0.056	0.231
-560.515	65.848	0.082	-0.084
-559.500	-200.000	-0.025	-0.320
-558.485	64.667	0.142	-0.145
-557.471	-200.000	0.008	0.209
-556.456	323.314	0.062	-0.119
-555.442	-169.400	0.395	0.015
-554.427	47.849	-0.156	0.148
-553.412	800.000	0.068	-0.213
-552.398	-200.000	-0.062	-0.394
-551.383	-24.632	-0.292	0.176
-550.369	-14.826	0.191	0.124
-549.354	-200.000	0.025	-0.153
-548.339	-165.846	-0.219	0.010
-547.325	405.546	0.152	0.325
-546.310	193.441	-0.093	-0.142
-545.296	-152.450	-0.355	0.026
-544.281	-61.824	-0.102	-0.043
-543.266	-200.000	0.002	-0.294
-542.252	250.138	0.122	0.209
-541.237	-172.455	0.102	0.003
-540.223	-20.660	0.323	-0.201
-539.208	112.644	0.119	-0.146
-538.193	135.027	-0.157	-0.206
-537.179	178.013	0.093	-0.137
-536.164	-200.000	-0.052	-0.503
-535.150	-61.894	0.175	-0.074
-534.135	-47.960	0.096	-0.047
-533.121	197.291	-0.053	0.082
-532.106	-56.645	-0.264	0.119
-531.091	362.961	-0.099	0.202
-530.077	7.632	-0.320	-0.243
-529.062	-10.550	0.191	0.128
-528.048	295.871	-0.208	0.386
-527.033	753.452	-0.059	-0.162
-526.018	-157.686	0.210	0.013
-525.004	-200.000	0.018	0.109
-523.989	-56.785	-0.171	-0.076
-522.975	192.403	0.080	-0.122
-521.960	-143.666	-0.382	0.037
-520.945	38.546	0.131	-0.118
-519.931	-114.793	-0.159	0.031
-518.916	315.130	-0.078	0.149
-517.902	228.212	-0.169	-0.278
-516.887	53.355	0.162	-0.157
-515.872	-200.000	0.005	-0.059
-514.858	-13.406	-0.051	-0.033
-513.843	200.147	0.146	-0.227
-512.829	800.000	-0.102	0.433
-511.814	-109.820	-0.236	-0.050
-510.799	800.000	-0.041	0.176
-509.785	-30.269	0.131	-0.075
-508.770	213.836	0.208	-0.333
-507.756	-200.000	0.071	0.401
-506.741	-107.017	-0.266	-0.059
-505.726	-127.424	0.039	0.006
-504.712	-170.776	0.230	-0.008
-503.697	-48.466	0.211	0.103
-502.683	800.000	-0.046	0.137
-501.668	-65.196	-0.176	-0.072
-500.653	800.000	-0.043	-0.122
-499.639	-127.905	0.193	0.028
-498.624	54.638	-0.263	0.257
-497.610	326.181	0.077	0.148
-496.595	2.160	-0.282	0.206
-495.581	-3.691	0.156	-0.109
-494.566	-111.838	-0.024	-0.005
-493.551	800.000	-0.051	-0.148
-492.537	0.731	-0.257	0.186
-491.522	800.000	-0.111	-0.428
-490.508	-130.227	0.310	0.043
-489.493	-10.195	0.287	0.193
-488.478	-200.000	-0.024	0.213
-487.464	98.578	-0.051	-0.059
-486.449	-200.000	-0.016	0.163
-485.435	160.547	0.252	0.356
-484.420	-82.882	0.229	0.075
-483.405	134.762	-0.154	-0.202
-482.391	-108.700	0.041	-0.009
-481.376	-22.578	0.060	0.037
-480.362	361.304	-0.067	0.136
-479.347	-105.578	0.077	0.018
-478.332	-62.876	0.170	0.071
-477.318	-200.000	0.006	0.356
-476.303	61.029	0.217	-0.217
-475.289	-94.600	-0.357	-0.098
-474.274	462.239	0.050	-0.114
-473.259	53.504	-0.322	-0.312
-472.245	29.712	0.150	-0.129
-471.230	87.973	-0.132	-0.148
-470.216	-200.000	0.025	0.227
-469.201	-200.000	-0.001	-0.234
-468.186	-35.174	-0.164	-0.090
-467.172	36.109	-0.140	-0.124
-466.157	-200.000	0.003	0.116
-465.143	-200.000	0.012	0.114
-464.128	-200.000	0.045	-0.256
-463.113	-69.341	-0.024	-0.009
-462.099	32.575	-0.073	-0.063
-461.084	-151.897	0.128	-0.009
-460.070	152.118	-0.269	0.370
-459.055	15.628	0.326	-0.259
-458.040	800.000	0.033	-0.101
-457.026	209.954	0.069	0.109
-456.011	-200.000	0.003	0.134
-454.997	-128.397	-0.196	0.028
-453.982	459.423	-0.071	0.160
-452.968	-109.022	-0.182	-0.039
-451.953	124.256	-0.095	-0.121
-450.938	-200.000	-0.018	-0.168
-449.924	-185.118	-0.103	-0.002
-448.909	315.817	-0.144	0.275
-447.895	800.000	-0.033	-0.146
-446.880	-67.615	-0.055	0.022
-445.865	-115.477	0.077	-0.015
-444.851	-200.000	0.023	0.356
-443.836	-46.511	-0.293	-0.145
-442.822	-70.306	-0.257	-0.098
-441.807	-200.000	-0.007	-0.230
-440.792	-28.449	0.136	-0.079
-439.778	800.000	-0.071	0.260
-438.763	-200.000	-0.006	0.294
-437.749	59.562	0.109	-0.108
-436.734	-200.000	-0.031	0.185
-435.719	-200.000	-0.086	-0.400
-434.705	-200.000	0.015	-0.112
-433.690	800.000	0.023	0.065
-432.676	-103.826	0.289	0.068
-431.661	277.619	0.118	0.212
-430.646	32.341	0.133	-0.116
-429.632	-10.821	-0.240	-0.160
-428.617	-185.621	0.140	0.002
-427.603	-200.000	0.013	0.141
-426.588	-55.664	-0.316	0.143
-425.573	800.000	-0.119	-0.334
-424.559	3.902	-0.134	0.099
-423.544	-200.000	0.010	-0.091
-422.530	-121.403	0.122	-0.021
-421.515	125.615	-0.157	0.200
-420.500	34.145	0.318	-0.279
-419.486	266.453	0.059	-0.103
-418.471	90.096	-0.155	-0.175
-417.457	-126.849	-0.160	-0.024
-416.442	800.000	-0.026	-0.087
-415.428	-200.000	0.018	0.201
-414.413	-126.716	0.173	0.026
-413.398	320.977	-0.068	-0.130
-412.384	109.008	0.126	0.152
-411.369	138.582	-0.112	-0.149
-410.355	-97.064	0.282	0.074
-409.340	234.490	0.220	0.366
-408.325	-118.720	-0.146	0.026
-407.311	-106.960	-0.539	0.120
-406.296	800.000	-0.055	-0.176
-405.282	533.068	0.118	0.281
-404.267	-156.068	0.301	-0.019
-403.252	277.416	-0.032	0.057
-402.238	354.537	0.062	0.125
-401.223	-200.000	-0.005	0.182
-400.209	-200.000	-0.039	0.297
-399.194	32.532	0.155	0.135
-398.179	800.000	-0.041	0.125
-397.165	414.323	0.068	0.146
-396.150	800.000	0.101	0.386
-395.136	-111.395	-0.161	0.033
-394.121	-74.625	0.162	-0.059
-393.106	16.602	-0.157	0.125
-392.092	-165.617	0.317	-0.014
-391.077	-200.000	-0.037	-0.176
-390.063	4.320	-0.194	0.143
-389.048	800.000	0.098	-0.372
-388.033	453.675	-0.064	0.143
-387.019	-176.556	0.189	-0.005
-386.004	-200.000	-0.066	0.292
-384.990	215.832	0.127	-0.203
-383.975	-147.949	-0.197	0.017
-382.960	188.507	0.126	-0.190
-381.946	-63.772	-0.212	-0.087
-380.931	16.842	-0.161	-0.128
-379.917	-10.367	0.057	0.038
-378.902	800.000	-0.063	-0.204
-377.888	800.000	-0.121	-0.342
-376.873	7.801	0.119	0.090
-375.858	-68.724	0.194	0.075
-374.844	-13.082	0.166	-0.109
-373.829	-189.534	0.109	-0.001
-372.815	11.909	0.270	0.209
-371.800	639.469	0.137	-0.352
-370.785	-200.000	0.003	-0.085
-369.771	-51.843	-0.144	-0.068
-368.756	-177.952	0.043	-0.001
-367.742	-110.953	-0.297	0.061
-366.727	-78.785	-0.160	0.055
-365.712	-200.000	-0.025	0.307
-364.698	73.170	0.447	0.470
-363.683	-119.461	-0.355	-0.062
-362.669	-82.177	-0.149	-0.049
-361.654	726.342	0.086	-0.231
-360.639	-87.609	0.186	-0.056
-359.625	604.040	0.067	0.167
-358.610	-8.884	0.104	-0.070
-357.596	102.457	0.190	-0.223
-356.581	800.000	0.030	0.091
-355.566	-200.000	0.000	0.101
-354.552	-97.529	-0.311	0.081
-353.537	55.894	0.244	0.238
-352.523	-66.101	0.094	-0.038
-351.508	483.439	0.011	0.025
-350.493	272.205	-0.059	-0.104
-349.479	-200.000	-0.043	0.626
-348.464	-73.555	-0.200	-0.073
-347.450	170.633	0.224	-0.322
-346.435	-200.000	-0.002	-0.134
-345.420	-127.807	0.090	0.013
-344.406	-153.210	-0.152	-0.011
-343.391	800.000	0.013	0.045
-342.377	-200.000	0.000	0.284
-341.362	761.215	0.088	-0.239
-340.348	800.000	0.116	-0.354
-339.333	186.393	-0.024	0.037
-338.318	483.609	-0.070	-0.161
-337.304	-200.000	0.027	-0.304
-336.289	-151.361	-0.214	0.016
-335.275	-90.843	-0.227	-0.066
-334.260	-200.000	0.001	-0.207
-333.245	612.116	0.160	-0.403
-332.231	-200.000	0.020	-0.158
-331.216	383.683	-0.068	-0.140
-330.202	97.356	0.159	0.183
-329.187	237.160	0.020	0.034
-328.172	-200.000	-0.023	-0.113
-327.158	-60.600	0.173	-0.074
-326.143	800.000	0.032	0.117
-325.129	800.000	0.034	0.134
-324.114	290.243	0.073	-0.133
-323.099	48.216	-0.189	-0.178
-322.085	565.497	0.118	-0.287
-321.070	-200.000	-0.026	-0.185
-320.056	-200.000	-0.025	0.143
-319.041	-200.000	-0.073	-0.415
-318.026	-69.197	0.085	-0.033
-317.012	-107.046	-0.188	0.042
-315.997	-97.410	-0.052	0.014
-314.983	169.793	-0.070	-0.100
-313.968	242.811	0.038	0.064
-312.953	240.798	-0.097	0.162
-311.939	-136.082	-0.077	0.009
-310.924	-139.520	0.096	-0.010
-309.910	-200.000	0.034	0.275
-308.895	-98.572	-0.294	-0.075
-307.880	353.896	0.012	-0.024
-306.866	800.000	0.131	-0.367
-305.851	-74.544	-0.368	0.133
-304.837	6.192	0.304	0.226
-303.822	50.402	0.187	0.177
-302.807	670.953	0.149	0.386
-301.793	147.185	0.084	0.114
-300.778	98.846	-0.144	0.167
-299.764	-200.000	-0.007	0.131
-298.749	9.636	0.136	0.103
-297.735	-76.353	-0.094	-0.033
-296.720	-75.861	0.141	0.050
-295.705	-85.427	0.036	-0.011
-294.691	-13.174	-0.359	0.234
-293.676	-200.000	0.004	0.052
-292.662	31.297	-0.053	-0.045
-291.647	-200.000	0.026	-0.187
-290.632	180.789	0.282	-0.416
-289.618	-23.697	-0.179	0.108
-288.603	-42.748	-0.084	-0.043
-287.589	-81.025	0.190	-0.063
-286.574	57.094	0.160	0.157
-285.559	-200.000	-0.027	0.169
-284.545	-118.778	0.221	0.039
-283.530	-113.387	0.265	-0.052
-282.516	-30.735	-0.146	-0.083
-281.501	-200.000	0.038	0.374
-280.486	-42.489	0.358	0.183
-279.472	196.637	0.114	0.175
-278.457	-23.347	0.129	0.078
-277.443	-200.000	0.016	0.159
-276.428	90.355	0.256	-0.287
-275.413	-75.727	0.429	0.153
-274.399	455.912	0.136	0.303
-273.384	-200.000	0.017	0.163
-272.370	2.013	-0.037	0.027
-271.355	254.725	0.143	0.245
-270.340	508.848	-0.010	0.024
-269.326	800.000	-0.032	0.123
-268.311	800.000	-0.055	0.160
-267.297	-66.631	0.143	0.057
-266.282	800.000	-0.005	-0.015
-265.267	99.414	0.123	0.143
-264.253	-68.176	-0.241	-0.094
-263.238	707.988	0.099	-0.262
-262.224	-69.412	0.301	-0.116
-261.209	508.365	0.017	-0.041
-260.195	757.926	0.021	0.056
-259.180	660.291	0.036	-0.094
-258.165	711.885	-0.065	0.173
-257.151	145.838	-0.051	-0.068
-256.136	-17.505	0.074	-0.047
-255.122	-73.324	-0.404	0.148
-254.107	650.459	-0.037	-0.095
-253.092	-155.829	-0.121	-0.008
-252.078	131.234	0.116	0.149
-251.063	-4.070	-0.293	-0.203
-250.049	520.621	-0.063	-0.148
-249.034	782.745	0.103	-0.282
-248.019	4.203	0.204	-0.150
-247.005	800.000	-0.010	-0.032
-245.990	-30.016	-0.101	0.057
-244.976	-200.000	-0.048	-0.328
-243.961	235.326	-0.204	-0.337
-242.946	374.441	-0.200	-0.408
-241.932	85.480	0.143	-0.158
-240.917	-121.991	-0.371	0.061
-239.903	491.553	-0.059	-0.135
-238.888	-78.676	-0.136	-0.046
-237.873	-143.019	0.172	0.017
-236.859	396.127	0.069	-0.143
-235.844	185.593	0.099	-0.147
-234.830	-200.000	0.094	-0.464
-233.815	-105.342	-0.461	0.105
-232.800	-151.169	0.134	0.010
-231.786	800.000	-0.057	0.236
-230.771	-81.717	0.067	-0.022
-229.757	-50.443	0.092	-0.043
-228.742	-124.902	0.307	-0.047
-227.727	309.604	0.067	-0.125
-226.713	-2.518	-0.299	0.210
-225.698	-41.188	0.374	0.193
-224.684	182.182	-0.102	0.151
-223.669	-135.962	-0.338	-0.040
-222.655	800.000	0.017	0.069
-221.640	4.751	0.126	0.093
-220.625	103.913	-0.079	0.093
-219.611	69.131	-0.171	-0.176
-218.596	30.899	-0.329	-0.282
-217.582	449.055	0.062	0.137
-216.567	-45.317	-0.373	0.185
-215.552	1.142	0.215	0.155
-214.538	800.000	0.033	0.138
-213.523	151.363	-0.085	0.115
-212.509	800.000	0.024	-0.070
-211.494	800.000	-0.008	0.032
-210.479	47.341	-0.113	0.105
-209.465	150.320	-0.087	0.118
-208.450	402.713	0.115	0.242
-207.436	-200.000	-0.011	0.057
-206.421	39.662	-0.126	0.113
-205.406	329.916	0.109	-0.209
-204.392	440.344	-0.073	-0.160
-203.377	177.720	-0.044	0.064
-202.363	-40.570	-0.178	0.092
-201.348	108.867	-0.147	0.176
-200.333	-188.530	0.132	0.002
-199.319	-200.000	0.014	-0.080
-198.304	-3.964	-0.251	-0.174
-197.290	-157.495	-0.231	0.014
-196.275	102.719	-0.078	-0.091
-195.260	-200.000	-0.026	-0.350
-194.246	-39.403	0.115	-0.060
-193.231	170.929	-0.138	-0.198
-192.217	-200.000	-0.003	0.109
-191.202	13.762	0.300	0.233
-190.187	-54.894	0.350	0.158
-189.173	800.000	-0.089	0.327
-188.158	-200.000	-0.002	-0.099
-187.144	15.184	-0.161	0.126
-186.129	73.182	0.204	-0.213
-185.114	232.863	0.154	0.253
-184.100	110.522	-0.213	0.256
-183.085	-154.660	-0.396	-0.026
-182.071	-200.000	0.025	0.290
-181.056	133.770	-0.091	-0.117
-180.042	800.000	-0.049	-0.153
-179.027	312.342	-0.104	-0.196
-178.012	189.602	-0.077	0.116
-176.998	293.383	-0.158	0.288
-175.983	-200.000	0.011	0.227
-174.969	83.255	-0.220	0.239
-173.954	151.827	-0.160	-0.218
-172.939	-93.790	0.089	-0.024
-171.925	-111.846	0.132	-0.027
-170.910	310.420	0.229	-0.428
-169.896	-200.000	-0.002	-0.158
-168.881	-200.000	-0.009	0.320
-167.866	41.890	-0.040	-0.036
-166.852	145.271	0.117	0.156
-165.837	800.000	-0.031	0.100
-164.823	-47.234	0.153	0.075
-163.808	-91.047	0.225	-0.065
-162.793	35.686	0.174	-0.153
-161.779	-200.000	-0.034	-0.186
-160.764	-112.252	0.103	-0.021
-159.750	-102.791	0.228	0.054
-158.735	146.611	0.110	0.148
-157.720	-40.361	0.108	0.056
-156.706	-108.625	-0.013	0.003
-155.691	70.098	0.135	0.139
-154.677	-30.182	-0.242	0.137
-153.662	-96.020	0.248	0.066
-152.647	36.937	0.037	-0.033
-151.633	93.587	0.108	0.122
-150.618	191.960	0.082	-0.123
-149.604	-200.000	0.012	-0.335
-148.589	171.504	0.204	-0.292
-147.574	800.000	0.095	0.320
-146.560	800.000	-0.082	0.246
-145.545	74.459	0.083	-0.087
-144.531	-200.000	-0.015	0.249
-143.516	2.232	0.361	0.260
-142.502	-200.000	0.042	0.254
-141.487	-65.305	0.345	-0.138
-140.472	227.301	-0.110	0.178
-139.458	83.843	-0.038	0.042
-138.443	-200.000	-0.011	0.105
-137.429	374.937	0.120	0.243
-136.414	-200.000	-0.062	-0.296
-135.399	191.295	0.259	0.388
-134.385	36.838	-0.258	0.227
-133.370	-21.228	0.046	-0.028
-132.356	-200.000	0.013	-0.093
-131.341	-120.325	-0.166	-0.028
-130.326	287.992	-0.045	-0.082
-129.312	100.338	-0.302	-0.350
-128.297	-43.356	0.031	0.016
-127.283	23.909	-0.108	-0.088
-126.268	327.353	0.053	-0.102
-125.253	-135.187	0.287	-0.034
-124.239	530.959	-0.048	0.114
-123.224	59.573	0.169	0.166
-122.210	81.468	-0.195	0.210
-121.195	222.344	-0.048	0.077
