DTS Sentinel unit serial number:	SN413079Multiplexer serial number:	ORYXHardware model number:	OX4-SRSoftware version number:	ORYX F/W v4.00 Oryx Data Collector v3.7.2.0data status	okinstallation	princeton_trtdifferential loss correction	single-endedforward channel	channel 2reverse channel	N/Adate	2019/09/14time	12:07:35forward acquisition time	60.00reverse acquisition time	0.00gamma	496.2192k internal	0.2308k external	0.2308temperature offset calibration	1.0154default loss term (dB/km)	0.3790temperature slope calibration	1.0000multiplexer offset coefficient	1.0000multiplexer slope coefficient	1.0000fibre end	0.00T internal ref (°C)	37.56T ext. ref 1 (°C)	4.68T ext. ref 2 (°C)	33.47length (m)	temperature (°C)	Stokes	anti-Stokes-747.200	800.000	-0.101	0.316
-746.185	-77.362	-0.148	0.052
-745.171	97.249	-0.092	-0.108
-744.156	77.210	-0.160	0.173
-743.142	-65.916	-0.257	-0.104
-742.127	-22.482	0.128	0.079
-741.112	800.000	0.074	-0.314
-740.098	148.953	-0.169	0.232
-739.083	106.006	-0.128	0.154
-738.069	566.987	0.159	0.392
-737.054	-200.000	-0.046	0.544
-736.039	35.356	0.185	0.165
-735.025	-94.762	0.403	-0.111
-734.010	800.000	-0.031	-0.093
-732.996	-58.585	-0.236	-0.104
-731.981	800.000	-0.025	0.091
-730.966	-200.000	-0.003	0.022
-729.952	800.000	-0.069	-0.196
-728.937	-151.231	-0.305	-0.023
-727.923	-112.411	-0.414	-0.084
-726.908	24.249	-0.025	-0.021
-725.894	-107.887	-0.218	-0.048
-724.879	-47.453	-0.118	0.058
-723.864	-23.104	0.301	-0.184
-722.850	800.000	0.043	0.151
-721.835	-136.365	-0.143	-0.017
-720.821	800.000	-0.061	-0.253
-719.806	133.924	-0.107	0.141
-718.791	-176.393	0.121	0.003
-717.777	157.068	-0.109	0.153
-716.762	260.683	-0.028	0.050
-715.748	-49.126	0.293	-0.142
-714.733	-200.000	0.001	0.239
-713.718	-120.842	-0.187	-0.032
-712.704	-53.715	-0.145	-0.067
-711.689	800.000	-0.093	-0.282
-710.675	-58.335	-0.267	-0.118
-709.660	-200.000	-0.014	-0.169
-708.645	-128.704	-0.250	-0.036
-707.631	162.059	-0.075	-0.107
-706.616	646.034	0.049	-0.126
-705.602	-26.277	-0.064	0.038
-704.587	-200.000	-0.025	0.236
-703.572	-189.363	-0.073	0.001
-702.558	-200.000	0.001	-0.079
-701.543	-200.000	0.045	-0.276
-700.529	262.533	0.175	-0.309
-699.514	24.125	-0.343	0.287
-698.499	140.582	-0.175	-0.235
-697.485	-113.956	-0.262	-0.052
-696.470	-169.186	-0.385	-0.014
-695.456	85.306	0.102	0.113
-694.441	37.617	0.228	-0.205
-693.426	614.443	-0.118	-0.300
-692.412	-200.000	0.018	-0.098
-691.397	-200.000	0.000	-0.471
-690.383	478.214	-0.058	0.134
-689.368	-50.877	-0.251	-0.120
-688.354	-200.000	-0.018	0.402
-687.339	-200.000	-0.043	0.673
-686.324	710.104	0.027	-0.071
-685.310	15.572	0.186	-0.148
-684.295	211.229	-0.135	0.215
-683.281	-40.451	-0.226	0.119
-682.266	-83.207	0.152	-0.050
-681.251	-107.173	0.114	0.026
-680.237	8.503	-0.213	0.162
-679.222	-106.997	-0.097	0.022
-678.208	43.445	-0.114	0.106
-677.193	-200.000	0.015	-0.078
-676.178	125.864	-0.028	-0.036
-675.164	154.980	-0.078	0.109
-674.149	233.427	-0.130	0.216
-673.135	298.142	-0.108	-0.201
-672.120	159.847	-0.058	0.082
-671.105	366.895	-0.088	-0.180
-670.091	25.472	0.289	0.243
-669.076	800.000	-0.025	-0.081
-668.062	47.598	0.023	-0.022
-667.047	-129.100	-0.279	-0.039
-666.032	-78.487	-0.075	0.026
-665.018	-200.000	0.044	-0.257
-664.003	113.960	-0.209	-0.257
-662.989	-30.612	-0.290	0.166
-661.974	43.679	-0.223	0.207
-660.959	-200.000	-0.004	0.050
-659.945	-200.000	-0.004	-0.178
-658.930	-200.000	0.000	0.262
-657.916	40.828	-0.096	-0.087
-656.901	-79.724	-0.108	-0.037
-655.886	170.182	-0.225	0.326
-654.872	-98.555	0.112	-0.029
-653.857	77.331	-0.191	0.206
-652.843	-200.000	0.263	-0.000
-651.828	234.874	-0.069	0.115
-650.814	321.967	0.134	0.257
-649.799	-133.255	-0.167	-0.021
-648.784	-59.134	-0.065	0.028
-647.770	-152.572	-0.440	0.032
-646.755	386.944	-0.098	-0.205
-645.741	-110.577	-0.070	0.015
-644.726	-96.314	-0.315	0.085
-643.711	317.023	-0.113	-0.216
-642.697	339.829	-0.111	-0.218
-641.682	-85.119	-0.187	0.059
-640.668	329.092	0.058	0.113
-639.653	-33.977	-0.119	-0.067
-638.638	176.459	-0.184	0.270
-637.624	435.584	0.146	-0.322
-636.609	800.000	-0.080	-0.288
-635.595	-62.996	-0.195	0.082
-634.580	-157.971	-0.115	-0.007
-633.565	451.698	0.055	-0.123
-632.551	800.000	0.038	-0.108
-631.536	3.234	-0.085	-0.062
-630.522	-196.113	-0.165	0.001
-629.507	-18.734	-0.146	0.092
-628.492	24.173	-0.300	0.250
-627.478	-84.794	0.242	0.077
-626.463	615.227	-0.122	0.309
-625.449	-13.557	-0.029	-0.019
-624.434	800.000	0.045	0.167
-623.419	-67.196	-0.330	-0.132
-622.405	-200.000	0.016	0.210
-621.390	-149.563	0.261	-0.021
-620.376	483.376	0.083	0.190
-619.361	413.841	0.167	0.359
-618.346	800.000	-0.041	-0.167
-617.332	644.910	-0.043	-0.111
-616.317	-200.000	0.018	-0.485
-615.303	-155.594	0.263	-0.017
-614.288	-64.839	-0.242	-0.099
-613.273	14.380	-0.149	-0.117
-612.259	-63.350	0.122	0.051
-611.244	800.000	0.091	0.277
-610.230	555.502	-0.128	-0.312
-609.215	-23.053	-0.072	-0.044
-608.201	158.532	-0.117	0.164
-607.186	341.239	-0.111	0.218
-606.171	-62.971	-0.161	0.067
-605.157	-152.059	0.237	0.017
-604.142	47.791	0.158	-0.149
-603.128	100.549	-0.155	-0.182
-602.113	26.400	0.177	0.150
-601.098	800.000	0.077	-0.337
-600.084	-200.000	-0.003	0.016
-599.069	-200.000	-0.030	-0.321
-598.055	-49.106	0.376	-0.182
-597.040	-200.000	0.006	0.042
-596.025	89.914	-0.205	0.231
-595.011	-18.326	-0.287	-0.181
-593.996	86.218	0.166	-0.184
-592.982	487.803	0.076	0.175
-591.967	800.000	0.177	-0.723
-590.952	51.379	0.046	-0.045
-589.938	-200.000	0.004	-0.043
-588.923	266.309	0.052	-0.091
-587.909	160.700	-0.068	0.095
-586.894	-200.000	0.002	-0.361
-585.879	-200.000	0.003	0.232
-584.865	101.679	0.176	-0.208
-583.850	281.001	-0.154	-0.278
-582.836	194.924	-0.279	-0.428
-581.821	-130.567	-0.344	-0.047
-580.806	-43.828	-0.263	-0.134
-579.792	-38.577	0.270	-0.144
-578.777	-109.147	0.064	0.014
-577.763	-200.000	-0.005	-0.058
-576.748	214.955	0.065	0.105
-575.733	-200.000	-0.012	0.230
-574.719	-109.390	0.123	0.026
-573.704	800.000	-0.063	0.247
-572.690	133.768	-0.077	0.100
-571.675	-34.230	-0.216	-0.120
-570.661	146.625	0.126	-0.171
-569.646	127.905	0.118	0.151
-568.631	-111.423	-0.324	-0.067
-567.617	-55.176	-0.335	0.152
-566.602	104.869	-0.188	0.224
-565.588	-32.321	0.231	0.130
-564.573	-200.000	-0.003	0.055
-563.558	-110.831	-0.140	-0.029
-562.544	96.051	-0.171	-0.197
-561.529	189.994	-0.166	-0.252
-560.515	300.963	-0.174	0.324
-559.500	-123.272	0.419	-0.068
-558.485	68.970	-0.103	0.107
-557.471	-138.370	0.277	0.031
-556.456	334.935	0.065	-0.127
-555.442	-76.295	0.310	0.110
-554.427	-86.779	-0.013	-0.004
-553.412	800.000	0.127	-0.403
-552.398	570.968	-0.076	0.188
-551.383	-200.000	-0.010	-0.397
-550.369	75.423	0.093	-0.099
-549.354	-63.803	0.145	-0.060
-548.339	-56.213	0.159	0.071
-547.325	704.794	-0.113	0.300
-546.310	-94.372	0.278	0.077
-545.296	-117.857	0.103	-0.019
-544.281	30.954	0.119	-0.103
-543.266	800.000	-0.113	-0.396
-542.252	41.783	0.193	-0.177
-541.237	391.570	0.087	-0.182
-540.223	800.000	-0.194	0.628
-539.208	27.864	0.191	0.162
-538.193	-158.085	-0.124	-0.007
-537.179	-200.000	0.014	-0.204
-536.164	1.799	0.025	-0.018
-535.150	-19.841	0.250	0.156
-534.135	232.932	0.216	0.358
-533.121	65.102	-0.205	0.208
-532.106	-200.000	0.021	-0.119
-531.091	-200.000	0.011	-0.164
-530.077	50.679	0.128	-0.123
-529.062	-200.000	0.007	-0.289
-528.048	-50.557	-0.153	-0.073
-527.033	-1.228	-0.188	-0.134
-526.018	330.897	0.035	-0.068
-525.004	51.642	0.168	0.161
-523.989	160.143	0.195	0.274
-522.975	-79.952	-0.330	-0.112
-521.960	37.781	-0.088	-0.079
-520.945	-200.000	-0.072	0.513
-519.931	-139.555	0.169	0.018
-518.916	-15.614	0.209	0.134
-517.902	393.548	-0.185	-0.389
-516.887	684.673	0.112	-0.296
-515.872	800.000	0.075	-0.326
-514.858	-105.303	-0.175	-0.040
-513.843	-200.000	0.006	-0.150
-512.829	-156.827	-0.190	-0.012
-511.814	800.000	0.049	0.201
-510.799	800.000	-0.064	-0.265
-509.785	527.051	-0.034	0.082
-508.770	-48.707	0.156	0.075
-507.756	168.557	0.083	0.120
-506.741	-14.668	0.264	-0.171
-505.726	-200.000	0.022	0.165
-504.712	-19.386	-0.163	0.102
-503.697	800.000	0.048	-0.137
-502.683	66.084	0.196	0.201
-501.668	-200.000	-0.016	0.128
-500.653	280.413	-0.138	0.248
-499.639	228.564	0.176	-0.289
-498.624	800.000	-0.009	0.038
-497.610	-48.619	-0.087	0.042
-496.595	-37.718	0.248	-0.133
-495.581	588.144	-0.098	0.244
-494.566	2.979	0.268	0.196
-493.551	248.704	-0.165	-0.282
-492.537	-28.764	0.324	0.188
-491.522	-10.666	-0.177	-0.118
-490.508	-52.813	-0.229	-0.106
-489.493	-177.779	0.302	-0.007
-488.478	140.225	0.062	0.083
-487.464	-200.000	-0.027	-0.342
-486.449	-200.000	0.001	-0.014
-485.435	37.740	-0.137	0.123
-484.420	25.058	0.062	-0.052
-483.405	38.512	-0.065	0.059
-482.391	-9.635	0.180	-0.121
-481.376	-200.000	0.155	0.001
-480.362	568.494	-0.070	-0.171
-479.347	479.235	-0.053	-0.122
-478.332	-200.000	-0.014	0.340
-477.318	-132.351	-0.206	-0.027
-476.303	316.027	-0.100	0.190
-475.289	-7.431	-0.113	0.077
-474.274	149.771	-0.159	0.217
-473.259	-83.218	0.263	-0.085
-472.245	800.000	-0.075	-0.294
-471.230	-200.000	0.002	0.301
-470.216	118.523	-0.282	0.349
-469.201	-93.302	-0.309	-0.086
-468.186	800.000	-0.075	0.245
-467.172	800.000	-0.082	-0.245
-466.157	87.223	0.151	0.168
-465.143	3.414	-0.227	-0.166
-464.128	509.302	0.046	0.107
-463.113	86.516	0.267	0.296
-462.099	-113.453	-0.213	-0.042
-461.084	-53.510	0.180	0.083
-460.070	449.381	-0.122	0.270
-459.055	-30.259	0.122	-0.070
-458.040	-54.001	0.095	0.043
-457.026	-82.531	-0.247	0.081
-456.011	800.000	-0.060	0.195
-454.997	-200.000	0.025	-0.161
-453.982	-109.509	0.057	0.012
-452.968	-200.000	0.006	-0.252
-451.953	420.593	0.129	-0.277
-450.938	-86.590	-0.504	-0.155
-449.924	-166.902	-0.249	-0.010
-448.909	48.734	-0.122	0.115
-447.895	-75.580	-0.221	0.079
-446.880	-200.000	0.009	-0.139
-445.865	-26.156	-0.155	0.091
-444.851	-149.478	-0.230	-0.018
-443.836	-125.348	0.252	0.039
-442.822	-200.000	0.007	-0.050
-441.807	-106.816	0.248	-0.055
-440.792	-145.690	-0.165	0.015
-439.778	70.304	0.122	-0.127
-438.763	21.007	0.286	-0.233
-437.749	-200.000	0.005	0.323
-436.734	-28.400	0.113	-0.065
-435.719	-158.370	0.150	0.009
-434.705	39.727	0.101	-0.091
-433.690	-118.409	0.252	-0.045
-432.676	-200.000	-0.029	0.177
-431.661	711.451	0.029	0.076
-430.646	-179.689	0.324	-0.007
-429.632	800.000	0.094	-0.263
-428.617	-200.000	0.040	-0.220
-427.603	23.891	0.065	-0.054
-426.588	-88.676	0.267	0.080
-425.573	-19.966	0.357	-0.221
-424.559	-129.089	0.130	-0.018
-423.544	19.501	0.209	-0.169
-422.530	-200.000	-0.036	-0.166
-421.515	-158.193	0.180	-0.011
-420.500	800.000	-0.075	-0.258
-419.486	-200.000	0.018	-0.118
-418.471	-200.000	0.009	-0.059
-417.457	-200.000	-0.010	0.182
-416.442	163.056	-0.089	0.126
-415.428	-200.000	-0.044	0.293
-414.413	800.000	-0.111	-0.413
-413.398	-32.303	0.090	-0.051
-412.384	800.000	-0.056	0.198
-411.369	-106.447	-0.235	-0.053
-410.355	-2.802	0.063	-0.044
-409.340	800.000	-0.055	-0.173
-408.325	-127.892	-0.156	0.022
-407.311	227.008	0.101	0.165
-406.296	-129.423	-0.352	0.049
-405.282	-107.702	0.034	-0.007
-404.267	-14.242	0.261	-0.169
-403.252	222.258	0.160	0.259
-402.238	-30.895	0.352	-0.200
-401.223	248.370	0.029	-0.049
-400.209	-178.052	0.090	-0.002
-399.194	-200.000	-0.024	0.134
-398.179	-159.087	0.125	0.007
-397.165	724.433	0.177	0.474
-396.150	-125.154	0.060	0.009
-395.136	800.000	-0.018	0.074
-394.121	-18.650	-0.331	-0.207
-393.106	-160.853	-0.222	-0.012
-392.092	-181.307	-0.199	0.004
-391.077	-93.568	-0.248	0.069
-390.063	800.000	0.007	-0.031
-389.048	800.000	0.030	0.098
-388.033	-200.000	0.023	-0.118
-387.019	-58.157	0.211	-0.092
-386.004	-50.573	0.067	0.032
-384.990	-94.748	0.109	-0.030
-383.975	-200.000	0.041	0.286
-382.960	-200.000	-0.046	0.233
-381.946	-93.232	0.115	0.032
-380.931	-200.000	-0.003	-0.055
-379.917	-200.000	-0.019	0.089
-378.902	-105.761	-0.492	-0.111
-377.888	-68.927	-0.068	-0.026
-376.873	166.589	0.012	-0.017
-375.858	-21.353	-0.041	-0.025
-374.844	-32.867	0.421	-0.234
-373.829	-9.712	0.073	-0.049
-372.815	81.753	0.069	-0.075
-371.800	142.239	0.118	0.157
-370.785	710.886	0.076	0.201
-369.771	65.354	-0.130	0.131
-368.756	353.609	-0.042	0.084
-367.742	-52.607	0.151	0.070
-366.727	195.828	0.134	-0.205
-365.712	800.000	0.043	-0.183
-364.698	-200.000	0.014	-0.166
-363.683	-200.000	0.003	0.078
-362.669	-200.000	-0.028	-0.193
-361.654	-18.732	0.227	-0.142
-360.639	477.727	0.173	-0.392
-359.625	58.009	-0.179	-0.176
-358.610	-25.430	-0.240	-0.142
-357.596	-73.741	0.281	0.102
-356.581	800.000	-0.068	-0.287
-355.566	605.221	-0.066	-0.164
-354.552	-200.000	0.048	0.211
-353.537	-31.080	0.109	0.062
-352.523	27.106	-0.154	-0.129
-351.508	319.010	-0.090	0.171
-350.493	-122.791	-0.070	0.011
-349.479	129.038	0.159	0.203
-348.464	-200.000	0.046	-0.292
-347.450	-20.920	0.186	0.114
-346.435	-200.000	-0.005	-0.487
-345.420	-20.006	-0.127	0.078
-344.406	-200.000	0.018	0.135
-343.391	-40.307	0.261	0.136
-342.377	800.000	-0.128	-0.545
-341.362	418.802	0.042	0.089
-340.348	-106.281	-0.160	-0.036
-339.333	45.648	-0.193	0.179
-338.318	-200.000	0.083	-0.416
-337.304	-94.334	-0.068	-0.019
-336.289	2.248	0.112	0.081
-335.275	-103.276	0.205	-0.048
-334.260	735.554	-0.059	-0.158
-333.245	-80.391	0.334	0.112
-332.231	-200.000	-0.008	-0.233
-331.216	-200.000	0.038	0.415
-330.202	16.190	-0.144	0.114
-329.187	39.085	-0.117	0.105
-328.172	800.000	0.010	0.038
-327.158	-108.895	-0.093	0.020
-326.143	-49.645	-0.201	0.095
-325.129	-37.830	0.091	0.048
-324.114	212.391	0.094	0.148
-323.099	120.202	0.200	0.248
-322.085	62.034	-0.104	0.104
-321.070	-200.000	-0.050	0.228
-320.056	-111.347	-0.205	-0.042
-319.041	-95.197	0.279	-0.075
-318.026	489.266	0.121	0.277
-317.012	-98.510	0.115	0.029
-315.997	268.164	-0.145	-0.254
-314.983	800.000	-0.011	0.035
-313.968	-118.187	0.317	-0.056
-312.953	-114.204	-0.263	-0.051
-311.939	497.318	-0.111	-0.255
-310.924	-80.908	0.202	-0.067
-309.910	-63.867	0.104	0.043
-308.895	253.660	0.134	-0.229
-307.880	83.439	-0.197	0.214
-306.866	138.026	-0.167	-0.219
-305.851	-180.052	0.386	-0.008
-304.837	800.000	0.027	-0.102
-303.822	91.242	0.047	-0.052
-302.807	-165.105	0.297	0.013
-301.793	-110.381	0.139	-0.029
-300.778	-105.858	0.352	-0.079
-299.764	-200.000	-0.026	0.133
-298.749	-17.887	-0.181	0.114
-297.735	-60.962	-0.194	0.082
-296.720	-61.170	-0.320	0.135
-295.705	87.864	-0.141	-0.157
-294.691	4.748	-0.059	0.043
-293.676	-46.417	-0.346	0.169
-292.662	800.000	-0.058	-0.173
-291.647	-200.000	-0.020	-0.090
-290.632	119.420	-0.105	-0.129
-289.618	-200.000	-0.036	0.274
-288.603	-185.719	-0.113	-0.002
-287.589	25.805	-0.191	0.159
-286.574	800.000	0.088	0.288
-285.559	-87.478	0.005	0.002
-284.545	161.537	-0.081	-0.113
-283.530	-37.930	-0.167	0.088
-282.516	40.337	0.335	-0.301
-281.501	78.596	-0.232	0.247
-280.486	98.392	0.145	0.166
-279.472	-58.206	-0.346	-0.150
-278.457	-104.303	-0.156	0.036
-277.443	620.210	0.132	0.332
-276.428	800.000	-0.028	0.117
-275.413	27.494	0.197	0.165
-274.399	-200.000	0.034	-0.513
-273.384	-200.000	-0.029	-0.137
-272.370	-200.000	-0.031	-0.163
-271.355	72.796	-0.103	-0.108
-270.340	-37.407	0.183	-0.097
-269.326	-5.938	-0.116	0.079
-268.311	-200.000	-0.018	-0.236
-267.297	34.863	0.133	0.116
-266.282	-200.000	-0.001	-0.095
-265.267	800.000	-0.083	-0.293
-264.253	93.347	-0.106	0.119
-263.238	686.225	0.086	0.225
-262.224	85.268	0.143	0.157
-261.209	800.000	0.056	-0.163
-260.195	-127.682	-0.139	0.020
-259.180	-159.255	-0.220	0.012
-258.165	170.306	-0.161	0.230
-257.151	-103.133	-0.184	-0.044
-256.136	-200.000	0.003	0.258
-255.122	-10.299	0.324	-0.215
-254.107	70.810	0.184	-0.190
-253.092	15.683	0.086	0.067
-252.078	-103.567	0.297	-0.070
-251.063	-146.962	-0.175	0.015
-250.049	49.575	0.069	0.065
-249.034	-126.418	-0.257	0.038
-248.019	-93.760	0.082	-0.022
-247.005	51.032	0.130	-0.122
-245.990	27.206	-0.117	-0.098
-244.976	-200.000	-0.042	-0.306
-243.961	-106.097	-0.218	0.049
-242.946	-200.000	0.000	-0.076
-241.932	800.000	-0.069	0.202
-240.917	96.191	0.162	0.184
-239.903	104.142	0.045	-0.053
-238.888	800.000	-0.067	0.225
-237.873	-63.814	-0.157	-0.064
-236.859	-200.000	0.014	-0.118
-235.844	-149.675	0.258	0.020
-234.830	800.000	0.175	0.485
-233.815	-36.704	-0.225	0.120
-232.800	-55.941	-0.179	-0.080
-231.786	-9.317	0.209	0.139
-230.771	107.399	0.215	0.255
-229.757	451.938	-0.164	0.362
-228.742	-112.460	0.247	-0.049
-227.727	-17.925	-0.388	-0.242
-226.713	253.575	-0.047	0.081
-225.698	-126.923	-0.176	-0.026
-224.684	-200.000	0.076	-0.429
-223.669	-200.000	-0.005	0.166
-222.655	-200.000	0.022	-0.111
-221.640	-169.099	-0.299	0.011
-220.625	-83.958	-0.280	0.089
-219.611	25.658	0.105	-0.087
-218.596	250.092	-0.198	0.334
-217.582	2.565	0.180	0.130
-216.567	56.884	-0.284	0.275
-215.552	38.529	-0.088	-0.078
-214.538	523.819	0.094	0.219
-213.523	-128.130	-0.051	0.007
-212.509	-200.000	0.046	0.203
-211.494	800.000	0.040	0.136
-210.479	-129.174	0.016	-0.002
-209.465	216.693	-0.187	0.296
-208.450	-200.000	0.016	0.241
-207.436	298.229	0.094	0.172
-206.421	-94.796	0.168	0.045
-205.406	663.248	-0.158	0.407
-204.392	800.000	0.077	0.326
-203.377	568.067	-0.133	0.321
-202.363	55.578	-0.110	-0.106
-201.348	-137.817	0.097	0.011
-200.333	-18.357	0.266	-0.165
-199.319	97.161	0.207	0.236
-198.304	-183.500	-0.208	-0.004
-197.290	-55.579	0.153	0.068
-196.275	-79.873	-0.269	0.090
-195.260	354.190	-0.141	0.279
-194.246	-200.000	-0.012	-0.259
-193.231	10.387	0.225	0.171
-192.217	181.952	0.198	0.289
-191.202	7.228	0.189	0.141
-190.187	-200.000	0.015	-0.199
-189.173	800.000	0.061	-0.200
-188.158	-200.000	-0.028	-0.302
-187.144	237.436	-0.031	0.050
-186.129	-200.000	-0.019	-0.093
-185.114	414.876	0.077	-0.163
-184.100	123.607	0.141	-0.176
-183.085	18.216	-0.169	-0.134
-182.071	120.346	0.015	0.019
-181.056	638.177	-0.022	-0.056
-180.042	800.000	-0.106	-0.330
-179.027	-3.883	0.126	-0.087
-178.012	45.878	0.338	0.311
-176.998	800.000	-0.076	0.298
-175.983	77.175	0.188	0.199
-174.969	25.758	0.252	-0.209
-173.954	204.540	0.113	0.174
-172.939	800.000	0.132	0.410
-171.925	233.517	0.276	0.452
-170.910	-46.083	-0.078	0.038
-169.896	800.000	0.068	0.213
-168.881	161.805	-0.181	-0.252
-167.866	-73.432	-0.038	0.014
-166.852	800.000	-0.047	0.152
-165.837	188.318	-0.202	-0.300
-164.823	-14.766	-0.034	-0.022
-163.808	117.454	0.110	0.135
-162.793	91.298	-0.192	-0.214
-161.779	-200.000	0.007	-0.364
-160.764	42.280	0.283	0.256
-159.750	45.858	-0.064	0.059
-158.735	135.247	-0.245	-0.316
-157.720	-106.785	0.241	0.053
-156.706	-172.877	0.151	-0.005
-155.691	5.213	-0.300	-0.219
-154.677	234.534	-0.092	0.151
-153.662	-72.299	-0.205	0.076
-152.647	-200.000	0.003	0.342
-151.633	-51.987	0.200	-0.092
-150.618	-38.768	-0.299	0.157
-149.604	180.262	-0.196	0.285
-148.589	-140.189	0.182	-0.019
-147.574	800.000	-0.121	0.436
-146.560	195.130	-0.180	0.272
-145.545	-46.902	-0.189	0.092
-144.531	169.604	0.126	0.178
-143.516	-108.519	0.131	-0.028
-142.502	-20.277	0.333	0.204
-141.487	-147.346	-0.173	-0.015
-140.472	-88.318	-0.335	0.100
-139.458	52.105	-0.236	-0.224
-138.443	800.000	0.041	0.173
-137.429	-133.233	-0.201	-0.025
-136.414	13.917	0.178	-0.138
-135.399	49.199	0.137	-0.128
-134.385	9.035	-0.146	0.109
-133.370	766.376	0.079	0.212
-132.356	335.883	0.033	0.063
-131.341	-133.855	0.332	0.041
-130.326	-46.385	-0.226	-0.110
-129.312	171.503	0.049	-0.069
-128.297	9.953	0.070	-0.052
-127.283	-25.103	0.228	-0.134
-126.268	800.000	0.098	0.303
-125.253	-139.177	0.068	-0.007
-124.239	695.305	-0.035	-0.091
-123.224	800.000	-0.089	0.245
-122.210	75.776	-0.063	-0.066
