DTS Sentinel unit serial number:	SN413079Multiplexer serial number:	ORYXHardware model number:	OX4-SRSoftware version number:	ORYX F/W v4.00 Oryx Data Collector v3.7.2.0data status	okinstallation	princeton_trtdifferential loss correction	single-endedforward channel	channel 2reverse channel	N/Adate	2019/09/19time	15:35:35forward acquisition time	60.00reverse acquisition time	0.00gamma	496.2192k internal	0.2318k external	0.2318temperature offset calibration	1.0024default loss term (dB/km)	0.3790temperature slope calibration	1.0000multiplexer offset coefficient	1.0000multiplexer slope coefficient	1.0000fibre end	0.00T internal ref (°C)	34.30T ext. ref 1 (°C)	1.15T ext. ref 2 (°C)	31.89length (m)	temperature (°C)	Stokes	anti-Stokes-747.200	-151.884	0.218	0.016
-746.185	125.320	-0.331	0.422
-745.171	-200.000	0.055	0.250
-744.156	86.725	-0.041	-0.046
-743.142	-190.126	0.123	-0.001
-742.127	-34.514	-0.238	-0.132
-741.112	201.700	-0.157	0.244
-740.098	235.508	-0.086	0.143
-739.083	16.680	-0.055	0.044
-738.069	-200.000	0.014	-0.157
-737.054	-109.589	0.155	-0.033
-736.039	-33.798	-0.223	-0.124
-735.025	-152.529	0.212	-0.015
-734.010	-200.000	0.002	-0.232
-732.996	166.676	0.185	-0.265
-731.981	-200.000	0.015	-0.126
-730.966	800.000	-0.047	-0.180
-729.952	-50.176	-0.350	-0.168
-728.937	390.689	0.120	0.253
-727.923	-120.843	-0.273	0.047
-726.908	556.983	-0.136	0.331
-725.894	-140.640	-0.131	0.014
-724.879	800.000	0.074	-0.237
-723.864	-200.000	0.010	-0.164
-722.850	373.855	0.066	-0.136
-721.835	-85.151	0.305	-0.096
-720.821	-173.055	-0.394	0.012
-719.806	-121.708	0.238	-0.040
-718.791	543.148	-0.021	0.051
-717.777	-58.830	-0.402	-0.176
-716.762	249.571	-0.013	0.023
-715.748	199.863	-0.157	0.244
-714.733	-200.000	-0.003	0.361
-713.718	-17.610	0.263	-0.167
-712.704	-200.000	-0.008	0.224
-711.689	-104.532	-0.397	-0.093
-710.675	107.764	-0.078	0.094
-709.660	512.443	0.014	-0.033
-708.645	-200.000	0.006	0.138
-707.631	349.015	0.112	0.223
-706.616	-61.043	-0.283	-0.121
-705.602	800.000	-0.091	-0.267
-704.587	-200.000	0.022	0.263
-703.572	72.347	0.108	0.114
-702.558	800.000	0.087	0.384
-701.543	72.452	0.064	-0.068
-700.529	-70.278	-0.181	-0.069
-699.514	-200.000	0.017	0.141
-698.499	800.000	0.101	-0.421
-697.485	-93.555	-0.301	0.084
-696.470	151.298	0.219	-0.301
-695.456	-0.852	-0.173	-0.124
-694.441	104.284	0.024	0.029
-693.426	709.515	-0.111	0.297
-692.412	49.269	-0.121	-0.115
-691.397	-64.892	-0.015	0.006
-690.383	-89.567	0.221	-0.065
-689.368	-92.913	-0.265	0.075
-688.354	-115.704	-0.160	-0.030
-687.339	73.580	0.112	0.119
-686.324	-34.332	-0.333	0.184
-685.310	103.021	-0.092	0.108
-684.295	301.169	-0.089	-0.166
-683.281	-95.708	-0.375	-0.101
-682.266	146.976	-0.209	-0.284
-681.251	-71.267	0.249	0.094
-680.237	-145.581	0.037	0.003
-679.222	-135.820	-0.231	-0.028
-678.208	26.579	0.319	0.269
-677.193	-48.799	0.319	0.155
-676.178	-96.171	0.110	0.029
-675.164	184.837	-0.181	-0.271
-674.149	800.000	0.026	-0.097
-673.135	-53.432	-0.159	0.074
-672.120	775.628	0.022	0.060
-671.105	365.825	-0.067	0.136
-670.091	-155.579	0.088	-0.006
-669.076	380.547	0.086	-0.179
-668.062	800.000	-0.061	-0.265
-667.047	-200.000	0.000	0.004
-666.032	-200.000	-0.073	0.387
-665.018	800.000	0.020	-0.081
-664.003	475.812	0.054	-0.122
-662.989	95.029	-0.106	-0.122
-661.974	-24.182	-0.255	0.153
-660.959	45.433	0.150	0.139
-659.945	-200.000	-0.019	0.264
-658.930	135.237	0.326	-0.427
-657.916	-200.000	0.013	-0.166
-656.901	-111.909	-0.194	0.040
-655.886	124.942	0.070	0.088
-654.872	3.457	0.145	0.107
-653.857	-200.000	-0.063	0.373
-652.843	239.817	-0.022	0.036
-651.828	372.118	0.044	0.089
-650.814	473.190	0.208	0.473
-649.799	-200.000	-0.001	-0.051
-648.784	172.622	-0.067	0.097
-647.770	-200.000	-0.045	0.276
-646.755	545.120	-0.101	0.244
-645.741	-142.835	-0.133	0.013
-644.726	-200.000	0.028	-0.131
-643.711	197.116	-0.086	-0.133
-642.697	372.460	-0.143	0.293
-641.682	-6.884	-0.117	0.080
-640.668	-200.000	-0.010	-0.257
-639.653	116.348	0.330	0.408
-638.638	-192.795	-0.327	0.003
-637.624	-70.491	0.012	0.004
-636.609	-104.824	-0.187	0.043
-635.595	-200.000	-0.033	-0.213
-634.580	-63.470	-0.046	-0.019
-633.565	175.192	0.057	0.084
-632.551	800.000	-0.039	0.143
-631.536	-200.000	0.014	-0.330
-630.522	-11.049	-0.169	0.112
-629.507	800.000	-0.084	-0.339
-628.492	-200.000	-0.040	-0.274
-627.478	-200.000	0.038	-0.234
-626.463	23.331	0.104	0.086
-625.449	-25.039	0.241	-0.144
-624.434	-64.709	0.075	0.031
-623.419	421.332	-0.066	0.143
-622.405	-25.961	-0.147	0.087
-621.390	-3.411	-0.234	-0.164
-620.376	-143.620	-0.191	0.018
-619.361	-200.000	0.010	0.239
-618.346	6.402	-0.183	-0.137
-617.332	165.527	0.091	0.129
-616.317	-200.000	-0.019	-0.155
-615.303	-138.672	0.162	-0.018
-614.288	-200.000	-0.033	0.237
-613.273	-200.000	-0.021	0.219
-612.259	800.000	-0.104	0.319
-611.244	-200.000	-0.031	-0.178
-610.230	107.015	-0.047	0.056
-609.215	-200.000	0.095	0.477
-608.201	17.877	-0.148	-0.119
-607.186	675.920	0.120	-0.315
-606.171	800.000	-0.041	0.152
-605.157	445.848	0.086	-0.190
-604.142	-145.200	0.204	0.019
-603.128	-31.019	-0.069	-0.039
-602.113	54.776	0.115	0.112
-601.098	15.989	-0.296	0.235
-600.084	-170.572	-0.341	0.012
-599.069	183.003	0.200	0.297
-598.055	63.644	0.349	0.352
-597.040	410.101	0.087	-0.185
-596.025	159.971	-0.241	-0.337
-595.011	95.922	-0.229	0.264
-593.996	-200.000	0.024	-0.258
-592.982	26.369	-0.137	-0.115
-591.967	112.304	0.222	0.271
-590.952	66.987	0.047	0.048
-589.938	-200.000	0.001	0.013
-588.923	-200.000	0.067	-0.316
-587.909	800.000	0.052	0.222
-586.894	-51.236	-0.220	-0.104
-585.879	-75.680	0.189	0.068
-584.865	-26.784	0.294	-0.173
-583.850	-81.003	-0.161	0.054
-582.836	48.836	0.078	-0.073
-581.821	608.575	-0.097	0.244
-580.806	-101.442	-0.139	-0.034
-579.792	19.052	-0.380	0.307
-578.777	-165.393	-0.191	0.008
-577.763	18.569	0.205	-0.165
-576.748	-200.000	0.004	0.029
-575.733	-200.000	-0.046	0.228
-574.719	-200.000	-0.028	-0.304
-573.704	-31.176	0.177	-0.100
-572.690	-136.591	-0.157	0.018
-571.675	-121.901	-0.235	-0.039
-570.661	-65.402	-0.127	0.051
-569.646	-57.780	-0.100	-0.044
-568.631	560.873	0.057	0.140
-567.617	-35.896	0.164	-0.089
-566.602	-76.734	-0.339	-0.119
-565.588	71.782	0.176	-0.184
-564.573	-200.000	-0.002	0.090
-563.558	409.407	-0.083	0.176
-562.544	-200.000	0.002	0.165
-561.529	320.654	0.071	-0.136
-560.515	800.000	0.057	0.239
-559.500	-75.851	0.231	-0.082
-558.485	66.760	0.167	-0.171
-557.471	-2.279	0.113	0.080
-556.456	17.511	-0.127	0.102
-555.442	-91.229	0.107	0.031
-554.427	-54.869	-0.246	-0.111
-553.412	-143.903	-0.379	-0.036
-552.398	250.285	-0.004	-0.006
-551.383	123.716	0.112	0.141
-550.369	-93.189	0.089	0.025
-549.354	15.724	-0.066	0.052
-548.339	800.000	0.065	0.183
-547.325	-97.606	-0.122	0.032
-546.310	800.000	0.025	-0.094
-545.296	-24.864	-0.033	0.020
-544.281	-63.373	-0.160	-0.066
-543.266	-166.408	0.116	-0.005
-542.252	-143.134	-0.126	-0.012
-541.237	554.190	-0.087	-0.211
-540.223	149.246	-0.070	0.095
-539.208	57.175	0.115	-0.112
-538.193	-23.867	0.326	-0.196
-537.179	-34.664	-0.307	0.168
-536.164	-63.934	0.170	0.070
-535.150	-30.559	-0.249	-0.142
-534.135	237.758	0.115	-0.192
-533.121	-140.570	0.159	-0.017
-532.106	-15.173	0.137	-0.088
-531.091	800.000	-0.070	0.255
-530.077	-200.000	0.003	0.072
-529.062	204.082	-0.095	0.148
-528.048	-56.452	-0.159	-0.071
-527.033	-200.000	0.032	-0.356
-526.018	-160.960	0.078	0.004
-525.004	-98.483	-0.126	-0.032
-523.989	-6.591	-0.105	0.072
-522.975	-91.804	0.458	0.131
-521.960	133.756	-0.164	-0.213
-520.945	-51.418	-0.323	-0.152
-519.931	800.000	-0.054	-0.184
-518.916	-136.509	0.368	0.043
-517.902	-81.861	-0.255	0.084
-516.887	-87.902	-0.102	0.031
-515.872	407.862	0.066	-0.140
-514.858	432.154	-0.031	-0.066
-513.843	12.495	0.271	0.210
-512.829	-88.415	-0.083	0.025
-511.814	800.000	0.124	-0.407
-510.799	-116.558	0.136	-0.025
-509.785	116.110	-0.246	0.303
-508.770	296.085	0.038	0.071
-507.756	-76.302	0.209	-0.074
-506.741	326.342	-0.076	0.145
-505.726	-17.456	-0.101	-0.063
-504.712	146.516	0.023	0.032
-503.697	-123.901	-0.183	-0.029
-502.683	-125.216	0.242	0.037
-501.668	55.977	0.161	-0.156
-500.653	-200.000	0.036	0.183
-499.639	-180.828	-0.090	-0.002
-498.624	-120.532	0.274	0.047
-497.610	-112.608	0.220	0.044
-496.595	-200.000	0.014	-0.384
-495.581	-200.000	0.001	-0.067
-494.566	73.813	0.022	0.024
-493.551	-4.038	-0.355	-0.247
-492.537	190.590	-0.299	0.450
-491.522	-28.336	-0.152	0.088
-490.508	254.249	0.125	-0.215
-489.493	-192.151	0.351	0.003
-488.478	-98.209	0.032	0.008
-487.464	-200.000	0.009	0.528
-486.449	117.804	-0.282	0.348
-485.435	-200.000	-0.022	-0.099
-484.420	-200.000	0.009	-0.383
-483.405	185.805	-0.075	-0.111
-482.391	-162.816	0.253	0.012
-481.376	62.159	-0.210	-0.210
-480.362	-81.555	-0.322	-0.106
-479.347	-152.625	0.084	-0.006
-478.332	-123.259	0.272	-0.043
-477.318	-116.489	-0.293	-0.054
-476.303	495.915	0.028	-0.065
-475.289	-200.000	-0.321	0.000
-474.274	-40.104	0.288	0.150
-473.259	800.000	0.092	-0.271
-472.245	-200.000	0.065	-0.397
-471.230	-54.542	-0.258	0.117
-470.216	-174.172	0.304	-0.009
-469.201	-200.000	0.003	-0.175
-468.186	-92.220	0.113	-0.032
-467.172	82.686	0.065	-0.071
-466.157	-88.220	0.100	0.030
-465.143	-30.546	-0.222	-0.126
-464.128	200.912	-0.047	-0.072
-463.113	-146.207	-0.110	-0.010
-462.099	-20.365	0.159	0.098
-461.084	-20.530	0.243	0.149
-460.070	-17.514	-0.247	0.156
-459.055	591.720	0.019	0.048
-458.040	-107.178	-0.122	-0.027
-457.026	45.826	-0.260	0.241
-456.011	223.024	-0.139	-0.225
-454.997	-200.000	0.009	0.058
-453.982	-200.000	-0.005	0.196
-452.968	-102.441	-0.288	0.069
-451.953	-132.894	0.221	0.028
-450.938	-3.386	0.268	0.187
-449.924	-132.119	-0.077	0.010
-448.909	320.298	-0.055	0.104
-447.895	-87.946	-0.196	-0.059
-446.880	104.312	0.263	-0.309
-445.865	243.446	0.191	0.321
-444.851	800.000	-0.025	-0.081
-443.836	-66.592	0.247	-0.098
-442.822	800.000	0.062	-0.221
-441.807	169.198	0.128	-0.183
-440.792	-80.333	0.170	-0.057
-439.778	-200.000	0.023	-0.305
-438.763	800.000	-0.017	-0.068
-437.749	800.000	-0.128	-0.441
-436.734	-30.087	-0.242	-0.138
-435.719	63.010	-0.094	0.094
-434.705	800.000	0.045	0.132
-433.690	46.066	-0.140	0.130
-432.676	-200.000	-0.028	0.130
-431.661	-200.000	0.010	-0.228
-430.646	-188.635	-0.064	-0.001
-429.632	18.939	0.269	0.215
-428.617	-200.000	0.030	-0.149
-427.603	171.273	0.119	-0.170
-426.588	-67.015	-0.150	-0.059
-425.573	800.000	-0.032	-0.122
-424.559	-4.414	0.264	-0.183
-423.544	263.084	0.165	-0.287
-422.530	-200.000	0.016	0.195
-421.515	-68.605	0.243	-0.094
-420.500	-200.000	-0.037	0.250
-419.486	297.342	-0.076	0.140
-418.471	19.717	-0.063	0.051
-417.457	-200.000	-0.002	-0.190
-416.442	-200.000	-0.001	0.290
-415.428	-111.974	0.154	0.031
-414.413	-75.472	-0.048	0.017
-413.398	-200.000	0.036	-0.200
-412.384	24.790	-0.450	-0.373
-411.369	65.084	-0.115	-0.116
-410.355	-39.388	0.040	-0.021
-409.340	-70.880	0.300	-0.113
-408.325	-200.000	-0.001	-0.030
-407.311	107.096	-0.187	0.222
-406.296	142.503	0.159	-0.210
-405.282	-141.378	0.257	0.026
-404.267	622.244	-0.132	-0.331
-403.252	-139.554	0.192	-0.020
-402.238	-88.735	0.213	0.063
-401.223	800.000	-0.044	-0.153
-400.209	-119.821	-0.241	0.041
-399.194	135.005	-0.321	-0.416
-398.179	-200.000	-0.023	-0.257
-397.165	129.477	-0.134	-0.171
-396.150	244.071	0.105	0.176
-395.136	-200.000	-0.001	0.172
-394.121	192.370	-0.109	0.164
-393.106	-98.825	-0.110	0.028
-392.092	749.525	0.087	-0.234
-391.077	-20.141	0.294	-0.181
-390.063	800.000	0.031	0.089
-389.048	-123.518	-0.096	-0.015
-388.033	-6.675	0.068	0.046
-387.019	-2.247	-0.066	0.046
-386.004	-0.078	-0.378	-0.269
-384.990	800.000	0.101	0.318
-383.975	505.766	0.116	-0.268
-382.960	227.796	0.128	-0.208
-381.946	-200.000	-0.041	0.248
-380.931	800.000	0.081	0.311
-379.917	-77.887	0.113	0.039
-378.902	164.831	-0.228	0.321
-377.888	15.297	0.233	-0.183
-376.873	-16.466	0.193	-0.122
-375.858	403.524	-0.024	-0.050
-374.844	80.818	0.110	-0.118
-373.829	800.000	-0.035	0.104
-372.815	-151.883	-0.080	0.006
-371.800	-95.965	0.255	-0.068
-370.785	-109.498	0.125	-0.026
-369.771	-200.000	-0.053	-0.274
-368.756	155.377	-0.176	0.241
-367.742	-121.332	0.145	-0.024
-366.727	11.055	-0.286	0.218
-365.712	329.336	-0.098	-0.187
-364.698	589.944	0.090	-0.220
-363.683	800.000	-0.012	-0.041
-362.669	104.816	0.034	0.040
-361.654	800.000	0.071	0.246
-360.639	18.214	0.159	0.126
-359.625	-200.000	-0.009	-0.086
-358.610	-122.689	-0.285	0.046
-357.596	256.559	-0.085	-0.146
-356.581	-168.284	0.213	0.008
-355.566	-200.000	0.038	-0.235
-354.552	704.582	-0.039	0.103
-353.537	-56.890	0.184	-0.081
-352.523	13.182	-0.241	-0.186
-351.508	-40.681	-0.252	-0.130
-350.493	512.338	-0.135	0.313
-349.479	322.521	0.019	0.036
-348.464	-3.990	0.250	-0.173
-347.450	396.570	-0.166	0.346
-346.435	395.755	-0.052	-0.109
-345.420	87.492	0.218	0.240
-344.406	-49.273	-0.095	-0.045
-343.391	-20.244	-0.121	-0.074
-342.377	800.000	0.052	0.171
-341.362	65.278	0.195	0.197
-340.348	-195.742	0.098	-0.001
-339.333	800.000	-0.076	0.247
-338.318	-200.000	0.009	0.236
-337.304	70.660	0.183	0.189
-336.289	-200.000	0.014	0.162
-335.275	63.701	-0.168	0.168
-334.260	139.694	-0.080	-0.105
-333.245	-24.707	0.225	-0.133
-332.231	50.193	0.213	0.201
-331.216	-102.178	-0.283	0.068
-330.202	-200.000	-0.005	0.271
-329.187	210.269	0.028	0.044
-328.172	61.309	0.098	-0.097
-327.158	-200.000	-0.008	-0.137
-326.143	237.479	-0.129	-0.213
-325.129	-48.684	0.265	0.127
-324.114	156.239	-0.209	0.287
-323.099	-37.477	-0.065	0.034
-322.085	470.938	0.091	0.203
-321.070	80.433	0.187	0.201
-320.056	204.325	0.124	0.192
-319.041	-153.113	0.131	0.009
-318.026	227.807	-0.048	0.078
-317.012	-200.000	-0.004	0.027
-315.997	782.453	-0.089	-0.243
-314.983	367.776	-0.109	-0.219
-313.968	-84.072	0.158	0.050
-312.953	24.690	-0.291	0.240
-311.939	800.000	-0.081	0.233
-310.924	-159.033	0.494	-0.028
-309.910	-58.063	-0.208	-0.090
-308.895	-99.541	0.412	-0.103
-307.880	800.000	0.040	-0.154
-306.866	800.000	0.053	0.148
-305.851	-200.000	0.009	-0.316
-304.837	798.850	-0.014	-0.037
-303.822	-95.687	-0.301	-0.080
-302.807	-23.782	-0.321	-0.191
-301.793	177.498	0.154	0.224
-300.778	-34.651	-0.225	0.123
-299.764	-79.402	0.218	0.073
-298.749	-185.230	-0.186	-0.003
-297.735	80.840	0.231	-0.248
-296.720	-147.412	-0.050	-0.004
-295.705	-200.000	-0.013	0.137
-294.691	-200.000	-0.013	0.071
-293.676	-94.916	-0.389	-0.105
-292.662	-76.037	-0.108	-0.038
-291.647	-54.634	-0.267	-0.120
-290.632	-94.518	-0.249	-0.067
-289.618	17.460	0.125	0.099
-288.603	-53.585	0.108	-0.049
-287.589	-200.000	0.020	-0.119
-286.574	-200.000	0.033	-0.180
-285.559	800.000	-0.016	-0.055
-284.545	-200.000	-0.065	-0.307
-283.530	800.000	0.042	-0.145
-282.516	-121.934	-0.337	0.055
-281.501	538.932	-0.066	0.156
-280.486	137.956	-0.167	0.218
-279.472	-200.000	-0.065	-0.298
-278.457	-141.245	0.372	0.038
-277.443	800.000	0.058	0.242
-276.428	705.595	-0.092	0.242
-275.413	800.000	0.079	-0.284
-274.399	757.039	-0.071	-0.191
-273.384	1.031	-0.315	-0.224
-272.370	313.735	-0.080	0.150
-271.355	692.424	0.168	0.437
-270.340	-83.946	-0.214	-0.067
-269.326	-13.155	-0.250	-0.161
-268.311	-82.286	-0.170	0.055
-267.297	-57.201	0.217	0.095
-266.282	13.898	-0.131	0.101
-265.267	800.000	0.094	-0.357
-264.253	-200.000	-0.010	0.169
-263.238	41.765	-0.084	0.075
-262.224	56.643	0.238	-0.230
-261.209	-19.620	0.177	0.109
-260.195	591.735	-0.078	-0.191
-259.180	35.427	-0.031	0.027
-258.165	626.947	0.106	0.267
-257.151	800.000	-0.064	-0.186
-256.136	-7.555	0.199	-0.134
-255.122	800.000	0.085	-0.254
-254.107	-37.755	0.153	-0.081
-253.092	-58.447	0.169	0.073
-252.078	61.276	0.222	0.219
-251.063	-200.000	0.018	-0.115
-250.049	-200.000	0.065	0.324
-249.034	135.455	-0.090	0.116
-248.019	-200.000	0.080	0.391
-247.005	180.687	-0.064	-0.093
-245.990	-200.000	0.013	0.315
-244.976	3.282	-0.255	-0.184
-243.961	-77.884	0.253	-0.087
-242.946	-99.055	-0.389	0.098
-241.932	-63.264	0.127	-0.052
-240.917	-200.000	0.047	-0.266
-239.903	462.251	0.055	-0.122
-238.888	-50.703	0.283	0.132
-237.873	484.921	0.050	0.113
-236.859	-131.449	0.186	-0.024
-235.844	800.000	0.156	0.472
-234.830	-114.416	0.124	0.024
-233.815	204.534	0.162	0.250
-232.800	618.662	-0.080	0.199
-231.786	284.225	0.039	-0.070
-230.771	-200.000	0.020	-0.164
-229.757	133.344	0.257	0.330
-228.742	38.321	0.327	0.289
-227.727	-132.559	0.128	0.016
-226.713	369.796	-0.110	0.220
-225.698	167.635	-0.320	0.451
-224.684	-130.537	-0.425	-0.057
-223.669	-74.804	0.094	-0.033
-222.655	-60.625	0.344	0.145
-221.640	-200.000	0.013	0.318
-220.625	-119.162	0.201	0.035
-219.611	637.906	-0.167	0.420
-218.596	-47.527	0.017	-0.008
-217.582	3.817	-0.128	0.093
-216.567	-66.048	-0.128	0.051
-215.552	-97.063	0.175	-0.045
-214.538	32.691	-0.323	0.277
-213.523	180.003	-0.143	0.208
-212.509	55.882	-0.156	-0.150
-211.494	800.000	0.062	-0.206
-210.479	-200.000	0.001	0.081
-209.465	-200.000	-0.007	-0.187
-208.450	-139.012	0.355	-0.038
-207.436	-82.731	0.355	-0.114
-206.421	-200.000	0.012	-0.136
-205.406	-108.442	0.452	-0.096
-204.392	58.257	-0.082	-0.079
-203.377	-40.582	-0.237	0.122
-202.363	-141.499	0.333	0.033
-201.348	459.338	-0.137	-0.301
-200.333	-49.828	0.121	-0.057
-199.319	148.461	0.165	-0.220
-198.304	12.199	-0.256	0.195
-197.290	367.081	-0.110	-0.220
-196.275	-34.770	-0.031	-0.017
-195.260	24.820	0.114	-0.094
-194.246	423.360	-0.126	0.269
-193.231	16.119	-0.163	0.127
-192.217	117.425	-0.052	0.063
-191.202	33.182	0.234	-0.201
-190.187	-31.475	0.185	-0.103
-189.173	51.981	-0.276	0.261
-188.158	-43.828	-0.199	0.099
-187.144	-158.523	0.110	-0.006
-186.129	-69.918	-0.278	-0.105
-185.114	800.000	0.064	0.179
-184.100	240.177	0.040	0.066
-183.085	124.531	0.063	0.079
-182.071	-98.539	0.276	0.070
-181.056	-143.445	0.238	-0.022
-180.042	26.521	-0.290	-0.240
-179.027	-135.007	0.240	0.029
-178.012	-84.102	-0.141	-0.044
-176.998	-0.675	-0.196	0.137
-175.983	-60.868	0.319	0.133
-174.969	-200.000	-0.096	-0.465
-173.954	-14.035	-0.337	0.215
-172.939	577.472	0.090	-0.219
-171.925	-134.916	0.083	-0.010
-170.910	94.844	-0.086	-0.097
-169.896	-96.875	0.287	-0.075
-168.881	223.308	-0.016	-0.026
-167.866	-200.000	0.006	-0.123
-166.852	-67.168	0.225	0.088
-165.837	-2.939	-0.290	0.200
-164.823	69.106	-0.191	-0.195
-163.808	171.066	0.152	-0.216
-162.793	436.622	0.122	0.263
-161.779	328.305	0.033	-0.063
-160.764	164.655	-0.167	0.232
-159.750	-200.000	0.010	-0.304
-158.735	72.727	-0.217	0.224
-157.720	-71.919	0.280	-0.103
-156.706	-200.000	0.025	-0.286
-155.691	800.000	0.029	0.085
-154.677	-55.049	0.365	-0.163
-153.662	-7.469	0.162	-0.109
-152.647	-107.069	-0.020	-0.004
-151.633	272.980	-0.246	-0.429
-150.618	83.789	-0.144	0.155
-149.604	-200.000	-0.026	0.127
-148.589	56.843	0.103	-0.099
-147.574	-200.000	-0.003	0.128
-146.560	-119.211	-0.228	-0.039
-145.545	800.000	0.040	0.137
-144.531	-12.394	0.241	0.156
-143.516	660.153	0.032	0.081
-142.502	148.739	-0.056	0.075
-141.487	6.202	0.225	0.165
-140.472	800.000	-0.008	-0.032
-139.458	450.166	0.183	-0.400
-138.443	602.823	-0.116	0.286
-137.429	-122.499	0.284	0.046
-136.414	-200.000	-0.035	-0.244
-135.399	800.000	-0.063	0.263
-134.385	13.113	-0.207	0.158
-133.370	-73.320	0.197	0.071
-132.356	-46.887	-0.131	0.063
-131.341	800.000	0.095	0.298
-130.326	-31.775	-0.241	-0.133
-129.312	-138.557	0.086	-0.009
-128.297	-44.765	0.139	-0.069
-127.283	-200.000	-0.020	-0.155
-126.268	-76.328	-0.264	-0.092
-125.253	-113.539	-0.301	0.058
-124.239	-166.750	-0.072	0.003
-123.224	-166.343	-0.239	-0.010
-122.210	-118.048	0.103	-0.018
-121.195	619.543	0.053	0.132
