DTS Sentinel unit serial number:	SN413079Multiplexer serial number:	ORYXHardware model number:	OX4-SRSoftware version number:	ORYX F/W v4.00 Oryx Data Collector v3.7.2.0data status	okinstallation	princeton_trtdifferential loss correction	single-endedforward channel	channel 2reverse channel	N/Adate	2019/09/16time	13:43:35forward acquisition time	60.00reverse acquisition time	0.00gamma	496.2192k internal	0.2295k external	0.2295temperature offset calibration	0.9942default loss term (dB/km)	0.3790temperature slope calibration	1.0000multiplexer offset coefficient	1.0000multiplexer slope coefficient	1.0000fibre end	0.00T internal ref (°C)	42.19T ext. ref 1 (°C)	13.90T ext. ref 2 (°C)	38.28length (m)	temperature (°C)	Stokes	anti-Stokes-747.200	-65.271	0.328	0.135
-746.185	179.572	-0.238	0.356
-745.171	-23.896	0.040	-0.025
-744.156	800.000	-0.129	0.424
-743.142	800.000	-0.087	0.266
-742.127	-62.725	-0.310	0.131
-741.112	800.000	-0.062	-0.190
-740.098	-200.000	-0.014	0.483
-739.083	16.974	0.055	-0.045
-738.069	-59.835	-0.312	0.136
-737.054	712.568	0.011	-0.029
-736.039	-49.147	-0.492	0.241
-735.025	50.983	0.309	0.299
-734.010	100.351	0.126	-0.150
-732.996	461.852	0.039	-0.088
-731.981	12.890	-0.096	0.076
-730.966	-117.180	0.129	0.024
-729.952	-14.948	-0.235	-0.154
-728.937	-18.439	-0.265	0.169
-727.923	63.322	-0.295	0.303
-726.908	-111.337	-0.148	-0.031
-725.894	-119.140	0.104	0.019
-724.879	-200.000	0.012	0.078
-723.864	800.000	-0.052	0.220
-722.850	-200.000	-0.035	-0.181
-721.835	-119.149	-0.049	-0.009
-720.821	-200.000	0.018	-0.125
-719.806	181.397	0.057	-0.085
-718.791	645.874	0.067	0.175
-717.777	-89.723	0.039	0.012
-716.762	15.255	-0.137	-0.110
-715.748	120.756	-0.171	-0.217
-714.733	223.866	0.104	-0.172
-713.718	-200.000	-0.027	0.273
-712.704	48.902	0.182	0.174
-711.689	751.896	-0.065	-0.180
-710.675	800.000	0.044	-0.149
-709.660	90.344	0.187	0.214
-708.645	-0.566	-0.006	0.004
-707.631	800.000	-0.068	0.269
-706.616	-146.612	0.002	-0.000
-705.602	154.357	-0.127	-0.178
-704.587	-115.481	-0.272	-0.052
-703.572	-129.233	-0.176	-0.025
-702.558	800.000	-0.071	0.227
-701.543	-76.004	-0.213	-0.077
-700.529	241.778	0.109	-0.187
-699.514	27.602	0.248	-0.213
-698.499	101.710	-0.199	-0.237
-697.485	800.000	0.022	-0.095
-696.470	374.794	-0.166	-0.345
-695.456	-88.336	-0.196	-0.060
-694.441	-19.114	-0.359	-0.227
-693.426	-200.000	-0.062	-0.365
-692.412	-69.345	-0.193	0.076
-691.397	-70.676	-0.196	0.076
-690.383	-200.000	0.003	0.044
-689.368	42.767	0.193	0.179
-688.354	800.000	-0.056	0.177
-687.339	800.000	-0.072	-0.224
-686.324	450.376	-0.032	-0.072
-685.310	11.057	0.218	-0.170
-684.295	-13.443	0.049	0.032
-683.281	-200.000	0.031	-0.350
-682.266	129.410	-0.250	-0.326
-681.251	-200.000	0.044	-0.218
-680.237	6.558	-0.174	-0.132
-679.222	-66.633	-0.140	-0.057
-678.208	-44.520	-0.218	-0.111
-677.193	-100.555	-0.340	-0.086
-676.178	-114.429	0.197	0.039
-675.164	729.432	0.019	-0.051
-674.149	91.448	-0.085	0.097
-673.135	-78.171	0.294	0.103
-672.120	-52.524	0.250	0.118
-671.105	-120.360	-0.298	0.052
-670.091	-200.000	-0.060	0.273
-669.076	-200.000	-0.057	-0.384
-668.062	-43.072	0.178	-0.092
-667.047	560.328	0.110	-0.272
-666.032	39.919	-0.131	-0.120
-665.018	-118.797	-0.334	-0.060
-664.003	-79.221	0.152	0.052
-662.989	-94.880	0.224	0.062
-661.974	62.669	-0.064	-0.065
-660.959	-78.261	-0.151	0.053
-659.945	83.543	0.127	-0.141
-658.930	800.000	-0.165	0.470
-657.916	-106.983	0.107	0.024
-656.901	704.030	0.126	0.339
-655.886	538.455	0.073	-0.178
-654.872	-38.632	-0.333	0.179
-653.857	-110.785	0.174	-0.037
-652.843	-104.360	-0.333	0.079
-651.828	171.084	-0.118	-0.172
-650.814	536.743	0.074	-0.178
-649.799	-25.295	-0.038	-0.023
-648.784	89.345	-0.066	0.075
-647.770	-200.000	0.048	0.331
-646.755	794.955	-0.123	-0.346
-645.741	-4.853	-0.143	0.100
-644.726	165.245	-0.226	-0.325
-643.711	-28.541	-0.348	0.204
-642.697	-200.000	0.003	-0.095
-641.682	-104.571	0.321	-0.075
-640.668	268.101	-0.162	-0.289
-639.653	55.655	-0.248	-0.244
-638.638	365.543	-0.020	0.041
-637.624	-13.885	-0.187	0.123
-636.609	143.492	-0.124	0.168
-635.595	-39.566	-0.083	-0.044
-634.580	64.871	-0.286	-0.294
-633.565	-40.338	0.081	-0.043
-632.551	-200.000	0.015	-0.140
-631.536	-200.000	0.092	0.435
-630.522	-85.776	0.237	-0.075
-629.507	62.833	-0.082	-0.084
-628.492	-200.000	-0.003	0.356
-627.478	186.721	-0.030	-0.045
-626.463	800.000	-0.044	-0.175
-625.449	209.994	0.142	-0.227
-624.434	25.341	0.145	-0.122
-623.419	38.152	-0.275	0.249
-622.405	-64.736	-0.247	0.102
-621.390	-196.397	-0.191	0.001
-620.376	-76.840	-0.245	-0.087
-619.361	689.182	0.092	-0.244
-618.346	127.765	-0.082	0.106
-617.332	-200.000	-0.059	0.284
-616.317	-85.831	0.318	-0.100
-615.303	-200.000	-0.025	0.284
-614.288	-16.362	0.200	-0.129
-613.273	-111.373	-0.119	0.025
-612.259	51.664	0.073	0.071
-611.244	-117.348	0.317	-0.058
-610.230	-117.595	-0.153	-0.028
-609.215	-48.519	0.200	-0.098
-608.201	-7.637	-0.210	-0.144
-607.186	-81.913	-0.369	0.123
-606.171	56.730	-0.095	0.094
-605.157	563.705	-0.048	-0.119
-604.142	53.007	0.091	-0.088
-603.128	92.333	0.171	0.195
-602.113	288.304	0.204	-0.375
-601.098	338.409	0.057	0.113
-600.084	800.000	-0.008	0.033
-599.069	800.000	-0.047	-0.188
-598.055	513.196	0.038	-0.090
-597.040	45.901	0.244	0.229
-596.025	112.376	0.105	0.129
-595.011	159.821	0.154	-0.218
-593.996	-200.000	0.035	-0.290
-592.982	9.035	-0.163	0.125
-591.967	72.884	0.224	-0.237
-590.952	-107.972	0.288	-0.063
-589.938	357.995	0.027	-0.054
-588.923	243.416	-0.173	-0.295
-587.909	-104.372	0.278	-0.066
-586.894	-200.000	-0.038	0.329
-585.879	-200.000	0.055	0.252
-584.865	7.539	0.246	0.187
-583.850	-200.000	0.011	0.110
-582.836	-156.334	-0.328	0.021
-581.821	-9.429	0.125	0.085
-580.806	383.983	-0.050	0.105
-579.792	89.934	-0.210	0.238
-578.777	-123.786	0.397	0.064
-577.763	514.553	0.087	0.206
-576.748	-60.254	0.174	0.075
-575.733	-55.125	0.172	0.079
-574.719	-200.000	0.004	0.070
-573.704	-125.477	-0.308	0.048
-572.690	-200.000	0.053	-0.285
-571.675	-27.828	0.247	-0.145
-570.661	-200.000	0.024	-0.256
-569.646	328.526	-0.052	-0.101
-568.631	-20.589	0.163	-0.102
-567.617	800.000	0.092	0.298
-566.602	-200.000	-0.007	0.067
-565.588	-31.185	-0.274	0.157
-564.573	68.880	0.160	-0.167
-563.558	800.000	0.014	-0.057
-562.544	-1.507	-0.111	0.079
-561.529	250.883	-0.138	-0.239
-560.515	800.000	-0.090	0.254
-559.500	-35.933	-0.128	-0.071
-558.485	307.287	0.083	-0.158
-557.471	240.936	-0.150	-0.255
-556.456	800.000	-0.024	0.076
-555.442	206.779	-0.182	-0.289
-554.427	101.285	-0.196	-0.232
-553.412	316.823	-0.144	0.275
-552.398	-149.280	0.284	0.023
-551.383	35.972	-0.176	0.157
-550.369	3.275	0.185	-0.137
-549.354	-122.462	-0.217	-0.036
-548.339	20.962	0.146	-0.120
-547.325	72.713	0.304	-0.322
-546.310	183.426	-0.058	-0.087
-545.296	-132.439	-0.198	0.026
-544.281	530.293	-0.085	-0.204
-543.266	2.672	0.064	0.047
-542.252	-98.438	0.221	-0.057
-541.237	-1.762	0.070	-0.050
-540.223	-37.404	-0.186	0.101
-539.208	-32.833	-0.077	0.043
-538.193	-127.381	0.384	0.057
-537.179	278.905	-0.116	-0.209
-536.164	280.009	0.113	-0.206
-535.150	-200.000	0.019	-0.309
-534.135	155.524	0.092	-0.129
-533.121	225.514	0.074	-0.121
-532.106	199.531	0.197	0.306
-531.091	-200.000	0.074	0.365
-530.077	83.985	-0.323	-0.358
-529.062	71.093	-0.088	-0.092
-528.048	109.366	0.112	0.136
-527.033	-110.663	0.263	0.055
-526.018	-200.000	0.013	-0.211
-525.004	137.738	0.224	0.297
-523.989	77.115	-0.177	-0.191
-522.975	54.110	0.174	-0.170
-521.960	-200.000	-0.018	0.082
-520.945	134.137	-0.195	0.257
-519.931	-14.257	0.311	0.203
-518.916	651.907	0.085	-0.221
-517.902	-200.000	0.297	0.000
-516.887	-200.000	0.039	-0.478
-515.872	-19.225	-0.115	0.073
-514.858	242.476	0.081	0.138
-513.843	186.399	-0.259	-0.391
-512.829	-99.114	-0.136	-0.035
-511.814	800.000	0.055	0.208
-510.799	-25.958	-0.126	-0.075
-509.785	-200.000	0.057	-0.260
-508.770	-111.519	0.314	-0.065
-507.756	-41.872	-0.028	-0.014
-506.741	-63.975	0.265	-0.110
-505.726	-82.213	0.307	-0.101
-504.712	293.657	-0.060	0.111
-503.697	800.000	0.041	-0.116
-502.683	-127.098	0.142	-0.021
-501.668	-100.874	-0.024	-0.006
-500.653	490.583	-0.198	-0.459
-499.639	-200.000	0.042	-0.258
-498.624	119.465	0.204	-0.255
-497.610	-76.914	0.262	0.093
-496.595	69.382	0.164	-0.171
-495.581	440.705	-0.106	0.234
-494.566	8.262	-0.040	-0.030
-493.551	136.775	0.098	0.130
-492.537	-109.472	0.142	-0.030
-491.522	800.000	0.024	-0.078
-490.508	-78.134	-0.239	0.083
-489.493	-88.615	-0.032	-0.010
-488.478	141.709	0.183	-0.245
-487.464	80.870	-0.092	-0.101
-486.449	181.361	-0.154	-0.229
-485.435	385.713	-0.105	-0.219
-484.420	-160.877	0.338	-0.018
-483.405	-97.753	-0.070	-0.018
-482.391	-69.861	0.138	0.053
-481.376	-33.993	0.201	-0.112
-480.362	-86.823	-0.190	0.059
-479.347	-38.807	-0.532	0.284
-478.332	37.144	-0.186	-0.167
-477.318	-200.000	-0.029	-0.225
-476.303	-28.807	0.062	0.036
-475.289	56.083	0.247	0.243
-474.274	14.203	-0.190	-0.150
-473.259	-174.556	0.164	0.005
-472.245	230.356	0.080	0.132
-471.230	167.488	-0.218	0.313
-470.216	-200.000	0.002	-0.172
-469.201	74.899	0.054	0.058
-468.186	606.926	0.103	-0.260
-467.172	800.000	0.023	-0.101
-466.157	-54.818	0.230	0.105
-465.143	-141.894	0.288	-0.029
-464.128	-110.538	0.158	-0.033
-463.113	-200.000	-0.015	-0.445
-462.099	-92.158	-0.252	-0.072
-461.084	-113.757	0.422	0.083
-460.070	-200.000	-0.045	0.280
-459.055	-31.308	-0.173	0.099
-458.040	778.617	-0.100	-0.276
-457.026	774.938	0.180	-0.497
-456.011	800.000	-0.064	-0.237
-454.997	-107.403	0.173	0.038
-453.982	-132.310	-0.141	-0.018
-452.968	-23.588	-0.107	0.065
-451.953	311.580	0.099	0.187
-450.938	-81.915	-0.257	0.085
-449.924	-24.930	-0.152	0.091
-448.909	800.000	-0.086	-0.367
-447.895	-200.000	0.046	0.388
-446.880	518.540	-0.084	-0.198
-445.865	-200.000	0.090	0.445
-444.851	-152.715	-0.204	0.015
-443.836	67.882	-0.172	0.178
-442.822	800.000	-0.095	-0.360
-441.807	-200.000	0.024	0.111
-440.792	-200.000	-0.045	0.203
-439.778	80.134	-0.048	-0.052
-438.763	18.697	-0.177	0.143
-437.749	-200.000	-0.025	0.245
-436.734	-45.152	-0.149	-0.075
-435.719	-86.269	-0.171	-0.053
-434.705	272.772	0.053	0.094
-433.690	303.789	0.020	0.038
-432.676	800.000	0.045	0.154
-431.661	465.526	-0.060	-0.135
-430.646	24.472	0.294	0.246
-429.632	85.952	-0.050	-0.055
-428.617	-42.086	0.084	0.043
-427.603	800.000	-0.062	0.195
-426.588	-200.000	0.009	-0.075
-425.573	800.000	0.046	0.148
-424.559	110.454	-0.147	0.178
-423.544	-200.000	-0.054	-0.248
-422.530	768.233	0.066	0.182
-421.515	-79.534	-0.031	-0.011
-420.500	-66.109	0.234	-0.094
-419.486	293.840	0.114	0.210
-418.471	-123.067	0.106	-0.017
-417.457	-90.411	-0.032	-0.009
-416.442	629.643	0.046	0.118
-415.428	120.006	-0.113	-0.142
-414.413	-138.531	0.238	0.026
-413.398	306.670	-0.173	-0.326
-412.384	687.275	-0.148	0.391
-411.369	48.613	0.294	-0.278
-410.355	-200.000	0.015	0.072
-409.340	-182.852	-0.230	0.004
-408.325	-169.816	0.375	0.014
-407.311	-108.723	0.180	0.039
-406.296	-5.226	0.144	0.100
-405.282	149.152	-0.226	0.309
-404.267	-169.929	-0.214	-0.008
-403.252	24.134	0.314	0.261
-402.238	-200.000	-0.003	0.299
-401.223	800.000	-0.077	0.280
-400.209	-200.000	0.026	0.211
-399.194	-11.113	-0.188	0.125
-398.179	-200.000	-0.051	0.255
-397.165	-200.000	0.028	-0.155
-396.150	220.042	-0.126	0.203
-395.136	39.890	0.193	0.175
-394.121	203.863	-0.171	0.266
-393.106	-51.913	0.140	-0.066
-392.092	4.956	0.282	-0.209
-391.077	-120.975	0.147	-0.025
-390.063	-143.019	0.272	-0.027
-389.048	86.678	-0.218	0.243
-388.033	-165.662	0.180	-0.008
-387.019	-200.000	-0.023	0.313
-386.004	800.000	0.050	0.167
-384.990	-61.279	-0.136	0.058
-383.975	208.619	0.106	-0.167
-382.960	98.824	-0.063	0.073
-381.946	-200.000	-0.015	0.115
-380.931	-128.499	-0.135	0.019
-379.917	28.010	0.059	-0.050
-378.902	52.533	-0.062	-0.060
-377.888	57.792	0.167	-0.165
-376.873	27.046	-0.141	0.119
-375.858	172.311	0.183	0.266
-374.844	-200.000	-0.060	0.342
-373.829	-23.083	-0.227	0.138
-372.815	141.149	0.067	0.090
-371.800	238.845	0.045	0.076
-370.785	-17.244	-0.243	-0.154
-369.771	800.000	-0.025	0.073
-368.756	-143.164	-0.377	-0.037
-367.742	148.659	-0.075	0.102
-366.727	80.430	-0.246	0.267
-365.712	-200.000	0.012	0.435
-364.698	-37.436	-0.127	0.069
-363.683	723.366	-0.084	0.225
-362.669	-132.595	0.266	-0.034
-361.654	43.464	-0.192	-0.177
-360.639	-6.961	-0.049	0.034
-359.625	800.000	0.083	0.262
-358.610	-149.690	0.131	0.010
-357.596	108.715	-0.200	-0.241
-356.581	-200.000	-0.020	-0.219
-355.566	-86.246	-0.228	0.071
-354.552	81.965	-0.066	0.072
-353.537	32.089	-0.176	-0.153
-352.523	-117.826	0.315	-0.057
-351.508	232.549	0.135	-0.223
-350.493	-64.941	-0.128	-0.052
-349.479	-61.686	-0.083	-0.035
-348.464	-172.245	0.180	0.006
-347.450	-146.583	0.227	-0.020
-346.435	-200.000	-0.021	-0.145
-345.420	-11.793	0.163	0.108
-344.406	26.974	0.250	-0.211
-343.391	-20.116	0.273	-0.169
-342.377	-42.560	0.329	0.169
-341.362	-95.358	0.491	-0.133
-340.348	800.000	-0.081	-0.247
-339.333	20.096	0.086	-0.070
-338.318	-200.000	0.072	0.348
-337.304	-200.000	0.072	-0.434
-336.289	-13.520	-0.221	-0.144
-335.275	800.000	0.077	0.222
-334.260	260.090	0.016	-0.028
-333.245	432.863	-0.167	-0.365
-332.231	-126.744	0.121	-0.018
-331.216	-200.000	0.071	-0.322
-330.202	-158.438	-0.217	0.013
-329.187	145.032	0.157	-0.211
-328.172	-200.000	-0.001	0.202
-327.158	-186.217	-0.335	-0.005
-326.143	-180.123	-0.382	-0.008
-325.129	-200.000	0.012	0.061
-324.114	213.931	-0.292	0.465
-323.099	-168.393	-0.184	0.007
-322.085	-200.000	-0.017	0.257
-321.070	-49.167	-0.141	-0.068
-320.056	-200.000	0.040	0.213
-319.041	365.569	-0.151	-0.306
-318.026	-124.662	-0.070	0.011
-317.012	130.412	0.187	0.241
-315.997	75.075	-0.093	-0.098
-314.983	-10.333	0.101	-0.067
-313.968	-44.845	-0.064	-0.032
-312.953	-200.000	-0.005	-0.261
-311.939	22.081	-0.143	0.117
-310.924	-200.000	0.003	-0.193
-309.910	123.812	-0.126	0.158
-308.895	-200.000	-0.041	-0.434
-307.880	149.704	0.206	0.281
-306.866	-68.842	0.262	-0.102
-305.851	800.000	-0.143	0.423
-304.837	-38.630	-0.184	0.097
-303.822	800.000	0.018	0.074
-302.807	-50.575	0.406	0.192
-301.793	93.898	-0.217	-0.247
-300.778	28.332	-0.077	-0.066
-299.764	800.000	-0.049	-0.214
-298.749	-94.186	-0.186	0.051
-297.735	253.443	-0.028	0.047
-296.720	94.034	-0.068	-0.078
-295.705	83.860	0.049	0.054
-294.691	-200.000	0.085	-0.384
-293.676	29.058	-0.038	-0.032
-292.662	181.571	0.180	-0.266
-291.647	-44.112	-0.101	0.051
-290.632	501.400	-0.091	0.211
-289.618	-200.000	-0.016	-0.102
-288.603	-200.000	0.085	-0.470
-287.589	0.797	0.234	-0.168
-286.574	-6.677	0.073	0.050
-285.559	800.000	-0.024	-0.102
-284.545	800.000	0.049	0.199
-283.530	-13.361	-0.255	-0.166
-282.516	98.314	-0.121	0.140
-281.501	44.789	-0.067	0.062
-280.486	-66.845	-0.151	-0.060
-279.472	-159.119	0.449	-0.025
-278.457	256.099	-0.101	0.175
-277.443	4.766	0.113	-0.084
-276.428	-85.122	0.213	-0.067
-275.413	-146.850	0.480	-0.041
-274.399	76.711	0.078	-0.083
-273.384	-162.603	0.370	0.018
-272.370	-116.112	-0.131	0.024
-271.355	-200.000	-0.007	-0.228
-270.340	108.564	-0.215	0.258
-269.326	-123.545	-0.766	0.122
-268.311	229.781	-0.122	0.200
-267.297	43.679	-0.084	0.077
-266.282	185.089	-0.176	0.262
-265.267	108.089	-0.232	0.278
-264.253	-21.921	-0.236	-0.144
-263.238	411.197	-0.150	0.318
-262.224	-200.000	-0.001	-0.144
-261.209	-200.000	-0.012	-0.107
-260.195	-129.511	-0.424	0.059
-259.180	280.279	0.089	-0.159
-258.165	-200.000	-0.024	0.270
-257.151	431.313	-0.147	-0.320
-256.136	116.532	0.055	0.067
-255.122	-85.317	0.360	-0.113
-254.107	-200.000	0.025	-0.183
-253.092	21.420	0.182	0.149
-252.078	219.016	-0.105	0.168
-251.063	252.428	-0.077	0.132
-250.049	-39.135	-0.378	-0.199
-249.034	800.000	0.090	-0.356
-248.019	80.161	-0.093	-0.100
-247.005	-200.000	0.052	0.000
-245.990	349.393	-0.036	0.071
-244.976	69.993	0.094	0.097
-243.961	-13.639	-0.020	0.013
-242.946	-200.000	0.028	-0.125
-241.932	-47.908	0.260	-0.126
-240.917	800.000	0.069	-0.251
-239.903	-200.000	-0.004	0.303
-238.888	124.558	0.210	0.265
-237.873	104.575	-0.205	0.242
-236.859	-21.229	0.163	0.100
-235.844	445.066	0.060	0.132
-234.830	-111.693	0.233	-0.047
-233.815	518.889	-0.032	-0.075
-232.800	213.291	0.127	-0.201
-231.786	170.630	-0.185	-0.265
-230.771	800.000	0.032	-0.090
-229.757	76.286	-0.058	0.062
-228.742	-200.000	-0.016	0.182
-227.727	-96.515	0.127	0.034
-226.713	-200.000	-0.011	0.241
-225.698	42.426	-0.150	0.137
-224.684	-84.715	0.345	0.109
-223.669	220.377	0.141	-0.227
-222.655	111.163	-0.116	-0.140
-221.640	579.096	0.077	0.190
-220.625	-200.000	0.032	-0.220
-219.611	-175.413	-0.157	-0.004
-218.596	-81.593	-0.175	-0.058
-217.582	-50.730	0.208	0.098
-216.567	-68.278	0.450	-0.175
-215.552	-200.000	-0.003	0.167
-214.538	525.967	0.078	-0.185
-213.523	400.059	-0.049	0.104
-212.509	-200.000	0.123	0.609
-211.494	-200.000	0.044	0.195
-210.479	-135.808	-0.192	-0.023
-209.465	-154.746	-0.342	-0.023
-208.450	-200.000	-0.027	0.323
-207.436	-135.385	-0.287	0.034
-206.421	67.051	-0.041	0.042
-205.406	-200.000	-0.009	0.076
-204.392	-200.000	0.008	0.187
-203.377	17.221	-0.225	0.178
-202.363	-113.616	0.128	0.025
-201.348	-11.422	0.018	-0.012
-200.333	-29.716	-0.172	-0.098
-199.319	800.000	-0.064	-0.185
-198.304	-200.000	-0.022	-0.145
-197.290	-111.058	-0.159	-0.033
-196.275	136.606	0.032	0.042
-195.260	-33.833	-0.058	-0.032
-194.246	-168.377	0.161	-0.006
-193.231	-74.542	0.218	-0.078
-192.217	498.670	0.198	0.457
-191.202	-200.000	-0.056	0.431
-190.187	-141.664	-0.081	-0.008
-189.173	-200.000	-0.023	0.112
-188.158	-100.420	0.272	-0.067
-187.144	-109.555	0.086	-0.018
-186.129	-200.000	0.003	-0.202
-185.114	244.610	-0.089	0.149
-184.100	-29.066	-0.307	0.176
-183.085	-15.247	0.240	0.154
-182.071	37.544	-0.114	0.101
-181.056	-96.925	-0.134	-0.035
-180.042	116.788	-0.086	0.105
-179.027	174.190	-0.047	-0.067
-178.012	330.845	0.139	-0.268
-176.998	25.241	-0.361	-0.300
-175.983	-200.000	0.074	0.391
-174.969	800.000	-0.100	0.340
-173.954	7.343	-0.112	-0.084
-172.939	167.013	0.142	-0.202
-171.925	254.985	0.046	-0.078
-170.910	-200.000	0.009	-0.296
-169.896	-200.000	0.305	-0.000
-168.881	-200.000	0.046	-0.219
-167.866	297.460	-0.164	0.301
-166.852	-183.503	-0.078	-0.001
-165.837	-200.000	0.017	0.108
-164.823	-112.521	-0.361	0.072
-163.808	-19.124	0.126	0.078
-162.793	-73.545	0.024	-0.009
-161.779	106.659	0.012	-0.015
-160.764	-159.650	-0.081	-0.004
-159.750	-146.095	0.118	0.010
-158.735	-104.738	-0.231	0.053
-157.720	182.885	-0.237	-0.350
-156.706	674.098	0.101	-0.261
-155.691	-67.522	0.120	0.047
-154.677	-200.000	-0.006	-0.067
-153.662	-142.800	-0.175	-0.017
-152.647	232.166	-0.044	-0.073
-151.633	-81.991	0.264	-0.086
-150.618	20.655	0.160	0.130
-149.604	77.437	-0.046	0.049
-148.589	-11.221	0.168	-0.110
-147.574	403.806	0.129	0.272
-146.560	-82.182	0.144	-0.047
-145.545	623.336	-0.097	-0.243
-144.531	-51.377	-0.186	-0.087
-143.516	55.834	-0.288	-0.279
-142.502	-125.928	0.382	-0.057
-141.487	1.994	0.195	0.140
-140.472	-200.000	-0.009	-0.053
-139.458	-152.122	-0.356	-0.026
-138.443	-100.514	-0.202	-0.050
-137.429	-200.000	0.011	-0.153
-136.414	634.606	0.090	-0.227
-135.399	-78.134	0.040	0.014
-134.385	-91.516	0.137	-0.039
-133.370	-38.479	-0.021	0.011
-132.356	267.487	0.177	-0.310
-131.341	13.116	-0.080	0.062
-130.326	48.862	-0.175	-0.164
-129.312	157.928	-0.243	0.335
-128.297	-200.000	0.040	-0.312
-127.283	215.431	0.023	0.037
-126.268	-152.757	0.205	-0.015
-125.253	-200.000	-0.021	0.210
-124.239	-200.000	0.064	0.316
-123.224	-200.000	-0.050	0.221
-122.210	-200.000	-0.010	0.102
