DTS Sentinel unit serial number:	SN413079Multiplexer serial number:	ORYXHardware model number:	OX4-SRSoftware version number:	ORYX F/W v4.00 Oryx Data Collector v3.7.2.0data status	okinstallation	princeton_trtdifferential loss correction	single-endedforward channel	channel 2reverse channel	N/Adate	2019/09/17time	19:23:34forward acquisition time	60.00reverse acquisition time	0.00gamma	496.2192k internal	0.2320k external	0.2320temperature offset calibration	0.9987default loss term (dB/km)	0.3790temperature slope calibration	1.0000multiplexer offset coefficient	1.0000multiplexer slope coefficient	1.0000fibre end	0.00T internal ref (°C)	37.55T ext. ref 1 (°C)	0.24T ext. ref 2 (°C)	25.74length (m)	temperature (°C)	Stokes	anti-Stokes-747.200	-51.879	0.179	-0.084
-746.185	-56.265	-0.106	0.047
-745.171	2.287	0.227	0.166
-744.156	-112.794	0.158	-0.032
-743.142	45.228	-0.162	0.151
-742.127	11.443	0.256	-0.198
-741.112	82.989	-0.255	0.280
-740.098	-200.000	-0.030	0.142
-739.083	50.436	0.158	-0.151
-738.069	499.720	0.191	-0.446
-737.054	-20.960	-0.160	-0.099
-736.039	-57.066	-0.140	0.062
-735.025	195.524	-0.207	0.318
-734.010	545.027	0.070	-0.170
-732.996	6.336	-0.250	-0.188
-731.981	-200.000	-0.091	0.000
-730.966	-105.624	-0.130	0.030
-729.952	182.863	0.122	-0.181
-728.937	800.000	-0.023	-0.075
-727.923	203.620	-0.041	0.064
-726.908	-57.836	0.494	-0.218
-725.894	-200.000	0.039	-0.277
-724.879	152.056	-0.060	-0.082
-723.864	-54.940	0.117	0.054
-722.850	-59.516	-0.355	0.154
-721.835	-184.727	0.159	-0.003
-720.821	-99.298	-0.312	-0.079
-719.806	-128.817	0.258	0.037
-718.791	-159.366	-0.482	-0.027
-717.777	-2.857	0.166	0.117
-716.762	-110.933	-0.171	0.036
-715.748	-200.000	0.027	0.381
-714.733	-32.356	0.126	0.071
-713.718	-34.062	-0.180	-0.100
-712.704	430.320	-0.055	-0.121
-711.689	94.036	-0.196	-0.225
-710.675	453.076	0.040	-0.089
-709.660	27.147	-0.104	0.088
-708.645	425.584	0.100	-0.216
-707.631	-120.892	-0.083	0.014
-706.616	60.008	-0.213	-0.212
-705.602	17.662	-0.041	-0.033
-704.587	62.495	0.365	-0.368
-703.572	-78.350	0.123	0.043
-702.558	800.000	0.086	-0.251
-701.543	763.198	0.099	-0.271
-700.529	-121.727	-0.187	-0.031
-699.514	800.000	-0.062	-0.184
-698.499	-90.865	0.266	-0.077
-697.485	-200.000	-0.010	-0.172
-696.470	102.116	0.104	-0.122
-695.456	800.000	-0.030	-0.094
-694.441	353.352	-0.243	-0.486
-693.426	112.005	-0.238	0.290
-692.412	-34.101	0.292	0.162
-691.397	775.908	0.040	-0.111
-690.383	26.218	0.285	0.240
-689.368	378.656	-0.101	-0.209
-688.354	79.128	-0.028	-0.031
-687.339	210.221	0.122	-0.193
-686.324	267.365	0.179	0.315
-685.310	38.750	-0.224	0.202
-684.295	-88.714	-0.173	0.052
-683.281	-108.311	0.124	0.027
-682.266	-42.246	-0.233	-0.120
-681.251	-200.000	-0.003	-0.200
-680.237	517.351	0.050	-0.117
-679.222	-19.331	-0.068	-0.042
-678.208	-171.943	-0.225	-0.007
-677.193	227.411	0.127	-0.209
-676.178	-17.984	-0.102	-0.064
-675.164	34.279	0.034	0.029
-674.149	800.000	0.042	0.130
-673.135	-82.811	-0.231	0.075
-672.120	485.206	-0.121	-0.277
-671.105	122.279	-0.021	0.026
-670.091	-59.280	-0.160	-0.069
-669.076	779.143	-0.088	-0.243
-668.062	101.209	-0.158	0.186
-667.047	-200.000	-0.004	-0.077
-666.032	110.833	0.189	-0.230
-665.018	-11.054	-0.482	0.321
-664.003	81.658	-0.281	-0.306
-662.989	258.298	-0.204	-0.354
-661.974	-200.000	0.001	-0.197
-660.959	-200.000	-0.018	0.272
-659.945	-110.008	-0.134	-0.028
-658.930	148.019	0.165	-0.224
-657.916	-44.696	0.087	-0.044
-656.901	243.559	0.099	0.167
-655.886	3.803	0.231	0.170
-654.872	87.742	-0.132	-0.147
-653.857	177.812	-0.297	-0.436
-652.843	-200.000	0.005	0.253
-651.828	-200.000	-0.007	-0.124
-650.814	130.905	-0.197	-0.255
-649.799	-173.303	-0.361	-0.011
-648.784	800.000	-0.041	0.114
-647.770	49.781	0.117	-0.112
-646.755	648.816	0.088	-0.228
-645.741	-200.000	-0.019	0.196
-644.726	-84.431	-0.377	0.120
-643.711	-122.490	0.188	0.031
-642.697	800.000	0.091	-0.269
-641.682	-113.350	-0.231	0.046
-640.668	-69.623	-0.143	0.055
-639.653	400.495	0.102	-0.216
-638.638	5.763	0.215	0.160
-637.624	-82.767	-0.110	-0.036
-636.609	120.457	0.132	-0.165
-635.595	762.884	-0.092	0.251
-634.580	23.661	-0.147	-0.122
-633.565	800.000	-0.091	-0.311
-632.551	-165.531	-0.238	-0.010
-631.536	-200.000	-0.027	-0.129
-630.522	-33.053	-0.243	-0.136
-629.507	-84.618	-0.068	0.022
-628.492	40.144	0.253	0.229
-627.478	4.315	-0.222	-0.164
-626.463	221.858	0.043	-0.069
-625.449	363.256	-0.033	0.066
-624.434	-19.932	-0.116	-0.072
-623.419	-51.010	-0.165	0.078
-622.405	678.928	-0.158	0.413
-621.390	-87.201	0.120	-0.037
-620.376	-153.139	-0.201	0.014
-619.361	-107.757	-0.175	0.038
-618.346	-200.000	-0.015	0.071
-617.332	112.031	0.225	0.274
-616.317	110.790	0.154	0.186
-615.303	-113.144	-0.099	0.020
-614.288	-200.000	-0.006	-0.208
-613.273	-126.316	0.321	0.048
-612.259	-23.462	0.152	-0.092
-611.244	229.735	-0.167	-0.274
-610.230	-127.881	-0.076	0.011
-609.215	69.021	-0.080	0.083
-608.201	-41.422	0.148	0.077
-607.186	-78.488	0.208	-0.071
-606.171	-144.518	0.066	-0.006
-605.157	-172.804	-0.290	0.009
-604.142	800.000	-0.097	-0.398
-603.128	-200.000	0.031	-0.171
-602.113	121.587	0.126	0.158
-601.098	800.000	-0.045	0.158
-600.084	72.184	-0.106	0.111
-599.069	552.205	-0.071	0.171
-598.055	69.200	0.139	0.144
-597.040	725.142	0.112	0.300
-596.025	115.631	-0.208	-0.256
-595.011	-200.000	0.011	-0.146
-593.996	767.944	-0.210	0.574
-592.982	-200.000	-0.082	0.392
-591.967	15.002	-0.202	-0.159
-590.952	-1.283	-0.225	0.160
-589.938	-200.000	0.001	-0.164
-588.923	-137.047	-0.402	-0.046
-587.909	337.663	-0.108	0.211
-586.894	800.000	-0.059	-0.206
-585.879	-171.066	0.106	-0.004
-584.865	693.643	0.008	-0.021
-583.850	-200.000	0.004	-0.206
-582.836	-42.835	-0.192	-0.098
-581.821	646.476	0.076	-0.195
-580.806	222.108	-0.134	-0.217
-579.792	-16.468	0.117	0.075
-578.777	-200.000	0.029	-0.210
-577.763	246.989	-0.079	0.133
-576.748	-76.519	0.368	-0.130
-575.733	255.241	0.116	0.199
-574.719	2.572	-0.024	0.017
-573.704	274.124	-0.077	-0.137
-572.690	-30.237	-0.159	-0.091
-571.675	-94.969	-0.112	-0.030
-570.661	-170.387	0.239	-0.008
-569.646	667.564	0.108	-0.280
-568.631	31.187	0.190	-0.164
-567.617	-151.728	-0.234	-0.017
-566.602	76.474	0.175	0.186
-565.588	-200.000	0.004	-0.199
-564.573	-121.928	0.302	-0.050
-563.558	-154.976	0.224	0.015
-562.544	800.000	-0.101	0.407
-561.529	186.763	-0.216	-0.323
-560.515	311.168	-0.055	-0.103
-559.500	126.479	-0.203	-0.258
-558.485	-200.000	0.015	0.227
-557.471	-153.594	-0.156	0.011
-556.456	800.000	-0.073	0.228
-555.442	276.457	0.098	0.174
-554.427	800.000	0.022	-0.084
-553.412	-200.000	0.006	-0.037
-552.398	-119.481	0.281	0.049
-551.383	-49.936	0.159	-0.076
-550.369	800.000	-0.080	-0.225
-549.354	-200.000	-0.002	-0.041
-548.339	-200.000	0.001	-0.013
-547.325	-200.000	0.016	0.193
-546.310	243.005	-0.048	-0.081
-545.296	800.000	-0.070	-0.273
-544.281	162.285	0.165	0.231
-543.266	-122.201	-0.238	0.039
-542.252	23.043	-0.111	0.091
-541.237	-200.000	-0.058	-0.286
-540.223	-159.108	0.235	-0.013
-539.208	244.699	-0.129	0.218
-538.193	-69.209	-0.240	0.092
-537.179	498.997	0.089	0.206
-536.164	612.727	-0.081	0.202
-535.150	50.762	-0.237	0.225
-534.135	207.627	-0.140	0.219
-533.121	-27.826	-0.145	0.085
-532.106	-36.415	-0.073	0.039
-531.091	-200.000	0.040	-0.180
-530.077	-200.000	-0.019	-0.138
-529.062	273.141	0.156	0.277
-528.048	251.887	0.095	0.163
-527.033	-200.000	-0.013	0.130
-526.018	50.786	-0.140	0.133
-525.004	800.000	0.057	0.206
-523.989	-61.908	-0.171	-0.072
-522.975	-60.130	-0.210	-0.090
-521.960	149.567	0.133	-0.181
-520.945	112.361	-0.039	-0.047
-519.931	21.660	0.267	0.218
-518.916	800.000	-0.022	-0.075
-517.902	-30.178	-0.038	-0.022
-516.887	93.394	-0.090	-0.102
-515.872	695.274	-0.114	-0.300
-514.858	-82.434	-0.050	0.016
-513.843	59.816	0.111	-0.110
-512.829	14.084	-0.291	0.227
-511.814	-200.000	0.002	0.045
-510.799	-141.419	-0.236	-0.024
-509.785	-24.651	-0.256	0.153
-508.770	-15.106	0.122	0.078
-507.756	800.000	0.102	-0.299
-506.741	-200.000	0.012	0.130
-505.726	-200.000	-0.039	0.187
-504.712	-146.144	-0.117	0.010
-503.697	13.174	-0.176	0.136
-502.683	40.151	0.093	0.083
-501.668	-97.147	0.255	0.067
-500.653	800.000	0.086	-0.311
-499.639	211.887	-0.032	-0.051
-498.624	249.202	-0.091	0.154
-497.610	-94.928	-0.218	-0.059
-496.595	-38.687	-0.235	0.124
-495.581	133.169	-0.046	0.060
-494.566	-200.000	0.000	0.123
-493.551	374.348	-0.099	0.203
-492.537	38.176	-0.203	-0.181
-491.522	81.302	0.263	-0.285
-490.508	-79.499	0.281	-0.095
-489.493	51.424	-0.154	0.146
-488.478	500.364	-0.010	-0.022
-487.464	50.809	-0.053	-0.050
-486.449	596.896	-0.064	-0.159
-485.435	202.988	0.059	-0.091
-484.420	96.666	-0.045	0.052
-483.405	13.964	-0.314	0.245
-482.391	-58.021	0.585	-0.256
-481.376	234.324	0.124	0.205
-480.362	-141.677	0.395	0.040
-479.347	-200.000	-0.005	-0.229
-478.332	-47.459	-0.075	0.036
-477.318	154.913	-0.264	0.364
-476.303	268.999	-0.108	-0.190
-475.289	-200.000	-0.010	0.217
-474.274	-200.000	0.019	-0.088
-473.259	-200.000	0.022	-0.317
-472.245	83.949	-0.225	0.245
-471.230	-200.000	-0.018	-0.214
-470.216	-180.571	-0.307	0.006
-469.201	33.585	0.041	0.036
-468.186	146.269	0.192	0.258
-467.172	507.650	-0.080	-0.185
-466.157	123.523	-0.110	-0.138
-465.143	-200.000	-0.019	0.244
-464.128	-14.057	-0.054	-0.035
-463.113	-133.228	0.065	-0.008
-462.099	-93.933	-0.176	-0.048
-461.084	181.166	-0.133	-0.196
-460.070	800.000	0.013	-0.045
-459.055	-200.000	-0.027	0.253
-458.040	-47.008	0.192	0.094
-457.026	-200.000	0.020	-0.214
-456.011	139.987	-0.155	0.204
-454.997	54.555	0.165	0.159
-453.982	12.667	0.085	0.066
-452.968	178.104	-0.027	0.039
-451.953	-164.506	0.184	-0.008
-450.938	-200.000	0.045	0.231
-449.924	87.216	-0.047	-0.052
-448.909	-137.232	-0.244	0.028
-447.895	-200.000	-0.025	-0.128
-446.880	-129.447	0.176	0.024
-445.865	94.600	0.287	0.326
-444.851	-190.234	-0.018	0.000
-443.836	800.000	-0.149	-0.472
-442.822	-120.781	-0.124	-0.021
-441.807	-51.133	0.203	-0.095
-440.792	-77.249	-0.109	0.038
-439.778	25.576	-0.138	-0.115
-438.763	419.024	0.115	-0.245
-437.749	800.000	0.067	0.268
-436.734	-22.971	-0.258	-0.156
-435.719	-24.739	0.269	-0.160
-434.705	-132.973	-0.199	0.025
-433.690	-200.000	0.020	0.124
-432.676	800.000	0.033	-0.100
-431.661	0.748	-0.104	0.075
-430.646	-200.000	0.016	-0.126
-429.632	-130.122	0.501	0.068
-428.617	107.018	0.190	0.225
-427.603	-58.312	-0.129	0.056
-426.588	303.133	0.181	-0.335
-425.573	-200.000	-0.010	0.050
-424.559	-83.399	-0.154	-0.049
-423.544	61.353	-0.232	-0.230
-422.530	379.850	0.147	0.302
-421.515	7.358	0.166	-0.124
-420.500	-69.148	-0.153	0.059
-419.486	257.230	-0.085	0.147
-418.471	-145.099	0.295	0.027
-417.457	192.279	-0.075	0.113
-416.442	28.382	0.272	-0.230
-415.428	800.000	-0.113	-0.396
-414.413	-8.060	-0.126	-0.085
-413.398	156.377	-0.080	-0.111
-412.384	134.123	0.106	-0.137
-411.369	20.047	-0.141	-0.113
-410.355	216.820	0.047	-0.075
-409.340	-63.198	0.309	0.127
-408.325	-70.830	0.375	0.141
-407.311	-95.630	0.063	-0.017
-406.296	-110.337	0.150	0.031
-405.282	4.431	0.199	-0.145
-404.267	-82.545	-0.240	0.078
-403.252	-19.722	-0.104	0.064
-402.238	-200.000	-0.011	0.334
-401.223	299.798	-0.048	-0.088
-400.209	83.999	0.125	0.137
-399.194	246.170	0.157	0.264
-398.179	800.000	-0.091	-0.367
-397.165	-200.000	0.006	0.301
-396.150	577.475	0.161	-0.394
-395.136	800.000	0.012	0.038
-394.121	-76.572	0.092	-0.032
-393.106	-124.367	-0.175	-0.027
-392.092	759.009	-0.103	0.279
-391.077	800.000	-0.056	0.223
-390.063	800.000	-0.130	0.379
-389.048	-29.992	0.438	-0.249
-388.033	86.404	-0.137	0.150
-387.019	-63.106	0.126	-0.052
-386.004	-116.527	-0.190	0.035
-384.990	94.787	0.177	-0.200
-383.975	-159.203	-0.189	0.011
-382.960	85.547	-0.116	0.127
-381.946	-200.000	0.060	-0.281
-380.931	105.942	0.146	0.172
-379.917	-39.278	0.092	0.048
-378.902	-128.758	0.154	0.022
-377.888	800.000	-0.054	0.218
-376.873	-200.000	-0.007	-0.043
-375.858	272.182	0.123	0.217
-374.844	231.645	0.129	0.211
-373.829	-61.838	0.082	0.034
-372.815	205.712	0.157	-0.243
-371.800	202.890	0.087	0.134
-370.785	-149.458	-0.379	0.030
-369.771	-200.000	0.020	-0.092
-368.756	-75.337	0.172	0.061
-367.742	505.322	-0.050	0.114
-366.727	115.582	0.080	0.097
-365.712	-200.000	-0.020	-0.175
-364.698	46.325	0.098	-0.091
-363.683	8.990	0.089	-0.067
-362.669	-200.000	-0.030	0.247
-361.654	-167.171	-0.350	0.014
-360.639	-94.676	-0.110	-0.030
-359.625	-200.000	-0.001	0.097
-358.610	-125.328	-0.331	0.050
-357.596	-66.182	-0.269	0.107
-356.581	-82.971	0.311	0.100
-355.566	432.690	-0.164	-0.355
-354.552	-200.000	0.006	0.046
-353.537	-102.870	-0.223	0.053
-352.523	-174.747	-0.402	-0.011
-351.508	-200.000	-0.039	-0.341
-350.493	-80.283	-0.142	-0.047
-349.479	-69.518	0.041	0.016
-348.464	63.053	-0.137	-0.137
-347.450	-200.000	-0.010	0.248
-346.435	-200.000	0.000	0.063
-345.420	538.565	0.174	-0.413
-344.406	-200.000	-0.003	-0.099
-343.391	26.266	-0.162	-0.134
-342.377	-50.567	-0.305	-0.143
-341.362	95.523	0.205	-0.233
-340.348	800.000	0.022	0.088
-339.333	-106.235	0.067	0.015
-338.318	800.000	-0.035	0.142
-337.304	-188.926	-0.115	0.001
-336.289	40.857	0.035	0.032
-335.275	-37.456	-0.266	0.141
-334.260	285.298	0.053	-0.094
-333.245	-90.593	-0.104	0.030
-332.231	-67.226	-0.180	-0.070
-331.216	-200.000	-0.041	0.375
-330.202	-70.105	0.279	0.105
-329.187	-168.927	0.182	-0.007
-328.172	28.286	-0.103	0.086
-327.158	-200.000	-0.006	0.041
-326.143	69.721	0.144	-0.148
-325.129	-134.807	-0.122	0.015
-324.114	-7.362	-0.210	-0.141
-323.099	9.824	-0.155	-0.117
-322.085	-134.306	0.268	0.033
-321.070	-200.000	0.036	-0.262
-320.056	230.890	-0.170	0.278
-319.041	800.000	-0.090	0.309
-318.026	694.757	0.104	0.273
-317.012	24.774	0.304	0.251
-315.997	-200.000	-0.190	0.001
-314.983	-106.185	0.367	0.082
-313.968	-98.818	0.248	-0.063
-312.953	800.000	0.089	0.327
-311.939	485.696	0.046	0.104
-310.924	-200.000	-0.050	-0.252
-309.910	5.621	-0.143	-0.105
-308.895	-200.000	-0.065	-0.370
-307.880	57.897	0.205	-0.199
-306.866	-124.809	0.250	-0.038
-305.851	-13.933	-0.131	-0.084
-304.837	8.515	-0.200	0.150
-303.822	-125.250	-0.100	-0.015
-302.807	-200.000	0.012	0.273
-301.793	566.989	0.147	0.354
-300.778	-200.000	0.013	-0.280
-299.764	28.695	-0.265	-0.223
-298.749	-200.000	0.011	-0.148
-297.735	-63.653	0.212	-0.086
-296.720	-73.094	0.094	-0.034
-295.705	-77.281	0.324	0.112
-294.691	-200.000	0.008	0.336
-293.676	87.720	0.159	0.175
-292.662	164.132	-0.085	0.120
-291.647	-37.591	-0.044	-0.023
-290.632	800.000	-0.060	-0.221
-289.618	171.519	0.009	0.013
-288.603	-149.745	0.448	-0.035
-287.589	119.899	0.161	-0.199
-286.574	7.592	0.229	0.170
-285.559	-200.000	-0.004	0.042
-284.545	-33.878	0.154	-0.084
-283.530	107.471	0.139	-0.164
-282.516	11.762	0.190	-0.145
-281.501	-77.394	-0.137	0.047
-280.486	100.722	0.098	-0.113
-279.472	184.240	0.122	-0.179
-278.457	-126.531	0.484	-0.071
-277.443	502.305	-0.202	-0.462
-276.428	645.105	-0.066	-0.168
-275.413	101.306	0.035	0.040
-274.399	800.000	0.077	0.312
-273.384	-200.000	-0.003	-0.077
-272.370	-63.652	0.287	-0.117
-271.355	-57.955	0.232	-0.101
-270.340	800.000	-0.168	-0.560
-269.326	229.270	0.149	0.241
-268.311	-47.894	0.240	-0.115
-267.297	-200.000	-0.028	-0.141
-266.282	-77.974	-0.129	0.044
-265.267	-200.000	0.040	-0.211
-264.253	99.931	-0.068	0.079
-263.238	227.331	-0.116	0.186
-262.224	800.000	0.031	-0.085
-261.209	25.840	-0.104	0.086
-260.195	670.773	0.097	-0.250
-259.180	72.424	-0.062	-0.064
-258.165	67.918	-0.092	0.094
-257.151	800.000	0.134	0.397
-256.136	800.000	-0.029	-0.107
-255.122	40.545	0.177	0.158
-254.107	-200.000	0.002	-0.026
-253.092	751.290	0.063	-0.169
-252.078	-139.511	-0.199	0.021
-251.063	-80.101	0.156	0.052
-250.049	382.309	-0.083	-0.168
-249.034	-200.000	-0.004	0.357
-248.019	-143.133	0.071	-0.007
-247.005	170.855	0.065	0.093
-245.990	103.582	0.215	-0.251
-244.976	-88.500	0.243	-0.072
-243.961	-200.000	-0.021	0.153
-242.946	226.586	0.099	-0.159
-241.932	44.158	0.249	0.227
-240.917	-200.000	0.018	0.336
-239.903	-200.000	0.004	0.176
-238.888	103.637	0.113	0.132
-237.873	-137.117	-0.333	-0.038
-236.859	517.852	-0.059	-0.136
-235.844	-96.178	0.071	-0.019
-234.830	-88.499	-0.322	-0.095
-233.815	800.000	-0.081	0.266
-232.800	-159.952	0.202	0.011
-231.786	90.725	-0.179	0.199
-230.771	28.655	0.225	-0.189
-229.757	227.405	-0.060	-0.096
-228.742	-107.982	0.079	0.017
-227.727	254.796	-0.101	0.171
-226.713	315.262	0.138	-0.257
-225.698	68.434	-0.224	-0.227
-224.684	12.241	-0.086	-0.066
-223.669	269.720	-0.124	-0.216
-222.655	253.266	-0.103	0.173
-221.640	-156.212	0.204	-0.013
-220.625	-200.000	0.004	0.229
-219.611	169.516	0.182	0.258
-218.596	-47.436	0.130	-0.063
-217.582	-31.135	0.289	0.161
-216.567	-45.563	-0.358	-0.176
-215.552	439.852	-0.098	0.212
-214.538	53.165	0.113	0.107
-213.523	209.388	-0.102	-0.158
-212.509	-200.000	-0.014	0.120
-211.494	38.017	-0.096	0.084
-210.479	-111.636	-0.426	-0.086
-209.465	-28.189	0.350	0.200
-208.450	-200.000	-0.003	0.049
-207.436	800.000	-0.020	0.063
-206.421	90.543	-0.138	-0.153
-205.406	703.474	-0.072	0.188
-204.392	-109.442	0.457	-0.096
-203.377	77.898	-0.321	-0.339
-202.363	-160.406	0.112	-0.006
-201.348	-200.000	0.059	-0.291
-200.333	-200.000	-0.024	-0.139
-199.319	107.339	0.057	-0.067
-198.304	734.045	-0.077	0.204
-197.290	-134.190	0.401	-0.049
-196.275	-171.504	0.150	-0.005
-195.260	-147.387	-0.496	0.042
-194.246	-26.011	-0.090	0.052
-193.231	126.825	0.162	-0.203
-192.217	253.099	0.031	0.052
-191.202	-170.828	0.156	-0.005
-190.187	-200.000	-0.021	0.153
-189.173	128.530	0.129	-0.163
-188.158	800.000	-0.070	-0.209
-187.144	61.493	0.078	0.077
-186.129	113.396	-0.090	0.108
-185.114	-64.257	-0.122	0.049
-184.100	163.217	0.083	0.116
-183.085	166.750	0.043	-0.061
-182.071	-35.199	-0.088	-0.047
-181.056	763.374	0.124	0.334
-180.042	448.068	0.089	-0.194
-179.027	125.401	0.111	-0.139
-178.012	48.760	-0.204	-0.190
-176.998	155.472	-0.067	-0.091
-175.983	-200.000	-0.035	0.323
-174.969	800.000	-0.183	-0.645
-173.954	133.594	0.074	0.095
-172.939	38.664	0.055	0.048
-171.925	-30.801	-0.204	-0.114
-170.910	74.436	0.112	0.117
-169.896	-47.492	-0.328	-0.158
-168.881	-195.366	0.249	0.002
-167.866	119.363	-0.092	-0.113
-166.852	-56.182	0.029	-0.013
-165.837	227.859	-0.068	0.110
-164.823	-200.000	0.003	0.235
-163.808	-47.228	0.355	-0.171
-162.793	17.201	-0.104	0.082
-161.779	-156.932	0.296	0.018
-160.764	-200.000	-0.002	0.129
-159.750	800.000	0.029	-0.087
-158.735	-200.000	0.004	0.079
-157.720	359.868	0.162	0.320
-156.706	-200.000	-0.007	-0.061
-155.691	299.664	0.096	0.175
-154.677	559.097	0.072	-0.171
-153.662	-47.306	-0.385	-0.185
-152.647	800.000	-0.045	-0.176
-151.633	-131.069	0.243	-0.032
-150.618	-200.000	0.001	0.023
-149.604	121.960	0.209	-0.258
-148.589	-15.139	-0.260	0.164
-147.574	523.661	0.108	0.250
-146.560	-200.000	-0.019	0.452
-145.545	35.807	-0.180	0.156
-144.531	-200.000	0.023	0.127
-143.516	388.375	-0.147	0.301
-142.502	623.530	0.089	-0.223
-141.487	63.680	-0.121	-0.120
-140.472	134.450	0.085	-0.108
-139.458	73.268	0.148	0.153
-138.443	119.863	0.024	0.029
-137.429	-131.820	-0.263	0.034
-136.414	194.608	-0.099	-0.148
-135.399	11.029	0.189	-0.143
-134.385	267.519	0.037	0.063
-133.370	800.000	0.043	0.145
-132.356	-200.000	0.044	-0.237
-131.341	-46.510	0.248	0.120
-130.326	-49.015	0.228	-0.108
-129.312	-45.208	0.112	0.055
-128.297	-105.816	-0.112	0.025
-127.283	-69.578	0.201	0.076
-126.268	-200.000	0.009	0.264
-125.253	98.663	0.124	-0.141
-124.239	59.984	-0.224	0.219
-123.224	-114.354	-0.319	0.061
-122.210	-105.311	-0.194	-0.044
-121.195	173.169	0.067	-0.095
