DTS Sentinel unit serial number:	SN413079Multiplexer serial number:	ORYXHardware model number:	OX4-SRSoftware version number:	ORYX F/W v4.00 Oryx Data Collector v3.7.2.0data status	okinstallation	princeton_trtdifferential loss correction	single-endedforward channel	channel 2reverse channel	N/Adate	2019/09/15time	05:39:35forward acquisition time	60.00reverse acquisition time	0.00gamma	496.2192k internal	0.2326k external	0.2326temperature offset calibration	1.0027default loss term (dB/km)	0.3790temperature slope calibration	1.0000multiplexer offset coefficient	1.0000multiplexer slope coefficient	1.0000fibre end	0.00T internal ref (°C)	30.62T ext. ref 1 (°C)	4.76T ext. ref 2 (°C)	25.79length (m)	temperature (°C)	Stokes	anti-Stokes-747.200	202.535	0.094	0.147
-746.185	62.552	-0.151	0.152
-745.171	-200.000	-0.026	0.345
-744.156	-146.655	-0.274	-0.024
-743.142	39.156	-0.058	0.052
-742.127	-2.081	-0.273	0.193
-741.112	73.452	-0.232	0.244
-740.098	-22.580	-0.114	0.070
-739.083	130.300	-0.138	0.178
-738.069	-38.057	-0.161	-0.086
-737.054	-121.243	-0.159	-0.027
-736.039	-93.914	-0.385	0.107
-735.025	129.713	-0.092	-0.118
-734.010	-200.000	0.010	-0.048
-732.996	49.538	-0.111	-0.106
-731.981	67.183	0.037	0.038
-730.966	-200.000	0.025	-0.286
-729.952	313.993	-0.134	0.254
-728.937	71.642	0.219	-0.229
-727.923	-97.640	-0.288	-0.075
-726.908	-104.330	-0.384	-0.090
-725.894	-200.000	-0.431	-0.001
-724.879	-101.381	-0.249	0.061
-723.864	-90.486	-0.084	0.024
-722.850	411.561	-0.050	-0.107
-721.835	800.000	0.101	-0.338
-720.821	800.000	0.059	-0.238
-719.806	-200.000	0.010	-0.251
-718.791	800.000	-0.095	-0.375
-717.777	64.196	0.275	0.279
-716.762	-83.871	0.069	-0.022
-715.748	-30.211	-0.049	0.028
-714.733	-99.020	-0.086	-0.022
-713.718	-36.684	-0.113	0.061
-712.704	182.898	-0.242	0.360
-711.689	-19.765	0.158	0.098
-710.675	702.869	-0.169	-0.449
-709.660	-151.848	0.101	-0.007
-708.645	-47.081	-0.213	-0.104
-707.631	-15.418	0.018	0.012
-706.616	-37.651	0.227	0.122
-705.602	-85.839	-0.117	0.036
-704.587	402.152	-0.060	0.127
-703.572	-92.374	-0.232	0.066
-702.558	-200.000	0.030	-0.291
-701.543	-200.000	-0.000	-0.063
-700.529	-25.067	-0.342	0.204
-699.514	18.024	-0.203	0.163
-698.499	-200.000	-0.048	0.219
-697.485	-49.777	-0.083	0.040
-696.470	-196.330	0.141	-0.001
-695.456	800.000	0.053	0.153
-694.441	-70.320	0.196	-0.075
-693.426	-96.004	-0.167	-0.045
-692.412	-26.364	-0.097	0.057
-691.397	-127.842	-0.012	0.002
-690.383	-200.000	0.017	0.088
-689.368	800.000	0.032	0.111
-688.354	305.272	-0.153	-0.286
-687.339	-31.251	0.139	-0.079
-686.324	12.862	0.057	-0.044
-685.310	4.824	-0.166	0.123
-684.295	-200.000	-0.024	-0.136
-683.281	-101.357	-0.324	0.079
-682.266	-89.743	-0.080	0.024
-681.251	666.356	-0.076	0.196
-680.237	321.773	-0.099	0.189
-679.222	374.167	0.072	-0.147
-678.208	-200.000	-0.036	-0.263
-677.193	-105.555	0.144	-0.033
-676.178	427.125	0.083	-0.181
-675.164	75.196	-0.172	0.182
-674.149	14.982	-0.040	0.032
-673.135	-138.537	-0.147	-0.016
-672.120	44.555	0.133	0.123
-671.105	-106.594	0.408	0.091
-670.091	-112.312	-0.372	-0.075
-669.076	800.000	0.156	-0.612
-668.062	169.593	0.209	0.301
-667.047	137.815	0.136	-0.179
-666.032	-87.152	0.135	-0.041
-665.018	386.270	0.063	-0.131
-664.003	-200.000	0.070	-0.331
-662.989	-22.097	0.186	0.114
-661.974	138.044	-0.191	-0.252
-660.959	16.761	0.149	-0.118
-659.945	-200.000	-0.040	-0.318
-658.930	321.946	-0.109	-0.208
-657.916	153.428	-0.116	-0.160
-656.901	161.773	-0.256	0.361
-655.886	-60.237	-0.291	-0.125
-654.872	-78.605	-0.201	0.069
-653.857	-200.000	-0.020	-0.157
-652.843	-78.008	-0.328	0.114
-651.828	-200.000	-0.098	0.478
-650.814	32.674	0.293	0.254
-649.799	-84.412	-0.073	-0.023
-648.784	286.255	0.025	-0.046
-647.770	-2.304	0.161	-0.113
-646.755	-129.405	-0.380	-0.053
-645.741	78.268	-0.153	-0.164
-644.726	-79.151	0.476	0.162
-643.711	-200.000	-0.030	0.132
-642.697	48.229	-0.332	-0.312
-641.682	-200.000	0.019	0.167
-640.668	-200.000	-0.041	0.288
-639.653	449.318	0.123	-0.272
-638.638	800.000	-0.049	-0.174
-637.624	113.642	-0.275	-0.335
-636.609	-149.112	0.424	0.034
-635.595	327.077	-0.055	-0.107
-634.580	-200.000	-0.014	-0.212
-633.565	-12.270	0.320	-0.210
-632.551	-117.736	-0.304	0.055
-631.536	-200.000	-0.001	0.126
-630.522	187.345	-0.123	0.184
-629.507	147.308	-0.123	0.166
-628.492	-126.280	0.370	0.055
-627.478	-200.000	0.003	-0.029
-626.463	-92.045	-0.209	0.059
-625.449	-45.133	-0.211	-0.105
-624.434	-129.641	-0.284	0.039
-623.419	-84.120	0.186	-0.059
-622.405	193.662	0.114	-0.173
-621.390	-200.000	0.062	-0.278
-620.376	61.902	-0.340	0.340
-619.361	-109.433	-0.242	-0.051
-618.346	-200.000	-0.043	0.384
-617.332	107.907	-0.217	-0.259
-616.317	-102.167	0.360	-0.087
-615.303	42.531	-0.120	-0.109
-614.288	-200.000	0.001	-0.116
-613.273	-157.723	0.260	-0.016
-612.259	55.432	-0.031	0.030
-611.244	-84.432	-0.581	0.184
-610.230	-91.348	0.356	-0.102
-609.215	-200.000	-0.015	0.129
-608.201	-15.062	-0.114	0.073
-607.186	6.879	-0.073	0.055
-606.171	-101.272	0.093	-0.023
-605.157	81.352	-0.099	-0.107
-604.142	-85.917	0.116	-0.036
-603.128	-200.000	-0.021	0.103
-602.113	-200.000	-0.002	0.177
-601.098	158.470	-0.209	-0.290
-600.084	268.955	0.090	0.159
-599.069	-28.090	0.124	-0.072
-598.055	-133.142	0.133	-0.017
-597.040	-152.322	-0.432	-0.031
-596.025	620.233	-0.108	-0.273
-595.011	414.212	0.151	-0.322
-593.996	1.977	-0.120	-0.087
-592.982	-30.275	-0.002	0.001
-591.967	5.729	0.223	-0.165
-590.952	161.550	0.068	0.096
-589.938	257.043	-0.151	0.260
-588.923	-132.727	0.457	0.059
-587.909	-4.761	-0.127	-0.088
-586.894	40.312	-0.215	-0.194
-585.879	-200.000	-0.029	-0.168
-584.865	73.521	-0.239	0.251
-583.850	800.000	-0.098	-0.314
-582.836	-17.338	0.278	-0.175
-581.821	-94.703	-0.113	-0.031
-580.806	303.474	0.089	0.165
-579.792	82.066	0.043	0.047
-578.777	476.370	0.082	-0.185
-577.763	-28.148	-0.291	-0.168
-576.748	-200.000	-0.015	0.087
-575.733	-170.064	-0.180	-0.006
-574.719	-95.728	-0.208	-0.056
-573.704	59.331	-0.147	0.145
-572.690	-34.256	0.052	-0.029
-571.675	311.775	0.053	-0.099
-570.661	5.798	-0.220	0.163
-569.646	-200.000	0.002	0.061
-568.631	46.389	0.141	0.131
-567.617	-98.049	-0.474	-0.122
-566.602	116.629	-0.121	-0.148
-565.588	-52.419	0.239	-0.111
-564.573	-89.313	-0.057	-0.017
-563.558	-135.083	-0.299	0.036
-562.544	-67.475	0.198	-0.078
-561.529	-87.179	0.129	0.039
-560.515	14.336	-0.164	0.128
-559.500	-200.000	0.025	-0.298
-558.485	323.069	0.116	-0.222
-557.471	-149.552	0.263	-0.021
-556.456	342.616	0.113	0.221
-555.442	-34.652	0.404	-0.221
-554.427	-106.928	-0.148	-0.033
-553.412	800.000	0.065	-0.236
-552.398	-4.102	-0.042	0.029
-551.383	800.000	-0.034	0.100
-550.369	-32.917	0.074	-0.041
-549.354	-134.668	0.252	0.031
-548.339	463.919	-0.127	-0.285
-547.325	-76.688	0.205	-0.072
-546.310	-86.622	-0.267	0.082
-545.296	421.446	-0.081	-0.175
-544.281	44.733	0.050	-0.046
-543.266	151.944	-0.145	0.198
-542.252	-200.000	0.019	0.210
-541.237	460.456	-0.049	0.110
-540.223	-13.887	0.180	0.116
-539.208	452.192	0.062	0.136
-538.193	145.170	-0.115	0.154
-537.179	-156.403	-0.183	-0.011
-536.164	444.980	-0.153	0.335
-535.150	-97.238	0.065	-0.017
-534.135	371.570	0.060	0.122
-533.121	605.931	-0.080	-0.199
-532.106	-33.392	-0.117	0.065
-531.091	-77.569	0.144	0.050
-530.077	-17.428	-0.116	0.073
-529.062	-64.688	0.219	-0.089
-528.048	-137.477	-0.208	-0.024
-527.033	111.708	0.333	-0.402
-526.018	266.325	-0.149	0.260
-525.004	-113.865	0.330	0.064
-523.989	-85.271	0.070	0.022
-522.975	211.806	0.099	-0.155
-521.960	366.340	0.131	-0.264
-520.945	-58.255	0.141	-0.061
-519.931	-200.000	0.001	0.160
-518.916	-158.474	-0.319	-0.018
-517.902	-110.617	-0.219	-0.045
-516.887	11.770	-0.097	-0.074
-515.872	-22.144	-0.248	-0.150
-514.858	-163.830	-0.333	0.016
-513.843	675.791	0.075	-0.194
-512.829	138.259	-0.148	-0.194
-511.814	168.833	0.066	0.094
-510.799	232.513	0.087	-0.143
-509.785	-194.326	0.212	-0.002
-508.770	-97.284	0.174	-0.045
-507.756	-200.000	-0.030	0.204
-506.741	-76.222	0.470	-0.166
-505.726	-132.082	-0.193	0.025
-504.712	-37.800	0.199	0.106
-503.697	-92.262	-0.046	0.013
-502.683	17.810	-0.160	0.127
-501.668	800.000	0.037	-0.158
-500.653	-106.207	-0.223	-0.050
-499.639	10.481	-0.268	-0.204
-498.624	750.746	-0.075	-0.202
-497.610	-54.312	-0.271	0.123
-496.595	567.860	-0.004	-0.009
-495.581	-10.312	0.113	-0.075
-494.566	-62.044	-0.241	0.100
-493.551	24.017	0.092	-0.076
-492.537	49.491	0.232	0.218
-491.522	-200.000	-0.006	-0.197
-490.508	580.797	-0.006	0.014
-489.493	88.480	-0.278	0.308
-488.478	181.176	-0.104	-0.153
-487.464	-79.999	0.181	-0.061
-486.449	-200.000	-0.029	0.282
-485.435	-200.000	0.085	0.424
-484.420	78.802	-0.052	0.056
-483.405	-200.000	0.005	-0.172
-482.391	11.287	-0.437	-0.334
-481.376	-26.709	-0.381	-0.223
-480.362	-68.720	-0.078	0.030
-479.347	-111.490	-0.277	-0.056
-478.332	-200.000	0.002	0.020
-477.318	59.244	0.142	-0.140
-476.303	-151.674	-0.257	-0.019
-475.289	745.056	-0.124	0.332
-474.274	-85.585	0.325	0.101
-473.259	-200.000	-0.067	0.359
-472.245	800.000	-0.035	0.099
-471.230	3.940	-0.330	-0.241
-470.216	102.556	0.157	-0.183
-469.201	-158.789	0.277	-0.016
-468.186	146.974	-0.064	0.086
-467.172	-200.000	-0.024	0.142
-466.157	-105.550	0.212	0.048
-465.143	-200.000	0.025	0.169
-464.128	800.000	-0.081	0.257
-463.113	598.818	0.212	0.526
-462.099	800.000	-0.051	-0.148
-461.084	-200.000	-0.012	0.222
-460.070	-92.375	0.177	-0.050
-459.055	76.801	0.123	0.130
-458.040	800.000	-0.087	-0.245
-457.026	-96.767	-0.158	0.041
-456.011	-30.130	-0.109	0.062
-454.997	112.434	-0.109	0.132
-453.982	-4.934	0.080	0.055
-452.968	40.029	0.097	0.086
-451.953	-200.000	0.015	0.148
-450.938	288.888	0.043	0.078
-449.924	800.000	0.051	0.157
-448.909	190.831	0.196	0.294
-447.895	-4.338	0.222	0.153
-446.880	364.760	-0.092	-0.184
-445.865	326.607	0.081	0.154
-444.851	-23.287	0.326	-0.195
-443.836	113.540	-0.110	-0.133
-442.822	301.818	0.159	-0.293
-441.807	-58.387	-0.306	-0.133
-440.792	-200.000	0.016	0.213
-439.778	284.984	-0.170	0.305
-438.763	67.506	0.079	0.081
-437.749	800.000	-0.147	0.414
-436.734	-117.261	-0.169	-0.031
-435.719	-200.000	-0.028	-0.151
-434.705	52.424	-0.206	0.196
-433.690	67.205	-0.121	0.123
-432.676	-200.000	-0.007	-0.081
-431.661	753.372	0.064	0.171
-430.646	-16.424	-0.159	-0.100
-429.632	-200.000	-0.006	-0.185
-428.617	-2.019	-0.103	-0.072
-427.603	-129.389	0.435	-0.060
-426.588	171.418	0.222	-0.317
-425.573	-43.204	-0.205	0.103
-424.559	-146.243	0.273	-0.024
-423.544	800.000	0.037	-0.139
-422.530	13.888	-0.069	-0.054
-421.515	-1.774	0.040	0.028
-420.500	-200.000	0.016	0.352
-419.486	-47.648	-0.162	-0.078
-418.471	-200.000	0.014	-0.212
-417.457	-200.000	-0.004	-0.093
-416.442	-41.674	0.194	0.099
-415.428	271.342	0.213	-0.374
-414.413	-125.402	0.074	0.011
-413.398	-15.573	0.249	-0.158
-412.384	-77.729	0.363	0.125
-411.369	130.343	-0.103	-0.132
-410.355	-30.527	0.104	-0.059
-409.340	-111.087	0.069	-0.014
-408.325	-79.146	0.060	-0.020
-407.311	800.000	0.026	-0.108
-406.296	-93.487	-0.281	-0.077
-405.282	660.960	-0.155	-0.397
-404.267	-80.651	-0.160	-0.053
-403.252	-4.225	0.431	0.297
-402.238	-11.725	-0.026	-0.017
-401.223	132.320	-0.254	-0.326
-400.209	-145.242	-0.334	-0.030
-399.194	85.606	0.205	-0.225
-398.179	-200.000	0.031	-0.299
-397.165	-148.192	-0.240	0.020
-396.150	-200.000	-0.012	-0.261
-395.136	17.767	-0.188	0.149
-394.121	-85.799	0.112	-0.035
-393.106	-200.000	-0.032	-0.205
-392.092	800.000	-0.091	-0.315
-391.077	1.665	-0.199	-0.142
-390.063	-115.686	0.042	0.008
-389.048	-200.000	0.001	-0.027
-388.033	44.109	0.197	-0.179
-387.019	-49.813	0.194	0.092
-386.004	18.139	0.198	0.157
-384.990	-189.396	0.116	-0.001
-383.975	-16.672	0.066	-0.041
-382.960	81.456	0.283	0.304
-381.946	119.912	0.153	0.188
-380.931	-80.819	0.280	0.092
-379.917	-200.000	0.050	-0.271
-378.902	800.000	-0.055	0.173
-377.888	-50.826	0.525	0.245
-376.873	800.000	0.102	0.395
-375.858	4.218	0.339	0.246
-374.844	698.996	-0.084	-0.220
-373.829	-127.967	0.295	-0.042
-372.815	-200.000	0.016	0.253
-371.800	-1.682	0.142	0.100
-370.785	-200.000	-0.050	0.302
-369.771	293.368	0.126	0.229
-368.756	-60.153	0.062	0.026
-367.742	-200.000	0.033	-0.292
-366.727	-200.000	-0.016	-0.182
-365.712	800.000	0.041	0.159
-364.698	328.168	-0.077	0.147
-363.683	-200.000	0.041	-0.196
-362.669	-200.000	0.042	0.263
-361.654	-165.427	0.121	0.005
-360.639	800.000	0.055	-0.164
-359.625	-63.966	0.157	0.064
-358.610	42.797	0.055	0.050
-357.596	800.000	-0.061	0.237
-356.581	-94.190	0.188	-0.051
-355.566	-84.569	0.111	0.035
-354.552	-200.000	-0.063	-0.351
-353.537	-200.000	-0.007	-0.144
-352.523	55.509	-0.107	-0.103
-351.508	152.431	-0.186	0.253
-350.493	63.014	0.129	-0.128
-349.479	-149.623	0.098	-0.008
-348.464	169.930	0.111	-0.157
-347.450	-120.728	-0.200	0.034
-346.435	800.000	0.027	0.097
-345.420	-77.704	-0.097	-0.033
-344.406	-200.000	0.041	-0.271
-343.391	-82.560	0.293	-0.094
-342.377	-101.558	0.394	-0.095
-341.362	800.000	-0.077	0.313
-340.348	800.000	0.089	-0.292
-339.333	-200.000	-0.043	-0.353
-338.318	-200.000	-0.032	-0.191
-337.304	20.018	-0.213	-0.170
-336.289	120.098	0.071	-0.087
-335.275	129.782	0.232	-0.294
-334.260	87.595	-0.085	0.094
-333.245	-200.000	-0.057	0.272
-332.231	549.707	-0.158	-0.376
-331.216	686.935	0.018	0.045
-330.202	-105.349	0.204	0.046
-329.187	-123.433	-0.187	0.030
-328.172	-5.090	-0.177	0.121
-327.158	77.586	0.175	0.185
-326.143	367.908	0.067	-0.134
-325.129	3.428	-0.230	-0.166
-324.114	-61.881	-0.261	0.108
-323.099	-200.000	0.021	0.243
-322.085	-15.331	0.201	-0.127
-321.070	688.592	-0.067	-0.174
-320.056	-99.752	0.060	0.015
-319.041	26.684	-0.141	0.117
-318.026	33.396	0.205	0.177
-317.012	-184.603	-0.404	-0.006
-315.997	-22.408	0.136	-0.082
-314.983	-40.560	-0.221	-0.113
-313.968	-74.465	0.148	-0.053
-312.953	401.867	-0.055	0.115
-311.939	-7.614	-0.075	0.050
-310.924	-200.000	-0.042	0.296
-309.910	316.519	0.134	0.251
-308.895	-180.248	0.140	-0.003
-307.880	732.373	0.066	0.174
-306.866	0.076	-0.278	-0.197
-305.851	-200.000	0.012	0.187
-304.837	18.369	0.131	0.104
-303.822	-108.481	0.088	0.019
-302.807	177.384	0.106	-0.153
-301.793	346.803	0.043	0.083
-300.778	-27.253	-0.039	0.023
-299.764	5.505	0.107	0.078
-298.749	5.188	0.072	-0.052
-297.735	-125.539	-0.071	-0.011
-296.720	-150.537	0.179	0.014
-295.705	37.850	-0.109	0.096
-294.691	280.304	-0.046	0.081
-293.676	-153.539	0.020	-0.001
-292.662	104.258	0.076	-0.089
-291.647	3.759	-0.305	0.221
-290.632	303.024	0.083	-0.153
-289.618	800.000	0.025	0.103
-288.603	325.570	0.212	-0.401
-287.589	-87.693	-0.240	0.072
-286.574	-200.000	0.048	-0.214
-285.559	800.000	-0.061	-0.206
-284.545	-47.759	-0.238	-0.114
-283.530	3.471	-0.282	0.203
-282.516	-3.852	0.069	0.048
-281.501	-200.000	0.014	-0.160
-280.486	-146.007	-0.538	-0.047
-279.472	-139.076	-0.129	-0.014
-278.457	-7.420	-0.126	0.084
-277.443	39.027	-0.061	0.054
-276.428	-105.693	0.129	0.029
-275.413	800.000	-0.029	0.085
-274.399	0.072	0.192	-0.136
-273.384	-143.491	-0.192	-0.018
-272.370	106.479	0.043	0.050
-271.355	52.124	-0.233	-0.220
-270.340	37.474	-0.151	0.133
-269.326	9.284	0.114	-0.086
-268.311	-200.000	-0.013	-0.200
-267.297	-200.000	0.025	0.402
-266.282	-200.000	-0.054	-0.442
-265.267	800.000	-0.005	-0.018
-264.253	-12.822	-0.153	-0.098
-263.238	-200.000	0.020	0.258
-262.224	-200.000	0.033	0.161
-261.209	-146.204	0.235	0.020
-260.195	-59.036	-0.126	-0.054
-259.180	45.204	-0.076	-0.069
-258.165	17.101	-0.155	0.121
-257.151	268.114	-0.122	-0.212
-256.136	-119.838	-0.212	-0.036
-255.122	-72.452	-0.088	0.032
-254.107	-88.733	-0.249	0.073
-253.092	-113.493	-0.356	0.069
-252.078	-101.644	0.256	0.062
-251.063	-175.921	0.136	-0.004
-250.049	-200.000	0.062	-0.404
-249.034	32.460	-0.181	0.154
-248.019	182.818	-0.094	-0.138
-247.005	-200.000	0.001	0.148
-245.990	301.143	0.257	0.470
-244.976	-102.600	0.270	-0.064
-243.961	-155.652	0.366	0.023
-242.946	277.698	-0.087	0.154
-241.932	147.193	0.063	0.083
-240.917	800.000	-0.065	0.214
-239.903	800.000	-0.052	0.211
-238.888	304.052	-0.131	-0.240
-237.873	186.775	0.045	0.067
-236.859	8.210	-0.096	0.072
-235.844	-200.000	0.044	-0.207
-234.830	-88.858	-0.182	-0.053
-233.815	-65.550	0.161	-0.064
-232.800	-136.277	0.027	-0.003
-231.786	45.074	0.131	-0.119
-230.771	9.251	0.275	-0.205
-229.757	-38.159	0.077	-0.040
-228.742	-200.000	0.008	0.158
-227.727	-88.383	0.242	-0.071
-226.713	-127.730	-0.504	0.072
-225.698	548.039	0.113	0.268
-224.684	-200.000	0.029	0.289
-223.669	39.164	0.333	0.295
-222.655	-200.000	-0.049	0.247
-221.640	115.883	0.053	0.064
-220.625	557.497	-0.063	0.150
-219.611	13.343	0.241	0.185
-218.596	-200.000	-0.008	0.084
-217.582	-98.452	-0.192	-0.049
-216.567	-110.032	-0.461	-0.095
-215.552	-200.000	0.011	0.086
-214.538	-23.299	0.322	-0.191
-213.523	-173.261	-0.348	-0.010
-212.509	-0.670	0.168	0.118
-211.494	800.000	0.091	-0.302
-210.479	-200.000	0.014	0.180
-209.465	271.049	0.120	-0.209
-208.450	172.031	-0.106	-0.150
-207.436	55.906	-0.107	0.102
-206.421	502.452	0.065	-0.149
-205.406	800.000	0.058	0.210
-204.392	-149.091	-0.125	0.010
-203.377	395.140	0.137	-0.282
-202.363	800.000	-0.017	-0.055
-201.348	-59.835	-0.165	0.070
-200.333	88.426	-0.154	0.168
-199.319	-15.409	-0.174	-0.110
-198.304	161.760	0.151	0.209
-197.290	-200.000	-0.017	-0.100
-196.275	-14.127	0.146	0.093
-195.260	-200.000	-0.011	0.115
-194.246	-200.000	-0.085	-0.393
-193.231	-71.980	-0.227	0.083
-192.217	165.367	-0.235	0.327
-191.202	-54.153	0.485	-0.218
-190.187	-65.389	-0.283	-0.112
-189.173	-27.980	0.113	-0.065
-188.158	4.396	0.165	0.120
-187.144	339.692	-0.150	0.290
-186.129	-200.000	0.018	0.254
-185.114	15.047	-0.103	0.080
-184.100	19.063	0.033	0.026
-183.085	-83.412	0.345	-0.109
-182.071	-157.063	0.398	-0.024
-181.056	220.669	0.074	-0.116
-180.042	-130.061	-0.146	0.020
-179.027	6.516	-0.159	0.116
-178.012	-200.000	-0.049	-0.261
-176.998	-200.000	0.026	0.142
-175.983	108.332	0.221	0.261
-174.969	800.000	0.086	0.284
-173.954	-101.561	-0.229	-0.055
-172.939	-103.424	0.206	-0.048
-171.925	800.000	0.092	0.370
-170.910	58.147	-0.120	-0.116
-169.896	-16.104	-0.239	0.150
-168.881	114.792	-0.090	-0.108
-167.866	-17.791	0.273	0.169
-166.852	370.961	-0.020	-0.039
-165.837	-145.681	0.260	-0.023
-164.823	-200.000	-0.053	0.506
-163.808	-112.446	-0.212	0.042
-162.793	-200.000	-0.027	0.226
-161.779	800.000	-0.023	-0.078
-160.764	-200.000	-0.045	0.199
-159.750	-75.522	-0.110	0.039
-158.735	-30.860	0.235	-0.131
-157.720	-127.702	0.167	-0.024
-156.706	-200.000	0.011	0.295
-155.691	-153.019	0.323	0.022
-154.677	800.000	0.076	-0.255
-153.662	-200.000	-0.009	-0.381
-152.647	-29.508	0.064	-0.036
-151.633	-200.000	-0.004	-0.057
-150.618	800.000	0.032	-0.117
-149.604	-200.000	-0.018	0.151
-148.589	160.406	0.158	0.216
-147.574	-88.470	-0.081	0.024
-146.560	-200.000	0.034	-0.215
-145.545	173.256	0.295	0.419
-144.531	-79.058	0.039	0.013
-143.516	800.000	0.039	0.109
-142.502	38.333	0.134	-0.118
-141.487	800.000	-0.052	-0.153
-140.472	800.000	0.097	-0.271
-139.458	366.303	0.064	-0.126
-138.443	-14.450	-0.178	-0.113
-137.429	-200.000	-0.031	-0.176
-136.414	-100.773	0.221	0.054
-135.399	-200.000	-0.012	0.166
-134.385	-88.997	0.203	0.059
-133.370	-45.764	0.027	-0.013
-132.356	3.699	0.283	-0.203
-131.341	162.712	-0.084	0.115
-130.326	-200.000	-0.079	0.401
-129.312	-8.978	0.172	-0.113
-128.297	-94.003	0.317	0.086
-127.283	-70.732	0.379	-0.141
-126.268	-4.885	0.234	-0.159
-125.253	39.629	0.048	0.043
-124.239	2.558	0.101	-0.072
-123.224	78.701	0.005	0.005
-122.210	800.000	0.034	0.143
-121.195	-34.686	-0.218	-0.117
