DTS Sentinel unit serial number:	SN413079Multiplexer serial number:	ORYXHardware model number:	OX4-SRSoftware version number:	ORYX F/W v4.00 Oryx Data Collector v3.7.2.0data status	okinstallation	princeton_trtdifferential loss correction	single-endedforward channel	channel 2reverse channel	N/Adate	2019/09/18time	15:39:35forward acquisition time	60.00reverse acquisition time	0.00gamma	496.2192k internal	0.2315k external	0.2315temperature offset calibration	1.0006default loss term (dB/km)	0.3790temperature slope calibration	1.0000multiplexer offset coefficient	1.0000multiplexer slope coefficient	1.0000fibre end	0.00T internal ref (°C)	36.37T ext. ref 1 (°C)	0.79T ext. ref 2 (°C)	30.87length (m)	temperature (°C)	Stokes	anti-Stokes-747.200	-103.341	-0.166	-0.040
-746.185	-200.000	-0.026	0.310
-745.171	194.553	-0.149	0.229
-744.156	371.559	-0.183	0.376
-743.142	-84.932	0.284	-0.090
-742.127	-200.000	-0.016	0.339
-741.112	215.299	0.060	-0.097
-740.098	30.484	-0.066	0.057
-739.083	800.000	0.050	0.203
-738.069	800.000	0.062	-0.274
-737.054	165.360	0.229	-0.328
-736.039	28.183	-0.216	-0.185
-735.025	-38.330	0.296	0.159
-734.010	-47.267	-0.166	-0.082
-732.996	93.777	-0.226	-0.259
-731.981	-49.421	-0.283	-0.136
-730.966	-200.000	-0.055	0.266
-729.952	15.005	0.099	0.078
-728.937	-200.000	-0.001	-0.127
-727.923	21.087	-0.336	-0.276
-726.908	9.651	0.046	-0.035
-725.894	46.207	-0.083	-0.078
-724.879	-188.901	-0.497	-0.006
-723.864	-175.083	0.090	0.003
-722.850	-26.649	0.101	-0.060
-721.835	-102.096	0.238	-0.058
-720.821	398.599	0.048	-0.102
-719.806	706.931	0.074	-0.198
-718.791	-17.922	-0.113	-0.072
-717.777	25.633	0.331	-0.279
-716.762	307.217	-0.106	0.201
-715.748	-151.861	-0.246	0.018
-714.733	-200.000	-0.019	0.091
-713.718	-200.000	0.101	0.475
-712.704	-200.000	0.003	0.278
-711.689	-38.567	0.051	0.027
-710.675	-85.576	0.261	0.082
-709.660	-114.664	-0.374	-0.072
-708.645	-177.326	-0.238	-0.006
-707.631	-27.796	0.090	0.053
-706.616	-146.228	0.137	0.012
-705.602	-200.000	-0.003	0.214
-704.587	552.531	0.059	0.143
-703.572	64.549	0.358	-0.365
-702.558	-11.947	0.140	0.093
-701.543	800.000	-0.089	-0.277
-700.529	72.251	-0.249	-0.262
-699.514	-200.000	0.007	0.031
-698.499	31.047	-0.054	-0.047
-697.485	-200.000	0.004	-0.425
-696.470	800.000	-0.041	-0.136
-695.456	800.000	0.027	-0.096
-694.441	70.716	-0.016	-0.016
-693.426	377.817	0.050	0.103
-692.412	-135.056	0.363	0.044
-691.397	0.229	-0.058	0.042
-690.383	-200.000	0.017	-0.087
-689.368	-200.000	0.024	-0.136
-688.354	-57.364	0.073	-0.032
-687.339	-175.276	0.266	-0.007
-686.324	13.792	0.203	0.159
-685.310	-142.504	0.052	0.005
-684.295	-200.000	-0.009	0.043
-683.281	-115.650	0.264	0.050
-682.266	-200.000	0.000	0.033
-681.251	-112.474	0.310	-0.063
-680.237	19.804	-0.008	-0.007
-679.222	-121.892	0.297	-0.050
-678.208	-200.000	0.342	-0.000
-677.193	21.253	0.284	-0.233
-676.178	-128.304	-0.121	0.017
-675.164	-200.000	0.027	-0.175
-674.149	800.000	0.070	0.270
-673.135	-57.330	-0.122	0.054
-672.120	-200.000	-0.005	-0.039
-671.105	235.726	0.151	0.251
-670.091	-99.015	-0.049	0.012
-669.076	157.903	0.195	-0.273
-668.062	34.139	-0.049	-0.043
-667.047	-3.031	0.167	0.118
-666.032	60.342	-0.156	0.156
-665.018	64.188	0.195	0.198
-664.003	-23.517	0.361	0.219
-662.989	-99.935	0.173	-0.044
-661.974	11.803	0.162	-0.126
-660.959	-200.000	-0.034	0.265
-659.945	95.972	-0.085	0.099
-658.930	-31.448	-0.077	0.044
-657.916	64.217	-0.131	0.133
-656.901	-200.000	0.009	0.139
-655.886	-127.324	-0.173	-0.026
-654.872	-200.000	-0.038	-0.267
-653.857	-26.484	0.203	-0.120
-652.843	169.566	0.055	-0.079
-651.828	-63.560	0.214	0.089
-650.814	-138.520	0.242	0.027
-649.799	-200.000	0.042	0.259
-648.784	-200.000	0.002	0.159
-647.770	800.000	0.111	-0.422
-646.755	-200.000	-0.036	-0.266
-645.741	-200.000	-0.008	0.133
-644.726	-131.837	-0.049	-0.007
-643.711	-78.390	-0.250	0.086
-642.697	29.409	-0.030	-0.026
-641.682	-41.780	0.319	-0.165
-640.668	-200.000	-0.011	-0.060
-639.653	-5.140	-0.291	0.202
-638.638	50.606	-0.048	0.046
-637.624	85.515	-0.146	-0.162
-636.609	18.603	-0.117	-0.094
-635.595	418.337	0.087	-0.187
-634.580	75.676	-0.055	0.058
-633.565	-189.492	0.225	0.003
-632.551	-200.000	0.029	-0.256
-631.536	-22.678	-0.426	-0.260
-630.522	-38.577	0.107	-0.057
-629.507	128.170	-0.064	0.082
-628.492	-200.000	0.018	-0.121
-627.478	-200.000	-0.016	-0.152
-626.463	-81.162	0.125	0.042
-625.449	800.000	0.015	-0.050
-624.434	-64.624	0.302	0.124
-623.419	-17.445	-0.264	-0.168
-622.405	27.606	-0.118	0.100
-621.390	151.688	0.211	0.289
-620.376	800.000	0.071	0.303
-619.361	14.996	0.172	-0.136
-618.346	4.493	-0.463	0.342
-617.332	68.363	0.220	0.227
-616.317	-75.963	0.097	0.035
-615.303	2.062	0.214	0.156
-614.288	-89.740	0.227	0.067
-613.273	76.555	-0.058	-0.062
-612.259	113.306	-0.069	-0.085
-611.244	42.448	-0.163	0.149
-610.230	-62.000	-0.303	-0.128
-609.215	382.056	0.121	-0.250
-608.201	109.729	0.050	0.060
-607.186	-134.792	0.159	0.019
-606.171	-168.221	-0.289	0.011
-605.157	110.938	-0.075	-0.091
-604.142	800.000	-0.082	0.341
-603.128	-60.313	-0.270	0.116
-602.113	800.000	-0.059	0.253
-601.098	800.000	-0.076	-0.279
-600.084	800.000	0.062	0.182
-599.069	-165.132	-0.259	0.012
-598.055	-198.863	-0.082	0.000
-597.040	-200.000	-0.028	-0.443
-596.025	-15.461	0.099	0.064
-595.011	347.835	-0.093	-0.185
-593.996	-18.186	-0.214	0.135
-592.982	-200.000	-0.003	-0.074
-591.967	-69.029	0.015	0.006
-590.952	-114.704	0.139	0.027
-589.938	-69.934	-0.114	-0.044
-588.923	140.789	0.221	0.294
-587.909	800.000	0.078	0.325
-586.894	-102.599	0.376	0.090
-585.879	-104.632	-0.127	-0.030
-584.865	117.971	-0.095	0.118
-583.850	432.842	0.123	-0.269
-582.836	-113.393	-0.315	0.062
-581.821	800.000	-0.116	0.418
-580.806	294.499	-0.162	0.299
-579.792	-170.597	0.263	-0.009
-578.777	800.000	-0.054	-0.216
-577.763	-85.842	-0.149	0.046
-576.748	-200.000	-0.009	0.428
-575.733	-200.000	0.039	0.441
-574.719	-80.601	0.290	0.097
-573.704	489.677	0.214	-0.491
-572.690	800.000	0.077	-0.249
-571.675	20.833	0.240	0.195
-570.661	-100.759	0.108	-0.027
-569.646	576.372	0.038	0.093
-568.631	800.000	0.135	-0.564
-567.617	76.871	-0.135	0.145
-566.602	-200.000	-0.004	0.207
-565.588	800.000	0.100	-0.299
-564.573	-20.926	0.317	-0.195
-563.558	418.732	0.059	0.127
-562.544	-82.610	-0.161	-0.052
-561.529	-82.944	-0.045	-0.015
-560.515	-59.408	-0.293	-0.127
-559.500	62.243	-0.083	-0.083
-558.485	718.794	0.128	0.341
-557.471	-69.608	-0.401	0.154
-556.456	-135.897	0.244	-0.029
-555.442	702.697	-0.077	-0.205
-554.427	199.737	-0.113	0.175
-553.412	-200.000	0.056	-0.264
-552.398	-200.000	-0.077	0.350
-551.383	-49.431	-0.242	-0.116
-550.369	-108.534	-0.173	0.038
-549.354	322.625	0.138	-0.265
-548.339	800.000	-0.054	0.169
-547.325	-122.569	-0.423	0.069
-546.310	179.767	-0.072	-0.107
-545.296	377.385	0.151	-0.310
-544.281	684.333	0.101	0.266
-543.266	209.317	0.168	0.264
-542.252	800.000	-0.054	0.171
-541.237	-200.000	-0.087	-0.406
-540.223	200.811	-0.021	0.032
-539.208	-200.000	0.017	0.201
-538.193	800.000	0.073	0.228
-537.179	4.202	0.143	0.105
-536.164	568.423	0.136	0.331
-535.150	800.000	0.054	-0.221
-534.135	688.697	-0.091	-0.238
-533.121	-200.000	0.012	-0.083
-532.106	-144.265	-0.406	-0.038
-531.091	-59.009	-0.380	-0.165
-530.077	102.668	-0.181	-0.213
-529.062	-200.000	-0.001	-0.132
-528.048	115.349	-0.053	-0.066
-527.033	-200.000	0.010	0.054
-526.018	-100.319	0.273	-0.068
-525.004	-125.646	-0.148	-0.023
-523.989	-168.179	0.159	0.006
-522.975	182.706	-0.113	-0.168
-521.960	-98.558	-0.081	-0.021
-520.945	-200.000	0.003	-0.026
-519.931	-136.270	0.037	-0.004
-518.916	800.000	0.066	0.211
-517.902	800.000	-0.072	0.241
-516.887	-200.000	-0.090	-0.404
-515.872	80.017	-0.238	0.257
-514.858	71.464	-0.196	0.204
-513.843	-194.184	-0.214	0.002
-512.829	-18.444	0.118	-0.074
-511.814	-125.240	-0.127	0.020
-510.799	44.819	-0.368	0.340
-509.785	155.274	0.160	-0.220
-508.770	184.314	-0.059	-0.088
-507.756	-88.016	-0.324	-0.098
-506.741	-0.156	-0.177	0.126
-505.726	9.601	-0.066	-0.050
-504.712	-80.561	-0.200	0.067
-503.697	-168.707	-0.058	0.002
-502.683	-60.247	-0.191	-0.082
-501.668	117.034	-0.292	-0.360
-500.653	43.195	0.043	0.039
-499.639	60.999	0.208	-0.207
-498.624	657.116	0.155	-0.399
-497.610	-200.000	0.006	0.147
-496.595	-76.212	-0.185	-0.066
-495.581	113.832	-0.132	0.161
-494.566	-200.000	-0.014	-0.132
-493.551	-66.666	-0.130	-0.052
-492.537	135.836	-0.244	0.319
-491.522	153.918	0.138	0.190
-490.508	-104.151	-0.113	-0.026
-489.493	-107.944	0.131	0.028
-488.478	-200.000	0.033	0.173
-487.464	98.136	-0.116	-0.134
-486.449	-200.000	0.007	0.171
-485.435	6.184	-0.103	-0.076
-484.420	-121.344	-0.469	-0.078
-483.405	-200.000	-0.002	0.087
-482.391	-142.712	0.327	0.032
-481.376	503.237	-0.071	-0.164
-480.362	-25.209	0.354	-0.210
-479.347	-128.501	-0.219	0.031
-478.332	-200.000	-0.036	-0.176
-477.318	-99.123	-0.226	0.057
-476.303	-200.000	-0.004	-0.141
-475.289	800.000	-0.072	-0.270
-474.274	316.949	-0.090	0.170
-473.259	-200.000	0.000	-0.128
-472.245	219.839	-0.098	0.158
-471.230	132.833	-0.289	0.374
-470.216	144.826	-0.212	-0.284
-469.201	-200.000	0.020	0.330
-468.186	-176.170	0.485	0.013
-467.172	-200.000	-0.040	0.226
-466.157	-77.987	0.064	-0.022
-465.143	491.905	0.083	-0.190
-464.128	-29.091	0.363	0.209
-463.113	-47.675	0.086	0.042
-462.099	-29.310	0.201	0.115
-461.084	286.124	0.122	-0.220
-460.070	84.923	0.279	0.307
-459.055	242.161	-0.043	0.072
-458.040	90.100	-0.136	-0.153
-457.026	-82.593	-0.010	-0.003
-456.011	579.381	0.120	-0.294
-454.997	-200.000	-0.015	0.251
-453.982	359.351	0.125	0.249
-452.968	728.841	0.062	-0.166
-451.953	-42.985	0.311	-0.158
-450.938	761.853	-0.116	-0.316
-449.924	103.990	0.105	0.124
-448.909	56.888	0.206	-0.201
-447.895	-70.879	0.320	-0.121
-446.880	-105.638	0.035	-0.008
-445.865	800.000	0.147	-0.453
-444.851	338.135	0.085	-0.165
-443.836	-144.396	0.407	-0.038
-442.822	-200.000	0.002	-0.280
-441.807	-73.644	0.116	0.042
-440.792	-200.000	-0.053	-0.293
-439.778	546.900	0.098	-0.235
-438.763	32.770	-0.218	0.189
-437.749	-200.000	-0.023	0.253
-436.734	131.161	0.220	0.283
-435.719	-200.000	-0.021	0.183
-434.705	-200.000	0.004	0.028
-433.690	-94.900	-0.119	0.032
-432.676	-174.775	0.085	-0.002
-431.661	277.326	0.154	0.274
-430.646	-69.234	0.466	0.179
-429.632	207.503	-0.118	-0.184
-428.617	95.623	0.130	0.148
-427.603	141.300	-0.214	0.284
-426.588	800.000	0.040	-0.122
-425.573	-200.000	-0.001	0.144
-424.559	-113.626	-0.308	-0.060
-423.544	-126.100	-0.026	-0.004
-422.530	-16.989	0.149	0.094
-421.515	35.912	0.234	-0.206
-420.500	142.938	-0.184	-0.244
-419.486	60.198	0.142	0.140
-418.471	800.000	-0.023	-0.086
-417.457	62.866	0.120	0.120
-416.442	-103.408	0.080	-0.019
-415.428	-200.000	0.006	-0.095
-414.413	-25.387	-0.184	0.109
-413.398	-15.739	0.091	0.058
-412.384	-200.000	0.032	-0.260
-411.369	-80.667	-0.163	-0.054
-410.355	273.298	0.043	0.076
-409.340	-200.000	0.049	-0.235
-408.325	153.384	0.221	0.303
-407.311	800.000	0.031	0.116
-406.296	54.598	-0.182	-0.175
-405.282	68.204	-0.230	-0.236
-404.267	-125.529	-0.093	-0.014
-403.252	800.000	-0.058	0.159
-402.238	-9.629	-0.217	-0.144
-401.223	151.903	-0.098	0.134
-400.209	-170.978	-0.208	0.007
-399.194	-24.027	0.201	-0.120
-398.179	60.370	-0.195	-0.193
-397.165	662.871	0.076	0.197
-396.150	-56.736	0.167	0.074
-395.136	800.000	-0.062	-0.241
-394.121	-200.000	-0.056	0.278
-393.106	-186.338	0.258	0.004
-392.092	-200.000	-0.030	-0.190
-391.077	-177.101	-0.262	0.007
-390.063	-200.000	0.055	-0.350
-389.048	499.988	0.064	0.148
-388.033	22.831	-0.159	0.130
-387.019	291.537	0.183	-0.333
-386.004	-115.928	-0.222	-0.041
-384.990	9.616	0.116	-0.088
-383.975	227.294	0.082	0.132
-382.960	-15.122	-0.350	0.224
-381.946	-9.703	-0.089	0.059
-380.931	251.793	-0.111	-0.189
-379.917	281.251	-0.129	-0.230
-378.902	800.000	0.048	0.180
-377.888	-200.000	0.063	0.312
-376.873	-18.807	-0.159	0.099
-375.858	-85.748	0.059	-0.018
-374.844	309.178	0.198	-0.370
-373.829	415.071	0.031	-0.066
-372.815	189.864	-0.199	-0.298
-371.800	-200.000	0.008	-0.201
-370.785	800.000	0.016	-0.053
-369.771	-3.875	-0.085	0.059
-368.756	-200.000	-0.012	0.304
-367.742	-200.000	-0.099	0.441
-366.727	800.000	-0.048	-0.134
-365.712	-200.000	0.029	0.229
-364.698	-159.141	0.179	-0.010
-363.683	149.407	0.190	-0.256
-362.669	-29.708	0.174	-0.099
-361.654	131.607	0.035	-0.045
-360.639	-37.009	0.172	-0.092
-359.625	-145.249	0.203	0.018
-358.610	800.000	0.043	-0.142
-357.596	-200.000	-0.034	0.287
-356.581	93.671	-0.317	-0.359
-355.566	37.245	0.110	0.097
-354.552	800.000	-0.047	-0.193
-353.537	240.246	0.047	0.077
-352.523	32.237	-0.206	-0.177
-351.508	-200.000	0.008	-0.051
-350.493	93.588	-0.168	-0.190
-349.479	310.329	-0.080	-0.149
-348.464	-14.604	-0.299	-0.192
-347.450	601.179	-0.155	0.385
-346.435	-200.000	-0.057	0.523
-345.420	-52.906	0.279	0.128
-344.406	169.533	-0.192	-0.273
-343.391	403.501	-0.110	-0.231
-342.377	-200.000	0.017	0.157
-341.362	800.000	0.036	-0.156
-340.348	197.340	-0.069	-0.105
-339.333	800.000	-0.095	0.325
-338.318	-200.000	-0.006	0.142
-337.304	369.999	0.094	-0.189
-336.289	-200.000	-0.010	0.212
-335.275	-200.000	0.001	0.212
-334.260	-90.760	0.112	-0.032
-333.245	-61.021	0.143	-0.060
-332.231	-200.000	0.024	-0.230
-331.216	-200.000	0.044	-0.247
-330.202	694.677	0.059	-0.153
-329.187	52.090	-0.034	0.032
-328.172	-67.211	-0.100	0.039
-327.158	-2.677	0.170	-0.119
-326.143	-86.429	-0.192	-0.059
-325.129	800.000	0.113	0.345
-324.114	122.244	0.395	0.491
-323.099	-117.552	-0.252	-0.045
-322.085	137.109	-0.069	-0.089
-321.070	223.553	-0.066	-0.106
-320.056	-91.142	0.202	-0.058
-319.041	495.256	-0.050	-0.114
-318.026	200.747	0.042	-0.064
-317.012	118.596	0.064	0.079
-315.997	-103.346	-0.169	0.040
-314.983	-200.000	-0.028	-0.228
-313.968	24.899	-0.036	0.029
-312.953	-200.000	0.029	-0.131
-311.939	-158.002	0.139	-0.008
-310.924	-72.854	0.259	-0.095
-309.910	-97.324	-0.286	-0.074
-308.895	-31.389	-0.178	-0.100
-307.880	-200.000	-0.018	0.365
-306.866	197.593	0.124	-0.189
-305.851	317.445	-0.219	0.412
-304.837	29.711	-0.202	-0.171
-303.822	111.588	0.122	-0.147
-302.807	-200.000	-0.000	-0.069
-301.793	-154.770	0.303	-0.020
-300.778	-133.061	0.205	-0.026
-299.764	-73.753	-0.145	-0.053
-298.749	399.292	0.025	-0.053
-297.735	-200.000	0.014	0.101
-296.720	800.000	-0.007	-0.027
-295.705	-159.901	-0.128	0.007
-294.691	350.897	-0.080	-0.157
-293.676	800.000	0.030	-0.114
-292.662	800.000	0.027	-0.078
-291.647	-85.452	-0.069	0.022
-290.632	-54.659	-0.025	0.011
-289.618	10.311	0.119	-0.090
-288.603	233.896	0.097	-0.159
-287.589	-70.201	0.178	-0.067
-286.574	800.000	0.031	0.104
-285.559	-83.695	-0.028	-0.009
-284.545	7.028	-0.097	-0.072
-283.530	-41.884	0.151	-0.077
-282.516	-102.788	0.065	-0.015
-281.501	-200.000	0.036	-0.189
-280.486	21.141	0.132	-0.107
-279.472	-200.000	0.026	-0.333
-278.457	-0.357	0.037	-0.026
-277.443	38.003	0.065	0.057
-276.428	-200.000	-0.019	-0.126
-275.413	196.030	0.029	0.045
-274.399	-165.069	0.259	-0.011
-273.384	-8.077	-0.245	0.164
-272.370	222.423	-0.129	-0.207
-271.355	-11.633	0.044	-0.029
-270.340	108.967	-0.092	-0.109
-269.326	-105.323	0.110	-0.025
-268.311	149.781	-0.149	0.201
-267.297	-101.149	0.244	-0.059
-266.282	-50.088	-0.200	-0.094
-265.267	43.585	0.135	0.123
-264.253	-63.282	-0.110	0.045
-263.238	584.001	0.079	0.194
-262.224	-59.375	-0.339	0.145
-261.209	-51.201	-0.195	-0.091
-260.195	-55.534	-0.166	-0.074
-259.180	439.401	-0.115	-0.249
-258.165	-36.982	-0.130	0.069
-257.151	242.240	0.070	0.116
-256.136	555.137	0.072	0.172
-255.122	57.011	-0.052	-0.050
-254.107	132.161	-0.045	0.058
-253.092	800.000	-0.014	-0.053
-252.078	55.580	-0.029	0.028
-251.063	-14.391	-0.011	-0.007
-250.049	-116.540	0.122	-0.022
-249.034	610.150	-0.047	0.116
-248.019	-15.042	-0.210	0.134
-247.005	-72.483	-0.248	0.091
-245.990	-200.000	-0.022	-0.109
-244.976	448.076	0.035	0.077
-243.961	-200.000	0.052	-0.227
-242.946	59.908	-0.213	-0.209
-241.932	107.558	0.226	0.267
-240.917	-90.581	-0.156	-0.045
-239.903	-103.235	-0.026	0.006
-238.888	800.000	0.008	0.023
-237.873	-76.016	0.273	0.096
-236.859	278.447	0.127	0.226
-235.844	296.392	0.144	0.262
-234.830	-38.430	0.241	-0.126
-233.815	-88.739	0.202	0.060
-232.800	-192.307	0.048	0.000
-231.786	-11.278	0.452	0.296
-230.771	-36.666	0.356	0.190
-229.757	-99.230	0.365	-0.092
-228.742	689.947	-0.066	0.172
-227.727	72.943	-0.157	0.163
-226.713	-200.000	-0.042	0.247
-225.698	-169.188	0.112	0.004
-224.684	-200.000	-0.039	0.276
-223.669	615.422	0.073	0.182
-222.655	28.634	-0.034	0.029
-221.640	-200.000	0.014	-0.269
-220.625	-200.000	-0.032	-0.177
-219.611	-100.929	-0.106	-0.026
-218.596	-30.561	0.142	-0.080
-217.582	456.518	0.015	-0.033
-216.567	35.392	-0.133	0.116
-215.552	170.893	0.109	-0.155
-214.538	-196.165	0.195	0.001
-213.523	-148.902	-0.055	0.004
-212.509	-200.000	0.004	0.293
-211.494	-103.342	-0.333	0.078
-210.479	33.542	-0.133	-0.115
-209.465	-49.095	-0.067	-0.032
-208.450	237.686	-0.200	-0.329
-207.436	-200.000	-0.017	-0.094
-206.421	-73.694	0.209	-0.075
-205.406	500.700	-0.068	0.155
-204.392	800.000	0.013	0.052
-203.377	-41.155	0.204	0.104
-202.363	-200.000	-0.052	-0.344
-201.348	661.558	0.075	-0.191
-200.333	-60.350	0.230	0.097
-199.319	24.704	0.263	0.216
-198.304	166.958	0.081	-0.114
-197.290	-96.563	-0.211	0.055
-196.275	57.273	-0.239	0.231
-195.260	71.515	-0.109	-0.112
-194.246	-83.360	0.126	0.040
-193.231	54.380	-0.107	0.102
-192.217	800.000	-0.068	0.291
-191.202	97.449	0.211	0.240
-190.187	800.000	-0.038	0.153
-189.173	-200.000	0.021	-0.114
-188.158	65.136	0.063	0.064
-187.144	-45.670	0.188	-0.092
-186.129	693.756	-0.129	-0.335
-185.114	-109.432	0.001	0.000
-184.100	-200.000	0.114	0.585
-183.085	342.769	-0.092	0.178
-182.071	51.917	0.138	-0.130
-181.056	85.710	0.100	0.108
-180.042	-146.474	0.209	-0.018
-179.027	-63.886	0.380	0.154
-178.012	102.404	-0.157	-0.182
-176.998	125.787	-0.106	0.133
-175.983	-117.695	0.096	-0.017
-174.969	505.233	0.089	0.205
-173.954	800.000	0.019	0.065
-172.939	-200.000	-0.016	0.110
-171.925	-200.000	-0.006	-0.097
-170.910	-0.737	-0.185	0.130
-169.896	-75.198	0.156	0.055
-168.881	-26.517	-0.073	-0.042
-167.866	20.232	-0.158	0.127
-166.852	800.000	0.053	-0.175
-165.837	-200.000	0.029	-0.139
-164.823	138.501	0.090	-0.117
-163.808	252.756	0.207	0.350
-162.793	-11.447	-0.072	-0.047
-161.779	-122.900	-0.346	-0.055
-160.764	-54.579	0.248	-0.111
-159.750	-200.000	0.034	-0.186
-158.735	-56.363	0.279	0.123
-157.720	-148.119	0.387	-0.032
-156.706	-46.600	0.291	0.141
-155.691	132.797	0.069	-0.088
-154.677	-127.085	0.058	-0.008
-153.662	137.409	-0.119	0.154
-152.647	-200.000	-0.022	-0.162
-151.633	340.158	-0.053	-0.103
-150.618	-6.485	0.307	-0.207
-149.604	29.946	-0.162	-0.137
-148.589	24.430	-0.166	-0.136
-147.574	6.821	0.120	-0.088
-146.560	2.805	0.288	-0.207
-145.545	57.395	-0.132	0.127
-144.531	-200.000	0.012	0.227
-143.516	800.000	-0.063	-0.201
-142.502	-81.091	0.168	-0.055
-141.487	57.121	0.193	-0.186
-140.472	-98.910	0.218	-0.055
-139.458	-157.366	-0.226	-0.013
-138.443	102.105	0.156	0.180
-137.429	-31.414	0.411	0.229
-136.414	-87.374	-0.253	0.076
-135.399	410.287	0.123	-0.257
-134.385	-1.908	0.102	0.071
-133.370	-200.000	-0.001	-0.114
-132.356	-200.000	0.025	0.185
-131.341	-124.846	0.065	0.010
-130.326	-48.971	-0.251	0.119
-129.312	800.000	0.082	0.225
-128.297	800.000	-0.011	-0.037
-127.283	21.507	-0.262	0.210
-126.268	800.000	0.122	0.416
-125.253	-85.373	0.334	0.103
-124.239	-1.949	-0.185	-0.128
-123.224	165.211	0.120	0.168
-122.210	8.998	0.248	0.185
-121.195	4.439	-0.181	0.131
