DTS Sentinel unit serial number:	SN413079Multiplexer serial number:	ORYXHardware model number:	OX4-SRSoftware version number:	ORYX F/W v4.00 Oryx Data Collector v3.7.2.0data status	okinstallation	princeton_trtdifferential loss correction	single-endedforward channel	channel 2reverse channel	N/Adate	2019/09/19time	13:59:35forward acquisition time	60.00reverse acquisition time	0.00gamma	496.2192k internal	0.2325k external	0.2325temperature offset calibration	1.0018default loss term (dB/km)	0.3790temperature slope calibration	1.0000multiplexer offset coefficient	1.0000multiplexer slope coefficient	1.0000fibre end	0.00T internal ref (°C)	31.09T ext. ref 1 (°C)	1.01T ext. ref 2 (°C)	28.32length (m)	temperature (°C)	Stokes	anti-Stokes-747.200	180.198	0.084	-0.124
-746.185	142.844	-0.257	0.345
-745.171	-200.000	-0.000	0.011
-744.156	262.348	-0.007	-0.012
-743.142	-30.559	-0.085	0.049
-742.127	-56.606	-0.179	-0.080
-741.112	-30.053	-0.304	0.175
-740.098	105.424	-0.127	0.152
-739.083	800.000	-0.051	-0.207
-738.069	27.498	0.357	0.303
-737.054	-61.934	0.173	-0.073
-736.039	303.089	-0.159	-0.297
-735.025	345.887	0.194	0.384
-734.010	-102.830	-0.620	0.149
-732.996	118.092	-0.197	-0.245
-731.981	-82.636	-0.206	0.067
-730.966	-95.064	-0.217	-0.059
-729.952	-177.732	0.173	0.004
-728.937	-83.989	0.032	-0.010
-727.923	-200.000	-0.001	-0.049
-726.908	104.732	-0.155	0.185
-725.894	-37.676	-0.136	0.073
-724.879	180.253	-0.051	0.076
-723.864	-112.980	-0.146	-0.029
-722.850	-187.591	-0.121	0.002
-721.835	-200.000	-0.025	-0.137
-720.821	313.726	-0.025	-0.048
-719.806	-73.316	-0.130	-0.048
-718.791	10.430	-0.212	-0.162
-717.777	-200.000	0.002	-0.106
-716.762	-200.000	-0.007	0.108
-715.748	-200.000	-0.023	-0.209
-714.733	345.966	0.113	-0.224
-713.718	-200.000	0.028	-0.212
-712.704	-179.874	0.090	-0.002
-711.689	-200.000	-0.035	-0.345
-710.675	-200.000	-0.031	-0.323
-709.660	171.196	-0.104	-0.150
-708.645	-33.193	-0.173	-0.096
-707.631	339.971	-0.091	0.178
-706.616	-200.000	0.002	-0.301
-705.602	30.824	-0.316	0.273
-704.587	-200.000	-0.003	0.109
-703.572	800.000	0.036	-0.140
-702.558	57.990	0.159	-0.156
-701.543	-165.908	-0.534	0.023
-700.529	-39.409	-0.263	0.139
-699.514	353.066	0.104	0.209
-698.499	-200.000	0.007	0.140
-697.485	48.807	0.031	-0.030
-696.470	218.163	-0.138	0.222
-695.456	286.047	-0.181	0.329
-694.441	-39.630	0.407	-0.215
-693.426	-200.000	-0.059	-0.284
-692.412	275.954	0.135	0.241
-691.397	111.520	-0.220	0.267
-690.383	-200.000	-0.045	-0.323
-689.368	-152.644	0.199	0.014
-688.354	-60.032	-0.116	-0.050
-687.339	9.665	0.126	0.096
-686.324	-56.980	-0.308	-0.137
-685.310	-112.101	0.234	0.047
-684.295	64.069	-0.078	-0.079
-683.281	140.269	-0.187	-0.249
-682.266	-47.855	-0.280	-0.137
-681.251	303.453	-0.198	-0.370
-680.237	-158.507	0.327	-0.019
-679.222	-200.000	-0.009	-0.216
-678.208	-92.968	0.378	-0.106
-677.193	-56.033	-0.329	-0.147
-676.178	-55.202	0.062	0.028
-675.164	-103.495	0.245	-0.058
-674.149	-135.582	-0.164	-0.020
-673.135	-200.000	-0.012	0.097
-672.120	-137.106	-0.265	-0.030
-671.105	493.638	0.139	-0.320
-670.091	-149.427	0.158	-0.013
-669.076	95.207	0.119	0.136
-668.062	368.203	-0.116	-0.235
-667.047	-18.316	0.193	0.121
-666.032	-200.000	0.067	-0.445
-665.018	-97.175	-0.081	0.021
-664.003	170.031	0.045	0.064
-662.989	26.045	-0.238	-0.200
-661.974	89.486	0.112	-0.125
-660.959	-200.000	-0.046	0.394
-659.945	800.000	-0.037	-0.137
-658.930	-109.652	-0.140	-0.030
-657.916	-200.000	-0.054	0.376
-656.901	-137.167	-0.215	0.025
-655.886	800.000	-0.024	-0.103
-654.872	2.065	0.369	0.268
-653.857	175.994	0.046	0.067
-652.843	108.958	0.030	-0.036
-651.828	-200.000	-0.255	0.001
-650.814	8.643	-0.190	-0.144
-649.799	-120.726	-0.183	0.031
-648.784	112.812	0.067	-0.082
-647.770	800.000	-0.048	0.201
-646.755	462.862	-0.085	-0.191
-645.741	-109.586	-0.294	0.062
-644.726	-12.504	0.313	-0.206
-643.711	800.000	-0.031	0.093
-642.697	-174.230	-0.170	0.005
-641.682	73.018	-0.066	0.070
-640.668	-56.317	-0.224	0.100
-639.653	800.000	-0.050	0.164
-638.638	44.804	-0.357	0.330
-637.624	262.384	-0.085	-0.149
-636.609	56.174	-0.142	-0.139
-635.595	-34.873	0.352	-0.193
-634.580	-165.376	-0.338	0.015
-633.565	-200.000	0.017	0.319
-632.551	-14.313	0.085	0.055
-631.536	-2.354	-0.098	-0.069
-630.522	-92.314	-0.222	-0.063
-629.507	-31.666	0.233	-0.131
-628.492	-178.219	-0.103	0.002
-627.478	-45.429	-0.269	-0.134
-626.463	127.189	0.149	-0.190
-625.449	-138.352	-0.254	0.028
-624.434	11.311	0.218	0.167
-623.419	-195.276	0.175	0.001
-622.405	-65.150	0.260	0.105
-621.390	-109.534	-0.450	-0.095
-620.376	156.401	0.108	0.150
-619.361	23.000	-0.281	-0.232
-618.346	207.594	0.146	0.230
-617.332	281.567	-0.090	-0.161
-616.317	19.903	-0.129	-0.105
-615.303	-69.201	-0.384	0.148
-614.288	102.527	-0.096	-0.113
-613.273	90.785	0.204	0.230
-612.259	86.277	0.199	-0.220
-611.244	-200.000	0.014	0.093
-610.230	-21.084	0.148	-0.091
-609.215	77.138	-0.186	-0.198
-608.201	800.000	-0.070	0.213
-607.186	-88.181	-0.212	0.064
-606.171	800.000	0.195	-0.658
-605.157	-200.000	-0.008	-0.359
-604.142	-200.000	0.024	0.183
-603.128	-200.000	0.044	-0.195
-602.113	-200.000	0.046	0.218
-601.098	-49.833	0.329	0.157
-600.084	264.868	0.071	-0.124
-599.069	-200.000	-0.060	-0.276
-598.055	-176.883	-0.137	0.003
-597.040	-200.000	0.001	-0.230
-596.025	-131.700	-0.193	0.025
-595.011	-170.280	0.264	0.009
-593.996	175.758	-0.186	-0.271
-592.982	-114.592	-0.171	-0.033
-591.967	-178.667	0.209	0.005
-590.952	18.869	-0.201	-0.162
-589.938	-140.385	-0.096	-0.010
-588.923	17.559	-0.291	-0.232
-587.909	788.363	0.095	-0.262
-586.894	-19.830	-0.102	0.063
-585.879	68.181	0.073	-0.075
-584.865	61.383	0.120	-0.120
-583.850	224.323	-0.055	-0.089
-582.836	-161.021	0.209	-0.011
-581.821	800.000	0.043	-0.141
-580.806	-200.000	-0.011	-0.212
-579.792	-119.261	-0.189	-0.033
-578.777	54.591	-0.223	-0.216
-577.763	-11.761	0.242	-0.159
-576.748	305.464	-0.101	0.188
-575.733	-140.416	-0.285	0.030
-574.719	-200.000	-0.034	-0.162
-573.704	-200.000	0.039	-0.269
-572.690	800.000	-0.095	0.329
-571.675	47.545	-0.130	0.122
-570.661	-145.358	0.281	-0.025
-569.646	-85.796	-0.250	0.078
-568.631	433.382	0.034	-0.073
-567.617	800.000	0.055	-0.216
-566.602	98.162	0.074	0.085
-565.588	-109.379	-0.105	-0.022
-564.573	-200.000	0.017	0.151
-563.558	39.654	-0.382	0.344
-562.544	-200.000	-0.033	-0.169
-561.529	140.144	0.151	-0.200
-560.515	178.708	-0.194	-0.284
-559.500	-18.514	0.125	-0.078
-558.485	-200.000	0.047	-0.301
-557.471	-121.109	-0.565	0.095
-556.456	-11.320	0.032	0.021
-555.442	-159.702	-0.310	-0.017
-554.427	800.000	0.070	-0.259
-553.412	163.545	-0.140	-0.197
-552.398	-29.583	-0.177	0.101
-551.383	-19.715	0.245	0.152
-550.369	164.308	0.217	-0.306
-549.354	-168.035	-0.336	0.013
-548.339	-26.452	-0.324	0.190
-547.325	43.757	0.199	0.183
-546.310	-97.596	-0.125	0.032
-545.296	-104.271	-0.212	0.049
-544.281	137.142	0.254	0.332
-543.266	93.986	-0.199	0.226
-542.252	-82.892	0.269	-0.087
-541.237	538.306	0.047	0.112
-540.223	800.000	-0.058	0.216
-539.208	800.000	0.063	0.198
-538.193	-83.218	0.102	0.033
-537.179	399.068	-0.040	0.084
-536.164	165.784	-0.180	0.255
-535.150	800.000	-0.074	-0.268
-534.135	-75.266	0.219	0.078
-533.121	646.594	0.099	-0.253
-532.106	-80.011	0.190	-0.064
-531.091	154.845	-0.166	0.228
-530.077	-10.670	0.309	0.204
-529.062	800.000	-0.104	0.308
-528.048	800.000	-0.110	0.306
-527.033	662.052	0.095	0.246
-526.018	354.708	-0.108	0.215
-525.004	800.000	-0.019	-0.080
-523.989	186.993	-0.150	-0.224
-522.975	-110.084	-0.269	-0.056
-521.960	343.896	0.112	-0.219
-520.945	-188.794	0.078	0.001
-519.931	444.993	0.062	-0.136
-518.916	-17.184	0.108	-0.068
-517.902	800.000	0.063	0.184
-516.887	106.001	-0.093	0.110
-515.872	-77.419	-0.327	0.113
-514.858	190.582	0.083	-0.124
-513.843	800.000	0.061	-0.240
-512.829	-16.760	-0.085	0.053
-511.814	1.026	-0.203	-0.146
-510.799	235.986	-0.144	-0.238
-509.785	-119.904	0.274	-0.047
-508.770	98.956	0.231	-0.266
-507.756	70.457	0.042	-0.043
-506.741	-200.000	0.016	0.229
-505.726	-73.179	-0.124	-0.046
-504.712	66.043	-0.164	-0.166
-503.697	37.917	-0.150	0.133
-502.683	79.138	0.061	0.065
-501.668	93.215	0.033	0.038
-500.653	800.000	0.065	-0.186
-499.639	327.075	-0.042	0.081
-498.624	-56.420	0.232	-0.103
-497.610	-52.653	-0.209	0.096
-496.595	-106.256	-0.306	-0.069
-495.581	94.770	0.063	0.072
-494.566	-200.000	-0.017	0.073
-493.551	67.443	0.314	0.320
-492.537	775.269	-0.073	0.200
-491.522	19.803	-0.305	-0.245
-490.508	23.581	0.100	0.082
-489.493	-52.272	0.092	0.043
-488.478	-51.226	-0.115	-0.054
-487.464	76.595	0.296	-0.314
-486.449	-95.557	0.316	-0.085
-485.435	70.415	-0.049	-0.050
-484.420	-57.542	0.444	-0.195
-483.405	-134.085	-0.221	0.027
-482.391	-83.059	-0.274	0.088
-481.376	-44.354	0.180	-0.090
-480.362	-33.365	0.093	-0.051
-479.347	-200.000	0.056	-0.294
-478.332	482.072	-0.085	0.192
-477.318	270.135	-0.092	0.162
-476.303	65.229	-0.072	0.073
-475.289	173.558	0.249	0.359
-474.274	106.038	0.218	0.258
-473.259	351.797	0.199	-0.394
-472.245	466.772	0.051	0.115
-471.230	118.272	0.106	-0.131
-470.216	800.000	0.092	0.351
-469.201	348.782	-0.180	-0.355
-468.186	30.023	0.200	-0.170
-467.172	778.782	0.097	-0.265
-466.157	-39.094	-0.342	0.180
-465.143	-108.422	0.161	-0.035
-464.128	-109.355	-0.459	0.097
-463.113	-92.082	0.093	-0.026
-462.099	-200.000	-0.024	-0.187
-461.084	725.411	0.074	-0.197
-460.070	-172.646	-0.333	0.010
-459.055	167.556	-0.049	0.070
-458.040	800.000	0.080	0.338
-457.026	167.077	-0.199	-0.281
-456.011	800.000	0.024	-0.085
-454.997	-200.000	-0.005	0.053
-453.982	-35.679	0.063	-0.034
-452.968	-200.000	-0.054	-0.277
-451.953	30.477	0.262	-0.223
-450.938	565.428	0.120	-0.291
-449.924	-57.724	-0.194	-0.085
-448.909	298.886	-0.148	-0.272
-447.895	-105.806	0.449	-0.101
-446.880	-154.044	-0.216	0.015
-445.865	84.558	0.268	0.292
-444.851	55.868	-0.075	0.072
-443.836	-200.000	-0.029	-0.323
-442.822	-182.666	0.107	-0.002
-441.807	800.000	-0.032	-0.108
-440.792	-10.888	0.191	0.126
-439.778	800.000	-0.161	0.507
-438.763	-200.000	0.035	-0.337
-437.749	-200.000	0.052	-0.429
-436.734	68.799	0.255	-0.261
-435.719	-200.000	0.023	0.431
-434.705	-200.000	-0.028	-0.222
-433.690	-22.096	-0.306	0.185
-432.676	321.748	-0.121	0.229
-431.661	-57.940	-0.163	0.071
-430.646	-39.199	0.360	0.189
-429.632	76.686	0.207	0.219
-428.617	-70.361	0.216	0.082
-427.603	-39.688	-0.387	-0.202
-426.588	-61.964	0.127	0.053
-425.573	-151.598	-0.029	0.002
-424.559	-84.652	0.278	0.087
-423.544	24.110	0.114	-0.094
-422.530	-153.962	-0.059	-0.004
-421.515	274.255	0.124	0.219
-420.500	31.306	-0.022	-0.019
-419.486	-94.147	-0.219	0.060
-418.471	-28.678	-0.197	0.113
-417.457	467.556	0.080	0.180
-416.442	-200.000	-0.059	-0.295
-415.428	800.000	-0.051	0.156
-414.413	27.499	0.099	0.083
-413.398	-96.008	-0.118	0.031
-412.384	-72.665	0.306	0.112
-411.369	157.049	0.149	0.205
-410.355	118.154	-0.225	0.276
-409.340	-135.963	0.090	0.011
-408.325	-13.321	-0.122	0.079
-407.311	-94.670	-0.292	-0.079
-406.296	-112.078	0.352	0.071
-405.282	-60.201	0.163	-0.069
-404.267	168.986	0.190	0.270
-403.252	186.445	0.091	0.135
-402.238	-116.265	-0.101	-0.019
-401.223	-200.000	0.106	-0.572
-400.209	111.610	0.121	-0.145
-399.194	-119.781	0.280	0.048
-398.179	-165.796	-0.156	-0.007
-397.165	92.404	-0.247	-0.277
-396.150	800.000	-0.085	0.243
-395.136	-153.177	-0.180	0.013
-394.121	83.463	0.139	0.151
-393.106	163.552	0.095	-0.133
-392.092	-118.700	-0.082	-0.014
-391.077	-200.000	0.013	-0.153
-390.063	-200.000	-0.025	-0.110
-389.048	800.000	-0.047	-0.162
-388.033	-173.489	0.139	-0.004
-387.019	-200.000	0.043	0.215
-386.004	0.920	0.242	0.173
-384.990	-200.000	0.014	-0.074
-383.975	127.903	0.169	0.213
-382.960	-200.000	-0.009	-0.251
-381.946	-49.386	0.094	-0.045
-380.931	800.000	-0.015	-0.042
-379.917	735.287	-0.059	-0.158
-378.902	-110.051	0.043	-0.009
-377.888	551.860	0.116	-0.276
-376.873	-128.697	-0.121	0.017
-375.858	-118.184	-0.064	-0.011
-374.844	-50.482	-0.097	0.045
-373.829	-94.734	0.316	0.085
-372.815	-200.000	0.001	-0.094
-371.800	16.187	-0.110	0.086
-370.785	-126.416	-0.159	-0.024
-369.771	-94.522	0.243	-0.066
-368.756	221.754	-0.155	0.248
-367.742	-97.908	0.094	-0.024
-366.727	48.016	-0.315	-0.293
-365.712	-31.509	0.036	-0.020
-364.698	356.233	0.084	0.165
-363.683	44.235	0.076	0.069
-362.669	-81.638	0.457	-0.149
-361.654	800.000	-0.120	0.391
-360.639	-167.422	0.285	-0.011
-359.625	-115.367	-0.163	0.031
-358.610	794.941	0.053	-0.144
-357.596	242.964	0.118	-0.197
-356.581	110.730	0.223	0.267
-355.566	800.000	-0.014	0.056
-354.552	-85.035	0.261	-0.081
-353.537	-182.016	0.332	-0.006
-352.523	-74.802	0.171	0.061
-351.508	-71.364	0.179	-0.066
-350.493	175.380	0.250	-0.360
-349.479	-98.089	-0.091	-0.023
-348.464	24.752	-0.281	-0.231
-347.450	58.435	0.150	-0.146
-346.435	800.000	-0.054	-0.185
-345.420	-118.876	-0.186	-0.033
-344.406	-29.229	0.289	-0.165
-343.391	-40.215	0.325	0.168
-342.377	160.592	0.214	0.297
-341.362	-102.919	-0.266	-0.063
-340.348	800.000	-0.101	-0.311
-339.333	-26.561	0.124	-0.072
-338.318	-76.296	0.010	-0.004
-337.304	436.934	-0.136	-0.295
-336.289	-102.518	-0.071	0.017
-335.275	-129.319	-0.136	0.019
-334.260	50.061	-0.292	0.273
-333.245	19.888	-0.266	0.213
-332.231	-107.972	-0.102	-0.022
-331.216	-27.583	0.501	0.289
-330.202	113.140	-0.170	0.204
-329.187	24.977	0.271	0.223
-328.172	-110.479	0.039	0.008
-327.158	150.325	-0.161	0.217
-326.143	-172.610	-0.258	0.008
-325.129	-102.161	0.200	0.048
-324.114	800.000	0.085	0.342
-323.099	78.327	0.098	-0.104
-322.085	-200.000	0.011	0.061
-321.070	185.358	-0.038	0.056
-320.056	800.000	0.031	0.087
-319.041	103.033	-0.233	0.271
-318.026	-57.889	0.281	-0.122
-317.012	-200.000	0.036	0.321
-315.997	-200.000	0.040	-0.293
-314.983	-20.826	0.176	-0.107
-313.968	42.265	-0.212	0.191
-312.953	-45.798	0.309	0.151
-311.939	26.066	-0.084	0.069
-310.924	-124.992	0.118	-0.018
-309.910	-20.073	0.348	0.213
-308.895	-118.146	0.241	-0.043
-307.880	-200.000	0.072	-0.414
-306.866	-200.000	-0.094	-0.423
-305.851	-200.000	-0.022	-0.113
-304.837	-179.751	-0.145	0.003
-303.822	-179.453	0.377	0.008
-302.807	-200.000	0.007	-0.493
-301.793	195.500	0.214	-0.323
-300.778	21.351	-0.204	0.164
-299.764	177.932	-0.085	0.123
-298.749	266.821	-0.071	-0.122
-297.735	-71.438	0.090	0.033
-296.720	132.329	-0.113	0.145
-295.705	-5.800	-0.173	-0.117
-294.691	-19.252	0.033	-0.020
-293.676	-200.000	-0.005	-0.134
-292.662	-77.202	0.166	-0.057
-291.647	332.739	0.227	-0.435
-290.632	197.107	0.137	-0.207
-289.618	-103.632	0.293	0.068
-288.603	-13.575	-0.228	0.147
-287.589	77.230	-0.065	0.069
-286.574	-118.643	-0.097	0.017
-285.559	-51.467	0.228	0.106
-284.545	74.052	-0.079	0.082
-283.530	800.000	0.074	-0.215
-282.516	308.025	0.110	0.204
-281.501	-197.834	-0.412	-0.002
-280.486	-200.000	0.080	0.403
-279.472	98.775	0.147	0.168
-278.457	-54.169	-0.140	0.063
-277.443	-29.250	0.263	-0.149
-276.428	14.638	-0.206	-0.160
-275.413	-80.658	0.135	0.044
-274.399	-32.011	0.106	-0.059
-273.384	-69.591	0.184	-0.070
-272.370	198.751	-0.069	0.104
-271.355	111.854	-0.128	0.153
-270.340	404.566	0.156	0.326
-269.326	203.435	0.029	-0.044
-268.311	167.798	0.137	-0.194
-267.297	108.276	-0.166	0.196
-266.282	0.109	-0.188	-0.133
-265.267	53.322	-0.041	-0.039
-264.253	-25.346	-0.205	0.120
-263.238	-73.507	0.564	0.204
-262.224	-141.459	-0.086	0.009
-261.209	123.402	-0.054	-0.067
-260.195	-151.358	-0.338	0.025
-259.180	-200.000	-0.023	-0.121
-258.165	-118.132	0.049	0.009
-257.151	-117.932	-0.152	0.027
-256.136	146.871	-0.247	0.328
-255.122	766.234	-0.056	-0.151
-254.107	800.000	0.052	0.158
-253.092	240.455	-0.171	0.283
-252.078	577.669	0.104	-0.253
-251.063	-200.000	0.001	0.285
-250.049	-28.942	0.204	0.116
-249.034	-58.683	0.091	-0.039
-248.019	-77.227	0.180	-0.062
-247.005	-135.790	-0.119	-0.014
-245.990	800.000	0.013	0.051
-244.976	-154.951	0.088	-0.006
-243.961	-200.000	0.005	0.037
-242.946	249.045	-0.066	-0.111
-241.932	31.622	-0.294	-0.250
-240.917	301.970	-0.069	-0.126
-239.903	800.000	0.041	0.167
-238.888	-188.579	-0.162	0.002
-237.873	-138.931	0.243	-0.026
-236.859	-200.000	0.035	0.177
-235.844	-72.402	-0.138	0.051
-234.830	-5.578	0.423	0.287
-233.815	-200.000	0.014	0.235
-232.800	-38.802	-0.159	0.083
-231.786	-110.569	0.177	0.036
-230.771	456.991	0.038	0.084
-229.757	-77.318	0.338	0.116
-228.742	-113.540	-0.235	0.045
-227.727	-145.105	-0.119	0.011
-226.713	203.109	-0.150	-0.229
-225.698	18.128	0.207	-0.163
-224.684	376.642	-0.094	0.189
-223.669	-80.312	0.179	-0.059
-222.655	-0.566	0.380	0.267
-221.640	588.624	0.030	0.074
-220.625	-200.000	-0.007	-0.096
-219.611	-118.636	-0.162	0.028
-218.596	-36.478	0.092	-0.049
-217.582	-200.000	-0.048	0.460
-216.567	-78.298	-0.449	0.152
-215.552	-86.280	0.246	0.075
-214.538	-40.061	0.243	-0.125
-213.523	784.472	0.080	-0.218
-212.509	75.921	0.250	0.261
-211.494	-192.828	-0.167	-0.002
-210.479	125.002	-0.214	-0.267
-209.465	-65.970	-0.229	0.090
-208.450	106.588	0.067	-0.078
-207.436	87.906	-0.230	-0.251
-206.421	48.755	0.072	-0.067
-205.406	71.576	0.161	-0.165
-204.392	-139.879	0.350	-0.037
-203.377	-66.638	0.144	0.057
-202.363	611.230	0.070	0.174
-201.348	34.617	-0.376	0.325
-200.333	800.000	0.024	0.092
-199.319	-200.000	0.018	-0.376
-198.304	112.746	-0.410	0.491
-197.290	369.455	0.096	0.192
-196.275	-105.679	-0.574	-0.128
-195.260	-200.000	0.019	-0.118
-194.246	40.237	-0.113	-0.101
-193.231	-122.466	-0.117	0.019
-192.217	-116.671	-0.144	0.026
-191.202	43.295	-0.099	0.089
-190.187	800.000	0.081	-0.278
-189.173	-91.102	0.119	0.034
-188.158	56.051	-0.072	0.069
-187.144	57.715	0.248	-0.239
-186.129	88.823	0.186	0.204
-185.114	-119.968	-0.107	-0.018
-184.100	20.157	0.175	-0.139
-183.085	-53.499	-0.144	0.065
-182.071	-23.009	0.258	0.154
-181.056	40.214	0.130	0.116
-180.042	-110.829	0.129	0.026
-179.027	-51.705	-0.317	0.146
-178.012	106.578	-0.069	0.081
-176.998	-195.875	-0.340	-0.002
-175.983	-15.112	-0.191	-0.121
-174.969	75.862	-0.214	0.223
-173.954	71.113	0.118	-0.121
-172.939	-42.559	-0.133	-0.067
-171.925	-69.615	0.127	-0.048
-170.910	-160.474	-0.230	0.012
-169.896	800.000	0.036	-0.116
-168.881	-200.000	0.073	-0.417
-167.866	-200.000	0.004	-0.033
-166.852	-59.864	-0.141	0.059
-165.837	54.858	0.065	0.062
-164.823	-200.000	-0.056	0.257
-163.808	61.048	-0.137	-0.134
-162.793	800.000	-0.063	0.204
-161.779	-0.734	0.055	-0.039
-160.764	-30.404	-0.408	0.229
-159.750	-200.000	-0.009	0.233
-158.735	-92.450	-0.246	-0.068
-157.720	-13.133	0.118	0.075
-156.706	-82.209	-0.197	0.063
-155.691	-164.923	-0.227	-0.010
-154.677	-25.854	0.244	-0.142
-153.662	-158.241	0.256	0.015
-152.647	237.886	0.145	0.237
-151.633	209.100	0.246	0.380
-150.618	-62.890	0.057	0.023
-149.604	11.702	-0.260	-0.197
-148.589	-118.289	0.253	0.044
-147.574	-18.641	-0.155	0.095
-146.560	677.199	0.070	0.179
-145.545	-137.592	0.304	0.034
-144.531	-79.646	0.120	-0.040
-143.516	-66.171	0.386	0.152
-142.502	13.759	-0.095	0.073
-141.487	161.980	0.207	-0.285
-140.472	106.437	0.159	0.186
-139.458	1.758	0.205	0.146
-138.443	-79.486	0.568	-0.189
-137.429	-200.000	0.000	0.210
-136.414	-170.515	-0.083	-0.003
-135.399	-192.373	-0.295	0.003
-134.385	26.379	0.286	-0.236
-133.370	79.357	0.248	-0.262
-132.356	-108.128	0.170	0.036
-131.341	469.840	0.069	-0.154
-130.326	-77.885	-0.052	-0.018
-129.312	58.524	-0.113	-0.109
-128.297	706.808	0.080	0.209
-127.283	-63.360	-0.305	-0.124
-126.268	-200.000	0.003	0.127
-125.253	-95.459	0.250	-0.066
-124.239	23.256	-0.286	0.232
-123.224	-113.648	0.070	0.013
-122.210	-119.569	0.474	-0.081
-121.195	-200.000	0.010	-0.057
