DTS Sentinel unit serial number:	SN413079Multiplexer serial number:	ORYXHardware model number:	OX4-SRSoftware version number:	ORYX F/W v4.00 Oryx Data Collector v3.7.2.0data status	okinstallation	princeton_trtdifferential loss correction	single-endedforward channel	channel 2reverse channel	N/Adate	2019/09/16time	04:31:34forward acquisition time	60.00reverse acquisition time	0.00gamma	496.2192k internal	0.2335k external	0.2335temperature offset calibration	0.9974default loss term (dB/km)	0.3790temperature slope calibration	1.0000multiplexer offset coefficient	1.0000multiplexer slope coefficient	1.0000fibre end	0.00T internal ref (°C)	27.25T ext. ref 1 (°C)	10.85T ext. ref 2 (°C)	21.32length (m)	temperature (°C)	Stokes	anti-Stokes-747.200	424.990	0.059	-0.128
-746.185	-200.000	-0.059	0.423
-745.171	-71.716	-0.198	0.074
-744.156	-37.842	0.210	0.112
-743.142	69.140	0.188	0.194
-742.127	800.000	0.016	0.066
-741.112	-200.000	0.011	-0.432
-740.098	-43.760	-0.100	0.051
-739.083	800.000	0.033	-0.104
-738.069	-82.825	-0.319	0.103
-737.054	76.005	-0.092	0.098
-736.039	-5.960	-0.286	-0.196
-735.025	164.747	-0.179	0.254
-734.010	55.322	-0.105	0.102
-732.996	-200.000	0.031	-0.399
-731.981	-26.475	-0.259	0.152
-730.966	-118.784	0.133	-0.023
-729.952	355.918	-0.093	-0.186
-728.937	416.369	-0.057	-0.121
-727.923	800.000	0.013	0.045
-726.908	415.429	0.082	-0.175
-725.894	-34.695	-0.228	0.125
-724.879	149.282	-0.158	-0.215
-723.864	-200.000	-0.001	0.186
-722.850	-93.233	-0.073	-0.020
-721.835	-148.229	-0.088	0.007
-720.821	143.782	-0.173	-0.232
-719.806	106.960	-0.310	-0.369
-718.791	4.190	0.047	-0.035
-717.777	-138.298	-0.278	0.031
-716.762	-94.039	-0.073	-0.020
-715.748	436.570	-0.061	-0.134
-714.733	-161.314	-0.331	-0.017
-713.718	-118.841	0.229	0.040
-712.704	-148.694	-0.340	-0.028
-711.689	111.955	-0.049	-0.059
-710.675	800.000	-0.150	-0.474
-709.660	-83.469	0.257	-0.083
-708.645	-122.845	0.171	-0.028
-707.631	-101.473	-0.192	-0.047
-706.616	-10.602	0.106	-0.070
-705.602	-110.826	-0.088	0.018
-704.587	292.389	0.117	-0.214
-703.572	-98.974	-0.214	-0.055
-702.558	-71.227	-0.240	-0.090
-701.543	93.704	0.162	0.184
-700.529	-92.245	0.196	-0.055
-699.514	-111.695	-0.070	-0.014
-698.499	-84.090	-0.188	0.060
-697.485	141.921	0.193	-0.257
-696.470	-200.000	-0.035	-0.269
-695.456	333.972	-0.159	0.308
-694.441	224.998	-0.071	0.115
-693.426	67.272	-0.096	0.098
-692.412	497.424	-0.063	-0.145
-691.397	294.230	0.198	0.364
-690.383	48.430	-0.170	0.160
-689.368	73.483	-0.051	-0.054
-688.354	274.003	0.033	-0.059
-687.339	-69.854	-0.278	0.106
-686.324	-200.000	-0.043	-0.286
-685.310	-108.562	-0.064	0.014
-684.295	-129.381	-0.177	-0.025
-683.281	-200.000	0.060	0.279
-682.266	-38.085	-0.071	-0.038
-681.251	106.299	0.205	-0.243
-680.237	20.555	0.240	-0.195
-679.222	-200.000	-0.029	-0.213
-678.208	204.758	0.153	-0.239
-677.193	-146.938	-0.135	-0.012
-676.178	-200.000	0.009	0.333
-675.164	-143.062	-0.018	-0.002
-674.149	-78.149	-0.257	-0.089
-673.135	-133.598	-0.186	-0.023
-672.120	-200.000	0.012	-0.126
-671.105	800.000	0.049	-0.188
-670.091	139.852	-0.154	-0.204
-669.076	-47.121	0.112	-0.055
-668.062	-46.110	-0.128	0.063
-667.047	744.489	-0.085	0.230
-666.032	-200.000	0.030	0.138
-665.018	13.212	-0.172	-0.133
-664.003	-61.660	-0.193	0.081
-662.989	714.999	-0.067	0.178
-661.974	313.077	0.106	-0.199
-660.959	155.906	-0.090	-0.124
-659.945	-200.000	-0.038	0.228
-658.930	249.024	0.096	-0.163
-657.916	-93.110	-0.492	-0.137
-656.901	658.107	-0.201	0.518
-655.886	210.075	0.110	-0.172
-654.872	800.000	0.060	0.200
-653.857	-39.669	-0.286	0.150
-652.843	-127.063	-0.217	-0.032
-651.828	-127.812	-0.253	0.036
-650.814	121.253	0.177	-0.221
-649.799	77.807	-0.215	0.230
-648.784	-111.847	0.526	0.106
-647.770	800.000	-0.013	0.039
-646.755	394.806	0.193	0.402
-645.741	160.298	-0.083	0.115
-644.726	-200.000	-0.067	-0.430
-643.711	-178.434	0.186	-0.004
-642.697	134.385	0.138	0.180
-641.682	106.399	0.253	-0.300
-640.668	-72.186	-0.383	0.142
-639.653	-200.000	-0.024	-0.155
-638.638	168.956	0.112	-0.160
-637.624	438.165	0.199	-0.435
-636.609	-126.329	-0.170	0.025
-635.595	12.498	-0.151	0.117
-634.580	-200.000	0.025	-0.272
-633.565	-53.258	-0.214	0.098
-632.551	83.208	-0.154	0.168
-631.536	-34.230	0.106	-0.058
-630.522	-100.798	-0.250	0.062
-629.507	478.580	-0.120	-0.272
-628.492	-129.236	0.502	-0.070
-627.478	-96.195	-0.169	0.045
-626.463	-30.419	0.279	0.158
-625.449	800.000	-0.097	-0.291
-624.434	800.000	-0.078	0.224
-623.419	529.053	-0.119	-0.280
-622.405	-145.581	-0.259	-0.023
-621.390	126.384	0.214	0.271
-620.376	35.172	-0.110	-0.096
-619.361	53.664	-0.144	0.138
-618.346	103.239	0.089	-0.104
-617.332	-200.000	0.026	0.202
-616.317	-200.000	0.051	0.345
-615.303	118.285	0.143	-0.176
-614.288	10.430	0.172	-0.131
-613.273	65.189	-0.140	0.141
-612.259	8.231	-0.237	0.178
-611.244	12.435	-0.224	0.172
-610.230	800.000	-0.046	-0.148
-609.215	-60.073	0.286	0.122
-608.201	263.739	-0.093	0.161
-607.186	729.808	-0.050	-0.133
-606.171	800.000	0.008	0.029
-605.157	800.000	0.039	-0.160
-604.142	-30.152	-0.122	0.069
-603.128	21.112	0.037	0.030
-602.113	800.000	-0.060	-0.194
-601.098	89.403	-0.157	-0.174
-600.084	-34.018	0.161	-0.089
-599.069	131.626	-0.152	-0.195
-598.055	121.399	-0.064	0.080
-597.040	575.614	0.078	-0.191
-596.025	0.787	0.233	0.167
-595.011	115.462	-0.056	0.069
-593.996	-178.899	0.271	0.006
-592.982	97.477	-0.073	-0.084
-591.967	-81.044	0.298	-0.098
-590.952	-200.000	-0.010	0.144
-589.938	132.957	0.184	-0.237
-588.923	-200.000	-0.039	0.395
-587.909	78.627	0.201	0.215
-586.894	167.183	-0.176	-0.250
-585.879	-200.000	-0.019	0.101
-584.865	-200.000	0.024	-0.141
-583.850	1.015	0.122	0.088
-582.836	800.000	0.021	-0.058
-581.821	800.000	-0.035	-0.139
-580.806	-200.000	-0.044	-0.289
-579.792	-58.752	-0.225	-0.097
-578.777	-81.652	0.145	-0.047
-577.763	-11.482	0.269	0.177
-576.748	320.209	0.049	0.092
-575.733	10.258	0.264	-0.200
-574.719	-170.525	-0.381	-0.013
-573.704	-37.421	-0.170	0.090
-572.690	428.363	0.012	0.026
-571.675	-56.510	0.088	0.039
-570.661	-200.000	0.015	0.134
-569.646	126.937	0.209	-0.264
-568.631	334.728	-0.141	0.273
-567.617	800.000	0.027	-0.082
-566.602	-36.771	-0.312	0.167
-565.588	-153.209	0.326	0.023
-564.573	-147.801	-0.194	-0.016
-563.558	-200.000	-0.035	0.286
-562.544	-40.087	-0.121	-0.063
-561.529	-73.925	-0.116	-0.042
-560.515	8.134	0.140	0.105
-559.500	285.627	-0.123	-0.222
-558.485	-29.542	0.163	-0.093
-557.471	248.939	0.097	-0.164
-556.456	20.349	-0.240	0.193
-555.442	326.977	0.076	-0.145
-554.427	-153.121	0.266	0.019
-553.412	9.113	-0.259	-0.195
-552.398	489.727	-0.140	0.320
-551.383	-96.100	0.111	0.029
-550.369	149.970	0.206	0.278
-549.354	-3.976	0.397	-0.274
-548.339	-1.963	-0.204	0.143
-547.325	309.209	0.077	0.143
-546.310	-98.563	-0.310	-0.079
-545.296	-89.614	0.118	-0.035
-544.281	-91.202	-0.145	-0.042
-543.266	-65.684	-0.212	0.085
-542.252	126.460	-0.109	0.137
-541.237	130.894	-0.252	0.323
-540.223	-78.252	0.182	0.062
-539.208	-81.152	0.247	-0.081
-538.193	36.085	-0.180	-0.158
-537.179	664.362	0.121	-0.312
-536.164	800.000	0.063	-0.231
-535.150	-200.000	0.018	0.087
-534.135	327.315	-0.145	0.277
-533.121	-200.000	0.016	0.209
-532.106	287.910	-0.048	-0.086
-531.091	-200.000	0.015	-0.192
-530.077	-74.045	-0.098	0.036
-529.062	-33.777	0.368	0.202
-528.048	-127.798	-0.406	-0.058
-527.033	252.987	-0.066	-0.112
-526.018	-200.000	-0.067	-0.432
-525.004	-144.534	0.363	-0.033
-523.989	576.090	0.109	-0.265
-522.975	7.190	0.233	-0.173
-521.960	30.444	0.318	0.271
-520.945	800.000	0.028	-0.115
-519.931	-31.066	0.294	0.165
-518.916	-200.000	0.006	-0.152
-517.902	208.592	0.103	-0.160
-516.887	353.228	-0.176	-0.347
-515.872	734.604	0.142	-0.378
-514.858	-33.305	-0.067	0.037
-513.843	-36.936	0.314	-0.167
-512.829	-120.071	-0.141	0.024
-511.814	-106.237	0.137	-0.031
-510.799	94.182	0.040	0.045
-509.785	-124.300	-0.141	0.022
-508.770	-78.355	0.034	-0.012
-507.756	-143.351	-0.368	0.035
-506.741	170.079	0.039	-0.055
-505.726	-23.864	-0.134	-0.080
-504.712	-70.312	0.231	-0.087
-503.697	-187.361	-0.190	-0.003
-502.683	-59.661	0.318	-0.136
-501.668	65.789	-0.185	0.187
-500.653	-130.492	0.372	-0.050
-499.639	119.905	0.095	-0.117
-498.624	800.000	-0.104	0.398
-497.610	1.444	0.144	-0.103
-496.595	266.668	-0.069	0.119
-495.581	-200.000	0.064	-0.354
-494.566	800.000	-0.088	0.369
-493.551	-71.783	0.155	-0.057
-492.537	-171.623	-0.412	0.014
-491.522	-72.840	0.308	-0.113
-490.508	163.886	0.074	-0.103
-489.493	-200.000	0.099	-0.517
-488.478	62.135	0.148	-0.147
-487.464	241.875	-0.072	0.119
-486.449	-13.476	-0.377	-0.243
-485.435	43.883	-0.105	-0.095
-484.420	139.261	0.160	0.209
-483.405	-200.000	0.009	-0.098
-482.391	-200.000	-0.081	-0.490
-481.376	109.723	0.021	0.025
-480.362	-200.000	0.019	0.092
-479.347	-3.562	-0.120	0.083
-478.332	119.178	0.197	-0.242
-477.318	-100.642	0.121	0.030
-476.303	-135.877	-0.089	-0.010
-475.289	108.682	0.103	0.123
-474.274	800.000	0.005	0.015
-473.259	-200.000	-0.011	-0.245
-472.245	-55.513	-0.209	0.093
-471.230	-159.741	-0.219	0.012
-470.216	-93.888	0.209	-0.057
-469.201	5.574	0.288	-0.211
-468.186	-200.000	-0.014	0.201
-467.172	-73.949	0.159	0.058
-466.157	215.487	0.159	-0.251
-465.143	800.000	-0.051	0.197
-464.128	-200.000	0.071	0.572
-463.113	-108.427	-0.038	-0.008
-462.099	-17.444	-0.209	0.131
-461.084	540.854	0.064	-0.151
-460.070	-200.000	0.005	0.303
-459.055	466.394	0.031	0.070
-458.040	24.885	0.205	-0.169
-457.026	119.940	0.145	-0.178
-456.011	-69.280	-0.249	0.095
-454.997	287.171	-0.079	-0.143
-453.982	21.001	0.072	-0.058
-452.968	-85.756	0.254	0.078
-451.953	-147.890	-0.344	0.029
-450.938	147.555	-0.143	0.192
-449.924	-200.000	-0.014	0.179
-448.909	19.813	0.188	-0.151
-447.895	-61.366	0.145	0.061
-446.880	-103.128	-0.164	-0.038
-445.865	-200.000	-0.017	0.123
-444.851	387.626	-0.172	0.353
-443.836	118.746	-0.049	-0.060
-442.822	-123.177	-0.086	0.014
-441.807	800.000	-0.092	0.301
-440.792	36.805	0.060	-0.053
-439.778	-102.383	0.258	-0.061
-438.763	22.074	-0.045	0.036
-437.749	96.462	-0.062	-0.071
-436.734	250.051	0.098	-0.166
-435.719	-200.000	-0.005	0.139
-434.705	800.000	0.069	-0.255
-433.690	-73.023	-0.303	-0.110
-432.676	-200.000	0.017	0.230
-431.661	556.050	-0.057	-0.137
-430.646	-200.000	-0.024	-0.123
-429.632	-68.871	-0.253	-0.097
-428.617	150.273	0.213	0.287
-427.603	-37.431	-0.299	0.159
-426.588	-13.423	-0.313	0.201
-425.573	-91.681	0.103	0.029
-424.559	31.783	0.120	-0.102
-423.544	-119.836	-0.020	0.003
-422.530	-200.000	-0.025	0.335
-421.515	72.618	0.162	-0.168
-420.500	800.000	0.117	0.470
-419.486	556.117	0.175	-0.418
-418.471	-139.580	-0.182	0.019
-417.457	-31.039	0.197	-0.110
-416.442	-200.000	0.042	-0.404
-415.428	800.000	0.071	-0.254
-414.413	-75.817	0.175	-0.062
-413.398	-77.568	0.069	0.024
-412.384	-54.996	0.186	0.083
-411.369	184.720	0.056	0.083
-410.355	-200.000	0.020	-0.196
-409.340	-0.082	0.158	0.112
-408.325	-93.065	-0.160	0.044
-407.311	238.473	0.199	-0.328
-406.296	-200.000	0.010	0.139
-405.282	-73.192	0.080	-0.029
-404.267	-136.879	0.172	0.020
-403.252	16.100	-0.143	-0.112
-402.238	79.952	0.214	0.228
-401.223	7.170	-0.250	-0.185
-400.209	800.000	0.028	-0.091
-399.194	61.944	0.247	0.244
-398.179	-156.426	-0.080	-0.005
-397.165	-200.000	-0.001	-0.086
-396.150	-186.544	-0.360	-0.005
-395.136	-109.441	-0.133	0.028
-394.121	-47.800	0.268	-0.129
-393.106	-131.027	-0.376	0.050
-392.092	-186.821	0.356	-0.005
-391.077	490.998	-0.060	0.136
-390.063	-200.000	0.016	-0.176
-389.048	211.763	0.053	0.083
-388.033	-57.437	-0.432	0.188
-387.019	15.216	0.233	0.181
-386.004	61.712	0.042	-0.041
-384.990	171.672	-0.283	0.403
-383.975	-167.418	0.111	0.004
-382.960	73.778	0.096	0.100
-381.946	800.000	0.068	0.250
-380.931	-137.734	-0.079	0.009
-379.917	-69.849	-0.068	-0.026
-378.902	676.300	-0.089	0.228
-377.888	-145.083	-0.273	0.025
-376.873	-200.000	-0.020	-0.278
-375.858	-7.044	-0.286	-0.192
-374.844	166.338	-0.223	0.313
-373.829	-14.446	-0.270	-0.172
-372.815	544.398	0.192	0.453
-371.800	-81.948	-0.324	0.105
-370.785	800.000	-0.088	0.333
-369.771	-200.000	-0.034	-0.252
-368.756	798.566	0.056	0.153
-367.742	661.136	0.098	0.251
-366.727	59.385	-0.231	0.225
-365.712	800.000	0.092	-0.388
-364.698	-164.466	-0.117	-0.005
-363.683	-60.373	-0.362	0.153
-362.669	-157.458	-0.194	-0.012
-361.654	0.466	-0.115	0.081
-360.639	-38.543	-0.196	0.103
-359.625	249.505	0.070	-0.117
-358.610	-54.495	-0.188	-0.084
-357.596	59.139	0.276	0.269
-356.581	123.160	0.139	-0.173
-355.566	221.158	-0.173	-0.275
-354.552	380.559	-0.038	-0.077
-353.537	619.366	0.055	-0.136
-352.523	-97.625	-0.186	-0.048
-351.508	-161.206	0.184	0.009
-350.493	15.370	0.048	-0.037
-349.479	-118.005	0.272	0.048
-348.464	-200.000	0.032	0.229
-347.450	307.308	0.133	0.246
-346.435	-14.464	0.074	-0.047
-345.420	800.000	-0.081	0.234
-344.406	-200.000	-0.018	0.229
-343.391	-29.056	0.392	-0.223
-342.377	-59.868	0.399	0.169
-341.362	-6.171	0.081	-0.055
-340.348	-200.000	-0.018	-0.112
-339.333	-61.316	-0.140	0.058
-338.318	-149.669	-0.352	-0.027
-337.304	85.464	0.148	0.160
-336.289	69.676	-0.165	-0.168
-335.275	-53.371	-0.039	-0.018
-334.260	-170.799	-0.233	0.008
-333.245	36.518	-0.040	0.035
-332.231	16.724	0.069	-0.054
-331.216	-200.000	-0.010	0.136
-330.202	124.015	0.197	-0.245
-329.187	668.999	-0.038	0.098
-328.172	158.960	-0.229	-0.314
-327.158	-133.568	0.518	0.064
-326.143	-140.755	0.165	0.017
-325.129	0.954	-0.339	0.241
-324.114	20.841	0.142	0.114
-323.099	-114.058	-0.175	-0.034
-322.085	-127.100	0.287	-0.042
-321.070	-6.762	0.055	0.037
-320.056	-23.726	0.015	-0.009
-319.041	-154.215	0.243	-0.016
-318.026	-109.259	0.245	-0.051
-317.012	-13.856	-0.365	0.233
-315.997	301.779	-0.156	-0.285
-314.983	-84.776	-0.110	-0.034
-313.968	-63.870	0.199	-0.080
-312.953	-29.235	0.388	-0.220
-311.939	89.939	-0.234	0.259
-310.924	104.939	0.080	-0.093
-309.910	-200.000	-0.032	0.243
-308.895	-31.913	0.472	-0.261
-307.880	-32.052	-0.213	0.118
-306.866	362.815	-0.063	0.125
-305.851	19.486	-0.335	-0.266
-304.837	-200.000	0.029	-0.196
-303.822	2.196	-0.292	0.208
-302.807	536.004	-0.165	0.386
-301.793	-200.000	0.020	0.242
-300.778	-178.221	0.439	0.010
-299.764	-14.671	0.139	-0.088
-298.749	-79.687	-0.212	-0.071
-297.735	73.606	-0.190	0.196
-296.720	-30.763	-0.268	-0.150
-295.705	-200.000	-0.017	0.175
-294.691	3.178	0.107	-0.077
-293.676	-200.000	0.011	-0.295
-292.662	613.679	-0.021	-0.053
-291.647	-142.565	0.214	-0.021
-290.632	38.913	0.208	-0.184
-289.618	-64.684	0.164	0.066
-288.603	800.000	-0.023	-0.098
-287.589	48.563	0.041	-0.038
-286.574	338.370	0.036	0.070
-285.559	-200.000	0.046	0.205
-284.545	-80.471	-0.193	-0.064
-283.530	274.079	-0.171	-0.298
-282.516	-200.000	-0.017	0.073
-281.501	191.830	0.114	0.169
-280.486	-11.059	0.141	0.092
-279.472	-112.456	0.255	0.050
-278.457	-200.000	0.001	-0.022
-277.443	-108.946	0.212	0.045
-276.428	15.845	0.176	0.137
-275.413	-200.000	0.004	0.063
-274.399	64.451	0.316	-0.314
-273.384	-48.860	0.198	-0.094
-272.370	-20.053	-0.095	0.058
-271.355	-200.000	-0.018	-0.174
-270.340	-119.298	-0.352	-0.060
-269.326	-18.695	-0.337	-0.207
-268.311	95.256	-0.106	-0.119
-267.297	800.000	-0.074	-0.206
-266.282	212.329	-0.106	-0.166
-265.267	-200.000	0.011	-0.137
-264.253	351.572	-0.092	-0.180
-263.238	54.403	-0.327	-0.311
-262.224	7.831	-0.152	-0.112
-261.209	131.485	-0.051	-0.065
-260.195	65.673	-0.079	-0.079
-259.180	207.208	-0.130	0.201
-258.165	715.038	0.228	0.596
-257.151	-128.010	0.162	-0.023
-256.136	-200.000	0.000	-0.366
-255.122	118.879	-0.020	0.025
-254.107	-20.649	0.062	-0.038
-253.092	193.774	-0.151	0.225
-252.078	-47.781	0.542	0.259
-251.063	-151.299	-0.079	0.006
-250.049	-102.076	0.056	0.013
-249.034	76.558	-0.126	-0.132
-248.019	-200.000	-0.052	0.345
-247.005	87.026	-0.043	0.047
-245.990	-144.417	0.236	0.022
-244.976	-38.254	0.365	-0.191
-243.961	-136.414	-0.328	-0.038
-242.946	-4.003	-0.087	-0.059
-241.932	-98.048	0.148	0.038
-240.917	-47.273	-0.449	-0.215
-239.903	-136.438	-0.327	-0.037
-238.888	-74.032	-0.157	-0.056
-237.873	-51.375	0.122	-0.056
-236.859	-49.213	-0.111	0.052
-235.844	-56.925	0.189	-0.082
-234.830	-111.151	0.193	0.039
-233.815	-200.000	-0.014	0.210
-232.800	-173.224	-0.179	0.005
-231.786	331.967	0.131	-0.249
-230.771	131.713	-0.106	-0.135
-229.757	-51.950	-0.119	-0.054
-228.742	437.531	0.140	-0.300
-227.727	28.554	-0.486	-0.405
-226.713	-96.182	-0.363	0.095
-225.698	-79.895	-0.281	0.093
-224.684	-32.874	0.131	-0.072
-223.669	62.675	-0.139	-0.137
-222.655	-200.000	0.023	-0.317
-221.640	-200.000	-0.036	0.161
-220.625	221.229	0.240	-0.380
-219.611	433.865	0.062	0.133
-218.596	-181.024	0.411	-0.008
-217.582	-23.183	-0.163	-0.096
-216.567	708.748	-0.044	0.114
-215.552	61.723	0.176	-0.172
-214.538	-157.993	-0.229	-0.013
-213.523	70.646	0.188	-0.192
-212.509	-200.000	-0.013	0.057
-211.494	-154.854	0.087	-0.006
-210.479	-200.000	-0.056	-0.286
-209.465	408.577	0.093	0.194
-208.450	17.360	0.133	-0.104
-207.436	-200.000	0.016	0.196
-206.421	27.266	-0.056	-0.047
-205.406	-200.000	0.008	-0.163
-204.392	-64.235	-0.438	0.176
-203.377	80.488	-0.206	0.219
-202.363	800.000	-0.103	0.304
-201.348	-98.087	-0.313	-0.079
-200.333	800.000	0.113	0.478
-199.319	220.826	0.235	0.371
-198.304	144.141	0.081	0.107
-197.290	-126.106	0.380	-0.056
-196.275	282.072	-0.210	0.370
-195.260	-200.000	0.030	0.445
-194.246	76.094	0.118	-0.122
-193.231	-200.000	-0.016	-0.086
-192.217	327.302	-0.045	0.085
-191.202	-52.493	0.406	0.185
-190.187	113.445	-0.136	0.163
-189.173	37.398	0.167	-0.146
-188.158	141.085	0.080	-0.104
-187.144	405.252	0.125	0.260
-186.129	-190.116	0.167	0.002
-185.114	15.940	-0.328	0.254
-184.100	-200.000	0.007	0.053
-183.085	-200.000	0.043	0.219
-182.071	800.000	0.019	-0.073
-181.056	800.000	0.095	0.371
-180.042	245.435	-0.167	-0.277
-179.027	-85.251	0.174	0.054
-178.012	-54.593	-0.129	0.057
-176.998	800.000	-0.028	0.110
-175.983	-163.542	0.122	0.006
-174.969	-15.492	0.006	0.004
-173.954	63.056	0.156	-0.153
-172.939	-200.000	0.024	-0.201
-171.925	185.440	0.142	0.207
-170.910	-200.000	0.060	0.342
-169.896	-75.709	-0.178	-0.062
-168.881	800.000	0.053	-0.170
-167.866	-88.887	-0.082	-0.024
-166.852	63.467	-0.278	0.274
-165.837	-36.072	-0.043	-0.023
-164.823	-200.000	-0.031	0.154
-163.808	-200.000	-0.029	0.264
-162.793	16.886	0.074	0.057
-161.779	-43.344	0.215	0.107
-160.764	-11.593	-0.152	-0.098
-159.750	67.126	-0.164	-0.164
-158.735	648.433	0.047	0.118
-157.720	-83.325	-0.085	-0.027
-156.706	75.786	-0.186	-0.193
-155.691	61.870	0.144	0.141
-154.677	-200.000	-0.014	-0.370
-153.662	99.916	-0.388	-0.441
-152.647	65.725	0.093	0.092
-151.633	13.590	-0.182	0.138
-150.618	-50.485	0.142	0.066
-149.604	-60.848	0.194	0.080
-148.589	-200.000	0.046	0.250
-147.574	-0.036	-0.160	0.112
-146.560	106.106	-0.179	0.208
-145.545	-67.760	0.232	-0.089
-144.531	170.431	-0.164	-0.231
-143.516	3.304	0.166	0.118
-142.502	733.899	0.064	-0.167
-141.487	800.000	-0.034	-0.113
-140.472	598.646	0.116	-0.282
-139.458	140.074	0.164	0.212
-138.443	800.000	-0.058	-0.158
-137.429	-15.578	0.209	0.131
-136.414	-37.264	0.225	-0.118
-135.399	800.000	-0.032	0.096
-134.385	-53.494	0.162	-0.073
-133.370	-31.031	0.279	0.155
-132.356	73.127	-0.112	-0.115
-131.341	31.153	-0.190	-0.160
-130.326	156.949	0.279	0.378
-129.312	800.000	0.109	-0.439
-128.297	8.526	0.061	-0.045
-127.283	-200.000	0.015	0.169
-126.268	12.287	0.258	0.195
-125.253	282.763	-0.121	-0.214
-124.239	800.000	-0.055	0.183
-123.224	82.779	0.160	0.170
-122.210	-200.000	0.022	0.108
-121.195	800.000	-0.088	0.376
