DTS Sentinel unit serial number:	SN413079Multiplexer serial number:	ORYXHardware model number:	OX4-SRSoftware version number:	ORYX F/W v4.00 Oryx Data Collector v3.7.2.0data status	okinstallation	princeton_trtdifferential loss correction	single-endedforward channel	channel 2reverse channel	N/Adate	2019/09/13time	18:43:35forward acquisition time	60.00reverse acquisition time	0.00gamma	496.2192k internal	0.2323k external	0.2323temperature offset calibration	1.0187default loss term (dB/km)	0.3790temperature slope calibration	1.0000multiplexer offset coefficient	1.0000multiplexer slope coefficient	1.0000fibre end	0.00T internal ref (°C)	32.72T ext. ref 1 (°C)	4.14T ext. ref 2 (°C)	25.90length (m)	temperature (°C)	Stokes	anti-Stokes-747.200	41.731	0.110	-0.101
-746.185	281.912	0.019	-0.035
-745.171	652.480	-0.092	-0.237
-744.156	348.795	-0.062	0.123
-743.142	13.787	-0.263	-0.207
-742.127	800.000	-0.103	0.387
-741.112	800.000	0.080	0.278
-740.098	-57.889	-0.371	-0.164
-739.083	18.537	-0.214	-0.173
-738.069	-131.205	-0.222	0.030
-737.054	-155.239	0.343	-0.023
-736.039	-200.000	0.052	-0.253
-735.025	72.654	0.109	0.115
-734.010	32.487	-0.243	0.212
-732.996	20.476	0.104	-0.085
-731.981	55.394	-0.280	-0.273
-730.966	800.000	0.084	-0.313
-729.952	-43.052	-0.227	0.116
-728.937	-33.580	-0.102	0.057
-727.923	6.467	-0.168	0.126
-726.908	375.433	-0.072	-0.148
-725.894	507.527	0.120	-0.281
-724.879	-166.447	0.126	-0.005
-723.864	72.457	0.091	-0.095
-722.850	603.080	0.083	-0.208
-721.835	-131.092	-0.390	0.052
-720.821	-110.610	0.445	-0.093
-719.806	270.504	0.123	-0.219
-718.791	36.305	0.120	0.107
-717.777	15.495	0.283	-0.224
-716.762	-95.729	-0.166	-0.045
-715.748	-111.429	-0.361	-0.074
-714.733	-200.000	-0.087	0.421
-713.718	-178.149	0.347	0.008
-712.704	193.511	0.261	-0.398
-711.689	-200.000	-0.002	-0.220
-710.675	30.430	-0.156	-0.134
-709.660	216.070	0.135	-0.217
-708.645	453.252	-0.120	-0.267
-707.631	65.750	0.063	0.064
-706.616	62.304	-0.204	-0.205
-705.602	356.492	-0.040	-0.080
-704.587	754.184	0.093	-0.254
-703.572	-200.000	0.043	0.297
-702.558	53.291	0.262	0.253
-701.543	58.799	-0.114	-0.113
-700.529	321.663	0.135	-0.259
-699.514	183.130	-0.149	-0.222
-698.499	-103.266	-0.293	-0.070
-697.485	-200.000	0.040	-0.197
-696.470	95.934	0.383	-0.441
-695.456	239.503	-0.153	-0.257
-694.441	800.000	0.068	-0.272
-693.426	-92.645	-0.127	-0.036
-692.412	-200.000	-0.005	0.181
-691.397	800.000	-0.028	-0.083
-690.383	-103.347	-0.144	-0.034
-689.368	233.200	-0.108	0.179
-688.354	131.158	0.114	-0.147
-687.339	-200.000	-0.002	-0.282
-686.324	800.000	0.125	-0.397
-685.310	-52.631	-0.145	-0.067
-684.295	292.944	0.057	-0.105
-683.281	-27.177	0.127	-0.074
-682.266	20.953	-0.216	0.176
-681.251	-64.985	-0.088	0.036
-680.237	37.498	-0.205	-0.183
-679.222	32.450	-0.133	-0.115
-678.208	724.058	0.029	0.079
-677.193	-29.305	-0.270	-0.156
-676.178	-105.924	-0.127	0.029
-675.164	-114.595	-0.203	-0.039
-674.149	-101.163	0.164	0.040
-673.135	10.601	0.336	0.258
-672.120	-200.000	-0.021	-0.375
-671.105	-200.000	-0.057	0.256
-670.091	-200.000	-0.026	0.174
-669.076	-2.943	-0.183	-0.129
-668.062	728.821	0.063	0.170
-667.047	-99.580	0.058	-0.015
-666.032	-159.359	0.519	0.029
-665.018	-88.561	0.103	0.031
-664.003	180.914	0.069	-0.102
-662.989	800.000	-0.072	0.271
-661.974	59.518	0.114	0.113
-660.959	770.958	-0.114	-0.312
-659.945	33.899	-0.103	0.090
-658.930	-200.000	0.014	-0.127
-657.916	765.331	0.048	-0.131
-656.901	-61.591	0.126	-0.053
-655.886	800.000	-0.090	-0.264
-654.872	252.845	-0.323	-0.555
-653.857	-93.178	0.147	0.041
-652.843	800.000	-0.163	-0.502
-651.828	4.711	0.145	0.108
-650.814	-138.130	0.290	-0.032
-649.799	-89.088	0.314	0.093
-648.784	218.361	0.193	0.310
-647.770	256.354	0.168	-0.290
-646.755	797.087	-0.066	0.184
-645.741	-101.868	0.185	0.045
-644.726	456.717	0.114	0.255
-643.711	800.000	0.041	0.131
-642.697	51.580	0.129	-0.124
-641.682	528.145	-0.097	-0.229
-640.668	-98.130	0.267	-0.069
-639.653	-200.000	0.026	0.414
-638.638	-46.369	0.388	-0.192
-637.624	-192.234	-0.217	-0.002
-636.609	346.802	0.125	-0.248
-635.595	-200.000	-0.026	0.252
-634.580	-16.095	-0.151	0.096
-633.565	-200.000	0.015	-0.135
-632.551	192.613	-0.067	-0.101
-631.536	-142.179	0.171	-0.017
-630.522	-55.803	-0.201	-0.090
-629.507	66.906	-0.081	0.083
-628.492	-200.000	0.032	0.248
-627.478	800.000	0.128	0.361
-626.463	8.001	-0.108	0.081
-625.449	301.505	-0.074	0.137
-624.434	219.816	-0.123	0.197
-623.419	-200.000	0.010	0.133
-622.405	246.154	-0.095	-0.160
-621.390	-200.000	-0.027	0.138
-620.376	193.220	0.087	0.132
-619.361	-131.811	-0.236	0.031
-618.346	800.000	0.071	-0.261
-617.332	-197.616	-0.240	0.001
-616.317	800.000	0.055	-0.204
-615.303	42.456	0.258	-0.236
-614.288	-61.350	-0.297	-0.125
-613.273	-171.466	-0.404	-0.013
-612.259	308.673	-0.122	-0.228
-611.244	-200.000	0.050	-0.254
-610.230	-35.866	0.173	-0.094
-609.215	-200.000	0.001	-0.045
-608.201	-79.006	-0.426	-0.146
-607.186	-200.000	-0.053	-0.443
-606.171	212.281	-0.125	0.197
-605.157	-200.000	-0.032	0.142
-604.142	179.081	0.048	-0.070
-603.128	-37.690	0.136	-0.073
-602.113	123.553	0.172	-0.217
-601.098	-16.270	-0.177	-0.113
-600.084	215.306	-0.052	-0.083
-599.069	-61.609	-0.104	-0.044
-598.055	-200.000	0.001	-0.469
-597.040	69.798	0.288	0.298
-596.025	800.000	-0.059	-0.220
-595.011	-139.952	0.217	-0.023
-593.996	-127.352	-0.621	-0.091
-592.982	220.383	0.056	-0.091
-591.967	-200.000	-0.023	0.219
-590.952	-200.000	-0.031	-0.195
-589.938	-200.000	0.023	-0.224
-588.923	-68.497	-0.105	-0.041
-587.909	-92.900	-0.199	0.056
-586.894	34.965	0.244	-0.214
-585.879	-200.000	-0.027	0.290
-584.865	37.258	-0.036	-0.032
-583.850	800.000	0.084	0.338
-582.836	260.908	0.074	-0.128
-581.821	-200.000	-0.026	0.282
-580.806	-26.586	0.221	0.130
-579.792	-200.000	-0.010	0.319
-578.777	-148.991	-0.301	0.024
-577.763	-1.510	-0.134	0.095
-576.748	800.000	-0.088	0.282
-575.733	293.779	0.059	0.109
-574.719	-200.000	0.014	-0.216
-573.704	800.000	0.048	-0.143
-572.690	-77.246	-0.147	-0.051
-571.675	-157.866	-0.029	0.002
-570.661	-200.000	0.012	0.104
-569.646	-180.762	0.401	-0.008
-568.631	-47.117	0.260	0.127
-567.617	-99.100	-0.035	-0.009
-566.602	-80.750	-0.056	-0.019
-565.588	-114.773	0.286	-0.055
-564.573	37.967	0.098	-0.088
-563.558	214.294	-0.109	-0.173
-562.544	-200.000	0.014	-0.149
-561.529	-120.441	0.139	-0.024
-560.515	-68.959	-0.058	-0.023
-559.500	-88.592	0.237	-0.071
-558.485	-125.781	0.197	0.030
-557.471	394.466	-0.034	-0.071
-556.456	172.740	0.128	0.184
-555.442	239.803	-0.092	0.154
-554.427	223.924	-0.128	0.206
-553.412	-82.490	0.196	-0.064
-552.398	-143.728	-0.147	0.014
-551.383	1.773	0.099	0.071
-550.369	-93.658	0.334	-0.092
-549.354	-200.000	-0.035	-0.255
-548.339	-200.000	-0.010	-0.111
-547.325	-169.741	0.059	-0.002
-546.310	64.766	0.203	0.206
-545.296	28.999	0.105	0.090
-544.281	58.782	-0.240	-0.237
-543.266	-200.000	-0.022	-0.201
-542.252	192.507	-0.107	-0.161
-541.237	-200.000	0.000	-0.215
-540.223	351.576	0.106	-0.211
-539.208	-85.217	0.123	0.039
-538.193	397.319	0.079	0.166
-537.179	800.000	0.055	-0.170
-536.164	-74.444	-0.338	0.122
-535.150	87.686	-0.104	-0.116
-534.135	-12.667	-0.310	0.202
-533.121	-165.565	-0.066	-0.003
-532.106	192.923	0.222	-0.335
-531.091	-125.496	-0.261	-0.040
-530.077	299.658	0.049	-0.090
-529.062	159.295	-0.171	-0.238
-528.048	-74.606	-0.201	-0.072
-527.033	72.815	0.050	0.052
-526.018	-110.984	-0.384	-0.079
-525.004	-200.000	-0.007	-0.200
-523.989	-100.619	-0.491	-0.121
-522.975	-15.464	-0.087	-0.056
-521.960	373.704	0.187	0.380
-520.945	-200.000	0.028	-0.214
-519.931	-200.000	0.008	0.289
-518.916	-21.496	0.135	-0.082
-517.902	800.000	0.022	-0.079
-516.887	427.074	-0.062	0.135
-515.872	-184.368	0.235	-0.004
-514.858	-137.417	-0.195	-0.022
-513.843	213.917	0.053	0.084
-512.829	-200.000	-0.060	-0.424
-511.814	-110.212	-0.179	-0.037
-510.799	-57.083	0.140	0.062
-509.785	42.633	-0.163	-0.149
-508.770	646.634	-0.108	-0.275
-507.756	800.000	0.129	0.395
-506.741	422.806	0.104	-0.223
-505.726	352.981	0.065	-0.129
-504.712	-137.893	-0.095	0.011
-503.697	-84.350	-0.235	0.074
-502.683	-120.812	-0.060	0.010
-501.668	380.346	-0.101	-0.207
-500.653	-32.050	0.133	-0.074
-499.639	-200.000	-0.038	0.193
-498.624	-112.894	-0.112	-0.022
-497.610	-60.157	0.128	-0.055
-496.595	-200.000	-0.004	0.136
-495.581	26.477	0.118	-0.098
-494.566	462.274	0.074	0.165
-493.551	800.000	0.035	-0.137
-492.537	-127.559	-0.184	0.027
-491.522	-112.285	-0.506	-0.101
-490.508	36.937	-0.064	-0.057
-489.493	-9.369	-0.190	-0.127
-488.478	-10.930	0.224	-0.148
-487.464	-200.000	-0.025	0.161
-486.449	-6.763	-0.142	0.097
-485.435	-131.970	-0.244	-0.032
-484.420	-44.671	-0.167	-0.083
-483.405	638.743	-0.076	-0.193
-482.391	-63.593	0.349	-0.143
-481.376	26.266	-0.148	0.124
-480.362	-131.458	-0.259	0.034
-479.347	-96.853	0.120	-0.031
-478.332	-200.000	0.025	0.261
-477.318	-59.656	0.145	-0.062
-476.303	101.872	0.170	-0.199
-475.289	-135.621	-0.351	0.042
-474.274	179.300	-0.080	0.117
-473.259	-39.966	0.227	-0.118
-472.245	-156.630	-0.094	-0.006
-471.230	800.000	0.121	-0.438
-470.216	-41.629	-0.200	0.103
-469.201	735.510	0.157	0.421
-468.186	-23.968	-0.259	-0.155
-467.172	231.763	-0.172	-0.282
-466.157	800.000	-0.048	0.205
-465.143	-200.000	-0.002	0.027
-464.128	-97.722	0.123	-0.032
-463.113	-122.335	-0.337	-0.055
-462.099	-49.523	-0.309	-0.147
-461.084	-113.506	-0.244	0.048
-460.070	-94.561	0.055	-0.015
-459.055	246.551	0.090	-0.151
-458.040	94.932	0.178	-0.202
-457.026	549.045	0.092	-0.221
-456.011	800.000	0.022	-0.092
-454.997	407.087	0.113	-0.238
-453.982	-200.000	0.075	-0.372
-452.968	-200.000	0.047	0.392
-451.953	-106.075	-0.156	0.035
-450.938	-17.312	-0.051	0.032
-449.924	98.463	0.167	-0.192
-448.909	-200.000	-0.233	0.000
-447.895	-161.274	0.211	0.011
-446.880	-200.000	0.023	0.118
-445.865	27.517	-0.172	0.144
-444.851	-75.577	0.044	-0.016
-443.836	782.865	0.126	-0.346
-442.822	99.828	0.163	-0.188
-441.807	-160.674	-0.163	-0.009
-440.792	-117.921	0.291	-0.052
-439.778	800.000	0.114	-0.362
-438.763	-22.265	0.261	-0.158
-437.749	-87.521	0.013	0.004
-436.734	196.926	0.071	0.108
-435.719	-9.852	0.254	0.169
-434.705	-79.857	0.344	-0.115
-433.690	-168.361	-0.275	-0.011
-432.676	39.522	-0.207	-0.185
-431.661	146.073	-0.097	0.129
-430.646	389.138	0.068	-0.140
-429.632	310.585	0.089	0.166
-428.617	800.000	0.065	0.185
-427.603	434.705	-0.131	0.283
-426.588	-2.097	0.203	0.143
-425.573	132.500	-0.150	0.192
-424.559	-77.367	-0.217	-0.075
-423.544	-29.419	0.465	-0.265
-422.530	-90.727	0.074	-0.021
-421.515	3.088	-0.224	-0.163
-420.500	-21.913	-0.057	0.034
-419.486	713.759	-0.075	-0.197
-418.471	41.765	-0.280	-0.253
-417.457	-74.681	0.396	0.142
-416.442	-200.000	0.032	0.224
-415.428	-200.000	0.027	-0.165
-414.413	447.939	-0.144	-0.315
-413.398	-135.654	0.439	-0.052
-412.384	800.000	0.054	-0.156
-411.369	-70.890	-0.244	-0.092
-410.355	-120.951	0.164	0.027
-409.340	396.167	-0.124	-0.258
-408.325	-190.183	-0.350	0.004
-407.311	-85.045	0.287	-0.090
-406.296	-47.534	0.251	-0.122
-405.282	800.000	-0.092	0.267
-404.267	33.774	0.115	-0.099
-403.252	-200.000	0.000	0.189
-402.238	136.059	-0.255	0.332
-401.223	-63.994	0.178	0.072
-400.209	-26.649	-0.155	0.090
-399.194	-110.279	-0.220	-0.046
-398.179	202.348	0.072	-0.111
-397.165	-17.774	0.209	-0.131
-396.150	-155.611	-0.162	0.010
-395.136	-119.078	0.205	-0.036
-394.121	100.890	-0.187	-0.217
-393.106	800.000	0.045	0.183
-392.092	-200.000	0.028	0.371
-391.077	-25.319	-0.248	0.146
-390.063	-133.135	-0.235	-0.030
-389.048	106.407	0.180	0.213
-388.033	-54.788	0.093	0.042
-387.019	-200.000	0.002	-0.097
-386.004	800.000	-0.047	0.158
-384.990	-64.533	-0.092	-0.037
-383.975	-69.573	0.162	-0.062
-382.960	-110.634	-0.216	-0.044
-381.946	-200.000	-0.001	0.423
-380.931	-6.560	-0.186	0.126
-379.917	-200.000	-0.031	-0.299
-378.902	-68.041	0.042	-0.016
-377.888	-188.405	-0.107	-0.001
-376.873	-200.000	-0.031	-0.191
-375.858	-161.834	0.138	-0.007
-374.844	-15.876	-0.251	-0.159
-373.829	-172.684	0.152	0.005
-372.815	-55.228	0.144	0.064
-371.800	46.564	0.068	-0.063
-370.785	-143.769	0.267	0.025
-369.771	-200.000	0.009	0.105
-368.756	-156.285	-0.125	0.008
-367.742	-200.000	-0.029	0.406
-366.727	129.185	0.119	0.151
-365.712	183.698	0.038	-0.056
-364.698	-200.000	0.107	0.563
-363.683	62.387	-0.070	0.069
-362.669	-30.341	0.019	0.011
-361.654	167.522	-0.099	0.140
-360.639	25.933	-0.044	0.037
-359.625	-46.665	0.239	-0.117
-358.610	-53.773	-0.151	-0.069
-357.596	224.893	0.035	-0.056
-356.581	-108.777	0.267	0.057
-355.566	-200.000	-0.016	0.199
-354.552	-37.841	0.243	-0.129
-353.537	87.912	0.103	0.113
-352.523	146.046	-0.092	-0.123
-351.508	-109.053	0.279	-0.059
-350.493	62.150	-0.177	0.176
-349.479	-98.858	0.190	-0.048
-348.464	-31.616	0.099	0.055
-347.450	-124.995	-0.456	0.070
-346.435	800.000	0.072	0.306
-345.420	627.559	0.167	0.418
-344.406	-200.000	-0.003	-0.329
-343.391	-64.895	-0.204	0.082
-342.377	520.540	-0.119	0.278
-341.362	418.902	-0.137	0.292
-340.348	-137.947	0.469	0.052
-339.333	488.839	-0.043	-0.098
-338.318	-13.975	-0.109	0.070
-337.304	800.000	-0.135	0.423
-336.289	-117.972	0.244	-0.043
-335.275	-82.993	-0.179	0.057
-334.260	363.790	-0.110	-0.220
-333.245	800.000	-0.056	0.172
-332.231	-31.688	-0.372	0.207
-331.216	411.553	0.036	-0.075
-330.202	-49.683	0.213	-0.101
-329.187	-200.000	0.001	0.258
-328.172	1.986	-0.122	-0.087
-327.158	6.808	0.117	0.086
-326.143	228.737	-0.201	0.326
-325.129	174.415	0.151	-0.217
-324.114	-59.340	-0.288	-0.123
-323.099	583.486	-0.062	-0.152
-322.085	162.080	0.172	0.239
-321.070	27.162	-0.231	-0.193
-320.056	-31.460	-0.149	-0.083
-319.041	71.761	0.266	0.275
-318.026	-16.261	0.108	-0.068
-317.012	365.793	0.020	-0.040
-315.997	200.653	0.191	0.292
-314.983	-137.518	0.411	0.046
-313.968	180.875	0.093	0.136
-312.953	72.841	-0.238	0.246
-311.939	105.998	0.111	0.130
-310.924	-157.843	-0.159	0.009
-309.910	-147.897	0.154	0.013
-308.895	2.463	-0.127	0.091
-307.880	263.863	0.149	-0.257
-306.866	800.000	0.101	-0.389
-305.851	-200.000	-0.022	-0.154
-304.837	244.521	0.125	-0.209
-303.822	-138.816	0.180	-0.019
-302.807	-200.000	-0.041	-0.236
-301.793	-94.868	0.321	-0.086
-300.778	-12.989	-0.146	-0.094
-299.764	58.554	-0.110	-0.107
-298.749	-110.850	-0.276	-0.056
-297.735	-200.000	0.016	0.155
-296.720	-200.000	0.065	-0.337
-295.705	194.718	-0.017	-0.025
-294.691	67.140	-0.103	0.104
-293.676	800.000	-0.052	0.204
-292.662	147.869	-0.251	0.335
-291.647	33.420	-0.209	0.180
-290.632	193.167	-0.077	0.115
-289.618	-200.000	0.006	0.109
-288.603	46.711	-0.038	0.035
-287.589	800.000	0.031	0.101
-286.574	-200.000	-0.019	0.254
-285.559	51.068	-0.145	-0.136
-284.545	119.318	0.097	-0.119
-283.530	-74.765	0.159	0.057
-282.516	-159.973	-0.060	0.003
-281.501	186.280	0.130	-0.192
-280.486	72.446	0.132	-0.137
-279.472	-112.147	-0.535	-0.107
-278.457	-57.086	0.300	-0.131
-277.443	-200.000	-0.013	0.391
-276.428	-83.350	-0.168	0.054
-275.413	-200.000	0.081	0.485
-274.399	-135.850	0.167	-0.020
-273.384	-33.293	0.178	-0.098
-272.370	-119.408	-0.102	-0.017
-271.355	-45.525	0.337	-0.166
-270.340	227.264	0.110	-0.178
-269.326	-68.253	0.255	0.098
-268.311	91.064	-0.101	-0.112
-267.297	-87.067	0.043	-0.013
-266.282	430.898	-0.089	0.191
-265.267	-65.912	-0.201	0.080
-264.253	-176.185	-0.154	0.004
-263.238	183.757	0.216	0.317
-262.224	-24.322	-0.116	-0.069
-261.209	-73.456	0.134	-0.049
-260.195	82.762	-0.235	-0.253
-259.180	-26.858	-0.425	0.246
-258.165	-109.420	-0.086	0.018
-257.151	15.413	-0.275	-0.214
-256.136	48.585	0.128	0.119
-255.122	-155.142	-0.184	-0.012
-254.107	-45.163	-0.273	0.134
-253.092	-56.754	0.246	-0.108
-252.078	330.654	-0.052	-0.099
-251.063	-109.644	-0.431	-0.090
-250.049	-66.194	0.186	0.073
-249.034	1.101	0.214	0.152
-248.019	188.253	0.074	0.110
-247.005	-100.383	0.193	-0.047
-245.990	706.888	-0.074	-0.193
-244.976	-144.330	0.409	-0.038
-243.961	15.715	0.228	-0.178
-242.946	-76.630	-0.349	0.121
-241.932	-173.524	-0.080	0.002
-240.917	-123.570	-0.223	0.035
-239.903	-84.487	0.186	-0.058
-238.888	-200.000	-0.017	0.269
-237.873	-200.000	0.019	-0.148
-236.859	-200.000	-0.005	-0.232
-235.844	-200.000	-0.032	-0.346
-234.830	-200.000	0.013	-0.089
-233.815	-9.625	0.099	0.066
-232.800	800.000	0.067	0.286
-231.786	-5.381	0.341	0.232
-230.771	-12.474	0.498	-0.322
-229.757	-200.000	-0.035	-0.279
-228.742	-200.000	-0.028	0.233
-227.727	78.269	0.147	0.156
-226.713	800.000	-0.062	-0.226
-225.698	-200.000	-0.033	0.168
-224.684	800.000	0.105	0.320
-223.669	232.273	0.130	0.211
-222.655	-200.000	0.069	0.448
-221.640	-22.902	-0.436	0.260
-220.625	67.106	-0.094	0.095
-219.611	-110.733	-0.112	-0.023
-218.596	-200.000	0.006	-0.643
-217.582	52.879	0.233	-0.221
-216.567	205.909	-0.217	0.334
-215.552	-33.286	0.228	0.125
-214.538	-118.177	-0.056	0.010
-213.523	-39.610	-0.222	-0.115
-212.509	-117.766	-0.237	0.042
-211.494	800.000	-0.047	0.140
-210.479	49.198	-0.103	-0.096
-209.465	-150.100	-0.104	0.008
-208.450	-43.390	0.380	-0.190
-207.436	493.582	0.094	-0.212
-206.421	-200.000	0.098	0.431
-205.406	186.703	0.291	0.428
-204.392	-58.265	0.112	-0.048
-203.377	-112.074	0.254	-0.051
-202.363	122.849	0.229	0.283
-201.348	-158.978	0.103	-0.006
-200.333	-18.108	-0.228	0.141
-199.319	-49.600	-0.285	0.134
-198.304	800.000	-0.109	0.337
-197.290	-173.486	0.234	-0.007
-196.275	-164.433	0.288	0.013
-195.260	-128.408	0.375	0.053
-194.246	800.000	-0.094	0.379
-193.231	-102.066	-0.291	-0.069
-192.217	-200.000	-0.061	-0.305
-191.202	-92.404	-0.045	0.012
-190.187	-95.493	0.227	-0.060
-189.173	-157.198	0.262	0.016
-188.158	-138.384	-0.100	-0.011
-187.144	800.000	0.073	-0.230
-186.129	-200.000	-0.057	0.293
-185.114	-34.590	-0.289	-0.156
-184.100	61.754	0.103	-0.101
-183.085	-124.272	0.115	-0.018
-182.071	-87.519	-0.322	0.096
-181.056	607.646	-0.091	-0.225
-180.042	800.000	0.017	-0.059
-179.027	-163.207	0.116	-0.005
-178.012	413.498	-0.201	-0.421
-176.998	103.847	0.146	-0.170
-175.983	-200.000	-0.023	-0.113
-174.969	-0.705	-0.136	-0.095
-173.954	253.787	0.114	0.192
-172.939	150.380	0.157	-0.211
-171.925	-128.065	-0.149	-0.021
-170.910	163.692	0.065	-0.090
-169.896	51.188	0.134	-0.126
-168.881	-59.368	0.149	0.063
-167.866	399.335	-0.060	0.125
-166.852	219.484	0.053	-0.084
-165.837	43.090	0.039	-0.035
-164.823	30.416	-0.319	0.269
-163.808	-7.458	-0.358	-0.239
-162.793	-105.917	0.426	0.095
-161.779	-82.433	-0.146	-0.047
-160.764	48.125	0.221	0.204
-159.750	-119.526	-0.458	-0.078
-158.735	-154.474	-0.085	-0.006
-157.720	105.396	-0.287	0.335
-156.706	148.732	-0.084	0.111
-155.691	-200.000	-0.014	0.089
-154.677	-86.544	0.434	-0.131
-153.662	-34.772	0.144	-0.077
-152.647	-200.000	0.027	0.339
-151.633	-145.389	0.227	-0.020
-150.618	-200.000	-0.015	0.146
-149.604	-49.454	0.142	-0.067
-148.589	587.809	-0.110	0.268
-147.574	-200.000	0.005	0.212
-146.560	-61.006	0.406	-0.169
-145.545	268.745	0.108	0.187
-144.531	122.521	-0.036	0.045
-143.516	-97.245	-0.452	-0.116
-142.502	-49.835	-0.110	-0.052
-141.487	11.358	0.327	0.247
-140.472	417.144	0.025	-0.054
-139.458	361.390	0.028	0.055
-138.443	35.264	-0.064	-0.055
-137.429	458.412	0.139	0.305
-136.414	-94.361	-0.269	0.073
-135.399	-136.264	0.283	0.033
-134.385	-8.203	-0.057	0.038
-133.370	-64.019	-0.081	-0.033
-132.356	223.454	0.146	-0.233
-131.341	-104.478	-0.143	-0.033
-130.326	-38.464	0.292	0.152
-129.312	-194.991	-0.300	-0.002
-128.297	-200.000	-0.101	0.455
-127.283	-200.000	0.004	-0.083
-126.268	15.105	-0.076	-0.059
-125.253	476.718	-0.056	0.126
-124.239	-80.206	-0.146	0.048
-123.224	87.766	-0.110	0.120
