DTS Sentinel unit serial number:	SN413079Multiplexer serial number:	ORYXHardware model number:	OX4-SRSoftware version number:	ORYX F/W v4.00 Oryx Data Collector v3.7.2.0data status	okinstallation	princeton_trtdifferential loss correction	single-endedforward channel	channel 2reverse channel	N/Adate	2019/09/13time	13:51:35forward acquisition time	60.00reverse acquisition time	0.00gamma	496.2192k internal	0.2314k external	0.2314temperature offset calibration	1.0206default loss term (dB/km)	0.3790temperature slope calibration	1.0000multiplexer offset coefficient	1.0000multiplexer slope coefficient	1.0000fibre end	0.00T internal ref (°C)	35.16T ext. ref 1 (°C)	4.57T ext. ref 2 (°C)	31.26length (m)	temperature (°C)	Stokes	anti-Stokes-747.200	800.000	-0.047	-0.172
-746.185	-198.365	-0.047	0.000
-745.171	800.000	-0.137	-0.432
-744.156	-97.442	-0.178	-0.047
-743.142	125.042	-0.198	0.252
-742.127	2.238	0.083	-0.061
-741.112	-103.227	-0.370	0.089
-740.098	800.000	-0.048	-0.157
-739.083	-158.143	0.376	0.022
-738.069	-200.000	0.047	0.266
-737.054	-6.820	0.146	-0.100
-736.039	-200.000	-0.042	-0.220
-735.025	-200.000	0.047	0.209
-734.010	-200.000	0.035	-0.234
-732.996	-25.149	0.152	0.091
-731.981	487.632	0.175	-0.404
-730.966	-87.693	0.292	-0.089
-729.952	67.490	-0.122	-0.127
-728.937	-66.182	-0.171	0.069
-727.923	-200.000	-0.024	0.267
-726.908	20.555	0.032	-0.026
-725.894	207.365	0.074	-0.117
-724.879	111.707	-0.090	0.110
-723.864	-200.000	0.061	0.345
-722.850	484.353	-0.056	0.129
-721.835	-72.876	-0.099	-0.037
-720.821	10.778	0.417	-0.323
-719.806	599.438	-0.113	0.285
-718.791	110.719	-0.199	-0.242
-717.777	-15.838	-0.171	0.110
-716.762	-25.849	0.098	0.059
-715.748	280.527	-0.233	-0.422
-714.733	-110.976	0.309	-0.064
-713.718	149.250	0.052	0.072
-712.704	-163.282	-0.234	0.011
-711.689	-200.000	-0.012	0.198
-710.675	12.478	0.280	0.218
-709.660	539.089	0.105	-0.252
-708.645	-191.298	-0.152	-0.002
-707.631	800.000	0.103	-0.314
-706.616	-74.995	-0.074	-0.027
-705.602	800.000	-0.072	-0.208
-704.587	492.844	0.033	-0.076
-703.572	-110.386	0.249	0.052
-702.558	140.751	0.214	-0.286
-701.543	92.998	-0.144	0.164
-700.529	-200.000	-0.034	0.271
-699.514	123.363	0.084	0.107
-698.499	613.335	0.084	-0.213
-697.485	-200.000	-0.013	0.086
-696.470	-200.000	-0.036	0.327
-695.456	-166.379	0.151	-0.006
-694.441	-21.661	-0.374	0.231
-693.426	-154.514	0.245	0.017
-692.412	698.920	0.052	-0.140
-691.397	-86.425	-0.314	0.098
-690.383	182.351	0.115	0.171
-689.368	-162.101	0.084	0.004
-688.354	620.444	0.199	-0.507
-687.339	-174.760	0.041	0.001
-686.324	-39.276	-0.328	-0.174
-685.310	736.652	0.118	-0.320
-684.295	-156.748	0.085	-0.005
-683.281	-34.303	-0.179	-0.099
-682.266	800.000	0.042	-0.123
-681.251	-9.524	-0.276	-0.186
-680.237	-200.000	-0.026	0.244
-679.222	-200.000	0.071	-0.318
-678.208	-200.000	0.017	-0.081
-677.193	-122.600	0.168	0.028
-676.178	158.865	0.068	-0.096
-675.164	-200.000	-0.081	0.361
-674.149	687.236	-0.069	0.181
-673.135	-18.051	-0.285	0.180
-672.120	70.406	0.105	-0.110
-671.105	-183.203	-0.241	0.004
-670.091	-137.484	0.080	0.009
-669.076	14.706	-0.182	-0.144
-668.062	-200.000	-0.039	-0.199
-667.047	800.000	-0.065	-0.221
-666.032	800.000	0.084	0.283
-665.018	35.539	-0.122	0.109
-664.003	-200.000	0.007	0.170
-662.989	49.243	-0.082	-0.078
-661.974	149.563	-0.107	-0.146
-660.959	-121.200	0.306	-0.052
-659.945	188.046	-0.227	-0.343
-658.930	118.966	-0.086	0.108
-657.916	497.581	-0.101	-0.235
-656.901	-40.737	0.217	-0.113
-655.886	-200.000	0.002	-0.076
-654.872	-22.617	-0.100	-0.061
-653.857	146.833	-0.140	-0.190
-652.843	-29.443	0.256	0.148
-651.828	-200.000	0.015	0.089
-650.814	6.059	0.130	0.097
-649.799	800.000	-0.037	-0.131
-648.784	707.291	-0.090	-0.240
-647.770	155.707	-0.203	-0.282
-646.755	-41.493	-0.154	-0.080
-645.741	-31.732	-0.150	0.085
-644.726	-200.000	-0.018	0.367
-643.711	7.514	-0.118	-0.089
-642.697	-200.000	0.004	-0.214
-641.682	75.333	0.202	-0.215
-640.668	11.999	-0.042	-0.033
-639.653	120.974	0.153	0.192
-638.638	-132.359	-0.161	-0.021
-637.624	25.681	0.217	0.182
-636.609	63.483	-0.142	-0.144
-635.595	-200.000	0.055	0.246
-634.580	-0.121	-0.117	-0.084
-633.565	-200.000	-0.076	0.350
-632.551	98.575	-0.269	-0.313
-631.536	576.715	-0.152	-0.375
-630.522	800.000	-0.123	0.445
-629.507	-30.055	-0.221	0.127
-628.492	-98.023	-0.114	-0.030
-627.478	800.000	-0.069	-0.290
-626.463	544.958	-0.071	-0.172
-625.449	-167.653	-0.269	-0.011
-624.434	159.242	0.111	0.156
-623.419	71.533	0.126	-0.132
-622.405	32.349	-0.317	0.276
-621.390	167.534	-0.198	-0.283
-620.376	-200.000	0.025	-0.154
-619.361	21.856	0.164	-0.135
-618.346	-200.000	-0.030	0.223
-617.332	-84.114	-0.149	0.048
-616.317	-200.000	0.056	-0.358
-615.303	-200.000	0.041	-0.241
-614.288	-22.372	0.322	-0.197
-613.273	325.460	0.176	0.339
-612.259	800.000	0.066	0.271
-611.244	-57.629	0.180	-0.079
-610.230	100.082	-0.069	-0.080
-609.215	19.404	-0.233	0.188
-608.201	241.238	-0.105	-0.176
-607.186	-74.804	0.153	0.055
-606.171	75.021	0.026	-0.028
-605.157	-200.000	-0.009	0.187
-604.142	-56.597	-0.203	0.091
-603.128	-82.996	-0.193	0.063
-602.113	11.978	0.106	0.082
-601.098	-200.000	0.014	0.184
-600.084	19.354	0.090	-0.073
-599.069	615.649	-0.085	-0.214
-598.055	-59.602	-0.080	0.035
-597.040	-200.000	-0.001	-0.372
-596.025	800.000	0.051	-0.177
-595.011	78.570	0.140	-0.150
-593.996	-44.895	0.299	0.150
-592.982	-99.851	0.117	-0.029
-591.967	25.666	-0.253	-0.212
-590.952	-84.997	-0.313	-0.099
-589.938	77.796	-0.139	0.149
-588.923	667.503	0.063	0.165
-587.909	-200.000	-0.047	-0.293
-586.894	-200.000	0.019	0.160
-585.879	81.565	0.210	-0.229
-584.865	3.779	0.135	-0.099
-583.850	727.829	-0.094	-0.253
-582.836	152.019	0.127	-0.175
-581.821	-3.312	-0.377	0.265
-580.806	131.436	0.140	-0.181
-579.792	152.065	-0.083	-0.114
-578.777	-200.000	-0.002	-0.312
-577.763	-94.748	0.177	-0.048
-576.748	800.000	-0.066	-0.193
-575.733	261.730	-0.034	0.059
-574.719	-187.661	0.094	0.001
-573.704	110.664	-0.179	0.216
-572.690	-28.711	0.254	0.147
-571.675	800.000	-0.028	0.105
-570.661	156.706	-0.218	-0.304
-569.646	142.279	0.078	0.104
-568.631	-61.792	0.197	0.083
-567.617	-200.000	0.035	0.323
-566.602	-97.430	-0.253	-0.066
-565.588	94.091	0.309	0.353
-564.573	800.000	-0.046	0.188
-563.558	-200.000	0.010	0.053
-562.544	-106.098	0.282	-0.064
-561.529	-163.882	-0.192	0.009
-560.515	-99.973	0.597	0.150
-559.500	-147.553	-0.262	-0.022
-558.485	4.779	0.135	0.100
-557.471	-5.084	-0.237	-0.164
-556.456	800.000	0.077	0.255
-555.442	286.453	0.088	-0.160
-554.427	-20.441	-0.053	-0.033
-553.412	-148.632	0.228	-0.019
-552.398	-67.654	-0.234	0.092
-551.383	-41.726	0.339	-0.175
-550.369	-52.747	0.183	0.085
-549.354	-6.904	-0.145	-0.099
-548.339	47.198	0.143	-0.134
-547.325	54.186	0.149	0.144
-546.310	59.664	0.086	0.085
-545.296	800.000	-0.017	0.065
-544.281	800.000	-0.076	-0.262
-543.266	-200.000	0.128	-0.000
-542.252	143.316	-0.153	0.205
-541.237	-18.677	0.072	0.045
-540.223	-59.469	0.112	0.049
-539.208	-200.000	-0.012	0.127
-538.193	-90.044	0.340	-0.100
-537.179	-200.000	-0.007	0.046
-536.164	5.173	0.112	0.083
-535.150	-200.000	-0.050	-0.274
-534.135	-200.000	0.051	-0.229
-533.121	45.284	0.261	0.242
-532.106	-53.161	0.092	-0.043
-531.091	-55.583	-0.200	0.090
-530.077	436.395	-0.121	0.264
-529.062	-96.643	0.119	-0.031
-528.048	800.000	0.077	0.267
-527.033	-69.881	-0.434	0.167
-526.018	-200.000	0.002	-0.240
-525.004	104.225	0.141	0.167
-523.989	-76.517	-0.114	-0.040
-522.975	-9.892	0.238	-0.159
-521.960	65.212	-0.106	0.108
-520.945	-200.000	0.004	0.171
-519.931	-158.373	-0.235	0.014
-518.916	-129.882	-0.382	0.053
-517.902	-66.512	-0.098	0.039
-516.887	-10.506	-0.255	0.170
-515.872	-200.000	-0.023	-0.149
-514.858	-200.000	-0.028	-0.195
-513.843	-200.000	-0.040	0.226
-512.829	155.642	0.127	0.176
-511.814	800.000	-0.061	0.191
-510.799	-200.000	0.034	-0.234
-509.785	15.975	-0.069	0.055
-508.770	6.759	-0.091	0.068
-507.756	-8.441	-0.124	0.084
-506.741	800.000	-0.021	0.073
-505.726	-143.138	0.252	-0.024
-504.712	-26.770	0.280	0.164
-503.697	-200.000	0.057	0.298
-502.683	-32.484	0.319	0.178
-501.668	317.800	-0.082	-0.156
-500.653	-132.802	0.277	0.036
-499.639	-2.542	0.063	0.044
-498.624	581.096	0.029	-0.071
-497.610	800.000	0.072	-0.285
-496.595	-200.000	-0.067	0.424
-495.581	589.775	-0.052	0.128
-494.566	-33.642	0.092	0.051
-493.551	10.248	-0.232	0.177
-492.537	-200.000	0.019	-0.189
-491.522	800.000	0.062	0.226
-490.508	-200.000	0.001	0.059
-489.493	-19.156	-0.154	0.096
-488.478	113.489	0.095	-0.116
-487.464	800.000	0.071	0.248
-486.449	-55.334	-0.253	-0.114
-485.435	31.573	-0.088	-0.076
-484.420	-110.693	0.164	0.034
-483.405	-200.000	0.035	0.215
-482.391	-200.000	0.005	-0.138
-481.376	800.000	0.042	-0.131
-480.362	-153.977	-0.178	0.012
-479.347	167.638	-0.015	-0.022
-478.332	-200.000	0.036	0.173
-477.318	160.937	-0.192	-0.270
-476.303	800.000	0.086	0.275
-475.289	-200.000	-0.009	0.121
-474.274	-108.037	-0.571	0.124
-473.259	-35.930	0.086	-0.046
-472.245	273.116	0.140	-0.248
-471.230	372.193	-0.135	-0.275
-470.216	800.000	0.065	-0.216
-469.201	-172.889	0.093	-0.003
-468.186	-105.592	0.047	0.011
-467.172	204.013	-0.058	0.091
-466.157	800.000	-0.083	0.287
-465.143	347.809	-0.169	0.334
-464.128	800.000	0.062	0.252
-463.113	50.241	0.066	0.062
-462.099	128.831	-0.113	0.144
-461.084	513.954	-0.018	0.041
-460.070	-200.000	-0.024	0.205
-459.055	-153.227	-0.409	0.029
-458.040	135.498	0.034	0.044
-457.026	-149.495	-0.102	-0.008
-456.011	105.067	0.127	0.150
-454.997	-95.427	0.471	-0.127
-453.982	676.928	-0.075	0.196
-452.968	-200.000	0.013	0.173
-451.953	390.264	0.072	-0.149
-450.938	800.000	0.030	0.122
-449.924	11.511	0.202	0.155
-448.909	-184.007	-0.500	-0.008
-447.895	-60.364	0.216	0.092
-446.880	-60.769	0.362	0.154
-445.865	2.281	0.295	0.213
-444.851	-89.994	-0.309	-0.090
-443.836	800.000	-0.060	-0.176
-442.822	-200.000	0.036	-0.216
-441.807	800.000	0.014	0.051
-440.792	351.060	0.192	-0.381
-439.778	-116.904	-0.334	-0.061
-438.763	800.000	-0.057	-0.163
-437.749	-200.000	-0.008	-0.100
-436.734	-7.731	-0.329	0.222
-435.719	45.689	-0.217	0.201
-434.705	800.000	0.079	0.307
-433.690	-138.247	0.277	0.031
-432.676	412.313	-0.067	0.142
-431.661	48.964	0.109	-0.102
-430.646	205.688	-0.036	0.057
-429.632	-200.000	-0.021	-0.305
-428.617	-200.000	-0.017	-0.239
-427.603	55.564	0.238	-0.231
-426.588	188.424	0.091	-0.136
-425.573	-100.612	0.260	-0.064
-424.559	-0.975	-0.023	0.016
-423.544	296.471	0.165	0.303
-422.530	-200.000	0.022	-0.244
-421.515	144.168	0.073	0.098
-420.500	697.847	-0.075	0.196
-419.486	-78.324	-0.218	-0.075
-418.471	428.697	-0.055	-0.119
-417.457	99.458	-0.149	0.172
-416.442	407.929	-0.122	0.258
-415.428	-70.644	0.303	0.115
-414.413	-136.295	0.273	-0.032
-413.398	-77.016	-0.269	-0.094
-412.384	209.988	-0.086	-0.135
-411.369	-116.492	-0.183	-0.034
-410.355	130.624	-0.061	-0.078
-409.340	-104.170	0.167	0.039
-408.325	-19.771	0.175	0.108
-407.311	564.400	0.105	-0.255
-406.296	119.284	-0.136	-0.169
-405.282	-50.336	-0.303	-0.143
-404.267	77.770	-0.026	0.027
-403.252	-123.524	-0.173	0.028
-402.238	42.906	0.191	0.174
-401.223	800.000	-0.045	-0.180
-400.209	132.549	-0.260	0.336
-399.194	685.109	-0.099	0.259
-398.179	71.268	-0.049	0.051
-397.165	-200.000	-0.003	-0.177
-396.150	30.480	0.260	0.222
-395.136	302.708	-0.204	0.377
-394.121	715.115	0.078	-0.206
-393.106	-200.000	0.035	-0.189
-392.092	-200.000	-0.030	-0.227
-391.077	-200.000	-0.005	-0.032
-390.063	-14.320	0.204	0.131
-389.048	-58.098	0.245	-0.107
-388.033	-200.000	0.050	0.362
-387.019	150.256	0.170	0.231
-386.004	-58.481	-0.275	0.119
-384.990	-28.805	0.231	0.133
-383.975	-200.000	-0.366	0.000
-382.960	127.986	-0.276	-0.351
-381.946	186.452	-0.133	0.197
-380.931	-67.089	0.257	0.101
-379.917	582.490	0.018	-0.043
-378.902	-200.000	0.004	0.108
-377.888	54.789	-0.159	-0.154
-376.873	-14.321	-0.280	0.180
-375.858	166.190	0.095	0.134
-374.844	-115.071	0.062	0.012
-373.829	144.198	-0.118	-0.157
-372.815	20.957	-0.169	0.137
-371.800	-72.918	-0.301	-0.111
-370.785	-127.141	-0.112	-0.016
-369.771	-200.000	0.002	0.185
-368.756	-94.075	0.219	-0.060
-367.742	67.513	-0.025	0.026
-366.727	-41.754	-0.199	0.102
-365.712	31.500	-0.228	0.196
-364.698	-200.000	-0.027	-0.144
-363.683	62.727	-0.184	0.184
-362.669	-182.302	-0.273	-0.005
-361.654	-200.000	0.078	-0.351
-360.639	0.507	0.189	0.135
-359.625	-76.436	-0.181	0.064
-358.610	70.268	-0.181	-0.186
-357.596	215.373	0.055	0.087
-356.581	-3.670	0.165	0.114
-355.566	435.005	0.041	0.090
-354.552	-200.000	-0.029	0.315
-353.537	193.139	-0.114	-0.172
-352.523	-132.853	0.097	-0.012
-351.508	192.087	0.044	0.066
-350.493	-37.946	-0.363	0.193
-349.479	-49.115	0.171	0.081
-348.464	22.239	-0.231	0.188
-347.450	179.711	0.186	-0.272
-346.435	800.000	-0.072	-0.252
-345.420	-88.773	-0.380	-0.112
-344.406	20.462	0.163	-0.132
-343.391	200.489	-0.150	-0.230
-342.377	800.000	0.040	-0.172
-341.362	-200.000	0.017	-0.204
-340.348	-200.000	0.053	0.268
-339.333	15.039	-0.247	-0.193
-338.318	-99.928	-0.152	-0.038
-337.304	-200.000	0.043	-0.455
-336.289	111.253	-0.074	-0.089
-335.275	-21.135	0.164	-0.100
-334.260	595.486	0.141	0.349
-333.245	-200.000	-0.059	0.573
-332.231	-108.162	0.056	0.012
-331.216	41.631	0.071	-0.064
-330.202	-129.709	-0.160	-0.022
-329.187	-58.162	0.131	-0.057
-328.172	137.330	0.079	-0.103
-327.158	-114.514	0.176	-0.034
-326.143	203.276	-0.098	-0.152
-325.129	800.000	-0.054	0.167
-324.114	271.475	-0.103	-0.180
-323.099	40.722	0.275	-0.247
-322.085	800.000	-0.073	0.288
-321.070	-110.904	-0.240	-0.049
-320.056	-136.773	-0.231	-0.027
-319.041	-9.567	0.357	0.237
-318.026	-21.065	-0.144	-0.088
-317.012	800.000	0.024	0.100
-315.997	-8.520	0.120	0.081
-314.983	800.000	0.037	-0.114
-313.968	-1.022	0.008	0.006
-312.953	-2.921	0.107	-0.075
-311.939	713.429	0.043	-0.114
-310.924	97.491	-0.104	-0.119
-309.910	-52.887	-0.139	0.064
-308.895	244.051	0.167	0.280
-307.880	-193.681	0.300	-0.003
-306.866	-1.515	0.018	-0.012
-305.851	800.000	-0.067	-0.213
-304.837	-200.000	-0.043	-0.268
-303.822	-88.279	-0.177	0.053
-302.807	248.109	-0.198	-0.334
-301.793	-102.496	-0.042	-0.010
-300.778	-61.832	0.163	0.068
-299.764	271.587	0.159	-0.280
-298.749	-175.176	0.170	-0.005
-297.735	263.435	0.210	-0.363
-296.720	-83.807	0.119	-0.038
-295.705	29.035	0.193	-0.163
-294.691	197.648	0.118	-0.179
-293.676	-200.000	-0.007	0.139
-292.662	-111.406	0.122	0.025
-291.647	9.020	0.046	-0.035
-290.632	92.048	-0.119	0.134
-289.618	-51.854	0.169	0.078
-288.603	-200.000	-0.003	-0.056
-287.589	-59.409	-0.229	0.098
-286.574	278.142	0.114	0.202
-285.559	-116.123	0.268	0.050
-284.545	800.000	-0.034	0.108
-283.530	-200.000	0.024	-0.219
-282.516	-200.000	-0.022	-0.236
-281.501	-171.154	0.345	-0.012
-280.486	800.000	0.009	0.024
-279.472	-13.337	-0.015	0.009
-278.457	-125.338	0.066	0.010
-277.443	-115.934	0.178	0.033
-276.428	-94.375	0.078	0.021
-275.413	577.806	-0.100	-0.243
-274.399	29.663	0.140	0.119
-273.384	-53.320	-0.217	0.099
-272.370	29.345	-0.078	0.066
-271.355	-139.465	-0.203	-0.022
-270.340	22.491	-0.242	-0.197
-269.326	-92.490	-0.385	-0.108
-268.311	-200.000	-0.008	-0.062
-267.297	364.083	-0.063	-0.126
-266.282	-40.609	0.190	0.098
-265.267	144.247	0.318	0.422
-264.253	231.716	-0.170	-0.277
-263.238	65.526	-0.021	0.021
-262.224	-200.000	0.029	0.137
-261.209	-20.811	0.254	0.155
-260.195	-200.000	0.008	-0.251
-259.180	212.368	-0.169	0.264
-258.165	-81.947	0.537	-0.174
-257.151	800.000	-0.088	-0.326
-256.136	111.997	0.113	-0.136
-255.122	365.589	0.150	0.300
-254.107	45.939	-0.172	-0.158
-253.092	102.531	0.091	-0.106
-252.078	-113.624	0.157	0.030
-251.063	14.011	-0.261	-0.202
-250.049	-130.898	-0.241	-0.032
-249.034	-27.013	0.091	0.053
-248.019	-118.661	-0.108	-0.019
-247.005	-143.657	0.484	-0.046
-245.990	-82.373	-0.130	0.042
-244.976	-148.155	0.436	0.036
-243.961	-9.454	-0.128	-0.085
-242.946	-144.615	-0.130	-0.012
-241.932	-200.000	0.018	0.096
-240.917	85.286	0.071	0.078
-239.903	-160.598	0.186	-0.010
-238.888	197.248	-0.066	-0.101
-237.873	3.556	0.367	0.266
-236.859	155.637	-0.019	-0.027
-235.844	84.179	0.043	-0.046
-234.830	-200.000	-0.017	0.146
-233.815	-156.821	0.217	-0.013
-232.800	99.160	0.225	-0.259
-231.786	52.469	-0.096	-0.091
-230.771	167.479	-0.173	-0.244
-229.757	-200.000	-0.040	-0.207
-228.742	80.876	0.145	-0.155
-227.727	-200.000	-0.012	0.123
-226.713	169.019	0.076	0.108
-225.698	50.489	-0.131	0.123
-224.684	-200.000	0.012	-0.164
-223.669	800.000	0.060	-0.192
-222.655	-151.633	0.180	0.013
-221.640	-45.343	0.090	-0.044
-220.625	139.219	-0.224	-0.293
-219.611	3.564	0.158	-0.115
-218.596	159.785	-0.127	0.175
-217.582	353.394	0.123	-0.242
-216.567	251.517	0.206	-0.348
-215.552	380.610	0.125	-0.254
-214.538	-124.296	0.088	0.014
-213.523	-4.049	-0.307	0.211
-212.509	760.716	0.125	-0.337
-211.494	-164.920	0.115	0.005
-210.479	16.851	-0.215	-0.169
-209.465	-77.201	-0.235	-0.081
-208.450	302.323	-0.064	0.118
-207.436	-46.850	-0.128	0.062
-206.421	800.000	0.064	-0.278
-205.406	-38.052	-0.325	0.171
-204.392	-87.388	0.526	-0.158
-203.377	123.160	-0.112	0.140
-202.363	114.328	0.207	-0.250
-201.348	800.000	-0.072	0.262
-200.333	-40.110	-0.128	-0.066
-199.319	-105.827	-0.172	-0.039
-198.304	-2.705	0.282	-0.196
-197.290	506.535	-0.051	0.118
-196.275	179.344	-0.018	0.027
-195.260	-200.000	0.029	0.489
-194.246	279.137	-0.047	0.083
-193.231	-200.000	0.008	0.063
-192.217	28.193	0.090	-0.076
-191.202	700.465	0.058	0.153
-190.187	26.451	-0.129	0.107
-189.173	344.146	0.050	0.097
-188.158	-114.471	0.115	0.022
-187.144	-70.018	0.060	-0.023
-186.129	-94.008	0.152	0.041
-185.114	61.006	-0.090	0.089
-184.100	-17.812	0.032	0.020
-183.085	-200.000	0.001	0.354
-182.071	-200.000	0.010	-0.126
-181.056	77.315	0.154	-0.163
-180.042	-200.000	-0.007	0.215
-179.027	176.466	0.189	0.272
-178.012	-66.296	-0.428	-0.169
-176.998	-142.445	-0.123	-0.012
-175.983	509.209	-0.122	0.281
-174.969	88.230	0.070	0.077
-173.954	448.793	0.123	0.268
-172.939	-200.000	0.005	0.166
-171.925	-39.776	0.282	0.146
-170.910	110.833	0.099	0.118
-169.896	190.299	-0.196	-0.292
-168.881	-200.000	-0.036	-0.231
-167.866	325.065	-0.028	-0.052
-166.852	-85.837	0.086	0.026
-165.837	266.103	0.066	0.113
-164.823	-10.380	0.434	-0.285
-163.808	135.956	-0.169	-0.218
-162.793	61.807	-0.209	-0.206
-161.779	-50.062	0.184	-0.086
-160.764	-200.000	-0.028	0.283
-159.750	-200.000	-0.036	-0.158
-158.735	-200.000	-0.013	0.083
-157.720	5.272	-0.447	0.327
-156.706	800.000	0.071	-0.255
-155.691	-55.414	0.179	0.080
-154.677	331.161	-0.014	0.027
-153.662	-200.000	0.008	-0.070
-152.647	-200.000	0.021	-0.295
-151.633	-121.900	-0.273	0.044
-150.618	5.825	-0.199	-0.146
-149.604	173.936	0.198	0.283
-148.589	-200.000	0.027	-0.352
-147.574	93.966	0.260	0.292
-146.560	331.903	-0.054	0.104
-145.545	50.471	-0.291	0.273
-144.531	-123.196	0.175	-0.028
-143.516	800.000	0.088	-0.295
-142.502	-121.547	0.249	0.041
-141.487	-20.588	0.098	0.060
-140.472	800.000	-0.132	-0.447
-139.458	800.000	-0.045	-0.149
-138.443	-49.896	0.089	0.042
-137.429	5.172	-0.197	0.144
-136.414	-85.470	-0.159	-0.049
-135.399	-200.000	-0.002	0.175
-134.385	800.000	0.069	-0.232
-133.370	-75.317	0.220	0.078
-132.356	-100.185	-0.233	0.057
-131.341	259.503	-0.108	0.184
-130.326	-40.980	-0.353	0.181
-129.312	800.000	0.073	0.200
-128.297	-124.830	-0.213	-0.033
-127.283	6.013	-0.161	-0.118
-126.268	10.102	0.114	0.086
-125.253	-47.051	-0.180	-0.087
-124.239	-6.248	0.073	-0.049
-123.224	-69.843	0.165	0.062
-122.210	-12.290	0.158	-0.102
-121.195	-104.346	0.067	0.015
-120.180	-200.000	0.000	0.054
