DTS Sentinel unit serial number:	SN413079Multiplexer serial number:	ORYXHardware model number:	OX4-SRSoftware version number:	ORYX F/W v4.00 Oryx Data Collector v3.7.2.0data status	okinstallation	princeton_trtdifferential loss correction	single-endedforward channel	channel 2reverse channel	N/Adate	2019/09/14time	17:11:34forward acquisition time	60.00reverse acquisition time	0.00gamma	496.2192k internal	0.2308k external	0.2308temperature offset calibration	1.0120default loss term (dB/km)	0.3790temperature slope calibration	1.0000multiplexer offset coefficient	1.0000multiplexer slope coefficient	1.0000fibre end	0.00T internal ref (°C)	37.94T ext. ref 1 (°C)	5.03T ext. ref 2 (°C)	32.71length (m)	temperature (°C)	Stokes	anti-Stokes-747.200	-191.865	-0.494	-0.005
-746.185	159.156	-0.082	0.116
-745.171	259.029	-0.108	0.190
-744.156	443.408	0.028	0.063
-743.142	-21.405	0.195	0.121
-742.127	382.454	-0.127	0.266
-741.112	-166.066	-0.089	0.004
-740.098	800.000	-0.089	0.293
-739.083	-60.987	0.241	-0.103
-738.069	273.496	-0.137	-0.245
-737.054	279.934	0.057	-0.103
-736.039	-149.415	-0.094	-0.008
-735.025	75.093	-0.194	-0.208
-734.010	-93.224	0.087	0.025
-732.996	800.000	-0.106	-0.348
-731.981	-97.718	-0.279	0.073
-730.966	122.694	0.169	0.215
-729.952	93.763	-0.176	-0.203
-728.937	-42.869	0.038	0.020
-727.923	-200.000	-0.181	-0.000
-726.908	800.000	0.069	0.227
-725.894	135.544	-0.126	-0.166
-724.879	104.590	-0.225	-0.270
-723.864	-27.929	-0.139	0.082
-722.850	-3.841	0.311	-0.219
-721.835	-39.551	-0.146	-0.078
-720.821	-154.781	0.029	-0.002
-719.806	-62.043	-0.052	0.022
-718.791	800.000	-0.012	0.038
-717.777	-85.887	0.437	-0.138
-716.762	-2.062	0.098	0.070
-715.748	-119.860	0.115	0.020
-714.733	800.000	0.082	-0.261
-713.718	-200.000	0.128	0.000
-712.704	-139.383	-0.115	-0.012
-711.689	-200.000	0.014	-0.233
-710.675	294.967	0.052	0.097
-709.660	2.617	-0.078	-0.058
-708.645	750.146	0.113	0.308
-707.631	147.023	-0.081	-0.111
-706.616	-12.147	-0.055	-0.037
-705.602	276.925	0.113	-0.204
-704.587	-132.551	-0.222	-0.029
-703.572	-14.356	-0.245	-0.160
-702.558	67.879	-0.045	0.046
-701.543	210.122	0.062	-0.099
-700.529	-109.649	0.586	0.125
-699.514	800.000	-0.101	-0.416
-698.499	-79.221	0.120	0.041
-697.485	-200.000	0.078	0.425
-696.470	-47.445	0.119	0.059
-695.456	79.202	-0.193	-0.210
-694.441	330.943	-0.036	-0.070
-693.426	-110.336	0.143	0.030
-692.412	316.062	-0.198	0.380
-691.397	-200.000	0.011	-0.116
-690.383	-138.939	-0.127	-0.014
-689.368	1.908	-0.168	-0.123
-688.354	800.000	0.103	-0.429
-687.339	398.246	0.117	0.249
-686.324	96.048	0.187	0.217
-685.310	434.495	0.101	-0.224
-684.295	-200.000	-0.031	-0.210
-683.281	669.020	-0.014	-0.036
-682.266	-59.621	-0.242	-0.105
-681.251	-108.871	0.242	-0.052
-680.237	-13.320	-0.100	0.066
-679.222	-200.000	-0.011	-0.236
-678.208	26.605	-0.292	0.248
-677.193	144.628	0.242	-0.328
-676.178	241.270	0.085	0.144
-675.164	307.999	0.183	-0.347
-674.149	-151.165	-0.045	-0.003
-673.135	66.412	-0.249	-0.256
-672.120	320.257	-0.189	0.364
-671.105	-200.000	0.016	-0.083
-670.091	99.485	-0.124	0.145
-669.076	-58.584	-0.305	0.134
-668.062	-100.189	0.200	0.050
-667.047	86.627	-0.094	-0.105
-666.032	-161.165	-0.419	-0.022
-665.018	-155.212	-0.105	0.007
-664.003	132.506	-0.187	-0.244
-662.989	-200.000	-0.050	0.395
-661.974	59.034	-0.120	0.120
-660.959	-155.010	-0.099	0.007
-659.945	-200.000	-0.007	0.248
-658.930	800.000	-0.128	-0.414
-657.916	51.090	0.137	-0.132
-656.901	31.242	-0.152	0.132
-655.886	12.468	0.065	-0.050
-654.872	-180.779	0.263	0.005
-653.857	203.295	-0.236	0.370
-652.843	800.000	-0.014	0.044
-651.828	-49.141	-0.190	-0.092
-650.814	-35.758	0.131	0.072
-649.799	-133.806	0.241	-0.030
-648.784	105.465	0.017	0.020
-647.770	-24.341	-0.117	-0.071
-646.755	-87.592	-0.321	-0.098
-645.741	-25.253	0.181	-0.109
-644.726	-50.926	0.267	0.127
-643.711	-48.830	0.259	-0.126
-642.697	229.714	0.141	0.233
-641.682	-113.570	0.405	0.080
-640.668	800.000	-0.041	0.137
-639.653	114.609	0.146	-0.181
-638.638	147.237	-0.142	-0.193
-637.624	472.053	-0.109	0.248
-636.609	-123.746	-0.157	-0.025
-635.595	-200.000	-0.047	-0.368
-634.580	-40.753	-0.101	0.053
-633.565	800.000	-0.034	0.106
-632.551	28.699	-0.126	-0.108
-631.536	-13.926	0.244	-0.160
-630.522	108.350	0.067	0.081
-629.507	30.198	-0.230	0.199
-628.492	67.006	0.181	0.186
-627.478	406.890	0.082	-0.176
-626.463	8.173	0.226	0.171
-625.449	89.791	-0.037	0.042
-624.434	-33.886	0.223	-0.124
-623.419	252.621	0.056	-0.097
-622.405	-29.471	-0.208	-0.120
-621.390	373.835	-0.104	-0.215
-620.376	-200.000	0.008	0.036
-619.361	-200.000	0.011	-0.202
-618.346	36.760	-0.114	0.102
-617.332	800.000	-0.059	0.179
-616.317	7.951	-0.118	-0.089
-615.303	-124.880	0.064	-0.010
-614.288	-29.761	0.363	0.209
-613.273	563.827	0.056	0.138
-612.259	317.225	-0.081	0.156
-611.244	366.041	0.093	-0.190
-610.230	-200.000	0.048	0.385
-609.215	800.000	-0.108	0.324
-608.201	-63.553	0.270	0.112
-607.186	-130.079	-0.405	-0.056
-606.171	-10.278	0.143	0.096
-605.157	-58.023	0.078	-0.035
-604.142	204.259	-0.057	-0.089
-603.128	213.626	0.033	-0.053
-602.113	-55.354	-0.128	0.058
-601.098	800.000	-0.069	-0.199
-600.084	-6.582	0.315	-0.217
-599.069	276.685	-0.029	-0.052
-598.055	-126.334	0.133	-0.020
-597.040	-34.211	0.256	0.142
-596.025	21.556	-0.288	-0.237
-595.011	140.360	-0.073	-0.098
-593.996	-163.762	0.314	-0.015
-592.982	32.163	-0.037	0.032
-591.967	305.864	-0.129	-0.243
-590.952	271.120	0.185	0.328
-589.938	-12.054	0.028	-0.018
-588.923	118.883	0.166	0.207
-587.909	23.237	-0.246	-0.204
-586.894	127.640	-0.167	0.214
-585.879	800.000	-0.133	0.483
-584.865	236.310	-0.056	0.093
-583.850	-118.781	-0.045	-0.008
-582.836	800.000	0.027	0.093
-581.821	-59.932	-0.192	-0.083
-580.806	-200.000	-0.039	-0.345
-579.792	-115.679	0.232	-0.044
-578.777	-200.000	0.037	0.420
-577.763	248.943	0.084	-0.143
-576.748	-18.272	-0.234	-0.148
-575.733	-160.569	-0.167	0.009
-574.719	146.195	-0.300	-0.407
-573.704	-37.764	0.123	-0.066
-572.690	-200.000	-0.015	-0.107
-571.675	-137.684	-0.092	0.010
-570.661	85.433	0.152	0.169
-569.646	132.473	0.175	-0.228
-568.631	-8.751	-0.343	-0.232
-567.617	-200.000	0.064	-0.424
-566.602	-128.413	-0.050	0.007
-565.588	-105.830	-0.100	0.023
-564.573	-200.000	0.001	0.090
-563.558	194.090	-0.186	-0.284
-562.544	-23.854	0.115	-0.070
-561.529	64.155	0.099	-0.101
-560.515	744.899	0.090	0.245
-559.500	-71.998	-0.144	-0.054
-558.485	272.013	0.123	-0.219
-557.471	737.251	0.075	0.202
-556.456	-190.064	-0.028	-0.000
-555.442	7.967	-0.087	-0.066
-554.427	800.000	0.037	0.128
-553.412	-200.000	-0.030	-0.157
-552.398	-144.479	-0.218	-0.020
-551.383	800.000	0.033	0.100
-550.369	-200.000	0.033	0.226
-549.354	-200.000	-0.024	0.328
-548.339	15.611	-0.207	-0.164
-547.325	-73.186	-0.177	0.065
-546.310	-200.000	0.059	0.273
-545.296	142.726	-0.086	0.115
-544.281	300.433	-0.106	0.198
-543.266	93.275	0.247	-0.282
-542.252	-101.221	0.328	-0.081
-541.237	27.629	-0.147	-0.124
-540.223	-64.709	0.126	-0.051
-539.208	33.749	-0.132	0.116
-538.193	-101.959	-0.219	-0.053
-537.179	-76.172	-0.059	0.021
-536.164	-77.332	0.121	-0.042
-535.150	800.000	0.081	0.286
-534.135	-65.159	0.118	-0.048
-533.121	55.093	0.271	0.264
-532.106	800.000	-0.079	0.230
-531.091	308.742	0.155	0.291
-530.077	-200.000	-0.006	0.067
-529.062	262.954	-0.148	-0.258
-528.048	-130.360	-0.384	-0.053
-527.033	-200.000	0.002	0.158
-526.018	-120.683	-0.068	-0.012
-525.004	-121.349	-0.174	-0.029
-523.989	416.674	-0.066	-0.142
-522.975	-191.432	-0.181	-0.002
-521.960	229.203	-0.363	-0.597
-520.945	40.028	0.073	-0.066
-519.931	26.394	0.255	-0.215
-518.916	-78.728	-0.368	0.127
-517.902	-200.000	-0.037	0.257
-516.887	66.241	-0.241	-0.247
-515.872	310.396	-0.172	-0.323
-514.858	-200.000	-0.037	0.306
-513.843	-102.241	0.224	0.054
-512.829	-200.000	0.001	-0.078
-511.814	282.523	0.096	-0.173
-510.799	-200.000	0.011	-0.242
-509.785	629.796	0.076	0.193
-508.770	-43.717	-0.167	-0.085
-507.756	188.181	-0.025	-0.038
-506.741	191.882	-0.042	0.064
-505.726	-200.000	-0.009	0.083
-504.712	308.395	0.105	-0.198
-503.697	88.458	0.087	-0.097
-502.683	-67.098	0.195	0.077
-501.668	800.000	0.035	0.120
-500.653	800.000	0.073	-0.285
-499.639	-28.961	-0.085	-0.049
-498.624	-62.967	-0.316	0.132
-497.610	-118.004	-0.207	0.037
-496.595	113.111	-0.035	-0.042
-495.581	718.740	0.036	-0.095
-494.566	8.509	-0.148	-0.112
-493.551	800.000	0.083	-0.278
-492.537	-200.000	-0.001	0.128
-491.522	800.000	0.067	0.256
-490.508	-200.000	-0.017	0.165
-489.493	-200.000	-0.040	-0.404
-488.478	-200.000	0.019	-0.092
-487.464	274.337	-0.114	-0.203
-486.449	-173.626	0.091	0.003
-485.435	217.611	-0.162	-0.259
-484.420	41.804	-0.317	-0.289
-483.405	-71.600	0.121	-0.045
-482.391	-200.000	0.016	0.076
-481.376	-139.699	-0.324	0.035
-480.362	-200.000	0.068	-0.376
-479.347	800.000	0.057	0.174
-478.332	800.000	-0.074	0.208
-477.318	184.194	-0.071	-0.105
-476.303	-31.150	-0.151	0.085
-475.289	-200.000	-0.058	-0.261
-474.274	279.318	-0.188	-0.337
-473.259	-115.200	-0.266	-0.051
-472.245	152.418	-0.159	0.218
-471.230	168.438	0.185	0.265
-470.216	800.000	0.028	0.083
-469.201	-56.927	0.199	-0.088
-468.186	-200.000	0.040	0.216
-467.172	800.000	-0.134	0.387
-466.157	-200.000	-0.029	0.242
-465.143	-73.814	0.174	-0.063
-464.128	-189.186	-0.303	-0.004
-463.113	383.901	0.056	-0.115
-462.099	-158.191	0.239	0.014
-461.084	-52.899	0.172	-0.080
-460.070	-200.000	0.181	-0.001
-459.055	217.748	-0.098	0.157
-458.040	26.995	0.269	0.227
-457.026	358.135	0.065	0.130
-456.011	-105.241	-0.165	-0.038
-454.997	-146.097	-0.427	-0.038
-453.982	-141.907	0.253	0.025
-452.968	-161.118	0.491	0.026
-451.953	800.000	0.011	0.033
-450.938	-200.000	-0.007	0.135
-449.924	528.896	0.051	-0.121
-448.909	97.712	-0.161	-0.186
-447.895	-20.920	0.082	-0.050
-446.880	131.245	0.118	-0.153
-445.865	-200.000	-0.007	0.047
-444.851	-152.308	0.436	-0.032
-443.836	140.894	0.016	-0.021
-442.822	-57.806	-0.216	0.095
-441.807	-27.435	0.243	0.142
-440.792	28.517	-0.106	0.090
-439.778	800.000	-0.050	-0.141
-438.763	-134.130	0.103	0.013
-437.749	-121.493	0.151	0.025
-436.734	137.865	0.173	-0.227
-435.719	-128.574	0.194	-0.028
-434.705	19.615	-0.038	0.031
-433.690	-119.576	0.253	-0.044
-432.676	216.450	-0.050	-0.080
-431.661	35.354	0.109	0.096
-430.646	800.000	-0.101	0.286
-429.632	800.000	-0.094	-0.331
-428.617	743.203	-0.072	-0.195
-427.603	63.346	0.213	0.214
-426.588	333.764	0.063	-0.123
-425.573	800.000	-0.081	-0.251
-424.559	800.000	-0.041	-0.174
-423.544	80.311	0.165	0.179
-422.530	-90.622	0.279	-0.081
-421.515	-120.331	-0.208	0.036
-420.500	741.796	0.211	0.570
-419.486	-134.206	0.284	-0.035
-418.471	332.705	0.068	0.132
-417.457	107.526	0.217	0.260
-416.442	-33.085	-0.262	-0.146
-415.428	493.863	0.124	-0.285
-414.413	-71.282	-0.206	-0.077
-413.398	39.059	0.086	-0.077
-412.384	171.278	-0.068	0.098
-411.369	-49.243	-0.150	0.072
-410.355	-200.000	0.041	0.388
-409.340	81.724	0.070	-0.076
-408.325	164.184	-0.063	-0.089
-407.311	454.248	0.011	-0.024
-406.296	-83.276	0.180	0.058
-405.282	-97.697	0.175	0.045
-404.267	373.036	-0.026	0.053
-403.252	-200.000	-0.005	-0.123
-402.238	393.432	0.148	-0.309
-401.223	166.917	-0.131	0.186
-400.209	-200.000	0.006	-0.153
-399.194	-32.904	0.155	0.086
-398.179	-15.676	-0.077	-0.050
-397.165	800.000	-0.073	-0.282
-396.150	-11.798	-0.100	0.066
-395.136	-200.000	0.035	-0.246
-394.121	-78.476	-0.157	-0.054
-393.106	-200.000	-0.060	-0.286
-392.092	184.262	0.109	0.162
-391.077	800.000	-0.035	-0.153
-390.063	-61.604	-0.212	-0.089
-389.048	740.225	-0.061	0.164
-388.033	-29.389	0.150	-0.086
-387.019	252.942	-0.231	-0.396
-386.004	-200.000	0.008	-0.171
-384.990	-57.658	0.073	0.032
-383.975	-31.621	-0.265	0.149
-382.960	328.428	-0.093	0.180
-381.946	260.932	0.139	-0.241
-380.931	128.006	-0.119	-0.152
-379.917	-40.939	0.213	0.110
-378.902	-67.446	0.333	-0.131
-377.888	68.362	0.080	0.082
-376.873	-200.000	-0.019	0.126
-375.858	-96.756	-0.306	-0.081
-374.844	66.335	-0.028	-0.029
-373.829	-38.115	0.183	-0.097
-372.815	-5.708	-0.188	-0.129
-371.800	-200.000	0.017	0.103
-370.785	-200.000	-0.101	0.463
-369.771	195.599	-0.066	0.100
-368.756	131.877	-0.057	-0.073
-367.742	800.000	0.113	0.340
-366.727	-200.000	-0.024	-0.161
-365.712	-96.913	-0.318	0.083
-364.698	54.855	0.095	0.092
-363.683	-141.135	-0.298	0.031
-362.669	-200.000	-0.003	0.076
-361.654	3.978	0.174	0.128
-360.639	-57.846	0.239	0.105
-359.625	247.756	-0.064	0.108
-358.610	800.000	-0.057	0.227
-357.596	48.194	-0.087	-0.082
-356.581	-68.452	0.123	-0.048
-355.566	22.538	-0.065	-0.053
-354.552	-65.907	0.208	-0.083
-353.537	-200.000	0.003	-0.199
-352.523	20.764	0.092	-0.075
-351.508	800.000	0.047	0.143
-350.493	-82.587	0.077	-0.025
-349.479	-95.636	-0.101	0.027
-348.464	-99.350	0.151	-0.038
-347.450	-108.145	-0.136	0.029
-346.435	300.032	0.069	-0.128
-345.420	417.870	0.095	-0.202
-344.406	-200.000	0.001	0.068
-343.391	216.977	0.030	-0.048
-342.377	125.112	0.012	-0.015
-341.362	59.214	0.083	-0.082
-340.348	-131.837	0.200	-0.026
-339.333	800.000	-0.059	-0.200
-338.318	-174.141	0.078	-0.002
-337.304	15.784	0.146	-0.115
-336.289	-200.000	-0.007	-0.126
-335.275	800.000	0.060	0.167
-334.260	87.958	-0.119	0.132
-333.245	23.062	-0.058	-0.048
-332.231	-104.008	-0.141	-0.033
-331.216	11.444	-0.199	-0.152
-330.202	-99.252	-0.081	-0.020
-329.187	58.460	-0.092	0.091
-328.172	-86.725	-0.070	-0.021
-327.158	-148.454	0.273	0.022
-326.143	-59.997	-0.087	0.037
-325.129	-200.000	-0.010	0.150
-324.114	-150.071	-0.356	-0.028
-323.099	366.179	-0.085	-0.171
-322.085	-200.000	-0.013	0.087
-321.070	26.922	0.085	0.071
-320.056	-40.401	-0.216	-0.112
-319.041	-107.881	-0.370	0.081
-318.026	800.000	0.142	0.419
-317.012	-28.943	0.254	0.146
-315.997	61.465	-0.139	-0.138
-314.983	-107.597	-0.011	0.002
-313.968	-104.403	-0.069	0.016
-312.953	379.804	0.136	-0.279
-311.939	-168.632	0.522	0.020
-310.924	-10.812	-0.109	-0.072
-309.910	800.000	-0.042	-0.181
-308.895	800.000	-0.032	0.103
-307.880	-167.727	-0.265	0.010
-306.866	800.000	0.033	0.116
-305.851	-200.000	-0.060	0.299
-304.837	-56.113	0.254	0.113
-303.822	-200.000	0.008	0.392
-302.807	355.535	0.172	-0.341
-301.793	-96.176	-0.251	-0.067
-300.778	-54.503	-0.313	0.142
-299.764	-200.000	-0.015	0.109
-298.749	399.690	-0.080	-0.167
-297.735	221.924	-0.042	-0.068
-296.720	-41.045	-0.212	-0.110
-295.705	222.754	0.060	0.097
-294.691	-165.467	0.261	0.011
-293.676	-200.000	-0.013	0.287
-292.662	668.201	-0.154	-0.399
-291.647	-5.164	0.287	-0.197
-290.632	260.054	0.232	0.399
-289.618	800.000	0.053	0.217
-288.603	-42.982	0.088	-0.044
-287.589	327.589	0.102	0.196
-286.574	-151.129	0.050	-0.004
-285.559	-200.000	0.006	-0.032
-284.545	-116.254	-0.179	0.033
-283.530	-26.476	-0.179	-0.105
-282.516	-126.944	-0.225	-0.033
-281.501	-183.271	-0.090	0.002
-280.486	-143.859	0.135	0.013
-279.472	-50.420	-0.367	-0.173
-278.457	-200.000	0.001	0.159
-277.443	-200.000	0.029	-0.160
-276.428	-71.527	0.094	-0.035
-275.413	-41.350	0.075	0.038
-274.399	-20.431	0.248	0.152
-273.384	-200.000	-0.033	0.171
-272.370	-49.189	-0.229	-0.109
-271.355	-27.574	-0.259	-0.150
-270.340	-2.771	0.154	0.108
-269.326	-13.031	0.178	0.116
-268.311	556.780	-0.122	0.294
-267.297	-106.895	0.178	-0.039
-266.282	29.072	0.123	-0.104
-265.267	-200.000	-0.037	0.249
-264.253	-11.333	0.208	-0.137
-263.238	-124.797	-0.173	-0.027
-262.224	-75.508	-0.046	-0.016
-261.209	-200.000	-0.025	-0.233
-260.195	219.010	0.092	-0.146
-259.180	-73.221	0.114	0.042
-258.165	800.000	-0.109	0.456
-257.151	-49.960	-0.327	-0.155
-256.136	800.000	0.112	0.444
-255.122	59.395	-0.258	0.254
-254.107	-29.601	-0.102	-0.058
-253.092	-42.633	0.273	-0.138
-252.078	-12.504	0.306	0.199
-251.063	-83.303	-0.164	0.053
-250.049	800.000	-0.028	0.109
-249.034	211.018	0.128	-0.201
-248.019	198.785	-0.109	-0.167
-247.005	-95.346	0.305	0.082
-245.990	800.000	-0.025	-0.071
-244.976	-200.000	0.036	-0.290
-243.961	172.990	-0.257	0.369
-242.946	-136.300	-0.145	0.017
-241.932	96.004	-0.223	-0.254
-240.917	-164.181	0.234	0.011
-239.903	-50.599	-0.054	-0.026
-238.888	-15.519	0.065	-0.041
-237.873	41.732	0.054	-0.049
-236.859	-160.225	0.062	0.003
-235.844	34.795	0.143	-0.125
-234.830	-21.078	0.086	-0.052
-233.815	-122.285	-0.168	0.027
-232.800	78.174	0.207	-0.221
-231.786	210.232	-0.113	0.177
-230.771	675.991	-0.112	0.291
-229.757	221.233	-0.271	0.434
-228.742	145.397	-0.348	0.464
-227.727	-105.572	-0.041	-0.009
-226.713	-191.229	-0.282	-0.003
-225.698	130.888	0.050	0.064
-224.684	662.935	-0.049	0.126
-223.669	-115.404	-0.325	-0.061
-222.655	44.013	-0.249	-0.228
-221.640	-77.293	-0.178	-0.062
-220.625	-38.330	0.162	-0.086
-219.611	104.983	0.227	-0.266
-218.596	800.000	-0.062	0.181
-217.582	-200.000	0.041	0.674
-216.567	-80.947	-0.211	0.070
-215.552	-117.365	0.313	0.056
-214.538	-39.932	0.179	0.093
-213.523	800.000	0.101	-0.330
-212.509	773.815	0.077	0.209
-211.494	-100.495	0.372	0.092
-210.479	-185.402	0.101	-0.002
-209.465	-200.000	-0.010	0.120
-208.450	-200.000	-0.036	-0.203
-207.436	93.861	-0.094	-0.106
-206.421	44.254	-0.187	0.171
-205.406	201.670	-0.100	0.153
-204.392	-20.837	-0.357	0.218
-203.377	-133.879	0.072	-0.009
-202.363	-169.559	0.116	-0.004
-201.348	-100.688	0.324	0.080
-200.333	-5.402	0.056	0.038
-199.319	187.610	0.050	-0.075
-198.304	14.855	0.109	-0.085
-197.290	800.000	0.069	0.288
-196.275	-137.980	-0.160	0.018
-195.260	-22.321	-0.293	-0.176
-194.246	52.675	0.152	-0.144
-193.231	-200.000	0.023	-0.194
-192.217	435.907	0.094	0.204
-191.202	-200.000	0.045	0.364
-190.187	-70.829	-0.351	0.132
-189.173	1.391	0.220	-0.158
-188.158	800.000	0.074	-0.315
-187.144	-32.711	0.216	0.120
-186.129	-200.000	0.015	-0.087
-185.114	64.468	0.169	0.169
-184.100	3.362	0.110	0.080
-183.085	188.329	-0.040	-0.060
-182.071	-150.045	0.085	-0.007
-181.056	-200.000	-0.044	-0.258
-180.042	800.000	-0.040	-0.135
-179.027	438.916	0.050	0.110
-178.012	-200.000	0.031	-0.175
-176.998	-200.000	-0.008	0.161
-175.983	83.585	0.081	0.087
-174.969	674.315	0.046	-0.120
-173.954	800.000	-0.016	-0.058
-172.939	152.282	0.120	0.163
-171.925	-200.000	-0.067	-0.320
-170.910	-200.000	0.047	-0.217
-169.896	446.511	0.101	0.220
-168.881	-16.918	-0.220	0.138
-167.866	-200.000	0.017	-0.138
-166.852	800.000	-0.080	-0.221
-165.837	-36.763	0.353	0.189
-164.823	-83.648	-0.084	-0.027
-163.808	198.926	0.215	0.328
-162.793	-45.408	-0.079	0.039
-161.779	-121.406	-0.232	-0.038
-160.764	-179.802	-0.214	0.005
-159.750	731.300	-0.106	-0.281
-158.735	-200.000	-0.023	-0.217
-157.720	-38.677	-0.069	-0.036
-156.706	-82.320	0.136	-0.044
-155.691	335.667	-0.098	-0.189
-154.677	577.687	-0.016	-0.039
-153.662	-179.829	0.315	-0.007
-152.647	223.430	0.120	0.192
-151.633	8.794	0.232	-0.174
-150.618	88.782	-0.275	-0.303
-149.604	149.031	0.151	-0.203
-148.589	1.045	0.286	-0.203
-147.574	-36.614	0.180	0.096
-146.560	-46.627	-0.182	0.089
-145.545	11.053	-0.159	-0.120
-144.531	-125.491	0.134	-0.020
-143.516	219.756	0.083	0.132
-142.502	-108.266	-0.018	0.004
-141.487	800.000	0.037	0.121
-140.472	106.951	0.166	-0.196
-139.458	1.337	0.235	-0.168
-138.443	-30.485	-0.358	0.202
-137.429	-200.000	-0.053	0.273
-136.414	136.857	0.109	-0.142
-135.399	68.102	0.134	-0.136
-134.385	-67.773	-0.222	-0.086
-133.370	-69.524	0.264	0.100
-132.356	-16.604	-0.195	-0.123
-131.341	33.385	0.111	-0.096
-130.326	519.840	0.189	0.438
-129.312	773.831	0.025	-0.068
-128.297	43.065	-0.258	0.233
-127.283	292.056	0.034	0.062
-126.268	97.671	-0.286	0.326
-125.253	-200.000	0.035	0.382
-124.239	-59.930	-0.130	-0.055
-123.224	800.000	-0.023	0.082
-122.210	530.716	0.137	-0.321
