DTS Sentinel unit serial number:	SN413079Multiplexer serial number:	ORYXHardware model number:	OX4-SRSoftware version number:	ORYX F/W v4.00 Oryx Data Collector v3.7.2.0data status	okinstallation	princeton_trtdifferential loss correction	single-endedforward channel	channel 2reverse channel	N/Adate	2019/09/16time	15:27:35forward acquisition time	60.00reverse acquisition time	0.00gamma	496.2192k internal	0.2298k external	0.2298temperature offset calibration	0.9938default loss term (dB/km)	0.3790temperature slope calibration	1.0000multiplexer offset coefficient	1.0000multiplexer slope coefficient	1.0000fibre end	0.00T internal ref (°C)	41.12T ext. ref 1 (°C)	14.66T ext. ref 2 (°C)	37.40length (m)	temperature (°C)	Stokes	anti-Stokes-747.200	-48.860	0.252	0.124
-746.185	-175.486	0.140	0.004
-745.171	-54.715	-0.128	-0.059
-744.156	237.898	-0.082	-0.140
-743.142	-45.489	-0.004	-0.002
-742.127	373.991	-0.064	0.133
-741.112	-200.000	-0.023	0.179
-740.098	715.818	0.109	0.296
-739.083	186.267	0.128	0.194
-738.069	800.000	-0.045	0.134
-737.054	126.995	-0.089	-0.115
-736.039	-120.348	-0.424	0.074
-735.025	99.085	0.158	0.186
-734.010	-142.403	-0.169	-0.017
-732.996	179.685	0.149	-0.223
-731.981	-151.103	-0.070	0.005
-730.966	-137.510	-0.086	0.010
-729.952	-75.438	-0.125	-0.045
-728.937	-106.249	-0.298	-0.068
-727.923	-30.369	-0.161	0.093
-726.908	139.177	-0.114	-0.153
-725.894	-46.092	0.043	0.022
-724.879	-163.396	0.450	0.022
-723.864	-37.888	-0.228	-0.124
-722.850	-0.838	-0.239	0.172
-721.835	-200.000	-0.050	-0.362
-720.821	630.115	0.004	0.011
-719.806	-30.384	0.128	0.074
-718.791	-68.374	-0.312	-0.123
-717.777	-32.814	-0.037	0.021
-716.762	-200.000	-0.023	0.215
-715.748	500.860	-0.052	-0.121
-714.733	-75.657	-0.522	0.189
-713.718	-93.925	-0.099	-0.028
-712.704	54.074	0.090	-0.088
-711.689	103.316	-0.164	0.196
-710.675	-90.463	-0.109	0.032
-709.660	53.537	0.317	0.310
-708.645	800.000	-0.068	0.259
-707.631	-94.518	-0.156	-0.043
-706.616	156.574	0.283	0.399
-705.602	40.636	0.048	-0.044
-704.587	-200.000	-0.003	-0.163
-703.572	-200.000	-0.040	0.235
-702.558	8.958	-0.131	-0.101
-701.543	-200.000	0.006	-0.387
-700.529	-11.241	0.141	0.095
-699.514	-180.877	-0.189	0.004
-698.499	800.000	-0.105	0.428
-697.485	130.037	0.110	0.143
-696.470	-200.000	0.002	0.071
-695.456	224.445	0.262	-0.432
-694.441	119.751	-0.068	-0.086
-693.426	228.669	0.288	-0.479
-692.412	-182.374	-0.098	0.002
-691.397	-200.000	0.004	-0.091
-690.383	-200.000	-0.032	-0.327
-689.368	-200.000	-0.240	0.000
-688.354	-124.780	0.313	0.049
-687.339	-200.000	-0.011	-0.241
-686.324	10.508	0.148	-0.115
-685.310	196.215	-0.022	0.034
-684.295	-53.486	0.139	0.065
-683.281	383.508	0.112	-0.234
-682.266	-94.623	-0.179	-0.050
-681.251	435.043	0.114	-0.252
-680.237	447.057	0.025	0.055
-679.222	-93.684	-0.221	-0.062
-678.208	-112.326	0.258	-0.053
-677.193	-40.625	-0.165	-0.087
-676.178	800.000	-0.081	0.284
-675.164	71.207	0.134	-0.141
-674.149	-44.019	0.292	0.150
-673.135	57.802	0.106	0.105
-672.120	800.000	-0.084	0.315
-671.105	294.656	0.051	-0.095
-670.091	800.000	0.031	0.097
-669.076	204.970	0.102	-0.161
-668.062	57.707	0.218	0.217
-667.047	187.468	-0.112	0.170
-666.032	-96.500	0.180	-0.048
-665.018	-162.404	0.080	0.004
-664.003	-121.647	-0.224	-0.038
-662.989	800.000	-0.086	0.282
-661.974	-137.628	0.355	-0.041
-660.959	-200.000	0.032	-0.301
-659.945	-200.000	0.001	-0.096
-658.930	-94.449	-0.118	-0.033
-657.916	546.137	0.058	0.141
-656.901	-160.585	0.228	0.012
-655.886	-17.479	-0.392	-0.251
-654.872	-80.853	0.090	0.030
-653.857	-88.286	0.402	-0.122
-652.843	800.000	-0.020	0.060
-651.828	157.466	-0.075	-0.106
-650.814	-200.000	-0.021	-0.401
-649.799	235.102	-0.027	0.045
-648.784	108.605	0.247	-0.300
-647.770	-85.700	0.109	0.034
-646.755	-154.898	-0.052	-0.004
-645.741	-123.197	-0.173	-0.028
-644.726	-46.213	-0.089	-0.045
-643.711	-77.071	-0.310	-0.110
-642.697	800.000	-0.085	-0.257
-641.682	800.000	-0.026	0.094
-640.668	-37.093	0.062	-0.034
-639.653	19.597	-0.364	0.298
-638.638	-200.000	-0.002	0.171
-637.624	-200.000	0.068	0.368
-636.609	-158.102	0.016	0.001
-635.595	-105.949	0.268	0.061
-634.580	800.000	-0.149	-0.488
-633.565	-200.000	-0.016	0.181
-632.551	-200.000	-0.069	-0.362
-631.536	-26.443	-0.204	0.122
-630.522	-114.388	0.238	0.046
-629.507	291.998	0.097	0.180
-628.492	800.000	0.032	-0.133
-627.478	195.660	0.051	0.079
-626.463	-75.860	0.346	0.125
-625.449	-16.546	-0.292	-0.188
-624.434	396.650	-0.068	-0.144
-623.419	-200.000	0.047	0.347
-622.405	-200.000	0.058	0.493
-621.390	-130.653	0.227	-0.031
-620.376	-36.397	0.348	0.191
-619.361	-114.727	0.045	0.009
-618.346	-200.000	-0.054	0.456
-617.332	62.979	-0.128	-0.131
-616.317	505.463	-0.180	-0.425
-615.303	-200.000	-0.017	-0.269
-614.288	457.644	-0.135	0.305
-613.273	758.969	-0.078	-0.215
-612.259	97.898	-0.059	0.068
-611.244	-83.853	0.347	-0.112
-610.230	-59.841	0.043	-0.019
-609.215	705.037	0.064	-0.173
-608.201	-159.273	0.090	-0.005
-607.186	248.335	-0.122	0.209
-606.171	-53.601	0.267	-0.124
-605.157	-45.365	-0.106	-0.053
-604.142	800.000	-0.020	0.078
-603.128	-200.000	0.016	-0.105
-602.113	-200.000	0.005	0.121
-601.098	10.841	0.127	0.099
-600.084	433.449	-0.039	-0.085
-599.069	-147.585	0.356	-0.030
-598.055	-131.629	0.263	-0.035
-597.040	-127.450	0.072	0.011
-596.025	282.478	0.063	0.115
-595.011	-52.499	0.266	-0.125
-593.996	239.650	-0.076	-0.129
-592.982	-81.690	-0.058	0.019
-591.967	-15.480	0.175	-0.113
-590.952	-194.442	-0.154	0.001
-589.938	-67.317	-0.136	-0.054
-588.923	-84.863	-0.231	-0.074
-587.909	-131.999	0.220	0.029
-586.894	398.651	-0.110	0.233
-585.879	-144.971	-0.233	-0.022
-584.865	800.000	-0.057	0.173
-583.850	-96.183	-0.286	0.077
-582.836	-89.102	0.224	-0.067
-581.821	-109.697	-0.274	0.058
-580.806	782.075	0.092	0.256
-579.792	-74.877	0.356	0.129
-578.777	-41.136	-0.161	-0.084
-577.763	-200.000	0.079	-0.416
-576.748	-20.342	-0.270	0.169
-575.733	43.317	-0.145	-0.135
-574.719	13.686	-0.184	-0.145
-573.704	800.000	-0.046	0.143
-572.690	168.974	-0.111	0.161
-571.675	800.000	-0.088	-0.341
-570.661	-200.000	-0.023	0.263
-569.646	-83.714	-0.326	-0.105
-568.631	123.227	-0.095	-0.120
-567.617	-28.106	0.096	-0.056
-566.602	13.083	0.067	0.053
-565.588	-200.000	-0.019	-0.122
-564.573	-200.000	-0.067	0.357
-563.558	-29.088	-0.020	-0.011
-562.544	138.858	0.124	-0.165
-561.529	-65.804	0.111	0.045
-560.515	168.916	0.190	-0.275
-559.500	146.185	0.082	-0.111
-558.485	-58.276	-0.080	-0.035
-557.471	800.000	0.105	0.360
-556.456	10.471	-0.089	0.068
-555.442	85.905	0.123	-0.137
-554.427	800.000	0.064	0.205
-553.412	4.515	0.238	-0.177
-552.398	95.452	-0.064	-0.074
-551.383	651.697	-0.065	0.169
-550.369	-96.559	0.252	0.067
-549.354	-200.000	0.107	0.000
-548.339	800.000	0.106	0.435
-547.325	230.578	-0.115	0.191
-546.310	-72.820	0.073	-0.027
-545.296	259.253	-0.103	-0.180
-544.281	-74.555	0.383	0.140
-543.266	28.563	-0.303	0.260
-542.252	486.384	0.069	0.158
-541.237	-200.000	0.021	-0.208
-540.223	-88.043	0.537	0.163
-539.208	-106.170	-0.291	0.066
-538.193	-0.451	-0.147	0.106
-537.179	335.830	0.113	0.221
-536.164	443.701	0.103	0.228
-535.150	295.980	-0.091	0.168
-534.135	-112.442	-0.163	-0.033
-533.121	65.303	-0.135	-0.138
-532.106	-34.391	-0.024	0.014
-531.091	52.975	-0.278	0.269
-530.077	680.309	0.098	0.259
-529.062	714.508	0.155	0.417
-528.048	-200.000	0.001	-0.057
-527.033	-147.601	0.131	0.011
-526.018	-200.000	-0.007	0.328
-525.004	6.176	-0.116	0.087
-523.989	-124.760	0.108	0.017
-522.975	291.457	-0.074	0.137
-521.960	11.797	-0.239	-0.186
-520.945	-178.378	0.442	0.010
-519.931	800.000	-0.044	0.123
-518.916	178.094	-0.004	-0.005
-517.902	388.569	0.171	-0.358
-516.887	-26.170	0.089	-0.053
-515.872	-15.821	-0.125	-0.081
-514.858	94.503	0.134	-0.154
-513.843	-12.129	-0.345	-0.228
-512.829	-125.744	-0.164	-0.025
-511.814	800.000	0.107	-0.305
-510.799	-77.157	-0.049	-0.017
-509.785	-200.000	-0.013	0.306
-508.770	147.247	0.050	0.068
-507.756	17.723	-0.142	0.114
-506.741	-39.610	0.031	0.017
-505.726	-131.975	0.130	-0.017
-504.712	453.811	0.083	-0.186
-503.697	800.000	-0.042	-0.145
-502.683	94.464	0.118	0.135
-501.668	18.215	0.248	-0.200
-500.653	442.931	0.184	0.408
-499.639	20.721	-0.165	-0.135
-498.624	516.938	0.083	0.195
-497.610	800.000	-0.066	0.227
-496.595	56.409	-0.019	-0.018
-495.581	-111.567	0.240	0.049
-494.566	-164.060	0.267	0.013
-493.551	-123.343	0.184	0.030
-492.537	-127.268	-0.288	0.042
-491.522	153.836	0.144	-0.200
-490.508	10.297	-0.266	0.205
-489.493	-22.276	-0.214	0.131
-488.478	198.940	-0.172	-0.267
-487.464	800.000	0.124	-0.368
-486.449	-36.590	-0.197	0.107
-485.435	800.000	-0.049	-0.175
-484.420	-200.000	0.027	0.193
-483.405	-44.346	0.129	-0.065
-482.391	-19.458	-0.217	-0.136
-481.376	217.686	-0.101	-0.162
-480.362	-200.000	-0.044	-0.409
-479.347	32.790	0.327	-0.286
-478.332	80.395	0.319	0.347
-477.318	169.637	-0.084	-0.122
-476.303	201.353	0.084	0.131
-475.289	-200.000	0.003	0.097
-474.274	53.380	-0.106	0.102
-473.259	800.000	-0.071	-0.278
-472.245	-200.000	-0.047	0.254
-471.230	115.194	-0.166	-0.204
-470.216	-200.000	-0.029	-0.185
-469.201	73.311	0.236	-0.249
-468.186	-58.382	0.039	-0.017
-467.172	8.255	-0.285	0.217
-466.157	-35.442	0.127	-0.069
-465.143	-200.000	0.011	0.075
-464.128	-200.000	0.006	-0.049
-463.113	-200.000	0.380	0.001
-462.099	96.295	0.122	0.141
-461.084	57.271	-0.206	0.203
-460.070	-28.796	0.286	0.166
-459.055	-10.613	0.159	-0.106
-458.040	800.000	-0.076	0.321
-457.026	-171.115	-0.501	-0.017
-456.011	-100.271	0.182	-0.046
-454.997	-200.000	0.014	-0.269
-453.982	57.369	0.108	-0.106
-452.968	-132.589	0.288	-0.037
-451.953	-71.866	-0.155	0.058
-450.938	279.458	0.141	0.255
-449.924	-67.389	-0.437	0.173
-448.909	-200.000	-0.008	-0.049
-447.895	29.724	0.081	-0.069
-446.880	-200.000	-0.029	-0.162
-445.865	228.252	-0.069	-0.113
-444.851	319.873	0.225	-0.431
-443.836	277.552	-0.184	-0.330
-442.822	800.000	-0.015	-0.060
-441.807	553.382	-0.195	0.473
-440.792	64.926	0.097	-0.099
-439.778	233.957	-0.107	-0.178
-438.763	260.112	-0.076	-0.133
-437.749	-200.000	0.003	0.162
-436.734	114.922	-0.157	-0.194
-435.719	-25.744	0.143	-0.085
-434.705	-34.895	0.030	0.017
-433.690	8.996	-0.099	-0.075
-432.676	-156.554	-0.373	0.023
-431.661	-200.000	0.046	0.282
-430.646	-200.000	0.001	0.268
-429.632	-200.000	-0.014	0.061
-428.617	-7.976	0.260	0.177
-427.603	-200.000	0.011	0.528
-426.588	-45.387	-0.126	0.063
-425.573	454.618	0.187	0.419
-424.559	256.422	-0.197	0.341
-423.544	7.876	-0.216	-0.163
-422.530	370.527	0.171	-0.349
-421.515	-77.704	-0.276	0.096
-420.500	-7.594	0.121	0.083
-419.486	-200.000	0.025	-0.217
-418.471	-89.797	0.092	-0.027
-417.457	-99.070	0.209	0.053
-416.442	-137.753	0.171	-0.019
-415.428	-118.714	-0.440	-0.078
-414.413	-200.000	-0.013	0.125
-413.398	503.186	0.137	-0.320
-412.384	51.903	0.361	-0.346
-411.369	-142.991	0.169	0.017
-410.355	-200.000	-0.076	0.429
-409.340	800.000	-0.059	0.234
-408.325	-77.521	0.278	-0.097
-407.311	-98.528	-0.310	-0.080
-406.296	705.616	0.068	0.182
-405.282	213.053	0.130	-0.207
-404.267	-197.988	-0.234	0.001
-403.252	-37.652	-0.276	-0.148
-402.238	340.579	-0.124	-0.243
-401.223	306.442	0.094	-0.177
-400.209	800.000	-0.040	0.151
-399.194	129.884	0.091	0.117
-398.179	-200.000	-0.017	0.101
-397.165	-200.000	0.005	-0.057
-396.150	-71.368	0.267	-0.101
-395.136	454.135	-0.059	-0.131
-394.121	-98.988	-0.376	-0.096
-393.106	-163.050	0.266	0.013
-392.092	-129.759	-0.204	-0.028
-391.077	150.698	0.098	0.134
-390.063	447.411	0.012	0.027
-389.048	800.000	0.151	0.423
-388.033	46.818	0.154	0.144
-387.019	800.000	-0.079	-0.252
-386.004	196.081	0.022	-0.033
-384.990	-86.367	0.127	-0.039
-383.975	-110.992	-0.157	-0.032
-382.960	-151.299	0.132	-0.010
-381.946	-109.354	-0.242	0.052
-380.931	680.766	-0.106	0.277
-379.917	-77.053	-0.235	0.083
-378.902	-184.967	0.146	-0.002
-377.888	-0.153	-0.101	-0.072
-376.873	88.049	0.049	-0.055
-375.858	66.895	0.091	0.093
-374.844	197.957	0.072	-0.111
-373.829	-170.954	-0.171	-0.006
-372.815	-200.000	-0.015	-0.207
-371.800	620.725	-0.071	-0.180
-370.785	215.031	-0.110	-0.176
-369.771	419.485	-0.100	-0.216
-368.756	581.024	0.075	-0.185
-367.742	26.824	-0.128	0.108
-366.727	-45.954	0.292	-0.145
-365.712	17.724	-0.231	0.185
-364.698	425.524	0.018	0.039
-363.683	-35.039	0.176	0.096
-362.669	800.000	0.158	0.539
-361.654	-200.000	0.002	-0.098
-360.639	-48.884	-0.326	-0.157
-359.625	-66.866	0.217	-0.086
-358.610	-200.000	-0.008	-0.126
-357.596	759.500	-0.122	-0.333
-356.581	800.000	0.026	0.081
-355.566	198.868	0.148	-0.227
-354.552	800.000	0.089	-0.262
-353.537	800.000	0.036	0.117
-352.523	293.504	-0.106	0.194
-351.508	-127.820	0.175	0.025
-350.493	-200.000	-0.011	-0.166
-349.479	-89.757	0.281	-0.083
-348.464	200.988	-0.105	0.163
-347.450	12.016	-0.022	-0.017
-346.435	-200.000	0.008	0.154
-345.420	-200.000	-0.012	0.095
-344.406	800.000	-0.027	0.100
-343.391	-29.708	0.274	-0.157
-342.377	-200.000	-0.033	-0.274
-341.362	343.147	0.141	0.278
-340.348	-139.460	0.329	-0.035
-339.333	800.000	-0.110	0.462
-338.318	90.160	0.113	-0.127
-337.304	16.779	-0.202	-0.161
-336.289	800.000	-0.067	-0.226
-335.275	-42.310	-0.116	-0.059
-334.260	-103.849	-0.323	-0.076
-333.245	-94.438	-0.176	0.048
-332.231	-103.139	0.327	-0.078
-331.216	-167.518	0.386	0.015
-330.202	-200.000	-0.030	0.261
-329.187	-123.405	-0.413	-0.066
-328.172	416.045	0.071	-0.153
-327.158	-105.209	-0.040	-0.009
-326.143	124.752	-0.200	-0.253
-325.129	-118.693	-0.211	-0.037
-324.114	-123.468	-0.217	0.035
-323.099	800.000	-0.137	-0.416
-322.085	-20.388	-0.162	0.100
-321.070	-7.828	0.271	0.183
-320.056	-200.000	-0.170	-0.001
-319.041	82.174	-0.093	-0.101
-318.026	-98.911	-0.211	0.054
-317.012	-44.029	-0.070	0.035
-315.997	800.000	0.103	0.367
-314.983	-6.762	-0.131	0.089
-313.968	105.151	0.140	0.166
-312.953	-18.534	-0.352	-0.220
-311.939	-40.255	0.140	-0.073
-310.924	258.143	-0.167	-0.289
-309.910	-42.782	0.168	-0.086
-308.895	800.000	0.048	-0.181
-307.880	7.213	-0.424	-0.318
-306.866	-28.201	-0.224	0.130
-305.851	56.917	-0.084	0.082
-304.837	800.000	-0.046	0.138
-303.822	-0.392	-0.252	0.180
-302.807	45.984	-0.194	0.180
-301.793	-123.431	0.247	-0.040
-300.778	210.532	-0.116	0.182
-299.764	-2.532	-0.294	-0.207
-298.749	231.854	0.239	0.394
-297.735	5.188	0.172	-0.127
-296.720	123.646	-0.120	0.151
-295.705	12.487	-0.395	-0.306
-294.691	440.578	-0.084	-0.185
-293.676	-7.155	0.045	0.031
-292.662	-25.797	0.439	0.259
-291.647	111.493	0.014	0.017
-290.632	-200.000	-0.002	-0.168
-289.618	-130.106	-0.257	0.035
-288.603	-96.267	-0.057	-0.015
-287.589	-90.724	-0.091	-0.026
-286.574	156.597	-0.126	-0.175
-285.559	-134.543	0.371	0.045
-284.545	-200.000	-0.003	-0.226
-283.530	-172.530	-0.284	-0.009
-282.516	-200.000	-0.011	0.089
-281.501	35.430	-0.098	-0.086
-280.486	462.608	0.115	-0.257
-279.472	-105.054	0.159	0.036
-278.457	300.587	-0.063	-0.117
-277.443	-43.585	-0.203	0.103
-276.428	140.501	-0.047	-0.062
-275.413	266.256	-0.146	-0.255
-274.399	-3.971	0.129	-0.089
-273.384	2.953	0.026	0.019
-272.370	-188.733	0.416	0.005
-271.355	-139.281	-0.302	0.033
-270.340	-27.349	-0.210	0.123
-269.326	347.751	0.016	-0.031
-268.311	115.704	0.139	0.170
-267.297	777.143	-0.052	-0.142
-266.282	-41.597	0.304	0.157
-265.267	-200.000	-0.003	0.159
-264.253	-162.211	-0.377	0.019
-263.238	-15.675	0.179	0.114
-262.224	-43.304	0.301	0.153
-261.209	139.728	0.057	-0.075
-260.195	-72.960	0.104	0.038
-259.180	-166.042	-0.218	-0.009
-258.165	-200.000	-0.023	-0.118
-257.151	-183.896	0.585	-0.010
-256.136	-145.826	0.347	0.031
-255.122	-36.020	0.124	0.067
-254.107	-113.869	0.059	-0.011
-253.092	0.333	0.046	0.033
-252.078	-79.722	0.296	-0.100
-251.063	-200.000	0.024	-0.121
-250.049	-92.255	0.050	-0.014
-249.034	220.480	-0.152	0.244
-248.019	-47.341	-0.233	-0.113
-247.005	125.068	-0.211	-0.266
-245.990	-200.000	-0.072	-0.471
-244.976	-200.000	0.014	0.140
-243.961	-200.000	-0.006	0.272
-242.946	-49.380	-0.149	0.071
-241.932	525.917	-0.048	-0.114
-240.917	55.763	0.102	-0.099
-239.903	-21.270	0.109	-0.067
-238.888	800.000	-0.053	0.195
-237.873	160.706	-0.147	0.205
-236.859	-146.271	-0.180	-0.016
-235.844	49.089	-0.293	0.276
-234.830	214.111	0.171	-0.270
-233.815	114.286	0.190	-0.232
-232.800	-101.550	0.163	-0.040
-231.786	190.008	0.091	-0.136
-230.771	-181.625	0.242	-0.005
-229.757	-119.327	-0.132	0.023
-228.742	708.408	0.090	-0.237
-227.727	800.000	-0.033	-0.136
-226.713	438.553	-0.008	0.017
-225.698	-200.000	-0.012	0.158
-224.684	-62.713	0.319	-0.132
-223.669	-118.600	0.188	-0.033
-222.655	-175.447	0.248	-0.007
-221.640	800.000	-0.096	-0.362
-220.625	24.526	-0.035	0.029
-219.611	-200.000	-0.017	-0.207
-218.596	176.571	0.119	-0.173
-217.582	-59.160	0.355	-0.153
-216.567	688.195	-0.171	-0.446
-215.552	64.143	0.146	0.147
-214.538	447.840	-0.064	0.142
-213.523	-85.193	0.080	-0.025
-212.509	800.000	-0.020	0.074
-211.494	-200.000	0.001	-0.090
-210.479	800.000	-0.057	-0.166
-209.465	-200.000	0.029	-0.408
-208.450	-128.977	-0.284	0.040
-207.436	-200.000	0.018	0.113
-206.421	255.547	-0.129	0.220
-205.406	220.191	-0.025	-0.039
-204.392	-19.198	-0.218	-0.135
-203.377	108.840	-0.096	-0.114
-202.363	-200.000	-0.008	0.083
-201.348	-99.495	0.301	0.076
-200.333	-200.000	-0.027	0.160
-199.319	303.366	-0.178	0.330
-198.304	343.525	0.014	0.028
-197.290	-200.000	-0.015	0.227
-196.275	5.104	-0.201	0.148
-195.260	-200.000	-0.005	0.143
-194.246	-64.794	0.370	-0.150
-193.231	227.672	-0.119	0.194
-192.217	800.000	0.009	-0.028
-191.202	-200.000	0.022	0.336
-190.187	77.600	0.115	-0.123
-189.173	800.000	-0.031	0.089
-188.158	-200.000	-0.039	0.228
-187.144	164.657	-0.137	0.193
-186.129	-200.000	0.029	-0.213
-185.114	-200.000	-0.044	-0.355
-184.100	-115.969	0.116	-0.022
-183.085	-47.272	-0.255	-0.124
-182.071	-11.077	0.154	-0.101
-181.056	368.653	0.082	0.167
-180.042	-130.069	0.098	0.013
-179.027	-42.265	0.145	0.074
-178.012	3.124	-0.071	-0.052
-176.998	66.074	-0.187	0.190
-175.983	-200.000	-0.044	0.280
-174.969	451.306	0.058	0.127
-173.954	85.097	0.071	-0.078
-172.939	71.186	-0.175	-0.182
-171.925	-200.000	-0.012	0.054
-170.910	-64.903	-0.224	0.090
-169.896	529.693	0.079	-0.187
-168.881	125.029	0.315	-0.396
-167.866	134.134	-0.077	0.100
-166.852	-82.661	0.052	-0.017
-165.837	-95.366	0.170	0.046
-164.823	-200.000	0.017	-0.147
-163.808	-25.943	0.307	-0.180
-162.793	-144.538	-0.216	-0.020
-161.779	234.017	0.159	0.261
-160.764	66.993	-0.131	0.134
-159.750	-61.483	-0.220	-0.092
-158.735	800.000	0.036	-0.149
-157.720	268.088	0.084	0.146
-156.706	303.938	0.174	0.322
-155.691	-200.000	0.040	0.206
-154.677	-85.390	-0.267	0.083
-153.662	253.206	0.056	-0.096
-152.647	374.924	-0.027	-0.056
-151.633	-54.677	-0.173	-0.078
-150.618	0.665	0.176	0.126
-149.604	227.998	0.037	0.060
-148.589	-200.000	-0.006	0.217
-147.574	52.549	-0.045	0.043
-146.560	-108.346	-0.072	-0.015
-145.545	-174.652	0.150	-0.004
-144.531	28.150	-0.222	0.187
-143.516	273.549	-0.048	-0.085
-142.502	800.000	-0.054	0.195
-141.487	800.000	0.047	-0.145
-140.472	-52.733	-0.122	0.056
-139.458	-200.000	-0.048	-0.287
-138.443	737.350	0.041	-0.108
-137.429	392.681	0.120	-0.249
-136.414	412.571	0.069	-0.146
-135.399	-10.830	0.159	0.105
-134.385	-200.000	0.003	-0.152
-133.370	221.230	0.150	0.240
-132.356	-154.009	-0.045	0.003
-131.341	800.000	0.076	-0.254
-130.326	-200.000	-0.012	0.068
-129.312	177.348	0.384	-0.557
-128.297	-116.297	0.074	-0.014
-127.283	-200.000	-0.009	-0.168
-126.268	-39.138	0.372	-0.195
-125.253	528.417	0.105	-0.248
-124.239	0.403	0.338	0.240
-123.224	2.552	0.373	-0.270
-122.210	391.060	0.210	0.435
