DTS Sentinel unit serial number:	SN413079Multiplexer serial number:	ORYXHardware model number:	OX4-SRSoftware version number:	ORYX F/W v4.00 Oryx Data Collector v3.7.2.0data status	okinstallation	princeton_trtdifferential loss correction	single-endedforward channel	channel 2reverse channel	N/Adate	2019/09/12time	18:12:49forward acquisition time	15.00reverse acquisition time	0.00gamma	496.2192k internal	0.2323k external	0.2323temperature offset calibration	1.0131default loss term (dB/km)	0.3790temperature slope calibration	1.0000multiplexer offset coefficient	1.0000multiplexer slope coefficient	1.0000fibre end	0.00T internal ref (°C)	33.56T ext. ref 1 (°C)	2.89T ext. ref 2 (°C)	28.14length (m)	temperature (°C)	Stokes	anti-Stokes-747.200	-91.979	-0.986	-0.282
-746.185	591.037	0.405	-1.009
-745.171	140.082	-0.356	-0.474
-744.156	9.450	-0.365	0.279
-743.142	-71.246	0.479	-0.182
-742.127	39.565	0.518	-0.469
-741.112	163.343	0.521	-0.739
-740.098	800.000	-0.143	-0.613
-739.083	10.329	0.187	0.143
-738.069	-103.279	0.704	0.168
-737.054	-171.985	0.934	-0.031
-736.039	728.527	0.161	0.435
-735.025	46.236	0.536	0.501
-734.010	71.970	-0.182	0.191
-732.996	800.000	0.033	-0.103
-731.981	-137.146	-0.645	0.074
-730.966	-121.256	-0.987	0.166
-729.952	-65.105	0.216	0.088
-728.937	28.156	-0.356	-0.304
-727.923	-200.000	-0.002	-0.252
-726.908	-200.000	0.022	-0.344
-725.894	-200.000	-0.039	0.411
-724.879	311.308	-0.278	0.526
-723.864	-143.716	-0.565	-0.054
-722.850	-43.530	-0.924	0.470
-721.835	197.293	-0.275	-0.423
-720.821	-127.399	0.470	0.069
-719.806	-43.799	0.718	0.364
-718.791	-123.272	-0.453	-0.073
-717.777	83.302	0.528	0.580
-716.762	210.080	0.362	0.572
-715.748	88.325	0.481	0.539
-714.733	32.572	0.042	-0.037
-713.718	117.804	-0.287	-0.356
-712.704	-140.402	0.895	-0.094
-711.689	-152.239	-0.960	0.070
-710.675	-27.364	0.209	-0.123
-709.660	108.963	-0.239	-0.289
-708.645	-200.000	-0.014	-0.987
-707.631	115.953	0.189	-0.233
-706.616	-176.563	0.214	-0.006
-705.602	-49.977	-0.322	-0.154
-704.587	-116.372	-0.680	-0.127
-703.572	-57.625	-0.364	-0.161
-702.558	800.000	-0.176	-0.657
-701.543	14.993	-0.129	0.102
-700.529	-200.000	-0.016	-0.369
-699.514	-16.430	-0.364	-0.233
-698.499	246.945	-0.337	0.573
-697.485	38.751	-0.199	-0.179
-696.470	-83.259	-0.643	0.208
-695.456	-47.360	-0.258	-0.126
-694.441	-112.144	-0.705	0.143
-693.426	68.087	0.158	0.163
-692.412	-200.000	0.059	-0.572
-691.397	-190.504	0.324	0.004
-690.383	5.668	0.440	0.328
-689.368	-168.995	-0.573	0.022
-688.354	800.000	0.132	0.484
-687.339	117.274	-0.131	-0.162
-686.324	622.721	0.265	-0.671
-685.310	800.000	0.151	0.555
-684.295	639.157	-0.046	0.118
-683.281	-200.000	0.037	0.673
-682.266	144.842	0.407	0.548
-681.251	-62.840	-0.484	0.202
-680.237	-200.000	0.100	0.683
-679.222	-91.874	-0.542	0.155
-678.208	-64.536	0.297	-0.122
-677.193	-39.626	0.582	0.307
-676.178	-7.386	-0.554	-0.378
-675.164	7.967	-0.312	-0.236
-674.149	-87.366	1.078	-0.329
-673.135	-200.000	0.058	-0.618
-672.120	-128.850	0.893	-0.127
-671.105	-47.244	-1.309	0.642
-670.091	-68.454	-0.624	-0.244
-669.076	-69.353	-0.630	-0.243
-668.062	-44.511	-0.454	-0.229
-667.047	-180.612	-1.446	0.030
-666.032	-58.009	0.318	-0.140
-665.018	-200.000	-0.000	-0.476
-664.003	404.007	-0.133	-0.281
-662.989	60.804	0.600	0.599
-661.974	-200.000	-0.278	1.348
-660.959	385.536	0.071	0.147
-659.945	391.679	0.262	0.548
-658.930	514.339	0.027	0.063
-657.916	-200.000	0.056	-0.530
-656.901	748.169	-0.105	0.286
-655.886	52.039	-0.726	0.696
-654.872	180.108	0.611	-0.901
-653.857	-200.000	0.015	0.130
-652.843	12.170	0.551	0.427
-651.828	-200.000	-0.041	0.255
-650.814	141.446	-0.525	-0.699
-649.799	-16.502	-0.369	-0.235
-648.784	-25.515	-0.490	0.291
-647.770	-200.000	-0.032	-0.478
-646.755	-200.000	0.072	-1.113
-645.741	-107.816	-0.367	0.080
-644.726	771.877	0.077	0.212
-643.711	21.464	-0.395	-0.323
-642.697	-74.005	-0.429	-0.156
-641.682	71.220	0.257	0.268
-640.668	81.117	-0.156	-0.170
-639.653	800.000	0.095	-0.337
-638.638	-82.958	-0.732	-0.238
-637.624	264.448	-0.214	-0.375
-636.609	-200.000	0.021	0.453
-635.595	-42.362	0.460	0.236
-634.580	800.000	0.215	-0.748
-633.565	-200.000	0.071	-0.364
-632.551	96.320	-0.511	-0.588
-631.536	40.262	0.514	0.465
-630.522	-76.366	-0.474	0.168
-629.507	391.925	0.294	-0.614
-628.492	800.000	0.243	-0.968
-627.478	-78.295	1.318	0.455
-626.463	-200.000	0.050	0.493
-625.449	-70.280	0.938	-0.358
-624.434	52.155	-0.346	-0.331
-623.419	93.491	-0.200	-0.228
-622.405	263.113	0.312	0.544
-621.390	344.450	0.037	0.073
-620.376	-180.401	-0.571	-0.012
-619.361	800.000	0.169	-0.615
-618.346	-105.090	-1.037	-0.238
-617.332	-21.264	-0.583	0.358
-616.317	-138.937	-0.789	0.086
-615.303	-55.736	-0.175	-0.078
-614.288	-28.514	0.627	-0.363
-613.273	-117.621	1.039	0.188
-612.259	32.491	0.562	-0.487
-611.244	-200.000	-0.095	-0.468
-610.230	274.440	-0.097	0.172
-609.215	47.631	-0.497	0.465
-608.201	127.512	-0.498	-0.636
-607.186	349.516	0.286	0.567
-606.171	-200.000	-0.067	0.554
-605.157	-75.175	0.673	0.242
-604.142	-200.000	-0.047	0.421
-603.128	-176.586	-0.711	-0.018
-602.113	-9.594	-0.812	-0.544
-601.098	-137.839	-0.721	0.081
-600.084	-174.953	-0.987	-0.028
-599.069	-200.000	0.041	0.418
-598.055	269.849	0.246	-0.434
-597.040	-118.388	0.980	0.175
-596.025	28.117	0.305	0.258
-595.011	-90.592	-0.627	0.182
-593.996	-200.000	-0.056	-0.422
-592.982	800.000	0.209	-0.582
-591.967	-200.000	-0.044	0.252
-590.952	-200.000	-0.059	0.802
-589.938	51.995	0.463	0.443
-588.923	25.971	-0.416	-0.348
-587.909	-57.107	-0.444	0.196
-586.894	73.289	-0.286	0.300
-585.879	-200.000	-0.536	0.003
-584.865	2.882	-0.278	-0.203
-583.850	393.138	0.109	0.228
-582.836	-200.000	-0.019	0.724
-581.821	37.707	-0.337	0.300
-580.806	-139.385	-0.757	0.081
-579.792	267.584	-0.264	-0.463
-578.777	-153.436	0.339	0.024
-577.763	172.018	-0.206	-0.297
-576.748	97.393	-0.497	-0.573
-575.733	800.000	-0.252	0.751
-574.719	295.728	-0.386	0.710
-573.704	-34.455	0.122	0.067
-572.690	800.000	0.046	-0.196
-571.675	-173.464	-0.269	-0.008
-570.661	134.019	0.238	0.309
-569.646	154.757	-0.100	0.138
-568.631	-157.818	-0.483	0.029
-567.617	-1.952	0.621	-0.438
-566.602	102.419	-0.370	0.433
-565.588	-6.168	0.057	0.039
-564.573	100.967	-0.411	-0.479
-563.558	-200.000	-0.163	-0.001
-562.544	-93.006	-1.188	-0.332
-561.529	287.720	0.205	-0.371
-560.515	95.562	-0.439	-0.503
-559.500	-40.959	-0.200	0.104
-558.485	-118.754	0.112	0.020
-557.471	-200.000	-0.065	0.766
-556.456	-103.159	0.695	-0.165
-555.442	-200.000	0.062	-0.972
-554.427	-200.000	0.077	-0.643
-553.412	-79.428	-0.649	0.220
-552.398	272.575	-0.276	0.488
-551.383	205.887	0.379	0.590
-550.369	-93.873	0.891	0.246
-549.354	-200.000	0.034	-0.259
-548.339	266.259	-0.343	-0.601
-547.325	-113.675	0.359	0.070
-546.310	800.000	0.041	-0.135
-545.296	273.307	-0.411	-0.728
-544.281	-200.000	0.020	-0.196
-543.266	-200.000	-0.051	0.338
-542.252	-62.651	-0.879	0.365
-541.237	-88.360	0.669	0.200
-540.223	-191.558	-0.387	-0.004
-539.208	-123.836	0.409	-0.065
-538.193	244.923	0.192	0.323
-537.179	51.968	0.174	-0.166
-536.164	-24.526	-0.326	0.194
-535.150	-109.782	1.134	0.239
-534.135	-200.000	0.523	0.001
-533.121	-62.604	-0.453	0.188
-532.106	-28.978	-0.123	-0.071
-531.091	-115.391	0.332	-0.063
-530.077	230.733	0.107	0.176
-529.062	-70.619	0.204	-0.077
-528.048	-85.345	0.755	-0.236
-527.033	-199.915	0.650	-0.003
-526.018	3.797	1.054	-0.771
-525.004	62.419	-0.319	-0.319
-523.989	-200.000	-0.010	-0.393
-522.975	800.000	-0.044	0.188
-521.960	-89.934	-1.485	0.434
-520.945	-154.130	1.052	-0.071
-519.931	207.624	0.171	0.267
-518.916	-87.706	1.004	0.303
-517.902	-127.941	-0.498	-0.072
-516.887	-200.000	-0.051	-0.555
-515.872	-200.000	0.054	-0.987
-514.858	-200.000	0.082	0.904
-513.843	-104.377	-0.543	0.126
-512.829	-200.000	0.013	0.237
-511.814	3.558	0.234	0.171
-510.799	-200.000	0.101	0.458
-509.785	800.000	0.307	0.916
-508.770	-111.000	-0.641	-0.132
-507.756	-66.677	0.525	0.208
-506.741	-200.000	-0.119	0.773
-505.726	5.058	0.037	0.027
-504.712	266.784	-0.041	0.071
-503.697	319.891	0.191	-0.363
-502.683	133.191	0.392	0.507
-501.668	-137.345	0.642	-0.073
-500.653	800.000	0.152	-0.435
-499.639	145.936	0.124	0.167
-498.624	-113.431	-0.739	-0.145
-497.610	-159.838	0.373	-0.020
-496.595	-65.316	-0.402	-0.162
-495.581	-0.633	0.650	-0.461
-494.566	78.325	0.276	-0.295
-493.551	800.000	0.070	0.276
-492.537	-90.576	0.497	0.144
-491.522	-200.000	0.145	-0.893
-490.508	-160.536	-0.221	-0.012
-489.493	-68.471	-0.279	-0.108
-488.478	253.970	0.389	0.665
-487.464	60.343	-0.642	-0.635
-486.449	-123.986	0.853	-0.134
-485.435	105.188	0.248	0.293
-484.420	32.045	0.537	0.463
-483.405	289.995	-0.140	-0.254
-482.391	122.884	-0.641	-0.802
-481.376	-52.491	-0.339	0.157
-480.362	231.509	0.167	-0.273
-479.347	405.110	-0.193	0.406
-478.332	800.000	0.068	0.248
-477.318	-76.124	0.221	-0.078
-476.303	-200.000	-0.143	-1.013
-475.289	-61.798	0.857	-0.359
-474.274	-91.867	0.689	-0.195
-473.259	-92.730	0.396	-0.111
-472.245	132.001	0.204	-0.263
-471.230	108.156	-0.312	0.372
-470.216	316.375	0.085	0.160
-469.201	-110.309	0.764	0.159
-468.186	411.775	-0.345	0.733
-467.172	-200.000	-0.004	-0.032
-466.157	56.966	-0.333	-0.324
-465.143	-40.894	-0.164	0.084
-464.128	-69.890	-0.488	0.186
-463.113	-143.420	0.243	0.023
-462.099	-130.427	-0.105	-0.014
-461.084	800.000	0.132	0.571
-460.070	800.000	0.281	0.783
-459.055	-200.000	0.038	0.268
-458.040	40.673	0.639	-0.575
-457.026	314.382	0.063	0.118
-456.011	-146.076	-0.392	-0.035
-454.997	0.457	0.413	-0.295
-453.982	118.105	-0.160	-0.197
-452.968	-24.558	0.569	-0.338
-451.953	52.772	-0.606	0.578
-450.938	-90.712	-0.299	-0.086
-449.924	32.806	0.426	0.368
-448.909	-200.000	-0.109	0.622
-447.895	39.130	0.489	-0.436
-446.880	-98.651	0.467	-0.119
-445.865	179.115	-0.391	-0.571
-444.851	-52.554	-1.085	-0.500
-443.836	20.026	0.610	0.491
-442.822	-166.123	-0.617	-0.026
-441.807	-119.124	-0.843	-0.147
-440.792	165.615	-0.615	-0.867
-439.778	-127.051	-0.587	0.086
-438.763	800.000	0.193	0.730
-437.749	-95.242	0.175	0.047
-436.734	88.894	0.589	-0.654
-435.719	186.914	-0.389	-0.578
-434.705	395.373	0.377	0.784
-433.690	-134.276	0.572	-0.070
-432.676	6.371	0.686	-0.508
-431.661	-200.000	0.024	0.309
-430.646	-78.615	0.454	0.155
-429.632	-200.000	-0.009	0.595
-428.617	-145.321	-0.253	0.023
-427.603	-28.287	0.716	0.413
-426.588	341.526	-0.410	0.799
-425.573	237.347	0.255	-0.421
-424.559	687.349	-0.262	-0.682
-423.544	-200.000	0.049	0.425
-422.530	1.160	-0.490	0.351
-421.515	463.763	0.511	1.138
-420.500	464.224	-0.151	0.336
-419.486	-105.840	0.357	0.080
-418.471	-200.000	0.174	-0.912
-417.457	-45.925	0.925	0.455
-416.442	-200.000	0.040	0.794
-415.428	314.378	0.107	-0.201
-414.413	-130.722	-0.574	-0.077
-413.398	92.391	0.353	-0.397
-412.384	-27.634	0.479	-0.277
-411.369	-89.720	0.664	0.194
-410.355	-200.000	0.005	-0.250
-409.340	-119.205	-0.690	0.120
-408.325	-33.401	-0.709	-0.391
-407.311	-164.354	-0.427	-0.020
-406.296	298.290	-0.362	0.663
-405.282	-27.934	-1.052	-0.607
-404.267	-200.000	0.007	-0.161
-403.252	-158.901	-0.271	-0.015
-402.238	-200.000	0.592	-0.002
-401.223	-126.407	-1.153	-0.171
-400.209	-75.503	-0.449	-0.159
-399.194	-148.402	-0.336	0.027
-398.179	-150.761	-0.435	-0.033
-397.165	-108.446	-0.337	-0.072
-396.150	265.692	-0.166	-0.288
-395.136	-126.298	0.790	0.118
-394.121	16.931	0.584	-0.461
-393.106	-71.460	-0.621	-0.231
-392.092	800.000	0.179	0.567
-391.077	800.000	-0.106	0.445
-390.063	-200.000	0.010	-0.739
-389.048	-200.000	0.002	0.124
-388.033	-97.502	0.584	-0.151
-387.019	-200.000	0.095	0.700
-386.004	671.497	0.093	0.239
-384.990	-200.000	0.122	-0.858
-383.975	742.053	-0.021	-0.056
-382.960	-140.735	-0.455	-0.047
-381.946	182.795	-0.302	-0.443
-380.931	-156.947	-0.287	-0.017
-379.917	-48.010	0.501	-0.241
-378.902	265.072	-0.319	-0.553
-377.888	37.420	-0.449	-0.397
-376.873	37.000	-0.076	-0.067
-375.858	-200.000	-0.013	0.422
-374.844	-92.373	-0.565	-0.158
-373.829	48.846	0.595	0.556
-372.815	-200.000	0.038	-0.409
-371.800	-35.112	-0.343	-0.186
-370.785	-119.848	-0.564	0.097
-369.771	-200.000	-0.111	-0.719
-368.756	800.000	0.095	-0.282
-367.742	-31.734	0.973	0.543
-366.727	-200.000	0.001	-0.192
-365.712	-50.319	-0.479	-0.225
-364.698	143.933	0.294	-0.390
-363.683	23.046	-0.431	0.352
-362.669	0.543	0.242	-0.172
-361.654	142.313	0.302	0.398
-360.639	-18.463	0.600	-0.373
-359.625	-1.311	-0.218	0.153
-358.610	-71.974	0.064	0.024
-357.596	582.562	-0.007	-0.016
-356.581	-66.542	-0.277	0.109
-355.566	-51.827	-0.422	0.195
-354.552	-135.172	0.898	-0.107
-353.537	-152.331	-1.191	0.085
-352.523	85.219	-0.466	-0.509
-351.508	-89.880	-0.612	-0.178
-350.493	-200.000	0.181	-0.898
-349.479	-200.000	-0.183	-0.926
-348.464	-124.916	0.141	0.022
-347.450	-27.538	-0.334	-0.193
-346.435	30.684	-0.595	-0.506
-345.420	-51.322	-0.375	0.174
-344.406	237.650	0.325	0.536
-343.391	18.660	0.070	-0.056
-342.377	800.000	-0.064	-0.211
-341.362	-65.501	-0.733	-0.292
-340.348	-69.455	0.326	0.124
-339.333	800.000	-0.095	-0.367
-338.318	-50.391	-0.782	-0.367
-337.304	-12.261	-0.328	-0.213
-336.289	-118.860	0.976	-0.171
-335.275	-137.763	0.537	0.060
-334.260	800.000	-0.098	0.273
-333.245	-200.000	-0.165	1.019
-332.231	61.317	-0.409	0.403
-331.216	-200.000	0.000	-0.684
-330.202	-187.708	0.776	-0.010
-329.187	-200.000	-0.033	0.327
-328.172	287.985	0.098	-0.176
-327.158	-66.566	1.383	-0.545
-326.143	22.764	-0.400	0.326
-325.129	0.810	-0.246	0.175
-324.114	280.706	-0.639	1.135
-323.099	-8.247	0.628	0.420
-322.085	174.818	0.300	-0.432
-321.070	-17.638	0.225	-0.140
-320.056	-131.631	-0.462	-0.060
-319.041	461.138	0.421	0.932
-318.026	-174.878	0.615	-0.017
-317.012	-200.000	-0.085	-0.653
-315.997	680.875	0.034	0.089
-314.983	79.602	0.309	-0.329
-313.968	-116.293	0.725	0.133
-312.953	182.079	0.328	-0.480
-311.939	-108.462	-0.927	0.198
-310.924	-200.000	-0.051	-0.371
-309.910	-19.341	-0.580	-0.357
-308.895	91.443	0.188	-0.210
-307.880	-68.632	0.340	0.131
-306.866	7.761	-0.225	-0.167
-305.851	-200.000	0.062	-0.644
-304.837	557.146	-0.189	0.452
-303.822	-93.866	0.314	0.086
-302.807	-104.836	0.700	-0.160
-301.793	-200.000	-0.103	0.725
-300.778	-55.935	-1.290	0.571
-299.764	-200.000	0.022	-0.126
-298.749	215.275	0.152	-0.239
-297.735	-90.762	0.609	0.174
-296.720	-200.000	0.081	0.538
-295.705	800.000	0.058	-0.176
-294.691	-38.313	-0.221	0.116
-293.676	800.000	-0.113	0.386
-292.662	-136.884	0.741	0.084
-291.647	800.000	-0.089	0.324
-290.632	800.000	0.119	-0.460
-289.618	-83.481	0.474	0.151
-288.603	64.389	-0.421	0.421
-287.589	113.607	0.240	-0.290
-286.574	-96.896	0.097	-0.025
-285.559	116.611	0.619	-0.753
-284.545	34.896	0.473	0.411
-283.530	-163.605	0.429	0.020
-282.516	246.867	-0.102	0.171
-281.501	-115.242	-0.488	0.092
-280.486	-88.462	0.451	0.133
-279.472	-200.000	-0.079	0.351
-278.457	275.575	-0.345	-0.607
-277.443	-200.000	0.020	0.185
-276.428	-192.290	0.354	-0.003
-275.413	371.376	0.100	0.201
-274.399	-98.091	-0.427	0.109
-273.384	-122.026	-0.515	-0.084
-272.370	-48.310	0.383	-0.183
-271.355	-151.605	0.136	-0.010
-270.340	-138.586	-0.425	-0.046
-269.326	443.841	0.375	-0.816
-268.311	-152.663	0.477	-0.034
-267.297	56.632	0.186	0.179
-266.282	469.691	-0.024	0.053
-265.267	284.458	-0.104	0.186
-264.253	-170.751	0.274	-0.009
-263.238	-98.891	-0.560	0.141
-262.224	-2.316	-0.899	0.625
-261.209	-51.383	0.437	-0.202
-260.195	762.965	0.072	0.194
-259.180	-200.000	0.004	-0.141
-258.165	-200.000	-0.072	-0.370
-257.151	-1.116	-0.637	0.446
-256.136	-26.825	-0.545	0.315
-255.122	208.338	-0.371	-0.574
-254.107	29.603	-0.190	0.161
-253.092	-176.780	0.154	0.004
-252.078	-121.431	-0.912	-0.150
-251.063	52.229	0.084	-0.079
-250.049	800.000	0.073	-0.208
-249.034	800.000	-0.313	-0.983
-248.019	-200.000	-0.046	0.271
-247.005	327.978	-0.205	-0.390
-245.990	-73.040	0.305	-0.111
-244.976	188.510	0.215	-0.318
-243.961	550.224	0.067	-0.160
-242.946	800.000	0.111	-0.399
-241.932	-200.000	-0.115	0.595
-240.917	118.768	0.474	0.580
-239.903	517.420	0.331	0.767
-238.888	578.161	0.317	0.769
-237.873	-69.144	0.786	-0.299
-236.859	-135.312	0.830	0.098
-235.844	-200.000	-0.009	0.076
-234.830	-42.672	-0.192	-0.097
-233.815	-91.266	0.447	-0.127
-232.800	800.000	-0.231	0.818
-231.786	-27.980	-0.281	-0.161
-230.771	21.339	0.263	0.212
-229.757	-95.411	0.342	-0.091
-228.742	-130.351	0.554	-0.074
-227.727	-200.000	0.079	-0.474
-226.713	35.208	0.489	0.424
-225.698	-200.000	0.017	0.256
-224.684	428.141	-0.170	0.364
-223.669	-171.075	0.680	-0.023
-222.655	-200.000	-0.092	0.437
-221.640	75.094	0.157	-0.163
-220.625	32.103	0.332	0.283
-219.611	-15.832	0.141	-0.089
-218.596	-28.585	0.449	-0.256
-217.582	-167.854	0.804	0.031
-216.567	-54.467	-0.418	0.187
-215.552	48.319	-0.583	0.540
-214.538	800.000	-0.164	0.501
-213.523	800.000	-0.096	-0.411
-212.509	-45.146	-0.679	0.334
-211.494	-118.394	-0.237	0.042
-210.479	-25.075	0.586	-0.344
-209.465	-51.461	-0.438	0.202
-208.450	-198.547	-0.552	0.003
-207.436	-200.000	0.015	-0.441
-206.421	29.109	-0.208	0.174
-205.406	-52.340	0.661	0.303
-204.392	115.744	0.191	0.231
-203.377	-62.593	0.281	-0.115
-202.363	-45.913	0.515	0.251
-201.348	462.432	-0.408	-0.901
-200.333	355.367	-0.039	0.077
-199.319	471.318	-0.202	0.449
-198.304	63.196	0.140	-0.139
-197.290	-126.753	-0.586	0.086
-196.275	398.342	-0.271	0.561
-195.260	-61.283	0.538	-0.224
-194.246	800.000	0.114	-0.389
-193.231	-133.606	0.546	-0.068
-192.217	800.000	0.323	0.904
-191.202	-200.000	-0.167	0.741
-190.187	-79.025	-0.168	-0.056
-189.173	-61.950	0.829	-0.342
-188.158	-104.570	-0.349	-0.079
-187.144	127.261	-0.417	0.523
-186.129	-44.968	0.517	-0.254
-185.114	-98.125	-0.581	-0.148
-184.100	110.560	0.176	-0.208
-183.085	50.041	-0.483	0.450
-182.071	-200.000	0.104	-1.128
-181.056	75.962	-0.351	0.367
-180.042	385.524	0.108	0.220
-179.027	-65.068	0.651	0.259
-178.012	263.567	-0.183	0.315
-176.998	23.452	-0.390	-0.317
-175.983	-135.392	0.462	0.055
-174.969	-200.000	-0.039	0.542
-173.954	-56.899	-0.215	-0.094
-172.939	-114.326	-0.382	-0.073
-171.925	800.000	0.126	0.356
-170.910	-200.000	-0.059	0.445
-169.896	-49.869	0.087	0.041
-168.881	-8.114	0.413	0.275
-167.866	-24.644	0.169	-0.099
-166.852	112.533	-0.587	0.701
-165.837	701.804	0.088	-0.228
-164.823	-200.000	0.123	0.744
-163.808	-43.350	-0.574	0.286
-162.793	-200.000	-0.038	-0.247
-161.779	168.797	-0.347	-0.489
-160.764	-149.562	0.545	0.043
-159.750	46.065	-0.688	-0.629
-158.735	29.773	-0.663	-0.557
-157.720	-200.000	0.065	1.073
-156.706	800.000	-0.172	-0.720
-155.691	-78.703	-0.716	0.241
-154.677	-200.000	0.077	0.881
-153.662	-200.000	-0.007	-0.106
-152.647	57.840	0.154	-0.149
-151.633	-129.258	0.717	-0.099
-150.618	448.065	-0.115	-0.249
-149.604	-48.240	-0.780	-0.371
-148.589	-153.621	-0.515	0.035
-147.574	-61.335	0.093	-0.039
-146.560	274.772	0.221	-0.387
-145.545	-200.000	0.090	0.468
-144.531	264.317	0.047	0.081
-143.516	729.865	-0.238	-0.628
-142.502	192.667	-0.332	-0.494
-141.487	-98.841	0.498	-0.125
-140.472	-54.398	-0.070	-0.031
-139.458	47.929	-0.425	-0.391
-138.443	-200.000	0.098	-0.431
-137.429	-78.191	-0.639	-0.217
-136.414	-92.486	0.638	0.177
-135.399	12.295	-0.325	0.247
-134.385	-200.000	-0.038	0.456
-133.370	351.474	0.218	-0.425
-132.356	316.580	-0.331	-0.616
-131.341	14.902	0.258	-0.199
-130.326	-18.492	-0.691	0.425
-129.312	-87.962	-0.396	0.117
-128.297	-154.208	-0.508	-0.034
-127.283	-200.000	0.093	0.491
-126.268	-80.731	0.386	0.126
-125.253	-141.073	-0.203	-0.021
-124.239	800.000	-0.082	0.330
-123.224	233.781	-0.319	0.517
-122.210	-90.400	0.900	0.257
