DTS Sentinel unit serial number:	SN413079Multiplexer serial number:	ORYXHardware model number:	OX4-SRSoftware version number:	ORYX F/W v4.00 Oryx Data Collector v3.7.2.0data status	okinstallation	princeton_trtdifferential loss correction	single-endedforward channel	channel 2reverse channel	N/Adate	2019/09/11time	08:45:11forward acquisition time	60.00reverse acquisition time	0.00gamma	496.2192k internal	0.2319k external	0.2319temperature offset calibration	0.9966default loss term (dB/km)	0.3790temperature slope calibration	1.0000multiplexer offset coefficient	1.0000multiplexer slope coefficient	1.0000fibre end	0.00T internal ref (°C)	33.66T ext. ref 1 (°C)	0.09T ext. ref 2 (°C)	30.84length (m)	temperature (°C)	Stokes	anti-Stokes-747.200	-200.000	0.026	-0.136
-746.185	-33.201	0.089	0.050
-745.171	-136.468	0.155	0.018
-744.156	373.047	0.194	0.399
-743.142	57.876	0.055	-0.055
-742.127	-200.000	0.002	-0.130
-741.112	-200.000	0.025	0.132
-740.098	-1.365	-0.320	0.228
-739.083	-200.000	-0.012	0.336
-738.069	-105.340	-0.009	0.002
-737.054	41.271	-0.163	0.149
-736.039	-83.022	0.252	0.082
-735.025	-200.000	0.036	0.277
-734.010	-200.000	0.019	-0.262
-732.996	-29.883	-0.343	-0.198
-731.981	-140.462	-0.177	-0.019
-730.966	473.004	0.160	-0.365
-729.952	411.099	-0.101	-0.217
-728.937	-149.111	0.184	-0.015
-727.923	-127.755	-0.154	-0.023
-726.908	-100.571	-0.199	0.050
-725.894	172.152	-0.145	-0.210
-724.879	-200.000	0.030	0.304
-723.864	-121.788	0.129	0.022
-722.850	-74.545	0.170	-0.062
-721.835	155.056	0.047	0.066
-720.821	376.620	0.092	-0.190
-719.806	-69.864	-0.288	-0.111
-718.791	-124.147	0.062	-0.010
-717.777	-100.651	-0.298	0.074
-716.762	-81.990	-0.406	-0.134
-715.748	-6.349	0.188	0.130
-714.733	50.279	-0.227	0.216
-713.718	-62.052	-0.264	-0.111
-712.704	294.311	0.116	-0.214
-711.689	670.910	0.132	-0.345
-710.675	37.593	0.048	0.043
-709.660	797.880	-0.138	0.384
-708.645	93.509	-0.188	0.215
-707.631	195.290	0.161	-0.247
-706.616	717.636	0.076	-0.203
-705.602	-82.319	-0.200	0.066
-704.587	-156.970	0.076	0.005
-703.572	203.640	-0.036	-0.056
-702.558	180.737	-0.116	0.172
-701.543	-75.782	-0.168	-0.060
-700.529	-200.000	0.034	0.196
-699.514	-21.702	-0.307	0.189
-698.499	454.031	0.161	0.361
-697.485	48.931	-0.384	-0.364
-696.470	-122.287	-0.049	0.008
-695.456	-25.010	-0.218	-0.130
-694.441	-133.370	0.070	-0.009
-693.426	70.705	-0.137	-0.143
-692.412	568.752	-0.044	-0.109
-691.397	-200.000	-0.005	-0.316
-690.383	27.605	0.152	-0.129
-689.368	-75.977	-0.196	-0.070
-688.354	4.055	0.252	0.186
-687.339	-89.361	-0.324	-0.096
-686.324	-19.869	0.158	-0.099
-685.310	286.356	-0.105	0.191
-684.295	-57.266	-0.304	-0.135
-683.281	-200.000	0.031	-0.238
-682.266	800.000	0.098	0.295
-681.251	200.432	-0.031	0.048
-680.237	11.381	-0.155	-0.120
-679.222	-100.815	-0.198	0.049
-678.208	-164.071	0.212	0.010
-677.193	44.433	-0.103	-0.095
-676.178	-20.212	-0.254	0.158
-675.164	-200.000	0.010	-0.050
-674.149	-35.060	0.059	0.032
-673.135	-72.108	0.323	-0.121
-672.120	800.000	0.026	0.096
-671.105	-200.000	-0.021	-0.240
-670.091	-53.529	0.282	0.130
-669.076	-200.000	-0.022	-0.140
-668.062	-40.115	-0.371	-0.195
-667.047	251.966	-0.089	-0.154
-666.032	253.371	-0.122	-0.210
-665.018	-16.986	-0.155	0.099
-664.003	-55.631	-0.259	-0.117
-662.989	-200.000	-0.008	0.351
-661.974	528.889	0.066	0.158
-660.959	-58.076	-0.306	0.135
-659.945	540.465	-0.174	0.418
-658.930	-93.480	0.138	0.038
-657.916	264.016	-0.074	-0.130
-656.901	710.151	-0.166	0.442
-655.886	-175.479	-0.161	0.004
-654.872	72.630	-0.127	-0.134
-653.857	80.226	-0.250	0.272
-652.843	-200.000	-0.051	-0.231
-651.828	-200.000	-0.046	-0.455
-650.814	178.951	-0.192	0.283
-649.799	-200.000	-0.027	0.193
-648.784	-200.000	0.047	0.241
-647.770	-151.404	0.275	0.021
-646.755	-19.664	-0.130	-0.081
-645.741	-171.729	-0.261	-0.009
-644.726	34.020	-0.067	0.059
-643.711	-25.685	-0.143	-0.085
-642.697	339.493	0.054	0.105
-641.682	161.453	0.013	0.018
-640.668	-156.680	-0.348	0.022
-639.653	800.000	0.136	-0.590
-638.638	-21.034	-0.314	-0.194
-637.624	109.520	0.211	-0.255
-636.609	697.800	0.180	0.477
-635.595	-200.000	-0.048	-0.392
-634.580	-200.000	-0.029	-0.190
-633.565	-116.208	0.386	0.072
-632.551	-144.450	-0.233	-0.022
-631.536	40.646	0.105	0.095
-630.522	-200.000	0.135	-0.617
-629.507	-65.400	0.186	0.075
-628.492	114.834	0.180	0.221
-627.478	17.989	-0.201	-0.161
-626.463	-148.231	-0.127	0.011
-625.449	-200.000	0.053	0.303
-624.434	-200.000	0.017	0.501
-623.419	-77.268	-0.349	-0.122
-622.405	800.000	0.092	-0.359
-621.390	-142.471	0.266	-0.026
-620.376	-200.000	0.295	0.000
-619.361	451.933	0.087	0.194
-618.346	103.654	0.081	0.096
-617.332	193.047	0.033	-0.050
-616.317	27.819	-0.394	-0.334
-615.303	800.000	0.020	-0.081
-614.288	-43.571	0.039	-0.020
-613.273	-50.763	0.406	-0.192
-612.259	-2.857	0.222	0.156
-611.244	-117.439	0.369	-0.067
-610.230	-200.000	-0.030	-0.363
-609.215	-118.391	0.273	0.049
-608.201	340.489	-0.177	0.347
-607.186	36.291	0.168	0.149
-606.171	-85.246	0.089	0.028
-605.157	-200.000	0.025	0.227
-604.142	116.128	-0.160	0.197
-603.128	-160.408	-0.313	0.017
-602.113	-96.697	-0.075	-0.020
-601.098	25.564	0.103	0.086
-600.084	620.267	-0.125	-0.317
-599.069	673.255	-0.041	0.107
-598.055	621.327	0.106	-0.269
-597.040	633.091	-0.081	0.207
-596.025	-109.484	-0.075	-0.016
-595.011	-92.924	0.272	-0.077
-593.996	232.261	-0.077	-0.128
-592.982	326.965	-0.093	0.179
-591.967	-115.819	-0.248	0.047
-590.952	-85.395	-0.198	-0.062
-589.938	-89.665	-0.065	-0.019
-588.923	188.461	-0.128	-0.192
-587.909	-200.000	0.006	0.267
-586.894	-129.458	0.156	0.022
-585.879	-59.379	-0.182	-0.079
-584.865	-28.119	0.035	0.020
-583.850	179.152	0.230	0.338
-582.836	29.571	0.213	0.182
-581.821	-102.753	0.263	0.063
-580.806	24.571	-0.090	0.075
-579.792	8.294	-0.056	-0.042
-578.777	-200.000	-0.068	0.318
-577.763	-187.016	0.052	-0.001
-576.748	22.464	0.230	-0.189
-575.733	800.000	-0.071	0.198
-574.719	-8.210	-0.086	0.058
-573.704	197.775	-0.072	0.110
-572.690	-127.771	0.093	0.013
-571.675	-78.079	-0.291	-0.101
-570.661	-37.608	0.244	0.130
-569.646	-52.863	-0.047	-0.022
-568.631	629.485	0.182	-0.464
-567.617	-200.000	0.015	-0.149
-566.602	575.006	-0.195	0.478
-565.588	-77.025	-0.109	-0.038
-564.573	337.705	0.096	0.188
-563.558	-185.519	-0.128	0.002
-562.544	0.522	-0.049	-0.035
-561.529	81.086	0.282	-0.306
-560.515	-0.675	0.332	-0.237
-559.500	93.334	-0.215	-0.244
-558.485	-200.000	0.031	-0.145
-557.471	-53.317	-0.090	0.042
-556.456	-200.000	0.021	-0.204
-555.442	-51.796	0.314	0.147
-554.427	30.759	-0.173	-0.149
-553.412	534.079	0.017	0.040
-552.398	0.076	-0.206	-0.147
-551.383	-54.748	-0.220	-0.100
-550.369	-25.970	-0.161	0.095
-549.354	141.602	0.050	0.067
-548.339	-200.000	0.068	0.307
-547.325	800.000	-0.006	-0.019
-546.310	-17.207	-0.152	0.096
-545.296	31.881	0.048	-0.041
-544.281	140.091	-0.116	0.153
-543.266	800.000	-0.009	-0.037
-542.252	88.985	-0.222	-0.248
-541.237	-142.527	-0.491	-0.048
-540.223	129.179	0.168	0.215
-539.208	9.051	0.245	0.185
-538.193	-150.813	-0.117	0.009
-537.179	-200.000	-0.018	-0.106
-536.164	-36.750	-0.152	-0.082
-535.150	-106.958	-0.183	-0.041
-534.135	-200.000	-0.030	-0.274
-533.121	-71.083	0.103	-0.039
-532.106	-77.554	0.360	-0.125
-531.091	800.000	0.045	0.129
-530.077	-47.436	0.228	0.111
-529.062	152.600	-0.078	0.108
-528.048	397.785	-0.027	0.056
-527.033	-45.884	-0.088	-0.043
-526.018	-81.943	-0.300	-0.098
-525.004	-73.365	0.074	0.027
-523.989	455.892	0.114	-0.253
-522.975	-56.167	-0.296	-0.132
-521.960	-11.235	0.141	0.093
-520.945	-81.097	0.091	-0.030
-519.931	9.924	0.076	-0.058
-518.916	-150.812	-0.101	-0.008
-517.902	800.000	0.035	-0.136
-516.887	103.020	-0.102	0.120
-515.872	-200.000	-0.306	0.001
-514.858	109.381	-0.127	-0.152
-513.843	33.386	-0.158	-0.137
-512.829	-4.959	-0.288	-0.199
-511.814	376.943	0.076	-0.156
-510.799	-80.940	0.187	-0.062
-509.785	-85.266	-0.057	-0.018
-508.770	-200.000	0.006	0.192
-507.756	756.176	0.019	0.052
-506.741	-104.760	0.160	0.037
-505.726	-98.802	-0.044	-0.011
-504.712	-73.037	-0.056	-0.021
-503.697	272.830	0.177	0.314
-502.683	45.838	-0.163	-0.151
-501.668	-30.856	-0.238	0.135
-500.653	69.446	0.182	0.188
-499.639	-14.017	-0.094	-0.061
-498.624	-78.164	0.128	0.044
-497.610	105.562	0.136	-0.162
-496.595	-105.162	-0.099	-0.023
-495.581	-2.523	-0.128	-0.090
-494.566	15.073	-0.115	0.090
-493.551	-111.005	-0.118	0.024
-492.537	-25.462	0.077	0.046
-491.522	13.727	0.039	-0.031
-490.508	-74.078	0.146	-0.053
-489.493	800.000	-0.104	-0.297
-488.478	-104.748	-0.239	0.055
-487.464	800.000	0.045	-0.153
-486.449	-34.094	0.179	0.098
-485.435	-200.000	-0.008	0.067
-484.420	12.926	0.308	0.239
-483.405	-179.626	0.312	0.007
-482.391	-31.603	0.171	0.096
-481.376	49.475	0.374	0.352
-480.362	-113.406	0.203	0.040
-479.347	-39.162	-0.180	-0.095
-478.332	-200.000	0.004	-0.458
-477.318	255.025	-0.095	-0.163
-476.303	-48.445	0.210	-0.101
-475.289	-133.264	-0.281	0.035
-474.274	-151.692	-0.102	-0.008
-473.259	800.000	0.099	-0.293
-472.245	568.782	0.068	0.165
-471.230	0.003	-0.363	0.259
-470.216	-111.904	0.104	0.021
-469.201	176.477	0.111	0.162
-468.186	800.000	0.066	0.190
-467.172	-10.483	0.097	-0.064
-466.157	-35.467	-0.128	0.069
-465.143	-105.932	0.171	0.039
-464.128	-200.000	-0.005	-0.067
-463.113	-94.036	0.379	-0.104
-462.099	-150.147	0.280	0.022
-461.084	-49.151	-0.366	-0.175
-460.070	-0.014	0.217	0.155
-459.055	-134.803	0.139	-0.017
-458.040	800.000	0.078	-0.257
-457.026	800.000	-0.036	0.140
-456.011	460.061	-0.026	-0.058
-454.997	194.069	-0.128	-0.194
-453.982	60.419	-0.244	0.241
-452.968	-144.382	-0.070	0.006
-451.953	-109.132	-0.245	-0.052
-450.938	-122.317	-0.389	0.064
-449.924	67.423	0.146	-0.149
-448.909	272.588	0.102	-0.179
-447.895	-45.832	-0.472	0.233
-446.880	-137.318	-0.199	0.023
-445.865	-7.361	0.263	-0.178
-444.851	-200.000	0.006	0.110
-443.836	-126.357	-0.101	0.015
-442.822	107.643	0.108	0.129
-441.807	-18.464	-0.111	-0.069
-440.792	-200.000	-0.001	-0.076
-439.778	29.721	-0.110	-0.094
-438.763	800.000	0.088	0.377
-437.749	170.332	-0.037	0.054
-436.734	-123.753	0.057	-0.009
-435.719	715.605	-0.119	-0.317
-434.705	129.431	0.109	-0.139
-433.690	-22.770	0.282	0.170
-432.676	429.556	0.081	0.175
-431.661	138.164	0.084	0.109
-430.646	442.303	-0.184	0.403
-429.632	219.410	0.052	-0.083
-428.617	50.831	-0.355	-0.336
-427.603	581.435	-0.088	-0.215
-426.588	-92.886	0.268	0.075
-425.573	-122.280	-0.242	0.040
-424.559	-200.000	-0.015	-0.097
-423.544	-200.000	0.006	0.237
-422.530	97.967	-0.238	0.274
-421.515	-104.795	0.568	-0.130
-420.500	800.000	0.086	0.369
-419.486	175.017	0.020	0.029
-418.471	-119.346	-0.075	-0.013
-417.457	-145.165	0.254	-0.023
-416.442	290.653	0.066	0.120
-415.428	-200.000	0.007	0.139
-414.413	202.985	-0.189	-0.292
-413.398	-131.951	0.073	0.010
-412.384	-200.000	0.011	0.187
-411.369	-105.184	-0.155	0.035
-410.355	-151.510	0.247	-0.018
-409.340	-200.000	-0.014	-0.128
-408.325	-59.775	-0.197	0.084
-407.311	-85.487	0.035	0.011
-406.296	800.000	-0.045	-0.156
-405.282	800.000	-0.036	0.122
-404.267	57.489	-0.325	0.317
-403.252	-133.882	-0.210	0.026
-402.238	-20.025	0.182	0.112
-401.223	31.096	0.143	-0.122
-400.209	3.678	-0.348	0.253
-399.194	193.936	-0.084	0.126
-398.179	162.236	0.112	0.157
-397.165	-57.851	0.308	-0.134
-396.150	42.810	0.157	0.143
-395.136	800.000	-0.092	0.371
-394.121	800.000	0.077	0.261
-393.106	399.886	0.032	-0.067
-392.092	492.678	-0.097	0.222
-391.077	324.478	-0.091	0.173
-390.063	-85.073	-0.225	0.070
-389.048	75.220	-0.099	0.104
-388.033	-5.975	0.072	-0.049
-387.019	-133.315	-0.185	-0.023
-386.004	5.903	0.035	0.026
-384.990	-114.962	-0.046	0.009
-383.975	-82.172	0.305	-0.099
-382.960	533.469	0.030	-0.071
-381.946	-75.451	-0.313	0.111
-380.931	564.388	0.049	0.119
-379.917	58.923	-0.129	-0.126
-378.902	-77.435	0.257	0.089
-377.888	-32.263	-0.192	-0.107
-376.873	750.041	-0.077	0.208
-375.858	-154.947	-0.034	-0.002
-374.844	-143.477	0.412	-0.039
-373.829	3.159	0.084	-0.061
-372.815	800.000	0.150	0.432
-371.800	-200.000	0.012	-0.425
-370.785	22.963	-0.255	0.208
-369.771	151.404	-0.150	-0.203
-368.756	-159.202	-0.325	-0.018
-367.742	-160.660	0.068	-0.004
-366.727	-197.696	-0.199	0.001
-365.712	389.010	-0.141	-0.292
-364.698	225.734	0.099	-0.160
-363.683	35.057	-0.162	-0.142
-362.669	165.868	0.180	0.253
-361.654	-118.874	0.196	0.034
-360.639	-4.259	0.261	0.180
-359.625	800.000	-0.026	0.097
-358.610	-103.372	-0.252	0.059
-357.596	-37.159	-0.207	-0.110
-356.581	-35.676	0.144	0.078
-355.566	-29.343	0.341	0.195
-354.552	798.859	0.082	-0.226
-353.537	-37.692	-0.154	-0.082
-352.523	89.215	0.160	-0.177
-351.508	451.014	0.160	0.353
-350.493	-77.009	-0.210	-0.073
-349.479	-51.814	0.243	-0.113
-348.464	-200.000	-0.024	-0.128
-347.450	-200.000	0.005	-0.154
-346.435	800.000	-0.047	0.204
-345.420	-102.747	0.367	-0.087
-344.406	245.372	0.138	-0.232
-343.391	789.859	0.039	-0.107
-342.377	-86.111	-0.328	0.101
-341.362	-178.864	0.291	-0.007
-340.348	-68.473	0.036	-0.014
-339.333	800.000	0.078	-0.307
-338.318	-200.000	-0.024	0.231
-337.304	154.510	0.099	0.135
-336.289	-200.000	-0.016	0.110
-335.275	800.000	0.055	-0.158
-334.260	-90.435	0.208	-0.060
-333.245	132.765	0.022	-0.028
-332.231	800.000	-0.054	0.151
-331.216	-125.298	0.271	-0.041
-330.202	-200.000	0.034	-0.275
-329.187	-200.000	0.004	-0.184
-328.172	141.167	-0.027	-0.036
-327.158	97.948	-0.247	0.283
-326.143	-115.428	-0.353	0.066
-325.129	541.406	0.090	0.212
-324.114	-200.000	0.009	0.101
-323.099	651.552	0.099	0.251
-322.085	258.465	-0.162	0.278
-321.070	-186.529	-0.285	-0.004
-320.056	322.299	-0.036	0.069
-319.041	800.000	-0.043	-0.125
-318.026	-200.000	-0.006	-0.230
-317.012	209.525	-0.120	-0.186
-315.997	-127.608	0.281	0.041
-314.983	774.289	-0.073	-0.197
-313.968	-200.000	-0.049	-0.316
-312.953	5.399	-0.120	0.088
-311.939	132.154	0.097	-0.125
-310.924	-200.000	-0.029	-0.157
-309.910	389.552	-0.142	0.292
-308.895	-169.877	0.286	0.010
-307.880	-200.000	0.070	-0.383
-306.866	290.556	-0.089	0.162
-305.851	-91.855	-0.066	-0.019
-304.837	4.016	-0.134	-0.097
-303.822	71.470	0.089	-0.091
-302.807	156.506	-0.076	-0.105
-301.793	-200.000	-0.086	-0.409
-300.778	113.222	-0.094	-0.113
-299.764	800.000	-0.103	0.345
-298.749	-200.000	-0.042	-0.217
-297.735	800.000	0.061	0.200
-296.720	435.233	0.156	-0.338
-295.705	7.096	0.161	-0.119
-294.691	-141.334	-0.222	-0.022
-293.676	-101.147	-0.104	0.025
-292.662	496.508	0.120	0.273
-291.647	800.000	0.032	-0.099
-290.632	-200.000	0.011	-0.093
-289.618	-124.093	0.185	0.029
-288.603	377.959	0.113	-0.229
-287.589	-200.000	0.003	-0.040
-286.574	-31.831	0.233	-0.130
-285.559	-200.000	-0.000	0.106
-284.545	-153.065	0.147	-0.010
-283.530	-40.408	-0.141	0.073
-282.516	800.000	0.033	-0.135
-281.501	-166.151	0.454	-0.019
-280.486	800.000	0.066	0.241
-279.472	6.834	0.198	0.147
-278.457	19.293	-0.182	0.145
-277.443	-60.329	-0.133	-0.056
-276.428	59.940	-0.073	0.071
-275.413	800.000	0.042	0.139
-274.399	-123.702	-0.273	-0.043
-273.384	465.250	0.132	0.293
-272.370	-200.000	-0.013	-0.212
-271.355	800.000	-0.068	-0.214
-270.340	-14.490	-0.192	0.123
-269.326	-73.854	-0.247	0.089
-268.311	63.390	0.044	0.043
-267.297	38.640	-0.099	0.088
-266.282	800.000	-0.102	-0.297
-265.267	800.000	0.115	-0.421
-264.253	-66.528	-0.411	-0.162
-263.238	-149.613	0.212	-0.017
-262.224	-200.000	-0.049	0.320
-261.209	-54.286	0.111	-0.050
-260.195	78.405	-0.248	0.263
-259.180	-200.000	0.027	0.204
-258.165	76.184	0.062	-0.065
-257.151	43.074	0.400	0.362
-256.136	-101.412	-0.377	0.091
-255.122	78.670	-0.474	-0.503
-254.107	-160.370	-0.355	0.019
-253.092	281.960	0.109	0.193
-252.078	-116.869	-0.064	0.012
-251.063	-135.922	-0.066	-0.008
-250.049	-131.646	-0.161	-0.021
-249.034	-95.877	-0.069	0.018
-248.019	230.263	-0.024	-0.039
-247.005	-122.654	-0.061	0.010
-245.990	-71.784	-0.189	0.070
-244.976	77.343	-0.193	0.204
-243.961	342.429	-0.078	-0.151
-242.946	-81.977	-0.233	-0.076
-241.932	256.426	-0.147	0.250
-240.917	-64.916	0.134	0.054
-239.903	-46.572	0.155	-0.075
-238.888	-88.378	-0.112	-0.033
-237.873	43.461	-0.422	-0.383
-236.859	643.545	0.055	0.140
-235.844	-200.000	0.049	0.215
-234.830	-200.000	0.065	-0.312
-233.815	-7.013	-0.183	-0.123
-232.800	31.747	0.172	-0.147
-231.786	-195.069	-0.113	0.001
-230.771	-200.000	-0.003	-0.125
-229.757	-52.581	-0.204	0.094
-228.742	55.848	-0.179	-0.172
-227.727	-128.872	-0.376	0.052
-226.713	29.362	0.119	0.100
-225.698	57.673	-0.095	-0.093
-224.684	-4.498	0.009	0.006
-223.669	-200.000	0.068	-0.319
-222.655	237.199	0.132	-0.216
-221.640	-200.000	-0.021	0.224
-220.625	38.764	-0.266	-0.236
-219.611	17.706	0.129	0.102
-218.596	800.000	-0.052	0.177
-217.582	-101.063	-0.188	0.046
-216.567	-118.486	0.155	0.027
-215.552	-12.128	0.261	0.169
-214.538	-161.049	-0.189	0.010
-213.523	135.788	-0.026	-0.033
-212.509	600.695	0.112	-0.277
-211.494	-161.544	-0.128	0.006
-210.479	800.000	-0.069	-0.225
-209.465	-200.000	-0.079	-0.375
-208.450	-14.347	0.176	0.112
-207.436	800.000	-0.058	-0.219
-206.421	148.503	0.101	0.135
-205.406	-113.808	0.288	0.055
-204.392	-146.301	-0.190	0.017
-203.377	-5.081	-0.151	-0.103
-202.363	-136.245	0.593	0.069
-201.348	-200.000	0.024	0.296
-200.333	-41.535	0.126	0.064
-199.319	10.050	0.347	0.261
-198.304	-42.766	0.210	0.106
-197.290	-54.975	-0.324	0.145
-196.275	800.000	0.042	-0.139
-195.260	-39.085	0.299	-0.156
-194.246	800.000	0.092	-0.375
-193.231	40.436	0.161	-0.143
-192.217	-200.000	0.015	-0.110
-191.202	239.833	0.236	0.390
-190.187	-200.000	0.003	-0.206
-189.173	-19.008	0.329	-0.203
-188.158	55.005	0.134	-0.128
-187.144	98.815	0.193	-0.221
-186.129	-200.000	0.004	-0.244
-185.114	448.000	0.123	-0.268
-184.100	211.942	0.050	0.078
-183.085	135.245	0.190	0.245
-182.071	-112.727	-0.297	-0.058
-181.056	50.809	-0.104	-0.097
-180.042	800.000	0.038	0.158
-179.027	18.080	0.302	0.238
-178.012	-128.738	-0.163	0.023
-176.998	-86.686	-0.117	0.035
-175.983	-42.906	0.244	0.123
-174.969	-20.879	0.407	0.247
-173.954	106.858	-0.100	0.118
-172.939	-125.235	0.256	-0.039
-171.925	-90.608	-0.155	-0.044
-170.910	50.752	-0.279	0.262
-169.896	-121.718	-0.190	0.031
-168.881	-200.000	0.031	-0.264
-167.866	26.638	-0.194	-0.160
-166.852	-200.000	-0.000	0.126
-165.837	1.384	0.050	-0.035
-164.823	-136.237	0.379	-0.044
-163.808	800.000	0.017	0.072
-162.793	-50.802	0.103	0.048
-161.779	-71.140	0.169	-0.063
-160.764	-6.991	-0.095	0.064
-159.750	-93.506	-0.131	0.036
-158.735	-200.000	-0.002	0.421
-157.720	-40.745	0.108	0.056
-156.706	-200.000	0.019	0.135
-155.691	-109.435	-0.058	-0.012
-154.677	-200.000	-0.010	0.149
-153.662	800.000	-0.048	0.143
-152.647	800.000	-0.026	-0.101
-151.633	-166.643	0.209	-0.009
-150.618	-95.987	-0.261	0.069
-149.604	-133.930	-0.045	-0.005
-148.589	-62.275	-0.256	0.105
-147.574	788.179	0.043	-0.116
-146.560	-99.738	-0.033	-0.008
-145.545	171.112	0.056	-0.080
-144.531	304.977	0.114	0.209
-143.516	-200.000	-0.053	0.412
-142.502	492.507	0.088	0.199
-141.487	-200.000	-0.048	0.210
-140.472	374.865	-0.261	0.525
-139.458	-117.073	0.228	0.041
-138.443	71.546	-0.181	0.186
-137.429	-150.510	-0.276	-0.021
-136.414	-200.000	0.001	-0.147
-135.399	-96.248	-0.057	0.015
-134.385	800.000	-0.080	0.342
-133.370	-200.000	-0.012	0.067
-132.356	-88.523	0.402	0.118
-131.341	-145.171	0.133	0.012
-130.326	483.783	-0.057	-0.127
-129.312	-54.552	-0.227	-0.101
-128.297	-117.786	-0.222	0.039
-127.283	125.380	0.038	-0.047
-126.268	48.047	0.129	-0.119
-125.253	-139.633	0.481	-0.051
-124.239	152.220	0.238	0.320
-123.224	-162.807	-0.496	0.024
-122.210	-199.056	0.479	-0.003
