DTS Sentinel unit serial number:	SN413079Multiplexer serial number:	ORYXHardware model number:	OX4-SRSoftware version number:	ORYX F/W v4.00 Oryx Data Collector v3.7.2.0data status	okinstallation	princeton_trtdifferential loss correction	single-endedforward channel	channel 2reverse channel	N/Adate	2019/09/16time	13:31:34forward acquisition time	60.00reverse acquisition time	0.00gamma	496.2192k internal	0.2296k external	0.2296temperature offset calibration	0.9938default loss term (dB/km)	0.3790temperature slope calibration	1.0000multiplexer offset coefficient	1.0000multiplexer slope coefficient	1.0000fibre end	0.00T internal ref (°C)	41.81T ext. ref 1 (°C)	13.82T ext. ref 2 (°C)	39.92length (m)	temperature (°C)	Stokes	anti-Stokes-747.200	-27.698	0.255	-0.152
-746.185	74.465	0.076	-0.082
-745.171	800.000	-0.131	-0.550
-744.156	-113.662	-0.052	0.010
-743.142	-22.278	0.269	0.167
-742.127	64.360	-0.146	0.150
-741.112	-87.564	-0.019	0.006
-740.098	66.275	0.127	-0.131
-739.083	148.362	-0.137	-0.188
-738.069	-75.562	0.148	0.054
-737.054	-57.400	-0.185	-0.083
-736.039	800.000	-0.090	-0.333
-735.025	493.692	-0.015	0.036
-734.010	-200.000	-0.042	0.190
-732.996	21.205	-0.342	0.283
-731.981	-200.000	0.001	-0.317
-730.966	-1.674	0.300	-0.216
-729.952	-45.212	-0.071	-0.036
-728.937	27.655	-0.236	-0.203
-727.923	-142.553	-0.051	-0.005
-726.908	-142.497	-0.484	0.049
-725.894	-200.000	-0.001	0.154
-724.879	-108.259	0.254	0.056
-723.864	-8.867	0.181	-0.124
-722.850	91.430	-0.059	-0.068
-721.835	658.664	-0.040	0.106
-720.821	-67.972	-0.084	-0.034
-719.806	-200.000	-0.105	-0.000
-718.791	-200.000	-0.017	-0.081
-717.777	326.512	-0.070	0.137
-716.762	9.592	-0.257	-0.199
-715.748	62.012	0.052	-0.053
-714.733	221.983	-0.188	-0.309
-713.718	-38.067	-0.199	-0.108
-712.704	481.926	0.084	0.194
-711.689	105.304	-0.136	0.163
-710.675	539.176	0.052	-0.126
-709.660	-45.095	-0.118	-0.060
-708.645	-153.933	0.070	-0.005
-707.631	71.569	-0.227	0.241
-706.616	10.710	-0.038	-0.030
-705.602	-104.678	-0.037	-0.009
-704.587	-7.610	-0.042	-0.029
-703.572	-105.010	-0.124	0.029
-702.558	-169.457	0.172	0.006
-701.543	-200.000	-0.006	-0.285
-700.529	-110.909	0.231	-0.048
-699.514	-127.872	0.338	-0.050
-698.499	532.185	0.159	0.383
-697.485	-200.000	0.032	-0.200
-696.470	-200.000	-0.007	-0.325
-695.456	-67.989	0.262	-0.104
-694.441	611.660	-0.074	-0.188
-693.426	-24.805	0.157	-0.095
-692.412	-200.000	-0.025	-0.199
-691.397	-200.000	-0.047	-0.233
-690.383	-98.803	0.303	-0.079
-689.368	-200.000	0.017	0.082
-688.354	-36.491	0.225	-0.124
-687.339	-95.267	0.236	0.065
-686.324	-200.000	-0.046	-0.416
-685.310	361.170	0.103	-0.210
-684.295	-97.815	0.211	-0.056
-683.281	-30.839	-0.277	-0.160
-682.266	-46.277	-0.244	-0.122
-681.251	289.264	-0.177	-0.328
-680.237	-55.380	0.098	0.045
-679.222	303.618	0.150	-0.284
-678.208	-15.489	-0.383	0.249
-677.193	800.000	-0.077	0.317
-676.178	-27.898	0.110	-0.065
-675.164	12.799	0.386	0.304
-674.149	90.499	0.130	-0.149
-673.135	10.867	-0.292	-0.228
-672.120	-170.661	0.178	0.006
-671.105	-70.620	-0.112	0.043
-670.091	-61.634	-0.082	0.035
-669.076	-200.000	0.004	0.382
-668.062	-200.000	-0.008	-0.109
-667.047	-123.996	0.112	0.018
-666.032	325.147	-0.022	-0.042
-665.018	-50.934	0.198	-0.095
-664.003	-133.634	0.282	0.036
-662.989	-40.860	-0.192	0.101
-661.974	487.352	-0.055	-0.129
-660.959	13.096	0.107	-0.084
-659.945	66.126	-0.083	0.086
-658.930	389.646	0.079	-0.167
-657.916	800.000	-0.055	-0.239
-656.901	-200.000	0.008	0.171
-655.886	-10.290	-0.249	0.168
-654.872	-200.000	-0.028	-0.197
-653.857	475.286	0.103	0.237
-652.843	-200.000	-0.019	-0.176
-651.828	-169.289	0.131	0.005
-650.814	800.000	0.108	0.340
-649.799	-173.254	-0.149	0.005
-648.784	-150.826	0.205	0.016
-647.770	-67.717	0.223	0.089
-646.755	-166.629	-0.321	-0.014
-645.741	-106.951	0.358	-0.081
-644.726	125.789	0.235	0.302
-643.711	271.833	-0.084	0.150
-642.697	-111.540	0.144	0.030
-641.682	-200.000	-0.001	0.074
-640.668	-29.859	-0.433	0.251
-639.653	142.191	0.082	-0.111
-638.638	92.249	-0.116	-0.133
-637.624	-118.621	-0.046	0.008
-636.609	57.179	0.077	-0.077
-635.595	-3.731	-0.213	-0.150
-634.580	69.506	0.100	0.105
-633.565	-93.209	0.134	-0.038
-632.551	409.120	0.052	-0.112
-631.536	485.088	0.145	0.337
-630.522	-200.000	0.018	0.209
-629.507	-70.548	0.199	-0.076
-628.492	-42.164	-0.184	-0.096
-627.478	-51.968	0.116	0.055
-626.463	-47.031	-0.064	-0.032
-625.449	56.328	-0.263	-0.260
-624.434	28.561	0.182	-0.156
-623.419	800.000	-0.025	-0.091
-622.405	100.774	0.095	-0.112
-621.390	195.290	0.117	-0.181
-620.376	-6.783	-0.231	-0.159
-619.361	310.980	-0.048	-0.092
-618.346	11.039	-0.215	-0.167
-617.332	-20.143	-0.207	-0.130
-616.317	-128.580	-0.043	-0.006
-615.303	517.767	0.100	0.237
-614.288	-57.097	-0.385	0.173
-613.273	201.756	-0.117	0.184
-612.259	129.819	0.098	-0.127
-611.244	115.002	0.035	-0.043
-610.230	380.803	0.194	0.405
-609.215	-127.689	0.173	-0.025
-608.201	-200.000	-0.012	0.065
-607.186	-70.763	-0.421	0.162
-606.171	-200.000	-0.060	0.401
-605.157	272.560	-0.116	-0.209
-604.142	800.000	-0.046	0.155
-603.128	800.000	0.036	-0.111
-602.113	-112.636	-0.119	-0.024
-601.098	390.136	0.096	-0.201
-600.084	-200.000	0.009	0.211
-599.069	-182.255	-0.202	-0.004
-598.055	57.643	-0.117	0.116
-597.040	-19.668	-0.106	0.067
-596.025	-72.756	-0.382	0.143
-595.011	148.716	-0.188	0.258
-593.996	800.000	-0.112	0.337
-592.982	-19.727	-0.234	0.147
-591.967	-180.523	0.215	-0.005
-590.952	-200.000	0.004	0.305
-589.938	178.859	-0.070	0.103
-588.923	-200.000	0.013	-0.198
-587.909	-64.516	0.144	-0.059
-586.894	461.318	0.132	0.299
-585.879	35.074	0.222	0.198
-584.865	70.814	-0.074	-0.077
-583.850	382.502	0.092	0.191
-582.836	597.323	0.103	-0.260
-581.821	-32.534	0.135	-0.076
-580.806	-24.482	-0.222	-0.134
-579.792	-46.322	0.111	-0.055
-578.777	193.666	0.208	0.319
-577.763	-109.393	0.145	0.031
-576.748	113.119	0.161	0.199
-575.733	18.814	0.126	0.102
-574.719	123.877	0.221	-0.282
-573.704	113.705	0.153	0.189
-572.690	-200.000	-0.053	-0.262
-571.675	-130.638	0.084	-0.011
-570.661	33.252	0.070	0.062
-569.646	96.546	0.139	-0.162
-568.631	800.000	0.037	0.124
-567.617	-66.727	-0.116	0.047
-566.602	186.508	0.165	0.249
-565.588	190.103	0.067	-0.102
-564.573	800.000	-0.056	-0.248
-563.558	-134.000	-0.265	0.033
-562.544	-200.000	-0.001	0.089
-561.529	62.501	-0.181	0.184
-560.515	800.000	-0.041	-0.115
-559.500	-200.000	0.005	0.058
-558.485	-78.721	0.211	-0.073
-557.471	14.624	-0.163	-0.129
-556.456	-147.642	0.405	-0.035
-555.442	217.113	0.056	0.091
-554.427	33.316	0.109	0.096
-553.412	-191.197	0.193	0.002
-552.398	439.651	0.134	-0.298
-551.383	-90.502	0.150	0.044
-550.369	64.644	0.126	0.129
-549.354	-200.000	-0.049	0.231
-548.339	324.463	-0.144	0.279
-547.325	-200.000	-0.029	0.311
-546.310	-117.566	0.362	-0.066
-545.296	-49.174	-0.024	-0.012
-544.281	-200.000	0.055	0.320
-543.266	-26.614	0.240	-0.142
-542.252	44.767	0.151	0.141
-541.237	242.905	0.076	0.129
-540.223	-42.791	-0.045	0.023
-539.208	800.000	0.040	-0.148
-538.193	612.581	0.120	0.305
-537.179	5.835	0.103	-0.077
-536.164	171.996	-0.084	-0.123
-535.150	-118.824	0.440	-0.078
-534.135	-139.256	-0.445	0.049
-533.121	26.865	0.100	-0.085
-532.106	-7.405	-0.114	0.078
-531.091	-155.748	0.063	0.004
-530.077	-200.000	0.021	0.199
-529.062	-200.000	-0.012	0.079
-528.048	-97.744	0.178	0.047
-527.033	-18.026	0.259	0.164
-526.018	118.721	0.130	-0.163
-525.004	-200.000	-0.028	-0.209
-523.989	-53.938	-0.239	0.110
-522.975	-55.959	0.223	-0.101
-521.960	800.000	-0.180	-0.517
-520.945	-55.052	0.095	-0.044
-519.931	-146.989	-0.066	-0.006
-518.916	76.334	-0.074	-0.080
-517.902	21.541	0.288	0.237
-516.887	92.835	-0.442	-0.505
-515.872	-109.186	0.227	-0.049
-514.858	3.114	-0.184	-0.136
-513.843	647.425	-0.108	0.278
-512.829	74.713	0.096	0.102
-511.814	189.025	0.113	-0.172
-510.799	-73.236	0.185	-0.069
-509.785	-91.842	-0.291	-0.084
-508.770	-151.441	-0.340	0.026
-507.756	800.000	-0.050	0.179
-506.741	800.000	-0.088	-0.318
-505.726	175.090	0.022	-0.032
-504.712	-25.392	0.273	-0.164
-503.697	-200.000	0.000	-0.591
-502.683	-200.000	0.011	-0.072
-501.668	-123.299	-0.108	-0.017
-500.653	437.023	-0.084	0.185
-499.639	64.105	-0.214	-0.218
-498.624	-153.083	-0.201	-0.014
-497.610	800.000	-0.082	-0.254
-496.595	-126.654	0.228	0.034
-495.581	800.000	-0.062	-0.211
-494.566	-200.000	0.005	-0.073
-493.551	-65.878	-0.124	-0.050
-492.537	-61.508	-0.108	0.046
-491.522	800.000	0.055	0.160
-490.508	-125.124	-0.067	-0.010
-489.493	124.535	-0.076	-0.096
-488.478	-9.650	0.406	-0.274
-487.464	-200.000	0.032	-0.145
-486.449	-200.000	0.009	-0.123
-485.435	-121.206	-0.139	0.023
-484.420	-200.000	0.003	-0.061
-483.405	-119.119	-0.315	-0.056
-482.391	-48.155	0.167	0.081
-481.376	-118.850	-0.178	0.032
-480.362	19.175	-0.124	0.100
-479.347	562.991	0.079	0.194
-478.332	-98.205	0.238	0.062
-477.318	-200.000	0.038	0.271
-476.303	800.000	0.087	-0.290
-475.289	-20.387	-0.129	-0.080
-474.274	-29.325	-0.256	-0.148
-473.259	800.000	0.031	0.098
-472.245	84.783	-0.198	0.220
-471.230	200.011	-0.130	0.202
-470.216	-40.910	0.458	0.240
-469.201	-200.000	-0.080	-0.420
-468.186	204.961	0.108	0.169
-467.172	-200.000	0.003	0.070
-466.157	-78.789	0.192	0.066
-465.143	-30.619	-0.155	-0.089
-464.128	-152.099	-0.195	-0.014
-463.113	800.000	-0.101	-0.301
-462.099	328.071	-0.104	0.202
-461.084	-12.927	-0.216	0.142
-460.070	-110.025	0.223	-0.047
-459.055	800.000	0.040	-0.133
-458.040	-152.024	0.144	-0.011
-457.026	-110.142	-0.176	-0.037
-456.011	88.508	-0.039	-0.044
-454.997	-188.478	-0.273	0.003
-453.982	800.000	-0.062	-0.193
-452.968	800.000	0.012	0.047
-451.953	-172.700	-0.354	0.011
-450.938	800.000	0.041	-0.182
-449.924	-62.165	-0.467	-0.197
-448.909	562.446	-0.041	-0.099
-447.895	-11.405	0.098	0.065
-446.880	-200.000	0.001	0.075
-445.865	419.854	-0.161	0.349
-444.851	706.376	0.038	-0.102
-443.836	30.142	0.181	-0.156
-442.822	-104.381	0.283	0.066
-441.807	-200.000	-0.032	-0.291
-440.792	14.805	0.256	0.202
-439.778	-200.000	0.078	0.351
-438.763	94.775	0.019	0.022
-437.749	-200.000	-0.010	-0.073
-436.734	13.093	0.032	0.025
-435.719	-81.058	0.213	0.071
-434.705	800.000	0.021	-0.090
-433.690	245.245	-0.114	-0.193
-432.676	64.068	-0.238	0.242
-431.661	-125.626	-0.259	0.040
-430.646	65.762	-0.055	-0.057
-429.632	800.000	-0.060	-0.184
-428.617	-63.847	0.270	-0.111
-427.603	-25.594	-0.083	0.049
-426.588	-47.176	0.263	-0.129
-425.573	-11.679	0.303	-0.201
-424.559	151.239	0.131	-0.179
-423.544	-22.088	-0.080	0.049
-422.530	267.191	0.124	-0.219
-421.515	-116.264	0.333	0.062
-420.500	-100.662	-0.194	0.048
-419.486	85.035	0.120	0.133
-418.471	-16.042	0.187	-0.120
-417.457	-16.486	0.143	0.092
-416.442	800.000	0.055	0.219
-415.428	-13.411	-0.169	-0.111
-414.413	-200.000	0.057	-0.265
-413.398	40.621	0.135	0.123
-412.384	6.604	-0.211	0.158
-411.369	-69.455	-0.232	0.090
-410.355	-20.721	0.159	-0.098
-409.340	-200.000	0.006	0.323
-408.325	800.000	0.074	-0.229
-407.311	41.955	-0.178	0.163
-406.296	-162.778	0.243	-0.012
-405.282	-200.000	-0.059	-0.260
-404.267	442.147	0.049	-0.107
-403.252	222.913	0.053	-0.086
-402.238	103.506	-0.107	-0.127
-401.223	-200.000	0.013	-0.105
-400.209	204.509	-0.104	-0.163
-399.194	-73.068	0.315	-0.116
-398.179	-200.000	-0.011	-0.129
-397.165	729.847	-0.107	-0.288
-396.150	800.000	0.054	-0.176
-395.136	-152.913	-0.226	-0.016
-394.121	137.952	0.055	-0.073
-393.106	-126.790	0.127	0.019
-392.092	8.375	-0.270	0.205
-391.077	-68.273	-0.296	0.116
-390.063	800.000	-0.017	-0.073
-389.048	-200.000	0.014	-0.089
-388.033	-200.000	0.040	0.251
-387.019	23.441	0.120	0.099
-386.004	95.994	0.036	0.041
-384.990	54.012	0.112	0.109
-383.975	225.525	-0.090	0.146
-382.960	-2.205	0.359	0.254
-381.946	56.983	-0.074	0.073
-380.931	-150.696	-0.499	-0.038
-379.917	197.359	-0.140	0.215
-378.902	272.482	-0.079	0.141
-377.888	-51.427	0.130	-0.061
-376.873	220.123	-0.219	0.354
-375.858	-37.103	0.031	0.017
-374.844	23.506	0.258	-0.213
-373.829	405.931	-0.102	-0.217
-372.815	30.244	-0.148	0.128
-371.800	201.811	0.121	-0.187
-370.785	-200.000	0.016	-0.106
-369.771	-200.000	-0.004	-0.049
-368.756	-76.069	-0.220	0.078
-367.742	-114.767	0.451	-0.087
-366.727	800.000	-0.036	0.124
-365.712	800.000	-0.054	-0.235
-364.698	-200.000	0.008	0.186
-363.683	-172.043	0.404	-0.013
-362.669	49.980	-0.075	-0.071
-361.654	-170.626	0.175	0.006
-360.639	162.348	0.105	-0.148
-359.625	-16.848	-0.254	0.162
-358.610	-59.494	-0.115	0.050
-357.596	-95.827	0.128	-0.034
-356.581	-200.000	0.015	-0.217
-355.566	-103.667	0.106	0.025
-354.552	202.651	0.294	-0.457
-353.537	-200.000	-0.013	-0.130
-352.523	-127.825	-0.167	-0.024
-351.508	229.696	0.188	0.309
-350.493	12.671	0.123	0.096
-349.479	72.986	0.177	0.186
-348.464	99.732	0.050	0.058
-347.450	-200.000	-0.030	-0.207
-346.435	21.882	0.152	0.125
-345.420	12.442	0.354	0.275
-344.406	-152.562	0.191	0.014
-343.391	-66.192	0.192	-0.077
-342.377	-83.846	-0.081	0.026
-341.362	800.000	0.033	0.102
-340.348	53.448	-0.266	-0.256
-339.333	-200.000	0.006	-0.050
-338.318	-200.000	-0.008	-0.176
-337.304	-27.587	-0.390	-0.228
-336.289	-200.000	-0.004	-0.210
-335.275	-148.386	0.164	0.014
-334.260	24.149	-0.254	-0.211
-333.245	-172.314	-0.089	0.003
-332.231	84.195	0.255	0.280
-331.216	-37.782	-0.028	-0.015
-330.202	221.225	0.167	0.270
-329.187	-154.735	0.172	0.011
-328.172	-30.870	-0.238	-0.135
-327.158	663.642	0.049	0.126
-326.143	155.347	0.118	-0.164
-325.129	-200.000	0.064	0.421
-324.114	631.164	0.013	-0.033
-323.099	-125.292	0.220	0.034
-322.085	-200.000	0.052	0.273
-321.070	800.000	-0.089	0.371
-320.056	182.823	-0.179	0.265
-319.041	34.840	0.122	0.108
-318.026	-178.939	-0.257	-0.006
-317.012	-45.622	-0.157	-0.078
-315.997	-106.778	-0.144	0.032
-314.983	-33.779	0.390	-0.216
-313.968	33.416	-0.212	0.185
-312.953	800.000	-0.096	0.279
-311.939	-47.644	-0.095	-0.046
-310.924	-80.813	0.327	0.109
-309.910	72.666	-0.266	-0.279
-308.895	354.772	-0.036	-0.072
-307.880	-200.000	-0.019	0.187
-306.866	29.337	-0.120	-0.102
-305.851	202.182	0.100	-0.156
-304.837	51.898	0.207	-0.198
-303.822	665.091	-0.067	0.173
-302.807	116.637	0.104	0.129
-301.793	202.951	-0.174	-0.271
-300.778	-121.235	-0.106	0.018
-299.764	9.586	-0.146	0.111
-298.749	-200.000	0.041	-0.207
-297.735	354.705	0.080	-0.160
-296.720	246.844	0.058	-0.098
-295.705	-63.893	0.282	0.116
-294.691	-200.000	-0.019	0.094
-293.676	50.262	-0.018	-0.017
-292.662	-200.000	0.000	-0.170
-291.647	478.423	0.110	-0.250
-290.632	-200.000	-0.041	-0.204
-289.618	-200.000	-0.003	0.210
-288.603	-200.000	-0.026	0.160
-287.589	-63.958	-0.280	-0.115
-286.574	-152.420	0.194	0.014
-285.559	256.305	0.029	0.050
-284.545	362.875	0.072	0.145
-283.530	-130.359	-0.151	-0.021
-282.516	-39.066	-0.197	0.104
-281.501	-200.000	-0.232	-0.000
-280.486	687.602	-0.152	0.399
-279.472	800.000	-0.015	-0.044
-278.457	-119.946	-0.240	-0.041
-277.443	190.353	-0.038	0.058
-276.428	317.953	-0.218	-0.415
-275.413	-82.325	0.128	-0.042
-274.399	-118.300	0.122	-0.022
-273.384	-81.801	0.134	0.044
-272.370	110.434	-0.198	0.239
-271.355	-122.349	0.269	-0.044
-270.340	-53.097	0.255	-0.118
-269.326	800.000	0.050	0.185
-268.311	265.857	-0.263	0.460
-267.297	142.055	0.177	0.235
-266.282	141.302	0.299	0.397
-265.267	800.000	0.053	-0.219
-264.253	-96.973	-0.213	0.056
-263.238	91.387	0.073	0.082
-262.224	-86.212	-0.334	-0.103
-261.209	800.000	0.063	0.261
-260.195	800.000	0.055	-0.191
-259.180	253.980	-0.036	-0.061
-258.165	247.559	0.049	-0.084
-257.151	-51.539	-0.241	0.113
-256.136	-3.251	-0.165	0.116
-255.122	-54.771	0.250	-0.113
-254.107	-53.076	-0.398	0.184
-253.092	-120.648	-0.213	-0.036
-252.078	-200.000	-0.007	-0.283
-251.063	800.000	-0.091	0.261
-250.049	446.379	-0.053	-0.116
-249.034	304.143	0.142	0.264
-248.019	234.470	-0.144	-0.237
-247.005	-200.000	0.095	-0.459
-245.990	270.531	0.082	-0.145
-244.976	-62.391	-0.183	0.076
-243.961	800.000	0.033	0.116
-242.946	-107.481	0.200	0.044
-241.932	154.561	-0.119	0.163
-240.917	-200.000	-0.022	0.170
-239.903	-127.033	-0.047	0.007
-238.888	40.577	0.298	0.269
-237.873	-60.985	-0.127	0.054
-236.859	296.787	0.159	-0.292
-235.844	-29.965	-0.232	0.132
-234.830	738.087	-0.045	-0.122
-233.815	-137.611	-0.277	-0.031
-232.800	-200.000	-0.011	-0.124
-231.786	530.140	0.060	-0.141
-230.771	-53.469	-0.196	-0.090
-229.757	-51.191	0.319	-0.150
-228.742	-77.346	0.057	-0.020
-227.727	-112.440	0.276	0.055
-226.713	800.000	0.026	0.107
-225.698	140.851	0.189	-0.251
-224.684	-43.065	0.266	-0.135
-223.669	-200.000	0.007	0.128
-222.655	379.034	-0.077	0.158
-221.640	-200.000	-0.009	0.207
-220.625	-67.352	-0.453	-0.178
-219.611	-100.249	-0.186	0.046
-218.596	90.065	-0.204	-0.228
-217.582	-142.415	-0.124	0.012
-216.567	11.405	-0.399	-0.306
-215.552	-6.579	-0.186	-0.127
-214.538	30.457	0.109	0.094
-213.523	-97.880	0.306	-0.079
-212.509	-200.000	-0.010	0.273
-211.494	-50.006	-0.104	-0.049
-210.479	800.000	-0.124	-0.413
-209.465	-131.629	-0.401	0.053
-208.450	-200.000	-0.009	0.437
-207.436	-67.570	-0.137	-0.054
-206.421	800.000	-0.116	-0.452
-205.406	-200.000	-0.005	0.054
-204.392	-55.004	-0.093	0.042
-203.377	-200.000	-0.003	-0.152
-202.363	-200.000	-0.007	-0.057
-201.348	-200.000	-0.026	0.312
-200.333	-20.094	0.038	-0.023
-199.319	609.945	-0.045	0.113
-198.304	-35.305	0.416	-0.226
-197.290	-76.268	0.195	-0.069
-196.275	-50.302	0.096	-0.046
-195.260	-48.791	0.356	-0.171
-194.246	23.471	0.125	-0.103
-193.231	317.617	0.094	0.178
-192.217	225.722	-0.124	0.201
-191.202	4.523	0.106	0.078
-190.187	-162.228	0.289	0.014
-189.173	-200.000	-0.010	-0.071
-188.158	-172.420	-0.235	-0.007
-187.144	-200.000	-0.036	-0.178
-186.129	-200.000	0.007	-0.208
-185.114	-55.790	0.126	-0.056
-184.100	-42.090	-0.135	-0.069
-183.085	66.603	0.163	0.166
-182.071	-200.000	-0.018	0.219
-181.056	102.926	0.175	0.205
-180.042	-79.327	0.077	-0.026
-179.027	-152.805	-0.129	-0.009
-178.012	-200.000	-0.006	0.128
-176.998	-200.000	-0.048	0.304
-175.983	4.908	-0.048	0.035
-174.969	152.567	-0.048	0.065
-173.954	-200.000	-0.005	-0.090
-172.939	-97.041	0.160	0.042
-171.925	-7.408	-0.068	-0.046
-170.910	-56.664	-0.171	-0.076
-169.896	485.307	-0.074	-0.167
-168.881	52.774	-0.130	-0.125
-167.866	185.663	0.075	-0.111
-166.852	207.555	0.139	-0.217
-165.837	-200.000	0.027	-0.378
-164.823	247.272	-0.040	0.068
-163.808	-121.438	0.271	0.045
-162.793	-9.501	-0.204	0.136
-161.779	-200.000	-0.065	0.293
-160.764	-174.407	-0.143	-0.004
-159.750	418.958	0.069	-0.148
-158.735	-165.306	-0.546	-0.024
-157.720	14.950	0.089	-0.069
-156.706	-200.000	-0.003	0.119
-155.691	-98.209	0.071	-0.018
-154.677	273.446	-0.092	0.162
-153.662	390.498	0.093	-0.193
-152.647	-200.000	0.001	-0.012
-151.633	-113.725	-0.105	0.020
-150.618	-200.000	-0.015	0.161
-149.604	426.692	-0.143	-0.309
-148.589	-46.120	0.279	-0.137
-147.574	-200.000	-0.001	-0.012
-146.560	164.830	0.149	-0.209
-145.545	-200.000	0.019	-0.146
-144.531	-200.000	0.017	0.098
-143.516	116.740	-0.044	0.054
-142.502	60.896	-0.247	-0.245
-141.487	97.785	0.145	0.166
-140.472	11.847	0.127	0.098
-139.458	236.086	-0.057	-0.094
-138.443	-83.637	0.347	-0.111
-137.429	582.906	0.069	-0.168
-136.414	652.143	0.023	-0.058
-135.399	-200.000	-0.136	0.000
-134.385	-134.247	-0.211	-0.026
-133.370	-95.662	-0.134	0.036
-132.356	-15.589	-0.192	-0.122
-131.341	-40.351	0.451	0.234
-130.326	385.129	-0.055	-0.114
-129.312	56.286	-0.204	0.198
-128.297	-145.021	-0.274	0.025
-127.283	-200.000	0.007	0.181
-126.268	-170.342	0.128	0.004
-125.253	-200.000	0.007	-0.247
-124.239	164.807	0.084	-0.118
-123.224	335.004	0.119	-0.230
-122.210	-47.821	-0.223	0.108
