DTS Sentinel unit serial number:	SN413079Multiplexer serial number:	ORYXHardware model number:	OX4-SRSoftware version number:	ORYX F/W v4.00 Oryx Data Collector v3.7.2.0data status	okinstallation	princeton_trtdifferential loss correction	single-endedforward channel	channel 2reverse channel	N/Adate	2019/09/12time	18:06:49forward acquisition time	15.00reverse acquisition time	0.00gamma	496.2192k internal	0.2323k external	0.2323temperature offset calibration	1.0138default loss term (dB/km)	0.3790temperature slope calibration	1.0000multiplexer offset coefficient	1.0000multiplexer slope coefficient	1.0000fibre end	0.00T internal ref (°C)	33.69T ext. ref 1 (°C)	2.96T ext. ref 2 (°C)	28.17length (m)	temperature (°C)	Stokes	anti-Stokes-747.200	-200.000	-0.002	0.313
-746.185	800.000	-0.129	-0.376
-745.171	800.000	0.025	-0.108
-744.156	56.891	0.217	-0.213
-743.142	-130.427	0.476	-0.065
-742.127	310.832	-0.264	-0.500
-741.112	603.222	0.200	-0.502
-740.098	-57.537	-0.773	-0.342
-739.083	58.587	-0.251	0.249
-738.069	126.990	0.382	0.490
-737.054	-152.013	-0.298	0.022
-736.039	-200.000	0.072	0.436
-735.025	12.979	0.248	-0.194
-734.010	-0.912	0.730	0.522
-732.996	-116.253	-0.972	0.182
-731.981	69.505	-0.311	-0.323
-730.966	-200.000	-0.054	0.255
-729.952	112.015	-0.380	0.463
-728.937	800.000	-0.202	0.834
-727.923	-200.000	-0.065	-0.580
-726.908	-200.000	0.082	-0.957
-725.894	-29.040	-0.442	-0.256
-724.879	612.829	0.437	-1.103
-723.864	32.973	-0.460	-0.402
-722.850	-200.000	0.130	0.605
-721.835	-200.000	-0.011	-0.536
-720.821	198.809	0.507	0.784
-719.806	800.000	0.114	0.352
-718.791	100.072	0.193	0.225
-717.777	451.044	-0.027	0.060
-716.762	-67.186	-0.887	-0.352
-715.748	281.522	0.318	0.574
-714.733	800.000	-0.104	0.338
-713.718	-200.000	0.014	-0.194
-712.704	-200.000	-0.026	0.278
-711.689	-65.191	-0.316	0.129
-710.675	-200.000	0.147	1.053
-709.660	-39.492	0.548	-0.290
-708.645	800.000	-0.144	0.431
-707.631	91.016	-0.283	-0.320
-706.616	51.503	-0.450	-0.431
-705.602	-146.935	0.322	0.028
-704.587	46.026	0.524	0.489
-703.572	800.000	0.184	0.728
-702.558	-200.000	0.236	1.106
-701.543	-49.043	0.056	0.027
-700.529	-65.940	-0.729	-0.294
-699.514	110.831	-0.429	0.520
-698.499	-200.000	0.057	0.795
-697.485	108.638	-0.311	0.374
-696.470	337.848	-0.380	0.745
-695.456	-6.218	-0.251	-0.173
-694.441	-149.286	-0.400	0.032
-693.426	-155.463	-0.593	-0.039
-692.412	49.376	-0.537	0.509
-691.397	534.912	-0.028	0.066
-690.383	-200.000	0.087	-0.760
-689.368	-189.458	-0.796	0.009
-688.354	188.917	-0.482	0.727
-687.339	135.928	-0.104	-0.137
-686.324	-14.420	-0.568	0.369
-685.310	708.999	-0.184	0.490
-684.295	213.294	-0.055	0.087
-683.281	-200.000	0.023	-0.880
-682.266	-142.272	-0.579	0.058
-681.251	-200.000	-0.006	-0.420
-680.237	531.122	0.238	-0.568
-679.222	-102.142	-0.467	0.113
-678.208	800.000	0.227	0.921
-677.193	-200.000	-0.058	0.335
-676.178	14.714	-0.592	0.466
-675.164	300.901	-0.501	-0.931
-674.149	-59.309	0.208	-0.090
-673.135	-22.288	0.087	0.053
-672.120	205.538	0.210	0.329
-671.105	275.727	-0.320	0.571
-670.091	-6.980	0.198	0.135
-669.076	-84.099	-0.412	-0.132
-668.062	-126.733	-0.599	0.089
-667.047	164.066	-0.177	-0.251
-666.032	800.000	-0.130	-0.535
-665.018	-92.302	0.565	0.160
-664.003	800.000	0.140	-0.416
-662.989	49.109	0.990	-0.936
-661.974	-141.134	0.909	0.094
-660.959	152.830	-0.134	0.184
-659.945	-148.761	-0.850	-0.069
-658.930	-200.000	0.008	0.273
-657.916	-16.496	-0.179	-0.114
-656.901	577.097	0.292	0.719
-655.886	-200.000	0.077	-0.765
-654.872	-125.699	-0.367	0.056
-653.857	-49.651	-0.510	-0.244
-652.843	-62.862	0.853	-0.355
-651.828	800.000	0.219	0.703
-650.814	72.328	0.565	0.593
-649.799	-0.456	0.425	0.304
-648.784	782.688	-0.074	-0.204
-647.770	209.055	0.534	0.841
-646.755	-145.881	0.564	0.050
-645.741	76.654	0.441	0.470
-644.726	250.875	-0.341	-0.584
-643.711	285.259	0.299	-0.543
-642.697	-76.772	-0.803	0.283
-641.682	-146.378	-0.759	0.067
-640.668	-156.244	-0.562	0.036
-639.653	166.206	0.402	-0.572
-638.638	800.000	0.214	-0.757
-637.624	-41.524	0.183	-0.095
-636.609	356.477	-0.219	-0.438
-635.595	-44.614	-0.278	-0.139
-634.580	109.379	-0.527	0.635
-633.565	-77.671	-0.246	-0.086
-632.551	-73.277	0.346	-0.127
-631.536	-28.347	-0.169	-0.098
-630.522	-89.297	-0.486	0.144
-629.507	-139.864	-0.148	0.016
-628.492	102.238	-0.300	-0.352
-627.478	-200.000	-0.062	0.399
-626.463	-35.319	-0.547	0.299
-625.449	-200.000	-0.046	0.255
-624.434	-125.120	-0.226	-0.035
-623.419	3.336	0.454	0.332
-622.405	-200.000	-0.023	-0.241
-621.390	63.455	0.172	0.174
-620.376	-86.107	0.813	0.252
-619.361	118.347	-0.416	0.516
-618.346	5.786	-0.375	0.279
-617.332	142.171	0.229	0.305
-616.317	-9.776	0.155	0.103
-615.303	74.060	0.352	-0.371
-614.288	800.000	0.094	-0.326
-613.273	-22.172	0.674	0.411
-612.259	-151.547	-0.371	-0.028
-611.244	274.134	0.527	-0.937
-610.230	765.738	-0.104	0.285
-609.215	6.709	0.721	0.539
-608.201	800.000	0.204	-0.669
-607.186	-56.565	-0.136	0.061
-606.171	-105.624	-0.020	-0.005
-605.157	47.345	-0.542	-0.507
-604.142	2.293	0.235	0.171
-603.128	20.098	0.260	0.211
-602.113	227.339	-0.238	-0.389
-601.098	-107.924	-0.138	-0.030
-600.084	-0.021	-0.734	-0.525
-599.069	-127.999	-0.719	-0.104
-598.055	-81.571	1.285	-0.424
-597.040	728.374	-0.296	0.793
-596.025	94.102	-0.146	0.167
-595.011	18.305	0.595	0.477
-593.996	-134.614	0.639	-0.078
-592.982	-147.225	-0.316	-0.027
-591.967	-200.000	0.084	0.758
-590.952	-59.957	0.997	-0.428
-589.938	126.324	0.292	0.371
-588.923	703.507	0.388	1.026
-587.909	800.000	0.171	0.503
-586.894	800.000	0.170	0.504
-585.879	-120.187	0.627	0.108
-584.865	-200.000	0.142	-0.828
-583.850	135.782	0.368	-0.481
-582.836	-200.000	-0.021	0.358
-581.821	-72.153	0.812	-0.302
-580.806	-152.879	-0.679	0.048
-579.792	234.039	0.257	0.424
-578.777	121.120	0.991	1.238
-577.763	307.745	-0.113	-0.211
-576.748	34.867	0.462	0.405
-575.733	-48.686	-0.677	0.326
-574.719	-200.000	0.001	0.213
-573.704	-200.000	0.030	0.227
-572.690	-125.943	-0.822	0.124
-571.675	-200.000	0.015	0.242
-570.661	548.034	0.444	1.065
-569.646	87.305	-0.483	0.536
-568.631	75.169	-0.265	-0.281
-567.617	696.471	-0.108	-0.284
-566.602	-200.000	-0.076	0.565
-565.588	-42.415	0.638	0.326
-564.573	154.791	0.234	-0.323
-563.558	220.877	0.332	0.534
-562.544	-200.000	0.097	-0.701
-561.529	216.196	-0.814	1.297
-560.515	-29.590	0.385	-0.221
-559.500	342.584	0.142	0.278
-558.485	-200.000	0.022	0.153
-557.471	-200.000	0.102	-0.464
-556.456	396.754	0.160	-0.334
-555.442	-147.158	-0.288	0.025
-554.427	7.196	-0.253	0.189
-553.412	446.494	-0.285	-0.629
-552.398	800.000	-0.285	-0.997
-551.383	800.000	0.045	0.136
-550.369	-200.000	-0.116	1.019
-549.354	-131.445	-0.240	0.032
-548.339	158.295	-0.522	0.725
-547.325	15.268	0.575	0.452
-546.310	-106.714	-0.169	0.038
-545.296	451.730	0.161	-0.356
-544.281	411.746	-0.147	-0.312
-543.266	-110.509	0.154	-0.032
-542.252	183.482	-0.935	-1.384
-541.237	-22.180	-0.645	0.392
-540.223	-146.677	0.776	-0.067
-539.208	-46.030	0.302	-0.149
-538.193	-87.190	0.244	0.074
-537.179	-95.654	-0.033	-0.009
-536.164	159.310	-0.398	-0.555
-535.150	-184.374	-0.909	-0.015
-534.135	800.000	-0.354	1.014
-533.121	-112.485	-0.203	-0.041
-532.106	3.899	-0.843	0.617
-531.091	-34.995	0.325	0.178
-530.077	29.970	-0.672	0.574
-529.062	-8.450	-0.607	-0.409
-528.048	-35.593	-0.642	-0.349
-527.033	-53.195	-0.358	0.165
-526.018	19.784	-0.497	-0.400
-525.004	263.239	0.105	0.182
-523.989	40.811	-0.481	-0.434
-522.975	-71.237	-0.819	-0.308
-521.960	-56.616	0.494	-0.219
-520.945	37.704	0.372	-0.331
-519.931	-110.194	0.719	0.150
-518.916	-200.000	-0.226	-1.083
-517.902	-114.614	-0.453	0.087
-516.887	-54.225	0.596	-0.271
-515.872	29.659	0.445	0.379
-514.858	401.017	-0.209	0.440
-513.843	77.251	-0.287	0.305
-512.829	800.000	0.161	0.663
-511.814	146.820	0.155	-0.208
-510.799	428.411	0.089	0.192
-509.785	98.369	-0.370	0.426
-508.770	-23.820	-0.394	0.236
-507.756	112.005	0.160	-0.194
-506.741	800.000	0.171	-0.471
-505.726	-200.000	0.082	-0.554
-504.712	270.065	-0.156	0.274
-503.697	664.659	-0.100	0.258
-502.683	-110.664	0.265	-0.055
-501.668	-200.000	0.081	-0.396
-500.653	800.000	0.061	-0.202
-499.639	-114.715	-0.518	-0.099
-498.624	9.561	0.654	0.495
-497.610	800.000	-0.218	0.745
-496.595	-140.953	-0.194	-0.020
-495.581	-200.000	0.058	-0.785
-494.566	-47.233	0.806	-0.393
-493.551	-200.000	0.130	-0.895
-492.537	256.321	-0.612	-1.050
-491.522	-0.264	0.786	-0.559
-490.508	25.825	0.192	0.160
-489.493	380.223	-0.440	-0.903
-488.478	509.267	0.067	0.155
-487.464	240.222	0.316	-0.527
-486.449	-108.315	-0.483	0.104
-485.435	-200.000	0.090	-0.560
-484.420	-8.350	-0.463	0.311
-483.405	392.978	-0.279	0.581
-482.391	800.000	-0.206	0.813
-481.376	-74.872	-0.680	0.244
-480.362	-28.634	-0.346	0.199
-479.347	67.421	0.481	-0.491
-478.332	-59.807	-0.406	-0.174
-477.318	-200.000	0.167	0.760
-476.303	-200.000	-0.093	0.481
-475.289	31.860	-0.747	-0.643
-474.274	-200.000	0.152	-1.062
-473.259	426.751	0.047	0.101
-472.245	-50.372	0.367	-0.173
-471.230	-1.397	-0.619	0.436
-470.216	800.000	0.037	0.113
-469.201	99.950	-0.488	-0.565
-468.186	800.000	0.072	0.203
-467.172	158.701	0.389	0.540
-466.157	69.812	-0.221	-0.227
-465.143	-200.000	0.111	-0.542
-464.128	-32.229	0.385	0.215
-463.113	757.759	-0.106	-0.286
-462.099	-101.719	-0.679	-0.164
-461.084	-200.000	-0.048	-0.297
-460.070	-200.000	-0.020	0.771
-459.055	82.321	-0.585	0.634
-458.040	395.157	-0.073	-0.153
-457.026	-159.595	-0.480	0.027
-456.011	76.962	0.696	-0.738
-454.997	129.779	0.611	0.780
-453.982	-95.086	-0.499	0.135
-452.968	-130.575	0.787	0.106
-451.953	-200.000	0.104	-0.506
-450.938	-26.309	-0.710	-0.416
-449.924	-94.413	0.347	0.094
-448.909	800.000	-0.454	1.425
-447.895	-112.579	-0.451	-0.090
-446.880	-116.117	1.271	0.236
-445.865	148.090	-0.238	0.320
-444.851	-108.809	-0.185	-0.039
-443.836	-172.749	0.260	0.008
-442.822	-161.869	-0.838	-0.042
-441.807	127.849	-0.299	0.379
-440.792	10.463	0.307	0.234
-439.778	-26.679	0.485	0.283
-438.763	619.848	0.018	-0.045
-437.749	800.000	-0.230	0.845
-436.734	-200.000	-0.046	-0.331
-435.719	452.890	-0.326	-0.720
-434.705	-128.428	0.425	0.060
-433.690	-36.772	-0.424	0.227
-432.676	800.000	-0.212	-0.726
-431.661	-95.818	0.323	-0.086
-430.646	-73.275	0.703	0.257
-429.632	-157.206	-0.829	-0.050
-428.617	-200.000	0.050	-0.458
-427.603	620.596	-0.166	-0.416
-426.588	-180.820	-0.569	-0.012
-425.573	-15.443	1.159	-0.738
-424.559	-200.000	0.151	-0.664
-423.544	-200.000	-0.077	-1.158
-422.530	56.370	-0.268	0.260
-421.515	20.491	0.384	0.310
-420.500	800.000	0.179	-0.513
-419.486	-22.484	-0.702	0.424
-418.471	-116.815	0.843	-0.154
-417.457	122.189	0.091	0.113
-416.442	281.614	0.197	-0.352
-415.428	248.485	-0.263	-0.444
-414.413	483.883	0.356	-0.806
-413.398	231.220	0.233	0.381
-412.384	363.896	-0.458	0.917
-411.369	800.000	0.162	-0.589
-410.355	103.313	0.386	-0.451
-409.340	-51.988	0.457	0.212
-408.325	800.000	-0.061	-0.213
-407.311	-133.047	0.241	0.030
-406.296	149.945	0.342	-0.462
-405.282	-68.318	0.181	0.070
-404.267	-118.398	0.790	-0.140
-403.252	116.848	0.683	-0.836
-402.238	15.106	-0.882	0.688
-401.223	-23.341	-0.485	-0.291
-400.209	-35.346	0.206	-0.112
-399.194	273.673	-0.140	0.246
-398.179	-200.000	0.149	-0.874
-397.165	-103.613	0.355	0.083
-396.150	-37.495	-0.525	-0.279
-395.136	125.575	-0.450	0.566
-394.121	-200.000	-0.003	0.054
-393.106	90.643	0.570	-0.636
-392.092	16.794	0.775	-0.611
-391.077	158.369	-0.122	-0.169
-390.063	-74.261	0.394	0.142
-389.048	-200.000	-0.031	-0.436
-388.033	-117.596	0.697	-0.125
-387.019	-10.203	-0.301	0.199
-386.004	-26.073	0.496	0.291
-384.990	-200.000	-0.207	-1.272
-383.975	-33.748	0.741	-0.407
-382.960	52.241	-0.471	-0.447
-381.946	-200.000	0.039	0.189
-380.931	-139.231	-0.220	0.024
-379.917	800.000	-0.143	-0.430
-378.902	145.602	-0.412	-0.550
-377.888	294.368	0.131	-0.238
-376.873	597.132	0.249	-0.614
-375.858	-200.000	-0.158	0.700
-374.844	-200.000	0.105	-0.473
-373.829	44.611	-0.104	-0.095
-372.815	79.208	-0.888	-0.947
-371.800	266.691	-0.223	0.388
-370.785	134.404	0.550	-0.710
-369.771	18.608	-0.594	-0.473
-368.756	279.460	0.562	0.998
-367.742	-40.981	0.709	0.365
-366.727	-200.000	-0.037	0.173
-365.712	130.370	0.358	-0.456
-364.698	-86.513	0.284	-0.087
-363.683	26.096	-0.433	0.360
-362.669	-200.000	0.142	0.786
-361.654	-20.752	-0.310	0.189
-360.639	800.000	0.045	-0.127
-359.625	468.515	-0.388	-0.866
-358.610	-200.000	0.072	-0.336
-357.596	-144.415	0.643	-0.059
-356.581	-96.904	-0.662	-0.173
-355.566	48.953	0.241	-0.225
-354.552	99.074	0.352	0.405
-353.537	-46.408	0.736	-0.360
-352.523	621.622	-0.166	-0.415
-351.508	-80.004	1.183	0.395
-350.493	-63.695	-0.492	-0.200
-349.479	38.002	0.322	-0.285
-348.464	-113.918	1.017	-0.196
-347.450	195.230	-0.506	-0.764
-346.435	79.240	0.624	-0.664
-345.420	-43.688	0.467	-0.234
-344.406	388.258	-0.144	0.296
-343.391	-181.940	0.936	-0.018
-342.377	790.369	-0.147	0.401
-341.362	157.352	-0.052	0.072
-340.348	10.801	-0.918	-0.696
-339.333	155.442	-0.237	0.324
-338.318	344.924	-0.299	0.583
-337.304	420.897	0.102	-0.218
-336.289	-200.000	-0.024	0.265
-335.275	-63.712	-0.246	0.100
-334.260	424.931	-0.210	-0.449
-333.245	-136.250	0.407	0.047
-332.231	-200.000	-0.049	0.375
-331.216	800.000	0.014	-0.058
-330.202	69.248	0.132	-0.135
-329.187	-79.364	0.762	-0.256
-328.172	-94.792	-0.378	-0.102
-327.158	800.000	-0.046	-0.144
-326.143	-85.672	0.764	0.236
-325.129	236.655	0.180	-0.297
-324.114	152.693	-0.339	-0.461
-323.099	-55.581	0.791	-0.352
-322.085	154.979	-0.017	0.023
-321.070	-200.000	-0.046	0.209
-320.056	800.000	-0.228	0.778
-319.041	800.000	-0.317	-1.036
-318.026	173.213	0.494	0.707
-317.012	-75.846	0.426	-0.150
-315.997	-171.919	0.444	-0.014
-314.983	173.743	-0.417	-0.598
-313.968	-200.000	0.078	-0.776
-312.953	-36.901	0.156	-0.083
-311.939	-200.000	-0.039	0.502
-310.924	-200.000	0.089	0.685
-309.910	800.000	0.192	0.546
-308.895	591.313	0.232	0.569
-307.880	-200.000	-0.001	0.719
-306.866	447.826	-0.211	0.461
-305.851	-151.187	0.610	0.045
-304.837	800.000	-0.243	-0.783
-303.822	-21.834	-0.182	-0.110
-302.807	800.000	0.068	0.204
-301.793	40.361	-0.132	0.118
-300.778	-90.844	0.384	-0.110
-299.764	-62.766	-0.486	-0.200
-298.749	-93.994	-0.405	0.110
-297.735	-200.000	0.045	-0.298
-296.720	800.000	0.149	0.617
-295.705	-92.097	-0.253	-0.071
-294.691	-200.000	0.053	0.798
-293.676	-82.451	-0.168	-0.054
-292.662	-135.208	-0.629	-0.075
-291.647	50.508	-0.830	0.779
-290.632	649.199	-0.421	-1.070
-289.618	-54.199	0.316	0.142
-288.603	-171.264	0.595	-0.020
-287.589	-40.747	0.587	0.302
-286.574	-200.000	-0.023	0.199
-285.559	165.992	-0.043	-0.060
-284.545	-89.182	-0.379	0.111
-283.530	-200.000	-0.092	-0.730
-282.516	-21.443	-0.853	0.516
-281.501	-200.000	0.055	0.310
-280.486	-200.000	0.040	-0.191
-279.472	229.744	0.189	-0.306
-278.457	-58.478	0.560	-0.241
-277.443	-155.087	-0.970	-0.063
-276.428	-173.518	-0.378	0.011
-275.413	-4.446	0.253	0.173
-274.399	-9.548	-0.239	0.158
-273.384	-5.730	0.599	0.407
-272.370	800.000	-0.226	-0.618
-271.355	245.016	-0.280	0.466
-270.340	-157.886	-0.648	0.038
-269.326	-200.000	-0.053	-0.591
-268.311	-117.659	-0.336	0.060
-267.297	-40.622	0.403	-0.207
-266.282	-85.134	0.907	-0.281
-265.267	-200.000	-0.072	-0.441
-264.253	-200.000	0.174	-1.027
-263.238	800.000	0.298	-1.151
-262.224	232.052	-0.499	0.811
-261.209	-44.752	-0.612	-0.303
-260.195	-168.196	0.338	0.013
-259.180	800.000	-0.189	0.699
-258.165	189.115	0.345	0.512
-257.151	-200.000	-0.038	-0.442
-256.136	-23.906	0.073	0.043
-255.122	-200.000	-0.180	-0.979
-254.107	163.630	-0.369	-0.514
-253.092	169.200	0.485	-0.685
-252.078	133.186	-0.367	0.469
-251.063	-8.294	0.334	0.223
-250.049	-4.414	-0.439	-0.300
-249.034	105.846	-0.299	-0.350
-248.019	-52.252	0.068	0.031
-247.005	800.000	0.134	0.390
-245.990	462.558	0.272	-0.601
-244.976	-162.781	-0.451	0.022
-243.961	-200.000	-0.044	0.393
-242.946	-166.691	-0.432	-0.018
-241.932	-90.164	-0.475	-0.137
-240.917	-70.210	0.344	0.129
-239.903	-3.142	-0.428	0.295
-238.888	-55.564	0.424	0.188
-237.873	800.000	0.237	0.705
-236.859	800.000	0.260	0.873
-235.844	-200.000	-0.011	-1.284
-234.830	-10.484	0.939	-0.616
-233.815	351.794	-0.275	-0.539
-232.800	800.000	0.167	-0.602
-231.786	-127.024	-0.358	-0.052
-230.771	384.905	0.008	-0.016
-229.757	231.885	-0.403	0.654
-228.742	-156.684	0.577	0.035
-227.727	56.329	-0.561	0.540
-226.713	-132.292	1.193	-0.153
-225.698	172.547	-0.150	-0.213
-224.684	-134.009	-0.289	-0.035
-223.669	186.296	-0.260	-0.382
-222.655	-29.159	-0.663	0.376
-221.640	-113.012	0.042	0.008
-220.625	-46.710	0.262	0.127
-219.611	-29.364	-0.484	-0.274
-218.596	-146.651	-1.218	0.104
-217.582	-17.089	-0.625	0.390
-216.567	800.000	-0.266	0.955
-215.552	-54.025	-0.407	0.183
-214.538	-142.346	0.381	0.037
-213.523	-200.000	0.010	0.404
-212.509	800.000	-0.040	-0.120
-211.494	83.764	0.255	0.276
-210.479	-200.000	-0.047	-0.558
-209.465	-200.000	0.006	0.388
-208.450	-71.044	0.531	0.198
-207.436	-178.326	-0.605	-0.014
-206.421	84.449	0.278	-0.300
-205.406	-35.505	0.545	-0.293
-204.392	-200.000	0.011	-0.385
-203.377	29.736	-0.411	-0.346
-202.363	800.000	-0.029	-0.095
-201.348	369.332	-0.283	0.567
-200.333	156.105	0.517	0.705
-199.319	-64.042	-0.455	0.184
-198.304	-200.000	-0.089	0.550
-197.290	75.090	-0.499	0.520
-196.275	-136.783	0.996	0.113
-195.260	240.890	-0.404	0.667
-194.246	29.922	-0.350	-0.295
-193.231	-144.316	-0.219	-0.020
-192.217	164.947	0.454	0.633
-191.202	800.000	-0.305	-0.926
-190.187	51.958	0.652	0.614
-189.173	558.229	0.212	0.505
-188.158	-200.000	-0.132	0.640
-187.144	121.526	-0.189	0.233
-186.129	-71.033	0.319	0.119
-185.114	102.071	-0.316	-0.365
-184.100	-61.515	-0.290	0.121
-183.085	158.282	-0.275	0.377
-182.071	-200.000	-0.010	-0.447
-181.056	-179.797	0.626	0.013
-180.042	-157.554	-0.412	-0.024
-179.027	708.203	-0.260	-0.679
-178.012	-200.000	0.023	-0.225
-176.998	156.382	0.382	-0.520
-175.983	88.513	-0.194	0.213
-174.969	-12.026	-0.093	0.060
-173.954	593.749	-0.205	0.500
-172.939	22.762	0.333	0.270
-171.925	628.229	-0.298	0.742
-170.910	-200.000	-0.058	0.659
-169.896	-130.868	0.444	-0.059
-168.881	800.000	-0.147	-0.421
-167.866	87.605	0.390	0.426
-166.852	312.742	-0.267	0.495
-165.837	-200.000	-0.005	0.411
-164.823	-24.449	0.538	0.316
-163.808	-200.000	0.091	-1.251
-162.793	-129.202	0.848	0.117
-161.779	81.168	-0.283	0.302
-160.764	-90.553	-0.338	0.097
-159.750	271.703	-0.251	0.436
-158.735	-200.000	-0.144	1.029
-157.720	-200.000	0.008	0.467
-156.706	451.291	0.278	0.606
-155.691	45.327	-0.572	0.521
-154.677	424.786	0.174	-0.370
-153.662	800.000	0.342	0.962
-152.647	-200.000	-0.100	0.492
-151.633	-200.000	-0.041	0.347
-150.618	-0.697	0.361	-0.252
-149.604	-57.724	-0.420	0.182
-148.589	800.000	-0.113	0.440
-147.574	266.801	0.094	-0.162
-146.560	94.050	-0.625	-0.700
-145.545	134.460	-0.802	-1.026
-144.531	421.894	-0.254	-0.537
-143.516	124.861	0.801	-0.995
-142.502	388.928	0.235	-0.480
-141.487	149.695	0.198	0.265
-140.472	179.195	0.409	-0.590
-139.458	208.992	-0.290	0.447
-138.443	117.567	-0.190	0.231
-137.429	-20.911	0.646	0.391
-136.414	-200.000	0.523	0.002
-135.399	-200.000	0.091	0.899
-134.385	143.881	-0.419	-0.550
-133.370	16.580	-0.055	-0.043
-132.356	-3.111	-0.370	-0.254
-131.341	-50.120	-1.016	0.474
-130.326	-101.990	-0.227	-0.054
-129.312	-130.212	-0.362	0.049
-128.297	-102.133	0.408	0.097
-127.283	-200.000	-0.077	-1.105
-126.268	302.472	-0.356	-0.649
-125.253	372.865	0.292	-0.586
-124.239	193.332	-0.193	0.288
-123.224	-94.889	0.526	-0.140
-122.210	8.139	0.735	0.544
