DTS Sentinel unit serial number:	SN413079Multiplexer serial number:	ORYXHardware model number:	OX4-SRSoftware version number:	ORYX F/W v4.00 Oryx Data Collector v3.7.2.0data status	okinstallation	princeton_trtdifferential loss correction	single-endedforward channel	channel 2reverse channel	N/Adate	2019/09/13time	05:27:35forward acquisition time	60.00reverse acquisition time	0.00gamma	496.2192k internal	0.2337k external	0.2337temperature offset calibration	1.0188default loss term (dB/km)	0.3790temperature slope calibration	1.0000multiplexer offset coefficient	1.0000multiplexer slope coefficient	1.0000fibre end	0.00T internal ref (°C)	26.30T ext. ref 1 (°C)	4.05T ext. ref 2 (°C)	20.90length (m)	temperature (°C)	Stokes	anti-Stokes-747.200	11.326	0.134	0.103
-746.185	-33.626	-0.067	-0.037
-745.171	-73.274	0.112	0.041
-744.156	-76.622	-0.732	0.258
-743.142	532.110	0.119	-0.283
-742.127	800.000	0.061	0.218
-741.112	-16.892	0.245	0.156
-740.098	-200.000	-0.008	-0.196
-739.083	-157.076	0.233	0.014
-738.069	-103.390	0.325	-0.077
-737.054	-15.723	-0.312	0.200
-736.039	408.483	0.093	-0.197
-735.025	-200.000	0.009	0.128
-734.010	-200.000	-0.013	-0.134
-732.996	-123.181	-0.388	0.062
-731.981	13.989	-0.226	-0.177
-730.966	37.929	-0.142	-0.126
-729.952	81.221	-0.169	-0.183
-728.937	-200.000	-0.074	-0.514
-727.923	-96.008	0.150	0.040
-726.908	205.362	-0.153	-0.239
-725.894	-200.000	-0.034	-0.488
-724.879	-200.000	0.005	0.026
-723.864	21.024	-0.174	0.141
-722.850	32.148	0.183	-0.159
-721.835	-200.000	0.036	-0.190
-720.821	95.850	-0.097	0.111
-719.806	-178.260	-0.584	-0.014
-718.791	-200.000	0.020	0.118
-717.777	-147.750	-0.326	0.027
-716.762	-200.000	0.006	-0.342
-715.748	-60.497	-0.417	-0.178
-714.733	22.664	-0.152	-0.125
-713.718	800.000	0.076	0.231
-712.704	69.199	0.117	0.121
-711.689	-41.383	-0.252	0.130
-710.675	-164.138	0.151	0.007
-709.660	-70.686	-0.384	-0.146
-708.645	-88.191	0.247	0.074
-707.631	14.700	-0.188	0.147
-706.616	-154.139	-0.288	-0.020
-705.602	-109.982	-0.388	-0.081
-704.587	22.410	0.198	0.163
-703.572	800.000	0.083	0.242
-702.558	-146.093	0.055	-0.005
-701.543	263.900	0.170	-0.296
-700.529	-200.000	0.012	0.066
-699.514	-135.313	0.408	0.049
-698.499	-94.591	-0.040	-0.011
-697.485	-200.000	0.012	-0.151
-696.470	32.074	0.063	-0.054
-695.456	-2.224	0.242	-0.170
-694.441	-64.159	0.358	-0.146
-693.426	-200.000	0.052	-0.394
-692.412	281.545	-0.194	0.348
-691.397	222.707	-0.108	-0.175
-690.383	-200.000	0.005	-0.283
-689.368	-73.029	-0.238	-0.088
-688.354	142.472	0.117	-0.155
-687.339	800.000	0.078	-0.316
-686.324	800.000	-0.076	-0.273
-685.310	-200.000	-0.080	0.376
-684.295	-190.082	0.344	-0.004
-683.281	-200.000	-0.025	-0.184
-682.266	-88.990	0.319	0.094
-681.251	-24.109	-0.241	0.144
-680.237	-132.485	-0.176	-0.023
-679.222	-31.648	0.186	-0.105
-678.208	126.455	0.021	0.027
-677.193	321.149	0.026	0.050
-676.178	398.201	-0.089	-0.185
-675.164	506.489	0.080	0.185
-674.149	-200.000	0.029	0.342
-673.135	-200.000	0.024	-0.152
-672.120	518.517	0.047	0.109
-671.105	790.042	-0.090	0.247
-670.091	287.277	0.045	-0.081
-669.076	-37.499	0.135	0.072
-668.062	-200.000	0.022	0.183
-667.047	116.467	-0.159	-0.195
-666.032	431.300	-0.196	-0.425
-665.018	178.420	-0.087	-0.127
-664.003	-200.000	-0.010	0.257
-662.989	800.000	0.051	0.165
-661.974	71.091	-0.224	0.232
-660.959	151.133	-0.081	0.111
-659.945	-47.485	-0.057	-0.028
-658.930	441.993	-0.018	0.040
-657.916	119.302	0.171	0.211
-656.901	-200.000	0.045	0.271
-655.886	-22.234	0.193	0.117
-654.872	272.713	0.021	-0.037
-653.857	51.470	-0.123	0.117
-652.843	246.946	0.166	-0.280
-651.828	-4.089	0.094	-0.065
-650.814	-69.689	0.413	-0.158
-649.799	48.600	0.416	-0.390
-648.784	-13.829	0.139	0.090
-647.770	-94.395	-0.137	0.037
-646.755	-200.000	-0.029	0.277
-645.741	104.789	-0.256	0.302
-644.726	470.260	0.148	-0.333
-643.711	2.159	-0.251	0.182
-642.697	463.697	0.070	0.156
-641.682	28.695	0.179	0.152
-640.668	-96.397	-0.017	-0.005
-639.653	603.097	-0.072	-0.180
-638.638	358.171	0.141	-0.281
-637.624	800.000	-0.019	0.068
-636.609	32.368	0.215	-0.186
-635.595	138.902	-0.110	-0.145
-634.580	-89.091	0.270	-0.080
-633.565	465.984	-0.113	0.254
-632.551	-60.759	0.368	-0.156
-631.536	-76.810	-0.197	-0.069
-630.522	-102.055	0.248	-0.060
-629.507	780.268	-0.030	-0.082
-628.492	448.811	0.102	-0.225
-627.478	34.037	0.070	-0.061
-626.463	87.138	-0.023	-0.025
-625.449	-200.000	-0.022	-0.222
-624.434	0.758	0.498	-0.356
-623.419	-200.000	0.016	0.140
-622.405	-200.000	0.003	0.083
-621.390	-40.832	0.421	0.217
-620.376	108.895	-0.238	-0.284
-619.361	-91.466	-0.117	0.033
-618.346	-55.054	0.170	-0.077
-617.332	106.028	-0.252	0.297
-616.317	796.365	-0.078	-0.214
-615.303	-170.574	-0.073	0.003
-614.288	87.566	-0.080	0.088
-613.273	-127.778	0.197	0.028
-612.259	84.084	-0.149	-0.162
-611.244	-83.042	-0.232	-0.075
-610.230	-200.000	0.011	-0.128
-609.215	-43.792	0.259	0.130
-608.201	-49.702	-0.234	-0.111
-607.186	1.440	0.083	-0.060
-606.171	-200.000	-0.020	0.102
-605.157	-16.429	-0.090	0.057
-604.142	-119.601	-0.130	0.022
-603.128	185.852	-0.136	-0.202
-602.113	-36.855	0.365	-0.195
-601.098	-200.000	0.046	0.333
-600.084	-200.000	0.029	-0.192
-599.069	-158.043	-0.182	0.011
-598.055	800.000	0.101	0.347
-597.040	259.353	-0.090	0.156
-596.025	-99.305	-0.095	-0.024
-595.011	-55.914	-0.202	-0.090
-593.996	249.471	-0.057	0.097
-592.982	23.370	-0.118	-0.097
-591.967	5.284	-0.169	0.124
-590.952	40.299	-0.213	0.192
-589.938	-46.701	-0.513	0.250
-588.923	200.868	0.203	-0.312
-587.909	-31.413	-0.099	0.055
-586.894	47.154	0.199	-0.185
-585.879	67.919	0.206	0.210
-584.865	800.000	-0.101	0.303
-583.850	-122.758	0.210	-0.034
-582.836	-91.187	-0.350	0.100
-581.821	-44.201	0.142	0.071
-580.806	800.000	-0.056	0.220
-579.792	-11.016	-0.178	-0.117
-578.777	120.972	-0.236	-0.293
-577.763	-113.927	0.225	-0.044
-576.748	-172.565	0.123	0.004
-575.733	169.013	-0.167	0.238
-574.719	259.523	-0.242	-0.417
-573.704	223.018	0.100	0.160
-572.690	-49.794	-0.245	0.116
-571.675	-59.362	0.250	0.107
-570.661	514.651	0.005	-0.011
-569.646	-40.954	0.229	0.118
-568.631	20.756	-0.150	0.121
-567.617	-156.914	0.142	-0.009
-566.602	473.088	-0.007	0.016
-565.588	70.526	-0.178	-0.184
-564.573	-87.575	-0.263	-0.079
-563.558	-94.461	0.100	0.027
-562.544	734.589	-0.061	-0.164
-561.529	112.803	0.053	-0.064
-560.515	726.206	-0.051	-0.136
-559.500	800.000	-0.104	-0.353
-558.485	-200.000	-0.023	-0.168
-557.471	-85.278	0.083	0.026
-556.456	-71.758	0.177	-0.066
-555.442	106.752	-0.066	-0.078
-554.427	553.096	-0.060	0.143
-553.412	-200.000	0.025	0.355
-552.398	-76.002	-0.411	-0.145
-551.383	-128.557	0.053	0.007
-550.369	-200.000	-0.022	-0.319
-549.354	391.673	-0.232	0.481
-548.339	800.000	-0.101	-0.304
-547.325	-54.675	0.140	0.063
-546.310	104.957	0.176	-0.207
-545.296	-63.621	-0.023	0.010
-544.281	-61.565	-0.339	-0.142
-543.266	75.704	0.283	-0.297
-542.252	800.000	-0.088	0.323
-541.237	21.650	0.219	0.178
-540.223	107.656	0.071	-0.085
-539.208	-13.488	-0.338	-0.218
-538.193	-200.000	-0.022	0.175
-537.179	400.050	0.090	-0.188
-536.164	200.987	-0.214	0.328
-535.150	64.325	-0.054	-0.054
-534.135	640.278	-0.091	0.230
-533.121	-163.203	0.244	-0.012
-532.106	17.440	-0.075	0.059
-531.091	-159.709	0.147	-0.008
-530.077	-12.525	0.383	0.249
-529.062	-200.000	0.026	0.211
-528.048	266.845	0.111	-0.193
-527.033	8.239	0.224	0.168
-526.018	747.920	0.162	0.435
-525.004	-75.813	-0.255	-0.090
-523.989	800.000	-0.046	0.154
-522.975	3.271	0.105	0.076
-521.960	166.036	-0.156	0.220
-520.945	97.469	0.292	0.334
-519.931	469.764	-0.139	-0.311
-518.916	21.955	0.192	-0.156
-517.902	-113.175	0.342	0.067
-516.887	-200.000	-0.003	-0.023
-515.872	800.000	0.027	-0.089
-514.858	133.725	0.106	-0.137
-513.843	-173.539	0.247	-0.007
-512.829	126.557	-0.299	0.377
-511.814	-73.941	-0.068	0.025
-510.799	264.626	0.026	0.045
-509.785	-168.386	0.446	-0.017
-508.770	-154.600	0.308	0.020
-507.756	-6.896	0.250	-0.169
-506.741	-47.953	-0.520	-0.250
-505.726	207.073	-0.186	-0.288
-504.712	148.430	0.060	-0.080
-503.697	26.767	-0.143	0.119
-502.683	800.000	-0.015	-0.050
-501.668	510.027	-0.088	-0.203
-500.653	292.839	-0.081	-0.148
-499.639	-113.820	-0.043	0.008
-498.624	-118.827	-0.163	0.029
-497.610	800.000	0.038	0.134
-496.595	-200.000	-0.038	0.269
-495.581	18.188	0.131	-0.104
-494.566	94.908	-0.094	0.106
-493.551	89.931	-0.223	0.248
-492.537	142.369	-0.063	-0.083
-491.522	57.234	-0.256	0.248
-490.508	800.000	-0.065	0.180
-489.493	-71.805	0.033	-0.012
-488.478	14.553	0.195	0.152
-487.464	-200.000	-0.003	0.208
-486.449	-200.000	0.039	-0.206
-485.435	113.541	0.204	-0.246
-484.420	-197.653	-0.181	0.001
-483.405	-84.569	0.137	0.043
-482.391	201.278	-0.020	0.030
-481.376	-34.523	-0.070	-0.038
-480.362	101.759	0.227	0.263
-479.347	-200.000	-0.024	0.177
-478.332	-132.745	0.233	-0.030
-477.318	-22.769	-0.198	-0.119
-476.303	218.084	-0.129	0.205
-475.289	800.000	-0.075	0.284
-474.274	-200.000	-0.030	0.157
-473.259	800.000	0.053	-0.206
-472.245	-200.000	-0.008	-0.077
-471.230	800.000	0.014	0.054
-470.216	-37.732	-0.206	-0.109
-469.201	313.454	0.083	0.155
-468.186	186.825	-0.081	-0.120
-467.172	-179.708	0.339	0.007
-466.157	-32.250	0.063	0.035
-465.143	-200.000	-0.024	0.261
-464.128	-200.000	-0.010	-0.300
-463.113	-114.734	-0.286	-0.054
-462.099	800.000	0.023	0.083
-461.084	-200.000	-0.028	-0.276
-460.070	-200.000	-0.363	0.002
-459.055	800.000	-0.067	0.210
-458.040	411.665	-0.076	0.161
-457.026	26.370	0.142	-0.118
-456.011	6.698	0.100	0.074
-454.997	175.728	0.146	0.210
-453.982	754.563	0.090	0.241
-452.968	-33.247	-0.321	-0.177
-451.953	170.622	0.105	0.149
-450.938	-150.348	0.326	-0.025
-449.924	-124.879	-0.207	-0.032
-448.909	774.025	-0.082	0.223
-447.895	82.200	-0.111	0.120
-446.880	-200.000	0.011	-0.085
-445.865	-23.231	0.348	0.208
-444.851	800.000	-0.048	-0.185
-443.836	-58.508	-0.257	-0.111
-442.822	431.315	0.024	-0.052
-441.807	-43.370	-0.077	-0.039
-440.792	-16.131	-0.292	-0.184
-439.778	365.819	-0.100	-0.199
-438.763	197.430	0.107	0.162
-437.749	120.826	0.137	0.169
-436.734	800.000	0.027	0.096
-435.719	35.993	-0.173	-0.151
-434.705	116.035	-0.065	-0.079
-433.690	800.000	0.104	-0.371
-432.676	-118.096	0.220	-0.039
-431.661	-73.156	0.094	0.034
-430.646	-14.222	0.229	0.146
-429.632	-39.084	-0.113	-0.059
-428.617	800.000	0.037	0.121
-427.603	-200.000	0.005	0.229
-426.588	431.116	0.091	0.194
-425.573	-68.384	-0.008	0.003
-424.559	332.527	-0.016	0.031
-423.544	-34.187	-0.181	-0.099
-422.530	78.295	-0.157	-0.166
-421.515	277.819	0.095	-0.167
-420.500	-81.178	-0.309	-0.101
-419.486	-80.164	-0.048	0.016
-418.471	-165.754	-0.153	0.007
-417.457	-98.724	0.030	-0.008
-416.442	-5.331	-0.109	-0.074
-415.428	-200.000	-0.034	0.260
-414.413	800.000	0.067	0.188
-413.398	-31.175	0.204	0.114
-412.384	-50.284	0.295	0.138
-411.369	-13.625	0.055	-0.035
-410.355	-169.510	0.135	-0.005
-409.340	-141.417	0.115	0.011
-408.325	-200.000	0.030	0.159
-407.311	632.952	-0.071	0.178
-406.296	-23.789	-0.104	-0.062
-405.282	-46.177	0.293	-0.143
-404.267	193.091	0.165	-0.247
-403.252	800.000	0.056	-0.197
-402.238	183.515	0.231	-0.339
-401.223	-161.569	-0.434	0.022
-400.209	59.398	-0.148	0.144
-399.194	800.000	-0.041	0.157
-398.179	-182.481	0.031	-0.001
-397.165	-66.451	0.082	0.032
-396.150	289.683	-0.158	0.284
-395.136	139.899	-0.027	0.035
-394.121	-200.000	0.014	0.099
-393.106	-200.000	-0.012	0.247
-392.092	-105.086	0.136	0.031
-391.077	60.345	-0.074	0.073
-390.063	-154.630	-0.083	-0.005
-389.048	-109.444	0.066	0.014
-388.033	-200.000	0.008	0.140
-387.019	-200.000	0.016	0.197
-386.004	800.000	-0.052	-0.160
-384.990	-16.269	0.376	-0.236
-383.975	-29.708	0.223	0.126
-382.960	-131.856	-0.308	0.040
-381.946	-165.841	0.210	0.009
-380.931	-158.674	-0.312	0.018
-379.917	73.453	-0.032	-0.033
-378.902	-105.810	-0.291	-0.065
-377.888	53.716	0.175	-0.166
-376.873	-20.400	-0.142	0.086
-375.858	-172.654	0.287	0.009
-374.844	800.000	0.083	0.243
-373.829	29.978	0.211	-0.178
-372.815	-9.100	-0.181	-0.120
-371.800	-111.828	-0.338	-0.068
-370.785	-200.000	-0.011	-0.186
-369.771	605.718	-0.171	-0.421
-368.756	-48.918	0.224	0.106
-367.742	-200.000	0.190	0.001
-366.727	-63.487	-0.300	0.122
-365.712	800.000	0.046	-0.130
-364.698	-136.591	-0.366	-0.042
-363.683	-78.048	0.293	-0.100
-362.669	-174.784	-0.179	-0.005
-361.654	-68.913	0.152	-0.058
-360.639	319.379	0.067	0.125
-359.625	-100.888	-0.223	-0.054
-358.610	121.908	0.044	-0.054
-357.596	68.996	-0.335	-0.340
-356.581	3.485	0.100	-0.072
-355.566	215.560	-0.231	-0.362
-354.552	-114.308	-0.187	-0.036
-353.537	-200.000	-0.001	-0.201
-352.523	-122.179	0.097	0.016
-351.508	-92.343	-0.123	-0.034
-350.493	-59.763	0.297	0.126
-349.479	565.171	-0.053	0.126
-348.464	-93.433	-0.426	0.117
-347.450	800.000	0.048	0.162
-346.435	-200.000	0.015	0.430
-345.420	23.333	-0.127	0.103
-344.406	319.742	-0.153	0.287
-343.391	110.887	-0.088	0.104
-342.377	-107.444	0.266	0.058
-341.362	-200.000	0.027	-0.150
-340.348	132.124	-0.194	-0.247
-339.333	-43.516	-0.354	0.177
-338.318	-200.000	-0.030	0.195
-337.304	-108.773	-0.116	-0.025
-336.289	-41.604	-0.286	-0.145
-335.275	-35.576	0.332	-0.178
-334.260	-185.958	-0.168	-0.002
-333.245	800.000	0.078	-0.243
-332.231	-200.000	-0.019	-0.445
-331.216	81.575	-0.037	0.039
-330.202	359.848	0.155	0.307
-329.187	800.000	0.068	0.231
-328.172	712.605	-0.042	0.109
-327.158	13.451	0.089	-0.068
-326.143	77.464	-0.134	0.141
-325.129	261.119	0.222	0.379
-324.114	410.610	0.137	0.288
-323.099	151.145	0.181	0.244
-322.085	584.642	0.043	-0.103
-321.070	0.920	-0.245	-0.173
-320.056	-104.603	0.141	0.032
-319.041	-101.971	0.301	-0.072
-318.026	-82.010	-0.255	-0.082
-317.012	800.000	-0.116	0.338
-315.997	306.651	-0.030	-0.055
-314.983	800.000	0.036	-0.151
-313.968	-144.219	-0.347	-0.032
-312.953	57.528	0.048	0.046
-311.939	-200.000	-0.034	0.193
-310.924	67.932	-0.078	0.078
-309.910	-16.635	0.199	0.124
-308.895	105.944	-0.052	-0.061
-307.880	229.111	-0.057	-0.092
-306.866	800.000	0.094	0.310
-305.851	-200.000	-0.042	0.206
-304.837	330.520	0.062	-0.118
-303.822	-145.993	-0.183	0.016
-302.807	-200.000	-0.027	0.216
-301.793	-200.000	-0.001	0.146
-300.778	308.979	-0.073	-0.135
-299.764	800.000	-0.074	-0.251
-298.749	99.041	0.126	-0.143
-297.735	88.123	-0.031	0.034
-296.720	-104.977	-0.308	-0.070
-295.705	800.000	0.049	-0.141
-294.691	101.498	0.246	0.283
-293.676	-200.000	0.000	0.355
-292.662	218.612	-0.024	-0.037
-291.647	124.657	0.110	-0.137
-290.632	-75.141	0.320	-0.113
-289.618	28.754	-0.181	0.151
-288.603	69.342	0.338	-0.343
-287.589	-200.000	0.032	0.226
-286.574	131.353	0.108	0.137
-285.559	151.302	-0.134	-0.179
-284.545	89.495	-0.292	0.322
-283.530	226.755	0.088	-0.141
-282.516	800.000	-0.107	-0.301
-281.501	-82.815	-0.123	-0.039
-280.486	800.000	0.016	0.045
-279.472	-37.076	-0.535	-0.283
-278.457	285.686	-0.115	-0.204
-277.443	454.153	-0.029	0.064
-276.428	-200.000	-0.014	0.116
-275.413	181.408	-0.119	0.172
-274.399	33.022	-0.016	0.014
-273.384	32.443	-0.164	-0.139
-272.370	192.282	-0.122	-0.182
-271.355	367.187	-0.053	0.105
-270.340	22.569	0.194	-0.156
-269.326	800.000	-0.036	-0.111
-268.311	-83.421	-0.316	-0.100
-267.297	-200.000	-0.009	-0.310
-266.282	360.641	-0.107	-0.212
-265.267	187.437	0.097	-0.143
-264.253	-15.736	0.253	0.159
-263.238	71.432	-0.157	0.161
-262.224	220.928	-0.119	-0.187
-261.209	-200.000	0.022	-0.209
-260.195	241.775	0.335	0.552
-259.180	209.343	-0.098	0.152
-258.165	582.249	0.049	0.118
-257.151	359.897	-0.174	-0.342
-256.136	274.177	-0.183	-0.318
-255.122	-200.000	0.006	-0.211
-254.107	-192.093	0.092	-0.001
-253.092	172.004	0.123	-0.174
-252.078	-62.263	0.268	-0.110
-251.063	-72.429	0.312	0.114
-250.049	800.000	-0.063	0.182
-249.034	536.962	-0.086	0.200
-248.019	800.000	-0.072	0.292
-247.005	244.483	0.034	-0.057
-245.990	-69.260	0.079	0.030
-244.976	26.517	0.185	-0.152
-243.961	346.301	0.156	-0.302
-242.946	-121.779	-0.212	-0.035
-241.932	-66.549	0.172	-0.067
-240.917	-45.612	-0.108	0.052
-239.903	-200.000	-0.044	0.331
-238.888	-126.142	0.081	0.012
-237.873	-200.000	-0.066	-0.382
-236.859	-57.622	0.183	-0.079
-235.844	800.000	0.097	0.328
-234.830	219.038	-0.011	-0.018
-233.815	382.906	0.034	-0.069
-232.800	-100.045	0.161	0.040
-231.786	-200.000	0.000	0.103
-230.771	-200.000	0.017	-0.354
-229.757	-67.511	-0.135	0.052
-228.742	-76.491	0.208	0.072
-227.727	-134.603	0.300	0.036
-226.713	800.000	-0.026	-0.108
-225.698	-71.545	0.175	0.064
-224.684	-200.000	0.029	-0.185
-223.669	-166.997	-0.239	-0.010
-222.655	800.000	0.118	-0.368
-221.640	386.046	-0.037	-0.075
-220.625	800.000	0.087	0.313
-219.611	239.240	0.145	-0.236
-218.596	-45.123	0.244	0.119
-217.582	472.404	0.077	-0.171
-216.567	-200.000	-0.041	-0.205
-215.552	800.000	0.132	-0.384
-214.538	446.112	-0.097	-0.210
-213.523	800.000	0.125	0.436
-212.509	98.508	0.135	-0.153
-211.494	-200.000	0.002	0.113
-210.479	-148.425	-0.320	-0.026
-209.465	-77.440	0.125	-0.043
-208.450	-162.662	0.333	0.016
-207.436	49.527	-0.153	0.142
-206.421	800.000	0.049	-0.137
-205.406	185.489	0.094	-0.138
-204.392	-170.764	0.393	-0.013
-203.377	64.250	0.095	-0.094
-202.363	-200.000	-0.019	0.146
-201.348	-11.853	0.421	0.271
-200.333	-156.002	0.502	0.031
-199.319	-34.187	-0.337	0.182
-198.304	58.048	0.188	-0.181
-197.290	-135.471	-0.201	-0.024
-196.275	-145.642	-0.239	0.021
-195.260	-200.000	0.053	-0.411
-194.246	-200.000	-0.021	0.096
-193.231	-138.059	0.241	0.026
-192.217	-113.887	0.287	0.055
-191.202	2.289	-0.325	-0.231
-190.187	-157.246	-0.046	0.003
-189.173	-173.606	-0.107	0.003
-188.158	-12.112	-0.144	0.093
-187.144	-81.274	0.663	0.215
-186.129	-139.759	-0.341	-0.036
-185.114	-80.161	0.136	-0.045
-184.100	8.811	-0.146	0.108
-183.085	122.304	-0.158	-0.193
-182.071	-200.000	0.007	-0.318
-181.056	-155.874	-0.154	-0.010
-180.042	-200.000	0.055	0.237
-179.027	-118.235	-0.463	-0.081
-178.012	-56.052	0.057	-0.025
-176.998	-200.000	-0.030	0.236
-175.983	-59.744	0.105	0.044
-174.969	-200.000	-0.006	0.055
-173.954	24.627	0.180	0.146
-172.939	107.411	-0.064	0.074
-171.925	126.447	0.121	-0.151
-170.910	-132.086	-0.285	-0.036
-169.896	327.743	-0.065	0.121
-168.881	-200.000	-0.043	0.406
-167.866	-200.000	-0.000	0.199
-166.852	-134.589	0.157	-0.019
-165.837	243.914	0.038	0.063
-164.823	-84.050	-0.295	0.092
-163.808	800.000	-0.002	-0.008
-162.793	-98.630	0.094	0.023
-161.779	-31.026	-0.472	-0.261
-160.764	-58.861	0.613	-0.260
-159.750	767.798	0.052	-0.138
-158.735	800.000	0.042	-0.148
-157.720	-189.809	0.179	0.002
-156.706	-49.972	0.143	-0.066
-155.691	-200.000	0.038	-0.217
-154.677	1.984	-0.228	-0.162
-153.662	-36.604	-0.160	0.085
-152.647	150.171	0.184	0.245
-151.633	-200.000	0.016	-0.082
-150.618	-200.000	0.000	0.153
-149.604	-107.938	-0.114	0.024
-148.589	-46.201	-0.323	0.156
-147.574	-200.000	-0.091	0.424
-146.560	-200.000	0.029	0.150
-145.545	-77.163	-0.112	0.038
-144.531	-200.000	-0.022	0.110
-143.516	158.598	0.120	-0.164
-142.502	184.632	0.215	-0.313
-141.487	452.193	-0.055	0.120
-140.472	-200.000	-0.010	0.304
-139.458	-129.741	0.339	-0.046
-138.443	133.979	0.114	0.145
-137.429	124.345	-0.082	-0.101
-136.414	800.000	0.066	-0.285
-135.399	37.336	0.215	-0.187
-134.385	-77.109	-0.145	-0.049
-133.370	222.797	-0.028	0.044
-132.356	-112.620	-0.135	-0.026
-131.341	-179.620	0.365	0.008
-130.326	800.000	-0.034	0.104
-129.312	800.000	0.070	-0.240
-128.297	-95.250	0.187	0.049
-127.283	-109.070	0.189	0.039
-126.268	-38.802	0.334	0.172
-125.253	-82.018	0.335	0.107
-124.239	285.819	-0.224	0.396
-123.224	-98.066	0.397	-0.100
-122.210	-35.369	-0.258	0.137
