DTS Sentinel unit serial number:	SN413079Multiplexer serial number:	ORYXHardware model number:	OX4-SRSoftware version number:	ORYX F/W v4.00 Oryx Data Collector v3.7.2.0data status	okinstallation	princeton_trtdifferential loss correction	single-endedforward channel	channel 2reverse channel	N/Adate	2019/09/17time	06:07:35forward acquisition time	60.00reverse acquisition time	0.00gamma	496.2192k internal	0.2330k external	0.2330temperature offset calibration	0.9976default loss term (dB/km)	0.3790temperature slope calibration	1.0000multiplexer offset coefficient	1.0000multiplexer slope coefficient	1.0000fibre end	0.00T internal ref (°C)	28.62T ext. ref 1 (°C)	0.14T ext. ref 2 (°C)	22.19length (m)	temperature (°C)	Stokes	anti-Stokes-747.200	454.552	0.208	0.464
-746.185	64.720	0.249	0.253
-745.171	-200.000	-0.000	0.134
-744.156	-111.086	-0.238	0.049
-743.142	378.456	0.034	-0.070
-742.127	800.000	-0.133	0.403
-741.112	-112.623	0.173	-0.035
-740.098	-200.000	-0.075	0.330
-739.083	89.619	0.241	0.271
-738.069	-200.000	0.043	0.418
-737.054	342.251	-0.061	0.120
-736.039	-200.000	0.023	0.177
-735.025	213.077	-0.146	0.232
-734.010	-160.980	-0.298	0.016
-732.996	-112.558	-0.152	0.031
-731.981	-132.265	-0.229	-0.030
-730.966	-47.846	0.255	-0.124
-729.952	-74.846	-0.187	-0.067
-728.937	217.830	0.085	0.136
-727.923	4.463	-0.163	-0.120
-726.908	-84.101	-0.274	-0.087
-725.894	-4.462	0.027	-0.019
-724.879	-200.000	-0.011	-0.173
-723.864	1.274	-0.366	0.265
-722.850	-48.855	-0.253	-0.122
-721.835	707.313	-0.020	-0.054
-720.821	-76.751	0.064	-0.023
-719.806	108.501	0.221	0.266
-718.791	-200.000	0.033	0.243
-717.777	151.427	-0.117	-0.160
-716.762	105.364	-0.130	0.154
-715.748	275.367	-0.119	-0.212
-714.733	51.919	-0.057	0.055
-713.718	2.028	-0.193	-0.140
-712.704	-56.735	-0.128	-0.057
-711.689	297.853	-0.146	-0.269
-710.675	-200.000	0.014	-0.327
-709.660	705.971	-0.054	-0.143
-708.645	16.758	-0.266	-0.212
-707.631	-171.980	0.146	0.005
-706.616	-189.330	0.125	0.001
-705.602	490.143	0.193	-0.444
-704.587	-200.000	0.005	-0.078
-703.572	-200.000	0.040	0.237
-702.558	94.235	-0.068	0.078
-701.543	-140.099	0.243	0.026
-700.529	-200.000	0.006	-0.203
-699.514	285.404	-0.178	-0.323
-698.499	-36.856	0.258	-0.139
-697.485	341.081	0.053	-0.104
-696.470	513.608	-0.221	-0.519
-695.456	696.676	0.055	0.144
-694.441	-51.269	-0.209	0.098
-693.426	99.590	0.173	-0.202
-692.412	-200.000	0.000	-0.208
-691.397	162.541	-0.140	0.198
-690.383	-130.869	0.408	-0.055
-689.368	275.309	0.193	-0.345
-688.354	-200.000	-0.001	0.041
-687.339	201.827	0.166	-0.257
-686.324	-200.000	-0.010	0.084
-685.310	-45.674	0.225	-0.112
-684.295	-200.000	-0.042	0.188
-683.281	430.343	0.048	-0.105
-682.266	-137.317	-0.030	-0.003
-681.251	-200.000	0.016	0.387
-680.237	28.704	-0.180	-0.153
-679.222	-47.894	-0.168	-0.082
-678.208	723.392	0.134	0.359
-677.193	-155.428	-0.132	-0.009
-676.178	200.398	-0.116	0.179
-675.164	800.000	0.072	-0.265
-674.149	-200.000	-0.017	0.115
-673.135	-200.000	-0.055	-0.426
-672.120	-85.780	0.235	-0.073
-671.105	179.621	-0.189	0.278
-670.091	-120.255	0.372	0.064
-669.076	149.802	-0.187	-0.254
-668.062	-65.399	0.341	0.138
-667.047	-200.000	0.013	-0.196
-666.032	-200.000	-0.002	0.041
-665.018	-145.054	-0.365	0.033
-664.003	257.733	-0.036	0.063
-662.989	-149.606	-0.193	0.015
-661.974	254.472	0.121	-0.208
-660.959	-162.034	0.076	0.004
-659.945	-55.500	0.213	-0.096
-658.930	-200.000	0.017	0.345
-657.916	-136.791	-0.479	-0.055
-656.901	-39.730	-0.162	0.085
-655.886	-78.791	-0.053	0.018
-654.872	-11.666	-0.192	-0.127
-653.857	211.914	0.077	0.121
-652.843	-5.138	-0.190	-0.131
-651.828	800.000	0.061	0.215
-650.814	-165.328	0.363	-0.016
-649.799	-122.014	-0.337	-0.056
-648.784	-76.857	0.182	0.064
-647.770	-123.259	-0.173	-0.028
-646.755	33.691	-0.307	-0.268
-645.741	-96.093	0.401	-0.107
-644.726	260.275	-0.197	-0.341
-643.711	-117.718	-0.271	0.049
-642.697	-200.000	0.040	0.201
-641.682	-117.967	-0.416	-0.075
-640.668	-184.543	0.256	0.004
-639.653	-28.311	-0.268	0.155
-638.638	33.187	0.137	-0.119
-637.624	11.077	-0.308	-0.236
-636.609	-200.000	0.015	0.088
-635.595	271.640	-0.047	-0.083
-634.580	172.904	-0.062	0.090
-633.565	-200.000	0.012	0.272
-632.551	106.999	-0.127	-0.152
-631.536	-200.000	0.006	0.033
-630.522	461.259	-0.155	0.345
-629.507	-108.941	-0.085	-0.018
-628.492	-27.196	-0.158	-0.092
-627.478	-200.000	0.041	-0.234
-626.463	-200.000	0.015	-0.074
-625.449	381.982	0.057	0.118
-624.434	-116.873	0.155	0.028
-623.419	173.488	-0.147	0.213
-622.405	409.208	-0.089	0.190
-621.390	-12.849	-0.159	-0.103
-620.376	-200.000	0.006	0.072
-619.361	478.336	-0.046	-0.103
-618.346	-200.000	-0.028	-0.391
-617.332	-200.000	-0.012	0.071
-616.317	388.939	0.077	0.160
-615.303	-200.000	-0.007	-0.144
-614.288	192.686	-0.117	0.177
-613.273	-185.562	-0.010	-0.000
-612.259	-200.000	-0.068	-0.485
-611.244	-84.872	-0.219	-0.069
-610.230	-200.000	-0.037	-0.178
-609.215	422.884	-0.115	0.248
-608.201	521.583	-0.060	0.142
-607.186	800.000	0.071	-0.237
-606.171	-66.329	0.076	-0.030
-605.157	-84.246	-0.042	0.013
-604.142	-89.947	-0.142	-0.041
-603.128	39.350	0.249	0.223
-602.113	-124.540	-0.217	0.034
-601.098	275.533	-0.084	-0.149
-600.084	-200.000	0.066	-0.359
-599.069	105.397	-0.058	0.069
-598.055	281.888	0.102	-0.183
-597.040	-50.603	0.223	0.105
-596.025	54.255	-0.278	-0.267
-595.011	-200.000	0.050	0.291
-593.996	800.000	-0.079	0.330
-592.982	-30.071	-0.040	0.023
-591.967	800.000	-0.021	0.063
-590.952	-200.000	0.016	0.442
-589.938	-56.234	0.143	0.064
-588.923	106.732	-0.208	-0.247
-587.909	92.794	0.059	-0.066
-586.894	13.645	0.031	0.024
-585.879	109.807	-0.269	0.323
-584.865	800.000	-0.028	0.079
-583.850	-138.681	0.126	-0.014
-582.836	296.496	-0.127	-0.233
-581.821	106.870	0.091	0.108
-580.806	-110.747	-0.057	0.012
-579.792	-200.000	0.006	0.058
-578.777	9.940	-0.186	-0.141
-577.763	800.000	0.077	-0.234
-576.748	-186.850	-0.297	0.004
-575.733	800.000	-0.046	-0.177
-574.719	800.000	-0.071	-0.293
-573.704	-200.000	-0.037	0.212
-572.690	126.817	0.099	-0.126
-571.675	-80.022	0.163	-0.055
-570.661	63.000	-0.075	0.075
-569.646	-127.069	0.052	-0.008
-568.631	-200.000	0.034	-0.199
-567.617	771.655	0.055	-0.151
-566.602	253.123	0.185	-0.315
-565.588	-169.969	-0.233	-0.008
-564.573	-28.888	-0.220	0.126
-563.558	286.264	0.183	-0.330
-562.544	251.406	-0.150	0.254
-561.529	800.000	0.034	0.109
-560.515	-200.000	0.016	0.203
-559.500	-77.538	0.155	-0.054
-558.485	178.665	0.150	0.219
-557.471	800.000	0.151	0.488
-556.456	-200.000	0.023	0.226
-555.442	99.256	0.109	-0.126
-554.427	-200.000	-0.019	-0.300
-553.412	-142.148	-0.130	-0.013
-552.398	-3.315	0.170	-0.118
-551.383	-70.203	0.148	0.056
-550.369	-200.000	0.040	0.193
-549.354	602.799	-0.066	0.164
-548.339	800.000	-0.075	-0.245
-547.325	775.589	-0.083	0.227
-546.310	34.192	0.195	0.170
-545.296	-200.000	-0.033	-0.239
-544.281	87.873	-0.114	0.127
-543.266	12.211	-0.286	-0.220
-542.252	-57.604	0.118	-0.052
-541.237	20.806	-0.260	0.210
-540.223	800.000	0.105	-0.308
-539.208	60.274	-0.103	-0.102
-538.193	343.851	0.030	0.058
-537.179	-150.406	0.128	0.010
-536.164	525.507	-0.182	-0.428
-535.150	-51.702	0.259	-0.120
-534.135	800.000	0.125	-0.433
-533.121	-115.770	-0.237	0.044
-532.106	-39.781	-0.145	0.076
-531.091	204.333	0.202	0.313
-530.077	-200.000	0.015	0.188
-529.062	-200.000	0.085	0.000
-528.048	-67.454	-0.265	0.104
-527.033	-19.564	0.368	-0.227
-526.018	-102.224	0.468	-0.112
-525.004	800.000	-0.154	-0.518
-523.989	-6.342	-0.394	-0.268
-522.975	-45.045	-0.031	-0.015
-521.960	739.108	-0.144	-0.387
-520.945	748.527	0.083	0.223
-519.931	-90.801	-0.320	-0.092
-518.916	-12.616	0.118	-0.077
-517.902	-61.509	-0.006	-0.002
-516.887	237.875	-0.063	-0.104
-515.872	-200.000	-0.046	-0.291
-514.858	800.000	-0.028	-0.101
-513.843	120.455	0.170	0.211
-512.829	173.671	0.048	-0.069
-511.814	-163.551	0.226	0.011
-510.799	-138.212	-0.130	-0.014
-509.785	-50.143	0.320	-0.151
-508.770	45.467	0.181	0.167
-507.756	163.795	0.167	0.234
-506.741	-32.758	0.101	-0.056
-505.726	-80.507	-0.317	-0.105
-504.712	-20.104	0.403	0.248
-503.697	-38.043	-0.228	0.121
-502.683	-94.866	-0.069	0.019
-501.668	-42.973	0.346	0.175
-500.653	-100.217	-0.111	0.027
-499.639	-58.960	-0.138	-0.060
-498.624	-200.000	-0.009	0.164
-497.610	-17.036	0.426	0.268
-496.595	-80.740	-0.137	-0.045
-495.581	-28.621	-0.180	-0.103
-494.566	11.105	0.081	-0.062
-493.551	246.747	-0.046	0.077
-492.537	-146.229	-0.095	-0.008
-491.522	-200.000	0.010	-0.287
-490.508	152.362	-0.150	-0.205
-489.493	188.765	0.026	-0.038
-488.478	184.299	0.146	-0.215
-487.464	125.746	-0.148	0.187
-486.449	125.586	0.164	-0.206
-485.435	10.602	0.090	0.068
-484.420	55.225	-0.120	0.115
-483.405	-22.171	-0.294	0.178
-482.391	-60.267	-0.056	0.024
-481.376	-130.626	0.193	0.026
-480.362	-200.000	-0.004	-0.162
-479.347	125.130	0.018	-0.023
-478.332	35.996	-0.191	0.167
-477.318	-9.722	-0.196	0.130
-476.303	800.000	0.051	0.196
-475.289	-93.090	-0.218	-0.060
-474.274	-189.855	0.039	-0.000
-473.259	87.252	-0.106	-0.117
-472.245	-51.903	0.021	0.010
-471.230	85.013	0.112	0.122
-470.216	-96.596	-0.364	-0.096
-469.201	-200.000	0.014	0.064
-468.186	65.532	-0.155	0.157
-467.172	-12.010	0.233	0.152
-466.157	-200.000	0.019	0.100
-465.143	-200.000	-0.009	0.185
-464.128	80.109	0.151	0.162
-463.113	12.073	-0.201	0.154
-462.099	-156.280	-0.133	0.008
-461.084	-99.144	-0.134	-0.034
-460.070	-200.000	-0.055	0.251
-459.055	-200.000	-0.034	0.298
-458.040	-78.966	-0.142	-0.048
-457.026	-80.705	0.160	-0.053
-456.011	-5.750	0.109	0.075
-454.997	210.708	-0.093	-0.145
-453.982	30.182	-0.139	0.118
-452.968	195.231	-0.132	-0.200
-451.953	-146.066	-0.068	0.006
-450.938	-200.000	0.010	0.070
-449.924	-50.211	0.216	0.101
-448.909	-200.000	0.040	0.220
-447.895	-200.000	0.032	-0.160
-446.880	-151.993	-0.321	0.023
-445.865	-131.608	-0.175	-0.023
-444.851	243.607	0.096	0.160
-443.836	79.726	0.077	-0.082
-442.822	-89.400	0.167	0.049
-441.807	-51.322	0.087	0.041
-440.792	-200.000	0.022	0.110
-439.778	-131.644	0.098	-0.013
-438.763	-107.964	-0.012	0.003
-437.749	-56.497	-0.186	0.082
-436.734	-200.000	0.007	0.043
-435.719	-137.545	-0.291	0.033
-434.705	-145.588	-0.195	0.017
-433.690	16.946	-0.169	0.133
-432.676	-200.000	0.054	0.286
-431.661	800.000	-0.097	-0.293
-430.646	-200.000	0.030	-0.341
-429.632	67.264	-0.132	0.133
-428.617	800.000	-0.059	0.234
-427.603	-102.577	0.202	-0.048
-426.588	-15.285	0.154	0.098
-425.573	32.771	0.158	0.136
-424.559	-200.000	0.030	0.222
-423.544	-200.000	-0.023	0.132
-422.530	35.177	-0.228	0.198
-421.515	-95.220	-0.253	-0.068
-420.500	-8.315	-0.035	-0.023
-419.486	111.163	0.131	-0.157
-418.471	27.849	0.132	-0.111
-417.457	-200.000	0.029	-0.154
-416.442	35.757	-0.040	0.035
-415.428	-109.967	-0.324	0.067
-414.413	800.000	0.067	-0.202
-413.398	338.805	-0.107	-0.208
-412.384	111.900	-0.064	-0.076
-411.369	8.104	-0.282	-0.210
-410.355	380.163	-0.089	0.181
-409.340	-73.151	0.134	0.049
-408.325	-93.157	0.034	0.009
-407.311	-59.827	0.530	-0.226
-406.296	163.543	0.108	-0.150
-405.282	17.550	0.151	0.120
-404.267	96.587	0.043	-0.048
-403.252	-86.519	-0.337	-0.103
-402.238	-61.578	0.155	-0.065
-401.223	-6.481	0.137	-0.093
-400.209	1.314	0.071	-0.051
-399.194	-106.425	-0.225	0.050
-398.179	-41.852	0.179	-0.091
-397.165	275.175	-0.061	-0.108
-396.150	-172.661	0.290	-0.009
-395.136	-8.242	-0.140	0.094
-394.121	-5.401	-0.221	0.151
-393.106	-69.816	-0.086	0.033
-392.092	167.163	0.179	0.253
-391.077	18.856	-0.358	0.285
-390.063	-58.538	-0.005	-0.002
-389.048	-200.000	0.054	0.308
-388.033	800.000	-0.091	-0.371
-387.019	289.467	-0.103	-0.186
-386.004	-110.178	0.313	-0.065
-384.990	-134.692	0.095	0.011
-383.975	800.000	0.092	0.266
-382.960	-90.710	0.073	0.021
-381.946	-113.172	0.331	-0.065
-380.931	-126.878	-0.567	-0.083
-379.917	-200.000	0.013	0.169
-378.902	-91.374	0.291	0.083
-377.888	-166.546	-0.079	-0.003
-376.873	129.007	0.034	-0.043
-375.858	-31.133	-0.209	0.117
-374.844	-200.000	-0.022	-0.146
-373.829	-84.711	0.253	-0.079
-372.815	800.000	0.149	-0.413
-371.800	-61.954	-0.144	-0.060
-370.785	58.427	0.059	-0.058
-369.771	-89.058	0.137	-0.040
-368.756	800.000	0.079	-0.237
-367.742	156.052	-0.097	-0.133
-366.727	494.238	0.107	-0.244
-365.712	-61.529	0.234	0.097
-364.698	-161.802	0.209	-0.011
-363.683	34.384	0.504	-0.437
-362.669	-38.051	-0.293	-0.154
-361.654	-143.411	0.246	0.023
-360.639	800.000	-0.107	0.315
-359.625	-128.925	0.377	0.053
-358.610	56.064	0.094	-0.090
-357.596	-18.639	-0.249	-0.154
-356.581	-200.000	0.019	-0.200
-355.566	-55.991	0.038	0.017
-354.552	23.075	-0.164	0.134
-353.537	-13.724	-0.096	0.062
-352.523	800.000	-0.106	-0.298
-351.508	177.068	0.322	-0.464
-350.493	-29.914	0.279	0.157
-349.479	-200.000	-0.007	0.146
-348.464	-77.368	-0.119	0.041
-347.450	-50.655	0.210	0.098
-346.435	-3.513	-0.403	-0.278
-345.420	800.000	-0.027	0.113
-344.406	-200.000	-0.014	0.179
-343.391	704.941	-0.084	0.219
-342.377	-80.974	-0.103	0.034
-341.362	-21.169	-0.318	-0.193
-340.348	-134.487	0.184	0.022
-339.333	-81.321	-0.064	0.021
-338.318	22.728	-0.140	0.114
-337.304	-144.003	0.185	-0.017
-336.289	83.237	0.208	-0.224
-335.275	-153.263	0.174	-0.012
-334.260	-115.783	-0.162	-0.030
-333.245	73.682	-0.089	-0.092
-332.231	-200.000	0.039	0.422
-331.216	-68.008	0.069	0.027
-330.202	-200.000	0.030	-0.166
-329.187	-111.509	-0.158	-0.032
-328.172	29.040	0.065	-0.054
-327.158	-200.000	0.021	0.312
-326.143	-200.000	0.011	0.080
-325.129	-5.621	-0.250	-0.170
-324.114	-93.813	0.303	0.083
-323.099	-114.782	0.443	0.084
-322.085	113.190	0.140	-0.168
-321.070	-35.535	0.274	-0.147
-320.056	-56.796	0.147	0.065
-319.041	800.000	-0.089	-0.294
-318.026	108.386	-0.148	-0.174
-317.012	167.474	0.095	-0.134
-315.997	-166.017	0.288	0.012
-314.983	-161.313	0.318	-0.016
-313.968	-26.040	-0.198	0.115
-312.953	-113.446	-0.322	-0.062
-311.939	15.189	0.295	0.229
-310.924	-161.876	0.453	-0.023
-309.910	13.306	0.256	0.196
-308.895	-97.779	-0.307	-0.079
-307.880	-36.911	-0.197	0.104
-306.866	-47.639	0.096	-0.046
-305.851	-36.486	-0.255	-0.136
-304.837	-77.170	-0.256	-0.088
-303.822	800.000	0.107	-0.338
-302.807	800.000	-0.091	0.262
-301.793	-192.392	0.224	0.002
-300.778	50.830	0.276	-0.258
-299.764	-30.890	0.028	0.016
-298.749	16.599	0.053	0.041
-297.735	800.000	0.091	0.392
-296.720	-200.000	-0.012	0.166
-295.705	68.710	-0.094	0.096
-294.691	-67.268	0.337	0.131
-293.676	537.993	0.101	0.236
-292.662	-200.000	0.023	0.157
-291.647	800.000	-0.094	-0.258
-290.632	238.399	-0.071	-0.117
-289.618	-200.000	-0.012	0.080
-288.603	-18.108	-0.180	0.112
-287.589	49.238	-0.345	0.321
-286.574	61.349	0.144	-0.142
-285.559	261.380	-0.093	0.160
-284.545	-43.917	-0.124	0.062
-283.530	-200.000	-0.038	0.283
-282.516	800.000	-0.016	0.046
-281.501	-112.643	-0.051	-0.010
-280.486	74.499	-0.044	0.045
-279.472	-112.449	0.056	-0.011
-278.457	800.000	0.093	-0.280
-277.443	-200.000	-0.014	0.278
-276.428	-59.939	-0.202	0.085
-275.413	-200.000	-0.041	0.435
-274.399	-60.916	0.107	-0.045
-273.384	17.652	-0.054	0.043
-272.370	-73.862	-0.030	0.011
-271.355	-81.431	-0.083	0.027
-270.340	147.692	0.047	-0.062
-269.326	88.368	0.115	0.126
-268.311	-59.085	0.412	-0.176
-267.297	-74.335	0.192	0.069
-266.282	-33.078	-0.041	-0.023
-265.267	-128.275	0.159	-0.022
-264.253	4.321	-0.133	0.096
-263.238	225.812	-0.069	0.110
-262.224	-27.721	0.094	0.054
-261.209	800.000	0.076	-0.233
-260.195	-200.000	-0.010	0.243
-259.180	60.602	0.275	0.269
-258.165	649.852	0.013	-0.032
-257.151	-184.965	-0.029	0.000
-256.136	156.247	-0.128	-0.174
-255.122	-128.466	-0.130	0.018
-254.107	-148.878	0.195	0.016
-253.092	-21.791	0.401	0.241
-252.078	264.933	-0.208	0.358
-251.063	64.066	-0.098	0.097
-250.049	-200.000	-0.077	0.345
-249.034	-134.038	0.339	0.041
-248.019	329.861	0.042	-0.080
-247.005	-21.453	-0.169	-0.102
-245.990	-13.283	0.296	-0.190
-244.976	98.248	-0.037	-0.043
-243.961	-200.000	0.008	0.346
-242.946	-163.703	-0.128	0.006
-241.932	-147.638	-0.161	-0.013
-240.917	800.000	0.070	-0.265
-239.903	800.000	-0.026	0.095
-238.888	800.000	0.099	-0.346
-237.873	54.995	-0.141	-0.134
-236.859	-125.354	-0.295	-0.044
-235.844	-200.000	0.024	-0.145
-234.830	121.566	0.103	-0.126
-233.815	800.000	0.046	-0.160
-232.800	-61.230	0.175	-0.073
-231.786	-200.000	0.110	0.524
-230.771	-26.160	0.208	-0.120
-229.757	800.000	-0.052	-0.221
-228.742	30.883	0.097	0.082
-227.727	213.938	-0.116	-0.181
-226.713	-126.097	0.186	-0.028
-225.698	-64.878	-0.165	-0.066
-224.684	-97.880	0.243	-0.062
-223.669	70.625	-0.179	-0.182
-222.655	8.434	-0.134	-0.100
-221.640	25.205	0.085	0.070
-220.625	-200.000	0.015	-0.107
-219.611	-8.246	-0.160	0.107
-218.596	295.663	-0.056	-0.101
-217.582	54.005	-0.153	0.145
-216.567	-36.800	-0.267	0.141
-215.552	50.695	-0.235	0.220
-214.538	37.924	0.254	-0.223
-213.523	-168.516	0.039	0.001
-212.509	-58.016	-0.289	0.124
-211.494	-36.654	0.253	0.134
-210.479	-92.979	0.322	-0.089
-209.465	-44.877	0.188	0.092
-208.450	-200.000	-0.013	-0.076
-207.436	-51.339	0.189	0.087
-206.421	108.842	-0.164	0.194
-205.406	380.292	-0.233	0.471
-204.392	-96.053	-0.149	0.039
-203.377	441.588	-0.146	-0.315
-202.363	152.868	0.223	-0.301
-201.348	88.579	0.178	0.195
-200.333	270.531	0.123	0.213
-199.319	-30.777	0.120	-0.067
-198.304	-59.374	-0.175	0.074
-197.290	-57.915	0.092	0.039
-196.275	-58.292	-0.297	0.127
-195.260	-200.000	0.066	-0.402
-194.246	800.000	-0.118	-0.351
-193.231	-119.505	0.154	0.026
-192.217	-200.000	0.017	0.161
-191.202	-31.469	0.267	0.148
-190.187	-200.000	0.010	-0.050
-189.173	-54.278	0.095	-0.042
-188.158	-127.218	0.302	-0.043
-187.144	-200.000	-0.010	-0.262
-186.129	233.015	0.123	0.200
-185.114	-200.000	0.045	-0.283
-184.100	-200.000	0.036	0.189
-183.085	-200.000	-0.018	-0.287
-182.071	12.596	0.093	0.071
-181.056	-118.025	-0.192	0.034
-180.042	125.138	-0.154	-0.191
-179.027	45.114	-0.071	-0.064
-178.012	154.699	0.113	0.153
-176.998	747.213	-0.039	0.103
-175.983	800.000	-0.047	-0.201
-174.969	-60.130	0.063	0.026
-173.954	-200.000	-0.008	-0.210
-172.939	143.814	0.172	-0.226
-171.925	-200.000	0.028	-0.131
-170.910	682.406	-0.059	0.150
-169.896	-200.000	-0.011	0.253
-168.881	-156.220	-0.180	0.011
-167.866	-44.233	0.284	0.140
-166.852	-200.000	-0.006	-0.114
-165.837	77.005	0.076	-0.080
-164.823	-200.000	0.006	0.265
-163.808	285.350	-0.127	0.225
-162.793	-91.442	-0.283	0.080
-161.779	-200.000	-0.040	0.264
-160.764	157.948	-0.111	0.152
-159.750	-200.000	-0.002	-0.066
-158.735	-83.683	-0.261	-0.082
-157.720	-104.861	0.131	-0.030
-156.706	332.270	0.177	-0.337
-155.691	490.721	-0.048	0.108
-154.677	800.000	-0.051	0.177
-153.662	75.256	0.144	0.149
-152.647	-72.394	0.046	-0.017
-151.633	467.761	0.083	-0.182
-150.618	-175.585	0.445	0.012
-149.604	-114.076	0.349	-0.066
-148.589	-38.570	-0.252	-0.131
-147.574	685.118	-0.082	-0.212
-146.560	-111.344	-0.228	0.046
-145.545	-37.534	0.265	-0.139
-144.531	-200.000	0.011	0.192
-143.516	80.679	0.199	0.211
-142.502	163.766	0.199	0.275
-141.487	188.991	-0.081	0.119
-140.472	-200.000	0.019	0.085
-139.458	-0.562	-0.117	-0.081
-138.443	-80.458	0.143	-0.047
-137.429	800.000	-0.066	-0.214
-136.414	151.777	-0.187	-0.251
-135.399	-87.332	-0.220	-0.066
-134.385	-58.749	-0.286	0.122
-133.370	325.863	0.126	0.238
-132.356	-159.873	0.253	-0.014
-131.341	-200.000	-0.032	0.205
-130.326	-13.113	0.192	-0.123
-129.312	-56.997	0.059	-0.026
-128.297	800.000	0.058	0.187
-127.283	-65.928	-0.301	0.118
-126.268	-17.961	-0.161	0.099
-125.253	-114.229	0.430	0.081
-124.239	124.436	-0.137	0.169
-123.224	280.939	0.070	-0.123
-122.210	192.000	0.177	0.262
