DTS Sentinel unit serial number:	SN413079Multiplexer serial number:	ORYXHardware model number:	OX4-SRSoftware version number:	ORYX F/W v4.00 Oryx Data Collector v3.7.2.0data status	okinstallation	princeton_trtdifferential loss correction	single-endedforward channel	channel 2reverse channel	N/Adate	2019/09/11time	05:17:10forward acquisition time	60.00reverse acquisition time	0.00gamma	496.2192k internal	0.2330k external	0.2330temperature offset calibration	0.9941default loss term (dB/km)	0.3790temperature slope calibration	1.0000multiplexer offset coefficient	1.0000multiplexer slope coefficient	1.0000fibre end	0.00T internal ref (°C)	29.44T ext. ref 1 (°C)	-0.25T ext. ref 2 (°C)	23.37length (m)	temperature (°C)	Stokes	anti-Stokes-747.200	190.515	0.117	0.176
-746.185	-117.495	-0.167	0.030
-745.171	-78.416	0.304	-0.105
-744.156	-4.067	-0.118	-0.082
-743.142	0.975	0.293	0.212
-742.127	17.265	-0.166	0.132
-741.112	35.545	-0.185	0.163
-740.098	139.194	-0.262	-0.347
-739.083	-15.851	0.255	0.164
-738.069	207.157	-0.271	0.425
-737.054	-200.000	-0.044	0.413
-736.039	-92.519	-0.465	0.132
-735.025	800.000	0.114	0.324
-734.010	-48.498	0.171	0.083
-732.996	-66.880	0.092	-0.037
-731.981	800.000	-0.019	-0.070
-730.966	-132.356	-0.219	0.028
-729.952	-200.000	-0.023	0.194
-728.937	131.310	-0.095	-0.123
-727.923	800.000	0.074	0.215
-726.908	-88.077	-0.189	0.057
-725.894	-200.000	-0.018	-0.334
-724.879	-200.000	0.016	-0.128
-723.864	-200.000	0.029	-0.245
-722.850	568.281	0.152	-0.373
-721.835	49.200	-0.176	-0.167
-720.821	-200.000	-0.038	-0.168
-719.806	97.444	0.074	0.085
-718.791	-41.437	-0.343	-0.178
-717.777	86.900	-0.158	-0.176
-716.762	-200.000	0.046	-0.292
-715.748	-136.654	0.309	0.036
-714.733	582.123	-0.093	-0.229
-713.718	-133.000	-0.120	-0.015
-712.704	632.046	-0.064	-0.164
-711.689	0.788	0.151	-0.109
-710.675	-59.627	-0.266	0.115
-709.660	407.068	0.060	-0.128
-708.645	-200.000	0.020	0.164
-707.631	66.976	-0.063	-0.065
-706.616	-200.000	-0.191	-0.001
-705.602	-32.601	0.588	0.329
-704.587	-170.792	-0.139	-0.005
-703.572	310.585	-0.011	-0.021
-702.558	30.478	-0.208	-0.179
-701.543	-200.000	-0.020	-0.171
-700.529	82.534	-0.146	-0.160
-699.514	-91.584	0.075	0.022
-698.499	-200.000	-0.003	0.467
-697.485	305.855	0.180	-0.336
-696.470	179.513	-0.071	-0.104
-695.456	33.710	0.160	0.139
-694.441	778.556	-0.049	0.134
-693.426	-200.000	-0.007	-0.148
-692.412	-73.313	0.115	-0.042
-691.397	-111.620	0.152	0.031
-690.383	135.688	-0.227	-0.297
-689.368	-159.022	0.311	0.018
-688.354	-200.000	0.043	0.376
-687.339	800.000	0.060	0.170
-686.324	-78.525	-0.314	0.108
-685.310	50.124	0.131	0.124
-684.295	-37.945	-0.358	-0.191
-683.281	-200.000	-0.027	-0.260
-682.266	797.828	-0.067	-0.184
-681.251	249.954	-0.068	-0.115
-680.237	-200.000	-0.052	0.290
-679.222	88.494	-0.147	0.165
-678.208	639.982	-0.042	0.108
-677.193	800.000	0.060	0.213
-676.178	37.328	0.048	0.043
-675.164	18.156	0.145	0.116
-674.149	120.181	-0.122	-0.152
-673.135	-151.705	0.358	-0.026
-672.120	800.000	-0.018	-0.074
-671.105	409.914	0.054	0.115
-670.091	-89.163	-0.124	-0.037
-669.076	15.360	-0.154	0.122
-668.062	21.245	-0.236	0.193
-667.047	-112.494	0.168	0.034
-666.032	800.000	0.038	-0.141
-665.018	-26.435	0.304	0.179
-664.003	-200.000	-0.031	0.382
-662.989	-13.498	-0.283	-0.184
-661.974	-82.724	0.169	-0.055
-660.959	-129.714	0.249	0.034
-659.945	196.426	0.122	0.186
-658.930	800.000	0.089	0.299
-657.916	247.535	-0.108	0.184
-656.901	112.463	0.054	0.065
-655.886	-59.267	-0.394	0.170
-654.872	-133.334	-0.222	-0.028
-653.857	-75.999	0.303	-0.107
-652.843	-200.000	-0.005	0.227
-651.828	157.537	0.066	0.092
-650.814	165.828	0.074	-0.106
-649.799	-78.393	-0.037	-0.013
-648.784	190.924	-0.055	0.082
-647.770	-137.296	0.461	-0.053
-646.755	800.000	0.058	-0.161
-645.741	-200.000	0.001	-0.044
-644.726	515.547	0.134	0.315
-643.711	147.587	0.128	-0.172
-642.697	-200.000	-0.011	-0.114
-641.682	-9.196	-0.127	0.085
-640.668	52.055	0.235	0.225
-639.653	-200.000	-0.014	0.157
-638.638	800.000	-0.036	0.151
-637.624	37.155	-0.178	0.158
-636.609	148.090	-0.124	-0.168
-635.595	-200.000	0.034	-0.321
-634.580	31.779	-0.092	-0.079
-633.565	-45.281	-0.248	-0.123
-632.551	460.568	0.042	-0.093
-631.536	-200.000	-0.220	0.000
-630.522	42.392	-0.080	-0.073
-629.507	-102.201	-0.098	-0.024
-628.492	319.037	-0.046	0.087
-627.478	-130.710	0.176	-0.024
-626.463	400.918	-0.050	0.106
-625.449	186.922	-0.201	-0.300
-624.434	800.000	0.035	-0.117
-623.419	-133.303	-0.347	-0.044
-622.405	-200.000	-0.014	0.107
-621.390	-22.248	-0.199	0.121
-620.376	-154.221	-0.106	0.007
-619.361	-120.144	0.232	-0.040
-618.346	-200.000	0.006	-0.448
-617.332	-103.679	0.175	0.041
-616.317	-14.050	-0.360	-0.233
-615.303	258.824	-0.099	-0.171
-614.288	-124.240	-0.162	-0.025
-613.273	494.134	-0.114	0.262
-612.259	125.107	-0.030	0.038
-611.244	348.296	0.160	0.316
-610.230	49.740	-0.230	0.217
-609.215	800.000	0.100	0.314
-608.201	-53.594	0.058	0.027
-607.186	44.566	-0.111	0.102
-606.171	231.986	-0.023	-0.038
-605.157	-49.407	0.265	0.127
-604.142	-200.000	-0.017	0.131
-603.128	-159.431	-0.063	0.004
-602.113	137.824	-0.055	0.073
-601.098	37.626	0.157	0.139
-600.084	800.000	0.036	0.155
-599.069	-133.572	-0.268	0.034
-598.055	-127.076	-0.266	0.039
-597.040	29.699	-0.124	-0.106
-596.025	800.000	-0.073	-0.307
-595.011	470.441	0.109	-0.245
-593.996	-32.522	-0.206	-0.115
-592.982	422.756	0.055	-0.119
-591.967	438.060	-0.037	0.080
-590.952	-121.431	0.335	0.056
-589.938	-171.868	0.202	0.007
-588.923	-38.185	0.228	-0.121
-587.909	-115.916	-0.326	0.061
-586.894	-28.086	0.152	-0.088
-585.879	310.982	0.164	-0.308
-584.865	359.114	-0.143	-0.286
-583.850	-100.989	0.418	-0.103
-582.836	-118.152	-0.130	0.023
-581.821	-200.000	-0.001	-0.105
-580.806	-162.610	-0.198	0.010
-579.792	-100.230	0.056	0.014
-578.777	800.000	0.045	0.191
-577.763	-200.000	0.029	0.246
-576.748	116.309	-0.064	-0.078
-575.733	-200.000	-0.025	-0.396
-574.719	-200.000	-0.001	-0.010
-573.704	-119.090	-0.084	-0.015
-572.690	800.000	0.048	0.200
-571.675	-200.000	-0.025	-0.179
-570.661	-109.134	-0.029	-0.006
-569.646	800.000	0.035	0.130
-568.631	-200.000	0.022	-0.170
-567.617	-29.477	-0.356	-0.204
-566.602	-200.000	0.054	-0.289
-565.588	-200.000	0.005	0.346
-564.573	-200.000	0.022	0.274
-563.558	-156.753	0.119	-0.007
-562.544	-159.212	0.379	0.021
-561.529	97.636	0.169	0.194
-560.515	475.483	-0.115	0.259
-559.500	37.855	-0.184	-0.164
-558.485	-84.660	-0.131	0.041
-557.471	-13.024	-0.041	0.027
-556.456	-109.139	-0.164	-0.035
-555.442	464.758	-0.118	0.263
-554.427	-200.000	-0.011	-0.175
-553.412	-94.542	0.137	0.037
-552.398	-70.022	-0.194	0.074
-551.383	253.212	0.191	-0.326
-550.369	453.731	0.163	-0.360
-549.354	572.729	-0.018	-0.043
-548.339	-101.651	0.081	0.020
-547.325	-13.180	-0.177	-0.115
-546.310	-200.000	0.043	-0.312
-545.296	492.191	0.045	0.103
-544.281	-200.000	-0.035	0.200
-543.266	-39.089	-0.523	0.275
-542.252	-82.599	0.250	-0.081
-541.237	-113.696	0.286	0.056
-540.223	202.872	-0.131	0.202
-539.208	213.050	-0.065	-0.102
-538.193	-42.499	-0.135	-0.069
-537.179	-22.959	-0.194	0.117
-536.164	-200.000	0.017	0.112
-535.150	-200.000	0.051	0.249
-534.135	-200.000	0.054	0.268
-533.121	-100.606	0.178	0.044
-532.106	-17.138	0.348	-0.219
-531.091	-130.706	-0.059	0.008
-530.077	-11.431	-0.216	0.142
-529.062	163.250	-0.109	-0.153
-528.048	-200.000	-0.006	0.099
-527.033	-200.000	0.001	0.011
-526.018	43.424	-0.186	-0.170
-525.004	-140.178	-0.377	0.040
-523.989	-172.218	-0.187	-0.006
-522.975	-86.786	-0.302	0.092
-521.960	-19.047	-0.080	-0.050
-520.945	-6.504	0.260	0.177
-519.931	12.337	0.273	-0.210
-518.916	-189.992	0.231	0.003
-517.902	74.032	0.051	-0.053
-516.887	800.000	-0.044	-0.169
-515.872	-200.000	-0.002	0.146
-514.858	388.973	0.052	0.108
-513.843	-179.085	0.018	0.000
-512.829	77.076	-0.043	0.045
-511.814	-200.000	-0.000	-0.030
-510.799	-16.919	-0.249	-0.157
-509.785	-101.347	0.210	0.051
-508.770	-69.871	0.080	-0.030
-507.756	-81.512	0.135	0.044
-506.741	-200.000	-0.043	0.244
-505.726	195.880	-0.050	-0.076
-504.712	-200.000	0.019	0.144
-503.697	800.000	0.044	-0.134
-502.683	800.000	-0.015	-0.060
-501.668	-200.000	0.033	-0.290
-500.653	-200.000	-0.023	-0.145
-499.639	134.182	0.172	0.222
-498.624	-200.000	-0.014	-0.113
-497.610	-104.525	-0.491	-0.113
-496.595	54.975	-0.163	-0.157
-495.581	411.027	-0.132	0.279
-494.566	800.000	0.059	-0.234
-493.551	-200.000	-0.005	0.141
-492.537	33.742	-0.269	0.233
-491.522	0.354	0.094	-0.067
-490.508	172.552	0.057	0.081
-489.493	-167.029	0.234	-0.010
-488.478	-27.959	0.202	-0.116
-487.464	-200.000	0.015	0.095
-486.449	9.055	0.126	-0.095
-485.435	-48.566	0.240	-0.115
-484.420	-200.000	0.056	0.268
-483.405	-165.502	0.178	-0.008
-482.391	800.000	0.103	-0.321
-481.376	-120.670	0.242	0.041
-480.362	680.710	-0.034	-0.087
-479.347	214.399	-0.184	-0.290
-478.332	253.224	0.169	-0.287
-477.318	-29.345	-0.187	-0.107
-476.303	-69.429	0.174	-0.066
-475.289	37.223	0.213	-0.188
-474.274	800.000	-0.078	-0.282
-473.259	84.546	0.194	0.212
-472.245	17.373	0.115	0.091
-471.230	466.173	-0.090	0.201
-470.216	-46.735	0.193	-0.094
-469.201	187.443	0.194	-0.289
-468.186	100.652	-0.128	0.148
-467.172	-200.000	0.036	0.174
-466.157	-200.000	0.003	0.076
-465.143	-60.609	-0.244	0.103
-464.128	359.759	0.148	0.295
-463.113	-23.915	-0.418	0.249
-462.099	-135.695	-0.080	-0.009
-461.084	-143.541	-0.315	-0.030
-460.070	-200.000	0.006	0.109
-459.055	129.637	-0.100	-0.127
-458.040	36.013	0.187	0.164
-457.026	-108.196	0.318	-0.068
-456.011	-153.141	-0.224	-0.016
-454.997	188.061	0.174	0.259
-453.982	631.171	0.060	0.151
-452.968	-200.000	0.037	0.205
-451.953	-139.690	-0.225	0.024
-450.938	-200.000	-0.048	-0.261
-449.924	-106.577	-0.208	-0.046
-448.909	23.724	0.100	0.082
-447.895	130.374	0.073	0.092
-446.880	-200.000	0.029	0.210
-445.865	134.488	0.198	0.256
-444.851	-30.889	-0.118	-0.067
-443.836	312.524	-0.046	0.086
-442.822	68.588	-0.176	0.180
-441.807	131.273	-0.186	0.237
-440.792	-65.655	-0.122	-0.049
-439.778	-79.866	0.103	-0.034
-438.763	-200.000	0.004	0.432
-437.749	120.821	0.156	-0.193
-436.734	81.206	-0.267	-0.287
-435.719	21.673	0.350	-0.283
-434.705	-165.257	0.063	0.003
-433.690	-142.568	-0.074	0.007
-432.676	-157.686	-0.089	0.005
-431.661	-134.617	-0.447	-0.054
-430.646	-64.004	0.085	-0.035
-429.632	209.467	0.112	0.175
-428.617	-200.000	-0.016	0.124
-427.603	-48.387	-0.146	-0.070
-426.588	-67.249	0.210	0.082
-425.573	-87.953	0.100	0.030
-424.559	-200.000	0.066	-0.341
-423.544	-155.618	0.259	0.017
-422.530	160.678	-0.086	0.119
-421.515	533.411	-0.020	0.046
-420.500	-59.910	0.063	-0.027
-419.486	123.798	0.068	-0.085
-418.471	-200.000	0.023	-0.316
-417.457	-42.574	-0.439	-0.222
-416.442	800.000	-0.025	0.094
-415.428	-200.000	0.020	0.106
-414.413	-147.362	-0.074	-0.006
-413.398	344.890	0.093	0.181
-412.384	256.231	0.011	0.018
-411.369	74.622	-0.057	-0.059
-410.355	0.310	0.222	-0.158
-409.340	7.566	-0.261	0.194
-408.325	186.096	-0.062	-0.091
-407.311	376.286	0.166	0.337
-406.296	-121.154	-0.157	0.026
-405.282	149.255	-0.118	0.159
-404.267	-186.682	0.268	-0.004
-403.252	800.000	0.075	0.323
-402.238	47.867	0.113	-0.105
-401.223	-191.772	-0.311	-0.003
-400.209	79.105	-0.262	-0.278
-399.194	-137.544	-0.159	-0.018
-398.179	197.016	-0.137	-0.207
-397.165	264.141	0.061	0.106
-396.150	8.055	0.114	-0.085
-395.136	702.305	-0.055	0.145
-394.121	-200.000	-0.012	-0.062
-393.106	-92.518	-0.319	-0.089
-392.092	-103.656	0.051	0.012
-391.077	29.885	0.221	0.187
-390.063	121.298	0.063	-0.078
-389.048	658.648	0.090	0.229
-388.033	67.062	0.089	-0.090
-387.019	215.941	-0.076	0.120
-386.004	-20.180	-0.233	0.142
-384.990	18.208	-0.128	-0.101
-383.975	-101.824	0.179	-0.043
-382.960	19.134	0.334	0.266
-381.946	-200.000	-0.020	0.167
-380.931	-69.861	0.245	-0.093
-379.917	-43.882	0.106	0.053
-378.902	800.000	0.047	-0.148
-377.888	-200.000	0.035	-0.217
-376.873	-119.071	0.222	-0.039
-375.858	115.125	0.111	0.135
-374.844	-200.000	0.015	0.337
-373.829	-102.433	-0.166	0.040
-372.815	-136.739	0.086	0.010
-371.800	-77.451	-0.249	0.086
-370.785	118.020	-0.111	0.135
-369.771	646.783	0.046	-0.117
-368.756	-106.752	-0.269	0.059
-367.742	362.034	-0.066	0.132
-366.727	-200.000	0.004	0.146
-365.712	113.079	0.145	-0.175
-364.698	-77.485	0.198	0.068
-363.683	-85.114	0.126	-0.039
-362.669	-59.046	-0.119	0.051
-361.654	20.047	-0.153	0.122
-360.639	800.000	0.081	-0.305
-359.625	-22.591	-0.272	-0.163
-358.610	61.547	-0.221	-0.218
-357.596	-26.903	0.125	-0.072
-356.581	-184.725	-0.406	-0.006
-355.566	-48.637	0.338	-0.161
-354.552	-158.280	0.222	0.013
-353.537	-60.232	-0.157	-0.066
-352.523	-61.240	0.248	-0.104
-351.508	-142.046	0.296	0.029
-350.493	193.994	-0.170	0.255
-349.479	-45.342	-0.191	0.094
-348.464	169.986	-0.184	-0.260
-347.450	-56.851	0.362	0.158
-346.435	285.003	-0.113	-0.202
-345.420	766.993	0.164	0.441
-344.406	745.601	0.066	0.177
-343.391	800.000	-0.076	-0.235
-342.377	238.614	0.076	-0.126
-341.362	800.000	-0.032	-0.134
-340.348	-200.000	0.008	0.103
-339.333	-7.852	-0.086	0.057
-338.318	-59.226	0.164	0.070
-337.304	-200.000	-0.075	0.345
-336.289	322.004	-0.035	-0.066
-335.275	-19.965	0.162	0.099
-334.260	-200.000	0.016	-0.282
-333.245	96.581	0.119	-0.135
-332.231	800.000	-0.040	0.171
-331.216	121.459	-0.110	-0.135
-330.202	80.689	-0.184	0.196
-329.187	45.247	-0.171	-0.156
-328.172	50.801	0.311	-0.292
-327.158	495.616	-0.080	-0.181
-326.143	-1.145	0.086	-0.060
-325.129	33.768	0.184	-0.159
-324.114	-3.637	0.250	0.172
-323.099	-156.899	0.264	-0.016
-322.085	3.032	0.192	-0.138
-321.070	-38.474	0.185	-0.097
-320.056	800.000	-0.021	-0.059
-319.041	1.608	0.097	0.069
-318.026	-96.215	0.112	-0.029
-317.012	725.137	0.023	-0.062
-315.997	-200.000	-0.019	-0.119
-314.983	-197.611	0.236	0.001
-313.968	27.996	-0.213	-0.178
-312.953	-53.375	-0.180	0.082
-311.939	311.189	0.122	0.226
-310.924	29.825	-0.087	0.074
-309.910	497.979	0.055	0.125
-308.895	-165.617	0.323	0.014
-307.880	-74.643	0.175	-0.062
-306.866	-117.581	-0.333	0.059
-305.851	-138.090	-0.169	0.019
-304.837	-89.449	-0.197	-0.057
-303.822	800.000	0.093	-0.392
-302.807	-200.000	0.017	0.337
-301.793	224.176	0.053	0.085
-300.778	56.968	0.296	-0.286
-299.764	-26.525	0.206	-0.120
-298.749	-74.089	-0.391	-0.140
-297.735	-200.000	-0.004	0.332
-296.720	-131.715	-0.117	0.015
-295.705	-68.384	0.106	0.041
-294.691	322.645	-0.089	0.168
-293.676	53.332	0.122	-0.115
-292.662	67.125	-0.233	-0.235
-291.647	621.576	0.161	-0.401
-290.632	-128.553	-0.173	0.024
-289.618	-116.198	-0.128	0.024
-288.603	-105.906	-0.402	-0.090
-287.589	482.399	-0.042	-0.095
-286.574	-30.722	0.343	0.192
-285.559	800.000	-0.066	0.215
-284.545	790.244	-0.154	-0.419
-283.530	295.470	0.116	0.211
-282.516	-37.750	0.065	0.034
-281.501	-43.943	-0.113	0.056
-280.486	800.000	-0.046	-0.183
-279.472	-200.000	0.001	0.409
-278.457	-54.628	0.351	-0.157
-277.443	-200.000	0.001	-0.386
-276.428	-42.656	-0.148	0.075
-275.413	-88.084	-0.184	0.055
-274.399	89.805	0.283	0.313
-273.384	-200.000	0.031	-0.201
-272.370	-38.310	0.156	-0.081
-271.355	-56.637	0.194	-0.085
-270.340	150.825	0.069	-0.092
-269.326	-200.000	-0.001	0.138
-268.311	-200.000	0.015	-0.135
-267.297	-126.455	-0.343	0.050
-266.282	484.512	-0.071	0.159
-265.267	38.713	0.316	0.279
-264.253	85.653	0.099	0.108
-263.238	74.924	0.067	0.070
-262.224	-80.177	-0.350	-0.116
-261.209	-52.707	0.362	0.165
-260.195	800.000	0.014	0.045
-259.180	-153.975	-0.102	-0.007
-258.165	-36.723	0.056	0.030
-257.151	-19.251	0.192	0.118
-256.136	8.755	0.293	0.219
-255.122	-115.356	-0.383	-0.071
-254.107	603.453	-0.030	0.074
-253.092	800.000	0.066	-0.229
-252.078	-41.804	-0.214	0.108
-251.063	-200.000	-0.002	-0.124
-250.049	186.171	0.147	0.216
-249.034	-200.000	-0.031	0.158
-248.019	-91.203	0.074	0.021
-247.005	800.000	-0.037	-0.155
-245.990	181.844	0.108	0.157
-244.976	63.953	-0.054	-0.054
-243.961	-190.754	-0.089	-0.001
-242.946	54.814	0.159	0.151
-241.932	-43.413	-0.190	0.095
-240.917	-118.603	0.437	0.076
-239.903	8.067	-0.289	-0.214
-238.888	108.113	0.215	-0.253
-237.873	198.228	-0.134	0.202
-236.859	-27.538	0.363	-0.208
-235.844	-200.000	0.011	0.343
-234.830	-200.000	0.039	0.188
-233.815	-25.237	-0.065	0.038
-232.800	245.250	-0.157	-0.260
-231.786	45.038	-0.171	-0.155
-230.771	-107.054	-0.168	0.037
-229.757	582.273	0.148	0.358
-228.742	397.540	-0.197	0.406
-227.727	-200.000	-0.000	-0.133
-226.713	223.368	-0.208	-0.332
-225.698	179.004	-0.147	-0.212
-224.684	452.525	0.080	-0.175
-223.669	-80.567	-0.246	-0.081
-222.655	-104.734	0.245	0.056
-221.640	-13.574	0.345	0.220
-220.625	97.210	0.269	-0.304
-219.611	92.465	-0.062	-0.069
-218.596	-163.576	-0.075	-0.003
-217.582	-138.519	-0.383	-0.042
-216.567	-81.241	-0.249	0.081
-215.552	319.097	-0.093	0.173
-214.538	-94.113	0.109	-0.030
-213.523	83.868	-0.225	-0.243
-212.509	-126.152	0.365	-0.054
-211.494	178.715	0.030	0.043
-210.479	-200.000	-0.015	-0.244
-209.465	-200.000	-0.017	-0.284
-208.450	-122.880	-0.143	0.023
-207.436	6.259	0.462	-0.338
-206.421	31.192	-0.126	0.107
-205.406	-98.733	-0.043	-0.011
-204.392	269.798	0.182	-0.315
-203.377	-156.357	0.082	-0.005
-202.363	98.023	0.166	0.188
-201.348	-6.984	-0.259	0.173
-200.333	-89.471	0.439	-0.127
-199.319	-75.486	-0.195	0.068
-198.304	50.816	0.441	-0.412
-197.290	-200.000	-0.024	-0.224
-196.275	800.000	-0.096	-0.284
-195.260	-141.131	-0.305	-0.031
-194.246	-200.000	-0.314	-0.001
-193.231	435.541	-0.089	0.192
-192.217	800.000	-0.046	0.169
-191.202	267.785	-0.138	0.239
-190.187	-117.851	-0.199	-0.035
-189.173	-29.597	-0.281	-0.158
-188.158	-63.425	0.060	0.024
-187.144	-139.996	-0.246	-0.026
-186.129	64.430	0.272	-0.270
-185.114	113.299	0.315	0.376
-184.100	-200.000	-0.007	-0.144
-183.085	52.780	0.168	-0.158
-182.071	-200.000	0.004	-0.242
-181.056	-70.478	0.413	0.154
-180.042	800.000	0.093	-0.283
-179.027	-80.393	0.125	-0.041
-178.012	-60.990	-0.219	-0.091
-176.998	116.434	0.170	-0.206
-175.983	-113.659	-0.304	-0.058
-174.969	342.010	0.106	-0.205
-173.954	-144.992	-0.387	0.035
-172.939	86.918	-0.014	-0.015
-171.925	-141.323	0.260	0.026
-170.910	-64.656	-0.316	-0.126
-169.896	-112.069	0.090	0.018
-168.881	800.000	0.080	0.252
-167.866	-38.168	-0.321	0.168
-166.852	-94.805	-0.019	0.005
-165.837	-141.205	0.117	0.012
-164.823	229.049	-0.051	0.082
-163.808	-200.000	0.035	0.252
-162.793	769.520	0.094	0.253
-161.779	278.766	-0.088	-0.155
-160.764	163.557	-0.055	0.077
-159.750	-200.000	0.020	0.378
-158.735	353.235	0.162	0.317
-157.720	-200.000	-0.215	-0.001
-156.706	800.000	0.049	-0.133
-155.691	318.330	-0.059	0.111
-154.677	1.060	0.116	0.082
-153.662	-55.488	0.059	-0.026
-152.647	479.950	0.107	0.239
-151.633	-200.000	0.019	0.361
-150.618	51.387	-0.204	0.191
-149.604	-132.302	0.234	0.030
-148.589	-200.000	-0.024	0.201
-147.574	76.354	-0.138	0.144
-146.560	800.000	-0.066	0.263
-145.545	341.245	0.170	-0.326
-144.531	193.226	-0.112	-0.167
-143.516	-1.328	-0.031	-0.021
-142.502	-112.775	0.281	-0.055
-141.487	352.883	0.079	-0.154
-140.472	-200.000	0.027	-0.123
-139.458	-7.480	-0.271	-0.180
-138.443	-130.911	-0.170	0.022
-137.429	-27.814	-0.213	0.122
-136.414	-200.000	0.000	0.402
-135.399	-21.772	-0.209	-0.125
-134.385	91.489	-0.127	0.140
-133.370	32.155	-0.098	-0.083
-132.356	-200.000	-0.037	0.308
-131.341	-113.665	0.184	-0.035
-130.326	800.000	0.050	-0.190
-129.312	-91.597	-0.051	-0.014
-128.297	120.120	-0.289	0.353
-127.283	-72.381	-0.157	-0.057
-126.268	-117.831	0.060	-0.011
-125.253	31.841	0.315	-0.267
-124.239	-200.000	-0.065	-0.447
-123.224	-170.118	0.304	-0.011
-122.210	-23.286	-0.147	0.087
