DTS Sentinel unit serial number:	SN413079Multiplexer serial number:	ORYXHardware model number:	OX4-SRSoftware version number:	ORYX F/W v4.00 Oryx Data Collector v3.7.2.0data status	okinstallation	princeton_trtdifferential loss correction	single-endedforward channel	channel 2reverse channel	N/Adate	2019/09/16time	14:31:35forward acquisition time	60.00reverse acquisition time	0.00gamma	496.2192k internal	0.2297k external	0.2297temperature offset calibration	0.9942default loss term (dB/km)	0.3790temperature slope calibration	1.0000multiplexer offset coefficient	1.0000multiplexer slope coefficient	1.0000fibre end	0.00T internal ref (°C)	41.87T ext. ref 1 (°C)	14.25T ext. ref 2 (°C)	36.26length (m)	temperature (°C)	Stokes	anti-Stokes-747.200	115.529	-0.033	-0.041
-746.185	-53.129	-0.080	-0.038
-745.171	787.910	-0.045	0.126
-744.156	16.665	0.198	0.160
-743.142	8.953	0.183	-0.141
-742.127	-200.000	0.046	-0.207
-741.112	-18.831	0.199	-0.127
-740.098	461.845	0.011	0.024
-739.083	147.308	0.151	-0.208
-738.069	550.763	-0.117	0.286
-737.054	55.063	0.063	0.062
-736.039	384.260	0.083	0.175
-735.025	171.355	-0.037	0.054
-734.010	-200.000	-0.009	-0.052
-732.996	-24.345	0.102	-0.062
-731.981	22.871	-0.076	-0.063
-730.966	-200.000	0.026	0.250
-729.952	165.184	-0.117	0.169
-728.937	-152.532	-0.323	-0.024
-727.923	387.711	-0.039	0.082
-726.908	183.588	0.101	-0.153
-725.894	31.845	-0.420	-0.369
-724.879	204.713	0.035	-0.056
-723.864	-82.366	-0.238	-0.079
-722.850	-200.000	-0.003	-0.105
-721.835	33.121	-0.147	0.130
-720.821	-58.642	-0.439	0.194
-719.806	60.529	0.068	-0.069
-718.791	-104.559	0.386	-0.091
-717.777	206.661	0.216	0.343
-716.762	624.399	-0.047	0.120
-715.748	561.010	0.093	-0.228
-714.733	800.000	0.062	0.213
-713.718	26.311	-0.324	-0.276
-712.704	800.000	0.094	-0.271
-711.689	-40.474	-0.167	-0.088
-710.675	155.164	-0.281	-0.394
-709.660	230.844	-0.110	-0.183
-708.645	29.028	-0.185	-0.160
-707.631	40.448	0.062	-0.057
-706.616	39.829	-0.165	0.151
-705.602	-62.714	-0.307	0.130
-704.587	800.000	0.053	-0.197
-703.572	-46.152	-0.030	-0.015
-702.558	800.000	0.105	-0.332
-701.543	73.723	-0.235	-0.252
-700.529	65.445	0.256	-0.265
-699.514	379.551	0.142	-0.296
-698.499	-134.927	-0.202	0.025
-697.485	-200.000	0.019	0.115
-696.470	800.000	-0.129	-0.420
-695.456	-61.532	0.098	-0.042
-694.441	64.499	0.028	0.029
-693.426	800.000	-0.042	0.144
-692.412	800.000	0.029	-0.087
-691.397	-200.000	-0.011	-0.195
-690.383	-200.000	-0.042	-0.202
-689.368	-200.000	-0.018	0.323
-688.354	-51.349	0.174	0.083
-687.339	-48.058	-0.071	-0.035
-686.324	352.788	-0.096	-0.194
-685.310	-63.543	0.283	0.118
-684.295	290.967	0.048	0.089
-683.281	485.753	-0.095	-0.220
-682.266	-200.000	0.020	0.216
-681.251	800.000	0.030	0.124
-680.237	-24.052	-0.149	-0.091
-679.222	-200.000	0.062	-0.414
-678.208	-48.547	0.230	-0.113
-677.193	114.764	-0.324	-0.403
-676.178	-13.274	-0.107	-0.071
-675.164	-56.970	-0.194	-0.087
-674.149	493.212	-0.038	0.089
-673.135	-168.195	0.019	0.001
-672.120	25.571	0.183	-0.155
-671.105	-145.367	0.242	0.022
-670.091	222.411	-0.038	-0.063
-669.076	-30.959	0.107	0.061
-668.062	201.246	0.072	-0.112
-667.047	-107.257	-0.307	-0.069
-666.032	-200.000	0.011	0.158
-665.018	190.931	-0.010	0.015
-664.003	-200.000	-0.025	0.176
-662.989	-200.000	-0.011	0.076
-661.974	5.848	0.174	0.131
-660.959	800.000	-0.109	0.372
-659.945	-118.954	0.193	-0.034
-658.930	-133.698	-0.034	0.004
-657.916	-200.000	0.019	-0.123
-656.901	-200.000	-0.007	-0.290
-655.886	-137.802	0.285	0.033
-654.872	-33.300	0.176	-0.099
-653.857	-83.422	-0.317	0.103
-652.843	-200.000	-0.077	-0.395
-651.828	-54.301	-0.247	0.114
-650.814	144.854	-0.190	0.259
-649.799	2.705	-0.015	-0.011
-648.784	-172.753	0.228	-0.007
-647.770	-130.257	0.162	0.022
-646.755	-135.703	0.293	-0.035
-645.741	-68.378	0.258	0.102
-644.726	-164.404	0.220	0.010
-643.711	615.369	0.051	-0.131
-642.697	-154.042	0.229	-0.016
-641.682	-47.034	-0.358	-0.178
-640.668	-149.533	-0.118	-0.009
-639.653	366.717	-0.197	-0.404
-638.638	376.554	0.021	0.044
-637.624	29.699	0.092	-0.079
-636.609	-94.875	-0.203	0.056
-635.595	664.785	0.045	0.118
-634.580	653.758	-0.016	-0.043
-633.565	-25.398	-0.203	-0.122
-632.551	-200.000	0.012	0.322
-631.536	-125.802	-0.238	-0.036
-630.522	182.154	-0.073	0.109
-629.507	-26.580	0.205	0.122
-628.492	-200.000	-0.023	-0.542
-627.478	-200.000	-0.118	-0.570
-626.463	-97.351	0.154	-0.041
-625.449	18.417	0.131	0.106
-624.434	109.150	0.067	0.082
-623.419	-49.758	-0.097	0.047
-622.405	270.589	0.012	-0.021
-621.390	4.284	-0.072	0.053
-620.376	-31.833	0.265	-0.151
-619.361	800.000	-0.060	0.208
-618.346	-200.000	-0.019	0.127
-617.332	-15.030	0.234	-0.153
-616.317	800.000	0.044	0.160
-615.303	5.781	0.182	-0.136
-614.288	-147.761	0.265	-0.023
-613.273	-200.000	0.017	-0.101
-612.259	800.000	-0.035	0.138
-611.244	-74.222	-0.274	-0.101
-610.230	36.183	0.144	0.129
-609.215	-53.618	-0.076	-0.035
-608.201	-125.587	0.100	0.015
-607.186	-200.000	-0.034	-0.201
-606.171	-121.987	-0.103	0.017
-605.157	-61.649	0.165	-0.070
-604.142	-23.630	0.191	0.116
-603.128	310.955	0.088	0.168
-602.113	-183.113	0.067	0.001
-601.098	117.525	-0.064	0.079
-600.084	-93.512	-0.228	-0.064
-599.069	-40.617	0.300	-0.158
-598.055	639.768	0.109	-0.282
-597.040	31.198	0.079	0.069
-596.025	29.832	0.098	0.085
-595.011	-124.902	0.260	0.041
-593.996	466.544	0.093	0.211
-592.982	419.658	-0.106	-0.229
-591.967	3.757	-0.130	0.096
-590.952	277.729	0.151	-0.274
-589.938	252.375	-0.103	0.178
-588.923	-192.491	-0.173	0.002
-587.909	800.000	-0.092	-0.285
-586.894	-71.259	0.175	-0.067
-585.879	-35.881	-0.234	-0.129
-584.865	-129.063	0.194	0.028
-583.850	-74.328	-0.237	0.087
-582.836	-200.000	-0.085	-0.405
-581.821	108.136	-0.095	0.115
-580.806	-33.505	-0.245	0.138
-579.792	23.936	0.059	0.049
-578.777	329.688	0.067	0.131
-577.763	-89.506	-0.172	-0.051
-576.748	800.000	0.022	0.069
-575.733	102.683	-0.045	-0.054
-574.719	331.894	0.083	0.162
-573.704	265.800	-0.129	-0.228
-572.690	-200.000	-0.014	-0.207
-571.675	-104.896	-0.373	-0.087
-570.661	672.465	-0.038	0.101
-569.646	253.311	-0.136	-0.235
-568.631	43.864	0.315	0.293
-567.617	413.392	0.070	-0.150
-566.602	479.680	-0.132	-0.304
-565.588	40.281	0.114	0.104
-564.573	800.000	-0.032	0.102
-563.558	222.155	-0.138	-0.225
-562.544	-86.271	-0.219	0.068
-561.529	-200.000	0.011	-0.153
-560.515	597.539	0.057	0.143
-559.500	-64.707	-0.315	-0.130
-558.485	267.598	-0.057	0.101
-557.471	-200.000	-0.035	0.222
-556.456	-53.167	0.062	-0.029
-555.442	800.000	-0.072	-0.228
-554.427	20.118	0.234	0.191
-553.412	-111.944	0.284	0.058
-552.398	-156.700	-0.059	0.004
-551.383	40.253	-0.249	-0.227
-550.369	-46.001	-0.014	0.007
-549.354	800.000	-0.088	0.302
-548.339	-132.813	0.277	-0.036
-547.325	-69.901	0.319	-0.123
-546.310	-132.841	0.124	-0.016
-545.296	-100.450	-0.442	0.111
-544.281	-69.379	-0.122	-0.048
-543.266	499.264	0.105	0.245
-542.252	800.000	-0.085	0.258
-541.237	-200.000	-0.004	-0.094
-540.223	141.066	-0.149	-0.200
-539.208	153.047	-0.292	0.404
-538.193	-200.000	0.037	-0.202
-537.179	74.601	0.172	-0.183
-536.164	-134.585	0.295	0.037
-535.150	-174.028	-0.225	0.007
-534.135	9.534	0.204	0.157
-533.121	800.000	0.091	-0.305
-532.106	2.702	0.251	-0.184
-531.091	-200.000	-0.048	-0.240
-530.077	-200.000	-0.017	0.206
-529.062	-61.231	0.119	-0.051
-528.048	-200.000	-0.004	-0.191
-527.033	-61.932	-0.094	-0.040
-526.018	-100.189	0.378	-0.095
-525.004	-148.159	-0.149	-0.012
-523.989	262.716	-0.118	-0.208
-522.975	-66.852	0.200	0.080
-521.960	590.974	-0.050	-0.126
-520.945	-107.902	0.108	-0.024
-519.931	430.149	-0.189	-0.413
-518.916	349.284	0.149	-0.297
-517.902	800.000	0.064	0.245
-516.887	554.555	-0.100	0.243
-515.872	216.259	0.041	0.066
-514.858	-118.282	0.222	-0.040
-513.843	-200.000	-0.018	0.248
-512.829	-200.000	-0.030	0.446
-511.814	-200.000	0.019	0.291
-510.799	800.000	-0.075	0.221
-509.785	-198.958	0.025	-0.000
-508.770	-195.645	0.301	-0.002
-507.756	84.100	-0.147	-0.163
-506.741	64.381	0.076	-0.077
-505.726	-77.454	0.270	0.095
-504.712	424.669	0.058	-0.125
-503.697	607.636	0.137	0.345
-502.683	-28.322	0.124	0.073
-501.668	-200.000	-0.033	0.156
-500.653	-99.846	0.312	-0.079
-499.639	612.382	0.091	0.229
-498.624	9.945	-0.190	-0.146
-497.610	800.000	-0.021	0.092
-496.595	81.131	0.045	0.049
-495.581	800.000	-0.045	-0.153
-494.566	32.746	0.225	-0.197
-493.551	19.406	0.061	0.049
-492.537	800.000	-0.085	-0.257
-491.522	-200.000	0.010	0.110
-490.508	203.972	-0.046	-0.072
-489.493	-200.000	0.026	-0.451
-488.478	86.759	0.059	-0.065
-487.464	-200.000	0.010	-0.064
-486.449	-200.000	-0.004	-0.321
-485.435	-200.000	-0.052	0.345
-484.420	-162.762	0.285	0.014
-483.405	176.270	-0.247	-0.363
-482.391	100.486	0.246	0.289
-481.376	800.000	0.075	0.278
-480.362	-31.890	0.142	-0.080
-479.347	-200.000	-0.007	0.059
-478.332	319.273	0.114	-0.219
-477.318	-44.955	-0.124	-0.062
-476.303	761.808	0.087	0.240
-475.289	-114.796	-0.104	0.020
-474.274	106.744	0.188	-0.226
-473.259	-46.298	-0.079	-0.039
-472.245	-200.000	0.062	0.293
-471.230	38.363	0.181	-0.163
-470.216	37.247	-0.286	-0.256
-469.201	-191.265	-0.501	-0.005
-468.186	-154.637	0.124	0.008
-467.172	326.051	0.148	-0.286
-466.157	41.141	0.208	0.190
-465.143	296.823	-0.181	-0.335
-464.128	-31.850	0.298	0.169
-463.113	-68.740	0.163	0.064
-462.099	-18.474	0.173	0.109
-461.084	-200.000	0.002	0.474
-460.070	-200.000	-0.039	0.249
-459.055	359.815	0.059	-0.120
-458.040	-51.506	-0.311	0.147
-457.026	-5.875	0.059	-0.040
-456.011	3.832	-0.131	-0.096
-454.997	-75.326	0.083	-0.030
-453.982	-116.968	-0.179	0.033
-452.968	193.047	-0.202	-0.308
-451.953	800.000	0.076	-0.266
-450.938	92.955	0.248	-0.283
-449.924	325.906	0.119	-0.230
-448.909	-91.840	0.447	-0.128
-447.895	-128.840	0.176	-0.025
-446.880	800.000	0.038	0.124
-445.865	534.896	-0.024	0.058
-444.851	-79.901	0.153	0.052
-443.836	715.103	0.104	0.279
-442.822	-126.427	-0.101	0.015
-441.807	-200.000	0.003	0.137
-440.792	325.899	-0.140	-0.270
-439.778	-200.000	0.019	0.131
-438.763	-137.188	-0.079	0.009
-437.749	800.000	0.082	-0.247
-436.734	-100.695	0.135	-0.034
-435.719	278.883	-0.020	-0.036
-434.705	764.859	-0.059	0.161
-433.690	99.138	-0.189	0.220
-432.676	33.944	0.071	-0.062
-431.661	-134.216	-0.313	0.039
-430.646	-200.000	-0.012	-0.091
-429.632	144.709	0.032	-0.043
-428.617	-144.869	-0.246	0.023
-427.603	-31.970	0.304	-0.172
-426.588	124.888	0.098	-0.125
-425.573	781.878	-0.025	0.068
-424.559	259.954	0.095	0.166
-423.544	437.759	0.061	-0.134
-422.530	800.000	-0.061	0.201
-421.515	-137.961	0.095	-0.011
-420.500	110.585	0.032	0.038
-419.486	-200.000	0.010	0.145
-418.471	-200.000	-0.016	0.160
-417.457	-51.060	0.271	-0.128
-416.442	800.000	0.085	-0.253
-415.428	-200.000	0.024	0.143
-414.413	-67.460	-0.126	-0.050
-413.398	-48.989	-0.055	0.027
-412.384	800.000	-0.015	-0.051
-411.369	800.000	-0.031	-0.126
-410.355	53.653	-0.052	-0.050
-409.340	-111.917	0.055	0.011
-408.325	580.634	0.102	-0.253
-407.311	-29.799	-0.234	-0.134
-406.296	-149.308	0.445	-0.036
-405.282	-200.000	-0.006	-0.072
-404.267	332.057	-0.034	-0.066
-403.252	44.204	-0.136	0.125
-402.238	-200.000	0.007	0.398
-401.223	204.863	-0.141	0.221
-400.209	-200.000	-0.024	0.164
-399.194	69.778	-0.191	-0.198
-398.179	144.692	0.239	-0.322
-397.165	-116.359	-0.250	-0.047
-396.150	-66.451	-0.125	0.050
-395.136	-200.000	0.023	0.374
-394.121	800.000	-0.073	0.234
-393.106	530.504	-0.117	0.279
-392.092	-38.431	-0.157	-0.084
-391.077	-164.297	-0.256	-0.012
-390.063	800.000	0.093	-0.331
-389.048	-200.000	-0.009	-0.099
-388.033	88.179	-0.167	0.187
-387.019	683.652	-0.068	-0.179
-386.004	354.607	-0.118	-0.236
-384.990	-28.101	-0.087	-0.051
-383.975	-39.685	-0.285	0.150
-382.960	-200.000	0.044	-0.292
-381.946	-140.659	-0.256	0.027
-380.931	92.450	0.107	-0.122
-379.917	144.128	0.111	-0.149
-378.902	-64.747	0.103	0.042
-377.888	-69.613	-0.246	0.095
-376.873	67.602	0.255	-0.263
-375.858	-75.347	0.315	0.113
-374.844	243.068	0.037	0.062
-373.829	19.993	0.169	-0.137
-372.815	-36.608	0.213	-0.115
-371.800	-200.000	-0.033	-0.269
-370.785	-200.000	-0.011	-0.051
-369.771	-2.190	-0.154	-0.109
-368.756	128.331	-0.080	-0.103
-367.742	341.475	0.151	0.297
-366.727	91.752	0.167	-0.189
-365.712	15.901	-0.065	-0.052
-364.698	-60.788	-0.355	0.151
-363.683	-115.405	-0.249	0.047
-362.669	271.446	0.074	0.131
-361.654	-19.305	0.119	-0.074
-360.639	-200.000	0.019	0.172
-359.625	800.000	0.069	-0.287
-358.610	13.083	-0.019	0.015
-357.596	-70.008	-0.127	0.049
-356.581	-98.174	-0.184	-0.048
-355.566	-59.655	0.207	-0.089
-354.552	164.404	-0.138	-0.195
-353.537	-41.342	0.143	-0.074
-352.523	41.763	0.050	0.046
-351.508	208.745	0.154	0.243
-350.493	800.000	0.055	0.221
-349.479	-84.819	-0.182	-0.058
-348.464	-200.000	0.070	0.000
-347.450	-200.000	0.075	-0.344
-346.435	800.000	0.109	0.365
-345.420	-200.000	-0.015	0.192
-344.406	8.484	0.239	0.181
-343.391	-172.844	0.170	-0.005
-342.377	-22.716	0.322	0.196
-341.362	800.000	-0.069	0.297
-340.348	756.361	-0.093	0.254
-339.333	-10.318	-0.120	-0.080
-338.318	-200.000	-0.023	-0.113
-337.304	159.021	-0.159	0.222
-336.289	800.000	-0.066	0.241
-335.275	-10.211	-0.073	0.049
-334.260	593.305	0.108	-0.269
-333.245	132.912	0.036	0.047
-332.231	800.000	-0.126	-0.422
-331.216	800.000	0.017	0.071
-330.202	-129.362	-0.068	0.010
-329.187	-40.696	-0.198	-0.103
-328.172	372.762	-0.119	-0.243
-327.158	525.989	0.043	0.101
-326.143	800.000	0.027	0.104
-325.129	800.000	0.068	0.281
-324.114	-200.000	0.030	0.323
-323.099	-114.934	-0.220	0.042
-322.085	-181.859	-0.185	-0.004
-321.070	724.181	0.079	0.212
-320.056	-200.000	-0.013	0.207
-319.041	-200.000	0.022	-0.493
-318.026	50.449	-0.201	0.191
-317.012	-200.000	-0.008	-0.220
-315.997	-200.000	0.018	-0.372
-314.983	-200.000	-0.041	-0.281
-313.968	128.438	-0.173	-0.222
-312.953	754.651	0.077	0.209
-311.939	-104.451	0.563	0.131
-310.924	211.588	0.028	0.045
-309.910	-53.212	0.269	0.124
-308.895	280.475	-0.157	-0.282
-307.880	-200.000	-0.031	-0.229
-306.866	800.000	-0.048	0.200
-305.851	-55.257	0.313	0.141
-304.837	-200.000	0.012	-0.112
-303.822	800.000	0.046	0.190
-302.807	-200.000	-0.045	0.335
-301.793	588.858	-0.122	0.302
-300.778	-121.710	0.296	-0.049
-299.764	40.869	0.126	0.114
-298.749	-68.087	0.155	0.061
-297.735	800.000	-0.075	0.317
-296.720	193.676	0.150	0.228
-295.705	-200.000	-0.001	-0.199
-294.691	24.334	0.282	0.234
-293.676	403.905	-0.013	0.028
-292.662	171.171	-0.213	-0.307
-291.647	20.053	-0.192	-0.156
-290.632	-1.984	-0.157	0.111
-289.618	-15.604	0.239	0.153
-288.603	-101.594	-0.382	-0.093
-287.589	50.143	-0.116	-0.109
-286.574	-200.000	-0.025	0.323
-285.559	800.000	0.022	0.093
-284.545	-139.323	-0.089	-0.010
-283.530	-85.079	0.300	-0.094
-282.516	800.000	-0.044	-0.179
-281.501	-4.302	0.046	0.032
-280.486	140.276	-0.184	-0.243
-279.472	-64.324	-0.138	-0.057
-278.457	-145.051	0.240	-0.022
-277.443	-155.764	-0.072	-0.005
-276.428	-104.681	-0.064	-0.015
-275.413	-5.530	-0.281	0.193
-274.399	79.143	0.098	0.106
-273.384	800.000	0.043	-0.180
-272.370	74.456	-0.151	0.159
-271.355	-34.319	-0.182	0.100
-270.340	-200.000	0.001	-0.182
-269.326	-173.385	0.059	0.002
-268.311	-200.000	-0.005	0.182
-267.297	732.201	0.134	0.358
-266.282	-33.375	-0.296	0.164
-265.267	99.846	-0.134	0.155
-264.253	185.408	0.181	0.269
-263.238	231.455	0.083	0.136
-262.224	46.872	-0.131	-0.122
-261.209	-200.000	-0.010	0.287
-260.195	-200.000	0.044	-0.257
-259.180	95.903	-0.032	-0.036
-258.165	-18.963	0.109	0.068
-257.151	44.722	-0.045	0.042
-256.136	3.054	0.204	0.148
-255.122	44.548	0.170	0.157
-254.107	150.005	-0.127	-0.173
-253.092	-68.828	-0.301	-0.116
-252.078	61.254	-0.102	0.101
-251.063	-0.891	0.133	0.095
-250.049	393.789	0.120	-0.249
-249.034	-163.396	-0.410	-0.020
-248.019	-35.066	-0.225	-0.123
-247.005	800.000	-0.126	-0.376
-245.990	-109.207	0.367	0.078
-244.976	-129.552	-0.087	-0.012
-243.961	30.199	-0.110	-0.094
-242.946	262.993	-0.114	-0.199
-241.932	800.000	-0.075	-0.297
-240.917	-114.907	-0.114	0.022
-239.903	-18.444	-0.067	-0.042
-238.888	195.143	0.129	0.196
-237.873	800.000	-0.015	0.062
-236.859	144.901	-0.053	-0.071
-235.844	-200.000	-0.013	0.211
-234.830	-200.000	0.012	0.199
-233.815	-35.640	-0.243	-0.132
-232.800	428.639	0.109	-0.236
-231.786	-200.000	-0.012	0.060
-230.771	36.296	-0.202	0.178
-229.757	-24.677	-0.263	0.157
-228.742	-96.648	-0.218	0.057
-227.727	-200.000	-0.040	-0.189
-226.713	-135.636	0.218	-0.026
-225.698	60.068	-0.058	-0.058
-224.684	-84.681	0.095	0.030
-223.669	800.000	0.039	0.156
-222.655	-200.000	0.012	0.142
-221.640	-55.555	-0.196	-0.088
-220.625	-169.192	-0.116	0.004
-219.611	800.000	0.063	0.183
-218.596	-196.083	-0.337	-0.002
-217.582	250.017	-0.244	0.415
-216.567	-122.333	-0.099	-0.016
-215.552	218.846	-0.030	0.049
-214.538	84.975	-0.226	0.248
-213.523	265.194	0.051	0.088
-212.509	-32.216	-0.174	-0.097
-211.494	133.753	0.083	0.108
-210.479	-200.000	-0.036	-0.165
-209.465	-200.000	-0.010	-0.230
-208.450	-84.982	-0.110	0.034
-207.436	-55.154	0.185	0.083
-206.421	-127.002	-0.305	0.045
-205.406	-200.000	-0.023	0.236
-204.392	121.228	-0.156	0.195
-203.377	-200.000	0.018	0.203
-202.363	800.000	0.065	0.199
-201.348	54.157	-0.176	0.170
-200.333	-108.206	0.014	-0.003
-199.319	-75.200	0.493	-0.176
-198.304	-61.061	0.054	0.023
-197.290	800.000	0.105	0.299
-196.275	800.000	-0.009	0.026
-195.260	-131.499	0.247	-0.033
-194.246	154.583	-0.067	-0.092
-193.231	-99.065	-0.200	-0.051
-192.217	12.717	-0.143	-0.111
-191.202	-200.000	-0.036	0.160
-190.187	-200.000	-0.005	0.133
-189.173	249.502	-0.103	0.175
-188.158	-200.000	-0.061	-0.283
-187.144	-134.177	0.200	0.025
-186.129	-141.814	-0.131	0.013
-185.114	-200.000	-0.016	-0.088
-184.100	-200.000	-0.033	-0.472
-183.085	800.000	0.102	0.331
-182.071	800.000	-0.113	-0.344
-181.056	-10.343	-0.336	-0.222
-180.042	-200.000	0.021	0.156
-179.027	-90.599	0.200	-0.058
-178.012	-200.000	0.008	-0.075
-176.998	-121.870	-0.132	-0.022
-175.983	-88.276	0.147	0.044
-174.969	167.914	-0.026	0.037
-173.954	-99.486	0.151	0.038
-172.939	-52.765	0.216	-0.100
-171.925	800.000	-0.081	0.266
-170.910	757.350	0.042	0.114
-169.896	-136.225	0.214	0.025
-168.881	104.522	0.096	0.113
-167.866	-200.000	-0.023	0.156
-166.852	-106.829	-0.088	-0.019
-165.837	-139.096	0.202	0.022
-164.823	-200.000	-0.009	0.158
-163.808	800.000	0.057	0.174
-162.793	-200.000	-0.044	-0.199
-161.779	-200.000	-0.051	-0.263
-160.764	-102.535	-0.226	0.054
-159.750	263.361	-0.112	-0.194
-158.735	-200.000	-0.038	0.241
-157.720	558.624	0.093	-0.224
-156.706	45.368	0.159	0.147
-155.691	800.000	-0.057	-0.158
-154.677	-98.699	-0.238	0.061
-153.662	-200.000	0.012	-0.233
-152.647	-55.175	-0.530	0.238
-151.633	48.594	0.289	-0.271
-150.618	85.951	-0.269	0.296
-149.604	-34.087	-0.090	0.050
-148.589	-145.049	-0.119	0.011
-147.574	-92.491	0.091	-0.026
-146.560	-119.801	0.478	-0.082
-145.545	-200.000	-0.011	-0.060
-144.531	-20.222	0.142	0.087
-143.516	-34.344	-0.143	-0.078
-142.502	-200.000	-0.010	-0.137
-141.487	201.366	-0.085	0.130
-140.472	-4.108	0.023	-0.016
-139.458	-102.208	0.329	-0.079
-138.443	-42.011	0.203	0.104
-137.429	-136.938	-0.462	0.053
-136.414	0.589	-0.213	-0.152
-135.399	427.647	0.141	0.303
-134.385	13.940	0.128	-0.099
-133.370	53.074	0.131	-0.125
-132.356	-17.312	-0.115	0.072
-131.341	800.000	0.050	-0.167
-130.326	-200.000	-0.006	-0.101
-129.312	-6.129	0.258	0.176
-128.297	-52.492	-0.135	0.062
-127.283	800.000	0.075	0.284
-126.268	-60.424	0.118	-0.050
-125.253	121.498	-0.041	0.051
-124.239	78.168	-0.067	-0.071
-123.224	-117.748	-0.074	0.013
-122.210	800.000	0.043	0.118
