DTS Sentinel unit serial number:	SN413079Multiplexer serial number:	ORYXHardware model number:	OX4-SRSoftware version number:	ORYX F/W v4.00 Oryx Data Collector v3.7.2.0data status	okinstallation	princeton_trtdifferential loss correction	single-endedforward channel	channel 2reverse channel	N/Adate	2019/09/14time	09:35:35forward acquisition time	60.00reverse acquisition time	0.00gamma	496.2192k internal	0.2324k external	0.2324temperature offset calibration	1.0130default loss term (dB/km)	0.3790temperature slope calibration	1.0000multiplexer offset coefficient	1.0000multiplexer slope coefficient	1.0000fibre end	0.00T internal ref (°C)	31.73T ext. ref 1 (°C)	3.88T ext. ref 2 (°C)	29.91length (m)	temperature (°C)	Stokes	anti-Stokes-747.200	-146.094	-0.292	0.026
-746.185	366.952	-0.158	0.323
-745.171	-126.122	0.352	0.053
-744.156	-46.561	-0.118	0.058
-743.142	26.025	-0.255	0.215
-742.127	800.000	0.062	0.177
-741.112	756.904	-0.041	-0.112
-740.098	94.596	-0.025	-0.029
-739.083	-66.341	0.107	-0.043
-738.069	-122.486	-0.128	0.021
-737.054	113.552	0.253	-0.311
-736.039	800.000	0.084	0.285
-735.025	35.064	0.068	0.060
-734.010	-200.000	-0.027	0.180
-732.996	-14.243	-0.271	0.176
-731.981	-22.443	0.239	-0.146
-730.966	109.293	-0.126	-0.152
-729.952	194.275	0.111	0.170
-728.937	-54.523	-0.170	-0.078
-727.923	-74.109	-0.046	0.017
-726.908	349.064	0.134	0.266
-725.894	292.970	0.061	0.112
-724.879	-158.011	-0.213	0.013
-723.864	82.135	-0.042	0.046
-722.850	793.781	0.086	0.238
-721.835	-162.348	0.112	0.006
-720.821	41.408	-0.108	0.098
-719.806	219.845	0.029	-0.047
-718.791	800.000	-0.068	-0.258
-717.777	-40.004	-0.377	-0.198
-716.762	-200.000	0.061	-0.312
-715.748	-128.909	-0.181	-0.026
-714.733	336.794	0.144	-0.282
-713.718	-200.000	0.055	-0.248
-712.704	-200.000	-0.008	0.324
-711.689	-32.993	-0.262	-0.146
-710.675	-44.285	-0.279	-0.141
-709.660	800.000	0.117	0.379
-708.645	-200.000	-0.003	0.192
-707.631	-95.749	-0.363	0.098
-706.616	149.598	0.077	-0.105
-705.602	-36.519	-0.135	0.073
-704.587	-138.056	0.076	0.008
-703.572	800.000	-0.067	-0.207
-702.558	657.423	0.087	-0.226
-701.543	-97.018	0.219	-0.058
-700.529	-200.000	0.032	-0.162
-699.514	235.504	0.129	0.214
-698.499	-200.000	-0.021	-0.236
-697.485	-8.374	0.184	-0.124
-696.470	-103.659	-0.342	-0.081
-695.456	-200.000	-0.007	0.282
-694.441	-37.253	-0.235	0.127
-693.426	-137.121	-0.150	-0.017
-692.412	561.723	-0.152	-0.371
-691.397	-60.112	0.375	0.161
-690.383	-58.934	0.129	-0.056
-689.368	70.668	-0.175	-0.182
-688.354	800.000	0.026	0.102
-687.339	26.365	-0.038	0.032
-686.324	11.824	0.260	0.201
-685.310	-87.414	0.175	0.053
-684.295	800.000	-0.121	0.359
-683.281	-94.434	-0.427	-0.117
-682.266	-137.244	0.134	-0.015
-681.251	-78.929	0.228	-0.078
-680.237	-89.602	0.162	0.048
-679.222	-146.828	0.062	-0.005
-678.208	-200.000	-0.048	0.261
-677.193	-29.421	0.100	0.058
-676.178	-200.000	-0.003	0.177
-675.164	-200.000	0.031	-0.161
-674.149	404.919	-0.066	0.139
-673.135	627.062	0.063	-0.159
-672.120	115.684	0.016	-0.019
-671.105	-105.224	0.052	-0.012
-670.091	-69.874	0.302	-0.116
-669.076	127.556	-0.282	0.361
-668.062	138.300	0.079	0.104
-667.047	-166.741	-0.169	-0.007
-666.032	-200.000	-0.020	-0.265
-665.018	93.485	0.087	0.099
-664.003	-118.462	-0.227	0.041
-662.989	272.566	-0.084	-0.150
-661.974	176.237	0.116	-0.169
-660.959	-88.233	-0.304	-0.092
-659.945	56.977	-0.245	-0.240
-658.930	375.132	-0.061	-0.125
-657.916	72.446	-0.399	0.418
-656.901	-134.617	-0.285	-0.035
-655.886	157.269	0.018	-0.025
-654.872	119.167	0.081	0.100
-653.857	-51.897	-0.067	-0.031
-652.843	455.843	-0.169	-0.377
-651.828	60.276	0.172	-0.171
-650.814	-123.021	0.082	0.013
-649.799	-95.299	-0.181	-0.049
-648.784	-200.000	0.026	0.122
-647.770	262.275	-0.062	0.107
-646.755	-115.433	0.055	0.010
-645.741	-60.975	-0.171	0.073
-644.726	16.039	0.042	-0.033
-643.711	-200.000	-0.016	-0.296
-642.697	-200.000	0.023	-0.185
-641.682	-200.000	0.072	-0.336
-640.668	-193.922	0.058	-0.000
-639.653	-40.785	0.308	0.160
-638.638	-200.000	0.008	-0.195
-637.624	15.315	-0.153	0.121
-636.609	-126.803	-0.398	0.059
-635.595	611.797	0.048	-0.122
-634.580	-200.000	-0.020	-0.334
-633.565	-176.050	0.258	0.007
-632.551	-22.647	0.215	-0.131
-631.536	-51.053	0.339	-0.160
-630.522	143.340	0.254	-0.340
-629.507	-112.894	0.124	0.025
-628.492	-70.467	-0.304	0.116
-627.478	-200.000	0.054	-0.298
-626.463	647.744	-0.105	-0.269
-625.449	119.853	-0.159	-0.198
-624.434	-146.997	0.237	0.020
-623.419	-142.107	-0.492	0.049
-622.405	467.886	0.097	-0.218
-621.390	541.164	-0.041	0.098
-620.376	-40.594	-0.169	-0.088
-619.361	-113.779	0.022	-0.004
-618.346	-200.000	-0.025	-0.165
-617.332	-15.108	0.037	0.024
-616.317	-200.000	-0.022	0.169
-615.303	203.766	-0.148	-0.231
-614.288	-200.000	0.039	-0.183
-613.273	-200.000	-0.032	0.202
-612.259	-107.971	-0.209	0.046
-611.244	753.048	-0.035	-0.095
-610.230	800.000	0.051	0.147
-609.215	55.774	-0.075	0.073
-608.201	-81.949	-0.230	0.075
-607.186	1.936	0.330	0.239
-606.171	-47.521	0.149	0.073
-605.157	40.597	-0.138	0.125
-604.142	-21.162	-0.050	-0.031
-603.128	-200.000	0.005	0.106
-602.113	27.580	0.213	0.180
-601.098	-120.123	-0.289	0.050
-600.084	348.844	-0.083	0.165
-599.069	-200.000	-0.045	-0.293
-598.055	-83.123	-0.293	0.095
-597.040	800.000	0.159	0.474
-596.025	75.749	-0.083	-0.088
-595.011	509.312	0.117	-0.273
-593.996	31.094	0.145	0.125
-592.982	469.666	-0.060	0.135
-591.967	-200.000	-0.114	-0.582
-590.952	204.999	0.053	0.082
-589.938	119.169	0.038	-0.047
-588.923	-144.538	-0.192	-0.018
-587.909	-95.105	0.119	0.032
-586.894	-54.895	0.014	-0.006
-585.879	-25.712	-0.051	-0.030
-584.865	403.265	0.076	0.161
-583.850	240.535	-0.067	-0.113
-582.836	9.563	0.213	0.162
-581.821	-66.637	-0.315	-0.125
-580.806	-109.252	0.352	-0.075
-579.792	26.329	0.182	-0.153
-578.777	54.222	-0.062	0.060
-577.763	467.386	-0.052	-0.117
-576.748	800.000	0.051	0.168
-575.733	-114.384	-0.121	0.023
-574.719	21.277	-0.361	-0.294
-573.704	-70.061	0.275	-0.105
-572.690	389.116	-0.107	-0.223
-571.675	-169.245	-0.141	-0.005
-570.661	-70.064	0.323	-0.123
-569.646	119.328	-0.342	-0.425
-568.631	-168.663	0.046	-0.002
-567.617	-200.000	0.008	-0.178
-566.602	800.000	-0.072	-0.296
-565.588	-200.000	0.006	-0.052
-564.573	-200.000	0.099	0.440
-563.558	365.952	-0.102	0.206
-562.544	41.219	0.146	0.132
-561.529	100.382	0.111	0.129
-560.515	280.117	-0.055	0.098
-559.500	56.135	0.089	0.087
-558.485	-97.274	-0.316	0.083
-557.471	-71.213	0.250	0.094
-556.456	352.762	0.048	-0.096
-555.442	-100.156	0.291	0.073
-554.427	93.890	0.125	0.142
-553.412	209.473	-0.069	-0.109
-552.398	-200.000	-0.038	0.317
-551.383	39.111	0.332	-0.298
-550.369	140.169	-0.100	0.132
-549.354	467.897	0.019	0.043
-548.339	23.324	-0.179	-0.148
-547.325	800.000	-0.031	0.087
-546.310	76.237	-0.084	-0.089
-545.296	-49.986	-0.124	-0.059
-544.281	420.971	-0.041	0.089
-543.266	-74.850	-0.260	0.093
-542.252	-147.473	-0.091	-0.008
-541.237	122.793	0.246	-0.309
-540.223	59.998	-0.134	0.132
-539.208	-117.546	-0.275	0.050
-538.193	-200.000	0.008	-0.176
-537.179	-151.026	-0.068	0.005
-536.164	-81.659	0.259	0.085
-535.150	162.142	-0.055	0.078
-534.135	340.972	0.061	-0.119
-533.121	99.700	0.223	-0.259
-532.106	-10.506	0.164	-0.109
-531.091	226.596	0.095	-0.154
-530.077	-108.192	0.170	0.037
-529.062	-16.670	0.294	-0.186
-528.048	800.000	0.020	0.062
-527.033	-27.263	0.379	-0.221
-526.018	-143.434	0.099	-0.009
-525.004	-49.593	-0.170	0.081
-523.989	-56.377	-0.039	0.017
-522.975	-45.360	-0.426	0.211
-521.960	-113.774	-0.156	0.030
-520.945	-38.603	-0.208	0.110
-519.931	-94.590	-0.141	-0.038
-518.916	-191.338	-0.048	-0.000
-517.902	95.928	0.173	-0.197
-516.887	-117.869	-0.084	-0.015
-515.872	-4.940	-0.191	0.131
-514.858	93.210	-0.061	-0.069
-513.843	-55.873	0.206	0.092
-512.829	505.095	0.051	-0.119
-511.814	-87.388	-0.278	0.084
-510.799	108.100	-0.064	0.077
-509.785	96.916	-0.145	-0.166
-508.770	-195.576	0.087	-0.001
-507.756	-169.320	-0.226	0.008
-506.741	511.892	-0.045	-0.104
-505.726	510.086	-0.028	-0.065
-504.712	-36.592	0.383	-0.206
-503.697	-117.247	0.038	0.007
-502.683	-134.680	0.102	0.012
-501.668	-152.038	0.066	0.005
-500.653	-23.826	-0.252	0.151
-499.639	39.128	0.182	-0.163
-498.624	-44.894	0.059	0.030
-497.610	-129.641	0.396	0.055
-496.595	-107.984	-0.222	0.048
-495.581	-74.223	-0.264	-0.096
-494.566	177.451	0.192	0.280
-493.551	289.521	-0.138	0.250
-492.537	263.381	0.043	0.074
-491.522	580.598	-0.051	0.124
-490.508	-118.550	-0.079	-0.014
-489.493	800.000	0.098	0.358
-488.478	-142.079	-0.457	-0.045
-487.464	-200.000	-0.030	0.187
-486.449	-200.000	0.020	-0.335
-485.435	800.000	0.039	-0.116
-484.420	-200.000	0.027	0.239
-483.405	800.000	0.082	0.237
-482.391	526.547	0.137	-0.323
-481.376	-200.000	0.091	-0.483
-480.362	117.436	-0.168	-0.206
-479.347	-172.614	0.372	-0.012
-478.332	762.294	-0.092	0.249
-477.318	466.594	-0.107	-0.239
-476.303	-145.159	-0.306	0.028
-475.289	113.113	-0.143	-0.173
-474.274	-5.907	0.296	0.203
-473.259	47.759	0.203	0.189
-472.245	205.837	-0.280	-0.434
-471.230	276.012	0.066	-0.117
-470.216	-108.281	0.026	0.006
-469.201	0.677	-0.181	0.129
-468.186	-200.000	0.008	-0.421
-467.172	-52.227	-0.257	0.119
-466.157	505.101	-0.093	0.214
-465.143	-119.968	-0.100	0.017
-464.128	-184.230	-0.294	0.005
-463.113	800.000	-0.018	0.064
-462.099	-200.000	0.022	0.176
-461.084	800.000	-0.157	-0.435
-460.070	624.886	0.128	0.322
-459.055	-200.000	0.013	0.173
-458.040	-76.593	-0.280	-0.098
-457.026	-37.260	0.061	0.033
-456.011	-41.769	0.065	-0.033
-454.997	65.235	0.346	0.349
-453.982	160.418	-0.068	-0.094
-452.968	-167.047	-0.259	0.011
-451.953	-200.000	-0.041	0.220
-450.938	-88.646	0.328	0.098
-449.924	-200.000	-0.014	-0.151
-448.909	-15.041	-0.129	0.082
-447.895	-126.548	0.332	-0.049
-446.880	-89.260	-0.251	-0.074
-445.865	-60.775	0.170	-0.072
-444.851	14.907	-0.304	-0.237
-443.836	-95.425	0.477	0.128
-442.822	117.397	0.211	0.260
-441.807	-92.383	-0.233	0.065
-440.792	-200.000	0.024	0.114
-439.778	76.745	-0.166	0.176
-438.763	-200.000	-0.027	-0.258
-437.749	-51.774	0.435	-0.202
-436.734	75.533	-0.136	0.143
-435.719	-100.760	0.518	-0.127
-434.705	38.909	-0.098	-0.087
-433.690	445.616	-0.081	-0.177
-432.676	-20.668	-0.108	-0.066
-431.661	-33.055	-0.067	0.037
-430.646	-34.586	-0.385	-0.210
-429.632	-63.064	0.264	-0.109
-428.617	70.335	-0.115	0.119
-427.603	800.000	0.045	0.162
-426.588	-34.510	-0.247	0.135
-425.573	-133.254	0.340	0.043
-424.559	800.000	-0.048	-0.144
-423.544	-200.000	-0.008	0.163
-422.530	-125.272	-0.032	-0.005
-421.515	288.663	-0.063	0.114
-420.500	484.778	-0.030	0.068
-419.486	-22.444	-0.372	0.225
-418.471	564.470	-0.106	-0.256
-417.457	1.740	-0.097	0.069
-416.442	-73.444	-0.090	0.033
-415.428	-200.000	0.020	0.179
-414.413	13.073	-0.057	-0.044
-413.398	-66.239	-0.189	-0.075
-412.384	-48.918	-0.263	0.125
-411.369	0.908	-0.165	-0.118
-410.355	-128.206	0.422	0.060
-409.340	-200.000	-0.002	0.089
-408.325	-147.908	0.146	-0.012
-407.311	-8.434	0.284	-0.190
-406.296	50.703	-0.218	0.206
-405.282	-135.789	-0.333	0.039
-404.267	-200.000	-0.002	-0.180
-403.252	71.084	-0.211	0.218
-402.238	-155.361	-0.275	-0.018
-401.223	-87.161	-0.109	-0.033
-400.209	-200.000	0.029	0.289
-399.194	33.761	0.225	-0.195
-398.179	191.814	0.083	-0.125
-397.165	-77.699	0.191	0.066
-396.150	-167.544	-0.292	0.012
-395.136	-200.000	-0.022	-0.111
-394.121	-4.599	0.251	0.173
-393.106	800.000	0.040	0.134
-392.092	508.285	0.088	-0.204
-391.077	94.434	0.167	0.189
-390.063	108.813	-0.326	-0.388
-389.048	-200.000	-0.082	0.402
-388.033	-157.850	-0.052	-0.003
-387.019	-53.386	0.033	0.015
-386.004	180.078	0.062	-0.090
-384.990	103.378	0.202	0.235
-383.975	-200.000	-0.058	0.288
-382.960	-70.601	-0.358	-0.135
-381.946	-145.390	0.088	0.008
-380.931	289.358	-0.044	-0.080
-379.917	69.891	0.114	-0.117
-378.902	21.711	0.040	-0.033
-377.888	-200.000	-0.056	-0.339
-376.873	-200.000	-0.022	-0.311
-375.858	-200.000	-0.016	-0.281
-374.844	-161.705	-0.267	-0.014
-373.829	-16.201	0.240	0.152
-372.815	-152.653	-0.233	-0.017
-371.800	-133.012	0.221	-0.028
-370.785	800.000	0.030	0.094
-369.771	132.590	-0.040	0.052
-368.756	800.000	-0.049	0.191
-367.742	38.226	0.199	0.176
-366.727	-200.000	0.001	0.271
-365.712	-9.930	-0.283	0.187
-364.698	800.000	0.090	0.288
-363.683	-109.074	-0.218	-0.046
-362.669	93.333	-0.200	-0.225
-361.654	115.241	0.036	-0.043
-360.639	-122.122	-0.198	0.032
-359.625	-72.333	0.495	-0.182
-358.610	57.875	-0.155	-0.151
-357.596	252.228	0.151	0.257
-356.581	-166.993	0.074	-0.003
-355.566	-136.855	-0.051	0.006
-354.552	-161.643	0.100	-0.005
-353.537	361.777	-0.148	0.295
-352.523	-35.622	0.271	0.146
-351.508	-79.720	-0.152	-0.051
-350.493	192.296	0.076	0.114
-349.479	-2.509	0.403	0.280
-348.464	152.168	0.115	-0.156
-347.450	73.618	0.256	-0.267
-346.435	800.000	0.071	0.241
-345.420	503.371	0.014	-0.032
-344.406	-143.296	-0.256	0.024
-343.391	-51.922	0.336	0.155
-342.377	-102.119	-0.136	0.033
-341.362	-153.839	0.067	-0.005
-340.348	115.069	0.103	0.125
-339.333	220.994	-0.125	0.200
-338.318	44.282	-0.282	0.258
-337.304	-200.000	0.014	0.071
-336.289	-102.558	0.420	0.100
-335.275	179.874	0.206	0.299
-334.260	-96.014	-0.188	-0.050
-333.245	-200.000	-0.133	0.000
-332.231	-140.756	0.254	-0.026
-331.216	-91.969	-0.241	0.068
-330.202	-132.384	0.148	-0.019
-329.187	-200.000	-0.005	-0.177
-328.172	-200.000	-0.006	-0.357
-327.158	-200.000	-0.019	0.107
-326.143	67.535	0.104	0.105
-325.129	705.966	-0.096	-0.253
-324.114	40.045	0.089	-0.079
-323.099	19.650	-0.204	-0.163
-322.085	-5.955	0.067	-0.046
-321.070	47.409	-0.200	-0.185
-320.056	220.798	0.123	0.196
-319.041	-6.985	-0.086	-0.058
-318.026	-200.000	-0.253	0.000
-317.012	275.439	0.049	0.087
-315.997	-163.511	0.223	0.010
-314.983	37.094	-0.096	0.084
-313.968	-128.286	0.540	-0.076
-312.953	-200.000	0.006	0.164
-311.939	-200.000	0.013	0.140
-310.924	-200.000	-0.042	0.224
-309.910	179.788	-0.084	0.123
-308.895	-90.157	-0.227	0.066
-307.880	58.580	0.116	0.113
-306.866	-200.000	0.010	0.162
-305.851	-31.436	-0.273	0.152
-304.837	184.856	-0.083	-0.123
-303.822	93.902	-0.207	0.233
-302.807	119.343	-0.224	0.275
-301.793	-2.115	-0.312	-0.217
-300.778	-107.795	-0.206	-0.044
-299.764	17.713	0.159	0.126
-298.749	70.728	-0.141	0.145
-297.735	10.623	-0.210	-0.159
-296.720	800.000	-0.017	0.061
-295.705	360.839	0.120	-0.239
-294.691	-46.674	0.226	-0.110
-293.676	-177.622	-0.112	-0.003
-292.662	37.252	-0.305	-0.268
-291.647	665.607	0.109	-0.279
-290.632	-200.000	-0.022	-0.112
-289.618	800.000	0.007	0.029
-288.603	207.516	-0.042	-0.065
-287.589	-165.934	-0.221	-0.009
-286.574	-110.066	-0.097	-0.020
-285.559	178.892	-0.152	-0.220
-284.545	74.354	0.168	-0.175
-283.530	-200.000	-0.017	-0.097
-282.516	-200.000	0.036	-0.230
-281.501	374.867	-0.103	-0.207
-280.486	800.000	0.091	-0.287
-279.472	277.882	-0.055	0.097
-278.457	-135.577	0.218	-0.026
-277.443	37.205	-0.165	0.145
-276.428	-51.988	0.134	0.062
-275.413	-2.405	0.221	0.153
-274.399	326.249	0.166	-0.315
-273.384	14.034	0.347	-0.267
-272.370	-92.793	0.467	-0.129
-271.355	-15.987	0.095	0.060
-270.340	7.822	0.089	0.066
-269.326	-147.281	-0.207	0.017
-268.311	-67.822	-0.265	-0.103
-267.297	166.491	0.305	-0.428
-266.282	488.898	0.030	-0.067
-265.267	678.611	-0.042	0.109
-264.253	-200.000	0.000	-0.089
-263.238	-142.846	0.023	0.002
-262.224	-89.303	-0.047	-0.014
-261.209	-50.526	0.266	0.124
-260.195	254.641	-0.069	-0.117
-259.180	-200.000	-0.076	0.338
-258.165	-200.000	-0.064	0.393
-257.151	-62.929	0.071	0.029
-256.136	-3.478	-0.148	0.102
-255.122	-87.459	0.066	-0.020
-254.107	-200.000	0.047	-0.302
-253.092	-33.380	-0.061	0.033
-252.078	116.441	-0.187	-0.227
-251.063	-120.377	0.227	0.038
-250.049	-4.721	-0.315	0.215
-249.034	90.672	-0.103	-0.115
-248.019	-182.920	0.227	0.004
-247.005	200.534	-0.135	0.205
-245.990	-124.443	-0.213	-0.033
-244.976	-200.000	0.028	0.149
-243.961	407.312	0.051	-0.108
-242.946	190.217	0.088	0.131
-241.932	712.003	0.069	-0.180
-240.917	159.826	-0.083	-0.114
-239.903	300.978	-0.165	-0.302
-238.888	-71.245	-0.348	-0.129
-237.873	332.617	-0.016	-0.030
-236.859	-200.000	0.013	-0.218
-235.844	10.193	-0.085	0.064
-234.830	-101.592	-0.237	-0.057
-233.815	-102.178	0.288	0.069
-232.800	800.000	0.139	0.454
-231.786	36.117	-0.264	-0.230
-230.771	800.000	0.025	-0.102
-229.757	-100.224	0.282	0.069
-228.742	189.114	0.049	-0.072
-227.727	309.306	0.049	0.091
-226.713	1.220	-0.256	-0.182
-225.698	76.076	0.262	0.274
-224.684	-200.000	0.047	-0.284
-223.669	-92.445	-0.192	0.053
-222.655	-99.591	0.214	0.053
-221.640	-148.622	0.191	-0.015
-220.625	-35.960	0.063	0.034
-219.611	-73.486	0.130	0.047
-218.596	-53.727	-0.141	0.063
-217.582	-94.870	-0.194	0.052
-216.567	116.447	-0.144	0.174
-215.552	-18.939	0.389	0.239
-214.538	-2.684	0.286	0.198
-213.523	800.000	-0.086	0.318
-212.509	84.059	-0.125	0.135
-211.494	-189.151	-0.187	-0.002
-210.479	187.251	0.212	0.313
-209.465	800.000	0.076	0.304
-208.450	-143.963	0.071	0.007
-207.436	29.220	0.212	-0.178
-206.421	374.643	0.088	0.178
-205.406	82.498	0.060	0.065
-204.392	-115.810	-0.186	0.034
-203.377	-86.216	0.264	0.080
-202.363	649.510	-0.148	0.373
-201.348	415.786	-0.116	-0.244
-200.333	-200.000	0.005	0.065
-199.319	148.677	0.036	0.048
-198.304	-200.000	-0.013	-0.103
-197.290	800.000	-0.065	-0.195
-196.275	75.224	0.155	0.162
-195.260	98.383	0.066	-0.075
-194.246	800.000	0.059	-0.240
-193.231	2.359	0.316	-0.226
-192.217	537.038	0.020	-0.046
-191.202	-200.000	-0.005	0.447
-190.187	-200.000	0.056	0.317
-189.173	-89.877	-0.140	-0.040
-188.158	426.358	0.220	-0.468
-187.144	-200.000	-0.005	0.269
-186.129	78.622	-0.056	-0.059
-185.114	-200.000	0.003	-0.482
-184.100	-200.000	0.065	0.477
-183.085	199.771	0.133	0.202
-182.071	-200.000	-0.004	-0.212
-181.056	800.000	-0.017	-0.064
-180.042	-130.434	-0.269	0.036
-179.027	-10.884	0.123	0.080
-178.012	800.000	0.125	-0.423
-176.998	607.223	0.128	-0.314
-175.983	-200.000	-0.019	-0.098
-174.969	30.807	-0.035	0.030
-173.954	-149.777	0.246	0.019
-172.939	-200.000	0.007	-0.431
-171.925	-60.131	0.163	0.069
-170.910	-89.417	0.307	0.089
-169.896	-124.028	0.286	0.044
-168.881	-9.707	-0.167	-0.110
-167.866	-27.645	-0.224	-0.128
-166.852	-200.000	0.049	0.315
-165.837	181.760	-0.133	0.193
-164.823	-158.493	-0.159	0.009
-163.808	-200.000	0.040	0.296
-162.793	-200.000	-0.007	0.227
-161.779	-200.000	-0.069	0.564
-160.764	-166.113	0.524	0.022
-159.750	50.241	0.109	0.102
-158.735	11.992	0.107	-0.081
-157.720	800.000	0.061	-0.224
-156.706	-86.493	0.187	-0.057
-155.691	44.983	-0.084	-0.077
-154.677	115.488	0.108	0.130
-153.662	16.582	-0.169	0.132
-152.647	-109.669	-0.221	-0.046
-151.633	46.877	0.039	0.036
-150.618	-123.406	0.145	-0.023
-149.604	75.842	-0.056	-0.058
-148.589	37.135	-0.274	-0.239
-147.574	154.702	0.248	0.336
-146.560	-200.000	-0.043	0.408
-145.545	58.237	-0.053	-0.051
-144.531	-200.000	0.024	-0.161
-143.516	800.000	0.054	-0.218
-142.502	126.621	0.091	-0.114
-141.487	-179.732	0.172	0.004
-140.472	-9.419	0.273	0.180
-139.458	-116.955	0.241	-0.043
-138.443	-78.641	-0.165	-0.055
-137.429	-21.664	-0.106	0.064
-136.414	800.000	-0.145	0.519
-135.399	-57.493	-0.111	0.048
-134.385	800.000	0.030	0.083
-133.370	50.639	0.262	-0.245
-132.356	-200.000	-0.023	-0.284
-131.341	-200.000	0.014	0.066
-130.326	-200.000	-0.023	0.262
-129.312	299.405	-0.065	-0.118
-128.297	800.000	0.044	0.190
-127.283	156.243	0.092	0.125
-126.268	-86.522	0.082	0.025
-125.253	-105.779	0.031	0.007
-124.239	-108.240	-0.089	0.019
-123.224	-51.075	-0.194	0.090
-122.210	-200.000	0.035	0.185
-121.195	-83.468	0.135	0.043
