DTS Sentinel unit serial number:	SN413079Multiplexer serial number:	ORYXHardware model number:	OX4-SRSoftware version number:	ORYX F/W v4.00 Oryx Data Collector v3.7.2.0data status	okinstallation	princeton_trtdifferential loss correction	single-endedforward channel	channel 2reverse channel	N/Adate	2019/09/12time	12:29:11forward acquisition time	60.00reverse acquisition time	0.00gamma	496.2192k internal	0.2299k external	0.2299temperature offset calibration	1.0075default loss term (dB/km)	0.3790temperature slope calibration	1.0000multiplexer offset coefficient	1.0000multiplexer slope coefficient	1.0000fibre end	0.00T internal ref (°C)	40.50T ext. ref 1 (°C)	1.98T ext. ref 2 (°C)	35.21length (m)	temperature (°C)	Stokes	anti-Stokes-747.200	-200.000	0.039	0.189
-746.185	382.575	0.099	0.207
-745.171	52.477	-0.042	-0.041
-744.156	525.760	-0.123	0.295
-743.142	64.956	-0.134	-0.138
-742.127	-8.578	-0.131	0.089
-741.112	63.244	0.121	-0.124
-740.098	727.886	0.031	0.085
-739.083	94.173	0.088	-0.102
-738.069	106.928	-0.297	0.360
-737.054	103.921	0.043	0.052
-736.039	-71.772	-0.215	0.082
-735.025	-27.759	0.252	0.149
-734.010	-200.000	0.024	-0.205
-732.996	-200.000	0.065	-0.563
-731.981	-200.000	0.011	-0.211
-730.966	146.647	-0.227	-0.311
-729.952	194.284	-0.030	-0.046
-728.937	-123.050	-0.295	-0.048
-727.923	-147.456	0.304	-0.026
-726.908	800.000	0.062	0.230
-725.894	-61.970	-0.165	0.070
-724.879	800.000	-0.024	-0.099
-723.864	-158.782	-0.109	0.006
-722.850	-200.000	0.044	0.227
-721.835	11.992	0.312	-0.244
-720.821	-102.456	-0.331	0.081
-719.806	107.733	-0.034	0.041
-718.791	17.814	-0.127	0.103
-717.777	-4.771	-0.166	-0.117
-716.762	31.292	-0.206	-0.180
-715.748	-9.928	-0.132	0.089
-714.733	-200.000	-0.281	-0.001
-713.718	-65.386	0.295	-0.121
-712.704	596.402	-0.051	-0.129
-711.689	-121.792	0.424	0.071
-710.675	45.475	-0.215	-0.203
-709.660	800.000	0.041	-0.163
-708.645	-52.228	-0.172	-0.081
-707.631	-200.000	0.009	-0.077
-706.616	784.045	-0.015	0.043
-705.602	-123.381	-0.409	-0.067
-704.587	-19.850	0.105	0.066
-703.572	51.658	-0.078	0.075
-702.558	-22.089	-0.036	0.022
-701.543	-200.000	0.014	0.073
-700.529	57.637	-0.240	0.239
-699.514	42.005	-0.072	-0.067
-698.499	19.918	0.183	0.151
-697.485	-57.019	-0.313	-0.141
-696.470	-69.823	-0.239	0.093
-695.456	-137.752	0.245	-0.028
-694.441	139.659	0.040	-0.053
-693.426	82.910	0.213	0.236
-692.412	118.078	0.071	-0.090
-691.397	-115.359	-0.111	0.021
-690.383	800.000	-0.058	0.212
-689.368	68.715	0.221	-0.231
-688.354	18.212	0.107	0.087
-687.339	-37.802	0.122	-0.066
-686.324	508.236	0.059	-0.140
-685.310	121.749	-0.078	-0.099
-684.295	59.694	0.054	-0.054
-683.281	800.000	-0.064	-0.185
-682.266	-200.000	-0.041	0.233
-681.251	-97.238	0.256	0.068
-680.237	513.844	-0.023	-0.053
-679.222	463.999	0.128	0.291
-678.208	-200.000	-0.027	0.145
-677.193	137.645	-0.375	-0.500
-676.178	-28.968	0.034	0.020
-675.164	-102.194	-0.173	0.042
-674.149	-187.931	0.247	-0.003
-673.135	-23.595	-0.091	0.055
-672.120	17.982	-0.266	-0.215
-671.105	76.389	-0.051	-0.055
-670.091	-200.000	0.010	0.181
-669.076	-200.000	-0.035	-0.376
-668.062	-88.575	-0.151	-0.046
-667.047	-20.090	-0.182	0.114
-666.032	170.305	-0.076	-0.111
-665.018	-24.465	-0.125	-0.076
-664.003	13.542	-0.213	-0.169
-662.989	800.000	0.108	-0.364
-661.974	108.035	0.006	0.007
-660.959	-17.448	-0.256	0.164
-659.945	-0.608	0.365	-0.263
-658.930	-48.445	0.157	-0.077
-657.916	-83.853	-0.316	0.102
-656.901	56.763	-0.127	0.126
-655.886	-200.000	-0.004	-0.298
-654.872	10.142	0.096	-0.074
-653.857	-200.000	-0.011	0.118
-652.843	335.464	-0.081	-0.159
-651.828	-200.000	-0.006	-0.164
-650.814	-15.968	-0.123	-0.079
-649.799	-112.815	-0.305	0.062
-648.784	-1.889	-0.242	0.173
-647.770	800.000	0.011	0.031
-646.755	-1.125	-0.343	0.247
-645.741	4.083	0.219	0.163
-644.726	800.000	0.016	0.066
-643.711	-200.000	0.028	-0.340
-642.697	34.664	0.166	-0.147
-641.682	-172.580	-0.386	0.012
-640.668	-148.101	0.108	-0.009
-639.653	-200.000	-0.022	-0.161
-638.638	108.701	0.015	0.018
-637.624	-96.031	0.129	0.035
-636.609	-154.594	0.168	0.011
-635.595	458.796	0.083	-0.187
-634.580	112.591	-0.104	-0.128
-633.565	800.000	-0.087	-0.297
-632.551	161.149	0.177	0.251
-631.536	-126.024	0.317	0.048
-630.522	26.311	-0.169	-0.143
-629.507	-200.000	0.025	0.297
-628.492	57.327	-0.016	-0.016
-627.478	-107.371	0.368	0.082
-626.463	-35.876	0.199	-0.109
-625.449	134.732	-0.268	-0.353
-624.434	314.699	-0.127	-0.243
-623.419	-63.277	0.247	-0.103
-622.405	-73.966	0.085	-0.031
-621.390	175.138	-0.057	-0.084
-620.376	233.281	-0.112	0.188
-619.361	-113.229	-0.045	0.009
-618.346	-37.946	-0.097	0.052
-617.332	790.961	-0.172	0.480
-616.317	-72.057	0.198	-0.075
-615.303	-200.000	0.051	-0.323
-614.288	262.912	-0.075	0.133
-613.273	-131.747	-0.172	0.023
-612.259	32.815	-0.194	0.170
-611.244	289.162	0.143	0.264
-610.230	-6.591	0.087	-0.060
-609.215	-12.866	0.142	0.094
-608.201	800.000	0.033	0.118
-607.186	-34.672	0.101	-0.056
-606.171	2.331	0.170	0.125
-605.157	-153.392	0.032	-0.002
-604.142	115.173	-0.275	-0.341
-603.128	101.044	0.115	-0.136
-602.113	-173.474	-0.194	0.006
-601.098	135.224	0.096	-0.126
-600.084	11.629	-0.093	-0.073
-599.069	-97.491	-0.234	-0.062
-598.055	-58.621	0.295	-0.130
-597.040	-37.724	-0.176	-0.095
-596.025	-103.996	0.201	0.048
-595.011	-101.347	-0.147	0.036
-593.996	758.933	0.112	0.309
-592.982	-131.146	0.221	-0.030
-591.967	-200.000	-0.013	0.103
-590.952	50.421	-0.179	0.171
-589.938	-90.927	-0.043	0.012
-588.923	-63.316	-0.205	-0.086
-587.909	244.022	-0.053	-0.091
-586.894	800.000	-0.010	0.043
-585.879	510.186	0.078	-0.183
-584.865	-80.385	-0.130	0.044
-583.850	-4.385	-0.125	-0.088
-582.836	800.000	0.135	0.450
-581.821	641.657	0.075	-0.195
-580.806	-188.131	-0.089	0.001
-579.792	302.354	-0.157	0.294
-578.777	28.485	-0.231	-0.198
-577.763	-200.000	0.015	-0.229
-576.748	57.731	0.376	0.372
-575.733	-1.368	-0.221	0.158
-574.719	-200.000	0.018	0.401
-573.704	-86.705	0.337	-0.104
-572.690	-200.000	-0.015	0.086
-571.675	-200.000	0.005	0.041
-570.661	157.014	0.079	-0.110
-569.646	-200.000	-0.000	-0.309
-568.631	229.141	0.059	0.098
-567.617	352.936	0.182	0.366
-566.602	800.000	0.060	-0.173
-565.588	-133.116	-0.265	0.034
-564.573	-73.790	-0.242	0.089
-563.558	-25.656	0.207	0.124
-562.544	-200.000	-0.017	0.187
-561.529	-200.000	-0.024	-0.276
-560.515	-46.594	0.319	-0.158
-559.500	-35.199	-0.098	-0.054
-558.485	6.638	0.140	0.105
-557.471	82.170	0.197	-0.216
-556.456	-7.728	-0.276	0.189
-555.442	-200.000	0.025	-0.000
-554.427	-75.263	-0.270	0.098
-553.412	25.395	0.193	0.163
-552.398	-200.000	-0.012	0.077
-551.383	-200.000	0.021	-0.103
-550.369	-99.794	-0.178	-0.045
-549.354	-200.000	0.015	0.078
-548.339	138.455	-0.029	0.038
-547.325	800.000	-0.100	-0.315
-546.310	53.006	-0.283	-0.274
-545.296	-200.000	-0.025	-0.145
-544.281	-92.668	0.021	0.006
-543.266	23.702	-0.113	0.094
-542.252	-63.171	0.186	-0.078
-541.237	256.295	-0.157	-0.273
-540.223	1.086	0.136	-0.098
-539.208	117.902	-0.054	-0.067
-538.193	-153.705	0.038	-0.003
-537.179	30.336	0.034	-0.030
-536.164	800.000	0.063	0.212
-535.150	149.462	-0.227	0.312
-534.135	-113.931	0.263	0.052
-533.121	-21.038	-0.082	0.051
-532.106	-82.025	0.055	-0.018
-531.091	135.239	-0.041	0.054
-530.077	261.364	-0.091	-0.159
-529.062	587.714	0.062	0.155
-528.048	-200.000	0.025	-0.123
-527.033	800.000	-0.056	0.186
-526.018	2.467	-0.173	-0.127
-525.004	56.561	0.291	0.287
-523.989	-28.745	0.292	-0.170
-522.975	49.096	0.322	0.306
-521.960	-126.613	-0.253	-0.038
-520.945	-200.000	-0.023	0.320
-519.931	-200.000	0.005	-0.109
-518.916	800.000	-0.047	-0.186
-517.902	-104.450	-0.212	0.050
-516.887	-200.000	0.030	-0.156
-515.872	-167.431	0.346	-0.014
-514.858	44.361	0.166	-0.155
-513.843	14.613	-0.209	0.165
-512.829	-140.709	-0.093	0.010
-511.814	167.707	-0.050	-0.072
-510.799	125.514	0.053	-0.067
-509.785	6.653	0.091	-0.068
-508.770	198.779	0.122	0.189
-507.756	-99.693	-0.083	0.021
-506.741	-163.181	0.071	0.003
-505.726	-200.000	-0.035	-0.250
-504.712	171.106	-0.037	-0.054
-503.697	-61.397	0.390	-0.166
-502.683	55.127	-0.121	-0.118
-501.668	10.935	0.053	-0.041
-500.653	-67.092	-0.374	-0.149
-499.639	301.139	0.103	-0.192
-498.624	-200.000	0.019	0.226
-497.610	6.838	-0.268	0.202
-496.595	-91.874	-0.117	0.034
-495.581	-130.052	0.367	-0.051
-494.566	-200.000	-0.011	-0.072
-493.551	-23.354	0.317	-0.192
-492.537	-200.000	-0.009	0.181
-491.522	107.818	-0.136	-0.164
-490.508	45.164	-0.279	-0.260
-489.493	22.858	-0.211	-0.174
-488.478	-17.757	0.094	0.060
-487.464	344.388	-0.116	0.231
-486.449	-93.628	0.316	-0.088
-485.435	-137.838	0.360	0.041
-484.420	121.161	-0.087	-0.110
-483.405	-89.800	0.156	-0.046
-482.391	107.825	-0.220	-0.265
-481.376	25.486	-0.280	0.235
-480.362	269.710	0.079	-0.140
-479.347	107.644	-0.225	-0.271
-478.332	-200.000	0.032	-0.412
-477.318	800.000	-0.147	-0.455
-476.303	507.508	-0.037	-0.087
-475.289	389.460	-0.249	0.521
-474.274	498.539	-0.189	-0.439
-473.259	-200.000	-0.012	0.110
-472.245	-121.024	-0.146	0.025
-471.230	800.000	-0.051	0.179
-470.216	109.122	0.072	0.086
-469.201	13.390	-0.173	-0.135
-468.186	163.463	0.113	-0.161
-467.172	288.911	-0.139	-0.255
-466.157	-117.616	0.162	-0.029
-465.143	23.410	-0.096	0.080
-464.128	-61.318	0.153	0.065
-463.113	-52.414	0.042	0.020
-462.099	-49.478	0.264	-0.127
-461.084	758.209	0.108	0.294
-460.070	-70.233	-0.175	-0.067
-459.055	-122.442	0.205	-0.034
-458.040	242.486	-0.189	-0.319
-457.026	-29.729	-0.150	-0.086
-456.011	60.933	-0.077	0.077
-454.997	-103.032	-0.471	-0.113
-453.982	171.324	0.043	-0.062
-452.968	592.132	-0.093	0.232
-451.953	50.596	0.174	-0.166
-450.938	-200.000	-0.039	0.235
-449.924	-37.025	0.367	0.198
-448.909	-200.000	-0.046	0.521
-447.895	132.582	-0.106	0.138
-446.880	622.003	-0.035	-0.090
-445.865	-165.847	0.280	0.012
-444.851	-200.000	-0.023	-0.444
-443.836	99.109	-0.128	-0.149
-442.822	-20.772	-0.352	-0.218
-441.807	-49.704	-0.091	0.044
-440.792	37.355	-0.172	0.154
-439.778	-27.961	0.057	-0.033
-438.763	-110.466	0.090	-0.019
-437.749	800.000	-0.036	-0.132
-436.734	57.695	-0.290	0.286
-435.719	4.583	-0.052	0.038
-434.705	-34.275	0.208	0.115
-433.690	129.997	0.125	0.161
-432.676	52.674	-0.170	-0.164
-431.661	743.150	0.075	0.203
-430.646	-97.466	0.174	-0.046
-429.632	166.458	-0.134	-0.191
-428.617	0.967	0.217	0.157
-427.603	172.917	0.078	-0.113
-426.588	308.752	0.030	-0.056
-425.573	-10.383	-0.289	-0.193
-424.559	-98.167	-0.134	0.035
-423.544	-52.704	-0.097	0.045
-422.530	-42.179	-0.257	-0.132
-421.515	43.731	-0.064	-0.059
-420.500	-78.036	-0.254	0.088
-419.486	103.174	0.275	0.325
-418.471	-39.043	-0.074	0.039
-417.457	800.000	-0.055	0.241
-416.442	-40.274	0.225	-0.118
-415.428	-105.010	-0.396	-0.091
-414.413	40.183	-0.070	-0.063
-413.398	78.752	0.267	-0.288
-412.384	34.097	0.102	0.090
-411.369	-21.764	-0.245	-0.150
-410.355	800.000	-0.018	-0.065
-409.340	-66.492	0.116	0.047
-408.325	70.690	-0.205	-0.213
-407.311	-190.504	-0.146	-0.002
-406.296	-44.625	0.254	-0.128
-405.282	15.106	-0.181	0.143
-404.267	26.075	-0.128	0.108
-403.252	-77.807	-0.191	-0.067
-402.238	10.538	0.149	-0.115
-401.223	-183.033	0.035	0.001
-400.209	383.400	-0.039	-0.081
-399.194	-137.939	0.107	-0.012
-398.179	-200.000	0.026	0.252
-397.165	785.142	0.089	-0.246
-396.150	-120.615	0.268	0.046
-395.136	44.096	-0.071	-0.065
-394.121	-200.000	0.008	0.216
-393.106	800.000	-0.022	-0.094
-392.092	338.271	-0.068	-0.133
-391.077	102.502	0.105	-0.124
-390.063	800.000	0.016	0.071
-389.048	360.258	-0.222	0.447
-388.033	-106.431	0.187	-0.042
-387.019	-61.944	0.251	0.106
-386.004	-116.707	-0.165	-0.031
-384.990	504.575	-0.156	-0.363
-383.975	253.712	-0.096	-0.164
-382.960	-138.588	-0.107	-0.012
-381.946	-142.265	-0.341	0.034
-380.931	-21.563	0.096	0.059
-379.917	-96.646	-0.241	-0.064
-378.902	-17.940	0.186	0.117
-377.888	-36.549	-0.043	0.023
-376.873	69.497	0.216	-0.224
-375.858	-200.000	-0.048	0.269
-374.844	122.416	-0.149	0.187
-373.829	-102.394	0.169	0.041
-372.815	-136.064	-0.368	-0.043
-371.800	-78.487	0.231	-0.080
-370.785	-28.486	0.186	-0.108
-369.771	12.542	-0.074	0.058
-368.756	178.840	0.055	-0.081
-367.742	800.000	-0.182	-0.546
-366.727	82.515	-0.103	-0.113
-365.712	162.472	-0.194	0.274
-364.698	-200.000	-0.007	-0.158
-363.683	-200.000	0.021	-0.177
-362.669	-96.167	-0.123	-0.033
-361.654	257.618	-0.063	0.110
-360.639	-51.576	0.079	-0.037
-359.625	-175.224	0.219	-0.006
-358.610	19.485	0.022	0.017
-357.596	98.895	-0.317	-0.368
-356.581	16.608	-0.311	0.247
-355.566	-68.760	0.069	0.027
-354.552	-176.272	0.125	0.003
-353.537	-200.000	0.019	0.470
-352.523	592.798	0.073	0.182
-351.508	-175.405	0.242	-0.007
-350.493	5.950	-0.162	0.120
-349.479	117.186	-0.191	0.236
-348.464	800.000	-0.074	-0.231
-347.450	-83.225	0.428	-0.138
-346.435	-38.133	0.097	-0.051
-345.420	-200.000	0.038	0.277
-344.406	-200.000	0.070	0.331
-343.391	154.881	0.062	0.085
-342.377	-48.719	0.385	0.185
-341.362	800.000	-0.079	0.340
-340.348	8.512	-0.219	-0.165
-339.333	-200.000	-0.003	0.153
-338.318	9.461	-0.364	-0.277
-337.304	-149.104	0.139	0.011
-336.289	-76.701	0.312	0.110
-335.275	525.864	0.110	-0.259
-334.260	16.069	-0.085	-0.067
-333.245	800.000	0.109	0.315
-332.231	-68.284	0.201	0.079
-331.216	80.445	0.140	0.152
-330.202	-200.000	-0.030	0.193
-329.187	-0.814	0.345	0.246
-328.172	-200.000	-0.058	0.338
-327.158	17.949	-0.156	-0.125
-326.143	454.435	-0.127	-0.282
-325.129	418.635	0.120	-0.257
-324.114	141.460	0.041	0.054
-323.099	-30.384	-0.118	-0.067
-322.085	68.377	0.144	0.148
-321.070	5.065	0.181	-0.134
-320.056	800.000	-0.090	-0.299
-319.041	724.675	-0.014	-0.037
-318.026	-200.000	0.010	0.234
-317.012	-35.645	0.129	0.070
-315.997	65.782	-0.464	0.472
-314.983	359.057	-0.105	-0.210
-313.968	293.764	0.076	-0.140
-312.953	56.106	-0.044	0.042
-311.939	-38.072	-0.448	0.239
-310.924	-14.435	-0.294	-0.190
-309.910	-102.712	-0.108	0.026
-308.895	16.557	0.219	-0.174
-307.880	-118.472	0.162	-0.029
-306.866	-129.070	-0.148	0.021
-305.851	200.298	0.084	-0.129
-304.837	-12.247	0.236	-0.155
-303.822	-200.000	0.075	-0.367
-302.807	-200.000	-0.013	0.064
-301.793	55.436	-0.221	-0.214
-300.778	105.310	0.017	-0.021
-299.764	339.830	0.118	0.231
-298.749	45.372	0.281	-0.260
-297.735	86.968	-0.275	-0.305
-296.720	-130.505	0.223	0.030
-295.705	-9.504	0.245	-0.164
-294.691	-87.559	0.122	-0.037
-293.676	-94.430	0.315	-0.086
-292.662	-200.000	-0.020	-0.103
-291.647	-32.017	0.204	-0.115
-290.632	0.777	-0.402	0.289
-289.618	-200.000	0.017	0.118
-288.603	-37.702	0.161	-0.086
-287.589	8.769	0.226	0.171
-286.574	23.029	0.281	-0.231
-285.559	-37.590	-0.150	-0.080
-284.545	-141.183	-0.230	-0.023
-283.530	-71.268	-0.077	-0.029
-282.516	289.645	-0.210	-0.382
-281.501	-99.330	0.260	0.066
-280.486	-183.161	0.301	-0.005
-279.472	221.612	0.048	-0.077
-278.457	116.708	-0.172	0.211
-277.443	-77.681	-0.244	-0.085
-276.428	-179.656	0.177	-0.004
-275.413	27.374	-0.031	0.026
-274.399	39.525	0.153	0.137
-273.384	-200.000	0.011	0.159
-272.370	91.808	0.223	0.252
-271.355	473.664	-0.162	-0.366
-270.340	-21.502	0.568	-0.347
-269.326	5.809	0.099	-0.073
-268.311	-37.461	-0.110	-0.059
-267.297	-22.737	0.155	0.094
-266.282	-96.739	0.205	0.054
-265.267	-200.000	-0.045	0.366
-264.253	-157.624	0.219	0.013
-263.238	422.186	0.100	0.215
-262.224	13.847	0.099	0.077
-261.209	-25.797	-0.208	-0.123
-260.195	-148.909	0.124	0.010
-259.180	-200.000	0.049	0.236
-258.165	-66.350	-0.093	0.037
-257.151	149.056	-0.119	0.162
-256.136	-200.000	-0.016	0.182
-255.122	-105.950	-0.177	0.040
-254.107	43.982	0.086	-0.079
-253.092	-90.158	0.226	-0.066
-252.078	-119.072	0.297	-0.052
-251.063	-196.342	0.188	-0.001
-250.049	-84.441	0.288	-0.091
-249.034	800.000	-0.086	-0.300
-248.019	61.561	0.152	-0.151
-247.005	-160.829	0.227	0.012
-245.990	-144.760	-0.406	-0.037
-244.976	-2.692	0.218	0.153
-243.961	-200.000	-0.073	0.415
-242.946	223.650	0.063	0.101
-241.932	-31.433	-0.191	0.107
-240.917	-200.000	-0.013	0.174
-239.903	800.000	0.029	0.082
-238.888	-46.378	-0.141	-0.069
-237.873	-200.000	-0.033	0.251
-236.859	311.679	0.051	-0.096
-235.844	-134.942	-0.306	0.037
-234.830	-20.366	0.415	-0.255
-233.815	-58.251	0.152	0.066
-232.800	-200.000	-0.078	0.355
-231.786	112.352	0.219	-0.265
-230.771	151.849	0.108	0.148
-229.757	-130.272	0.334	-0.045
-228.742	-77.907	-0.139	0.048
-227.727	800.000	-0.041	0.126
-226.713	101.346	0.096	0.112
-225.698	169.408	-0.151	0.216
-224.684	413.680	-0.135	0.288
-223.669	32.907	0.272	-0.236
-222.655	74.533	0.244	0.256
-221.640	69.264	0.132	0.135
-220.625	34.086	0.244	0.213
-219.611	-81.602	0.039	0.013
-218.596	-114.303	-0.110	0.021
-217.582	-130.007	0.009	-0.001
-216.567	800.000	0.024	0.099
-215.552	108.962	-0.074	0.089
-214.538	800.000	-0.079	0.249
-213.523	-134.658	-0.047	-0.006
-212.509	-124.919	-0.265	0.041
-211.494	-84.404	-0.255	-0.081
-210.479	-10.262	0.041	0.027
-209.465	130.663	-0.130	0.167
-208.450	63.889	0.129	0.130
-207.436	800.000	-0.107	-0.337
-206.421	-78.930	-0.097	-0.033
-205.406	45.619	-0.130	0.120
-204.392	-200.000	0.036	-0.392
-203.377	-155.981	0.181	0.011
-202.363	800.000	-0.037	-0.159
-201.348	-200.000	0.010	-0.105
-200.333	614.178	-0.135	-0.338
-199.319	333.503	0.067	0.130
-198.304	-200.000	0.013	0.415
-197.290	300.067	-0.167	-0.307
-196.275	-200.000	0.011	-0.053
-195.260	-200.000	0.022	-0.105
-194.246	37.781	-0.129	-0.115
-193.231	-200.000	-0.032	-0.177
-192.217	135.149	-0.187	0.243
-191.202	800.000	0.042	0.163
-190.187	-66.736	0.178	-0.070
-189.173	56.297	-0.083	0.080
-188.158	-31.283	-0.162	0.091
-187.144	-200.000	-0.062	-0.412
-186.129	287.241	0.131	-0.236
-185.114	45.656	-0.191	-0.176
-184.100	-36.021	-0.357	0.193
-183.085	390.128	-0.059	0.121
-182.071	800.000	0.028	0.112
-181.056	200.784	-0.063	0.097
-180.042	-200.000	0.004	-0.017
-179.027	-200.000	0.024	0.270
-178.012	145.427	-0.187	0.250
-176.998	-200.000	0.011	0.362
-175.983	-0.288	0.067	0.047
-174.969	-17.989	0.189	0.118
-173.954	-200.000	0.017	0.320
-172.939	-64.006	-0.275	-0.112
-171.925	-200.000	0.040	-0.248
-170.910	-200.000	0.053	0.303
-169.896	119.866	0.067	-0.083
-168.881	-200.000	-0.014	0.192
-167.866	-174.721	0.234	-0.007
-166.852	-104.263	-0.437	-0.101
-165.837	91.765	0.084	0.095
-164.823	-200.000	0.018	-0.146
-163.808	-147.747	0.337	-0.028
-162.793	88.725	-0.121	0.134
-161.779	-48.697	0.218	0.104
-160.764	43.265	-0.109	0.099
-159.750	281.590	0.093	-0.167
-158.735	800.000	-0.105	-0.406
-157.720	51.367	-0.083	-0.079
-156.706	-26.303	0.519	0.304
-155.691	-147.921	-0.289	-0.024
-154.677	-200.000	-0.001	-0.123
-153.662	-158.528	0.175	0.010
-152.647	317.313	-0.233	-0.439
-151.633	-110.005	-0.201	-0.042
-150.618	338.483	-0.063	0.122
-149.604	73.945	0.016	0.017
-148.589	101.502	0.168	-0.195
-147.574	625.542	0.019	0.048
-146.560	-200.000	0.003	-0.076
-145.545	-29.451	-0.288	0.164
-144.531	-98.038	-0.413	-0.106
-143.516	569.514	-0.091	0.220
-142.502	615.053	-0.106	0.266
-141.487	-89.500	0.282	-0.083
-140.472	-8.123	-0.146	-0.098
-139.458	-200.000	-0.055	0.406
-138.443	-71.226	0.157	-0.059
-137.429	-200.000	0.002	-0.271
-136.414	-110.256	-0.245	0.051
-135.399	24.401	0.132	0.109
-134.385	-147.306	0.441	-0.037
-133.370	-13.287	0.063	-0.041
-132.356	-58.722	0.146	0.063
-131.341	800.000	-0.025	0.078
-130.326	-149.808	0.432	0.034
-129.312	199.314	0.140	0.214
-128.297	647.646	-0.090	-0.229
-127.283	693.543	-0.106	0.278
-126.268	-200.000	-0.007	0.059
-125.253	134.295	0.136	0.176
-124.239	120.012	-0.103	-0.127
-123.224	800.000	0.034	-0.109
-122.210	-13.552	0.074	0.048
-121.195	800.000	0.033	0.128
-120.180	464.635	0.058	0.129
