DTS Sentinel unit serial number:	SN413079Multiplexer serial number:	ORYXHardware model number:	OX4-SRSoftware version number:	ORYX F/W v4.00 Oryx Data Collector v3.7.2.0data status	okinstallation	princeton_trtdifferential loss correction	single-endedforward channel	channel 2reverse channel	N/Adate	2019/09/13time	13:59:35forward acquisition time	60.00reverse acquisition time	0.00gamma	496.2192k internal	0.2314k external	0.2314temperature offset calibration	1.0210default loss term (dB/km)	0.3790temperature slope calibration	1.0000multiplexer offset coefficient	1.0000multiplexer slope coefficient	1.0000fibre end	0.00T internal ref (°C)	35.19T ext. ref 1 (°C)	4.60T ext. ref 2 (°C)	31.89length (m)	temperature (°C)	Stokes	anti-Stokes-747.200	-138.483	0.269	0.030
-746.185	-75.681	0.162	0.058
-745.171	-41.751	0.124	0.065
-744.156	-55.231	0.038	-0.017
-743.142	-68.910	-0.115	-0.045
-742.127	-80.265	-0.048	0.016
-741.112	747.669	0.093	0.255
-740.098	-140.212	-0.280	0.030
-739.083	800.000	0.057	-0.211
-738.069	-110.744	-0.243	0.051
-737.054	65.668	0.108	0.111
-736.039	-129.264	-0.437	-0.062
-735.025	98.262	-0.088	-0.103
-734.010	800.000	0.034	0.126
-732.996	-141.886	-0.215	0.022
-731.981	244.623	0.061	0.103
-730.966	-176.295	-0.172	0.005
-729.952	273.968	-0.071	-0.128
-728.937	281.757	-0.099	0.179
-727.923	286.803	-0.202	-0.370
-726.908	-132.840	0.066	0.009
-725.894	-200.000	0.055	0.320
-724.879	800.000	-0.103	-0.342
-723.864	800.000	-0.116	-0.410
-722.850	504.830	0.062	-0.146
-721.835	-115.141	-0.202	-0.039
-720.821	-21.914	0.011	-0.007
-719.806	142.888	-0.179	-0.241
-718.791	-119.674	0.201	-0.035
-717.777	800.000	0.050	-0.156
-716.762	28.904	0.118	-0.101
-715.748	800.000	-0.183	-0.585
-714.733	-184.243	0.367	-0.006
-713.718	-200.000	-0.014	-0.394
-712.704	138.411	-0.033	0.044
-711.689	800.000	-0.066	-0.248
-710.675	-24.589	0.262	-0.158
-709.660	-162.313	0.150	-0.008
-708.645	40.001	-0.329	-0.299
-707.631	800.000	0.085	-0.270
-706.616	72.693	-0.259	-0.274
-705.602	307.479	-0.128	-0.242
-704.587	98.099	-0.155	-0.180
-703.572	96.550	0.038	0.044
-702.558	-150.880	-0.057	-0.004
-701.543	800.000	0.047	-0.202
-700.529	-31.871	0.230	-0.131
-699.514	663.525	-0.033	0.086
-698.499	98.805	0.153	-0.178
-697.485	800.000	-0.037	0.147
-696.470	-66.587	-0.225	-0.090
-695.456	317.639	0.077	0.146
-694.441	800.000	-0.011	0.038
-693.426	0.449	0.095	-0.069
-692.412	193.225	0.176	-0.270
-691.397	-7.796	0.144	-0.098
-690.383	-2.054	0.292	-0.207
-689.368	-25.120	-0.284	0.171
-688.354	198.784	0.092	0.142
-687.339	-200.000	-0.038	0.239
-686.324	-98.496	0.107	-0.028
-685.310	-128.037	-0.348	0.051
-684.295	-200.000	-0.001	-0.067
-683.281	-65.008	-0.086	-0.035
-682.266	800.000	-0.014	-0.060
-681.251	-200.000	-0.029	0.144
-680.237	89.264	-0.161	0.182
-679.222	-200.000	-0.006	-0.059
-678.208	132.530	0.094	-0.123
-677.193	108.128	0.021	0.025
-676.178	-125.074	-0.110	-0.017
-675.164	96.289	0.253	0.293
-674.149	376.915	0.059	-0.122
-673.135	158.563	0.130	-0.182
-672.120	60.405	0.020	-0.020
-671.105	496.326	-0.078	-0.182
-670.091	-43.790	-0.253	-0.129
-669.076	130.031	-0.063	0.081
-668.062	-200.000	-0.009	-0.202
-667.047	47.794	0.058	-0.054
-666.032	-48.288	-0.207	-0.101
-665.018	-107.705	-0.095	0.021
-664.003	800.000	-0.113	-0.404
-662.989	-51.251	0.365	-0.172
-661.974	187.723	0.136	-0.205
-660.959	257.925	0.042	0.072
-659.945	38.811	-0.170	0.154
-658.930	-54.904	0.138	0.063
-657.916	-55.038	-0.486	0.221
-656.901	800.000	-0.044	0.172
-655.886	-59.391	-0.155	-0.067
-654.872	-141.187	0.217	0.022
-653.857	374.454	-0.012	-0.026
-652.843	727.880	0.084	0.226
-651.828	-112.787	0.190	-0.038
-650.814	-5.072	0.103	-0.071
-649.799	118.580	0.196	-0.245
-648.784	-27.868	-0.138	-0.081
-647.770	154.578	0.174	-0.241
-646.755	-95.526	-0.250	-0.068
-645.741	-200.000	0.058	-0.282
-644.726	-10.954	0.121	-0.081
-643.711	-65.087	-0.139	-0.057
-642.697	-154.980	0.042	0.003
-641.682	509.079	-0.099	0.231
-640.668	-40.314	-0.262	0.137
-639.653	57.250	0.322	-0.318
-638.638	-92.206	-0.373	-0.106
-637.624	-121.327	0.210	-0.035
-636.609	-200.000	0.084	-0.468
-635.595	-3.983	-0.116	0.081
-634.580	-64.850	-0.404	0.165
-633.565	65.684	0.173	0.177
-632.551	325.184	-0.200	-0.387
-631.536	-200.000	0.027	0.336
-630.522	-147.758	-0.200	0.017
-629.507	800.000	-0.042	-0.120
-628.492	-152.155	0.268	-0.020
-627.478	403.782	0.112	0.238
-626.463	103.776	0.056	-0.066
-625.449	110.644	-0.131	-0.159
-624.434	50.344	-0.061	0.058
-623.419	293.294	-0.096	0.177
-622.405	-200.000	0.034	-0.186
-621.390	-140.882	0.068	0.007
-620.376	317.016	0.054	-0.103
-619.361	-32.894	-0.351	0.196
-618.346	-159.305	-0.399	-0.023
-617.332	800.000	-0.058	-0.240
-616.317	221.335	-0.130	-0.210
-615.303	-59.656	0.073	-0.032
-614.288	-59.816	-0.222	0.096
-613.273	20.385	-0.234	0.191
-612.259	22.374	-0.245	0.202
-611.244	55.311	0.193	-0.189
-610.230	-69.792	0.282	-0.109
-609.215	101.270	-0.150	0.176
-608.201	288.096	0.030	-0.054
-607.186	-200.000	-0.051	-0.368
-606.171	-99.419	-0.061	-0.016
-605.157	321.205	0.063	-0.121
-604.142	29.185	0.074	-0.063
-603.128	-115.386	0.175	0.033
-602.113	-125.391	0.158	0.024
-601.098	-0.179	-0.112	0.080
-600.084	-72.332	0.142	0.053
-599.069	29.325	-0.204	-0.175
-598.055	-8.563	-0.151	0.102
-597.040	-90.747	-0.099	-0.029
-596.025	-8.647	0.361	0.244
-595.011	189.141	-0.117	-0.176
-593.996	-125.822	0.155	0.024
-592.982	-200.000	-0.033	0.206
-591.967	-200.000	0.017	-0.077
-590.952	63.414	0.183	0.185
-589.938	-17.229	0.045	0.028
-588.923	98.029	0.121	-0.140
-587.909	-200.000	0.015	0.156
-586.894	29.643	-0.211	0.181
-585.879	-200.000	-0.062	-0.276
-584.865	800.000	-0.079	0.230
-583.850	-3.490	-0.180	0.126
-582.836	-200.000	-0.032	0.153
-581.821	5.266	0.140	-0.104
-580.806	109.036	-0.073	-0.088
-579.792	166.148	-0.074	0.105
-578.777	-9.452	0.146	0.098
-577.763	216.017	-0.083	-0.133
-576.748	-162.127	-0.066	-0.003
-575.733	-194.329	-0.125	0.001
-574.719	-89.012	-0.272	0.081
-573.704	-200.000	0.011	0.103
-572.690	39.734	-0.169	0.153
-571.675	204.405	0.097	0.151
-570.661	-133.040	0.221	-0.028
-569.646	454.711	0.058	0.128
-568.631	148.320	0.145	-0.197
-567.617	-110.868	-0.149	-0.031
-566.602	-200.000	-0.055	0.323
-565.588	194.923	-0.030	-0.046
-564.573	-107.569	-0.282	-0.062
-563.558	100.132	0.132	0.154
-562.544	3.544	0.038	-0.028
-561.529	86.071	-0.130	0.144
-560.515	-64.530	-0.087	0.036
-559.500	-50.739	-0.270	-0.128
-558.485	157.168	0.134	-0.186
-557.471	447.757	-0.090	-0.198
-556.456	-200.000	-0.103	0.503
-555.442	247.634	0.021	0.036
-554.427	85.889	-0.152	-0.168
-553.412	369.602	-0.099	0.202
-552.398	19.432	0.077	-0.063
-551.383	800.000	-0.091	0.276
-550.369	456.304	0.039	-0.087
-549.354	74.592	0.359	-0.380
-548.339	-85.506	0.116	0.036
-547.325	117.510	-0.070	-0.087
-546.310	-200.000	0.027	-0.152
-545.296	-200.000	0.007	0.235
-544.281	264.333	-0.264	0.463
-543.266	-0.392	-0.187	0.134
-542.252	61.618	-0.135	0.135
-541.237	-163.021	0.234	0.011
-540.223	-122.751	-0.153	-0.025
-539.208	-200.000	0.018	0.193
-538.193	-200.000	-0.019	0.323
-537.179	435.387	-0.153	-0.334
-536.164	-78.852	-0.133	-0.046
-535.150	-20.184	0.112	0.069
-534.135	-103.614	-0.281	0.066
-533.121	-200.000	0.007	-0.046
-532.106	-0.885	-0.180	-0.128
-531.091	-65.210	-0.155	-0.063
-530.077	111.338	-0.100	-0.121
-529.062	-108.439	0.065	0.014
-528.048	219.538	-0.235	-0.378
-527.033	144.357	0.196	-0.263
-526.018	56.373	0.122	-0.119
-525.004	461.591	-0.036	-0.080
-523.989	275.849	-0.177	-0.316
-522.975	-64.453	-0.333	-0.136
-521.960	-1.829	-0.023	-0.016
-520.945	-61.652	-0.453	0.191
-519.931	-49.308	-0.396	-0.190
-518.916	-200.000	-0.005	0.339
-517.902	-158.192	-0.055	0.003
-516.887	94.184	-0.128	0.146
-515.872	156.908	-0.169	0.234
-514.858	-89.317	-0.168	0.050
-513.843	258.989	0.075	0.130
-512.829	-200.000	0.032	0.240
-511.814	-1.781	-0.222	-0.157
-510.799	-120.039	-0.456	-0.079
-509.785	800.000	-0.043	-0.180
-508.770	3.932	-0.114	0.084
-507.756	-24.879	0.186	0.111
-506.741	-200.000	-0.048	-0.265
-505.726	-46.677	-0.255	0.125
-504.712	-200.000	-0.007	0.155
-503.697	-119.492	0.532	-0.093
-502.683	4.955	0.153	0.113
-501.668	-152.710	-0.350	0.025
-500.653	-50.485	0.439	-0.208
-499.639	173.691	-0.226	-0.328
-498.624	76.457	0.055	0.059
-497.610	-27.811	0.284	-0.165
-496.595	-68.701	-0.297	0.115
-495.581	-162.159	0.143	0.007
-494.566	-5.422	-0.232	-0.160
-493.551	-200.000	0.040	-0.271
-492.537	-29.398	-0.415	-0.238
-491.522	439.959	0.131	0.286
-490.508	-200.000	-0.022	-0.165
-489.493	68.005	0.375	0.386
-488.478	800.000	0.034	-0.127
-487.464	-110.575	0.252	-0.052
-486.449	-70.247	-0.114	0.044
-485.435	-132.889	0.292	0.037
-484.420	33.377	0.105	-0.091
-483.405	137.483	-0.089	0.117
-482.391	-4.392	0.202	-0.140
-481.376	800.000	0.033	-0.115
-480.362	-200.000	0.053	0.311
-479.347	-119.044	0.153	-0.027
-478.332	520.771	-0.107	-0.251
-477.318	99.542	-0.045	0.052
-476.303	-56.045	0.157	0.070
-475.289	-200.000	-0.017	-0.082
-474.274	48.309	0.240	-0.225
-473.259	241.110	-0.179	-0.299
-472.245	-15.043	-0.143	0.092
-471.230	180.808	0.084	0.123
-470.216	-155.238	0.218	-0.014
-469.201	-88.296	-0.176	-0.053
-468.186	-39.024	-0.218	0.115
-467.172	-98.426	0.387	0.099
-466.157	250.132	-0.205	0.349
-465.143	-118.686	-0.218	-0.039
-464.128	339.265	-0.096	-0.188
-463.113	-9.507	0.181	-0.121
-462.099	-52.864	0.137	0.063
-461.084	669.534	-0.027	-0.070
-460.070	-28.045	0.182	-0.105
-459.055	-103.932	0.090	-0.021
-458.040	-142.545	0.157	-0.015
-457.026	155.921	0.062	-0.086
-456.011	-138.521	0.245	0.027
-454.997	-156.953	-0.460	-0.028
-453.982	-45.425	0.032	0.016
-452.968	86.705	0.073	0.081
-451.953	800.000	0.044	0.192
-450.938	-200.000	-0.018	0.226
-449.924	800.000	-0.056	0.222
-448.909	-200.000	0.030	-0.226
-447.895	-200.000	0.036	-0.308
-446.880	-9.133	-0.141	-0.094
-445.865	-200.000	0.025	0.172
-444.851	-146.373	0.241	-0.021
-443.836	169.421	0.190	0.272
-442.822	-55.440	-0.147	-0.066
-441.807	-200.000	-0.036	0.448
-440.792	210.529	-0.022	0.035
-439.778	-200.000	0.017	-0.098
-438.763	59.396	0.114	-0.113
-437.749	-59.546	-0.234	-0.101
-436.734	302.118	0.114	-0.211
-435.719	-102.750	-0.242	-0.058
-434.705	23.493	0.202	-0.166
-433.690	310.200	-0.095	-0.179
-432.676	-103.300	0.341	0.080
-431.661	800.000	0.032	0.136
-430.646	25.602	0.095	-0.079
-429.632	-111.697	-0.142	0.029
-428.617	-5.474	0.339	-0.233
-427.603	-42.688	0.064	-0.033
-426.588	800.000	0.017	-0.051
-425.573	800.000	0.087	-0.244
-424.559	-200.000	0.018	0.147
-423.544	-19.430	-0.115	-0.071
-422.530	-200.000	0.035	-0.295
-421.515	-178.189	-0.083	-0.002
-420.500	-125.251	-0.158	-0.024
-419.486	-13.968	-0.119	0.077
-418.471	800.000	-0.008	0.031
-417.457	-200.000	0.023	0.184
-416.442	-66.479	-0.387	0.154
-415.428	-156.359	0.223	-0.014
-414.413	-142.369	-0.290	0.029
-413.398	-68.014	0.274	-0.107
-412.384	-76.990	-0.087	-0.030
-411.369	-99.993	0.303	0.076
-410.355	612.349	-0.141	-0.354
-409.340	-200.000	0.001	-0.278
-408.325	315.922	-0.210	-0.396
-407.311	-97.162	0.281	-0.073
-406.296	-39.022	-0.184	-0.097
-405.282	543.809	0.028	0.067
-404.267	-63.358	0.225	0.093
-403.252	-200.000	-0.046	-0.266
-402.238	-142.764	0.181	0.018
-401.223	-68.248	0.229	-0.089
-400.209	-200.000	-0.009	-0.085
-399.194	343.188	0.182	-0.356
-398.179	-94.910	-0.222	-0.060
-397.165	-40.082	-0.238	-0.124
-396.150	-200.000	-0.023	0.131
-395.136	-15.909	-0.208	-0.133
-394.121	359.469	0.169	-0.338
-393.106	-91.331	-0.299	-0.086
-392.092	800.000	-0.051	0.197
-391.077	-95.479	-0.519	0.139
-390.063	208.839	-0.089	0.140
-389.048	168.052	0.053	-0.075
-388.033	-200.000	0.039	-0.233
-387.019	-182.117	-0.112	-0.002
-386.004	119.127	-0.029	-0.035
-384.990	-108.462	-0.254	-0.055
-383.975	-153.827	0.231	0.016
-382.960	800.000	0.026	-0.101
-381.946	-200.000	0.230	0.001
-380.931	40.435	-0.215	-0.193
-379.917	-133.190	0.137	0.017
-378.902	-45.412	-0.095	-0.047
-377.888	-57.150	-0.117	0.052
-376.873	-168.759	0.094	0.004
-375.858	800.000	0.080	0.327
-374.844	-22.264	0.169	0.102
-373.829	161.049	0.234	-0.327
-372.815	800.000	0.074	-0.220
-371.800	39.628	-0.201	0.180
-370.785	-200.000	-0.003	-0.084
-369.771	-200.000	-0.004	0.121
-368.756	-104.454	0.078	0.018
-367.742	109.964	-0.155	-0.186
-366.727	195.706	0.194	0.294
-365.712	159.020	0.083	0.115
-364.698	-128.372	0.115	0.016
-363.683	-44.428	-0.155	-0.078
-362.669	220.806	0.089	0.142
-361.654	-41.321	0.117	0.060
-360.639	-24.953	-0.087	0.052
-359.625	543.324	0.007	-0.017
-358.610	79.335	-0.019	-0.021
-357.596	-170.924	-0.210	-0.007
-356.581	-86.785	0.156	-0.048
-355.566	-3.561	-0.124	0.086
-354.552	-7.121	0.249	0.169
-353.537	-34.381	0.021	-0.011
-352.523	122.428	-0.142	-0.177
-351.508	531.807	-0.137	0.325
-350.493	-200.000	-0.086	0.000
-349.479	17.780	-0.129	-0.102
-348.464	-39.196	-0.025	-0.013
-347.450	-200.000	-0.013	0.279
-346.435	478.189	-0.093	-0.211
-345.420	-126.108	0.107	0.016
-344.406	-200.000	0.034	0.158
-343.391	89.484	-0.105	0.117
-342.377	800.000	0.058	0.240
-341.362	-22.684	0.221	0.133
-340.348	-117.316	0.225	0.041
-339.333	-172.587	-0.305	0.010
-338.318	227.704	0.044	0.072
-337.304	-60.494	0.246	0.104
-336.289	8.461	-0.036	0.027
-335.275	-84.322	0.082	-0.026
-334.260	378.635	-0.129	-0.263
-333.245	-200.000	0.010	0.149
-332.231	-200.000	-0.001	-0.189
-331.216	-49.521	-0.102	-0.049
-330.202	800.000	-0.083	-0.278
-329.187	-101.194	-0.235	-0.057
-328.172	218.531	0.210	0.335
-327.158	-200.000	0.069	-0.382
-326.143	-200.000	0.011	0.129
-325.129	32.327	-0.086	-0.074
-324.114	204.495	0.011	-0.018
-323.099	-200.000	0.029	0.557
-322.085	594.797	0.122	0.301
-321.070	32.498	0.132	0.114
-320.056	148.976	-0.054	0.073
-319.041	-82.769	0.218	0.070
-318.026	29.534	0.317	0.269
-317.012	21.431	0.123	-0.100
-315.997	-53.378	-0.224	0.102
-314.983	110.580	0.085	-0.102
-313.968	8.549	0.231	0.173
-312.953	-20.320	-0.055	0.033
-311.939	-11.450	0.121	0.079
-310.924	790.920	-0.134	-0.368
-309.910	-179.724	-0.302	0.007
-308.895	800.000	-0.040	-0.150
-307.880	30.542	0.214	0.182
-306.866	-200.000	0.007	-0.120
-305.851	-29.900	0.401	0.228
-304.837	211.751	-0.187	0.294
-303.822	349.804	-0.043	0.084
-302.807	580.061	-0.075	-0.184
-301.793	-116.383	-0.114	0.021
-300.778	-56.002	-0.179	0.079
-299.764	46.587	0.134	-0.124
-298.749	94.892	0.223	-0.253
-297.735	-200.000	0.009	0.141
-296.720	7.586	0.327	0.244
-295.705	29.571	-0.134	0.114
-294.691	164.371	0.208	-0.292
-293.676	-200.000	-0.055	0.300
-292.662	800.000	0.138	0.387
-291.647	-125.193	0.260	0.040
-290.632	-90.459	-0.561	0.162
-289.618	292.822	0.180	-0.328
-288.603	-110.136	0.062	-0.013
-287.589	800.000	0.060	-0.216
-286.574	-200.000	-0.022	0.165
-285.559	-157.858	-0.229	0.013
-284.545	-200.000	0.026	0.223
-283.530	-200.000	0.022	0.336
-282.516	85.093	0.007	0.008
-281.501	86.891	0.090	-0.098
-280.486	-83.084	-0.111	-0.036
-279.472	65.382	0.022	-0.023
-278.457	32.681	0.318	-0.274
-277.443	-200.000	-0.037	-0.289
-276.428	-47.141	0.268	-0.130
-275.413	-98.264	0.252	0.064
-274.399	-192.310	-0.341	0.003
-273.384	-129.887	-0.336	0.046
-272.370	204.665	-0.026	-0.040
-271.355	-183.845	0.283	-0.005
-270.340	148.497	-0.155	-0.208
-269.326	-200.000	0.031	-0.304
-268.311	-114.146	0.100	-0.019
-267.297	725.768	0.073	-0.194
-266.282	800.000	0.074	-0.244
-265.267	-37.492	0.125	-0.067
-264.253	243.747	-0.022	-0.037
-263.238	309.054	0.198	-0.367
-262.224	-194.040	-0.120	0.001
-261.209	535.310	0.136	-0.320
-260.195	85.447	0.101	-0.111
-259.180	-200.000	-0.034	0.152
-258.165	-185.253	-0.401	0.006
-257.151	36.292	0.347	0.304
-256.136	586.363	0.086	0.211
-255.122	800.000	-0.044	-0.171
-254.107	133.102	0.199	0.256
-253.092	147.962	-0.060	-0.081
-252.078	4.491	0.188	0.137
-251.063	29.791	0.179	-0.152
-250.049	-200.000	-0.012	0.193
-249.034	21.673	-0.136	0.110
-248.019	-39.886	-0.258	0.134
-247.005	34.292	0.180	-0.156
-245.990	-97.299	0.449	0.116
-244.976	19.456	-0.154	0.123
-243.961	-119.245	0.266	-0.046
-242.946	44.454	0.139	0.127
-241.932	7.243	-0.121	0.090
-240.917	-88.836	-0.048	0.014
-239.903	-48.322	0.277	0.133
-238.888	139.483	0.098	0.129
-237.873	-99.003	0.163	-0.041
-236.859	544.192	-0.061	0.144
-235.844	-146.579	0.326	0.028
-234.830	800.000	0.088	-0.264
-233.815	18.023	0.240	0.190
-232.800	283.267	0.092	-0.164
-231.786	800.000	-0.072	-0.252
-230.771	111.567	0.184	0.221
-229.757	-99.418	0.195	0.049
-228.742	401.072	-0.026	0.054
-227.727	-132.802	0.240	0.030
-226.713	410.872	-0.123	0.259
-225.698	800.000	-0.038	0.134
-224.684	32.185	-0.250	-0.214
-223.669	-67.544	0.085	-0.033
-222.655	800.000	-0.045	0.193
-221.640	290.509	0.207	-0.374
-220.625	800.000	-0.051	-0.149
-219.611	-2.214	-0.345	-0.241
-218.596	-52.892	-0.200	0.092
-217.582	-87.792	0.174	0.052
-216.567	-96.589	0.142	-0.037
-215.552	-93.182	-0.197	0.054
-214.538	-29.579	0.146	-0.083
-213.523	-21.184	-0.333	-0.202
-212.509	150.673	0.129	0.173
-211.494	-127.285	-0.221	-0.032
-210.479	-200.000	-0.034	0.161
-209.465	-200.000	0.071	-0.418
-208.450	-152.172	-0.140	0.010
-207.436	31.905	0.357	0.305
-206.421	-40.452	0.233	-0.120
-205.406	163.564	-0.217	0.302
-204.392	172.586	0.062	-0.089
-203.377	197.215	-0.177	-0.267
-202.363	-86.597	0.120	-0.037
-201.348	-110.530	0.246	0.051
-200.333	-200.000	0.012	0.475
-199.319	-77.786	-0.129	-0.044
-198.304	-200.000	0.006	0.128
-197.290	74.029	-0.142	-0.148
-196.275	-89.632	0.186	-0.054
-195.260	182.311	0.167	0.244
-194.246	-71.942	0.150	0.055
-193.231	-73.040	0.344	-0.125
-192.217	-200.000	0.004	-0.063
-191.202	340.219	-0.044	0.084
-190.187	-200.000	0.004	-0.202
-189.173	-200.000	-0.028	-0.169
-188.158	8.180	0.166	-0.124
-187.144	39.853	0.114	-0.101
-186.129	-87.899	-0.209	-0.062
-185.114	-20.647	-0.115	0.070
-184.100	-93.266	-0.304	0.084
-183.085	-200.000	-0.004	0.153
-182.071	-131.561	-0.291	-0.038
-181.056	287.299	-0.071	0.128
-180.042	216.213	0.050	-0.078
-179.027	446.132	-0.131	0.286
-178.012	132.501	0.096	-0.123
-176.998	60.538	0.145	0.143
-175.983	15.041	-0.012	0.009
-174.969	310.243	-0.162	0.301
-173.954	-168.984	0.191	0.007
-172.939	-124.003	0.210	-0.033
-171.925	-35.828	0.113	-0.061
-170.910	-24.982	0.155	-0.091
-169.896	-200.000	-0.016	-0.313
-168.881	-37.788	0.155	-0.082
-167.866	800.000	0.124	0.440
-166.852	330.616	-0.053	-0.100
-165.837	94.083	-0.323	-0.363
-164.823	800.000	-0.040	-0.145
-163.808	-200.000	0.010	0.360
-162.793	498.006	-0.062	0.141
-161.779	-200.000	-0.039	0.290
-160.764	-128.494	-0.335	0.047
-159.750	261.997	-0.028	0.048
-158.735	311.892	-0.118	0.219
-157.720	365.570	0.050	0.100
-156.706	-200.000	0.005	0.226
-155.691	-152.399	0.206	-0.015
-154.677	-2.408	0.227	0.158
-153.662	316.333	-0.091	0.169
-152.647	-200.000	0.023	0.348
-151.633	-44.445	0.145	0.072
-150.618	-91.949	-0.043	-0.012
-149.604	312.356	-0.048	0.089
-148.589	138.045	0.316	0.411
-147.574	800.000	0.110	0.412
-146.560	800.000	-0.096	0.278
-145.545	46.117	-0.297	-0.272
-144.531	-41.478	0.264	0.135
-143.516	-200.000	0.042	-0.215
-142.502	90.310	0.145	0.161
-141.487	-134.664	0.406	0.049
-140.472	349.402	-0.070	-0.137
-139.458	-39.844	-0.338	-0.175
-138.443	-47.410	0.072	0.035
-137.429	-129.179	-0.380	0.052
-136.414	-50.678	0.061	-0.028
-135.399	-143.719	0.105	-0.010
-134.385	73.359	0.203	-0.210
-133.370	-200.000	0.031	0.250
-132.356	-45.423	0.310	-0.152
-131.341	-47.194	-0.149	0.072
-130.326	-200.000	-0.006	-0.194
-129.312	40.668	-0.087	0.077
-128.297	-200.000	0.051	0.244
-127.283	-27.384	0.155	0.089
-126.268	-200.000	0.030	0.441
-125.253	544.259	0.122	0.289
-124.239	-200.000	0.002	0.563
-123.224	-103.682	-0.139	0.032
-122.210	118.108	-0.086	-0.105
-121.195	-102.325	0.234	-0.055
