DTS Sentinel unit serial number:	SN413079Multiplexer serial number:	ORYXHardware model number:	OX4-SRSoftware version number:	ORYX F/W v4.00 Oryx Data Collector v3.7.2.0data status	okinstallation	princeton_trtdifferential loss correction	single-endedforward channel	channel 2reverse channel	N/Adate	2019/09/19time	04:23:34forward acquisition time	60.00reverse acquisition time	0.00gamma	496.2192k internal	0.2351k external	0.2351temperature offset calibration	1.0018default loss term (dB/km)	0.3790temperature slope calibration	1.0000multiplexer offset coefficient	1.0000multiplexer slope coefficient	1.0000fibre end	0.00T internal ref (°C)	20.19T ext. ref 1 (°C)	0.63T ext. ref 2 (°C)	13.43length (m)	temperature (°C)	Stokes	anti-Stokes-747.200	-200.000	0.006	0.164
-746.185	-94.004	0.233	-0.064
-745.171	745.207	0.058	-0.155
-744.156	-126.568	-0.148	0.022
-743.142	3.022	0.044	0.032
-742.127	800.000	-0.056	-0.181
-741.112	219.494	-0.086	0.137
-740.098	-8.076	-0.147	-0.099
-739.083	42.156	-0.075	-0.068
-738.069	-96.443	-0.147	0.039
-737.054	-200.000	0.018	-0.160
-736.039	-200.000	-0.059	-0.366
-735.025	84.419	-0.064	-0.070
-734.010	-200.000	0.011	-0.256
-732.996	-96.035	-0.061	-0.016
-731.981	397.839	-0.012	0.026
-730.966	31.563	-0.219	-0.188
-729.952	-200.000	-0.015	-0.104
-728.937	181.894	-0.186	0.273
-727.923	-200.000	-0.010	-0.262
-726.908	-94.300	0.155	-0.042
-725.894	20.600	-0.255	0.206
-724.879	-79.219	0.302	-0.102
-723.864	-142.972	0.296	0.029
-722.850	48.802	-0.232	0.217
-721.835	183.783	-0.132	0.195
-720.821	-92.705	-0.201	0.056
-719.806	-66.671	-0.374	-0.148
-718.791	-105.057	0.282	0.064
-717.777	-27.100	0.044	-0.026
-716.762	86.189	-0.092	0.101
-715.748	488.244	-0.064	0.145
-714.733	20.996	0.494	0.400
-713.718	119.487	-0.063	0.078
-712.704	-200.000	0.030	-0.147
-711.689	-76.476	-0.342	0.120
-710.675	270.706	0.053	-0.093
-709.660	57.552	0.110	-0.107
-708.645	-89.354	0.221	0.065
-707.631	206.109	0.156	0.242
-706.616	800.000	-0.080	0.330
-705.602	-73.258	-0.152	-0.055
-704.587	38.076	0.242	0.214
-703.572	146.051	0.082	-0.110
-702.558	800.000	0.144	0.398
-701.543	600.929	-0.057	0.141
-700.529	85.646	0.081	0.089
-699.514	524.963	-0.011	-0.025
-698.499	-38.856	-0.299	0.157
-697.485	737.931	-0.241	0.644
-696.470	183.518	-0.042	-0.062
-695.456	-86.244	0.375	0.115
-694.441	173.023	-0.177	-0.255
-693.426	-199.041	0.362	-0.002
-692.412	336.478	-0.058	-0.113
-691.397	-5.486	-0.035	-0.024
-690.383	148.217	0.183	0.246
-689.368	800.000	0.057	-0.241
-688.354	661.561	0.107	-0.275
-687.339	-27.794	-0.134	-0.078
-686.324	253.307	-0.242	-0.411
-685.310	210.833	-0.089	0.140
-684.295	299.200	0.062	-0.114
-683.281	167.514	-0.075	-0.106
-682.266	-51.056	-0.142	0.066
-681.251	-200.000	-0.022	0.255
-680.237	800.000	0.063	0.196
-679.222	218.500	-0.105	0.167
-678.208	-200.000	0.004	0.243
-677.193	-200.000	0.020	0.091
-676.178	800.000	-0.045	-0.157
-675.164	-26.348	0.242	0.141
-674.149	248.127	0.092	0.154
-673.135	-172.978	-0.141	-0.004
-672.120	235.967	-0.305	-0.502
-671.105	9.641	-0.212	-0.160
-670.091	48.796	0.115	-0.107
-669.076	615.792	0.013	-0.032
-668.062	83.033	0.423	0.458
-667.047	-200.000	0.000	0.141
-666.032	-200.000	0.039	0.198
-665.018	144.180	-0.014	-0.019
-664.003	134.498	0.126	-0.163
-662.989	729.668	-0.092	-0.246
-661.974	-200.000	-0.003	-0.135
-660.959	-128.755	0.103	0.015
-659.945	-71.157	-0.153	0.057
-658.930	389.718	0.055	-0.114
-657.916	-200.000	-0.007	-0.218
-656.901	-21.220	0.125	-0.076
-655.886	336.951	0.062	0.121
-654.872	-100.778	-0.170	-0.042
-653.857	4.308	-0.196	-0.143
-652.843	-126.913	0.097	0.014
-651.828	800.000	0.116	-0.390
-650.814	18.040	-0.104	-0.083
-649.799	-124.673	0.125	-0.019
-648.784	-200.000	-0.009	-0.185
-647.770	-110.683	-0.346	0.071
-646.755	-135.697	0.317	-0.037
-645.741	260.229	-0.053	-0.091
-644.726	800.000	-0.021	0.065
-643.711	-68.585	-0.203	-0.078
-642.697	-111.445	0.150	-0.030
-641.682	130.945	-0.260	-0.332
-640.668	661.771	0.086	-0.221
-639.653	784.368	-0.121	0.329
-638.638	367.746	-0.044	0.088
-637.624	-8.163	-0.079	0.053
-636.609	531.508	-0.006	0.015
-635.595	-200.000	-0.004	-0.422
-634.580	-82.819	0.105	-0.034
-633.565	-106.644	0.051	-0.011
-632.551	15.065	-0.148	0.115
-631.536	-106.105	0.301	-0.067
-630.522	-54.458	-0.032	0.015
-629.507	11.403	0.284	0.216
-628.492	112.017	0.161	0.193
-627.478	-111.164	-0.211	-0.043
-626.463	-24.748	0.337	0.199
-625.449	653.158	0.049	-0.124
-624.434	56.575	0.100	0.097
-623.419	-13.390	0.249	0.161
-622.405	77.445	-0.322	-0.340
-621.390	573.092	0.090	-0.218
-620.376	800.000	-0.044	0.168
-619.361	77.977	-0.198	0.210
-618.346	-200.000	0.007	-0.353
-617.332	800.000	-0.045	0.134
-616.317	-200.000	-0.105	0.577
-615.303	602.045	0.191	0.471
-614.288	63.122	0.076	0.076
-613.273	-106.437	-0.234	0.052
-612.259	233.732	0.163	-0.267
-611.244	-88.640	-0.608	-0.180
-610.230	-200.000	0.019	-0.173
-609.215	-79.016	-0.475	-0.160
-608.201	35.499	0.100	-0.087
-607.186	125.421	-0.313	-0.392
-606.171	617.368	0.183	-0.456
-605.157	478.954	0.073	-0.164
-604.142	-62.561	0.455	-0.187
-603.128	288.239	0.189	-0.340
-602.113	243.019	-0.166	0.275
-601.098	23.129	-0.068	-0.056
-600.084	186.946	-0.167	0.247
-599.069	800.000	0.051	0.211
-598.055	-200.000	-0.008	-0.216
-597.040	603.595	0.056	0.138
-596.025	-200.000	-0.057	0.366
-595.011	41.414	0.082	-0.073
-593.996	597.669	0.036	-0.087
-592.982	267.745	-0.138	-0.240
-591.967	479.425	0.042	0.095
-590.952	-118.126	-0.132	0.023
-589.938	-200.000	-0.051	-0.232
-588.923	-94.229	-0.085	-0.023
-587.909	40.138	-0.017	0.015
-586.894	-200.000	0.022	-0.251
-585.879	-153.726	-0.261	0.018
-584.865	39.342	0.119	0.106
-583.850	-19.607	0.307	-0.188
-582.836	-200.000	0.005	0.085
-581.821	-70.130	-0.400	-0.151
-580.806	31.721	0.107	-0.091
-579.792	217.690	0.017	0.027
-578.777	342.066	-0.083	0.160
-577.763	-110.406	0.113	0.023
-576.748	-17.853	-0.160	0.099
-575.733	-27.336	-0.164	0.095
-574.719	-70.606	-0.274	0.103
-573.704	-200.000	-0.015	0.148
-572.690	325.433	-0.053	0.100
-571.675	-155.836	-0.103	0.006
-570.661	59.846	0.169	-0.165
-569.646	-31.216	-0.133	-0.074
-568.631	21.497	0.185	-0.149
-567.617	-140.483	0.187	-0.019
-566.602	731.573	-0.058	0.154
-565.588	-200.000	-0.009	-0.421
-564.573	94.128	0.156	-0.175
-563.558	-200.000	0.037	-0.172
-562.544	93.690	0.156	-0.175
-561.529	32.780	-0.099	0.085
-560.515	-61.988	-0.302	-0.125
-559.500	800.000	0.067	-0.237
-558.485	-53.523	-0.188	0.085
-557.471	-31.422	0.114	0.064
-556.456	-148.277	-0.196	-0.016
-555.442	-11.366	-0.108	0.071
-554.427	-200.000	0.002	0.225
-553.412	65.245	-0.277	0.277
-552.398	-50.482	0.044	-0.021
-551.383	45.270	-0.064	-0.058
-550.369	-57.506	-0.547	0.238
-549.354	371.024	0.063	0.126
-548.339	278.245	-0.092	-0.162
-547.325	220.045	-0.229	0.364
-546.310	471.205	0.115	-0.256
-545.296	21.549	-0.113	-0.091
-544.281	-78.164	-0.342	-0.117
-543.266	-200.000	-0.022	0.302
-542.252	197.263	-0.058	-0.087
-541.237	800.000	-0.057	0.211
-540.223	-200.000	0.036	-0.156
-539.208	-42.790	-0.222	0.111
-538.193	-117.730	-0.115	-0.020
-537.179	-15.451	0.290	-0.183
-536.164	20.272	0.207	0.166
-535.150	63.774	-0.322	0.320
-534.135	620.333	0.076	0.189
-533.121	-106.549	0.186	-0.041
-532.106	3.648	-0.052	-0.037
-531.091	-117.336	0.076	0.014
-530.077	-157.491	-0.150	0.009
-529.062	800.000	0.073	0.238
-528.048	557.570	-0.127	-0.303
-527.033	-200.000	-0.067	-0.362
-526.018	-200.000	0.000	-0.046
-525.004	800.000	-0.054	0.160
-523.989	-200.000	-0.003	-0.208
-522.975	-200.000	0.018	0.118
-521.960	-200.000	0.377	0.001
-520.945	61.301	0.265	-0.260
-519.931	-200.000	-0.017	0.083
-518.916	800.000	-0.112	0.417
-517.902	140.260	-0.018	-0.024
-516.887	240.945	0.149	-0.246
-515.872	-84.007	-0.065	-0.020
-514.858	-184.070	-0.505	-0.008
-513.843	-10.474	-0.437	0.286
-512.829	-92.578	-0.166	-0.046
-511.814	-200.000	-0.001	-0.077
-510.799	549.197	-0.069	0.163
-509.785	-69.580	0.356	-0.135
-508.770	50.723	-0.213	-0.200
-507.756	243.151	0.126	-0.209
-506.741	137.535	0.122	0.157
-505.726	-200.000	-0.017	-0.263
-504.712	6.816	0.144	0.106
-503.697	76.614	-0.042	0.044
-502.683	324.333	0.181	0.342
-501.668	-54.134	-0.243	-0.109
-500.653	16.025	0.278	-0.216
-499.639	-167.216	-0.218	-0.009
-498.624	-87.145	-0.161	-0.048
-497.610	-43.361	-0.139	-0.070
-496.595	800.000	-0.097	0.279
-495.581	185.680	0.229	-0.336
-494.566	38.840	-0.355	0.313
-493.551	-166.748	0.196	-0.008
-492.537	418.054	0.105	-0.221
-491.522	17.013	0.146	0.114
-490.508	-81.447	0.233	-0.076
-489.493	414.670	-0.141	0.297
-488.478	109.520	-0.120	0.142
-487.464	-76.116	0.441	0.154
-486.449	-39.027	0.079	0.041
-485.435	65.405	-0.112	0.112
-484.420	321.701	-0.123	0.230
-483.405	-59.208	0.229	-0.097
-482.391	187.623	0.084	0.124
-481.376	-150.408	-0.248	0.019
-480.362	-170.215	0.303	-0.011
-479.347	-33.177	-0.288	-0.158
-478.332	18.210	-0.099	0.078
-477.318	-200.000	0.022	0.603
-476.303	800.000	-0.009	0.029
-475.289	422.959	0.139	-0.294
-474.274	-60.336	-0.134	0.056
-473.259	-200.000	0.011	-0.168
-472.245	-131.077	0.208	0.027
-471.230	-39.249	0.118	-0.061
-470.216	-175.699	-0.072	0.002
-469.201	800.000	0.097	0.400
-468.186	245.290	0.123	0.205
-467.172	-200.000	-0.009	0.063
-466.157	-200.000	-0.025	0.393
-465.143	-107.009	0.413	-0.090
-464.128	800.000	0.062	0.195
-463.113	-164.696	0.057	0.003
-462.099	193.752	0.065	0.097
-461.084	-200.000	-0.023	0.125
-460.070	35.297	-0.105	-0.091
-459.055	404.946	-0.080	-0.165
-458.040	800.000	-0.057	-0.213
-457.026	-98.141	-0.259	-0.066
-456.011	-200.000	0.082	-0.407
-454.997	18.937	-0.336	0.266
-453.982	-79.303	0.335	-0.112
-452.968	234.011	-0.161	-0.261
-451.953	430.763	0.142	-0.303
-450.938	115.244	0.170	-0.205
-449.924	761.368	0.065	-0.174
-448.909	800.000	0.018	-0.066
-447.895	800.000	-0.111	-0.303
-446.880	-59.347	-0.051	-0.021
-445.865	332.207	0.073	-0.138
-444.851	-61.908	0.189	0.078
-443.836	47.165	-0.190	0.175
-442.822	324.260	-0.102	-0.191
-441.807	-200.000	-0.014	0.160
-440.792	800.000	0.019	-0.078
-439.778	-200.000	-0.062	-0.270
-438.763	-200.000	0.055	0.416
-437.749	-174.580	-0.154	-0.004
-436.734	200.546	0.148	-0.224
-435.719	-58.511	-0.161	-0.069
-434.705	-181.306	0.274	-0.005
-433.690	-26.486	0.245	-0.142
-432.676	158.958	-0.169	-0.231
-431.661	-57.737	0.168	0.072
-430.646	-83.838	0.049	0.015
-429.632	273.545	0.045	0.079
-428.617	149.012	-0.207	-0.276
-427.603	-38.165	-0.227	0.119
-426.588	138.099	0.104	-0.134
-425.573	-200.000	0.005	0.071
-424.559	800.000	0.020	-0.060
-423.544	-200.000	-0.024	-0.110
-422.530	-162.357	0.306	0.015
-421.515	-149.150	-0.239	-0.019
-420.500	-200.000	-0.023	-0.248
-419.486	99.981	-0.268	-0.306
-418.471	-78.360	0.144	-0.049
-417.457	-71.962	-0.253	0.093
-416.442	-200.000	0.032	-0.371
-415.428	-200.000	0.032	-0.219
-414.413	-200.000	0.024	0.357
-413.398	563.464	-0.063	-0.149
-412.384	2.031	-0.347	-0.247
-411.369	-130.964	-0.356	0.047
-410.355	-19.071	-0.130	-0.079
-409.340	106.955	0.228	-0.267
-408.325	509.852	-0.191	0.437
-407.311	-200.000	0.012	0.164
-406.296	-117.594	0.167	-0.030
-405.282	-200.000	-0.015	0.181
-404.267	-86.415	0.184	-0.056
-403.252	161.819	-0.151	0.208
-402.238	-83.960	0.318	-0.099
-401.223	-7.406	-0.182	-0.121
-400.209	-56.004	0.254	-0.112
-399.194	14.245	-0.207	0.159
-398.179	-9.472	-0.529	0.348
-397.165	800.000	-0.120	0.359
-396.150	-178.940	-0.106	-0.002
-395.136	-67.729	-0.181	-0.070
-394.121	-153.070	-0.347	0.024
-393.106	-79.378	-0.151	-0.050
-392.092	-200.000	-0.026	-0.222
-391.077	139.440	-0.085	-0.111
-390.063	-200.000	-0.402	-0.000
-389.048	81.388	-0.230	0.244
-388.033	800.000	-0.066	0.277
-387.019	-198.191	0.185	-0.001
-386.004	81.291	0.225	0.239
-384.990	-200.000	0.018	0.093
-383.975	217.166	0.125	0.196
-382.960	152.775	0.372	-0.500
-381.946	-17.505	-0.238	0.147
-380.931	-15.152	-0.193	0.122
-379.917	-94.354	0.412	-0.111
-378.902	248.200	0.134	-0.222
-377.888	-200.000	0.080	-0.372
-376.873	-148.269	-0.073	0.006
-375.858	-200.000	-0.054	-0.389
-374.844	-100.042	-0.097	-0.024
-373.829	-18.336	-0.056	-0.035
-372.815	-191.163	-0.392	0.004
-371.800	44.903	0.196	-0.178
-370.785	259.619	0.124	-0.210
-369.771	-200.000	0.016	-0.071
-368.756	800.000	0.078	-0.213
-367.742	-49.910	0.083	0.039
-366.727	-113.304	0.253	-0.049
-365.712	-134.224	-0.555	0.067
-364.698	289.850	-0.122	-0.218
-363.683	52.460	-0.117	-0.110
-362.669	232.499	-0.092	-0.148
-361.654	519.307	0.056	0.129
-360.639	800.000	0.046	0.158
-359.625	52.218	0.307	0.288
-358.610	-39.881	-0.294	0.151
-357.596	-182.464	0.099	0.002
-356.581	-41.946	-0.278	-0.140
-355.566	-200.000	0.015	-0.079
-354.552	-72.852	-0.116	0.042
-353.537	-200.000	0.030	-0.137
-352.523	-200.000	0.027	-0.145
-351.508	151.546	0.169	-0.226
-350.493	-161.714	0.110	-0.006
-349.479	-35.321	0.163	0.087
-348.464	427.562	-0.114	0.241
-347.450	800.000	0.078	0.255
-346.435	366.388	0.044	0.086
-345.420	-134.947	-0.278	-0.033
-344.406	-36.918	-0.161	-0.085
-343.391	-28.940	0.021	-0.012
-342.377	-200.000	-0.008	0.052
-341.362	-131.697	0.217	-0.028
-340.348	-200.000	0.039	-0.293
-339.333	-29.263	0.084	0.047
-338.318	318.347	-0.114	0.212
-337.304	800.000	-0.158	0.441
-336.289	800.000	0.091	0.293
-335.275	65.932	-0.262	0.261
-334.260	128.032	0.120	-0.150
-333.245	-141.671	0.075	-0.007
-332.231	-82.107	0.332	0.106
-331.216	53.719	-0.183	-0.172
-330.202	340.338	0.221	0.424
-329.187	2.350	0.174	0.124
-328.172	176.720	0.101	-0.144
-327.158	48.292	-0.344	-0.316
-326.143	-4.490	0.031	-0.021
-325.129	-157.832	0.270	0.016
-324.114	-200.000	0.048	-0.215
-323.099	545.218	-0.106	0.248
-322.085	-43.262	-0.060	0.030
-321.070	145.640	-0.158	0.208
-320.056	216.171	-0.107	-0.167
-319.041	-200.000	-0.001	-0.153
-318.026	-33.906	-0.178	-0.096
-317.012	-200.000	0.011	0.129
-315.997	410.505	-0.027	-0.056
-314.983	-13.430	-0.104	0.066
-313.968	16.902	-0.126	-0.098
-312.953	800.000	0.117	0.356
-311.939	-27.074	-0.353	-0.202
-310.924	268.465	0.070	0.121
-309.910	-135.772	-0.047	0.005
-308.895	-50.322	0.158	-0.073
-307.880	153.363	0.131	-0.176
-306.866	203.156	-0.028	-0.042
-305.851	-200.000	-0.064	0.550
-304.837	-26.525	0.231	0.133
-303.822	-147.539	-0.259	-0.021
-302.807	114.022	0.147	-0.176
-301.793	-63.975	-0.173	0.069
-300.778	-200.000	-0.055	-0.326
-299.764	293.155	0.143	0.256
-298.749	-110.547	-0.046	0.009
-297.735	-38.139	0.121	-0.063
-296.720	-102.200	0.452	-0.106
-295.705	246.180	-0.131	-0.216
-294.691	168.328	-0.144	0.202
-293.676	-180.627	0.102	0.002
-292.662	-200.000	0.014	-0.204
-291.647	106.474	0.053	-0.062
-290.632	-120.161	0.132	-0.022
-289.618	-200.000	0.007	0.046
-288.603	488.431	-0.022	0.049
-287.589	4.552	-0.129	0.093
-286.574	648.338	0.198	-0.497
-285.559	-200.000	-0.005	0.033
-284.545	63.088	-0.165	0.162
-283.530	116.267	0.125	-0.150
-282.516	-132.427	-0.287	0.036
-281.501	518.712	0.045	0.102
-280.486	5.097	0.115	0.083
-279.472	-49.649	-0.171	-0.080
-278.457	201.924	0.027	0.041
-277.443	800.000	0.042	0.152
-276.428	648.867	-0.091	0.227
-275.413	9.357	0.184	-0.136
-274.399	-47.079	0.328	0.157
-273.384	-141.675	-0.352	0.035
-272.370	75.010	-0.216	0.223
-271.355	-96.121	-0.074	-0.019
-270.340	-200.000	-0.031	0.176
-269.326	-200.000	0.043	0.228
-268.311	23.709	-0.078	0.063
-267.297	-55.470	0.135	-0.059
-266.282	-92.999	0.098	0.027
-265.267	-142.646	0.107	0.010
-264.253	52.153	-0.155	-0.145
-263.238	800.000	-0.056	0.206
-262.224	-2.970	0.186	-0.127
-261.209	800.000	0.039	-0.166
-260.195	-74.378	-0.121	-0.043
-259.180	181.500	0.017	0.024
-258.165	-45.804	0.159	0.077
-257.151	64.694	-0.136	0.134
-256.136	687.299	-0.065	0.166
-255.122	-65.826	0.211	-0.083
-254.107	-119.924	0.112	0.019
-253.092	-61.932	0.069	-0.028
-252.078	78.747	0.096	-0.101
-251.063	-200.000	0.033	-0.142
-250.049	209.088	-0.101	-0.155
-249.034	73.690	0.333	0.342
-248.019	-80.693	0.261	-0.085
-247.005	-125.096	0.103	-0.015
-245.990	800.000	0.040	0.148
-244.976	-12.122	0.110	0.070
-243.961	800.000	-0.112	0.472
-242.946	-33.419	-0.136	0.074
-241.932	142.618	-0.120	0.156
-240.917	-31.525	0.260	-0.143
-239.903	800.000	-0.087	0.290
-238.888	786.702	0.024	0.063
-237.873	56.094	-0.199	-0.189
-236.859	-52.110	-0.095	0.043
-235.844	800.000	0.028	0.087
-234.830	-118.477	-0.193	0.033
-233.815	494.223	-0.059	-0.132
-232.800	-200.000	-0.038	-0.183
-231.786	27.484	0.047	0.039
-230.771	800.000	-0.084	-0.264
-229.757	-200.000	-0.026	-0.131
-228.742	-171.599	-0.184	-0.006
-227.727	127.869	0.154	0.192
-226.713	-33.117	-0.283	0.153
-225.698	-200.000	0.035	0.159
-224.684	100.486	0.110	-0.125
-223.669	720.973	0.057	0.148
-222.655	-24.676	0.339	-0.197
-221.640	-92.636	-0.273	0.075
-220.625	67.350	0.310	-0.309
-219.611	-66.545	0.084	-0.032
-218.596	182.760	0.152	0.219
-217.582	183.969	-0.268	-0.387
-216.567	2.869	-0.136	0.097
-215.552	85.389	0.156	0.167
-214.538	-80.132	0.103	0.034
-213.523	-200.000	-0.034	0.173
-212.509	-200.000	-0.010	-0.047
-211.494	-101.043	-0.133	0.032
-210.479	-108.429	0.075	0.016
-209.465	95.576	0.222	-0.247
-208.450	-73.520	-0.370	0.132
-207.436	417.010	0.064	-0.133
-206.421	-200.000	0.046	-0.204
-205.406	-100.088	0.392	0.095
-204.392	-16.015	-0.026	0.016
-203.377	306.504	0.193	0.350
-202.363	-81.475	0.163	-0.052
-201.348	189.860	0.076	-0.112
-200.333	303.069	0.162	-0.294
-199.319	76.175	0.169	0.175
-198.304	22.615	-0.296	0.237
-197.290	211.429	-0.103	0.159
-196.275	-29.935	0.261	-0.145
-195.260	592.437	-0.116	0.280
-194.246	-167.878	0.155	-0.006
-193.231	248.639	0.230	-0.381
-192.217	308.780	-0.035	-0.064
-191.202	-200.000	0.058	0.318
-190.187	-200.000	-0.048	0.398
-189.173	-200.000	-0.044	0.275
-188.158	-30.410	0.029	0.016
-187.144	30.694	-0.123	-0.103
-186.129	334.791	-0.077	-0.145
-185.114	112.615	0.117	0.139
-184.100	-200.000	0.012	0.439
-183.085	101.309	-0.197	0.224
-182.071	13.817	0.276	-0.210
-181.056	147.625	-0.007	-0.009
-180.042	-13.129	0.236	0.150
-179.027	-80.479	0.064	0.021
-178.012	800.000	0.093	0.321
-176.998	-132.913	-0.055	-0.007
-175.983	800.000	-0.100	-0.362
-174.969	85.135	0.050	0.053
-173.954	-200.000	-0.043	0.299
-172.939	-113.674	0.296	0.056
-171.925	800.000	-0.093	-0.303
-170.910	103.290	-0.070	-0.081
-169.896	-39.185	0.286	-0.147
-168.881	800.000	0.017	0.057
-167.866	83.942	0.130	0.139
-166.852	122.442	0.171	0.208
-165.837	-25.999	-0.175	-0.101
-164.823	-134.683	0.139	-0.016
-163.808	43.376	-0.020	0.018
-162.793	-116.130	0.164	-0.030
-161.779	593.684	0.116	0.280
-160.764	82.505	0.311	-0.330
-159.750	-145.365	0.204	0.018
-158.735	-139.964	0.451	-0.046
-157.720	-142.609	0.107	-0.010
-156.706	-91.032	-0.241	-0.068
-155.691	-135.323	0.353	0.041
-154.677	-200.000	-0.012	0.071
-153.662	-54.928	0.263	-0.116
-152.647	-77.694	0.203	-0.068
-151.633	290.947	0.217	-0.385
-150.618	-102.406	-0.095	-0.022
-149.604	800.000	-0.021	-0.091
-148.589	-54.939	-0.151	0.066
-147.574	-200.000	0.047	0.208
-146.560	-95.051	0.167	0.044
-145.545	756.320	0.129	-0.341
-144.531	800.000	-0.094	-0.348
-143.516	-200.000	0.068	0.614
-142.502	-60.601	-0.412	0.170
-141.487	-170.143	0.237	-0.008
-140.472	99.129	0.091	0.103
-139.458	157.168	0.268	0.362
-138.443	-200.000	-0.024	0.384
-137.429	-65.600	-0.100	-0.039
-136.414	-200.000	-0.006	-0.147
-135.399	-11.756	0.107	-0.069
-134.385	336.298	-0.102	0.193
-133.370	37.829	0.124	-0.107
-132.356	312.887	0.093	0.171
-131.341	387.541	-0.097	0.195
-130.326	632.708	0.120	0.297
-129.312	-133.330	0.025	0.003
-128.297	-200.000	-0.024	0.183
-127.283	-200.000	0.011	0.184
-126.268	-7.204	0.128	-0.084
-125.253	800.000	0.067	-0.250
-124.239	7.592	-0.254	0.185
-123.224	77.758	0.262	0.272
-122.210	1.570	0.369	0.259
-121.195	8.449	-0.344	0.252
