DTS Sentinel unit serial number:	SN413079Multiplexer serial number:	ORYXHardware model number:	OX4-SRSoftware version number:	ORYX F/W v4.00 Oryx Data Collector v3.7.2.0data status	okinstallation	princeton_trtdifferential loss correction	single-endedforward channel	channel 2reverse channel	N/Adate	2019/09/12time	23:47:34forward acquisition time	60.00reverse acquisition time	0.00gamma	496.2192k internal	0.2332k external	0.2332temperature offset calibration	1.0175default loss term (dB/km)	0.3790temperature slope calibration	1.0000multiplexer offset coefficient	1.0000multiplexer slope coefficient	1.0000fibre end	0.00T internal ref (°C)	28.80T ext. ref 1 (°C)	3.78T ext. ref 2 (°C)	23.54length (m)	temperature (°C)	Stokes	anti-Stokes-747.200	271.731	-0.064	0.113
-746.185	103.278	0.226	0.267
-745.171	144.577	0.170	-0.229
-744.156	-128.365	-0.077	-0.011
-743.142	-82.654	-0.156	0.051
-742.127	181.281	0.073	0.108
-741.112	53.312	-0.059	-0.057
-740.098	218.076	-0.198	0.318
-739.083	-167.196	0.274	0.011
-738.069	800.000	-0.068	0.264
-737.054	723.982	0.137	0.367
-736.039	-174.378	-0.347	0.010
-735.025	-169.029	-0.165	-0.006
-734.010	800.000	-0.044	0.185
-732.996	40.370	0.099	-0.090
-731.981	-81.793	-0.072	-0.024
-730.966	92.566	0.095	0.108
-729.952	800.000	0.030	-0.116
-728.937	207.452	-0.107	0.167
-727.923	231.386	0.145	-0.239
-726.908	800.000	0.056	-0.228
-725.894	-200.000	-0.288	-0.000
-724.879	-65.959	-0.074	0.030
-723.864	-92.915	0.132	-0.037
-722.850	20.118	-0.137	-0.111
-721.835	-95.651	-0.081	-0.022
-720.821	-46.459	0.120	-0.059
-719.806	-90.101	-0.237	0.069
-718.791	175.148	-0.239	0.348
-717.777	26.407	-0.172	-0.145
-716.762	-55.844	-0.279	-0.125
-715.748	-94.822	0.318	0.087
-714.733	-200.000	-0.006	-0.057
-713.718	-97.914	0.043	-0.011
-712.704	-105.456	0.097	-0.022
-711.689	-200.000	-0.042	-0.190
-710.675	-146.363	-0.182	-0.016
-709.660	268.550	0.186	0.328
-708.645	159.873	-0.081	0.113
-707.631	-80.253	0.196	-0.066
-706.616	241.814	0.087	-0.145
-705.602	-187.718	0.088	0.001
-704.587	328.264	0.109	0.210
-703.572	-156.379	0.479	0.030
-702.558	-182.540	-0.100	0.002
-701.543	747.146	0.130	-0.351
-700.529	510.909	-0.079	-0.184
-699.514	-200.000	0.005	0.198
-698.499	-79.361	0.279	0.095
-697.485	103.048	-0.285	0.335
-696.470	800.000	0.027	-0.111
-695.456	-92.296	0.193	0.055
-694.441	-130.516	-0.246	-0.033
-693.426	-68.508	0.223	-0.087
-692.412	-16.245	-0.137	0.087
-691.397	-5.454	-0.106	-0.073
-690.383	-200.000	-0.028	0.212
-689.368	-81.419	-0.316	-0.104
-688.354	-200.000	-0.021	-0.202
-687.339	-149.940	-0.369	0.029
-686.324	800.000	0.079	-0.222
-685.310	-103.645	0.146	0.034
-684.295	142.479	0.193	-0.258
-683.281	362.775	0.005	-0.010
-682.266	2.753	-0.143	0.104
-681.251	-112.261	0.147	-0.030
-680.237	-200.000	0.025	0.439
-679.222	-72.123	-0.161	-0.060
-678.208	381.304	-0.076	0.156
-677.193	342.294	0.047	0.093
-676.178	462.273	0.049	0.110
-675.164	-15.181	-0.266	-0.171
-674.149	-127.227	-0.133	-0.020
-673.135	-102.398	-0.046	0.011
-672.120	-167.583	0.157	0.006
-671.105	-105.944	-0.045	0.010
-670.091	-100.187	0.242	0.060
-669.076	-16.735	-0.184	0.117
-668.062	-58.945	0.068	0.030
-667.047	-116.729	-0.196	0.036
-666.032	-150.986	-0.166	-0.013
-665.018	15.513	0.031	0.025
-664.003	-19.679	-0.196	-0.122
-662.989	191.064	-0.111	-0.167
-661.974	-79.263	0.030	-0.010
-660.959	-158.848	0.347	0.020
-659.945	-27.124	-0.277	-0.162
-658.930	800.000	-0.102	-0.297
-657.916	-60.756	0.096	-0.041
-656.901	-100.684	0.359	0.089
-655.886	284.140	-0.152	0.274
-654.872	800.000	0.111	-0.313
-653.857	497.773	-0.108	-0.249
-652.843	161.764	-0.274	-0.384
-651.828	-200.000	0.032	0.282
-650.814	97.513	-0.016	0.019
-649.799	-169.783	-0.015	-0.001
-648.784	-2.107	-0.225	0.158
-647.770	113.973	0.189	0.230
-646.755	-8.714	0.086	0.058
-645.741	800.000	-0.073	-0.224
-644.726	800.000	-0.009	0.030
-643.711	-200.000	0.035	-0.268
-642.697	-26.982	-0.098	0.058
-641.682	800.000	0.046	-0.145
-640.668	48.999	0.289	-0.272
-639.653	633.309	-0.037	-0.094
-638.638	-200.000	0.014	-0.078
-637.624	-41.638	-0.255	-0.131
-636.609	-145.117	-0.193	-0.018
-635.595	-32.355	-0.172	0.096
-634.580	-101.380	0.245	0.060
-633.565	-200.000	-0.036	0.276
-632.551	233.112	0.039	-0.064
-631.536	180.323	0.047	0.068
-630.522	253.021	-0.088	-0.150
-629.507	800.000	-0.041	0.148
-628.492	236.633	-0.122	0.202
-627.478	-60.100	0.267	0.114
-626.463	404.294	0.034	0.072
-625.449	105.356	0.085	-0.100
-624.434	28.606	-0.164	0.139
-623.419	148.247	-0.097	-0.131
-622.405	-21.658	-0.387	-0.236
-621.390	-200.000	0.022	-0.152
-620.376	5.489	0.165	-0.122
-619.361	-136.964	-0.211	0.024
-618.346	69.342	0.081	-0.083
-617.332	-200.000	0.004	-0.049
-616.317	800.000	0.033	-0.095
-615.303	-200.000	-0.014	-0.067
-614.288	13.661	-0.095	0.074
-613.273	-160.361	-0.265	0.014
-612.259	-75.029	0.332	-0.119
-611.244	-78.664	0.296	0.101
-610.230	-39.487	0.108	-0.057
-609.215	262.479	0.074	0.128
-608.201	123.794	0.109	-0.137
-607.186	7.175	-0.167	-0.125
-606.171	-11.648	-0.120	0.079
-605.157	220.536	-0.191	0.306
-604.142	448.721	0.124	0.272
-603.128	-167.287	-0.241	-0.010
-602.113	452.247	-0.113	-0.251
-601.098	207.209	-0.328	-0.512
-600.084	276.095	-0.145	-0.257
-599.069	24.975	0.259	-0.215
-598.055	-55.651	-0.120	-0.054
-597.040	697.815	0.045	0.117
-596.025	-65.795	-0.053	-0.021
-595.011	61.851	0.291	-0.290
-593.996	139.596	0.041	-0.054
-592.982	-73.065	0.044	0.016
-591.967	384.457	0.105	-0.216
-590.952	-156.821	-0.120	-0.007
-589.938	57.757	-0.251	0.245
-588.923	150.752	0.207	0.282
-587.909	92.807	0.153	0.173
-586.894	-54.530	0.131	0.059
-585.879	-117.135	-0.165	0.030
-584.865	-80.372	-0.269	-0.090
-583.850	-200.000	0.034	0.177
-582.836	638.092	-0.062	0.157
-581.821	-50.399	0.105	-0.049
-580.806	-61.997	-0.241	-0.101
-579.792	0.263	-0.057	0.040
-578.777	111.098	0.206	-0.248
-577.763	-200.000	-0.074	-0.423
-576.748	16.411	0.113	-0.090
-575.733	155.266	-0.205	0.282
-574.719	-55.415	-0.245	-0.110
-573.704	568.794	-0.113	-0.276
-572.690	223.144	-0.114	-0.184
-571.675	-25.871	0.153	0.090
-570.661	800.000	-0.021	0.074
-569.646	125.681	0.062	0.078
-568.631	41.315	0.018	-0.016
-567.617	-200.000	0.026	-0.244
-566.602	51.266	0.262	0.249
-565.588	-200.000	-0.061	0.314
-564.573	-112.199	-0.237	-0.048
-563.558	800.000	-0.042	-0.142
-562.544	-190.369	0.222	0.002
-561.529	-119.366	-0.130	-0.023
-560.515	-174.393	0.230	-0.007
-559.500	155.385	-0.229	-0.315
-558.485	-2.046	0.038	0.027
-557.471	22.546	-0.104	0.085
-556.456	-73.206	0.261	0.095
-555.442	23.622	0.137	0.112
-554.427	800.000	-0.128	0.423
-553.412	-13.143	0.050	0.033
-552.398	800.000	0.028	-0.082
-551.383	-81.019	0.309	0.102
-550.369	-171.321	0.207	-0.007
-549.354	800.000	0.109	0.438
-548.339	51.693	0.304	0.288
-547.325	-183.169	0.100	0.002
-546.310	-172.170	-0.265	0.009
-545.296	-200.000	0.030	-0.147
-544.281	191.522	-0.020	0.029
-543.266	393.402	0.149	-0.310
-542.252	-30.062	-0.161	-0.091
-541.237	800.000	0.092	-0.299
-540.223	-200.000	0.043	0.217
-539.208	-35.303	-0.376	-0.204
-538.193	-38.104	0.143	0.076
-537.179	405.574	0.004	-0.007
-536.164	468.399	0.123	-0.276
-535.150	800.000	-0.061	-0.247
-534.135	-109.661	0.112	-0.024
-533.121	74.693	-0.199	0.209
-532.106	-200.000	-0.024	0.290
-531.091	-200.000	-0.007	-0.163
-530.077	-200.000	-0.055	0.310
-529.062	-8.667	-0.181	0.121
-528.048	11.520	-0.148	0.113
-527.033	-200.000	0.051	0.273
-526.018	-200.000	0.024	-0.229
-525.004	24.404	-0.101	-0.083
-523.989	-114.202	-0.233	0.045
-522.975	-19.901	-0.189	0.116
-521.960	-143.925	0.286	0.027
-520.945	-51.463	0.132	-0.061
-519.931	-200.000	-0.055	-0.376
-518.916	-14.456	0.251	-0.161
-517.902	484.085	0.088	0.200
-516.887	-200.000	0.004	-0.301
-515.872	800.000	-0.048	-0.149
-514.858	-85.596	-0.069	-0.021
-513.843	-54.291	-0.213	-0.096
-512.829	105.906	-0.218	-0.257
-511.814	-42.434	-0.207	-0.105
-510.799	193.333	0.118	-0.177
-509.785	-200.000	0.017	-0.289
-508.770	315.591	-0.048	-0.091
-507.756	82.934	-0.243	0.263
-506.741	525.643	0.068	0.159
-505.726	-200.000	0.007	0.087
-504.712	234.882	-0.069	0.113
-503.697	-80.381	-0.269	-0.090
-502.683	-200.000	0.002	-0.095
-501.668	800.000	0.055	-0.211
-500.653	-200.000	0.020	-0.159
-499.639	606.691	-0.041	0.102
-498.624	-55.687	-0.252	-0.112
-497.610	476.665	0.056	-0.127
-496.595	673.794	0.010	-0.025
-495.581	-200.000	0.014	-0.201
-494.566	126.697	-0.015	-0.019
-493.551	136.582	0.213	-0.277
-492.537	-39.468	0.106	-0.055
-491.522	-200.000	-0.023	0.258
-490.508	-152.954	-0.257	0.018
-489.493	610.216	-0.045	0.111
-488.478	595.781	-0.153	0.378
-487.464	238.460	-0.099	-0.163
-486.449	-84.875	0.282	0.088
-485.435	-200.000	0.050	-0.221
-484.420	118.448	0.237	0.291
-483.405	633.685	0.155	0.392
-482.391	44.005	-0.128	0.117
-481.376	-200.000	0.057	-0.470
-480.362	-111.183	-0.084	-0.017
-479.347	-138.976	0.053	0.006
-478.332	33.855	-0.091	0.079
-477.318	-143.060	-0.079	0.008
-476.303	57.586	0.164	0.159
-475.289	611.579	0.017	0.042
-474.274	-74.986	-0.112	-0.040
-473.259	-109.149	-0.035	0.007
-472.245	224.266	0.125	-0.201
-471.230	424.127	0.120	0.256
-470.216	-200.000	0.015	-0.191
-469.201	-143.613	0.139	0.013
-468.186	-61.127	0.144	-0.060
-467.172	-76.305	0.233	-0.082
-466.157	-75.537	0.323	-0.114
-465.143	-186.171	0.058	-0.001
-464.128	5.310	0.091	0.067
-463.113	16.634	0.303	0.239
-462.099	-200.000	0.011	0.186
-461.084	-92.834	-0.185	0.052
-460.070	-103.747	0.288	0.067
-459.055	-200.000	0.325	-0.001
-458.040	144.653	-0.047	0.063
-457.026	-200.000	-0.008	0.044
-456.011	-53.982	-0.087	0.040
-454.997	-80.357	-0.178	0.059
-453.982	800.000	0.071	0.200
-452.968	-200.000	-0.051	-0.290
-451.953	213.578	0.105	-0.165
-450.938	78.089	-0.181	0.192
-449.924	530.833	0.074	-0.175
-448.909	-200.000	-0.044	-0.231
-447.895	262.537	-0.154	0.266
-446.880	-200.000	0.004	-0.087
-445.865	-37.362	-0.246	-0.131
-444.851	22.978	-0.199	-0.163
-443.836	-68.262	-0.127	0.049
-442.822	226.500	0.209	-0.338
-441.807	800.000	0.014	0.060
-440.792	205.010	0.110	0.170
-439.778	-71.674	-0.094	-0.035
-438.763	381.878	-0.073	0.148
-437.749	-200.000	-0.044	0.251
-436.734	-101.631	0.027	-0.007
-435.719	-34.094	-0.140	0.076
-434.705	60.180	-0.082	0.081
-433.690	252.721	0.039	0.067
-432.676	116.199	0.131	0.160
-431.661	716.236	0.116	0.305
-430.646	-111.572	-0.272	-0.055
-429.632	517.842	0.060	0.140
-428.617	36.667	-0.076	0.066
-427.603	-200.000	0.012	0.125
-426.588	177.177	0.217	0.314
-425.573	162.037	0.094	-0.131
-424.559	149.359	0.170	-0.228
-423.544	-12.283	0.194	0.126
-422.530	-193.443	-0.114	-0.001
-421.515	-200.000	-0.043	-0.271
-420.500	-90.725	0.395	-0.113
-419.486	-59.777	0.279	-0.119
-418.471	-112.896	-0.229	0.045
-417.457	-53.240	0.071	0.032
-416.442	-57.321	-0.322	0.141
-415.428	-166.253	-0.134	0.006
-414.413	-200.000	-0.017	-0.106
-413.398	800.000	-0.087	-0.314
-412.384	73.063	0.183	-0.190
-411.369	676.834	-0.054	0.140
-410.355	127.017	-0.040	0.051
-409.340	-200.000	-0.044	0.373
-408.325	800.000	-0.073	0.301
-407.311	-67.389	0.324	-0.126
-406.296	388.658	0.123	-0.252
-405.282	90.427	0.087	0.097
-404.267	15.049	-0.303	-0.235
-403.252	-52.053	0.230	0.106
-402.238	-21.413	0.206	-0.125
-401.223	-71.978	-0.343	0.127
-400.209	800.000	0.097	-0.365
-399.194	283.317	-0.188	0.335
-398.179	133.861	-0.114	-0.146
-397.165	-37.302	0.149	0.079
-396.150	-56.370	0.194	0.086
-395.136	-92.268	-0.176	-0.049
-394.121	-14.198	-0.176	-0.113
-393.106	-200.000	0.044	-0.271
-392.092	-123.495	0.302	0.048
-391.077	-200.000	-0.005	0.158
-390.063	-67.153	0.379	-0.148
-389.048	-177.290	-0.114	0.003
-388.033	-200.000	-0.018	0.216
-387.019	-197.326	-0.138	0.001
-386.004	-59.380	-0.215	-0.092
-384.990	-200.000	-0.019	0.100
-383.975	286.772	0.129	0.231
-382.960	-105.565	0.168	-0.038
-381.946	-200.000	-0.063	-0.366
-380.931	-59.968	-0.164	-0.070
-379.917	-90.552	-0.306	0.088
-378.902	382.356	0.040	0.081
-377.888	87.225	0.139	-0.153
-376.873	278.730	-0.123	-0.218
-375.858	382.907	0.116	-0.236
-374.844	800.000	0.059	-0.193
-373.829	72.575	0.107	-0.111
-372.815	800.000	0.032	-0.136
-371.800	-200.000	-0.023	-0.133
-370.785	-200.000	0.022	0.264
-369.771	-85.274	0.087	0.027
-368.756	86.712	0.105	-0.115
-367.742	-3.688	0.388	0.267
-366.727	-96.535	0.188	0.049
-365.712	800.000	0.062	-0.195
-364.698	-130.249	-0.279	0.038
-363.683	-184.709	-0.246	0.004
-362.669	-66.995	-0.141	0.055
-361.654	100.144	0.027	-0.032
-360.639	-200.000	0.014	-0.109
-359.625	-19.364	-0.455	0.280
-358.610	-161.489	0.114	-0.006
-357.596	800.000	-0.084	0.231
-356.581	-39.596	-0.088	-0.046
-355.566	8.547	0.109	0.082
-354.552	-73.595	-0.260	-0.094
-353.537	-112.812	0.114	0.022
-352.523	40.173	-0.121	-0.108
-351.508	-130.512	0.322	0.043
-350.493	-122.232	0.227	-0.037
-349.479	-200.000	-0.030	-0.197
-348.464	37.352	0.130	0.114
-347.450	240.615	0.155	0.255
-346.435	-200.000	-0.038	0.397
-345.420	-200.000	-0.030	-0.211
-344.406	-92.743	0.471	-0.131
-343.391	182.324	-0.069	-0.101
-342.377	148.774	0.138	0.184
-341.362	0.219	-0.145	0.102
-340.348	78.921	0.010	0.011
-339.333	232.274	0.113	-0.183
-338.318	800.000	-0.026	-0.106
-337.304	-168.735	0.292	-0.011
-336.289	266.266	0.261	0.452
-335.275	-200.000	-0.023	-0.198
-334.260	228.841	-0.045	-0.073
-333.245	39.044	0.272	0.240
-332.231	-178.834	-0.390	-0.009
-331.216	289.407	0.134	-0.241
-330.202	66.301	0.093	-0.094
-329.187	191.575	0.060	0.089
-328.172	522.009	0.061	0.141
-327.158	-161.427	-0.326	0.017
-326.143	-13.596	0.202	-0.129
-325.129	-200.000	-0.043	0.241
-324.114	-71.635	0.222	0.082
-323.099	-40.816	0.347	-0.178
-322.085	-147.804	-0.296	-0.024
-321.070	-116.837	0.127	0.023
-320.056	-200.000	-0.181	0.000
-319.041	-200.000	-0.026	-0.142
-318.026	-200.000	-0.053	0.246
-317.012	-200.000	-0.002	0.265
-315.997	-114.508	-0.227	-0.043
-314.983	-107.405	-0.384	-0.083
-313.968	-1.569	-0.094	0.066
-312.953	-14.739	0.176	0.112
-311.939	422.145	-0.107	0.227
-310.924	34.540	-0.126	0.109
-309.910	-200.000	-0.066	0.409
-308.895	-47.191	-0.199	0.096
-307.880	125.681	0.157	0.197
-306.866	694.876	0.040	0.104
-305.851	130.907	0.138	0.176
-304.837	-104.315	0.229	-0.053
-303.822	800.000	0.054	-0.201
-302.807	152.439	0.166	0.224
-301.793	-200.000	-0.019	-0.250
-300.778	53.893	-0.336	-0.319
-299.764	340.236	0.180	-0.348
-298.749	720.567	0.080	-0.211
-297.735	249.682	0.042	0.070
-296.720	0.374	-0.076	-0.053
-295.705	125.393	0.234	-0.292
-294.691	-98.861	0.102	0.026
-293.676	445.756	-0.117	-0.253
-292.662	552.200	0.101	-0.241
-291.647	-68.702	-0.173	0.066
-290.632	82.587	-0.058	-0.062
-289.618	800.000	0.107	-0.360
-288.603	-105.623	-0.363	-0.081
-287.589	311.114	-0.078	-0.145
-286.574	-200.000	0.031	0.167
-285.559	-137.014	0.332	-0.038
-284.545	463.228	-0.089	-0.196
-283.530	-16.966	-0.249	0.155
-282.516	-64.602	0.250	-0.100
-281.501	0.012	0.249	0.175
-280.486	-200.000	-0.018	0.226
-279.472	788.614	0.062	0.167
-278.457	727.788	-0.100	-0.263
-277.443	90.752	-0.170	0.189
-276.428	-80.515	-0.446	0.147
-275.413	27.274	-0.366	0.304
-274.399	-28.518	0.054	-0.031
-273.384	-200.000	0.026	0.136
-272.370	800.000	0.118	0.374
-271.355	-13.814	0.207	-0.132
-270.340	189.624	-0.204	0.302
-269.326	-114.126	-0.129	-0.025
-268.311	90.973	0.359	-0.397
-267.297	24.141	0.208	0.170
-266.282	800.000	-0.056	0.216
-265.267	751.455	0.039	-0.103
-264.253	-93.498	0.140	0.038
-263.238	-200.000	-0.029	-0.333
-262.224	-15.675	-0.269	-0.169
-261.209	-28.957	0.310	-0.176
-260.195	289.428	0.031	-0.055
-259.180	-42.835	0.176	-0.088
-258.165	93.472	-0.182	0.203
-257.151	-124.994	0.196	0.030
-256.136	-200.000	0.006	0.068
-255.122	-200.000	-0.021	-0.136
-254.107	-81.348	-0.147	0.048
-253.092	304.528	0.171	0.312
-252.078	671.993	-0.088	0.224
-251.063	1.807	0.147	-0.105
-250.049	112.618	-0.082	-0.098
-249.034	-200.000	0.010	0.078
-248.019	-77.877	-0.138	0.047
-247.005	-200.000	0.010	0.243
-245.990	800.000	-0.166	0.572
-244.976	800.000	0.005	0.014
-243.961	29.904	0.071	0.060
-242.946	55.692	0.301	0.288
-241.932	800.000	-0.119	0.439
-240.917	95.722	0.116	0.130
-239.903	210.160	0.199	0.309
-238.888	800.000	-0.019	0.052
-237.873	800.000	0.044	-0.131
-236.859	-137.918	-0.131	-0.014
-235.844	-16.768	-0.124	-0.078
-234.830	-179.762	0.238	-0.005
-233.815	564.069	0.039	-0.094
-232.800	-167.118	-0.240	0.010
-231.786	800.000	0.019	-0.068
-230.771	-168.284	0.344	-0.013
-229.757	215.028	0.061	-0.096
-228.742	233.644	-0.141	-0.230
-227.727	-83.944	0.050	-0.016
-226.713	85.701	-0.050	-0.054
-225.698	-96.726	-0.348	-0.090
-224.684	543.537	-0.017	0.039
-223.669	446.037	-0.161	0.349
-222.655	240.096	0.062	0.102
-221.640	-47.214	0.144	0.069
-220.625	-200.000	-0.014	0.089
-219.611	800.000	0.093	-0.279
-218.596	-84.131	-0.347	0.108
-217.582	-84.656	0.026	-0.008
-216.567	-56.292	-0.125	-0.055
-215.552	-200.000	-0.048	0.286
-214.538	-200.000	-0.045	-0.211
-213.523	-101.288	0.147	-0.035
-212.509	-168.255	-0.260	0.010
-211.494	4.541	-0.270	0.195
-210.479	46.534	0.189	-0.173
-209.465	-19.269	-0.210	0.128
-208.450	4.592	0.081	0.059
-207.436	-200.000	0.011	-0.160
-206.421	-73.895	-0.096	0.034
-205.406	167.985	-0.159	-0.223
-204.392	800.000	0.038	0.129
-203.377	196.522	0.054	-0.081
-202.363	1.306	0.238	0.168
-201.348	800.000	-0.006	0.017
-200.333	172.892	0.020	0.028
-199.319	-147.607	0.178	0.015
-198.304	-47.478	-0.206	0.099
-197.290	-114.561	-0.110	-0.021
-196.275	-124.780	-0.369	0.056
-195.260	62.476	0.123	0.121
-194.246	102.651	0.156	0.180
-193.231	-125.725	-0.232	-0.035
-192.217	-200.000	0.002	0.177
-191.202	120.502	-0.021	0.026
-190.187	-138.475	-0.360	0.039
-189.173	-103.005	-0.341	-0.080
-188.158	-128.130	-0.244	0.034
-187.144	-76.826	0.129	-0.045
-186.129	412.282	0.030	-0.063
-185.114	-119.591	0.203	0.035
-184.100	43.711	-0.100	-0.090
-183.085	501.315	0.114	-0.258
-182.071	-101.330	0.114	0.027
-181.056	-200.000	0.013	0.259
-180.042	210.399	-0.173	-0.267
-179.027	-200.000	-0.045	-0.223
-178.012	-124.695	-0.265	-0.040
-176.998	-121.370	0.263	0.043
-175.983	8.145	-0.159	-0.117
-174.969	-178.241	-0.163	0.004
-173.954	-200.000	0.012	-0.213
-172.939	800.000	0.009	0.034
-171.925	-120.250	0.146	0.024
-170.910	-20.269	0.134	0.081
-169.896	741.375	-0.045	-0.118
-168.881	-159.258	0.088	-0.005
-167.866	-46.997	0.110	0.053
-166.852	-126.366	0.132	0.019
-165.837	6.816	0.073	0.054
-164.823	-200.000	-0.010	0.235
-163.808	17.006	0.094	0.073
-162.793	212.405	0.083	0.129
-161.779	-57.635	0.198	0.085
-160.764	14.060	-0.097	0.074
-159.750	436.621	-0.156	-0.335
-158.735	-200.000	0.010	0.046
-157.720	15.360	-0.174	-0.134
-156.706	167.228	-0.168	-0.234
-155.691	-1.940	-0.192	-0.133
-154.677	-200.000	-0.064	0.521
-153.662	-169.782	0.315	-0.011
-152.647	461.587	0.115	-0.252
-151.633	-200.000	0.021	-0.413
-150.618	-48.515	-0.185	-0.087
-149.604	-99.964	0.342	-0.084
-148.589	25.978	0.292	0.240
-147.574	-29.775	-0.166	0.093
-146.560	2.214	-0.416	0.296
-145.545	15.900	0.469	-0.363
-144.531	-63.443	-0.361	-0.146
-143.516	-93.156	0.261	0.071
-142.502	-8.297	-0.116	-0.076
-141.487	104.556	-0.120	0.138
-140.472	19.552	-0.196	-0.155
-139.458	64.481	0.266	0.264
-138.443	327.936	-0.122	0.230
-137.429	87.238	0.241	0.262
-136.414	-89.197	-0.048	0.014
-135.399	171.649	-0.126	0.177
-134.385	277.371	0.202	-0.353
-133.370	-200.000	-0.065	-0.370
-132.356	64.818	0.107	-0.106
-131.341	153.304	0.143	0.192
-130.326	-109.571	0.199	-0.041
-129.312	52.099	-0.079	0.074
-128.297	-83.145	0.139	0.044
-127.283	477.064	-0.016	0.037
-126.268	-125.075	0.143	-0.022
-125.253	-200.000	-0.019	0.311
-124.239	800.000	-0.029	0.084
-123.224	-118.997	-0.303	-0.052
-122.210	-61.181	-0.206	0.085
-121.195	365.787	-0.134	0.265
