DTS Sentinel unit serial number:	SN413079Multiplexer serial number:	ORYXHardware model number:	OX4-SRSoftware version number:	ORYX F/W v4.00 Oryx Data Collector v3.7.2.0data status	okinstallation	princeton_trtdifferential loss correction	single-endedforward channel	channel 2reverse channel	N/Adate	2019/09/15time	05:51:34forward acquisition time	60.00reverse acquisition time	0.00gamma	496.2192k internal	0.2326k external	0.2326temperature offset calibration	1.0037default loss term (dB/km)	0.3790temperature slope calibration	1.0000multiplexer offset coefficient	1.0000multiplexer slope coefficient	1.0000fibre end	0.00T internal ref (°C)	30.62T ext. ref 1 (°C)	4.85T ext. ref 2 (°C)	25.53length (m)	temperature (°C)	Stokes	anti-Stokes-747.200	-200.000	0.027	0.137
-746.185	50.811	-0.072	-0.069
-745.171	-16.719	0.103	0.066
-744.156	-200.000	0.016	0.339
-743.142	-78.234	0.097	0.033
-742.127	-200.000	0.063	0.537
-741.112	-113.631	0.214	0.042
-740.098	182.327	-0.095	0.141
-739.083	-30.957	0.172	0.098
-738.069	565.985	0.078	0.190
-737.054	-92.069	0.079	0.023
-736.039	-48.357	-0.121	-0.059
-735.025	-109.169	-0.225	-0.048
-734.010	87.179	-0.367	-0.409
-732.996	-170.357	0.103	0.004
-731.981	131.921	0.201	-0.260
-730.966	-29.404	0.457	-0.263
-729.952	-37.745	-0.424	-0.227
-728.937	-27.877	-0.141	-0.082
-727.923	-200.000	0.031	0.150
-726.908	-49.991	-0.113	0.054
-725.894	17.144	-0.279	-0.223
-724.879	407.011	0.180	0.383
-723.864	-36.421	-0.192	-0.104
-722.850	-79.470	-0.178	-0.061
-721.835	-200.000	-0.045	-0.271
-720.821	-98.062	0.190	-0.049
-719.806	800.000	0.047	0.139
-718.791	-140.588	-0.157	0.016
-717.777	80.591	-0.141	-0.153
-716.762	-120.550	-0.327	-0.056
-715.748	-200.000	-0.043	-0.250
-714.733	156.447	-0.065	-0.091
-713.718	800.000	-0.126	0.379
-712.704	-70.275	-0.127	0.048
-711.689	506.483	-0.145	-0.338
-710.675	-147.852	-0.336	-0.028
-709.660	-138.008	0.323	-0.036
-708.645	-48.039	-0.326	0.159
-707.631	91.041	-0.083	-0.093
-706.616	-124.327	-0.225	-0.035
-705.602	-200.000	0.013	0.141
-704.587	68.172	0.088	-0.090
-703.572	72.010	-0.244	0.255
-702.558	-200.000	0.028	-0.461
-701.543	-33.855	-0.100	0.055
-700.529	-167.459	-0.189	-0.008
-699.514	-200.000	-0.018	0.220
-698.499	-5.360	0.030	-0.021
-697.485	5.934	-0.248	0.185
-696.470	-45.899	0.500	-0.248
-695.456	-58.295	-0.156	0.068
-694.441	-32.636	0.336	-0.188
-693.426	-21.741	-0.210	-0.129
-692.412	16.563	-0.116	-0.092
-691.397	-200.000	-0.024	0.184
-690.383	-75.097	-0.354	-0.128
-689.368	-55.073	0.123	0.056
-688.354	-0.713	0.210	0.150
-687.339	-152.041	-0.378	-0.028
-686.324	343.425	0.119	-0.235
-685.310	338.243	0.114	-0.223
-684.295	-35.729	-0.117	0.064
-683.281	699.265	-0.075	0.197
-682.266	407.884	-0.137	-0.291
-681.251	-22.151	-0.235	0.143
-680.237	-76.676	-0.131	-0.046
-679.222	-141.036	0.082	-0.008
-678.208	775.209	0.051	-0.140
-677.193	-7.852	0.214	-0.145
-676.178	628.285	0.035	-0.089
-675.164	-74.834	-0.252	0.091
-674.149	-200.000	-0.001	-0.281
-673.135	-200.000	-0.018	0.109
-672.120	-101.441	0.078	0.019
-671.105	-141.543	-0.349	0.035
-670.091	266.961	0.096	-0.168
-669.076	-17.190	0.169	0.107
-668.062	106.459	0.184	0.219
-667.047	46.951	-0.127	-0.119
-666.032	-168.315	0.400	-0.015
-665.018	-3.040	-0.053	-0.037
-664.003	-147.346	-0.251	0.021
-662.989	-114.642	0.210	-0.040
-661.974	-21.290	-0.190	0.117
-660.959	442.273	0.074	-0.162
-659.945	37.981	-0.110	-0.098
-658.930	267.040	-0.125	-0.220
-657.916	-109.387	0.290	-0.062
-656.901	-51.785	0.274	0.128
-655.886	-90.100	0.302	-0.088
-654.872	172.267	-0.081	0.117
-653.857	8.335	-0.066	-0.050
-652.843	-30.047	-0.219	0.125
-651.828	104.958	-0.362	-0.429
-650.814	-165.783	-0.285	0.012
-649.799	-200.000	0.000	0.022
-648.784	800.000	0.061	-0.188
-647.770	-172.383	-0.345	-0.011
-646.755	-128.801	-0.481	-0.068
-645.741	-37.693	-0.296	0.159
-644.726	30.703	0.069	0.059
-643.711	687.988	-0.100	0.263
-642.697	800.000	0.052	0.213
-641.682	-200.000	-0.006	-0.327
-640.668	-61.628	0.139	-0.058
-639.653	57.343	-0.255	0.250
-638.638	149.991	0.167	0.228
-637.624	75.371	0.118	-0.125
-636.609	-157.041	-0.019	-0.001
-635.595	-103.093	0.245	-0.058
-634.580	69.020	0.146	-0.150
-633.565	-102.912	-0.167	0.040
-632.551	-13.286	-0.096	0.062
-631.536	800.000	-0.093	0.265
-630.522	-170.891	0.103	-0.004
-629.507	-25.738	-0.309	-0.183
-628.492	497.687	0.045	-0.105
-627.478	90.349	-0.180	-0.202
-626.463	800.000	-0.022	-0.071
-625.449	673.603	-0.064	0.167
-624.434	-73.096	-0.025	0.009
-623.419	800.000	-0.063	0.227
-622.405	-163.602	-0.162	-0.008
-621.390	114.285	-0.085	-0.103
-620.376	579.384	0.111	0.272
-619.361	17.148	-0.158	-0.126
-618.346	800.000	0.053	-0.196
-617.332	-27.384	0.197	0.115
-616.317	800.000	-0.096	0.271
-615.303	115.324	-0.233	-0.285
-614.288	-135.466	-0.056	-0.007
-613.273	-200.000	-0.016	-0.085
-612.259	-139.962	-0.465	0.049
-611.244	116.822	-0.272	-0.336
-610.230	76.957	0.129	0.137
-609.215	-35.445	-0.388	-0.212
-608.201	11.092	-0.055	-0.042
-607.186	-200.000	0.011	-0.226
-606.171	363.133	-0.078	0.158
-605.157	95.488	0.214	-0.244
-604.142	-169.141	0.131	-0.005
-603.128	165.900	-0.071	-0.101
-602.113	-200.000	-0.006	-0.226
-601.098	-200.000	-0.001	0.068
-600.084	-46.774	-0.266	-0.131
-599.069	80.301	-0.029	0.032
-598.055	613.796	0.122	-0.307
-597.040	179.295	-0.089	-0.130
-596.025	-35.386	-0.471	-0.257
-595.011	-200.000	0.021	-0.163
-593.996	169.734	-0.165	0.236
-592.982	-89.885	0.180	0.053
-591.967	-200.000	0.030	0.189
-590.952	-148.527	-0.203	-0.017
-589.938	-200.000	-0.064	-0.282
-588.923	70.964	-0.137	0.142
-587.909	18.197	0.104	-0.083
-586.894	-200.000	-0.048	0.227
-585.879	-83.879	0.401	0.128
-584.865	-151.416	-0.441	0.033
-583.850	-125.639	-0.453	-0.069
-582.836	-114.086	-0.365	0.071
-581.821	25.632	0.105	0.088
-580.806	800.000	-0.105	-0.408
-579.792	-52.103	0.257	-0.120
-578.777	-200.000	0.017	0.299
-577.763	-200.000	-0.003	-0.410
-576.748	-189.350	-0.209	0.002
-575.733	58.276	-0.180	0.176
-574.719	-186.765	-0.099	-0.001
-573.704	800.000	-0.074	0.221
-572.690	-17.063	0.141	0.089
-571.675	529.604	-0.069	0.164
-570.661	-117.359	0.151	-0.027
-569.646	-84.272	0.209	-0.066
-568.631	44.955	-0.207	-0.191
-567.617	-200.000	0.014	0.197
-566.602	-40.879	0.154	-0.080
-565.588	-127.313	0.193	-0.028
-564.573	-30.698	-0.113	0.064
-563.558	19.273	0.263	-0.212
-562.544	-4.696	0.249	0.172
-561.529	-42.259	0.179	0.092
-560.515	-84.968	0.060	0.019
-559.500	-200.000	-0.018	-0.209
-558.485	-122.354	-0.226	0.037
-557.471	-135.913	0.029	-0.003
-556.456	-18.612	0.225	0.141
-555.442	-200.000	0.007	-0.140
-554.427	281.549	-0.033	0.060
-553.412	-82.304	0.359	-0.117
-552.398	-200.000	0.019	-0.395
-551.383	800.000	0.054	0.198
-550.369	-28.059	0.118	0.068
-549.354	-120.299	0.115	-0.020
-548.339	-85.179	0.269	-0.084
-547.325	133.871	0.198	-0.256
-546.310	799.949	-0.016	-0.045
-545.296	-200.000	0.063	-0.296
-544.281	-49.981	-0.234	-0.111
-543.266	-107.155	-0.278	-0.061
-542.252	-85.814	-0.353	-0.110
-541.237	35.113	-0.247	-0.217
-540.223	-43.532	0.192	0.097
-539.208	-99.356	-0.133	0.034
-538.193	-49.363	-0.210	-0.100
-537.179	800.000	-0.012	0.044
-536.164	402.377	-0.064	-0.135
-535.150	-147.026	-0.316	-0.027
-534.135	-136.346	0.207	0.024
-533.121	120.033	-0.090	-0.112
-532.106	-200.000	0.017	-0.104
-531.091	166.483	-0.083	-0.117
-530.077	440.049	0.160	0.350
-529.062	-99.200	0.241	0.061
-528.048	287.756	0.035	-0.063
-527.033	-33.349	-0.201	0.111
-526.018	-66.049	0.070	0.028
-525.004	-60.361	-0.194	0.083
-523.989	-200.000	-0.016	-0.271
-522.975	-200.000	-0.042	0.274
-521.960	-45.781	-0.506	0.250
-520.945	-145.271	0.154	0.014
-519.931	-97.521	0.055	0.014
-518.916	-119.206	0.164	-0.029
-517.902	170.145	-0.191	0.273
-516.887	800.000	0.031	0.135
-515.872	-140.446	0.328	-0.034
-514.858	-134.683	-0.238	-0.029
-513.843	-34.084	-0.184	0.101
-512.829	-58.054	0.202	0.088
-511.814	800.000	-0.073	-0.257
-510.799	-200.000	0.058	-0.326
-509.785	147.045	-0.090	0.121
-508.770	355.424	-0.077	0.152
-507.756	-200.000	-0.019	-0.204
-506.741	800.000	-0.034	0.100
-505.726	-22.913	0.207	0.125
-504.712	-119.503	0.123	0.021
-503.697	-200.000	-0.007	0.049
-502.683	113.763	0.213	0.259
-501.668	-178.393	0.341	0.008
-500.653	-1.672	-0.201	-0.141
-499.639	-200.000	0.010	0.356
-498.624	576.426	0.191	0.466
-497.610	-200.000	-0.031	0.310
-496.595	800.000	0.009	0.027
-495.581	399.798	0.064	-0.134
-494.566	0.567	-0.302	-0.216
-493.551	-63.979	0.160	0.065
-492.537	-200.000	0.017	-0.130
-491.522	800.000	-0.150	0.478
-490.508	-200.000	0.004	-0.131
-489.493	10.715	0.284	0.216
-488.478	-95.448	0.245	0.066
-487.464	-200.000	-0.007	-0.112
-486.449	-142.923	-0.046	0.004
-485.435	-45.035	0.280	0.139
-484.420	-200.000	-0.042	0.312
-483.405	103.570	-0.220	0.258
-482.391	51.700	-0.025	0.023
-481.376	169.653	-0.015	-0.022
-480.362	44.814	0.261	0.240
-479.347	-92.917	0.127	0.035
-478.332	-89.577	-0.102	0.030
-477.318	0.200	0.082	0.058
-476.303	800.000	0.037	0.117
-475.289	337.305	-0.085	-0.165
-474.274	-26.101	-0.156	0.092
-473.259	-7.828	-0.327	0.220
-472.245	-200.000	-0.024	0.298
-471.230	-19.686	0.055	-0.034
-470.216	138.047	0.014	0.018
-469.201	800.000	0.098	-0.298
-468.186	-72.410	-0.332	-0.122
-467.172	-44.617	-0.299	-0.149
-466.157	-200.000	0.003	0.249
-465.143	-200.000	0.026	0.208
-464.128	800.000	0.055	0.197
-463.113	82.380	-0.093	0.100
-462.099	-74.046	0.075	-0.027
-461.084	800.000	-0.054	-0.168
-460.070	800.000	-0.062	0.236
-459.055	48.122	-0.051	0.048
-458.040	-114.603	-0.264	-0.051
-457.026	631.958	-0.100	0.251
-456.011	173.571	0.199	0.286
-454.997	534.820	0.161	-0.380
-453.982	-200.000	-0.003	0.041
-452.968	386.525	-0.067	0.137
-451.953	228.669	-0.108	0.176
-450.938	30.560	0.058	0.049
-449.924	-154.701	0.213	0.014
-448.909	-14.844	0.056	0.036
-447.895	116.934	0.117	0.143
-446.880	-46.734	0.136	0.066
-445.865	-200.000	-0.018	-0.110
-444.851	-200.000	0.146	0.000
-443.836	54.059	-0.170	0.163
-442.822	-200.000	0.038	-0.185
-441.807	-106.695	-0.169	0.038
-440.792	800.000	0.047	0.191
-439.778	15.156	0.164	0.128
-438.763	-61.801	0.123	-0.051
-437.749	-139.173	-0.288	-0.031
-436.734	-200.000	0.163	-0.001
-435.719	-83.338	0.076	0.024
-434.705	129.679	-0.064	-0.081
-433.690	-183.444	-0.170	-0.003
-432.676	3.865	-0.118	-0.086
-431.661	-34.270	0.109	0.060
-430.646	800.000	-0.057	0.160
-429.632	9.210	-0.287	0.216
-428.617	-187.014	0.308	0.004
-427.603	345.097	-0.149	0.291
-426.588	-32.153	0.109	-0.061
-425.573	652.507	0.062	-0.158
-424.559	-134.069	-0.076	-0.009
-423.544	5.349	0.105	0.077
-422.530	0.431	-0.188	-0.134
-421.515	91.688	-0.170	0.191
-420.500	-200.000	-0.023	0.108
-419.486	800.000	-0.038	0.132
-418.471	800.000	0.077	0.231
-417.457	-200.000	0.024	-0.115
-416.442	-39.411	-0.130	-0.068
-415.428	-123.753	-0.260	0.041
-414.413	116.355	-0.135	-0.165
-413.398	22.593	0.027	0.022
-412.384	-133.163	0.121	-0.015
-411.369	-146.228	-0.209	0.018
-410.355	-67.537	0.270	-0.106
-409.340	182.371	0.148	0.217
-408.325	-17.319	-0.061	-0.038
-407.311	117.999	-0.097	0.119
-406.296	-3.843	0.133	-0.092
-405.282	-200.000	0.014	-0.210
-404.267	-33.717	-0.214	-0.117
-403.252	-111.748	-0.029	-0.006
-402.238	39.988	0.111	-0.100
-401.223	570.113	-0.140	-0.338
-400.209	56.715	0.064	0.062
-399.194	212.222	-0.172	-0.270
-398.179	-92.249	0.264	0.074
-397.165	85.540	-0.088	-0.096
-396.150	119.619	-0.127	-0.156
-395.136	-125.113	0.279	0.043
-394.121	800.000	0.047	0.167
-393.106	95.204	0.044	0.050
-392.092	-103.918	-0.268	-0.062
-391.077	-21.992	0.223	-0.135
-390.063	800.000	-0.038	0.125
-389.048	-200.000	-0.016	-0.259
-388.033	-58.148	-0.005	0.002
-387.019	-200.000	0.054	0.297
-386.004	97.203	0.071	-0.081
-384.990	72.644	0.136	-0.141
-383.975	-200.000	0.002	0.043
-382.960	65.734	-0.109	0.110
-381.946	324.154	-0.107	0.203
-380.931	307.643	-0.109	-0.202
-379.917	44.153	-0.117	-0.107
-378.902	-93.694	0.075	-0.020
-377.888	-200.000	0.002	0.059
-376.873	324.245	0.183	0.348
-375.858	800.000	0.012	-0.033
-374.844	800.000	-0.033	-0.134
-373.829	-200.000	0.045	0.448
-372.815	-200.000	0.060	0.337
-371.800	84.049	-0.193	0.210
-370.785	-188.970	-0.245	-0.003
-369.771	800.000	-0.040	-0.152
-368.756	138.137	-0.154	-0.200
-367.742	32.825	-0.273	-0.235
-366.727	17.986	-0.201	0.159
-365.712	800.000	0.059	-0.206
-364.698	-200.000	0.042	-0.199
-363.683	-153.733	0.309	-0.021
-362.669	-142.617	-0.188	0.018
-361.654	-14.093	-0.351	0.225
-360.639	-50.810	0.487	0.228
-359.625	-200.000	-0.022	-0.242
-358.610	-154.521	0.101	0.007
-357.596	178.044	0.220	-0.318
-356.581	-70.530	0.136	0.051
-355.566	-19.164	0.126	0.077
-354.552	483.636	-0.042	0.094
-353.537	-200.000	0.019	0.218
-352.523	-165.489	-0.226	0.010
-351.508	12.914	0.168	-0.129
-350.493	-200.000	0.058	-0.350
-349.479	33.367	0.225	0.194
-348.464	26.158	-0.100	-0.083
-347.450	-111.222	-0.144	-0.029
-346.435	-142.919	-0.168	-0.016
-345.420	-90.869	-0.173	-0.049
-344.406	74.452	0.086	-0.090
-343.391	-131.899	-0.239	-0.031
-342.377	-200.000	0.025	-0.112
-341.362	147.235	-0.051	0.068
-340.348	192.085	0.146	-0.218
-339.333	-111.549	0.332	-0.067
-338.318	35.768	-0.327	-0.285
-337.304	134.784	-0.130	-0.168
-336.289	-72.717	-0.300	-0.110
-335.275	-200.000	-0.017	0.159
-334.260	-125.182	-0.079	-0.012
-333.245	453.850	-0.137	-0.301
-332.231	122.264	-0.091	0.113
-331.216	108.626	0.076	0.090
-330.202	-108.690	-0.340	-0.072
-329.187	-190.331	0.486	0.005
-328.172	800.000	0.030	-0.082
-327.158	-200.000	-0.003	-0.011
-326.143	-74.105	0.059	0.021
-325.129	-200.000	0.044	0.332
-324.114	54.881	-0.090	-0.087
-323.099	370.432	0.032	-0.065
-322.085	-200.000	0.020	-0.473
-321.070	-142.659	-0.543	-0.053
-320.056	-36.114	0.204	-0.109
-319.041	54.243	-0.041	-0.039
-318.026	-55.178	0.088	-0.039
-317.012	69.266	-0.027	0.027
-315.997	-200.000	-0.004	0.101
-314.983	-116.617	0.256	0.047
-313.968	-134.994	0.354	0.042
-312.953	-74.444	0.243	0.087
-311.939	6.639	-0.193	0.142
-310.924	-65.146	0.272	0.109
-309.910	800.000	-0.056	0.242
-308.895	800.000	-0.065	0.221
-307.880	-200.000	-0.019	0.116
-306.866	72.684	0.170	0.175
-305.851	6.754	0.182	0.134
-304.837	800.000	-0.055	-0.224
-303.822	-53.002	0.298	0.136
-302.807	292.200	-0.105	0.189
-301.793	96.964	0.381	-0.433
-300.778	-200.000	0.009	-0.060
-299.764	0.393	-0.213	-0.150
-298.749	-62.970	0.089	-0.036
-297.735	21.306	0.077	-0.062
-296.720	-58.705	0.082	0.035
-295.705	-200.000	-0.003	-0.027
-294.691	-62.761	-0.107	-0.044
-293.676	609.153	-0.053	0.132
-292.662	800.000	0.042	0.120
-291.647	-151.200	0.130	-0.010
-290.632	-200.000	0.054	-0.313
-289.618	284.660	0.072	0.128
-288.603	3.475	0.382	-0.276
-287.589	-110.281	-0.338	0.070
-286.574	-129.462	-0.142	-0.019
-285.559	-67.230	-0.172	0.067
-284.545	101.129	0.035	-0.041
-283.530	800.000	0.029	0.080
-282.516	710.995	-0.034	-0.090
-281.501	178.875	0.064	0.092
-280.486	-103.975	0.520	0.120
-279.472	-82.651	-0.201	0.064
-278.457	-200.000	0.041	0.273
-277.443	56.047	-0.114	-0.109
-276.428	133.660	0.108	-0.139
-275.413	-65.296	0.341	-0.136
-274.399	-163.551	-0.128	-0.006
-273.384	190.748	-0.231	0.345
-272.370	-200.000	-0.023	-0.192
-271.355	-80.688	0.121	0.040
-270.340	170.577	-0.252	-0.357
-269.326	-55.904	-0.108	-0.048
-268.311	719.709	0.014	0.036
-267.297	21.545	0.057	0.046
-266.282	800.000	-0.047	0.151
-265.267	-200.000	0.021	-0.102
-264.253	-93.408	0.364	0.100
-263.238	692.316	-0.032	-0.083
-262.224	-39.149	-0.175	-0.091
-261.209	208.156	-0.205	-0.317
-260.195	800.000	0.068	-0.237
-259.180	728.040	-0.107	0.281
-258.165	800.000	0.021	-0.066
-257.151	800.000	-0.020	-0.074
-256.136	-159.241	-0.404	0.022
-255.122	-83.966	-0.194	-0.061
-254.107	-13.056	0.220	-0.142
-253.092	800.000	0.060	-0.235
-252.078	625.458	-0.115	-0.288
-251.063	-174.965	0.471	-0.013
-250.049	800.000	0.065	0.239
-249.034	-132.814	0.265	-0.033
-248.019	125.846	-0.050	0.062
-247.005	-74.099	0.244	-0.087
-245.990	-178.598	-0.074	-0.002
-244.976	-132.813	0.239	-0.030
-243.961	-54.910	0.109	-0.049
-242.946	188.243	-0.046	0.068
-241.932	-108.712	0.074	-0.016
-240.917	9.610	0.152	-0.114
-239.903	-140.897	-0.174	0.018
-238.888	-192.722	0.085	0.001
-237.873	-147.037	0.305	-0.026
-236.859	-200.000	-0.002	0.069
-235.844	-60.655	0.092	-0.039
-234.830	-38.356	-0.057	-0.030
-233.815	-200.000	-0.025	-0.183
-232.800	166.575	-0.063	-0.088
-231.786	377.801	0.123	0.249
-230.771	10.954	-0.153	-0.115
-229.757	613.431	0.162	0.400
-228.742	800.000	0.027	0.106
-227.727	-42.760	-0.065	0.032
-226.713	73.422	0.281	-0.291
-225.698	-47.596	-0.098	0.047
-224.684	141.298	0.082	-0.107
-223.669	51.226	-0.195	-0.182
-222.655	-78.180	0.070	-0.024
-221.640	800.000	0.085	-0.323
-220.625	-72.539	-0.028	-0.010
-219.611	800.000	-0.038	0.147
-218.596	-107.228	0.269	0.059
-217.582	-73.359	0.297	-0.107
-216.567	75.561	0.068	0.071
-215.552	-108.727	-0.330	-0.070
-214.538	-200.000	-0.007	-0.216
-213.523	786.217	-0.064	-0.174
-212.509	-200.000	-0.044	0.234
-211.494	-161.816	0.048	-0.002
-210.479	-107.290	-0.128	0.028
-209.465	800.000	0.019	0.069
-208.450	23.201	-0.112	-0.091
-207.436	139.432	0.140	-0.182
-206.421	800.000	-0.053	-0.192
-205.406	154.910	0.084	-0.114
-204.392	-6.472	-0.341	-0.230
-203.377	800.000	0.047	0.193
-202.363	-76.863	-0.296	-0.102
-201.348	0.716	0.103	0.073
-200.333	82.173	0.292	0.312
-199.319	-200.000	-0.066	0.287
-198.304	29.103	-0.137	0.115
-197.290	-1.275	0.116	0.081
-196.275	-148.759	0.189	-0.015
-195.260	-175.351	0.255	0.007
-194.246	800.000	0.064	0.187
-193.231	-200.000	-0.003	0.080
-192.217	-125.974	0.264	-0.039
-191.202	34.903	-0.265	0.229
-190.187	-141.602	0.399	-0.040
-189.173	217.338	0.265	-0.417
-188.158	-40.437	0.321	0.165
-187.144	165.927	-0.136	-0.189
-186.129	12.893	-0.253	0.193
-185.114	418.420	0.206	-0.434
-184.100	287.873	0.064	-0.113
-183.085	-6.062	-0.075	0.051
-182.071	-45.470	-0.147	-0.072
-181.056	-124.856	0.388	0.059
-180.042	800.000	0.081	-0.278
-179.027	-27.459	0.359	-0.206
-178.012	-103.745	-0.132	0.031
-176.998	39.741	0.165	-0.146
-175.983	11.410	0.136	-0.103
-174.969	-200.000	0.038	-0.236
-173.954	517.288	0.040	0.092
-172.939	-200.000	0.001	-0.225
-171.925	-200.000	-0.007	0.245
-170.910	-200.000	-0.019	0.127
-169.896	455.604	0.100	-0.218
-168.881	-139.051	0.174	0.019
-167.866	-88.262	0.214	-0.063
-166.852	800.000	0.131	0.409
-165.837	-200.000	-0.057	0.254
-164.823	556.972	0.188	0.447
-163.808	800.000	-0.003	-0.011
-162.793	-2.885	-0.071	0.049
-161.779	63.562	-0.379	-0.375
-160.764	-71.176	-0.248	0.092
-159.750	-30.997	0.217	-0.121
-158.735	37.777	-0.129	0.113
-157.720	599.012	0.037	-0.090
-156.706	18.709	-0.299	0.236
-155.691	-55.339	0.233	-0.103
-154.677	23.315	0.240	0.194
-153.662	-6.739	0.126	0.084
-152.647	162.539	-0.062	0.086
-151.633	214.373	-0.096	0.151
-150.618	74.311	-0.100	0.103
-149.604	-74.605	-0.053	0.019
-148.589	503.244	-0.125	-0.284
-147.574	482.591	0.131	0.294
-146.560	-60.856	0.130	-0.054
-145.545	484.374	0.122	-0.273
-144.531	-63.744	0.105	-0.042
-143.516	-50.706	-0.508	0.236
-142.502	800.000	0.052	0.166
-141.487	-101.968	0.289	-0.069
-140.472	24.955	-0.137	-0.112
-139.458	-65.723	0.125	0.049
-138.443	53.287	0.131	-0.124
-137.429	-117.633	-0.458	0.081
-136.414	44.620	0.139	0.126
-135.399	415.205	0.141	-0.297
-134.385	171.161	0.140	0.198
-133.370	-2.253	-0.109	0.075
-132.356	-102.914	0.177	0.041
-131.341	696.660	-0.072	-0.185
-130.326	-63.599	-0.036	0.015
-129.312	430.684	0.049	0.104
-128.297	4.275	0.225	0.162
-127.283	122.450	0.073	0.090
-126.268	-142.098	-0.340	0.033
-125.253	-39.149	-0.254	0.131
-124.239	800.000	-0.081	0.232
-123.224	85.212	-0.166	0.179
-122.210	-100.488	0.129	-0.032
-121.195	-71.986	0.111	0.041
