DTS Sentinel unit serial number:	SN413079Multiplexer serial number:	ORYXHardware model number:	OX4-SRSoftware version number:	ORYX F/W v4.00 Oryx Data Collector v3.7.2.0data status	okinstallation	princeton_trtdifferential loss correction	single-endedforward channel	channel 2reverse channel	N/Adate	2019/09/14time	07:47:35forward acquisition time	60.00reverse acquisition time	0.00gamma	496.2192k internal	0.2337k external	0.2337temperature offset calibration	1.0129default loss term (dB/km)	0.3790temperature slope calibration	1.0000multiplexer offset coefficient	1.0000multiplexer slope coefficient	1.0000fibre end	0.00T internal ref (°C)	26.44T ext. ref 1 (°C)	3.49T ext. ref 2 (°C)	22.81length (m)	temperature (°C)	Stokes	anti-Stokes-747.200	125.605	0.196	0.249
-746.185	54.569	0.142	0.137
-745.171	700.025	-0.051	0.135
-744.156	-121.932	0.144	-0.024
-743.142	800.000	-0.007	-0.030
-742.127	800.000	0.024	-0.097
-741.112	-97.147	-0.084	-0.022
-740.098	-200.000	-0.013	0.319
-739.083	114.849	-0.053	-0.065
-738.069	76.047	-0.220	0.233
-737.054	-120.769	0.099	0.017
-736.039	-110.368	-0.419	0.087
-735.025	42.019	0.088	-0.080
-734.010	-51.935	-0.140	-0.065
-732.996	-109.289	-0.385	0.082
-731.981	87.044	-0.089	-0.098
-730.966	294.016	-0.083	-0.153
-729.952	653.451	0.083	-0.214
-728.937	-77.813	-0.326	-0.113
-727.923	114.697	-0.209	-0.255
-726.908	-200.000	-0.004	0.140
-725.894	797.848	0.056	-0.156
-724.879	84.587	0.175	0.192
-723.864	-98.812	0.291	-0.074
-722.850	-200.000	-0.019	-0.102
-721.835	503.781	-0.087	0.201
-720.821	-163.369	-0.188	-0.009
-719.806	-191.649	-0.400	0.004
-718.791	238.681	0.036	-0.061
-717.777	227.320	-0.050	-0.081
-716.762	-117.270	-0.293	-0.053
-715.748	-29.950	0.153	-0.087
-714.733	17.250	-0.236	0.188
-713.718	800.000	0.071	-0.273
-712.704	113.903	-0.285	-0.347
-711.689	-133.358	0.122	-0.015
-710.675	68.971	-0.179	-0.185
-709.660	-41.281	0.316	-0.163
-708.645	47.337	-0.082	-0.077
-707.631	-29.116	0.198	-0.114
-706.616	-157.682	-0.207	-0.012
-705.602	-43.866	0.152	0.077
-704.587	-92.646	0.125	-0.035
-703.572	-82.381	0.010	-0.003
-702.558	671.224	0.098	0.256
-701.543	628.367	0.009	0.022
-700.529	-200.000	-0.005	-0.110
-699.514	85.107	-0.209	0.230
-698.499	-39.596	-0.250	-0.131
-697.485	254.461	0.091	0.156
-696.470	154.690	0.109	-0.151
-695.456	-39.226	-0.310	-0.163
-694.441	-200.000	0.070	0.353
-693.426	95.883	-0.125	0.143
-692.412	-200.000	0.007	-0.183
-691.397	15.171	0.161	-0.127
-690.383	179.876	-0.159	0.234
-689.368	-170.973	-0.199	0.007
-688.354	-200.000	0.059	0.464
-687.339	-95.830	-0.153	-0.041
-686.324	-111.114	0.208	-0.043
-685.310	-200.000	-0.004	-0.070
-684.295	-167.490	-0.128	-0.005
-683.281	4.877	0.085	-0.062
-682.266	-161.187	-0.257	-0.013
-681.251	-200.000	0.050	-0.247
-680.237	800.000	0.071	-0.211
-679.222	-70.496	-0.239	-0.090
-678.208	64.569	0.375	-0.378
-677.193	-92.929	-0.195	0.055
-676.178	151.213	-0.150	0.204
-675.164	-109.549	-0.237	-0.050
-674.149	489.847	0.092	-0.211
-673.135	23.307	0.129	-0.106
-672.120	-47.307	-0.154	-0.075
-671.105	-200.000	0.002	0.150
-670.091	-200.000	0.008	0.076
-669.076	-200.000	-0.048	0.229
-668.062	251.467	-0.033	-0.056
-667.047	-200.000	0.001	0.036
-666.032	800.000	0.081	-0.344
-665.018	-40.325	0.132	-0.069
-664.003	370.139	-0.156	0.317
-662.989	73.837	-0.048	-0.050
-661.974	-67.186	-0.352	0.139
-660.959	-200.000	0.004	-0.113
-659.945	-115.184	0.338	0.064
-658.930	343.940	-0.133	-0.261
-657.916	-42.590	0.228	0.116
-656.901	-3.304	-0.227	0.158
-655.886	-200.000	0.043	0.321
-654.872	82.576	-0.129	-0.140
-653.857	-191.618	-0.245	0.002
-652.843	-39.098	-0.406	0.214
-651.828	195.647	0.139	-0.212
-650.814	-163.781	0.285	-0.013
-649.799	104.606	-0.293	0.345
-648.784	-97.563	-0.201	-0.052
-647.770	489.661	0.118	-0.269
-646.755	239.090	0.066	-0.110
-645.741	53.772	0.061	-0.058
-644.726	5.248	-0.208	-0.153
-643.711	-77.212	-0.238	-0.083
-642.697	800.000	0.066	-0.194
-641.682	-200.000	0.027	0.124
-640.668	-200.000	0.031	-0.362
-639.653	17.565	-0.095	0.076
-638.638	-200.000	0.025	0.202
-637.624	-39.474	-0.288	-0.151
-636.609	-124.914	0.259	-0.040
-635.595	-200.000	-0.001	-0.205
-634.580	-36.849	-0.049	-0.026
-633.565	424.472	0.061	-0.132
-632.551	371.155	-0.089	0.181
-631.536	-67.832	-0.342	-0.134
-630.522	-43.338	-0.206	-0.104
-629.507	-32.961	-0.200	0.111
-628.492	-155.341	0.398	-0.026
-627.478	360.826	0.007	-0.013
-626.463	-99.873	0.046	0.011
-625.449	-40.583	-0.148	0.077
-624.434	75.168	0.207	-0.218
-623.419	-200.000	-0.056	-0.340
-622.405	53.970	-0.170	0.163
-621.390	-24.716	0.359	0.213
-620.376	800.000	-0.021	0.065
-619.361	-200.000	0.034	-0.236
-618.346	-102.617	-0.231	0.055
-617.332	179.098	0.156	0.228
-616.317	-163.169	0.124	-0.006
-615.303	-33.158	-0.365	-0.202
-614.288	57.120	0.284	-0.277
-613.273	-200.000	-0.008	0.085
-612.259	-120.239	-0.171	-0.029
-611.244	36.165	0.093	0.082
-610.230	130.732	0.069	-0.089
-609.215	-117.272	0.410	-0.074
-608.201	188.971	0.183	-0.274
-607.186	-98.858	-0.384	0.097
-606.171	-81.769	-0.111	0.036
-605.157	-200.000	0.010	0.168
-604.142	-200.000	-0.020	0.169
-603.128	-79.573	-0.207	-0.070
-602.113	22.780	0.132	0.108
-601.098	-120.410	0.118	0.020
-600.084	800.000	0.078	0.261
-599.069	228.889	0.066	-0.108
-598.055	-42.388	-0.376	-0.192
-597.040	-101.689	0.152	-0.037
-596.025	-142.604	0.232	-0.023
-595.011	-200.000	0.007	-0.197
-593.996	103.076	0.135	0.158
-592.982	137.378	0.088	0.115
-591.967	-135.795	0.253	-0.030
-590.952	-123.727	0.365	0.058
-589.938	183.848	0.156	-0.230
-588.923	181.036	0.209	0.306
-587.909	-21.243	0.267	0.163
-586.894	685.270	-0.050	-0.130
-585.879	-23.386	-0.241	-0.145
-584.865	87.037	-0.141	0.155
-583.850	-200.000	-0.090	0.466
-582.836	36.550	-0.204	-0.180
-581.821	206.693	0.125	-0.194
-580.806	-200.000	0.057	0.258
-579.792	-87.401	-0.215	0.065
-578.777	113.526	-0.182	-0.221
-577.763	-200.000	0.038	-0.326
-576.748	800.000	0.073	0.314
-575.733	7.746	0.483	0.361
-574.719	480.028	0.056	-0.126
-573.704	412.239	0.034	0.073
-572.690	-122.829	-0.306	0.049
-571.675	-31.095	-0.144	-0.081
-570.661	-154.899	-0.240	-0.016
-569.646	-155.209	-0.354	-0.023
-568.631	-39.923	0.157	0.082
-567.617	232.328	0.036	-0.058
-566.602	-38.575	-0.180	-0.095
-565.588	774.666	-0.088	-0.240
-564.573	79.030	0.156	0.166
-563.558	-33.147	0.193	-0.106
-562.544	-61.614	0.083	-0.035
-561.529	425.392	-0.049	0.105
-560.515	104.498	-0.169	0.199
-559.500	800.000	0.071	0.214
-558.485	-18.646	-0.211	0.131
-557.471	150.591	-0.129	-0.175
-556.456	800.000	-0.076	-0.223
-555.442	734.414	0.075	0.200
-554.427	-81.465	-0.201	0.066
-553.412	-200.000	0.021	0.478
-552.398	-69.486	-0.035	0.013
-551.383	-95.024	0.321	-0.086
-550.369	190.423	0.119	0.179
-549.354	-200.000	-0.031	0.204
-548.339	64.723	-0.035	0.036
-547.325	-41.499	-0.134	0.069
-546.310	-200.000	0.484	-0.001
-545.296	-66.057	0.166	0.066
-544.281	24.029	0.096	0.079
-543.266	-200.000	-0.043	-0.401
-542.252	-29.094	-0.144	0.082
-541.237	-98.972	0.162	0.041
-540.223	-115.634	0.426	0.080
-539.208	595.224	-0.066	-0.162
-538.193	93.481	0.122	-0.138
-537.179	-61.557	0.241	-0.101
-536.164	14.210	0.200	-0.155
-535.150	-133.582	-0.382	-0.048
-534.135	116.302	-0.130	0.158
-533.121	-42.196	0.158	0.081
-532.106	-86.395	0.335	-0.103
-531.091	203.187	0.132	-0.204
-530.077	-24.498	-0.059	-0.035
-529.062	130.286	0.182	0.233
-528.048	537.444	0.112	0.265
-527.033	-16.210	-0.192	0.121
-526.018	123.467	-0.146	0.182
-525.004	-17.778	-0.301	-0.188
-523.989	100.035	0.078	-0.090
-522.975	422.910	-0.135	0.289
-521.960	800.000	-0.047	0.187
-520.945	-90.213	-0.152	-0.044
-519.931	800.000	0.112	-0.408
-518.916	-73.881	-0.289	-0.104
-517.902	-17.118	-0.112	0.070
-516.887	335.802	-0.007	-0.014
-515.872	31.248	-0.057	0.048
-514.858	-140.873	0.102	-0.010
-513.843	-104.562	0.220	-0.051
-512.829	-63.164	0.276	0.113
-511.814	243.065	-0.082	-0.137
-510.799	800.000	-0.019	-0.072
-509.785	22.820	-0.449	0.366
-508.770	505.604	-0.053	0.122
-507.756	54.151	-0.044	-0.042
-506.741	-10.430	-0.189	0.125
-505.726	-46.174	-0.173	0.085
-504.712	174.316	-0.117	-0.168
-503.697	-70.206	0.087	0.033
-502.683	-106.862	-0.095	-0.021
-501.668	-36.805	0.066	0.035
-500.653	-153.928	-0.287	-0.019
-499.639	-200.000	-0.011	0.070
-498.624	-97.753	0.242	0.062
-497.610	553.103	-0.053	0.127
-496.595	-86.094	-0.136	0.042
-495.581	-124.798	-0.172	-0.026
-494.566	-131.215	0.148	0.020
-493.551	-200.000	-0.004	0.164
-492.537	132.604	0.095	-0.122
-491.522	-26.670	0.065	0.038
-490.508	1.142	-0.359	-0.256
-489.493	-90.056	-0.076	-0.022
-488.478	-110.327	0.272	-0.056
-487.464	-63.453	0.107	0.044
-486.449	-62.336	-0.070	-0.029
-485.435	800.000	0.014	0.051
-484.420	565.873	0.073	0.175
-483.405	149.112	0.324	0.436
-482.391	306.993	-0.063	0.117
-481.376	43.432	0.191	-0.173
-480.362	459.840	0.121	-0.268
-479.347	16.736	-0.115	-0.090
-478.332	111.350	-0.270	0.323
-477.318	-89.650	0.459	-0.134
-476.303	-200.000	0.023	-0.167
-475.289	-54.046	0.063	-0.028
-474.274	47.963	0.280	0.260
-473.259	423.328	-0.108	0.231
-472.245	-200.000	-0.014	0.109
-471.230	-44.054	-0.156	0.078
-470.216	382.623	0.023	-0.047
-469.201	-71.404	0.179	-0.067
-468.186	-41.757	-0.211	0.108
-467.172	-200.000	0.028	0.217
-466.157	-141.464	-0.151	-0.015
-465.143	-200.000	0.038	-0.219
-464.128	216.607	0.084	-0.132
-463.113	83.609	0.052	-0.056
-462.099	-200.000	0.011	-0.226
-461.084	-121.509	0.251	-0.041
-460.070	241.902	-0.078	-0.129
-459.055	-200.000	0.005	0.049
-458.040	159.331	0.102	0.141
-457.026	-67.886	0.261	-0.101
-456.011	-97.724	-0.277	0.071
-454.997	46.048	-0.329	-0.302
-453.982	-52.318	0.141	-0.065
-452.968	596.639	0.104	0.255
-451.953	800.000	-0.033	-0.117
-450.938	22.389	0.259	-0.210
-449.924	-54.624	-0.038	-0.017
-448.909	50.424	0.214	0.201
-447.895	-90.872	-0.466	0.133
-446.880	195.008	0.092	-0.138
-445.865	-10.498	-0.172	0.113
-444.851	281.481	0.036	-0.064
-443.836	155.906	-0.063	-0.086
-442.822	-45.361	0.093	0.046
-441.807	47.181	-0.063	0.058
-440.792	122.770	-0.346	-0.430
-439.778	-129.828	-0.231	-0.031
-438.763	-88.248	0.204	0.061
-437.749	-16.386	0.110	-0.069
-436.734	-160.982	-0.161	-0.008
-435.719	800.000	-0.057	0.241
-434.705	-142.958	-0.331	-0.032
-433.690	-39.814	-0.309	0.160
-432.676	800.000	0.055	-0.153
-431.661	116.585	0.203	-0.247
-430.646	354.299	0.035	-0.068
-429.632	800.000	0.056	-0.236
-428.617	-146.969	0.323	0.028
-427.603	-200.000	-0.027	0.418
-426.588	109.556	-0.201	0.238
-425.573	666.397	0.032	-0.081
-424.559	60.655	0.028	0.027
-423.544	43.092	-0.123	-0.111
-422.530	7.407	-0.156	-0.116
-421.515	800.000	0.059	0.199
-420.500	-121.559	-0.069	-0.011
-419.486	800.000	0.027	0.108
-418.471	118.001	0.071	0.087
-417.457	136.668	-0.060	0.078
-416.442	54.137	0.188	-0.180
-415.428	-200.000	0.070	-0.309
-414.413	66.926	-0.132	-0.133
-413.398	-106.179	0.199	-0.044
-412.384	-200.000	0.012	-0.255
-411.369	-200.000	0.046	0.427
-410.355	-40.877	-0.198	-0.102
-409.340	-104.089	-0.327	-0.075
-408.325	-200.000	0.035	0.207
-407.311	-58.829	-0.344	0.148
-406.296	-108.567	-0.308	0.066
-405.282	-131.321	-0.190	0.025
-404.267	108.794	-0.076	0.090
-403.252	267.327	-0.046	-0.079
-402.238	-122.351	-0.207	0.033
-401.223	143.541	0.125	-0.165
-400.209	94.736	0.056	0.063
-399.194	-140.326	-0.050	-0.005
-398.179	-200.000	0.046	-0.398
-397.165	-149.098	-0.203	0.016
-396.150	-58.092	-0.204	0.088
-395.136	-200.000	-0.032	0.424
-394.121	-80.166	-0.311	-0.103
-393.106	800.000	0.045	0.136
-392.092	58.724	-0.064	0.062
-391.077	12.684	0.116	0.089
-390.063	184.392	0.135	-0.198
-389.048	421.553	0.111	-0.236
-388.033	179.539	-0.117	0.170
-387.019	119.548	-0.280	-0.343
-386.004	102.709	-0.183	0.212
-384.990	38.741	-0.135	0.120
-383.975	-39.907	-0.092	0.047
-382.960	152.748	0.319	0.432
-381.946	-50.768	-0.238	0.111
-380.931	169.261	-0.409	-0.578
-379.917	51.003	-0.232	-0.218
-378.902	-87.287	0.332	-0.100
-377.888	679.557	-0.062	0.161
-376.873	800.000	0.072	0.247
-375.858	-124.076	0.137	-0.021
-374.844	199.321	0.135	0.204
-373.829	-121.321	-0.177	0.029
-372.815	800.000	0.050	0.157
-371.800	45.090	0.036	-0.032
-370.785	-125.959	0.336	0.050
-369.771	-52.771	-0.152	-0.069
-368.756	-110.880	-0.100	0.020
-367.742	-200.000	-0.037	0.175
-366.727	-92.695	-0.389	-0.108
-365.712	800.000	-0.135	-0.522
-364.698	-131.170	-0.224	0.029
-363.683	35.758	0.213	0.185
-362.669	-85.198	0.245	-0.076
-361.654	-179.056	-0.344	0.008
-360.639	53.518	0.037	-0.035
-359.625	-87.164	-0.426	-0.128
-358.610	-157.044	0.138	-0.008
-357.596	-200.000	-0.019	-0.297
-356.581	-200.000	0.006	-0.474
-355.566	-200.000	0.009	0.084
-354.552	-104.828	-0.430	-0.098
-353.537	-8.283	0.253	-0.168
-352.523	64.656	0.133	-0.133
-351.508	42.202	-0.283	0.254
-350.493	389.043	-0.049	0.099
-349.479	-12.231	0.272	0.176
-348.464	35.334	0.072	0.063
-347.450	34.513	0.124	-0.107
-346.435	800.000	0.177	-0.521
-345.420	800.000	-0.046	-0.166
-344.406	800.000	-0.038	0.162
-343.391	800.000	0.071	0.211
-342.377	-200.000	0.036	0.231
-341.362	-20.919	-0.272	-0.165
-340.348	-200.000	0.041	0.389
-339.333	-18.933	0.219	0.135
-338.318	-144.705	-0.202	-0.018
-337.304	-110.991	0.206	0.042
-336.289	-200.000	0.026	-0.114
-335.275	124.630	0.125	-0.156
-334.260	77.668	0.100	0.105
-333.245	73.167	-0.200	-0.206
-332.231	-30.797	0.136	-0.076
-331.216	56.803	0.036	0.035
-330.202	217.553	0.127	0.200
-329.187	-200.000	-0.090	0.588
-328.172	630.406	-0.177	-0.443
-327.158	99.835	-0.127	0.145
-326.143	199.382	-0.054	0.081
-325.129	-128.367	0.207	-0.029
-324.114	10.568	-0.221	-0.166
-323.099	800.000	-0.046	-0.153
-322.085	330.523	-0.121	-0.230
-321.070	-134.963	0.156	0.019
-320.056	-200.000	-0.019	-0.147
-319.041	-154.654	0.308	0.020
-318.026	-54.502	0.262	-0.117
-317.012	-76.538	-0.078	0.027
-315.997	135.946	-0.091	0.117
-314.983	-48.812	-0.085	-0.040
-313.968	-200.000	-0.018	-0.364
-312.953	55.587	-0.201	0.192
-311.939	125.957	-0.221	-0.275
-310.924	261.895	0.147	-0.252
-309.910	317.376	-0.037	-0.069
-308.895	10.949	-0.047	0.035
-307.880	396.225	0.092	0.189
-306.866	-200.000	-0.095	-0.705
-305.851	8.601	0.068	-0.051
-304.837	800.000	0.036	-0.153
-303.822	276.336	-0.262	-0.459
-302.807	20.515	0.095	0.076
-301.793	225.589	-0.174	0.278
-300.778	-14.832	0.177	0.112
-299.764	279.405	0.132	-0.232
-298.749	-200.000	0.006	-0.042
-297.735	800.000	0.043	0.133
-296.720	-200.000	0.005	0.189
-295.705	-120.610	-0.129	0.021
-294.691	105.956	0.056	0.065
-293.676	8.120	0.147	-0.109
-292.662	-89.101	-0.050	0.014
-291.647	-121.626	-0.403	-0.066
-290.632	-200.000	0.002	-0.041
-289.618	243.045	-0.101	0.167
-288.603	198.516	0.106	0.159
-287.589	77.312	0.141	-0.148
-286.574	-126.292	-0.134	0.020
-285.559	-200.000	0.012	0.124
-284.545	-200.000	-0.030	-0.183
-283.530	800.000	-0.077	-0.300
-282.516	-71.407	-0.075	-0.028
-281.501	512.687	0.078	0.179
-280.486	800.000	0.105	0.425
-279.472	-200.000	0.031	0.234
-278.457	800.000	0.045	0.149
-277.443	-60.708	0.202	-0.084
-276.428	-53.380	-0.016	-0.007
-275.413	-132.848	-0.203	-0.026
-274.399	-200.000	0.020	-0.116
-273.384	526.838	0.073	-0.169
-272.370	-33.944	0.227	0.123
-271.355	0.944	0.223	-0.157
-270.340	-153.004	-0.206	0.014
-269.326	-123.787	0.354	0.055
-268.311	-200.000	0.046	-0.460
-267.297	800.000	-0.073	0.294
-266.282	16.726	0.123	0.096
-265.267	-100.735	0.202	0.049
-264.253	-111.586	0.247	-0.049
-263.238	-90.771	-0.474	-0.135
-262.224	-53.985	-0.039	-0.018
-261.209	691.805	0.076	0.196
-260.195	384.608	0.160	-0.324
-259.180	-8.905	0.054	-0.035
-258.165	800.000	-0.035	-0.126
-257.151	800.000	-0.051	-0.146
-256.136	-83.154	0.338	-0.107
-255.122	-40.647	0.091	0.046
-254.107	-200.000	-0.016	-0.180
-253.092	-49.584	0.087	-0.041
-252.078	107.222	0.042	0.050
-251.063	-200.000	-0.025	0.125
-250.049	-102.128	0.160	0.038
-249.034	5.214	-0.187	0.136
-248.019	300.132	0.075	0.136
-247.005	-83.869	0.090	0.028
-245.990	58.996	-0.158	0.153
-244.976	-200.000	-0.009	0.208
-243.961	-200.000	-0.067	0.304
-242.946	477.872	-0.100	0.223
-241.932	-99.200	0.301	-0.075
-240.917	-75.809	-0.029	-0.010
-239.903	-200.000	0.033	-0.235
-238.888	42.914	-0.148	0.132
-237.873	-105.605	-0.069	0.015
-236.859	-200.000	0.001	-0.084
-235.844	68.621	-0.066	-0.067
-234.830	-46.998	0.095	0.046
-233.815	-105.707	-0.534	0.119
-232.800	282.752	-0.129	0.228
-231.786	-122.930	0.269	0.043
-230.771	64.128	0.117	0.116
-229.757	85.563	0.190	0.205
-228.742	360.532	0.131	-0.258
-227.727	-79.792	0.271	-0.090
-226.713	-94.079	-0.122	-0.033
-225.698	-121.818	-0.315	-0.051
-224.684	-19.652	0.175	0.107
-223.669	61.623	-0.322	0.315
-222.655	-13.169	0.220	-0.141
-221.640	-200.000	0.048	-0.420
-220.625	-119.856	-0.201	0.034
-219.611	243.680	0.062	0.103
-218.596	-200.000	0.046	-0.280
-217.582	11.539	0.101	-0.076
-216.567	-69.817	0.179	0.067
-215.552	32.351	0.200	-0.169
-214.538	-71.125	-0.123	-0.046
-213.523	466.336	0.069	0.152
-212.509	71.298	-0.160	0.164
-211.494	800.000	-0.035	-0.111
-210.479	30.835	0.192	0.162
-209.465	18.875	-0.074	-0.059
-208.450	-108.336	0.183	-0.039
-207.436	-51.866	0.275	0.126
-206.421	379.812	-0.121	-0.244
-205.406	354.590	-0.214	-0.419
-204.392	-200.000	-0.039	0.191
-203.377	800.000	0.062	0.171
-202.363	76.385	0.349	0.363
-201.348	-120.694	0.269	-0.045
-200.333	800.000	-0.053	-0.163
-199.319	-194.868	-0.165	0.001
-198.304	800.000	0.083	-0.320
-197.290	58.627	-0.117	-0.113
-196.275	-200.000	0.021	-0.441
-195.260	257.933	0.095	-0.160
-194.246	76.806	0.195	0.203
-193.231	-200.000	-0.039	-0.257
-192.217	257.590	-0.015	-0.026
-191.202	800.000	-0.103	0.295
-190.187	-200.000	-0.008	0.118
-189.173	-125.994	0.179	-0.026
-188.158	283.508	-0.072	-0.127
-187.144	5.816	0.172	0.125
-186.129	239.487	-0.131	0.213
-185.114	-45.601	0.186	0.090
-184.100	171.549	0.195	0.274
-183.085	88.250	-0.188	0.205
-182.071	163.239	0.236	0.326
-181.056	55.107	0.096	-0.091
-180.042	-200.000	0.033	-0.197
-179.027	-137.981	0.026	0.003
-178.012	-57.953	-0.195	-0.084
-176.998	211.090	-0.176	0.271
-175.983	-200.000	-0.005	-0.280
-174.969	496.574	-0.086	-0.194
-173.954	467.022	-0.037	-0.081
-172.939	58.154	-0.276	0.265
-171.925	-39.422	0.060	0.031
-170.910	138.928	-0.159	-0.205
-169.896	800.000	-0.136	0.421
-168.881	-140.685	0.275	-0.028
-167.866	84.922	0.130	0.139
-166.852	-138.447	0.069	-0.007
-165.837	-91.623	0.202	-0.057
-164.823	-200.000	0.053	-0.289
-163.808	-110.692	0.290	-0.059
-162.793	-200.000	0.009	0.132
-161.779	-200.000	0.051	0.411
-160.764	-200.000	-0.049	-0.235
-159.750	12.921	0.039	0.030
-158.735	-32.034	-0.021	0.011
-157.720	-14.158	0.146	0.092
-156.706	-10.765	0.304	0.197
-155.691	-57.246	0.279	0.120
-154.677	-200.000	-0.069	0.547
-153.662	800.000	0.030	-0.124
-152.647	-104.126	-0.034	-0.008
-151.633	-108.578	0.027	0.006
-150.618	409.104	0.025	-0.053
-149.604	110.113	0.041	0.048
-148.589	-200.000	0.012	0.186
-147.574	-13.541	0.324	0.206
-146.560	766.329	-0.046	0.123
-145.545	-134.210	-0.212	0.026
-144.531	-83.502	0.225	0.071
-143.516	-123.096	-0.408	-0.064
-142.502	-159.970	-0.148	-0.008
-141.487	31.327	0.084	0.071
-140.472	-200.000	0.002	0.019
-139.458	800.000	-0.124	-0.337
-138.443	800.000	-0.059	-0.222
-137.429	110.509	-0.027	0.032
-136.414	79.775	-0.253	0.267
-135.399	800.000	-0.040	-0.147
-134.385	800.000	-0.030	-0.126
-133.370	-54.241	0.118	0.052
-132.356	133.244	-0.117	0.149
-131.341	800.000	0.075	0.252
-130.326	70.067	-0.261	-0.264
-129.312	800.000	-0.089	-0.264
-128.297	-102.588	0.283	-0.066
-127.283	-22.768	-0.154	-0.091
-126.268	187.929	0.212	0.311
-125.253	68.228	0.311	-0.312
-124.239	-200.000	0.015	-0.106
-123.224	-98.305	-0.007	-0.002
-122.210	800.000	-0.025	-0.104
-121.195	-3.849	0.183	0.124
