DTS Sentinel unit serial number:	SN413079Multiplexer serial number:	ORYXHardware model number:	OX4-SRSoftware version number:	ORYX F/W v4.00 Oryx Data Collector v3.7.2.0data status	okinstallation	princeton_trtdifferential loss correction	single-endedforward channel	channel 2reverse channel	N/Adate	2019/09/17time	07:35:35forward acquisition time	60.00reverse acquisition time	0.00gamma	496.2192k internal	0.2334k external	0.2334temperature offset calibration	0.9973default loss term (dB/km)	0.3790temperature slope calibration	1.0000multiplexer offset coefficient	1.0000multiplexer slope coefficient	1.0000fibre end	0.00T internal ref (°C)	27.19T ext. ref 1 (°C)	0.12T ext. ref 2 (°C)	21.85length (m)	temperature (°C)	Stokes	anti-Stokes-747.200	-200.000	0.035	0.305
-746.185	-200.000	0.001	-0.014
-745.171	-50.153	-0.367	0.175
-744.156	32.188	-0.127	0.110
-743.142	800.000	0.112	0.451
-742.127	-69.809	-0.312	0.120
-741.112	-158.095	0.173	0.010
-740.098	800.000	0.154	0.446
-739.083	-200.000	0.020	-0.164
-738.069	-200.000	-0.034	0.227
-737.054	-53.599	-0.080	-0.037
-736.039	286.411	-0.230	-0.417
-735.025	-63.049	-0.121	-0.050
-734.010	-85.913	-0.250	-0.078
-732.996	-200.000	0.001	-0.008
-731.981	-200.000	-0.023	0.264
-730.966	-71.702	-0.257	0.097
-729.952	-183.652	0.191	-0.003
-728.937	-165.976	0.149	-0.006
-727.923	-39.948	0.135	-0.071
-726.908	-57.358	0.070	0.031
-725.894	459.077	0.041	0.092
-724.879	133.786	-0.135	-0.175
-723.864	-66.474	0.341	-0.136
-722.850	317.611	-0.132	-0.251
-721.835	164.485	-0.131	-0.186
-720.821	-68.989	-0.101	0.039
-719.806	424.355	0.097	0.211
-718.791	33.835	-0.157	-0.138
-717.777	158.689	-0.133	-0.185
-716.762	-34.551	0.073	-0.040
-715.748	-25.171	0.136	-0.081
-714.733	241.800	-0.149	-0.250
-713.718	800.000	-0.067	0.216
-712.704	73.804	0.107	-0.112
-711.689	-60.227	-0.156	0.067
-710.675	150.943	0.082	-0.112
-709.660	-3.717	0.123	0.086
-708.645	-25.670	-0.306	-0.181
-707.631	-156.223	0.132	-0.008
-706.616	232.653	-0.218	0.360
-705.602	-137.629	-0.406	-0.046
-704.587	-153.984	0.497	-0.034
-703.572	-73.693	0.268	-0.098
-702.558	-200.000	0.030	-0.141
-701.543	-104.585	-0.273	-0.063
-700.529	-200.000	-0.030	0.462
-699.514	675.972	-0.084	0.219
-698.499	136.824	-0.161	0.211
-697.485	-103.232	0.153	-0.036
-696.470	255.730	-0.095	0.164
-695.456	800.000	0.157	-0.440
-694.441	-124.086	-0.277	0.044
-693.426	-92.134	-0.138	0.039
-692.412	800.000	-0.063	0.184
-691.397	87.124	0.087	-0.097
-690.383	583.671	-0.067	0.166
-689.368	130.942	0.109	-0.140
-688.354	-129.580	0.398	-0.055
-687.339	102.780	-0.329	-0.386
-686.324	100.690	0.168	-0.195
-685.310	59.501	-0.099	0.098
-684.295	-141.446	-0.012	-0.001
-683.281	-18.683	0.046	-0.028
-682.266	91.461	-0.123	-0.139
-681.251	800.000	-0.029	-0.117
-680.237	-74.713	0.144	0.052
-679.222	8.515	-0.126	0.095
-678.208	800.000	0.083	0.296
-677.193	-168.346	0.189	-0.007
-676.178	-111.373	0.253	-0.052
-675.164	-164.322	0.126	-0.006
-674.149	-118.724	-0.196	0.035
-673.135	-133.209	-0.195	0.025
-672.120	800.000	0.119	-0.439
-671.105	740.921	0.103	0.278
-670.091	56.729	0.212	0.206
-669.076	-200.000	0.072	0.625
-668.062	-200.000	-0.018	-0.382
-667.047	83.393	0.074	0.080
-666.032	-88.914	0.366	-0.109
-665.018	-37.595	-0.194	0.104
-664.003	-57.942	-0.263	-0.115
-662.989	54.103	-0.079	-0.076
-661.974	115.724	0.041	0.050
-660.959	-56.038	0.440	-0.197
-659.945	-18.993	-0.361	-0.225
-658.930	226.400	0.093	-0.151
-657.916	-91.030	0.208	0.060
-656.901	-17.860	0.522	-0.328
-655.886	71.289	-0.184	0.191
-654.872	301.392	-0.115	-0.212
-653.857	-200.000	-0.058	0.329
-652.843	-107.550	0.258	0.056
-651.828	331.572	-0.076	-0.148
-650.814	110.788	0.057	-0.069
-649.799	800.000	-0.054	0.155
-648.784	-200.000	0.052	-0.234
-647.770	800.000	0.084	0.365
-646.755	-36.185	-0.064	-0.034
-645.741	800.000	-0.046	0.157
-644.726	214.920	0.248	-0.394
-643.711	-200.000	0.002	0.105
-642.697	-156.698	0.240	-0.015
-641.682	-200.000	0.021	-0.098
-640.668	-200.000	0.072	-0.337
-639.653	273.081	-0.113	-0.199
-638.638	126.653	-0.069	0.087
-637.624	71.713	0.215	0.223
-636.609	-16.595	-0.436	-0.276
-635.595	-200.000	-0.037	-0.290
-634.580	-60.720	0.346	-0.147
-633.565	-200.000	-0.005	0.057
-632.551	145.649	-0.028	-0.037
-631.536	-200.000	0.031	-0.262
-630.522	-7.363	-0.104	-0.071
-629.507	-200.000	0.047	0.232
-628.492	5.178	0.106	0.078
-627.478	-200.000	0.013	-0.229
-626.463	800.000	-0.106	-0.306
-625.449	-81.240	-0.264	-0.087
-624.434	2.344	0.073	0.053
-623.419	-200.000	0.063	0.353
-622.405	-72.060	-0.359	-0.133
-621.390	438.797	0.049	0.107
-620.376	-12.925	-0.297	0.193
-619.361	-76.058	0.129	-0.045
-618.346	31.388	0.152	-0.130
-617.332	800.000	-0.016	-0.046
-616.317	800.000	-0.033	-0.115
-615.303	-138.657	0.163	-0.018
-614.288	-21.893	-0.104	-0.063
-613.273	800.000	0.070	0.197
-612.259	-8.371	-0.090	0.060
-611.244	-41.670	0.208	0.107
-610.230	-94.496	-0.360	-0.098
-609.215	-163.086	-0.314	-0.015
-608.201	-176.910	0.140	0.004
-607.186	112.997	-0.168	0.203
-606.171	-200.000	0.040	0.388
-605.157	-94.362	0.122	-0.033
-604.142	800.000	0.113	0.459
-603.128	-200.000	-0.029	0.137
-602.113	-101.018	-0.115	0.028
-601.098	-10.761	0.209	0.138
-600.084	18.198	0.228	0.182
-599.069	386.611	-0.081	0.168
-598.055	468.192	0.138	-0.308
-597.040	93.259	0.087	0.098
-596.025	-32.950	0.144	0.080
-595.011	301.446	-0.015	0.028
-593.996	41.539	-0.268	0.243
-592.982	-200.000	-0.015	0.262
-591.967	93.849	-0.100	0.113
-590.952	266.010	0.063	0.110
-589.938	-73.552	-0.325	-0.119
-588.923	68.694	0.253	-0.259
-587.909	88.713	0.076	-0.084
-586.894	800.000	-0.065	-0.231
-585.879	-71.507	-0.010	0.004
-584.865	-148.557	-0.099	-0.008
-583.850	-54.286	-0.344	0.156
-582.836	-148.185	-0.214	-0.018
-581.821	-2.962	-0.283	-0.197
-580.806	-96.312	-0.387	-0.102
-579.792	73.373	0.335	0.350
-578.777	800.000	0.049	0.197
-577.763	-74.675	0.227	-0.081
-576.748	271.321	-0.112	0.197
-575.733	-70.350	-0.147	0.056
-574.719	-200.000	-0.007	0.281
-573.704	185.282	-0.204	0.302
-572.690	-75.543	-0.387	0.137
-571.675	-200.000	-0.042	0.215
-570.661	234.833	-0.120	0.197
-569.646	262.693	-0.041	-0.071
-568.631	800.000	0.171	-0.481
-567.617	800.000	-0.156	-0.529
-566.602	-149.457	0.245	0.019
-565.588	-141.086	0.209	0.021
-564.573	-200.000	0.009	0.286
-563.558	-108.301	-0.118	0.025
-562.544	-67.685	-0.220	0.086
-561.529	-58.817	-0.392	0.169
-560.515	-46.635	0.263	-0.128
-559.500	-200.000	0.002	0.118
-558.485	124.104	0.269	0.337
-557.471	800.000	0.074	0.279
-556.456	-200.000	0.251	0.000
-555.442	13.728	0.180	0.140
-554.427	311.320	0.192	0.360
-553.412	-87.236	-0.060	0.018
-552.398	800.000	0.122	0.355
-551.383	-154.999	0.532	-0.035
-550.369	10.583	-0.072	-0.055
-549.354	-71.960	0.258	0.096
-548.339	-200.000	0.003	-0.098
-547.325	800.000	0.058	-0.218
-546.310	268.073	-0.062	0.108
-545.296	-106.043	-0.094	0.021
-544.281	214.654	0.092	-0.146
-543.266	160.360	0.171	-0.238
-542.252	102.658	0.023	-0.027
-541.237	109.751	0.079	0.094
-540.223	-51.815	-0.124	-0.057
-539.208	143.527	0.132	0.176
-538.193	133.700	-0.201	-0.260
-537.179	-133.378	0.318	0.040
-536.164	68.389	0.179	0.183
-535.150	-29.981	0.135	-0.077
-534.135	525.385	0.098	-0.229
-533.121	-200.000	0.007	0.206
-532.106	-42.081	-0.158	-0.080
-531.091	-200.000	0.011	0.071
-530.077	17.155	-0.434	0.343
-529.062	649.253	-0.080	0.205
-528.048	-17.209	-0.153	-0.096
-527.033	-92.619	-0.137	-0.038
-526.018	-98.619	0.072	-0.018
-525.004	337.740	-0.096	0.186
-523.989	-90.964	-0.108	-0.031
-522.975	176.170	-0.161	-0.233
-521.960	-114.875	-0.133	0.025
-520.945	680.082	-0.047	0.123
-519.931	238.577	0.101	-0.167
-518.916	-26.193	-0.187	0.110
-517.902	432.705	-0.119	-0.256
-516.887	268.950	-0.190	0.333
-515.872	593.859	0.122	-0.299
-514.858	-8.643	0.092	-0.062
-513.843	-200.000	-0.007	-0.184
-512.829	150.914	-0.150	0.204
-511.814	-32.436	-0.256	-0.142
-510.799	-200.000	-0.017	0.113
-509.785	342.991	-0.037	-0.072
-508.770	-117.661	0.191	-0.034
-507.756	-148.464	-0.161	0.013
-506.741	348.135	0.067	-0.131
-505.726	-122.023	0.097	-0.016
-504.712	-114.865	-0.119	0.023
-503.697	-124.054	-0.031	0.005
-502.683	106.732	-0.210	-0.248
-501.668	-93.367	-0.199	-0.055
-500.653	-200.000	0.047	0.251
-499.639	-15.050	-0.095	0.060
-498.624	-121.931	0.288	-0.047
-497.610	480.168	-0.032	0.072
-496.595	-25.180	-0.221	-0.130
-495.581	-75.943	-0.097	0.034
-494.566	-79.390	0.245	-0.083
-493.551	-58.999	0.106	-0.045
-492.537	373.977	0.101	-0.205
-491.522	800.000	-0.050	0.211
-490.508	-83.026	-0.256	0.082
-489.493	-115.246	-0.297	-0.056
-488.478	552.512	-0.134	0.321
-487.464	-200.000	0.021	0.223
-486.449	1.108	0.264	0.188
-485.435	647.940	-0.037	-0.095
-484.420	49.758	0.310	0.290
-483.405	13.431	0.181	-0.139
-482.391	-200.000	-0.019	-0.094
-481.376	36.221	-0.227	-0.199
-480.362	143.951	-0.214	0.284
-479.347	-25.782	-0.172	-0.101
-478.332	-200.000	0.003	-0.061
-477.318	47.610	-0.207	-0.192
-476.303	-53.426	0.279	0.127
-475.289	141.507	-0.140	0.185
-474.274	800.000	-0.112	-0.343
-473.259	4.763	0.173	0.126
-472.245	-200.000	0.005	0.056
-471.230	191.193	0.030	-0.045
-470.216	-200.000	-0.046	0.266
-469.201	-56.405	0.115	-0.051
-468.186	21.427	0.133	0.107
-467.172	186.553	-0.009	0.014
-466.157	-69.172	-0.253	0.097
-465.143	266.092	0.057	0.100
-464.128	8.553	-0.230	-0.172
-463.113	260.681	-0.296	-0.509
-462.099	-133.354	0.328	-0.041
-461.084	231.680	0.025	0.041
-460.070	-200.000	-0.034	-0.300
-459.055	17.798	-0.257	-0.203
-458.040	384.362	-0.104	-0.212
-457.026	-200.000	0.019	0.273
-456.011	255.782	-0.098	0.167
-454.997	-3.119	0.223	-0.155
-453.982	-30.638	0.170	0.095
-452.968	613.749	-0.044	-0.110
-451.953	-200.000	-0.008	-0.475
-450.938	-91.686	0.045	-0.013
-449.924	-20.502	-0.247	0.151
-448.909	126.216	0.136	0.171
-447.895	45.231	-0.084	0.077
-446.880	-13.924	-0.113	-0.073
-445.865	-30.173	0.187	-0.105
-444.851	217.601	-0.113	-0.178
-443.836	456.969	-0.136	-0.299
-442.822	-85.316	0.234	0.072
-441.807	-200.000	0.005	-0.162
-440.792	800.000	-0.027	0.113
-439.778	-73.334	0.143	0.052
-438.763	629.502	-0.073	0.183
-437.749	-13.524	0.060	0.039
-436.734	-1.513	-0.097	0.068
-435.719	22.624	0.165	0.134
-434.705	-157.135	-0.128	-0.008
-433.690	120.090	0.025	-0.031
-432.676	54.688	-0.190	0.182
-431.661	536.209	0.109	-0.257
-430.646	376.181	0.156	-0.315
-429.632	125.325	0.228	-0.285
-428.617	-200.000	-0.004	0.088
-427.603	-129.136	-0.135	-0.019
-426.588	24.156	-0.273	-0.224
-425.573	74.354	-0.099	-0.103
-424.559	0.232	0.273	-0.193
-423.544	-11.319	0.046	0.030
-422.530	800.000	-0.037	-0.135
-421.515	690.897	0.118	0.306
-420.500	-200.000	-0.000	-0.013
-419.486	-200.000	0.025	0.163
-418.471	52.801	-0.195	0.185
-417.457	800.000	0.021	-0.059
-416.442	-56.376	-0.293	-0.129
-415.428	-47.079	0.162	0.078
-414.413	260.171	-0.065	0.111
-413.398	45.239	0.027	0.025
-412.384	-200.000	0.002	0.287
-411.369	-200.000	-0.035	0.196
-410.355	800.000	-0.021	-0.068
-409.340	-200.000	-0.001	0.030
-408.325	-29.441	-0.037	0.021
-407.311	11.561	0.243	0.185
-406.296	215.276	0.044	0.069
-405.282	383.621	-0.035	0.071
-404.267	800.000	-0.033	0.102
-403.252	-56.986	0.150	0.066
-402.238	170.715	-0.240	0.341
-401.223	-104.564	-0.374	0.086
-400.209	-75.537	0.221	0.078
-399.194	7.539	-0.181	-0.134
-398.179	366.885	-0.115	-0.229
-397.165	-200.000	-0.021	0.125
-396.150	-119.545	0.213	-0.037
-395.136	-49.328	-0.189	-0.089
-394.121	-130.488	-0.129	-0.017
-393.106	800.000	-0.119	-0.339
-392.092	-98.946	0.379	-0.095
-391.077	23.316	-0.111	0.090
-390.063	800.000	-0.103	-0.393
-389.048	-44.648	-0.094	-0.047
-388.033	-30.429	-0.220	0.123
-387.019	800.000	-0.015	-0.043
-386.004	142.841	-0.048	-0.063
-384.990	800.000	0.052	-0.159
-383.975	217.002	-0.138	-0.218
-382.960	-66.696	0.140	0.055
-381.946	-200.000	-0.029	0.395
-380.931	-64.316	-0.147	-0.059
-379.917	-146.068	-0.248	-0.022
-378.902	-31.612	-0.109	-0.061
-377.888	322.861	0.049	-0.093
-376.873	-200.000	-0.047	0.213
-375.858	-141.917	-0.376	0.037
-374.844	-200.000	-0.041	0.287
-373.829	-19.984	-0.078	0.048
-372.815	-45.674	0.346	-0.169
-371.800	-151.510	0.052	0.004
-370.785	183.127	-0.079	0.116
-369.771	800.000	0.103	-0.317
-368.756	-100.548	0.407	0.100
-367.742	289.145	0.158	0.283
-366.727	305.261	-0.079	0.145
-365.712	-85.028	0.195	-0.061
-364.698	-97.717	-0.266	0.068
-363.683	42.671	-0.358	-0.323
-362.669	97.948	0.190	-0.217
-361.654	-200.000	0.030	-0.217
-360.639	-200.000	-0.015	-0.376
-359.625	96.887	0.173	0.196
-358.610	82.753	0.178	-0.191
-357.596	-160.440	0.432	0.023
-356.581	-153.624	0.289	0.020
-355.566	-81.697	-0.136	-0.044
-354.552	-200.000	-0.071	0.334
-353.537	-200.000	0.061	-0.359
-352.523	315.215	-0.065	-0.122
-351.508	262.474	-0.077	-0.132
-350.493	123.406	-0.049	-0.061
-349.479	342.186	0.109	-0.210
-348.464	-200.000	0.019	-0.178
-347.450	800.000	0.104	0.399
-346.435	-73.284	-0.279	0.101
-345.420	-56.578	0.080	0.035
-344.406	139.110	-0.134	0.174
-343.391	-20.917	-0.233	-0.141
-342.377	-58.091	0.147	-0.063
-341.362	33.788	0.298	0.256
-340.348	-53.689	0.106	-0.048
-339.333	800.000	-0.004	-0.018
-338.318	-200.000	0.041	0.179
-337.304	16.908	0.071	-0.056
-336.289	800.000	-0.042	-0.172
-335.275	800.000	-0.105	-0.427
-334.260	25.438	0.144	0.118
-333.245	139.578	0.182	-0.237
-332.231	-93.785	0.335	-0.091
-331.216	-18.829	0.464	-0.286
-330.202	-55.334	-0.192	0.085
-329.187	141.713	0.025	-0.033
-328.172	-84.248	-0.325	0.102
-327.158	-200.000	0.019	0.272
-326.143	-77.142	0.283	-0.097
-325.129	-200.000	-0.008	0.135
-324.114	-81.340	-0.220	0.072
-323.099	707.328	0.080	0.209
-322.085	151.613	0.110	-0.148
-321.070	-200.000	0.008	-0.240
-320.056	-27.664	-0.209	-0.120
-319.041	-200.000	0.073	-0.380
-318.026	383.815	0.107	0.217
-317.012	74.324	-0.025	0.026
-315.997	-200.000	-0.014	-0.172
-314.983	88.727	0.122	0.134
-313.968	6.200	-0.377	0.276
-312.953	375.365	0.061	-0.123
-311.939	669.449	0.100	-0.255
-310.924	781.354	-0.108	0.293
-309.910	28.588	-0.037	-0.031
-308.895	762.098	-0.068	-0.183
-307.880	-117.586	-0.173	-0.031
-306.866	95.451	-0.158	0.178
-305.851	-172.095	0.353	0.011
-304.837	-200.000	0.030	0.134
-303.822	482.984	-0.037	-0.084
-302.807	192.529	0.171	0.254
-301.793	-200.000	0.063	0.372
-300.778	-22.607	0.478	-0.286
-299.764	49.473	-0.243	-0.226
-298.749	-129.131	-0.276	-0.038
-297.735	-148.544	-0.005	0.000
-296.720	33.133	-0.040	0.034
-295.705	46.625	0.266	-0.244
-294.691	-178.301	-0.139	0.003
-293.676	-200.000	-0.055	-0.277
-292.662	-107.417	0.331	0.072
-291.647	-200.000	0.020	0.329
-290.632	800.000	-0.049	0.195
-289.618	-200.000	0.026	0.174
-288.603	418.657	0.021	0.043
-287.589	-200.000	-0.030	-0.327
-286.574	319.533	-0.093	0.174
-285.559	-200.000	0.033	0.256
-284.545	-13.005	-0.359	-0.231
-283.530	-200.000	-0.017	0.121
-282.516	10.520	0.219	0.165
-281.501	-200.000	-0.021	0.263
-280.486	800.000	-0.059	0.178
-279.472	206.481	-0.161	-0.247
-278.457	-104.735	-0.312	-0.071
-277.443	-28.099	0.048	0.027
-276.428	71.615	0.057	-0.058
-275.413	-200.000	0.020	0.138
-274.399	-72.342	0.162	0.059
-273.384	124.357	0.054	0.067
-272.370	-96.501	0.192	-0.050
-271.355	30.766	-0.088	0.075
-270.340	-200.000	0.018	-0.084
-269.326	31.462	-0.155	0.132
-268.311	-175.125	-0.156	0.004
-267.297	-200.000	-0.009	-0.090
-266.282	-7.919	0.065	-0.043
-265.267	314.257	0.089	0.165
-264.253	800.000	-0.085	0.272
-263.238	-131.728	0.382	0.049
-262.224	-165.206	0.243	-0.011
-261.209	53.940	-0.109	-0.104
-260.195	-200.000	0.026	-0.420
-259.180	-164.395	-0.102	-0.005
-258.165	-109.482	0.178	0.037
-257.151	800.000	0.043	-0.128
-256.136	800.000	0.027	0.097
-255.122	-68.493	0.148	-0.057
-254.107	466.511	-0.115	0.255
-253.092	-52.431	-0.084	0.038
-252.078	-200.000	0.001	0.085
-251.063	47.749	0.244	0.225
-250.049	-200.000	-0.070	0.313
-249.034	-85.154	-0.111	-0.034
-248.019	-146.035	0.221	0.019
-247.005	-200.000	-0.010	-0.191
-245.990	134.627	-0.148	0.189
-244.976	-200.000	-0.042	0.192
-243.961	-115.392	0.252	0.047
-242.946	416.075	-0.068	-0.144
-241.932	800.000	-0.023	-0.066
-240.917	18.286	-0.091	0.071
-239.903	0.839	0.102	0.072
-238.888	-55.212	-0.299	-0.133
-237.873	800.000	-0.091	0.376
-236.859	800.000	0.048	0.153
-235.844	150.275	0.046	0.062
-234.830	-10.135	0.113	0.074
-233.815	-163.460	0.142	0.007
-232.800	-200.000	0.023	-0.155
-231.786	-200.000	0.001	-0.272
-230.771	800.000	0.044	-0.184
-229.757	-200.000	0.005	-0.180
-228.742	-15.251	0.124	-0.078
-227.727	-157.456	-0.281	-0.017
-226.713	229.689	0.099	-0.159
-225.698	-57.285	0.078	-0.034
-224.684	800.000	-0.040	0.109
-223.669	-42.778	0.365	0.183
-222.655	257.995	-0.090	0.153
-221.640	-185.583	-0.221	-0.003
-220.625	138.485	0.134	0.173
-219.611	119.823	0.198	-0.241
-218.596	-200.000	-0.015	-0.118
-217.582	-13.019	0.155	-0.099
-216.567	-139.782	0.139	-0.015
-215.552	-200.000	0.071	0.366
-214.538	-200.000	0.006	-0.142
-213.523	-169.124	-0.111	-0.004
-212.509	-68.932	-0.071	0.027
-211.494	-165.110	0.154	-0.007
-210.479	421.259	0.099	0.210
-209.465	58.448	0.256	-0.247
-208.450	90.685	0.215	-0.237
-207.436	-33.177	-0.143	0.078
-206.421	-112.894	-0.171	0.033
-205.406	-27.844	-0.229	0.131
-204.392	-169.167	-0.438	0.016
-203.377	-200.000	0.033	-0.264
-202.363	-200.000	-0.042	-0.290
-201.348	800.000	0.050	0.138
-200.333	115.012	0.204	-0.245
-199.319	412.628	-0.115	0.240
-198.304	-18.905	-0.263	-0.161
-197.290	800.000	0.103	-0.425
-196.275	-96.181	0.353	-0.092
-195.260	800.000	-0.041	0.172
-194.246	-123.172	0.172	0.027
-193.231	204.177	0.095	-0.145
-192.217	71.295	-0.163	0.166
-191.202	800.000	0.057	-0.179
-190.187	126.014	0.046	-0.057
-189.173	-200.000	0.002	-0.077
-188.158	512.904	0.053	-0.121
-187.144	626.745	0.012	-0.029
-186.129	800.000	-0.030	0.121
-185.114	155.173	0.101	-0.136
-184.100	58.595	0.160	0.155
-183.085	800.000	-0.108	0.429
-182.071	-72.085	0.276	0.101
-181.056	174.165	-0.192	0.272
-180.042	-90.455	0.333	0.095
-179.027	374.710	0.187	-0.374
-178.012	-170.903	-0.256	-0.009
-176.998	118.999	0.186	-0.226
-175.983	-200.000	0.007	0.274
-174.969	74.492	-0.361	-0.373
-173.954	-200.000	-0.002	-0.178
-172.939	140.833	-0.124	0.161
-171.925	-185.681	-0.129	0.002
-170.910	32.680	-0.088	0.074
-169.896	185.599	-0.166	-0.243
-168.881	-133.584	0.385	-0.047
-167.866	45.793	-0.281	-0.255
-166.852	-200.000	0.000	0.205
-165.837	9.881	-0.104	-0.078
-164.823	426.331	-0.122	-0.258
-163.808	780.176	-0.053	0.141
-162.793	-102.917	-0.319	-0.074
-161.779	-8.049	-0.206	-0.136
-160.764	156.321	0.141	-0.191
-159.750	324.448	0.032	-0.060
-158.735	-182.879	0.187	-0.003
-157.720	170.228	0.115	0.161
-156.706	4.049	0.064	-0.046
-155.691	342.805	0.084	-0.161
-154.677	-138.271	0.396	-0.043
-153.662	-92.505	0.196	0.054
-152.647	-170.252	0.106	0.004
-151.633	-200.000	-0.004	-0.148
-150.618	-132.617	0.299	-0.038
-149.604	357.980	-0.152	0.299
-148.589	-153.994	0.289	-0.019
-147.574	61.846	-0.119	0.117
-146.560	-17.330	0.276	-0.170
-145.545	-30.500	0.139	-0.077
-144.531	-132.258	0.147	-0.019
-143.516	9.435	-0.237	-0.176
-142.502	13.611	0.058	0.044
-141.487	-200.000	-0.012	-0.079
-140.472	-81.455	-0.189	0.061
-139.458	156.575	0.181	0.245
-138.443	-200.000	0.018	0.247
-137.429	107.366	0.151	-0.176
-136.414	-200.000	0.037	0.291
-135.399	800.000	-0.066	0.238
-134.385	74.812	0.095	0.098
-133.370	800.000	-0.148	-0.412
-132.356	132.232	-0.154	0.194
-131.341	-200.000	0.008	0.036
-130.326	56.960	0.012	-0.011
-129.312	213.738	0.046	-0.072
-128.297	-27.393	-0.075	-0.043
-127.283	310.579	-0.053	0.097
-126.268	-18.538	-0.403	-0.247
-125.253	-34.393	0.151	-0.081
-124.239	-58.662	-0.103	0.044
-123.224	-5.706	-0.184	-0.124
-122.210	-183.995	0.367	0.006
