DTS Sentinel unit serial number:	SN413079Multiplexer serial number:	ORYXHardware model number:	OX4-SRSoftware version number:	ORYX F/W v4.00 Oryx Data Collector v3.7.2.0data status	okinstallation	princeton_trtdifferential loss correction	single-endedforward channel	channel 2reverse channel	N/Adate	2019/09/17time	23:15:34forward acquisition time	60.00reverse acquisition time	0.00gamma	496.2192k internal	0.2347k external	0.2347temperature offset calibration	0.9983default loss term (dB/km)	0.3790temperature slope calibration	1.0000multiplexer offset coefficient	1.0000multiplexer slope coefficient	1.0000fibre end	0.00T internal ref (°C)	24.50T ext. ref 1 (°C)	0.17T ext. ref 2 (°C)	17.69length (m)	temperature (°C)	Stokes	anti-Stokes-747.200	-43.903	0.211	0.106
-746.185	188.315	-0.246	0.367
-745.171	32.419	-0.057	0.049
-744.156	157.743	-0.078	0.108
-743.142	-41.477	-0.574	-0.295
-742.127	-200.000	-0.001	0.088
-741.112	342.636	0.107	0.210
-740.098	143.949	-0.061	0.081
-739.083	90.051	-0.328	0.366
-738.069	-200.000	0.037	0.244
-737.054	452.920	0.064	0.142
-736.039	-200.000	0.002	-0.333
-735.025	-164.930	0.344	0.015
-734.010	-64.171	-0.376	0.153
-732.996	317.705	0.109	0.206
-731.981	15.460	-0.297	0.233
-730.966	-18.175	0.234	0.146
-729.952	116.688	0.080	-0.098
-728.937	800.000	0.045	-0.141
-727.923	98.694	-0.199	0.229
-726.908	-6.273	-0.180	-0.123
-725.894	-110.197	0.227	0.047
-724.879	-154.180	-0.401	-0.027
-723.864	-82.607	-0.271	0.088
-722.850	37.964	-0.234	-0.208
-721.835	-135.975	0.145	-0.017
-720.821	800.000	-0.051	-0.148
-719.806	153.051	-0.133	0.182
-718.791	-146.600	-0.345	0.030
-717.777	800.000	-0.080	0.320
-716.762	3.109	-0.160	-0.116
-715.748	-57.621	-0.256	-0.112
-714.733	8.268	0.041	-0.031
-713.718	2.014	0.413	0.297
-712.704	800.000	0.096	-0.357
-711.689	288.529	-0.042	0.076
-710.675	-37.954	-0.035	-0.018
-709.660	104.028	-0.176	-0.206
-708.645	-79.996	0.190	0.064
-707.631	-60.703	0.216	-0.091
-706.616	-185.648	-0.143	0.002
-705.602	-81.642	0.179	0.059
-704.587	-3.157	-0.286	-0.199
-703.572	-75.985	0.211	0.074
-702.558	-72.551	0.023	0.009
-701.543	2.698	0.255	0.184
-700.529	285.335	0.116	0.208
-699.514	330.788	-0.039	0.074
-698.499	83.145	-0.107	-0.116
-697.485	800.000	-0.031	-0.093
-696.470	-200.000	0.001	-0.140
-695.456	223.701	0.059	-0.095
-694.441	-200.000	0.000	0.107
-693.426	60.963	0.091	0.090
-692.412	-200.000	-0.011	-0.053
-691.397	-200.000	0.037	-0.373
-690.383	110.352	0.199	-0.239
-689.368	-200.000	-0.036	0.206
-688.354	-65.735	-0.240	0.096
-687.339	800.000	-0.047	-0.180
-686.324	49.957	-0.170	0.160
-685.310	498.770	0.068	0.156
-684.295	145.875	-0.248	-0.331
-683.281	318.750	-0.075	0.142
-682.266	800.000	-0.028	0.111
-681.251	251.944	0.033	0.056
-680.237	-31.324	-0.065	0.036
-679.222	-100.008	0.171	0.042
-678.208	-200.000	-0.001	0.110
-677.193	45.199	-0.108	0.099
-676.178	-200.000	-0.011	-0.135
-675.164	-59.988	0.181	-0.077
-674.149	-36.487	-0.386	-0.207
-673.135	61.381	-0.396	-0.393
-672.120	75.812	0.212	-0.223
-671.105	800.000	-0.063	0.186
-670.091	-200.000	-0.026	0.145
-669.076	800.000	-0.099	0.274
-668.062	176.877	-0.164	-0.237
-667.047	489.041	-0.087	0.197
-666.032	779.515	-0.017	-0.047
-665.018	-200.000	-0.052	0.265
-664.003	88.521	-0.047	0.052
-662.989	109.934	-0.106	0.126
-661.974	800.000	0.018	-0.054
-660.959	-26.523	-0.167	-0.097
-659.945	-129.511	-0.312	0.043
-658.930	104.117	-0.029	-0.034
-657.916	-72.283	0.143	-0.053
-656.901	-12.715	-0.224	-0.145
-655.886	-200.000	0.020	0.116
-654.872	800.000	-0.140	0.483
-653.857	-85.914	-0.547	0.169
-652.843	-200.000	-0.012	-0.096
-651.828	611.411	-0.064	0.159
-650.814	-72.255	0.068	0.025
-649.799	-177.929	0.222	0.005
-648.784	-141.097	-0.585	0.060
-647.770	50.920	-0.008	0.008
-646.755	-72.934	0.354	0.130
-645.741	27.798	0.217	0.182
-644.726	-200.000	0.058	0.290
-643.711	111.366	0.148	0.178
-642.697	212.457	-0.112	-0.175
-641.682	800.000	0.071	-0.210
-640.668	-67.363	-0.029	-0.011
-639.653	-28.890	-0.223	-0.127
-638.638	-147.517	-0.135	-0.011
-637.624	800.000	0.026	-0.080
-636.609	206.448	-0.121	0.187
-635.595	301.149	0.117	0.215
-634.580	-85.039	-0.221	-0.069
-633.565	350.121	0.106	0.209
-632.551	-159.564	0.622	-0.034
-631.536	-37.539	0.060	-0.032
-630.522	653.490	-0.027	-0.068
-629.507	281.190	0.103	-0.183
-628.492	800.000	-0.050	0.145
-627.478	-9.080	0.114	-0.076
-626.463	-164.272	-0.090	-0.004
-625.449	587.925	-0.072	0.175
-624.434	140.387	-0.138	0.181
-623.419	166.380	-0.068	0.096
-622.405	-81.212	-0.280	-0.092
-621.390	109.178	-0.080	-0.095
-620.376	-150.044	-0.068	-0.005
-619.361	-8.186	-0.130	0.087
-618.346	-200.000	0.058	-0.384
-617.332	-200.000	0.003	0.239
-616.317	800.000	0.033	0.129
-615.303	-41.756	-0.103	0.053
-614.288	-115.946	0.120	-0.022
-613.273	-115.181	-0.330	0.062
-612.259	48.491	-0.246	-0.229
-611.244	-48.177	0.100	0.048
-610.230	-71.550	0.183	0.068
-609.215	749.899	-0.088	-0.237
-608.201	-33.607	-0.161	-0.088
-607.186	800.000	0.051	-0.177
-606.171	468.394	-0.066	-0.146
-605.157	800.000	-0.019	0.082
-604.142	-200.000	-0.005	0.138
-603.128	-200.000	-0.044	0.234
-602.113	88.311	0.061	0.068
-601.098	-200.000	0.018	0.087
-600.084	-142.858	0.345	-0.033
-599.069	241.318	0.119	-0.197
-598.055	800.000	0.025	0.077
-597.040	-200.000	-0.036	-0.211
-596.025	-50.610	0.111	-0.052
-595.011	-34.702	0.054	-0.029
-593.996	381.504	-0.067	-0.136
-592.982	800.000	-0.047	-0.166
-591.967	141.943	0.108	0.143
-590.952	-27.295	-0.137	0.079
-589.938	-200.000	-0.050	-0.278
-588.923	129.901	-0.114	-0.145
-587.909	800.000	-0.053	-0.229
-586.894	575.130	-0.093	0.226
-585.879	-146.221	-0.145	0.013
-584.865	-31.227	-0.283	0.158
-583.850	-7.246	0.071	-0.048
-582.836	-52.987	0.143	-0.065
-581.821	-129.845	0.043	0.006
-580.806	288.547	-0.141	-0.254
-579.792	-200.000	0.058	-0.279
-578.777	-146.907	-0.027	-0.002
-577.763	-45.833	-0.147	-0.072
-576.748	-69.963	-0.122	-0.046
-575.733	91.888	0.342	0.383
-574.719	45.759	-0.202	0.186
-573.704	-53.293	-0.116	-0.053
-572.690	800.000	-0.091	-0.256
-571.675	-82.570	-0.321	-0.103
-570.661	11.429	-0.355	-0.270
-569.646	208.121	0.151	0.234
-568.631	335.678	-0.126	0.243
-567.617	19.431	0.061	0.049
-566.602	202.263	0.067	0.103
-565.588	-50.821	-0.124	0.058
-564.573	62.063	0.281	-0.278
-563.558	-200.000	-0.001	-0.094
-562.544	800.000	-0.017	-0.060
-561.529	800.000	0.064	0.207
-560.515	-135.069	-0.188	-0.022
-559.500	-105.843	-0.131	0.029
-558.485	-125.139	0.317	-0.048
-557.471	-11.768	0.360	-0.234
-556.456	-85.080	-0.253	0.079
-555.442	-200.000	0.023	0.108
-554.427	-132.922	0.322	0.041
-553.412	-200.000	0.020	0.172
-552.398	71.147	-0.129	-0.132
-551.383	121.937	-0.258	-0.319
-550.369	-153.261	-0.155	-0.011
-549.354	-137.528	-0.143	-0.016
-548.339	98.616	-0.212	-0.243
-547.325	-11.462	0.070	0.046
-546.310	359.069	-0.167	-0.332
-545.296	-200.000	0.018	-0.243
-544.281	100.154	-0.133	0.153
-543.266	-69.516	0.189	-0.072
-542.252	39.762	-0.081	0.072
-541.237	-119.958	-0.236	-0.040
-540.223	-93.113	0.260	-0.072
-539.208	11.489	-0.155	0.118
-538.193	-199.942	0.377	0.002
-537.179	-57.405	0.146	0.064
-536.164	381.370	0.059	-0.120
-535.150	-200.000	-0.014	0.158
-534.135	223.465	-0.134	0.214
-533.121	202.939	0.239	0.366
-532.106	-200.000	-0.043	-0.358
-531.091	800.000	-0.023	0.098
-530.077	-131.550	0.321	0.042
-529.062	-200.000	0.006	0.068
-528.048	-184.646	0.199	-0.003
-527.033	-171.828	0.180	0.006
-526.018	-156.723	0.016	-0.001
-525.004	74.554	0.140	0.146
-523.989	-97.008	-0.212	0.055
-522.975	621.479	0.060	0.150
-521.960	-200.000	-0.045	0.225
-520.945	87.378	-0.202	0.222
-519.931	-145.903	-0.313	-0.028
-518.916	40.446	0.119	-0.107
-517.902	288.058	-0.173	0.310
-516.887	-86.484	-0.232	-0.071
-515.872	-82.407	0.334	0.108
-514.858	34.098	0.101	0.087
-513.843	-200.000	0.010	0.113
-512.829	174.889	-0.163	-0.234
-511.814	617.372	-0.040	0.099
-510.799	-200.000	-0.000	-0.062
-509.785	-200.000	-0.042	-0.324
-508.770	-35.665	0.187	0.100
-507.756	800.000	-0.065	0.256
-506.741	-200.000	0.005	0.022
-505.726	-200.000	0.034	0.262
-504.712	-8.485	-0.330	-0.219
-503.697	-190.171	-0.143	0.002
-502.683	-200.000	-0.001	0.212
-501.668	-200.000	0.010	0.114
-500.653	387.037	0.055	0.113
-499.639	-200.000	0.035	-0.342
-498.624	-103.974	-0.110	0.025
-497.610	-200.000	0.025	-0.233
-496.595	-33.977	0.033	0.018
-495.581	-200.000	-0.010	0.266
-494.566	-134.889	0.255	0.031
-493.551	27.814	0.283	-0.236
-492.537	-16.980	-0.190	-0.119
-491.522	259.329	0.112	0.191
-490.508	-22.964	0.124	0.074
-489.493	-26.477	0.291	-0.169
-488.478	46.047	0.124	-0.113
-487.464	-141.533	-0.256	-0.026
-486.449	-176.912	-0.342	-0.009
-485.435	116.458	0.168	0.204
-484.420	-42.295	-0.221	0.111
-483.405	232.711	0.100	-0.163
-482.391	123.602	-0.115	0.143
-481.376	48.117	0.122	-0.113
-480.362	497.825	-0.116	0.264
-479.347	-199.563	0.332	-0.002
-478.332	568.857	0.142	0.342
-477.318	800.000	0.058	-0.198
-476.303	-200.000	-0.019	-0.113
-475.289	720.712	-0.067	0.176
-474.274	56.847	0.106	0.102
-473.259	-157.631	0.468	-0.028
-472.245	21.753	-0.164	0.132
-471.230	221.781	0.163	-0.259
-470.216	13.604	0.162	0.125
-469.201	-33.857	0.059	-0.032
-468.186	117.984	0.028	-0.034
-467.172	-200.000	0.008	-0.130
-466.157	97.828	-0.326	0.371
-465.143	-135.819	-0.265	-0.031
-464.128	-44.608	0.127	-0.063
-463.113	-200.000	0.021	0.133
-462.099	5.622	0.139	0.101
-461.084	-200.000	-0.009	0.039
-460.070	-0.941	0.306	0.214
-459.055	-65.742	-0.274	0.109
-458.040	-71.018	-0.216	-0.080
-457.026	800.000	-0.065	-0.222
-456.011	-1.073	-0.226	-0.158
-454.997	-129.737	-0.224	-0.030
-453.982	-89.822	0.333	-0.096
-452.968	576.994	0.094	0.228
-451.953	564.678	0.042	-0.101
-450.938	-121.506	0.124	-0.020
-449.924	144.379	0.226	-0.299
-448.909	760.845	-0.125	0.334
-447.895	20.201	0.045	0.036
-446.880	705.756	0.034	-0.088
-445.865	412.315	-0.070	0.148
-444.851	-94.356	-0.143	-0.038
-443.836	78.899	0.049	-0.052
-442.822	800.000	-0.016	0.045
-441.807	110.065	0.138	-0.164
-440.792	-107.424	0.058	0.013
-439.778	-45.718	-0.455	-0.222
-438.763	800.000	0.082	0.240
-437.749	800.000	-0.122	-0.344
-436.734	179.576	-0.057	-0.082
-435.719	146.697	-0.093	0.124
-434.705	727.521	0.231	-0.608
-433.690	218.134	0.122	-0.192
-432.676	-14.994	-0.125	-0.079
-431.661	-130.201	0.235	-0.032
-430.646	74.993	-0.188	-0.195
-429.632	-200.000	0.036	-0.154
-428.617	163.413	-0.211	0.292
-427.603	-200.000	-0.013	-0.059
-426.588	800.000	0.069	-0.196
-425.573	171.592	0.142	0.202
-424.559	800.000	0.092	-0.346
-423.544	278.587	-0.069	-0.121
-422.530	-22.334	0.066	-0.040
-421.515	-68.792	0.131	-0.050
-420.500	-9.818	-0.229	-0.150
-419.486	-28.920	0.242	-0.137
-418.471	-12.699	0.067	0.043
-417.457	-192.630	0.120	0.001
-416.442	-36.656	-0.184	0.098
-415.428	-92.316	0.173	-0.048
-414.413	-147.551	0.447	-0.037
-413.398	248.636	0.083	0.138
-412.384	361.061	-0.121	0.239
-411.369	53.455	0.199	0.188
-410.355	67.356	-0.198	-0.200
-409.340	136.773	-0.214	-0.275
-408.325	41.006	0.135	-0.120
-407.311	-25.785	-0.111	-0.065
-406.296	-200.000	-0.026	-0.292
-405.282	469.468	-0.014	0.032
-404.267	-200.000	0.000	0.148
-403.252	800.000	0.057	-0.232
-402.238	28.221	0.145	0.121
-401.223	-168.270	-0.427	-0.016
-400.209	-200.000	0.002	0.058
-399.194	45.742	0.174	-0.159
-398.179	434.401	-0.137	-0.294
-397.165	389.275	0.172	-0.352
-396.150	332.068	-0.058	-0.111
-395.136	83.225	0.188	-0.202
-394.121	-200.000	0.015	-0.180
-393.106	92.373	0.142	0.158
-392.092	94.349	0.141	0.158
-391.077	-33.816	-0.200	0.109
-390.063	-129.089	0.149	-0.021
-389.048	-158.726	0.053	0.003
-388.033	305.022	0.190	0.348
-387.019	39.283	-0.233	0.205
-386.004	800.000	0.073	-0.214
-384.990	495.235	0.126	-0.286
-383.975	-91.364	-0.256	0.072
-382.960	773.034	0.119	0.320
-381.946	29.900	-0.241	0.202
-380.931	-95.229	-0.152	-0.040
-379.917	-67.202	0.262	-0.102
-378.902	92.763	0.177	0.196
-377.888	-200.000	0.003	0.113
-376.873	-200.000	-0.041	-0.474
-375.858	-63.921	-0.269	-0.108
-374.844	81.132	0.325	0.346
-373.829	78.160	0.036	0.038
-372.815	-64.790	0.338	0.135
-371.800	-157.512	-0.332	-0.020
-370.785	75.158	0.031	-0.032
-369.771	-200.000	0.014	-0.137
-368.756	25.039	0.252	0.206
-367.742	761.612	-0.067	-0.178
-366.727	-87.176	0.152	-0.046
-365.712	385.541	-0.119	0.241
-364.698	-200.000	-0.003	-0.299
-363.683	43.784	-0.089	0.080
-362.669	33.048	0.123	0.105
-361.654	178.850	-0.071	-0.102
-360.639	-200.000	-0.016	0.139
-359.625	-58.215	0.421	0.181
-358.610	-180.952	-0.304	-0.006
-357.596	-85.588	0.290	-0.089
-356.581	-153.286	0.322	0.022
-355.566	5.966	0.297	-0.216
-354.552	494.326	-0.192	-0.433
-353.537	-175.937	-0.365	-0.010
-352.523	-94.791	0.393	0.105
-351.508	800.000	-0.105	0.326
-350.493	4.428	-0.176	-0.127
-349.479	142.570	0.260	0.339
-348.464	-43.225	0.138	-0.069
-347.450	53.759	-0.240	0.227
-346.435	-200.000	0.024	-0.206
-345.420	-30.295	0.195	0.109
-344.406	-200.000	0.031	0.206
-343.391	-200.000	0.022	0.150
-342.377	-158.601	0.278	0.016
-341.362	147.658	-0.245	0.325
-340.348	69.482	-0.358	0.363
-339.333	-35.736	0.343	0.183
-338.318	216.239	-0.179	-0.279
-337.304	-97.560	-0.211	0.054
-336.289	-200.000	-0.019	0.261
-335.275	-197.915	0.316	0.002
-334.260	-65.736	-0.251	-0.099
-333.245	-200.000	0.016	-0.086
-332.231	800.000	-0.035	-0.118
-331.216	-200.000	0.045	-0.271
-330.202	-35.271	0.069	-0.037
-329.187	171.247	0.043	0.060
-328.172	239.574	-0.171	0.280
-327.158	-75.238	-0.075	0.026
-326.143	-14.676	-0.145	0.092
-325.129	101.609	-0.151	0.173
-324.114	-67.678	0.320	0.123
-323.099	0.999	0.039	-0.027
-322.085	-200.000	-0.015	-0.257
-321.070	-200.000	-0.030	0.295
-320.056	65.079	-0.166	-0.165
-319.041	800.000	-0.107	0.306
-318.026	-144.334	-0.296	0.027
-317.012	351.754	0.188	0.366
-315.997	-200.000	-0.068	0.294
-314.983	648.489	0.044	0.111
-313.968	748.226	-0.127	-0.337
-312.953	76.269	-0.152	-0.158
-311.939	-90.961	0.217	-0.061
-310.924	160.371	0.206	-0.283
-309.910	20.717	-0.208	0.166
-308.895	360.865	0.084	0.164
-307.880	-123.512	0.137	-0.021
-306.866	-200.000	-0.010	-0.174
-305.851	-73.157	-0.092	-0.033
-304.837	-200.000	-0.065	0.304
-303.822	-63.530	0.075	-0.030
-302.807	429.584	-0.140	0.297
-301.793	90.539	-0.117	0.129
-300.778	6.640	0.342	-0.250
-299.764	800.000	-0.042	0.126
-298.749	800.000	-0.064	0.208
-297.735	88.802	-0.127	0.139
-296.720	18.639	-0.128	-0.100
-295.705	-132.221	0.127	0.016
-294.691	800.000	0.151	-0.535
-293.676	30.817	-0.350	-0.294
-292.662	-200.000	0.035	-0.251
-291.647	-46.415	-0.092	-0.044
-290.632	740.774	0.059	-0.157
-289.618	253.261	0.137	0.229
-288.603	-84.378	0.215	0.067
-287.589	-200.000	-0.014	-0.389
-286.574	-0.461	-0.277	-0.193
-285.559	524.983	0.068	0.158
-284.545	-120.510	-0.062	-0.010
-283.530	777.916	-0.030	0.081
-282.516	47.558	-0.214	0.196
-281.501	-92.016	-0.472	0.131
-280.486	72.277	-0.250	-0.255
-279.472	800.000	0.108	0.403
-278.457	215.448	-0.074	-0.116
-277.443	-37.403	0.119	-0.063
-276.428	76.044	-0.131	-0.136
-275.413	24.480	-0.124	0.101
-274.399	-103.731	0.118	-0.027
-273.384	-96.656	0.316	-0.082
-272.370	800.000	0.072	0.206
-271.355	80.912	-0.058	0.062
-270.340	-200.000	-0.031	0.346
-269.326	800.000	0.032	-0.135
-268.311	-19.844	-0.156	-0.095
-267.297	62.706	0.202	-0.198
-266.282	-200.000	-0.035	0.224
-265.267	800.000	0.023	-0.076
-264.253	-4.243	-0.146	0.099
-263.238	-53.871	-0.070	-0.031
-262.224	-158.332	-0.469	-0.027
-261.209	120.292	-0.140	0.170
-260.195	-63.320	-0.240	0.097
-259.180	12.526	0.170	0.129
-258.165	531.313	-0.049	0.114
-257.151	113.986	-0.083	0.098
-256.136	-200.000	0.031	-0.237
-255.122	-22.532	0.147	-0.087
-254.107	-200.000	0.000	-0.032
-253.092	-41.606	-0.076	-0.038
-252.078	21.905	-0.112	0.090
-251.063	657.151	0.056	-0.141
-250.049	800.000	0.058	0.179
-249.034	-41.007	0.165	-0.083
-248.019	-43.263	-0.124	0.061
-247.005	-123.792	-0.211	-0.033
-245.990	-176.534	0.162	0.004
-244.976	315.902	-0.071	-0.131
-243.961	25.380	0.242	0.197
-242.946	-34.219	-0.330	-0.178
-241.932	97.504	-0.149	-0.168
-240.917	-136.311	-0.122	-0.014
-239.903	5.103	-0.070	-0.050
-238.888	-200.000	-0.056	0.267
-237.873	-102.240	0.245	-0.058
-236.859	113.728	-0.097	0.115
-235.844	42.602	-0.133	-0.119
-234.830	58.830	0.220	-0.212
-233.815	-79.887	-0.202	-0.067
-232.800	-200.000	-0.032	-0.186
-231.786	-200.000	0.048	0.406
-230.771	-57.813	-0.185	0.079
-229.757	-71.800	0.482	-0.176
-228.742	800.000	0.058	-0.222
-227.727	93.397	0.167	-0.185
-226.713	-200.000	-0.028	0.132
-225.698	7.244	0.249	-0.182
-224.684	104.049	-0.152	0.175
-223.669	-61.567	0.212	-0.087
-222.655	-200.000	0.024	0.273
-221.640	411.898	-0.048	-0.101
-220.625	800.000	-0.023	0.086
-219.611	-50.411	-0.193	-0.089
-218.596	-200.000	-0.005	0.101
-217.582	-53.838	-0.270	0.120
-216.567	362.046	0.115	0.226
-215.552	227.637	0.090	0.144
-214.538	224.426	-0.150	0.237
-213.523	-19.877	0.239	0.144
-212.509	-60.921	0.228	-0.094
-211.494	-200.000	0.086	0.374
-210.479	-7.648	0.199	0.131
-209.465	-62.541	-0.204	-0.083
-208.450	-2.356	-0.272	0.187
-207.436	800.000	0.061	-0.180
-206.421	323.300	-0.070	0.131
-205.406	-63.488	-0.186	0.075
-204.392	698.277	-0.036	0.092
-203.377	158.006	0.115	-0.156
-202.363	-21.704	0.192	0.114
-201.348	56.778	0.184	-0.176
-200.333	-200.000	0.013	0.120
-199.319	81.536	-0.134	-0.142
-198.304	138.897	-0.188	-0.241
-197.290	163.794	-0.124	-0.171
-196.275	15.213	-0.179	-0.137
-195.260	-4.455	0.141	-0.095
-194.246	800.000	-0.061	-0.171
-193.231	-192.407	0.138	0.001
-192.217	648.893	-0.182	-0.455
-191.202	782.909	0.093	-0.249
-190.187	-200.000	0.001	-0.015
-189.173	800.000	-0.165	0.530
-188.158	689.126	0.138	-0.353
-187.144	800.000	0.118	-0.351
-186.129	-88.441	-0.092	-0.027
-185.114	184.736	-0.114	-0.165
-184.100	-14.124	-0.065	0.041
-183.085	-200.000	-0.010	0.245
-182.071	-7.984	0.347	-0.229
-181.056	-68.901	0.207	0.078
-180.042	-114.384	-0.320	-0.060
-179.027	-200.000	0.038	-0.168
-178.012	-115.891	0.144	0.026
-176.998	-92.463	-0.255	-0.070
-175.983	-25.327	0.303	-0.175
-174.969	-17.343	0.275	0.169
-173.954	-35.178	0.231	-0.123
-172.939	-46.487	0.150	0.072
-171.925	14.390	0.289	-0.220
-170.910	-62.476	-0.104	-0.042
-169.896	684.371	0.121	0.307
-168.881	-183.914	-0.149	0.002
-167.866	-102.337	-0.019	0.004
-166.852	34.421	0.261	-0.223
-165.837	-68.857	0.472	0.178
-164.823	16.726	0.279	-0.216
-163.808	63.790	-0.134	-0.132
-162.793	-124.392	0.084	0.013
-161.779	800.000	-0.082	0.306
-160.764	-200.000	-0.002	0.260
-159.750	-85.341	-0.262	-0.080
-158.735	406.636	-0.100	0.205
-157.720	-32.573	-0.036	0.020
-156.706	-121.660	-0.027	0.004
-155.691	503.457	0.040	0.089
-154.677	45.934	-0.329	0.298
-153.662	-134.570	-0.288	-0.034
-152.647	-99.510	0.034	0.008
-151.633	63.721	-0.021	-0.020
-150.618	-137.338	-0.088	0.010
-149.604	81.439	-0.200	0.211
-148.589	173.055	-0.149	-0.209
-147.574	-200.000	0.047	0.293
-146.560	-130.008	-0.302	-0.040
-145.545	2.590	0.229	0.162
-144.531	-149.993	-0.309	0.024
-143.516	-48.062	0.280	-0.132
-142.502	-50.155	0.271	-0.125
-141.487	416.376	0.160	-0.334
-140.472	146.969	-0.164	0.215
-139.458	557.533	0.102	-0.240
-138.443	-105.904	-0.362	-0.080
-137.429	-200.000	-0.002	0.067
-136.414	10.802	0.134	0.100
-135.399	-200.000	-0.099	-0.455
-134.385	-200.000	0.017	0.108
-133.370	18.635	0.152	-0.119
-132.356	218.625	-0.117	-0.182
-131.341	505.539	-0.090	0.204
-130.326	-73.283	-0.267	0.095
-129.312	135.287	-0.034	-0.043
-128.297	-200.000	0.010	-0.143
-127.283	154.559	-0.076	0.101
-126.268	244.998	-0.129	-0.212
-125.253	14.875	0.187	-0.142
-124.239	123.874	-0.161	-0.198
-123.224	-39.057	-0.065	0.033
-122.210	800.000	0.086	0.274
-121.195	52.025	0.176	0.164
