DTS Sentinel unit serial number:	SN413079Multiplexer serial number:	ORYXHardware model number:	OX4-SRSoftware version number:	ORYX F/W v4.00 Oryx Data Collector v3.7.2.0data status	okinstallation	princeton_trtdifferential loss correction	single-endedforward channel	channel 2reverse channel	N/Adate	2019/09/10time	16:45:11forward acquisition time	60.00reverse acquisition time	0.00gamma	496.2192k internal	0.2312k external	0.2312temperature offset calibration	0.9937default loss term (dB/km)	0.3790temperature slope calibration	1.0000multiplexer offset coefficient	1.0000multiplexer slope coefficient	1.0000fibre end	0.00T internal ref (°C)	37.70T ext. ref 1 (°C)	-0.30T ext. ref 2 (°C)	30.54length (m)	temperature (°C)	Stokes	anti-Stokes-747.200	45.875	-0.273	-0.256
-746.185	362.228	0.090	0.184
-745.171	-66.200	-0.156	0.063
-744.156	-200.000	0.084	0.000
-743.142	318.021	0.090	0.172
-742.127	27.182	0.162	0.138
-741.112	-200.000	0.071	0.326
-740.098	159.061	-0.300	0.423
-739.083	-83.409	0.264	-0.086
-738.069	-200.000	0.017	0.161
-737.054	78.466	0.105	0.114
-736.039	334.551	0.064	-0.126
-735.025	-72.858	0.340	-0.127
-734.010	469.063	0.124	-0.282
-732.996	-200.000	-0.015	-0.332
-731.981	26.433	0.175	-0.149
-730.966	-116.566	-0.188	-0.035
-729.952	-200.000	0.009	0.092
-728.937	712.612	-0.244	-0.656
-727.923	-108.944	-0.371	0.080
-726.908	-122.310	0.170	0.028
-725.894	-140.620	-0.139	0.015
-724.879	87.096	-0.104	0.117
-723.864	383.435	-0.171	0.357
-722.850	121.633	-0.150	-0.190
-721.835	783.305	0.026	-0.071
-720.821	-109.379	-0.244	0.052
-719.806	33.263	0.166	-0.146
-718.791	-2.792	-0.137	-0.097
-717.777	-200.000	-0.043	-0.376
-716.762	-200.000	0.026	-0.154
-715.748	-113.757	-0.360	-0.071
-714.733	-200.000	0.000	0.202
-713.718	59.827	0.250	0.251
-712.704	196.994	0.131	-0.203
-711.689	-200.000	-0.004	0.174
-710.675	-200.000	0.018	-0.106
-709.660	-184.418	0.293	-0.005
-708.645	84.223	0.190	-0.211
-707.631	800.000	-0.049	0.192
-706.616	-71.178	0.216	0.082
-705.602	35.158	0.174	-0.154
-704.587	800.000	-0.102	-0.333
-703.572	-175.460	0.130	0.004
-702.558	-19.950	0.509	-0.318
-701.543	66.957	-0.085	0.087
-700.529	-200.000	-0.031	0.401
-699.514	-117.178	0.166	-0.031
-698.499	800.000	-0.087	-0.375
-697.485	-100.636	0.455	-0.114
-696.470	-69.889	-0.114	0.044
-695.456	-200.000	0.080	-0.406
-694.441	-145.459	-0.221	-0.020
-693.426	-115.532	-0.336	-0.064
-692.412	-102.019	-0.202	0.049
-691.397	88.509	0.104	-0.117
-690.383	50.961	-0.135	-0.129
-689.368	-7.724	-0.093	-0.064
-688.354	-168.816	-0.313	-0.012
-687.339	-82.206	-0.248	-0.082
-686.324	-200.000	0.004	-0.172
-685.310	-141.202	-0.344	0.036
-684.295	316.487	0.102	-0.195
-683.281	-67.634	-0.191	-0.076
-682.266	42.512	-0.142	-0.131
-681.251	800.000	-0.084	0.300
-680.237	-71.606	-0.058	0.022
-679.222	666.613	0.074	-0.193
-678.208	108.492	0.088	-0.107
-677.193	49.655	-0.162	0.154
-676.178	-35.652	-0.162	0.089
-675.164	-109.626	-0.304	0.065
-674.149	531.993	-0.043	0.104
-673.135	12.730	0.240	0.188
-672.120	27.983	0.155	0.132
-671.105	23.922	-0.050	-0.041
-670.091	203.360	-0.057	0.089
-669.076	-8.804	-0.162	0.110
-668.062	-46.259	0.336	-0.167
-667.047	-200.000	0.035	-0.206
-666.032	192.314	-0.048	-0.074
-665.018	800.000	0.024	0.099
-664.003	-200.000	0.042	-0.227
-662.989	763.984	0.065	-0.179
-661.974	-111.767	-0.487	0.100
-660.959	95.970	0.075	-0.087
-659.945	-106.091	0.173	0.039
-658.930	19.211	0.109	-0.089
-657.916	-31.704	0.262	-0.149
-656.901	-114.795	0.220	-0.042
-655.886	-200.000	-0.031	0.193
-654.872	-89.315	-0.301	-0.090
-653.857	-45.509	-0.113	0.057
-652.843	-128.757	-0.220	-0.031
-651.828	-78.883	0.243	0.084
-650.814	-155.010	0.150	0.010
-649.799	-96.642	0.361	0.096
-648.784	325.018	-0.176	0.340
-647.770	531.534	-0.077	0.185
-646.755	269.844	-0.236	-0.420
-645.741	-97.712	-0.118	-0.031
-644.726	-143.594	0.209	0.020
-643.711	6.336	-0.127	0.095
-642.697	352.827	0.072	0.145
-641.682	-76.212	0.196	-0.070
-640.668	-57.632	-0.273	-0.121
-639.653	444.029	0.116	0.256
-638.638	-148.707	-0.078	0.006
-637.624	120.901	-0.156	0.197
-636.609	800.000	0.037	0.136
-635.595	747.363	-0.014	-0.038
-634.580	-160.958	-0.072	-0.004
-633.565	-200.000	-0.003	0.062
-632.551	-152.225	0.509	-0.037
-631.536	-69.479	0.224	-0.087
-630.522	-138.392	0.196	0.022
-629.507	-164.331	0.302	-0.014
-628.492	501.723	-0.068	-0.160
-627.478	-83.962	0.203	-0.065
-626.463	-68.917	0.080	-0.031
-625.449	401.153	-0.145	0.308
-624.434	-200.000	0.022	-0.127
-623.419	-159.794	0.207	0.012
-622.405	800.000	-0.062	0.181
-621.390	-152.553	0.700	0.051
-620.376	236.910	0.145	0.242
-619.361	83.243	-0.086	0.095
-618.346	-168.497	-0.324	0.013
-617.332	391.258	0.097	0.203
-616.317	77.608	0.265	0.285
-615.303	1.754	-0.164	0.119
-614.288	-42.060	0.139	-0.072
-613.273	-78.500	0.175	0.061
-612.259	-61.500	0.039	-0.016
-611.244	-97.221	0.113	-0.030
-610.230	796.288	-0.077	0.213
-609.215	80.417	0.166	0.181
-608.201	-11.922	-0.185	-0.122
-607.186	220.557	0.016	-0.025
-606.171	237.517	0.216	-0.362
-605.157	-100.778	-0.448	0.111
-604.142	-139.604	-0.364	-0.039
-603.128	-200.000	-0.000	-0.234
-602.113	475.474	-0.059	-0.135
-601.098	92.731	0.244	-0.278
-600.084	-156.170	-0.123	-0.008
-599.069	514.231	0.074	-0.173
-598.055	-200.000	0.016	-0.134
-597.040	-163.443	-0.199	-0.010
-596.025	-92.764	0.147	-0.041
-595.011	-72.797	0.083	-0.031
-593.996	29.263	-0.204	-0.174
-592.982	-200.000	0.006	-0.299
-591.967	690.776	0.043	-0.114
-590.952	-25.443	-0.260	-0.155
-589.938	-200.000	-0.016	-0.080
-588.923	224.130	-0.197	-0.321
-587.909	-200.000	-0.006	-0.300
-586.894	325.688	-0.085	-0.164
-585.879	-95.003	0.023	-0.006
-584.865	-148.460	-0.666	0.055
-583.850	155.540	0.091	0.126
-582.836	-84.369	0.032	0.010
-581.821	269.891	-0.144	0.255
-580.806	-200.000	-0.040	-0.236
-579.792	-142.762	0.407	0.040
-578.777	309.880	0.122	0.231
-577.763	-144.703	-0.296	0.028
-576.748	-200.000	0.046	0.233
-575.733	-16.463	0.159	0.101
-574.719	-200.000	0.018	0.270
-573.704	-54.440	-0.435	-0.199
-572.690	-64.344	0.033	-0.013
-571.675	-200.000	-0.022	-0.182
-570.661	-78.900	-0.616	-0.212
-569.646	-200.000	-0.014	0.184
-568.631	103.785	0.168	-0.199
-567.617	-72.704	-0.160	-0.059
-566.602	-200.000	-0.000	-0.115
-565.588	800.000	0.041	0.135
-564.573	22.391	-0.205	0.169
-563.558	800.000	0.077	0.270
-562.544	-200.000	-0.038	0.186
-561.529	-174.631	-0.121	0.003
-560.515	-10.348	0.244	-0.163
-559.500	-120.356	-0.288	-0.049
-558.485	404.169	-0.133	0.282
-557.471	800.000	-0.042	0.123
-556.456	800.000	-0.191	-0.579
-555.442	-25.774	0.215	-0.127
-554.427	-61.114	0.147	0.062
-553.412	-90.932	0.289	0.084
-552.398	-74.799	-0.267	0.097
-551.383	73.877	0.129	-0.136
-550.369	800.000	0.082	0.286
-549.354	-57.950	-0.201	0.088
-548.339	297.794	-0.087	0.161
-547.325	28.609	-0.147	-0.125
-546.310	126.250	0.225	0.286
-545.296	201.981	-0.053	-0.082
-544.281	-102.221	-0.169	-0.041
-543.266	-55.401	0.138	-0.062
-542.252	188.044	-0.170	0.255
-541.237	357.507	-0.184	-0.370
-540.223	655.527	0.182	-0.471
-539.208	10.060	0.278	0.213
-538.193	-186.654	0.059	0.001
-537.179	800.000	0.053	0.206
-536.164	358.640	-0.078	-0.157
-535.150	-200.000	-0.004	0.065
-534.135	-85.889	-0.296	-0.092
-533.121	-29.764	0.242	0.139
-532.106	800.000	-0.107	-0.412
-531.091	479.676	0.089	-0.203
-530.077	-74.754	-0.314	-0.114
-529.062	-200.000	-0.029	0.233
-528.048	-3.981	0.152	0.106
-527.033	188.049	0.056	0.084
-526.018	-87.559	-0.336	-0.102
-525.004	-134.469	-0.381	-0.047
-523.989	-97.322	0.162	-0.042
-522.975	148.562	0.226	-0.308
-521.960	-200.000	-0.028	0.198
-520.945	-79.689	-0.145	0.049
-519.931	367.632	-0.157	-0.318
-518.916	-120.722	0.129	-0.022
-517.902	-75.666	0.194	-0.069
-516.887	13.090	-0.146	-0.114
-515.872	-200.000	-0.061	-0.296
-514.858	457.621	0.140	-0.313
-513.843	-148.466	0.192	-0.016
-512.829	-107.022	0.452	0.101
-511.814	-181.290	0.192	0.004
-510.799	76.282	-0.279	0.297
-509.785	800.000	0.058	0.169
-508.770	14.084	0.332	0.260
-507.756	26.672	-0.280	0.236
-506.741	475.122	0.051	0.115
-505.726	-75.011	-0.091	-0.033
-504.712	15.398	0.255	0.201
-503.697	32.747	-0.221	-0.192
-502.683	169.279	0.057	-0.081
-501.668	95.704	-0.201	0.231
-500.653	800.000	-0.081	-0.287
-499.639	-184.504	-0.121	-0.002
-498.624	-200.000	0.030	-0.205
-497.610	-165.459	-0.177	-0.008
-496.595	-200.000	-0.039	0.297
-495.581	-200.000	-0.018	0.088
-494.566	-200.000	0.011	0.112
-493.551	82.630	-0.122	-0.134
-492.537	351.253	0.118	0.234
-491.522	-51.899	-0.365	-0.171
-490.508	-200.000	0.034	-0.362
-489.493	-128.270	-0.132	0.019
-488.478	-200.000	-0.013	-0.104
-487.464	-72.414	-0.155	0.058
-486.449	-161.847	-0.145	-0.007
-485.435	-126.152	-0.079	-0.012
-484.420	100.772	0.047	0.055
-483.405	-74.097	-0.091	-0.033
-482.391	305.806	-0.060	-0.112
-481.376	103.516	-0.090	0.107
-480.362	146.276	0.127	-0.171
-479.347	243.548	0.030	0.051
-478.332	-100.825	-0.263	-0.065
-477.318	210.240	-0.145	0.229
-476.303	-200.000	0.014	0.176
-475.289	-41.527	-0.157	-0.081
-474.274	23.663	0.141	0.117
-473.259	-23.184	0.024	0.015
-472.245	370.737	-0.076	0.154
-471.230	-51.837	-0.047	0.022
-470.216	-200.000	-0.040	0.273
-469.201	333.558	0.110	-0.213
-468.186	-200.000	-0.005	0.238
-467.172	-103.471	-0.501	-0.118
-466.157	-155.849	-0.145	-0.009
-465.143	-63.850	-0.164	0.067
-464.128	-8.962	-0.112	0.075
-463.113	94.533	0.189	-0.216
-462.099	-143.007	0.232	-0.023
-461.084	165.706	0.218	0.310
-460.070	-17.839	0.176	-0.111
-459.055	267.628	0.188	0.330
-458.040	-111.089	-0.172	-0.035
-457.026	396.021	0.122	-0.256
-456.011	-200.000	-0.027	-0.223
-454.997	186.125	0.182	0.271
-453.982	388.738	0.059	-0.122
-452.968	-124.324	0.356	0.056
-451.953	-83.987	-0.155	-0.050
-450.938	-198.505	0.139	-0.001
-449.924	329.569	-0.102	-0.197
-448.909	320.332	0.088	-0.167
-447.895	-200.000	0.003	-0.115
-446.880	47.614	0.068	0.064
-445.865	-87.988	0.192	0.058
-444.851	-80.048	0.185	0.062
-443.836	800.000	-0.164	-0.481
-442.822	26.771	-0.205	0.172
-441.807	-38.452	0.201	-0.106
-440.792	-117.154	-0.083	0.015
-439.778	679.091	0.099	-0.257
-438.763	800.000	-0.050	-0.181
-437.749	-105.451	-0.059	-0.013
-436.734	66.094	-0.151	0.153
-435.719	119.447	-0.094	0.117
-434.705	-200.000	0.003	-0.279
-433.690	-52.948	0.290	-0.134
-432.676	800.000	0.034	-0.098
-431.661	462.525	-0.040	-0.090
-430.646	41.298	0.069	0.063
-429.632	446.276	-0.074	-0.163
-428.617	-110.402	-0.128	0.027
-427.603	-152.766	-0.340	0.024
-426.588	-200.000	0.042	-0.280
-425.573	385.183	-0.095	-0.196
-424.559	-134.608	-0.299	-0.037
-423.544	-41.524	-0.238	0.123
-422.530	732.200	-0.046	-0.122
-421.515	800.000	0.052	-0.183
-420.500	-200.000	-0.019	0.216
-419.486	35.772	0.036	0.032
-418.471	-200.000	0.014	0.238
-417.457	30.021	-0.048	0.041
-416.442	349.997	0.110	0.217
-415.428	300.673	0.087	-0.160
-414.413	242.297	0.092	-0.154
-413.398	109.679	-0.146	-0.175
-412.384	-40.934	0.140	0.073
-411.369	-78.417	-0.154	-0.053
-410.355	78.840	0.161	-0.173
-409.340	53.367	-0.115	0.110
-408.325	11.706	0.150	-0.115
-407.311	19.941	0.302	0.244
-406.296	800.000	-0.061	0.203
-405.282	800.000	0.027	-0.104
-404.267	181.983	0.154	-0.227
-403.252	-200.000	0.002	-0.129
-402.238	-75.025	0.227	-0.082
-401.223	-13.828	-0.245	0.159
-400.209	-200.000	0.014	-0.121
-399.194	-90.234	0.040	-0.012
-398.179	-200.000	0.034	-0.280
-397.165	63.718	-0.124	-0.125
-396.150	97.416	0.105	0.120
-395.136	24.936	-0.097	0.080
-394.121	-200.000	-0.006	-0.271
-393.106	12.562	0.135	0.104
-392.092	-93.022	0.086	-0.024
-391.077	-5.812	-0.101	-0.069
-390.063	-128.261	0.203	-0.029
-389.048	384.609	-0.041	0.085
-388.033	104.945	-0.057	0.067
-387.019	-200.000	-0.008	0.109
-386.004	15.449	0.093	0.073
-384.990	-151.509	0.139	0.010
-383.975	449.814	-0.060	0.133
-382.960	98.492	0.085	0.098
-381.946	-200.000	0.046	0.406
-380.931	800.000	-0.102	0.379
-379.917	44.067	0.194	-0.178
-378.902	-35.721	-0.298	0.162
-377.888	22.307	-0.275	0.225
-376.873	800.000	-0.125	0.354
-375.858	-81.026	0.213	-0.071
-374.844	800.000	-0.046	-0.190
-373.829	-155.450	-0.160	0.010
-372.815	-84.035	0.166	0.053
-371.800	149.461	-0.056	0.075
-370.785	113.725	-0.158	-0.192
-369.771	-200.000	0.058	-0.293
-368.756	106.000	-0.093	0.110
-367.742	-200.000	-0.024	-0.108
-366.727	150.016	-0.127	-0.172
-365.712	637.266	-0.073	-0.185
-364.698	800.000	-0.138	-0.393
-363.683	138.768	-0.020	0.027
-362.669	-58.523	0.321	-0.139
-361.654	-200.000	0.044	0.284
-360.639	11.871	-0.057	0.044
-359.625	62.831	0.079	-0.079
-358.610	-121.926	0.422	0.070
-357.596	-26.769	-0.190	0.111
-356.581	-60.496	-0.175	0.074
-355.566	507.432	0.069	-0.161
-354.552	-120.079	0.433	0.074
-353.537	-152.968	-0.170	0.012
-352.523	-200.000	-0.006	-0.105
-351.508	-7.128	-0.097	-0.066
-350.493	514.453	-0.080	-0.186
-349.479	-200.000	0.016	0.178
-348.464	-74.912	0.307	0.110
-347.450	-53.506	0.378	0.173
-346.435	305.040	-0.225	0.418
-345.420	-200.000	0.037	0.165
-344.406	-27.022	0.247	-0.144
-343.391	-200.000	0.037	-0.311
-342.377	-32.578	0.416	-0.232
-341.362	31.789	0.150	0.129
-340.348	346.798	0.095	0.186
-339.333	-144.313	0.598	-0.056
-338.318	277.864	-0.185	-0.328
-337.304	18.196	-0.438	-0.349
-336.289	-76.779	0.158	-0.055
-335.275	800.000	-0.132	0.439
-334.260	-200.000	0.006	0.043
-333.245	-200.000	0.004	-0.186
-332.231	-200.000	-0.014	0.262
-331.216	69.032	0.289	-0.297
-330.202	-79.546	-0.138	0.047
-329.187	-145.053	-0.125	-0.011
-328.172	-200.000	0.020	-0.164
-327.158	60.861	0.151	-0.150
-326.143	-24.002	0.194	0.116
-325.129	248.710	0.167	-0.282
-324.114	800.000	-0.062	0.203
-323.099	18.370	-0.167	0.133
-322.085	-200.000	0.054	0.270
-321.070	-66.043	-0.145	-0.058
-320.056	78.715	0.035	-0.037
-319.041	-200.000	0.017	-0.147
-318.026	-77.829	-0.251	0.087
-317.012	157.509	0.208	-0.288
-315.997	357.240	0.111	-0.221
-314.983	-200.000	-0.057	0.311
-313.968	518.063	-0.016	0.038
-312.953	127.220	0.146	0.185
-311.939	7.557	0.094	-0.070
-310.924	-200.000	0.040	-0.304
-309.910	45.472	0.035	0.032
-308.895	132.839	0.178	-0.229
-307.880	237.334	0.080	-0.132
-306.866	-200.000	0.024	-0.241
-305.851	-17.568	0.267	-0.167
-304.837	355.884	0.062	0.123
-303.822	38.268	0.237	-0.210
-302.807	-89.500	0.265	-0.078
-301.793	25.182	-0.237	0.196
-300.778	800.000	-0.049	-0.136
-299.764	-110.331	-0.121	0.025
-298.749	408.418	-0.062	0.131
-297.735	139.558	0.262	0.344
-296.720	87.896	-0.097	0.107
-295.705	337.727	0.141	0.274
-294.691	800.000	-0.034	-0.117
-293.676	90.390	-0.074	-0.082
-292.662	-30.297	0.185	-0.105
-291.647	47.095	0.048	-0.044
-290.632	42.310	-0.192	0.174
-289.618	211.701	0.211	0.331
-288.603	-200.000	0.010	-0.108
-287.589	-65.365	-0.071	0.028
-286.574	-70.385	-0.416	-0.157
-285.559	26.197	0.141	0.118
-284.545	332.298	0.041	0.079
-283.530	-130.336	-0.314	-0.042
-282.516	149.539	-0.138	0.187
-281.501	-200.000	-0.019	0.202
-280.486	3.641	0.282	0.205
-279.472	4.168	0.113	-0.082
-278.457	284.817	0.181	-0.324
-277.443	-96.010	-0.229	-0.061
-276.428	800.000	-0.015	0.047
-275.413	-96.796	-0.228	-0.060
-274.399	109.769	0.066	-0.078
-273.384	-200.000	0.058	-0.255
-272.370	800.000	-0.059	-0.199
-271.355	-200.000	0.024	0.231
-270.340	-110.984	-0.082	-0.017
-269.326	-200.000	0.028	-0.209
-268.311	654.324	-0.137	-0.350
-267.297	-121.582	-0.265	0.044
-266.282	800.000	-0.163	0.513
-265.267	800.000	-0.054	-0.209
-264.253	-145.833	-0.118	0.010
-263.238	-200.000	-0.005	0.073
-262.224	432.075	0.059	-0.127
-261.209	800.000	0.066	0.202
-260.195	25.013	0.200	-0.165
-259.180	-178.367	0.123	0.003
-258.165	134.868	-0.126	0.162
-257.151	39.489	0.137	-0.122
-256.136	18.591	0.290	-0.231
-255.122	-39.692	0.088	0.046
-254.107	-200.000	0.049	0.223
-253.092	-63.578	0.104	-0.043
-252.078	197.205	0.054	0.081
-251.063	-200.000	-0.037	-0.166
-250.049	-105.506	-0.202	-0.046
-249.034	651.482	-0.129	-0.329
-248.019	-153.560	-0.422	0.029
-247.005	-200.000	0.011	0.160
-245.990	800.000	-0.052	0.222
-244.976	800.000	-0.015	-0.064
-243.961	-200.000	0.005	0.383
-242.946	55.490	0.244	-0.235
-241.932	-162.108	0.067	0.003
-240.917	-185.293	-0.200	-0.003
-239.903	623.804	0.086	-0.216
-238.888	-200.000	0.000	0.180
-237.873	-140.098	-0.156	0.016
-236.859	112.353	0.031	0.037
-235.844	800.000	0.087	0.240
-234.830	-90.617	0.307	-0.088
-233.815	-122.101	-0.140	-0.023
-232.800	86.515	0.110	-0.120
-231.786	-200.000	-0.019	0.250
-230.771	-152.244	-0.169	-0.012
-229.757	-113.816	0.234	0.045
-228.742	-200.000	0.014	0.161
-227.727	-62.676	-0.108	-0.044
-226.713	0.545	-0.027	0.019
-225.698	-200.000	-0.017	-0.179
-224.684	-91.062	-0.151	0.043
-223.669	13.045	0.386	0.297
-222.655	-182.766	-0.254	-0.005
-221.640	34.673	0.140	0.122
-220.625	-96.584	0.295	-0.077
-219.611	-200.000	0.031	-0.168
-218.596	-121.298	-0.127	-0.021
-217.582	92.258	-0.047	0.052
-216.567	33.104	0.082	0.071
-215.552	388.987	0.102	0.209
-214.538	228.113	-0.115	0.187
-213.523	222.264	-0.046	-0.074
-212.509	99.776	-0.033	0.038
-211.494	800.000	-0.102	-0.331
-210.479	-75.586	0.044	0.016
-209.465	-200.000	-0.014	-0.254
-208.450	329.680	0.099	0.189
-207.436	-132.621	0.113	0.014
-206.421	211.470	0.207	-0.324
-205.406	-65.419	0.398	0.159
-204.392	61.554	-0.108	-0.107
-203.377	-144.042	-0.307	0.029
-202.363	123.214	0.108	0.135
-201.348	-72.091	-0.231	0.085
-200.333	-76.141	-0.145	0.051
-199.319	26.880	-0.120	-0.100
-198.304	-200.000	-0.022	0.234
-197.290	-1.972	-0.285	0.199
-196.275	-70.011	-0.319	0.121
-195.260	-151.612	-0.127	0.009
-194.246	-132.127	0.239	0.031
-193.231	37.980	0.158	0.140
-192.217	80.643	0.174	0.186
-191.202	59.678	0.093	0.091
-190.187	414.834	-0.027	0.058
-189.173	-50.298	-0.093	0.044
-188.158	14.623	0.134	0.104
-187.144	59.292	0.294	0.288
-186.129	-88.427	-0.162	-0.048
-185.114	-93.380	0.061	0.017
-184.100	720.365	-0.022	-0.059
-183.085	-163.095	0.259	0.012
-182.071	-200.000	0.013	0.191
-181.056	-92.170	0.158	0.044
-180.042	-7.517	-0.175	0.117
-179.027	-200.000	0.028	0.386
-178.012	-94.483	-0.118	0.032
-176.998	307.951	-0.095	0.176
-175.983	29.126	-0.357	-0.301
-174.969	800.000	0.094	-0.295
-173.954	151.141	-0.099	-0.134
-172.939	25.541	0.219	0.181
-171.925	-39.551	0.153	0.079
-170.910	115.013	0.028	-0.034
-169.896	47.751	-0.148	0.137
-168.881	-86.273	0.131	0.040
-167.866	-123.604	0.080	-0.013
-166.852	-108.116	-0.158	-0.034
-165.837	240.967	-0.171	-0.283
-164.823	800.000	-0.035	0.104
-163.808	-116.091	-0.229	0.042
-162.793	0.534	-0.047	0.033
-161.779	-76.479	0.223	-0.078
-160.764	-63.450	-0.518	-0.211
-159.750	800.000	0.055	0.233
-158.735	-200.000	0.009	0.234
-157.720	269.942	-0.049	-0.085
-156.706	-200.000	0.033	-0.182
-155.691	-123.130	-0.259	-0.041
-154.677	206.178	0.012	-0.019
-153.662	-169.133	0.114	0.004
-152.647	-45.877	0.191	0.093
-151.633	800.000	-0.105	0.346
-150.618	-200.000	-0.008	-0.191
-149.604	618.419	0.109	0.271
-148.589	316.686	-0.225	0.421
-147.574	800.000	-0.034	-0.122
-146.560	382.247	-0.146	-0.297
-145.545	-38.032	-0.381	0.201
-144.531	96.628	0.103	-0.117
-143.516	-200.000	-0.037	-0.400
-142.502	800.000	0.102	-0.328
-141.487	10.055	0.225	-0.169
-140.472	401.908	-0.175	0.364
-139.458	-200.000	0.013	0.119
-138.443	800.000	0.084	-0.334
-137.429	-181.965	0.184	0.003
-136.414	105.578	0.195	0.229
-135.399	17.116	0.186	0.146
-134.385	-200.000	-0.026	0.220
-133.370	-200.000	-0.002	-0.096
-132.356	-200.000	-0.011	-0.166
-131.341	-200.000	-0.008	-0.223
-130.326	-200.000	0.051	0.311
-129.312	-200.000	0.062	0.287
-128.297	139.730	0.171	0.224
-127.283	-40.571	-0.220	0.113
-126.268	163.528	0.112	0.156
-125.253	24.132	-0.041	-0.034
-124.239	-66.506	0.292	-0.115
-123.224	-65.778	0.192	-0.076
-122.210	-100.820	0.134	0.033
-121.195	49.143	-0.118	-0.110
