DTS Sentinel unit serial number:	SN413079Multiplexer serial number:	ORYXHardware model number:	OX4-SRSoftware version number:	ORYX F/W v4.00 Oryx Data Collector v3.7.2.0data status	okinstallation	princeton_trtdifferential loss correction	single-endedforward channel	channel 2reverse channel	N/Adate	2019/09/13time	09:15:35forward acquisition time	60.00reverse acquisition time	0.00gamma	496.2192k internal	0.2328k external	0.2328temperature offset calibration	1.0195default loss term (dB/km)	0.3790temperature slope calibration	1.0000multiplexer offset coefficient	1.0000multiplexer slope coefficient	1.0000fibre end	0.00T internal ref (°C)	28.98T ext. ref 1 (°C)	4.39T ext. ref 2 (°C)	26.35length (m)	temperature (°C)	Stokes	anti-Stokes-747.200	93.572	0.078	-0.088
-746.185	-200.000	0.033	0.436
-745.171	-31.259	-0.165	-0.094
-744.156	30.100	0.096	-0.083
-743.142	50.149	0.159	0.151
-742.127	-200.000	-0.002	-0.112
-741.112	-114.103	-0.122	0.024
-740.098	86.289	-0.090	0.100
-739.083	111.332	0.104	0.126
-738.069	284.226	0.240	0.435
-737.054	800.000	-0.017	-0.072
-736.039	-29.585	-0.281	-0.162
-735.025	6.090	0.246	0.184
-734.010	-200.000	-0.015	-0.154
-732.996	500.408	-0.167	-0.388
-731.981	-36.332	-0.114	-0.062
-730.966	84.674	-0.221	-0.244
-729.952	64.023	-0.134	-0.135
-728.937	800.000	-0.071	-0.217
-727.923	148.101	-0.138	0.188
-726.908	-200.000	0.002	0.088
-725.894	243.116	0.040	-0.068
-724.879	-200.000	-0.008	-0.239
-723.864	-110.967	0.225	-0.047
-722.850	-200.000	0.045	-0.255
-721.835	3.758	-0.128	-0.094
-720.821	-200.000	0.023	0.128
-719.806	-200.000	0.347	0.000
-718.791	364.738	-0.073	0.148
-717.777	-181.988	0.114	0.002
-716.762	-103.246	0.256	0.061
-715.748	-37.145	-0.239	0.129
-714.733	-17.281	-0.207	-0.131
-713.718	169.067	0.145	0.208
-712.704	-46.068	0.230	0.114
-711.689	-80.929	-0.179	0.060
-710.675	-191.283	-0.022	0.000
-709.660	32.452	-0.263	-0.228
-708.645	53.593	-0.185	-0.178
-707.631	-106.239	0.100	-0.022
-706.616	181.468	-0.104	-0.154
-705.602	-86.019	-0.123	-0.038
-704.587	78.745	-0.098	0.105
-703.572	800.000	0.095	0.266
-702.558	-153.680	-0.376	-0.026
-701.543	800.000	-0.071	-0.248
-700.529	-142.986	-0.081	0.008
-699.514	183.164	-0.187	0.277
-698.499	120.124	-0.229	-0.285
-697.485	-153.676	-0.084	-0.006
-696.470	-171.843	0.223	0.007
-695.456	-105.319	-0.389	0.089
-694.441	800.000	-0.052	0.165
-693.426	800.000	0.030	-0.087
-692.412	128.676	-0.141	-0.181
-691.397	-200.000	-0.007	0.080
-690.383	-6.309	-0.238	-0.163
-689.368	-35.311	-0.318	-0.174
-688.354	-89.522	-0.129	-0.038
-687.339	235.025	-0.020	0.032
-686.324	-200.000	0.006	-0.082
-685.310	-97.794	0.164	-0.043
-684.295	-136.387	-0.202	0.024
-683.281	125.476	-0.089	0.113
-682.266	-140.602	-0.191	0.020
-681.251	56.704	0.183	0.180
-680.237	-169.694	0.075	0.003
-679.222	-2.780	-0.178	-0.125
-678.208	45.011	-0.093	-0.087
-677.193	135.767	-0.078	-0.102
-676.178	521.451	0.094	-0.223
-675.164	110.436	-0.102	0.123
-674.149	-29.978	-0.203	0.116
-673.135	-95.585	-0.044	0.012
-672.120	53.191	0.190	-0.183
-671.105	-109.287	-0.103	0.022
-670.091	158.083	-0.147	0.205
-669.076	-128.670	0.312	-0.044
-668.062	-58.761	-0.187	-0.081
-667.047	110.842	-0.074	0.090
-666.032	-38.653	0.279	-0.148
-665.018	-42.622	0.049	-0.025
-664.003	41.277	0.217	-0.197
-662.989	-14.236	0.138	-0.089
-661.974	-87.780	-0.238	0.072
-660.959	-164.490	0.124	-0.006
-659.945	-19.726	0.130	0.081
-658.930	-200.000	0.001	-0.124
-657.916	135.010	0.175	0.228
-656.901	-175.567	-0.285	-0.008
-655.886	5.717	0.153	0.113
-654.872	-38.161	-0.222	0.118
-653.857	276.765	0.069	0.123
-652.843	363.486	-0.065	-0.132
-651.828	-200.000	-0.042	-0.203
-650.814	-171.275	0.544	0.018
-649.799	154.232	-0.107	-0.147
-648.784	92.673	0.092	0.104
-647.770	297.620	0.152	-0.280
-646.755	34.210	0.142	0.125
-645.741	233.422	0.205	0.338
-644.726	-113.787	-0.213	-0.042
-643.711	73.250	-0.197	-0.207
-642.697	65.595	-0.198	0.201
-641.682	65.075	0.167	0.169
-640.668	208.583	-0.169	0.265
-639.653	-200.000	0.000	-0.104
-638.638	286.886	0.113	-0.204
-637.624	-28.576	-0.071	0.041
-636.609	-66.832	0.247	0.098
-635.595	-45.557	-0.242	0.120
-634.580	800.000	0.071	0.218
-633.565	318.292	-0.121	-0.231
-632.551	659.394	-0.029	0.076
-631.536	-80.068	0.045	0.015
-630.522	-200.000	0.012	0.133
-629.507	800.000	0.060	-0.179
-628.492	-2.027	0.138	0.097
-627.478	800.000	0.086	-0.340
-626.463	68.153	0.129	0.132
-625.449	-181.725	0.273	0.005
-624.434	-130.456	0.278	-0.038
-623.419	-95.764	-0.214	-0.057
-622.405	-44.775	0.123	-0.061
-621.390	262.491	-0.026	-0.046
-620.376	78.624	0.140	-0.150
-619.361	350.331	-0.009	0.018
-618.346	-200.000	-0.026	0.445
-617.332	208.006	-0.152	-0.238
-616.317	4.076	-0.265	-0.194
-615.303	-113.643	-0.515	-0.101
-614.288	-114.193	-0.082	0.016
-613.273	-92.973	0.175	-0.049
-612.259	800.000	0.026	-0.095
-611.244	136.723	-0.115	-0.150
-610.230	-140.245	0.199	0.021
-609.215	-10.293	-0.207	0.138
-608.201	181.263	0.024	0.035
-607.186	-65.102	-0.182	0.074
-606.171	343.347	0.057	-0.113
-605.157	-49.246	-0.399	-0.191
-604.142	-48.508	0.167	0.080
-603.128	-145.957	0.165	0.015
-602.113	-83.007	0.393	0.127
-601.098	-72.699	0.243	-0.090
-600.084	211.741	-0.146	-0.231
-599.069	150.511	0.093	-0.126
-598.055	800.000	-0.060	-0.216
-597.040	-50.580	0.360	-0.170
-596.025	9.087	-0.405	-0.306
-595.011	335.555	0.162	0.316
-593.996	-200.000	0.018	-0.151
-592.982	-200.000	0.083	0.454
-591.967	-200.000	-0.027	0.278
-590.952	-8.325	-0.150	0.101
-589.938	-159.452	-0.062	-0.003
-588.923	-12.505	-0.256	-0.167
-587.909	800.000	-0.088	0.278
-586.894	800.000	0.169	0.639
-585.879	-47.832	0.127	-0.061
-584.865	-130.651	-0.379	0.051
-583.850	-115.307	-0.227	0.043
-582.836	-9.075	0.174	-0.117
-581.821	-101.466	0.052	0.013
-580.806	-17.910	-0.289	-0.182
-579.792	-200.000	-0.013	0.165
-578.777	-4.748	-0.301	0.208
-577.763	-200.000	-0.021	-0.219
-576.748	323.565	0.203	-0.388
-575.733	165.854	0.095	0.134
-574.719	289.901	0.058	-0.106
-573.704	218.724	-0.040	0.064
-572.690	800.000	0.055	-0.170
-571.675	-93.570	-0.314	-0.087
-570.661	-11.179	-0.172	0.114
-569.646	-200.000	0.002	0.038
-568.631	-200.000	0.049	0.259
-567.617	-108.268	-0.154	0.033
-566.602	-44.151	-0.295	0.148
-565.588	-200.000	0.092	-0.421
-564.573	-37.442	0.364	0.194
-563.558	-164.482	-0.314	-0.014
-562.544	800.000	0.077	0.307
-561.529	29.007	-0.122	0.104
-560.515	497.585	0.123	-0.283
-559.500	299.435	0.094	-0.174
-558.485	-145.821	-0.124	0.011
-557.471	-200.000	-0.058	-0.448
-556.456	-67.917	-0.227	-0.089
-555.442	-0.677	0.193	-0.137
-554.427	165.541	0.188	0.266
-553.412	317.481	0.049	-0.093
-552.398	-86.005	-0.034	0.011
-551.383	-200.000	0.031	0.204
-550.369	-200.000	0.017	-0.100
-549.354	-38.856	0.226	-0.119
-548.339	-134.237	0.446	-0.055
-547.325	654.090	-0.018	-0.046
-546.310	-30.872	0.187	0.106
-545.296	-65.509	-0.265	0.107
-544.281	-131.869	0.115	-0.015
-543.266	-200.000	-0.020	-0.150
-542.252	107.624	-0.081	-0.097
-541.237	-135.885	-0.206	-0.024
-540.223	-191.631	0.216	-0.002
-539.208	-31.416	0.198	-0.111
-538.193	13.423	0.245	-0.190
-537.179	-55.922	-0.244	0.109
-536.164	-91.983	-0.049	-0.014
-535.150	80.991	-0.243	-0.262
-534.135	66.164	0.365	0.371
-533.121	438.366	-0.032	-0.070
-532.106	-64.833	-0.214	0.086
-531.091	127.178	0.122	0.155
-530.077	-41.311	0.145	0.075
-529.062	-66.553	-0.446	0.177
-528.048	59.324	0.124	0.122
-527.033	-10.069	0.101	0.067
-526.018	87.653	0.156	0.172
-525.004	63.241	-0.094	0.094
-523.989	103.083	0.063	0.074
-522.975	-115.872	-0.150	-0.028
-521.960	727.538	-0.051	-0.135
-520.945	134.301	-0.072	0.094
-519.931	-200.000	-0.072	-0.338
-518.916	64.622	0.085	-0.086
-517.902	-145.002	-0.252	-0.023
-516.887	800.000	0.082	0.226
-515.872	-171.949	-0.263	-0.009
-514.858	800.000	-0.058	-0.196
-513.843	-74.921	0.092	-0.033
-512.829	263.570	0.048	0.083
-511.814	-200.000	0.067	0.464
-510.799	-200.000	0.006	0.084
-509.785	-70.522	-0.133	0.050
-508.770	717.480	0.078	-0.208
-507.756	67.279	-0.212	-0.216
-506.741	-100.489	0.273	-0.067
-505.726	-25.830	0.266	0.156
-504.712	-51.995	-0.171	-0.079
-503.697	-200.000	0.022	-0.114
-502.683	340.758	0.044	-0.086
-501.668	412.167	-0.078	-0.165
-500.653	-36.850	-0.100	-0.054
-499.639	800.000	0.027	0.083
-498.624	-78.460	-0.261	0.089
-497.610	437.594	-0.182	-0.397
-496.595	-59.222	-0.117	-0.050
-495.581	160.688	-0.145	0.202
-494.566	-200.000	0.015	0.287
-493.551	378.378	-0.043	-0.087
-492.537	-85.125	0.085	-0.026
-491.522	75.524	0.180	0.190
-490.508	251.814	-0.132	-0.223
-489.493	131.767	0.105	0.134
-488.478	75.695	0.056	0.059
-487.464	-200.000	0.004	-0.149
-486.449	-200.000	-0.071	-0.510
-485.435	800.000	-0.106	-0.388
-484.420	-72.195	-0.243	0.090
-483.405	-198.334	0.219	0.001
-482.391	353.910	0.078	-0.154
-481.376	-169.830	-0.300	-0.011
-480.362	104.924	-0.073	-0.086
-479.347	-69.385	-0.118	-0.045
-478.332	25.588	0.219	-0.182
-477.318	-89.693	-0.454	-0.133
-476.303	-84.018	0.012	-0.004
-475.289	-120.455	-0.388	0.066
-474.274	22.445	0.126	-0.103
-473.259	-200.000	-0.043	-0.247
-472.245	-28.346	-0.361	-0.208
-471.230	-30.970	0.205	0.116
-470.216	-174.060	0.089	0.003
-469.201	-200.000	0.012	0.135
-468.186	-90.526	-0.151	-0.044
-467.172	-200.000	0.016	0.206
-466.157	552.196	0.030	-0.071
-465.143	-172.524	0.162	0.005
-464.128	-200.000	-0.024	0.145
-463.113	364.607	-0.075	0.151
-462.099	-113.949	-0.243	-0.047
-461.084	-124.245	0.211	0.033
-460.070	343.596	0.123	0.240
-459.055	500.465	-0.028	0.065
-458.040	-156.988	0.352	0.021
-457.026	315.175	0.069	-0.130
-456.011	-200.000	-0.057	-0.259
-454.997	-50.660	0.282	-0.132
-453.982	-114.552	-0.129	-0.025
-452.968	-116.784	0.284	-0.052
-451.953	-171.938	-0.103	0.003
-450.938	-11.157	0.144	-0.095
-449.924	-200.000	0.049	0.319
-448.909	800.000	0.121	0.344
-447.895	395.874	-0.123	0.255
-446.880	-200.000	-0.038	0.221
-445.865	800.000	-0.026	-0.108
-444.851	-134.513	-0.081	0.010
-443.836	388.280	-0.195	-0.401
-442.822	-33.184	-0.161	0.089
-441.807	-37.822	0.258	-0.137
-440.792	-118.203	0.070	0.012
-439.778	-12.190	0.048	0.031
-438.763	-159.758	-0.193	-0.011
-437.749	-171.162	0.121	-0.004
-436.734	275.873	0.066	-0.117
-435.719	-167.301	0.312	0.013
-434.705	-2.441	0.243	-0.169
-433.690	-29.868	-0.227	0.129
-432.676	47.388	0.179	-0.166
-431.661	-200.000	-0.069	0.348
-430.646	-93.052	-0.200	0.056
-429.632	-64.531	-0.348	-0.141
-428.617	-5.666	0.042	-0.028
-427.603	192.381	-0.057	-0.086
-426.588	5.709	0.185	0.136
-425.573	-200.000	0.025	0.268
-424.559	-142.183	-0.101	-0.010
-423.544	800.000	0.077	-0.270
-422.530	800.000	0.088	-0.257
-421.515	593.711	0.016	0.041
-420.500	348.237	-0.105	0.206
-419.486	-16.571	-0.230	-0.145
-418.471	-134.825	0.117	0.014
-417.457	-35.106	-0.215	-0.116
-416.442	-115.237	0.459	0.086
-415.428	390.869	-0.191	0.394
-414.413	-35.111	0.140	0.076
-413.398	-118.274	-0.184	-0.033
-412.384	-69.472	0.250	-0.095
-411.369	800.000	0.031	0.106
-410.355	297.346	0.153	-0.280
-409.340	-44.677	-0.395	-0.196
-408.325	242.621	0.030	-0.050
-407.311	-132.123	0.186	-0.024
-406.296	-200.000	-0.003	-0.236
-405.282	302.992	0.086	0.158
-404.267	800.000	0.020	0.083
-403.252	-71.903	0.180	-0.067
-402.238	-1.138	0.206	-0.145
-401.223	-42.924	-0.188	-0.095
-400.209	-77.560	0.403	-0.139
-399.194	-200.000	0.042	0.402
-398.179	22.702	0.280	0.228
-397.165	-48.812	-0.193	-0.092
-396.150	-99.555	-0.057	0.014
-395.136	233.896	-0.076	-0.124
-394.121	-130.028	0.107	-0.015
-393.106	221.355	-0.043	0.069
-392.092	-148.500	-0.264	-0.021
-391.077	552.935	0.121	0.288
-390.063	-200.000	-0.009	-0.142
-389.048	-90.344	-0.513	0.148
-388.033	230.958	0.089	-0.144
-387.019	-200.000	-0.011	-0.156
-386.004	-43.241	-0.220	0.110
-384.990	13.068	-0.071	-0.054
-383.975	-200.000	0.022	0.110
-382.960	-200.000	-0.011	0.213
-381.946	159.117	-0.176	0.243
-380.931	-53.354	-0.036	0.016
-379.917	285.142	-0.080	0.144
-378.902	-172.226	0.249	0.008
-377.888	-46.874	-0.208	-0.101
-376.873	-76.714	0.214	0.074
-375.858	38.974	-0.107	-0.095
-374.844	-152.326	0.295	0.021
-373.829	-88.343	-0.217	0.064
-372.815	-91.026	0.177	0.050
-371.800	49.608	-0.105	0.098
-370.785	-98.831	0.222	0.056
-369.771	224.477	-0.178	0.285
-368.756	-200.000	-0.088	0.584
-367.742	-19.186	-0.116	0.071
-366.727	-200.000	-0.025	-0.167
-365.712	-56.931	0.120	-0.053
-364.698	-145.997	-0.079	0.007
-363.683	795.548	0.107	0.294
-362.669	-200.000	-0.026	-0.137
-361.654	636.452	0.152	0.383
-360.639	800.000	0.025	0.083
-359.625	-124.247	0.277	-0.043
-358.610	380.026	0.039	0.080
-357.596	-20.360	-0.321	0.196
-356.581	-200.000	-0.031	-0.306
-355.566	-41.976	0.181	-0.092
-354.552	-46.016	0.241	0.118
-353.537	29.875	-0.203	-0.172
-352.523	-200.000	0.035	0.278
-351.508	18.130	0.122	0.097
-350.493	103.608	0.162	0.189
-349.479	579.706	-0.168	-0.409
-348.464	-74.189	0.256	0.092
-347.450	-200.000	-0.021	-0.123
-346.435	-69.275	-0.260	-0.099
-345.420	184.093	-0.066	0.096
-344.406	98.640	-0.071	-0.081
-343.391	150.384	0.061	-0.082
-342.377	-46.881	0.064	0.031
-341.362	-117.493	0.274	0.049
-340.348	320.626	0.204	0.384
-339.333	-129.137	0.055	0.008
-338.318	-71.966	0.296	0.109
-337.304	166.219	0.023	0.033
-336.289	296.140	-0.037	-0.068
-335.275	-179.135	-0.164	0.004
-334.260	-58.420	0.481	-0.207
-333.245	800.000	-0.050	0.180
-332.231	-18.977	0.104	0.064
-331.216	444.290	0.056	0.122
-330.202	177.963	-0.047	0.068
-329.187	-200.000	-0.047	-0.228
-328.172	215.021	-0.058	-0.092
-327.158	-24.293	-0.191	0.113
-326.143	-200.000	-0.002	0.290
-325.129	-38.184	-0.158	0.083
-324.114	125.142	0.058	0.072
-323.099	29.798	-0.074	0.063
-322.085	-150.151	0.049	-0.004
-321.070	-117.917	-0.254	-0.045
-320.056	-162.174	-0.333	-0.017
-319.041	0.378	-0.190	0.135
-318.026	800.000	-0.089	0.368
-317.012	377.687	0.151	0.305
-315.997	417.384	-0.060	0.127
-314.983	-121.466	0.363	0.060
-313.968	56.270	0.138	-0.133
-312.953	-8.447	-0.314	-0.209
-311.939	204.976	0.091	0.141
-310.924	-74.817	-0.257	-0.092
-309.910	100.424	0.029	-0.033
-308.895	-163.403	-0.379	0.018
-307.880	-52.015	-0.112	-0.052
-306.866	800.000	-0.045	-0.194
-305.851	-18.809	0.108	0.067
-304.837	12.601	0.183	0.140
-303.822	800.000	0.054	-0.164
-302.807	94.881	0.133	0.150
-301.793	47.352	0.132	0.121
-300.778	-96.100	0.159	0.042
-299.764	180.010	0.167	-0.242
-298.749	60.974	-0.221	-0.217
-297.735	-200.000	0.195	0.000
-296.720	-152.932	-0.366	-0.026
-295.705	141.236	0.113	0.147
-294.691	9.644	-0.118	-0.089
-293.676	0.584	0.127	0.090
-292.662	305.706	0.078	0.144
-291.647	113.734	0.116	-0.140
-290.632	800.000	0.048	-0.151
-289.618	-200.000	-0.012	0.244
-288.603	-84.573	0.255	-0.080
-287.589	309.762	0.200	-0.370
-286.574	-200.000	0.013	0.167
-285.559	800.000	-0.108	-0.401
-284.545	-200.000	-0.056	-0.403
-283.530	125.657	-0.183	-0.228
-282.516	-5.249	0.095	-0.064
-281.501	-69.017	0.285	-0.109
-280.486	-96.183	-0.299	-0.079
-279.472	229.310	-0.101	-0.163
-278.457	538.086	0.026	-0.061
-277.443	-60.729	0.210	-0.088
-276.428	-43.860	-0.221	-0.110
-275.413	800.000	-0.051	-0.168
-274.399	-155.183	0.219	0.014
-273.384	11.630	0.103	0.078
-272.370	-200.000	0.000	-0.341
-271.355	475.287	0.042	-0.093
-270.340	-119.250	0.396	0.068
-269.326	-104.828	0.127	-0.029
-268.311	366.568	-0.096	0.192
-267.297	47.788	-0.163	-0.151
-266.282	103.670	0.077	0.089
-265.267	1.126	-0.137	0.097
-264.253	170.894	-0.052	-0.074
-263.238	800.000	0.115	0.351
-262.224	18.459	-0.054	0.042
-261.209	-38.173	0.457	0.240
-260.195	-147.413	-0.089	0.007
-259.180	-200.000	-0.039	-0.248
-258.165	-200.000	0.020	-0.094
-257.151	160.017	-0.154	-0.212
-256.136	24.754	0.355	-0.291
-255.122	527.581	-0.062	-0.144
-254.107	-146.346	0.207	-0.018
-253.092	-200.000	-0.029	-0.138
-252.078	-200.000	-0.021	0.188
-251.063	-2.405	0.207	0.143
-250.049	-200.000	-0.013	0.185
-249.034	-96.673	0.283	0.074
-248.019	-174.300	0.132	0.004
-247.005	370.188	-0.072	0.144
-245.990	-35.817	0.148	0.079
-244.976	-157.646	-0.326	0.019
-243.961	73.841	0.135	0.140
-242.946	800.000	0.028	-0.093
-241.932	-127.668	0.254	-0.036
-240.917	-189.549	-0.329	-0.004
-239.903	317.375	0.048	0.090
-238.888	-82.403	0.235	0.075
-237.873	14.818	0.075	0.058
-236.859	-71.150	0.369	0.137
-235.844	-200.000	0.062	-0.332
-234.830	-23.737	-0.290	0.172
-233.815	733.345	0.132	-0.349
-232.800	-200.000	-0.016	0.274
-231.786	-11.930	0.093	0.060
-230.771	206.613	0.057	0.088
-229.757	-104.160	-0.286	-0.066
-228.742	217.471	-0.120	-0.189
-227.727	75.914	0.050	0.052
-226.713	185.728	-0.092	-0.135
-225.698	-200.000	-0.028	0.448
-224.684	-76.501	-0.038	-0.013
-223.669	-200.000	0.030	-0.256
-222.655	800.000	0.109	-0.314
-221.640	-200.000	-0.003	0.291
-220.625	-112.061	0.190	0.038
-219.611	-63.486	0.032	0.013
-218.596	-200.000	0.055	-0.436
-217.582	98.433	-0.111	0.126
-216.567	2.961	-0.076	0.055
-215.552	-97.568	-0.165	-0.042
-214.538	-200.000	-0.026	0.214
-213.523	-75.970	-0.398	0.139
-212.509	100.714	0.116	-0.133
-211.494	-145.629	-0.283	-0.025
-210.479	-200.000	0.009	-0.059
-209.465	250.676	0.143	0.239
-208.450	-58.512	-0.060	-0.026
-207.436	800.000	-0.043	0.152
-206.421	-110.769	0.074	0.015
-205.406	453.311	0.144	-0.314
-204.392	67.018	-0.132	-0.132
-203.377	49.631	0.348	-0.324
-202.363	-130.356	-0.324	-0.043
-201.348	-46.817	0.097	-0.047
-200.333	800.000	0.027	0.091
-199.319	-78.835	0.099	0.033
-198.304	0.748	-0.289	0.204
-197.290	-25.665	0.141	0.082
-196.275	-92.406	-0.339	-0.094
-195.260	-200.000	0.035	-0.153
-194.246	-77.102	-0.269	0.092
-193.231	-200.000	-0.055	0.306
-192.217	800.000	-0.144	0.398
-191.202	800.000	-0.076	0.215
-190.187	-71.289	0.063	0.023
-189.173	800.000	-0.036	-0.135
-188.158	178.164	0.174	0.250
-187.144	-169.593	0.254	0.009
-186.129	-200.000	-0.025	-0.243
-185.114	321.485	-0.054	-0.100
-184.100	155.673	-0.169	-0.229
-183.085	-200.000	0.028	-0.150
-182.071	-132.476	-0.139	0.018
-181.056	274.857	-0.123	0.215
-180.042	108.496	0.132	0.155
-179.027	-200.000	0.003	-0.108
-178.012	63.130	0.292	-0.288
-176.998	-53.033	-0.335	0.152
-175.983	62.870	-0.336	-0.332
-174.969	800.000	-0.056	-0.213
-173.954	45.891	0.141	-0.128
-172.939	-16.688	0.227	0.142
-171.925	-114.592	0.399	0.075
-170.910	-177.616	-0.214	0.005
-169.896	-100.154	-0.163	-0.040
-168.881	388.731	-0.078	-0.159
-167.866	-200.000	0.008	0.441
-166.852	-200.000	0.011	0.074
-165.837	-40.082	0.312	-0.160
-164.823	800.000	-0.058	-0.242
-163.808	216.960	0.047	0.074
-162.793	-12.829	0.246	-0.158
-161.779	-200.000	0.019	0.142
-160.764	-184.600	-0.331	0.005
-159.750	-200.000	-0.005	-0.039
-158.735	132.843	0.104	0.133
-157.720	-200.000	-0.003	0.150
-156.706	-86.105	-0.255	0.078
-155.691	13.521	0.096	-0.073
-154.677	-33.957	-0.275	0.149
-153.662	800.000	0.057	-0.188
-152.647	-77.971	-0.261	-0.088
-151.633	-96.867	0.076	0.020
-150.618	152.920	0.115	-0.155
-149.604	269.863	0.116	0.200
-148.589	-12.394	-0.177	0.114
-147.574	-135.739	0.198	-0.023
-146.560	-92.226	-0.163	0.045
-145.545	194.895	0.154	0.230
-144.531	-72.973	-0.233	-0.084
-143.516	-167.234	0.281	-0.011
-142.502	92.830	-0.023	-0.025
-141.487	-47.479	0.132	-0.063
-140.472	-162.900	-0.321	-0.015
-139.458	329.246	0.164	-0.310
-138.443	628.450	-0.014	0.035
-137.429	-200.000	-0.001	0.353
-136.414	800.000	-0.029	-0.082
-135.399	-122.536	-0.207	0.033
-134.385	92.579	0.086	-0.095
-133.370	-21.198	-0.274	0.165
-132.356	-78.862	0.047	0.016
-131.341	-144.118	0.139	0.013
-130.326	800.000	-0.110	-0.411
-129.312	214.331	-0.118	-0.184
-128.297	171.064	0.027	0.039
-127.283	133.132	0.074	-0.094
-126.268	58.441	-0.084	-0.081
-125.253	-5.680	-0.058	-0.039
-124.239	-74.015	0.295	0.105
-123.224	36.153	0.225	0.195
-122.210	203.100	-0.092	-0.141
