DTS Sentinel unit serial number:	SN413079Multiplexer serial number:	ORYXHardware model number:	OX4-SRSoftware version number:	ORYX F/W v4.00 Oryx Data Collector v3.7.2.0data status	okinstallation	princeton_trtdifferential loss correction	single-endedforward channel	channel 2reverse channel	N/Adate	2019/09/14time	08:15:35forward acquisition time	60.00reverse acquisition time	0.00gamma	496.2192k internal	0.2333k external	0.2333temperature offset calibration	1.0125default loss term (dB/km)	0.3790temperature slope calibration	1.0000multiplexer offset coefficient	1.0000multiplexer slope coefficient	1.0000fibre end	0.00T internal ref (°C)	27.67T ext. ref 1 (°C)	3.60T ext. ref 2 (°C)	26.22length (m)	temperature (°C)	Stokes	anti-Stokes-747.200	-61.355	-0.236	0.100
-746.185	-200.000	-0.038	0.290
-745.171	721.286	-0.035	0.092
-744.156	586.329	0.131	0.323
-743.142	-69.495	0.276	-0.107
-742.127	-200.000	0.030	0.216
-741.112	-200.000	-0.023	-0.177
-740.098	78.833	-0.241	0.260
-739.083	36.611	-0.247	0.220
-738.069	19.840	-0.115	0.093
-737.054	-135.003	-0.202	0.024
-736.039	-167.905	-0.125	0.005
-735.025	-200.000	-0.014	0.249
-734.010	-65.794	-0.096	-0.038
-732.996	140.110	-0.181	-0.240
-731.981	-200.000	0.001	-0.003
-730.966	409.664	-0.137	0.292
-729.952	-94.596	-0.348	-0.095
-728.937	366.992	0.059	0.119
-727.923	-56.191	-0.397	-0.178
-726.908	125.355	-0.105	0.134
-725.894	492.348	-0.052	-0.119
-724.879	95.703	0.187	-0.215
-723.864	-98.815	-0.105	-0.027
-722.850	392.292	-0.184	-0.384
-721.835	-75.594	-0.262	-0.094
-720.821	-111.128	0.223	-0.046
-719.806	170.116	0.113	-0.162
-718.791	412.887	0.153	0.326
-717.777	-200.000	-0.019	-0.125
-716.762	60.993	-0.098	0.098
-715.748	28.161	0.138	-0.117
-714.733	-89.482	-0.034	-0.010
-713.718	-200.000	-0.010	-0.069
-712.704	800.000	0.066	0.248
-711.689	345.162	-0.079	0.157
-710.675	-98.896	0.049	-0.013
-709.660	249.120	0.177	0.301
-708.645	43.674	-0.219	-0.201
-707.631	24.776	-0.190	0.158
-706.616	-114.937	-0.060	0.012
-705.602	-109.765	0.251	0.053
-704.587	38.212	-0.035	0.031
-703.572	800.000	0.122	0.339
-702.558	417.718	-0.113	0.242
-701.543	-39.284	-0.223	-0.118
-700.529	473.876	-0.174	0.394
-699.514	-200.000	0.039	0.243
-698.499	-122.199	0.144	0.024
-697.485	-200.000	-0.007	-0.097
-696.470	-120.735	-0.118	-0.020
-695.456	-157.489	0.142	-0.009
-694.441	117.307	0.017	-0.020
-693.426	-40.991	-0.176	-0.091
-692.412	75.184	-0.162	-0.172
-691.397	-6.375	-0.166	0.114
-690.383	-52.919	0.050	-0.023
-689.368	5.290	-0.026	-0.020
-688.354	-200.000	-0.001	-0.032
-687.339	800.000	-0.021	-0.081
-686.324	-118.879	-0.126	-0.022
-685.310	-156.037	-0.341	-0.022
-684.295	688.858	0.144	0.378
-683.281	144.117	-0.207	-0.277
-682.266	740.756	0.024	0.064
-681.251	95.681	0.159	-0.182
-680.237	723.789	-0.048	0.128
-679.222	-200.000	0.039	-0.355
-678.208	-91.350	-0.271	0.078
-677.193	55.089	-0.023	0.022
-676.178	37.585	0.161	0.144
-675.164	-200.000	0.018	0.160
-674.149	800.000	0.037	0.154
-673.135	193.434	-0.102	-0.155
-672.120	-200.000	0.008	-0.078
-671.105	239.965	0.043	-0.072
-670.091	122.492	-0.098	-0.122
-669.076	-18.835	-0.217	0.135
-668.062	531.990	-0.029	-0.068
-667.047	-148.057	-0.346	-0.029
-666.032	175.045	-0.168	-0.244
-665.018	-186.603	0.039	-0.001
-664.003	800.000	-0.055	0.196
-662.989	309.735	0.066	0.124
-661.974	-135.654	-0.150	0.018
-660.959	800.000	-0.078	0.325
-659.945	-200.000	-0.070	0.309
-658.930	253.765	-0.087	-0.150
-657.916	523.009	0.117	0.276
-656.901	40.720	0.170	-0.154
-655.886	124.077	0.212	0.267
-654.872	338.354	-0.097	-0.189
-653.857	800.000	-0.103	-0.326
-652.843	-45.097	-0.345	-0.172
-651.828	-88.561	0.105	0.031
-650.814	220.451	0.116	0.187
-649.799	-200.000	-0.050	0.229
-648.784	692.032	0.050	0.132
-647.770	-191.483	0.306	0.003
-646.755	-200.000	-0.020	0.208
-645.741	-56.405	0.177	-0.079
-644.726	392.727	-0.091	0.190
-643.711	-101.463	0.177	-0.043
-642.697	-105.898	0.139	-0.031
-641.682	-122.427	0.292	-0.048
-640.668	32.374	0.030	0.026
-639.653	8.647	0.046	-0.035
-638.638	26.047	0.128	0.107
-637.624	47.937	0.085	-0.080
-636.609	-28.397	-0.066	0.038
-635.595	-200.000	-0.012	-0.357
-634.580	543.783	-0.059	-0.142
-633.565	-200.000	-0.023	0.255
-632.551	-17.322	0.149	0.094
-631.536	-174.719	-0.423	0.012
-630.522	-135.793	0.286	-0.034
-629.507	-70.628	-0.427	0.162
-628.492	50.166	-0.044	-0.042
-627.478	158.663	0.185	0.256
-626.463	-57.911	0.481	-0.210
-625.449	59.040	-0.098	0.096
-624.434	186.183	0.117	-0.174
-623.419	-146.348	0.246	-0.022
-622.405	6.189	-0.086	0.064
-621.390	241.062	-0.202	0.337
-620.376	275.000	0.146	0.259
-619.361	201.703	-0.085	0.131
-618.346	-200.000	0.019	0.158
-617.332	-154.940	-0.179	-0.012
-616.317	800.000	-0.035	-0.102
-615.303	5.260	-0.223	-0.164
-614.288	-200.000	-0.027	-0.124
-613.273	435.791	0.118	0.256
-612.259	338.230	0.107	-0.208
-611.244	376.101	0.129	-0.263
-610.230	63.725	-0.145	-0.146
-609.215	-52.627	-0.100	0.046
-608.201	800.000	0.025	-0.074
-607.186	28.040	-0.203	0.171
-606.171	666.068	-0.050	0.129
-605.157	1.791	0.206	-0.149
-604.142	236.356	0.162	0.268
-603.128	200.206	0.078	-0.120
-602.113	800.000	-0.033	-0.097
-601.098	-200.000	-0.009	-0.188
-600.084	-200.000	0.005	-0.063
-599.069	163.456	0.042	-0.059
-598.055	136.092	-0.260	0.339
-597.040	-196.769	-0.174	0.001
-596.025	72.875	0.176	0.184
-595.011	-159.827	-0.441	-0.024
-593.996	800.000	-0.026	-0.101
-592.982	440.227	-0.038	-0.082
-591.967	-90.957	0.307	0.088
-590.952	234.224	-0.136	0.224
-589.938	72.905	0.095	0.100
-588.923	-55.481	-0.231	-0.103
-587.909	10.684	0.067	0.051
-586.894	123.108	-0.164	-0.205
-585.879	-37.523	0.300	-0.160
-584.865	800.000	-0.038	0.115
-583.850	303.318	-0.128	-0.238
-582.836	-200.000	0.016	0.191
-581.821	800.000	0.050	-0.158
-580.806	60.482	-0.161	-0.159
-579.792	-121.483	0.320	0.053
-578.777	-26.696	0.143	-0.084
-577.763	800.000	-0.058	0.160
-576.748	359.933	0.192	-0.385
-575.733	-200.000	0.003	-0.017
-574.719	-200.000	0.010	0.080
-573.704	-200.000	-0.102	-0.463
-572.690	696.960	0.107	-0.280
-571.675	-26.889	-0.037	-0.021
-570.661	114.002	-0.099	0.120
-569.646	-200.000	-0.052	-0.310
-568.631	-200.000	0.042	0.452
-567.617	720.951	-0.082	-0.219
-566.602	506.038	0.180	-0.416
-565.588	-200.000	-0.014	0.212
-564.573	768.770	-0.054	0.148
-563.558	-22.220	0.190	-0.115
-562.544	-98.164	0.099	-0.025
-561.529	-200.000	-0.026	0.115
-560.515	242.503	-0.037	0.062
-559.500	-164.775	-0.568	-0.026
-558.485	-9.720	0.296	-0.197
-557.471	-131.767	-0.247	0.032
-556.456	-111.622	-0.303	0.061
-555.442	-154.841	-0.097	0.006
-554.427	14.281	-0.366	0.285
-553.412	71.727	-0.176	0.182
-552.398	442.006	-0.176	-0.385
-551.383	207.288	0.141	0.219
-550.369	13.877	0.138	-0.107
-549.354	800.000	-0.031	0.133
-548.339	-123.296	0.277	0.044
-547.325	-78.631	0.212	-0.072
-546.310	54.153	-0.154	-0.148
-545.296	117.739	0.136	0.167
-544.281	-19.395	0.184	0.114
-543.266	166.143	0.068	0.097
-542.252	800.000	0.116	0.407
-541.237	-200.000	0.011	0.168
-540.223	800.000	-0.059	-0.177
-539.208	-152.084	0.223	-0.016
-538.193	-67.031	0.362	-0.142
-537.179	627.045	-0.033	-0.083
-536.164	800.000	-0.043	0.154
-535.150	101.564	-0.075	0.087
-534.135	-66.863	-0.069	-0.027
-533.121	-200.000	0.047	-0.258
-532.106	223.872	-0.063	0.101
-531.091	-200.000	0.012	0.112
-530.077	-99.485	0.112	0.028
-529.062	-200.000	-0.002	-0.015
-528.048	0.584	0.317	-0.226
-527.033	-200.000	0.010	-0.144
-526.018	-187.428	0.269	-0.004
-525.004	800.000	0.003	0.015
-523.989	800.000	0.044	0.184
-522.975	-55.887	0.071	0.032
-521.960	59.810	0.155	0.152
-520.945	-56.552	0.126	-0.056
-519.931	98.113	-0.231	0.266
-518.916	49.306	0.188	-0.176
-517.902	-99.419	-0.289	-0.073
-516.887	10.440	-0.154	-0.117
-515.872	-102.464	0.108	-0.026
-514.858	108.134	-0.161	-0.191
-513.843	260.059	0.223	0.383
-512.829	3.049	-0.189	0.137
-511.814	422.463	-0.053	0.114
-510.799	-200.000	0.001	-0.126
-509.785	-34.220	-0.048	-0.026
-508.770	296.119	-0.102	-0.186
-507.756	-61.722	-0.055	-0.023
-506.741	800.000	-0.042	-0.160
-505.726	435.847	-0.100	-0.216
-504.712	-200.000	-0.018	0.227
-503.697	616.984	-0.080	-0.201
-502.683	-42.940	0.205	0.104
-501.668	61.372	-0.053	-0.053
-500.653	-140.955	0.117	0.012
-499.639	-15.932	0.266	0.168
-498.624	-119.284	-0.075	0.013
-497.610	1.341	0.143	0.102
-496.595	149.453	-0.171	-0.230
-495.581	800.000	-0.077	-0.259
-494.566	-117.825	-0.036	0.006
-493.551	-21.164	-0.104	0.063
-492.537	-200.000	-0.021	0.132
-491.522	-85.329	-0.177	-0.055
-490.508	800.000	-0.026	-0.076
-489.493	-147.818	0.157	0.013
-488.478	-45.102	0.159	0.079
-487.464	786.963	0.070	-0.191
-486.449	-96.561	0.139	0.036
-485.435	535.479	0.099	-0.234
-484.420	-167.180	-0.030	0.001
-483.405	49.480	0.187	0.175
-482.391	256.842	0.088	-0.151
-481.376	-200.000	0.009	-0.221
-480.362	453.089	0.026	-0.058
-479.347	597.894	0.202	0.498
-478.332	800.000	0.133	-0.502
-477.318	-200.000	-0.032	-0.178
-476.303	32.869	-0.289	0.249
-475.289	-81.472	-0.038	0.013
-474.274	800.000	0.059	0.195
-473.259	800.000	0.096	-0.372
-472.245	-200.000	-0.019	-0.105
-471.230	116.434	0.179	0.219
-470.216	-28.863	-0.278	0.159
-469.201	355.106	-0.229	0.453
-468.186	-107.820	-0.314	-0.068
-467.172	-86.114	-0.214	-0.066
-466.157	270.115	0.023	-0.039
-465.143	-200.000	-0.057	0.389
-464.128	800.000	0.019	0.069
-463.113	7.473	0.039	0.029
-462.099	-87.489	0.065	-0.020
-461.084	-200.000	-0.014	-0.098
-460.070	-102.918	-0.253	0.060
-459.055	162.499	0.084	-0.118
-458.040	-65.806	-0.359	-0.143
-457.026	634.338	0.079	0.200
-456.011	-115.910	-0.280	0.052
-454.997	-200.000	-0.041	0.402
-453.982	-69.386	-0.106	0.040
-452.968	-200.000	0.042	0.243
-451.953	-200.000	-0.050	0.242
-450.938	350.465	0.083	-0.164
-449.924	41.313	-0.053	0.047
-448.909	99.503	0.218	-0.250
-447.895	-135.644	-0.138	-0.016
-446.880	-200.000	-0.016	-0.148
-445.865	166.638	0.163	-0.230
-444.851	800.000	0.138	0.393
-443.836	124.033	-0.249	0.311
-442.822	-71.408	0.156	0.058
-441.807	-200.000	-0.020	0.095
-440.792	-188.975	0.220	0.003
-439.778	-141.557	0.197	0.020
-438.763	-82.525	0.344	0.111
-437.749	421.561	-0.138	-0.293
-436.734	-2.169	-0.248	0.173
-435.719	138.630	0.052	0.068
-434.705	6.265	-0.272	-0.201
-433.690	65.982	0.034	-0.034
-432.676	320.738	-0.108	0.204
-431.661	-153.205	0.244	0.017
-430.646	105.423	-0.181	-0.212
-429.632	25.201	0.099	-0.081
-428.617	23.061	0.249	0.203
-427.603	-200.000	-0.074	0.358
-426.588	-123.110	-0.309	-0.049
-425.573	800.000	-0.044	-0.178
-424.559	-149.870	0.021	0.002
-423.544	800.000	-0.089	0.279
-422.530	397.267	-0.102	0.213
-421.515	645.313	0.027	0.069
-420.500	-200.000	-0.031	-0.276
-419.486	-200.000	0.005	-0.182
-418.471	-44.255	-0.043	0.021
-417.457	17.122	-0.027	-0.021
-416.442	291.881	-0.183	0.330
-415.428	79.006	-0.187	0.199
-414.413	-128.086	0.225	0.032
-413.398	-153.254	-0.376	-0.026
-412.384	-20.815	0.133	0.081
-411.369	163.412	0.207	-0.289
-410.355	173.217	0.090	0.129
-409.340	19.677	0.231	-0.184
-408.325	385.550	-0.118	-0.242
-407.311	800.000	0.020	0.084
-406.296	-25.816	-0.239	-0.140
-405.282	-102.570	0.069	-0.016
-404.267	29.253	0.075	0.063
-403.252	-200.000	-0.053	-0.253
-402.238	92.683	-0.149	-0.167
-401.223	29.558	0.100	0.084
-400.209	371.176	0.109	0.219
-399.194	28.282	-0.165	0.138
-398.179	354.896	0.080	0.158
-397.165	162.272	-0.121	0.169
-396.150	-28.400	-0.204	-0.117
-395.136	0.826	0.364	0.258
-394.121	-98.753	-0.405	0.102
-393.106	66.664	0.029	-0.029
-392.092	-97.663	-0.295	0.076
-391.077	800.000	-0.058	0.214
-390.063	198.316	-0.036	0.054
-389.048	-200.000	-0.032	-0.212
-388.033	128.821	0.092	-0.116
-387.019	592.212	-0.129	0.315
-386.004	800.000	0.035	0.101
-384.990	401.969	0.018	0.038
-383.975	30.901	0.095	0.081
-382.960	-59.010	-0.141	-0.060
-381.946	-86.034	0.199	-0.061
-380.931	629.887	-0.072	0.181
-379.917	25.947	0.156	0.129
-378.902	-200.000	-0.053	-0.371
-377.888	-200.000	0.044	0.246
-376.873	800.000	-0.053	-0.153
-375.858	-147.288	-0.204	0.017
-374.844	-200.000	0.027	-0.190
-373.829	-14.142	0.066	0.042
-372.815	-127.572	0.126	0.018
-371.800	112.861	-0.141	-0.169
-370.785	689.091	-0.140	0.364
-369.771	-76.883	-0.175	0.061
-368.756	-200.000	0.033	0.161
-367.742	-200.000	0.064	-0.285
-366.727	47.824	0.127	0.117
-365.712	-105.844	-0.350	0.078
-364.698	-24.588	0.347	-0.204
-363.683	98.506	0.127	0.145
-362.669	580.525	-0.029	0.071
-361.654	-130.401	-0.137	0.018
-360.639	800.000	-0.010	-0.034
-359.625	13.648	-0.193	0.149
-358.610	-200.000	0.020	0.163
-357.596	-43.555	-0.189	0.094
-356.581	107.054	-0.059	-0.070
-355.566	85.673	0.077	-0.084
-354.552	-59.795	-0.103	0.044
-353.537	313.071	-0.172	-0.320
-352.523	85.738	0.067	0.073
-351.508	-42.805	0.028	0.014
-350.493	-200.000	-0.057	-0.290
-349.479	-92.453	-0.106	0.030
-348.464	-200.000	-0.037	0.184
-347.450	-36.375	0.193	-0.103
-346.435	330.393	-0.110	-0.210
-345.420	434.524	0.090	-0.193
-344.406	-56.592	0.367	0.161
-343.391	800.000	0.082	-0.250
-342.377	800.000	0.068	0.239
-341.362	53.314	0.187	0.177
-340.348	-102.674	-0.243	-0.057
-339.333	17.841	0.226	0.178
-338.318	-118.567	0.302	0.053
-337.304	3.005	-0.165	0.119
-336.289	-54.744	-0.144	0.064
-335.275	126.106	-0.176	0.220
-334.260	203.902	0.054	0.083
-333.245	-78.390	0.357	0.121
-332.231	-81.896	0.388	-0.126
-331.216	-35.801	0.127	-0.068
-330.202	698.579	-0.072	-0.187
-329.187	119.525	0.111	0.136
-328.172	-200.000	0.103	-0.532
-327.158	800.000	-0.015	-0.059
-326.143	-200.000	-0.019	0.252
-325.129	-36.624	0.152	-0.081
-324.114	-65.163	-0.062	-0.025
-323.099	-22.575	-0.179	0.107
-322.085	800.000	-0.086	-0.340
-321.070	118.430	0.098	-0.120
-320.056	-200.000	-0.028	0.165
-319.041	729.740	0.036	0.094
-318.026	-47.141	0.128	-0.062
-317.012	-15.518	-0.251	-0.159
-315.997	-200.000	-0.019	0.216
-314.983	79.858	-0.159	0.169
-313.968	-200.000	-0.023	0.229
-312.953	-200.000	0.011	0.070
-311.939	-78.336	0.445	-0.151
-310.924	-200.000	-0.050	-0.235
-309.910	800.000	-0.084	0.352
-308.895	-45.058	0.336	0.165
-307.880	289.799	-0.044	-0.078
-306.866	90.569	-0.389	-0.431
-305.851	-27.136	-0.471	0.271
-304.837	-200.000	-0.005	-0.069
-303.822	487.446	0.101	-0.228
-302.807	71.788	-0.091	0.094
-301.793	219.725	0.264	-0.417
-300.778	98.196	0.082	-0.093
-299.764	88.808	-0.059	0.065
-298.749	3.810	0.135	-0.097
-297.735	-69.730	-0.170	0.064
-296.720	132.332	-0.108	-0.137
-295.705	15.610	-0.242	0.188
-294.691	-184.227	-0.266	-0.004
-293.676	204.976	0.090	0.138
-292.662	129.288	-0.120	-0.151
-291.647	343.525	-0.231	-0.447
-290.632	196.359	0.064	-0.097
-289.618	-111.443	-0.283	-0.057
-288.603	-39.747	0.272	0.141
-287.589	189.903	-0.149	-0.221
-286.574	150.375	0.114	-0.152
-285.559	229.325	0.122	-0.197
-284.545	287.796	-0.098	-0.176
-283.530	-55.839	-0.157	0.069
-282.516	13.700	0.198	-0.152
-281.501	105.061	0.094	-0.110
-280.486	175.703	-0.149	-0.214
-279.472	-116.213	-0.134	-0.024
-278.457	800.000	0.107	-0.297
-277.443	800.000	-0.040	-0.130
-276.428	-30.505	0.238	-0.133
-275.413	-75.709	-0.206	-0.072
-274.399	25.000	0.094	-0.077
-273.384	800.000	0.050	0.186
-272.370	-200.000	0.003	-0.103
-271.355	800.000	0.078	-0.235
-270.340	79.997	0.334	0.354
-269.326	-76.571	0.131	0.045
-268.311	800.000	-0.080	0.333
-267.297	28.412	-0.160	0.134
-266.282	-169.901	0.116	0.004
-265.267	-35.227	-0.173	0.093
-264.253	568.008	0.082	-0.197
-263.238	10.710	-0.261	0.196
-262.224	11.071	0.250	0.189
-261.209	-43.208	0.312	-0.156
-260.195	176.846	-0.177	-0.253
-259.180	126.452	0.164	0.204
-258.165	-200.000	-0.037	0.310
-257.151	-127.576	0.138	-0.020
-256.136	-26.939	0.199	-0.115
-255.122	4.577	0.080	-0.058
-254.107	-26.797	-0.233	0.134
-253.092	255.540	0.040	-0.067
-252.078	800.000	0.119	0.353
-251.063	-29.707	-0.410	0.231
-250.049	86.868	-0.262	-0.286
-249.034	39.628	-0.025	-0.022
-248.019	-200.000	0.065	-0.339
-247.005	-200.000	0.051	-0.347
-245.990	800.000	0.064	-0.199
-244.976	-200.000	0.021	-0.092
-243.961	-200.000	0.003	-0.153
-242.946	-166.986	-0.272	-0.011
-241.932	800.000	0.099	0.340
-240.917	290.542	-0.090	0.162
-239.903	247.648	-0.148	0.247
-238.888	-132.374	0.106	-0.013
-237.873	407.598	0.075	0.156
-236.859	52.428	-0.096	-0.091
-235.844	800.000	-0.057	-0.213
-234.830	-200.000	0.003	-0.228
-233.815	44.573	-0.150	0.136
-232.800	-200.000	-0.015	0.183
-231.786	123.348	0.180	-0.222
-230.771	-200.000	-0.001	0.046
-229.757	141.399	0.099	-0.129
-228.742	50.477	0.085	0.079
-227.727	30.815	0.124	0.105
-226.713	422.646	-0.023	-0.048
-225.698	790.583	-0.093	-0.251
-224.684	-7.543	0.121	0.081
-223.669	155.237	0.089	0.121
-222.655	-171.844	-0.428	-0.014
-221.640	211.077	0.079	-0.123
-220.625	62.669	-0.315	0.310
-219.611	116.413	0.109	0.132
-218.596	-71.094	0.275	-0.102
-217.582	62.138	0.128	-0.126
-216.567	-86.301	0.059	0.018
-215.552	84.316	0.127	-0.137
-214.538	571.673	-0.071	0.170
-213.523	-136.180	0.283	-0.033
-212.509	352.173	-0.133	-0.260
-211.494	-200.000	-0.011	0.334
-210.479	4.232	0.022	-0.016
-209.465	374.349	0.036	0.073
-208.450	-200.000	0.040	-0.257
-207.436	-149.717	0.154	-0.012
-206.421	-200.000	0.004	0.163
-205.406	11.891	-0.133	-0.101
-204.392	-20.779	0.276	0.167
-203.377	-200.000	0.017	0.316
-202.363	329.543	0.184	0.348
-201.348	-74.678	0.056	-0.020
-200.333	800.000	0.038	0.152
-199.319	-60.813	-0.148	-0.062
-198.304	-60.266	0.312	0.131
-197.290	-45.463	-0.093	-0.045
-196.275	48.851	0.057	-0.053
-195.260	-200.000	0.002	-0.242
-194.246	-200.000	0.002	-0.060
-193.231	162.345	-0.070	-0.096
-192.217	800.000	-0.041	-0.172
-191.202	-49.703	-0.253	-0.119
-190.187	800.000	0.066	-0.185
-189.173	-76.701	-0.152	0.053
-188.158	25.406	0.106	0.087
-187.144	-116.883	0.391	-0.070
-186.129	162.897	-0.228	-0.315
-185.114	108.868	0.201	0.237
-184.100	177.883	0.171	0.245
-183.085	-200.000	0.008	-0.182
-182.071	-200.000	-0.004	0.090
-181.056	18.977	0.210	0.165
-180.042	54.582	-0.162	-0.153
-179.027	37.342	0.084	0.073
-178.012	18.552	-0.301	-0.237
-176.998	636.114	-0.059	0.148
-175.983	-122.954	-0.126	0.020
-174.969	11.092	0.080	-0.060
-173.954	-121.289	0.224	-0.037
-172.939	553.685	0.046	-0.110
-171.925	84.439	0.065	0.070
-170.910	173.786	-0.227	0.322
-169.896	221.364	-0.101	0.160
-168.881	-156.518	-0.167	0.010
-167.866	-80.626	0.244	-0.080
-166.852	95.727	-0.317	-0.355
-165.837	-41.980	-0.157	-0.079
-164.823	-100.074	-0.469	-0.115
-163.808	176.025	0.078	-0.111
-162.793	-200.000	0.017	-0.169
-161.779	-187.884	0.189	0.002
-160.764	800.000	-0.094	-0.342
-159.750	18.549	0.167	-0.131
-158.735	-169.766	-0.179	0.006
-157.720	800.000	0.064	0.265
-156.706	578.945	-0.083	-0.201
-155.691	616.572	0.082	0.202
-154.677	-4.473	-0.142	0.096
-153.662	-31.181	0.101	-0.056
-152.647	-50.971	-0.095	-0.044
-151.633	0.840	0.046	0.033
-150.618	-200.000	-0.018	-0.286
-149.604	-52.600	-0.338	-0.154
-148.589	-74.838	0.306	0.108
-147.574	398.444	0.115	0.236
-146.560	-88.811	0.182	0.053
-145.545	355.946	0.063	0.123
-144.531	-4.675	-0.196	0.133
-143.516	-200.000	0.041	0.326
-142.502	-132.462	0.122	-0.015
-141.487	-23.887	0.055	-0.032
-140.472	-41.045	0.274	0.139
-139.458	513.082	-0.170	-0.389
-138.443	-200.000	-0.031	0.159
-137.429	425.901	-0.209	0.443
-136.414	-200.000	0.090	0.440
-135.399	214.428	0.161	0.251
-134.385	30.049	0.196	-0.164
-133.370	-200.000	-0.055	0.240
-132.356	183.601	-0.099	-0.144
-131.341	-126.999	0.136	0.020
-130.326	-200.000	-0.038	-0.169
-129.312	-188.241	-0.247	-0.003
-128.297	113.385	0.100	0.119
-127.283	-59.074	-0.195	-0.083
-126.268	-78.938	0.216	-0.072
-125.253	-200.000	-0.027	-0.176
-124.239	-95.185	-0.115	0.030
-123.224	-131.682	0.167	-0.021
-122.210	-200.000	0.027	-0.194
-121.195	51.422	-0.074	0.069
-120.180	-161.674	0.032	0.002
