DTS Sentinel unit serial number:	SN413079Multiplexer serial number:	ORYXHardware model number:	OX4-SRSoftware version number:	ORYX F/W v4.00 Oryx Data Collector v3.7.2.0data status	okinstallation	princeton_trtdifferential loss correction	single-endedforward channel	channel 2reverse channel	N/Adate	2019/09/16time	16:35:35forward acquisition time	60.00reverse acquisition time	0.00gamma	496.2192k internal	0.2302k external	0.2302temperature offset calibration	0.9948default loss term (dB/km)	0.3790temperature slope calibration	1.0000multiplexer offset coefficient	1.0000multiplexer slope coefficient	1.0000fibre end	0.00T internal ref (°C)	40.00T ext. ref 1 (°C)	15.11T ext. ref 2 (°C)	33.75length (m)	temperature (°C)	Stokes	anti-Stokes-747.200	-200.000	-0.019	-0.217
-746.185	800.000	-0.042	0.178
-745.171	800.000	-0.038	-0.144
-744.156	-200.000	0.034	0.270
-743.142	-200.000	-0.001	-0.055
-742.127	294.131	0.137	0.255
-741.112	330.876	-0.150	0.294
-740.098	800.000	0.063	0.213
-739.083	-85.140	0.055	-0.017
-738.069	-200.000	-0.076	0.502
-737.054	223.475	-0.119	0.196
-736.039	-200.000	-0.000	-0.033
-735.025	38.204	0.325	0.295
-734.010	68.023	0.217	-0.226
-732.996	310.441	-0.117	0.223
-731.981	143.440	-0.162	-0.220
-730.966	-200.000	-0.004	0.100
-729.952	-24.592	0.155	-0.094
-728.937	91.272	0.138	0.158
-727.923	28.864	-0.165	-0.143
-726.908	-4.795	0.098	-0.069
-725.894	4.010	0.286	-0.213
-724.879	87.365	0.205	-0.231
-723.864	190.353	-0.103	0.157
-722.850	-83.811	-0.308	0.100
-721.835	-200.000	-0.004	0.064
-720.821	149.028	-0.101	0.139
-719.806	342.250	0.139	0.277
-718.791	-2.221	-0.260	-0.186
-717.777	270.698	-0.091	-0.163
-716.762	-150.087	-0.394	-0.031
-715.748	536.399	0.085	-0.205
-714.733	-200.000	-0.015	0.405
-713.718	272.367	-0.162	0.292
-712.704	-184.499	-0.044	0.001
-711.689	-23.854	-0.043	0.026
-710.675	253.479	0.020	-0.034
-709.660	-73.596	-0.172	0.064
-708.645	78.174	-0.132	-0.144
-707.631	153.575	-0.151	0.210
-706.616	-200.000	0.003	-0.123
-705.602	800.000	0.091	-0.301
-704.587	464.906	-0.067	-0.152
-703.572	176.408	-0.213	-0.315
-702.558	33.879	-0.114	0.101
-701.543	800.000	0.037	-0.147
-700.529	800.000	-0.053	-0.182
-699.514	291.880	-0.064	-0.119
-698.499	-200.000	0.028	-0.138
-697.485	-200.000	-0.011	0.135
-696.470	-11.911	0.214	0.143
-695.456	319.570	0.019	0.036
-694.441	114.129	0.049	-0.060
-693.426	189.281	0.168	-0.255
-692.412	800.000	0.067	-0.192
-691.397	-20.450	-0.286	-0.179
-690.383	-25.667	-0.089	0.054
-689.368	760.023	0.063	-0.174
-688.354	641.851	0.041	-0.107
-687.339	-10.485	0.297	0.200
-686.324	307.753	0.136	-0.259
-685.310	92.122	-0.193	-0.221
-684.295	-200.000	-0.003	-0.479
-683.281	264.956	0.247	0.437
-682.266	-64.603	-0.232	0.096
-681.251	-125.708	-0.254	-0.039
-680.237	262.805	0.130	-0.230
-679.222	101.163	-0.034	0.040
-678.208	13.046	0.149	-0.117
-677.193	-142.798	-0.089	0.009
-676.178	-0.039	0.196	-0.142
-675.164	-104.272	0.034	-0.008
-674.149	20.858	-0.061	0.050
-673.135	-148.472	-0.372	-0.031
-672.120	71.184	-0.125	0.132
-671.105	-27.323	0.329	-0.194
-670.091	-165.879	-0.296	0.013
-669.076	371.098	-0.032	-0.065
-668.062	-200.000	-0.051	0.239
-667.047	-200.000	-0.024	0.191
-666.032	-14.335	-0.218	0.143
-665.018	8.511	0.088	0.067
-664.003	-200.000	0.091	-0.444
-662.989	14.843	-0.215	-0.171
-661.974	135.716	-0.083	0.110
-660.959	594.853	-0.070	-0.177
-659.945	513.306	-0.173	-0.410
-658.930	278.493	-0.057	-0.103
-657.916	164.968	0.244	-0.349
-656.901	196.276	-0.139	0.216
-655.886	-96.779	0.215	0.057
-654.872	48.997	-0.273	0.260
-653.857	301.701	0.044	-0.083
-652.843	129.945	0.145	-0.189
-651.828	-33.383	-0.162	-0.091
-650.814	172.448	0.211	-0.307
-649.799	-200.000	0.002	0.119
-648.784	-184.444	0.309	-0.005
-647.770	299.059	-0.147	0.275
-646.755	272.130	0.164	0.294
-645.741	29.219	0.116	-0.100
-644.726	800.000	0.137	0.471
-643.711	-116.798	0.386	-0.072
-642.697	-145.846	-0.167	0.015
-641.682	17.824	0.044	0.035
-640.668	-200.000	-0.035	-0.203
-639.653	-64.710	-0.460	0.189
-638.638	58.267	-0.222	-0.221
-637.624	-191.165	0.183	0.002
-636.609	42.295	0.046	-0.043
-635.595	587.204	-0.082	0.205
-634.580	-11.873	0.053	-0.035
-633.565	-154.388	-0.272	-0.019
-632.551	-200.000	-0.090	-0.572
-631.536	-105.537	0.118	0.027
-630.522	-11.368	-0.240	0.160
-629.507	-200.000	-0.033	0.204
-628.492	800.000	0.036	-0.159
-627.478	-93.735	0.375	-0.105
-626.463	443.941	-0.024	-0.053
-625.449	-3.564	-0.277	0.196
-624.434	618.964	0.093	-0.237
-623.419	447.215	-0.093	-0.207
-622.405	-200.000	-0.019	-0.230
-621.390	184.776	-0.044	0.066
-620.376	95.228	0.205	-0.237
-619.361	-176.949	0.407	-0.010
-618.346	218.076	-0.075	0.122
-617.332	501.043	-0.081	-0.189
-616.317	95.267	-0.162	-0.187
-615.303	604.333	0.073	-0.185
-614.288	39.425	-0.193	-0.176
-613.273	-86.842	-0.332	0.103
-612.259	216.727	0.075	-0.121
-611.244	30.867	-0.182	0.158
-610.230	-168.865	-0.087	-0.003
-609.215	-109.334	-0.086	-0.019
-608.201	-107.554	0.105	0.023
-607.186	-52.276	-0.152	-0.072
-606.171	98.658	-0.221	-0.259
-605.157	147.740	-0.195	-0.266
-604.142	-151.812	-0.150	-0.011
-603.128	800.000	-0.050	0.145
-602.113	-20.691	-0.204	-0.127
-601.098	-121.550	0.160	0.027
-600.084	137.015	0.136	0.180
-599.069	-173.787	0.428	0.013
-598.055	362.322	-0.095	0.193
-597.040	-28.945	-0.105	-0.061
-596.025	-4.012	-0.381	-0.268
-595.011	800.000	0.052	-0.228
-593.996	-200.000	-0.006	0.091
-592.982	153.455	-0.085	-0.118
-591.967	800.000	0.087	-0.332
-590.952	-115.446	0.132	-0.025
-589.938	-200.000	0.025	0.146
-588.923	-200.000	-0.029	0.417
-587.909	26.113	0.210	0.178
-586.894	-200.000	0.046	-0.209
-585.879	-140.444	-0.198	-0.021
-584.865	-200.000	0.031	-0.213
-583.850	-80.588	0.216	0.073
-582.836	-115.311	-0.481	0.092
-581.821	84.198	0.047	-0.052
-580.806	-136.443	0.153	-0.018
-579.792	-31.303	-0.088	0.050
-578.777	32.767	-0.147	0.129
-577.763	-108.689	-0.146	-0.032
-576.748	-162.951	-0.130	-0.006
-575.733	-76.431	-0.062	0.022
-574.719	725.030	-0.076	-0.205
-573.704	-200.000	-0.005	-0.236
-572.690	541.818	-0.020	0.049
-571.675	556.231	-0.051	0.125
-570.661	689.989	0.111	0.294
-569.646	-200.000	0.048	-0.262
-568.631	89.240	-0.384	0.433
-567.617	133.212	0.199	-0.260
-566.602	-200.000	-0.002	-0.527
-565.588	342.539	0.084	-0.166
-564.573	-73.807	0.438	0.161
-563.558	-200.000	0.056	0.250
-562.544	798.292	-0.074	0.206
-561.529	180.443	0.146	-0.216
-560.515	800.000	-0.120	-0.491
-559.500	-200.000	-0.034	-0.264
-558.485	137.648	0.135	-0.179
-557.471	-41.548	0.483	-0.251
-556.456	-200.000	-0.022	-0.312
-555.442	-200.000	-0.058	-0.282
-554.427	126.173	-0.283	-0.362
-553.412	14.596	0.293	0.231
-552.398	215.285	-0.135	-0.217
-551.383	122.347	0.042	0.053
-550.369	242.347	-0.141	-0.238
-549.354	-20.993	0.214	0.133
-548.339	-57.828	0.121	0.054
-547.325	800.000	0.073	0.283
-546.310	-200.000	-0.059	-0.416
-545.296	-119.834	-0.207	-0.036
-544.281	-43.419	-0.162	-0.083
-543.266	-200.000	-0.070	0.438
-542.252	-89.928	0.166	0.049
-541.237	-179.453	0.150	-0.003
-540.223	-54.233	-0.191	-0.088
-539.208	-200.000	0.069	0.330
-538.193	778.651	0.040	0.110
-537.179	51.702	-0.141	-0.136
-536.164	199.299	0.175	-0.271
-535.150	-133.702	0.042	-0.005
-534.135	93.205	0.047	0.054
-533.121	348.303	-0.060	-0.120
-532.106	-170.159	0.428	-0.015
-531.091	-140.836	-0.202	0.021
-530.077	-200.000	0.076	0.378
-529.062	-160.589	-0.331	-0.018
-528.048	-200.000	0.030	-0.157
-527.033	-1.237	0.299	0.213
-526.018	110.396	-0.009	-0.011
-525.004	-61.576	-0.311	0.132
-523.989	159.035	-0.076	-0.107
-522.975	-200.000	0.049	0.434
-521.960	800.000	-0.107	-0.367
-520.945	-67.017	-0.217	-0.086
-519.931	-52.330	-0.244	0.114
-518.916	142.687	-0.464	0.622
-517.902	-200.000	0.012	0.378
-516.887	-32.078	-0.389	0.220
-515.872	249.808	0.036	0.061
-514.858	99.658	0.147	-0.172
-513.843	-130.835	0.192	-0.026
-512.829	315.672	-0.151	-0.288
-511.814	-126.870	-0.345	0.051
-510.799	59.404	0.093	0.093
-509.785	-134.603	0.338	0.042
-508.770	179.724	0.079	-0.117
-507.756	285.057	-0.065	0.118
-506.741	-200.000	-0.059	0.278
-505.726	-66.949	-0.146	-0.058
-504.712	-0.519	0.198	0.142
-503.697	-80.163	0.524	0.177
-502.683	-149.652	-0.374	-0.030
-501.668	8.695	-0.320	-0.244
-500.653	-189.041	0.042	-0.001
-499.639	-94.703	-0.251	0.069
-498.624	-85.173	-0.335	-0.106
-497.610	-87.941	0.253	-0.077
-496.595	-106.609	-0.328	0.074
-495.581	-200.000	-0.028	0.330
-494.566	-102.460	0.243	0.059
-493.551	-200.000	0.006	-0.193
-492.537	-200.000	-0.044	0.339
-491.522	480.673	0.059	0.135
-490.508	-75.372	0.257	-0.092
-489.493	800.000	-0.082	-0.241
-488.478	620.516	0.077	0.196
-487.464	-108.568	-0.336	-0.073
-486.449	38.269	0.069	0.062
-485.435	38.103	0.092	0.082
-484.420	-200.000	0.001	0.178
-483.405	88.593	-0.130	0.146
-482.391	-34.763	0.133	-0.074
-481.376	-113.142	-0.051	-0.010
-480.362	-8.238	0.197	-0.134
-479.347	-200.000	0.029	0.413
-478.332	-200.000	0.003	0.224
-477.318	-22.599	-0.125	-0.076
-476.303	-151.911	-0.257	0.019
-475.289	60.776	0.213	0.213
-474.274	-41.972	0.217	-0.112
-473.259	37.542	0.225	-0.201
-472.245	-13.080	-0.302	0.198
-471.230	800.000	-0.116	0.338
-470.216	20.224	0.092	-0.075
-469.201	390.284	-0.093	-0.195
-468.186	-62.782	-0.335	-0.140
-467.172	142.433	-0.092	-0.124
-466.157	99.396	-0.230	-0.268
-465.143	-200.000	-0.006	-0.094
-464.128	-37.696	-0.288	-0.155
-463.113	-90.381	-0.112	0.033
-462.099	-71.651	-0.218	-0.082
-461.084	596.616	0.049	-0.123
-460.070	-117.338	0.173	0.032
-459.055	-60.900	-0.328	-0.140
-458.040	442.412	-0.131	-0.290
-457.026	800.000	-0.084	0.356
-456.011	-32.094	-0.175	0.099
-454.997	800.000	-0.070	0.288
-453.982	215.260	-0.120	-0.192
-452.968	393.161	0.088	-0.185
-451.953	-8.032	0.162	-0.110
-450.938	-75.077	0.212	0.077
-449.924	-43.699	-0.220	-0.111
-448.909	-200.000	-0.055	-0.369
-447.895	-200.000	0.051	-0.369
-446.880	443.287	0.082	-0.180
-445.865	-108.394	0.170	-0.037
-444.851	-64.121	-0.247	-0.101
-443.836	170.192	0.159	0.229
-442.822	-200.000	-0.017	0.088
-441.807	800.000	0.012	0.044
-440.792	3.729	-0.347	-0.255
-439.778	800.000	-0.051	0.170
-438.763	-200.000	0.006	-0.389
-437.749	15.048	0.253	0.200
-436.734	73.607	0.122	-0.128
-435.719	237.675	-0.122	0.204
-434.705	-51.186	-0.136	0.064
-433.690	-159.131	0.241	-0.014
-432.676	1.569	0.418	0.303
-431.661	10.827	0.210	-0.162
-430.646	-173.860	0.184	0.005
-429.632	129.801	0.074	-0.095
-428.617	-100.491	-0.117	0.029
-427.603	351.138	0.179	-0.356
-426.588	-53.247	-0.125	-0.058
-425.573	35.369	-0.225	0.198
-424.559	-123.286	0.240	-0.039
-423.544	-74.747	0.202	0.073
-422.530	-200.000	0.049	0.255
-421.515	800.000	-0.007	0.030
-420.500	-146.649	-0.377	0.033
-419.486	107.816	0.065	-0.078
-418.471	-200.000	-0.023	0.234
-417.457	20.159	0.144	0.117
-416.442	-58.957	-0.149	0.065
-415.428	-9.519	0.184	0.123
-414.413	-135.206	0.478	0.058
-413.398	-55.535	0.287	0.129
-412.384	420.494	0.124	0.266
-411.369	-24.502	0.332	0.199
-410.355	-107.214	-0.301	-0.067
-409.340	-20.692	0.039	0.024
-408.325	800.000	-0.011	-0.041
-407.311	-200.000	-0.005	0.070
-406.296	-163.475	-0.298	0.014
-405.282	-102.550	-0.245	0.059
-404.267	93.092	-0.383	0.435
-403.252	-84.393	0.243	0.077
-402.238	236.524	-0.095	0.158
-401.223	137.185	-0.139	0.183
-400.209	-200.000	0.035	-0.331
-399.194	-200.000	-0.023	-0.390
-398.179	157.991	0.290	-0.404
-397.165	68.073	0.210	-0.216
-396.150	800.000	0.034	-0.138
-395.136	800.000	0.043	-0.162
-394.121	-68.498	0.114	0.044
-393.106	374.988	0.071	-0.145
-392.092	-200.000	-0.018	-0.123
-391.077	-22.317	-0.031	0.019
-390.063	-200.000	-0.003	0.395
-389.048	-200.000	-0.004	-0.195
-388.033	105.752	-0.197	0.234
-387.019	800.000	0.127	0.388
-386.004	-200.000	0.060	-0.268
-384.990	-200.000	0.016	0.274
-383.975	461.577	0.106	0.238
-382.960	-150.885	0.276	-0.021
-381.946	580.731	0.069	-0.171
-380.931	36.206	0.197	-0.174
-379.917	-61.230	0.244	-0.103
-378.902	147.110	0.129	-0.174
-377.888	-200.000	0.004	-0.307
-376.873	-200.000	-0.024	-0.291
-375.858	-85.932	-0.153	0.048
-374.844	716.255	0.101	0.269
-373.829	38.552	0.317	-0.284
-372.815	50.633	0.159	-0.152
-371.800	-186.375	-0.132	0.002
-370.785	-182.518	-0.092	-0.002
-369.771	707.984	0.083	0.221
-368.756	48.310	-0.189	-0.178
-367.742	-72.886	0.305	0.113
-366.727	2.105	-0.263	0.191
-365.712	-200.000	0.064	0.307
-364.698	-17.133	0.220	0.139
-363.683	-87.187	0.133	-0.041
-362.669	35.427	-0.295	0.260
-361.654	-200.000	-0.009	-0.146
-360.639	57.525	-0.089	0.088
-359.625	-200.000	0.003	-0.335
-358.610	64.430	0.156	0.158
-357.596	209.595	0.108	-0.170
-356.581	-200.000	0.004	0.194
-355.566	670.723	-0.087	0.227
-354.552	-94.956	0.274	0.074
-353.537	-160.681	-0.295	-0.016
-352.523	800.000	-0.146	-0.419
-351.508	-200.000	-0.017	0.258
-350.493	719.442	-0.062	0.166
-349.479	-143.183	0.224	0.022
-348.464	-12.031	0.123	-0.081
-347.450	-200.000	0.002	0.099
-346.435	-135.607	0.282	-0.034
-345.420	241.240	-0.104	0.174
-344.406	617.414	-0.054	-0.135
-343.391	255.801	0.188	0.323
-342.377	-200.000	0.003	0.235
-341.362	-200.000	0.008	0.202
-340.348	365.152	0.164	-0.332
-339.333	341.179	0.207	-0.405
-338.318	-200.000	-0.023	-0.299
-337.304	412.592	-0.102	0.216
-336.289	-103.101	0.208	0.049
-335.275	-37.667	0.229	0.122
-334.260	-39.734	-0.084	-0.044
-333.245	7.865	-0.119	-0.089
-332.231	-134.175	-0.331	0.041
-331.216	7.953	-0.219	0.165
-330.202	117.407	0.115	0.141
-329.187	179.480	-0.159	-0.234
-328.172	-64.028	-0.043	-0.018
-327.158	207.062	-0.137	-0.215
-326.143	-80.127	0.328	0.110
-325.129	-200.000	0.007	-0.227
-324.114	-200.000	0.035	0.200
-323.099	105.210	-0.208	-0.246
-322.085	63.177	-0.251	-0.252
-321.070	-129.179	-0.098	-0.014
-320.056	-200.000	-0.004	-0.053
-319.041	71.611	-0.096	-0.100
-318.026	-53.597	0.100	0.046
-317.012	-10.211	0.179	-0.119
-315.997	-30.144	-0.197	0.112
-314.983	-200.000	-0.046	0.251
-313.968	-200.000	-0.042	0.303
-312.953	-133.763	-0.077	-0.010
-311.939	-118.788	-0.223	-0.039
-310.924	-51.730	0.028	0.013
-309.910	300.820	-0.041	-0.076
-308.895	-200.000	0.007	0.109
-307.880	220.261	-0.035	-0.056
-306.866	-148.990	-0.235	0.019
-305.851	515.371	-0.050	-0.118
-304.837	39.906	0.086	0.078
-303.822	-200.000	-0.065	0.360
-302.807	-200.000	0.067	0.353
-301.793	-104.802	0.057	0.013
-300.778	-153.447	-0.060	-0.004
-299.764	-6.881	0.118	0.080
-298.749	570.348	0.103	0.250
-297.735	-200.000	0.012	-0.113
-296.720	511.836	-0.074	-0.173
-295.705	-77.812	-0.294	0.102
-294.691	-76.553	-0.188	0.066
-293.676	800.000	0.069	0.232
-292.662	13.307	-0.096	-0.074
-291.647	-64.042	0.242	-0.099
-290.632	-200.000	-0.037	0.206
-289.618	800.000	-0.075	-0.225
-288.603	-200.000	0.008	0.192
-287.589	-200.000	0.024	-0.203
-286.574	-200.000	-0.017	-0.076
-285.559	406.478	0.075	0.158
-284.545	498.149	0.122	0.281
-283.530	-200.000	0.009	-0.212
-282.516	9.068	0.061	0.046
-281.501	348.830	0.069	0.137
-280.486	800.000	0.087	0.244
-279.472	200.275	0.057	-0.088
-278.457	-57.548	0.399	-0.175
-277.443	-100.774	-0.088	-0.022
-276.428	116.945	-0.096	0.117
-275.413	-42.827	0.241	-0.122
-274.399	-8.151	-0.235	-0.159
-273.384	-86.687	-0.048	0.015
-272.370	-50.891	0.218	-0.103
-271.355	496.729	0.064	-0.146
-270.340	-200.000	0.077	-0.441
-269.326	800.000	0.107	-0.423
-268.311	-200.000	0.048	0.314
-267.297	-139.264	-0.174	-0.019
-266.282	223.537	0.292	0.472
-265.267	199.068	-0.154	0.236
-264.253	40.647	0.145	-0.130
-263.238	-200.000	-0.008	-0.286
-262.224	325.094	-0.148	0.283
-261.209	800.000	-0.098	-0.329
-260.195	440.158	-0.023	-0.051
-259.180	-200.000	0.012	0.226
-258.165	3.154	-0.230	0.167
-257.151	104.329	0.068	0.080
-256.136	-200.000	-0.020	-0.185
-255.122	-78.320	-0.138	-0.047
-254.107	-51.063	0.313	-0.147
-253.092	610.244	0.105	0.262
-252.078	318.813	-0.017	-0.032
-251.063	63.288	-0.167	-0.168
-250.049	-58.425	0.156	0.068
-249.034	-96.051	0.087	-0.023
-248.019	-69.791	-0.278	-0.106
-247.005	666.769	0.067	0.172
-245.990	83.551	0.195	0.213
-244.976	19.759	0.175	0.141
-243.961	-200.000	-0.099	-0.460
-242.946	-4.657	-0.045	-0.031
-241.932	350.406	0.090	0.177
-240.917	458.584	-0.127	0.283
-239.903	800.000	0.053	-0.207
-238.888	-130.888	-0.087	-0.012
-237.873	-200.000	0.015	0.158
-236.859	213.162	0.222	-0.350
-235.844	367.417	-0.061	-0.122
-234.830	132.532	0.074	-0.095
-233.815	-200.000	0.021	-0.158
-232.800	-154.671	-0.220	-0.015
-231.786	-200.000	-0.029	-0.243
-230.771	-161.412	0.154	-0.008
-229.757	-33.916	-0.500	-0.275
-228.742	-111.680	0.531	-0.107
-227.727	59.776	0.219	-0.216
-226.713	51.046	0.235	0.222
-225.698	350.527	-0.187	0.369
-224.684	45.463	-0.081	-0.075
-223.669	0.795	-0.243	0.174
-222.655	-79.752	-0.121	-0.041
-221.640	118.535	0.099	0.122
-220.625	18.060	-0.381	0.303
-219.611	-64.187	0.267	0.109
-218.596	427.159	-0.010	0.021
-217.582	-200.000	-0.017	-0.247
-216.567	-68.061	-0.381	0.148
-215.552	144.637	-0.187	0.249
-214.538	302.534	0.110	-0.202
-213.523	187.004	-0.123	0.184
-212.509	800.000	0.013	-0.037
-211.494	-79.128	0.206	-0.070
-210.479	-182.979	0.421	0.008
-209.465	-156.470	0.067	0.004
-208.450	-57.623	0.050	0.022
-207.436	194.098	0.186	-0.280
-206.421	-200.000	-0.015	0.160
-205.406	140.373	-0.104	-0.137
-204.392	738.687	0.032	0.085
-203.377	-27.551	-0.054	0.031
-202.363	14.354	-0.050	0.039
-201.348	-38.616	0.146	-0.077
-200.333	709.834	-0.024	0.064
-199.319	328.773	0.241	0.462
-198.304	86.957	0.144	0.159
-197.290	707.377	0.057	-0.150
-196.275	-74.128	-0.173	-0.062
-195.260	-149.447	-0.077	-0.006
-194.246	-85.961	-0.147	-0.045
-193.231	-85.309	0.047	-0.015
-192.217	268.572	-0.124	0.217
-191.202	-100.485	-0.206	0.051
-190.187	-141.934	-0.108	0.011
-189.173	254.706	0.065	-0.111
-188.158	-46.674	0.255	-0.125
-187.144	-70.884	0.252	-0.095
-186.129	122.977	0.131	0.163
-185.114	221.765	-0.110	0.176
-184.100	116.235	0.126	0.154
-183.085	549.105	-0.067	0.159
-182.071	105.687	-0.073	0.086
-181.056	-200.000	-0.008	-0.206
-180.042	-200.000	-0.037	-0.250
-179.027	182.794	-0.058	0.085
-178.012	-37.817	-0.047	0.025
-176.998	1.814	0.103	0.074
-175.983	-200.000	-0.014	-0.116
-174.969	-86.617	0.224	0.068
-173.954	-78.149	-0.063	-0.022
-172.939	-102.410	-0.017	-0.004
-171.925	-37.547	0.027	0.014
-170.910	108.032	0.278	0.330
-169.896	800.000	-0.058	0.224
-168.881	363.772	0.119	-0.239
-167.866	270.955	-0.188	0.330
-166.852	-69.553	0.203	0.077
-165.837	386.395	-0.055	0.114
-164.823	270.602	0.172	-0.302
-163.808	-73.512	-0.303	0.110
-162.793	341.488	-0.137	0.266
-161.779	-154.330	-0.114	-0.008
-160.764	800.000	-0.031	0.093
-159.750	800.000	0.142	-0.413
-158.735	-120.172	0.167	-0.029
-157.720	-166.581	-0.302	-0.013
-156.706	-200.000	0.008	-0.188
-155.691	-41.905	0.082	0.042
-154.677	800.000	-0.030	0.104
-153.662	-139.399	0.202	-0.022
-152.647	192.809	0.170	-0.255
-151.633	-21.498	-0.142	-0.086
-150.618	194.214	-0.185	-0.279
-149.604	-200.000	-0.073	-0.380
-148.589	271.074	-0.036	0.063
-147.574	-19.594	0.247	-0.152
-146.560	-200.000	0.010	0.183
-145.545	-124.955	-0.169	0.026
-144.531	800.000	0.057	-0.233
-143.516	-111.482	0.465	0.094
-142.502	-129.784	0.208	-0.029
-141.487	4.499	0.229	0.167
-140.472	-200.000	0.078	-0.361
-139.458	-200.000	-0.015	-0.086
-138.443	26.208	-0.076	-0.063
-137.429	-123.466	-0.382	-0.060
-136.414	377.920	-0.076	0.155
-135.399	-84.022	-0.244	0.077
-134.385	-200.000	0.057	0.289
-133.370	101.070	0.046	-0.053
-132.356	800.000	-0.079	0.340
-131.341	271.075	-0.086	-0.151
-130.326	276.448	0.102	-0.180
-129.312	82.468	0.163	-0.176
-128.297	-28.823	-0.129	-0.074
-127.283	-54.717	-0.267	0.120
-126.268	-141.897	-0.208	-0.021
-125.253	-108.028	0.176	0.038
-124.239	-200.000	-0.021	0.096
-123.224	-86.108	-0.052	-0.016
