DTS Sentinel unit serial number:	SN413079Multiplexer serial number:	ORYXHardware model number:	OX4-SRSoftware version number:	ORYX F/W v4.00 Oryx Data Collector v3.7.2.0data status	okinstallation	princeton_trtdifferential loss correction	single-endedforward channel	channel 2reverse channel	N/Adate	2019/09/14time	08:11:35forward acquisition time	60.00reverse acquisition time	0.00gamma	496.2192k internal	0.2333k external	0.2333temperature offset calibration	1.0124default loss term (dB/km)	0.3790temperature slope calibration	1.0000multiplexer offset coefficient	1.0000multiplexer slope coefficient	1.0000fibre end	0.00T internal ref (°C)	27.44T ext. ref 1 (°C)	3.59T ext. ref 2 (°C)	26.14length (m)	temperature (°C)	Stokes	anti-Stokes-747.200	-8.408	0.097	0.066
-746.185	-27.407	-0.218	-0.127
-745.171	-200.000	0.003	-0.042
-744.156	-110.167	0.149	0.031
-743.142	1.750	0.344	0.249
-742.127	115.719	-0.273	0.336
-741.112	38.591	0.244	-0.219
-740.098	192.277	-0.053	0.081
-739.083	387.486	-0.094	-0.195
-738.069	-103.885	-0.143	0.034
-737.054	112.552	-0.080	0.097
-736.039	-200.000	0.004	0.178
-735.025	-26.016	-0.116	-0.069
-734.010	-82.894	0.211	-0.069
-732.996	-102.344	-0.143	-0.035
-731.981	-88.450	-0.210	-0.063
-730.966	-200.000	0.031	-0.251
-729.952	8.723	-0.205	-0.155
-728.937	-200.000	-0.064	-0.325
-727.923	338.642	-0.263	-0.515
-726.908	800.000	-0.103	0.417
-725.894	306.705	-0.083	0.156
-724.879	276.975	-0.087	-0.155
-723.864	-3.945	-0.140	0.098
-722.850	218.810	-0.157	0.251
-721.835	542.920	-0.082	0.198
-720.821	-111.034	-0.213	-0.044
-719.806	211.564	-0.235	-0.372
-718.791	-100.160	-0.442	-0.110
-717.777	800.000	-0.110	-0.388
-716.762	44.296	-0.219	-0.202
-715.748	-56.842	-0.228	0.101
-714.733	160.949	-0.062	-0.087
-713.718	171.091	0.076	-0.109
-712.704	7.843	0.109	0.082
-711.689	25.944	-0.199	0.167
-710.675	-94.652	0.117	-0.032
-709.660	-200.000	-0.007	-0.188
-708.645	-53.345	-0.115	-0.053
-707.631	800.000	0.009	-0.039
-706.616	-10.330	0.153	-0.102
-705.602	152.247	0.050	0.068
-704.587	-128.180	-0.631	-0.090
-703.572	-30.659	0.234	-0.133
-702.558	800.000	-0.044	-0.131
-701.543	304.784	0.209	0.389
-700.529	376.536	0.080	-0.163
-699.514	-200.000	-0.007	0.250
-698.499	-139.887	0.354	-0.038
-697.485	-200.000	0.031	0.176
-696.470	-81.208	-0.181	0.060
-695.456	-56.166	0.383	-0.171
-694.441	72.144	-0.213	0.223
-693.426	-118.081	0.057	-0.010
-692.412	167.184	-0.119	0.170
-691.397	-181.008	-0.179	-0.004
-690.383	-139.996	-0.325	0.034
-689.368	-166.373	0.490	-0.021
-688.354	2.063	0.277	-0.200
-687.339	-200.000	0.032	-0.159
-686.324	620.995	0.038	-0.095
-685.310	318.497	-0.154	-0.293
-684.295	800.000	-0.058	-0.187
-683.281	-200.000	0.005	-0.028
-682.266	370.042	0.061	0.123
-681.251	115.732	0.155	-0.190
-680.237	127.299	0.330	-0.420
-679.222	-32.405	0.148	-0.083
-678.208	-141.318	-0.422	-0.043
-677.193	138.010	-0.122	0.160
-676.178	-8.252	-0.130	0.088
-675.164	-2.097	-0.435	-0.306
-674.149	206.555	-0.127	-0.198
-673.135	-200.000	-0.008	0.160
-672.120	-113.201	-0.379	-0.075
-671.105	173.016	0.078	-0.113
-670.091	-66.128	-0.170	0.068
-669.076	800.000	0.019	0.057
-668.062	800.000	0.037	-0.110
-667.047	188.273	-0.160	0.240
-666.032	394.848	-0.169	0.353
-665.018	-55.432	-0.307	-0.138
-664.003	-200.000	0.006	0.390
-662.989	113.741	0.178	0.217
-661.974	-200.000	0.009	-0.182
-660.959	800.000	-0.145	-0.432
-659.945	-200.000	-0.024	-0.295
-658.930	-82.270	0.238	-0.078
-657.916	-151.371	0.292	-0.022
-656.901	-72.241	-0.321	0.119
-655.886	-200.000	-0.015	-0.151
-654.872	-39.097	0.122	0.064
-653.857	800.000	-0.030	0.097
-652.843	43.716	-0.255	0.234
-651.828	-114.129	-0.283	-0.055
-650.814	-57.296	0.166	0.073
-649.799	-200.000	0.007	-0.114
-648.784	800.000	0.025	0.075
-647.770	25.367	0.089	-0.074
-646.755	-40.272	-0.460	-0.240
-645.741	800.000	-0.103	0.323
-644.726	-31.187	0.032	-0.018
-643.711	96.720	-0.278	0.319
-642.697	-109.807	-0.318	0.067
-641.682	-35.772	0.217	-0.118
-640.668	-53.212	0.284	-0.130
-639.653	-178.210	0.379	-0.009
-638.638	-147.323	0.149	-0.013
-637.624	800.000	-0.049	-0.166
-636.609	-58.826	-0.442	-0.192
-635.595	-65.887	0.180	-0.072
-634.580	-78.225	-0.249	-0.086
-633.565	13.522	0.205	-0.159
-632.551	-94.836	-0.061	-0.017
-631.536	-50.181	0.318	0.151
-630.522	506.885	0.056	0.130
-629.507	50.499	-0.173	-0.164
-628.492	-103.060	-0.323	-0.077
-627.478	275.948	0.060	0.107
-626.463	-61.108	-0.067	-0.028
-625.449	-50.014	0.121	-0.057
-624.434	463.540	-0.123	-0.274
-623.419	-16.619	0.323	-0.205
-622.405	33.908	-0.300	0.261
-621.390	-200.000	0.066	-0.313
-620.376	-73.234	0.054	0.020
-619.361	43.124	-0.261	-0.239
-618.346	225.433	-0.173	-0.280
-617.332	-0.962	0.169	0.120
-616.317	800.000	-0.063	0.257
-615.303	800.000	0.029	-0.114
-614.288	-128.932	0.189	-0.027
-613.273	157.533	-0.210	0.291
-612.259	-200.000	0.028	0.191
-611.244	-200.000	0.069	-0.365
-610.230	-118.182	0.226	-0.040
-609.215	34.325	-0.259	0.226
-608.201	-57.337	-0.141	0.062
-607.186	370.461	-0.026	-0.054
-606.171	516.653	0.076	-0.178
-605.157	800.000	-0.025	-0.102
-604.142	374.072	0.172	-0.350
-603.128	20.761	-0.229	0.185
-602.113	32.617	-0.114	-0.098
-601.098	-72.195	-0.170	0.063
-600.084	-32.991	0.174	0.097
-599.069	138.267	-0.134	-0.176
-598.055	250.742	-0.021	0.036
-597.040	29.620	-0.326	-0.277
-596.025	-32.361	-0.240	-0.134
-595.011	345.503	0.197	-0.386
-593.996	-200.000	-0.003	0.148
-592.982	99.245	0.262	-0.303
-591.967	-67.697	-0.054	0.021
-590.952	417.179	-0.170	0.364
-589.938	13.659	-0.057	-0.044
-588.923	177.345	0.070	0.102
-587.909	28.863	-0.101	0.086
-586.894	-200.000	0.009	-0.287
-585.879	148.046	-0.328	-0.442
-584.865	-92.774	-0.245	-0.068
-583.850	-200.000	-0.015	0.109
-582.836	40.579	-0.141	-0.127
-581.821	-156.881	0.200	0.012
-580.806	-137.457	0.075	0.008
-579.792	-66.986	0.107	-0.042
-578.777	315.738	0.074	-0.140
-577.763	-113.928	0.286	-0.056
-576.748	-44.888	-0.201	-0.100
-575.733	78.727	0.116	-0.124
-574.719	-200.000	-0.019	0.183
-573.704	7.374	0.278	0.208
-572.690	-115.643	-0.376	0.071
-571.675	-52.894	0.158	-0.073
-570.661	800.000	0.023	-0.095
-569.646	-3.249	-0.209	-0.145
-568.631	-170.273	-0.271	-0.010
-567.617	-31.236	0.341	-0.192
-566.602	-81.673	-0.103	-0.034
-565.588	407.546	-0.086	0.182
-564.573	20.178	-0.116	0.094
-563.558	-25.112	-0.191	0.113
-562.544	-146.756	0.239	0.021
-561.529	-67.569	-0.168	-0.066
-560.515	-122.659	-0.279	-0.045
-559.500	560.728	-0.136	0.327
-558.485	-28.638	-0.150	0.086
-557.471	-200.000	-0.036	-0.182
-556.456	381.369	0.115	0.235
-555.442	198.934	0.127	0.194
-554.427	-104.801	-0.116	-0.027
-553.412	-157.338	0.062	-0.004
-552.398	-200.000	-0.018	0.180
-551.383	-23.560	-0.133	0.080
-550.369	-115.332	-0.194	-0.037
-549.354	-60.250	0.273	-0.116
-548.339	226.261	-0.056	0.091
-547.325	800.000	-0.026	-0.081
-546.310	-58.837	-0.135	-0.058
-545.296	-200.000	0.005	-0.031
-544.281	800.000	0.089	0.387
-543.266	-126.261	-0.141	-0.021
-542.252	106.034	0.132	0.156
-541.237	-108.339	0.200	0.043
-540.223	-39.594	0.508	-0.265
-539.208	-200.000	0.029	-0.171
-538.193	-120.004	-0.104	-0.018
-537.179	305.458	-0.112	0.208
-536.164	2.450	0.227	0.164
-535.150	800.000	0.096	-0.363
-534.135	-98.615	0.089	-0.023
-533.121	356.731	0.112	0.222
-532.106	-34.865	-0.108	-0.059
-531.091	579.392	-0.057	0.139
-530.077	129.966	0.266	0.339
-529.062	583.420	0.069	-0.168
-528.048	-37.997	0.114	-0.060
-527.033	-14.100	0.250	-0.161
-526.018	504.986	-0.125	-0.288
-525.004	-200.000	-0.057	-0.325
-523.989	165.430	0.266	-0.375
-522.975	89.768	0.140	0.156
-521.960	-1.883	0.219	-0.153
-520.945	76.231	-0.143	0.151
-519.931	-127.451	0.215	0.031
-518.916	-200.000	0.009	-0.064
-517.902	11.637	0.184	-0.141
-516.887	-200.000	0.008	-0.394
-515.872	94.219	0.133	-0.150
-514.858	420.773	-0.236	-0.504
-513.843	-21.229	-0.239	-0.145
-512.829	32.792	-0.101	0.087
-511.814	46.186	-0.274	-0.253
-510.799	13.499	0.336	-0.260
-509.785	-200.000	0.074	0.413
-508.770	-200.000	0.037	0.179
-507.756	108.937	-0.106	-0.127
-506.741	-82.317	-0.044	0.014
-505.726	-200.000	0.008	0.220
-504.712	-200.000	-0.020	-0.215
-503.697	-127.989	-0.142	-0.020
-502.683	65.522	-0.094	-0.095
-501.668	-200.000	0.019	-0.330
-500.653	-68.871	-0.100	-0.039
-499.639	-163.356	-0.174	0.008
-498.624	-63.711	0.086	-0.035
-497.610	800.000	-0.091	-0.256
-496.595	-66.775	0.351	0.138
-495.581	-200.000	-0.062	0.310
-494.566	-38.732	0.110	-0.058
-493.551	-200.000	-0.016	-0.234
-492.537	-141.340	-0.217	0.022
-491.522	-11.403	0.083	0.055
-490.508	-171.102	0.152	0.005
-489.493	-200.000	-0.010	-0.048
-488.478	45.414	-0.264	-0.243
-487.464	800.000	0.080	-0.314
-486.449	114.447	-0.266	0.322
-485.435	-42.789	0.195	0.099
-484.420	288.805	-0.053	-0.095
-483.405	504.410	0.076	-0.176
-482.391	46.494	0.512	0.473
-481.376	137.512	-0.037	-0.049
-480.362	800.000	-0.106	-0.304
-479.347	20.935	-0.236	-0.191
-478.332	-200.000	-0.055	-0.329
-477.318	-157.295	-0.529	0.032
-476.303	-32.744	0.111	0.062
-475.289	21.372	0.170	0.137
-474.274	208.740	0.081	-0.125
-473.259	161.251	-0.147	0.204
-472.245	96.973	-0.059	0.067
-471.230	604.792	-0.002	-0.004
-470.216	-134.068	0.213	0.026
-469.201	-200.000	0.007	0.269
-468.186	179.321	-0.038	0.056
-467.172	-41.639	-0.242	-0.124
-466.157	-129.722	0.103	-0.014
-465.143	-12.190	-0.328	-0.214
-464.128	800.000	0.049	0.163
-463.113	90.145	0.250	0.278
-462.099	800.000	0.063	0.261
-461.084	-151.524	-0.292	-0.022
-460.070	800.000	-0.056	0.205
-459.055	-58.301	-0.063	0.027
-458.040	-200.000	0.026	0.197
-457.026	-138.606	0.144	0.016
-456.011	-136.417	0.014	0.002
-454.997	42.306	0.160	-0.144
-453.982	339.338	0.044	-0.086
-452.968	-200.000	0.002	0.146
-451.953	-200.000	-0.044	0.278
-450.938	-70.400	-0.141	0.053
-449.924	800.000	-0.018	0.051
-448.909	-200.000	0.026	-0.194
-447.895	-9.944	-0.179	0.118
-446.880	-60.567	0.324	-0.137
-445.865	-161.930	-0.288	0.014
-444.851	794.891	0.112	-0.306
-443.836	141.604	0.040	-0.053
-442.822	-109.681	0.274	0.057
-441.807	-48.788	0.130	0.062
-440.792	-4.548	0.180	0.123
-439.778	-57.572	0.126	-0.055
-438.763	136.881	-0.216	-0.280
-437.749	-115.155	0.241	-0.045
-436.734	222.437	0.099	0.159
-435.719	-31.157	0.373	-0.209
-434.705	-92.893	-0.377	-0.105
-433.690	520.464	0.086	0.200
-432.676	-48.076	-0.080	0.038
-431.661	141.999	-0.178	0.235
-430.646	-134.903	-0.265	-0.032
-429.632	47.504	-0.053	0.049
-428.617	-59.417	0.157	0.067
-427.603	-72.725	0.047	-0.017
-426.588	-81.482	-0.096	-0.031
-425.573	-139.975	0.421	-0.044
-424.559	-69.603	-0.218	-0.083
-423.544	206.188	-0.335	0.518
-422.530	-55.757	0.264	-0.117
-421.515	-200.000	0.013	-0.093
-420.500	-200.000	0.040	0.174
-419.486	-67.518	0.384	0.150
-418.471	19.499	0.139	0.111
-417.457	13.018	-0.142	-0.109
-416.442	25.517	0.191	0.158
-415.428	526.230	0.084	-0.196
-414.413	-49.137	-0.122	0.058
-413.398	-133.565	0.489	0.061
-412.384	-200.000	0.003	0.303
-411.369	46.872	0.351	0.324
-410.355	-90.431	0.033	0.009
-409.340	-124.726	-0.087	0.013
-408.325	-130.973	0.125	-0.017
-407.311	800.000	-0.142	0.393
-406.296	-84.203	-0.213	0.067
-405.282	-200.000	-0.073	0.330
-404.267	-166.389	-0.309	0.013
-403.252	-200.000	0.015	0.167
-402.238	-200.000	-0.008	-0.219
-401.223	-44.556	-0.117	-0.058
-400.209	172.511	0.057	-0.081
-399.194	-17.925	-0.146	-0.091
-398.179	-18.564	-0.118	0.073
-397.165	6.217	-0.244	0.180
-396.150	387.511	0.025	-0.051
-395.136	-200.000	-0.056	0.290
-394.121	-72.677	0.115	0.042
-393.106	800.000	-0.018	0.052
-392.092	-200.000	0.003	0.172
-391.077	-107.299	-0.191	-0.042
-390.063	-173.928	-0.030	0.001
-389.048	-128.165	-0.108	-0.015
-388.033	154.318	0.097	-0.132
-387.019	246.857	0.054	-0.091
-386.004	-57.726	0.186	-0.081
-384.990	-156.313	-0.104	0.006
-383.975	78.203	-0.150	-0.159
-382.960	-155.815	0.141	-0.009
-381.946	-53.286	-0.264	0.120
-380.931	16.997	0.437	0.343
-379.917	-53.648	-0.015	0.007
-378.902	-120.137	-0.217	0.037
-377.888	59.982	-0.160	0.157
-376.873	87.956	-0.163	0.179
-375.858	330.972	0.088	-0.169
-374.844	527.464	0.019	-0.045
-373.829	-200.000	0.068	0.320
-372.815	-200.000	-0.029	0.161
-371.800	104.614	-0.056	-0.065
-370.785	47.326	-0.338	0.312
-369.771	-94.363	0.111	0.030
-368.756	800.000	-0.050	0.180
-367.742	85.907	0.219	0.239
-366.727	-73.970	-0.189	-0.068
-365.712	-32.857	0.209	-0.115
-364.698	-200.000	0.015	-0.084
-363.683	294.037	0.053	0.096
-362.669	38.214	-0.237	0.209
-361.654	50.155	0.100	-0.094
-360.639	-105.948	0.247	-0.055
-359.625	251.178	-0.002	-0.003
-358.610	-25.166	0.078	0.046
-357.596	-112.680	-0.270	0.053
-356.581	800.000	0.066	-0.207
-355.566	-101.985	0.314	-0.075
-354.552	-176.561	-0.300	0.008
-353.537	-200.000	-0.013	-0.075
-352.523	-182.472	-0.060	-0.001
-351.508	254.926	0.110	-0.187
-350.493	253.222	-0.107	-0.180
-349.479	208.854	0.202	0.312
-348.464	-86.740	-0.261	-0.079
-347.450	-200.000	0.020	0.328
-346.435	11.535	-0.050	-0.038
-345.420	157.902	-0.118	-0.161
-344.406	-165.371	-0.180	0.008
-343.391	105.253	-0.161	-0.188
-342.377	45.769	0.134	-0.123
-341.362	-41.895	-0.304	-0.154
-340.348	-200.000	-0.011	-0.073
-339.333	-0.668	0.242	0.170
-338.318	800.000	-0.087	0.239
-337.304	-200.000	0.009	0.227
-336.289	-0.549	0.086	-0.060
-335.275	-18.730	0.218	0.134
-334.260	-79.255	-0.159	0.053
-333.245	-150.643	0.181	-0.014
-332.231	729.548	-0.051	-0.135
-331.216	23.050	0.242	0.196
-330.202	-113.776	-0.268	-0.052
-329.187	-53.772	0.191	0.086
-328.172	28.989	0.588	-0.493
-327.158	154.290	-0.065	-0.088
-326.143	-124.416	-0.143	0.022
-325.129	-200.000	0.001	0.089
-324.114	-184.144	-0.105	0.002
-323.099	-200.000	-0.006	-0.135
-322.085	430.298	0.244	-0.523
-321.070	495.621	0.114	0.258
-320.056	123.014	0.110	-0.137
-319.041	-2.471	-0.119	0.082
-318.026	36.010	-0.239	-0.208
-317.012	130.544	0.062	-0.079
-315.997	737.321	0.092	0.243
-314.983	-200.000	-0.015	-0.117
-313.968	159.293	0.124	-0.170
-312.953	27.313	-0.348	-0.289
-311.939	118.466	-0.029	0.036
-310.924	53.705	0.216	0.205
-309.910	-149.322	-0.321	-0.025
-308.895	-200.000	-0.011	0.188
-307.880	-127.228	-0.347	-0.050
-306.866	-82.103	0.194	0.063
-305.851	-58.493	-0.550	-0.236
-304.837	42.522	0.093	0.083
-303.822	62.828	-0.206	0.204
-302.807	162.761	-0.049	0.068
-301.793	-15.335	0.269	0.170
-300.778	-48.868	0.157	-0.075
-299.764	-79.704	-0.182	0.061
-298.749	-79.667	-0.200	-0.067
-297.735	-59.425	-0.082	0.035
-296.720	800.000	0.087	0.315
-295.705	-178.760	-0.182	0.004
-294.691	45.511	0.199	-0.182
-293.676	-200.000	-0.012	0.316
-292.662	800.000	0.061	0.206
-291.647	-178.435	-0.366	0.008
-290.632	134.683	0.082	0.105
-289.618	-200.000	-0.006	-0.160
-288.603	-13.050	0.210	0.135
-287.589	33.002	-0.221	-0.189
-286.574	10.479	0.139	-0.105
-285.559	95.727	-0.140	-0.158
-284.545	60.685	-0.121	0.119
-283.530	-23.516	0.178	0.105
-282.516	-173.448	0.188	0.006
-281.501	671.579	0.067	0.172
-280.486	174.935	0.161	0.230
-279.472	113.055	0.242	-0.289
-278.457	180.991	-0.114	0.166
-277.443	149.988	0.121	-0.162
-276.428	583.794	0.011	-0.026
-275.413	85.636	-0.045	0.048
-274.399	75.625	-0.228	0.237
-273.384	-200.000	-0.005	-0.293
-272.370	-112.245	-0.090	0.018
-271.355	-156.213	0.439	0.027
-270.340	448.857	0.063	-0.137
-269.326	800.000	0.042	0.116
-268.311	62.811	-0.170	0.167
-267.297	-124.106	0.367	-0.057
-266.282	429.790	0.175	-0.374
-265.267	130.102	0.261	0.330
-264.253	-121.751	-0.327	-0.053
-263.238	400.907	0.077	0.159
-262.224	247.119	-0.156	0.260
-261.209	-65.932	0.004	0.002
-260.195	-60.100	-0.249	0.105
-259.180	-146.455	-0.092	-0.008
-258.165	-200.000	0.037	-0.319
-257.151	-183.030	0.217	0.004
-256.136	-200.000	-0.037	0.267
-255.122	455.860	0.127	0.278
-254.107	-191.482	-0.162	0.002
-253.092	-200.000	-0.008	0.040
-252.078	82.817	-0.248	0.266
-251.063	-200.000	0.033	-0.240
-250.049	-78.262	-0.231	0.078
-249.034	183.815	-0.077	0.113
-248.019	100.837	0.126	0.145
-247.005	155.579	-0.263	-0.357
-245.990	598.263	0.108	-0.264
-244.976	415.434	-0.031	-0.065
-243.961	-42.973	-0.227	-0.113
-242.946	-200.000	0.018	0.153
-241.932	572.171	0.125	-0.300
-240.917	-145.616	-0.345	-0.030
-239.903	8.060	0.025	-0.018
-238.888	110.054	0.103	-0.122
-237.873	735.639	0.083	0.218
-236.859	-34.322	0.323	0.175
-235.844	-78.266	0.006	0.002
-234.830	-107.750	-0.300	0.065
-233.815	-200.000	-0.049	-0.219
-232.800	-200.000	-0.038	-0.457
-231.786	403.598	-0.168	0.349
-230.771	800.000	0.097	-0.268
-229.757	-115.271	-0.198	-0.037
-228.742	180.451	0.060	0.087
-227.727	-200.000	-0.023	-0.208
-226.713	-129.820	0.418	-0.057
-225.698	231.774	-0.168	0.272
-224.684	41.993	0.148	0.132
-223.669	800.000	-0.069	-0.241
-222.655	-64.451	0.196	0.079
-221.640	-60.084	0.126	-0.053
-220.625	-149.979	0.210	0.016
-219.611	-47.056	0.372	0.179
-218.596	256.223	0.116	-0.197
-217.582	706.647	-0.071	-0.184
-216.567	29.589	0.304	-0.254
-215.552	521.909	-0.179	0.415
-214.538	308.673	-0.108	0.199
-213.523	-110.830	-0.070	0.014
-212.509	-13.768	0.346	0.220
-211.494	800.000	-0.041	0.147
-210.479	355.037	-0.159	0.311
-209.465	800.000	0.112	-0.343
-208.450	-200.000	-0.037	0.412
-207.436	110.083	0.263	-0.311
-206.421	-101.786	-0.187	-0.045
-205.406	-103.028	-0.035	0.008
-204.392	77.557	-0.146	-0.153
-203.377	-200.000	-0.007	0.086
-202.363	19.901	0.320	0.254
-201.348	16.325	0.027	0.021
-200.333	-200.000	0.016	-0.178
-199.319	-200.000	0.056	-0.276
-198.304	146.058	0.099	0.131
-197.290	0.885	-0.185	-0.130
-196.275	339.766	-0.073	-0.140
-195.260	266.823	0.196	0.337
-194.246	-96.374	-0.051	-0.013
-193.231	-87.373	-0.042	-0.012
-192.217	322.035	-0.177	0.332
-191.202	800.000	0.058	0.192
-190.187	27.354	0.092	-0.076
-189.173	-54.630	-0.289	-0.128
-188.158	153.227	-0.072	-0.096
-187.144	800.000	-0.058	-0.166
-186.129	27.925	-0.111	0.092
-185.114	571.570	0.162	-0.388
-184.100	-200.000	0.072	-0.360
-183.085	246.193	0.197	-0.326
-182.071	-200.000	-0.012	-0.125
-181.056	-200.000	0.013	0.286
-180.042	36.635	0.159	-0.138
-179.027	-26.047	0.240	0.139
-178.012	-16.387	-0.412	0.257
-176.998	638.965	0.069	-0.174
-175.983	22.990	0.204	-0.165
-174.969	72.646	-0.154	-0.158
-173.954	195.992	-0.076	0.114
-172.939	37.335	-0.130	0.113
-171.925	-112.022	0.307	0.061
-170.910	-129.006	0.134	0.019
-169.896	-17.484	-0.193	0.120
-168.881	-27.861	-0.199	-0.113
-167.866	-32.295	0.113	-0.062
-166.852	-200.000	0.087	0.601
-165.837	-200.000	0.020	-0.280
-164.823	-51.124	0.187	-0.086
-163.808	85.733	0.113	0.122
-162.793	-200.000	0.022	-0.178
-161.779	800.000	-0.071	-0.286
-160.764	64.346	0.251	0.248
-159.750	-200.000	-0.001	0.030
-158.735	339.819	0.130	0.248
-157.720	800.000	0.015	0.052
-156.706	-145.103	-0.294	0.026
-155.691	-200.000	-0.004	0.207
-154.677	5.859	0.104	0.076
-153.662	458.781	0.103	0.225
-152.647	-14.688	-0.090	-0.057
-151.633	-108.897	0.094	0.020
-150.618	16.062	-0.207	-0.161
-149.604	-200.000	0.027	0.193
-148.589	-93.241	-0.036	0.010
-147.574	77.323	0.155	0.161
-146.560	800.000	0.052	-0.155
-145.545	-77.095	0.242	0.083
-144.531	-200.000	0.047	0.315
-143.516	800.000	-0.025	0.100
-142.502	-147.271	-0.238	0.020
-141.487	395.871	-0.020	0.040
-140.472	800.000	0.012	0.036
-139.458	-114.163	-0.454	-0.086
-138.443	-200.000	-0.003	0.024
-137.429	-126.092	-0.130	-0.019
-136.414	-200.000	0.008	0.056
-135.399	262.643	0.021	0.036
-134.385	78.776	0.281	-0.295
-133.370	-200.000	-0.104	-0.490
-132.356	-200.000	-0.027	-0.127
-131.341	46.007	-0.147	0.133
-130.326	-59.574	-0.336	-0.142
-129.312	-98.342	-0.166	-0.042
-128.297	-199.191	0.288	-0.002
-127.283	101.249	0.167	0.191
-126.268	-144.150	-0.070	-0.006
-125.253	153.566	0.090	0.121
-124.239	800.000	0.016	-0.055
-123.224	-184.968	0.071	-0.001
-122.210	-77.424	0.157	0.054
