DTS Sentinel unit serial number:	SN413079Multiplexer serial number:	ORYXHardware model number:	OX4-SRSoftware version number:	ORYX F/W v4.00 Oryx Data Collector v3.7.2.0data status	okinstallation	princeton_trtdifferential loss correction	single-endedforward channel	channel 2reverse channel	N/Adate	2019/09/16time	09:47:35forward acquisition time	60.00reverse acquisition time	0.00gamma	496.2192k internal	0.2323k external	0.2323temperature offset calibration	0.9968default loss term (dB/km)	0.3790temperature slope calibration	1.0000multiplexer offset coefficient	1.0000multiplexer slope coefficient	1.0000fibre end	0.00T internal ref (°C)	32.73T ext. ref 1 (°C)	12.31T ext. ref 2 (°C)	30.69length (m)	temperature (°C)	Stokes	anti-Stokes-747.200	-64.060	0.277	0.114
-746.185	-200.000	0.017	-0.330
-745.171	-41.567	0.173	-0.090
-744.156	96.201	-0.020	-0.023
-743.142	800.000	-0.074	0.255
-742.127	800.000	0.033	0.100
-741.112	81.022	0.248	0.270
-740.098	208.190	-0.127	0.200
-739.083	-200.000	0.028	0.291
-738.069	-200.000	-0.005	0.429
-737.054	23.624	0.053	0.044
-736.039	76.142	0.120	0.129
-735.025	-100.755	0.248	0.062
-734.010	-200.000	0.003	0.053
-732.996	182.878	-0.154	-0.229
-731.981	-128.482	0.093	-0.013
-730.966	475.098	-0.161	0.367
-729.952	-35.588	-0.195	0.107
-728.937	-50.676	0.049	0.024
-727.923	39.226	-0.178	0.161
-726.908	75.941	-0.099	-0.106
-725.894	-200.000	-0.005	-0.225
-724.879	335.899	-0.186	0.364
-723.864	-152.351	0.254	0.019
-722.850	3.210	0.014	0.011
-721.835	-90.629	0.181	0.053
-720.821	213.995	0.132	-0.211
-719.806	22.355	0.121	-0.100
-718.791	-200.000	0.020	-0.161
-717.777	258.447	-0.032	-0.056
-716.762	267.912	-0.041	0.073
-715.748	127.014	0.089	0.113
-714.733	50.353	-0.147	0.141
-713.718	-118.921	-0.115	-0.020
-712.704	-14.978	-0.248	-0.161
-711.689	144.586	0.222	0.299
-710.675	48.436	-0.153	-0.144
-709.660	771.738	-0.119	-0.327
-708.645	303.835	-0.049	0.092
-707.631	-91.624	-0.026	-0.007
-706.616	20.416	0.150	-0.122
-705.602	285.391	0.143	0.259
-704.587	-82.134	0.356	0.117
-703.572	-15.942	0.141	-0.090
-702.558	-17.578	-0.073	0.046
-701.543	96.071	-0.173	-0.199
-700.529	-200.000	-0.010	0.045
-699.514	800.000	-0.014	-0.062
-698.499	-150.321	-0.289	0.022
-697.485	-120.153	0.249	0.043
-696.470	-94.025	-0.117	0.032
-695.456	-9.052	0.241	0.162
-694.441	-103.077	0.319	0.076
-693.426	-200.000	0.002	-0.021
-692.412	-200.000	0.013	0.450
-691.397	-160.568	0.349	-0.019
-690.383	291.299	0.076	0.139
-689.368	800.000	-0.087	0.344
-688.354	437.659	-0.045	0.099
-687.339	-131.427	0.203	0.027
-686.324	800.000	0.057	-0.200
-685.310	132.961	-0.072	0.093
-684.295	387.050	0.033	-0.068
-683.281	194.065	-0.227	0.347
-682.266	-98.884	-0.153	-0.039
-681.251	-181.228	0.196	-0.004
-680.237	40.054	-0.132	-0.119
-679.222	21.649	-0.100	0.082
-678.208	-63.300	-0.270	0.112
-677.193	155.403	-0.065	0.090
-676.178	188.442	-0.295	0.445
-675.164	786.897	-0.074	0.205
-674.149	-200.000	-0.049	0.382
-673.135	87.976	-0.179	-0.199
-672.120	309.216	-0.126	-0.237
-671.105	777.226	-0.064	-0.175
-670.091	-83.985	-0.414	-0.133
-669.076	311.332	-0.015	-0.029
-668.062	-200.000	0.009	0.130
-667.047	-200.000	0.007	0.220
-666.032	-38.636	-0.254	-0.135
-665.018	-42.501	0.259	-0.133
-664.003	108.919	0.085	0.102
-662.989	800.000	0.047	0.163
-661.974	-82.719	-0.214	-0.070
-660.959	800.000	0.032	-0.139
-659.945	-6.466	0.129	0.089
-658.930	-143.780	0.415	-0.040
-657.916	-155.526	-0.258	-0.017
-656.901	-104.107	0.100	0.023
-655.886	-128.900	-0.318	0.045
-654.872	-84.106	-0.146	-0.047
-653.857	-114.664	-0.103	-0.020
-652.843	-130.426	-0.114	-0.015
-651.828	-116.914	-0.210	-0.039
-650.814	-200.000	0.014	0.167
-649.799	-200.000	0.030	-0.458
-648.784	263.751	-0.087	-0.153
-647.770	508.878	0.055	0.128
-646.755	-200.000	0.001	-0.010
-645.741	238.850	0.121	0.202
-644.726	-100.641	0.339	0.084
-643.711	408.225	0.092	0.195
-642.697	-118.708	-0.338	0.060
-641.682	29.798	-0.140	-0.120
-640.668	800.000	-0.101	-0.323
-639.653	-138.944	0.210	-0.023
-638.638	265.978	-0.114	-0.200
-637.624	-118.411	0.186	0.033
-636.609	-62.968	0.269	-0.112
-635.595	104.127	0.099	-0.117
-634.580	-50.567	-0.140	0.066
-633.565	782.429	0.080	-0.221
-632.551	-200.000	-0.021	-0.147
-631.536	-200.000	0.006	-0.071
-630.522	271.508	-0.137	-0.242
-629.507	-102.982	0.365	-0.087
-628.492	-97.995	0.164	-0.043
-627.478	-105.742	-0.243	-0.055
-626.463	-200.000	-0.023	-0.130
-625.449	154.396	0.035	0.049
-624.434	43.813	-0.172	0.159
-623.419	-200.000	-0.031	0.242
-622.405	-200.000	0.014	0.091
-621.390	214.050	-0.230	0.365
-620.376	36.801	0.166	-0.147
-619.361	34.125	-0.088	0.077
-618.346	800.000	0.114	0.334
-617.332	-200.000	0.006	-0.289
-616.317	204.063	-0.138	-0.214
-615.303	-8.253	0.349	-0.236
-614.288	-34.927	-0.079	0.043
-613.273	231.250	-0.119	-0.197
-612.259	108.079	0.161	0.193
-611.244	-200.000	0.050	-0.222
-610.230	24.015	-0.160	-0.133
-609.215	-32.029	-0.267	-0.150
-608.201	-139.226	-0.083	0.009
-607.186	102.466	-0.169	0.199
-606.171	-71.360	-0.069	0.026
-605.157	44.377	0.229	-0.211
-604.142	-55.570	-0.200	-0.090
-603.128	9.896	-0.068	0.052
-602.113	11.085	0.113	0.087
-601.098	371.364	0.106	0.216
-600.084	141.426	-0.109	-0.145
-599.069	27.626	-0.288	0.243
-598.055	-200.000	-0.007	0.031
-597.040	-117.445	-0.449	0.082
-596.025	232.318	-0.008	0.013
-595.011	67.375	0.140	0.144
-593.996	800.000	-0.016	0.048
-592.982	-45.627	-0.136	0.068
-591.967	-200.000	0.077	-0.339
-590.952	-114.161	0.121	-0.023
-589.938	-200.000	0.028	0.369
-588.923	696.116	-0.110	0.291
-587.909	337.634	-0.054	-0.105
-586.894	-25.817	-0.254	0.150
-585.879	413.465	-0.171	0.366
-584.865	189.838	0.274	0.413
-583.850	-200.000	0.029	-0.225
-582.836	388.843	0.189	-0.392
-581.821	-61.021	-0.368	0.156
-580.806	131.850	0.043	0.056
-579.792	107.828	0.082	-0.098
-578.777	81.484	0.299	0.324
-577.763	-94.832	-0.256	0.070
-576.748	-36.876	-0.088	0.047
-575.733	-200.000	-0.009	-0.185
-574.719	356.311	0.100	0.201
-573.704	-200.000	-0.053	-0.381
-572.690	777.649	0.019	-0.052
-571.675	53.908	-0.162	0.156
-570.661	779.251	0.090	-0.247
-569.646	-93.037	-0.249	0.070
-568.631	-115.370	-0.212	0.040
-567.617	42.230	0.253	0.231
-566.602	-200.000	0.006	-0.167
-565.588	-160.771	0.206	0.011
-564.573	-200.000	0.013	-0.115
-563.558	800.000	-0.108	0.319
-562.544	-84.345	-0.058	-0.018
-561.529	-147.210	0.144	0.012
-560.515	800.000	-0.089	0.261
-559.500	-200.000	-0.003	0.128
-558.485	270.027	-0.125	-0.220
-557.471	-200.000	-0.009	-0.090
-556.456	-78.253	0.119	-0.041
-555.442	-9.532	0.168	0.112
-554.427	800.000	0.006	-0.017
-553.412	-200.000	-0.020	-0.218
-552.398	-88.943	-0.104	0.031
-551.383	41.116	0.290	-0.263
-550.369	800.000	-0.090	0.388
-549.354	55.298	0.168	-0.162
-548.339	-98.146	0.207	-0.053
-547.325	266.426	-0.122	-0.214
-546.310	-148.725	-0.183	0.015
-545.296	-16.170	-0.186	-0.119
-544.281	12.494	-0.071	0.055
-543.266	43.773	-0.017	-0.016
-542.252	-50.071	-0.123	0.058
-541.237	139.431	0.102	0.134
-540.223	88.323	0.012	0.013
-539.208	141.470	-0.071	0.095
-538.193	-18.668	0.315	-0.197
-537.179	304.115	0.052	-0.097
-536.164	-200.000	-0.051	0.363
-535.150	-84.818	0.482	0.152
-534.135	-64.302	-0.257	-0.105
-533.121	52.439	0.102	0.098
-532.106	-27.429	-0.290	0.169
-531.091	757.062	0.103	-0.279
-530.077	492.646	0.188	-0.432
-529.062	2.888	-0.136	-0.099
-528.048	-166.526	-0.126	-0.005
-527.033	-200.000	-0.008	0.131
-526.018	229.788	0.093	0.152
-525.004	-200.000	-0.010	-0.297
-523.989	49.885	0.093	0.088
-522.975	238.305	0.036	-0.060
-521.960	-108.530	-0.065	-0.014
-520.945	-200.000	0.073	-0.406
-519.931	-23.137	-0.064	0.038
-518.916	-200.000	-0.013	-0.063
-517.902	8.799	0.037	-0.028
-516.887	-129.699	-0.205	-0.028
-515.872	-140.280	-0.167	-0.017
-514.858	-61.496	0.263	-0.111
-513.843	800.000	-0.104	-0.374
-512.829	-162.600	-0.146	-0.007
-511.814	-99.232	-0.061	-0.015
-510.799	66.249	0.223	-0.227
-509.785	-5.959	0.189	-0.130
-508.770	-200.000	0.058	0.544
-507.756	-101.039	0.262	-0.064
-506.741	800.000	-0.038	-0.154
-505.726	-64.718	0.112	-0.045
-504.712	21.236	-0.227	-0.184
-503.697	226.786	0.169	0.274
-502.683	800.000	-0.049	0.146
-501.668	112.909	0.313	0.379
-500.653	-27.881	-0.061	0.035
-499.639	-200.000	-0.024	-0.290
-498.624	-101.145	-0.233	0.057
-497.610	-167.322	0.050	-0.002
-496.595	-112.188	0.321	0.065
-495.581	453.455	-0.101	0.223
-494.566	-46.589	-0.404	0.198
-493.551	-26.923	-0.290	0.169
-492.537	-45.680	0.052	0.026
-491.522	-200.000	0.053	0.578
-490.508	-200.000	0.155	0.000
-489.493	-41.030	-0.279	-0.144
-488.478	297.719	0.118	0.216
-487.464	-200.000	0.056	-0.520
-486.449	270.055	-0.087	-0.153
-485.435	-16.967	-0.162	0.102
-484.420	108.822	0.178	0.213
-483.405	-133.734	0.513	-0.064
-482.391	-63.952	0.124	-0.051
-481.376	52.434	0.080	-0.076
-480.362	13.375	-0.191	-0.148
-479.347	-69.997	-0.221	0.084
-478.332	-46.751	-0.191	0.093
-477.318	-200.000	0.001	-0.114
-476.303	4.245	-0.253	-0.186
-475.289	-165.464	-0.022	0.001
-474.274	205.277	-0.120	-0.186
-473.259	800.000	0.039	-0.168
-472.245	-200.000	0.279	0.000
-471.230	199.766	0.017	-0.025
-470.216	548.515	-0.016	0.038
-469.201	202.894	-0.174	-0.268
-468.186	-82.645	-0.254	0.082
-467.172	31.204	-0.115	-0.098
-466.157	-77.743	-0.196	0.068
-465.143	225.235	0.162	0.262
-464.128	281.449	-0.140	0.251
-463.113	-4.040	0.227	0.157
-462.099	-200.000	-0.020	0.183
-461.084	-172.316	-0.235	-0.008
-460.070	19.705	-0.070	0.056
-459.055	-200.000	0.000	-0.155
-458.040	-200.000	-0.007	-0.333
-457.026	-128.312	-0.323	0.046
-456.011	54.746	-0.164	-0.158
-454.997	-13.694	-0.192	0.124
-453.982	375.512	-0.102	0.208
-452.968	68.442	0.153	0.156
-451.953	800.000	-0.067	0.265
-450.938	45.627	0.107	0.098
-449.924	-124.732	-0.037	0.006
-448.909	-68.898	-0.102	-0.039
-447.895	800.000	-0.063	0.262
-446.880	19.424	-0.124	0.100
-445.865	-18.465	-0.094	-0.059
-444.851	-101.791	-0.335	-0.081
-443.836	-141.893	-0.110	0.011
-442.822	-62.116	0.168	0.070
-441.807	-200.000	0.026	0.242
-440.792	800.000	-0.054	-0.211
-439.778	-85.816	0.164	-0.051
-438.763	45.124	0.055	-0.050
-437.749	27.810	0.195	-0.164
-436.734	494.088	0.091	0.207
-435.719	-103.979	0.273	0.064
-434.705	-32.529	-0.216	0.120
-433.690	109.064	-0.217	-0.259
-432.676	60.667	-0.119	-0.118
-431.661	67.052	0.203	0.206
-430.646	-101.681	0.424	0.103
-429.632	-52.818	-0.073	0.034
-428.617	73.601	0.047	0.049
-427.603	-200.000	-0.016	0.196
-426.588	41.085	0.116	-0.105
-425.573	79.649	0.216	0.231
-424.559	800.000	0.090	0.260
-423.544	433.978	0.107	-0.231
-422.530	-200.000	-0.017	0.089
-421.515	219.162	-0.117	-0.187
-420.500	800.000	-0.029	-0.110
-419.486	-116.453	0.400	-0.074
-418.471	800.000	-0.097	-0.379
-417.457	19.474	-0.283	0.227
-416.442	800.000	0.168	-0.477
-415.428	-22.374	-0.152	-0.092
-414.413	407.792	-0.057	-0.119
-413.398	253.012	-0.077	-0.131
-412.384	-200.000	-0.024	0.210
-411.369	-25.547	-0.207	-0.122
-410.355	-200.000	-0.049	0.261
-409.340	8.433	-0.175	0.131
-408.325	83.835	0.105	0.114
-407.311	94.585	-0.205	0.233
-406.296	-33.980	-0.037	0.020
-405.282	673.181	-0.019	0.048
-404.267	-55.954	0.251	0.112
-403.252	-65.521	-0.254	-0.102
-402.238	-51.471	0.042	0.020
-401.223	145.785	0.149	0.199
-400.209	-59.258	-0.517	-0.222
-399.194	-200.000	-0.015	0.132
-398.179	253.542	-0.080	0.136
-397.165	800.000	0.046	0.182
-396.150	-64.311	-0.189	-0.077
-395.136	-200.000	-0.004	-0.114
-394.121	-77.155	0.268	-0.093
-393.106	-200.000	-0.017	-0.200
-392.092	162.718	-0.104	-0.145
-391.077	-52.372	-0.227	0.104
-390.063	39.870	0.238	-0.213
-389.048	19.370	-0.047	0.038
-388.033	-96.321	0.117	0.031
-387.019	-200.000	-0.011	0.217
-386.004	-3.469	0.057	-0.039
-384.990	800.000	0.050	0.177
-383.975	-47.785	0.132	-0.064
-382.960	145.768	0.112	0.149
-381.946	373.011	0.079	0.160
-380.931	128.303	0.154	0.195
-379.917	-9.666	0.236	0.157
-378.902	137.750	-0.151	-0.196
-377.888	-72.852	-0.590	-0.216
-376.873	800.000	0.072	-0.270
-375.858	-78.328	0.309	-0.106
-374.844	-123.427	0.238	-0.038
-373.829	-200.000	0.000	-0.121
-372.815	31.621	-0.156	-0.134
-371.800	40.173	-0.162	0.145
-370.785	365.453	0.138	0.276
-369.771	-74.953	0.250	-0.089
-368.756	55.427	-0.243	0.234
-367.742	-1.266	0.146	0.103
-366.727	-200.000	-0.035	0.258
-365.712	-114.102	-0.373	-0.072
-364.698	-175.456	-0.217	0.006
-363.683	-42.551	-0.264	-0.134
-362.669	-175.633	0.202	0.005
-361.654	186.556	0.040	0.059
-360.639	-200.000	0.029	0.233
-359.625	-85.657	-0.221	0.068
-358.610	294.461	-0.047	-0.086
-357.596	-200.000	0.002	-0.122
-356.581	-161.449	0.037	0.002
-355.566	-200.000	0.035	0.274
-354.552	96.951	0.045	-0.051
-353.537	184.625	0.039	-0.057
-352.523	39.356	-0.268	-0.239
-351.508	456.145	0.160	-0.354
-350.493	800.000	0.049	-0.188
-349.479	7.009	0.026	0.020
-348.464	-166.073	0.300	0.013
-347.450	-107.851	0.423	0.092
-346.435	-13.190	0.177	0.114
-345.420	800.000	0.087	0.259
-344.406	-133.116	-0.058	0.007
-343.391	-200.000	-0.042	0.197
-342.377	131.584	-0.145	-0.186
-341.362	-26.133	-0.087	0.051
-340.348	-100.530	-0.093	-0.023
-339.333	-71.812	-0.195	-0.072
-338.318	144.514	0.135	-0.180
-337.304	800.000	0.048	-0.147
-336.289	771.561	-0.071	0.193
-335.275	-58.037	0.218	0.094
-334.260	-200.000	0.001	0.081
-333.245	232.238	0.066	-0.108
-332.231	-45.244	0.491	0.243
-331.216	313.927	0.126	0.235
-330.202	44.950	-0.116	-0.106
-329.187	800.000	0.124	-0.458
-328.172	-200.000	-0.031	-0.238
-327.158	-114.951	0.142	0.027
-326.143	800.000	-0.045	-0.164
-325.129	270.749	0.064	0.111
-324.114	-200.000	-0.055	0.290
-323.099	800.000	-0.206	0.730
-322.085	-200.000	-0.037	0.471
-321.070	-55.228	0.094	0.042
-320.056	344.707	0.158	-0.307
-319.041	279.590	-0.049	0.086
-318.026	-64.166	0.373	-0.151
-317.012	-6.769	-0.432	-0.292
-315.997	4.866	0.118	-0.086
-314.983	-200.000	0.045	0.236
-313.968	700.426	-0.072	-0.189
-312.953	128.925	0.169	-0.214
-311.939	-200.000	-0.033	-0.188
-310.924	129.305	-0.151	-0.192
-309.910	-170.383	0.327	0.011
-308.895	67.777	0.043	-0.044
-307.880	4.744	0.211	-0.154
-306.866	-135.132	0.017	0.002
-305.851	144.281	0.053	-0.070
-304.837	-62.607	-0.525	0.216
-303.822	-200.000	0.015	0.275
-302.807	33.320	-0.156	0.134
-301.793	291.755	0.043	0.078
-300.778	6.553	-0.178	-0.131
-299.764	307.460	0.192	0.354
-298.749	4.533	-0.155	-0.113
-297.735	114.626	0.100	-0.121
-296.720	-200.000	0.037	0.437
-295.705	-142.774	0.421	-0.041
-294.691	-200.000	-0.013	0.218
-293.676	202.227	-0.127	-0.195
-292.662	-200.000	0.039	-0.173
-291.647	27.855	-0.128	-0.107
-290.632	-133.281	-0.247	-0.031
-289.618	800.000	-0.053	0.150
-288.603	630.745	-0.132	-0.332
-287.589	-200.000	0.020	-0.300
-286.574	-200.000	0.022	0.122
-285.559	-21.993	0.090	0.054
-284.545	22.211	-0.230	-0.186
-283.530	-200.000	-0.015	0.175
-282.516	87.817	0.134	-0.147
-281.501	-80.094	-0.221	-0.073
-280.486	-85.171	-0.152	-0.047
-279.472	800.000	0.059	-0.249
-278.457	-200.000	0.058	-0.259
-277.443	268.495	0.037	-0.064
-276.428	-200.000	0.040	-0.221
-275.413	-200.000	-0.076	-0.365
-274.399	800.000	-0.099	0.311
-273.384	-74.650	0.267	0.095
-272.370	137.187	-0.154	-0.199
-271.355	576.183	-0.020	0.047
-270.340	800.000	0.039	0.123
-269.326	-33.586	0.243	-0.133
-268.311	267.899	-0.159	0.275
-267.297	11.163	0.290	0.220
-266.282	211.336	-0.094	-0.146
-265.267	-120.438	0.234	-0.039
-264.253	-200.000	-0.002	0.014
-263.238	-24.507	0.231	0.136
-262.224	-141.611	-0.175	0.017
-261.209	-1.297	-0.048	0.033
-260.195	-200.000	0.022	0.310
-259.180	-65.184	-0.291	0.116
-258.165	800.000	0.059	-0.232
-257.151	136.299	0.140	0.180
-256.136	28.604	-0.093	-0.078
-255.122	413.391	-0.067	-0.141
-254.107	-200.000	0.039	-0.177
-253.092	37.220	-0.291	0.255
-252.078	94.437	0.076	-0.086
-251.063	413.674	0.085	0.179
-250.049	71.393	0.170	0.175
-249.034	-168.738	-0.176	-0.007
-248.019	11.752	0.191	-0.145
-247.005	142.065	-0.214	-0.281
-245.990	-76.059	0.131	0.046
-244.976	-94.162	-0.085	0.023
-243.961	5.681	-0.022	0.016
-242.946	13.904	0.118	-0.091
-241.932	19.233	-0.243	0.194
-240.917	339.658	0.260	0.501
-239.903	-34.319	-0.079	0.043
-238.888	-174.568	-0.171	0.005
-237.873	800.000	0.049	0.179
-236.859	-120.324	0.064	-0.011
-235.844	-67.273	0.378	-0.147
-234.830	-200.000	-0.007	-0.146
-233.815	-46.511	-0.117	-0.057
-232.800	800.000	0.022	0.079
-231.786	162.173	-0.133	-0.184
-230.771	800.000	0.047	0.172
-229.757	-119.704	0.189	-0.032
-228.742	800.000	0.098	-0.330
-227.727	-139.622	-0.393	0.041
-226.713	-108.117	-0.202	0.043
-225.698	-200.000	-0.024	0.470
-224.684	-164.370	-0.176	0.008
-223.669	129.377	0.202	-0.255
-222.655	-66.621	-0.157	0.062
-221.640	136.449	0.157	0.203
-220.625	-200.000	0.030	0.270
-219.611	-200.000	0.046	-0.476
-218.596	800.000	0.111	-0.324
-217.582	800.000	0.110	0.391
-216.567	132.862	0.144	0.184
-215.552	-55.371	0.229	0.101
-214.538	185.397	-0.092	0.135
-213.523	-154.254	0.123	0.008
-212.509	118.100	0.209	-0.255
-211.494	800.000	-0.073	0.241
-210.479	800.000	0.027	0.091
-209.465	29.764	0.293	-0.247
-208.450	-114.327	-0.028	-0.005
-207.436	-26.207	0.247	-0.143
-206.421	-51.541	-0.012	-0.006
-205.406	-200.000	-0.011	0.102
-204.392	102.566	-0.066	0.076
-203.377	296.880	0.221	0.400
-202.363	198.492	0.045	-0.068
-201.348	-10.152	-0.042	-0.028
-200.333	-80.815	-0.040	0.013
-199.319	-200.000	0.001	-0.126
-198.304	-28.137	-0.283	-0.162
-197.290	-46.623	0.251	0.122
-196.275	-37.103	-0.053	-0.028
-195.260	-153.378	-0.016	0.001
-194.246	-200.000	-0.003	-0.128
-193.231	587.305	-0.023	0.056
-192.217	-200.000	-0.042	0.254
-191.202	-193.167	0.261	0.002
-190.187	-108.916	0.283	0.060
-189.173	-64.372	0.095	0.038
-188.158	2.453	-0.129	0.092
-187.144	-17.339	-0.054	-0.034
-186.129	619.099	-0.090	-0.223
-185.114	2.222	-0.160	0.114
-184.100	42.054	-0.346	-0.310
-183.085	-200.000	-0.017	-0.122
-182.071	-115.921	-0.063	0.012
-181.056	-200.000	0.028	-0.331
-180.042	-82.995	0.258	-0.082
-179.027	424.194	-0.066	-0.140
-178.012	-148.629	0.387	0.031
-176.998	800.000	0.043	-0.134
-175.983	-200.000	-0.004	0.084
-174.969	-200.000	-0.040	-0.194
-173.954	-86.632	0.140	0.042
-172.939	403.719	0.026	-0.055
-171.925	226.827	-0.166	0.266
-170.910	14.452	0.195	-0.150
-169.896	35.023	0.099	0.086
-168.881	-90.854	-0.398	-0.113
-167.866	-200.000	0.016	0.188
-166.852	-200.000	-0.040	0.262
-165.837	350.861	-0.040	-0.078
-164.823	24.139	-0.289	0.236
-163.808	-200.000	0.004	-0.061
-162.793	-106.583	0.364	-0.080
-161.779	-151.392	-0.155	0.011
-160.764	-200.000	0.018	0.122
-159.750	-141.867	0.162	0.016
-158.735	-157.549	0.137	0.008
-157.720	-177.165	-0.304	-0.007
-156.706	800.000	-0.061	-0.216
-155.691	800.000	-0.031	-0.127
-154.677	-200.000	0.074	-0.437
-153.662	800.000	0.060	-0.230
-152.647	-173.531	-0.192	0.006
-151.633	-85.604	0.238	0.073
-150.618	39.407	-0.238	0.210
-149.604	-143.484	0.020	0.002
-148.589	-182.513	-0.184	0.003
-147.574	-111.720	-0.291	-0.058
-146.560	402.921	-0.085	0.177
-145.545	-55.854	0.420	-0.185
-144.531	800.000	-0.109	0.354
-143.516	-190.365	0.033	-0.000
-142.502	-200.000	-0.017	0.093
-141.487	-200.000	-0.003	-0.289
-140.472	-35.514	0.257	-0.138
-139.458	-161.164	-0.106	0.005
-138.443	188.028	0.134	0.197
-137.429	189.681	0.081	0.119
-136.414	-153.280	-0.120	-0.008
-135.399	7.969	0.304	-0.225
-134.385	-166.053	0.210	0.009
-133.370	800.000	0.032	0.134
-132.356	215.188	0.031	0.049
-131.341	57.846	0.309	0.298
-130.326	-200.000	-0.039	0.179
-129.312	-44.582	-0.257	-0.127
-128.297	-150.102	-0.482	-0.037
-127.283	-34.569	0.072	-0.039
-126.268	-200.000	0.021	-0.411
-125.253	-103.621	-0.150	-0.035
-124.239	-56.160	-0.256	-0.112
-123.224	-69.655	-0.355	-0.134
-122.210	-156.422	-0.291	0.018
-121.195	-52.874	0.020	-0.009
