DTS Sentinel unit serial number:	SN413079Multiplexer serial number:	ORYXHardware model number:	OX4-SRSoftware version number:	ORYX F/W v4.00 Oryx Data Collector v3.7.2.0data status	okinstallation	princeton_trtdifferential loss correction	single-endedforward channel	channel 2reverse channel	N/Adate	2019/09/13time	01:51:34forward acquisition time	60.00reverse acquisition time	0.00gamma	496.2192k internal	0.2334k external	0.2334temperature offset calibration	1.0174default loss term (dB/km)	0.3790temperature slope calibration	1.0000multiplexer offset coefficient	1.0000multiplexer slope coefficient	1.0000fibre end	0.00T internal ref (°C)	27.66T ext. ref 1 (°C)	3.82T ext. ref 2 (°C)	22.30length (m)	temperature (°C)	Stokes	anti-Stokes-747.200	187.089	-0.172	-0.258
-746.185	-87.850	-0.313	0.095
-745.171	-42.722	0.330	0.169
-744.156	-200.000	-0.074	0.558
-743.142	-77.035	-0.420	0.147
-742.127	190.442	-0.177	0.267
-741.112	-97.628	0.184	0.048
-740.098	94.459	-0.137	0.156
-739.083	760.516	0.030	0.083
-738.069	-26.094	-0.262	-0.155
-737.054	-8.418	0.146	-0.099
-736.039	-29.038	-0.294	0.170
-735.025	-200.000	-0.020	0.223
-734.010	-200.000	0.004	0.120
-732.996	-170.540	-0.175	0.006
-731.981	104.820	-0.151	-0.179
-730.966	629.647	0.035	0.088
-729.952	-96.936	-0.275	0.073
-728.937	-6.452	-0.315	-0.216
-727.923	-96.215	0.292	0.078
-726.908	-69.791	-0.163	-0.063
-725.894	376.404	-0.069	0.141
-724.879	-133.487	-0.217	-0.027
-723.864	-200.000	0.025	-0.121
-722.850	60.424	-0.061	-0.061
-721.835	-47.149	0.234	-0.115
-720.821	-102.762	-0.312	-0.075
-719.806	-86.253	-0.440	0.136
-718.791	-90.827	0.121	-0.035
-717.777	161.532	0.088	0.124
-716.762	68.160	0.079	-0.081
-715.748	0.974	-0.060	-0.043
-714.733	-200.000	-0.037	0.229
-713.718	-160.081	-0.376	-0.021
-712.704	-70.160	0.121	0.046
-711.689	-25.153	0.067	0.040
-710.675	-200.000	0.002	-0.363
-709.660	447.254	0.053	0.116
-708.645	469.191	0.018	0.041
-707.631	800.000	-0.025	0.099
-706.616	-76.166	0.219	0.078
-705.602	520.232	0.051	0.120
-704.587	-129.970	-0.409	-0.056
-703.572	800.000	0.081	-0.299
-702.558	91.144	-0.072	0.081
-701.543	334.387	-0.162	-0.315
-700.529	423.867	-0.067	-0.145
-699.514	-200.000	-0.041	-0.214
-698.499	1.361	-0.347	0.250
-697.485	209.993	-0.128	0.202
-696.470	-83.738	0.301	0.096
-695.456	-53.948	-0.219	0.100
-694.441	350.837	0.067	-0.133
-693.426	-65.385	-0.454	-0.183
-692.412	-105.978	0.115	-0.026
-691.397	114.045	0.161	-0.196
-690.383	-200.000	-0.034	-0.182
-689.368	239.444	-0.137	0.228
-688.354	-200.000	0.023	0.395
-687.339	103.088	0.182	-0.214
-686.324	-29.003	-0.297	-0.171
-685.310	800.000	0.029	-0.090
-684.295	800.000	-0.013	0.039
-683.281	-120.862	-0.036	-0.006
-682.266	-200.000	0.017	0.079
-681.251	-12.907	-0.299	-0.195
-680.237	-99.691	-0.362	-0.091
-679.222	-200.000	-0.030	0.366
-678.208	-90.133	-0.320	0.093
-677.193	-0.860	0.073	-0.052
-676.178	85.382	-0.314	-0.346
-675.164	-200.000	-0.037	0.168
-674.149	800.000	-0.122	-0.345
-673.135	-17.615	-0.156	0.099
-672.120	-68.405	0.306	-0.119
-671.105	129.062	0.042	0.054
-670.091	56.003	0.081	-0.079
-669.076	-2.682	-0.208	0.146
-668.062	-45.986	-0.333	0.165
-667.047	-97.265	0.107	-0.028
-666.032	7.853	-0.145	0.109
-665.018	-103.725	-0.131	-0.031
-664.003	-51.063	-0.260	0.122
-662.989	-200.000	0.011	-0.172
-661.974	-121.229	0.032	-0.005
-660.959	734.021	-0.056	-0.151
-659.945	261.084	-0.242	-0.420
-658.930	27.959	0.244	0.206
-657.916	-105.403	-0.108	0.025
-656.901	-180.648	0.207	-0.004
-655.886	23.214	0.110	-0.091
-654.872	-200.000	-0.014	-0.167
-653.857	-144.478	-0.148	-0.014
-652.843	-121.292	-0.151	-0.025
-651.828	-60.916	0.414	0.175
-650.814	-17.723	-0.315	0.198
-649.799	-200.000	0.046	0.218
-648.784	251.155	0.175	-0.297
-647.770	800.000	-0.245	-0.699
-646.755	192.840	0.021	-0.032
-645.741	-152.201	0.229	-0.017
-644.726	-61.091	-0.079	-0.033
-643.711	458.156	-0.172	-0.383
-642.697	-10.072	-0.179	0.119
-641.682	-56.053	-0.374	-0.167
-640.668	-150.524	-0.181	0.014
-639.653	-200.000	0.025	0.116
-638.638	91.992	0.157	-0.176
-637.624	413.500	0.113	0.240
-636.609	719.869	0.092	0.245
-635.595	800.000	0.038	0.111
-634.580	537.793	-0.093	0.220
-633.565	148.997	-0.084	-0.114
-632.551	-53.318	0.289	-0.133
-631.536	266.781	0.037	-0.064
-630.522	-200.000	-0.003	-0.031
-629.507	730.515	-0.063	-0.169
-628.492	206.152	-0.068	0.106
-627.478	-77.222	-0.228	0.080
-626.463	800.000	-0.038	0.160
-625.449	320.054	0.125	-0.238
-624.434	70.747	0.170	0.176
-623.419	-200.000	-0.083	0.368
-622.405	-200.000	-0.004	-0.097
-621.390	-107.049	-0.094	-0.021
-620.376	25.561	-0.163	-0.135
-619.361	-4.695	0.127	0.088
-618.346	-58.788	-0.275	0.119
-617.332	-200.000	-0.076	-0.350
-616.317	3.494	-0.198	-0.144
-615.303	-200.000	0.062	-0.389
-614.288	0.830	-0.073	0.052
-613.273	9.073	-0.227	0.171
-612.259	82.742	-0.190	-0.206
-611.244	-200.000	0.003	0.182
-610.230	4.897	-0.179	0.132
-609.215	282.946	-0.113	-0.202
-608.201	-127.856	0.112	0.016
-607.186	4.747	0.144	-0.106
-606.171	56.639	-0.115	-0.111
-605.157	-128.976	0.085	0.012
-604.142	206.163	-0.093	-0.145
-603.128	-172.957	0.057	-0.002
-602.113	270.468	-0.117	-0.206
-601.098	309.538	0.067	0.126
-600.084	-200.000	-0.096	0.470
-599.069	-18.159	0.066	0.042
-598.055	-200.000	0.053	0.415
-597.040	241.082	-0.094	-0.157
-596.025	721.647	-0.087	-0.232
-595.011	-161.325	0.281	0.015
-593.996	-87.522	0.179	-0.054
-592.982	-21.187	0.176	0.108
-591.967	66.061	-0.179	0.182
-590.952	-85.883	-0.245	-0.076
-589.938	-200.000	-0.022	-0.230
-588.923	381.499	0.073	0.150
-587.909	126.024	0.074	0.093
-586.894	-200.000	0.003	-0.013
-585.879	-80.353	0.065	0.022
-584.865	215.618	0.243	-0.386
-583.850	182.869	0.033	-0.048
-582.836	-200.000	-0.039	-0.177
-581.821	124.086	-0.060	-0.075
-580.806	-176.948	0.205	-0.005
-579.792	28.686	-0.266	0.225
-578.777	-104.978	-0.054	-0.012
-577.763	27.143	0.159	0.133
-576.748	-83.857	0.125	0.040
-575.733	-70.013	-0.321	-0.122
-574.719	800.000	-0.111	-0.352
-573.704	-200.000	-0.026	-0.141
-572.690	-41.394	-0.279	-0.144
-571.675	145.096	-0.161	-0.215
-570.661	168.684	0.103	-0.147
-569.646	99.738	-0.171	-0.198
-568.631	25.765	-0.247	-0.206
-567.617	124.063	0.251	-0.315
-566.602	-102.670	-0.267	0.063
-565.588	-200.000	0.044	0.222
-564.573	308.206	0.031	0.057
-563.558	-125.941	-0.185	-0.028
-562.544	-101.498	-0.140	-0.034
-561.529	-200.000	-0.006	-0.102
-560.515	89.016	-0.065	0.073
-559.500	186.959	0.043	-0.064
-558.485	64.997	0.284	0.287
-557.471	-6.612	0.368	0.250
-556.456	-114.525	0.523	0.100
-555.442	-200.000	-0.030	0.328
-554.427	41.453	-0.257	0.232
-553.412	-125.489	0.270	-0.041
-552.398	-68.086	0.400	-0.155
-551.383	-75.124	0.165	-0.059
-550.369	800.000	0.095	0.326
-549.354	-200.000	0.012	0.151
-548.339	-200.000	0.028	0.162
-547.325	800.000	0.037	0.157
-546.310	-161.378	-0.176	0.009
-545.296	800.000	-0.056	0.211
-544.281	15.970	0.297	-0.234
-543.266	89.376	-0.225	0.250
-542.252	-160.873	0.153	0.008
-541.237	731.976	-0.025	0.068
-540.223	141.354	0.033	-0.043
-539.208	-115.825	0.124	0.023
-538.193	98.134	-0.240	0.276
-537.179	-154.351	-0.285	-0.019
-536.164	-200.000	0.013	-0.088
-535.150	60.106	-0.238	0.235
-534.135	381.527	-0.083	-0.170
-533.121	-9.226	-0.016	-0.011
-532.106	616.557	-0.065	-0.163
-531.091	-113.115	0.172	-0.034
-530.077	-200.000	-0.046	-0.288
-529.062	-70.573	-0.332	0.125
-528.048	-143.598	0.184	-0.017
-527.033	76.855	0.132	0.140
-526.018	-200.000	-0.019	0.243
-525.004	35.485	0.109	-0.095
-523.989	8.369	-0.155	0.116
-522.975	800.000	-0.039	-0.128
-521.960	90.060	-0.231	0.257
-520.945	12.556	-0.262	-0.201
-519.931	-35.604	-0.129	-0.070
-518.916	474.463	0.111	-0.249
-517.902	800.000	-0.015	0.063
-516.887	-108.341	-0.211	-0.045
-515.872	-25.078	-0.081	-0.048
-514.858	35.976	-0.122	0.107
-513.843	-200.000	-0.022	0.196
-512.829	7.743	-0.207	0.155
-511.814	47.644	-0.123	-0.114
-510.799	-81.753	-0.114	-0.037
-509.785	800.000	-0.027	-0.103
-508.770	-200.000	-0.027	0.152
-507.756	264.557	0.130	0.226
-506.741	86.911	-0.136	0.150
-505.726	-62.093	-0.339	-0.141
-504.712	-1.091	0.049	0.034
-503.697	-58.300	0.077	-0.033
-502.683	-200.000	-0.005	-0.225
-501.668	6.947	0.117	-0.087
-500.653	-200.000	-0.023	-0.181
-499.639	121.105	-0.114	0.141
-498.624	-94.860	-0.319	-0.086
-497.610	591.094	0.123	-0.302
-496.595	800.000	-0.107	-0.442
-495.581	-147.666	0.214	-0.018
-494.566	133.729	-0.212	0.273
-493.551	800.000	-0.063	0.199
-492.537	-200.000	0.013	0.176
-491.522	-84.240	-0.186	0.059
-490.508	-120.190	-0.128	0.022
-489.493	-85.325	0.114	-0.035
-488.478	-29.061	-0.076	0.044
-487.464	800.000	-0.057	0.236
-486.449	-151.561	0.256	0.019
-485.435	402.826	0.055	-0.114
-484.420	180.215	-0.274	-0.400
-483.405	156.032	0.105	-0.144
-482.391	343.093	-0.126	0.246
-481.376	-11.241	-0.231	0.152
-480.362	273.341	-0.170	0.298
-479.347	-153.685	0.076	0.005
-478.332	-200.000	-0.029	-0.206
-477.318	336.667	0.052	-0.101
-476.303	20.358	0.236	-0.189
-475.289	-141.162	0.126	0.013
-474.274	-17.592	0.163	-0.102
-473.259	1.717	0.068	-0.049
-472.245	222.504	-0.042	0.067
-471.230	-61.856	0.163	-0.068
-470.216	-47.870	0.128	0.062
-469.201	573.790	-0.184	0.445
-468.186	78.517	0.035	0.037
-467.172	-200.000	0.100	0.480
-466.157	-143.878	0.162	0.015
-465.143	173.182	-0.200	-0.287
-464.128	-109.781	-0.217	0.045
-463.113	-24.279	-0.159	-0.095
-462.099	268.745	-0.098	0.170
-461.084	161.381	0.065	-0.090
-460.070	-108.279	0.121	0.026
-459.055	18.985	-0.081	-0.065
-458.040	6.783	0.163	0.121
-457.026	-107.125	-0.178	0.039
-456.011	484.435	-0.126	0.286
-454.997	-67.387	-0.158	-0.062
-453.982	-124.681	0.255	-0.039
-452.968	83.143	-0.174	-0.188
-451.953	-9.365	0.218	0.145
-450.938	-83.224	0.231	-0.074
-449.924	372.674	0.141	-0.286
-448.909	-200.000	-0.036	0.172
-447.895	800.000	0.080	0.326
-446.880	800.000	0.019	0.066
-445.865	-43.651	0.164	0.082
-444.851	800.000	0.070	-0.240
-443.836	-108.229	0.331	-0.071
-442.822	58.405	-0.210	0.205
-441.807	-176.136	0.195	0.005
-440.792	-188.084	-0.049	0.001
-439.778	195.226	0.161	0.242
-438.763	-102.778	-0.175	-0.041
-437.749	800.000	0.052	0.188
-436.734	643.869	0.072	-0.183
-435.719	-200.000	0.001	-0.347
-434.705	213.759	-0.185	-0.290
-433.690	362.830	0.168	-0.336
-432.676	-105.328	-0.265	-0.060
-431.661	-42.368	0.254	0.129
-430.646	-152.637	-0.161	-0.011
-429.632	228.109	-0.075	-0.121
-428.617	-85.450	0.610	0.189
-427.603	-147.638	0.003	-0.000
-426.588	8.365	-0.118	-0.088
-425.573	-200.000	-0.002	0.131
-424.559	-200.000	0.003	-0.061
-423.544	-200.000	0.069	-0.327
-422.530	128.548	-0.133	-0.168
-421.515	-118.310	-0.120	0.021
-420.500	153.474	-0.074	0.101
-419.486	-3.941	-0.102	-0.070
-418.471	191.138	-0.172	-0.257
-417.457	-83.538	0.264	0.084
-416.442	800.000	0.074	0.258
-415.428	-30.750	0.213	-0.120
-414.413	800.000	-0.047	-0.159
-413.398	-26.930	-0.350	-0.203
-412.384	-138.304	0.014	0.002
-411.369	425.763	0.140	-0.298
-410.355	159.756	0.156	-0.216
-409.340	37.055	0.196	0.172
-408.325	-97.347	-0.090	0.023
-407.311	150.424	0.089	0.120
-406.296	109.442	-0.184	-0.219
-405.282	-200.000	0.002	-0.131
-404.267	71.095	-0.141	0.146
-403.252	-67.676	0.219	0.085
-402.238	-81.474	0.203	-0.066
-401.223	606.428	-0.060	0.149
-400.209	-70.838	0.223	0.084
-399.194	71.116	0.378	0.388
-398.179	-27.768	0.242	0.139
-397.165	136.091	-0.104	0.134
-396.150	800.000	0.154	0.447
-395.136	-135.059	-0.309	-0.037
-394.121	-200.000	-0.060	0.364
-393.106	16.198	0.218	-0.171
-392.092	168.636	-0.200	0.283
-391.077	-147.206	0.310	-0.026
-390.063	-200.000	-0.004	0.142
-389.048	0.283	-0.156	0.111
-388.033	-127.045	-0.153	0.022
-387.019	762.040	-0.026	-0.070
-386.004	800.000	-0.045	-0.182
-384.990	-132.265	-0.099	0.013
-383.975	-200.000	0.012	-0.192
-382.960	800.000	0.091	0.334
-381.946	49.252	-0.154	0.144
-380.931	45.438	-0.195	0.178
-379.917	54.264	0.090	-0.086
-378.902	-42.064	-0.153	-0.078
-377.888	38.433	0.085	-0.075
-376.873	89.653	0.095	-0.106
-375.858	-200.000	-0.027	-0.181
-374.844	800.000	-0.068	0.234
-373.829	-200.000	-0.000	-0.189
-372.815	-200.000	0.039	0.211
-371.800	-134.562	-0.163	0.020
-370.785	328.010	0.080	-0.153
-369.771	-3.845	0.059	0.040
-368.756	339.992	0.056	-0.108
-367.742	-42.314	0.319	-0.161
-366.727	-200.000	0.090	0.425
-365.712	800.000	-0.059	0.195
-364.698	-46.285	0.142	0.069
-363.683	-135.457	0.330	-0.039
-362.669	-200.000	0.023	0.340
-361.654	39.720	0.161	-0.143
-360.639	-106.764	-0.284	-0.063
-359.625	-90.677	0.150	-0.043
-358.610	72.935	-0.100	-0.103
-357.596	-200.000	0.062	-0.299
-356.581	-79.341	-0.240	-0.081
-355.566	800.000	0.107	-0.294
-354.552	-36.878	-0.109	-0.058
-353.537	-40.575	-0.209	-0.107
-352.523	-156.151	-0.279	-0.017
-351.508	193.132	0.046	0.069
-350.493	227.243	-0.151	0.243
-349.479	56.640	0.053	-0.051
-348.464	-107.827	0.149	0.032
-347.450	-83.904	-0.216	-0.068
-346.435	-122.944	-0.208	0.033
-345.420	38.014	0.256	0.225
-344.406	224.150	0.098	-0.157
-343.391	358.233	-0.115	-0.226
-342.377	339.449	-0.231	0.445
-341.362	-38.998	0.287	-0.150
-340.348	-21.419	-0.132	0.080
-339.333	-102.053	0.252	0.060
-338.318	-16.756	-0.116	-0.073
-337.304	-99.749	0.166	-0.041
-336.289	195.896	0.128	-0.193
-335.275	68.066	-0.119	0.120
-334.260	-200.000	-0.030	-0.197
-333.245	86.074	0.078	-0.085
-332.231	-200.000	-0.036	0.299
-331.216	-133.714	0.214	-0.026
-330.202	-192.852	-0.337	0.003
-329.187	31.267	0.177	-0.150
-328.172	-7.143	-0.185	0.124
-327.158	-200.000	-0.030	0.251
-326.143	89.484	-0.097	-0.107
-325.129	-92.069	0.335	-0.094
-324.114	323.431	-0.084	-0.158
-323.099	44.138	-0.263	0.238
-322.085	597.520	0.066	-0.163
-321.070	25.823	0.082	0.068
-320.056	181.699	0.151	-0.220
-319.041	-29.574	-0.201	0.114
-318.026	-118.902	-0.276	-0.048
-317.012	-132.881	-0.140	-0.018
-315.997	-5.280	0.216	-0.147
-314.983	-89.581	0.271	-0.079
-313.968	-101.395	-0.216	-0.052
-312.953	-82.937	0.145	-0.046
-311.939	-136.997	-0.328	-0.037
-310.924	-77.777	0.380	-0.130
-309.910	-90.267	-0.110	0.031
-308.895	31.298	0.240	-0.204
-307.880	-127.690	-0.117	0.017
-306.866	-69.493	-0.105	-0.040
-305.851	-200.000	-0.021	0.247
-304.837	-158.909	-0.206	0.012
-303.822	-124.701	-0.505	-0.077
-302.807	2.307	0.133	0.095
-301.793	-200.000	0.008	0.084
-300.778	-200.000	-0.017	0.292
-299.764	-200.000	-0.048	-0.385
-298.749	-61.408	0.112	-0.046
-297.735	778.591	0.128	-0.346
-296.720	125.747	-0.170	0.212
-295.705	-108.947	-0.087	-0.018
-294.691	-117.194	-0.346	0.062
-293.676	-63.391	0.417	-0.170
-292.662	-200.000	0.047	-0.267
-291.647	-176.651	0.067	0.002
-290.632	-140.716	0.121	0.012
-289.618	-121.932	-0.237	0.039
-288.603	31.488	-0.082	0.070
-287.589	-151.963	0.260	-0.019
-286.574	-51.298	-0.395	0.183
-285.559	429.950	0.087	-0.185
-284.545	-11.762	0.214	0.138
-283.530	72.182	0.126	0.129
-282.516	-124.853	-0.123	0.019
-281.501	-116.450	-0.449	0.082
-280.486	-82.939	0.237	-0.076
-279.472	65.076	0.222	-0.222
-278.457	54.616	-0.253	-0.241
-277.443	-29.221	0.075	0.042
-276.428	-200.000	-0.029	0.288
-275.413	-84.447	0.245	-0.076
-274.399	-36.815	-0.210	-0.111
-273.384	487.781	-0.071	-0.160
-272.370	167.968	-0.073	0.102
-271.355	-187.161	-0.051	-0.001
-270.340	-200.000	0.004	0.081
-269.326	-200.000	0.008	-0.150
-268.311	-51.888	0.098	-0.045
-267.297	-23.871	-0.077	-0.045
-266.282	24.354	0.210	-0.171
-265.267	-94.242	-0.209	-0.056
-264.253	6.390	-0.308	0.225
-263.238	337.532	-0.032	0.061
-262.224	800.000	-0.110	-0.317
-261.209	751.749	0.052	-0.138
-260.195	-28.320	0.153	0.087
-259.180	-128.385	0.140	0.020
-258.165	-200.000	0.003	0.229
-257.151	22.456	0.071	0.058
-256.136	401.855	-0.152	-0.314
-255.122	150.082	0.054	0.072
-254.107	-200.000	-0.023	0.416
-253.092	366.575	-0.158	-0.313
-252.078	120.643	0.219	0.268
-251.063	-85.145	0.306	-0.094
-250.049	-200.000	-0.014	0.094
-249.034	65.084	-0.152	-0.151
-248.019	-140.721	0.432	-0.044
-247.005	-200.000	0.022	0.253
-245.990	48.951	0.296	0.274
-244.976	615.918	0.092	0.229
-243.961	-118.981	-0.333	-0.058
-242.946	145.020	0.286	-0.377
-241.932	-200.000	0.009	0.143
-240.917	-200.000	0.034	0.237
-239.903	-14.634	-0.351	0.222
-238.888	-200.000	0.004	-0.082
-237.873	800.000	0.034	0.125
-236.859	19.792	-0.296	0.235
-235.844	-168.158	-0.067	0.003
-234.830	-200.000	0.018	-0.241
-233.815	82.976	-0.169	-0.181
-232.800	-131.219	-0.119	-0.016
-231.786	-37.563	0.238	0.125
-230.771	-17.337	-0.027	0.017
-229.757	-108.732	-0.275	0.058
-228.742	-90.654	0.502	0.143
-227.727	800.000	0.065	-0.201
-226.713	-200.000	-0.112	-0.531
-225.698	-48.121	0.080	-0.038
-224.684	-58.855	0.159	0.068
-223.669	-200.000	0.007	-0.117
-222.655	149.478	0.076	0.102
-221.640	-200.000	0.178	-0.001
-220.625	-149.644	-0.058	-0.005
-219.611	261.913	-0.078	0.133
-218.596	-83.564	0.349	-0.110
-217.582	-200.000	-0.007	0.120
-216.567	-200.000	-0.036	0.229
-215.552	-61.983	0.112	-0.046
-214.538	18.114	-0.101	0.079
-213.523	-49.097	0.160	0.075
-212.509	-52.655	0.141	0.064
-211.494	655.750	-0.135	-0.340
-210.479	-200.000	0.041	-0.205
-209.465	622.491	-0.102	0.254
-208.450	100.633	0.239	0.274
-207.436	-153.591	0.212	0.014
-206.421	213.646	-0.070	-0.108
-205.406	-48.635	0.197	0.093
-204.392	-200.000	-0.002	-0.231
-203.377	182.048	-0.070	0.101
-202.363	-23.434	-0.119	-0.070
-201.348	22.102	-0.079	-0.064
-200.333	-175.845	0.115	0.003
-199.319	43.579	0.099	0.089
-198.304	-81.681	0.097	0.031
-197.290	363.023	-0.051	0.101
-196.275	759.991	-0.017	-0.045
-195.260	800.000	-0.040	0.117
-194.246	-100.727	-0.079	0.019
-193.231	37.608	-0.245	-0.214
-192.217	-200.000	0.001	-0.300
-191.202	13.257	-0.360	-0.274
-190.187	-77.092	0.145	-0.050
-189.173	800.000	-0.028	0.099
-188.158	14.741	0.365	-0.281
-187.144	603.899	0.072	-0.175
-186.129	-71.082	0.254	0.094
-185.114	-84.948	-0.351	-0.108
-184.100	800.000	0.063	-0.217
-183.085	126.395	0.344	0.428
-182.071	-93.461	-0.238	-0.065
-181.056	800.000	0.120	0.394
-180.042	231.171	0.145	0.234
-179.027	28.093	-0.087	0.072
-178.012	800.000	0.077	0.250
-176.998	579.842	0.055	0.133
-175.983	124.711	0.079	-0.097
-174.969	54.296	0.139	-0.131
-173.954	-14.950	0.157	0.099
-172.939	-61.209	0.141	0.058
-171.925	-200.000	0.019	-0.274
-170.910	-65.499	-0.053	-0.021
-169.896	19.795	0.127	-0.101
-168.881	281.456	-0.215	0.379
-167.866	-83.230	-0.067	-0.021
-166.852	-160.392	-0.443	-0.023
-165.837	-200.000	0.002	-0.011
-164.823	-145.843	0.147	-0.013
-163.808	-200.000	0.020	0.178
-162.793	-75.366	-0.496	0.174
-161.779	-200.000	0.028	0.214
-160.764	-94.615	0.238	0.064
-159.750	-18.168	0.158	0.097
-158.735	109.113	0.292	-0.343
-157.720	-181.671	0.232	-0.004
-156.706	-122.673	0.249	0.040
-155.691	800.000	-0.040	-0.152
-154.677	-200.000	-0.021	-0.110
-153.662	-13.644	-0.080	0.051
-152.647	-200.000	0.008	0.129
-151.633	21.328	0.341	0.272
-150.618	-200.000	-0.048	0.276
-149.604	800.000	-0.034	0.134
-148.589	310.464	0.146	-0.269
-147.574	-200.000	-0.063	0.558
-146.560	90.337	0.191	0.210
-145.545	154.196	-0.139	0.187
-144.531	-144.160	-0.259	0.024
-143.516	332.509	-0.030	-0.058
-142.502	221.052	-0.209	-0.330
-141.487	-19.511	0.211	0.128
-140.472	-72.155	-0.166	-0.061
-139.458	800.000	0.087	-0.362
-138.443	800.000	0.041	0.147
-137.429	198.077	-0.035	0.053
-136.414	-136.417	0.219	-0.025
-135.399	372.406	-0.065	0.130
-134.385	-28.812	0.131	-0.074
-133.370	-200.000	-0.061	0.293
-132.356	221.830	-0.062	0.097
-131.341	-176.880	-0.267	-0.007
-130.326	123.937	-0.165	0.204
-129.312	111.585	-0.244	0.289
-128.297	-200.000	-0.017	0.078
-127.283	-200.000	0.014	0.120
-126.268	-200.000	0.013	0.202
-125.253	22.605	-0.174	0.140
-124.239	-57.468	0.193	0.083
-123.224	5.553	0.233	0.169
-122.210	229.036	-0.128	0.204
