DTS Sentinel unit serial number:	SN413079Multiplexer serial number:	ORYXHardware model number:	OX4-SRSoftware version number:	ORYX F/W v4.00 Oryx Data Collector v3.7.2.0data status	okinstallation	princeton_trtdifferential loss correction	single-endedforward channel	channel 2reverse channel	N/Adate	2019/09/18time	22:03:35forward acquisition time	60.00reverse acquisition time	0.00gamma	496.2192k internal	0.2348k external	0.2348temperature offset calibration	1.0018default loss term (dB/km)	0.3790temperature slope calibration	1.0000multiplexer offset coefficient	1.0000multiplexer slope coefficient	1.0000fibre end	0.00T internal ref (°C)	24.53T ext. ref 1 (°C)	0.80T ext. ref 2 (°C)	18.29length (m)	temperature (°C)	Stokes	anti-Stokes-747.200	-200.000	-0.016	0.249
-746.185	-200.000	0.020	0.301
-745.171	195.251	-0.125	-0.190
-744.156	-23.866	0.135	0.081
-743.142	-92.506	0.319	0.090
-742.127	-11.522	0.245	0.161
-741.112	189.137	0.164	-0.246
-740.098	417.200	-0.045	-0.096
-739.083	76.547	-0.035	0.037
-738.069	252.217	0.063	0.107
-737.054	-200.000	-0.004	0.243
-736.039	44.949	-0.315	-0.290
-735.025	-115.969	-0.247	-0.046
-734.010	-200.000	-0.031	0.163
-732.996	240.570	-0.162	0.270
-731.981	-200.000	0.221	-0.000
-730.966	-130.370	-0.110	0.015
-729.952	-200.000	-0.071	-0.465
-728.937	15.214	-0.090	-0.070
-727.923	201.489	0.058	0.089
-726.908	-179.466	-0.286	-0.006
-725.894	-129.176	-0.124	-0.017
-724.879	-200.000	-0.013	0.096
-723.864	-6.639	0.231	0.157
-722.850	314.118	-0.144	-0.271
-721.835	548.189	0.024	-0.056
-720.821	-141.512	0.101	0.010
-719.806	187.345	0.194	0.289
-718.791	-62.673	0.510	0.211
-717.777	-54.956	0.095	-0.043
-716.762	53.117	-0.168	0.160
-715.748	-163.189	-0.286	0.014
-714.733	-132.942	-0.345	0.044
-713.718	-47.211	0.362	-0.176
-712.704	-94.049	0.108	0.030
-711.689	239.221	-0.165	0.274
-710.675	-43.259	-0.231	-0.117
-709.660	368.080	-0.038	-0.076
-708.645	107.536	-0.150	-0.178
-707.631	-5.152	0.399	0.274
-706.616	42.800	-0.262	-0.238
-705.602	-95.067	-0.453	-0.122
-704.587	-200.000	-0.066	0.426
-703.572	103.316	0.100	0.118
-702.558	-200.000	-0.462	0.000
-701.543	64.630	0.197	0.198
-700.529	255.726	-0.251	0.430
-699.514	800.000	-0.111	-0.314
-698.499	110.571	-0.171	0.205
-697.485	-161.935	0.139	0.007
-696.470	60.060	-0.125	0.123
-695.456	800.000	0.044	-0.145
-694.441	-79.746	0.190	0.064
-693.426	-152.623	-0.103	0.007
-692.412	131.721	-0.162	-0.208
-691.397	-10.987	-0.305	-0.201
-690.383	79.136	-0.343	0.367
-689.368	89.525	-0.213	-0.237
-688.354	-6.980	-0.116	0.079
-687.339	-125.990	0.284	-0.043
-686.324	-20.629	0.316	0.194
-685.310	-200.000	-0.000	-0.129
-684.295	189.600	-0.200	-0.299
-683.281	-53.923	-0.252	-0.115
-682.266	-50.692	0.162	0.076
-681.251	0.421	0.130	-0.092
-680.237	45.834	0.076	-0.070
-679.222	488.183	0.049	-0.111
-678.208	-91.943	-0.093	0.026
-677.193	-56.923	-0.422	-0.186
-676.178	68.942	-0.159	-0.163
-675.164	-162.371	0.244	0.012
-674.149	137.123	0.076	0.099
-673.135	666.752	0.105	-0.270
-672.120	-39.137	-0.102	-0.054
-671.105	800.000	-0.096	-0.286
-670.091	635.376	-0.150	-0.380
-669.076	-65.700	-0.247	-0.099
-668.062	786.009	-0.077	0.210
-667.047	23.836	0.153	0.125
-666.032	287.453	-0.127	-0.229
-665.018	177.616	0.131	0.191
-664.003	-65.796	-0.166	-0.066
-662.989	-26.043	0.290	0.170
-661.974	-200.000	-0.002	0.031
-660.959	-3.622	-0.111	0.077
-659.945	-200.000	0.330	-0.000
-658.930	-64.322	-0.304	-0.123
-657.916	-200.000	0.045	-0.296
-656.901	212.866	-0.148	-0.232
-655.886	-31.701	0.169	-0.095
-654.872	111.147	-0.074	-0.089
-653.857	-200.000	0.022	-0.169
-652.843	-200.000	0.007	0.266
-651.828	210.579	0.051	-0.079
-650.814	-138.960	-0.362	0.039
-649.799	800.000	0.041	-0.135
-648.784	-200.000	0.030	0.544
-647.770	-118.031	-0.447	0.080
-646.755	27.432	0.241	-0.202
-645.741	-42.281	0.019	0.010
-644.726	800.000	0.028	-0.091
-643.711	31.332	-0.158	-0.135
-642.697	73.554	0.144	0.150
-641.682	800.000	0.136	0.384
-640.668	-96.575	-0.148	-0.039
-639.653	800.000	0.059	0.173
-638.638	196.503	0.080	-0.121
-637.624	-146.726	0.205	0.018
-636.609	-200.000	-0.008	0.040
-635.595	800.000	0.106	-0.302
-634.580	18.913	0.266	-0.212
-633.565	800.000	0.069	0.219
-632.551	298.522	0.194	-0.355
-631.536	363.202	-0.149	-0.298
-630.522	116.777	-0.253	-0.308
-629.507	-200.000	0.098	0.468
-628.492	141.953	0.173	0.228
-627.478	800.000	0.107	0.307
-626.463	-124.105	0.072	-0.011
-625.449	-200.000	0.004	0.233
-624.434	88.569	0.317	-0.351
-623.419	800.000	0.054	-0.220
-622.405	-30.342	0.098	0.055
-621.390	800.000	0.129	0.481
-620.376	-156.468	0.064	-0.004
-619.361	510.376	-0.160	0.371
-618.346	-101.426	0.052	0.013
-617.332	248.549	-0.097	-0.163
-616.317	137.071	-0.114	-0.149
-615.303	23.102	-0.073	-0.060
-614.288	230.356	0.098	0.160
-613.273	154.933	-0.167	-0.228
-612.259	-65.392	0.355	-0.142
-611.244	15.236	-0.120	-0.093
-610.230	-90.201	0.127	-0.037
-609.215	-87.436	0.275	0.083
-608.201	85.719	-0.101	-0.110
-607.186	-128.128	-0.087	0.012
-606.171	-103.182	-0.250	0.059
-605.157	-117.623	0.018	0.003
-604.142	-81.886	0.187	-0.061
-603.128	800.000	0.019	-0.078
-602.113	-117.441	-0.131	0.024
-601.098	-101.261	0.032	-0.008
-600.084	65.577	0.169	0.170
-599.069	-96.828	0.144	0.038
-598.055	-200.000	0.027	0.165
-597.040	200.760	0.097	0.148
-596.025	3.629	-0.210	-0.152
-595.011	-200.000	0.060	-0.274
-593.996	-147.938	-0.109	-0.009
-592.982	-200.000	-0.012	-0.111
-591.967	-200.000	0.001	-0.195
-590.952	-142.966	-0.191	0.018
-589.938	699.492	-0.057	0.150
-588.923	800.000	0.015	-0.047
-587.909	-200.000	-0.030	0.312
-586.894	246.106	0.202	-0.338
-585.879	-134.396	0.261	-0.032
-584.865	-66.768	-0.133	-0.052
-583.850	800.000	0.105	0.313
-582.836	5.890	-0.043	0.031
-581.821	-122.818	-0.154	0.025
-580.806	24.338	-0.101	-0.083
-579.792	-95.579	-0.254	-0.068
-578.777	-68.317	-0.227	-0.088
-577.763	83.260	-0.183	0.197
-576.748	800.000	-0.070	-0.217
-575.733	800.000	0.020	-0.061
-574.719	-92.467	-0.297	-0.083
-573.704	67.470	0.136	-0.138
-572.690	123.611	0.194	0.242
-571.675	266.722	0.105	-0.182
-570.661	93.196	-0.175	0.196
-569.646	-65.448	-0.214	-0.085
-568.631	63.179	0.205	0.204
-567.617	-55.993	0.060	-0.026
-566.602	71.539	0.104	0.107
-565.588	-200.000	0.013	-0.085
-564.573	508.262	0.078	-0.181
-563.558	-200.000	0.016	-0.332
-562.544	-144.775	0.450	-0.041
-561.529	-59.064	-0.088	-0.038
-560.515	-78.836	-0.082	-0.028
-559.500	-164.664	0.342	0.015
-558.485	492.307	0.018	0.041
-557.471	-5.496	-0.293	-0.199
-556.456	-59.719	0.101	0.043
-555.442	54.675	0.105	-0.101
-554.427	298.756	0.060	0.110
-553.412	226.920	-0.134	-0.216
-552.398	16.634	0.048	0.038
-551.383	114.591	0.066	-0.079
-550.369	-200.000	-0.019	-0.270
-549.354	15.742	0.175	-0.137
-548.339	800.000	-0.069	0.233
-547.325	-200.000	0.046	-0.242
-546.310	-200.000	-0.017	0.113
-545.296	158.843	-0.152	0.209
-544.281	9.281	0.289	0.216
-543.266	-20.738	0.092	0.056
-542.252	-0.232	0.266	0.187
-541.237	-200.000	-0.001	0.023
-540.223	83.560	-0.155	-0.168
-539.208	-85.458	0.191	-0.059
-538.193	129.250	0.175	0.221
-537.179	-139.797	-0.238	-0.025
-536.164	81.237	-0.270	-0.289
-535.150	-129.599	-0.192	-0.026
-534.135	-150.258	0.333	0.026
-533.121	-139.416	-0.262	0.028
-532.106	-139.936	-0.063	-0.007
-531.091	-124.971	-0.037	0.006
-530.077	-200.000	-0.006	-0.140
-529.062	42.126	-0.138	-0.124
-528.048	12.056	-0.225	-0.172
-527.033	114.267	-0.281	-0.339
-526.018	-44.987	0.197	-0.097
-525.004	158.972	0.137	0.189
-523.989	625.480	0.172	-0.430
-522.975	19.392	-0.065	0.052
-521.960	618.068	0.113	-0.280
-520.945	8.129	-0.073	0.054
-519.931	413.030	-0.111	0.234
-518.916	-54.956	-0.062	0.028
-517.902	-87.956	-0.150	0.045
-516.887	-36.173	0.113	-0.061
-515.872	-117.166	-0.022	-0.004
-514.858	800.000	0.037	0.142
-513.843	124.846	0.143	0.179
-512.829	-75.306	-0.204	-0.072
-511.814	-39.803	-0.204	-0.105
-510.799	-115.595	0.449	-0.084
-509.785	552.425	0.007	0.016
-508.770	800.000	0.063	0.260
-507.756	34.330	-0.100	0.087
-506.741	-137.158	0.160	-0.018
-505.726	-21.009	0.074	-0.045
-504.712	-56.475	-0.392	0.172
-503.697	-200.000	-0.005	0.112
-502.683	226.898	0.158	-0.253
-501.668	34.699	0.135	-0.116
-500.653	-200.000	-0.007	0.068
-499.639	17.662	-0.129	0.102
-498.624	-200.000	-0.028	0.212
-497.610	-200.000	0.010	-0.181
-496.595	-200.000	-0.065	-0.384
-495.581	219.249	0.179	0.283
-494.566	282.207	0.020	-0.035
-493.551	-148.258	-0.196	0.016
-492.537	-14.612	0.034	-0.021
-491.522	198.048	-0.180	0.272
-490.508	-62.995	0.048	-0.020
-489.493	800.000	-0.092	-0.268
-488.478	-200.000	0.007	-0.075
-487.464	-200.000	-0.002	0.031
-486.449	193.335	0.055	-0.083
-485.435	-200.000	-0.029	0.228
-484.420	-71.730	0.281	-0.104
-483.405	-104.092	-0.184	0.042
-482.391	179.850	-0.054	-0.078
-481.376	418.213	-0.071	-0.151
-480.362	4.956	0.239	-0.174
-479.347	-93.194	-0.072	0.020
-478.332	311.346	0.131	0.242
-477.318	-93.784	0.262	0.071
-476.303	433.980	-0.105	-0.225
-475.289	334.412	0.125	0.239
-474.274	800.000	0.056	0.187
-473.259	370.584	0.126	-0.252
-472.245	105.289	-0.144	-0.169
-471.230	-200.000	-0.001	0.133
-470.216	-200.000	-0.044	0.227
-469.201	-56.076	0.093	0.041
-468.186	-1.767	-0.414	0.288
-467.172	13.193	0.136	-0.104
-466.157	-75.234	0.098	0.035
-465.143	-167.442	-0.224	0.009
-464.128	-200.000	0.008	-0.257
-463.113	-200.000	-0.005	0.150
-462.099	-163.375	0.377	-0.018
-461.084	42.652	-0.115	-0.103
-460.070	-200.000	0.017	0.119
-459.055	-111.089	0.225	-0.046
-458.040	-100.556	-0.221	0.054
-457.026	20.014	0.130	-0.104
-456.011	-26.859	0.205	0.118
-454.997	-92.301	0.316	-0.088
-453.982	24.811	0.180	-0.147
-452.968	81.824	-0.126	0.134
-451.953	-17.254	0.146	0.091
-450.938	-200.000	0.012	-0.105
-449.924	-115.198	-0.080	0.015
-448.909	22.067	-0.241	0.194
-447.895	206.811	0.087	-0.134
-446.880	-65.326	0.094	0.037
-445.865	-107.661	-0.269	0.058
-444.851	-200.000	0.111	0.569
-443.836	-128.182	-0.166	-0.023
-442.822	-200.000	-0.047	0.233
-441.807	-21.974	0.253	0.152
-440.792	-144.218	-0.044	-0.004
-439.778	5.058	-0.028	-0.021
-438.763	-128.654	-0.459	0.064
-437.749	-200.000	-0.021	-0.122
-436.734	80.393	0.076	0.081
-435.719	127.285	0.023	0.029
-434.705	-122.878	-0.366	-0.058
-433.690	-11.699	-0.246	0.160
-432.676	-200.000	-0.003	0.031
-431.661	-151.505	-0.042	-0.003
-430.646	-101.499	0.421	-0.101
-429.632	800.000	0.021	0.073
-428.617	-42.630	-0.413	-0.207
-427.603	800.000	-0.008	-0.033
-426.588	-200.000	0.011	0.107
-425.573	-200.000	0.014	-0.068
-424.559	-35.520	0.340	0.182
-423.544	197.305	0.009	0.014
-422.530	-126.642	0.073	-0.011
-421.515	92.776	0.082	0.091
-420.500	-148.079	-0.158	-0.013
-419.486	58.419	-0.116	-0.113
-418.471	3.745	-0.182	0.131
-417.457	67.778	-0.274	0.276
-416.442	-200.000	-0.001	0.098
-415.428	800.000	0.074	-0.289
-414.413	-200.000	0.016	0.197
-413.398	800.000	-0.046	0.134
-412.384	-18.819	-0.303	0.186
-411.369	52.965	0.148	0.140
-410.355	-156.200	0.167	0.010
-409.340	131.850	0.150	0.190
-408.325	800.000	0.109	-0.369
-407.311	800.000	0.139	0.423
-406.296	-200.000	0.009	-0.126
-405.282	-200.000	0.269	0.001
-404.267	610.652	0.046	-0.113
-403.252	-113.801	-0.171	-0.033
-402.238	189.642	-0.242	-0.359
-401.223	800.000	0.058	0.191
-400.209	63.933	-0.092	-0.092
-399.194	77.032	0.176	0.184
-398.179	-147.849	0.212	-0.017
-397.165	142.097	-0.247	0.323
-396.150	149.144	0.147	-0.196
-395.136	409.142	-0.065	0.135
-394.121	125.210	-0.091	-0.113
-393.106	-33.305	-0.082	-0.045
-392.092	-75.476	0.145	-0.051
-391.077	-17.965	-0.307	0.190
-390.063	210.022	-0.090	0.140
-389.048	88.374	-0.190	0.208
-388.033	27.039	-0.223	-0.185
-387.019	75.659	0.170	0.177
-386.004	-106.409	-0.137	0.030
-384.990	-74.266	-0.486	0.173
-383.975	-87.738	0.321	-0.095
-382.960	-67.704	0.172	0.066
-381.946	-143.113	-0.295	0.028
-380.931	25.422	-0.038	-0.031
-379.917	766.414	-0.083	0.223
-378.902	-158.964	0.118	-0.007
-377.888	27.668	-0.236	0.196
-376.873	-91.867	0.065	0.018
-375.858	-200.000	0.007	0.180
-374.844	533.498	-0.061	0.143
-373.829	487.252	-0.085	-0.190
-372.815	-10.542	-0.228	-0.149
-371.800	800.000	-0.180	0.610
-370.785	42.729	0.141	-0.126
-369.771	-11.037	0.004	0.003
-368.756	81.806	-0.175	-0.186
-367.742	-35.504	0.263	0.141
-366.727	166.437	-0.248	-0.345
-365.712	33.203	-0.055	0.047
-364.698	800.000	-0.032	-0.092
-363.683	502.516	-0.042	-0.096
-362.669	647.017	-0.122	-0.308
-361.654	530.633	-0.128	-0.297
-360.639	162.466	-0.183	0.253
-359.625	-93.345	-0.079	0.022
-358.610	602.685	0.140	0.343
-357.596	-51.365	0.224	0.103
-356.581	-200.000	-0.070	-0.328
-355.566	-25.404	-0.475	0.276
-354.552	-181.101	-0.411	0.008
-353.537	-47.585	0.234	-0.112
-352.523	800.000	0.104	-0.325
-351.508	159.317	0.094	-0.129
-350.493	525.088	-0.114	-0.265
-349.479	-55.928	0.095	-0.042
-348.464	-1.268	-0.102	-0.071
-347.450	-70.416	-0.207	0.077
-346.435	3.406	0.258	-0.185
-345.420	-26.770	-0.117	0.067
-344.406	-200.000	-0.078	0.450
-343.391	372.396	0.085	0.169
-342.377	109.562	0.071	0.084
-341.362	92.906	-0.074	-0.082
-340.348	-46.150	-0.144	-0.070
-339.333	-60.877	0.276	0.115
-338.318	-50.056	0.286	0.133
-337.304	680.825	-0.046	-0.117
-336.289	-200.000	0.009	0.234
-335.275	-8.385	0.247	0.163
-334.260	800.000	-0.036	0.107
-333.245	-71.110	0.140	-0.052
-332.231	-77.339	-0.118	-0.040
-331.216	-200.000	-0.023	0.147
-330.202	45.191	0.142	-0.129
-329.187	800.000	-0.129	-0.389
-328.172	131.965	0.087	0.110
-327.158	-200.000	-0.096	0.438
-326.143	174.353	0.112	0.160
-325.129	-200.000	-0.028	0.335
-324.114	-50.342	0.131	0.061
-323.099	-200.000	-0.023	-0.310
-322.085	800.000	0.040	0.118
-321.070	-83.574	0.395	-0.124
-320.056	117.557	0.066	0.080
-319.041	-58.122	-0.231	-0.099
-318.026	155.369	-0.167	-0.226
-317.012	150.375	0.236	-0.315
-315.997	-31.685	-0.164	-0.090
-314.983	115.611	0.291	-0.350
-313.968	161.880	0.166	-0.228
-312.953	-200.000	0.079	-0.355
-311.939	80.829	-0.189	-0.200
-310.924	-200.000	0.015	-0.210
-309.910	218.702	-0.068	0.107
-308.895	-89.794	0.075	-0.022
-307.880	168.844	-0.093	0.130
-306.866	91.162	-0.164	0.181
-305.851	179.400	-0.147	-0.211
-304.837	-153.774	0.092	0.006
-303.822	-123.707	0.213	-0.033
-302.807	-200.000	0.028	0.129
-301.793	413.066	0.067	-0.140
-300.778	419.905	0.083	-0.175
-299.764	56.295	0.272	-0.259
-298.749	387.592	-0.196	0.397
-297.735	236.878	-0.125	-0.203
-296.720	-76.263	-0.291	-0.101
-295.705	-200.000	-0.022	0.339
-294.691	-139.599	0.212	-0.022
-293.676	157.930	-0.089	-0.121
-292.662	-200.000	0.011	0.216
-291.647	0.723	0.228	-0.160
-290.632	31.819	0.151	0.128
-289.618	-200.000	0.033	0.228
-288.603	245.180	0.159	0.263
-287.589	800.000	-0.102	-0.405
-286.574	800.000	0.055	-0.182
-285.559	-63.796	-0.207	0.083
-284.545	-50.988	-0.178	0.082
-283.530	46.082	-0.314	-0.286
-282.516	-72.347	0.173	0.063
-281.501	-99.235	-0.130	-0.032
-280.486	63.796	-0.122	-0.120
-279.472	-200.000	-0.054	-0.365
-278.457	-50.141	-0.154	-0.071
-277.443	90.347	0.088	-0.097
-276.428	262.061	-0.033	-0.057
-275.413	-93.795	-0.170	0.046
-274.399	53.475	0.091	-0.085
-273.384	-44.467	-0.040	0.020
-272.370	25.595	-0.172	0.141
-271.355	-184.100	0.267	0.004
-270.340	-76.114	0.159	0.055
-269.326	-71.936	-0.224	-0.082
-268.311	800.000	-0.121	0.328
-267.297	433.854	-0.070	-0.149
-266.282	604.111	-0.078	-0.191
-265.267	-41.266	0.301	-0.152
-264.253	-100.173	-0.256	-0.063
-263.238	282.990	0.119	-0.209
-262.224	-112.002	-0.364	0.072
-261.209	-13.552	0.371	-0.236
-260.195	-153.439	-0.214	-0.015
-259.180	-16.552	0.274	0.170
-258.165	591.269	-0.093	-0.224
-257.151	674.828	-0.057	-0.146
-256.136	14.095	0.190	0.145
-255.122	-200.000	-0.053	-0.363
-254.107	87.773	0.337	-0.367
-253.092	227.260	0.109	0.173
-252.078	-200.000	-0.031	0.205
-251.063	-200.000	0.036	0.545
-250.049	-3.662	-0.063	-0.043
-249.034	800.000	0.091	0.358
-248.019	409.244	0.019	-0.040
-247.005	-69.125	-0.125	0.047
-245.990	-5.840	0.246	-0.165
-244.976	508.309	-0.056	0.128
-243.961	-200.000	0.006	0.190
-242.946	89.888	0.200	0.219
-241.932	96.754	-0.073	0.082
-240.917	261.620	0.054	0.091
-239.903	-144.460	0.355	-0.032
-238.888	1.556	-0.085	0.060
-237.873	-174.618	-0.129	-0.004
-236.859	34.021	0.067	-0.057
-235.844	-128.241	-0.080	0.011
-234.830	-148.229	0.107	0.009
-233.815	47.636	-0.153	0.140
-232.800	-141.145	-0.130	0.013
-231.786	-55.029	0.303	0.134
-230.771	-22.547	-0.372	0.220
-229.757	-129.482	0.123	-0.017
-228.742	112.275	0.100	-0.119
-227.727	-190.416	0.324	-0.003
-226.713	-98.674	0.107	-0.027
-225.698	-97.441	-0.333	0.085
-224.684	-16.117	0.208	-0.129
-223.669	-103.562	-0.204	0.047
-222.655	165.828	-0.141	-0.195
-221.640	63.801	0.225	0.221
-220.625	-200.000	0.019	-0.177
-219.611	-11.178	-0.131	0.084
-218.596	-71.038	-0.328	-0.121
-217.582	53.794	0.078	0.074
-216.567	-200.000	0.038	0.290
-215.552	153.834	-0.047	-0.063
-214.538	156.991	-0.166	0.225
-213.523	232.624	0.277	-0.445
-212.509	149.062	-0.077	0.102
-211.494	-200.000	-0.021	-0.296
-210.479	-65.070	-0.096	-0.038
-209.465	-200.000	0.016	-0.222
-208.450	-60.450	0.289	-0.120
-207.436	-104.478	-0.087	0.020
-206.421	71.819	0.239	0.243
-205.406	59.883	-0.240	-0.232
-204.392	800.000	-0.043	0.148
-203.377	-116.740	0.291	0.052
-202.363	800.000	-0.037	-0.139
-201.348	-200.000	-0.012	-0.155
-200.333	18.877	0.394	-0.309
-199.319	800.000	0.073	-0.227
-198.304	-200.000	-0.038	0.262
-197.290	41.757	-0.149	0.132
-196.275	-18.711	0.065	-0.040
-195.260	93.112	-0.114	0.126
-194.246	-83.351	-0.314	0.099
-193.231	168.512	-0.143	0.199
-192.217	-192.728	0.060	-0.001
-191.202	531.357	0.059	0.136
-190.187	-200.000	0.030	-0.136
-189.173	18.126	-0.259	0.202
-188.158	71.518	0.145	0.147
-187.144	107.737	0.187	-0.218
-186.129	800.000	-0.104	0.409
-185.114	800.000	0.098	-0.298
-184.100	800.000	0.129	0.527
-183.085	633.489	0.024	-0.058
-182.071	-109.023	-0.432	0.090
-181.056	1.244	-0.251	0.176
-180.042	-200.000	-0.035	0.179
-179.027	-139.035	0.228	-0.024
-178.012	394.764	-0.115	0.235
-176.998	-11.590	0.175	-0.112
-175.983	58.373	-0.069	0.066
-174.969	-30.389	0.230	0.128
-173.954	1.668	-0.075	-0.053
-172.939	-60.844	-0.132	0.054
-171.925	-39.638	0.084	-0.043
-170.910	59.514	-0.239	0.230
-169.896	-200.000	-0.017	-0.307
-168.881	800.000	-0.058	-0.185
-167.866	-200.000	-0.021	-0.122
-166.852	-84.788	-0.151	-0.047
-165.837	-200.000	-0.041	-0.325
-164.823	-57.898	0.229	-0.098
-163.808	-83.764	0.181	-0.056
-162.793	5.876	-0.287	0.208
-161.779	-200.000	0.015	0.093
-160.764	442.325	-0.246	-0.527
-159.750	612.224	-0.034	0.082
-158.735	-200.000	-0.091	-0.439
-157.720	13.097	-0.251	-0.190
-156.706	-122.320	-0.117	-0.019
-155.691	800.000	-0.092	0.265
-154.677	-9.978	0.373	-0.242
-153.662	-200.000	0.011	0.374
-152.647	41.812	0.232	-0.205
-151.633	-135.920	0.428	0.049
-150.618	-25.197	-0.180	-0.104
-149.604	-161.581	-0.289	0.014
-148.589	-74.886	0.378	-0.132
-147.574	-99.498	0.226	-0.055
-146.560	-67.671	0.207	-0.079
-145.545	265.158	0.051	-0.087
-144.531	142.644	0.089	0.116
-143.516	-138.877	0.138	0.015
-142.502	800.000	-0.121	0.419
-141.487	-42.272	0.056	-0.028
-140.472	427.324	-0.097	0.205
-139.458	281.897	-0.122	0.213
-138.443	652.533	-0.041	-0.104
-137.429	679.113	0.057	0.144
-136.414	-200.000	0.014	0.335
-135.399	186.023	0.211	0.306
-134.385	183.603	-0.156	-0.225
-133.370	71.232	0.149	0.150
-132.356	43.866	0.057	0.051
-131.341	-38.064	0.045	-0.023
-130.326	-200.000	0.022	-0.118
-129.312	-200.000	0.001	0.301
-128.297	-67.265	0.118	0.045
-127.283	36.587	0.119	0.102
-126.268	-200.000	-0.005	0.332
-125.253	17.993	-0.085	0.066
-124.239	-200.000	-0.049	-0.290
-123.224	-99.157	0.146	-0.036
-122.210	-11.861	0.232	0.149
-121.195	-200.000	-0.015	-0.075
