DTS Sentinel unit serial number:	SN413079Multiplexer serial number:	ORYXHardware model number:	OX4-SRSoftware version number:	ORYX F/W v4.00 Oryx Data Collector v3.7.2.0data status	okinstallation	princeton_trtdifferential loss correction	single-endedforward channel	channel 2reverse channel	N/Adate	2019/09/14time	13:27:35forward acquisition time	60.00reverse acquisition time	0.00gamma	496.2192k internal	0.2305k external	0.2305temperature offset calibration	1.0154default loss term (dB/km)	0.3790temperature slope calibration	1.0000multiplexer offset coefficient	1.0000multiplexer slope coefficient	1.0000fibre end	0.00T internal ref (°C)	37.94T ext. ref 1 (°C)	4.91T ext. ref 2 (°C)	33.51length (m)	temperature (°C)	Stokes	anti-Stokes-747.200	-69.673	0.282	0.110
-746.185	-60.448	-0.599	0.259
-745.171	-2.780	-0.185	0.131
-744.156	-63.150	-0.170	-0.072
-743.142	88.844	0.309	-0.350
-742.127	800.000	-0.080	0.343
-741.112	446.268	-0.063	0.140
-740.098	203.891	-0.031	-0.049
-739.083	-200.000	0.065	-0.364
-738.069	-0.908	-0.163	0.117
-737.054	393.326	-0.115	0.243
-736.039	77.762	0.222	0.241
-735.025	-135.694	-0.122	-0.015
-734.010	195.639	-0.130	0.202
-732.996	800.000	0.097	-0.432
-731.981	-73.476	-0.157	-0.058
-730.966	13.278	0.197	-0.155
-729.952	-112.417	-0.308	-0.063
-728.937	35.631	-0.130	-0.116
-727.923	800.000	0.134	-0.568
-726.908	-56.643	-0.270	0.122
-725.894	-86.197	-0.494	0.155
-724.879	-200.000	0.022	-0.119
-723.864	-200.000	-0.007	-0.169
-722.850	-200.000	-0.002	-0.227
-721.835	96.528	0.085	-0.098
-720.821	-46.919	0.154	0.077
-719.806	189.434	-0.156	-0.238
-718.791	800.000	0.069	-0.254
-717.777	0.410	0.102	-0.074
-716.762	9.859	-0.288	-0.222
-715.748	-200.000	0.020	0.244
-714.733	-200.000	0.001	0.158
-713.718	144.921	0.080	0.109
-712.704	-96.684	0.505	-0.135
-711.689	494.398	-0.078	-0.181
-710.675	-41.266	0.144	0.075
-709.660	-96.966	-0.354	0.094
-708.645	-48.735	-0.096	-0.047
-707.631	76.613	-0.058	0.063
-706.616	350.430	-0.097	-0.196
-705.602	800.000	0.156	-0.457
-704.587	-5.134	-0.151	-0.106
-703.572	800.000	-0.026	-0.105
-702.558	368.688	-0.021	0.044
-701.543	-127.929	0.186	0.027
-700.529	-49.127	0.118	0.057
-699.514	-200.000	0.036	-0.249
-698.499	96.083	-0.336	-0.390
-697.485	630.876	0.148	-0.382
-696.470	-50.435	0.116	-0.056
-695.456	-144.357	-0.101	0.010
-694.441	800.000	-0.022	-0.061
-693.426	-104.175	0.033	-0.008
-692.412	800.000	0.134	-0.393
-691.397	116.270	-0.099	0.123
-690.383	-192.083	0.312	-0.003
-689.368	-127.066	-0.155	-0.023
-688.354	-200.000	0.005	-0.241
-687.339	156.920	-0.115	0.162
-686.324	800.000	0.063	0.238
-685.310	-80.684	-0.249	-0.084
-684.295	-24.867	-0.128	-0.077
-683.281	-64.702	-0.038	0.016
-682.266	-200.000	0.007	-0.274
-681.251	-200.000	-0.004	0.049
-680.237	-200.000	-0.012	-0.088
-679.222	-116.569	0.376	0.070
-678.208	-0.711	-0.159	-0.114
-677.193	410.177	-0.058	-0.125
-676.178	-200.000	-0.027	0.229
-675.164	143.224	-0.092	-0.124
-674.149	317.116	0.179	0.343
-673.135	-28.252	0.164	0.096
-672.120	-149.341	0.109	-0.009
-671.105	-75.763	-0.080	-0.029
-670.091	-81.589	0.204	-0.068
-669.076	-200.000	-0.012	-0.139
-668.062	211.894	0.023	-0.037
-667.047	45.333	-0.194	0.181
-666.032	-173.864	0.275	-0.008
-665.018	154.081	0.094	-0.130
-664.003	33.363	-0.070	-0.061
-662.989	-29.934	-0.153	-0.088
-661.974	-27.285	-0.249	0.147
-660.959	-45.447	-0.396	0.199
-659.945	-74.056	-0.228	0.084
-658.930	-200.000	0.005	-0.132
-657.916	17.098	0.116	0.093
-656.901	-200.000	0.019	0.201
-655.886	-200.000	-0.012	-0.382
-654.872	-58.001	-0.533	0.236
-653.857	78.954	-0.195	0.212
-652.843	-200.000	0.026	-0.162
-651.828	-13.218	-0.146	-0.096
-650.814	111.589	-0.158	-0.194
-649.799	-200.000	0.021	-0.188
-648.784	0.971	0.198	-0.144
-647.770	-3.436	0.021	-0.014
-646.755	-34.291	0.073	0.040
-645.741	-145.601	-0.223	0.020
-644.726	-95.870	0.392	-0.106
-643.711	39.685	-0.027	0.024
-642.697	-51.749	-0.142	-0.067
-641.682	142.805	0.198	-0.267
-640.668	36.957	0.183	0.164
-639.653	800.000	-0.052	-0.215
-638.638	-80.183	-0.148	-0.050
-637.624	-84.728	-0.063	0.020
-636.609	-200.000	0.030	-0.185
-635.595	249.118	0.247	-0.425
-634.580	-4.442	0.100	-0.070
-633.565	800.000	0.057	0.161
-632.551	-133.038	-0.291	0.037
-631.536	245.479	-0.162	-0.276
-630.522	-36.746	-0.223	-0.121
-629.507	798.352	-0.084	-0.234
-628.492	-48.802	0.180	0.087
-627.478	-87.645	0.169	-0.052
-626.463	-8.103	-0.180	-0.123
-625.449	-117.800	0.178	0.032
-624.434	800.000	0.038	-0.130
-623.419	-200.000	0.026	-0.142
-622.405	282.836	-0.139	-0.253
-621.390	87.572	-0.041	-0.046
-620.376	160.283	-0.071	-0.100
-619.361	6.550	-0.228	-0.172
-618.346	-200.000	0.016	0.192
-617.332	-100.860	0.334	0.083
-616.317	800.000	0.062	0.207
-615.303	50.348	-0.149	-0.142
-614.288	-24.609	0.212	-0.128
-613.273	452.660	0.084	-0.189
-612.259	-68.373	0.240	-0.095
-611.244	-135.617	0.261	0.031
-610.230	276.276	0.132	0.238
-609.215	-89.493	0.298	-0.089
-608.201	800.000	0.042	0.154
-607.186	580.979	-0.100	-0.248
-606.171	-126.894	-0.206	-0.031
-605.157	-200.000	-0.039	0.188
-604.142	37.810	-0.275	-0.247
-603.128	-59.443	0.186	-0.081
-602.113	-66.708	0.077	0.031
-601.098	-158.466	-0.193	0.011
-600.084	656.772	-0.107	0.278
-599.069	800.000	-0.079	-0.301
-598.055	-200.000	0.005	-0.343
-597.040	-125.377	-0.145	-0.022
-596.025	74.441	-0.209	0.222
-595.011	-200.000	0.041	0.193
-593.996	-52.131	0.184	0.087
-592.982	-110.657	0.346	0.072
-591.967	8.212	-0.331	-0.252
-590.952	622.645	0.034	-0.087
-589.938	-200.000	-0.010	-0.208
-588.923	-110.021	-0.255	-0.054
-587.909	-96.472	0.132	0.035
-586.894	-139.515	-0.138	0.015
-585.879	800.000	0.101	0.281
-584.865	-200.000	-0.008	-0.111
-583.850	-200.000	0.001	-0.058
-582.836	-51.907	0.248	-0.117
-581.821	800.000	-0.039	-0.116
-580.806	276.506	0.148	-0.266
-579.792	-200.000	-0.094	-0.450
-578.777	168.565	-0.196	-0.283
-577.763	465.078	-0.070	0.158
-576.748	377.530	-0.069	0.143
-575.733	148.191	0.172	0.235
-574.719	46.763	0.185	0.174
-573.704	342.770	0.082	-0.162
-572.690	-132.205	-0.137	0.018
-571.675	-200.000	0.031	-0.617
-570.661	-34.210	0.086	-0.048
-569.646	-42.562	-0.103	-0.053
-568.631	102.129	0.104	0.122
-567.617	-160.310	0.211	-0.011
-566.602	-200.000	-0.025	0.153
-565.588	105.822	0.085	-0.102
-564.573	-200.000	0.163	0.001
-563.558	-156.185	-0.078	0.005
-562.544	-109.762	-0.161	0.034
-561.529	800.000	0.011	-0.038
-560.515	748.019	0.023	-0.063
-559.500	610.169	-0.042	0.107
-558.485	-27.152	0.112	-0.066
-557.471	124.741	-0.189	-0.241
-556.456	-97.931	0.100	-0.026
-555.442	313.020	-0.102	-0.193
-554.427	-69.635	0.233	0.090
-553.412	-200.000	-0.017	0.089
-552.398	800.000	-0.043	0.139
-551.383	177.122	-0.140	-0.206
-550.369	27.384	-0.259	0.220
-549.354	-72.678	0.401	0.149
-548.339	800.000	-0.099	0.302
-547.325	-77.675	0.480	-0.168
-546.310	-31.197	0.130	0.074
-545.296	-157.820	0.266	0.016
-544.281	2.107	0.136	-0.099
-543.266	-81.333	0.141	0.047
-542.252	104.527	-0.108	-0.129
-541.237	-105.045	-0.156	-0.036
-540.223	800.000	0.097	-0.421
-539.208	-25.176	-0.124	-0.074
-538.193	-129.203	0.169	0.024
-537.179	-53.111	-0.196	0.091
-536.164	-200.000	0.070	0.428
-535.150	54.230	-0.112	0.108
-534.135	-200.000	0.018	0.179
-533.121	140.691	0.204	0.273
-532.106	356.137	-0.088	0.176
-531.091	-28.969	0.132	0.076
-530.077	1.920	-0.331	0.241
-529.062	-74.923	0.161	0.058
-528.048	-84.305	0.260	0.083
-527.033	-34.409	-0.353	-0.196
-526.018	165.339	0.101	-0.144
-525.004	186.423	0.159	-0.239
-523.989	-114.310	0.232	-0.045
-522.975	800.000	-0.055	0.176
-521.960	-142.837	-0.193	0.019
-520.945	193.744	-0.092	-0.140
-519.931	-55.750	0.289	-0.130
-518.916	89.963	0.158	-0.178
-517.902	800.000	0.115	-0.412
-516.887	-200.000	-0.020	0.208
-515.872	-80.820	-0.145	0.048
-514.858	-200.000	-0.003	0.108
-513.843	-196.609	-0.122	-0.001
-512.829	-170.835	0.161	0.006
-511.814	-90.234	0.262	-0.077
-510.799	-90.096	0.131	-0.038
-509.785	800.000	0.034	-0.121
-508.770	-200.000	0.001	0.097
-507.756	37.702	0.085	-0.076
-506.741	-78.795	-0.093	0.032
-505.726	-200.000	0.035	0.252
-504.712	-200.000	-0.014	-0.073
-503.697	-20.814	0.158	0.098
-502.683	800.000	-0.090	0.257
-501.668	586.643	0.085	0.210
-500.653	-200.000	-0.000	-0.140
-499.639	77.384	0.095	0.101
-498.624	-142.558	-0.217	-0.021
-497.610	297.671	-0.247	0.457
-496.595	800.000	-0.005	-0.022
-495.581	-97.932	0.196	0.051
-494.566	386.737	-0.077	0.160
-493.551	228.387	0.143	0.235
-492.537	-82.634	0.145	0.047
-491.522	-200.000	0.009	-0.129
-490.508	171.408	0.151	0.218
-489.493	-31.218	0.279	-0.158
-488.478	-82.575	-0.187	0.061
-487.464	-167.478	0.296	-0.012
-486.449	-200.000	-0.012	-0.082
-485.435	-200.000	0.011	-0.127
-484.420	-200.000	0.029	0.137
-483.405	-200.000	-0.054	-0.273
-482.391	134.033	-0.205	-0.267
-481.376	5.639	0.069	-0.052
-480.362	-101.551	0.054	0.013
-479.347	-77.013	-0.091	0.032
-478.332	-76.177	0.031	0.011
-477.318	-200.000	0.041	-0.216
-476.303	144.195	-0.144	0.193
-475.289	45.984	0.196	-0.182
-474.274	180.086	-0.097	0.144
-473.259	-141.569	-0.709	-0.072
-472.245	-200.000	0.035	-0.164
-471.230	-15.986	0.156	0.100
-470.216	390.616	0.067	-0.141
-469.201	800.000	-0.088	-0.267
-468.186	-105.578	-0.187	0.043
-467.172	145.867	0.110	-0.149
-466.157	-64.562	0.332	0.136
-465.143	-25.125	-0.250	0.149
-464.128	461.392	-0.142	-0.319
-463.113	-130.768	-0.342	0.046
-462.099	-10.067	-0.115	-0.077
-461.084	755.572	-0.095	0.259
-460.070	187.908	0.068	-0.102
-459.055	82.848	0.065	0.071
-458.040	18.740	-0.068	0.055
-457.026	-200.000	-0.038	-0.330
-456.011	-23.756	0.266	0.160
-454.997	-31.871	-0.272	0.153
-453.982	-12.659	-0.351	0.230
-452.968	762.210	0.066	0.179
-451.953	100.206	0.373	0.436
-450.938	312.474	0.224	0.423
-449.924	-158.936	-0.365	0.021
-448.909	208.712	-0.265	-0.418
-447.895	-163.370	0.147	0.007
-446.880	247.499	0.203	-0.345
-445.865	18.733	0.347	-0.279
-444.851	800.000	-0.033	0.095
-443.836	-89.481	-0.200	0.059
-442.822	-16.380	0.334	0.213
-441.807	2.609	0.058	-0.042
-440.792	-46.261	0.099	-0.049
-439.778	-156.233	0.235	-0.015
-438.763	-77.576	-0.178	0.062
-437.749	-61.713	-0.116	-0.049
-436.734	800.000	0.027	0.075
-435.719	137.638	-0.135	-0.178
-434.705	-174.536	0.416	-0.012
-433.690	-154.779	-0.148	-0.010
-432.676	-139.198	-0.221	0.024
-431.661	-131.449	-0.375	-0.050
-430.646	-72.743	-0.190	0.071
-429.632	-18.631	0.072	-0.045
-428.617	143.854	-0.275	0.369
-427.603	-66.725	-0.181	0.072
-426.588	-49.553	-0.142	0.068
-425.573	-78.508	-0.311	0.107
-424.559	-87.628	0.186	0.056
-423.544	57.787	0.179	0.176
-422.530	-100.816	0.259	0.064
-421.515	-115.531	0.108	0.020
-420.500	-89.942	0.238	0.070
-419.486	-115.885	-0.181	0.034
-418.471	-153.736	0.297	0.021
-417.457	-38.062	-0.179	-0.096
-416.442	-116.433	-0.343	0.064
-415.428	-74.039	0.234	0.085
-414.413	632.353	-0.073	0.186
-413.398	-200.000	-0.022	0.247
-412.384	-8.424	-0.039	0.026
-411.369	-25.405	0.269	0.160
-410.355	315.427	-0.123	-0.234
-409.340	-74.399	-0.310	0.112
-408.325	238.753	-0.107	-0.178
-407.311	-12.186	0.367	-0.241
-406.296	-69.373	-0.229	0.088
-405.282	-109.970	0.225	0.047
-404.267	94.625	0.106	0.121
-403.252	491.368	0.037	-0.085
-402.238	1.603	0.298	-0.215
-401.223	307.085	-0.156	0.291
-400.209	380.349	-0.075	0.155
-399.194	-60.015	0.354	0.152
-398.179	-64.114	0.287	0.118
-397.165	78.743	-0.145	-0.156
-396.150	-200.000	0.031	0.173
-395.136	-2.538	-0.169	-0.119
-394.121	-200.000	-0.010	-0.237
-393.106	800.000	-0.054	0.159
-392.092	471.577	-0.131	-0.295
-391.077	-53.533	-0.186	-0.085
-390.063	-200.000	-0.023	-0.198
-389.048	-136.676	0.149	0.017
-388.033	800.000	-0.073	-0.294
-387.019	-200.000	0.026	-0.236
-386.004	14.562	-0.317	-0.248
-384.990	-83.678	-0.074	0.024
-383.975	-200.000	-0.047	-0.211
-382.960	-200.000	0.005	0.033
-381.946	780.972	-0.079	-0.216
-380.931	73.091	0.309	0.324
-379.917	800.000	0.064	-0.190
-378.902	-200.000	-0.005	-0.270
-377.888	-103.277	-0.076	0.018
-376.873	62.956	-0.255	-0.256
-375.858	-183.789	-0.231	-0.004
-374.844	-153.510	0.110	-0.008
-373.829	25.240	-0.217	0.181
-372.815	364.417	-0.035	-0.071
-371.800	-200.000	0.001	0.010
-370.785	800.000	0.021	-0.060
-369.771	-200.000	-0.025	0.237
-368.756	178.417	0.077	-0.113
-367.742	-74.291	-0.243	-0.088
-366.727	-120.525	0.259	0.044
-365.712	-134.986	0.032	0.004
-364.698	140.324	0.146	0.193
-363.683	800.000	0.050	0.191
-362.669	-15.667	-0.244	0.156
-361.654	-37.891	-0.071	-0.038
-360.639	-185.890	-0.273	-0.004
-359.625	-200.000	-0.051	-0.241
-358.610	-200.000	-0.039	-0.223
-357.596	-39.578	0.047	-0.025
-356.581	509.299	-0.132	-0.306
-355.566	-71.379	-0.240	-0.090
-354.552	-34.384	0.307	0.169
-353.537	-144.509	0.073	-0.007
-352.523	241.446	-0.140	0.234
-351.508	103.759	-0.098	0.115
-350.493	20.659	-0.402	0.326
-349.479	-200.000	0.016	-0.116
-348.464	-103.525	-0.322	0.076
-347.450	694.200	-0.075	-0.196
-346.435	-200.000	0.045	0.204
-345.420	800.000	0.057	0.202
-344.406	800.000	0.043	-0.125
-343.391	675.947	0.031	0.082
-342.377	-188.334	0.254	0.003
-341.362	195.362	0.061	0.092
-340.348	96.820	-0.137	0.157
-339.333	-159.097	-0.281	0.016
-338.318	-120.261	0.101	-0.017
-337.304	239.996	0.142	0.237
-336.289	-107.632	-0.149	-0.033
-335.275	220.565	0.055	-0.089
-334.260	242.844	-0.076	0.127
-333.245	-16.165	0.234	0.149
-332.231	-200.000	-0.054	0.247
-331.216	78.928	-0.152	0.163
-330.202	-200.000	-0.026	0.144
-329.187	-200.000	-0.003	0.120
-328.172	-43.500	-0.129	-0.065
-327.158	330.284	-0.129	-0.249
-326.143	559.619	0.090	0.219
-325.129	536.894	0.073	-0.173
-324.114	-75.139	-0.386	0.138
-323.099	-49.782	-0.185	-0.088
-322.085	17.084	-0.185	0.147
-321.070	-200.000	-0.045	0.326
-320.056	800.000	0.039	-0.133
-319.041	-19.206	-0.142	-0.088
-318.026	-200.000	0.007	-0.093
-317.012	181.138	-0.070	0.103
-315.997	272.818	0.009	-0.015
-314.983	-200.000	-0.005	-0.314
-313.968	22.227	0.210	-0.171
-312.953	-77.804	-0.147	-0.051
-311.939	-200.000	-0.031	0.191
-310.924	-101.549	-0.228	-0.055
-309.910	217.203	-0.092	-0.146
-308.895	800.000	0.048	0.147
-307.880	41.817	0.265	0.241
-306.866	568.993	-0.035	-0.086
-305.851	-128.767	0.168	0.024
-304.837	-98.269	0.134	0.034
-303.822	-119.275	0.280	-0.049
-302.807	-200.000	0.001	-0.092
-301.793	-200.000	0.031	0.210
-300.778	35.021	-0.092	0.081
-299.764	686.330	0.013	-0.034
-298.749	-171.696	0.183	-0.006
-297.735	-28.721	0.210	-0.121
-296.720	-142.045	0.278	0.028
-295.705	18.825	0.145	-0.116
-294.691	-101.273	0.263	-0.064
-293.676	800.000	-0.062	-0.186
-292.662	-86.784	0.330	-0.101
-291.647	-78.420	-0.022	-0.007
-290.632	-8.009	-0.210	0.141
-289.618	-88.180	0.029	-0.009
-288.603	35.207	-0.179	-0.157
-287.589	188.185	-0.231	-0.345
-286.574	-200.000	-0.000	0.166
-285.559	2.728	-0.373	0.270
-284.545	-40.899	0.085	0.044
-283.530	-143.648	-0.470	0.045
-282.516	-111.679	0.218	-0.044
-281.501	285.842	0.088	0.159
-280.486	-128.001	0.136	-0.020
-279.472	166.462	0.026	0.037
-278.457	173.609	0.156	0.225
-277.443	800.000	0.073	-0.207
-276.428	-200.000	-0.032	0.174
-275.413	-200.000	-0.099	-0.439
-274.399	-42.163	-0.180	-0.092
-273.384	-105.399	0.262	-0.060
-272.370	36.005	-0.204	0.180
-271.355	-49.263	0.239	0.114
-270.340	800.000	0.017	-0.070
-269.326	-0.982	-0.464	-0.328
-268.311	-27.361	0.307	0.178
-267.297	-170.654	-0.354	0.012
-266.282	-200.000	-0.068	0.313
-265.267	-65.002	0.095	-0.038
-264.253	-175.269	0.025	-0.001
-263.238	800.000	-0.026	0.106
-262.224	-54.855	-0.143	0.064
-261.209	-80.151	-0.194	0.065
-260.195	335.609	-0.133	0.258
-259.180	-1.283	-0.041	-0.029
-258.165	-90.332	-0.379	0.110
-257.151	582.360	-0.119	0.292
-256.136	-200.000	-0.025	-0.551
-255.122	617.300	0.173	0.434
-254.107	-151.647	0.231	-0.017
-253.092	395.584	-0.133	-0.277
-252.078	800.000	0.076	-0.231
-251.063	-90.011	0.267	-0.078
-250.049	-200.000	0.048	0.232
-249.034	800.000	-0.048	-0.191
-248.019	217.698	-0.082	0.131
-247.005	100.196	0.210	-0.243
-245.990	39.143	-0.179	0.160
-244.976	89.024	-0.090	-0.100
-243.961	-104.580	0.060	-0.014
-242.946	-200.000	-0.001	-0.082
-241.932	800.000	0.058	0.228
-240.917	-200.000	0.002	0.096
-239.903	153.840	-0.231	0.315
-238.888	-200.000	0.006	0.306
-237.873	800.000	0.059	0.229
-236.859	-200.000	-0.004	-0.205
-235.844	531.182	-0.103	0.243
-234.830	-200.000	-0.036	0.211
-233.815	-200.000	0.031	0.311
-232.800	153.454	-0.148	0.202
-231.786	-65.503	-0.214	-0.086
-230.771	-200.000	-0.006	-0.156
-229.757	-61.777	-0.221	0.092
-228.742	800.000	-0.062	0.184
-227.727	140.234	0.112	0.147
-226.713	-138.763	-0.509	0.055
-225.698	-200.000	0.092	0.430
-224.684	-146.133	-0.285	0.025
-223.669	-17.162	0.125	-0.079
-222.655	-200.000	0.033	-0.343
-221.640	314.037	-0.141	0.264
-220.625	-69.726	0.408	-0.156
-219.611	293.583	0.087	0.158
-218.596	-51.326	-0.279	-0.130
-217.582	48.625	-0.086	-0.081
-216.567	35.594	0.176	-0.154
-215.552	-109.918	0.089	0.019
-214.538	56.674	0.425	0.412
-213.523	-16.411	-0.190	0.120
-212.509	-30.097	-0.124	0.070
-211.494	-4.476	-0.217	-0.149
-210.479	-51.447	0.309	0.144
-209.465	565.285	0.053	0.127
-208.450	-159.131	-0.344	0.019
-207.436	257.635	-0.113	0.194
-206.421	-64.104	-0.231	0.094
-205.406	800.000	0.022	0.081
-204.392	125.642	-0.020	-0.025
-203.377	-192.101	-0.040	-0.000
-202.363	-112.269	0.383	-0.077
-201.348	102.584	0.109	-0.127
-200.333	37.098	-0.101	0.089
-199.319	798.320	-0.088	-0.243
-198.304	507.134	-0.072	0.167
-197.290	-131.054	-0.349	0.046
-196.275	-68.856	0.259	0.100
-195.260	205.516	-0.120	0.186
-194.246	51.360	0.075	-0.071
-193.231	-200.000	0.006	-0.302
-192.217	476.823	-0.118	0.266
-191.202	800.000	-0.088	-0.285
-190.187	800.000	-0.125	-0.513
-189.173	-101.558	-0.380	-0.092
-188.158	-200.000	-0.046	0.333
-187.144	218.868	-0.080	-0.128
-186.129	6.777	0.245	-0.182
-185.114	-2.944	0.232	0.161
-184.100	-129.698	-0.197	-0.027
-183.085	-200.000	-0.002	-0.122
-182.071	-133.105	0.261	-0.033
-181.056	799.769	-0.088	0.243
-180.042	22.172	0.243	0.197
-179.027	-161.138	0.201	0.010
-178.012	-200.000	0.039	-0.363
-176.998	800.000	0.047	-0.143
-175.983	-121.063	0.139	0.023
-174.969	-29.970	-0.136	-0.077
-173.954	68.197	-0.190	0.194
-172.939	-3.641	-0.184	-0.127
-171.925	376.331	0.093	-0.189
-170.910	337.416	0.091	0.176
-169.896	15.794	0.276	0.216
-168.881	-27.578	-0.126	-0.073
-167.866	-8.828	0.288	-0.192
-166.852	235.771	0.172	-0.283
-165.837	-46.929	0.090	0.044
-164.823	-100.131	0.397	-0.098
-163.808	-172.148	-0.196	-0.006
-162.793	-200.000	0.006	0.199
-161.779	-37.230	0.077	0.041
-160.764	-119.094	0.190	0.033
-159.750	48.634	0.080	-0.075
-158.735	235.860	0.197	-0.323
-157.720	-0.062	0.225	0.159
-156.706	161.116	-0.009	0.013
-155.691	232.956	0.057	-0.093
-154.677	-48.498	0.289	0.138
-153.662	55.538	-0.106	0.102
-152.647	-29.484	-0.126	-0.072
-151.633	-112.228	0.121	0.024
-150.618	47.680	0.252	0.234
-149.604	-76.929	-0.092	-0.032
-148.589	-154.318	0.163	-0.011
-147.574	598.173	0.084	-0.208
-146.560	-111.629	0.180	0.036
-145.545	-12.071	0.165	0.108
-144.531	81.694	0.067	-0.072
-143.516	-179.661	-0.334	0.007
-142.502	-99.614	-0.038	-0.010
-141.487	-43.647	0.174	-0.087
-140.472	659.090	-0.140	0.359
-139.458	147.501	0.249	0.334
-138.443	-73.860	0.176	0.064
-137.429	15.723	-0.124	-0.097
-136.414	269.607	0.209	0.365
-135.399	800.000	-0.100	0.276
-134.385	165.451	-0.062	-0.087
-133.370	249.154	-0.115	-0.194
-132.356	308.149	0.130	0.241
-131.341	360.130	0.095	0.189
-130.326	-3.939	0.160	0.110
-129.312	-200.000	-0.048	0.241
-128.297	-21.982	0.300	-0.181
-127.283	291.509	-0.014	0.024
-126.268	146.202	0.078	-0.104
-125.253	-68.702	0.211	0.081
-124.239	-29.626	0.306	0.174
-123.224	490.308	0.097	0.220
-122.210	347.182	0.077	0.151
