DTS Sentinel unit serial number:	SN413079Multiplexer serial number:	ORYXHardware model number:	OX4-SRSoftware version number:	ORYX F/W v4.00 Oryx Data Collector v3.7.2.0data status	okinstallation	princeton_trtdifferential loss correction	single-endedforward channel	channel 2reverse channel	N/Adate	2019/09/17time	00:51:35forward acquisition time	60.00reverse acquisition time	0.00gamma	496.2192k internal	0.2329k external	0.2329temperature offset calibration	0.9974default loss term (dB/km)	0.3790temperature slope calibration	1.0000multiplexer offset coefficient	1.0000multiplexer slope coefficient	1.0000fibre end	0.00T internal ref (°C)	29.44T ext. ref 1 (°C)	0.10T ext. ref 2 (°C)	24.06length (m)	temperature (°C)	Stokes	anti-Stokes-747.200	-161.460	0.161	-0.008
-746.185	-200.000	-0.033	0.197
-745.171	-200.000	-0.028	0.146
-744.156	163.490	-0.028	0.040
-743.142	-200.000	-0.010	-0.268
-742.127	-200.000	0.005	0.201
-741.112	178.730	-0.140	0.207
-740.098	-114.945	-0.206	0.040
-739.083	-25.416	0.192	-0.115
-738.069	-23.544	-0.116	0.070
-737.054	186.029	-0.098	0.147
-736.039	-52.796	-0.383	-0.178
-735.025	312.435	-0.044	-0.082
-734.010	-200.000	0.043	-0.205
-732.996	-2.948	0.068	0.048
-731.981	9.881	0.175	-0.134
-730.966	31.876	-0.316	-0.274
-729.952	-164.561	-0.280	-0.013
-728.937	196.083	-0.073	-0.112
-727.923	2.099	0.217	0.158
-726.908	40.810	-0.188	0.170
-725.894	-147.039	0.083	-0.007
-724.879	198.018	0.073	-0.113
-723.864	278.158	-0.082	-0.147
-722.850	37.542	-0.077	-0.068
-721.835	-108.467	-0.183	-0.040
-720.821	650.848	-0.122	-0.316
-719.806	57.568	-0.167	-0.164
-718.791	-47.074	-0.224	-0.110
-717.777	-94.924	-0.125	0.034
-716.762	133.002	0.166	-0.216
-715.748	-200.000	0.026	-0.309
-714.733	-107.364	0.143	-0.032
-713.718	-192.085	-0.465	-0.005
-712.704	-200.000	0.031	0.253
-711.689	800.000	0.029	-0.093
-710.675	284.985	0.103	0.186
-709.660	-83.709	0.240	0.077
-708.645	-12.837	0.388	-0.254
-707.631	-164.960	0.500	-0.022
-706.616	-84.955	-0.268	-0.085
-705.602	-36.215	0.098	-0.053
-704.587	-142.694	0.265	-0.026
-703.572	-200.000	0.014	-0.363
-702.558	23.376	0.216	-0.178
-701.543	-105.810	-0.200	-0.045
-700.529	5.095	-0.178	0.132
-699.514	-200.000	-0.008	-0.115
-698.499	-73.729	0.088	-0.032
-697.485	-8.549	0.127	0.086
-696.470	-200.000	-0.064	0.399
-695.456	-62.159	0.331	-0.139
-694.441	324.377	-0.054	0.103
-693.426	800.000	-0.142	-0.406
-692.412	-83.831	0.300	0.096
-691.397	-47.954	0.062	-0.030
-690.383	208.125	-0.043	-0.067
-689.368	-1.212	0.068	-0.048
-688.354	-31.023	-0.279	-0.158
-687.339	-200.000	-0.013	-0.092
-686.324	-200.000	-0.028	-0.365
-685.310	83.959	-0.153	0.168
-684.295	800.000	-0.062	-0.239
-683.281	-174.634	0.247	0.007
-682.266	800.000	-0.102	-0.352
-681.251	202.329	0.137	-0.212
-680.237	-200.000	0.033	-0.233
-679.222	85.641	-0.059	0.065
-678.208	709.321	0.129	-0.344
-677.193	53.856	0.136	-0.131
-676.178	50.916	-0.137	-0.131
-675.164	422.062	0.117	0.253
-674.149	81.638	-0.315	0.342
-673.135	-200.000	-0.005	0.170
-672.120	-74.523	0.120	0.043
-671.105	60.229	0.039	-0.039
-670.091	-200.000	-0.016	-0.243
-669.076	440.026	-0.028	-0.061
-668.062	-76.209	-0.241	0.085
-667.047	19.802	-0.198	0.160
-666.032	-165.180	-0.142	0.006
-665.018	183.979	0.075	0.112
-664.003	800.000	0.033	0.117
-662.989	-116.220	0.217	-0.040
-661.974	-165.486	-0.540	0.024
-660.959	60.901	-0.201	0.200
-659.945	86.143	0.023	0.025
-658.930	-102.968	-0.178	0.043
-657.916	662.984	0.073	0.189
-656.901	-48.500	0.023	-0.011
-655.886	-171.809	-0.277	-0.009
-654.872	75.018	0.263	-0.278
-653.857	-200.000	0.008	-0.058
-652.843	-107.508	-0.323	0.071
-651.828	-46.286	0.209	0.103
-650.814	-16.584	0.034	-0.021
-649.799	-200.000	0.022	-0.371
-648.784	313.304	0.194	0.365
-647.770	-200.000	-0.070	-0.334
-646.755	30.914	-0.281	-0.242
-645.741	9.395	0.212	0.161
-644.726	-143.707	-0.425	0.040
-643.711	91.264	-0.065	0.074
-642.697	-104.559	0.331	-0.077
-641.682	31.006	0.203	-0.175
-640.668	-62.962	-0.205	-0.085
-639.653	180.658	0.059	0.087
-638.638	144.863	-0.129	-0.173
-637.624	-79.109	-0.211	-0.072
-636.609	-37.538	-0.271	-0.145
-635.595	-106.184	0.155	-0.035
-634.580	-34.323	0.231	-0.127
-633.565	139.638	-0.133	0.176
-632.551	-50.719	-0.369	0.174
-631.536	-200.000	-0.009	-0.150
-630.522	464.713	-0.072	-0.162
-629.507	-42.217	0.377	-0.193
-628.492	8.447	-0.058	0.043
-627.478	64.930	0.098	0.099
-626.463	24.675	0.125	-0.104
-625.449	-131.086	0.125	0.017
-624.434	60.516	-0.069	0.069
-623.419	18.357	0.241	-0.193
-622.405	38.844	0.065	0.058
-621.390	30.907	0.111	-0.096
-620.376	522.940	0.123	-0.289
-619.361	186.235	-0.123	0.183
-618.346	10.118	-0.102	0.078
-617.332	-80.351	-0.209	-0.070
-616.317	315.490	0.039	-0.074
-615.303	134.582	0.072	-0.093
-614.288	241.503	-0.191	0.319
-613.273	-70.842	0.063	-0.024
-612.259	15.470	0.314	0.247
-611.244	16.944	0.132	-0.105
-610.230	552.338	0.094	-0.226
-609.215	116.311	-0.104	0.128
-608.201	-107.606	0.031	-0.007
-607.186	222.947	-0.223	-0.361
-606.171	220.197	-0.072	0.115
-605.157	25.638	-0.243	0.203
-604.142	-151.607	-0.256	0.019
-603.128	-200.000	0.037	0.216
-602.113	-122.600	-0.307	0.050
-601.098	-200.000	0.227	0.000
-600.084	58.976	0.085	0.084
-599.069	-200.000	-0.040	-0.273
-598.055	-59.005	-0.091	-0.040
-597.040	-71.924	0.134	0.050
-596.025	-69.090	-0.250	0.096
-595.011	137.840	-0.238	-0.313
-593.996	-66.733	-0.543	0.215
-592.982	35.857	-0.184	-0.162
-591.967	-200.000	0.004	-0.095
-590.952	358.492	0.055	0.109
-589.938	295.091	-0.207	-0.380
-588.923	-76.809	-0.242	-0.085
-587.909	11.314	0.027	0.021
-586.894	271.143	-0.114	0.202
-585.879	-102.131	-0.171	0.041
-584.865	-148.165	0.413	-0.034
-583.850	76.579	-0.277	0.294
-582.836	-200.000	0.016	0.119
-581.821	515.571	0.043	0.101
-580.806	-138.095	-0.321	0.036
-579.792	-200.000	0.019	-0.376
-578.777	-74.566	0.277	-0.100
-577.763	-200.000	0.047	-0.244
-576.748	-6.540	-0.296	-0.202
-575.733	800.000	-0.059	0.191
-574.719	-200.000	-0.003	-0.161
-573.704	-24.506	-0.197	-0.117
-572.690	145.296	-0.159	0.213
-571.675	-38.117	-0.235	-0.125
-570.661	-95.492	-0.439	0.118
-569.646	-46.315	0.217	0.107
-568.631	-4.683	0.081	0.056
-567.617	-200.000	0.007	-0.176
-566.602	-45.440	-0.377	0.187
-565.588	800.000	-0.019	0.073
-564.573	206.448	0.178	-0.277
-563.558	-200.000	0.011	-0.056
-562.544	-37.155	0.132	-0.071
-561.529	446.996	0.162	-0.355
-560.515	215.719	0.122	-0.194
-559.500	195.729	-0.214	-0.325
-558.485	-6.405	-0.071	-0.048
-557.471	38.783	-0.203	-0.181
-556.456	-41.318	-0.306	-0.158
-555.442	-59.306	0.104	0.045
-554.427	-116.287	-0.143	0.026
-553.412	-200.000	-0.057	-0.264
-552.398	-200.000	0.007	-0.187
-551.383	75.171	-0.106	-0.111
-550.369	-60.131	-0.416	0.177
-549.354	-117.018	-0.178	0.032
-548.339	-42.922	-0.151	0.077
-547.325	-139.137	-0.171	0.018
-546.310	-104.497	0.055	0.013
-545.296	-19.426	0.224	-0.139
-544.281	405.822	-0.045	-0.095
-543.266	-93.418	-0.211	0.059
-542.252	162.822	0.085	0.119
-541.237	800.000	0.108	0.369
-540.223	88.768	-0.141	-0.156
-539.208	800.000	0.060	-0.231
-538.193	-200.000	0.114	-0.520
-537.179	18.218	0.108	0.086
-536.164	-38.765	-0.239	0.126
-535.150	-200.000	0.038	-0.385
-534.135	-78.261	-0.171	0.059
-533.121	113.583	-0.107	-0.130
-532.106	-200.000	0.020	-0.114
-531.091	-42.412	-0.161	-0.082
-530.077	-200.000	-0.003	0.050
-529.062	-128.495	-0.373	-0.053
-528.048	-200.000	-0.015	-0.266
-527.033	352.587	-0.016	0.033
-526.018	-200.000	-0.019	-0.102
-525.004	-131.897	0.214	-0.028
-523.989	800.000	0.022	0.073
-522.975	-200.000	-0.002	0.091
-521.960	262.087	0.282	0.489
-520.945	128.357	0.255	0.325
-519.931	-62.254	0.185	0.077
-518.916	-134.136	0.191	-0.023
-517.902	-154.910	0.251	-0.017
-516.887	18.075	-0.043	-0.034
-515.872	354.181	-0.162	0.321
-514.858	-88.258	0.186	0.056
-513.843	-135.321	-0.233	-0.028
-512.829	574.500	-0.049	0.119
-511.814	6.886	0.213	-0.159
-510.799	-128.394	-0.293	0.042
-509.785	-30.806	-0.181	-0.102
-508.770	424.744	0.049	-0.106
-507.756	6.625	0.222	0.165
-506.741	17.170	0.301	0.239
-505.726	-108.229	0.395	0.085
-504.712	398.118	0.050	0.103
-503.697	-200.000	0.069	0.363
-502.683	-78.796	-0.162	0.055
-501.668	200.355	-0.143	0.219
-500.653	-93.767	0.337	-0.093
-499.639	-200.000	-0.022	0.284
-498.624	-97.307	0.045	0.012
-497.610	251.587	-0.119	0.203
-496.595	-200.000	-0.052	0.389
-495.581	63.758	0.153	0.154
-494.566	-200.000	-0.002	0.128
-493.551	-200.000	0.033	0.292
-492.537	-46.977	-0.169	-0.082
-491.522	109.461	-0.316	-0.377
-490.508	-200.000	0.041	-0.264
-489.493	-125.565	-0.241	0.037
-488.478	-17.321	-0.163	0.103
-487.464	-127.454	-0.129	0.019
-486.449	-8.215	-0.226	0.152
-485.435	295.536	0.156	0.285
-484.420	-133.709	0.202	0.025
-483.405	-200.000	0.048	0.247
-482.391	35.702	0.209	0.183
-481.376	-200.000	-0.034	-0.193
-480.362	149.535	0.113	0.153
-479.347	800.000	-0.077	0.244
-478.332	-37.630	0.277	-0.147
-477.318	75.684	-0.088	-0.093
-476.303	-108.122	0.113	-0.024
-475.289	-25.244	-0.171	0.101
-474.274	242.388	0.110	0.184
-473.259	239.517	0.083	0.137
-472.245	195.362	0.172	-0.261
-471.230	-146.812	-0.120	0.010
-470.216	158.246	0.113	-0.156
-469.201	-53.658	0.080	0.036
-468.186	-200.000	0.016	0.176
-467.172	236.805	-0.049	-0.081
-466.157	137.154	0.060	-0.079
-465.143	-200.000	0.010	0.069
-464.128	-91.592	-0.127	-0.036
-463.113	323.901	-0.152	-0.290
-462.099	560.022	0.085	-0.204
-461.084	800.000	-0.056	-0.156
-460.070	0.021	0.275	-0.195
-459.055	-61.180	0.216	-0.091
-458.040	-171.743	-0.228	-0.007
-457.026	87.949	0.215	-0.237
-456.011	-0.833	-0.272	0.192
-454.997	152.124	-0.128	-0.174
-453.982	-131.027	0.105	-0.014
-452.968	94.319	0.133	-0.150
-451.953	-116.418	-0.076	-0.014
-450.938	48.458	-0.151	-0.141
-449.924	-200.000	0.029	-0.208
-448.909	-200.000	0.001	-0.184
-447.895	800.000	-0.084	-0.267
-446.880	-27.857	-0.185	-0.107
-445.865	-137.694	0.197	-0.022
-444.851	41.824	-0.113	-0.102
-443.836	-128.523	-0.200	-0.028
-442.822	-200.000	-0.044	-0.219
-441.807	-200.000	0.002	0.057
-440.792	-163.261	0.173	0.008
-439.778	-125.656	0.165	0.025
-438.763	-200.000	-0.028	-0.128
-437.749	-200.000	0.049	-0.224
-436.734	800.000	-0.042	-0.117
-435.719	82.291	0.122	0.132
-434.705	-200.000	0.007	-0.088
-433.690	260.215	-0.144	0.248
-432.676	180.264	-0.142	0.207
-431.661	-71.749	0.183	0.068
-430.646	363.665	-0.016	0.032
-429.632	-126.751	-0.146	-0.021
-428.617	161.327	-0.016	0.022
-427.603	-167.622	-0.316	-0.013
-426.588	-88.261	0.205	-0.061
-425.573	-200.000	-0.017	-0.213
-424.559	-200.000	0.055	0.328
-423.544	-119.680	-0.021	-0.004
-422.530	-26.558	-0.382	-0.223
-421.515	-3.141	0.273	0.189
-420.500	-156.204	0.382	-0.024
-419.486	800.000	0.058	0.162
-418.471	162.449	0.036	0.050
-417.457	-95.478	-0.262	-0.070
-416.442	485.775	-0.110	0.250
-415.428	-200.000	-0.017	-0.139
-414.413	-115.594	0.074	-0.014
-413.398	-200.000	0.009	0.053
-412.384	-160.176	0.312	0.017
-411.369	-3.681	0.486	0.336
-410.355	-55.365	0.143	-0.064
-409.340	663.254	0.020	0.052
-408.325	-123.572	-0.035	0.006
-407.311	-109.778	-0.379	-0.079
-406.296	-49.022	0.276	-0.131
-405.282	230.345	0.177	0.288
-404.267	340.947	-0.066	0.128
-403.252	-101.428	-0.318	-0.077
-402.238	-131.487	0.016	-0.002
-401.223	-133.755	-0.249	0.031
-400.209	-137.989	-0.141	-0.016
-399.194	792.085	-0.109	0.298
-398.179	520.784	-0.134	0.313
-397.165	-200.000	-0.008	0.140
-396.150	254.833	0.077	-0.132
-395.136	800.000	-0.037	-0.121
-394.121	-16.274	-0.082	-0.052
-393.106	-200.000	0.036	-0.414
-392.092	17.652	-0.176	-0.139
-391.077	-65.673	0.154	0.061
-390.063	90.316	0.274	0.305
-389.048	-25.872	-0.047	0.028
-388.033	-74.596	-0.105	-0.038
-387.019	472.895	-0.049	-0.109
-386.004	800.000	-0.053	0.187
-384.990	800.000	0.034	0.120
-383.975	155.930	0.245	0.335
-382.960	-109.414	0.161	0.034
-381.946	-19.984	-0.062	-0.038
-380.931	-28.490	0.257	0.147
-379.917	573.090	0.064	-0.155
-378.902	-180.133	-0.287	0.006
-377.888	-200.000	-0.352	0.000
-376.873	800.000	0.076	-0.301
-375.858	-92.058	-0.067	-0.019
-374.844	67.473	0.038	0.039
-373.829	111.079	0.080	-0.095
-372.815	-200.000	-0.009	-0.351
-371.800	173.980	-0.199	-0.286
-370.785	-97.792	0.178	-0.046
-369.771	800.000	-0.047	0.132
-368.756	67.162	0.053	-0.053
-367.742	800.000	0.023	-0.069
-366.727	9.833	0.296	0.223
-365.712	-34.550	0.383	-0.208
-364.698	800.000	-0.020	-0.067
-363.683	-21.980	0.241	0.145
-362.669	-29.284	-0.163	0.093
-361.654	145.928	-0.046	0.061
-360.639	800.000	0.064	-0.182
-359.625	-95.346	0.330	0.088
-358.610	-112.514	-0.044	-0.009
-357.596	-95.305	0.291	-0.078
-356.581	261.676	-0.026	-0.045
-355.566	-178.650	-0.341	-0.008
-354.552	-124.214	-0.317	-0.049
-353.537	-200.000	-0.051	-0.298
-352.523	418.408	-0.101	0.215
-351.508	-67.112	-0.054	-0.021
-350.493	194.866	-0.042	-0.062
-349.479	260.745	0.056	-0.097
-348.464	-67.846	-0.179	0.069
-347.450	-1.292	0.123	-0.086
-346.435	-11.784	0.151	-0.098
-345.420	205.435	-0.085	-0.130
-344.406	69.644	-0.202	0.206
-343.391	412.962	-0.107	-0.225
-342.377	72.748	0.171	0.177
-341.362	99.495	0.265	0.304
-340.348	-78.049	0.127	-0.044
-339.333	75.372	0.011	0.011
-338.318	175.492	0.129	0.186
-337.304	288.536	0.007	-0.012
-336.289	-56.454	-0.059	0.026
-335.275	-57.334	-0.200	0.087
-334.260	24.032	0.168	0.138
-333.245	100.910	-0.086	-0.099
-332.231	800.000	0.080	0.277
-331.216	-127.479	-0.372	-0.054
-330.202	800.000	0.155	-0.454
-329.187	16.572	0.122	0.095
-328.172	-83.700	0.429	-0.136
-327.158	-71.229	-0.240	-0.089
-326.143	360.979	-0.025	-0.049
-325.129	169.526	0.109	0.155
-324.114	547.319	0.164	0.389
-323.099	-172.785	0.118	0.004
-322.085	-113.291	0.252	-0.049
-321.070	-118.827	-0.254	-0.044
-320.056	800.000	-0.053	0.203
-319.041	323.076	0.105	-0.199
-318.026	-29.920	-0.106	0.060
-317.012	73.375	0.106	0.110
-315.997	-10.639	0.214	-0.140
-314.983	-136.293	0.246	0.028
-313.968	-174.944	-0.323	-0.009
-312.953	14.131	0.131	-0.101
-311.939	-27.036	-0.175	0.101
-310.924	-48.112	0.424	0.203
-309.910	15.836	-0.317	-0.247
-308.895	789.481	-0.084	0.229
-307.880	156.344	-0.128	-0.175
-306.866	800.000	0.109	0.413
-305.851	800.000	-0.047	0.187
-304.837	-113.761	0.096	-0.018
-303.822	450.470	0.067	0.147
-302.807	-94.623	-0.075	-0.020
-301.793	-55.930	-0.119	-0.052
-300.778	246.203	0.060	0.101
-299.764	-83.539	-0.089	-0.028
-298.749	800.000	-0.030	0.091
-297.735	160.241	0.062	-0.085
-296.720	-73.709	-0.142	-0.051
-295.705	-200.000	0.006	0.047
-294.691	278.707	0.038	-0.067
-293.676	-200.000	-0.002	-0.099
-292.662	414.213	-0.287	0.605
-291.647	800.000	-0.030	-0.107
-290.632	-80.807	-0.099	-0.032
-289.618	303.543	-0.027	0.049
-288.603	227.009	0.033	0.053
-287.589	50.679	0.212	0.199
-286.574	-200.000	0.024	0.349
-285.559	-26.995	-0.420	0.243
-284.545	15.562	0.197	-0.153
-283.530	-149.196	-0.072	0.006
-282.516	106.585	0.219	0.257
-281.501	-200.000	-0.027	-0.219
-280.486	-200.000	-0.023	0.199
-279.472	-29.063	-0.348	-0.197
-278.457	608.242	0.033	0.082
-277.443	-59.370	-0.128	-0.055
-276.428	-51.495	0.188	-0.087
-275.413	800.000	0.058	-0.189
-274.399	-51.051	0.194	-0.090
-273.384	800.000	0.087	-0.346
-272.370	149.508	0.139	-0.187
-271.355	18.710	0.064	0.050
-270.340	-200.000	0.024	0.206
-269.326	-37.775	0.197	-0.104
-268.311	-22.043	0.222	0.133
-267.297	-200.000	-0.009	0.094
-266.282	-40.066	0.316	-0.163
-265.267	-90.094	-0.127	-0.037
-264.253	279.452	0.054	0.095
-263.238	70.658	0.197	0.202
-262.224	-129.966	-0.119	0.016
-261.209	8.147	0.046	-0.034
-260.195	149.939	0.067	0.090
-259.180	500.182	-0.054	-0.123
-258.165	223.207	0.133	0.212
-257.151	800.000	0.073	0.226
-256.136	390.590	-0.076	-0.156
-255.122	-200.000	0.032	-0.331
-254.107	226.274	0.107	0.171
-253.092	-86.691	-0.102	-0.031
-252.078	-131.476	-0.314	-0.041
-251.063	-92.606	-0.125	-0.035
-250.049	18.629	0.230	0.182
-249.034	800.000	0.045	0.158
-248.019	800.000	-0.062	-0.236
-247.005	-6.358	-0.098	-0.066
-245.990	22.725	0.027	-0.022
-244.976	-163.302	0.158	-0.007
-243.961	80.127	-0.249	-0.264
-242.946	-49.062	0.270	-0.128
-241.932	800.000	0.063	-0.224
-240.917	-200.000	0.066	-0.289
-239.903	-200.000	-0.026	-0.177
-238.888	761.850	0.105	0.281
-237.873	787.300	-0.117	-0.317
-236.859	-134.294	0.319	-0.039
-235.844	272.151	-0.100	0.174
-234.830	47.897	-0.152	0.140
-233.815	-41.234	-0.203	0.103
-232.800	-104.323	0.272	-0.062
-231.786	-91.409	-0.147	-0.041
-230.771	-138.630	-0.120	-0.013
-229.757	-200.000	-0.030	-0.201
-228.742	-26.499	-0.155	-0.089
-227.727	-142.799	0.232	0.022
-226.713	645.827	0.063	0.159
-225.698	166.515	-0.128	0.179
-224.684	-18.239	0.239	-0.148
-223.669	214.625	0.079	-0.124
-222.655	-103.594	-0.301	0.070
-221.640	23.371	0.045	-0.037
-220.625	-108.794	-0.080	0.017
-219.611	-160.733	-0.276	-0.014
-218.596	-200.000	-0.001	0.152
-217.582	-49.554	-0.083	0.039
-216.567	-85.732	-0.096	-0.029
-215.552	-143.794	0.292	0.027
-214.538	109.145	-0.080	0.095
-213.523	-135.625	0.312	0.037
-212.509	449.876	0.110	0.239
-211.494	58.703	0.210	-0.204
-210.479	800.000	-0.050	-0.213
-209.465	-126.490	-0.281	-0.041
-208.450	53.163	0.203	0.191
-207.436	-200.000	0.023	0.376
-206.421	270.195	0.077	-0.134
-205.406	160.866	-0.042	0.058
-204.392	-200.000	-0.005	0.307
-203.377	732.678	0.027	0.072
-202.363	-200.000	-0.069	0.499
-201.348	-200.000	-0.015	0.297
-200.333	-138.830	0.272	-0.029
-199.319	-17.415	-0.178	-0.110
-198.304	-200.000	0.020	-0.282
-197.290	67.162	0.174	-0.175
-196.275	800.000	0.074	0.254
-195.260	368.943	-0.083	0.166
-194.246	46.105	0.151	0.138
-193.231	556.970	0.026	0.063
-192.217	-84.563	0.385	-0.120
-191.202	-116.700	-0.164	-0.030
-190.187	-200.000	-0.005	0.204
-189.173	104.672	0.380	0.442
-188.158	-200.000	-0.050	0.291
-187.144	-72.485	0.298	0.108
-186.129	-120.424	0.320	-0.054
-185.114	104.224	0.154	0.178
-184.100	-107.542	0.178	0.038
-183.085	109.196	-0.189	-0.223
-182.071	-31.395	0.046	-0.025
-181.056	-200.000	0.027	-0.147
-180.042	121.030	0.208	0.255
-179.027	149.753	-0.144	-0.192
-178.012	800.000	-0.079	-0.216
-176.998	232.605	-0.045	-0.074
-175.983	800.000	-0.057	0.174
-174.969	-106.722	-0.168	0.037
-173.954	-2.625	0.203	0.140
-172.939	-87.338	-0.152	-0.045
-171.925	178.553	0.254	0.365
-170.910	-130.572	-0.112	-0.015
-169.896	-41.041	-0.074	-0.038
-168.881	-200.000	-0.009	0.310
-167.866	167.887	-0.220	0.308
-166.852	-109.915	0.375	0.077
-165.837	289.057	0.177	-0.315
-164.823	-169.825	0.057	0.002
-163.808	29.053	0.027	0.022
-162.793	-200.000	-0.025	-0.429
-161.779	-157.937	0.172	-0.010
-160.764	-147.850	0.120	-0.010
-159.750	66.959	0.065	-0.065
-158.735	-35.961	0.177	-0.094
-157.720	22.792	0.119	-0.096
-156.706	-2.116	-0.188	-0.130
-155.691	-45.848	0.039	-0.019
-154.677	-130.279	-0.421	0.056
-153.662	800.000	-0.084	-0.333
-152.647	-103.085	-0.265	0.062
-151.633	25.013	-0.224	-0.183
-150.618	800.000	0.047	-0.174
-149.604	-7.034	-0.044	-0.029
-148.589	-200.000	-0.009	-0.162
-147.574	-107.695	0.235	0.051
-146.560	-55.373	-0.250	-0.111
-145.545	349.783	0.015	0.029
-144.531	720.610	0.063	-0.165
-143.516	-200.000	-0.003	-0.054
-142.502	-160.877	-0.213	-0.011
-141.487	-14.668	0.214	0.135
-140.472	55.600	-0.048	-0.046
-139.458	-200.000	0.008	0.243
-138.443	-200.000	-0.015	0.211
-137.429	-130.469	-0.300	0.040
-136.414	82.459	0.086	-0.092
-135.399	71.770	0.154	0.158
-134.385	569.204	0.165	0.395
-133.370	-200.000	0.027	0.201
-132.356	323.736	-0.059	-0.111
-131.341	-40.723	0.044	-0.022
-130.326	-178.496	-0.296	0.007
-129.312	-143.004	0.348	-0.033
-128.297	-118.593	0.349	-0.061
-127.283	-7.889	0.115	-0.076
-126.268	28.594	0.370	-0.308
-125.253	69.586	0.269	-0.272
-124.239	-138.248	0.294	0.032
-123.224	271.034	-0.164	-0.285
-122.210	766.958	0.026	0.071
