DTS Sentinel unit serial number:	SN413079Multiplexer serial number:	ORYXHardware model number:	OX4-SRSoftware version number:	ORYX F/W v4.00 Oryx Data Collector v3.7.2.0data status	okinstallation	princeton_trtdifferential loss correction	single-endedforward channel	channel 2reverse channel	N/Adate	2019/09/14time	15:11:34forward acquisition time	60.00reverse acquisition time	0.00gamma	496.2192k internal	0.2302k external	0.2302temperature offset calibration	1.0137default loss term (dB/km)	0.3790temperature slope calibration	1.0000multiplexer offset coefficient	1.0000multiplexer slope coefficient	1.0000fibre end	0.00T internal ref (°C)	39.12T ext. ref 1 (°C)	5.06T ext. ref 2 (°C)	35.20length (m)	temperature (°C)	Stokes	anti-Stokes-747.200	90.418	-0.138	0.158
-746.185	-200.000	-0.014	-0.077
-745.171	97.223	0.172	0.201
-744.156	-148.663	-0.224	0.019
-743.142	95.792	0.034	0.039
-742.127	-62.570	-0.151	-0.064
-741.112	57.762	0.213	-0.212
-740.098	-138.541	-0.350	-0.039
-739.083	24.458	0.123	-0.104
-738.069	-97.360	0.230	-0.061
-737.054	-12.468	0.117	-0.078
-736.039	800.000	0.021	-0.061
-735.025	-193.327	0.324	-0.003
-734.010	155.279	0.095	-0.132
-732.996	59.219	0.059	-0.060
-731.981	320.835	-0.082	-0.159
-730.966	104.396	-0.144	-0.172
-729.952	-28.125	0.169	-0.100
-728.937	-26.686	-0.065	-0.039
-727.923	51.776	0.158	-0.153
-726.908	262.777	-0.093	0.164
-725.894	-53.509	-0.342	-0.159
-724.879	-16.328	0.295	0.190
-723.864	-200.000	0.024	-0.178
-722.850	772.464	0.040	-0.111
-721.835	-159.042	-0.072	0.004
-720.821	800.000	0.070	0.264
-719.806	-200.000	0.029	0.171
-718.791	-128.207	0.123	-0.018
-717.777	-109.408	-0.351	-0.076
-716.762	152.097	-0.159	-0.220
-715.748	-38.353	-0.195	-0.105
-714.733	240.556	0.175	0.297
-713.718	-88.466	0.234	-0.071
-712.704	-23.980	-0.197	0.120
-711.689	470.045	-0.126	0.287
-710.675	-200.000	-0.051	0.450
-709.660	-29.759	0.292	0.169
-708.645	250.955	-0.053	0.092
-707.631	-200.000	-0.008	0.052
-706.616	17.716	-0.217	-0.176
-705.602	-145.003	-0.206	0.019
-704.587	-48.560	0.128	-0.063
-703.572	168.832	-0.131	-0.191
-702.558	-31.464	-0.206	-0.118
-701.543	-46.811	0.233	0.116
-700.529	275.402	0.102	-0.184
-699.514	-145.270	-0.350	0.032
-698.499	179.528	0.137	0.204
-697.485	-141.395	-0.391	-0.040
-696.470	-200.000	-0.006	0.320
-695.456	-94.823	-0.169	-0.047
-694.441	-25.825	0.211	0.127
-693.426	110.223	0.110	0.134
-692.412	117.328	-0.158	0.197
-691.397	122.206	0.290	0.368
-690.383	-156.826	-0.516	-0.032
-689.368	105.881	-0.127	0.153
-688.354	800.000	-0.020	0.071
-687.339	-99.453	-0.108	-0.028
-686.324	-200.000	-0.003	0.170
-685.310	163.019	0.026	0.038
-684.295	87.281	-0.026	0.029
-683.281	162.788	0.066	0.094
-682.266	-79.435	0.120	0.041
-681.251	-57.021	0.097	0.043
-680.237	-3.247	-0.255	0.181
-679.222	48.942	0.097	-0.093
-678.208	54.579	-0.120	-0.117
-677.193	397.841	0.050	-0.107
-676.178	-18.958	-0.167	-0.105
-675.164	-200.000	0.004	-0.363
-674.149	246.769	0.051	0.087
-673.135	800.000	-0.062	-0.210
-672.120	39.552	-0.177	-0.161
-671.105	17.082	-0.229	0.184
-670.091	473.345	-0.068	0.156
-669.076	295.961	0.199	-0.370
-668.062	-149.310	0.259	0.021
-667.047	-200.000	-0.012	-0.276
-666.032	-187.120	-0.047	-0.001
-665.018	1.742	0.166	0.122
-664.003	-45.886	-0.216	-0.108
-662.989	211.528	-0.213	0.341
-661.974	-151.157	-0.032	-0.002
-660.959	-75.225	0.076	-0.027
-659.945	120.845	0.082	0.103
-658.930	652.148	0.074	-0.192
-657.916	468.207	-0.103	-0.234
-656.901	800.000	0.021	-0.072
-655.886	-23.686	0.089	-0.054
-654.872	-132.821	0.372	-0.048
-653.857	-37.013	-0.418	-0.227
-652.843	205.231	0.044	0.069
-651.828	-200.000	-0.013	-0.168
-650.814	-200.000	0.201	0.000
-649.799	-180.317	-0.360	0.008
-648.784	-90.652	-0.434	-0.127
-647.770	-148.922	0.186	-0.015
-646.755	-200.000	-0.060	-0.438
-645.741	800.000	-0.091	0.334
-644.726	-200.000	0.014	-0.144
-643.711	-15.715	0.055	0.036
-642.697	56.398	0.245	-0.242
-641.682	231.063	0.167	-0.277
-640.668	574.410	-0.067	0.166
-639.653	-200.000	0.007	0.062
-638.638	-121.948	-0.204	0.034
-637.624	127.002	-0.103	0.132
-636.609	199.879	0.065	-0.102
-635.595	-135.626	-0.194	0.023
-634.580	14.891	-0.471	-0.374
-633.565	40.263	0.020	0.018
-632.551	-200.000	-0.016	0.403
-631.536	-170.464	-0.446	0.016
-630.522	-132.596	0.183	0.024
-629.507	-132.762	-0.218	0.028
-628.492	-37.563	0.210	-0.114
-627.478	55.812	0.364	0.358
-626.463	37.791	-0.291	0.262
-625.449	282.589	-0.197	0.358
-624.434	-146.191	-0.208	0.019
-623.419	-82.802	-0.245	-0.080
-622.405	800.000	-0.121	0.440
-621.390	-200.000	-0.007	0.198
-620.376	-8.102	-0.185	-0.126
-619.361	22.925	-0.173	0.144
-618.346	141.804	0.181	0.243
-617.332	-200.000	0.003	0.101
-616.317	308.037	-0.063	-0.118
-615.303	64.133	0.221	-0.226
-614.288	-200.000	0.027	0.166
-613.273	-74.868	0.371	-0.135
-612.259	-200.000	0.036	-0.175
-611.244	485.832	-0.071	0.164
-610.230	308.141	0.100	-0.189
-609.215	310.547	0.197	0.373
-608.201	-76.158	-0.098	-0.035
-607.186	295.629	0.078	0.145
-606.171	-73.674	0.257	-0.095
-605.157	-76.207	-0.150	0.053
-604.142	128.139	0.062	-0.081
-603.128	-31.210	-0.288	-0.165
-602.113	-200.000	0.062	0.430
-601.098	412.412	-0.092	0.199
-600.084	165.376	-0.127	-0.182
-599.069	-145.731	0.316	-0.029
-598.055	800.000	0.026	-0.092
-597.040	15.087	0.100	0.080
-596.025	21.119	0.166	0.137
-595.011	106.295	-0.257	-0.308
-593.996	-27.883	0.229	0.135
-592.982	-39.178	0.304	-0.162
-591.967	-3.128	-0.130	0.092
-590.952	-200.000	-0.089	-0.408
-589.938	202.873	0.139	0.217
-588.923	242.529	0.187	-0.317
-587.909	-20.446	-0.100	0.062
-586.894	-78.067	0.455	0.159
-585.879	99.786	0.250	-0.293
-584.865	-56.046	-0.286	0.129
-583.850	-200.000	-0.020	-0.103
-582.836	-200.000	-0.012	-0.158
-581.821	-200.000	0.016	-0.102
-580.806	329.030	0.107	0.209
-579.792	299.441	-0.137	0.256
-578.777	-200.000	-0.036	0.233
-577.763	-73.094	0.107	-0.040
-576.748	-61.761	-0.192	0.082
-575.733	-6.569	0.090	0.062
-574.719	-158.688	-0.185	-0.011
-573.704	-200.000	-0.001	0.276
-572.690	-87.311	0.054	0.017
-571.675	13.722	0.204	-0.161
-570.661	-126.019	0.153	0.023
-569.646	-184.279	0.115	0.002
-568.631	108.706	-0.232	0.280
-567.617	-200.000	0.034	0.315
-566.602	88.638	0.062	-0.070
-565.588	223.071	-0.154	-0.250
-564.573	800.000	0.063	-0.263
-563.558	-118.165	-0.165	0.030
-562.544	-94.622	-0.077	0.021
-561.529	-114.915	-0.354	-0.068
-560.515	10.216	0.290	-0.223
-559.500	-81.052	0.164	-0.055
-558.485	-122.007	-0.148	0.025
-557.471	800.000	0.054	0.156
-556.456	87.151	-0.062	-0.070
-555.442	53.182	-0.242	-0.234
-554.427	-138.872	-0.233	0.026
-553.412	-200.000	0.001	0.065
-552.398	-58.877	0.058	-0.026
-551.383	-58.862	-0.292	-0.128
-550.369	-12.718	-0.231	0.152
-549.354	-25.128	0.512	0.307
-548.339	333.023	-0.171	0.335
-547.325	800.000	-0.080	0.293
-546.310	-93.259	0.195	0.055
-545.296	-200.000	-0.127	0.001
-544.281	360.414	-0.104	-0.210
-543.266	-12.197	0.011	-0.007
-542.252	800.000	-0.048	-0.210
-541.237	94.687	0.190	0.219
-540.223	-200.000	0.000	0.151
-539.208	-200.000	0.007	-0.147
-538.193	-65.907	-0.246	-0.099
-537.179	-110.541	0.179	0.037
-536.164	645.605	-0.145	0.374
-535.150	106.865	0.082	0.099
-534.135	137.411	-0.086	0.114
-533.121	95.677	-0.178	0.205
-532.106	104.041	0.050	0.059
-531.091	-200.000	0.032	-0.281
-530.077	-0.611	0.224	-0.161
-529.062	-200.000	0.006	-0.121
-528.048	-61.940	0.209	0.088
-527.033	-44.977	0.282	0.142
-526.018	-11.147	0.127	-0.085
-525.004	195.810	-0.183	-0.282
-523.989	221.706	-0.092	0.149
-522.975	20.852	-0.159	0.130
-521.960	-45.811	-0.361	-0.180
-520.945	800.000	-0.046	0.190
-519.931	-98.939	0.152	-0.039
-518.916	-5.574	0.124	0.086
-517.902	-145.294	-0.246	-0.022
-516.887	800.000	0.102	0.445
-515.872	109.356	0.070	0.085
-514.858	-200.000	0.027	0.337
-513.843	-97.847	-0.115	-0.030
-512.829	48.008	-0.266	0.251
-511.814	186.219	0.066	-0.099
-510.799	327.991	0.101	0.196
-509.785	-56.954	-0.330	-0.147
-508.770	-13.638	0.360	-0.235
-507.756	-200.000	-0.026	-0.148
-506.741	165.820	-0.142	0.202
-505.726	116.169	0.196	-0.242
-504.712	800.000	-0.027	-0.099
-503.697	274.170	0.210	0.375
-502.683	800.000	0.017	-0.065
-501.668	46.075	0.052	-0.048
-500.653	-101.935	0.352	-0.086
-499.639	-177.009	0.260	-0.007
-498.624	9.421	0.084	0.064
-497.610	174.388	-0.049	0.072
-496.595	52.349	-0.139	0.134
-495.581	800.000	-0.064	-0.237
-494.566	-200.000	0.091	0.444
-493.551	77.252	0.277	0.298
-492.537	-24.239	-0.136	0.082
-491.522	-126.796	0.093	-0.014
-490.508	169.712	0.132	-0.190
-489.493	4.486	-0.093	0.069
-488.478	-29.209	0.324	-0.187
-487.464	-200.000	0.017	-0.129
-486.449	-200.000	0.009	-0.384
-485.435	122.968	0.322	-0.406
-484.420	-200.000	-0.038	-0.178
-483.405	-200.000	-0.022	-0.130
-482.391	-83.828	0.354	0.114
-481.376	-107.726	-0.299	-0.066
-480.362	70.281	-0.149	0.155
-479.347	-147.986	-0.294	-0.025
-478.332	800.000	0.120	0.338
-477.318	21.434	-0.241	0.197
-476.303	-29.211	-0.115	-0.066
-475.289	-89.196	-0.152	-0.045
-474.274	-121.152	0.208	-0.035
-473.259	-200.000	-0.220	0.000
-472.245	-21.093	-0.387	-0.239
-471.230	-200.000	-0.022	-0.236
-470.216	-73.409	0.103	-0.038
-469.201	-200.000	-0.013	-0.083
-468.186	114.276	-0.151	-0.185
-467.172	205.121	-0.066	-0.103
-466.157	-69.049	0.110	-0.043
-465.143	-87.522	-0.241	-0.073
-464.128	-200.000	-0.011	0.058
-463.113	-183.482	-0.226	0.004
-462.099	-87.757	0.133	0.040
-461.084	154.153	0.114	0.158
-460.070	-200.000	-0.064	0.435
-459.055	579.497	0.085	-0.211
-458.040	12.061	-0.097	-0.075
-457.026	800.000	0.098	-0.279
-456.011	800.000	-0.041	-0.141
-454.997	-16.585	-0.198	-0.126
-453.982	33.983	0.360	0.316
-452.968	-73.459	0.302	-0.111
-451.953	800.000	0.049	0.177
-450.938	-22.283	-0.184	-0.112
-449.924	-164.494	0.443	-0.020
-448.909	0.388	-0.300	0.216
-447.895	800.000	0.043	0.154
-446.880	-6.228	-0.144	0.099
-445.865	75.713	-0.377	-0.401
-444.851	551.270	0.028	0.068
-443.836	-143.389	-0.120	-0.012
-442.822	-54.463	0.133	-0.061
-441.807	800.000	-0.051	0.161
-440.792	102.520	0.215	0.253
-439.778	800.000	0.043	-0.146
-438.763	-33.923	0.199	0.110
-437.749	62.852	-0.101	0.102
-436.734	-200.000	-0.055	-0.389
-435.719	24.254	0.180	0.150
-434.705	299.098	0.067	0.124
-433.690	212.426	-0.102	-0.162
-432.676	51.393	-0.136	-0.130
-431.661	246.771	-0.187	0.317
-430.646	-200.000	-0.014	-0.252
-429.632	-200.000	0.008	0.174
-428.617	90.146	0.120	0.135
-427.603	387.745	0.131	0.272
-426.588	38.690	0.211	-0.190
-425.573	412.144	0.256	-0.548
-424.559	417.388	-0.053	0.113
-423.544	303.747	0.084	-0.157
-422.530	-38.116	-0.228	-0.122
-421.515	-121.453	-0.117	-0.020
-420.500	68.656	-0.233	0.241
-419.486	-37.142	0.175	0.094
-418.471	-41.770	0.168	0.087
-417.457	-41.148	-0.440	-0.228
-416.442	157.069	-0.092	-0.128
-415.428	-127.913	-0.191	-0.028
-414.413	-200.000	0.023	-0.115
-413.398	265.290	-0.081	-0.141
-412.384	800.000	-0.061	-0.195
-411.369	-200.000	-0.001	-0.020
-410.355	-26.267	0.222	-0.131
-409.340	800.000	-0.063	-0.205
-408.325	800.000	0.095	0.326
-407.311	137.093	0.073	0.096
-406.296	-200.000	0.011	0.055
-405.282	119.275	-0.139	0.172
-404.267	-86.666	-0.025	0.008
-403.252	800.000	0.155	0.434
-402.238	282.847	0.160	-0.290
-401.223	24.275	-0.015	0.012
-400.209	-88.602	-0.157	0.047
-399.194	-157.840	-0.144	0.009
-398.179	141.028	-0.117	-0.156
-397.165	-200.000	0.016	-0.131
-396.150	-200.000	-0.015	-0.083
-395.136	-103.894	0.205	0.048
-394.121	-200.000	0.009	0.293
-393.106	-65.654	0.230	-0.093
-392.092	186.130	0.127	0.191
-391.077	191.554	-0.098	0.149
-390.063	-154.386	0.340	-0.023
-389.048	64.578	-0.272	-0.276
-388.033	800.000	-0.014	0.054
-387.019	318.811	0.064	-0.122
-386.004	-81.322	0.166	0.055
-384.990	-96.725	0.229	0.061
-383.975	-200.000	0.026	0.337
-382.960	-49.697	-0.037	0.018
-381.946	-200.000	0.009	0.490
-380.931	-79.457	0.412	0.140
-379.917	559.415	0.107	-0.260
-378.902	-57.993	0.111	0.049
-377.888	800.000	0.108	0.423
-376.873	153.543	0.031	0.042
-375.858	800.000	0.034	0.103
-374.844	-200.000	-0.045	0.304
-373.829	463.045	-0.037	0.084
-372.815	-13.896	-0.300	0.195
-371.800	-47.657	0.318	-0.155
-370.785	15.687	0.166	0.131
-369.771	-200.000	0.059	0.263
-368.756	-3.146	0.077	0.054
-367.742	-200.000	0.007	-0.133
-366.727	-61.824	-0.020	0.009
-365.712	-200.000	0.013	-0.198
-364.698	-200.000	0.015	0.440
-363.683	208.675	-0.139	-0.219
-362.669	377.275	-0.064	0.132
-361.654	-101.906	0.258	-0.063
-360.639	-1.196	0.116	0.083
-359.625	-90.933	-0.113	0.033
-358.610	-105.224	0.153	0.035
-357.596	11.355	0.129	0.099
-356.581	-108.239	0.334	-0.072
-355.566	-160.516	0.062	0.003
-354.552	153.094	-0.061	-0.084
-353.537	112.845	-0.141	0.172
-352.523	-43.480	0.185	-0.094
-351.508	1.309	0.137	-0.099
-350.493	16.055	-0.169	-0.133
-349.479	24.333	-0.206	-0.171
-348.464	143.931	-0.048	0.065
-347.450	-200.000	-0.009	-0.132
-346.435	191.343	-0.181	-0.273
-345.420	-39.025	0.106	0.056
-344.406	345.031	-0.107	0.211
-343.391	72.223	-0.178	0.186
-342.377	-200.000	-0.029	-0.414
-341.362	-8.169	0.242	-0.163
-340.348	532.467	0.132	0.312
-339.333	550.835	0.026	-0.062
-338.318	-200.000	0.072	-0.331
-337.304	-64.359	0.082	0.033
-336.289	16.416	-0.043	0.034
-335.275	293.847	-0.161	-0.295
-334.260	800.000	-0.089	-0.314
-333.245	414.678	0.036	-0.077
-332.231	-200.000	0.032	-0.187
-331.216	-200.000	-0.006	-0.211
-330.202	-80.837	0.119	0.040
-329.187	46.839	-0.209	0.195
-328.172	118.057	-0.178	-0.220
-327.158	-200.000	0.012	-0.217
-326.143	800.000	0.099	-0.368
-325.129	41.086	-0.201	-0.182
-324.114	635.173	-0.108	0.276
-323.099	437.139	0.108	-0.236
-322.085	-93.109	0.092	-0.026
-321.070	0.360	0.178	-0.128
-320.056	-101.210	-0.240	0.059
-319.041	22.562	0.169	-0.138
-318.026	33.157	-0.085	0.074
-317.012	-200.000	0.000	-0.019
-315.997	-134.008	-0.214	-0.027
-314.983	694.871	0.037	-0.098
-313.968	81.728	-0.125	-0.135
-312.953	513.550	-0.027	0.062
-311.939	-200.000	0.016	0.097
-310.924	-200.000	-0.006	0.041
-309.910	-80.856	0.057	-0.019
-308.895	-122.927	0.307	-0.050
-307.880	-5.598	-0.296	-0.203
-306.866	-58.959	-0.135	0.059
-305.851	38.136	0.200	-0.178
-304.837	-60.631	0.115	-0.049
-303.822	22.056	0.064	0.053
-302.807	400.596	-0.192	-0.404
-301.793	582.277	0.092	0.227
-300.778	133.298	-0.077	-0.100
-299.764	477.561	-0.060	-0.136
-298.749	194.315	-0.251	-0.382
-297.735	-61.477	0.430	0.181
-296.720	141.885	0.193	0.256
-295.705	362.321	0.012	-0.024
-294.691	50.984	-0.062	0.059
-293.676	-83.076	-0.050	0.016
-292.662	83.650	-0.090	-0.098
-291.647	-173.767	-0.045	-0.001
-290.632	-12.925	0.232	0.151
-289.618	-119.062	-0.224	-0.039
-288.603	13.180	0.131	-0.101
-287.589	-200.000	0.032	0.182
-286.574	-160.573	0.132	0.007
-285.559	800.000	0.073	0.270
-284.545	51.730	-0.270	-0.257
-283.530	354.372	-0.010	0.020
-282.516	-142.995	-0.157	0.015
-281.501	800.000	-0.105	-0.382
-280.486	-18.604	-0.071	-0.044
-279.472	-85.917	0.172	-0.053
-278.457	575.278	-0.148	-0.361
-277.443	-21.335	0.218	0.133
-276.428	800.000	0.122	0.505
-275.413	-14.990	0.276	-0.177
-274.399	-137.779	-0.128	-0.014
-273.384	-98.046	0.444	-0.114
-272.370	92.747	-0.081	-0.092
-271.355	48.191	-0.127	-0.118
-270.340	-200.000	-0.024	-0.158
-269.326	-200.000	0.015	-0.314
-268.311	-41.937	0.130	0.067
-267.297	-56.283	0.272	0.121
-266.282	-53.300	0.319	0.147
-265.267	-52.803	-0.211	0.097
-264.253	23.052	0.254	0.208
-263.238	106.375	-0.192	-0.227
-262.224	233.807	0.168	0.276
-261.209	800.000	0.018	-0.064
-260.195	800.000	-0.104	-0.299
-259.180	800.000	0.038	-0.107
-258.165	-23.088	-0.209	0.126
-257.151	224.145	0.053	0.085
-256.136	-21.759	-0.230	-0.140
-255.122	64.003	0.053	-0.053
-254.107	-200.000	-0.030	0.155
-253.092	212.923	-0.129	0.203
-252.078	489.549	0.123	-0.280
-251.063	-105.123	-0.257	-0.059
-250.049	-41.315	0.249	-0.128
-249.034	-87.938	0.388	0.116
-248.019	272.789	0.201	0.355
-247.005	324.808	-0.069	-0.131
-245.990	-101.669	-0.098	-0.024
-244.976	642.105	-0.083	-0.212
-243.961	69.598	0.097	-0.100
-242.946	-25.917	-0.043	0.025
-241.932	136.846	0.083	0.109
-240.917	174.759	-0.206	-0.298
-239.903	-200.000	-0.008	-0.201
-238.888	-53.560	-0.046	0.021
-237.873	-126.578	-0.064	-0.010
-236.859	25.971	-0.102	0.085
-235.844	800.000	-0.091	-0.276
-234.830	99.877	0.068	-0.078
-233.815	-70.967	-0.059	0.022
-232.800	-55.187	-0.346	0.155
-231.786	-62.875	0.499	0.206
-230.771	73.065	-0.038	0.039
-229.757	148.550	-0.116	0.156
-228.742	-42.356	0.128	0.065
-227.727	129.031	0.041	0.053
-226.713	195.420	-0.164	-0.249
-225.698	-136.349	-0.073	-0.009
-224.684	-38.456	-0.235	-0.124
-223.669	135.934	-0.196	0.255
-222.655	-85.536	0.471	-0.146
-221.640	-114.574	-0.209	-0.040
-220.625	-20.584	0.172	-0.105
-219.611	-200.000	0.019	0.103
-218.596	-86.769	-0.255	-0.078
-217.582	-200.000	0.034	0.211
-216.567	-74.353	-0.029	0.011
-215.552	324.562	0.053	-0.101
-214.538	8.653	0.155	0.116
-213.523	-97.171	0.271	-0.071
-212.509	-115.583	-0.186	0.035
-211.494	100.012	0.202	-0.233
-210.479	-127.887	-0.246	0.035
-209.465	565.766	0.068	0.165
-208.450	-200.000	0.020	-0.198
-207.436	194.721	-0.116	-0.176
-206.421	-200.000	-0.026	-0.137
-205.406	539.636	-0.100	0.237
-204.392	74.883	-0.118	-0.124
-203.377	54.701	0.133	0.128
-202.363	-57.592	0.175	-0.077
-201.348	-200.000	0.088	-0.392
-200.333	216.426	0.140	0.222
-199.319	-200.000	-0.008	0.057
-198.304	-159.964	0.294	0.016
-197.290	134.155	0.236	0.304
-196.275	43.704	-0.058	0.053
-195.260	-94.918	-0.135	-0.037
-194.246	1.463	-0.132	-0.095
-193.231	-33.842	-0.083	-0.045
-192.217	-200.000	0.174	0.000
-191.202	382.671	-0.133	0.273
-190.187	36.781	-0.310	0.273
-189.173	-139.699	0.229	0.024
-188.158	-16.023	0.110	0.070
-187.144	-72.144	0.370	0.137
-186.129	143.775	0.145	-0.193
-185.114	800.000	-0.028	-0.094
-184.100	-115.841	-0.100	0.019
-183.085	-121.584	0.168	0.028
-182.071	114.357	-0.211	-0.256
-181.056	800.000	0.095	0.368
-180.042	-40.839	-0.146	-0.075
-179.027	80.240	-0.120	0.129
-178.012	-200.000	-0.008	0.187
-176.998	102.235	-0.299	0.348
-175.983	-200.000	0.019	0.133
-174.969	243.534	0.109	0.183
-173.954	289.517	-0.058	0.104
-172.939	37.033	-0.413	0.364
-171.925	-200.000	0.036	-0.157
-170.910	-44.987	0.160	-0.079
-169.896	-42.256	-0.274	-0.139
-168.881	-200.000	0.052	-0.540
-167.866	82.079	0.143	-0.154
-166.852	-79.015	-0.281	0.095
-165.837	-200.000	-0.011	0.111
-164.823	-65.761	0.143	-0.057
-163.808	-19.633	-0.433	0.267
-162.793	245.115	-0.102	0.171
-161.779	-4.520	-0.031	-0.021
-160.764	-200.000	-0.029	-0.144
-159.750	603.367	-0.051	0.126
-158.735	-22.431	-0.125	0.075
-157.720	-200.000	0.031	-0.375
-156.706	-62.158	0.170	0.071
-155.691	-73.565	-0.211	0.077
-154.677	-200.000	0.029	-0.340
-153.662	-200.000	0.021	-0.093
-152.647	-150.676	-0.269	0.020
-151.633	357.556	-0.160	-0.318
-150.618	52.327	-0.198	0.188
-149.604	94.270	-0.020	-0.022
-148.589	-88.283	-0.272	-0.081
-147.574	-200.000	-0.028	-0.255
-146.560	-181.860	0.347	-0.007
-145.545	-18.319	0.366	0.228
-144.531	158.875	-0.134	0.186
-143.516	105.778	0.253	0.297
-142.502	28.637	-0.155	0.131
-141.487	726.241	0.061	0.161
-140.472	-200.000	-0.004	0.044
-139.458	108.974	0.101	-0.120
-138.443	-200.000	0.013	0.135
-137.429	-200.000	-0.034	0.230
-136.414	-86.716	0.240	-0.073
-135.399	800.000	-0.040	0.169
-134.385	102.197	0.252	0.293
-133.370	-12.676	-0.170	-0.110
-132.356	35.415	0.246	0.215
-131.341	-200.000	-0.006	-0.165
-130.326	-5.014	-0.066	0.045
-129.312	-131.579	0.241	0.032
-128.297	37.436	0.249	0.219
-127.283	3.987	-0.155	0.113
-126.268	63.792	-0.278	0.277
-125.253	400.127	-0.021	0.044
-124.239	-181.135	0.213	-0.004
-123.224	149.056	0.167	-0.224
-122.210	-200.000	0.071	-0.344
-121.195	229.691	0.055	0.089
