DTS Sentinel unit serial number:	SN413079Multiplexer serial number:	ORYXHardware model number:	OX4-SRSoftware version number:	ORYX F/W v4.00 Oryx Data Collector v3.7.2.0data status	okinstallation	princeton_trtdifferential loss correction	single-endedforward channel	channel 2reverse channel	N/Adate	2019/09/16time	07:11:34forward acquisition time	60.00reverse acquisition time	0.00gamma	496.2192k internal	0.2334k external	0.2334temperature offset calibration	0.9978default loss term (dB/km)	0.3790temperature slope calibration	1.0000multiplexer offset coefficient	1.0000multiplexer slope coefficient	1.0000fibre end	0.00T internal ref (°C)	27.37T ext. ref 1 (°C)	11.53T ext. ref 2 (°C)	22.03length (m)	temperature (°C)	Stokes	anti-Stokes-747.200	-200.000	0.017	0.082
-746.185	116.068	-0.188	0.231
-745.171	800.000	-0.015	0.060
-744.156	421.238	-0.065	0.139
-743.142	-38.124	0.201	-0.107
-742.127	-147.385	0.090	-0.008
-741.112	-154.312	0.045	-0.003
-740.098	-100.698	-0.207	-0.051
-739.083	113.228	0.095	0.116
-738.069	114.676	-0.059	0.073
-737.054	-200.000	0.029	0.455
-736.039	-77.700	-0.253	-0.088
-735.025	17.865	0.180	0.144
-734.010	-191.699	-0.592	-0.006
-732.996	579.377	-0.110	-0.270
-731.981	194.471	0.129	-0.196
-730.966	-186.596	0.360	0.005
-729.952	135.898	-0.214	-0.280
-728.937	-61.245	0.220	-0.093
-727.923	800.000	-0.013	-0.043
-726.908	321.748	-0.140	-0.267
-725.894	161.055	-0.162	-0.228
-724.879	41.480	-0.307	-0.279
-723.864	681.226	-0.042	-0.110
-722.850	-82.884	-0.102	-0.033
-721.835	-112.800	-0.085	0.017
-720.821	-1.186	-0.244	-0.173
-719.806	47.493	0.255	-0.239
-718.791	104.940	-0.135	0.160
-717.777	-67.677	0.098	-0.039
-716.762	29.851	-0.183	0.157
-715.748	-132.543	0.200	-0.026
-714.733	437.049	0.084	0.184
-713.718	277.524	0.103	-0.184
-712.704	-74.135	-0.221	0.080
-711.689	-141.295	0.092	0.009
-710.675	-27.958	0.318	-0.185
-709.660	123.038	-0.106	0.133
-708.645	-151.745	0.423	-0.031
-707.631	-35.288	0.050	-0.027
-706.616	-135.346	0.151	-0.018
-705.602	-48.085	-0.249	-0.121
-704.587	178.461	0.087	-0.128
-703.572	35.516	-0.053	-0.047
-702.558	-71.369	-0.520	-0.196
-701.543	-75.929	0.343	0.122
-700.529	-41.150	0.112	-0.058
-699.514	346.136	-0.059	-0.116
-698.499	93.350	0.095	-0.108
-697.485	-200.000	-0.086	-0.420
-696.470	-200.000	-0.010	-0.223
-695.456	800.000	-0.082	-0.235
-694.441	610.733	0.144	-0.361
-693.426	-97.299	0.011	-0.003
-692.412	136.966	0.170	-0.223
-691.397	93.685	-0.189	0.215
-690.383	388.320	-0.152	0.315
-689.368	55.148	0.135	-0.131
-688.354	207.650	0.165	0.258
-687.339	16.961	-0.191	-0.152
-686.324	700.138	0.037	0.099
-685.310	1.518	0.183	0.132
-684.295	208.661	0.108	-0.170
-683.281	-41.453	-0.131	0.067
-682.266	-200.000	-0.015	0.254
-681.251	98.678	-0.199	-0.231
-680.237	-22.822	-0.154	-0.093
-679.222	-79.092	0.325	-0.111
-678.208	136.612	0.088	-0.115
-677.193	-98.958	-0.284	-0.072
-676.178	355.359	-0.152	-0.304
-675.164	-109.049	-0.154	0.033
-674.149	-133.362	0.170	0.021
-673.135	127.945	0.183	-0.233
-672.120	-126.749	0.130	-0.019
-671.105	-15.573	-0.150	-0.096
-670.091	254.684	0.105	-0.181
-669.076	-31.375	0.296	0.167
-668.062	-127.736	-0.261	0.038
-667.047	-116.691	-0.349	-0.064
-666.032	71.852	-0.245	0.256
-665.018	-26.819	0.125	-0.073
-664.003	-31.473	0.212	0.120
-662.989	7.523	0.154	-0.115
-661.974	-59.083	-0.079	0.034
-660.959	-200.000	0.084	-0.517
-659.945	156.409	-0.252	-0.349
-658.930	-47.205	-0.218	0.107
-657.916	145.793	0.085	-0.114
-656.901	-145.534	-0.287	-0.026
-655.886	324.211	0.103	0.198
-654.872	116.930	0.139	-0.171
-653.857	26.654	-0.237	-0.198
-652.843	447.783	0.139	-0.307
-651.828	-43.548	-0.219	0.111
-650.814	-26.580	0.135	0.079
-649.799	-200.000	-0.027	-0.226
-648.784	-200.000	-0.003	0.045
-647.770	396.111	-0.112	0.235
-646.755	259.171	0.023	-0.039
-645.741	100.067	0.110	0.127
-644.726	-96.473	-0.394	-0.104
-643.711	-112.066	-0.098	-0.020
-642.697	-118.541	-0.254	0.045
-641.682	800.000	-0.063	-0.177
-640.668	-99.323	0.240	-0.061
-639.653	-122.977	-0.184	-0.030
-638.638	33.375	-0.197	-0.172
-637.624	35.611	0.259	-0.228
-636.609	13.138	0.092	-0.071
-635.595	631.273	-0.129	-0.327
-634.580	-200.000	-0.032	0.193
-633.565	263.234	0.116	-0.202
-632.551	347.890	-0.177	0.349
-631.536	-67.896	0.153	-0.060
-630.522	48.280	-0.050	-0.047
-629.507	-200.000	-0.004	0.168
-628.492	410.938	-0.150	0.318
-627.478	619.154	0.086	0.216
-626.463	115.440	-0.306	-0.374
-625.449	401.583	0.138	-0.289
-624.434	-157.613	0.193	-0.012
-623.419	-16.555	0.167	0.106
-622.405	-86.494	0.193	-0.059
-621.390	-200.000	0.043	-0.264
-620.376	-59.722	0.227	0.097
-619.361	800.000	0.006	0.024
-618.346	26.951	-0.117	0.098
-617.332	68.535	0.120	-0.123
-616.317	-99.562	0.267	-0.067
-615.303	-9.080	-0.264	0.177
-614.288	723.452	-0.048	0.128
-613.273	58.921	-0.190	0.187
-612.259	169.730	-0.071	0.102
-611.244	302.856	-0.080	0.149
-610.230	16.654	0.166	-0.132
-609.215	800.000	0.025	0.088
-608.201	-140.859	0.095	0.010
-607.186	-200.000	-0.029	0.488
-606.171	-200.000	0.028	0.289
-605.157	-82.326	-0.318	0.103
-604.142	-200.000	0.020	-0.173
-603.128	360.629	0.080	0.159
-602.113	-12.465	0.093	-0.060
-601.098	-199.120	0.181	0.001
-600.084	-200.000	0.003	-0.171
-599.069	-200.000	-0.016	-0.122
-598.055	-200.000	0.059	0.346
-597.040	-200.000	-0.028	-0.202
-596.025	641.097	0.135	-0.344
-595.011	-200.000	0.008	0.100
-593.996	800.000	-0.096	0.291
-592.982	115.055	0.046	0.056
-591.967	-25.408	0.235	0.139
-590.952	-200.000	-0.011	0.425
-589.938	-156.394	0.245	0.015
-588.923	-19.806	-0.226	0.140
-587.909	-115.864	0.251	-0.047
-586.894	-200.000	-0.009	-0.068
-585.879	568.960	-0.063	0.152
-584.865	-93.795	0.202	-0.056
-583.850	-150.542	0.463	-0.035
-582.836	-85.774	0.148	-0.046
-581.821	2.860	-0.150	0.109
-580.806	-156.087	-0.130	-0.008
-579.792	-200.000	-0.067	-0.359
-578.777	-96.976	-0.288	-0.075
-577.763	-200.000	0.014	-0.196
-576.748	-144.201	-0.201	0.019
-575.733	324.926	0.226	-0.431
-574.719	47.970	-0.289	0.269
-573.704	-120.916	-0.505	-0.085
-572.690	-57.334	0.063	0.028
-571.675	-200.000	-0.003	0.146
-570.661	-200.000	0.036	-0.181
-569.646	274.183	0.234	-0.413
-568.631	-200.000	0.002	0.236
-567.617	-200.000	-0.008	0.152
-566.602	-98.466	-0.195	0.050
-565.588	-148.648	-0.168	0.014
-564.573	7.464	-0.115	0.086
-563.558	304.000	0.205	0.379
-562.544	-134.342	0.257	-0.032
-561.529	388.777	-0.152	0.314
-560.515	-24.107	-0.266	-0.158
-559.500	-200.000	-0.007	-0.081
-558.485	-66.506	-0.397	0.157
-557.471	-50.362	0.070	-0.033
-556.456	0.938	-0.291	-0.208
-555.442	16.111	0.118	0.093
-554.427	460.165	0.122	0.270
-553.412	438.787	0.041	0.089
-552.398	-155.964	-0.418	0.026
-551.383	154.454	-0.081	0.112
-550.369	-98.656	0.207	0.053
-549.354	800.000	0.003	-0.009
-548.339	-132.155	0.079	0.010
-547.325	-71.460	0.159	0.059
-546.310	-95.231	0.149	-0.040
-545.296	128.074	-0.330	0.419
-544.281	124.229	-0.231	0.290
-543.266	-177.103	0.082	-0.002
-542.252	-53.146	-0.404	0.185
-541.237	-200.000	-0.036	-0.203
-540.223	-31.892	0.276	0.154
-539.208	77.769	0.247	0.262
-538.193	800.000	0.034	0.103
-537.179	130.190	0.110	-0.140
-536.164	158.344	-0.128	0.177
-535.150	-37.644	-0.365	0.194
-534.135	-55.596	0.169	-0.075
-533.121	-124.630	-0.252	0.039
-532.106	-200.000	0.071	-0.407
-531.091	-101.054	-0.172	-0.042
-530.077	-200.000	-0.012	0.270
-529.062	176.189	0.392	0.567
-528.048	-156.854	-0.187	-0.011
-527.033	-6.079	-0.091	-0.062
-526.018	-200.000	0.006	-0.137
-525.004	279.853	-0.098	0.174
-523.989	29.751	-0.024	0.020
-522.975	87.989	0.187	-0.206
-521.960	-200.000	0.071	0.325
-520.945	50.082	-0.137	0.129
-519.931	-200.000	-0.010	-0.130
-518.916	-31.058	-0.313	-0.176
-517.902	-72.059	0.114	-0.042
-516.887	8.374	0.221	0.165
-515.872	2.654	-0.082	0.060
-514.858	-97.553	0.139	0.036
-513.843	-115.841	0.083	-0.015
-512.829	-7.374	-0.132	0.089
-511.814	-95.454	0.118	0.032
-510.799	14.654	0.392	-0.305
-509.785	-200.000	-0.033	-0.180
-508.770	-197.127	-0.238	0.002
-507.756	-200.000	0.117	0.544
-506.741	-32.390	0.223	-0.124
-505.726	-200.000	-0.012	-0.126
-504.712	-59.160	-0.095	0.041
-503.697	-131.895	-0.266	0.035
-502.683	800.000	-0.039	0.131
-501.668	452.139	-0.086	0.189
-500.653	800.000	0.098	-0.406
-499.639	86.726	0.293	-0.322
-498.624	-191.153	-0.228	-0.002
-497.610	-200.000	-0.031	0.209
-496.595	800.000	0.071	0.255
-495.581	800.000	0.044	-0.166
-494.566	155.936	-0.177	-0.243
-493.551	7.769	-0.104	-0.078
-492.537	17.998	-0.274	-0.218
-491.522	-200.000	0.028	-0.464
-490.508	10.740	-0.189	0.143
-489.493	-33.002	-0.237	-0.131
-488.478	101.872	-0.159	-0.184
-487.464	800.000	-0.083	-0.252
-486.449	-58.315	0.165	-0.071
-485.435	85.374	-0.054	0.059
-484.420	165.975	-0.130	-0.183
-483.405	-45.788	0.085	0.042
-482.391	-200.000	-0.077	0.488
-481.376	4.731	0.158	-0.116
-480.362	40.380	0.133	-0.119
-479.347	274.634	-0.184	-0.324
-478.332	-81.716	0.094	-0.031
-477.318	-23.730	-0.293	-0.175
-476.303	-68.895	-0.149	-0.057
-475.289	-10.866	-0.162	0.107
-474.274	800.000	0.109	-0.307
-473.259	-25.838	-0.100	0.059
-472.245	-200.000	-0.031	-0.178
-471.230	-200.000	-0.000	-0.384
-470.216	-200.000	-0.011	0.181
-469.201	-133.247	-0.225	0.028
-468.186	357.051	0.039	-0.078
-467.172	476.711	0.153	-0.343
-466.157	99.486	-0.013	0.015
-465.143	-16.578	-0.137	0.086
-464.128	-200.000	-0.176	-0.000
-463.113	507.938	0.098	0.226
-462.099	-23.043	-0.211	0.126
-461.084	-164.960	0.075	0.003
-460.070	113.865	0.301	-0.363
-459.055	800.000	-0.049	0.172
-458.040	-127.554	-0.287	0.041
-457.026	-57.287	0.306	0.134
-456.011	-26.074	0.059	0.034
-454.997	186.706	-0.127	0.189
-453.982	800.000	-0.101	0.319
-452.968	-117.800	-0.130	0.023
-451.953	-82.723	0.160	-0.052
-450.938	-136.388	0.289	0.033
-449.924	41.490	0.101	0.091
-448.909	-185.694	-0.313	0.005
-447.895	-29.695	-0.299	0.170
-446.880	-59.369	0.317	0.135
-445.865	-63.477	0.193	0.079
-444.851	6.904	-0.141	0.104
-443.836	179.099	-0.200	-0.290
-442.822	155.684	-0.132	0.180
-441.807	-200.000	0.056	-0.304
-440.792	668.632	0.034	-0.087
-439.778	108.366	-0.249	0.295
-438.763	13.017	0.217	-0.166
-437.749	-200.000	-0.021	-0.141
-436.734	-44.697	-0.053	0.026
-435.719	189.573	-0.082	-0.122
-434.705	49.632	0.271	-0.254
-433.690	800.000	-0.021	0.074
-432.676	-37.833	-0.281	-0.149
-431.661	-200.000	0.007	0.085
-430.646	-164.034	-0.294	-0.014
-429.632	52.306	0.128	-0.122
-428.617	640.601	-0.081	0.204
-427.603	-30.312	0.267	0.150
-426.588	-121.234	0.397	0.066
-425.573	800.000	-0.161	0.541
-424.559	352.443	-0.095	-0.187
-423.544	64.429	-0.178	0.178
-422.530	800.000	-0.128	-0.437
-421.515	-136.279	0.107	0.012
-420.500	-117.488	0.081	0.014
-419.486	-34.480	0.227	0.123
-418.471	-200.000	0.002	0.040
-417.457	-139.663	-0.127	0.013
-416.442	-26.724	-0.136	0.079
-415.428	-160.584	0.256	0.014
-414.413	394.374	-0.131	-0.270
-413.398	800.000	-0.019	-0.067
-412.384	-80.354	0.197	-0.065
-411.369	800.000	0.075	-0.254
-410.355	-123.272	0.151	0.024
-409.340	326.953	-0.233	0.443
-408.325	682.215	0.092	0.238
-407.311	-155.047	0.167	0.011
-406.296	415.222	0.026	-0.054
-405.282	800.000	-0.128	-0.373
-404.267	-71.247	0.231	0.086
-403.252	344.265	0.114	0.222
-402.238	-150.649	-0.220	-0.017
-401.223	-69.092	0.127	-0.048
-400.209	-70.248	-0.201	0.076
-399.194	800.000	-0.050	0.194
-398.179	87.315	-0.137	-0.150
-397.165	312.947	-0.073	-0.137
-396.150	-57.526	0.065	0.028
-395.136	275.253	-0.097	0.171
-394.121	-56.486	0.247	0.109
-393.106	26.605	0.258	0.214
-392.092	-113.888	-0.322	0.062
-391.077	-16.649	-0.157	-0.099
-390.063	-37.835	-0.082	0.043
-389.048	-65.191	-0.161	-0.064
-388.033	69.568	0.125	-0.128
-387.019	-90.841	-0.155	-0.044
-386.004	59.150	0.099	-0.097
-384.990	384.258	0.179	0.365
-383.975	-57.021	0.225	0.098
-382.960	800.000	-0.023	0.065
-381.946	541.632	-0.119	0.281
-380.931	585.235	0.040	-0.098
-379.917	-107.606	-0.215	0.047
-378.902	24.918	0.213	0.175
-377.888	-200.000	-0.006	0.345
-376.873	800.000	0.033	0.134
-375.858	733.582	-0.029	-0.078
-374.844	-85.207	0.182	0.056
-373.829	-13.423	-0.055	-0.035
-372.815	28.548	0.410	-0.343
-371.800	-170.721	-0.198	0.007
-370.785	-77.067	-0.093	-0.032
-369.771	52.380	0.104	-0.098
-368.756	-200.000	-0.027	0.136
-367.742	1.143	0.147	0.104
-366.727	573.209	-0.159	-0.384
-365.712	205.076	0.023	-0.035
-364.698	-58.794	-0.189	0.081
-363.683	131.514	-0.031	-0.039
-362.669	-52.086	0.159	-0.073
-361.654	-200.000	-0.055	-0.466
-360.639	54.366	-0.265	0.252
-359.625	233.667	0.035	0.057
-358.610	-103.032	-0.160	-0.038
-357.596	-124.139	0.178	-0.028
-356.581	304.876	0.064	-0.117
-355.566	0.841	0.437	0.310
-354.552	-53.937	0.164	0.074
-353.537	-46.750	-0.139	0.067
-352.523	-61.725	0.380	0.158
-351.508	-200.000	-0.017	0.384
-350.493	256.099	0.123	0.209
-349.479	220.324	0.069	0.110
-348.464	-0.225	0.233	0.164
-347.450	37.578	0.190	-0.167
-346.435	741.230	-0.101	-0.269
-345.420	-55.342	0.286	-0.127
-344.406	800.000	0.067	-0.271
-343.391	-200.000	-0.007	-0.113
-342.377	-29.183	0.237	-0.135
-341.362	-200.000	0.029	-0.129
-340.348	-29.123	-0.049	0.028
-339.333	800.000	0.089	-0.251
-338.318	-121.014	-0.434	-0.072
-337.304	543.745	-0.043	-0.102
-336.289	-177.002	0.127	0.003
-335.275	-166.681	-0.234	0.010
-334.260	-22.197	0.178	-0.107
-333.245	-199.135	0.235	-0.001
-332.231	188.650	-0.063	-0.094
-331.216	-77.509	-0.116	0.040
-330.202	70.434	-0.106	0.109
-329.187	-18.091	0.246	-0.153
-328.172	118.015	-0.039	0.048
-327.158	109.677	0.066	-0.078
-326.143	39.268	-0.136	-0.120
-325.129	133.357	-0.026	-0.034
-324.114	414.296	-0.089	-0.188
-323.099	186.613	0.305	-0.448
-322.085	800.000	-0.108	-0.393
-321.070	-22.535	0.070	0.042
-320.056	800.000	0.045	0.131
-319.041	-200.000	-0.010	-0.199
-318.026	-200.000	-0.001	0.124
-317.012	-45.132	-0.233	0.114
-315.997	-131.577	-0.144	0.019
-314.983	800.000	-0.062	-0.170
-313.968	-200.000	-0.041	-0.313
-312.953	-88.007	-0.043	-0.013
-311.939	-39.188	0.312	-0.162
-310.924	-156.797	0.259	-0.016
-309.910	105.988	-0.267	-0.312
-308.895	800.000	-0.050	0.147
-307.880	409.352	-0.154	0.321
-306.866	132.066	-0.172	-0.219
-305.851	-65.346	0.313	-0.125
-304.837	-200.000	0.027	-0.215
-303.822	-110.306	0.075	-0.015
-302.807	310.429	-0.107	0.198
-301.793	-39.602	0.212	-0.110
-300.778	-21.231	-0.115	0.069
-299.764	63.200	0.210	0.208
-298.749	-17.718	-0.160	0.099
-297.735	-118.200	0.058	-0.010
-296.720	472.352	0.240	0.534
-295.705	-26.794	0.150	0.087
-294.691	-200.000	-0.016	0.269
-293.676	-110.270	0.311	-0.064
-292.662	727.083	-0.084	-0.222
-291.647	4.516	0.206	-0.149
-290.632	-105.319	-0.176	0.040
-289.618	430.852	0.095	-0.203
-288.603	285.619	-0.164	-0.293
-287.589	212.240	0.031	0.048
-286.574	-169.812	-0.345	0.012
-285.559	-127.766	0.132	-0.019
-284.545	800.000	0.022	-0.073
-283.530	65.083	0.109	-0.109
-282.516	-119.963	0.198	-0.034
-281.501	283.464	0.078	0.138
-280.486	-200.000	0.003	0.150
-279.472	82.834	-0.179	0.192
-278.457	403.811	-0.071	-0.147
-277.443	-140.939	0.226	-0.023
-276.428	-200.000	-0.022	0.201
-275.413	-44.926	-0.420	-0.207
-274.399	764.625	0.025	0.068
-273.384	-184.792	0.073	-0.001
-272.370	165.983	-0.130	0.181
-271.355	162.794	0.108	0.150
-270.340	554.218	-0.135	-0.320
-269.326	800.000	-0.132	0.473
-268.311	-140.672	0.194	-0.020
-267.297	511.391	0.143	0.329
-266.282	-17.444	-0.237	-0.147
-265.267	-139.179	0.255	0.027
-264.253	356.833	-0.008	0.015
-263.238	20.392	0.172	-0.137
-262.224	-175.856	0.188	-0.005
-261.209	-177.626	0.039	0.001
-260.195	58.907	0.138	0.134
-259.180	-62.947	0.409	-0.167
-258.165	800.000	-0.057	-0.219
-257.151	-150.193	-0.404	0.031
-256.136	-151.864	0.227	-0.016
-255.122	-200.000	-0.022	-0.171
-254.107	79.151	-0.119	-0.126
-253.092	-66.714	-0.142	-0.055
-252.078	-200.000	0.031	-0.236
-251.063	-39.311	-0.112	0.058
-250.049	-38.297	0.095	0.049
-249.034	-200.000	-0.021	-0.497
-248.019	18.611	-0.296	-0.233
-247.005	178.746	-0.130	-0.187
-245.990	-200.000	-0.013	-0.141
-244.976	-107.560	0.121	-0.026
-243.961	38.995	-0.054	-0.048
-242.946	117.371	-0.196	0.237
-241.932	10.261	0.269	0.201
-240.917	-8.648	0.111	0.073
-239.903	-27.801	-0.146	-0.084
-238.888	-69.874	-0.354	0.133
-237.873	-200.000	-0.032	0.319
-236.859	560.562	-0.128	0.305
-235.844	91.534	0.147	-0.163
-234.830	-75.785	-0.125	0.044
-233.815	800.000	0.133	0.394
-232.800	227.098	0.021	0.033
-231.786	-146.699	-0.222	-0.019
-230.771	-50.212	-0.076	-0.035
-229.757	-91.458	0.372	0.104
-228.742	-41.622	0.058	-0.029
-227.727	164.185	-0.120	-0.166
-226.713	-120.211	0.154	-0.026
-225.698	168.274	0.153	-0.214
-224.684	152.046	0.222	-0.298
-223.669	-200.000	0.017	-0.103
-222.655	-38.951	0.155	-0.080
-221.640	-89.799	-0.252	-0.073
-220.625	-200.000	0.005	0.198
-219.611	263.017	0.150	-0.256
-218.596	68.166	-0.211	-0.212
-217.582	-68.553	-0.057	0.022
-216.567	-200.000	0.031	0.442
-215.552	454.371	-0.072	0.158
-214.538	273.134	0.034	-0.059
-213.523	367.237	-0.046	-0.091
-212.509	-200.000	-0.046	-0.521
-211.494	365.353	0.035	0.070
-210.479	-71.123	0.094	-0.035
-209.465	-30.815	0.125	0.070
-208.450	-200.000	-0.026	-0.368
-207.436	178.774	0.030	-0.043
-206.421	-108.014	-0.151	-0.032
-205.406	-60.351	0.589	-0.247
-204.392	299.718	0.078	0.141
-203.377	94.502	0.134	-0.150
-202.363	-42.842	0.156	-0.078
-201.348	52.673	-0.071	0.067
-200.333	-13.739	-0.202	0.128
-199.319	3.738	-0.060	-0.043
-198.304	-74.066	-0.081	-0.029
-197.290	170.685	-0.177	0.249
-196.275	251.291	0.120	0.201
-195.260	800.000	-0.074	-0.293
-194.246	-128.236	0.391	-0.055
-193.231	-200.000	0.056	-0.341
-192.217	230.693	-0.134	-0.216
-191.202	406.138	0.145	0.300
-190.187	513.224	0.063	-0.144
-189.173	-79.272	0.162	0.054
-188.158	-60.299	-0.460	-0.193
-187.144	89.315	0.075	0.083
-186.129	-48.276	-0.270	0.128
-185.114	49.655	0.284	-0.263
-184.100	-200.000	-0.002	0.047
-183.085	144.689	0.179	0.235
-182.071	-103.089	-0.309	-0.072
-181.056	46.229	-0.262	0.239
-180.042	206.246	0.169	0.258
-179.027	-41.996	0.327	-0.165
-178.012	-103.505	-0.154	-0.036
-176.998	-200.000	0.017	0.225
-175.983	-135.610	0.155	-0.018
-174.969	-140.152	0.301	-0.031
-173.954	-35.291	0.019	-0.010
-172.939	15.332	-0.170	-0.131
-171.925	-134.977	0.128	-0.015
-170.910	-200.000	-0.037	0.170
-169.896	-93.014	-0.225	0.062
-168.881	153.216	-0.150	0.201
-167.866	110.727	0.089	0.105
-166.852	59.934	0.218	0.211
-165.837	-102.622	-0.298	-0.070
-164.823	-62.923	0.250	0.102
-163.808	-200.000	0.025	-0.119
-162.793	601.419	-0.068	0.167
-161.779	22.102	-0.365	0.293
-160.764	-98.120	0.175	-0.044
-159.750	286.682	0.054	-0.096
-158.735	-41.077	0.064	0.033
-157.720	44.434	-0.103	0.093
-156.706	-200.000	-0.008	-0.089
-155.691	370.365	-0.151	-0.301
-154.677	-200.000	-0.022	0.480
-153.662	155.683	-0.113	0.153
-152.647	-200.000	0.006	-0.163
-151.633	-200.000	0.008	-0.144
-150.618	-138.527	-0.104	-0.011
-149.604	-47.150	-0.122	-0.058
-148.589	263.338	-0.026	-0.044
-147.574	800.000	-0.120	-0.441
-146.560	199.029	-0.044	-0.066
-145.545	-111.110	-0.312	0.063
-144.531	-37.658	0.175	0.092
-143.516	-56.200	0.129	-0.056
-142.502	157.688	0.080	0.109
-141.487	800.000	-0.025	-0.097
-140.472	53.851	-0.152	0.144
-139.458	400.870	-0.122	-0.251
-138.443	351.374	-0.033	0.064
-137.429	352.416	0.193	0.376
-136.414	145.459	-0.217	0.286
-135.399	229.336	-0.076	-0.121
-134.385	237.475	-0.233	-0.379
-133.370	-154.173	0.072	0.005
-132.356	-64.388	-0.213	-0.085
-131.341	5.010	0.179	-0.129
-130.326	-140.850	0.385	0.039
-129.312	-71.326	-0.282	0.104
-128.297	-59.970	0.327	0.137
-127.283	-107.475	-0.049	0.011
-126.268	-158.691	0.128	0.007
-125.253	-200.000	-0.038	0.281
-124.239	-121.413	-0.211	-0.034
-123.224	70.499	0.229	-0.232
-122.210	-3.349	0.099	0.068
