DTS Sentinel unit serial number:	SN413079Multiplexer serial number:	ORYXHardware model number:	OX4-SRSoftware version number:	ORYX F/W v4.00 Oryx Data Collector v3.7.2.0data status	okinstallation	princeton_trtdifferential loss correction	single-endedforward channel	channel 2reverse channel	N/Adate	2019/09/17time	13:19:35forward acquisition time	60.00reverse acquisition time	0.00gamma	496.2192k internal	0.2317k external	0.2317temperature offset calibration	0.9989default loss term (dB/km)	0.3790temperature slope calibration	1.0000multiplexer offset coefficient	1.0000multiplexer slope coefficient	1.0000fibre end	0.00T internal ref (°C)	34.19T ext. ref 1 (°C)	0.42T ext. ref 2 (°C)	31.33length (m)	temperature (°C)	Stokes	anti-Stokes-747.200	668.677	0.136	-0.357
-746.185	157.116	0.287	-0.401
-745.171	147.617	0.184	-0.251
-744.156	-200.000	0.038	0.457
-743.142	-58.366	0.109	-0.048
-742.127	159.867	-0.119	-0.168
-741.112	-79.801	-0.193	-0.066
-740.098	-157.268	0.385	-0.024
-739.083	173.190	0.158	0.231
-738.069	-44.291	-0.289	-0.147
-737.054	800.000	-0.053	0.170
-736.039	800.000	0.030	0.095
-735.025	-93.551	0.247	-0.069
-734.010	800.000	0.026	0.107
-732.996	800.000	-0.005	-0.016
-731.981	-88.611	-0.268	-0.081
-730.966	-156.515	-0.229	-0.014
-729.952	800.000	-0.032	-0.135
-728.937	-65.856	-0.340	0.138
-727.923	800.000	-0.046	-0.163
-726.908	-8.395	0.155	-0.106
-725.894	-1.075	-0.431	0.309
-724.879	-7.139	-0.248	-0.170
-723.864	-200.000	-0.003	0.117
-722.850	-51.572	0.260	-0.123
-721.835	63.109	-0.149	0.151
-720.821	-134.329	-0.133	0.017
-719.806	-48.473	-0.202	0.098
-718.791	0.033	0.078	0.056
-717.777	-85.864	0.385	-0.121
-716.762	800.000	-0.058	0.198
-715.748	-70.810	0.293	-0.112
-714.733	-61.435	-0.031	0.013
-713.718	179.595	-0.126	-0.187
-712.704	-99.320	0.178	-0.045
-711.689	800.000	-0.044	0.176
-710.675	800.000	0.068	0.296
-709.660	-154.131	0.145	-0.010
-708.645	207.323	-0.061	0.096
-707.631	-179.443	0.334	-0.007
-706.616	171.926	-0.031	0.045
-705.602	274.649	0.092	-0.165
-704.587	245.937	0.101	0.172
-703.572	11.345	-0.130	-0.100
-702.558	-156.817	-0.298	-0.019
-701.543	-200.000	0.036	0.468
-700.529	184.300	0.194	0.291
-699.514	-90.058	-0.143	-0.042
-698.499	-200.000	-0.052	-0.321
-697.485	-34.133	0.258	-0.143
-696.470	-65.036	-0.042	-0.017
-695.456	-58.306	0.233	0.102
-694.441	668.061	-0.045	-0.119
-693.426	-67.804	0.150	-0.059
-692.412	37.482	0.104	-0.093
-691.397	-144.781	0.088	0.008
-690.383	-200.000	-0.002	-0.185
-689.368	-116.236	0.142	-0.027
-688.354	-91.346	0.161	-0.046
-687.339	-200.000	-0.003	-0.224
-686.324	458.365	-0.122	-0.274
-685.310	-51.004	-0.116	-0.055
-684.295	186.432	-0.211	-0.317
-683.281	66.240	-0.106	0.109
-682.266	-45.153	-0.240	0.121
-681.251	-183.288	-0.125	0.002
-680.237	68.770	0.121	-0.125
-679.222	800.000	-0.071	-0.314
-678.208	-117.240	0.279	0.051
-677.193	98.105	0.129	-0.150
-676.178	-110.835	0.275	0.057
-675.164	800.000	0.062	-0.181
-674.149	170.149	-0.194	-0.280
-673.135	-97.105	-0.146	0.039
-672.120	-64.999	0.388	-0.158
-671.105	-157.806	-0.074	-0.004
-670.091	-56.614	-0.045	-0.020
-669.076	-69.591	-0.031	0.012
-668.062	90.489	-0.053	-0.060
-667.047	99.258	-0.236	-0.275
-666.032	132.058	-0.091	-0.118
-665.018	800.000	0.108	-0.313
-664.003	-200.000	0.001	-0.230
-662.989	-117.245	0.209	-0.038
-661.974	558.945	-0.026	-0.064
-660.959	800.000	-0.029	-0.101
-659.945	-200.000	0.280	-0.001
-658.930	800.000	0.084	0.350
-657.916	113.507	0.124	0.152
-656.901	-20.354	0.075	-0.046
-655.886	-80.525	0.184	0.062
-654.872	-34.116	0.271	-0.150
-653.857	-200.000	0.010	0.114
-652.843	116.234	-0.156	0.193
-651.828	328.340	0.123	-0.239
-650.814	-62.871	-0.189	-0.079
-649.799	-47.541	-0.308	-0.151
-648.784	-200.000	-0.009	0.113
-647.770	610.206	-0.122	-0.309
-646.755	800.000	-0.058	0.250
-645.741	-33.673	-0.504	0.280
-644.726	-120.850	0.291	-0.049
-643.711	-200.000	0.005	0.253
-642.697	-30.695	0.208	0.119
-641.682	460.994	0.062	0.140
-640.668	-105.039	-0.232	0.054
-639.653	-25.169	-0.115	-0.069
-638.638	800.000	0.059	0.239
-637.624	-119.128	0.076	0.013
-636.609	-81.053	-0.184	0.062
-635.595	94.920	0.112	0.129
-634.580	800.000	-0.077	0.219
-633.565	-60.883	-0.070	0.030
-632.551	70.944	-0.189	-0.197
-631.536	505.573	0.132	0.308
-630.522	-103.035	0.230	0.055
-629.507	-200.000	0.027	-0.185
-628.492	73.835	0.116	0.123
-627.478	-147.576	0.105	-0.009
-626.463	-184.451	-0.253	-0.004
-625.449	-200.000	-0.047	-0.221
-624.434	249.425	0.152	0.259
-623.419	268.336	0.086	-0.152
-622.405	587.932	0.050	-0.123
-621.390	-200.000	-0.026	0.301
-620.376	-39.444	0.230	0.121
-619.361	-82.910	0.253	0.082
-618.346	74.080	-0.290	-0.307
-617.332	-50.383	-0.382	0.182
-616.317	431.852	-0.068	-0.148
-615.303	-180.728	-0.283	-0.006
-614.288	114.117	-0.130	-0.159
-613.273	-85.198	0.405	0.128
-612.259	-18.602	0.146	0.092
-611.244	124.731	-0.185	0.234
-610.230	444.146	0.007	0.016
-609.215	-168.127	-0.130	-0.005
-608.201	474.076	-0.106	-0.241
-607.186	-108.537	0.091	0.020
-606.171	-111.609	0.323	-0.066
-605.157	150.420	-0.105	-0.144
-604.142	16.622	-0.264	-0.210
-603.128	-73.447	0.440	-0.162
-602.113	352.309	-0.134	-0.267
-601.098	-51.211	0.258	0.122
-600.084	-73.125	0.339	0.125
-599.069	-118.510	0.360	0.064
-598.055	171.325	-0.090	0.130
-597.040	800.000	0.084	-0.333
-596.025	800.000	0.102	-0.304
-595.011	-181.931	0.234	-0.004
-593.996	-200.000	0.039	-0.193
-592.982	33.028	-0.271	-0.236
-591.967	-168.076	0.133	-0.005
-590.952	44.162	-0.091	0.084
-589.938	-199.187	-0.277	-0.001
-588.923	695.714	-0.131	-0.346
-587.909	-47.044	-0.181	-0.089
-586.894	-200.000	-0.007	-0.171
-585.879	-59.418	0.277	0.120
-584.865	-25.952	-0.132	-0.078
-583.850	-65.610	-0.150	-0.061
-582.836	288.404	0.116	0.212
-581.821	-200.000	-0.004	-0.069
-580.806	482.003	0.025	-0.058
-579.792	-103.263	-0.320	0.076
-578.777	-200.000	0.044	-0.223
-577.763	584.391	0.074	0.182
-576.748	200.480	0.022	-0.034
-575.733	499.096	0.027	-0.063
-574.719	-3.905	-0.148	-0.103
-573.704	-22.610	0.155	0.094
-572.690	33.204	0.310	-0.271
-571.675	-32.329	-0.114	0.064
-570.661	800.000	0.044	0.128
-569.646	89.525	0.088	0.099
-568.631	-105.005	0.272	-0.063
-567.617	-200.000	0.040	0.219
-566.602	-97.885	0.267	-0.069
-565.588	-14.967	-0.114	-0.074
-564.573	-101.967	-0.156	0.038
-563.558	-80.015	-0.187	0.063
-562.544	90.526	0.211	-0.238
-561.529	59.414	-0.119	-0.117
-560.515	40.571	0.101	0.092
-559.500	-165.206	0.164	0.007
-558.485	-114.065	0.311	0.061
-557.471	-200.000	0.042	-0.247
-556.456	249.670	-0.140	-0.238
-555.442	-135.876	-0.064	-0.008
-554.427	-101.084	-0.128	-0.031
-553.412	-90.138	0.050	-0.015
-552.398	77.336	-0.134	-0.144
-551.383	10.548	-0.271	-0.207
-550.369	19.101	0.178	-0.144
-549.354	-200.000	0.008	0.134
-548.339	-31.798	0.227	0.128
-547.325	171.525	-0.194	0.279
-546.310	40.681	-0.062	-0.056
-545.296	-101.524	-0.343	-0.084
-544.281	-15.809	0.109	-0.070
-543.266	-200.000	0.023	-0.128
-542.252	403.649	0.030	-0.062
-541.237	-107.637	-0.145	0.032
-540.223	-55.061	-0.052	-0.023
-539.208	-86.239	0.206	-0.064
-538.193	-30.776	-0.395	-0.224
-537.179	-200.000	-0.016	-0.297
-536.164	43.474	0.169	0.155
-535.150	235.374	0.069	-0.114
-534.135	-200.000	-0.015	-0.207
-533.121	-200.000	0.034	-0.281
-532.106	-45.388	-0.277	-0.138
-531.091	-200.000	-0.002	0.134
-530.077	-29.910	-0.184	0.105
-529.062	366.936	-0.175	-0.354
-528.048	800.000	-0.092	0.280
-527.033	-200.000	-0.039	-0.297
-526.018	-33.419	0.074	0.041
-525.004	-200.000	-0.017	-0.396
-523.989	32.181	0.179	0.155
-522.975	108.609	-0.166	0.199
-521.960	800.000	-0.114	-0.358
-520.945	484.834	-0.082	-0.187
-519.931	752.172	-0.132	-0.358
-518.916	-135.052	0.558	-0.067
-517.902	-200.000	0.030	-0.231
-516.887	-200.000	0.056	-0.325
-515.872	-151.200	0.178	-0.013
-514.858	-200.000	0.079	-0.389
-513.843	288.187	0.103	0.187
-512.829	86.389	-0.148	-0.163
-511.814	-200.000	-0.003	0.212
-510.799	762.288	0.040	0.108
-509.785	583.937	0.071	0.174
-508.770	-12.285	0.069	-0.045
-507.756	-200.000	0.017	-0.212
-506.741	-118.763	-0.286	-0.051
-505.726	-55.547	-0.122	-0.055
-504.712	-78.234	0.256	0.088
-503.697	-138.509	0.216	-0.024
-502.683	257.236	-0.096	0.166
-501.668	-31.693	-0.083	-0.047
-500.653	92.608	-0.157	0.178
-499.639	-108.714	0.039	0.008
-498.624	-8.839	-0.318	0.214
-497.610	425.499	-0.162	0.349
-496.595	-200.000	-0.024	-0.236
-495.581	392.029	-0.149	0.311
-494.566	-200.000	-0.032	0.522
-493.551	800.000	-0.029	-0.106
-492.537	-131.667	0.196	-0.026
-491.522	-74.869	0.147	-0.053
-490.508	-200.000	0.060	-0.310
-489.493	-143.307	-0.030	-0.003
-488.478	-37.333	-0.099	-0.053
-487.464	-200.000	0.023	-0.454
-486.449	-77.406	0.209	0.073
-485.435	-31.258	-0.464	0.262
-484.420	800.000	-0.032	0.135
-483.405	372.935	-0.022	-0.046
-482.391	-108.560	0.322	0.069
-481.376	-81.251	-0.125	0.041
-480.362	-200.000	0.040	0.224
-479.347	-69.934	-0.156	0.060
-478.332	132.286	0.121	0.156
-477.318	-79.154	-0.142	0.048
-476.303	92.355	-0.170	0.192
-475.289	263.290	-0.071	-0.124
-474.274	319.376	-0.154	-0.293
-473.259	-200.000	0.001	-0.164
-472.245	-200.000	0.024	-0.292
-471.230	234.155	0.115	0.189
-470.216	-30.600	0.214	-0.121
-469.201	25.779	-0.098	0.082
-468.186	725.962	-0.045	0.121
-467.172	-200.000	0.022	-0.265
-466.157	800.000	0.032	-0.131
-465.143	-200.000	0.055	0.423
-464.128	-13.494	-0.186	0.121
-463.113	-138.042	-0.146	0.016
-462.099	-7.432	-0.069	0.047
-461.084	-36.687	0.211	-0.113
-460.070	-200.000	-0.079	0.418
-459.055	81.478	-0.072	-0.078
-458.040	-7.665	0.454	0.308
-457.026	-140.396	0.107	-0.011
-456.011	549.150	-0.046	0.110
-454.997	13.842	0.218	0.170
-453.982	-77.945	-0.214	-0.074
-452.968	-148.799	0.093	0.008
-451.953	28.715	-0.098	0.083
-450.938	69.359	0.039	-0.041
-449.924	129.543	0.302	-0.386
-448.909	-200.000	-0.043	0.314
-447.895	-110.177	0.248	0.052
-446.880	-200.000	-0.057	0.359
-445.865	-83.597	-0.268	0.086
-444.851	-32.413	0.101	0.056
-443.836	-81.331	-0.430	-0.142
-442.822	18.673	-0.405	-0.324
-441.807	-127.403	-0.311	-0.045
-440.792	-76.118	-0.096	-0.034
-439.778	19.953	0.246	-0.199
-438.763	-200.000	0.013	-0.407
-437.749	93.391	0.172	0.195
-436.734	327.757	-0.102	-0.196
-435.719	-200.000	-0.025	-0.330
-434.705	-200.000	-0.010	-0.053
-433.690	3.556	-0.242	0.176
-432.676	63.408	0.135	-0.136
-431.661	155.762	0.215	0.296
-430.646	294.040	0.052	-0.094
-429.632	-200.000	-0.001	-0.340
-428.617	81.308	0.154	-0.167
-427.603	-200.000	-0.002	0.038
-426.588	800.000	-0.067	-0.212
-425.573	637.681	-0.017	0.043
-424.559	99.265	0.055	0.063
-423.544	-65.599	-0.234	0.094
-422.530	-121.097	-0.251	-0.042
-421.515	108.890	-0.049	-0.059
-420.500	-90.168	-0.174	-0.051
-419.486	-19.658	-0.063	0.039
-418.471	-158.504	0.180	-0.010
-417.457	-43.447	0.112	-0.057
-416.442	800.000	0.019	-0.056
-415.428	-33.122	-0.188	-0.104
-414.413	-156.615	0.428	0.027
-413.398	380.695	0.059	0.121
-412.384	688.775	-0.065	0.171
-411.369	-200.000	0.014	0.436
-410.355	78.505	0.091	0.097
-409.340	-200.000	0.046	-0.503
-408.325	800.000	0.035	-0.130
-407.311	467.080	-0.056	0.126
-406.296	-184.436	0.253	0.004
-405.282	-200.000	0.047	0.212
-404.267	-141.288	0.328	0.033
-403.252	800.000	0.133	0.405
-402.238	800.000	-0.074	-0.217
-401.223	-115.602	-0.318	-0.060
-400.209	-200.000	0.001	0.086
-399.194	-139.793	-0.246	0.026
-398.179	-200.000	-0.014	0.399
-397.165	-200.000	0.019	-0.412
-396.150	-200.000	-0.028	-0.419
-395.136	-104.864	-0.244	0.056
-394.121	332.011	-0.220	0.425
-393.106	-112.536	0.313	-0.062
-392.092	-10.244	-0.193	0.128
-391.077	53.804	0.285	-0.274
-390.063	768.878	-0.070	0.189
-389.048	-200.000	0.038	0.201
-388.033	136.288	0.156	0.203
-387.019	-200.000	0.016	-0.116
-386.004	-200.000	0.007	0.109
-384.990	83.379	0.221	-0.240
-383.975	61.507	-0.234	0.233
-382.960	318.694	-0.225	0.426
-381.946	-200.000	-0.057	-0.280
-380.931	-64.750	0.124	-0.050
-379.917	800.000	-0.120	0.372
-378.902	-200.000	-0.024	0.122
-377.888	-200.000	-0.039	-0.265
-376.873	-98.908	-0.240	-0.061
-375.858	-200.000	-0.034	0.226
-374.844	-10.600	-0.146	-0.097
-373.829	-85.271	0.050	0.016
-372.815	-97.272	-0.182	0.047
-371.800	-77.982	0.579	-0.199
-370.785	160.704	0.087	-0.121
-369.771	-200.000	0.007	-0.062
-368.756	323.399	0.072	-0.136
-367.742	-133.732	-0.292	-0.036
-366.727	800.000	0.064	0.185
-365.712	800.000	-0.037	0.148
-364.698	199.620	0.077	0.118
-363.683	-58.944	0.274	-0.118
-362.669	-200.000	0.002	-0.087
-361.654	-200.000	-0.033	-0.198
-360.639	-200.000	-0.032	-0.373
-359.625	-47.804	-0.072	-0.035
-358.610	118.258	0.065	-0.081
-357.596	30.409	0.154	-0.131
-356.581	-134.326	0.237	-0.029
-355.566	-200.000	0.071	0.507
-354.552	-200.000	-0.018	0.172
-353.537	219.080	0.130	0.208
-352.523	65.279	0.063	-0.063
-351.508	203.530	0.014	0.021
-350.493	37.354	0.258	0.228
-349.479	595.077	-0.206	0.508
-348.464	-87.983	-0.169	-0.051
-347.450	-200.000	0.029	0.150
-346.435	-65.718	0.149	0.059
-345.420	800.000	-0.035	0.115
-344.406	-83.272	0.061	-0.020
-343.391	-126.347	0.078	0.012
-342.377	188.361	0.056	-0.084
-341.362	31.874	0.090	0.078
-340.348	800.000	-0.066	-0.229
-339.333	-128.575	0.142	0.020
-338.318	-200.000	-0.011	0.112
-337.304	-200.000	0.030	0.470
-336.289	9.577	-0.033	0.025
-335.275	81.132	0.032	0.035
-334.260	64.006	-0.256	-0.256
-333.245	60.067	0.126	-0.124
-332.231	76.123	0.235	0.248
-331.216	314.606	-0.110	0.207
-330.202	-200.000	0.044	-0.282
-329.187	-83.805	-0.111	0.035
-328.172	-130.403	0.207	0.028
-327.158	-61.872	0.114	0.047
-326.143	-200.000	0.013	0.135
-325.129	-61.317	-0.273	0.115
-324.114	-39.621	0.117	-0.061
-323.099	-109.021	-0.112	-0.024
-322.085	50.787	-0.137	-0.129
-321.070	-2.681	-0.062	0.043
-320.056	210.395	0.108	-0.168
-319.041	704.241	0.123	0.322
-318.026	-9.158	0.211	-0.140
-317.012	800.000	-0.086	0.313
-315.997	8.171	-0.155	0.116
-314.983	72.223	-0.192	0.200
-313.968	-200.000	0.017	0.290
-312.953	-200.000	0.014	0.218
-311.939	260.535	0.019	-0.032
-310.924	31.924	-0.036	0.031
-309.910	-45.354	-0.162	-0.080
-308.895	-200.000	-0.038	-0.177
-307.880	-200.000	-0.048	0.324
-306.866	-200.000	0.000	0.111
-305.851	-9.917	-0.149	-0.099
-304.837	446.043	0.060	0.130
-303.822	595.259	-0.047	0.115
-302.807	-105.245	0.191	-0.043
-301.793	-200.000	0.007	0.100
-300.778	32.063	-0.022	0.019
-299.764	-177.931	-0.149	0.004
-298.749	203.966	0.206	0.318
-297.735	-1.635	0.244	0.171
-296.720	4.440	0.171	-0.124
-295.705	690.678	-0.027	-0.071
-294.691	-200.000	0.015	0.138
-293.676	-200.000	-0.038	0.342
-292.662	-200.000	-0.001	-0.037
-291.647	-200.000	0.006	-0.107
-290.632	23.236	-0.204	-0.167
-289.618	-102.854	-0.175	0.041
-288.603	-81.165	0.177	-0.058
-287.589	-92.677	-0.151	-0.042
-286.574	52.960	0.268	0.255
-285.559	30.816	0.079	0.067
-284.545	-95.523	0.293	-0.078
-283.530	168.172	0.072	0.101
-282.516	800.000	-0.111	-0.326
-281.501	235.352	-0.087	-0.143
-280.486	71.920	0.125	-0.130
-279.472	59.873	-0.086	0.084
-278.457	-143.513	0.345	-0.033
-277.443	-200.000	-0.048	-0.282
-276.428	-200.000	-0.033	-0.402
-275.413	800.000	0.006	-0.027
-274.399	-99.164	-0.130	-0.033
-273.384	-53.533	-0.140	0.064
-272.370	151.812	0.137	-0.186
-271.355	-55.686	0.277	-0.123
-270.340	-200.000	-0.002	-0.030
-269.326	59.098	0.071	0.070
-268.311	-32.070	-0.367	-0.204
-267.297	-170.395	-0.452	-0.016
-266.282	-141.047	0.317	0.032
-265.267	-130.581	0.184	-0.025
-264.253	82.164	0.110	0.119
-263.238	22.072	-0.196	-0.159
-262.224	-40.424	-0.263	-0.136
-261.209	-47.772	0.130	-0.063
-260.195	-142.538	-0.320	-0.031
-259.180	20.913	0.089	0.071
-258.165	103.600	0.062	-0.073
-257.151	-26.827	0.077	-0.045
-256.136	-85.888	-0.244	0.075
-255.122	800.000	0.072	0.297
-254.107	-185.513	0.257	-0.004
-253.092	-89.651	0.247	0.072
-252.078	784.197	0.108	0.294
-251.063	-200.000	0.008	0.052
-250.049	-47.535	-0.238	0.115
-249.034	593.145	-0.067	-0.164
-248.019	-200.000	-0.034	-0.273
-247.005	-200.000	0.025	-0.316
-245.990	273.681	0.117	-0.206
-244.976	-34.471	0.354	0.193
-243.961	21.396	-0.113	-0.092
-242.946	15.392	0.187	0.146
-241.932	-200.000	0.018	-0.125
-240.917	-143.028	0.111	0.011
-239.903	-89.437	0.286	0.083
-238.888	-49.692	0.339	0.160
-237.873	-69.617	0.130	-0.049
-236.859	431.162	-0.150	-0.323
-235.844	-23.664	-0.306	-0.182
-234.830	39.346	0.244	-0.217
-233.815	3.848	0.263	-0.190
-232.800	-22.599	-0.200	-0.120
-231.786	-7.464	-0.302	-0.203
-230.771	-70.744	-0.307	-0.115
-229.757	225.736	-0.133	0.214
-228.742	0.400	-0.266	0.188
-227.727	297.265	-0.042	0.077
-226.713	205.356	0.116	-0.179
-225.698	-136.736	-0.192	0.022
-224.684	175.462	0.064	-0.092
-223.669	121.871	0.089	-0.110
-222.655	-52.245	-0.030	-0.014
-221.640	-50.731	-0.292	-0.136
-220.625	319.440	-0.079	0.148
-219.611	-200.000	-0.012	0.115
-218.596	-200.000	-0.065	0.495
-217.582	289.778	-0.068	-0.122
-216.567	-91.062	-0.134	-0.038
-215.552	-97.862	-0.387	-0.099
-214.538	-48.522	-0.089	0.043
-213.523	454.504	0.023	-0.051
-212.509	-37.193	-0.186	-0.099
-211.494	-105.866	-0.309	-0.069
-210.479	-200.000	-0.033	-0.200
-209.465	43.787	-0.129	0.117
-208.450	-58.810	0.233	0.100
-207.436	68.721	0.073	0.074
-206.421	68.763	-0.214	-0.218
-205.406	-16.869	-0.205	-0.128
-204.392	-200.000	0.025	0.227
-203.377	-150.718	-0.283	0.021
-202.363	123.801	-0.213	0.265
-201.348	-200.000	-0.016	-0.121
-200.333	-62.729	0.253	-0.104
-199.319	746.365	0.148	-0.394
-198.304	-126.202	0.272	0.040
-197.290	-30.765	-0.036	0.020
-196.275	-46.475	0.204	-0.099
-195.260	-108.416	-0.064	-0.014
-194.246	62.136	0.327	0.324
-193.231	95.131	0.093	-0.105
-192.217	800.000	0.044	0.135
-191.202	-28.904	0.228	0.130
-190.187	67.655	0.151	0.153
-189.173	-134.653	0.269	0.032
-188.158	800.000	-0.070	0.289
-187.144	-200.000	-0.017	0.105
-186.129	-200.000	0.082	-0.377
-185.114	-6.242	-0.298	-0.202
-184.100	14.977	-0.214	0.166
-183.085	464.418	0.152	0.337
-182.071	-61.249	0.056	0.023
-181.056	-200.000	-0.006	-0.053
-180.042	323.682	0.048	0.091
-179.027	174.084	0.052	-0.074
-178.012	800.000	0.024	0.091
-176.998	-121.618	0.205	-0.034
-175.983	-142.448	0.239	0.023
-174.969	-169.941	0.204	0.007
-173.954	98.064	-0.162	-0.184
-172.939	800.000	0.062	-0.188
-171.925	-82.843	0.166	-0.053
-170.910	17.906	0.075	-0.059
-169.896	-200.000	0.034	-0.403
-168.881	-56.733	-0.202	0.089
-167.866	-20.113	-0.184	0.113
-166.852	175.768	-0.095	0.136
-165.837	71.711	-0.157	0.162
-164.823	12.352	0.027	-0.020
-163.808	51.795	0.195	-0.184
-162.793	-167.853	-0.125	0.005
-161.779	680.335	0.055	0.142
-160.764	-88.177	-0.104	-0.031
-159.750	88.214	-0.099	0.108
-158.735	800.000	0.074	-0.263
-157.720	120.754	-0.230	0.283
-156.706	800.000	0.113	0.416
-155.691	-200.000	0.027	0.354
-154.677	-74.325	0.134	0.048
-153.662	285.511	0.116	0.206
-152.647	119.621	-0.284	0.348
-151.633	96.397	0.070	0.079
-150.618	-200.000	-0.028	0.377
-149.604	102.140	-0.155	-0.179
-148.589	152.958	-0.219	-0.297
-147.574	222.499	-0.129	0.206
-146.560	706.949	-0.065	-0.170
-145.545	-75.029	-0.163	-0.058
-144.531	2.542	0.293	-0.210
-143.516	553.134	-0.083	-0.198
-142.502	172.448	0.047	0.067
-141.487	221.452	-0.123	0.195
-140.472	50.696	-0.050	-0.047
-139.458	-79.612	-0.104	-0.035
-138.443	648.771	-0.027	-0.067
-137.429	-90.407	-0.227	0.065
-136.414	65.676	-0.094	0.095
-135.399	-200.000	-0.001	0.297
-134.385	-200.000	-0.015	-0.094
-133.370	800.000	0.111	-0.367
-132.356	30.565	0.342	-0.289
-131.341	-200.000	0.021	-0.350
-130.326	382.787	-0.042	0.085
-129.312	-200.000	-0.009	0.050
-128.297	-7.714	0.247	0.165
-127.283	77.315	0.150	-0.157
-126.268	345.051	-0.103	-0.201
-125.253	-200.000	-0.007	-0.049
-124.239	-87.015	-0.385	-0.116
-123.224	-200.000	-0.024	-0.307
-122.210	-23.288	0.153	-0.091
