DTS Sentinel unit serial number:	SN413079Multiplexer serial number:	ORYXHardware model number:	OX4-SRSoftware version number:	ORYX F/W v4.00 Oryx Data Collector v3.7.2.0data status	okinstallation	princeton_trtdifferential loss correction	single-endedforward channel	channel 2reverse channel	N/Adate	2019/09/11time	06:05:10forward acquisition time	60.00reverse acquisition time	0.00gamma	496.2192k internal	0.2329k external	0.2329temperature offset calibration	0.9939default loss term (dB/km)	0.3790temperature slope calibration	1.0000multiplexer offset coefficient	1.0000multiplexer slope coefficient	1.0000fibre end	0.00T internal ref (°C)	29.44T ext. ref 1 (°C)	-0.22T ext. ref 2 (°C)	23.80length (m)	temperature (°C)	Stokes	anti-Stokes-747.200	754.132	0.061	-0.165
-746.185	94.817	-0.211	0.241
-745.171	800.000	0.095	-0.363
-744.156	-23.990	-0.136	0.082
-743.142	-84.607	0.326	0.103
-742.127	426.144	-0.020	-0.044
-741.112	-88.743	-0.199	-0.060
-740.098	-200.000	0.054	0.485
-739.083	-200.000	-0.019	0.151
-738.069	-157.272	-0.294	-0.018
-737.054	179.812	-0.113	0.167
-736.039	235.782	-0.344	-0.572
-735.025	-200.000	0.001	-0.317
-734.010	-200.000	0.043	-0.471
-732.996	-155.206	-0.392	-0.026
-731.981	147.508	0.135	0.184
-730.966	-200.000	-0.374	-0.001
-729.952	474.437	0.016	-0.036
-728.937	179.310	-0.201	-0.295
-727.923	-200.000	0.010	-0.095
-726.908	49.035	0.143	-0.135
-725.894	30.411	-0.306	-0.263
-724.879	-86.818	-0.261	-0.080
-723.864	-18.739	-0.268	0.168
-722.850	244.109	0.088	-0.149
-721.835	-84.333	0.398	0.127
-720.821	-200.000	0.017	-0.199
-719.806	-93.589	-0.106	-0.029
-718.791	415.935	0.012	0.026
-717.777	-200.000	0.022	0.182
-716.762	7.452	0.152	0.114
-715.748	300.836	-0.207	-0.385
-714.733	172.952	-0.045	0.065
-713.718	178.312	0.151	0.222
-712.704	-102.397	0.485	0.117
-711.689	-75.884	-0.244	-0.087
-710.675	123.523	0.081	-0.102
-709.660	-200.000	0.016	-0.219
-708.645	-200.000	0.044	-0.271
-707.631	7.859	-0.160	-0.121
-706.616	800.000	0.118	-0.351
-705.602	-9.302	0.394	-0.265
-704.587	800.000	-0.087	0.249
-703.572	-15.147	-0.268	-0.173
-702.558	-132.838	-0.148	0.019
-701.543	-200.000	0.033	-0.378
-700.529	800.000	0.058	-0.175
-699.514	80.761	-0.168	-0.182
-698.499	161.688	-0.260	-0.366
-697.485	35.020	-0.312	-0.275
-696.470	37.498	-0.320	0.286
-695.456	-108.692	-0.252	-0.054
-694.441	-113.113	0.386	0.077
-693.426	-2.419	-0.240	0.169
-692.412	-18.868	0.296	-0.185
-691.397	37.728	-0.192	-0.171
-690.383	-137.653	0.222	-0.025
-689.368	-200.000	0.027	-0.144
-688.354	-80.983	0.064	0.021
-687.339	15.302	0.173	-0.136
-686.324	-200.000	-0.001	-0.127
-685.310	63.287	0.241	0.243
-684.295	-76.557	0.104	-0.037
-683.281	-60.355	-0.149	0.064
-682.266	-36.449	0.050	-0.027
-681.251	556.940	-0.051	-0.125
-680.237	-67.267	0.149	0.059
-679.222	108.477	0.162	-0.194
-678.208	-98.991	-0.246	-0.063
-677.193	-13.450	0.154	0.101
-676.178	121.058	0.166	0.208
-675.164	173.881	-0.277	0.402
-674.149	-179.533	-0.200	0.004
-673.135	-99.161	-0.323	0.082
-672.120	-200.000	-0.024	-0.378
-671.105	-200.000	-0.062	-0.301
-670.091	-69.190	0.243	-0.094
-669.076	-86.555	-0.362	0.112
-668.062	-79.463	-0.085	-0.029
-667.047	-5.753	-0.367	-0.252
-666.032	-87.004	-0.209	-0.064
-665.018	-140.988	0.151	-0.016
-664.003	236.658	-0.083	0.138
-662.989	-200.000	0.012	-0.223
-661.974	126.554	-0.150	-0.190
-660.959	351.889	-0.127	-0.253
-659.945	-41.958	-0.225	-0.116
-658.930	-168.784	-0.075	0.003
-657.916	-200.000	0.038	0.215
-656.901	-200.000	0.050	-0.483
-655.886	138.629	-0.216	-0.285
-654.872	252.246	-0.016	-0.028
-653.857	800.000	0.073	-0.298
-652.843	-34.542	0.115	0.063
-651.828	-103.612	-0.277	-0.065
-650.814	-191.434	0.087	-0.001
-649.799	286.041	-0.048	-0.088
-648.784	-175.610	-0.366	0.010
-647.770	-56.762	-0.302	-0.134
-646.755	129.404	0.087	-0.112
-645.741	-51.038	-0.312	-0.147
-644.726	800.000	0.040	0.130
-643.711	0.080	0.111	0.079
-642.697	-34.273	-0.207	-0.114
-641.682	299.181	-0.081	-0.150
-640.668	354.123	-0.137	-0.273
-639.653	131.092	-0.304	0.391
-638.638	-6.859	-0.138	0.094
-637.624	89.152	0.094	0.105
-636.609	-45.402	0.168	0.083
-635.595	56.602	-0.149	-0.145
-634.580	-83.352	-0.369	-0.119
-633.565	-44.400	-0.161	0.081
-632.551	-77.284	-0.272	-0.095
-631.536	288.479	-0.081	-0.148
-630.522	121.243	-0.250	0.312
-629.507	-86.616	0.371	-0.114
-628.492	-200.000	-0.027	-0.124
-627.478	800.000	-0.078	-0.268
-626.463	-55.568	0.328	-0.147
-625.449	-16.609	0.166	0.105
-624.434	-54.681	-0.374	-0.169
-623.419	-85.420	0.300	-0.094
-622.405	-101.779	0.260	0.063
-621.390	135.329	0.089	-0.116
-620.376	71.641	0.025	0.026
-619.361	-200.000	0.018	-0.196
-618.346	-73.658	-0.261	0.095
-617.332	69.044	-0.142	-0.147
-616.317	490.899	-0.078	0.180
-615.303	46.462	0.118	-0.109
-614.288	106.882	-0.073	0.087
-613.273	108.084	0.186	0.222
-612.259	-56.381	0.129	0.058
-611.244	-18.762	-0.305	-0.190
-610.230	83.696	0.116	-0.127
-609.215	62.254	-0.083	0.083
-608.201	-186.174	0.224	0.003
-607.186	133.385	-0.148	-0.192
-606.171	-200.000	-0.004	-0.029
-605.157	258.752	0.117	-0.202
-604.142	330.838	0.180	-0.348
-603.128	-122.147	0.280	0.046
-602.113	478.426	0.088	-0.199
-601.098	312.787	0.099	-0.186
-600.084	1.777	-0.347	-0.250
-599.069	69.853	0.060	0.062
-598.055	271.829	0.158	-0.279
-597.040	171.944	0.186	0.267
-596.025	188.428	-0.051	-0.076
-595.011	-200.000	-0.006	-0.227
-593.996	4.698	0.222	0.163
-592.982	122.601	-0.162	0.203
-591.967	-27.826	-0.094	0.055
-590.952	-174.182	-0.078	-0.002
-589.938	242.563	-0.117	0.195
-588.923	-155.465	-0.446	0.029
-587.909	-56.109	-0.457	-0.204
-586.894	257.883	-0.123	-0.212
-585.879	800.000	-0.050	0.167
-584.865	-99.433	-0.285	0.072
-583.850	-200.000	-0.030	-0.401
-582.836	95.184	-0.138	0.157
-581.821	-24.006	-0.194	0.116
-580.806	-48.235	0.050	-0.024
-579.792	103.727	-0.278	-0.327
-578.777	454.787	0.131	-0.291
-577.763	441.628	-0.110	0.240
-576.748	-200.000	-0.019	-0.272
-575.733	118.526	0.141	0.175
-574.719	-101.552	-0.526	0.128
-573.704	-80.724	-0.266	-0.088
-572.690	-162.849	0.349	0.017
-571.675	-6.241	0.038	-0.026
-570.661	-72.488	0.126	0.047
-569.646	800.000	-0.058	0.174
-568.631	-200.000	0.028	0.220
-567.617	-115.120	-0.157	0.030
-566.602	103.218	0.077	-0.091
-565.588	90.646	0.197	0.221
-564.573	306.131	0.160	0.297
-563.558	800.000	-0.083	-0.285
-562.544	-200.000	0.023	-0.128
-561.529	-111.959	0.214	0.043
-560.515	-34.156	0.214	-0.118
-559.500	410.965	0.055	0.116
-558.485	-168.134	0.101	0.004
-557.471	329.198	0.179	0.345
-556.456	521.658	-0.096	-0.225
-555.442	123.071	-0.121	0.151
-554.427	-200.000	0.026	-0.171
-553.412	114.941	0.175	-0.213
-552.398	-176.434	0.174	-0.005
-551.383	-91.489	-0.212	-0.060
-550.369	-137.857	-0.275	-0.031
-549.354	-36.355	0.036	-0.019
-548.339	-103.503	-0.087	-0.020
-547.325	-39.575	0.166	0.087
-546.310	159.981	-0.051	-0.071
-545.296	230.418	0.142	0.232
-544.281	19.886	0.442	0.356
-543.266	238.695	-0.088	-0.146
-542.252	-145.647	0.102	0.009
-541.237	-65.449	0.059	0.024
-540.223	-89.509	-0.142	0.042
-539.208	221.233	0.062	0.100
-538.193	386.678	-0.054	0.112
-537.179	800.000	-0.178	-0.515
-536.164	-13.845	-0.166	-0.107
-535.150	81.568	0.013	-0.014
-534.135	211.123	-0.160	-0.251
-533.121	69.570	-0.109	0.112
-532.106	21.940	-0.081	0.066
-531.091	-89.175	-0.323	0.095
-530.077	22.210	0.289	-0.236
-529.062	455.536	0.057	0.125
-528.048	-13.394	-0.178	-0.115
-527.033	195.497	-0.131	0.199
-526.018	-15.993	0.397	0.252
-525.004	-101.383	-0.122	0.030
-523.989	553.008	0.048	0.116
-522.975	-21.520	-0.356	0.217
-521.960	-195.783	-0.112	-0.001
-520.945	7.766	-0.110	0.082
-519.931	-93.288	0.275	-0.076
-518.916	800.000	-0.087	-0.263
-517.902	-200.000	-0.026	0.153
-516.887	-200.000	-0.001	0.316
-515.872	-200.000	-0.005	-0.055
-514.858	-200.000	0.014	0.172
-513.843	226.046	-0.070	0.112
-512.829	-200.000	0.084	0.509
-511.814	-61.082	0.162	0.068
-510.799	552.340	0.047	-0.112
-509.785	800.000	-0.090	0.256
-508.770	187.951	0.066	-0.099
-507.756	-148.622	-0.090	-0.007
-506.741	-200.000	0.006	-0.118
-505.726	476.977	0.035	-0.079
-504.712	-68.724	0.153	0.059
-503.697	-20.614	-0.302	0.185
-502.683	230.823	0.072	-0.117
-501.668	56.752	0.169	0.164
-500.653	49.814	-0.156	0.147
-499.639	-15.428	-0.063	-0.040
-498.624	-125.232	0.270	-0.041
-497.610	-96.189	-0.259	0.069
-496.595	-135.723	0.107	-0.013
-495.581	-81.051	-0.053	-0.018
-494.566	91.432	0.204	-0.229
-493.551	-149.398	0.059	-0.005
-492.537	-65.135	-0.154	0.062
-491.522	-200.000	0.064	-0.360
-490.508	267.009	-0.067	-0.117
-489.493	55.704	0.197	-0.190
-488.478	-200.000	-0.013	0.063
-487.464	-71.188	0.035	0.013
-486.449	-132.543	-0.422	0.054
-485.435	196.518	0.175	0.266
-484.420	-93.662	0.148	-0.041
-483.405	-35.991	-0.173	-0.093
-482.391	175.696	-0.086	-0.125
-481.376	24.198	-0.317	0.261
-480.362	-200.000	0.023	-0.353
-479.347	-63.177	0.170	-0.070
-478.332	-40.582	0.386	0.199
-477.318	-69.934	-0.163	0.062
-476.303	239.563	0.125	0.208
-475.289	-112.086	-0.020	-0.004
-474.274	7.963	-0.125	-0.093
-473.259	21.445	-0.201	0.163
-472.245	-70.070	0.459	-0.174
-471.230	-87.872	-0.149	0.045
-470.216	261.155	-0.188	0.325
-469.201	200.039	-0.116	-0.178
-468.186	-118.447	0.160	0.028
-467.172	-200.000	0.003	0.190
-466.157	-85.909	-0.120	0.037
-465.143	-200.000	-0.007	-0.432
-464.128	-200.000	-0.054	-0.309
-463.113	-28.451	-0.058	0.033
-462.099	9.871	-0.097	0.073
-461.084	376.650	-0.067	0.136
-460.070	-86.675	0.232	0.071
-459.055	800.000	0.021	-0.086
-458.040	-96.882	-0.340	0.089
-457.026	795.441	0.091	0.250
-456.011	800.000	-0.054	0.195
-454.997	-119.702	-0.191	0.033
-453.982	147.597	0.178	-0.238
-452.968	800.000	-0.059	0.185
-451.953	-131.099	-0.150	-0.020
-450.938	-96.352	0.264	-0.070
-449.924	24.348	-0.316	-0.260
-448.909	-50.297	0.111	0.052
-447.895	-109.169	0.371	0.079
-446.880	-200.000	-0.019	-0.088
-445.865	-149.942	0.479	0.037
-444.851	800.000	0.005	0.019
-443.836	-14.277	-0.192	-0.123
-442.822	800.000	-0.037	0.155
-441.807	108.178	-0.080	0.095
-440.792	316.245	-0.106	0.200
-439.778	-120.427	-0.124	-0.021
-438.763	-200.000	0.007	-0.039
-437.749	-200.000	-0.026	-0.178
-436.734	-142.427	0.267	-0.026
-435.719	265.124	0.124	0.215
-434.705	509.897	-0.036	-0.084
-433.690	428.179	-0.044	-0.095
-432.676	800.000	0.082	0.232
-431.661	800.000	-0.040	-0.121
-430.646	-5.322	-0.108	-0.074
-429.632	-200.000	-0.010	0.073
-428.617	133.794	-0.293	0.378
-427.603	-200.000	-0.043	-0.240
-426.588	-44.678	0.070	0.035
-425.573	304.718	-0.045	0.083
-424.559	-200.000	-0.071	-0.322
-423.544	-200.000	0.048	0.401
-422.530	54.747	-0.151	-0.145
-421.515	-183.909	0.248	0.004
-420.500	660.986	0.022	0.057
-419.486	-93.785	0.109	-0.030
-418.471	-200.000	-0.016	-0.291
-417.457	-121.956	-0.107	-0.017
-416.442	-102.770	-0.233	0.055
-415.428	260.749	0.156	0.268
-414.413	-48.776	0.167	-0.080
-413.398	-64.505	-0.292	-0.118
-412.384	107.401	0.357	0.422
-411.369	158.162	0.174	0.239
-410.355	196.534	0.087	-0.132
-409.340	506.093	-0.032	0.074
-408.325	84.900	-0.181	-0.197
-407.311	81.026	-0.185	-0.199
-406.296	-200.000	-0.014	-0.247
-405.282	32.166	0.291	-0.250
-404.267	-125.047	0.219	0.033
-403.252	-200.000	-0.056	-0.254
-402.238	-200.000	-0.045	0.355
-401.223	-118.265	-0.421	-0.074
-400.209	-60.923	0.149	-0.063
-399.194	-102.301	0.130	-0.031
-398.179	-172.162	-0.007	0.000
-397.165	-41.351	0.080	-0.041
-396.150	-68.947	0.084	-0.032
-395.136	-89.023	-0.413	-0.121
-394.121	200.821	0.075	0.115
-393.106	109.246	-0.082	0.097
-392.092	-78.141	0.322	0.110
-391.077	-78.634	0.239	-0.081
-390.063	-122.231	0.293	0.048
-389.048	93.878	-0.099	0.112
-388.033	389.182	0.103	-0.212
-387.019	-38.674	0.176	-0.093
-386.004	-54.864	0.182	-0.082
-384.990	-108.824	0.367	-0.078
-383.975	-200.000	-0.029	-0.141
-382.960	-200.000	-0.005	-0.263
-381.946	242.478	-0.087	-0.145
-380.931	-147.346	-0.591	-0.050
-379.917	-17.064	0.294	-0.184
-378.902	330.225	-0.090	0.172
-377.888	-60.572	0.077	0.032
-376.873	457.730	-0.115	-0.254
-375.858	581.739	-0.073	-0.178
-374.844	800.000	-0.051	-0.188
-373.829	-200.000	0.020	0.169
-372.815	-200.000	-0.004	0.066
-371.800	336.286	0.069	0.132
-370.785	246.999	0.060	-0.100
-369.771	800.000	-0.017	-0.066
-368.756	-101.110	-0.294	-0.071
-367.742	800.000	-0.016	-0.054
-366.727	-200.000	0.003	-0.088
-365.712	-188.305	-0.052	-0.001
-364.698	-200.000	-0.036	0.207
-363.683	20.747	-0.077	0.062
-362.669	101.327	0.152	-0.176
-361.654	87.078	0.239	0.262
-360.639	-27.002	-0.189	0.109
-359.625	-49.794	-0.119	-0.056
-358.610	-59.059	-0.112	0.048
-357.596	-200.000	-0.014	-0.287
-356.581	186.095	-0.185	0.273
-355.566	-200.000	-0.027	0.306
-354.552	-162.247	0.114	0.006
-353.537	-79.385	0.116	0.039
-352.523	-107.646	0.168	-0.036
-351.508	24.480	-0.089	-0.073
-350.493	325.192	0.147	0.279
-349.479	-145.280	0.118	0.011
-348.464	-174.513	-0.308	0.009
-347.450	60.460	0.046	0.046
-346.435	-41.506	-0.228	-0.116
-345.420	-34.930	0.082	-0.044
-344.406	-4.406	0.156	-0.107
-343.391	99.435	0.062	0.071
-342.377	-47.089	0.064	0.031
-341.362	-98.822	-0.256	-0.065
-340.348	-69.008	-0.155	0.059
-339.333	-56.015	-0.257	-0.113
-338.318	-85.879	0.564	0.173
-337.304	-200.000	-0.007	0.069
-336.289	800.000	0.040	-0.130
-335.275	12.923	-0.292	0.224
-334.260	800.000	0.154	-0.442
-333.245	-3.616	-0.239	-0.165
-332.231	800.000	0.053	0.209
-331.216	352.711	-0.034	-0.067
-330.202	276.236	-0.115	0.202
-329.187	-44.682	-0.197	-0.098
-328.172	-200.000	0.008	-0.187
-327.158	219.978	-0.041	-0.064
-326.143	-63.483	0.081	-0.033
-325.129	122.242	0.149	-0.184
-324.114	1.711	0.032	-0.023
-323.099	1.946	-0.226	0.162
-322.085	-200.000	-0.044	0.372
-321.070	-115.455	0.129	-0.024
-320.056	-90.232	0.431	0.124
-319.041	-200.000	0.036	0.177
-318.026	38.683	0.277	-0.245
-317.012	145.108	0.053	-0.071
-315.997	-75.077	0.096	-0.034
-314.983	188.202	0.094	-0.139
-313.968	54.879	0.310	0.296
-312.953	-127.600	-0.143	-0.021
-311.939	-156.591	0.249	0.015
-310.924	25.613	0.149	-0.123
-309.910	-14.971	0.251	0.160
-308.895	-200.000	-0.022	0.212
-307.880	11.039	-0.133	0.101
-306.866	182.919	-0.081	-0.119
-305.851	-29.980	-0.190	0.107
-304.837	22.977	-0.125	0.101
-303.822	16.662	0.085	0.066
-302.807	-155.892	0.169	0.011
-301.793	24.101	-0.189	-0.154
-300.778	800.000	0.083	0.272
-299.764	-34.598	-0.094	-0.051
-298.749	-42.891	0.309	0.155
-297.735	49.380	-0.075	-0.070
-296.720	-200.000	-0.007	0.168
-295.705	19.311	-0.223	0.177
-294.691	-9.706	-0.185	0.122
-293.676	114.036	-0.135	-0.162
-292.662	-77.432	0.126	-0.043
-291.647	800.000	0.081	-0.242
-290.632	-51.971	-0.251	-0.116
-289.618	40.900	-0.195	0.174
-288.603	800.000	0.035	0.100
-287.589	168.238	0.265	-0.373
-286.574	-62.452	-0.285	0.117
-285.559	78.759	-0.174	0.184
-284.545	393.861	-0.057	0.118
-283.530	-16.313	0.019	0.012
-282.516	592.400	-0.043	0.106
-281.501	-200.000	0.026	0.117
-280.486	800.000	-0.159	0.442
-279.472	-200.000	0.009	0.323
-278.457	636.918	-0.052	-0.130
-277.443	-43.983	-0.152	-0.075
-276.428	203.511	-0.240	-0.367
-275.413	-78.952	0.139	0.047
-274.399	-125.614	0.391	-0.059
-273.384	-26.729	0.234	-0.135
-272.370	-200.000	0.035	0.177
-271.355	141.470	0.187	0.245
-270.340	499.629	-0.067	-0.154
-269.326	340.858	-0.145	-0.280
-268.311	106.957	-0.180	-0.211
-267.297	182.059	-0.093	-0.135
-266.282	615.888	0.161	0.398
-265.267	-30.460	-0.189	-0.106
-264.253	728.033	-0.106	0.280
-263.238	-83.345	0.289	-0.092
-262.224	-148.310	0.360	0.029
-261.209	63.950	-0.113	0.113
-260.195	-44.184	-0.220	0.109
-259.180	56.724	0.118	-0.113
-258.165	-89.916	0.345	0.099
-257.151	485.495	0.067	-0.151
-256.136	800.000	0.080	0.256
-255.122	-83.538	0.291	-0.092
-254.107	97.408	-0.130	-0.147
-253.092	-200.000	0.014	-0.238
-252.078	-109.366	-0.314	-0.066
-251.063	505.984	0.054	0.123
-250.049	-10.730	0.081	0.053
-249.034	73.025	-0.175	-0.181
-248.019	66.092	0.130	-0.130
-247.005	-71.090	-0.223	0.083
-245.990	-87.294	0.113	0.034
-244.976	63.353	0.326	0.323
-243.961	-200.000	0.007	0.297
-242.946	501.481	0.148	0.338
-241.932	-56.278	-0.294	0.129
-240.917	17.070	-0.177	-0.138
-239.903	800.000	-0.088	-0.321
-238.888	118.057	0.096	0.116
-237.873	-200.000	0.003	-0.032
-236.859	-20.923	0.172	-0.104
-235.844	-45.824	-0.201	0.098
-234.830	-114.573	-0.045	-0.008
-233.815	-200.000	-0.005	-0.035
-232.800	39.095	-0.321	0.284
-231.786	-200.000	0.266	0.000
-230.771	59.866	-0.028	0.028
-229.757	79.157	-0.105	-0.111
-228.742	-138.247	-0.004	0.000
-227.727	-200.000	0.011	-0.180
-226.713	-37.713	-0.297	0.156
-225.698	10.459	-0.163	-0.123
-224.684	47.243	0.366	0.336
-223.669	-200.000	0.092	-0.475
-222.655	20.602	-0.016	-0.013
-221.640	116.728	0.186	0.225
-220.625	-67.540	-0.110	-0.042
-219.611	191.673	-0.016	0.024
-218.596	-2.022	0.038	-0.027
-217.582	-166.513	0.387	-0.016
-216.567	-200.000	0.008	0.171
-215.552	-70.514	0.151	-0.057
-214.538	-200.000	0.010	0.056
-213.523	-200.000	-0.005	0.162
-212.509	-75.066	0.384	-0.136
-211.494	-89.651	0.147	0.043
-210.479	-71.940	0.265	0.097
-209.465	800.000	-0.068	-0.269
-208.450	-105.385	-0.237	0.053
-207.436	224.742	0.081	0.129
-206.421	51.006	0.062	-0.058
-205.406	252.280	0.143	-0.240
-204.392	800.000	-0.031	-0.093
-203.377	-178.990	0.303	-0.007
-202.363	75.757	-0.216	-0.225
-201.348	-142.175	-0.116	-0.011
-200.333	297.753	0.074	0.134
-199.319	800.000	-0.012	0.041
-198.304	74.500	0.040	-0.042
-197.290	-9.662	-0.210	-0.138
-196.275	-93.432	-0.067	-0.018
-195.260	239.159	-0.144	0.236
-194.246	-58.090	0.217	0.093
-193.231	-47.182	0.266	0.128
-192.217	-28.361	0.261	0.148
-191.202	-177.058	-0.136	0.003
-190.187	743.911	-0.049	-0.129
-189.173	62.040	-0.258	-0.253
-188.158	-200.000	0.060	-0.343
-187.144	-139.828	-0.165	-0.017
-186.129	28.847	0.361	-0.302
-185.114	96.407	0.107	0.121
-184.100	800.000	-0.079	0.276
-183.085	-200.000	-0.004	-0.278
-182.071	-122.398	0.388	0.062
-181.056	-200.000	-0.024	-0.120
-180.042	158.474	0.193	0.264
-179.027	-95.484	-0.178	0.047
-178.012	327.303	0.135	-0.255
-176.998	157.448	0.101	0.138
-175.983	-181.657	-0.155	-0.003
-174.969	-118.810	0.292	0.051
-173.954	-119.259	-0.581	0.100
-172.939	130.677	-0.132	0.167
-171.925	231.146	0.014	-0.022
-170.910	-200.000	-0.055	0.249
-169.896	145.379	0.135	-0.177
-168.881	-50.420	-0.274	0.127
-167.866	94.371	-0.212	-0.237
-166.852	-104.050	0.093	-0.021
-165.837	-200.000	-0.043	0.269
-164.823	164.481	0.060	-0.084
-163.808	-8.547	0.112	0.074
-162.793	-36.094	0.179	0.095
-161.779	108.665	0.190	0.223
-160.764	-200.000	0.040	0.388
-159.750	-3.468	0.107	-0.073
-158.735	-51.341	0.162	0.074
-157.720	-1.982	-0.148	0.102
-156.706	291.940	-0.130	-0.233
-155.691	-76.791	0.229	-0.079
-154.677	-111.784	0.433	-0.086
-153.662	99.368	0.067	-0.077
-152.647	800.000	-0.142	-0.463
-151.633	-82.704	0.123	0.039
-150.618	-187.374	-0.329	-0.004
-149.604	8.311	0.353	-0.261
-148.589	-200.000	0.001	0.122
-147.574	16.096	0.244	-0.190
-146.560	304.135	0.169	-0.308
-145.545	52.658	0.141	0.132
-144.531	800.000	0.031	0.115
-143.516	12.864	0.256	0.195
-142.502	214.430	-0.121	0.188
-141.487	477.275	0.169	0.377
-140.472	-200.000	-0.031	0.203
-139.458	45.935	0.188	-0.171
-138.443	126.720	0.136	-0.169
-137.429	-131.484	0.239	-0.031
-136.414	0.404	0.098	-0.069
-135.399	-28.601	-0.250	-0.142
-134.385	-100.448	0.434	0.106
-133.370	-116.348	0.421	0.077
-132.356	-139.280	0.188	-0.020
-131.341	-23.554	0.106	-0.063
-130.326	-88.949	0.262	-0.076
-129.312	5.258	0.274	0.198
-128.297	-140.397	0.232	-0.024
-127.283	771.828	-0.030	-0.080
-126.268	-139.108	-0.463	0.049
-125.253	138.459	-0.106	0.137
-124.239	464.809	-0.040	0.087
-123.224	-109.167	0.406	0.085
-122.210	-200.000	0.023	0.240
-121.195	-83.320	-0.177	-0.056
