DTS Sentinel unit serial number:	SN413079Multiplexer serial number:	ORYXHardware model number:	OX4-SRSoftware version number:	ORYX F/W v4.00 Oryx Data Collector v3.7.2.0data status	okinstallation	princeton_trtdifferential loss correction	single-endedforward channel	channel 2reverse channel	N/Adate	2019/09/19time	14:55:35forward acquisition time	60.00reverse acquisition time	0.00gamma	496.2192k internal	0.2321k external	0.2321temperature offset calibration	1.0022default loss term (dB/km)	0.3790temperature slope calibration	1.0000multiplexer offset coefficient	1.0000multiplexer slope coefficient	1.0000fibre end	0.00T internal ref (°C)	32.98T ext. ref 1 (°C)	1.11T ext. ref 2 (°C)	29.92length (m)	temperature (°C)	Stokes	anti-Stokes-747.200	435.371	0.055	0.121
-746.185	800.000	-0.037	0.109
-745.171	367.948	-0.106	-0.217
-744.156	-200.000	-0.009	0.101
-743.142	-31.625	-0.078	0.044
-742.127	-200.000	-0.109	0.519
-741.112	-200.000	0.068	0.446
-740.098	-152.788	0.179	0.013
-739.083	187.446	-0.145	0.218
-738.069	-200.000	-0.082	0.394
-737.054	-134.605	0.124	-0.015
-736.039	349.010	-0.096	-0.191
-735.025	-139.684	-0.214	0.023
-734.010	-52.842	-0.254	-0.118
-732.996	241.247	0.083	-0.140
-731.981	166.539	-0.190	-0.273
-730.966	537.316	-0.108	-0.259
-729.952	222.517	-0.214	-0.348
-728.937	113.236	0.101	-0.124
-727.923	17.059	0.056	-0.045
-726.908	-200.000	0.003	-0.107
-725.894	-119.954	0.208	-0.036
-724.879	-200.000	-0.054	-0.262
-723.864	-200.000	-0.075	-0.331
-722.850	-113.043	0.450	-0.090
-721.835	-200.000	0.054	0.254
-720.821	800.000	-0.085	-0.276
-719.806	-5.584	-0.487	0.337
-718.791	-200.000	0.027	-0.375
-717.777	326.429	-0.120	-0.233
-716.762	800.000	-0.033	-0.108
-715.748	563.467	-0.071	0.173
-714.733	-107.101	0.185	0.041
-713.718	800.000	0.075	-0.244
-712.704	-200.000	0.035	-0.350
-711.689	82.271	-0.229	-0.250
-710.675	-26.673	-0.201	0.118
-709.660	-93.016	0.364	0.103
-708.645	40.653	-0.130	-0.118
-707.631	-10.415	0.282	0.188
-706.616	123.875	0.022	0.028
-705.602	-41.489	-0.069	-0.036
-704.587	-200.000	-0.006	-0.042
-703.572	-21.452	0.136	0.084
-702.558	56.471	-0.317	-0.311
-701.543	-185.403	0.092	-0.001
-700.529	-163.781	-0.350	-0.017
-699.514	512.268	0.073	-0.172
-698.499	-77.056	0.242	-0.085
-697.485	-149.409	0.160	-0.013
-696.470	270.637	0.174	-0.308
-695.456	-28.583	-0.147	0.085
-694.441	333.009	-0.043	0.084
-693.426	694.417	-0.020	-0.054
-692.412	533.900	0.103	0.246
-691.397	800.000	-0.111	-0.313
-690.383	198.621	-0.178	0.275
-689.368	-156.203	-0.179	-0.011
-688.354	167.379	-0.221	0.317
-687.339	-3.757	-0.051	0.036
-686.324	800.000	-0.034	0.119
-685.310	-56.845	0.303	-0.135
-684.295	-200.000	0.021	0.113
-683.281	249.156	-0.272	0.465
-682.266	358.211	0.074	-0.148
-681.251	115.859	0.156	-0.193
-680.237	45.560	0.132	0.123
-679.222	-5.097	-0.123	-0.085
-678.208	82.580	0.155	0.169
-677.193	800.000	-0.078	-0.288
-676.178	-138.911	-0.350	-0.038
-675.164	718.509	0.109	0.293
-674.149	-57.569	-0.123	-0.055
-673.135	-155.556	-0.277	0.018
-672.120	-183.244	0.399	-0.007
-671.105	140.437	0.108	0.144
-670.091	188.152	0.045	-0.068
-669.076	-200.000	-0.034	0.222
-668.062	44.672	-0.144	0.133
-667.047	66.758	0.235	0.241
-666.032	-40.573	-0.150	0.079
-665.018	57.824	-0.143	-0.141
-664.003	222.141	-0.065	-0.106
-662.989	-200.000	0.194	0.000
-661.974	178.887	-0.149	-0.220
-660.959	82.584	-0.270	-0.295
-659.945	55.196	-0.222	-0.216
-658.930	-185.857	0.163	0.002
-657.916	296.692	-0.134	-0.248
-656.901	-200.000	0.005	0.088
-655.886	-54.262	0.078	0.036
-654.872	108.010	-0.170	0.204
-653.857	800.000	0.065	-0.182
-652.843	-200.000	-0.084	-0.392
-651.828	800.000	0.045	-0.182
-650.814	63.092	0.060	0.060
-649.799	730.766	0.068	0.183
-648.784	53.458	-0.046	-0.044
-647.770	-162.873	0.337	0.017
-646.755	800.000	-0.094	-0.330
-645.741	51.065	0.148	-0.141
-644.726	-129.580	0.138	-0.019
-643.711	-12.373	-0.175	0.115
-642.697	800.000	-0.028	0.079
-641.682	502.574	-0.129	-0.299
-640.668	256.339	-0.090	-0.156
-639.653	38.215	0.107	-0.096
-638.638	441.303	0.153	-0.337
-637.624	-131.454	-0.236	0.031
-636.609	-37.269	0.222	-0.120
-635.595	-1.795	0.164	0.116
-634.580	252.352	-0.210	0.360
-633.565	-129.872	0.420	0.058
-632.551	-116.853	-0.127	0.023
-631.536	-170.269	-0.333	-0.012
-630.522	-162.440	-0.106	-0.005
-629.507	-32.552	0.058	-0.033
-628.492	-113.972	0.316	-0.062
-627.478	441.243	-0.144	-0.317
-626.463	-19.942	0.145	0.090
-625.449	-39.555	0.175	0.092
-624.434	-49.812	-0.263	0.126
-623.419	-200.000	-0.087	-0.546
-622.405	-123.861	0.263	0.042
-621.390	-163.392	0.231	-0.011
-620.376	272.602	0.112	-0.199
-619.361	-141.533	-0.418	0.042
-618.346	-200.000	-0.061	0.333
-617.332	53.858	-0.207	-0.200
-616.317	-181.989	0.252	0.005
-615.303	97.199	-0.189	0.218
-614.288	206.481	-0.165	0.258
-613.273	173.410	-0.167	0.243
-612.259	800.000	0.054	0.204
-611.244	-9.323	-0.080	0.053
-610.230	4.734	-0.166	-0.122
-609.215	-92.633	-0.114	0.032
-608.201	-48.671	-0.150	0.072
-607.186	326.290	0.053	0.101
-606.171	360.882	-0.035	-0.071
-605.157	233.593	-0.142	-0.236
-604.142	-95.389	0.133	-0.036
-603.128	800.000	0.053	-0.148
-602.113	104.931	-0.061	-0.072
-601.098	800.000	-0.034	0.114
-600.084	-31.451	-0.293	-0.166
-599.069	415.783	-0.105	-0.226
-598.055	96.953	-0.136	0.156
-597.040	-35.528	-0.118	0.064
-596.025	63.178	0.268	-0.270
-595.011	64.938	-0.182	-0.184
-593.996	433.050	-0.072	0.158
-592.982	-132.940	-0.103	0.013
-591.967	93.552	-0.107	0.122
-590.952	-75.201	-0.013	0.005
-589.938	-17.597	0.199	-0.125
-588.923	213.235	-0.161	0.256
-587.909	800.000	0.055	-0.199
-586.894	20.783	-0.076	0.062
-585.879	-164.759	-0.251	0.011
-584.865	185.817	0.048	0.072
-583.850	-181.569	-0.080	-0.002
-582.836	-182.212	-0.209	0.004
-581.821	-11.327	-0.333	-0.220
-580.806	390.816	-0.147	0.306
-579.792	-115.104	-0.235	0.045
-578.777	321.246	0.075	0.143
-577.763	-113.522	-0.157	-0.031
-576.748	69.188	0.272	0.281
-575.733	-101.585	-0.316	0.077
-574.719	-200.000	0.009	-0.247
-573.704	-94.561	-0.237	-0.065
-572.690	-85.758	0.316	-0.098
-571.675	-200.000	0.053	-0.263
-570.661	638.670	-0.093	0.237
-569.646	-170.231	0.295	0.010
-568.631	95.427	0.378	0.432
-567.617	537.473	0.156	0.371
-566.602	-38.814	-0.188	0.100
-565.588	-57.552	-0.132	-0.058
-564.573	-58.546	0.438	-0.191
-563.558	-88.373	-0.089	-0.027
-562.544	170.982	-0.072	-0.104
-561.529	-147.428	-0.249	0.021
-560.515	-165.620	-0.253	0.011
-559.500	255.797	0.113	-0.195
-558.485	800.000	0.105	-0.331
-557.471	-200.000	-0.001	0.126
-556.456	-200.000	0.021	0.103
-555.442	-200.000	-0.051	0.236
-554.427	-175.195	0.153	-0.004
-553.412	-66.886	0.449	0.178
-552.398	-134.021	0.118	0.015
-551.383	-100.084	-0.182	0.046
-550.369	-200.000	-0.002	-0.020
-549.354	127.671	-0.191	0.243
-548.339	-134.495	0.176	0.022
-547.325	302.472	-0.067	-0.124
-546.310	-183.800	-0.162	-0.003
-545.296	-199.112	-0.235	-0.001
-544.281	-200.000	-0.015	0.107
-543.266	79.128	0.161	-0.173
-542.252	-100.917	0.331	-0.082
-541.237	102.651	0.240	0.282
-540.223	50.930	-0.080	-0.076
-539.208	-200.000	-0.019	-0.277
-538.193	-118.546	-0.102	0.018
-537.179	43.108	0.126	-0.115
-536.164	-82.353	-0.243	-0.079
-535.150	-145.677	0.380	-0.034
-534.135	800.000	-0.051	0.161
-533.121	795.234	0.078	-0.216
-532.106	-5.220	-0.135	-0.093
-531.091	343.966	-0.150	0.294
-530.077	-89.783	-0.263	-0.077
-529.062	-101.352	-0.379	0.093
-528.048	183.556	0.185	0.274
-527.033	159.256	0.241	-0.336
-526.018	-139.862	-0.238	-0.025
-525.004	69.820	0.345	0.357
-523.989	400.881	0.118	-0.247
-522.975	-60.265	0.420	-0.179
-521.960	156.808	-0.032	0.044
-520.945	40.682	-0.029	0.026
-519.931	-200.000	0.002	0.374
-518.916	-103.863	-0.249	0.058
-517.902	-93.179	0.380	0.106
-516.887	-98.228	-0.280	-0.072
-515.872	-65.736	0.141	-0.056
-514.858	800.000	-0.062	-0.235
-513.843	421.555	-0.079	-0.170
-512.829	-164.509	0.265	0.012
-511.814	273.363	-0.126	-0.222
-510.799	18.756	-0.158	0.127
-509.785	-67.989	0.138	0.054
-508.770	147.129	-0.109	-0.146
-507.756	120.833	-0.099	-0.124
-506.741	93.735	0.161	0.183
-505.726	-104.627	-0.062	0.014
-504.712	63.538	0.076	0.076
-503.697	-200.000	0.003	0.016
-502.683	447.260	-0.199	0.439
-501.668	-200.000	-0.049	0.322
-500.653	-159.054	-0.286	0.016
-499.639	160.768	0.181	0.253
-498.624	800.000	-0.099	0.325
-497.610	-35.672	-0.244	-0.132
-496.595	-200.000	-0.045	-0.664
-495.581	-85.952	-0.236	-0.073
-494.566	-39.455	-0.168	0.088
-493.551	-188.895	-0.311	0.004
-492.537	-200.000	0.006	-0.078
-491.522	88.763	-0.076	0.084
-490.508	-22.852	0.189	-0.114
-489.493	-127.384	0.100	-0.015
-488.478	-113.319	0.147	0.029
-487.464	-200.000	0.075	0.000
-486.449	44.748	0.055	-0.050
-485.435	-3.482	-0.376	-0.261
-484.420	-200.000	0.023	0.223
-483.405	-87.840	-0.333	-0.100
-482.391	-184.351	0.068	-0.001
-481.376	-200.000	-0.004	0.180
-480.362	-137.957	-0.345	0.038
-479.347	-77.300	0.147	-0.051
-478.332	708.634	-0.117	-0.310
-477.318	-97.410	0.309	-0.080
-476.303	-200.000	0.061	0.290
-475.289	-184.362	-0.041	-0.001
-474.274	571.278	0.126	-0.307
-473.259	-117.071	-0.425	0.078
-472.245	422.587	-0.079	0.169
-471.230	70.340	-0.301	0.311
-470.216	-200.000	-0.014	-0.263
-469.201	-36.212	0.167	0.090
-468.186	-140.377	-0.349	-0.036
-467.172	-109.324	0.215	-0.046
-466.157	-200.000	0.013	-0.115
-465.143	760.938	-0.028	-0.077
-464.128	-60.608	-0.178	-0.076
-463.113	-23.013	0.183	0.110
-462.099	19.210	-0.145	0.116
-461.084	80.728	0.191	0.206
-460.070	-103.480	-0.297	-0.070
-459.055	119.912	-0.165	-0.204
-458.040	56.130	0.238	0.231
-457.026	-60.785	0.227	0.096
-456.011	-200.000	-0.019	-0.520
-454.997	207.185	-0.144	-0.224
-453.982	-112.319	0.211	0.042
-452.968	-127.091	0.183	-0.027
-451.953	228.273	-0.014	0.023
-450.938	7.403	0.184	-0.138
-449.924	45.355	0.119	0.109
-448.909	192.522	-0.099	0.150
-447.895	128.429	0.281	-0.357
-446.880	-125.779	0.165	0.025
-445.865	197.897	-0.216	-0.330
-444.851	-127.388	0.492	0.072
-443.836	345.440	0.116	0.228
-442.822	37.730	0.028	0.025
-441.807	293.863	-0.077	-0.140
-440.792	-52.105	-0.124	0.057
-439.778	37.107	-0.143	-0.126
-438.763	800.000	-0.063	0.241
-437.749	2.002	-0.299	0.216
-436.734	-32.076	0.262	0.146
-435.719	-60.411	0.194	0.082
-434.705	-96.685	-0.377	0.099
-433.690	800.000	0.036	0.126
-432.676	-200.000	-0.001	0.202
-431.661	-86.661	-0.126	-0.039
-430.646	-77.664	0.239	-0.083
-429.632	137.136	-0.213	-0.278
-428.617	-5.618	0.106	0.072
-427.603	-4.243	-0.163	-0.113
-426.588	-200.000	-0.015	-0.217
-425.573	266.218	0.082	-0.142
-424.559	-121.855	-0.254	0.042
-423.544	-200.000	0.001	0.024
-422.530	-161.615	0.387	0.020
-421.515	-111.424	0.228	-0.046
-420.500	-67.697	-0.240	0.094
-419.486	800.000	-0.071	-0.261
-418.471	-23.747	-0.306	-0.183
-417.457	-135.811	0.177	0.021
-416.442	-20.053	0.117	-0.072
-415.428	-200.000	0.012	0.276
-414.413	-83.098	-0.262	0.084
-413.398	-171.693	0.197	-0.006
-412.384	6.552	0.400	-0.296
-411.369	-200.000	-0.020	0.126
-410.355	-92.084	0.135	-0.038
-409.340	93.423	0.102	-0.115
-408.325	-174.862	-0.125	-0.003
-407.311	-41.940	0.182	-0.093
-406.296	315.040	-0.132	0.248
-405.282	-90.371	0.226	0.065
-404.267	-44.371	-0.109	0.054
-403.252	179.556	-0.066	0.097
-402.238	-0.450	-0.013	0.009
-401.223	-200.000	-0.071	-0.513
-400.209	30.554	0.147	-0.125
-399.194	275.757	0.113	0.201
-398.179	-72.007	0.108	0.040
-397.165	-123.762	-0.385	-0.061
-396.150	460.591	0.203	-0.451
-395.136	133.804	0.115	-0.148
-394.121	16.604	-0.236	-0.186
-393.106	-79.582	-0.164	-0.055
-392.092	21.810	-0.051	0.041
-391.077	483.677	0.048	0.109
-390.063	474.932	0.095	0.214
-389.048	86.742	-0.100	-0.110
-388.033	-107.219	-0.219	-0.048
-387.019	-200.000	0.052	-0.235
-386.004	251.466	-0.127	0.216
-384.990	52.674	-0.089	-0.085
-383.975	-93.152	0.198	-0.055
-382.960	35.506	0.159	0.140
-381.946	-94.579	-0.056	-0.015
-380.931	-33.953	0.207	-0.113
-379.917	112.039	-0.159	-0.192
-378.902	-151.091	0.445	-0.033
-377.888	-200.000	-0.032	-0.253
-376.873	-128.718	-0.180	-0.025
-375.858	-13.395	0.283	0.183
-374.844	-51.360	0.414	0.193
-373.829	-113.492	0.088	-0.017
-372.815	447.341	-0.134	0.295
-371.800	-28.081	-0.104	0.060
-370.785	-98.095	-0.155	0.040
-369.771	403.157	-0.030	0.063
-368.756	-68.289	0.376	0.145
-367.742	250.328	0.190	0.322
-366.727	-33.213	0.114	-0.063
-365.712	28.679	-0.222	-0.187
-364.698	242.804	-0.146	0.243
-363.683	-200.000	0.038	-0.171
-362.669	195.719	0.105	0.159
-361.654	70.255	0.067	0.069
-360.639	117.913	0.232	-0.285
-359.625	800.000	-0.091	0.299
-358.610	-200.000	0.019	-0.298
-357.596	-25.478	0.311	-0.183
-356.581	163.703	0.226	0.317
-355.566	800.000	-0.059	0.218
-354.552	149.453	-0.121	-0.163
-353.537	125.245	-0.166	-0.209
-352.523	319.489	-0.160	-0.302
-351.508	545.986	0.055	0.132
-350.493	674.745	-0.017	0.044
-349.479	77.139	-0.167	0.176
-348.464	138.022	-0.052	0.068
-347.450	-98.491	-0.272	0.069
-346.435	800.000	0.130	-0.483
-345.420	-200.000	-0.004	0.058
-344.406	-141.072	-0.158	-0.016
-343.391	-200.000	0.013	-0.073
-342.377	-124.709	-0.003	-0.001
-341.362	-48.580	0.218	-0.104
-340.348	466.189	0.214	0.476
-339.333	-34.709	-0.055	-0.030
-338.318	459.567	0.121	0.267
-337.304	-200.000	-0.012	-0.202
-336.289	71.608	-0.055	-0.057
-335.275	36.622	-0.077	-0.067
-334.260	158.010	-0.184	-0.253
-333.245	-175.317	0.122	0.003
-332.231	-200.000	-0.024	0.177
-331.216	800.000	-0.027	-0.100
-330.202	-200.000	-0.002	0.294
-329.187	-200.000	-0.028	-0.202
-328.172	15.340	0.199	-0.156
-327.158	265.749	-0.097	0.169
-326.143	763.640	0.091	0.246
-325.129	-52.342	-0.255	0.117
-324.114	-200.000	0.000	0.176
-323.099	-138.085	0.275	-0.030
-322.085	-127.309	0.244	-0.035
-321.070	320.914	-0.143	0.271
-320.056	579.482	-0.141	0.342
-319.041	800.000	-0.024	-0.079
-318.026	76.984	-0.062	0.065
-317.012	-142.997	-0.178	0.017
-315.997	800.000	-0.045	-0.172
-314.983	-32.402	-0.284	0.157
-313.968	17.854	-0.128	-0.101
-312.953	-119.364	0.333	0.057
-311.939	800.000	-0.066	-0.221
-310.924	-37.227	0.244	0.129
-309.910	-82.296	-0.174	0.056
-308.895	-82.043	-0.162	-0.052
-307.880	-142.161	-0.202	0.020
-306.866	424.971	-0.048	-0.102
-305.851	-115.574	-0.236	-0.044
-304.837	800.000	0.091	-0.267
-303.822	-69.081	-0.316	0.121
-302.807	-28.261	-0.234	0.134
-301.793	88.338	-0.275	-0.304
-300.778	277.704	0.150	-0.265
-299.764	186.910	-0.046	-0.068
-298.749	-14.684	0.208	0.133
-297.735	57.272	-0.396	-0.384
-296.720	-52.608	-0.052	0.024
-295.705	-200.000	-0.018	0.142
-294.691	77.287	-0.034	-0.036
-293.676	-200.000	0.008	-0.076
-292.662	80.732	-0.458	-0.490
-291.647	-87.800	-0.305	0.091
-290.632	38.665	0.349	-0.309
-289.618	-55.936	0.041	-0.018
-288.603	-200.000	-0.017	-0.174
-287.589	-117.719	0.479	0.086
-286.574	-8.394	0.040	-0.027
-285.559	7.594	0.207	0.154
-284.545	-200.000	-0.018	0.091
-283.530	93.334	-0.138	0.155
-282.516	-32.606	0.352	-0.195
-281.501	-104.390	0.305	-0.070
-280.486	-200.000	-0.017	0.079
-279.472	99.891	-0.325	0.373
-278.457	374.485	0.156	0.316
-277.443	-143.720	-0.228	-0.021
-276.428	-169.379	0.307	0.011
-275.413	800.000	0.035	0.120
-274.399	107.224	-0.022	-0.026
-273.384	-93.555	0.115	0.032
-272.370	-134.327	-0.136	-0.017
-271.355	494.012	-0.019	0.043
-270.340	98.556	0.101	0.115
-269.326	-142.397	0.113	-0.011
-268.311	800.000	0.084	-0.269
-267.297	-36.491	-0.061	-0.033
-266.282	436.000	0.151	0.327
-265.267	-58.384	-0.196	0.084
-264.253	-57.418	0.198	-0.086
-263.238	206.467	-0.151	-0.233
-262.224	278.578	-0.210	0.372
-261.209	174.464	0.218	0.312
-260.195	208.895	0.178	-0.276
-259.180	-69.401	-0.115	-0.044
-258.165	284.749	0.183	0.327
-257.151	290.734	-0.137	0.247
-256.136	-200.000	0.033	0.266
-255.122	-81.414	-0.212	0.069
-254.107	-114.796	0.062	-0.012
-253.092	-0.637	0.339	0.239
-252.078	496.399	0.049	0.112
-251.063	-60.393	0.113	-0.048
-250.049	171.448	-0.043	0.061
-249.034	800.000	0.114	0.379
-248.019	659.425	-0.142	-0.362
-247.005	-111.920	-0.221	-0.044
-245.990	762.063	-0.053	-0.143
-244.976	595.377	0.157	-0.385
-243.961	-200.000	0.024	0.330
-242.946	-91.209	0.157	0.045
-241.932	800.000	-0.156	-0.467
-240.917	-55.898	0.108	-0.048
-239.903	-200.000	0.010	0.114
-238.888	-13.248	0.236	0.152
-237.873	185.262	0.060	0.088
-236.859	-100.282	-0.385	-0.095
-235.844	-132.548	0.383	-0.049
-234.830	85.668	-0.082	-0.090
-233.815	-73.516	0.180	0.065
-232.800	-23.727	0.289	-0.172
-231.786	-200.000	0.015	-0.266
-230.771	-200.000	0.022	0.344
-229.757	800.000	-0.043	-0.158
-228.742	-114.410	0.246	0.047
-227.727	800.000	0.017	-0.069
-226.713	85.177	0.292	0.317
-225.698	800.000	0.083	0.230
-224.684	800.000	-0.047	-0.194
-223.669	-76.266	0.372	-0.130
-222.655	-80.711	0.191	0.063
-221.640	287.498	0.107	-0.192
-220.625	157.501	-0.241	-0.331
-219.611	-131.430	-0.126	0.017
-218.596	158.465	0.059	-0.082
-217.582	-32.333	0.024	-0.013
-216.567	232.242	0.185	-0.301
-215.552	189.382	-0.096	0.142
-214.538	-200.000	0.010	-0.274
-213.523	-96.482	0.091	0.024
-212.509	800.000	-0.008	0.035
-211.494	97.606	-0.074	0.084
-210.479	0.623	0.219	0.155
-209.465	-3.414	-0.143	-0.098
-208.450	306.134	-0.139	0.257
-207.436	800.000	-0.079	-0.295
-206.421	-149.128	-0.130	0.010
-205.406	-200.000	-0.045	-0.222
-204.392	-8.880	0.116	-0.077
-203.377	-25.301	-0.169	-0.099
-202.363	129.678	0.077	0.097
-201.348	800.000	-0.039	-0.120
-200.333	-104.595	0.169	-0.039
-199.319	20.322	0.078	0.062
-198.304	-200.000	0.046	0.210
-197.290	399.503	0.052	-0.108
-196.275	-82.748	-0.062	0.020
-195.260	-200.000	0.001	0.061
-194.246	800.000	-0.027	0.100
-193.231	-67.932	0.267	-0.103
-192.217	329.804	0.092	-0.176
-191.202	-96.022	-0.119	0.031
-190.187	81.759	0.110	0.118
-189.173	-69.567	-0.130	-0.049
-188.158	2.231	-0.230	0.165
-187.144	-167.157	0.124	-0.005
-186.129	79.960	0.275	-0.292
-185.114	-200.000	-0.005	0.275
-184.100	290.491	-0.120	0.216
-183.085	-15.558	0.174	0.110
-182.071	-26.882	-0.267	0.154
-181.056	13.766	-0.194	-0.149
-180.042	420.094	-0.118	0.249
-179.027	78.514	0.129	-0.136
-178.012	-81.057	0.134	0.044
-176.998	-200.000	0.058	0.354
-175.983	117.034	0.177	-0.215
-174.969	-140.977	-0.387	-0.039
-173.954	-200.000	0.001	-0.052
-172.939	5.905	-0.140	-0.103
-171.925	-200.000	0.045	0.220
-170.910	-200.000	-0.011	0.272
-169.896	-143.705	0.218	0.020
-168.881	-128.202	0.019	0.003
-167.866	-95.147	0.249	-0.066
-166.852	-60.071	-0.431	0.182
-165.837	184.079	-0.065	0.094
-164.823	-117.450	-0.426	0.076
-163.808	-31.989	0.316	-0.175
-162.793	-130.962	0.309	0.041
-161.779	800.000	0.024	0.105
-160.764	348.115	0.095	0.185
-159.750	86.579	0.108	0.118
-158.735	5.425	-0.287	-0.210
-157.720	800.000	-0.037	0.117
-156.706	-50.466	0.146	0.068
-155.691	783.409	0.033	-0.090
-154.677	71.531	0.219	-0.225
-153.662	-112.641	-0.205	-0.040
-152.647	-84.094	0.208	0.065
-151.633	-12.292	-0.262	-0.169
-150.618	800.000	0.031	0.114
-149.604	-10.813	0.260	0.170
-148.589	53.237	-0.110	-0.104
-147.574	-7.102	0.252	0.169
-146.560	614.984	0.042	0.105
-145.545	161.124	0.219	-0.303
-144.531	-104.551	-0.086	-0.020
-143.516	-21.860	0.129	-0.078
-142.502	800.000	-0.047	-0.176
-141.487	-200.000	-0.039	0.234
-140.472	578.765	-0.042	-0.101
-139.458	800.000	0.067	-0.190
-138.443	-200.000	-0.056	-0.282
-137.429	-200.000	0.033	0.269
-136.414	-36.998	-0.219	0.116
-135.399	-200.000	-0.042	-0.237
-134.385	800.000	0.029	0.123
-133.370	43.331	-0.119	0.107
-132.356	-124.540	0.009	-0.001
-131.341	-136.115	0.476	0.055
-130.326	-80.736	-0.132	0.043
-129.312	15.004	0.116	0.090
-128.297	14.656	0.050	0.038
-127.283	-200.000	0.049	-0.252
-126.268	665.523	-0.122	-0.312
-125.253	-48.593	-0.576	0.273
-124.239	53.863	-0.165	0.157
-123.224	91.263	-0.165	-0.182
-122.210	-49.047	-0.356	0.168
