DTS Sentinel unit serial number:	SN413079Multiplexer serial number:	ORYXHardware model number:	OX4-SRSoftware version number:	ORYX F/W v4.00 Oryx Data Collector v3.7.2.0data status	okinstallation	princeton_trtdifferential loss correction	single-endedforward channel	channel 2reverse channel	N/Adate	2019/09/17time	11:07:34forward acquisition time	60.00reverse acquisition time	0.00gamma	496.2192k internal	0.2324k external	0.2324temperature offset calibration	0.9979default loss term (dB/km)	0.3790temperature slope calibration	1.0000multiplexer offset coefficient	1.0000multiplexer slope coefficient	1.0000fibre end	0.00T internal ref (°C)	30.39T ext. ref 1 (°C)	0.22T ext. ref 2 (°C)	26.05length (m)	temperature (°C)	Stokes	anti-Stokes-747.200	336.021	-0.260	0.509
-746.185	66.410	-0.165	0.169
-745.171	800.000	-0.045	-0.187
-744.156	48.914	-0.085	0.081
-743.142	43.640	-0.219	-0.202
-742.127	-13.138	-0.231	0.151
-741.112	800.000	-0.043	0.166
-740.098	-200.000	0.029	0.441
-739.083	-200.000	0.014	-0.179
-738.069	-6.432	-0.219	0.151
-737.054	114.686	-0.149	0.183
-736.039	79.009	-0.122	-0.131
-735.025	-51.293	0.075	0.035
-734.010	277.168	-0.243	-0.436
-732.996	297.110	-0.284	-0.526
-731.981	72.776	0.239	-0.252
-730.966	178.092	-0.125	0.184
-729.952	-154.990	-0.129	-0.009
-728.937	-94.443	0.368	-0.101
-727.923	800.000	-0.072	-0.231
-726.908	191.513	-0.096	0.146
-725.894	316.991	-0.042	-0.080
-724.879	-100.746	0.137	0.034
-723.864	-200.000	0.044	0.282
-722.850	-199.993	-0.287	-0.001
-721.835	135.515	0.143	-0.188
-720.821	120.740	0.100	0.126
-719.806	-182.518	0.117	-0.002
-718.791	-156.815	-0.053	0.003
-717.777	-1.230	-0.228	-0.163
-716.762	-81.806	-0.076	0.025
-715.748	209.990	-0.092	-0.146
-714.733	769.937	0.068	0.188
-713.718	-192.755	-0.151	0.001
-712.704	35.009	-0.160	0.141
-711.689	-200.000	-0.060	0.333
-710.675	244.672	0.111	-0.188
-709.660	800.000	0.048	-0.156
-708.645	-23.605	-0.281	0.170
-707.631	800.000	-0.053	0.205
-706.616	-111.192	-0.146	0.030
-705.602	800.000	-0.046	-0.170
-704.587	-200.000	0.021	-0.112
-703.572	-91.271	0.292	-0.084
-702.558	800.000	-0.076	-0.234
-701.543	-97.438	0.219	-0.057
-700.529	-200.000	-0.050	-0.309
-699.514	-54.467	0.238	-0.109
-698.499	-69.824	-0.251	-0.096
-697.485	-200.000	0.020	0.179
-696.470	202.007	0.047	0.073
-695.456	800.000	-0.023	-0.102
-694.441	98.665	-0.155	-0.181
-693.426	-130.022	0.221	0.030
-692.412	6.132	0.190	-0.142
-691.397	25.993	0.213	-0.179
-690.383	-200.000	-0.055	0.306
-689.368	708.595	-0.058	-0.155
-688.354	-66.800	-0.071	-0.028
-687.339	-55.578	0.180	-0.081
-686.324	-200.000	0.020	0.128
-685.310	82.743	-0.144	0.158
-684.295	156.566	-0.189	-0.263
-683.281	113.457	0.137	-0.167
-682.266	-24.764	0.375	-0.224
-681.251	-200.000	0.004	-0.030
-680.237	197.760	0.098	-0.151
-679.222	-200.000	-0.005	-0.417
-678.208	129.994	0.127	-0.164
-677.193	68.286	0.108	-0.112
-676.178	-147.126	0.284	-0.024
-675.164	390.522	-0.115	-0.240
-674.149	120.508	0.084	0.106
-673.135	33.412	-0.062	0.055
-672.120	398.665	0.182	0.384
-671.105	-200.000	0.004	0.147
-670.091	201.061	-0.177	-0.274
-669.076	277.763	-0.073	0.131
-668.062	800.000	0.070	0.203
-667.047	-13.256	0.133	-0.087
-666.032	572.980	-0.103	-0.253
-665.018	98.915	-0.286	-0.332
-664.003	800.000	-0.090	0.354
-662.989	-200.000	0.012	-0.101
-661.974	-63.075	-0.218	-0.090
-660.959	800.000	0.013	-0.041
-659.945	365.590	-0.196	0.398
-658.930	-116.665	-0.070	0.013
-657.916	98.473	0.032	0.037
-656.901	110.549	0.146	-0.177
-655.886	4.049	0.047	-0.035
-654.872	479.081	0.088	-0.200
-653.857	-200.000	0.004	-0.170
-652.843	163.576	-0.126	0.178
-651.828	415.658	-0.099	0.212
-650.814	226.924	-0.034	-0.055
-649.799	-88.747	-0.141	-0.042
-648.784	12.737	0.103	-0.080
-647.770	39.683	0.029	-0.026
-646.755	-73.720	-0.342	-0.125
-645.741	-200.000	0.013	-0.265
-644.726	-34.182	-0.077	-0.043
-643.711	-72.633	-0.399	-0.148
-642.697	-91.135	0.086	-0.025
-641.682	-98.940	0.301	0.077
-640.668	800.000	0.123	0.342
-639.653	-110.541	0.043	0.009
-638.638	375.964	0.192	0.394
-637.624	371.471	-0.164	0.334
-636.609	800.000	0.021	0.087
-635.595	800.000	-0.036	-0.127
-634.580	-200.000	-0.035	-0.160
-633.565	41.787	-0.138	-0.126
-632.551	800.000	0.028	-0.096
-631.536	-81.575	0.158	0.052
-630.522	-38.771	-0.146	0.077
-629.507	-200.000	0.009	0.069
-628.492	86.499	0.052	0.057
-627.478	-200.000	0.035	0.299
-626.463	80.769	0.119	-0.129
-625.449	18.031	-0.104	0.084
-624.434	-200.000	-0.027	0.527
-623.419	74.167	0.094	0.099
-622.405	769.535	-0.064	0.175
-621.390	278.086	0.075	-0.134
-620.376	12.346	0.121	0.094
-619.361	203.210	-0.176	0.273
-618.346	201.116	-0.167	-0.258
-617.332	-24.165	-0.322	0.193
-616.317	-49.390	0.233	-0.112
-615.303	800.000	0.155	-0.436
-614.288	-93.819	0.061	0.017
-613.273	142.534	-0.017	-0.022
-612.259	404.430	0.085	0.179
-611.244	-200.000	0.073	-0.327
-610.230	77.076	-0.118	-0.126
-609.215	-57.775	-0.393	-0.173
-608.201	-30.670	-0.111	-0.063
-607.186	-51.987	0.158	-0.074
-606.171	-111.525	0.306	-0.063
-605.157	276.529	0.223	-0.398
-604.142	800.000	0.032	-0.136
-603.128	16.675	-0.071	0.056
-602.113	-200.000	-0.070	-0.444
-601.098	-200.000	0.017	-0.109
-600.084	-42.920	0.120	-0.061
-599.069	144.133	-0.159	0.212
-598.055	-66.533	-0.197	0.078
-597.040	-63.464	-0.084	0.035
-596.025	-200.000	-0.091	0.664
-595.011	41.190	0.177	-0.161
-593.996	147.420	0.281	-0.380
-592.982	227.921	-0.038	0.062
-591.967	-30.789	0.380	0.216
-590.952	59.581	-0.060	0.059
-589.938	-200.000	-0.004	-0.024
-588.923	-200.000	-0.011	-0.164
-587.909	-64.277	0.225	-0.092
-586.894	179.743	0.136	-0.200
-585.879	-123.859	0.247	0.039
-584.865	-144.280	0.104	-0.010
-583.850	-33.618	0.088	0.049
-582.836	-24.471	0.076	0.045
-581.821	-147.161	-0.333	0.029
-580.806	158.833	0.065	0.091
-579.792	800.000	-0.044	-0.154
-578.777	-12.739	-0.176	0.115
-577.763	800.000	0.112	-0.310
-576.748	-64.155	-0.071	0.029
-575.733	800.000	0.054	-0.175
-574.719	-154.094	-0.322	-0.022
-573.704	-200.000	0.015	-0.377
-572.690	156.890	-0.143	-0.198
-571.675	-75.183	-0.168	0.060
-570.661	-200.000	-0.045	0.312
-569.646	-30.100	-0.446	-0.254
-568.631	144.198	-0.130	0.174
-567.617	-146.125	-0.085	0.007
-566.602	69.744	-0.121	-0.125
-565.588	229.051	0.087	0.142
-564.573	800.000	0.062	0.200
-563.558	68.461	0.213	0.219
-562.544	-78.869	0.244	-0.083
-561.529	-200.000	-0.007	0.178
-560.515	-89.030	-0.080	0.024
-559.500	51.325	0.224	-0.213
-558.485	-95.671	-0.123	-0.033
-557.471	-113.830	-0.267	-0.052
-556.456	-69.406	0.303	-0.117
-555.442	800.000	0.028	0.094
-554.427	800.000	0.060	-0.223
-553.412	-17.491	0.251	-0.158
-552.398	290.483	-0.240	0.437
-551.383	-124.609	0.244	0.038
-550.369	12.449	0.075	0.058
-549.354	-106.567	0.325	-0.072
-548.339	270.983	0.189	0.334
-547.325	151.021	0.125	0.170
-546.310	-200.000	0.008	-0.306
-545.296	384.799	0.092	0.190
-544.281	52.944	0.321	0.308
-543.266	-143.094	0.110	-0.011
-542.252	241.135	-0.093	0.156
-541.237	119.447	0.231	-0.287
-540.223	-200.000	-0.012	-0.053
-539.208	-118.522	-0.261	0.046
-538.193	-200.000	-0.026	-0.312
-537.179	-102.676	-0.392	-0.094
-536.164	41.524	-0.215	0.194
-535.150	-200.000	0.003	-0.089
-534.135	126.592	-0.091	0.115
-533.121	-200.000	0.014	0.113
-532.106	-72.478	0.221	0.082
-531.091	150.792	0.114	-0.155
-530.077	-200.000	0.058	-0.383
-529.062	-200.000	0.033	-0.196
-528.048	-152.201	0.169	-0.012
-527.033	782.037	-0.131	0.360
-526.018	180.343	-0.115	-0.169
-525.004	129.496	-0.126	-0.161
-523.989	289.757	0.192	-0.348
-522.975	800.000	-0.062	-0.244
-521.960	800.000	-0.064	0.258
-520.945	-92.262	0.063	0.018
-519.931	-200.000	-0.017	-0.244
-518.916	239.248	-0.198	-0.329
-517.902	800.000	-0.078	0.283
-516.887	62.563	-0.121	0.121
-515.872	-200.000	-0.047	-0.283
-514.858	21.259	0.074	-0.060
-513.843	800.000	-0.045	0.130
-512.829	-12.876	-0.086	0.056
-511.814	-200.000	-0.059	-0.339
-510.799	-200.000	-0.027	0.490
-509.785	-73.734	0.157	-0.057
-508.770	-29.683	0.368	0.210
-507.756	316.799	0.002	-0.004
-506.741	-200.000	0.041	-0.319
-505.726	-200.000	-0.006	-0.395
-504.712	5.979	-0.346	0.256
-503.697	17.668	-0.316	-0.251
-502.683	-151.839	0.308	0.023
-501.668	196.392	-0.114	0.173
-500.653	800.000	0.057	0.182
-499.639	-5.395	-0.025	-0.017
-498.624	26.271	0.253	-0.211
-497.610	-200.000	-0.015	0.124
-496.595	386.272	-0.062	-0.127
-495.581	336.369	-0.084	0.164
-494.566	1.578	-0.122	0.088
-493.551	109.795	0.146	0.175
-492.537	158.213	0.138	0.192
-491.522	-41.848	0.070	-0.036
-490.508	-50.610	-0.317	0.149
-489.493	39.465	-0.211	-0.189
-488.478	-69.249	0.251	0.097
-487.464	-43.437	0.195	0.099
-486.449	-200.000	-0.030	0.322
-485.435	-200.000	0.010	0.088
-484.420	-122.509	-0.106	0.017
-483.405	-71.838	0.285	0.106
-482.391	-58.317	-0.134	-0.058
-481.376	4.442	-0.173	0.127
-480.362	-40.829	0.089	-0.046
-479.347	-92.227	-0.073	-0.021
-478.332	59.754	0.247	0.244
-477.318	-78.658	-0.157	0.054
-476.303	-200.000	-0.038	0.246
-475.289	-66.004	-0.305	0.122
-474.274	-200.000	-0.002	-0.192
-473.259	-60.354	-0.100	-0.043
-472.245	-180.590	-0.315	-0.006
-471.230	-200.000	0.001	0.015
-470.216	-1.339	-0.110	0.077
-469.201	-20.978	-0.122	-0.075
-468.186	42.167	0.294	-0.266
-467.172	800.000	-0.038	0.127
-466.157	236.849	-0.240	-0.398
-465.143	491.501	0.102	0.232
-464.128	-89.451	0.277	-0.081
-463.113	-97.563	-0.098	-0.025
-462.099	115.918	-0.018	-0.022
-461.084	-31.400	0.302	0.169
-460.070	618.034	-0.055	-0.138
-459.055	201.163	0.081	0.124
-458.040	-74.345	0.194	0.070
-457.026	-59.606	-0.298	0.127
-456.011	-146.550	-0.416	0.036
-454.997	-136.354	0.368	0.043
-453.982	-94.684	-0.257	0.070
-452.968	-200.000	-0.022	-0.136
-451.953	-96.970	-0.151	0.040
-450.938	-200.000	-0.072	0.314
-449.924	-200.000	-0.073	0.375
-448.909	-147.805	-0.128	0.011
-447.895	10.341	0.205	0.156
-446.880	-200.000	0.011	-0.116
-445.865	-13.168	0.162	0.105
-444.851	-70.113	0.142	-0.054
-443.836	-200.000	0.015	0.115
-442.822	800.000	0.029	-0.102
-441.807	-123.945	0.366	-0.057
-440.792	-84.857	-0.294	0.092
-439.778	-200.000	-0.006	-0.125
-438.763	-39.065	-0.069	-0.036
-437.749	800.000	-0.074	0.261
-436.734	-139.997	0.169	-0.018
-435.719	-94.665	0.051	-0.014
-434.705	16.223	0.050	0.039
-433.690	107.370	0.169	-0.200
-432.676	-40.373	0.116	-0.060
-431.661	-200.000	-0.034	-0.215
-430.646	800.000	-0.027	-0.086
-429.632	208.934	-0.114	0.177
-428.617	-200.000	0.043	-0.332
-427.603	-133.546	-0.204	-0.025
-426.588	-104.337	0.191	0.044
-425.573	373.624	-0.076	0.154
-424.559	93.845	-0.134	0.152
-423.544	-200.000	0.037	0.161
-422.530	-94.950	0.200	0.054
-421.515	800.000	0.025	0.104
-420.500	2.140	0.165	-0.119
-419.486	157.154	0.192	-0.264
-418.471	395.763	0.112	0.232
-417.457	-14.958	0.047	-0.030
-416.442	208.161	0.106	0.164
-415.428	-59.536	0.188	0.080
-414.413	800.000	0.069	-0.229
-413.398	-131.142	0.293	-0.039
-412.384	-12.606	-0.165	0.107
-411.369	-155.200	-0.243	0.016
-410.355	35.230	-0.073	0.064
-409.340	-157.592	0.195	0.012
-408.325	-200.000	-0.021	0.131
-407.311	112.873	0.142	-0.171
-406.296	-200.000	0.005	-0.109
-405.282	-80.041	-0.407	-0.136
-404.267	-109.787	0.541	0.113
-403.252	-126.848	-0.188	-0.028
-402.238	-200.000	0.015	-0.116
-401.223	-96.587	-0.184	-0.048
-400.209	-143.521	-0.461	0.044
-399.194	-200.000	-0.006	0.106
-398.179	-200.000	0.045	0.317
-397.165	-0.794	-0.112	0.079
-396.150	320.156	-0.080	-0.152
-395.136	-200.000	-0.003	-0.159
-394.121	713.866	-0.086	-0.228
-393.106	299.828	-0.025	-0.047
-392.092	-51.371	-0.196	0.091
-391.077	800.000	0.058	0.200
-390.063	-150.669	0.164	-0.012
-389.048	-45.257	-0.069	-0.034
-388.033	-2.418	0.205	0.143
-387.019	-179.236	0.204	0.005
-386.004	-200.000	0.050	-0.306
-384.990	543.221	-0.080	-0.190
-383.975	-200.000	0.010	-0.146
-382.960	8.685	0.108	-0.081
-381.946	426.651	-0.093	-0.200
-380.931	500.305	0.065	-0.150
-379.917	-200.000	0.033	0.279
-378.902	800.000	0.025	-0.103
-377.888	-122.536	-0.272	0.044
-376.873	800.000	0.172	-0.520
-375.858	-131.066	-0.263	-0.035
-374.844	800.000	0.102	0.282
-373.829	285.004	-0.132	-0.237
-372.815	-200.000	-0.003	-0.143
-371.800	344.758	-0.169	0.330
-370.785	-200.000	0.034	0.384
-369.771	-2.654	0.116	-0.080
-368.756	-22.834	0.151	0.091
-367.742	800.000	0.091	-0.350
-366.727	800.000	-0.065	0.227
-365.712	-183.729	0.318	0.005
-364.698	-48.788	-0.270	0.129
-363.683	175.182	0.103	0.148
-362.669	182.718	0.079	-0.115
-361.654	48.021	0.240	-0.223
-360.639	-200.000	-0.001	0.367
-359.625	-97.049	0.188	-0.049
-358.610	-33.037	-0.119	-0.065
-357.596	-52.161	0.305	0.141
-356.581	-33.880	-0.183	-0.100
-355.566	-41.420	0.204	-0.105
-354.552	278.246	0.008	-0.013
-353.537	-42.005	0.153	-0.078
-352.523	-200.000	0.012	-0.174
-351.508	94.846	-0.077	-0.087
-350.493	143.023	0.214	-0.282
-349.479	60.152	-0.209	0.206
-348.464	800.000	0.042	-0.122
-347.450	-200.000	0.023	0.349
-346.435	196.560	-0.212	-0.321
-345.420	86.074	-0.181	0.198
-344.406	32.274	0.135	0.116
-343.391	27.200	0.331	-0.276
-342.377	33.280	0.246	0.212
-341.362	-47.522	0.286	-0.138
-340.348	37.536	-0.276	0.243
-339.333	25.768	0.138	-0.114
-338.318	200.787	-0.089	-0.137
-337.304	-58.915	-0.244	-0.105
-336.289	42.504	-0.119	-0.107
-335.275	-46.498	-0.072	-0.035
-334.260	273.904	0.186	-0.327
-333.245	170.938	-0.129	0.183
-332.231	-84.084	0.443	0.140
-331.216	94.359	-0.031	0.035
-330.202	-72.637	-0.111	-0.041
-329.187	58.173	0.049	-0.048
-328.172	-42.639	0.074	-0.038
-327.158	-154.614	0.135	0.009
-326.143	-162.404	0.203	-0.010
-325.129	433.932	-0.097	0.208
-324.114	-75.539	-0.255	0.090
-323.099	-155.588	0.301	-0.019
-322.085	735.563	-0.082	0.217
-321.070	-130.874	-0.192	0.026
-320.056	-200.000	0.001	-0.144
-319.041	86.681	-0.092	-0.101
-318.026	409.793	0.191	-0.401
-317.012	-73.773	-0.167	-0.060
-315.997	-70.315	0.165	0.062
-314.983	92.480	0.347	-0.389
-313.968	-200.000	-0.019	-0.144
-312.953	225.210	-0.113	0.182
-311.939	800.000	-0.058	0.205
-310.924	-169.017	-0.263	-0.010
-309.910	-113.637	-0.256	-0.050
-308.895	-200.000	0.034	0.309
-307.880	-20.172	-0.050	-0.031
-306.866	-45.835	-0.106	-0.052
-305.851	-200.000	-0.015	0.097
-304.837	-70.691	-0.127	-0.048
-303.822	-51.638	0.059	0.027
-302.807	-7.976	0.172	-0.115
-301.793	124.542	-0.181	0.226
-300.778	172.734	0.126	-0.180
-299.764	-200.000	-0.018	-0.297
-298.749	70.688	-0.182	0.187
-297.735	115.736	0.177	0.215
-296.720	800.000	0.002	-0.007
-295.705	-200.000	0.000	0.033
-294.691	-159.155	0.133	0.007
-293.676	-200.000	0.009	0.165
-292.662	33.139	-0.302	-0.259
-291.647	292.538	0.064	-0.117
-290.632	-167.936	0.285	-0.011
-289.618	-200.000	0.004	-0.449
-288.603	758.854	-0.116	0.313
-287.589	-200.000	0.060	-0.394
-286.574	-126.192	0.323	-0.048
-285.559	-81.730	-0.239	0.078
-284.545	78.914	-0.119	-0.126
-283.530	-200.000	-0.053	-0.296
-282.516	-1.187	0.067	-0.047
-281.501	-200.000	-0.062	0.458
-280.486	-48.180	0.138	0.066
-279.472	-70.957	0.158	0.059
-278.457	-200.000	-0.006	0.028
-277.443	480.020	-0.068	-0.152
-276.428	110.040	-0.055	0.066
-275.413	290.751	0.224	0.404
-274.399	271.113	0.119	0.208
-273.384	-27.230	-0.164	0.095
-272.370	800.000	0.075	0.288
-271.355	800.000	0.041	-0.129
-270.340	707.500	-0.009	-0.023
-269.326	-200.000	0.071	0.410
-268.311	-200.000	-0.013	-0.089
-267.297	-120.232	0.157	-0.026
-266.282	127.026	0.044	0.055
-265.267	-144.962	0.332	-0.030
-264.253	-200.000	-0.010	-0.181
-263.238	361.329	-0.099	0.197
-262.224	-111.486	-0.275	0.056
-261.209	-200.000	0.003	0.116
-260.195	-39.591	0.103	-0.053
-259.180	-7.649	-0.056	0.037
-258.165	-68.746	0.069	-0.026
-257.151	800.000	-0.062	-0.254
-256.136	-200.000	-0.005	-0.205
-255.122	469.191	-0.112	0.249
-254.107	800.000	0.094	0.324
-253.092	165.281	-0.240	0.335
-252.078	-173.213	-0.239	-0.007
-251.063	-54.838	-0.077	-0.034
-250.049	-143.004	0.194	-0.019
-249.034	778.818	-0.035	-0.094
-248.019	232.833	-0.139	0.227
-247.005	-8.188	-0.141	0.094
-245.990	-112.357	0.148	-0.029
-244.976	-200.000	-0.072	-0.411
-243.961	-77.465	0.162	-0.056
-242.946	-162.977	-0.168	0.008
-241.932	-200.000	0.016	-0.284
-240.917	-30.551	-0.192	0.107
-239.903	800.000	-0.078	-0.299
-238.888	800.000	-0.053	0.206
-237.873	196.704	-0.064	0.096
-236.859	800.000	0.061	-0.219
-235.844	-200.000	-0.021	0.132
-234.830	-200.000	-0.024	-0.152
-233.815	242.445	0.093	-0.155
-232.800	9.323	0.220	0.165
-231.786	243.439	0.098	0.162
-230.771	-200.000	-0.021	0.117
-229.757	-129.304	-0.162	-0.022
-228.742	381.764	0.089	0.180
-227.727	130.782	0.173	-0.220
-226.713	399.312	-0.192	-0.397
-225.698	-69.236	0.171	-0.065
-224.684	-200.000	-0.008	0.079
-223.669	-8.428	0.463	0.308
-222.655	177.217	0.120	-0.172
-221.640	120.400	-0.230	-0.283
-220.625	-200.000	-0.001	0.177
-219.611	180.370	-0.166	0.241
-218.596	-200.000	0.012	-0.109
-217.582	-200.000	0.004	0.093
-216.567	128.114	-0.187	-0.235
-215.552	22.292	-0.317	0.256
-214.538	-61.185	0.278	-0.116
-213.523	-169.930	-0.228	0.008
-212.509	-200.000	-0.026	0.300
-211.494	451.557	-0.155	-0.338
-210.479	-37.160	-0.335	0.177
-209.465	-49.069	0.107	0.051
-208.450	296.995	0.189	0.343
-207.436	149.374	-0.059	-0.079
-206.421	-200.000	-0.001	0.091
-205.406	597.104	0.036	0.089
-204.392	45.220	-0.194	0.177
-203.377	2.717	0.307	0.220
-202.363	-200.000	-0.033	0.185
-201.348	268.180	-0.045	-0.079
-200.333	-200.000	-0.010	0.062
-199.319	73.947	-0.312	-0.324
-198.304	422.381	-0.100	-0.212
-197.290	9.449	0.137	0.102
-196.275	-200.000	-0.018	0.159
-195.260	165.017	-0.163	0.228
-194.246	800.000	-0.126	-0.347
-193.231	-46.004	-0.397	0.194
-192.217	-116.237	0.012	0.002
-191.202	-66.363	-0.176	0.069
-190.187	-78.551	-0.416	-0.141
-189.173	-81.991	-0.111	0.036
-188.158	339.337	-0.082	-0.157
-187.144	420.690	0.117	0.248
-186.129	800.000	0.043	-0.163
-185.114	94.373	-0.050	-0.056
-184.100	-200.000	-0.005	0.049
-183.085	-200.000	-0.058	-0.273
-182.071	-200.000	0.082	-0.478
-181.056	800.000	-0.115	-0.382
-180.042	44.260	0.097	0.088
-179.027	-44.067	0.223	-0.111
-178.012	70.955	-0.227	-0.232
-176.998	177.945	-0.268	-0.385
-175.983	372.404	0.133	0.267
-174.969	-23.894	0.036	0.021
-173.954	-200.000	-0.019	0.250
-172.939	-200.000	-0.000	0.051
-171.925	130.871	0.010	-0.013
-170.910	176.626	0.096	0.138
-169.896	-138.970	-0.240	-0.026
-168.881	585.545	-0.057	0.139
-167.866	-135.385	-0.143	0.017
-166.852	-70.565	0.083	0.031
-165.837	69.493	-0.148	-0.150
-164.823	800.000	0.024	0.100
-163.808	-28.167	-0.168	-0.096
-162.793	-107.266	0.487	-0.106
-161.779	-121.769	0.095	-0.016
-160.764	96.164	0.185	0.209
-159.750	252.155	0.076	0.128
-158.735	126.891	0.215	0.269
-157.720	118.964	-0.152	-0.185
-156.706	-200.000	0.012	0.113
-155.691	154.182	0.105	0.142
-154.677	4.973	-0.226	-0.164
-153.662	94.268	0.046	-0.051
-152.647	-49.199	-0.187	0.088
-151.633	138.386	0.112	0.145
-150.618	-200.000	-0.025	0.454
-149.604	-113.652	-0.061	-0.012
-148.589	-200.000	0.024	-0.150
-147.574	-105.352	0.313	0.070
-146.560	2.265	-0.278	-0.198
-145.545	-176.576	0.429	0.011
-144.531	272.215	0.062	0.108
-143.516	-200.000	0.006	0.251
-142.502	57.875	0.152	-0.147
-141.487	-184.348	-0.281	-0.005
-140.472	-99.750	0.201	0.050
-139.458	101.491	0.088	0.102
-138.443	-200.000	-0.029	-0.153
-137.429	-200.000	0.047	-0.330
-136.414	102.490	-0.088	-0.101
-135.399	-93.460	-0.062	0.017
-134.385	550.769	0.033	-0.078
-133.370	-80.382	-0.366	-0.120
-132.356	-39.508	0.108	-0.056
-131.341	171.737	0.306	-0.434
-130.326	18.877	-0.080	0.064
-129.312	-200.000	-0.026	0.287
-128.297	205.797	0.046	0.070
-127.283	-111.239	-0.267	0.054
-126.268	800.000	0.140	-0.437
-125.253	626.148	0.065	-0.162
-124.239	779.340	-0.013	-0.035
-123.224	0.721	0.237	0.167
-122.210	-123.188	0.250	-0.039
