DTS Sentinel unit serial number:	SN413079Multiplexer serial number:	ORYXHardware model number:	OX4-SRSoftware version number:	ORYX F/W v4.00 Oryx Data Collector v3.7.2.0data status	okinstallation	princeton_trtdifferential loss correction	single-endedforward channel	channel 2reverse channel	N/Adate	2019/09/11time	21:01:11forward acquisition time	60.00reverse acquisition time	0.00gamma	496.2192k internal	0.2322k external	0.2322temperature offset calibration	1.0060default loss term (dB/km)	0.3790temperature slope calibration	1.0000multiplexer offset coefficient	1.0000multiplexer slope coefficient	1.0000fibre end	0.00T internal ref (°C)	36.67T ext. ref 1 (°C)	1.62T ext. ref 2 (°C)	30.77length (m)	temperature (°C)	Stokes	anti-Stokes-747.200	273.835	-0.100	-0.179
-746.185	800.000	0.096	0.342
-745.171	-114.369	0.128	-0.025
-744.156	-200.000	-0.031	0.216
-743.142	294.484	-0.063	-0.116
-742.127	610.725	-0.232	0.587
-741.112	-147.731	-0.174	0.015
-740.098	280.364	-0.102	-0.184
-739.083	-35.469	-0.049	0.027
-738.069	-200.000	-0.011	-0.114
-737.054	-138.788	-0.375	0.041
-736.039	-142.030	-0.137	-0.014
-735.025	-200.000	0.011	-0.067
-734.010	-142.553	0.210	0.021
-732.996	800.000	-0.152	-0.631
-731.981	-102.384	-0.048	0.012
-730.966	38.138	-0.262	0.235
-729.952	173.062	-0.310	-0.451
-728.937	-200.000	-0.014	-0.066
-727.923	-200.000	-0.022	-0.139
-726.908	19.830	-0.203	0.165
-725.894	-15.351	0.094	-0.061
-724.879	800.000	0.052	-0.220
-723.864	-24.235	-0.238	0.143
-722.850	242.902	0.133	0.224
-721.835	251.070	-0.127	0.217
-720.821	334.796	-0.069	0.135
-719.806	54.173	-0.107	-0.104
-718.791	-78.877	-0.376	-0.129
-717.777	800.000	-0.065	0.233
-716.762	-145.602	-0.309	-0.028
-715.748	-165.090	-0.285	-0.013
-714.733	-38.720	-0.183	-0.098
-713.718	148.356	-0.034	0.046
-712.704	-134.499	0.120	-0.015
-711.689	-200.000	-0.031	-0.433
-710.675	50.734	-0.278	0.266
-709.660	-200.000	-0.025	-0.264
-708.645	800.000	0.070	-0.283
-707.631	800.000	-0.091	-0.308
-706.616	350.927	0.165	0.329
-705.602	800.000	-0.105	-0.405
-704.587	-19.548	0.120	0.075
-703.572	-200.000	0.015	0.258
-702.558	424.284	0.081	-0.177
-701.543	114.270	-0.076	-0.093
-700.529	-200.000	-0.004	-0.022
-699.514	-1.134	-0.162	0.116
-698.499	-13.026	0.008	0.006
-697.485	335.011	-0.115	-0.225
-696.470	-38.408	-0.093	-0.050
-695.456	-200.000	-0.057	-0.284
-694.441	60.002	0.217	0.216
-693.426	-5.908	0.178	-0.123
-692.412	-98.744	0.148	0.038
-691.397	-154.180	-0.152	-0.010
-690.383	-103.330	-0.293	-0.070
-689.368	33.726	0.408	0.357
-688.354	-21.890	-0.369	-0.226
-687.339	95.236	-0.309	-0.355
-686.324	-138.925	-0.410	-0.045
-685.310	37.076	-0.229	0.205
-684.295	2.637	0.184	-0.134
-683.281	-84.068	0.256	-0.082
-682.266	545.122	0.015	0.035
-681.251	-115.039	-0.174	-0.033
-680.237	647.200	-0.138	0.355
-679.222	-62.011	0.121	0.051
-678.208	646.517	0.053	-0.136
-677.193	-9.458	-0.080	-0.054
-676.178	434.581	-0.059	0.129
-675.164	-35.269	0.156	-0.085
-674.149	-46.908	-0.288	0.142
-673.135	62.861	-0.053	0.054
-672.120	800.000	-0.058	-0.174
-671.105	-200.000	0.011	-0.268
-670.091	-62.396	-0.136	0.057
-669.076	-200.000	0.091	-0.512
-668.062	-200.000	-0.047	0.268
-667.047	499.406	-0.066	-0.154
-666.032	326.839	-0.123	-0.237
-665.018	450.358	-0.041	0.092
-664.003	543.229	0.078	0.187
-662.989	-96.761	-0.249	-0.066
-661.974	-200.000	-0.001	0.086
-660.959	800.000	-0.045	-0.182
-659.945	201.455	0.041	-0.064
-658.930	-41.607	-0.346	-0.179
-657.916	-71.604	0.118	-0.044
-656.901	-42.628	-0.129	0.066
-655.886	-137.493	-0.240	-0.027
-654.872	-18.262	0.184	-0.116
-653.857	391.483	-0.126	0.264
-652.843	364.561	-0.051	0.104
-651.828	-21.221	0.197	0.121
-650.814	-101.960	0.330	-0.080
-649.799	91.616	-0.101	-0.115
-648.784	-200.000	-0.019	0.521
-647.770	-99.860	0.112	0.028
-646.755	-200.000	-0.031	0.251
-645.741	-138.011	0.064	-0.007
-644.726	-147.572	-0.240	0.020
-643.711	-174.826	0.060	-0.002
-642.697	-80.513	0.150	-0.050
-641.682	-36.644	-0.315	0.170
-640.668	265.558	0.184	-0.323
-639.653	-36.679	0.222	-0.120
-638.638	131.236	0.155	-0.201
-637.624	32.074	-0.200	-0.174
-636.609	395.148	-0.055	-0.115
-635.595	-5.077	0.282	-0.195
-634.580	295.118	0.059	0.108
-633.565	-104.423	-0.234	-0.054
-632.551	307.943	0.090	-0.168
-631.536	-96.634	0.365	-0.097
-630.522	-6.133	-0.108	0.074
-629.507	-200.000	-0.021	0.232
-628.492	77.483	-0.100	-0.106
-627.478	-72.365	-0.576	-0.215
-626.463	-117.267	-0.339	-0.062
-625.449	252.244	0.035	-0.060
-624.434	51.652	-0.142	0.136
-623.419	306.287	0.094	-0.176
-622.405	343.973	-0.094	0.185
-621.390	56.266	0.214	-0.209
-620.376	-200.000	0.019	-0.499
-619.361	27.757	-0.126	-0.107
-618.346	-156.727	0.072	-0.004
-617.332	98.551	-0.061	0.071
-616.317	413.821	0.061	0.130
-615.303	800.000	-0.045	-0.189
-614.288	-56.473	-0.080	0.036
-613.273	-21.642	0.172	0.105
-612.259	-200.000	-0.000	-0.152
-611.244	94.386	0.065	-0.075
-610.230	169.912	-0.142	0.204
-609.215	15.469	-0.171	-0.135
-608.201	-105.334	0.341	-0.078
-607.186	-67.877	-0.112	-0.044
-606.171	55.579	0.224	-0.218
-605.157	76.961	-0.263	0.281
-604.142	-62.803	-0.391	0.163
-603.128	-200.000	-0.012	-0.061
-602.113	139.172	0.116	-0.153
-601.098	-200.000	0.031	-0.270
-600.084	81.400	-0.204	0.221
-599.069	-200.000	0.046	0.651
-598.055	-200.000	0.012	0.564
-597.040	-107.074	-0.193	-0.043
-596.025	-200.000	-0.022	-0.159
-595.011	132.396	0.191	-0.248
-593.996	-138.835	0.142	0.016
-592.982	58.149	-0.150	0.147
-591.967	-88.979	0.501	0.149
-590.952	204.792	-0.070	-0.109
-589.938	194.667	-0.209	-0.318
-588.923	336.193	0.104	-0.202
-587.909	9.414	-0.088	-0.067
-586.894	-200.000	0.011	-0.130
-585.879	-147.774	-0.120	0.010
-584.865	-82.771	-0.136	0.044
-583.850	-190.665	-0.070	-0.001
-582.836	321.725	0.119	-0.226
-581.821	15.170	-0.229	0.180
-580.806	147.703	0.091	0.124
-579.792	125.601	-0.084	0.106
-578.777	-200.000	0.017	0.170
-577.763	-200.000	0.114	0.603
-576.748	783.098	0.078	0.215
-575.733	48.244	-0.204	-0.191
-574.719	-49.519	0.156	-0.075
-573.704	-200.000	-0.040	-0.346
-572.690	-200.000	-0.015	-0.512
-571.675	800.000	0.045	-0.172
-570.661	-10.088	-0.075	-0.050
-569.646	-62.372	0.062	0.026
-568.631	-200.000	0.052	0.319
-567.617	-81.000	0.259	-0.086
-566.602	293.965	-0.134	-0.245
-565.588	800.000	-0.045	-0.139
-564.573	17.544	0.238	-0.189
-563.558	-200.000	-0.092	0.417
-562.544	534.734	0.103	0.246
-561.529	453.463	0.133	0.295
-560.515	-68.776	-0.288	0.111
-559.500	-200.000	0.006	-0.092
-558.485	151.429	-0.413	-0.563
-557.471	-93.511	-0.365	-0.101
-556.456	-167.920	0.115	0.005
-555.442	-50.028	0.128	-0.061
-554.427	-200.000	-0.020	0.112
-553.412	-200.000	-0.019	-0.279
-552.398	285.945	-0.125	-0.225
-551.383	-128.345	-0.057	-0.008
-550.369	-181.937	0.183	0.003
-549.354	9.131	-0.180	0.137
-548.339	56.109	-0.067	0.066
-547.325	-200.000	0.016	-0.207
-546.310	-43.318	-0.119	-0.060
-545.296	-15.695	0.192	0.123
-544.281	-200.000	-0.047	-0.310
-543.266	-200.000	-0.048	-0.220
-542.252	-142.469	-0.183	0.018
-541.237	203.340	-0.016	-0.026
-540.223	439.120	-0.139	0.304
-539.208	-200.000	-0.039	-0.195
-538.193	142.844	-0.227	-0.303
-537.179	483.354	-0.107	-0.244
-536.164	404.205	-0.151	-0.318
-535.150	-2.346	-0.157	0.110
-534.135	-49.308	-0.248	0.119
-533.121	71.525	-0.118	-0.123
-532.106	-5.343	0.156	-0.107
-531.091	80.447	0.224	0.242
-530.077	800.000	-0.070	-0.298
-529.062	-200.000	0.103	-0.544
-528.048	-107.877	0.068	0.015
-527.033	-99.353	0.486	-0.123
-526.018	800.000	-0.035	-0.138
-525.004	88.062	-0.042	-0.046
-523.989	-98.215	-0.043	0.011
-522.975	132.903	0.110	0.142
-521.960	-74.956	0.171	0.061
-520.945	-119.347	-0.136	-0.024
-519.931	71.416	0.148	-0.154
-518.916	133.635	-0.183	0.237
-517.902	-137.180	-0.124	-0.014
-516.887	-28.648	0.359	-0.207
-515.872	44.163	-0.062	-0.057
-514.858	-27.897	-0.222	-0.129
-513.843	321.969	0.201	0.382
-512.829	-114.116	-0.250	-0.048
-511.814	-175.143	-0.169	0.005
-510.799	-97.665	0.129	0.033
-509.785	-200.000	-0.039	0.331
-508.770	-164.021	0.210	0.010
-507.756	166.854	0.097	-0.138
-506.741	-37.394	-0.185	0.099
-505.726	-50.036	0.180	-0.085
-504.712	-200.000	0.041	-0.237
-503.697	65.294	-0.182	-0.184
-502.683	-200.000	-0.002	0.075
-501.668	-67.412	-0.373	0.147
-500.653	-42.047	-0.191	-0.098
-499.639	-128.193	0.127	0.018
-498.624	-200.000	-0.045	-0.253
-497.610	31.960	-0.260	-0.224
-496.595	-200.000	-0.018	0.150
-495.581	-200.000	0.019	-0.304
-494.566	-133.480	-0.092	-0.012
-493.551	-114.045	0.340	0.066
-492.537	48.862	-0.147	-0.138
-491.522	133.303	-0.175	0.226
-490.508	98.166	-0.255	0.294
-489.493	-105.783	0.042	-0.010
-488.478	-82.344	0.194	-0.063
-487.464	-49.293	0.228	0.109
-486.449	207.419	-0.085	-0.133
-485.435	-200.000	-0.019	0.103
-484.420	31.048	0.054	0.046
-483.405	-10.523	0.258	-0.171
-482.391	135.825	-0.177	-0.230
-481.376	-103.776	0.285	0.067
-480.362	800.000	0.031	0.102
-479.347	-135.487	0.264	-0.032
-478.332	414.611	-0.062	-0.132
-477.318	-200.000	-0.006	0.042
-476.303	7.414	0.132	-0.098
-475.289	800.000	-0.023	0.073
-474.274	-59.034	-0.456	0.197
-473.259	226.157	-0.232	-0.377
-472.245	-131.034	0.315	-0.042
-471.230	326.984	0.193	0.370
-470.216	1.601	-0.035	-0.025
-469.201	-200.000	-0.010	-0.199
-468.186	-114.169	0.522	-0.101
-467.172	-200.000	0.045	0.307
-466.157	5.019	0.190	0.139
-465.143	-200.000	0.062	0.299
-464.128	800.000	0.031	-0.096
-463.113	59.889	-0.136	-0.135
-462.099	-155.880	0.163	-0.010
-461.084	-200.000	0.012	0.175
-460.070	-119.949	-0.284	-0.049
-459.055	-88.331	-0.257	-0.077
-458.040	-200.000	0.073	-0.338
-457.026	421.373	-0.062	-0.132
-456.011	-87.183	0.348	0.106
-454.997	219.748	0.178	0.284
-453.982	800.000	0.105	-0.293
-452.968	-53.859	-0.122	0.056
-451.953	800.000	0.041	0.176
-450.938	534.411	0.011	-0.027
-449.924	-124.682	-0.203	-0.031
-448.909	-71.922	0.165	0.061
-447.895	224.006	-0.214	-0.344
-446.880	-200.000	0.053	0.275
-445.865	-110.265	-0.013	-0.003
-444.851	-200.000	-0.009	0.142
-443.836	-29.918	0.088	-0.050
-442.822	-19.794	0.196	-0.121
-441.807	-120.068	-0.218	-0.037
-440.792	456.974	-0.036	0.080
-439.778	-200.000	0.007	0.193
-438.763	-101.149	0.165	-0.040
-437.749	238.682	0.019	0.032
-436.734	-132.957	0.297	0.038
-435.719	390.767	-0.044	-0.091
-434.705	800.000	-0.024	0.068
-433.690	-84.766	-0.243	-0.076
-432.676	-25.153	-0.233	-0.138
-431.661	35.673	-0.121	-0.106
-430.646	58.705	0.118	-0.116
-429.632	25.983	-0.106	0.088
-428.617	141.042	-0.100	0.132
-427.603	-91.341	0.114	-0.032
-426.588	-127.228	0.287	-0.042
-425.573	-7.756	0.115	0.078
-424.559	800.000	0.062	0.210
-423.544	66.119	-0.036	-0.037
-422.530	68.003	-0.027	0.028
-421.515	55.480	0.155	0.150
-420.500	-200.000	0.010	-0.269
-419.486	-69.191	-0.169	-0.065
-418.471	56.397	0.081	0.079
-417.457	526.672	0.035	-0.082
-416.442	800.000	-0.138	0.513
-415.428	-128.195	0.145	0.021
-414.413	124.336	0.189	-0.237
-413.398	-122.474	-0.176	0.029
-412.384	-52.440	0.196	-0.090
-411.369	142.725	0.181	0.240
-410.355	-34.288	0.185	-0.101
-409.340	-200.000	-0.035	0.196
-408.325	-137.343	-0.075	0.009
-407.311	-116.462	0.183	-0.034
-406.296	-169.282	-0.191	-0.007
-405.282	-11.241	0.191	0.126
-404.267	-123.708	0.506	0.080
-403.252	39.625	-0.250	-0.223
-402.238	-200.000	-0.045	0.282
-401.223	-12.646	-0.185	0.120
-400.209	-118.279	0.156	0.028
-399.194	-67.173	0.109	0.043
-398.179	-135.673	0.119	-0.014
-397.165	169.275	0.175	-0.248
-396.150	-9.515	0.022	0.015
-395.136	-21.760	0.153	-0.093
-394.121	-41.077	0.106	0.055
-393.106	82.709	-0.120	-0.130
-392.092	-93.259	0.146	0.040
-391.077	-123.265	-0.039	0.006
-390.063	-200.000	0.027	-0.262
-389.048	-200.000	0.021	-0.093
-388.033	-127.573	-0.482	-0.070
-387.019	160.793	0.093	-0.129
-386.004	-180.015	-0.416	-0.009
-384.990	-144.572	-0.609	0.056
-383.975	74.408	0.064	0.067
-382.960	120.289	0.282	0.349
-381.946	-13.812	-0.250	0.161
-380.931	-77.642	-0.092	-0.032
-379.917	47.395	-0.286	0.266
-378.902	-81.136	-0.375	0.124
-377.888	800.000	0.068	-0.247
-376.873	-80.482	0.128	0.043
-375.858	326.943	0.100	0.191
-374.844	800.000	0.069	-0.191
-373.829	11.440	-0.200	-0.152
-372.815	-200.000	0.047	0.225
-371.800	-13.882	0.200	-0.129
-370.785	-200.000	-0.046	0.280
-369.771	-157.783	-0.124	-0.007
-368.756	507.442	0.073	0.169
-367.742	86.131	0.192	0.211
-366.727	800.000	0.020	-0.063
-365.712	-200.000	-0.037	-0.168
-364.698	387.391	0.119	-0.246
-363.683	-86.984	-0.200	-0.061
-362.669	95.229	-0.065	0.074
-361.654	-200.000	0.009	-0.232
-360.639	-15.336	-0.201	-0.128
-359.625	198.287	-0.118	-0.179
-358.610	274.348	0.146	-0.257
-357.596	-160.851	-0.352	0.018
-356.581	-39.748	0.198	0.103
-355.566	-200.000	-0.024	0.391
-354.552	-94.508	0.272	0.074
-353.537	343.480	0.026	-0.052
-352.523	43.610	0.133	-0.121
-351.508	-37.515	0.450	-0.239
-350.493	109.421	0.069	0.082
-349.479	121.118	-0.079	0.098
-348.464	789.898	-0.028	-0.076
-347.450	-104.288	-0.219	-0.050
-346.435	-127.808	0.188	-0.027
-345.420	-51.006	-0.201	-0.094
-344.406	-188.525	0.358	0.004
-343.391	321.256	-0.071	-0.134
-342.377	30.962	-0.112	0.095
-341.362	800.000	0.022	-0.080
-340.348	-75.167	-0.222	0.079
-339.333	-200.000	0.008	-0.084
-338.318	284.907	0.019	-0.034
-337.304	-159.732	-0.153	-0.008
-336.289	62.849	0.221	-0.219
-335.275	518.690	-0.032	0.074
-334.260	-200.000	-0.073	-0.344
-333.245	800.000	0.139	-0.521
-332.231	322.967	0.136	-0.258
-331.216	-103.245	0.158	0.037
-330.202	-23.974	0.146	-0.087
-329.187	-154.168	-0.242	0.016
-328.172	757.632	-0.027	0.074
-327.158	-117.738	-0.632	-0.113
-326.143	109.570	-0.150	-0.179
-325.129	-200.000	0.021	0.186
-324.114	19.165	-0.241	-0.193
-323.099	-200.000	-0.049	0.238
-322.085	-200.000	0.011	0.056
-321.070	-129.516	-0.163	0.022
-320.056	147.973	-0.159	-0.213
-319.041	471.187	0.060	-0.134
-318.026	-80.064	-0.099	0.033
-317.012	-13.774	0.151	0.097
-315.997	-200.000	-0.009	-0.113
-314.983	18.086	0.006	-0.005
-313.968	-200.000	-0.021	-0.148
-312.953	-42.612	-0.121	0.061
-311.939	199.028	-0.089	0.135
-310.924	548.874	-0.037	0.087
-309.910	18.724	0.163	-0.130
-308.895	454.965	-0.144	0.317
-307.880	-41.862	-0.115	-0.058
-306.866	582.545	0.078	0.190
-305.851	-0.068	-0.089	-0.063
-304.837	-166.217	0.426	0.018
-303.822	-128.949	0.274	0.038
-302.807	127.380	-0.231	-0.291
-301.793	4.535	0.192	0.140
-300.778	203.564	0.206	0.317
-299.764	-82.910	0.235	-0.075
-298.749	305.615	-0.094	0.173
-297.735	-181.193	-0.105	0.002
-296.720	800.000	0.054	0.170
-295.705	-117.765	-0.192	0.034
-294.691	124.791	0.162	0.203
-293.676	321.892	0.049	0.093
-292.662	407.568	0.124	0.261
-291.647	-200.000	-0.044	0.209
-290.632	2.986	0.099	-0.072
-289.618	-200.000	0.104	-0.548
-288.603	144.260	0.102	-0.135
-287.589	-38.404	-0.109	0.057
-286.574	-200.000	0.001	-0.118
-285.559	110.543	-0.278	0.332
-284.545	59.141	-0.083	0.081
-283.530	190.751	-0.178	0.266
-282.516	331.012	0.128	0.244
-281.501	-95.016	0.226	0.061
-280.486	-21.713	-0.304	-0.184
-279.472	59.995	0.119	0.117
-278.457	-139.155	0.322	0.034
-277.443	-200.000	-0.044	0.209
-276.428	-27.902	0.147	0.084
-275.413	543.258	-0.099	-0.234
-274.399	-137.936	-0.026	-0.003
-273.384	115.259	-0.209	-0.254
-272.370	800.000	-0.044	0.179
-271.355	-69.608	0.319	0.121
-270.340	238.370	0.216	0.356
-269.326	-118.818	0.200	-0.035
-268.311	-144.784	-0.156	0.014
-267.297	42.409	0.343	0.310
-266.282	249.326	-0.050	0.083
-265.267	-2.616	0.193	-0.134
-264.253	-126.932	0.224	-0.033
-263.238	413.109	-0.144	0.304
-262.224	82.091	-0.071	0.077
-261.209	-200.000	0.020	0.364
-260.195	20.470	0.310	-0.249
-259.180	-30.556	-0.187	0.105
-258.165	-200.000	-0.017	0.152
-257.151	800.000	0.018	0.054
-256.136	800.000	0.097	0.368
-255.122	800.000	-0.038	0.108
-254.107	7.510	0.181	-0.134
-253.092	800.000	-0.088	-0.373
-252.078	489.213	-0.039	0.089
-251.063	119.384	-0.121	-0.148
-250.049	-4.131	0.136	0.093
-249.034	-200.000	-0.022	0.218
-248.019	-87.303	-0.277	-0.083
-247.005	800.000	0.118	0.386
-245.990	800.000	-0.053	0.194
-244.976	-200.000	-0.021	0.154
-243.961	800.000	0.006	0.025
-242.946	235.811	-0.113	0.185
-241.932	16.482	-0.142	0.111
-240.917	-173.736	0.362	0.011
-239.903	18.798	0.139	-0.110
-238.888	199.078	0.090	0.136
-237.873	800.000	-0.163	-0.467
-236.859	104.683	0.206	0.241
-235.844	184.294	0.165	-0.243
-234.830	64.819	-0.210	-0.210
-233.815	-147.803	-0.194	-0.016
-232.800	714.604	0.172	0.453
-231.786	-102.863	-0.284	-0.067
-230.771	-81.782	-0.147	0.048
-229.757	-200.000	-0.015	-0.155
-228.742	132.929	-0.049	-0.063
-227.727	51.711	0.091	0.085
-226.713	257.111	0.050	0.085
-225.698	-125.045	0.421	0.064
-224.684	800.000	0.046	-0.174
-223.669	-82.879	0.606	-0.194
-222.655	-89.922	0.192	0.056
-221.640	-164.416	0.359	0.016
-220.625	-67.457	-0.293	0.114
-219.611	-200.000	0.045	-0.318
-218.596	-63.391	0.157	0.064
-217.582	-117.113	-0.391	0.071
-216.567	-19.192	0.312	-0.192
-215.552	480.985	0.055	0.124
-214.538	115.973	-0.222	0.269
-213.523	75.914	0.110	0.115
-212.509	-105.253	-0.217	0.049
-211.494	340.386	-0.015	-0.029
-210.479	-81.759	0.162	-0.053
-209.465	-200.000	0.016	-0.233
-208.450	167.404	-0.183	0.258
-207.436	78.089	0.092	0.097
-206.421	666.938	0.052	-0.132
-205.406	435.886	-0.048	0.103
-204.392	-16.687	-0.147	-0.092
-203.377	-100.369	0.109	0.027
-202.363	-43.230	0.223	0.112
-201.348	-200.000	-0.010	-0.196
-200.333	25.773	-0.171	0.141
-199.319	176.309	-0.228	0.327
-198.304	-63.553	0.032	0.013
-197.290	-111.895	-0.358	0.071
-196.275	-81.437	-0.334	-0.109
-195.260	-117.866	0.141	0.025
-194.246	327.924	-0.163	0.310
-193.231	-130.759	-0.301	0.040
-192.217	310.339	0.119	0.220
-191.202	800.000	-0.066	0.200
-190.187	350.240	0.035	0.069
-189.173	341.020	0.109	0.210
-188.158	-27.492	-0.133	-0.077
-187.144	-62.334	-0.254	-0.104
-186.129	274.313	-0.178	-0.312
-185.114	-29.277	-0.236	0.134
-184.100	-200.000	0.006	-0.302
-183.085	28.200	0.354	-0.296
-182.071	18.005	-0.121	0.095
-181.056	-90.464	-0.084	0.024
-180.042	-103.813	0.311	0.072
-179.027	-4.206	-0.034	0.024
-178.012	-9.551	-0.063	-0.041
-176.998	123.806	-0.210	0.260
-175.983	10.361	0.120	-0.090
-174.969	453.136	0.124	-0.272
-173.954	800.000	0.035	-0.147
-172.939	476.928	-0.078	0.174
-171.925	-38.195	0.198	-0.104
-170.910	800.000	0.029	-0.081
-169.896	-82.044	-0.155	-0.050
-168.881	-200.000	0.007	0.236
-167.866	-49.967	0.317	0.149
-166.852	-48.784	0.208	0.099
-165.837	80.383	-0.077	0.082
-164.823	800.000	0.065	-0.268
-163.808	54.447	0.073	0.070
-162.793	316.839	0.022	-0.041
-161.779	-62.164	-0.194	0.080
-160.764	-46.678	0.178	-0.086
-159.750	-40.571	0.199	0.102
-158.735	115.034	0.089	0.107
-157.720	-54.584	-0.151	0.067
-156.706	-65.508	0.106	0.042
-155.691	-200.000	-0.008	-0.122
-154.677	250.674	-0.097	-0.162
-153.662	-26.958	-0.158	0.091
-152.647	359.770	-0.134	0.264
-151.633	800.000	0.077	0.260
-150.618	60.870	-0.114	0.112
-149.604	-41.900	0.143	-0.072
-148.589	52.686	-0.068	0.064
-147.574	-130.967	0.173	0.023
-146.560	-26.701	-0.125	0.072
-145.545	-71.000	0.310	-0.115
-144.531	28.532	0.273	0.228
-143.516	-200.000	0.017	0.083
-142.502	103.650	-0.127	-0.147
-141.487	-86.138	0.241	0.073
-140.472	562.112	-0.111	-0.265
-139.458	-104.025	-0.191	-0.044
-138.443	800.000	-0.046	0.151
-137.429	305.919	0.135	-0.248
-136.414	-167.136	0.568	0.023
-135.399	175.161	0.111	-0.159
-134.385	-200.000	0.006	0.539
-133.370	-200.000	-0.057	-0.264
-132.356	-200.000	0.033	-0.337
-131.341	25.160	-0.207	0.170
-130.326	-22.284	0.214	0.128
-129.312	-200.000	0.002	0.026
-128.297	800.000	0.076	0.253
-127.283	678.068	0.021	0.053
-126.268	-61.467	0.187	-0.077
-125.253	800.000	0.030	-0.126
-124.239	39.941	-0.121	0.107
-123.224	-68.022	-0.039	0.015
-122.210	-200.000	0.004	-0.233
