DTS Sentinel unit serial number:	SN413079Multiplexer serial number:	ORYXHardware model number:	OX4-SRSoftware version number:	ORYX F/W v4.00 Oryx Data Collector v3.7.2.0data status	okinstallation	princeton_trtdifferential loss correction	single-endedforward channel	channel 2reverse channel	N/Adate	2019/09/14time	09:23:35forward acquisition time	60.00reverse acquisition time	0.00gamma	496.2192k internal	0.2324k external	0.2324temperature offset calibration	1.0133default loss term (dB/km)	0.3790temperature slope calibration	1.0000multiplexer offset coefficient	1.0000multiplexer slope coefficient	1.0000fibre end	0.00T internal ref (°C)	31.11T ext. ref 1 (°C)	3.83T ext. ref 2 (°C)	28.99length (m)	temperature (°C)	Stokes	anti-Stokes-747.200	-200.000	0.038	-0.240
-746.185	143.894	0.126	-0.169
-745.171	-9.033	-0.117	-0.079
-744.156	50.199	-0.130	0.124
-743.142	438.892	-0.200	0.441
-742.127	-79.838	-0.406	-0.138
-741.112	-117.802	-0.147	0.027
-740.098	31.924	0.422	0.367
-739.083	-8.055	-0.267	0.182
-738.069	-200.000	0.003	-0.028
-737.054	-109.596	0.239	-0.051
-736.039	-79.900	-0.347	-0.118
-735.025	-63.143	0.438	-0.182
-734.010	21.636	-0.194	-0.160
-732.996	-146.000	-0.156	0.014
-731.981	-18.689	-0.311	-0.195
-730.966	399.014	-0.022	0.046
-729.952	142.537	-0.110	-0.147
-728.937	93.968	-0.089	0.102
-727.923	-200.000	0.016	-0.356
-726.908	257.501	-0.155	-0.270
-725.894	225.740	0.034	-0.055
-724.879	-50.474	0.064	-0.031
-723.864	766.167	-0.053	-0.145
-722.850	-89.288	-0.058	0.017
-721.835	100.244	0.224	-0.262
-720.821	654.078	-0.024	0.063
-719.806	0.162	-0.108	-0.078
-718.791	163.768	0.095	0.136
-717.777	-200.000	-0.027	-0.160
-716.762	383.893	0.096	-0.199
-715.748	-127.552	-0.178	-0.026
-714.733	-39.418	-0.123	-0.065
-713.718	126.564	-0.034	0.043
-712.704	264.984	0.021	0.036
-711.689	-145.908	-0.175	-0.016
-710.675	-187.243	0.261	-0.004
-709.660	-200.000	0.009	-0.109
-708.645	111.883	0.127	-0.155
-707.631	-200.000	-0.026	-0.245
-706.616	96.931	-0.081	0.093
-705.602	-147.955	-0.096	0.008
-704.587	-86.602	-0.304	-0.094
-703.572	-200.000	-0.014	0.132
-702.558	-93.009	-0.186	0.052
-701.543	335.529	-0.204	0.398
-700.529	-106.794	-0.070	-0.016
-699.514	800.000	0.124	-0.358
-698.499	419.056	-0.038	0.081
-697.485	52.712	0.181	0.174
-696.470	-59.630	-0.243	-0.105
-695.456	-48.792	-0.082	-0.040
-694.441	44.177	0.272	-0.252
-693.426	311.962	0.029	-0.055
-692.412	338.356	-0.101	0.198
-691.397	325.635	0.147	-0.282
-690.383	478.368	-0.066	-0.151
-689.368	114.689	0.206	-0.253
-688.354	72.906	-0.136	-0.143
-687.339	59.589	0.215	-0.213
-686.324	-129.576	-0.074	0.010
-685.310	9.327	-0.344	-0.262
-684.295	-45.947	-0.417	0.207
-683.281	-29.029	0.113	0.065
-682.266	-95.369	-0.364	0.098
-681.251	161.701	-0.269	0.379
-680.237	-200.000	0.088	0.435
-679.222	40.861	-0.176	0.160
-678.208	-200.000	-0.014	-0.261
-677.193	29.962	0.093	-0.079
-676.178	264.407	0.075	0.132
-675.164	-200.000	0.024	-0.186
-674.149	640.056	0.048	-0.122
-673.135	-156.402	0.426	-0.027
-672.120	-47.677	-0.258	0.126
-671.105	66.136	0.025	-0.025
-670.091	730.708	-0.062	0.167
-669.076	-200.000	-0.009	-0.215
-668.062	-113.164	0.119	-0.024
-667.047	-163.791	-0.180	0.008
-666.032	492.706	-0.099	-0.228
-665.018	242.592	0.190	0.320
-664.003	-41.911	-0.200	0.103
-662.989	551.555	0.042	0.101
-661.974	-37.595	-0.248	-0.133
-660.959	-51.788	0.366	-0.171
-659.945	-200.000	0.004	0.046
-658.930	33.607	0.150	0.131
-657.916	-116.012	0.108	-0.020
-656.901	-99.136	0.105	-0.027
-655.886	11.469	-0.067	0.052
-654.872	-21.290	0.274	0.168
-653.857	-161.372	-0.071	0.004
-652.843	176.475	0.285	-0.417
-651.828	-163.319	-0.481	0.023
-650.814	-200.000	0.008	-0.351
-649.799	-200.000	0.033	0.231
-648.784	78.994	-0.123	-0.133
-647.770	213.885	0.306	0.487
-646.755	47.184	-0.088	0.082
-645.741	-86.431	-0.159	0.049
-644.726	800.000	-0.113	0.357
-643.711	-200.000	-0.028	0.492
-642.697	510.125	-0.099	-0.232
-641.682	-109.619	-0.253	-0.054
-640.668	-200.000	-0.004	-0.432
-639.653	-120.055	-0.214	-0.037
-638.638	254.466	0.060	-0.103
-637.624	444.275	0.206	-0.455
-636.609	178.501	-0.181	0.266
-635.595	-200.000	-0.001	0.196
-634.580	-128.184	0.239	0.034
-633.565	90.212	-0.099	0.111
-632.551	-2.976	-0.259	0.182
-631.536	12.296	0.077	-0.060
-630.522	800.000	0.035	0.123
-629.507	-135.200	0.259	-0.031
-628.492	-48.949	0.244	0.118
-627.478	-5.786	-0.199	0.137
-626.463	-147.430	-0.122	-0.010
-625.449	-62.637	0.202	-0.084
-624.434	163.912	-0.070	-0.100
-623.419	-162.800	-0.351	-0.017
-622.405	-200.000	-0.037	-0.166
-621.390	-200.000	0.024	0.119
-620.376	-69.406	0.276	-0.106
-619.361	-148.598	0.080	-0.007
-618.346	800.000	-0.061	0.224
-617.332	245.688	-0.279	0.472
-616.317	-200.000	0.028	0.198
-615.303	76.151	0.089	0.095
-614.288	-191.380	-0.207	0.002
-613.273	800.000	0.065	-0.184
-612.259	-119.675	0.442	0.077
-611.244	8.032	-0.054	0.040
-610.230	319.426	0.127	0.241
-609.215	73.744	-0.264	-0.278
-608.201	141.148	-0.118	0.157
-607.186	-34.302	0.131	-0.072
-606.171	296.808	0.014	-0.025
-605.157	-78.070	0.121	-0.042
-604.142	-82.654	-0.306	0.099
-603.128	18.183	-0.358	-0.287
-602.113	22.622	0.135	0.111
-601.098	58.962	-0.026	0.026
-600.084	-166.804	-0.100	-0.004
-599.069	-70.240	-0.258	0.098
-598.055	680.240	-0.069	-0.179
-597.040	609.358	0.074	0.184
-596.025	-17.863	-0.305	0.192
-595.011	-103.656	0.291	-0.069
-593.996	-200.000	0.024	0.269
-592.982	119.469	-0.062	0.077
-591.967	184.847	-0.051	0.077
-590.952	183.154	0.153	0.227
-589.938	-131.491	0.484	0.064
-588.923	-200.000	-0.022	-0.221
-587.909	516.869	-0.201	-0.471
-586.894	-17.623	0.140	0.088
-585.879	162.437	-0.168	-0.236
-584.865	-145.107	-0.588	0.054
-583.850	-200.000	-0.002	-0.042
-582.836	96.418	0.188	0.216
-581.821	344.321	0.112	0.221
-580.806	781.887	0.114	-0.314
-579.792	624.976	0.142	-0.358
-578.777	-56.982	0.099	-0.044
-577.763	-200.000	0.040	0.442
-576.748	317.810	0.106	-0.200
-575.733	127.060	-0.155	-0.198
-574.719	283.957	0.153	-0.276
-573.704	-200.000	0.010	0.054
-572.690	785.660	0.035	-0.097
-571.675	-129.219	0.223	0.031
-570.661	367.642	0.187	0.378
-569.646	-200.000	0.020	0.106
-568.631	249.526	-0.065	0.110
-567.617	-154.277	0.074	-0.005
-566.602	-114.919	-0.370	0.071
-565.588	800.000	0.130	-0.425
-564.573	-200.000	-0.038	-0.458
-563.558	-179.248	-0.039	-0.001
-562.544	-200.000	0.251	-0.000
-561.529	144.745	-0.272	0.364
-560.515	65.939	0.099	0.101
-559.500	-26.024	0.051	0.030
-558.485	14.726	-0.238	0.186
-557.471	-94.999	-0.403	-0.109
-556.456	497.749	0.185	0.427
-555.442	95.002	-0.165	0.188
-554.427	645.486	-0.105	-0.269
-553.412	800.000	0.046	-0.161
-552.398	-23.009	0.188	0.113
-551.383	-22.852	0.374	0.226
-550.369	34.156	-0.192	-0.168
-549.354	-22.417	-0.073	-0.044
-548.339	794.694	-0.145	-0.399
-547.325	-200.000	0.004	-0.364
-546.310	37.317	-0.044	-0.039
-545.296	760.132	-0.014	-0.038
-544.281	-79.215	0.084	0.029
-543.266	147.948	-0.141	-0.190
-542.252	-200.000	0.028	-0.171
-541.237	96.064	-0.058	-0.067
-540.223	800.000	0.068	-0.278
-539.208	84.201	0.155	-0.169
-538.193	-95.914	0.325	-0.087
-537.179	-200.000	0.026	0.246
-536.164	51.948	-0.071	-0.067
-535.150	-25.397	-0.447	-0.265
-534.135	-159.716	0.392	0.022
-533.121	72.877	0.281	-0.294
-532.106	-48.737	0.191	-0.092
-531.091	-200.000	0.004	0.029
-530.077	-12.477	-0.066	-0.043
-529.062	243.967	0.056	-0.094
-528.048	249.078	-0.109	0.184
-527.033	-109.585	-0.458	0.097
-526.018	95.430	0.086	-0.098
-525.004	-68.717	-0.147	-0.057
-523.989	-78.607	0.235	-0.081
-522.975	307.568	-0.152	-0.283
-521.960	70.107	0.050	-0.052
-520.945	74.033	-0.186	-0.195
-519.931	-200.000	0.061	-0.452
-518.916	40.511	0.402	-0.363
-517.902	-20.695	-0.142	0.087
-516.887	-200.000	0.014	0.071
-515.872	231.986	0.194	-0.319
-514.858	433.675	0.170	-0.370
-513.843	367.509	0.088	0.177
-512.829	62.995	0.135	-0.135
-511.814	-200.000	-0.038	0.215
-510.799	71.581	-0.196	-0.204
-509.785	-139.645	-0.206	0.022
-508.770	-18.045	-0.224	-0.140
-507.756	-58.371	0.057	-0.025
-506.741	-60.139	0.142	-0.061
-505.726	-200.000	-0.042	-0.328
-504.712	-38.283	-0.215	0.114
-503.697	-153.068	-0.010	0.001
-502.683	-92.344	0.127	0.036
-501.668	-63.299	0.185	0.076
-500.653	800.000	0.050	0.156
-499.639	-81.439	-0.248	0.082
-498.624	-26.814	-0.154	-0.090
-497.610	34.611	0.078	-0.069
-496.595	-114.403	-0.154	-0.030
-495.581	800.000	0.068	0.195
-494.566	-200.000	-0.009	0.286
-493.551	781.119	-0.068	0.186
-492.537	85.944	-0.307	0.338
-491.522	-200.000	-0.023	-0.248
-490.508	-66.502	0.042	0.016
-489.493	-90.366	-0.099	0.029
-488.478	-86.149	-0.264	-0.081
-487.464	-45.491	-0.224	0.111
-486.449	285.201	0.015	0.027
-485.435	-200.000	-0.033	0.236
-484.420	800.000	-0.065	-0.237
-483.405	41.738	-0.378	-0.342
-482.391	-109.945	-0.168	-0.035
-481.376	247.282	0.091	0.154
-480.362	-53.094	-0.164	0.076
-479.347	800.000	-0.059	0.180
-478.332	104.721	-0.104	-0.123
-477.318	-70.567	-0.203	0.077
-476.303	-120.629	0.119	0.020
-475.289	-200.000	0.000	-0.405
-474.274	1.469	-0.187	0.135
-473.259	40.014	-0.236	-0.212
-472.245	-65.095	-0.360	-0.145
-471.230	-39.606	0.120	0.063
-470.216	-200.000	-0.024	-0.109
-469.201	93.276	0.414	0.467
-468.186	-24.549	-0.152	0.091
-467.172	-175.356	-0.254	0.007
-466.157	175.385	-0.245	0.354
-465.143	-200.000	0.000	0.096
-464.128	800.000	0.068	0.243
-463.113	388.957	-0.075	0.156
-462.099	-200.000	0.024	-0.214
-461.084	350.718	0.194	-0.382
-460.070	-132.994	-0.125	-0.016
-459.055	388.478	0.190	-0.393
-458.040	23.751	0.299	0.246
-457.026	42.174	0.098	0.089
-456.011	98.228	-0.088	-0.101
-454.997	800.000	-0.131	0.397
-453.982	800.000	-0.045	0.196
-452.968	175.108	-0.098	0.142
-451.953	-122.193	0.116	-0.019
-450.938	-33.522	-0.142	0.078
-449.924	-35.921	0.084	0.045
-448.909	85.219	0.125	-0.137
-447.895	-115.342	0.065	0.012
-446.880	-25.230	0.229	-0.135
-445.865	-140.992	0.093	0.010
-444.851	103.726	-0.159	-0.187
-443.836	-190.596	0.150	-0.002
-442.822	34.597	0.077	-0.067
-441.807	-200.000	-0.008	0.144
-440.792	-200.000	0.019	-0.134
-439.778	-52.640	0.267	0.123
-438.763	-97.295	0.275	0.071
-437.749	-40.717	-0.234	0.121
-436.734	165.075	0.148	-0.209
-435.719	-127.579	0.189	-0.027
-434.705	-110.481	-0.462	0.096
-433.690	212.503	0.098	0.154
-432.676	4.160	0.145	0.106
-431.661	-137.435	-0.051	-0.006
-430.646	104.767	0.294	0.346
-429.632	-80.042	-0.423	-0.142
-428.617	-200.000	0.001	0.181
-427.603	-58.836	0.111	0.048
-426.588	19.659	0.353	0.283
-425.573	267.981	-0.089	-0.156
-424.559	800.000	-0.080	0.293
-423.544	235.004	-0.143	0.236
-422.530	-84.575	0.300	-0.094
-421.515	-98.652	0.256	0.065
-420.500	-21.301	-0.286	-0.174
-419.486	146.186	-0.059	0.078
-418.471	-106.961	-0.217	-0.048
-417.457	172.444	0.189	-0.272
-416.442	127.581	-0.007	0.008
-415.428	-200.000	-0.005	0.143
-414.413	-144.116	-0.175	-0.016
-413.398	-116.124	0.023	0.004
-412.384	800.000	-0.047	-0.196
-411.369	-15.809	-0.245	-0.156
-410.355	-71.242	-0.088	-0.033
-409.340	135.494	0.059	-0.077
-408.325	98.927	0.082	-0.094
-407.311	-1.653	-0.316	-0.222
-406.296	-200.000	-0.009	0.140
-405.282	474.770	-0.101	0.227
-404.267	-41.637	-0.087	-0.044
-403.252	-200.000	0.003	-0.333
-402.238	-84.160	0.271	0.086
-401.223	59.906	0.123	-0.121
-400.209	-6.484	-0.215	0.146
-399.194	-158.470	0.155	0.009
-398.179	-168.634	0.380	-0.014
-397.165	67.974	0.133	0.135
-396.150	-131.816	-0.226	-0.030
-395.136	171.941	-0.115	-0.165
-394.121	171.157	-0.211	0.301
-393.106	7.737	0.121	0.090
-392.092	-95.862	0.173	0.046
-391.077	-200.000	0.016	-0.190
-390.063	-68.496	-0.068	0.026
-389.048	46.004	0.136	0.125
-388.033	800.000	-0.037	0.159
-387.019	-129.439	0.087	-0.012
-386.004	800.000	0.033	-0.106
-384.990	416.997	0.222	0.472
-383.975	386.186	-0.141	0.291
-382.960	-33.491	0.190	-0.105
-381.946	231.067	0.105	0.171
-380.931	-192.110	-0.050	0.000
-379.917	-105.496	-0.228	0.052
-378.902	800.000	0.042	-0.175
-377.888	-200.000	-0.023	-0.348
-376.873	210.240	-0.108	0.169
-375.858	37.258	-0.084	0.074
-374.844	-84.375	0.042	-0.013
-373.829	-200.000	-0.004	0.049
-372.815	-86.585	0.183	0.056
-371.800	-30.161	0.114	0.064
-370.785	475.589	-0.144	0.323
-369.771	-91.176	0.139	-0.040
-368.756	-117.584	0.522	-0.094
-367.742	-200.000	-0.025	0.276
-366.727	800.000	0.094	0.288
-365.712	-84.575	-0.127	0.040
-364.698	-109.316	-0.454	-0.096
-363.683	-70.568	-0.097	0.037
-362.669	82.211	-0.116	0.125
-361.654	-200.000	-0.036	-0.238
-360.639	-200.000	0.040	-0.323
-359.625	-149.090	-0.061	-0.005
-358.610	-52.068	-0.246	0.113
-357.596	70.515	-0.224	-0.230
-356.581	67.223	0.206	-0.209
-355.566	-13.414	-0.191	-0.123
-354.552	-96.468	-0.252	-0.066
-353.537	93.137	0.152	-0.171
-352.523	44.847	0.057	-0.052
-351.508	0.537	-0.171	0.121
-350.493	-40.314	0.066	0.034
-349.479	-15.443	0.226	0.143
-348.464	-19.610	-0.229	-0.141
-347.450	-200.000	0.025	0.169
-346.435	-166.897	-0.119	-0.005
-345.420	-200.000	0.023	0.148
-344.406	-200.000	0.003	-0.028
-343.391	-55.256	0.144	-0.064
-342.377	97.820	-0.076	0.087
-341.362	397.548	-0.144	0.298
-340.348	-85.171	0.254	0.079
-339.333	156.208	0.171	-0.234
-338.318	93.264	-0.189	-0.212
-337.304	-86.294	-0.254	-0.078
-336.289	162.036	-0.177	-0.246
-335.275	-40.764	-0.258	-0.133
-334.260	200.531	0.128	-0.196
-333.245	40.046	0.232	-0.207
-332.231	-151.544	0.145	-0.011
-331.216	-54.349	-0.227	-0.102
-330.202	-67.052	0.092	-0.036
-329.187	-170.201	-0.325	0.011
-328.172	-54.466	-0.133	0.060
-327.158	41.562	0.197	-0.177
-326.143	34.307	0.083	-0.072
-325.129	-200.000	0.004	0.218
-324.114	-37.504	0.165	-0.087
-323.099	-3.039	0.238	-0.165
-322.085	165.203	0.070	0.098
-321.070	86.229	-0.211	-0.231
-320.056	-44.308	0.172	-0.086
-319.041	191.860	0.191	-0.285
-318.026	101.940	-0.043	0.050
-317.012	-109.088	-0.323	0.068
-315.997	-200.000	-0.012	-0.372
-314.983	800.000	0.109	-0.345
-313.968	18.853	0.159	-0.126
-312.953	111.711	0.093	-0.111
-311.939	-79.240	0.110	-0.037
-310.924	23.109	-0.256	-0.209
-309.910	-53.019	0.151	-0.069
-308.895	-200.000	-0.064	-0.362
-307.880	-200.000	0.009	0.203
-306.866	-125.238	-0.081	0.012
-305.851	-187.491	0.103	0.001
-304.837	-11.810	0.286	-0.187
-303.822	-148.517	-0.335	0.027
-302.807	80.799	-0.116	0.124
-301.793	33.507	0.368	-0.317
-300.778	266.931	0.070	-0.121
-299.764	-164.377	-0.120	-0.005
-298.749	140.868	-0.154	-0.202
-297.735	31.387	-0.241	-0.205
-296.720	70.969	-0.488	-0.502
-295.705	325.291	-0.191	-0.363
-294.691	447.550	-0.019	-0.042
-293.676	-200.000	-0.002	0.158
-292.662	442.284	-0.070	-0.153
-291.647	-22.781	0.319	-0.191
-290.632	800.000	-0.068	0.283
-289.618	86.257	-0.186	-0.203
-288.603	40.294	0.109	0.097
-287.589	1.466	-0.156	0.111
-286.574	-200.000	-0.010	-0.081
-285.559	-27.619	-0.249	0.143
-284.545	30.213	-0.132	-0.112
-283.530	155.854	0.038	0.053
-282.516	-135.599	-0.268	0.032
-281.501	373.048	-0.039	-0.078
-280.486	800.000	0.018	0.065
-279.472	-127.488	-0.046	0.007
-278.457	-128.106	0.170	-0.024
-277.443	105.007	-0.142	0.166
-276.428	197.223	-0.144	0.217
-275.413	-159.687	-0.171	0.009
-274.399	-200.000	0.017	0.192
-273.384	484.807	0.015	-0.033
-272.370	-85.094	0.426	0.132
-271.355	161.677	0.129	0.179
-270.340	80.839	-0.264	-0.282
-269.326	-105.178	0.186	0.042
-268.311	-90.140	-0.153	0.044
-267.297	-4.798	0.187	0.128
-266.282	-39.154	-0.194	0.101
-265.267	-76.825	0.304	0.105
-264.253	-200.000	-0.000	-0.111
-263.238	800.000	0.063	0.212
-262.224	-101.122	0.336	0.082
-261.209	-63.807	0.396	-0.161
-260.195	-49.527	-0.177	-0.084
-259.180	197.017	0.062	-0.094
-258.165	560.600	-0.059	0.142
-257.151	800.000	-0.135	0.441
-256.136	111.935	-0.053	0.064
-255.122	259.202	-0.059	-0.101
-254.107	399.770	0.246	0.511
-253.092	-156.371	0.357	0.022
-252.078	178.480	0.229	-0.331
-251.063	-200.000	-0.032	0.229
-250.049	800.000	0.048	0.159
-249.034	310.440	0.144	0.268
-248.019	46.246	0.264	0.243
-247.005	-97.384	0.274	0.071
-245.990	-200.000	-0.032	-0.275
-244.976	126.075	0.144	0.181
-243.961	118.060	0.204	-0.249
-242.946	-11.548	0.187	0.122
-241.932	235.033	0.180	0.294
-240.917	47.242	0.174	0.161
-239.903	-56.735	0.218	-0.096
-238.888	-200.000	0.004	-0.344
-237.873	800.000	0.133	0.449
-236.859	-200.000	-0.049	0.288
-235.844	-146.608	-0.043	0.004
-234.830	138.636	-0.229	-0.297
-233.815	72.552	0.093	0.096
-232.800	-188.243	-0.014	0.000
-231.786	-97.238	0.141	-0.036
-230.771	123.325	-0.124	0.154
-229.757	-200.000	0.005	0.053
-228.742	463.238	-0.112	-0.247
-227.727	-151.124	0.138	0.010
-226.713	800.000	-0.010	0.035
-225.698	114.875	0.192	0.232
-224.684	-110.530	-0.433	-0.089
-223.669	-125.580	0.092	0.014
-222.655	-44.096	-0.230	-0.114
-221.640	188.862	0.078	-0.116
-220.625	-46.815	0.058	-0.028
-219.611	-52.480	0.198	0.091
-218.596	-108.213	0.374	-0.080
-217.582	-200.000	-0.052	0.248
-216.567	47.402	0.146	-0.135
-215.552	405.525	-0.069	-0.143
-214.538	-105.534	0.148	-0.033
-213.523	70.995	-0.240	-0.245
-212.509	-93.254	0.265	0.073
-211.494	375.954	-0.048	0.097
-210.479	-95.691	0.191	0.051
-209.465	-68.525	0.372	-0.143
-208.450	-9.012	-0.074	0.049
-207.436	-200.000	-0.034	-0.330
-206.421	-159.606	-0.100	-0.005
-205.406	800.000	0.008	-0.026
-204.392	-153.277	0.299	0.021
-203.377	383.804	0.149	0.303
-202.363	158.804	-0.309	0.424
-201.348	27.350	0.098	0.081
-200.333	-200.000	0.016	-0.176
-199.319	-79.706	-0.244	0.081
-198.304	30.438	0.156	0.131
-197.290	-12.057	-0.036	-0.023
-196.275	70.004	0.225	0.230
-195.260	-22.203	-0.211	-0.127
-194.246	-200.000	0.009	-0.061
-193.231	-200.000	0.076	-0.427
-192.217	-200.000	0.035	-0.250
-191.202	116.536	-0.120	-0.145
-190.187	-60.915	-0.134	-0.056
-189.173	-7.626	-0.092	0.062
-188.158	2.579	0.180	-0.129
-187.144	31.351	0.196	0.166
-186.129	55.715	0.049	0.046
-185.114	153.288	0.052	0.070
-184.100	-76.772	-0.204	-0.070
-183.085	679.795	0.030	-0.078
-182.071	-177.695	-0.179	-0.004
-181.056	-200.000	0.024	0.424
-180.042	314.315	-0.186	0.346
-179.027	-182.186	-0.329	-0.006
-178.012	-44.027	0.011	-0.005
-176.998	31.850	-0.290	-0.246
-175.983	800.000	-0.016	-0.055
-174.969	-200.000	-0.039	0.215
-173.954	-200.000	-0.013	0.122
-172.939	73.912	0.142	0.147
-171.925	-20.892	0.390	0.236
-170.910	-200.000	0.009	0.061
-169.896	-66.066	0.216	-0.085
-168.881	-105.465	-0.049	-0.011
-167.866	-200.000	0.056	-0.315
-166.852	137.692	0.167	0.216
-165.837	125.708	-0.193	0.241
-164.823	-86.856	0.177	0.053
-163.808	123.712	0.119	-0.148
-162.793	800.000	-0.030	0.102
-161.779	190.974	0.135	0.200
-160.764	800.000	-0.127	-0.391
-159.750	374.696	0.100	0.200
-158.735	-66.916	0.246	0.096
-157.720	-96.937	-0.235	-0.061
-156.706	5.347	0.043	0.031
-155.691	-200.000	0.003	0.206
-154.677	290.181	-0.148	0.266
-153.662	400.824	-0.050	0.103
-152.647	-200.000	-0.004	-0.097
-151.633	-200.000	0.007	0.073
-150.618	-133.710	-0.405	0.050
-149.604	-200.000	-0.017	-0.150
-148.589	77.803	0.180	0.190
-147.574	377.488	-0.117	0.236
-146.560	275.279	-0.141	-0.246
-145.545	-110.346	-0.264	-0.054
-144.531	-15.570	-0.061	0.038
-143.516	66.845	0.242	-0.243
-142.502	189.851	0.139	-0.206
-141.487	-43.694	0.288	-0.143
-140.472	33.685	-0.033	0.028
-139.458	151.083	0.146	-0.196
-138.443	356.271	-0.018	-0.035
-137.429	193.698	0.216	0.323
-136.414	800.000	-0.063	-0.198
-135.399	-200.000	0.008	0.176
-134.385	-139.767	-0.259	-0.027
-133.370	97.365	-0.170	-0.192
-132.356	-84.716	0.101	0.031
-131.341	292.047	0.114	-0.205
-130.326	767.768	0.043	-0.114
-129.312	-200.000	0.034	-0.227
-128.297	-200.000	-0.088	-0.402
-127.283	-121.909	-0.455	0.074
-126.268	174.719	-0.137	0.195
-125.253	-68.690	0.170	-0.065
-124.239	-200.000	0.020	-0.086
-123.224	-3.559	0.008	-0.006
-122.210	197.131	-0.055	0.083
-121.195	300.000	0.154	-0.280
