DTS Sentinel unit serial number:	SN413079Multiplexer serial number:	ORYXHardware model number:	OX4-SRSoftware version number:	ORYX F/W v4.00 Oryx Data Collector v3.7.2.0data status	okinstallation	princeton_trtdifferential loss correction	single-endedforward channel	channel 2reverse channel	N/Adate	2019/09/12time	18:46:49forward acquisition time	15.00reverse acquisition time	0.00gamma	496.2192k internal	0.2324k external	0.2324temperature offset calibration	1.0135default loss term (dB/km)	0.3790temperature slope calibration	1.0000multiplexer offset coefficient	1.0000multiplexer slope coefficient	1.0000fibre end	0.00T internal ref (°C)	33.00T ext. ref 1 (°C)	2.99T ext. ref 2 (°C)	27.50length (m)	temperature (°C)	Stokes	anti-Stokes-747.200	-200.000	0.011	0.184
-746.185	800.000	-0.117	0.438
-745.171	-122.464	0.393	-0.064
-744.156	-200.000	0.065	0.846
-743.142	-200.000	-0.005	-0.817
-742.127	-135.785	0.625	-0.075
-741.112	-44.737	-0.596	0.300
-740.098	-124.934	-0.576	-0.090
-739.083	800.000	0.119	0.360
-738.069	-200.000	-0.011	0.809
-737.054	800.000	-0.332	1.280
-736.039	-94.722	0.232	0.064
-735.025	-34.619	-0.390	0.215
-734.010	116.586	0.154	0.190
-732.996	26.931	-0.232	-0.197
-731.981	203.775	0.298	-0.465
-730.966	-159.957	-0.432	-0.024
-729.952	-24.557	0.112	0.067
-728.937	-127.583	0.201	0.029
-727.923	-200.000	-0.105	0.484
-726.908	31.001	-0.613	0.530
-725.894	59.830	0.761	0.757
-724.879	303.915	-0.145	-0.271
-723.864	-141.288	-0.139	0.014
-722.850	-200.000	-0.091	-0.511
-721.835	0.511	-0.304	-0.219
-720.821	-200.000	0.007	-0.344
-719.806	-32.365	0.083	-0.047
-718.791	800.000	-0.265	-0.845
-717.777	104.257	-0.801	-0.951
-716.762	800.000	0.104	-0.352
-715.748	-52.966	0.128	0.060
-714.733	61.741	-0.262	0.263
-713.718	220.050	-0.122	0.197
-712.704	46.820	0.864	0.809
-711.689	148.821	-0.234	-0.319
-710.675	189.577	0.070	0.106
-709.660	245.309	0.307	-0.520
-708.645	69.445	-0.192	-0.199
-707.631	-22.094	-0.162	0.099
-706.616	-200.000	0.034	0.953
-705.602	-200.000	-0.106	0.539
-704.587	111.049	-0.399	0.484
-703.572	562.110	0.208	-0.507
-702.558	-46.484	0.298	-0.147
-701.543	-124.104	0.306	0.048
-700.529	-117.168	0.239	0.044
-699.514	-200.000	0.001	-0.208
-698.499	705.976	-0.181	-0.482
-697.485	800.000	0.212	-0.760
-696.470	800.000	0.086	-0.250
-695.456	-200.000	-0.157	0.818
-694.441	-104.001	-1.253	0.294
-693.426	-120.321	-0.113	-0.019
-692.412	800.000	-0.367	-1.022
-691.397	-13.150	0.561	-0.367
-690.383	-44.371	-0.844	-0.426
-689.368	-200.000	-0.010	-0.524
-688.354	-200.000	-0.052	-0.957
-687.339	89.839	-0.465	0.523
-686.324	-145.343	0.470	-0.043
-685.310	-113.351	0.905	0.179
-684.295	-138.303	-0.326	0.036
-683.281	237.518	-0.338	0.565
-682.266	800.000	0.101	0.354
-681.251	-33.280	0.342	-0.190
-680.237	-42.320	-0.742	-0.381
-679.222	-141.788	-0.616	-0.062
-678.208	-74.103	0.323	0.118
-677.193	690.735	-0.050	-0.133
-676.178	35.228	-0.392	0.346
-675.164	130.890	0.091	-0.117
-674.149	800.000	-0.139	0.506
-673.135	800.000	-0.144	-0.403
-672.120	-112.980	0.902	0.179
-671.105	-139.084	-0.366	0.040
-670.091	-105.496	-0.306	-0.070
-669.076	128.282	0.453	-0.580
-668.062	-102.633	0.594	0.143
-667.047	84.062	0.260	-0.286
-666.032	540.132	-0.237	0.568
-665.018	-176.660	-0.720	0.019
-664.003	178.243	-0.587	-0.862
-662.989	-138.246	-0.325	-0.036
-661.974	248.330	-0.234	0.398
-660.959	35.343	0.196	-0.173
-659.945	65.145	-0.404	-0.411
-658.930	504.194	0.110	0.255
-657.916	574.095	0.327	-0.803
-656.901	-41.005	0.528	0.274
-655.886	206.860	0.176	0.275
-654.872	457.865	0.232	0.518
-653.857	281.270	0.541	0.974
-652.843	-80.297	0.722	-0.243
-651.828	-200.000	-0.081	-0.430
-650.814	-24.219	0.342	0.206
-649.799	-0.855	0.274	0.195
-648.784	-118.355	-0.430	0.077
-647.770	23.770	0.600	-0.497
-646.755	-200.000	0.012	0.338
-645.741	-5.743	0.628	0.432
-644.726	60.896	0.446	0.445
-643.711	257.777	-0.341	0.590
-642.697	-55.924	0.578	0.259
-641.682	14.235	0.095	-0.075
-640.668	-64.979	-0.247	-0.101
-639.653	309.406	0.142	-0.268
-638.638	800.000	-0.164	-0.599
-637.624	161.169	0.150	-0.211
-636.609	495.728	-0.050	0.116
-635.595	-139.439	0.941	-0.101
-634.580	-200.000	-0.036	0.833
-633.565	-191.623	-0.840	0.008
-632.551	-55.123	0.774	0.350
-631.536	12.323	0.589	-0.456
-630.522	-128.258	-0.544	0.078
-629.507	154.620	0.707	0.976
-628.492	-200.000	-0.001	-0.304
-627.478	61.444	-0.381	0.380
-626.463	535.135	-0.112	-0.266
-625.449	800.000	-0.232	-0.666
-624.434	-103.629	0.498	0.117
-623.419	43.706	0.465	-0.428
-622.405	146.911	0.187	0.253
-621.390	10.893	-0.523	0.402
-620.376	-200.000	-0.092	0.761
-619.361	-81.955	0.201	0.066
-618.346	-200.000	-0.117	-0.787
-617.332	-200.000	0.102	-0.607
-616.317	-53.046	-0.098	0.045
-615.303	-200.000	0.068	0.353
-614.288	169.429	-0.442	0.634
-613.273	-95.503	0.437	0.118
-612.259	-200.000	0.047	0.733
-611.244	-54.040	0.091	-0.042
-610.230	-56.902	-0.471	0.209
-609.215	343.209	-0.158	0.311
-608.201	-104.679	-0.543	0.126
-607.186	-109.836	1.147	0.242
-606.171	-200.000	-0.082	-0.599
-605.157	-123.359	0.131	-0.021
-604.142	-32.557	-0.460	0.257
-603.128	-82.185	0.593	0.194
-602.113	-52.537	0.944	-0.438
-601.098	-111.502	-0.249	0.051
-600.084	-200.000	-0.080	0.581
-599.069	-200.000	0.012	0.490
-598.055	542.476	-0.089	0.213
-597.040	-200.000	-0.161	-1.077
-596.025	-18.221	0.445	-0.279
-595.011	-200.000	0.025	0.217
-593.996	-131.761	-0.668	-0.088
-592.982	228.203	-0.155	-0.253
-591.967	-135.842	0.942	0.112
-590.952	-116.682	0.498	-0.092
-589.938	-109.520	-1.246	0.264
-588.923	-200.000	-0.037	0.264
-587.909	184.647	-0.225	0.335
-586.894	-33.215	-0.165	0.092
-585.879	-122.647	-0.931	-0.151
-584.865	-200.000	0.099	0.536
-583.850	-39.125	-0.432	-0.228
-582.836	72.626	0.072	0.075
-581.821	-75.629	-0.725	-0.258
-580.806	-139.709	0.288	-0.031
-579.792	800.000	-0.109	-0.434
-578.777	-200.000	-0.204	-0.950
-577.763	734.699	0.334	0.897
-576.748	-182.458	-0.303	0.006
-575.733	-194.688	-0.813	-0.006
-574.719	96.898	-0.502	0.577
-573.704	800.000	-0.400	1.226
-572.690	-120.745	-1.043	0.177
-571.675	-92.274	0.202	-0.057
-570.661	-1.839	0.102	0.072
-569.646	-101.988	1.189	-0.288
-568.631	129.273	-0.268	-0.343
-567.617	-200.000	-0.068	0.390
-566.602	75.472	0.367	0.389
-565.588	-200.000	-0.143	-0.814
-564.573	60.593	-0.661	-0.656
-563.558	-200.000	-0.084	0.754
-562.544	-164.877	0.243	-0.011
-561.529	-193.183	0.874	-0.008
-560.515	42.679	-0.999	-0.912
-559.500	121.327	0.368	0.459
-558.485	-128.388	-0.627	0.089
-557.471	-9.760	-0.903	-0.602
-556.456	800.000	0.184	0.598
-555.442	-200.000	0.055	0.849
-554.427	-21.878	-1.044	-0.636
-553.412	800.000	0.145	0.447
-552.398	-93.358	-0.203	-0.057
-551.383	783.541	0.431	-1.183
-550.369	-126.329	-0.214	0.032
-549.354	787.707	0.224	0.615
-548.339	-200.000	0.097	-0.458
-547.325	66.179	0.270	-0.275
-546.310	120.907	0.286	0.356
-545.296	-51.235	0.316	-0.148
-544.281	-200.000	-0.001	-0.848
-543.266	60.747	-0.164	-0.162
-542.252	-159.160	0.611	-0.034
-541.237	-90.358	0.591	0.172
-540.223	-200.000	0.090	-0.566
-539.208	-35.008	-0.551	-0.301
-538.193	-200.000	0.041	-0.400
-537.179	-200.000	-0.003	-0.399
-536.164	-200.000	-0.108	-0.858
-535.150	-13.533	0.198	-0.128
-534.135	73.708	-0.623	-0.654
-533.121	-200.000	-0.042	0.186
-532.106	109.000	0.556	0.666
-531.091	220.629	-0.587	-0.943
-530.077	800.000	-0.250	-1.015
-529.062	800.000	-0.147	-0.626
-528.048	-95.107	0.688	0.186
-527.033	28.698	-0.502	0.425
-526.018	434.258	-0.371	-0.806
-525.004	371.195	0.105	0.213
-523.989	800.000	-0.175	0.482
-522.975	40.402	0.329	0.296
-521.960	595.232	-0.159	-0.393
-520.945	-112.059	0.581	0.117
-519.931	-85.346	0.979	-0.306
-518.916	109.899	-0.331	-0.398
-517.902	582.987	0.070	0.173
-516.887	-200.000	-0.001	-0.365
-515.872	-15.182	0.210	0.134
-514.858	279.697	0.625	-1.116
-513.843	800.000	0.055	-0.221
-512.829	-43.988	0.521	-0.262
-511.814	-83.710	-0.102	0.032
-510.799	592.935	-0.326	-0.805
-509.785	-154.433	-0.349	-0.023
-508.770	12.400	-0.789	-0.608
-507.756	800.000	0.157	0.591
-506.741	10.309	0.457	0.347
-505.726	-177.513	-0.230	-0.006
-504.712	192.916	-0.163	-0.246
-503.697	-8.998	0.084	0.056
-502.683	-64.975	0.495	-0.200
-501.668	800.000	0.104	-0.431
-500.653	353.852	-0.192	0.380
-499.639	371.064	0.213	0.433
-498.624	448.934	0.135	-0.298
-497.610	-200.000	0.059	0.364
-496.595	-137.790	0.868	0.097
-495.581	-10.059	-0.253	-0.168
-494.566	-200.000	0.103	0.653
-493.551	-200.000	0.012	-0.542
-492.537	70.785	-0.215	-0.223
-491.522	-200.000	-0.024	0.372
-490.508	-200.000	0.082	-0.605
-489.493	-136.574	-0.319	-0.037
-488.478	-39.890	-0.645	0.336
-487.464	800.000	0.038	-0.145
-486.449	-143.568	-0.223	0.021
-485.435	-104.200	0.446	-0.103
-484.420	-3.467	0.326	-0.226
-483.405	462.471	-0.221	-0.494
-482.391	-53.140	0.468	-0.215
-481.376	-97.030	-0.300	0.078
-480.362	-200.000	0.185	-1.192
-479.347	-200.000	-0.047	-0.684
-478.332	-200.000	0.070	0.709
-477.318	65.690	0.422	0.427
-476.303	51.424	0.141	0.134
-475.289	70.098	-0.243	-0.251
-474.274	-200.000	-0.004	-0.048
-473.259	189.564	0.316	0.473
-472.245	-1.387	0.591	0.417
-471.230	-125.406	-0.379	0.058
-470.216	101.452	0.284	0.330
-469.201	332.552	0.398	0.767
-468.186	800.000	-0.152	0.638
-467.172	-200.000	0.121	-0.868
-466.157	-118.648	-0.878	-0.155
-465.143	-73.814	0.323	-0.117
-464.128	104.998	0.519	-0.612
-463.113	51.789	-0.506	-0.481
-462.099	-28.780	-0.614	0.353
-461.084	35.679	0.657	-0.576
-460.070	-29.997	-0.500	-0.284
-459.055	213.222	0.445	-0.702
-458.040	100.729	-0.187	-0.217
-457.026	-57.594	0.355	0.155
-456.011	-113.156	-0.585	-0.115
-454.997	-62.312	0.542	-0.225
-453.982	-141.051	-0.303	0.031
-452.968	63.127	0.502	0.502
-451.953	-166.409	-0.537	-0.022
-450.938	800.000	0.143	0.523
-449.924	61.604	0.403	0.400
-448.909	383.267	-0.288	-0.591
-447.895	-200.000	-0.136	0.602
-446.880	-90.623	0.335	-0.097
-445.865	488.210	0.139	0.317
-444.851	-65.912	0.412	0.164
-443.836	-200.000	0.051	0.268
-442.822	-200.000	0.019	0.302
-441.807	-96.194	0.738	-0.195
-440.792	374.016	0.103	0.209
-439.778	-17.302	0.441	0.277
-438.763	-93.629	0.843	-0.232
-437.749	-85.357	-0.368	0.114
-436.734	359.658	0.394	-0.786
-435.719	-200.000	-0.108	-0.702
-434.705	-28.659	0.997	-0.572
-433.690	-59.657	0.824	-0.352
-432.676	-200.000	0.076	-0.691
-431.661	-63.390	-0.503	0.206
-430.646	-63.239	-0.258	0.106
-429.632	225.677	0.342	-0.552
-428.617	349.506	-0.247	-0.487
-427.603	-200.000	-0.191	0.935
-426.588	124.755	-0.297	-0.373
-425.573	279.177	0.294	0.523
-424.559	800.000	-0.282	1.167
-423.544	306.767	-0.180	-0.335
-422.530	-98.445	-0.794	0.202
-421.515	38.619	0.438	0.390
-420.500	204.598	-0.311	0.480
-419.486	431.216	0.105	0.226
-418.471	3.682	-0.448	-0.326
-417.457	-95.936	-0.782	-0.208
-416.442	-30.235	0.212	0.120
-415.428	20.912	-0.606	0.489
-414.413	800.000	-0.130	0.550
-413.398	-174.052	-0.412	0.012
-412.384	-23.701	-0.481	-0.287
-411.369	419.542	-0.501	-1.069
-410.355	-176.414	0.708	0.018
-409.340	168.957	-0.632	0.897
-408.325	-41.417	0.507	-0.260
-407.311	800.000	-0.323	-0.934
-406.296	800.000	0.234	-0.681
-405.282	-54.767	-0.587	-0.264
-404.267	800.000	-0.172	0.606
-403.252	415.933	0.129	-0.273
-402.238	112.359	0.095	-0.115
-401.223	-125.562	-1.076	-0.163
-400.209	-200.000	0.036	0.244
-399.194	102.658	-0.192	-0.224
-398.179	248.287	0.202	0.340
-397.165	-155.334	-0.645	0.042
-396.150	764.724	-0.060	-0.161
-395.136	-200.000	-0.006	0.276
-394.121	-187.031	-0.517	-0.007
-393.106	-32.520	0.133	0.074
-392.092	-77.908	-1.028	0.353
-391.077	-95.831	-0.458	-0.122
-390.063	84.991	0.113	0.123
-389.048	-10.901	-0.160	-0.105
-388.033	-64.545	-0.929	-0.375
-387.019	-118.760	-0.179	0.031
-386.004	800.000	-0.212	0.678
-384.990	-127.196	0.363	-0.053
-383.975	-123.916	0.596	-0.093
-382.960	677.322	0.294	0.760
-381.946	-140.186	-0.490	-0.051
-380.931	-0.155	0.481	0.340
-379.917	-182.448	-0.544	0.010
-378.902	-77.629	0.155	-0.053
-377.888	-200.000	0.108	0.657
-376.873	-200.000	0.098	0.582
-375.858	365.241	-0.161	-0.324
-374.844	-63.127	1.109	-0.455
-373.829	-200.000	-0.056	0.844
-372.815	737.291	0.158	0.422
-371.800	-19.649	-0.718	0.442
-370.785	-115.651	-0.465	0.087
-369.771	-54.107	0.457	-0.207
-368.756	-200.000	-0.116	0.634
-367.742	39.412	-0.185	0.165
-366.727	80.117	-0.601	-0.643
-365.712	64.632	0.653	0.655
-364.698	363.245	-0.112	0.225
-363.683	109.931	0.809	0.965
-362.669	15.293	-0.334	-0.261
-361.654	-137.186	-0.283	-0.032
-360.639	774.403	0.192	0.521
-359.625	800.000	0.125	0.440
-358.610	151.424	0.050	0.067
-357.596	-74.745	0.074	0.027
-356.581	-200.000	0.020	-0.160
-355.566	70.653	-0.283	0.291
-354.552	-62.993	-0.665	0.273
-353.537	-200.000	-0.012	0.549
-352.523	-92.876	-0.465	0.129
-351.508	176.142	-0.401	0.579
-350.493	118.995	-0.448	0.551
-349.479	58.509	-0.603	0.588
-348.464	-79.300	-0.162	0.055
-347.450	-31.211	0.469	0.262
-346.435	51.409	0.404	-0.381
-345.420	22.456	-0.647	0.526
-344.406	98.968	-0.318	0.365
-343.391	800.000	-0.061	-0.266
-342.377	-67.222	-0.516	-0.202
-341.362	36.480	0.196	0.172
-340.348	-112.261	-0.660	-0.131
-339.333	17.295	0.674	0.532
-338.318	-141.074	-1.313	0.133
-337.304	24.094	0.830	-0.681
-336.289	-91.737	0.277	0.078
-335.275	-177.653	0.327	-0.008
-334.260	216.152	-0.395	-0.623
-333.245	-63.976	0.313	-0.127
-332.231	67.078	-0.750	0.760
-331.216	-102.700	-0.436	0.103
-330.202	-163.946	0.665	0.031
-329.187	58.083	-0.355	0.345
-328.172	169.602	-0.098	0.140
-327.158	33.613	0.514	-0.443
-326.143	-137.926	0.663	-0.074
-325.129	-61.639	-0.160	-0.067
-324.114	-114.504	0.838	0.160
-323.099	-200.000	-0.066	0.306
-322.085	-25.418	-0.980	0.575
-321.070	104.157	0.503	0.587
-320.056	167.285	0.136	-0.191
-319.041	-40.944	0.226	0.116
-318.026	322.550	0.105	0.198
-317.012	-108.766	-0.198	0.042
-315.997	-200.000	0.153	-0.853
-314.983	-179.888	0.296	-0.006
-313.968	150.749	-0.334	0.451
-312.953	20.865	-0.415	-0.334
-311.939	800.000	0.218	-0.684
-310.924	89.372	-0.228	-0.252
-309.910	36.959	0.248	-0.217
-308.895	-100.296	0.028	0.007
-307.880	116.059	0.693	-0.842
-306.866	-46.004	-0.386	0.189
-305.851	-105.994	1.256	0.281
-304.837	-76.589	-0.392	0.137
-303.822	-200.000	-0.081	-0.532
-302.807	37.389	-0.638	0.561
-301.793	153.887	-0.373	-0.507
-300.778	111.870	0.367	-0.439
-299.764	220.857	0.243	0.387
-298.749	-24.307	0.337	0.200
-297.735	-137.919	-0.570	-0.063
-296.720	50.557	0.204	0.192
-295.705	-28.004	-0.410	-0.236
-294.691	-158.582	0.711	0.041
-293.676	566.892	0.170	0.409
-292.662	194.196	0.500	0.751
-291.647	-200.000	-0.086	0.458
-290.632	-144.528	-1.548	-0.142
-289.618	134.894	-0.810	-1.043
-288.603	-47.562	0.330	0.159
-287.589	-66.513	-0.278	0.110
-286.574	357.289	0.199	-0.393
-285.559	-50.322	0.711	-0.333
-284.545	-3.551	-0.159	-0.109
-283.530	-200.000	0.033	0.220
-282.516	-74.078	-0.271	0.097
-281.501	-200.000	-0.024	-0.472
-280.486	-29.435	0.659	-0.374
-279.472	-99.493	-0.316	0.079
-278.457	-118.237	0.158	-0.028
-277.443	-46.099	0.873	0.426
-276.428	800.000	-0.106	0.332
-275.413	11.546	-0.339	-0.258
-274.399	170.637	-0.615	0.874
-273.384	-29.760	0.674	-0.381
-272.370	529.355	-0.027	-0.062
-271.355	-58.979	-0.449	-0.192
-270.340	-200.000	0.095	0.452
-269.326	406.907	-0.082	-0.172
-268.311	-80.589	-0.577	0.190
-267.297	13.495	0.543	0.417
-266.282	-75.857	-0.432	-0.152
-265.267	-31.190	0.429	0.240
-264.253	193.152	0.454	-0.680
-263.238	431.617	-0.200	-0.430
-262.224	800.000	0.112	0.330
-261.209	-200.000	0.169	-1.007
-260.195	-56.685	0.647	-0.284
-259.180	-200.000	-0.011	0.899
-258.165	800.000	-0.220	-0.711
-257.151	-143.138	0.520	0.050
-256.136	800.000	-0.131	-0.521
-255.122	-129.155	0.267	0.037
-254.107	-18.923	-1.069	-0.659
-253.092	184.538	-0.199	-0.293
-252.078	131.554	0.352	-0.448
-251.063	-198.546	0.681	-0.004
-250.049	-48.621	-0.560	-0.266
-249.034	-118.874	-0.378	0.066
-248.019	-200.000	-0.041	0.408
-247.005	800.000	0.314	-0.906
-245.990	-59.146	0.532	-0.227
-244.976	338.325	-0.295	-0.568
-243.961	-27.168	0.175	-0.101
-242.946	-200.000	0.015	-0.471
-241.932	51.721	0.564	-0.531
-240.917	199.813	0.163	-0.248
-239.903	254.014	0.088	0.149
-238.888	-55.700	0.331	-0.147
-237.873	-156.256	-0.853	-0.053
-236.859	-83.896	0.453	0.143
-235.844	-200.000	0.043	0.193
-234.830	99.272	0.656	0.751
-233.815	272.963	-0.523	-0.913
-232.800	-112.996	-0.514	-0.101
-231.786	203.713	0.140	-0.214
-230.771	-26.204	0.691	-0.402
-229.757	800.000	-0.206	0.847
-228.742	-151.788	0.390	0.028
-227.727	151.425	-0.315	-0.424
-226.713	-66.521	0.915	-0.359
-225.698	415.880	0.187	-0.395
-224.684	120.939	0.366	-0.450
-223.669	725.961	0.298	0.785
-222.655	-200.000	0.019	0.428
-221.640	-37.900	-1.034	0.543
-220.625	-83.914	0.889	0.280
-219.611	210.872	-0.836	1.300
-218.596	247.789	-0.380	-0.635
-217.582	-200.000	-0.054	-0.531
-216.567	-65.215	0.625	0.249
-215.552	-31.857	0.664	-0.368
-214.538	-200.000	-0.068	0.866
-213.523	141.181	0.510	0.667
-212.509	-159.623	-0.324	0.018
-211.494	-72.388	0.506	0.185
-210.479	476.625	0.112	-0.249
-209.465	-200.000	-0.030	0.298
-208.450	30.537	-0.600	-0.507
-207.436	800.000	-0.148	-0.619
-206.421	-200.000	-0.031	-0.455
-205.406	392.194	0.170	-0.349
-204.392	15.991	-0.046	-0.036
-203.377	256.393	0.066	-0.112
-202.363	79.019	0.472	-0.500
-201.348	-106.505	-0.317	0.070
-200.333	429.116	0.203	0.435
-199.319	-13.955	0.654	0.417
-198.304	-109.934	0.897	0.186
-197.290	-130.225	-0.886	-0.119
-196.275	-200.000	-0.036	0.551
-195.260	47.445	-0.574	0.529
-194.246	-200.000	0.003	-0.039
-193.231	37.136	-0.400	-0.350
-192.217	-39.789	0.223	-0.115
-191.202	70.143	0.317	-0.323
-190.187	-63.788	0.204	-0.082
-189.173	-48.682	-0.452	-0.214
-188.158	-200.000	0.003	0.196
-187.144	800.000	0.169	0.611
-186.129	-200.000	0.201	0.887
-185.114	165.684	-0.272	-0.381
-184.100	210.743	0.217	-0.336
-183.085	33.960	-0.314	0.270
-182.071	104.566	0.389	0.452
-181.056	-147.382	-0.207	-0.017
-180.042	173.948	-0.563	-0.803
-179.027	-200.000	-0.001	0.054
-178.012	-184.475	0.280	0.004
-176.998	-58.329	-1.064	0.457
-175.983	134.592	-0.399	0.510
-174.969	108.809	0.401	-0.473
-173.954	-200.000	0.111	0.584
-172.939	583.196	-0.179	0.433
-171.925	-124.502	0.669	0.103
-170.910	126.978	-0.272	-0.341
-169.896	91.589	0.486	-0.539
-168.881	-21.492	-0.413	0.249
-167.866	133.949	-0.162	0.207
-166.852	226.911	0.271	0.435
-165.837	90.067	-0.043	-0.048
-164.823	-200.000	0.034	0.742
-163.808	-30.526	-0.442	-0.247
-162.793	19.199	0.825	-0.653
-161.779	-113.460	0.076	-0.015
-160.764	-85.095	0.318	0.098
-159.750	800.000	-0.139	0.515
-158.735	60.777	0.420	-0.411
-157.720	-200.000	0.006	0.323
-156.706	-196.230	-0.825	-0.006
-155.691	-123.070	-0.838	0.133
-154.677	48.526	0.414	-0.383
-153.662	68.881	-0.213	0.216
-152.647	34.343	0.427	-0.367
-151.633	-85.858	0.663	-0.203
-150.618	-64.687	0.772	0.309
-149.604	800.000	0.164	-0.644
-148.589	523.963	0.265	0.615
-147.574	-15.078	-0.482	0.305
-146.560	-102.503	-0.793	-0.187
-145.545	66.916	0.341	0.342
-144.531	-27.086	-0.212	-0.122
-143.516	129.319	0.181	0.227
-142.502	183.170	-0.464	0.676
-141.487	800.000	0.201	0.607
-140.472	147.667	0.691	-0.918
-139.458	-179.465	0.701	-0.015
-138.443	-129.966	0.816	-0.110
-137.429	37.680	-0.653	0.572
-136.414	-75.674	1.147	-0.401
-135.399	122.110	0.102	-0.126
-134.385	120.476	0.478	0.585
-133.370	-112.700	-0.664	0.130
-132.356	800.000	0.267	-0.762
-131.341	-51.719	0.581	-0.267
-130.326	254.806	0.234	0.395
-129.312	-18.506	0.094	-0.058
-128.297	-200.000	0.118	-0.616
-127.283	744.299	-0.223	-0.591
-126.268	-90.440	-0.188	-0.054
-125.253	20.840	0.745	0.594
-124.239	-49.542	0.428	0.201
-123.224	-69.353	-0.221	0.084
-122.210	49.857	-0.451	0.419
