DTS Sentinel unit serial number:	SN413079Multiplexer serial number:	ORYXHardware model number:	OX4-SRSoftware version number:	ORYX F/W v4.00 Oryx Data Collector v3.7.2.0data status	okinstallation	princeton_trtdifferential loss correction	single-endedforward channel	channel 2reverse channel	N/Adate	2019/09/11time	01:41:10forward acquisition time	60.00reverse acquisition time	0.00gamma	496.2192k internal	0.2332k external	0.2332temperature offset calibration	0.9943default loss term (dB/km)	0.3790temperature slope calibration	1.0000multiplexer offset coefficient	1.0000multiplexer slope coefficient	1.0000fibre end	0.00T internal ref (°C)	29.19T ext. ref 1 (°C)	-0.31T ext. ref 2 (°C)	23.44length (m)	temperature (°C)	Stokes	anti-Stokes-747.200	-200.000	0.073	0.328
-746.185	175.197	0.142	0.207
-745.171	-200.000	-0.001	0.127
-744.156	-200.000	0.106	0.560
-743.142	-175.601	0.070	0.002
-742.127	-169.098	0.213	0.008
-741.112	22.679	-0.154	0.127
-740.098	-85.538	-0.072	-0.023
-739.083	161.421	-0.133	-0.188
-738.069	340.271	0.101	0.198
-737.054	-123.895	0.238	0.038
-736.039	-25.217	-0.079	-0.047
-735.025	-68.358	0.271	0.106
-734.010	45.189	-0.147	0.137
-732.996	-47.132	-0.401	-0.197
-731.981	-197.148	-0.350	-0.002
-730.966	-163.638	-0.187	0.009
-729.952	-100.538	-0.429	0.107
-728.937	203.458	-0.103	-0.159
-727.923	589.462	-0.096	0.237
-726.908	-71.925	-0.128	-0.048
-725.894	28.373	0.038	-0.032
-724.879	-200.000	0.002	0.282
-723.864	-200.000	-0.019	0.203
-722.850	-19.805	-0.161	-0.100
-721.835	800.000	0.100	-0.373
-720.821	519.746	-0.095	-0.225
-719.806	3.033	0.083	-0.061
-718.791	800.000	0.051	0.152
-717.777	-200.000	0.049	-0.221
-716.762	-86.208	-0.081	-0.025
-715.748	-71.058	0.315	0.119
-714.733	-89.775	-0.070	-0.021
-713.718	800.000	-0.091	0.342
-712.704	-81.125	0.314	-0.104
-711.689	142.819	-0.295	-0.394
-710.675	-8.581	0.284	-0.192
-709.660	-85.855	-0.228	0.071
-708.645	-60.193	0.336	0.144
-707.631	237.501	-0.119	0.198
-706.616	-4.071	-0.205	-0.142
-705.602	-23.297	0.140	-0.085
-704.587	-200.000	-0.015	-0.195
-703.572	29.138	-0.109	0.093
-702.558	4.617	0.156	-0.115
-701.543	287.412	-0.148	0.269
-700.529	-147.509	0.196	0.017
-699.514	85.446	0.119	-0.131
-698.499	-179.455	-0.436	0.010
-697.485	800.000	0.064	0.246
-696.470	-200.000	-0.050	0.443
-695.456	-200.000	0.013	0.273
-694.441	546.938	0.104	0.249
-693.426	562.023	-0.071	0.172
-692.412	-117.239	-0.252	-0.046
-691.397	622.367	-0.083	-0.209
-690.383	-11.559	0.174	-0.115
-689.368	-200.000	-0.038	-0.199
-688.354	-3.037	-0.170	0.119
-687.339	-158.016	-0.204	-0.012
-686.324	200.468	0.153	0.235
-685.310	800.000	-0.077	-0.231
-684.295	800.000	0.020	-0.056
-683.281	55.543	-0.129	0.125
-682.266	-42.827	-0.157	-0.080
-681.251	-164.987	-0.284	0.013
-680.237	31.596	0.246	0.212
-679.222	-200.000	0.021	0.153
-678.208	7.714	-0.250	-0.188
-677.193	244.272	0.114	-0.192
-676.178	-189.093	-0.232	0.003
-675.164	-30.962	0.109	0.062
-674.149	-131.686	0.099	-0.013
-673.135	157.461	0.100	-0.139
-672.120	-197.592	-0.173	-0.001
-671.105	261.239	0.050	-0.086
-670.091	800.000	0.039	0.159
-669.076	800.000	-0.087	-0.378
-668.062	45.589	-0.141	-0.131
-667.047	-6.834	-0.288	0.196
-666.032	566.498	-0.064	0.155
-665.018	83.512	-0.264	-0.289
-664.003	126.087	-0.146	-0.185
-662.989	-119.985	-0.101	0.017
-661.974	47.252	-0.149	0.139
-660.959	-63.426	0.314	-0.129
-659.945	107.095	-0.189	-0.225
-658.930	-124.197	-0.218	-0.034
-657.916	397.716	-0.175	0.367
-656.901	-104.260	0.274	-0.064
-655.886	-166.695	-0.467	0.019
-654.872	-200.000	0.027	0.219
-653.857	-54.118	-0.280	-0.128
-652.843	142.268	0.099	0.132
-651.828	-52.586	0.143	-0.066
-650.814	122.287	0.268	0.335
-649.799	278.455	-0.038	-0.069
-648.784	-179.118	-0.342	0.008
-647.770	-8.443	-0.089	0.060
-646.755	800.000	-0.112	-0.342
-645.741	-200.000	-0.004	0.238
-644.726	-200.000	0.028	-0.388
-643.711	-44.939	0.022	-0.011
-642.697	128.618	0.101	0.129
-641.682	-200.000	0.001	-0.076
-640.668	799.478	0.111	-0.307
-639.653	179.048	0.165	-0.242
-638.638	800.000	0.024	-0.103
-637.624	-117.523	0.099	-0.018
-636.609	253.833	-0.180	-0.309
-635.595	14.126	0.237	0.185
-634.580	68.421	0.223	0.229
-633.565	-124.304	-0.443	-0.069
-632.551	-200.000	-0.033	-0.175
-631.536	-118.379	0.267	0.047
-630.522	249.466	0.070	-0.119
-629.507	363.331	0.118	-0.238
-628.492	-200.000	-0.063	-0.341
-627.478	-200.000	-0.001	0.056
-626.463	-155.580	0.133	0.009
-625.449	-111.766	0.409	0.083
-624.434	28.765	0.073	0.062
-623.419	-200.000	-0.008	0.245
-622.405	94.872	0.230	-0.262
-621.390	18.287	0.109	-0.087
-620.376	-119.713	-0.226	0.039
-619.361	-169.670	0.336	-0.012
-618.346	-127.091	-0.055	-0.008
-617.332	128.183	0.137	0.174
-616.317	800.000	-0.104	0.333
-615.303	35.039	0.117	-0.103
-614.288	-200.000	-0.009	-0.078
-613.273	103.530	0.250	-0.294
-612.259	209.320	0.065	0.102
-611.244	-200.000	-0.019	-0.283
-610.230	-154.024	-0.117	0.008
-609.215	-7.795	-0.146	-0.099
-608.201	-200.000	-0.018	0.215
-607.186	-200.000	-0.012	-0.334
-606.171	158.738	0.108	-0.150
-605.157	-15.000	0.200	-0.128
-604.142	72.404	0.104	0.109
-603.128	-64.412	-0.166	0.068
-602.113	-39.326	0.142	-0.074
-601.098	97.705	0.030	0.034
-600.084	800.000	0.074	-0.313
-599.069	-80.599	0.212	-0.071
-598.055	-200.000	-0.005	0.340
-597.040	-77.637	0.179	-0.062
-596.025	800.000	-0.074	-0.296
-595.011	-130.660	-0.233	-0.031
-593.996	57.399	0.193	-0.189
-592.982	-72.937	-0.414	0.152
-591.967	598.963	-0.058	-0.144
-590.952	7.690	-0.249	-0.186
-589.938	-115.684	0.218	-0.041
-588.923	474.529	0.131	-0.295
-587.909	800.000	0.062	-0.215
-586.894	188.218	-0.073	-0.109
-585.879	243.208	0.083	0.138
-584.865	314.960	-0.175	0.330
-583.850	800.000	0.043	0.123
-582.836	23.453	0.195	0.160
-581.821	-200.000	-0.005	-0.152
-580.806	-75.788	-0.331	-0.117
-579.792	-79.875	0.035	-0.012
-578.777	-3.785	-0.135	0.094
-577.763	133.437	0.206	-0.267
-576.748	800.000	-0.013	0.053
-575.733	-46.629	0.227	-0.111
-574.719	-200.000	-0.057	-0.340
-573.704	155.412	-0.190	-0.261
-572.690	695.882	0.079	0.206
-571.675	-7.686	-0.319	0.215
-570.661	-56.705	0.235	-0.104
-569.646	-118.488	0.330	-0.058
-568.631	800.000	0.072	-0.214
-567.617	-200.000	-0.027	0.211
-566.602	286.158	-0.090	0.162
-565.588	490.444	0.099	0.227
-564.573	318.391	-0.174	0.329
-563.558	-12.858	0.174	0.113
-562.544	-67.430	0.193	0.076
-561.529	-85.084	-0.423	-0.132
-560.515	44.360	-0.070	-0.064
-559.500	8.268	-0.486	-0.365
-558.485	-144.938	0.104	-0.010
-557.471	128.183	-0.111	-0.140
-556.456	-200.000	0.015	0.111
-555.442	47.192	0.231	0.215
-554.427	-88.337	-0.386	0.115
-553.412	9.264	0.291	-0.220
-552.398	3.382	-0.321	-0.233
-551.383	-135.505	0.110	-0.013
-550.369	-116.332	0.140	-0.026
-549.354	18.672	0.267	0.214
-548.339	-200.000	-0.018	-0.138
-547.325	-71.068	-0.212	0.079
-546.310	134.661	0.187	0.243
-545.296	-127.761	-0.245	-0.035
-544.281	483.537	-0.059	-0.134
-543.266	356.692	-0.108	0.214
-542.252	321.003	-0.103	-0.195
-541.237	0.603	0.078	-0.056
-540.223	601.687	0.040	0.099
-539.208	-200.000	0.029	-0.265
-538.193	1.826	0.119	0.086
-537.179	-152.817	0.153	0.011
-536.164	-200.000	-0.057	0.317
-535.150	800.000	0.037	-0.143
-534.135	-17.334	0.227	0.143
-533.121	-65.774	-0.251	0.100
-532.106	149.361	-0.159	0.215
-531.091	-200.000	-0.017	-0.342
-530.077	-71.133	-0.243	-0.091
-529.062	99.979	-0.160	-0.185
-528.048	69.756	0.134	-0.138
-527.033	800.000	-0.071	0.250
-526.018	199.316	0.129	0.198
-525.004	-200.000	0.028	0.284
-523.989	79.626	0.076	0.081
-522.975	-63.404	0.182	-0.075
-521.960	-131.487	-0.253	0.033
-520.945	-200.000	-0.007	-0.092
-519.931	-170.435	-0.157	0.005
-518.916	66.887	-0.024	0.024
-517.902	-200.000	0.031	0.141
-516.887	-51.131	0.146	0.068
-515.872	-200.000	-0.011	-0.384
-514.858	-110.319	-0.194	0.040
-513.843	-68.286	-0.169	-0.065
-512.829	32.186	-0.121	-0.104
-511.814	-88.858	0.108	-0.032
-510.799	-152.646	-0.304	0.022
-509.785	-67.905	-0.104	0.041
-508.770	209.238	-0.189	-0.295
-507.756	-28.005	0.122	-0.070
-506.741	-64.699	-0.204	-0.082
-505.726	143.418	-0.022	0.030
-504.712	800.000	0.112	-0.355
-503.697	-78.771	-0.307	-0.104
-502.683	-146.276	0.063	-0.006
-501.668	308.652	-0.117	0.218
-500.653	-109.405	0.635	-0.134
-499.639	34.985	-0.123	-0.108
-498.624	800.000	0.060	0.195
-497.610	47.497	0.292	0.271
-496.595	-9.738	0.063	0.042
-495.581	-200.000	-0.068	-0.390
-494.566	142.511	-0.079	-0.105
-493.551	186.997	-0.171	0.255
-492.537	-63.006	-0.224	-0.092
-491.522	800.000	-0.031	0.112
-490.508	115.865	0.157	0.192
-489.493	54.659	-0.306	0.294
-488.478	19.849	0.167	-0.134
-487.464	-200.000	-0.006	-0.290
-486.449	70.205	-0.161	-0.165
-485.435	309.111	0.122	-0.226
-484.420	-200.000	0.046	-0.259
-483.405	361.378	-0.032	0.064
-482.391	800.000	-0.113	0.346
-481.376	800.000	0.022	-0.093
-480.362	-12.303	0.242	-0.158
-479.347	-151.013	-0.249	0.019
-478.332	-146.086	0.208	-0.018
-477.318	-82.524	0.335	-0.108
-476.303	-6.324	-0.145	-0.099
-475.289	-64.152	-0.274	-0.111
-474.274	-79.175	-0.089	0.030
-473.259	-200.000	-0.072	-0.378
-472.245	721.301	-0.180	-0.476
-471.230	-200.000	0.027	-0.124
-470.216	-200.000	0.008	0.296
-469.201	-142.228	0.106	-0.010
-468.186	-130.288	0.192	-0.026
-467.172	-112.997	-0.204	0.040
-466.157	-150.287	0.109	-0.008
-465.143	-8.004	0.091	0.061
-464.128	49.171	-0.264	0.247
-463.113	-54.650	-0.176	0.079
-462.099	703.665	-0.028	0.072
-461.084	-106.796	0.280	-0.062
-460.070	-154.304	-0.192	0.013
-459.055	-100.256	0.037	-0.009
-458.040	-199.791	-0.171	0.001
-457.026	-122.953	0.172	-0.028
-456.011	187.360	-0.107	0.159
-454.997	-50.633	-0.161	-0.075
-453.982	-200.000	-0.025	-0.184
-452.968	-39.841	-0.293	-0.152
-451.953	-159.351	0.086	-0.005
-450.938	233.919	-0.111	-0.182
-449.924	-10.428	-0.185	0.122
-448.909	-200.000	-0.002	0.114
-447.895	-200.000	0.039	0.181
-446.880	-89.500	-0.162	-0.047
-445.865	-136.398	0.106	0.012
-444.851	-200.000	-0.039	-0.178
-443.836	-120.690	0.112	-0.019
-442.822	-34.894	0.154	-0.084
-441.807	21.705	0.145	0.117
-440.792	144.707	0.206	0.274
-439.778	-114.473	-0.093	0.018
-438.763	206.499	0.066	0.102
-437.749	-14.896	-0.273	0.174
-436.734	106.729	0.128	-0.151
-435.719	-80.740	0.133	-0.044
-434.705	-117.395	-0.457	-0.082
-433.690	-0.285	0.079	0.056
-432.676	-29.662	0.168	0.095
-431.661	-143.565	-0.166	0.016
-430.646	149.805	0.337	0.454
-429.632	783.941	-0.111	0.303
-428.617	-59.578	-0.151	0.064
-427.603	-200.000	0.047	0.211
-426.588	-69.049	-0.149	-0.057
-425.573	36.583	-0.124	0.109
-424.559	800.000	0.073	-0.205
-423.544	-44.645	0.159	0.079
-422.530	-200.000	0.004	0.046
-421.515	-25.776	0.286	0.167
-420.500	-20.987	-0.265	-0.161
-419.486	89.652	-0.237	0.263
-418.471	462.612	-0.073	-0.163
-417.457	-200.000	-0.007	-0.080
-416.442	-38.434	0.148	-0.078
-415.428	-200.000	0.012	0.191
-414.413	-162.422	0.225	0.011
-413.398	127.721	-0.081	-0.103
-412.384	-7.133	0.049	0.033
-411.369	-112.380	-0.408	-0.081
-410.355	-175.273	0.066	-0.002
-409.340	-5.139	0.139	0.095
-408.325	-33.067	0.225	-0.124
-407.311	-38.033	-0.109	-0.058
-406.296	39.857	0.193	0.172
-405.282	63.765	-0.118	-0.118
-404.267	-97.383	-0.223	0.058
-403.252	3.915	0.110	0.080
-402.238	41.489	0.070	0.063
-401.223	53.847	-0.125	-0.119
-400.209	401.801	0.048	0.100
-399.194	55.159	0.086	-0.082
-398.179	-200.000	0.038	-0.257
-397.165	158.776	0.034	-0.047
-396.150	800.000	0.093	0.262
-395.136	-44.431	0.095	-0.047
-394.121	-183.937	-0.158	0.003
-393.106	382.806	0.108	0.220
-392.092	-200.000	-0.081	0.377
-391.077	137.974	0.112	-0.146
-390.063	-29.494	0.389	0.221
-389.048	69.593	-0.235	-0.241
-388.033	-97.894	0.207	0.053
-387.019	100.631	0.222	0.256
-386.004	-100.865	-0.499	-0.122
-384.990	440.290	0.083	-0.180
-383.975	-200.000	-0.017	0.085
-382.960	-40.596	-0.194	-0.100
-381.946	236.670	-0.066	-0.108
-380.931	87.659	-0.208	-0.228
-379.917	800.000	-0.063	0.264
-378.902	-200.000	0.024	0.319
-377.888	-65.709	0.137	0.055
-376.873	44.728	-0.095	0.087
-375.858	115.820	-0.202	-0.245
-374.844	17.720	0.125	-0.099
-373.829	16.500	0.177	0.139
-372.815	83.017	-0.208	0.225
-371.800	18.148	-0.108	0.086
-370.785	800.000	-0.078	-0.244
-369.771	-200.000	0.031	0.171
-368.756	800.000	0.037	0.149
-367.742	-158.526	0.249	-0.014
-366.727	-106.681	0.432	0.095
-365.712	49.190	-0.204	-0.190
-364.698	-179.670	-0.240	0.005
-363.683	144.636	0.088	0.117
-362.669	173.555	-0.139	-0.199
-361.654	-76.283	-0.375	-0.131
-360.639	413.119	0.060	0.127
-359.625	126.286	0.139	0.175
-358.610	-200.000	-0.003	0.232
-357.596	354.851	0.097	0.192
-356.581	-17.059	-0.101	-0.063
-355.566	204.632	0.098	0.151
-354.552	13.305	-0.184	-0.141
-353.537	-129.259	0.145	0.020
-352.523	-200.000	0.098	-0.593
-351.508	356.495	0.069	-0.136
-350.493	-116.888	0.107	-0.019
-349.479	-200.000	0.002	0.025
-348.464	-132.042	0.161	-0.021
-347.450	-86.435	0.518	-0.158
-346.435	-177.100	-0.244	0.006
-345.420	394.594	-0.159	-0.328
-344.406	30.880	0.110	0.094
-343.391	111.953	0.103	-0.123
-342.377	325.431	-0.110	-0.208
-341.362	-20.147	0.105	0.064
-340.348	-28.755	0.200	0.114
-339.333	-102.148	0.223	0.053
-338.318	-200.000	-0.031	0.276
-337.304	-200.000	0.008	0.281
-336.289	59.512	0.092	0.090
-335.275	-200.000	0.013	0.222
-334.260	68.757	-0.151	0.153
-333.245	-94.694	-0.052	-0.014
-332.231	-141.719	0.125	0.012
-331.216	-200.000	-0.009	0.250
-330.202	-106.280	0.446	-0.099
-329.187	-84.841	0.091	0.028
-328.172	-129.178	0.158	0.022
-327.158	357.087	-0.072	0.141
-326.143	-53.900	-0.094	-0.042
-325.129	183.805	0.092	-0.134
-324.114	-111.081	0.194	0.039
-323.099	479.478	-0.209	-0.470
-322.085	94.056	0.106	-0.119
-321.070	19.848	-0.220	0.176
-320.056	-126.235	0.248	0.037
-319.041	83.307	0.176	0.190
-318.026	448.684	0.083	-0.181
-317.012	-86.286	-0.081	0.025
-315.997	-15.271	-0.088	-0.055
-314.983	-127.412	0.325	0.047
-313.968	-73.436	-0.073	0.026
-312.953	-52.214	0.217	0.100
-311.939	-11.091	-0.345	0.225
-310.924	515.978	0.040	-0.092
-309.910	-200.000	-0.027	-0.311
-308.895	228.526	0.231	-0.372
-307.880	800.000	-0.013	0.055
-306.866	-177.177	0.354	0.009
-305.851	10.576	0.317	0.239
-304.837	457.854	0.044	-0.097
-303.822	-200.000	0.049	0.238
-302.807	112.397	0.130	-0.156
-301.793	-78.542	-0.475	0.161
-300.778	-91.998	0.143	-0.040
-299.764	22.946	-0.129	-0.105
-298.749	-36.326	-0.302	0.161
-297.735	-1.360	-0.173	0.120
-296.720	-134.551	0.510	-0.062
-295.705	-200.000	-0.008	0.330
-294.691	227.206	-0.093	-0.149
-293.676	-25.967	0.071	-0.042
-292.662	-200.000	-0.028	0.208
-291.647	-200.000	-0.017	0.151
-290.632	800.000	0.076	0.226
-289.618	-200.000	0.015	0.278
-288.603	166.817	0.207	-0.290
-287.589	15.544	-0.067	0.052
-286.574	60.743	0.094	0.092
-285.559	-20.135	0.241	-0.147
-284.545	-40.895	-0.227	-0.116
-283.530	-200.000	-0.027	-0.302
-282.516	425.993	0.080	0.170
-281.501	790.256	-0.056	-0.151
-280.486	54.163	-0.243	-0.231
-279.472	-200.000	0.035	0.516
-278.457	217.254	0.080	0.126
-277.443	575.222	-0.072	0.174
-276.428	647.638	-0.018	0.045
-275.413	42.672	0.169	-0.152
-274.399	-103.229	-0.410	0.096
-273.384	-138.798	-0.107	0.012
-272.370	394.549	0.029	0.060
-271.355	-14.974	-0.116	-0.074
-270.340	-66.496	0.102	0.040
-269.326	-200.000	-0.036	-0.170
-268.311	-80.697	-0.326	-0.107
-267.297	-200.000	-0.007	0.161
-266.282	800.000	0.079	-0.275
-265.267	-65.785	-0.185	0.073
-264.253	90.669	-0.071	0.078
-263.238	800.000	0.128	-0.358
-262.224	-200.000	-0.061	-0.325
-261.209	-60.524	-0.308	0.129
-260.195	705.073	-0.194	-0.506
-259.180	-159.974	-0.130	-0.007
-258.165	-200.000	-0.053	-0.281
-257.151	28.834	0.340	-0.284
-256.136	21.110	0.109	-0.087
-255.122	800.000	0.015	0.055
-254.107	-200.000	0.008	0.139
-253.092	4.160	0.247	0.178
-252.078	-10.131	0.220	0.144
-251.063	800.000	-0.058	0.224
-250.049	-200.000	-0.073	0.327
-249.034	124.156	-0.173	-0.214
-248.019	-71.300	0.123	-0.045
-247.005	66.249	-0.113	0.114
-245.990	-123.936	-0.375	0.058
-244.976	-0.782	-0.152	0.106
-243.961	-200.000	0.022	-0.223
-242.946	85.577	-0.122	-0.132
-241.932	95.893	0.099	0.111
-240.917	-11.852	-0.134	-0.086
-239.903	-179.066	0.390	-0.009
-238.888	-15.433	0.097	0.061
-237.873	-18.506	-0.203	0.125
-236.859	-200.000	-0.020	-0.295
-235.844	800.000	0.067	0.209
-234.830	7.197	-0.116	0.085
-233.815	-45.236	-0.094	-0.046
-232.800	-200.000	0.021	-0.232
-231.786	-69.927	0.349	0.131
-230.771	132.868	-0.024	0.030
-229.757	255.455	0.084	-0.142
-228.742	413.942	-0.127	0.267
-227.727	224.678	0.101	-0.161
-226.713	-200.000	-0.025	0.371
-225.698	-32.018	-0.237	0.131
-224.684	225.769	-0.058	0.093
-223.669	484.073	-0.158	0.355
-222.655	-127.403	-0.286	0.041
-221.640	-95.394	-0.136	-0.036
-220.625	135.775	0.110	0.141
-219.611	-200.000	-0.011	-0.155
-218.596	-200.000	0.001	-0.025
-217.582	-102.989	-0.149	0.035
-216.567	800.000	0.023	0.088
-215.552	-71.485	-0.518	-0.191
-214.538	-200.000	-0.051	0.242
-213.523	-200.000	0.001	-0.230
-212.509	-128.362	0.122	-0.017
-211.494	276.854	-0.141	0.247
-210.479	124.520	0.092	0.114
-209.465	-200.000	0.004	0.274
-208.450	-38.394	-0.257	-0.134
-207.436	48.642	-0.199	0.183
-206.421	-200.000	-0.048	0.457
-205.406	-111.979	0.266	-0.053
-204.392	-79.960	0.234	-0.077
-203.377	-82.557	0.274	0.088
-202.363	84.102	0.233	-0.251
-201.348	800.000	0.061	-0.185
-200.333	39.136	0.265	0.233
-199.319	396.333	-0.156	0.321
-198.304	-49.487	-0.195	0.091
-197.290	8.397	0.132	0.098
-196.275	800.000	0.021	0.070
-195.260	581.939	0.122	0.294
-194.246	353.922	0.025	0.049
-193.231	142.388	0.066	0.087
-192.217	800.000	0.052	-0.193
-191.202	-68.125	-0.191	0.073
-190.187	371.471	0.095	0.189
-189.173	376.246	-0.177	-0.356
-188.158	-91.694	0.259	-0.072
-187.144	800.000	0.011	0.040
-186.129	-200.000	0.017	0.091
-185.114	-200.000	0.033	-0.180
-184.100	-79.692	-0.211	0.070
-183.085	-22.014	0.232	-0.139
-182.071	646.432	-0.004	-0.010
-181.056	-200.000	0.008	-0.084
-180.042	-78.990	0.095	0.032
-179.027	591.942	-0.024	-0.059
-178.012	-175.926	0.135	0.004
-176.998	-121.829	-0.204	0.033
-175.983	800.000	0.050	-0.139
-174.969	570.853	-0.043	0.103
-173.954	-147.049	-0.232	0.020
-172.939	93.244	-0.345	-0.384
-171.925	162.577	0.040	0.055
-170.910	-51.543	-0.114	-0.053
-169.896	188.138	-0.038	-0.057
-168.881	483.461	-0.151	0.338
-167.866	-85.217	-0.086	0.026
-166.852	156.082	0.013	-0.017
-165.837	50.189	-0.134	-0.124
-164.823	-78.910	0.243	0.081
-163.808	97.132	0.266	0.300
-162.793	94.194	-0.222	0.247
-161.779	156.978	-0.002	-0.003
-160.764	800.000	0.043	0.157
-159.750	800.000	-0.041	0.176
-158.735	800.000	0.027	-0.084
-157.720	-16.309	0.211	0.132
-156.706	800.000	0.029	-0.107
-155.691	2.959	0.076	-0.055
-154.677	116.237	-0.189	0.228
-153.662	-98.409	0.262	-0.066
-152.647	-82.028	-0.104	-0.033
-151.633	-45.005	0.161	-0.079
-150.618	-142.800	0.329	-0.031
-149.604	-118.164	-0.210	-0.037
-148.589	-51.225	0.086	-0.040
-147.574	-76.285	-0.269	-0.093
-146.560	9.928	-0.083	0.062
-145.545	80.692	0.228	0.241
-144.531	454.423	-0.030	0.066
-143.516	365.938	0.024	-0.047
-142.502	236.624	-0.135	0.219
-141.487	-86.585	0.073	0.022
-140.472	50.715	0.221	0.205
-139.458	-158.016	-0.166	0.010
-138.443	477.581	0.117	0.260
-137.429	709.788	0.095	0.248
-136.414	-65.766	0.166	0.065
-135.399	239.555	0.036	0.059
-134.385	-71.952	0.007	0.003
-133.370	-5.113	-0.129	-0.087
-132.356	-27.276	0.157	0.090
-131.341	800.000	0.126	-0.379
-130.326	472.158	0.109	-0.240
-129.312	-63.216	0.152	0.062
-128.297	800.000	-0.102	-0.385
-127.283	151.591	0.112	-0.150
-126.268	-132.497	-0.170	-0.022
-125.253	242.073	-0.158	-0.260
-124.239	13.180	0.202	-0.154
-123.224	66.204	-0.121	0.120
-122.210	10.989	-0.303	0.227
-121.195	197.064	0.125	0.188
-120.180	622.597	0.037	-0.092
