DTS Sentinel unit serial number:	SN413079Multiplexer serial number:	ORYXHardware model number:	OX4-SRSoftware version number:	ORYX F/W v4.00 Oryx Data Collector v3.7.2.0data status	okinstallation	princeton_trtdifferential loss correction	single-endedforward channel	channel 2reverse channel	N/Adate	2019/09/16time	04:11:35forward acquisition time	60.00reverse acquisition time	0.00gamma	496.2192k internal	0.2335k external	0.2335temperature offset calibration	0.9972default loss term (dB/km)	0.3790temperature slope calibration	1.0000multiplexer offset coefficient	1.0000multiplexer slope coefficient	1.0000fibre end	0.00T internal ref (°C)	27.41T ext. ref 1 (°C)	10.76T ext. ref 2 (°C)	21.41length (m)	temperature (°C)	Stokes	anti-Stokes-747.200	-200.000	0.054	0.249
-746.185	-200.000	-0.014	-0.494
-745.171	-73.529	-0.175	-0.064
-744.156	-200.000	0.003	0.047
-743.142	-200.000	-0.000	-0.102
-742.127	-200.000	0.011	0.150
-741.112	136.220	0.011	-0.015
-740.098	-200.000	0.010	0.193
-739.083	216.666	0.213	-0.340
-738.069	-200.000	0.010	0.136
-737.054	-200.000	0.011	0.201
-736.039	2.140	-0.160	0.116
-735.025	-154.618	0.506	0.034
-734.010	-200.000	-0.024	-0.345
-732.996	-4.622	-0.290	-0.201
-731.981	-22.065	-0.418	0.255
-730.966	293.332	0.145	0.267
-729.952	142.673	-0.157	-0.209
-728.937	-200.000	-0.294	0.001
-727.923	-131.743	-0.050	0.007
-726.908	-151.312	-0.304	0.023
-725.894	214.617	0.130	-0.207
-724.879	480.600	0.050	0.114
-723.864	2.023	0.140	-0.101
-722.850	-200.000	-0.007	-0.090
-721.835	546.725	-0.110	-0.263
-720.821	320.773	-0.139	0.266
-719.806	-39.461	-0.182	-0.096
-718.791	113.227	-0.156	-0.190
-717.777	-72.228	-0.320	-0.119
-716.762	86.958	0.051	0.057
-715.748	20.412	-0.372	-0.302
-714.733	-32.150	0.143	-0.080
-713.718	95.653	-0.171	0.196
-712.704	-79.775	-0.120	0.041
-711.689	12.687	0.337	-0.261
-710.675	143.310	-0.090	-0.121
-709.660	70.303	0.213	0.221
-708.645	37.490	-0.222	-0.197
-707.631	116.246	0.063	0.077
-706.616	-200.000	0.029	0.278
-705.602	800.000	-0.047	0.165
-704.587	138.190	-0.096	0.127
-703.572	-33.858	-0.156	0.086
-702.558	-135.549	0.377	-0.045
-701.543	592.003	0.041	-0.102
-700.529	155.769	-0.158	0.218
-699.514	497.954	-0.098	-0.227
-698.499	108.284	0.086	0.103
-697.485	-200.000	-0.078	0.454
-696.470	800.000	0.045	0.156
-695.456	-123.696	-0.371	-0.059
-694.441	-200.000	0.001	0.162
-693.426	-64.434	-0.271	-0.111
-692.412	432.126	-0.098	-0.213
-691.397	-90.033	-0.233	0.068
-690.383	-32.235	-0.241	0.135
-689.368	-200.000	-0.038	-0.266
-688.354	-115.340	-0.258	-0.049
-687.339	98.032	0.071	-0.082
-686.324	-60.834	0.323	0.137
-685.310	-50.415	0.305	-0.145
-684.295	-20.254	0.170	-0.105
-683.281	800.000	-0.112	-0.328
-682.266	136.051	-0.100	-0.131
-681.251	800.000	-0.113	-0.364
-680.237	799.917	0.051	-0.141
-679.222	625.075	-0.020	-0.050
-678.208	-28.293	-0.045	-0.026
-677.193	800.000	-0.076	-0.257
-676.178	-200.000	0.010	0.053
-675.164	-200.000	-0.008	-0.128
-674.149	-200.000	0.012	-0.294
-673.135	-200.000	0.010	0.135
-672.120	-104.980	-0.085	0.019
-671.105	800.000	-0.102	-0.293
-670.091	-82.990	-0.148	0.048
-669.076	-200.000	-0.012	0.176
-668.062	32.913	0.340	0.295
-667.047	-1.307	-0.115	-0.081
-666.032	-200.000	-0.031	-0.165
-665.018	800.000	-0.064	-0.232
-664.003	-15.763	-0.189	0.121
-662.989	-200.000	0.006	0.208
-661.974	-80.139	-0.244	0.082
-660.959	-200.000	-0.027	0.187
-659.945	-91.250	-0.079	-0.023
-658.930	50.743	-0.228	-0.216
-657.916	23.249	0.203	0.167
-656.901	54.404	-0.298	0.287
-655.886	-200.000	0.004	0.029
-654.872	270.057	-0.168	0.295
-653.857	-200.000	-0.014	-0.079
-652.843	-200.000	0.003	-0.199
-651.828	188.432	-0.137	-0.205
-650.814	-111.691	-0.124	0.025
-649.799	-166.938	0.262	-0.011
-648.784	-200.000	0.054	-0.367
-647.770	-58.516	-0.067	-0.029
-646.755	91.488	-0.105	-0.118
-645.741	313.748	0.079	-0.148
-644.726	-121.287	-0.090	0.015
-643.711	-60.191	0.127	0.054
-642.697	-41.768	0.208	-0.107
-641.682	-80.429	-0.123	-0.041
-640.668	118.169	0.147	-0.181
-639.653	-200.000	0.036	0.346
-638.638	664.110	-0.114	0.294
-637.624	-82.139	-0.137	-0.045
-636.609	47.479	0.201	0.188
-635.595	61.983	0.296	0.295
-634.580	-200.000	-0.006	0.118
-633.565	-200.000	-0.006	0.258
-632.551	75.821	0.061	0.065
-631.536	-76.337	0.236	-0.083
-630.522	-11.546	-0.222	-0.146
-629.507	-200.000	0.031	0.160
-628.492	-136.419	0.067	0.008
-627.478	88.149	-0.169	-0.188
-626.463	-12.203	-0.341	-0.223
-625.449	53.397	-0.165	0.158
-624.434	-30.473	-0.180	-0.102
-623.419	-92.310	-0.096	0.027
-622.405	27.407	-0.373	0.314
-621.390	74.473	0.138	-0.146
-620.376	-200.000	0.021	-0.214
-619.361	-81.237	-0.062	0.020
-618.346	-170.981	0.227	0.008
-617.332	208.472	-0.077	-0.120
-616.317	521.276	0.068	-0.159
-615.303	151.302	-0.093	0.126
-614.288	-149.175	0.218	-0.017
-613.273	162.392	0.188	-0.264
-612.259	-28.298	0.124	-0.072
-611.244	242.217	-0.151	-0.252
-610.230	196.440	0.282	0.429
-609.215	141.842	0.126	0.167
-608.201	-171.544	0.353	-0.012
-607.186	-200.000	-0.008	0.332
-606.171	128.033	-0.192	0.244
-605.157	-80.180	0.230	-0.077
-604.142	-200.000	0.084	0.376
-603.128	-200.000	-0.031	-0.245
-602.113	-200.000	-0.014	-0.185
-601.098	-68.565	0.228	-0.088
-600.084	11.968	-0.156	0.120
-599.069	249.311	0.200	0.338
-598.055	114.184	0.214	0.260
-597.040	221.625	-0.151	-0.242
-596.025	-74.643	-0.232	0.083
-595.011	-144.336	0.033	-0.003
-593.996	-200.000	-0.016	0.080
-592.982	-200.000	-0.022	0.276
-591.967	-64.770	-0.072	0.029
-590.952	-109.297	0.391	-0.083
-589.938	-137.157	-0.150	-0.017
-588.923	-200.000	0.004	0.192
-587.909	118.539	-0.214	-0.264
-586.894	120.306	-0.027	-0.033
-585.879	-200.000	0.002	0.233
-584.865	-109.701	-0.271	0.057
-583.850	259.058	-0.171	-0.295
-582.836	724.397	0.067	-0.179
-581.821	-108.562	-0.081	-0.017
-580.806	800.000	-0.083	-0.247
-579.792	250.245	-0.073	-0.125
-578.777	800.000	0.067	-0.229
-577.763	-17.310	-0.522	0.328
-576.748	98.535	-0.204	-0.235
-575.733	-200.000	0.021	-0.120
-574.719	66.498	0.230	-0.234
-573.704	96.500	-0.089	-0.102
-572.690	-200.000	0.023	-0.343
-571.675	2.582	-0.129	0.093
-570.661	-80.090	0.252	0.084
-569.646	-200.000	-0.010	0.299
-568.631	800.000	-0.073	0.305
-567.617	-84.287	-0.313	-0.099
-566.602	-78.823	0.125	0.043
-565.588	-116.898	0.179	-0.033
-564.573	-97.574	0.115	0.030
-563.558	-136.716	-0.083	0.010
-562.544	659.549	0.082	0.210
-561.529	107.422	0.131	-0.156
-560.515	-200.000	-0.003	-0.101
-559.500	-8.057	0.159	-0.107
-558.485	-21.178	-0.229	-0.139
-557.471	130.702	0.217	0.277
-556.456	-200.000	0.029	-0.293
-555.442	508.018	-0.024	-0.056
-554.427	54.411	0.250	0.241
-553.412	-34.751	-0.246	0.134
-552.398	-132.718	-0.347	-0.044
-551.383	62.208	0.227	-0.226
-550.369	-77.403	-0.292	-0.101
-549.354	-56.857	0.165	0.073
-548.339	81.114	0.089	-0.095
-547.325	-138.477	-0.092	0.010
-546.310	98.051	0.111	-0.128
-545.296	-63.380	-0.247	0.101
-544.281	644.682	-0.099	0.252
-543.266	-89.791	0.250	-0.073
-542.252	-117.510	0.484	-0.087
-541.237	235.466	-0.061	-0.100
-540.223	92.507	-0.097	-0.109
-539.208	-50.861	0.089	-0.042
-538.193	-83.999	-0.240	0.076
-537.179	-200.000	0.000	0.111
-536.164	64.232	0.163	0.163
-535.150	40.706	0.112	-0.101
-534.135	-200.000	-0.006	0.216
-533.121	-42.772	0.233	0.118
-532.106	-117.464	0.372	0.067
-531.091	354.074	0.192	0.380
-530.077	800.000	-0.115	-0.321
-529.062	74.673	0.056	-0.059
-528.048	26.343	0.197	-0.164
-527.033	-115.726	-0.345	-0.064
-526.018	145.069	0.214	0.285
-525.004	6.219	-0.200	0.147
-523.989	-109.696	-0.199	-0.042
-522.975	-60.685	-0.119	0.050
-521.960	-200.000	-0.004	-0.101
-520.945	-200.000	0.043	0.228
-519.931	-158.145	-0.103	0.006
-518.916	-128.707	0.365	0.051
-517.902	-184.733	-0.192	-0.003
-516.887	800.000	0.094	-0.261
-515.872	-142.854	0.332	-0.032
-514.858	579.948	0.053	-0.130
-513.843	-37.558	0.217	-0.115
-512.829	-200.000	0.052	0.282
-511.814	223.494	-0.073	-0.117
-510.799	-150.281	-0.162	-0.012
-509.785	-200.000	-0.014	0.167
-508.770	181.010	0.118	0.173
-507.756	-105.928	-0.217	-0.049
-506.741	800.000	0.146	0.435
-505.726	-193.120	-0.459	0.004
-504.712	55.535	-0.195	-0.188
-503.697	800.000	-0.039	0.113
-502.683	-137.468	0.104	-0.012
-501.668	-177.280	0.243	0.006
-500.653	41.913	-0.452	0.408
-499.639	330.488	0.024	0.045
-498.624	316.871	0.378	-0.710
-497.610	-200.000	-0.002	-0.341
-496.595	800.000	0.033	-0.133
-495.581	79.989	-0.112	-0.119
-494.566	729.548	0.150	-0.399
-493.551	23.271	-0.100	-0.081
-492.537	-116.460	0.179	0.033
-491.522	-144.958	0.220	-0.020
-490.508	-90.421	0.142	0.041
-489.493	335.061	0.082	-0.158
-488.478	63.349	0.041	-0.041
-487.464	-60.808	0.354	0.149
-486.449	166.353	0.110	0.155
-485.435	-100.613	-0.370	-0.091
-484.420	800.000	0.060	-0.210
-483.405	-71.115	-0.172	0.064
-482.391	360.857	0.061	-0.122
-481.376	-200.000	0.043	0.285
-480.362	-53.325	-0.306	-0.139
-479.347	-77.725	-0.209	-0.072
-478.332	-146.397	-0.220	0.019
-477.318	478.732	0.061	-0.138
-476.303	209.136	-0.095	0.147
-475.289	20.456	-0.236	0.190
-474.274	344.280	-0.124	0.243
-473.259	258.754	0.079	0.135
-472.245	-200.000	0.007	-0.131
-471.230	-28.977	-0.081	-0.046
-470.216	-56.434	0.277	-0.122
-469.201	-200.000	-0.008	-0.173
-468.186	800.000	0.121	-0.371
-467.172	-37.909	-0.233	-0.123
-466.157	-200.000	0.024	-0.110
-465.143	-200.000	0.050	-0.295
-464.128	-145.957	0.409	-0.036
-463.113	18.974	0.054	0.043
-462.099	-200.000	-0.067	-0.483
-461.084	78.506	0.196	0.208
-460.070	-129.346	0.046	0.006
-459.055	139.487	-0.077	0.101
-458.040	-144.240	-0.040	0.004
-457.026	-18.872	-0.173	-0.107
-456.011	-154.599	0.398	-0.026
-454.997	102.244	-0.069	-0.080
-453.982	298.492	0.059	0.108
-452.968	5.530	0.034	0.025
-451.953	-97.847	0.126	-0.032
-450.938	-70.101	0.234	0.089
-449.924	-200.000	-0.123	-0.536
-448.909	-90.664	-0.211	-0.061
-447.895	-124.584	-0.386	0.059
-446.880	349.225	-0.120	-0.234
-445.865	-136.597	0.220	0.025
-444.851	-200.000	0.004	0.244
-443.836	163.774	-0.224	0.314
-442.822	63.769	-0.111	0.110
-441.807	147.082	-0.032	0.042
-440.792	800.000	0.044	-0.161
-439.778	359.098	0.060	-0.119
-438.763	-158.279	-0.152	0.009
-437.749	-189.848	-0.332	0.004
-436.734	-200.000	0.073	0.331
-435.719	288.579	0.055	-0.099
-434.705	-6.346	0.353	-0.239
-433.690	-129.758	-0.155	-0.021
-432.676	62.410	0.258	-0.255
-431.661	-200.000	0.016	-0.138
-430.646	13.720	0.329	-0.254
-429.632	48.002	-0.226	-0.210
-428.617	-200.000	0.021	0.241
-427.603	800.000	0.067	-0.272
-426.588	-29.077	-0.286	-0.163
-425.573	800.000	0.101	0.293
-424.559	4.685	0.208	0.152
-423.544	-134.208	-0.155	0.019
-422.530	-75.457	-0.134	0.047
-421.515	210.683	-0.228	0.355
-420.500	-168.464	-0.350	-0.013
-419.486	-120.782	-0.246	0.041
-418.471	13.800	-0.042	-0.032
-417.457	-60.658	-0.103	0.043
-416.442	800.000	0.043	-0.145
-415.428	-200.000	-0.054	-0.274
-414.413	151.696	-0.155	-0.209
-413.398	-112.564	0.595	-0.118
-412.384	-104.159	0.207	0.048
-411.369	79.778	0.261	0.278
-410.355	227.230	-0.096	-0.154
-409.340	-111.508	-0.165	-0.033
-408.325	-57.033	-0.212	-0.093
-407.311	101.789	0.061	-0.070
-406.296	-200.000	0.053	0.331
-405.282	90.179	0.154	0.170
-404.267	-135.191	0.140	0.017
-403.252	-30.965	-0.062	0.035
-402.238	-200.000	-0.007	-0.071
-401.223	122.457	0.085	0.106
-400.209	-200.000	0.023	0.110
-399.194	800.000	0.100	-0.370
-398.179	23.329	-0.321	0.262
-397.165	33.711	0.194	-0.167
-396.150	-43.568	0.195	-0.098
-395.136	470.431	0.094	-0.210
-394.121	-34.397	-0.276	0.150
-393.106	323.593	-0.080	0.151
-392.092	20.862	-0.256	-0.206
-391.077	800.000	-0.053	-0.230
-390.063	241.187	-0.191	0.317
-389.048	-193.037	0.231	-0.002
-388.033	771.734	-0.064	-0.172
-387.019	8.492	0.032	0.024
-386.004	-142.974	0.246	0.024
-384.990	-23.118	-0.137	0.081
-383.975	-180.772	-0.054	0.001
-382.960	203.446	0.153	-0.235
-381.946	-75.406	0.239	-0.084
-380.931	16.503	0.381	0.299
-379.917	-200.000	-0.011	0.179
-378.902	-72.064	-0.191	-0.070
-377.888	-16.444	-0.160	0.101
-376.873	289.240	0.153	-0.276
-375.858	137.769	0.176	-0.228
-374.844	800.000	0.018	0.056
-373.829	-24.192	0.131	0.077
-372.815	310.347	-0.095	0.176
-371.800	-38.074	0.113	0.059
-370.785	-113.862	0.211	-0.041
-369.771	328.255	0.063	-0.120
-368.756	-151.922	0.135	-0.010
-367.742	239.022	-0.104	0.172
-366.727	-25.327	-0.225	-0.132
-365.712	-60.436	-0.122	-0.051
-364.698	-16.836	0.125	0.078
-363.683	800.000	0.070	0.221
-362.669	800.000	-0.113	-0.335
-361.654	-200.000	-0.047	0.294
-360.639	-58.740	-0.289	0.124
-359.625	17.892	0.115	0.091
-358.610	22.140	-0.144	-0.116
-357.596	470.586	0.018	0.039
-356.581	-44.426	0.173	-0.086
-355.566	-45.167	-0.204	0.100
-354.552	-56.282	0.457	0.201
-353.537	-34.665	-0.269	-0.146
-352.523	-105.472	-0.214	-0.048
-351.508	16.526	-0.125	-0.098
-350.493	800.000	-0.030	0.090
-349.479	-148.694	0.303	0.024
-348.464	800.000	-0.061	0.175
-347.450	-128.533	0.028	-0.004
-346.435	421.709	-0.122	0.258
-345.420	-114.824	0.157	-0.030
-344.406	-30.622	-0.175	0.098
-343.391	154.830	-0.181	0.246
-342.377	285.534	-0.066	-0.118
-341.362	449.656	-0.066	-0.145
-340.348	-200.000	0.020	-0.285
-339.333	-10.119	0.192	-0.126
-338.318	-116.971	-0.506	0.092
-337.304	-187.503	0.117	0.002
-336.289	-69.700	0.238	0.090
-335.275	-200.000	0.022	0.348
-334.260	-113.463	-0.106	-0.020
-333.245	408.850	0.110	0.230
-332.231	169.410	0.085	-0.120
-331.216	137.925	-0.090	-0.117
-330.202	95.607	0.243	0.274
-329.187	257.070	-0.142	-0.241
-328.172	-200.000	0.010	-0.066
-327.158	66.223	-0.257	-0.258
-326.143	-105.192	0.397	-0.090
-325.129	232.447	0.133	-0.216
-324.114	-200.000	-0.004	-0.321
-323.099	74.830	-0.220	0.229
-322.085	-35.434	0.115	-0.062
-321.070	85.663	-0.250	-0.272
-320.056	10.521	-0.102	0.077
-319.041	285.086	-0.112	-0.200
-318.026	-63.445	-0.190	-0.077
-317.012	42.951	0.142	-0.128
-315.997	-94.438	-0.153	0.041
-314.983	230.412	-0.214	-0.346
-313.968	-200.000	-0.001	0.182
-312.953	28.084	-0.118	0.099
-311.939	58.681	-0.266	0.259
-310.924	-12.710	0.172	-0.111
-309.910	800.000	-0.071	-0.280
-308.895	800.000	-0.030	0.089
-307.880	24.325	-0.075	0.061
-306.866	774.784	0.142	-0.382
-305.851	-200.000	-0.029	-0.459
-304.837	86.078	0.171	0.186
-303.822	-200.000	0.008	-0.193
-302.807	800.000	0.084	0.243
-301.793	-54.128	-0.259	0.116
-300.778	-70.806	-0.190	-0.071
-299.764	800.000	-0.058	-0.199
-298.749	227.394	-0.051	0.083
-297.735	352.572	0.202	0.396
-296.720	596.454	0.106	-0.260
-295.705	800.000	-0.056	0.218
-294.691	180.274	-0.147	0.212
-293.676	0.433	-0.080	0.057
-292.662	800.000	0.077	-0.260
-291.647	-70.838	-0.272	-0.101
-290.632	-166.340	0.069	0.003
-289.618	-115.407	0.076	-0.014
-288.603	-200.000	-0.124	0.001
-287.589	-135.366	0.153	-0.018
-286.574	-20.047	0.335	0.204
-285.559	2.163	-0.182	0.129
-284.545	597.015	0.146	-0.357
-283.530	-158.744	0.090	0.005
-282.516	-28.900	-0.147	0.083
-281.501	438.006	-0.109	0.234
-280.486	800.000	0.043	0.133
-279.472	-200.000	-0.022	0.111
-278.457	800.000	-0.049	0.184
-277.443	388.076	-0.066	0.134
-276.428	-200.000	-0.000	0.235
-275.413	55.578	-0.201	-0.192
-274.399	-100.332	-0.280	0.068
-273.384	-52.048	-0.117	0.054
-272.370	-73.059	-0.268	0.097
-271.355	762.811	0.098	0.261
-270.340	-168.708	0.137	-0.005
-269.326	179.362	-0.060	-0.087
-268.311	128.369	0.230	0.289
-267.297	-88.941	0.117	-0.034
-266.282	-12.496	-0.335	-0.216
-265.267	-16.479	0.204	-0.128
-264.253	-150.464	0.403	-0.030
-263.238	-157.314	-0.050	0.003
-262.224	-36.205	0.075	-0.040
-261.209	-146.907	-0.197	-0.017
-260.195	-126.313	0.078	0.011
-259.180	-200.000	-0.025	-0.393
-258.165	-71.630	-0.298	-0.110
-257.151	81.797	0.083	0.089
-256.136	69.764	0.216	0.220
-255.122	-72.309	0.195	0.071
-254.107	-86.249	0.191	-0.058
-253.092	-176.454	-0.342	-0.009
-252.078	-200.000	0.009	0.129
-251.063	-200.000	0.051	-0.253
-250.049	-97.974	-0.307	0.078
-249.034	-200.000	0.036	0.220
-248.019	26.489	-0.097	0.080
-247.005	50.912	-0.173	0.162
-245.990	3.412	-0.062	-0.045
-244.976	-128.822	0.349	-0.048
-243.961	-200.000	0.041	0.210
-242.946	-52.313	0.075	0.034
-241.932	800.000	0.024	0.080
-240.917	46.363	-0.233	0.213
-239.903	77.098	0.145	-0.152
-238.888	2.056	0.126	-0.089
-237.873	7.150	0.330	-0.243
-236.859	46.920	0.305	0.279
-235.844	-62.867	0.302	0.123
-234.830	296.737	-0.090	0.163
-233.815	3.632	-0.231	0.166
-232.800	606.008	-0.060	0.147
-231.786	-32.764	-0.065	-0.036
-230.771	-62.931	0.188	0.077
-229.757	-200.000	-0.040	0.258
-228.742	-55.598	-0.179	-0.079
-227.727	343.744	-0.070	0.135
-226.713	-65.855	-0.265	0.104
-225.698	-19.912	-0.150	-0.091
-224.684	-11.804	0.131	0.085
-223.669	-196.411	0.075	0.001
-222.655	-191.703	0.474	0.005
-221.640	800.000	0.030	0.104
-220.625	-110.769	-0.245	0.050
-219.611	25.233	-0.152	0.124
-218.596	-126.357	0.079	0.012
-217.582	320.351	0.125	-0.233
-216.567	-23.726	-0.247	0.146
-215.552	-200.000	-0.030	-0.199
-214.538	-118.191	-0.013	0.002
-213.523	-115.162	-0.257	0.048
-212.509	-21.242	0.110	0.066
-211.494	800.000	0.009	0.034
-210.479	91.233	0.073	-0.080
-209.465	-37.992	0.088	0.046
-208.450	-200.000	-0.023	0.542
-207.436	53.716	0.082	0.077
-206.421	21.700	0.132	0.106
-205.406	141.282	-0.186	-0.243
-204.392	-58.976	0.185	-0.078
-203.377	38.330	-0.114	0.100
-202.363	65.589	0.253	-0.252
-201.348	13.844	-0.135	0.103
-200.333	-108.475	0.291	0.062
-199.319	-200.000	0.032	0.304
-198.304	231.926	-0.054	-0.087
-197.290	800.000	0.110	-0.411
-196.275	-116.762	0.121	0.022
-195.260	345.003	-0.062	0.120
-194.246	249.250	0.065	-0.108
-193.231	-74.098	-0.240	0.085
-192.217	800.000	0.039	-0.123
-191.202	188.398	0.148	-0.217
-190.187	-105.503	-0.262	0.058
-189.173	800.000	-0.149	0.550
-188.158	-4.862	0.187	0.127
-187.144	128.940	0.183	-0.229
-186.129	-187.905	-0.497	-0.006
-185.114	484.851	-0.026	0.057
-184.100	-86.761	-0.232	0.070
-183.085	-68.647	0.278	0.106
-182.071	800.000	0.116	-0.395
-181.056	26.754	-0.153	-0.126
-180.042	-101.347	-0.185	-0.044
-179.027	-200.000	0.021	-0.110
-178.012	800.000	-0.054	0.155
-176.998	146.164	0.186	-0.245
-175.983	0.543	0.341	-0.240
-174.969	352.665	0.020	-0.039
-173.954	800.000	0.062	0.216
-172.939	54.416	-0.238	0.225
-171.925	-136.759	0.164	0.019
-170.910	388.208	0.140	-0.284
-169.896	-31.745	-0.270	0.149
-168.881	-200.000	0.033	-0.397
-167.866	8.487	-0.137	-0.101
-166.852	372.847	-0.174	0.347
-165.837	800.000	0.065	-0.230
-164.823	-200.000	0.076	0.400
-163.808	-200.000	-0.018	-0.473
-162.793	-53.524	-0.016	-0.007
-161.779	107.621	-0.120	-0.141
-160.764	732.201	0.049	-0.129
-159.750	218.564	0.151	0.237
-158.735	-200.000	-0.135	-0.000
-157.720	800.000	-0.042	0.147
-156.706	-200.000	0.021	0.158
-155.691	103.200	0.221	0.254
-154.677	50.118	0.039	0.037
-153.662	2.928	-0.310	0.221
-152.647	-200.000	0.026	0.213
-151.633	22.025	-0.080	-0.064
-150.618	-44.232	0.217	-0.107
-149.604	-137.884	0.109	-0.012
-148.589	-200.000	0.054	-0.367
-147.574	-60.592	0.234	0.097
-146.560	-99.718	0.208	-0.051
-145.545	-200.000	-0.015	-0.109
-144.531	-59.915	0.232	0.097
-143.516	-200.000	-0.004	0.189
-142.502	-39.284	-0.151	-0.078
-141.487	-141.758	0.115	0.011
-140.472	35.504	-0.276	-0.238
-139.458	-125.435	-0.294	-0.044
-138.443	-168.728	0.105	0.004
-137.429	-81.402	0.328	-0.106
-136.414	-121.547	0.144	-0.024
-135.399	-142.849	0.174	-0.017
-134.385	-49.377	0.137	0.064
-133.370	-80.905	0.210	0.068
-132.356	-200.000	-0.097	-0.430
-131.341	40.201	-0.221	-0.195
-130.326	-200.000	-0.072	0.323
-129.312	40.586	-0.131	0.115
-128.297	258.464	0.141	0.238
-127.283	-200.000	-0.005	-0.086
-126.268	-45.649	0.374	-0.181
-125.253	110.831	-0.213	-0.252
-124.239	-21.983	-0.220	0.131
-123.224	800.000	0.056	-0.238
-122.210	800.000	-0.093	-0.338
