DTS Sentinel unit serial number:	SN413079Multiplexer serial number:	ORYXHardware model number:	OX4-SRSoftware version number:	ORYX F/W v4.00 Oryx Data Collector v3.7.2.0data status	okinstallation	princeton_trtdifferential loss correction	single-endedforward channel	channel 2reverse channel	N/Adate	2019/09/12time	18:04:49forward acquisition time	15.00reverse acquisition time	0.00gamma	496.2192k internal	0.2323k external	0.2323temperature offset calibration	1.0127default loss term (dB/km)	0.3790temperature slope calibration	1.0000multiplexer offset coefficient	1.0000multiplexer slope coefficient	1.0000fibre end	0.00T internal ref (°C)	33.75T ext. ref 1 (°C)	2.88T ext. ref 2 (°C)	28.25length (m)	temperature (°C)	Stokes	anti-Stokes-747.200	19.466	0.231	-0.187
-746.185	-200.000	0.015	-0.216
-745.171	-161.816	-1.166	0.060
-744.156	-200.000	0.030	1.081
-743.142	603.544	0.209	-0.526
-742.127	-200.000	-0.054	0.699
-741.112	29.849	-0.568	0.488
-740.098	-60.326	0.868	0.373
-739.083	-187.809	-0.172	-0.002
-738.069	799.228	-0.196	0.546
-737.054	-89.908	-0.542	-0.160
-736.039	-72.606	-0.766	-0.285
-735.025	-90.601	1.214	0.354
-734.010	-142.212	-0.854	0.085
-732.996	-25.939	-0.870	-0.517
-731.981	-102.769	0.966	-0.232
-730.966	-173.228	-0.442	-0.014
-729.952	501.341	-0.211	0.493
-728.937	800.000	-0.205	-0.833
-727.923	105.232	0.058	0.069
-726.908	5.964	0.244	0.182
-725.894	800.000	0.078	-0.317
-724.879	51.709	0.302	-0.290
-723.864	800.000	-0.215	-0.816
-722.850	-42.357	0.337	-0.173
-721.835	113.200	-0.616	0.754
-720.821	48.695	-0.445	0.421
-719.806	67.872	0.177	0.183
-718.791	800.000	0.334	-0.991
-717.777	-179.646	0.750	-0.016
-716.762	91.770	-0.077	0.087
-715.748	-113.789	0.764	0.150
-714.733	800.000	-0.124	0.490
-713.718	142.121	0.653	-0.874
-712.704	-200.000	0.136	0.664
-711.689	41.037	-0.350	0.319
-710.675	410.305	-0.422	-0.902
-709.660	-184.483	0.315	0.005
-708.645	97.319	0.294	-0.341
-707.631	-89.807	0.468	0.138
-706.616	800.000	0.106	-0.350
-705.602	223.066	0.351	-0.570
-704.587	278.423	-0.282	0.506
-703.572	-92.431	0.574	-0.163
-702.558	-178.516	-0.264	-0.006
-701.543	161.881	-0.188	0.265
-700.529	-200.000	-0.208	0.001
-699.514	-31.883	0.167	0.094
-698.499	-133.473	0.582	0.074
-697.485	-51.122	0.197	0.093
-696.470	800.000	-0.096	-0.316
-695.456	-200.000	-0.022	0.369
-694.441	-200.000	0.139	0.754
-693.426	-66.537	-0.723	0.289
-692.412	-200.000	-0.024	-0.219
-691.397	427.927	-0.241	-0.523
-690.383	138.987	0.223	0.296
-689.368	-200.000	-0.033	0.392
-688.354	-200.000	0.014	-0.583
-687.339	394.962	-0.090	-0.190
-686.324	360.686	-0.344	0.695
-685.310	-200.000	-0.055	0.585
-684.295	-165.800	0.194	0.008
-683.281	-32.804	-0.856	0.480
-682.266	-161.400	0.459	0.024
-681.251	800.000	0.253	0.867
-680.237	178.675	-0.471	-0.693
-679.222	-200.000	0.044	0.266
-678.208	497.495	0.383	0.888
-677.193	335.030	-0.457	-0.891
-676.178	-35.992	-0.533	-0.290
-675.164	154.889	0.225	0.311
-674.149	102.472	0.525	0.618
-673.135	-32.229	0.390	0.220
-672.120	800.000	-0.118	0.375
-671.105	-77.731	-0.222	-0.077
-670.091	-38.517	0.833	-0.443
-669.076	-52.221	0.611	0.285
-668.062	70.297	0.039	0.041
-667.047	-76.077	0.578	0.206
-666.032	-106.424	0.230	-0.052
-665.018	800.000	-0.192	0.714
-664.003	-200.000	0.085	0.771
-662.989	8.161	0.580	-0.438
-661.974	-77.067	0.435	0.153
-660.959	112.873	-0.343	-0.418
-659.945	-200.000	0.039	-0.455
-658.930	-107.036	0.548	0.122
-657.916	-96.601	0.861	0.228
-656.901	625.464	-0.198	-0.503
-655.886	-51.662	0.395	-0.186
-654.872	-76.316	0.690	0.245
-653.857	197.935	0.091	-0.140
-652.843	-110.520	-0.584	-0.122
-651.828	91.391	0.514	0.581
-650.814	800.000	-0.063	0.182
-649.799	-143.539	-0.492	0.047
-648.784	-200.000	-0.052	-0.405
-647.770	16.411	-0.519	-0.412
-646.755	303.480	0.523	0.974
-645.741	69.310	0.261	-0.270
-644.726	800.000	0.237	-0.713
-643.711	73.996	0.139	-0.147
-642.697	800.000	-0.078	0.333
-641.682	-35.051	-0.734	0.403
-640.668	38.513	-0.250	0.224
-639.653	-200.000	0.088	0.617
-638.638	-8.973	-0.685	-0.462
-637.624	675.110	0.271	-0.707
-636.609	236.029	-0.094	0.156
-635.595	-200.000	-0.128	0.000
-634.580	-66.304	-0.321	-0.128
-633.565	-88.959	0.580	-0.173
-632.551	-160.245	-0.463	0.025
-631.536	21.483	-0.150	0.123
-630.522	-200.000	-0.348	0.000
-629.507	-200.000	0.079	-0.482
-628.492	-36.542	1.330	-0.720
-627.478	800.000	-0.108	0.438
-626.463	-200.000	0.005	0.246
-625.449	25.172	-0.491	-0.410
-624.434	-37.964	0.240	0.128
-623.419	-90.505	-0.357	0.104
-622.405	67.215	-0.212	0.217
-621.390	-120.121	0.860	0.148
-620.376	-67.126	-0.366	-0.145
-619.361	223.096	-0.183	0.297
-618.346	3.495	-0.105	-0.077
-617.332	442.569	0.102	-0.224
-616.317	38.642	0.387	-0.347
-615.303	-153.097	0.136	-0.010
-614.288	152.918	-0.189	0.259
-613.273	-200.000	0.060	-0.692
-612.259	-27.175	-0.323	-0.189
-611.244	189.526	0.074	0.111
-610.230	-90.292	-0.669	-0.195
-609.215	60.325	-0.329	0.327
-608.201	-23.701	0.337	-0.203
-607.186	800.000	0.372	-1.208
-606.171	189.650	0.227	-0.342
-605.157	-200.000	-0.013	-0.496
-604.142	800.000	0.108	0.367
-603.128	115.543	-0.537	0.659
-602.113	169.303	-0.191	0.274
-601.098	-200.000	0.020	0.617
-600.084	-40.171	0.094	0.049
-599.069	528.236	-0.334	-0.791
-598.055	-32.690	-0.990	0.553
-597.040	119.048	-0.421	0.523
-596.025	-79.152	-1.187	-0.404
-595.011	-200.000	-0.087	0.610
-593.996	-200.000	-0.102	-0.551
-592.982	-134.124	0.671	-0.083
-591.967	-200.000	-0.110	-0.492
-590.952	-113.874	0.474	0.092
-589.938	-8.593	-0.631	0.425
-588.923	1.910	0.555	0.402
-587.909	-71.978	0.210	-0.078
-586.894	800.000	0.199	-0.588
-585.879	800.000	-0.204	-0.833
-584.865	-165.554	-0.631	0.028
-583.850	-2.167	-0.357	-0.251
-582.836	59.463	1.008	-0.997
-581.821	800.000	0.143	0.416
-580.806	398.076	-0.128	-0.269
-579.792	800.000	-0.197	-0.671
-578.777	800.000	-0.269	-0.809
-577.763	129.124	-0.264	0.338
-576.748	-200.000	-0.054	0.272
-575.733	-200.000	0.056	-0.758
-574.719	2.506	-0.653	-0.474
-573.704	-175.540	-0.534	-0.015
-572.690	-200.000	0.153	-0.855
-571.675	-92.353	-1.013	-0.286
-570.661	800.000	-0.125	0.395
-569.646	800.000	0.249	-0.995
-568.631	-4.798	0.514	0.356
-567.617	800.000	-0.294	-0.926
-566.602	-83.025	0.678	0.219
-565.588	-200.000	0.045	-0.332
-564.573	-76.106	0.709	-0.251
-563.558	145.400	-0.391	0.524
-562.544	-82.647	-0.300	-0.097
-561.529	347.464	0.471	-0.929
-560.515	-84.439	-0.659	0.209
-559.500	-200.000	-0.052	0.391
-558.485	-37.998	0.210	-0.112
-557.471	118.066	-0.523	-0.647
-556.456	-22.297	-0.259	0.157
-555.442	-146.748	0.392	0.034
-554.427	-9.733	0.533	0.356
-553.412	-75.614	0.562	-0.200
-552.398	83.602	-0.700	0.765
-551.383	-200.000	-0.036	-0.315
-550.369	-55.742	-0.240	-0.107
-549.354	-108.275	-0.535	-0.116
-548.339	-36.053	0.229	0.124
-547.325	-200.000	0.014	-0.079
-546.310	800.000	0.286	-1.122
-545.296	-79.524	-0.644	-0.218
-544.281	415.382	-0.439	0.938
-543.266	215.820	0.269	-0.427
-542.252	76.958	-0.289	0.307
-541.237	-200.000	0.040	0.239
-540.223	319.324	-0.563	-1.070
-539.208	290.876	0.161	-0.294
-538.193	-88.645	0.628	0.187
-537.179	-71.043	0.530	-0.200
-536.164	-200.000	-0.040	0.217
-535.150	418.710	-0.231	0.494
-534.135	-89.163	0.683	0.202
-533.121	765.730	0.234	-0.637
-532.106	-139.262	-0.147	0.016
-531.091	-33.133	-0.312	0.173
-530.077	28.155	0.114	0.097
-529.062	370.114	-0.203	0.412
-528.048	48.969	-0.441	0.414
-527.033	-128.533	1.356	0.192
-526.018	150.235	-0.099	-0.134
-525.004	-95.563	-0.308	0.083
-523.989	11.312	0.118	-0.091
-522.975	149.095	-0.127	-0.172
-521.960	303.234	-0.325	-0.602
-520.945	-200.000	-0.010	0.122
-519.931	-200.000	0.057	-0.303
-518.916	-31.567	0.636	0.358
-517.902	800.000	-0.190	-0.679
-516.887	69.984	-0.360	-0.371
-515.872	27.412	0.457	0.385
-514.858	-139.181	-0.969	0.105
-513.843	260.812	0.394	-0.683
-512.829	-147.810	1.235	0.103
-511.814	63.244	-0.215	-0.216
-510.799	210.523	0.102	0.160
-509.785	9.196	0.546	-0.413
-508.770	800.000	-0.156	-0.443
-507.756	311.648	0.576	1.081
-506.741	-200.000	-0.054	-0.603
-505.726	60.696	-0.331	-0.328
-504.712	31.119	-0.518	0.445
-503.697	-88.150	1.260	-0.378
-502.683	-129.178	0.292	0.041
-501.668	-20.314	0.983	0.605
-500.653	52.641	-0.467	-0.446
-499.639	800.000	0.302	1.277
-498.624	-108.375	-0.394	0.085
-497.610	96.558	0.119	-0.136
-496.595	-19.821	-0.589	-0.364
-495.581	86.107	0.106	-0.116
-494.566	78.470	0.449	0.480
-493.551	800.000	-0.203	0.672
-492.537	-37.909	0.759	0.403
-491.522	800.000	-0.174	-0.590
-490.508	113.493	-0.511	0.620
-489.493	-187.690	-0.351	0.005
-488.478	32.578	-0.173	-0.150
-487.464	-161.419	0.752	0.039
-486.449	477.258	0.279	0.632
-485.435	-132.569	0.720	0.092
-484.420	-200.000	-0.260	1.405
-483.405	-200.000	-0.071	0.406
-482.391	-19.034	0.632	0.393
-481.376	-200.000	0.172	-0.818
-480.362	0.452	0.479	0.342
-479.347	-200.000	-0.118	-0.640
-478.332	490.898	-0.080	-0.182
-477.318	-23.290	0.415	-0.250
-476.303	-169.632	0.449	0.016
-475.289	-64.571	0.418	-0.169
-474.274	-200.000	-0.176	0.943
-473.259	-38.818	-0.291	-0.154
-472.245	-200.000	0.047	-0.702
-471.230	-111.217	-0.665	-0.136
-470.216	709.749	-0.108	0.285
-469.201	800.000	-0.221	-0.854
-468.186	-200.000	-0.114	-0.560
-467.172	-87.026	-0.186	0.057
-466.157	-200.000	0.054	-0.448
-465.143	140.970	0.152	-0.200
-464.128	24.615	-0.401	-0.332
-463.113	-172.847	-0.248	-0.008
-462.099	123.185	-0.297	0.372
-461.084	49.425	-0.659	-0.620
-460.070	55.605	0.549	0.531
-459.055	-200.000	-0.037	0.266
-458.040	800.000	-0.152	-0.425
-457.026	79.776	0.455	-0.488
-456.011	-48.182	-0.295	0.142
-454.997	-55.097	-0.149	0.067
-453.982	-200.000	0.031	0.139
-452.968	-120.436	0.552	0.094
-451.953	47.862	0.384	-0.358
-450.938	108.048	-0.044	0.052
-449.924	-9.006	-0.325	-0.217
-448.909	800.000	0.196	0.803
-447.895	-14.871	-0.417	0.267
-446.880	19.781	0.284	-0.228
-445.865	224.972	-0.411	-0.664
-444.851	-200.000	0.067	0.404
-443.836	666.403	0.242	0.625
-442.822	-130.196	-0.774	0.105
-441.807	51.766	0.468	0.445
-440.792	28.432	0.194	0.164
-439.778	398.444	0.276	0.576
-438.763	244.838	0.114	-0.192
-437.749	-186.293	-0.313	-0.005
-436.734	150.878	-0.529	-0.718
-435.719	17.792	-0.285	0.226
-434.705	394.418	-0.140	-0.291
-433.690	-53.058	-1.070	-0.491
-432.676	123.586	0.193	-0.241
-431.661	-64.779	0.323	-0.130
-430.646	-2.939	-0.230	0.160
-429.632	-135.649	0.116	0.014
-428.617	-98.922	-0.644	-0.163
-427.603	339.882	0.424	0.824
-426.588	-11.070	0.588	0.387
-425.573	-200.000	0.102	-0.513
-424.559	41.371	0.301	0.272
-423.544	800.000	-0.054	0.168
-422.530	-200.000	0.156	0.787
-421.515	-200.000	0.007	0.244
-420.500	-200.000	-0.044	0.320
-419.486	800.000	0.226	0.645
-418.471	-200.000	-0.077	0.807
-417.457	239.392	-0.264	-0.438
-416.442	-2.212	-0.593	-0.415
-415.428	800.000	0.184	-0.642
-414.413	-200.000	-0.041	0.461
-413.398	-101.338	-0.734	0.179
-412.384	83.860	0.522	0.568
-411.369	-68.401	1.227	0.475
-410.355	-54.481	-0.939	-0.424
-409.340	-44.704	-0.652	-0.324
-408.325	-200.000	-0.054	-0.256
-407.311	374.749	0.087	-0.177
-406.296	800.000	-0.307	-1.127
-405.282	-200.000	-0.080	-0.664
-404.267	273.753	0.288	0.508
-403.252	86.939	-0.149	0.164
-402.238	-37.228	0.754	-0.402
-401.223	-108.645	-0.240	0.051
-400.209	-102.624	0.430	0.102
-399.194	192.081	-0.167	-0.250
-398.179	-109.215	-0.791	0.167
-397.165	-81.895	0.454	0.148
-396.150	-61.559	-0.413	-0.173
-395.136	-70.596	0.761	0.287
-394.121	239.789	0.400	-0.664
-393.106	-113.583	0.255	-0.050
-392.092	800.000	0.045	-0.134
-391.077	-81.146	0.721	-0.237
-390.063	278.828	-0.014	-0.025
-389.048	17.344	0.468	0.370
-388.033	232.911	-0.383	-0.627
-387.019	-102.640	-0.432	0.103
-386.004	-85.430	0.672	-0.209
-384.990	-200.000	0.012	0.226
-383.975	800.000	-0.101	-0.351
-382.960	800.000	-0.202	0.723
-381.946	5.796	0.337	0.248
-380.931	1.536	-0.603	0.432
-379.917	31.006	-0.713	0.608
-378.902	800.000	0.188	-0.673
-377.888	218.655	-0.322	0.511
-376.873	-23.677	0.599	0.358
-375.858	-49.583	-0.444	0.211
-374.844	61.031	-0.188	-0.185
-373.829	-200.000	-0.076	-0.549
-372.815	800.000	0.158	-0.628
-371.800	-20.229	0.187	0.115
-370.785	800.000	0.064	-0.182
-369.771	-27.496	0.840	0.486
-368.756	10.172	-0.260	-0.197
-367.742	42.884	-0.464	0.421
-366.727	-200.000	0.012	0.982
-365.712	-200.000	-0.079	0.446
-364.698	800.000	0.087	-0.347
-363.683	-16.273	0.318	0.201
-362.669	-200.000	-0.049	-0.281
-361.654	-200.000	-0.010	-0.107
-360.639	-178.941	0.393	0.009
-359.625	187.498	-0.223	-0.331
-358.610	50.770	0.220	0.207
-357.596	735.300	0.159	0.424
-356.581	213.694	0.031	0.049
-355.566	-106.668	-0.744	-0.165
-354.552	-35.302	0.265	-0.143
-353.537	800.000	0.147	-0.575
-352.523	-82.327	-0.351	-0.114
-351.508	476.131	0.072	-0.163
-350.493	45.580	0.505	-0.464
-349.479	153.645	0.651	-0.887
-348.464	262.525	-0.339	-0.585
-347.450	114.483	-0.701	0.849
-346.435	-69.169	-0.401	-0.154
-345.420	-200.000	-0.004	0.467
-344.406	335.208	-0.260	0.500
-343.391	-200.000	0.030	0.177
-342.377	-154.412	0.308	0.021
-341.362	100.007	-0.559	0.644
-340.348	337.339	0.366	-0.707
-339.333	172.651	-0.216	-0.309
-338.318	15.596	0.302	0.236
-337.304	800.000	0.144	0.565
-336.289	-85.990	-0.818	-0.251
-335.275	173.845	-0.673	-0.966
-334.260	460.983	0.230	-0.509
-333.245	236.119	0.463	0.762
-332.231	-94.721	0.650	0.175
-331.216	-55.752	1.181	0.525
-330.202	800.000	-0.055	-0.201
-329.187	-200.000	-0.089	0.556
-328.172	-200.000	0.061	0.568
-327.158	-184.212	0.566	0.009
-326.143	-63.128	-0.413	0.169
-325.129	409.279	0.156	0.327
-324.114	-70.846	-0.546	0.204
-323.099	651.211	0.035	-0.089
-322.085	64.663	-0.463	0.464
-321.070	-6.115	0.184	-0.125
-320.056	-37.179	-0.669	-0.356
-319.041	-105.068	-0.569	-0.129
-318.026	-200.000	-0.001	0.476
-317.012	248.458	-0.449	0.755
-315.997	12.798	-0.569	0.437
-314.983	185.863	0.295	0.435
-313.968	-103.116	-0.632	0.149
-312.953	800.000	-0.240	-0.773
-311.939	-86.722	-0.619	-0.188
-310.924	800.000	-0.129	0.434
-309.910	-200.000	0.144	-0.898
-308.895	-1.004	-0.158	0.111
-307.880	408.506	-0.124	0.261
-306.866	800.000	-0.077	0.260
-305.851	-200.000	0.047	-0.275
-304.837	-111.595	0.302	-0.061
-303.822	-170.535	0.436	0.015
-302.807	-200.000	-0.168	1.269
-301.793	800.000	0.118	-0.450
-300.778	82.033	0.239	-0.257
-299.764	-200.000	0.181	0.829
-298.749	8.335	-0.565	-0.422
-297.735	-90.629	-0.474	0.136
-296.720	-8.293	0.206	0.138
-295.705	-32.522	-0.460	0.254
-294.691	-200.000	0.008	0.199
-293.676	-126.199	-0.481	-0.071
-292.662	800.000	0.214	0.597
-291.647	-92.206	0.336	-0.094
-290.632	-138.324	-0.382	-0.042
-289.618	-155.690	0.865	0.055
-288.603	0.970	0.271	-0.192
-287.589	-93.677	0.462	0.126
-286.574	143.702	0.451	0.596
-285.559	-200.000	0.021	0.664
-284.545	800.000	-0.124	0.518
-283.530	307.678	0.463	0.856
-282.516	330.787	0.025	-0.049
-281.501	-200.000	-0.024	0.714
-280.486	800.000	0.202	0.567
-279.472	-105.574	0.357	0.080
-278.457	223.264	0.484	-0.774
-277.443	-200.000	0.034	-0.266
-276.428	476.621	0.202	-0.452
-275.413	339.044	0.210	-0.406
-274.399	-170.230	-0.667	0.023
-273.384	-144.089	1.035	-0.096
-272.370	508.953	-0.217	-0.501
-271.355	-200.000	-0.059	-0.511
-270.340	59.699	0.507	0.496
-269.326	-46.364	0.797	-0.388
-268.311	-48.574	0.615	0.293
-267.297	256.494	-0.157	0.266
-266.282	44.810	0.454	0.414
-265.267	-200.000	-0.143	0.787
-264.253	-46.211	-0.223	0.109
-263.238	3.149	-0.427	0.307
-262.224	790.431	-0.292	0.796
-261.209	462.549	0.249	-0.552
-260.195	-200.000	0.056	-0.256
-259.180	-200.000	-0.101	0.445
-258.165	154.205	-0.304	-0.414
-257.151	-19.494	0.583	0.358
-256.136	-30.165	-0.654	-0.368
-255.122	-84.653	0.267	-0.083
-254.107	800.000	-0.162	-0.518
-253.092	800.000	-0.346	-1.011
-252.078	-70.455	-0.110	0.041
-251.063	800.000	0.145	-0.398
-250.049	78.439	-0.528	-0.559
-249.034	-160.599	0.701	-0.037
-248.019	-200.000	0.002	-0.037
-247.005	-66.080	1.155	-0.456
-245.990	800.000	0.043	0.119
-244.976	-127.632	-0.707	-0.101
-243.961	-169.788	0.245	-0.009
-242.946	-82.332	0.895	-0.288
-241.932	-95.469	0.214	-0.057
-240.917	-71.639	0.548	-0.203
-239.903	597.374	0.125	-0.308
-238.888	-111.610	-0.959	0.193
-237.873	40.090	0.307	-0.273
-236.859	-200.000	0.046	0.310
-235.844	-200.000	-0.019	0.459
-234.830	-133.551	-0.124	-0.015
-233.815	-200.000	-0.022	0.453
-232.800	440.515	-0.151	-0.326
-231.786	-62.662	0.356	0.146
-230.771	-200.000	0.025	0.216
-229.757	14.918	-0.401	-0.311
-228.742	-200.000	0.127	-0.747
-227.727	-200.000	-0.159	0.924
-226.713	273.125	0.285	0.499
-225.698	262.968	-0.383	-0.658
-224.684	124.081	-0.328	-0.408
-223.669	-20.793	-0.815	-0.495
-222.655	800.000	-0.045	-0.174
-221.640	-22.607	0.225	0.135
-220.625	371.424	-0.572	1.148
-219.611	228.142	-0.194	0.313
-218.596	87.019	0.600	0.656
-217.582	390.851	0.460	-0.944
-216.567	800.000	0.154	-0.585
-215.552	27.754	-0.374	0.312
-214.538	712.370	0.014	-0.037
-213.523	-82.582	0.428	0.137
-212.509	30.080	-0.187	-0.158
-211.494	-64.521	-0.344	-0.138
-210.479	198.700	-0.276	0.417
-209.465	-12.260	-0.314	0.203
-208.450	165.238	-0.113	0.158
-207.436	140.239	-0.368	-0.481
-206.421	-76.535	-0.602	0.209
-205.406	-71.025	-0.661	0.246
-204.392	-66.399	0.223	0.088
-203.377	-200.000	-0.068	0.643
-202.363	-16.889	-0.278	-0.174
-201.348	-200.000	-0.056	-0.358
-200.333	-80.277	0.474	0.157
-199.319	-187.860	0.729	-0.009
-198.304	-170.958	0.547	-0.018
-197.290	800.000	0.255	0.968
-196.275	-128.604	-0.356	-0.050
-195.260	-137.730	-0.758	0.084
-194.246	-130.687	0.220	-0.029
-193.231	92.313	0.377	-0.420
-192.217	74.277	0.651	0.675
-191.202	65.829	0.408	0.408
-190.187	42.451	-0.161	-0.145
-189.173	800.000	-0.094	0.262
-188.158	800.000	-0.091	0.376
-187.144	-88.107	-0.857	-0.254
-186.129	207.806	0.531	0.819
-185.114	800.000	-0.073	-0.292
-184.100	291.964	0.327	-0.588
-183.085	800.000	-0.055	0.165
-182.071	661.452	-0.187	0.477
-181.056	-12.891	0.314	-0.202
-180.042	208.063	0.371	0.572
-179.027	-157.621	0.388	0.023
-178.012	329.169	0.067	0.127
-176.998	-127.070	-0.593	-0.086
-175.983	-36.116	-1.048	0.559
-174.969	521.103	-0.253	-0.585
-173.954	-171.105	-0.791	-0.026
-172.939	-90.245	-0.704	-0.202
-171.925	-200.000	0.108	-0.585
-170.910	254.807	0.225	0.380
-169.896	152.944	0.322	-0.434
-168.881	-200.000	0.098	-0.636
-167.866	-25.568	0.481	0.281
-166.852	-131.896	-0.503	-0.065
-165.837	65.611	0.301	0.301
-164.823	324.993	0.185	-0.350
-163.808	-167.325	0.480	-0.019
-162.793	18.423	0.174	-0.137
-161.779	-48.644	0.134	-0.063
-160.764	69.771	0.275	0.280
-159.750	-200.000	0.056	0.423
-158.735	399.538	-0.122	0.251
-157.720	-45.548	-0.248	0.121
-156.706	-178.925	0.655	-0.015
-155.691	80.188	0.326	-0.346
-154.677	-200.000	0.008	0.490
-153.662	-152.323	-0.353	-0.025
-152.647	-14.395	0.060	-0.038
-151.633	-117.003	0.770	-0.139
-150.618	15.010	-0.893	-0.690
-149.604	-1.894	0.462	-0.320
-148.589	506.488	0.272	0.623
-147.574	93.209	-0.317	0.354
-146.560	-188.774	-0.686	-0.008
-145.545	-101.157	1.229	-0.297
-144.531	6.034	0.310	-0.227
-143.516	-132.665	1.013	-0.128
-142.502	327.674	0.121	0.229
-141.487	325.169	0.226	0.427
-140.472	-73.588	0.862	0.310
-139.458	373.174	0.289	-0.579
-138.443	-200.000	0.043	-0.256
-137.429	217.136	-0.423	-0.664
-136.414	-200.000	-0.064	0.393
-135.399	-36.918	-0.562	0.297
-134.385	-81.269	0.484	0.157
-133.370	482.080	0.266	0.597
-132.356	74.988	-0.542	0.563
-131.341	-200.000	0.025	-0.260
-130.326	-8.034	-0.262	0.174
-129.312	84.501	-0.458	0.494
-128.297	-10.143	0.331	0.217
-127.283	800.000	0.009	0.032
-126.268	353.634	0.189	0.369
-125.253	30.062	-0.299	0.251
-124.239	-80.783	0.631	-0.207
-123.224	800.000	-0.112	-0.432
-122.210	87.588	0.194	0.212
-121.195	-133.472	0.371	0.046
-120.180	-87.185	-0.693	-0.208
