DTS Sentinel unit serial number:	SN413079Multiplexer serial number:	ORYXHardware model number:	OX4-SRSoftware version number:	ORYX F/W v4.00 Oryx Data Collector v3.7.2.0data status	okinstallation	princeton_trtdifferential loss correction	single-endedforward channel	channel 2reverse channel	N/Adate	2019/09/13time	10:31:35forward acquisition time	60.00reverse acquisition time	0.00gamma	496.2192k internal	0.2323k external	0.2323temperature offset calibration	1.0196default loss term (dB/km)	0.3790temperature slope calibration	1.0000multiplexer offset coefficient	1.0000multiplexer slope coefficient	1.0000fibre end	0.00T internal ref (°C)	31.17T ext. ref 1 (°C)	4.56T ext. ref 2 (°C)	28.34length (m)	temperature (°C)	Stokes	anti-Stokes-747.200	-61.465	0.223	-0.095
-746.185	206.118	-0.178	0.280
-745.171	-24.062	-0.064	-0.039
-744.156	-130.926	-0.400	-0.054
-743.142	-200.000	-0.003	-0.279
-742.127	622.099	-0.052	0.132
-741.112	197.266	-0.102	-0.157
-740.098	-200.000	-0.095	0.448
-739.083	-82.193	-0.452	0.149
-738.069	238.814	-0.073	0.123
-737.054	110.823	0.164	-0.199
-736.039	247.142	-0.181	-0.308
-735.025	-123.910	-0.192	0.031
-734.010	226.713	-0.212	-0.347
-732.996	800.000	0.057	0.218
-731.981	-167.250	0.273	0.011
-730.966	-72.290	0.111	-0.041
-729.952	800.000	-0.086	-0.257
-728.937	-91.493	-0.402	-0.116
-727.923	-17.945	-0.260	-0.164
-726.908	1.462	-0.073	0.053
-725.894	122.232	0.089	-0.113
-724.879	-95.834	-0.220	-0.059
-723.864	-77.523	0.131	-0.046
-722.850	254.241	0.060	0.103
-721.835	-200.000	-0.041	0.184
-720.821	-200.000	-0.006	-0.435
-719.806	571.432	0.018	-0.044
-718.791	-78.174	-0.311	-0.108
-717.777	268.009	-0.024	0.043
-716.762	290.869	-0.063	0.115
-715.748	-183.662	0.386	0.007
-714.733	-152.905	-0.266	0.019
-713.718	800.000	0.003	0.012
-712.704	-78.444	-0.320	-0.111
-711.689	195.218	0.126	-0.193
-710.675	416.507	-0.056	0.121
-709.660	-96.325	0.263	0.070
-708.645	-159.037	-0.252	-0.014
-707.631	43.097	0.082	-0.075
-706.616	-59.766	0.044	-0.019
-705.602	-200.000	0.027	-0.214
-704.587	65.601	0.134	-0.137
-703.572	-200.000	-0.032	0.230
-702.558	800.000	0.091	-0.284
-701.543	-200.000	-0.003	-0.074
-700.529	54.602	-0.075	0.073
-699.514	-144.402	0.255	0.024
-698.499	432.379	0.118	-0.258
-697.485	-21.490	0.219	-0.135
-696.470	800.000	0.099	-0.286
-695.456	-138.143	0.147	-0.016
-694.441	-35.799	0.084	-0.046
-693.426	800.000	0.030	0.112
-692.412	-63.206	-0.172	-0.072
-691.397	124.042	0.052	-0.066
-690.383	-18.365	-0.093	0.058
-689.368	-143.967	-0.211	0.020
-688.354	228.395	-0.096	-0.157
-687.339	-200.000	0.037	-0.316
-686.324	25.136	0.229	0.192
-685.310	-200.000	-0.002	-0.065
-684.295	-200.000	-0.026	-0.145
-683.281	800.000	0.090	0.312
-682.266	-118.426	-0.264	-0.047
-681.251	360.064	0.020	-0.041
-680.237	214.466	0.059	0.094
-679.222	13.993	0.235	0.184
-678.208	-53.448	0.168	0.077
-677.193	12.071	-0.186	-0.144
-676.178	41.186	-0.167	0.152
-675.164	144.889	0.091	-0.122
-674.149	-92.869	-0.206	0.058
-673.135	-95.536	0.208	0.056
-672.120	21.253	-0.230	0.188
-671.105	-55.657	-0.320	0.144
-670.091	70.381	0.048	-0.050
-669.076	-75.276	0.097	-0.035
-668.062	-16.699	-0.135	0.086
-667.047	372.031	0.110	0.226
-666.032	-163.825	-0.145	0.007
-665.018	-200.000	-0.004	0.096
-664.003	-200.000	0.047	0.208
-662.989	310.680	-0.187	-0.352
-661.974	-105.311	-0.098	-0.023
-660.959	-200.000	0.021	-0.094
-659.945	-86.136	-0.169	0.053
-658.930	-200.000	0.006	0.030
-657.916	800.000	0.041	-0.165
-656.901	-200.000	0.047	0.310
-655.886	268.125	-0.062	0.110
-654.872	-2.625	-0.089	0.063
-653.857	34.007	0.286	-0.251
-652.843	-200.000	-0.039	0.225
-651.828	416.375	-0.205	0.439
-650.814	71.142	-0.147	0.153
-649.799	445.738	0.119	0.264
-648.784	21.862	-0.220	0.180
-647.770	800.000	-0.078	-0.274
-646.755	-88.582	0.313	-0.094
-645.741	-200.000	0.012	-0.112
-644.726	-166.700	-0.349	0.015
-643.711	451.557	0.034	0.075
-642.697	-118.123	-0.423	-0.076
-641.682	800.000	0.184	0.532
-640.668	800.000	-0.061	-0.223
-639.653	237.549	0.101	-0.168
-638.638	-170.969	-0.286	0.010
-637.624	58.645	0.141	0.139
-636.609	-192.220	0.108	-0.001
-635.595	-92.082	-0.328	0.093
-634.580	-101.439	-0.205	0.050
-633.565	-58.583	0.156	0.068
-632.551	-200.000	-0.066	-0.539
-631.536	-200.000	-0.076	-0.350
-630.522	800.000	0.038	-0.112
-629.507	338.443	0.082	-0.161
-628.492	-85.590	-0.239	0.075
-627.478	-200.000	-0.008	0.112
-626.463	-104.483	0.337	0.078
-625.449	-200.000	-0.018	0.351
-624.434	-200.000	-0.018	-0.154
-623.419	800.000	-0.085	-0.251
-622.405	-1.108	-0.063	-0.044
-621.390	-54.177	0.068	0.031
-620.376	35.384	0.155	0.137
-619.361	-59.519	-0.167	-0.072
-618.346	190.482	0.113	-0.171
-617.332	800.000	-0.052	0.171
-616.317	-61.419	-0.126	0.053
-615.303	-89.948	0.140	-0.041
-614.288	430.012	-0.059	0.129
-613.273	-100.539	-0.326	0.081
-612.259	625.085	-0.056	-0.141
-611.244	800.000	-0.096	-0.282
-610.230	-34.592	0.159	-0.088
-609.215	54.179	0.079	0.076
-608.201	364.666	0.090	-0.181
-607.186	279.463	-0.111	-0.199
-606.171	800.000	0.064	0.193
-605.157	-200.000	0.006	0.093
-604.142	800.000	-0.033	-0.111
-603.128	56.506	0.102	-0.099
-602.113	800.000	-0.060	-0.236
-601.098	-12.771	0.275	0.180
-600.084	255.105	-0.062	-0.106
-599.069	-58.548	0.223	-0.097
-598.055	-103.006	0.331	0.079
-597.040	124.801	-0.207	-0.261
-596.025	163.020	-0.118	-0.166
-595.011	21.802	-0.121	0.099
-593.996	-200.000	-0.021	0.208
-592.982	-97.636	-0.091	0.024
-591.967	566.076	0.146	-0.356
-590.952	26.684	-0.042	-0.035
-589.938	36.527	-0.044	-0.039
-588.923	-85.470	-0.087	-0.027
-587.909	272.772	-0.212	0.375
-586.894	-70.554	0.200	-0.076
-585.879	800.000	0.054	-0.201
-584.865	628.658	-0.074	-0.189
-583.850	95.237	0.315	-0.361
-582.836	-104.749	0.010	-0.002
-581.821	568.688	0.138	0.336
-580.806	-12.748	0.308	-0.202
-579.792	13.236	0.230	-0.179
-578.777	-31.382	0.131	-0.074
-577.763	-200.000	0.029	-0.264
-576.748	-200.000	0.036	-0.233
-575.733	-200.000	0.017	-0.076
-574.719	39.847	-0.077	-0.069
-573.704	196.673	-0.012	0.018
-572.690	800.000	-0.078	-0.329
-571.675	-200.000	0.016	-0.200
-570.661	-42.640	0.161	-0.082
-569.646	-96.303	-0.279	-0.074
-568.631	-200.000	0.030	0.228
-567.617	25.343	-0.129	0.108
-566.602	800.000	0.023	-0.077
-565.588	-29.187	0.207	0.119
-564.573	-98.319	0.097	-0.025
-563.558	-54.926	0.371	-0.168
-562.544	461.151	0.053	0.119
-561.529	-200.000	-0.051	-0.326
-560.515	-200.000	0.052	-0.245
-559.500	-8.618	-0.294	-0.198
-558.485	-149.910	-0.146	-0.011
-557.471	-74.082	-0.117	0.043
-556.456	-192.350	0.410	0.004
-555.442	334.487	-0.104	0.202
-554.427	20.263	0.240	0.195
-553.412	800.000	-0.082	-0.278
-552.398	-200.000	-0.003	-0.071
-551.383	-123.437	-0.096	0.015
-550.369	156.220	0.072	-0.100
-549.354	-41.310	-0.125	-0.065
-548.339	-168.466	0.120	0.005
-547.325	0.508	0.132	0.094
-546.310	33.595	-0.271	-0.236
-545.296	-117.422	0.268	-0.049
-544.281	128.973	0.040	-0.051
-543.266	14.721	-0.226	-0.177
-542.252	-91.388	0.559	0.160
-541.237	-200.000	-0.001	0.074
-540.223	800.000	0.027	-0.095
-539.208	79.756	-0.185	-0.199
-538.193	525.414	0.153	-0.362
-537.179	-160.209	0.180	0.010
-536.164	57.627	0.084	0.082
-535.150	-200.000	-0.016	0.251
-534.135	-108.872	-0.338	-0.072
-533.121	93.719	-0.217	0.246
-532.106	51.836	-0.251	0.239
-531.091	800.000	-0.103	0.293
-530.077	-66.382	-0.143	-0.057
-529.062	-38.932	-0.089	0.047
-528.048	421.899	-0.098	0.211
-527.033	311.289	-0.053	0.100
-526.018	204.109	0.124	0.193
-525.004	-124.213	0.130	-0.020
-523.989	67.186	-0.127	0.130
-522.975	-172.763	-0.209	-0.007
-521.960	-200.000	-0.057	0.304
-520.945	501.256	-0.143	-0.331
-519.931	631.618	-0.089	-0.226
-518.916	71.189	0.148	-0.154
-517.902	97.154	0.048	-0.055
-516.887	800.000	0.059	0.183
-515.872	-70.003	0.073	-0.028
-514.858	3.529	0.133	0.097
-513.843	-200.000	-0.005	-0.175
-512.829	268.674	-0.032	-0.055
-511.814	-90.671	-0.314	-0.091
-510.799	177.832	0.112	0.164
-509.785	-200.000	-0.018	0.137
-508.770	800.000	0.022	0.080
-507.756	310.591	-0.050	0.093
-506.741	-61.882	0.309	0.129
-505.726	263.261	-0.082	0.143
-504.712	98.203	-0.226	-0.260
-503.697	-27.359	0.207	-0.120
-502.683	84.948	-0.104	-0.114
-501.668	91.942	0.011	0.012
-500.653	-71.820	-0.272	-0.101
-499.639	57.590	-0.049	-0.047
-498.624	96.052	0.219	0.250
-497.610	82.997	0.167	0.182
-496.595	190.176	0.180	-0.271
-495.581	-103.588	0.140	0.033
-494.566	419.487	0.093	0.199
-493.551	37.717	0.188	-0.167
-492.537	-128.987	0.248	-0.035
-491.522	-137.701	-0.169	0.019
-490.508	-200.000	-0.042	-0.000
-489.493	800.000	-0.044	0.142
-488.478	325.780	-0.199	-0.380
-487.464	-200.000	0.000	0.517
-486.449	-167.200	-0.139	0.006
-485.435	-142.305	-0.216	-0.021
-484.420	652.107	-0.076	-0.194
-483.405	354.120	0.175	-0.348
-482.391	30.370	-0.120	-0.102
-481.376	-57.739	0.259	-0.113
-480.362	-55.415	0.175	-0.079
-479.347	-59.842	-0.287	0.123
-478.332	53.698	0.256	-0.246
-477.318	-29.220	0.133	-0.076
-476.303	-124.065	-0.166	-0.026
-475.289	797.247	0.038	0.104
-474.274	44.849	-0.213	0.196
-473.259	-141.713	-0.288	-0.029
-472.245	800.000	-0.063	0.236
-471.230	379.624	-0.122	0.249
-470.216	506.392	-0.111	-0.257
-469.201	-200.000	0.024	-0.239
-468.186	21.094	-0.246	-0.199
-467.172	-70.970	-0.241	-0.091
-466.157	45.369	0.297	0.274
-465.143	233.923	-0.183	0.301
-464.128	264.419	-0.097	-0.168
-463.113	-200.000	0.003	0.031
-462.099	800.000	-0.007	-0.020
-461.084	-159.936	-0.212	0.012
-460.070	-112.643	-0.254	0.050
-459.055	6.823	0.163	0.121
-458.040	331.665	-0.166	-0.319
-457.026	-134.675	0.199	0.024
-456.011	-200.000	0.032	0.206
-454.997	-97.253	0.192	0.050
-453.982	-81.474	-0.253	0.083
-452.968	-183.854	-0.238	0.004
-451.953	-13.287	0.074	0.048
-450.938	-200.000	-0.009	-0.426
-449.924	800.000	0.081	-0.345
-448.909	800.000	0.059	0.239
-447.895	800.000	-0.046	-0.135
-446.880	-200.000	-0.232	-0.000
-445.865	116.575	0.212	-0.259
-444.851	-200.000	-0.037	-0.470
-443.836	-200.000	0.004	-0.036
-442.822	-200.000	0.028	0.310
-441.807	-200.000	-0.034	0.233
-440.792	75.289	-0.205	0.216
-439.778	-197.402	-0.451	-0.003
-438.763	463.634	0.054	-0.121
-437.749	711.798	-0.150	-0.397
-436.734	280.975	-0.106	-0.190
-435.719	1.858	-0.106	-0.077
-434.705	9.919	-0.308	-0.233
-433.690	-51.229	0.224	-0.105
-432.676	-112.357	-0.163	0.033
-431.661	-34.188	0.104	-0.057
-430.646	197.612	-0.160	0.244
-429.632	123.717	-0.221	0.276
-428.617	104.750	0.059	-0.070
-427.603	-67.540	-0.085	-0.033
-426.588	-200.000	0.036	0.192
-425.573	258.728	0.209	0.360
-424.559	248.383	0.067	-0.114
-423.544	-200.000	0.008	0.265
-422.530	-200.000	0.045	0.288
-421.515	446.415	-0.162	-0.354
-420.500	-91.851	-0.063	-0.018
-419.486	-200.000	-0.027	0.137
-418.471	54.856	-0.123	0.118
-417.457	-50.246	-0.053	-0.025
-416.442	23.431	-0.130	-0.106
-415.428	48.461	-0.067	0.063
-414.413	-200.000	0.016	-0.101
-413.398	58.041	0.100	-0.097
-412.384	131.085	-0.064	-0.082
-411.369	-40.797	0.331	-0.171
-410.355	-79.463	-0.245	0.083
-409.340	800.000	0.067	-0.193
-408.325	-2.032	0.116	-0.081
-407.311	800.000	-0.071	0.238
-406.296	-94.632	0.160	0.043
-405.282	5.058	-0.243	-0.178
-404.267	-134.740	-0.057	-0.007
-403.252	2.050	0.131	-0.094
-402.238	35.067	-0.363	0.317
-401.223	-101.392	0.125	0.030
-400.209	13.449	0.173	-0.134
-399.194	122.862	-0.158	-0.198
-398.179	800.000	-0.058	-0.186
-397.165	519.358	-0.216	-0.504
-396.150	-67.342	0.150	-0.059
-395.136	-56.891	-0.264	0.116
-394.121	-152.565	-0.106	-0.008
-393.106	-99.996	0.149	-0.037
-392.092	-95.578	0.236	0.063
-391.077	47.566	0.098	0.091
-390.063	8.677	0.228	0.171
-389.048	800.000	-0.088	-0.270
-388.033	27.089	-0.233	-0.195
-387.019	800.000	-0.076	0.217
-386.004	146.929	0.181	-0.242
-384.990	377.621	0.089	0.180
-383.975	452.462	0.082	-0.180
-382.960	47.351	-0.232	-0.215
-381.946	800.000	-0.018	-0.063
-380.931	-163.199	0.264	-0.013
-379.917	-12.051	-0.269	-0.175
-378.902	398.965	0.082	-0.172
-377.888	20.524	0.059	-0.047
-376.873	-200.000	0.055	0.312
-375.858	-140.160	-0.448	-0.047
-374.844	-200.000	0.041	0.209
-373.829	66.769	0.227	-0.230
-372.815	20.816	0.188	-0.152
-371.800	800.000	0.091	0.300
-370.785	9.103	-0.225	0.169
-369.771	122.187	0.192	-0.239
-368.756	-122.875	0.264	0.042
-367.742	-114.968	-0.590	-0.112
-366.727	800.000	-0.110	-0.418
-365.712	-200.000	-0.028	0.184
-364.698	314.990	0.100	0.187
-363.683	-53.185	0.173	0.079
-362.669	-23.889	0.242	0.144
-361.654	-200.000	0.026	-0.121
-360.639	44.113	-0.012	-0.011
-359.625	114.796	-0.268	0.325
-358.610	-12.062	0.114	0.074
-357.596	-23.911	-0.057	-0.034
-356.581	-24.402	-0.073	-0.043
-355.566	185.407	0.120	0.177
-354.552	-173.275	0.098	-0.003
-353.537	-23.183	0.128	0.077
-352.523	381.485	-0.140	0.286
-351.508	236.992	-0.110	0.181
-350.493	-44.104	-0.225	0.112
-349.479	-103.729	0.281	-0.065
-348.464	238.173	0.027	-0.044
-347.450	-184.491	-0.194	0.003
-346.435	451.933	-0.220	-0.484
-345.420	86.833	-0.213	-0.234
-344.406	-84.006	-0.238	-0.075
-343.391	-87.968	-0.080	0.024
-342.377	-98.295	0.463	0.118
-341.362	-120.854	-0.334	0.056
-340.348	165.749	-0.115	0.162
-339.333	-57.617	-0.152	0.066
-338.318	-200.000	-0.004	0.099
-337.304	-43.107	-0.328	-0.165
-336.289	134.472	0.036	0.047
-335.275	-200.000	-0.002	-0.144
-334.260	-200.000	-0.020	-0.157
-333.245	205.605	0.095	-0.147
-332.231	252.439	0.131	0.222
-331.216	388.515	0.048	0.099
-330.202	13.699	0.029	0.023
-329.187	-50.615	0.219	0.102
-328.172	391.048	0.195	0.402
-327.158	-97.820	0.084	0.022
-326.143	93.263	-0.184	-0.207
-325.129	-200.000	-0.047	-0.289
-324.114	386.608	-0.154	0.315
-323.099	-200.000	-0.037	0.192
-322.085	-82.265	0.129	-0.042
-321.070	-99.015	-0.107	-0.027
-320.056	-113.278	0.126	0.025
-319.041	-84.256	0.343	0.108
-318.026	-200.000	0.048	-0.328
-317.012	744.809	0.161	-0.431
-315.997	-20.191	-0.143	0.088
-314.983	-200.000	-0.006	0.224
-313.968	114.891	-0.093	0.112
-312.953	93.048	-0.302	-0.338
-311.939	-73.569	0.066	-0.024
-310.924	-0.300	0.159	-0.112
-309.910	-74.366	0.254	-0.091
-308.895	-47.181	-0.354	-0.171
-307.880	-128.017	-0.211	-0.030
-306.866	78.157	0.238	0.252
-305.851	-76.917	0.127	-0.044
-304.837	-90.174	0.334	-0.096
-303.822	78.471	-0.193	0.205
-302.807	-106.007	-0.231	0.052
-301.793	13.358	0.247	0.190
-300.778	143.127	-0.285	0.376
-299.764	-59.460	0.259	-0.110
-298.749	-90.427	0.150	0.043
-297.735	-200.000	0.056	0.381
-296.720	316.219	-0.010	-0.019
-295.705	-200.000	0.031	-0.141
-294.691	285.488	-0.160	0.287
-293.676	-189.430	0.141	-0.002
-292.662	-179.873	-0.363	0.008
-291.647	-76.587	0.216	-0.075
-290.632	-6.901	0.174	0.117
-289.618	-14.230	0.087	0.056
-288.603	-47.466	0.347	-0.168
-287.589	-149.612	0.225	0.018
-286.574	-200.000	0.014	-0.105
-285.559	-72.587	0.250	-0.092
-284.545	-70.193	-0.305	0.115
-283.530	-111.983	-0.092	0.018
-282.516	800.000	-0.103	0.394
-281.501	-111.348	-0.322	-0.065
-280.486	-92.443	0.315	0.088
-279.472	-82.993	0.297	0.095
-278.457	800.000	-0.076	0.236
-277.443	-96.076	0.128	0.034
-276.428	-200.000	0.000	-0.087
-275.413	393.330	0.192	0.396
-274.399	-18.660	0.036	0.022
-273.384	451.507	0.143	-0.314
-272.370	-14.892	-0.232	0.148
-271.355	-61.571	-0.133	-0.055
-270.340	-143.985	0.161	0.015
-269.326	-59.249	-0.147	-0.063
-268.311	-6.675	-0.184	0.124
-267.297	104.967	0.173	-0.202
-266.282	477.745	0.083	0.187
-265.267	12.392	-0.076	0.058
-264.253	-200.000	0.016	-0.510
-263.238	-167.470	-0.314	0.012
-262.224	58.296	0.235	0.228
-261.209	-144.914	-0.278	-0.025
-260.195	-200.000	-0.321	0.000
-259.180	-74.172	-0.211	0.076
-258.165	800.000	0.091	-0.261
-257.151	434.391	0.016	0.034
-256.136	-80.993	0.159	0.052
-255.122	180.268	0.106	0.154
-254.107	-200.000	0.043	-0.223
-253.092	-132.113	0.081	0.010
-252.078	-177.432	0.373	0.009
-251.063	800.000	0.077	0.333
-250.049	266.851	0.107	0.186
-249.034	70.395	-0.074	-0.076
-248.019	25.851	-0.278	0.230
-247.005	-200.000	-0.009	0.268
-245.990	-97.962	0.262	0.067
-244.976	247.051	0.063	0.106
-243.961	-200.000	-0.001	0.062
-242.946	-17.333	-0.302	-0.188
-241.932	-8.128	0.294	-0.196
-240.917	-200.000	-0.002	-0.332
-239.903	800.000	0.067	-0.229
-238.888	710.712	-0.174	0.455
-237.873	-26.610	-0.201	-0.116
-236.859	-120.377	0.121	0.020
-235.844	387.156	-0.112	0.229
-234.830	3.373	0.058	-0.042
-233.815	-159.596	0.108	0.006
-232.800	-122.883	-0.229	0.036
-231.786	380.787	-0.047	0.095
-230.771	239.165	0.031	0.050
-229.757	-57.744	0.128	0.056
-228.742	-65.067	0.163	0.065
-227.727	800.000	0.049	-0.164
-226.713	7.623	-0.108	0.080
-225.698	-39.959	0.160	0.083
-224.684	24.081	0.082	0.067
-223.669	-144.946	-0.417	0.038
-222.655	800.000	0.052	-0.150
-221.640	-121.513	0.211	-0.035
-220.625	57.323	-0.040	-0.038
-219.611	30.319	-0.151	-0.127
-218.596	-28.945	0.163	0.093
-217.582	-200.000	-0.055	0.259
-216.567	800.000	-0.022	0.093
-215.552	609.209	0.016	-0.038
-214.538	-8.073	0.185	-0.123
-213.523	379.047	-0.050	-0.101
-212.509	-173.495	-0.239	-0.007
-211.494	-23.004	0.240	-0.143
-210.479	-118.109	-0.070	0.012
-209.465	-172.254	-0.056	-0.002
-208.450	31.028	0.345	0.293
-207.436	-5.628	-0.258	-0.175
-206.421	800.000	0.066	0.248
-205.406	401.182	0.091	0.189
-204.392	-200.000	0.072	0.362
-203.377	-94.801	-0.227	-0.061
-202.363	290.984	0.221	0.396
-201.348	163.804	-0.052	0.073
-200.333	-23.232	0.210	-0.125
-199.319	72.042	-0.106	-0.109
-198.304	-88.185	0.231	0.069
-197.290	-200.000	0.050	0.240
-196.275	-134.166	0.234	-0.028
-195.260	70.616	0.146	0.150
-194.246	205.372	-0.035	0.054
-193.231	-40.836	0.508	0.260
-192.217	0.856	0.046	0.032
-191.202	-123.833	-0.057	0.009
-190.187	208.915	-0.091	0.141
-189.173	800.000	0.107	-0.334
-188.158	-102.922	-0.432	-0.101
-187.144	-200.000	-0.021	-0.099
-186.129	-200.000	-0.015	0.420
-185.114	127.319	-0.124	0.156
-184.100	-200.000	0.038	-0.239
-183.085	-9.344	0.168	-0.111
-182.071	-200.000	0.006	0.103
-181.056	-121.471	0.201	-0.033
-180.042	-14.055	0.216	-0.138
-179.027	-200.000	0.016	-0.258
-178.012	-200.000	-0.004	-0.073
-176.998	33.965	0.187	0.161
-175.983	-115.282	-0.253	0.047
-174.969	-49.192	0.102	0.048
-173.954	157.162	-0.246	0.337
-172.939	-200.000	0.006	0.209
-171.925	800.000	0.059	-0.174
-170.910	170.282	0.029	-0.041
-169.896	307.025	-0.129	-0.237
-168.881	-200.000	-0.062	0.359
-167.866	0.189	-0.210	0.148
-166.852	800.000	0.070	-0.199
-165.837	-200.000	-0.007	0.044
-164.823	800.000	-0.084	0.259
-163.808	-46.273	0.127	0.062
-162.793	-154.377	0.239	-0.016
-161.779	-200.000	0.016	0.210
-160.764	-200.000	-0.037	-0.328
-159.750	-52.189	-0.039	0.018
-158.735	-200.000	-0.037	0.311
-157.720	-36.365	0.398	0.211
-156.706	-192.344	0.142	-0.001
-155.691	-200.000	-0.007	0.272
-154.677	14.822	0.215	-0.166
-153.662	-200.000	-0.052	0.285
-152.647	-200.000	0.014	0.105
-151.633	-96.742	0.268	0.070
-150.618	-57.294	-0.190	-0.083
-149.604	-34.375	-0.418	-0.226
-148.589	116.079	0.266	-0.321
-147.574	-200.000	0.017	-0.166
-146.560	-200.000	-0.049	-0.276
-145.545	626.188	0.075	-0.186
-144.531	673.153	0.087	-0.222
-143.516	-200.000	0.007	0.331
-142.502	-161.638	0.185	-0.009
-141.487	-98.156	-0.101	0.026
-140.472	-135.104	-0.237	0.028
-139.458	-187.636	-0.250	0.003
-138.443	800.000	-0.105	-0.326
-137.429	-78.673	0.071	-0.024
-136.414	-200.000	0.041	0.322
-135.399	800.000	-0.060	0.239
-134.385	78.676	-0.097	-0.102
-133.370	30.480	-0.274	0.231
-132.356	-200.000	0.003	-0.020
-131.341	15.593	-0.190	0.147
-130.326	-63.761	0.438	0.177
-129.312	-200.000	-0.020	0.176
-128.297	-20.920	-0.102	-0.061
-127.283	565.671	-0.136	-0.326
-126.268	340.316	0.058	-0.111
-125.253	-92.241	0.199	-0.055
-124.239	106.653	0.150	0.175
-123.224	-200.000	-0.041	0.185
-122.210	228.245	-0.117	-0.188
-121.195	-200.000	-0.027	-0.426
