DTS Sentinel unit serial number:	SN413079Multiplexer serial number:	ORYXHardware model number:	OX4-SRSoftware version number:	ORYX F/W v4.00 Oryx Data Collector v3.7.2.0data status	okinstallation	princeton_trtdifferential loss correction	single-endedforward channel	channel 2reverse channel	N/Adate	2019/09/14time	22:27:35forward acquisition time	60.00reverse acquisition time	0.00gamma	496.2192k internal	0.2323k external	0.2323temperature offset calibration	1.0065default loss term (dB/km)	0.3790temperature slope calibration	1.0000multiplexer offset coefficient	1.0000multiplexer slope coefficient	1.0000fibre end	0.00T internal ref (°C)	32.56T ext. ref 1 (°C)	4.70T ext. ref 2 (°C)	27.53length (m)	temperature (°C)	Stokes	anti-Stokes-747.200	800.000	0.053	0.205
-746.185	499.240	0.039	0.092
-745.171	287.755	-0.154	-0.281
-744.156	-15.408	-0.188	0.121
-743.142	-60.581	0.149	-0.064
-742.127	-107.811	-0.121	-0.027
-741.112	-98.861	0.165	-0.042
-740.098	341.176	-0.186	0.366
-739.083	-144.426	0.069	0.007
-738.069	-200.000	0.015	0.260
-737.054	339.870	0.148	0.292
-736.039	-149.104	-0.158	0.013
-735.025	-131.680	0.370	0.049
-734.010	-78.551	-0.201	-0.070
-732.996	-200.000	0.021	0.198
-731.981	247.550	0.051	-0.088
-730.966	-100.304	-0.176	0.044
-729.952	-137.208	0.028	0.003
-728.937	-114.532	-0.359	-0.069
-727.923	62.345	-0.021	-0.021
-726.908	-90.245	-0.371	0.109
-725.894	124.570	-0.085	0.108
-724.879	-19.461	-0.042	-0.026
-723.864	50.633	0.135	-0.129
-722.850	-146.509	0.090	-0.008
-721.835	-200.000	-0.017	0.129
-720.821	-67.866	-0.335	-0.132
-719.806	800.000	0.123	-0.527
-718.791	40.982	0.234	-0.213
-717.777	-116.551	-0.303	-0.056
-716.762	-64.525	-0.316	-0.130
-715.748	-68.046	-0.216	0.085
-714.733	-46.208	-0.153	-0.076
-713.718	49.123	0.034	0.032
-712.704	-32.964	0.150	-0.084
-711.689	800.000	0.054	-0.175
-710.675	-61.119	-0.220	0.094
-709.660	-41.932	-0.093	-0.048
-708.645	-200.000	-0.008	-0.222
-707.631	42.692	0.071	0.065
-706.616	-23.577	-0.332	0.201
-705.602	34.046	0.350	-0.308
-704.587	714.970	0.030	-0.079
-703.572	-200.000	0.031	0.226
-702.558	63.865	0.256	0.260
-701.543	-200.000	-0.019	-0.165
-700.529	84.169	0.196	-0.216
-699.514	-200.000	0.007	0.145
-698.499	-25.973	-0.232	-0.137
-697.485	107.713	0.210	-0.252
-696.470	45.753	-0.204	-0.190
-695.456	382.545	-0.077	0.160
-694.441	481.280	-0.069	0.158
-693.426	111.706	-0.207	0.251
-692.412	-153.685	0.218	-0.015
-691.397	93.482	0.151	-0.172
-690.383	68.996	0.196	0.203
-689.368	61.022	-0.147	-0.147
-688.354	324.315	0.211	-0.405
-687.339	700.677	0.069	-0.183
-686.324	-200.000	-0.008	-0.309
-685.310	240.511	-0.065	-0.109
-684.295	-200.000	0.002	-0.227
-683.281	800.000	-0.067	-0.245
-682.266	-31.306	-0.217	-0.123
-681.251	34.037	-0.129	-0.114
-680.237	-128.227	-0.203	0.029
-679.222	-98.589	0.182	0.047
-678.208	-103.932	-0.287	0.067
-677.193	800.000	-0.032	-0.096
-676.178	525.003	0.067	0.159
-675.164	-55.371	0.215	0.097
-674.149	800.000	-0.070	0.210
-673.135	-56.277	-0.083	0.037
-672.120	800.000	-0.030	-0.095
-671.105	266.828	-0.060	0.106
-670.091	88.255	0.066	-0.073
-669.076	800.000	-0.114	0.360
-668.062	-150.449	-0.119	0.009
-667.047	-200.000	-0.021	-0.184
-666.032	-28.502	-0.067	0.039
-665.018	166.201	-0.115	-0.164
-664.003	14.205	0.085	0.067
-662.989	-200.000	-0.003	-0.331
-661.974	65.962	-0.037	-0.038
-660.959	-137.453	-0.246	0.028
-659.945	190.109	0.072	0.109
-658.930	-86.766	-0.196	0.060
-657.916	800.000	0.073	-0.215
-656.901	-200.000	0.046	-0.248
-655.886	-24.003	0.299	0.180
-654.872	800.000	0.046	-0.173
-653.857	800.000	0.047	0.135
-652.843	-200.000	-0.035	-0.323
-651.828	195.614	0.139	-0.212
-650.814	-91.092	-0.235	0.068
-649.799	-20.008	0.182	0.113
-648.784	-200.000	-0.058	0.310
-647.770	304.590	-0.083	-0.156
-646.755	659.093	0.159	0.412
-645.741	800.000	-0.140	0.537
-644.726	-24.935	0.241	-0.144
-643.711	179.741	0.096	0.141
-642.697	-52.542	-0.091	-0.042
-641.682	-71.395	-0.054	0.020
-640.668	-23.347	-0.091	0.055
-639.653	28.861	0.031	0.027
-638.638	18.532	-0.097	0.078
-637.624	127.607	0.074	-0.094
-636.609	41.389	0.251	0.229
-635.595	1.243	-0.230	-0.166
-634.580	800.000	-0.060	-0.221
-633.565	94.811	-0.034	0.039
-632.551	-88.493	-0.174	0.052
-631.536	800.000	0.025	-0.109
-630.522	4.119	-0.346	-0.255
-629.507	141.765	0.025	0.033
-628.492	-106.431	0.576	0.129
-627.478	-200.000	-0.016	-0.227
-626.463	-77.867	-0.224	-0.078
-625.449	-200.000	0.026	-0.338
-624.434	218.353	0.100	0.160
-623.419	-39.787	-0.157	-0.082
-622.405	-66.857	0.304	-0.121
-621.390	-200.000	0.030	-0.132
-620.376	-47.208	0.312	-0.153
-619.361	12.009	-0.184	0.142
-618.346	-84.751	-0.203	0.064
-617.332	-128.921	-0.145	0.020
-616.317	327.194	-0.019	0.037
-615.303	-36.790	0.182	0.098
-614.288	-139.197	0.587	0.064
-613.273	146.671	0.102	0.138
-612.259	-57.692	0.037	-0.016
-611.244	5.728	-0.247	0.184
-610.230	35.929	0.300	-0.265
-609.215	-200.000	0.008	-0.082
-608.201	-35.307	-0.168	-0.092
-607.186	-20.797	-0.112	-0.069
-606.171	-61.030	0.096	-0.041
-605.157	-40.774	-0.158	0.082
-604.142	47.735	-0.250	0.234
-603.128	-36.951	0.132	-0.071
-602.113	800.000	-0.052	-0.177
-601.098	-25.853	-0.111	0.066
-600.084	-123.775	0.121	0.019
-599.069	666.438	-0.074	0.192
-598.055	-200.000	0.030	-0.317
-597.040	-12.876	-0.420	0.274
-596.025	-200.000	-0.026	-0.426
-595.011	-167.260	-0.443	-0.018
-593.996	-200.000	0.021	0.099
-592.982	84.687	0.213	-0.234
-591.967	204.399	-0.185	-0.287
-590.952	214.053	0.142	0.225
-589.938	-20.276	-0.121	0.075
-588.923	-118.506	-0.271	-0.048
-587.909	-200.000	-0.011	-0.265
-586.894	-15.821	-0.257	-0.164
-585.879	16.111	0.174	0.137
-584.865	153.159	0.107	-0.146
-583.850	166.095	-0.062	0.088
-582.836	80.806	-0.103	-0.112
-581.821	175.293	-0.175	-0.254
-580.806	-181.836	0.153	0.003
-579.792	67.414	-0.286	0.293
-578.777	6.659	-0.268	0.200
-577.763	-30.074	0.311	0.178
-576.748	547.360	0.097	0.233
-575.733	-106.031	0.110	-0.025
-574.719	316.724	-0.107	-0.203
-573.704	469.123	0.132	0.298
-572.690	309.084	-0.054	0.102
-571.675	-200.000	0.013	0.304
-570.661	-200.000	0.001	-0.024
-569.646	151.092	0.147	-0.201
-568.631	238.638	0.152	-0.253
-567.617	800.000	0.036	-0.113
-566.602	-200.000	0.003	-0.017
-565.588	8.622	-0.180	0.136
-564.573	-33.694	-0.279	0.154
-563.558	-67.328	0.403	-0.159
-562.544	190.392	0.140	0.211
-561.529	239.249	0.167	-0.279
-560.515	-200.000	0.002	0.009
-559.500	-137.487	0.039	-0.004
-558.485	-86.787	-0.096	-0.030
-557.471	-94.242	0.166	0.045
-556.456	72.660	-0.078	-0.082
-555.442	-46.516	-0.225	-0.111
-554.427	-56.551	-0.365	0.162
-553.412	-104.555	-0.206	0.048
-552.398	39.489	0.170	-0.153
-551.383	-41.414	0.370	-0.191
-550.369	-99.921	0.181	-0.045
-549.354	-69.752	0.286	-0.110
-548.339	-200.000	-0.003	0.064
-547.325	-155.672	-0.104	-0.007
-546.310	65.446	-0.126	0.128
-545.296	-200.000	0.002	0.069
-544.281	-113.387	-0.297	-0.058
-543.266	-12.511	-0.278	-0.182
-542.252	416.220	0.075	0.161
-541.237	28.542	0.265	-0.225
-540.223	23.489	-0.136	-0.112
-539.208	-155.330	0.385	0.025
-538.193	359.555	-0.057	-0.114
-537.179	-49.512	-0.244	-0.116
-536.164	-124.589	-0.139	0.022
-535.150	-105.014	0.201	0.046
-534.135	-98.700	0.117	-0.030
-533.121	-40.811	0.188	-0.097
-532.106	800.000	0.028	0.080
-531.091	-105.872	-0.173	-0.039
-530.077	67.885	-0.193	-0.198
-529.062	64.657	-0.154	0.156
-528.048	-200.000	-0.042	0.214
-527.033	-70.784	-0.219	-0.083
-526.018	800.000	-0.101	-0.323
-525.004	-50.073	0.040	0.019
-523.989	440.834	0.158	-0.345
-522.975	93.404	0.069	-0.078
-521.960	134.239	-0.109	0.142
-520.945	-170.073	0.342	0.012
-519.931	141.930	0.121	0.161
-518.916	240.602	0.084	0.140
-517.902	354.566	-0.065	-0.130
-516.887	800.000	-0.040	0.133
-515.872	98.109	0.196	-0.226
-514.858	-40.995	0.155	0.080
-513.843	115.986	-0.059	-0.073
-512.829	800.000	-0.059	-0.177
-511.814	-10.193	-0.133	-0.089
-510.799	-6.716	0.187	-0.127
-509.785	-69.361	-0.234	0.090
-508.770	-90.910	0.078	-0.022
-507.756	145.048	0.023	-0.031
-506.741	800.000	-0.071	0.216
-505.726	37.636	-0.138	0.122
-504.712	-200.000	0.031	-0.182
-503.697	200.784	0.074	-0.114
-502.683	31.693	-0.149	0.128
-501.668	-57.183	0.290	-0.128
-500.653	-2.073	-0.058	-0.041
-499.639	800.000	0.028	-0.084
-498.624	-49.975	0.133	0.063
-497.610	320.578	0.027	0.051
-496.595	800.000	-0.027	0.085
-495.581	-86.078	0.156	0.048
-494.566	-200.000	-0.024	0.230
-493.551	-200.000	0.001	-0.161
-492.537	19.972	-0.161	0.130
-491.522	555.680	0.083	0.200
-490.508	164.260	-0.086	-0.121
-489.493	-69.654	0.340	0.130
-488.478	-200.000	0.011	0.121
-487.464	-200.000	-0.001	-0.238
-486.449	-200.000	-0.035	0.241
-485.435	-200.000	0.034	-0.228
-484.420	-200.000	-0.028	0.152
-483.405	3.909	0.089	0.065
-482.391	648.166	0.128	-0.328
-481.376	109.873	-0.110	0.131
-480.362	-90.135	0.279	-0.081
-479.347	-48.332	-0.254	-0.122
-478.332	-200.000	-0.004	0.317
-477.318	-67.443	0.403	0.158
-476.303	-107.080	0.159	0.035
-475.289	-48.593	0.270	0.130
-474.274	84.407	-0.083	-0.091
-473.259	-156.178	-0.290	-0.018
-472.245	206.388	0.121	-0.188
-471.230	65.688	0.071	0.072
-470.216	634.278	0.116	-0.293
-469.201	-11.061	0.108	-0.071
-468.186	306.540	-0.065	0.121
-467.172	-88.540	-0.164	0.049
-466.157	-49.916	0.177	-0.084
-465.143	-200.000	0.014	-0.111
-464.128	39.641	-0.079	-0.071
-463.113	-132.492	0.056	0.007
-462.099	-63.782	-0.227	-0.093
-461.084	-26.020	-0.081	-0.047
-460.070	-86.199	0.044	0.014
-459.055	-200.000	0.004	0.237
-458.040	155.833	-0.107	-0.147
-457.026	58.656	0.159	-0.156
-456.011	-30.732	0.201	0.114
-454.997	225.672	-0.121	0.196
-453.982	115.122	-0.110	0.134
-452.968	-64.373	0.237	0.096
-451.953	-5.740	-0.116	0.079
-450.938	-200.000	-0.026	0.130
-449.924	-9.928	-0.100	0.066
-448.909	-92.215	-0.142	0.040
-447.895	6.092	-0.072	-0.053
-446.880	-188.289	-0.025	-0.000
-445.865	800.000	-0.060	-0.187
-444.851	100.602	-0.155	-0.179
-443.836	-113.846	0.254	0.049
-442.822	156.354	0.050	-0.069
-441.807	-98.325	0.178	0.046
-440.792	34.286	-0.090	-0.078
-439.778	-142.371	0.175	0.017
-438.763	-128.516	0.167	-0.024
-437.749	-48.658	-0.193	0.093
-436.734	-131.764	0.075	-0.010
-435.719	151.067	-0.071	-0.097
-434.705	-109.083	0.093	-0.020
-433.690	-193.225	0.117	-0.001
-432.676	-98.486	0.048	-0.012
-431.661	139.407	-0.044	0.057
-430.646	-200.000	-0.013	-0.064
-429.632	-200.000	-0.014	-0.108
-428.617	-104.431	-0.234	0.054
-427.603	800.000	-0.111	0.446
-426.588	139.237	0.020	-0.026
-425.573	131.384	-0.371	0.475
-424.559	-9.844	-0.156	-0.104
-423.544	-200.000	-0.038	-0.172
-422.530	257.187	0.067	0.115
-421.515	1.489	-0.179	0.129
-420.500	5.426	-0.202	0.149
-419.486	333.357	0.111	0.214
-418.471	-17.533	0.219	-0.137
-417.457	17.510	0.229	-0.182
-416.442	-200.000	-0.321	0.001
-415.428	304.883	0.181	-0.334
-414.413	-100.602	0.094	0.023
-413.398	800.000	0.080	0.231
-412.384	31.682	-0.078	-0.067
-411.369	608.363	-0.096	-0.239
-410.355	0.522	-0.208	-0.148
-409.340	-99.682	-0.097	-0.024
-408.325	317.297	-0.053	0.099
-407.311	540.781	-0.086	0.203
-406.296	102.542	0.167	-0.194
-405.282	-113.258	-0.507	-0.099
-404.267	-200.000	0.024	-0.118
-403.252	57.734	-0.104	-0.101
-402.238	-66.432	0.257	0.102
-401.223	-19.224	-0.111	-0.069
-400.209	-61.619	0.260	0.109
-399.194	-105.882	-0.193	0.043
-398.179	320.576	0.152	0.287
-397.165	-200.000	-0.035	-0.179
-396.150	-200.000	0.044	-0.000
-395.136	-1.136	-0.019	-0.013
-394.121	800.000	0.027	0.090
-393.106	10.006	-0.292	-0.221
-392.092	78.369	-0.019	-0.020
-391.077	-168.307	-0.267	0.010
-390.063	-200.000	-0.011	-0.348
-389.048	-43.137	0.159	-0.080
-388.033	-48.175	-0.163	0.078
-387.019	37.344	-0.112	-0.099
-386.004	-59.068	-0.221	-0.095
-384.990	161.473	-0.177	0.246
-383.975	800.000	-0.047	0.168
-382.960	-200.000	0.026	0.204
-381.946	-34.578	-0.211	0.115
-380.931	-142.545	0.156	-0.015
-379.917	-95.480	0.244	-0.065
-378.902	210.668	-0.017	0.026
-377.888	43.446	-0.115	0.105
-376.873	-39.291	-0.109	-0.057
-375.858	46.521	-0.276	0.254
-374.844	165.316	-0.063	0.088
-373.829	70.535	0.121	0.124
-372.815	-33.706	0.249	0.136
-371.800	-200.000	0.023	0.402
-370.785	383.883	0.069	0.142
-369.771	-200.000	-0.004	-0.160
-368.756	91.332	-0.159	-0.178
-367.742	61.253	0.210	0.208
-366.727	-118.985	0.346	0.060
-365.712	0.059	0.176	-0.125
-364.698	-169.335	-0.162	0.006
-363.683	302.599	-0.033	-0.061
-362.669	-200.000	-0.053	0.247
-361.654	320.400	0.165	0.312
-360.639	397.386	0.020	0.042
-359.625	28.234	0.171	0.143
-358.610	220.575	-0.119	-0.189
-357.596	185.584	-0.228	-0.337
-356.581	112.999	-0.061	-0.074
-355.566	51.268	0.246	-0.232
-354.552	-61.759	-0.199	0.083
-353.537	-141.368	-0.093	-0.009
-352.523	321.685	0.194	0.366
-351.508	800.000	0.016	0.069
-350.493	-200.000	0.067	0.403
-349.479	199.197	-0.067	-0.102
-348.464	-117.078	-0.120	0.022
-347.450	-128.259	-0.386	-0.055
-346.435	-28.762	-0.156	-0.089
-345.420	517.092	0.096	-0.224
-344.406	-200.000	-0.359	-0.002
-343.391	-34.375	0.183	-0.100
-342.377	800.000	-0.108	0.376
-341.362	768.626	-0.070	0.189
-340.348	-200.000	0.012	-0.396
-339.333	-60.147	-0.260	-0.110
-338.318	202.355	-0.173	0.265
-337.304	-133.201	0.201	0.025
-336.289	-78.149	-0.218	0.075
-335.275	-131.268	0.075	0.010
-334.260	86.191	-0.116	-0.127
-333.245	30.676	0.170	-0.145
-332.231	800.000	0.075	0.218
-331.216	217.535	0.102	-0.162
-330.202	-103.092	0.080	0.019
-329.187	-7.654	0.074	-0.050
-328.172	-200.000	-0.008	-0.098
-327.158	406.884	0.080	-0.168
-326.143	-200.000	0.025	-0.193
-325.129	17.142	0.082	0.064
-324.114	-25.856	-0.136	0.080
-323.099	800.000	-0.030	-0.119
-322.085	-200.000	0.000	0.300
-321.070	-200.000	-0.035	0.219
-320.056	715.299	0.035	0.091
-319.041	-80.033	0.178	0.059
-318.026	-200.000	-0.028	0.306
-317.012	-200.000	0.073	0.341
-315.997	-95.194	0.267	0.071
-314.983	-3.251	-0.122	0.085
-313.968	-200.000	-0.018	0.153
-312.953	28.439	-0.226	0.190
-311.939	-200.000	-0.016	0.112
-310.924	-11.774	0.320	0.209
-309.910	-6.569	-0.114	-0.077
-308.895	274.245	-0.085	-0.150
-307.880	-200.000	-0.101	-0.503
-306.866	-80.191	-0.120	0.040
-305.851	389.166	0.087	0.179
-304.837	217.964	-0.129	0.204
-303.822	363.227	-0.065	0.130
-302.807	-200.000	0.000	-0.129
-301.793	228.615	-0.098	0.158
-300.778	-30.096	0.261	0.147
-299.764	197.079	0.178	-0.269
-298.749	-200.000	0.025	-0.263
-297.735	143.117	-0.145	0.191
-296.720	-200.000	0.031	0.204
-295.705	800.000	0.051	0.166
-294.691	-200.000	0.019	0.178
-293.676	-17.194	0.063	-0.039
-292.662	330.963	-0.053	-0.102
-291.647	322.068	0.089	0.169
-290.632	35.443	-0.122	-0.106
-289.618	706.918	0.080	0.209
-288.603	134.599	0.077	-0.098
-287.589	0.982	-0.106	0.075
-286.574	-114.808	0.160	0.030
-285.559	128.899	-0.012	0.016
-284.545	45.293	0.106	-0.097
-283.530	800.000	-0.057	-0.174
-282.516	-70.321	0.212	0.080
-281.501	310.797	-0.070	0.131
-280.486	-200.000	-0.019	0.157
-279.472	-16.387	0.396	0.249
-278.457	752.228	0.032	-0.085
-277.443	304.584	-0.056	-0.104
-276.428	-83.867	0.452	0.143
-275.413	-7.566	0.095	-0.064
-274.399	37.388	0.119	0.105
-273.384	-23.089	0.079	-0.047
-272.370	299.280	-0.107	0.195
-271.355	-7.991	0.082	0.055
-270.340	-52.777	-0.184	-0.084
-269.326	-40.666	-0.231	-0.118
-268.311	-76.970	0.141	-0.049
-267.297	-24.119	-0.300	0.178
-266.282	-87.766	0.362	-0.108
-265.267	-12.804	0.151	-0.098
-264.253	-200.000	-0.041	0.253
-263.238	800.000	-0.037	0.140
-262.224	-200.000	0.015	0.077
-261.209	-141.873	0.308	-0.031
-260.195	-200.000	0.001	0.381
-259.180	-119.829	0.378	-0.064
-258.165	0.590	0.212	-0.150
-257.151	-200.000	0.006	0.299
-256.136	-52.392	-0.097	0.044
-255.122	-124.728	0.258	0.040
-254.107	65.663	-0.127	0.128
-253.092	315.890	-0.062	-0.116
-252.078	-102.521	-0.162	-0.038
-251.063	-200.000	-0.015	0.343
-250.049	-86.975	0.226	-0.068
-249.034	467.660	0.050	0.110
-248.019	-51.176	-0.302	0.140
-247.005	-68.601	-0.090	-0.035
-245.990	272.621	-0.213	-0.372
-244.976	800.000	0.093	0.270
-243.961	-106.142	0.251	-0.056
-242.946	-200.000	-0.046	-0.318
-241.932	-10.459	-0.137	-0.090
-240.917	-23.395	0.045	-0.027
-239.903	-106.907	-0.269	-0.059
-238.888	-3.615	-0.155	0.107
-237.873	321.018	-0.065	0.123
-236.859	5.675	0.235	0.172
-235.844	-24.099	-0.234	0.138
-234.830	58.109	-0.068	-0.066
-233.815	131.352	0.224	-0.285
-232.800	-200.000	0.019	-0.287
-231.786	800.000	0.070	-0.267
-230.771	76.617	-0.204	-0.214
-229.757	-157.759	0.381	-0.022
-228.742	-21.709	0.256	-0.155
-227.727	103.413	0.074	-0.086
-226.713	-30.059	-0.043	0.024
-225.698	-91.965	0.134	0.037
-224.684	-138.733	-0.052	-0.006
-223.669	786.696	0.061	-0.166
-222.655	131.121	-0.269	-0.342
-221.640	-55.060	0.244	-0.109
-220.625	486.582	-0.122	-0.275
-219.611	109.861	-0.305	-0.362
-218.596	72.172	0.158	0.163
-217.582	-114.360	0.216	0.041
-216.567	-63.915	-0.224	-0.090
-215.552	88.616	0.049	-0.054
-214.538	-21.118	-0.212	-0.129
-213.523	172.817	0.141	0.202
-212.509	800.000	-0.018	0.051
-211.494	105.111	0.196	-0.229
-210.479	-98.645	-0.255	0.064
-209.465	253.759	-0.036	-0.061
-208.450	113.921	-0.233	-0.280
-207.436	-10.103	0.260	-0.171
-206.421	800.000	0.055	-0.235
-205.406	261.905	-0.116	0.198
-204.392	249.776	-0.083	-0.138
-203.377	44.607	0.275	-0.249
-202.363	-131.953	-0.384	-0.050
-201.348	-200.000	0.010	0.256
-200.333	61.831	-0.183	-0.180
-199.319	52.059	-0.082	0.077
-198.304	21.832	0.249	-0.200
-197.290	51.225	-0.026	-0.024
-196.275	353.135	-0.056	-0.110
-195.260	-90.214	0.211	0.061
-194.246	-200.000	0.012	-0.239
-193.231	492.789	0.036	0.082
-192.217	6.238	0.269	0.197
-191.202	152.929	0.004	0.005
-190.187	-200.000	0.006	-0.046
-189.173	-106.556	0.184	0.040
-188.158	-25.168	-0.228	0.133
-187.144	-150.582	-0.320	0.024
-186.129	-91.870	0.224	0.063
-185.114	-186.191	-0.019	0.000
-184.100	-159.197	-0.080	0.004
-183.085	800.000	0.110	0.367
-182.071	-200.000	0.061	-0.391
-181.056	-92.891	-0.306	-0.084
-180.042	309.575	-0.004	0.007
-179.027	-66.192	0.198	-0.078
-178.012	-30.199	0.042	-0.024
-176.998	-200.000	-0.064	0.309
-175.983	-20.731	0.120	0.073
-174.969	-26.716	-0.235	-0.136
-173.954	95.347	-0.181	-0.204
-172.939	800.000	-0.041	-0.135
-171.925	115.870	0.183	-0.221
-170.910	-200.000	0.026	0.204
-169.896	11.997	0.168	-0.127
-168.881	-17.889	-0.070	0.043
-167.866	37.246	-0.166	0.145
-166.852	517.001	-0.064	-0.147
-165.837	-200.000	-0.012	0.114
-164.823	-119.076	-0.213	-0.037
-163.808	-34.474	0.250	-0.135
-162.793	117.810	0.262	-0.318
-161.779	-126.669	-0.360	-0.053
-160.764	-120.751	0.097	0.016
-159.750	-48.168	0.152	-0.073
-158.735	116.417	-0.103	-0.125
-157.720	-200.000	-0.001	-0.031
-156.706	-26.650	-0.087	-0.050
-155.691	-22.262	0.220	0.131
-154.677	-124.341	-0.121	0.019
-153.662	133.506	-0.088	0.113
-152.647	3.131	-0.035	0.025
-151.633	-143.294	-0.116	-0.011
-150.618	271.665	0.032	0.056
-149.604	39.542	0.110	0.097
-148.589	800.000	0.108	-0.445
-147.574	-28.626	-0.106	0.060
-146.560	-39.928	0.028	0.015
-145.545	227.643	-0.136	-0.218
-144.531	-102.886	0.299	0.070
-143.516	196.197	0.152	0.228
-142.502	228.523	-0.101	-0.162
-141.487	800.000	-0.085	-0.257
-140.472	12.527	-0.033	0.025
-139.458	-200.000	0.054	0.307
-138.443	50.027	0.154	0.143
-137.429	-101.262	-0.265	-0.064
-136.414	-193.895	0.249	0.002
-135.399	138.917	-0.061	0.079
-134.385	53.674	0.099	-0.094
-133.370	-38.764	0.088	-0.046
-132.356	-200.000	0.061	-0.276
-131.341	91.164	0.040	0.045
-130.326	32.129	0.113	0.096
-129.312	365.343	-0.171	0.339
-128.297	-87.821	-0.040	0.012
-127.283	96.260	0.113	-0.127
-126.268	-7.313	-0.151	0.101
-125.253	131.179	0.190	0.241
-124.239	-2.305	-0.178	-0.123
-123.224	-190.986	0.374	-0.004
-122.210	124.865	0.238	0.296
-121.195	-152.683	0.087	0.006
-120.180	800.000	0.021	0.067
