DTS Sentinel unit serial number:	SN413079Multiplexer serial number:	ORYXHardware model number:	OX4-SRSoftware version number:	ORYX F/W v4.00 Oryx Data Collector v3.7.2.0data status	okinstallation	princeton_trtdifferential loss correction	single-endedforward channel	channel 2reverse channel	N/Adate	2019/09/17time	12:19:34forward acquisition time	60.00reverse acquisition time	0.00gamma	496.2192k internal	0.2322k external	0.2322temperature offset calibration	0.9986default loss term (dB/km)	0.3790temperature slope calibration	1.0000multiplexer offset coefficient	1.0000multiplexer slope coefficient	1.0000fibre end	0.00T internal ref (°C)	31.56T ext. ref 1 (°C)	0.44T ext. ref 2 (°C)	28.40length (m)	temperature (°C)	Stokes	anti-Stokes-747.200	-10.889	0.274	0.183
-746.185	780.164	-0.066	0.183
-745.171	336.659	0.111	0.217
-744.156	-68.232	-0.422	0.166
-743.142	0.563	-0.100	0.072
-742.127	-16.956	-0.195	0.124
-741.112	187.006	0.155	0.233
-740.098	-200.000	-0.032	0.483
-739.083	240.001	0.207	0.348
-738.069	452.503	0.213	0.476
-737.054	-152.321	0.127	0.009
-736.039	55.266	-0.139	-0.136
-735.025	132.421	0.217	0.283
-734.010	42.420	-0.134	-0.123
-732.996	-100.332	-0.236	0.059
-731.981	120.455	0.057	-0.071
-730.966	427.032	0.231	0.502
-729.952	-200.000	-0.002	-0.232
-728.937	-200.000	-0.001	-0.153
-727.923	800.000	-0.070	-0.209
-726.908	271.909	0.156	0.277
-725.894	-200.000	-0.005	0.041
-724.879	-91.196	0.342	-0.099
-723.864	-200.000	0.045	-0.209
-722.850	-58.415	-0.050	-0.022
-721.835	-200.000	-0.079	0.408
-720.821	-200.000	-0.001	-0.228
-719.806	-110.264	0.271	0.057
-718.791	49.491	-0.195	-0.185
-717.777	622.662	0.023	0.059
-716.762	144.413	-0.047	0.063
-715.748	800.000	0.088	-0.259
-714.733	57.091	0.107	-0.106
-713.718	243.240	0.048	-0.081
-712.704	-95.132	0.123	0.033
-711.689	800.000	0.032	0.129
-710.675	-200.000	-0.010	-0.153
-709.660	18.630	0.266	0.215
-708.645	-167.730	0.116	0.005
-707.631	-126.956	0.325	-0.048
-706.616	-99.220	-0.199	0.051
-705.602	-132.063	0.141	-0.018
-704.587	800.000	0.076	-0.281
-703.572	-4.796	0.103	-0.071
-702.558	-80.844	-0.109	0.037
-701.543	117.299	-0.226	-0.280
-700.529	36.574	0.195	-0.174
-699.514	424.363	0.076	-0.165
-698.499	-161.688	0.282	-0.014
-697.485	-58.795	0.249	0.109
-696.470	130.295	-0.060	0.077
-695.456	61.508	0.053	0.053
-694.441	118.847	0.313	-0.390
-693.426	800.000	-0.066	-0.275
-692.412	224.392	0.026	-0.042
-691.397	-200.000	-0.045	-0.239
-690.383	800.000	0.021	-0.091
-689.368	800.000	-0.061	-0.183
-688.354	-200.000	0.004	0.298
-687.339	800.000	0.031	0.130
-686.324	-18.455	0.254	-0.160
-685.310	-49.189	0.156	0.075
-684.295	-94.256	-0.178	0.049
-683.281	383.076	-0.131	-0.271
-682.266	-79.107	0.239	0.082
-681.251	-47.693	0.114	-0.056
-680.237	116.778	-0.410	-0.508
-679.222	126.231	-0.174	-0.222
-678.208	-200.000	-0.031	-0.257
-677.193	373.883	0.123	0.251
-676.178	-200.000	-0.066	0.310
-675.164	110.307	-0.317	-0.384
-674.149	157.892	-0.112	0.157
-673.135	-116.892	0.087	-0.016
-672.120	49.232	0.247	0.233
-671.105	-200.000	0.020	-0.115
-670.091	-21.708	-0.145	-0.089
-669.076	-120.731	0.334	0.057
-668.062	-200.000	0.004	0.280
-667.047	-113.241	-0.299	0.059
-666.032	365.526	0.138	-0.280
-665.018	-38.218	-0.262	-0.140
-664.003	41.550	0.094	0.086
-662.989	-72.155	0.092	0.034
-661.974	800.000	0.028	0.114
-660.959	-115.148	0.279	0.053
-659.945	-200.000	0.071	-0.372
-658.930	800.000	-0.014	-0.050
-657.916	30.749	0.184	-0.159
-656.901	-200.000	0.004	-0.079
-655.886	-200.000	-0.029	-0.198
-654.872	137.861	0.262	-0.346
-653.857	-200.000	-0.018	0.176
-652.843	-156.147	-0.337	0.021
-651.828	-200.000	-0.059	0.366
-650.814	55.884	0.105	0.103
-649.799	108.216	0.099	-0.118
-648.784	800.000	0.092	0.357
-647.770	-33.533	0.135	0.075
-646.755	209.724	-0.041	0.065
-645.741	-18.961	0.120	-0.075
-644.726	-114.661	0.181	0.035
-643.711	-68.386	-0.088	-0.034
-642.697	32.138	-0.178	0.155
-641.682	102.080	0.261	-0.306
-640.668	-99.804	0.130	0.033
-639.653	-123.437	-0.267	0.043
-638.638	61.329	-0.169	0.169
-637.624	800.000	0.066	0.235
-636.609	-200.000	0.037	-0.277
-635.595	11.415	0.072	-0.055
-634.580	78.662	-0.224	0.240
-633.565	-128.737	-0.256	0.036
-632.551	-106.141	-0.270	0.061
-631.536	-43.446	-0.127	0.065
-630.522	61.708	0.125	0.125
-629.507	-136.748	0.211	0.025
-628.492	184.895	-0.368	0.549
-627.478	-143.042	0.184	-0.018
-626.463	25.207	0.047	-0.039
-625.449	81.084	-0.090	-0.098
-624.434	800.000	0.061	-0.186
-623.419	800.000	-0.034	0.122
-622.405	800.000	-0.026	-0.081
-621.390	39.286	0.116	-0.105
-620.376	-1.749	0.036	0.025
-619.361	-200.000	-0.015	-0.240
-618.346	-70.197	-0.249	0.095
-617.332	800.000	-0.124	-0.479
-616.317	-45.550	-0.082	-0.041
-615.303	-200.000	0.017	0.085
-614.288	7.321	-0.376	0.282
-613.273	2.627	0.150	0.109
-612.259	800.000	-0.089	-0.288
-611.244	-153.085	-0.270	-0.019
-610.230	-28.144	-0.214	-0.124
-609.215	-5.475	-0.119	0.082
-608.201	114.193	-0.098	-0.120
-607.186	-127.996	-0.418	0.060
-606.171	-40.600	0.180	0.094
-605.157	168.038	0.094	-0.135
-604.142	-200.000	0.009	0.208
-603.128	111.112	-0.130	-0.157
-602.113	532.188	-0.169	-0.402
-601.098	212.129	-0.191	0.303
-600.084	800.000	-0.096	0.362
-599.069	-200.000	-0.056	0.304
-598.055	-200.000	0.011	0.188
-597.040	300.703	0.072	0.134
-596.025	800.000	-0.058	0.184
-595.011	453.098	0.091	0.202
-593.996	536.399	-0.063	-0.150
-592.982	-200.000	-0.010	0.232
-591.967	-200.000	-0.014	0.089
-590.952	-50.837	-0.046	0.022
-589.938	519.357	-0.121	-0.286
-588.923	-158.134	0.232	0.014
-587.909	-29.572	-0.430	0.247
-586.894	-182.313	0.252	-0.005
-585.879	211.446	-0.109	0.172
-584.865	800.000	-0.018	0.058
-583.850	696.066	-0.070	0.185
-582.836	800.000	0.121	-0.364
-581.821	89.065	0.279	-0.312
-580.806	46.200	-0.058	0.054
-579.792	-100.918	0.100	-0.025
-578.777	290.592	-0.221	-0.403
-577.763	188.978	-0.118	-0.178
-576.748	-61.822	0.110	-0.046
-575.733	-172.753	-0.201	0.006
-574.719	300.082	-0.166	-0.307
-573.704	-42.228	0.074	-0.038
-572.690	-10.519	-0.190	-0.126
-571.675	39.114	-0.156	-0.140
-570.661	236.821	0.102	-0.170
-569.646	300.445	0.065	-0.120
-568.631	-167.497	-0.215	0.009
-567.617	329.774	-0.027	0.052
-566.602	51.415	-0.182	-0.173
-565.588	-78.608	-0.178	0.061
-564.573	-200.000	0.005	0.213
-563.558	-200.000	0.040	0.188
-562.544	55.852	0.187	-0.182
-561.529	-70.420	0.258	-0.098
-560.515	-122.198	-0.306	-0.050
-559.500	26.863	0.128	0.108
-558.485	-153.030	0.149	-0.010
-557.471	-200.000	0.014	0.147
-556.456	-0.405	-0.038	0.027
-555.442	-124.638	-0.252	0.039
-554.427	170.764	-0.234	-0.337
-553.412	387.635	-0.072	-0.148
-552.398	-200.000	0.005	-0.204
-551.383	-128.833	0.291	0.041
-550.369	-8.675	-0.140	0.094
-549.354	58.103	-0.166	-0.163
-548.339	-61.643	-0.339	-0.142
-547.325	-128.908	0.366	0.052
-546.310	629.841	0.098	-0.249
-545.296	-87.229	-0.202	-0.061
-544.281	-31.109	0.315	-0.178
-543.266	800.000	-0.033	-0.139
-542.252	-107.833	-0.344	-0.075
-541.237	-151.177	-0.214	0.016
-540.223	-200.000	0.061	0.311
-539.208	-44.316	-0.256	0.128
-538.193	-103.099	0.214	0.051
-537.179	378.462	-0.232	-0.475
-536.164	47.423	-0.274	0.256
-535.150	703.190	0.089	-0.236
-534.135	463.675	0.120	0.268
-533.121	101.929	-0.284	-0.332
-532.106	160.572	-0.088	-0.123
-531.091	-1.202	0.259	-0.183
-530.077	-62.852	-0.137	-0.057
-529.062	431.251	0.023	-0.051
-528.048	-200.000	-0.009	0.159
-527.033	-77.989	-0.128	0.044
-526.018	-200.000	-0.012	0.202
-525.004	-200.000	-0.006	-0.103
-523.989	-134.794	0.115	0.014
-522.975	218.407	0.078	-0.124
-521.960	-200.000	-0.004	-0.247
-520.945	614.295	0.036	-0.090
-519.931	-55.224	0.230	-0.104
-518.916	-27.828	0.427	-0.248
-517.902	-138.415	0.367	0.041
-516.887	207.661	0.032	-0.049
-515.872	63.959	-0.192	0.193
-514.858	58.359	0.023	-0.023
-513.843	32.582	-0.109	-0.094
-512.829	70.338	0.254	0.263
-511.814	-20.966	-0.100	-0.061
-510.799	-5.786	0.153	0.105
-509.785	-104.891	-0.313	0.072
-508.770	401.214	0.109	0.230
-507.756	-200.000	-0.006	0.060
-506.741	-119.192	0.237	-0.041
-505.726	-7.356	-0.018	-0.012
-504.712	-112.958	0.366	-0.072
-503.697	-91.789	-0.199	-0.056
-502.683	2.419	0.221	0.160
-501.668	-75.554	-0.255	0.091
-500.653	39.241	-0.192	-0.172
-499.639	-200.000	0.006	-0.146
-498.624	-98.900	0.266	-0.068
-497.610	-122.523	0.359	0.058
-496.595	-121.241	-0.374	-0.063
-495.581	62.079	-0.270	0.269
-494.566	727.206	-0.032	0.085
-493.551	766.196	-0.086	-0.234
-492.537	-33.191	-0.365	-0.202
-491.522	-27.032	0.154	-0.090
-490.508	-47.577	0.229	-0.111
-489.493	51.965	0.175	0.167
-488.478	-111.725	0.077	0.016
-487.464	119.642	-0.093	-0.115
-486.449	-38.253	-0.088	-0.047
-485.435	-20.048	-0.171	0.106
-484.420	111.846	0.133	-0.161
-483.405	-109.980	-0.192	0.040
-482.391	48.978	0.204	0.191
-481.376	79.810	-0.080	-0.086
-480.362	5.968	-0.139	0.103
-479.347	26.702	-0.048	-0.040
-478.332	-32.418	0.130	-0.072
-477.318	272.601	0.067	-0.119
-476.303	800.000	0.065	-0.219
-475.289	-200.000	0.027	0.242
-474.274	25.206	0.098	-0.081
-473.259	-200.000	-0.064	0.399
-472.245	-76.028	-0.046	0.016
-471.230	-182.932	-0.176	0.003
-470.216	628.708	-0.040	-0.102
-469.201	139.393	0.139	-0.183
-468.186	-35.887	-0.037	0.020
-467.172	435.020	-0.179	0.390
-466.157	800.000	-0.042	-0.171
-465.143	-3.155	-0.181	0.126
-464.128	-22.804	0.173	-0.104
-463.113	-57.541	-0.041	0.018
-462.099	-74.049	0.395	-0.143
-461.084	-79.896	0.086	0.029
-460.070	-200.000	0.065	-0.338
-459.055	-200.000	-0.020	-0.165
-458.040	-11.246	0.183	0.120
-457.026	534.596	0.154	-0.365
-456.011	168.605	-0.085	-0.121
-454.997	721.329	-0.116	0.308
-453.982	-176.754	-0.043	0.001
-452.968	-2.995	0.263	-0.183
-451.953	-98.282	0.135	-0.035
-450.938	9.812	0.082	-0.062
-449.924	-200.000	-0.030	-0.154
-448.909	307.425	0.067	-0.125
-447.895	459.240	-0.082	0.181
-446.880	207.457	-0.247	0.385
-445.865	-140.445	-0.189	-0.020
-444.851	-67.734	0.271	-0.106
-443.836	-83.954	0.220	0.070
-442.822	-84.650	0.048	-0.015
-441.807	-84.313	-0.340	0.107
-440.792	-70.268	0.114	0.043
-439.778	238.467	0.142	-0.236
-438.763	800.000	-0.022	0.065
-437.749	11.880	-0.188	0.145
-436.734	-200.000	0.043	-0.208
-435.719	800.000	0.030	0.090
-434.705	187.993	0.184	-0.275
-433.690	552.651	0.117	-0.281
-432.676	-72.604	0.149	-0.055
-431.661	-200.000	0.003	0.094
-430.646	-7.287	0.126	-0.085
-429.632	92.388	0.046	0.052
-428.617	-19.121	0.320	0.199
-427.603	118.760	-0.188	-0.231
-426.588	36.208	0.052	-0.046
-425.573	-200.000	0.038	-0.256
-424.559	-55.774	0.375	0.167
-423.544	-114.641	-0.184	-0.035
-422.530	-98.420	-0.381	-0.097
-421.515	800.000	0.083	-0.246
-420.500	730.172	-0.022	-0.058
-419.486	51.182	0.287	-0.272
-418.471	-176.729	0.211	0.005
-417.457	710.262	0.138	0.364
-416.442	321.469	-0.106	0.202
-415.428	797.493	-0.061	0.168
-414.413	34.029	0.182	0.158
-413.398	-131.939	0.145	-0.019
-412.384	-71.035	0.185	-0.069
-411.369	-90.816	-0.187	-0.054
-410.355	72.028	-0.198	-0.205
-409.340	-200.000	-0.075	-0.415
-408.325	83.087	-0.234	-0.254
-407.311	800.000	0.104	-0.350
-406.296	-118.042	-0.036	-0.006
-405.282	-8.265	0.136	-0.092
-404.267	800.000	0.104	-0.388
-403.252	-50.380	-0.106	0.050
-402.238	-24.875	0.263	-0.156
-401.223	73.108	-0.014	-0.015
-400.209	-187.537	-0.232	-0.003
-399.194	31.504	0.149	-0.127
-398.179	44.589	0.361	0.330
-397.165	-200.000	-0.026	-0.129
-396.150	-136.757	-0.197	0.023
-395.136	56.879	0.157	-0.152
-394.121	800.000	0.097	0.358
-393.106	381.829	-0.118	0.242
-392.092	-200.000	0.006	0.238
-391.077	504.924	-0.048	-0.111
-390.063	800.000	0.099	0.334
-389.048	529.627	-0.035	-0.081
-388.033	37.682	0.093	-0.082
-387.019	-98.607	0.099	0.025
-386.004	800.000	-0.073	0.205
-384.990	-191.487	0.125	0.001
-383.975	-173.698	-0.061	0.002
-382.960	-200.000	0.064	0.362
-381.946	-69.618	0.352	-0.134
-380.931	800.000	0.039	0.125
-379.917	-200.000	0.006	0.231
-378.902	293.379	-0.063	0.115
-377.888	16.814	0.153	0.121
-376.873	309.493	0.090	-0.168
-375.858	48.851	-0.057	0.054
-374.844	199.102	-0.160	0.244
-373.829	93.363	-0.185	-0.209
-372.815	-76.679	0.038	0.013
-371.800	-83.507	0.228	0.073
-370.785	-200.000	-0.013	-0.136
-369.771	800.000	-0.084	0.314
-368.756	-36.658	0.278	0.149
-367.742	268.285	0.211	-0.368
-366.727	-54.080	0.222	-0.100
-365.712	12.887	-0.338	-0.260
-364.698	264.696	-0.098	-0.170
-363.683	-200.000	0.028	-0.312
-362.669	33.871	0.125	0.108
-361.654	800.000	-0.045	-0.145
-360.639	-67.859	0.132	0.051
-359.625	94.710	0.110	-0.124
-358.610	120.518	-0.269	-0.332
-357.596	143.550	0.081	-0.107
-356.581	-69.799	-0.176	-0.067
-355.566	-116.696	0.255	-0.047
-354.552	19.549	-0.120	-0.096
-353.537	-21.025	0.246	0.150
-352.523	-98.923	0.182	-0.046
-351.508	-114.107	0.257	0.049
-350.493	-200.000	0.001	0.082
-349.479	-50.791	-0.282	0.132
-348.464	49.189	0.221	0.206
-347.450	-84.891	-0.153	0.048
-346.435	-143.692	0.362	-0.034
-345.420	800.000	-0.025	0.082
-344.406	159.913	0.069	0.095
-343.391	-121.764	-0.370	0.061
-342.377	44.347	0.242	-0.221
-341.362	183.055	0.044	-0.064
-340.348	800.000	-0.037	-0.107
-339.333	-102.392	0.179	0.043
-338.318	-200.000	0.017	-0.095
-337.304	-130.122	0.282	-0.038
-336.289	488.780	-0.118	0.267
-335.275	-200.000	-0.008	0.290
-334.260	-200.000	-0.005	0.101
-333.245	36.974	-0.015	0.013
-332.231	149.853	-0.138	0.186
-331.216	-100.171	-0.184	-0.045
-330.202	251.562	0.073	-0.123
-329.187	-66.047	-0.373	0.148
-328.172	-0.527	-0.204	-0.144
-327.158	-200.000	-0.044	-0.421
-326.143	-200.000	0.007	-0.061
-325.129	800.000	0.150	0.503
-324.114	800.000	-0.038	0.135
-323.099	110.990	-0.081	-0.097
-322.085	-91.151	-0.333	0.095
-321.070	-60.768	0.191	0.080
-320.056	-98.993	0.330	-0.083
-319.041	800.000	0.020	-0.076
-318.026	-138.784	-0.166	0.018
-317.012	88.383	-0.223	0.247
-315.997	800.000	-0.043	0.160
-314.983	408.287	-0.129	0.271
-313.968	-76.887	-0.137	0.048
-312.953	206.361	0.150	-0.231
-311.939	-88.422	0.268	-0.080
-310.924	-25.580	0.166	0.097
-309.910	-142.576	0.210	-0.020
-308.895	698.641	-0.103	-0.270
-307.880	800.000	0.048	-0.176
-306.866	-8.959	-0.269	0.179
-305.851	46.238	0.180	-0.165
-304.837	267.202	0.187	0.325
-303.822	287.623	0.214	0.384
-302.807	-128.840	-0.241	0.034
-301.793	-200.000	-0.007	-0.163
-300.778	-34.609	0.515	-0.280
-299.764	-117.800	-0.129	0.023
-298.749	-36.070	-0.242	-0.130
-297.735	-100.607	0.319	0.078
-296.720	-8.288	0.204	-0.137
-295.705	-200.000	-0.011	-0.061
-294.691	97.206	0.319	-0.364
-293.676	-51.838	0.165	0.076
-292.662	-76.798	0.256	-0.089
-291.647	59.718	0.143	0.140
-290.632	114.986	0.103	0.125
-289.618	46.989	-0.202	0.187
-288.603	-200.000	-0.021	0.132
-287.589	196.210	0.020	-0.031
-286.574	-26.518	-0.185	-0.107
-285.559	304.411	-0.103	0.190
-284.545	-200.000	-0.010	-0.088
-283.530	-200.000	-0.003	0.363
-282.516	249.000	-0.070	0.117
-281.501	-72.193	-0.221	-0.081
-280.486	130.831	-0.298	-0.379
-279.472	-84.236	-0.203	-0.064
-278.457	-94.676	0.168	-0.045
-277.443	-107.513	0.113	0.025
-276.428	800.000	-0.163	0.476
-275.413	-87.353	-0.258	0.078
-274.399	-60.110	0.354	-0.150
-273.384	-200.000	0.007	0.166
-272.370	-15.937	-0.373	0.235
-271.355	800.000	0.067	0.225
-270.340	323.543	-0.158	-0.299
-269.326	156.158	-0.051	-0.069
-268.311	101.125	0.114	-0.132
-267.297	681.912	-0.077	0.198
-266.282	70.116	0.345	0.354
-265.267	-112.874	0.187	0.037
-264.253	-200.000	-0.003	0.020
-263.238	321.131	-0.063	-0.118
-262.224	-131.907	0.090	0.012
-261.209	212.897	0.226	0.354
-260.195	-52.245	-0.064	0.030
-259.180	138.356	-0.290	-0.377
-258.165	800.000	0.066	0.229
-257.151	258.181	-0.158	-0.269
-256.136	-184.327	0.148	0.002
-255.122	244.939	0.105	0.175
-254.107	-200.000	0.033	-0.226
-253.092	-200.000	0.157	0.000
-252.078	161.019	0.188	-0.260
-251.063	-88.996	-0.122	0.036
-250.049	509.632	0.106	-0.243
-249.034	40.760	0.163	0.146
-248.019	-200.000	0.011	-0.062
-247.005	254.337	-0.101	-0.171
-245.990	314.368	0.063	-0.117
-244.976	271.592	-0.151	-0.263
-243.961	-92.393	0.292	0.081
-242.946	274.465	0.038	0.067
-241.932	-0.210	-0.016	0.011
-240.917	-96.766	0.414	0.108
-239.903	23.669	-0.321	-0.261
-238.888	-161.424	0.129	0.007
-237.873	800.000	-0.063	-0.181
-236.859	-109.205	0.502	0.106
-235.844	391.392	-0.153	0.314
-234.830	-100.653	0.153	-0.037
-233.815	-54.522	-0.161	-0.072
-232.800	-125.193	-0.201	-0.030
-231.786	-179.794	-0.342	0.007
-230.771	262.060	0.171	0.293
-229.757	-123.188	0.097	-0.015
-228.742	-93.338	-0.326	-0.090
-227.727	-183.162	-0.185	-0.003
-226.713	800.000	-0.064	0.256
-225.698	-200.000	0.069	-0.428
-224.684	-157.520	0.428	0.025
-223.669	-200.000	0.080	-0.367
-222.655	614.402	-0.080	0.198
-221.640	166.116	-0.055	-0.077
-220.625	-200.000	-0.025	-0.303
-219.611	-97.299	-0.160	-0.041
-218.596	-32.186	0.249	0.138
-217.582	-101.213	0.213	0.052
-216.567	77.108	-0.403	0.424
-215.552	-200.000	0.046	0.232
-214.538	-200.000	-0.011	0.075
-213.523	-15.609	0.371	0.234
-212.509	-139.771	-0.088	0.009
-211.494	-66.648	-0.223	-0.087
-210.479	-73.987	0.225	0.081
-209.465	-200.000	-0.068	0.396
-208.450	-200.000	-0.012	0.242
-207.436	-200.000	0.008	0.054
-206.421	402.180	-0.142	0.295
-205.406	88.245	0.096	-0.105
-204.392	3.447	0.329	-0.237
-203.377	-180.932	0.165	0.003
-202.363	-134.377	-0.151	0.018
-201.348	185.129	-0.115	-0.168
-200.333	261.948	-0.185	0.316
-199.319	800.000	0.061	0.261
-198.304	-94.788	-0.278	-0.075
-197.290	19.814	0.160	0.128
-196.275	17.006	0.108	0.085
-195.260	9.444	-0.243	-0.182
-194.246	-200.000	-0.040	-0.177
-193.231	-155.402	0.357	0.023
-192.217	-113.664	0.332	0.064
-191.202	-45.772	-0.297	-0.145
-190.187	-178.007	-0.413	-0.010
-189.173	-74.344	-0.343	-0.122
-188.158	604.006	0.087	0.214
-187.144	-200.000	0.028	0.157
-186.129	-13.222	-0.263	0.169
-185.114	-200.000	-0.030	0.315
-184.100	800.000	0.090	-0.362
-183.085	-174.894	-0.378	-0.010
-182.071	-1.272	0.191	-0.133
-181.056	178.633	-0.119	0.172
-180.042	39.176	0.199	-0.176
-179.027	-84.178	0.223	-0.070
-178.012	130.915	-0.208	-0.264
-176.998	181.364	0.056	0.082
-175.983	-92.124	0.081	-0.023
-174.969	-40.181	-0.092	0.047
-173.954	674.400	-0.132	0.339
-172.939	-200.000	-0.011	0.294
-171.925	-89.328	-0.370	0.108
-170.910	-200.000	-0.036	0.364
-169.896	2.587	0.337	0.241
-168.881	-124.005	-0.112	0.017
-167.866	167.368	-0.102	0.143
-166.852	-115.563	0.122	0.023
-165.837	20.268	-0.210	-0.168
-164.823	-200.000	0.008	0.234
-163.808	155.582	-0.101	-0.137
-162.793	-7.630	-0.130	0.086
-161.779	163.376	-0.046	-0.064
-160.764	-66.529	0.326	0.128
-159.750	-4.126	-0.404	-0.276
-158.735	-85.367	0.069	0.021
-157.720	13.399	0.308	0.236
-156.706	-200.000	-0.029	0.192
-155.691	-79.070	-0.351	-0.118
-154.677	-200.000	-0.001	-0.088
-153.662	83.494	0.186	0.200
-152.647	-200.000	-0.050	-0.271
-151.633	-93.486	-0.376	0.103
-150.618	6.704	0.303	-0.222
-149.604	10.027	-0.214	-0.160
-148.589	-44.717	0.049	-0.024
-147.574	147.030	-0.109	0.145
-146.560	-148.053	0.469	-0.038
-145.545	-160.186	-0.295	0.016
-144.531	-30.359	0.201	-0.113
-143.516	-200.000	-0.014	-0.199
-142.502	-200.000	-0.032	0.218
-141.487	136.465	-0.051	0.065
-140.472	-200.000	-0.020	0.199
-139.458	316.849	-0.181	0.337
-138.443	-167.170	0.233	-0.009
-137.429	145.068	0.129	-0.170
-136.414	800.000	0.122	0.365
-135.399	127.127	0.106	-0.132
-134.385	800.000	0.093	-0.359
-133.370	-134.819	-0.392	-0.047
-132.356	-17.682	0.074	-0.046
-131.341	22.111	0.325	0.261
-130.326	800.000	-0.034	0.108
-129.312	-94.814	-0.283	-0.076
-128.297	-112.440	0.306	0.060
-127.283	800.000	-0.076	0.228
-126.268	-200.000	-0.017	-0.241
-125.253	561.323	0.059	-0.140
-124.239	705.366	-0.123	0.319
-123.224	-128.774	-0.084	0.012
-122.210	25.559	-0.178	-0.146
-121.195	306.784	0.047	-0.087
