DTS Sentinel unit serial number:	SN413079Multiplexer serial number:	ORYXHardware model number:	OX4-SRSoftware version number:	ORYX F/W v4.00 Oryx Data Collector v3.7.2.0data status	okinstallation	princeton_trtdifferential loss correction	single-endedforward channel	channel 2reverse channel	N/Adate	2019/09/15time	09:03:34forward acquisition time	60.00reverse acquisition time	0.00gamma	496.2192k internal	0.2320k external	0.2320temperature offset calibration	1.0017default loss term (dB/km)	0.3790temperature slope calibration	1.0000multiplexer offset coefficient	1.0000multiplexer slope coefficient	1.0000fibre end	0.00T internal ref (°C)	32.87T ext. ref 1 (°C)	4.97T ext. ref 2 (°C)	29.93length (m)	temperature (°C)	Stokes	anti-Stokes-747.200	-200.000	0.015	-0.135
-746.185	376.083	-0.104	0.214
-745.171	82.941	0.236	0.259
-744.156	75.317	0.138	0.148
-743.142	-121.004	0.187	-0.032
-742.127	-200.000	-0.047	0.363
-741.112	161.730	-0.158	0.224
-740.098	-200.000	-0.019	0.306
-739.083	-200.000	-0.016	0.154
-738.069	-31.705	0.101	-0.057
-737.054	93.692	-0.070	0.080
-736.039	-200.000	-0.004	-0.361
-735.025	446.535	-0.194	0.432
-734.010	201.119	-0.082	-0.127
-732.996	-127.146	-0.376	-0.056
-731.981	782.352	-0.048	-0.134
-730.966	-200.000	0.037	0.179
-729.952	-46.541	-0.392	-0.194
-728.937	-94.525	0.299	-0.082
-727.923	423.447	-0.070	-0.152
-726.908	-200.000	-0.048	-0.222
-725.894	-75.810	0.397	-0.142
-724.879	147.616	-0.085	-0.116
-723.864	-115.885	-0.339	-0.064
-722.850	-200.000	0.022	-0.232
-721.835	122.417	-0.055	0.070
-720.821	110.513	0.026	0.032
-719.806	-200.000	0.000	0.041
-718.791	139.925	-0.159	-0.212
-717.777	800.000	0.063	0.226
-716.762	-37.171	0.025	-0.014
-715.748	-200.000	-0.017	-0.139
-714.733	129.017	-0.137	0.176
-713.718	800.000	0.170	0.504
-712.704	-124.785	0.175	-0.027
-711.689	-60.571	0.218	-0.093
-710.675	701.819	0.127	-0.338
-709.660	-200.000	0.023	-0.150
-708.645	258.130	-0.119	-0.207
-707.631	167.259	0.231	-0.331
-706.616	800.000	-0.075	0.223
-705.602	202.921	-0.078	-0.122
-704.587	112.593	-0.082	0.100
-703.572	-83.645	0.036	-0.012
-702.558	82.606	0.077	-0.084
-701.543	-162.360	0.066	-0.003
-700.529	110.023	-0.310	-0.375
-699.514	348.159	-0.145	0.288
-698.499	266.453	0.202	0.356
-697.485	-37.578	-0.120	0.065
-696.470	-40.405	-0.094	0.049
-695.456	-126.379	0.170	0.026
-694.441	38.470	-0.133	0.120
-693.426	564.473	-0.117	-0.286
-692.412	-67.686	0.314	-0.124
-691.397	-61.973	-0.316	0.133
-690.383	-200.000	-0.008	-0.185
-689.368	188.727	-0.093	0.141
-688.354	-19.670	-0.239	0.149
-687.339	-200.000	-0.003	0.070
-686.324	23.307	0.235	-0.195
-685.310	262.688	0.161	-0.282
-684.295	-35.037	0.153	0.084
-683.281	244.327	-0.093	0.157
-682.266	-27.975	0.122	-0.071
-681.251	-200.000	0.002	0.200
-680.237	-126.625	-0.139	-0.021
-679.222	-200.000	-0.015	-0.163
-678.208	-27.944	0.172	-0.100
-677.193	-64.269	-0.384	-0.158
-676.178	-93.562	-0.058	-0.016
-675.164	179.711	-0.033	0.049
-674.149	-200.000	-0.010	-0.150
-673.135	-200.000	0.022	0.293
-672.120	-8.538	0.192	0.130
-671.105	-78.130	-0.529	0.184
-670.091	40.568	0.105	-0.096
-669.076	-25.320	-0.094	-0.056
-668.062	-173.262	0.344	0.011
-667.047	-66.532	-0.153	0.061
-666.032	17.850	0.429	0.344
-665.018	-167.082	0.311	-0.013
-664.003	260.069	-0.138	0.241
-662.989	-45.622	0.124	0.062
-661.974	-2.962	0.211	0.149
-660.959	99.047	0.093	0.109
-659.945	579.682	0.088	-0.216
-658.930	537.762	-0.074	-0.177
-657.916	-3.759	-0.107	0.075
-656.901	-97.267	-0.329	0.087
-655.886	198.269	0.094	0.144
-654.872	-60.063	-0.305	-0.131
-653.857	-103.335	0.237	0.056
-652.843	-183.329	-0.288	-0.005
-651.828	-119.667	0.097	-0.017
-650.814	800.000	-0.039	0.109
-649.799	529.989	0.076	-0.182
-648.784	10.997	-0.066	0.051
-647.770	132.177	0.338	-0.438
-646.755	-84.681	-0.289	-0.092
-645.741	374.171	-0.072	-0.147
-644.726	-42.407	0.325	-0.167
-643.711	190.850	0.024	-0.036
-642.697	228.928	0.045	-0.073
-641.682	189.865	-0.210	0.317
-640.668	-3.402	-0.294	-0.206
-639.653	-41.633	0.202	-0.104
-638.638	621.712	-0.016	-0.041
-637.624	-200.000	-0.019	-0.259
-636.609	-200.000	0.023	-0.647
-635.595	-143.619	0.357	-0.034
-634.580	-170.885	0.121	-0.004
-633.565	67.209	-0.205	-0.211
-632.551	104.699	-0.101	-0.119
-631.536	-23.362	0.145	0.088
-630.522	168.735	0.166	0.238
-629.507	-99.393	0.200	-0.051
-628.492	744.226	-0.043	0.117
-627.478	-169.732	0.299	0.011
-626.463	76.052	-0.173	0.185
-625.449	517.356	0.103	-0.243
-624.434	313.550	0.079	0.150
-623.419	597.688	-0.040	0.099
-622.405	485.767	-0.068	-0.155
-621.390	-30.687	-0.152	0.087
-620.376	800.000	0.078	0.221
-619.361	-73.451	-0.143	0.052
-618.346	-172.486	-0.168	-0.005
-617.332	46.497	0.105	0.098
-616.317	-200.000	0.006	0.325
-615.303	120.442	-0.173	-0.217
-614.288	134.434	-0.115	-0.150
-613.273	-200.000	0.009	0.051
-612.259	167.615	0.205	-0.293
-611.244	30.488	0.167	-0.144
-610.230	-77.875	0.535	0.186
-609.215	-65.265	-0.420	0.170
-608.201	256.186	0.091	0.156
-607.186	148.159	0.166	-0.225
-606.171	-13.793	-0.374	0.243
-605.157	-141.963	-0.119	-0.012
-604.142	119.635	-0.201	0.250
-603.128	-20.235	0.066	-0.041
-602.113	189.153	0.162	0.244
-601.098	-142.725	0.042	-0.004
-600.084	380.267	0.113	-0.233
-599.069	-86.253	-0.231	0.072
-598.055	96.311	-0.167	0.192
-597.040	-31.417	0.057	-0.032
-596.025	12.388	0.090	-0.070
-595.011	-66.997	0.274	-0.109
-593.996	-60.636	-0.074	0.031
-592.982	-200.000	0.040	-0.192
-591.967	800.000	0.039	-0.142
-590.952	153.986	0.050	-0.069
-589.938	-50.945	-0.144	-0.068
-588.923	-200.000	-0.009	-0.065
-587.909	-13.849	-0.155	0.101
-586.894	800.000	0.084	0.306
-585.879	18.474	0.057	-0.046
-584.865	-9.409	-0.123	-0.083
-583.850	-86.703	-0.235	0.072
-582.836	-142.693	-0.046	0.005
-581.821	-11.457	0.165	0.109
-580.806	-200.000	0.042	-0.348
-579.792	35.335	-0.137	0.121
-578.777	-164.766	0.391	0.018
-577.763	-200.000	0.053	-0.247
-576.748	92.243	-0.225	0.255
-575.733	-5.742	0.170	0.117
-574.719	136.551	0.252	0.330
-573.704	-113.438	-0.170	-0.033
-572.690	-90.895	-0.405	0.117
-571.675	15.927	0.149	-0.118
-570.661	238.895	-0.081	0.136
-569.646	-148.236	0.077	-0.006
-568.631	-107.439	-0.457	-0.101
-567.617	82.462	-0.178	0.194
-566.602	-4.269	0.088	-0.061
-565.588	-200.000	0.009	0.042
-564.573	578.119	0.018	0.045
-563.558	-43.598	0.260	0.132
-562.544	403.919	0.178	0.377
-561.529	-70.583	-0.156	0.059
-560.515	98.730	0.067	-0.077
-559.500	54.705	0.302	-0.293
-558.485	800.000	0.050	0.196
-557.471	90.556	-0.060	-0.068
-556.456	-33.442	-0.233	0.130
-555.442	-200.000	0.009	0.186
-554.427	-54.976	0.310	0.140
-553.412	-79.633	-0.420	0.142
-552.398	-145.967	-0.336	0.030
-551.383	-54.237	0.346	-0.158
-550.369	-30.784	-0.188	0.107
-549.354	-14.162	-0.276	0.179
-548.339	800.000	-0.084	-0.244
-547.325	800.000	-0.099	0.308
-546.310	290.873	-0.041	-0.075
-545.296	-59.152	-0.103	-0.044
-544.281	-102.142	-0.197	-0.048
-543.266	-55.820	-0.305	0.137
-542.252	-116.224	-0.085	0.016
-541.237	800.000	-0.088	0.289
-540.223	-200.000	0.028	0.347
-539.208	-100.771	-0.428	0.106
-538.193	-170.846	0.153	0.005
-537.179	-1.019	-0.095	0.068
-536.164	486.477	0.074	-0.168
-535.150	-119.453	-0.090	0.016
-534.135	198.222	-0.086	0.132
-533.121	24.252	-0.113	-0.093
-532.106	-200.000	0.002	-0.012
-531.091	-147.367	-0.239	0.020
-530.077	4.546	0.098	0.072
-529.062	89.426	0.113	-0.126
-528.048	-79.292	-0.110	-0.037
-527.033	-200.000	-0.002	-0.144
-526.018	2.633	0.080	0.058
-525.004	-124.475	-0.187	-0.029
-523.989	64.444	0.031	-0.031
-522.975	235.387	0.154	0.255
-521.960	800.000	-0.075	0.212
-520.945	-119.487	0.326	0.057
-519.931	222.076	0.190	-0.307
-518.916	-191.918	-0.225	0.002
-517.902	-44.896	-0.277	0.139
-516.887	-156.940	0.057	0.004
-515.872	559.630	-0.029	0.069
-514.858	41.552	0.179	0.163
-513.843	35.774	-0.080	0.070
-512.829	-200.000	0.004	0.190
-511.814	-58.848	-0.261	-0.113
-510.799	-165.848	0.130	0.006
-509.785	-75.823	0.306	-0.109
-508.770	-108.730	-0.352	-0.076
-507.756	800.000	-0.033	0.109
-506.741	86.475	-0.096	-0.106
-505.726	-200.000	-0.040	0.182
-504.712	-34.345	-0.066	0.036
-503.697	344.119	-0.117	0.229
-502.683	22.196	0.160	-0.131
-501.668	-200.000	-0.038	-0.187
-500.653	-54.301	0.170	0.077
-499.639	18.555	0.271	0.217
-498.624	-200.000	0.014	-0.211
-497.610	23.405	0.217	0.179
-496.595	-176.369	-0.320	-0.008
-495.581	177.164	0.121	0.177
-494.566	396.396	0.138	-0.290
-493.551	171.398	0.175	-0.252
-492.537	800.000	-0.036	0.106
-491.522	-200.000	0.021	-0.286
-490.508	-200.000	0.001	0.382
-489.493	-108.105	-0.356	0.077
-488.478	-25.322	0.271	-0.161
-487.464	-200.000	-0.037	0.258
-486.449	-200.000	0.019	0.119
-485.435	-31.504	0.055	0.031
-484.420	654.655	-0.126	-0.325
-483.405	28.946	0.160	-0.135
-482.391	78.389	-0.119	-0.127
-481.376	-118.966	-0.112	-0.020
-480.362	-92.205	0.223	-0.063
-479.347	-151.696	-0.410	-0.030
-478.332	259.031	0.148	-0.256
-477.318	-26.405	0.240	-0.141
-476.303	-62.888	0.283	-0.117
-475.289	-138.724	-0.386	0.042
-474.274	-125.206	0.327	-0.050
-473.259	-9.335	0.356	-0.238
-472.245	-64.125	0.076	0.031
-471.230	-200.000	0.010	0.159
-470.216	800.000	-0.083	-0.341
-469.201	255.346	-0.106	0.182
-468.186	-19.747	-0.243	0.150
-467.172	800.000	0.101	-0.333
-466.157	-200.000	0.053	-0.261
-465.143	-47.201	0.082	0.040
-464.128	296.671	0.042	-0.077
-463.113	108.892	0.035	-0.042
-462.099	-60.800	-0.186	0.079
-461.084	84.722	0.042	-0.046
-460.070	800.000	-0.040	-0.168
-459.055	-89.351	-0.244	-0.072
-458.040	-151.932	0.438	0.032
-457.026	-49.190	-0.218	0.104
-456.011	-86.877	-0.205	0.063
-454.997	304.604	-0.077	-0.142
-453.982	40.818	-0.007	-0.006
-452.968	159.470	0.071	-0.098
-451.953	800.000	0.032	-0.131
-450.938	800.000	0.032	0.105
-449.924	79.886	0.109	-0.117
-448.909	-200.000	0.027	0.134
-447.895	446.933	-0.041	-0.090
-446.880	-21.226	-0.042	-0.026
-445.865	-29.795	-0.137	-0.078
-444.851	58.082	-0.213	-0.208
-443.836	22.199	-0.121	-0.098
-442.822	-59.753	0.038	0.016
-441.807	-66.037	-0.199	0.079
-440.792	676.107	-0.056	0.144
-439.778	-107.887	-0.242	0.053
-438.763	-91.940	-0.451	0.128
-437.749	-117.114	-0.229	-0.042
-436.734	-103.612	0.177	0.042
-435.719	-98.506	0.159	-0.041
-434.705	453.305	-0.120	-0.265
-433.690	-110.875	0.149	-0.031
-432.676	-26.056	-0.210	0.123
-431.661	367.845	-0.029	0.059
-430.646	56.315	0.244	0.237
-429.632	-200.000	-0.071	-0.000
-428.617	29.997	-0.124	-0.106
-427.603	-125.241	0.013	-0.002
-426.588	800.000	-0.029	-0.083
-425.573	-32.487	0.376	-0.209
-424.559	106.393	-0.387	-0.458
-423.544	800.000	0.037	0.151
-422.530	-87.811	-0.112	0.034
-421.515	278.996	0.083	0.148
-420.500	-44.082	0.212	0.106
-419.486	27.796	0.066	-0.055
-418.471	-12.779	0.178	0.116
-417.457	36.384	-0.135	-0.119
-416.442	-11.226	-0.033	0.022
-415.428	-6.137	-0.250	0.171
-414.413	-11.333	-0.049	-0.032
-413.398	-44.165	-0.156	0.078
-412.384	305.989	0.088	0.163
-411.369	-160.152	-0.124	-0.007
-410.355	-200.000	0.072	0.326
-409.340	800.000	0.082	0.232
-408.325	-133.028	0.210	0.027
-407.311	-94.853	-0.517	0.140
-406.296	800.000	-0.054	-0.199
-405.282	115.240	0.124	-0.151
-404.267	-131.922	0.185	0.024
-403.252	-16.342	-0.176	0.111
-402.238	-66.594	0.077	0.031
-401.223	-200.000	-0.020	0.327
-400.209	-128.910	0.172	0.024
-399.194	189.263	0.132	-0.197
-398.179	224.400	0.211	0.340
-397.165	82.041	0.101	0.109
-396.150	800.000	0.046	-0.129
-395.136	-172.654	0.105	-0.003
-394.121	800.000	0.064	-0.183
-393.106	-200.000	-0.052	-0.378
-392.092	404.197	-0.073	-0.153
-391.077	-200.000	0.026	-0.116
-390.063	-136.367	0.085	0.010
-389.048	36.312	-0.029	-0.025
-388.033	-146.604	-0.393	-0.034
-387.019	285.715	0.105	0.189
-386.004	395.495	0.095	0.197
-384.990	695.580	-0.120	0.315
-383.975	49.364	-0.222	-0.209
-382.960	96.480	-0.215	-0.245
-381.946	87.083	-0.062	0.069
-380.931	-81.352	-0.159	-0.052
-379.917	-200.000	0.000	-0.106
-378.902	-28.497	0.171	0.098
-377.888	-27.396	0.184	-0.107
-376.873	800.000	-0.111	-0.311
-375.858	276.231	0.053	0.094
-374.844	-127.269	-0.346	0.050
-373.829	-46.913	-0.033	0.016
-372.815	741.817	-0.054	-0.144
-371.800	246.207	-0.095	-0.159
-370.785	-10.566	-0.151	-0.099
-369.771	-44.951	-0.251	-0.125
-368.756	-48.526	-0.076	-0.037
-367.742	302.954	0.100	0.185
-366.727	128.426	0.138	0.175
-365.712	-50.463	0.223	-0.105
-364.698	800.000	-0.024	0.088
-363.683	-200.000	0.005	0.104
-362.669	-100.374	0.116	0.029
-361.654	800.000	0.041	-0.140
-360.639	1.111	0.205	-0.146
-359.625	-200.000	0.002	-0.047
-358.610	46.973	-0.170	-0.158
-357.596	-121.576	-0.138	-0.023
-356.581	800.000	-0.050	-0.209
-355.566	165.354	-0.056	-0.079
-354.552	-132.965	-0.143	0.018
-353.537	-200.000	0.004	-0.021
-352.523	-200.000	-0.028	0.349
-351.508	375.841	-0.069	-0.140
-350.493	-200.000	-0.024	-0.334
-349.479	361.599	0.063	-0.126
-348.464	800.000	-0.072	0.252
-347.450	-200.000	-0.010	0.155
-346.435	-168.859	0.134	0.005
-345.420	-200.000	-0.028	-0.200
-344.406	-77.844	-0.131	0.045
-343.391	509.337	0.123	-0.285
-342.377	-42.560	-0.092	-0.046
-341.362	-43.249	0.282	-0.142
-340.348	641.642	0.063	0.160
-339.333	162.198	-0.129	0.181
-338.318	-200.000	-0.025	0.197
-337.304	-200.000	-0.025	0.349
-336.289	157.904	-0.162	0.224
-335.275	-134.936	-0.141	0.017
-334.260	-62.763	0.053	-0.022
-333.245	-72.302	0.028	0.010
-332.231	113.224	0.170	0.205
-331.216	742.925	-0.153	0.410
-330.202	-200.000	0.005	0.343
-329.187	-141.315	0.049	-0.005
-328.172	-94.730	0.114	0.031
-327.158	800.000	-0.121	-0.365
-326.143	116.450	-0.107	-0.131
-325.129	-100.390	-0.208	0.051
-324.114	37.190	-0.134	-0.118
-323.099	-113.684	-0.137	-0.027
-322.085	-121.116	0.398	0.066
-321.070	-70.771	0.161	0.060
-320.056	-200.000	-0.051	0.307
-319.041	-46.060	0.243	-0.119
-318.026	-91.219	-0.047	-0.013
-317.012	646.905	-0.095	0.243
-315.997	44.690	0.263	-0.240
-314.983	-200.000	-0.060	-0.416
-313.968	0.697	-0.117	0.083
-312.953	-112.999	0.319	0.063
-311.939	210.731	0.127	0.199
-310.924	556.044	0.012	0.028
-309.910	-28.605	0.297	-0.170
-308.895	-200.000	-0.044	0.220
-307.880	-88.612	-0.204	-0.060
-306.866	-200.000	0.012	0.247
-305.851	800.000	-0.106	-0.378
-304.837	-123.337	-0.026	0.004
-303.822	50.290	0.182	0.171
-302.807	-200.000	0.043	-0.304
-301.793	800.000	-0.074	0.239
-300.778	-40.071	0.241	-0.125
-299.764	800.000	0.069	0.208
-298.749	800.000	0.040	0.113
-297.735	-78.190	0.257	-0.088
-296.720	435.836	-0.076	0.164
-295.705	-175.115	-0.238	-0.007
-294.691	-88.515	0.149	-0.044
-293.676	-30.412	0.103	0.058
-292.662	-200.000	-0.020	-0.227
-291.647	-200.000	-0.000	0.049
-290.632	800.000	0.144	0.394
-289.618	-39.788	-0.161	-0.084
-288.603	135.582	-0.138	-0.179
-287.589	201.787	0.108	0.165
-286.574	596.758	-0.027	-0.066
-285.559	-84.628	0.322	0.101
-284.545	800.000	0.058	0.240
-283.530	-200.000	-0.018	0.180
-282.516	-150.127	0.113	-0.009
-281.501	-134.289	-0.200	0.024
-280.486	-200.000	-0.004	0.167
-279.472	66.558	-0.228	0.231
-278.457	433.757	-0.112	0.242
-277.443	-90.346	0.081	-0.023
-276.428	-104.890	-0.042	-0.010
-275.413	90.842	-0.129	0.143
-274.399	800.000	-0.054	-0.190
-273.384	50.812	0.208	0.196
-272.370	123.383	-0.154	-0.192
-271.355	-26.574	-0.163	-0.095
-270.340	26.431	-0.161	-0.133
-269.326	-200.000	-0.042	0.000
-268.311	-79.013	0.112	0.038
-267.297	36.153	0.040	-0.035
-266.282	172.696	0.093	-0.133
-265.267	583.330	0.090	0.218
-264.253	-200.000	0.034	-0.297
-263.238	-51.174	0.263	0.122
-262.224	-200.000	-0.016	0.128
-261.209	800.000	-0.031	0.103
-260.195	-125.378	-0.160	0.024
-259.180	399.999	0.079	0.165
-258.165	90.569	0.095	0.105
-257.151	28.816	-0.049	-0.041
-256.136	-133.758	-0.284	-0.035
-255.122	-20.623	-0.141	-0.086
-254.107	374.713	0.066	0.134
-253.092	32.415	-0.094	-0.080
-252.078	739.059	0.001	-0.002
-251.063	-147.513	0.191	0.016
-250.049	400.963	-0.055	0.114
-249.034	-92.671	-0.239	-0.066
-248.019	-102.285	0.175	0.042
-247.005	-200.000	-0.021	-0.359
-245.990	-42.695	-0.181	0.091
-244.976	-94.687	0.153	-0.041
-243.961	66.353	0.095	0.096
-242.946	-11.598	-0.099	0.064
-241.932	11.422	-0.120	0.092
-240.917	592.481	0.073	-0.178
-239.903	-92.374	0.280	0.078
-238.888	800.000	0.106	-0.400
-237.873	-200.000	-0.011	-0.052
-236.859	-98.917	-0.280	0.071
-235.844	6.451	-0.230	0.170
-234.830	-108.148	0.300	-0.064
-233.815	-200.000	-0.022	0.183
-232.800	170.633	0.043	0.061
-231.786	-105.298	0.274	0.062
-230.771	800.000	-0.062	0.187
-229.757	-48.301	0.385	0.184
-228.742	-21.892	-0.047	0.028
-227.727	273.711	0.028	-0.050
-226.713	-153.120	0.201	-0.014
-225.698	-200.000	0.016	-0.116
-224.684	-67.190	0.238	0.093
-223.669	-116.766	-0.203	0.037
-222.655	102.248	0.085	-0.099
-221.640	-102.089	-0.272	-0.065
-220.625	124.552	-0.057	-0.072
-219.611	-200.000	-0.052	0.300
-218.596	-41.038	0.062	-0.032
-217.582	-109.284	0.157	-0.033
-216.567	-38.123	0.165	-0.087
-215.552	800.000	0.062	-0.212
-214.538	800.000	0.103	-0.325
-213.523	800.000	-0.091	-0.302
-212.509	800.000	0.055	-0.164
-211.494	-152.922	-0.215	0.015
-210.479	-126.234	0.065	0.010
-209.465	12.832	-0.060	-0.046
-208.450	59.544	0.099	0.097
-207.436	-200.000	0.002	0.196
-206.421	88.594	-0.240	0.265
-205.406	-67.670	0.080	0.031
-204.392	800.000	0.015	0.055
-203.377	-151.526	0.322	0.024
-202.363	50.114	0.141	-0.132
-201.348	-166.022	0.266	-0.011
-200.333	-22.283	-0.225	0.135
-199.319	-147.353	-0.229	-0.019
-198.304	626.143	0.116	-0.290
-197.290	-109.933	0.356	0.074
-196.275	390.243	-0.118	-0.242
-195.260	452.303	-0.027	-0.060
-194.246	800.000	0.065	-0.223
-193.231	-81.706	-0.182	-0.059
-192.217	800.000	-0.026	-0.082
-191.202	-200.000	-0.024	-0.184
-190.187	-145.368	0.144	0.013
-189.173	800.000	0.033	0.142
-188.158	-59.690	-0.160	-0.068
-187.144	800.000	0.042	-0.179
-186.129	-200.000	0.017	-0.073
-185.114	800.000	0.048	-0.144
-184.100	89.596	0.100	-0.110
-183.085	290.350	-0.098	-0.175
-182.071	800.000	0.022	-0.083
-181.056	-31.476	-0.213	0.118
-180.042	251.868	0.068	-0.114
-179.027	83.343	0.111	0.119
-178.012	290.118	-0.146	0.263
-176.998	106.127	-0.115	-0.135
-175.983	-38.833	0.225	-0.117
-174.969	-8.427	0.228	0.152
-173.954	-10.427	0.174	-0.114
-172.939	-146.719	-0.155	0.013
-171.925	201.535	-0.081	-0.124
-170.910	-200.000	0.046	0.513
-169.896	116.453	0.347	0.421
-168.881	163.861	0.024	-0.033
-167.866	-77.102	0.018	-0.006
-166.852	-29.293	-0.308	0.174
-165.837	800.000	-0.029	0.085
-164.823	-53.368	0.244	-0.110
-163.808	-44.916	0.098	0.048
-162.793	-200.000	0.014	-0.254
-161.779	800.000	0.047	-0.191
-160.764	-100.423	0.239	0.059
-159.750	-200.000	0.070	-0.354
-158.735	800.000	-0.084	-0.283
-157.720	-137.955	0.273	-0.030
-156.706	-77.066	0.071	-0.024
-155.691	82.282	0.072	-0.077
-154.677	66.270	0.165	-0.165
-153.662	191.967	-0.112	0.167
-152.647	-7.801	-0.157	0.105
-151.633	-104.025	0.185	0.043
-150.618	-200.000	-0.006	0.367
-149.604	-88.004	0.205	-0.061
-148.589	-200.000	0.032	0.152
-147.574	-153.448	0.186	-0.013
-146.560	-64.551	-0.369	-0.148
-145.545	-200.000	-0.011	0.197
-144.531	193.880	-0.116	-0.173
-143.516	-100.593	0.225	0.055
-142.502	-64.570	0.209	0.084
-141.487	-200.000	0.031	0.183
-140.472	-103.324	-0.394	0.092
-139.458	521.961	0.107	0.247
-138.443	-154.711	-0.074	-0.005
-137.429	-87.093	-0.209	0.063
-136.414	-50.641	-0.037	-0.017
-135.399	-115.959	0.314	0.058
-134.385	-91.020	-0.177	0.050
-133.370	-5.557	0.427	0.289
-132.356	511.464	-0.046	0.107
-131.341	22.846	-0.288	0.233
-130.326	-200.000	-0.002	-0.009
-129.312	-11.020	0.188	0.123
-128.297	-104.730	0.479	0.109
-127.283	182.600	-0.154	0.224
-126.268	688.497	-0.148	0.381
-125.253	470.187	0.114	-0.253
-124.239	-124.793	0.148	-0.023
-123.224	173.166	-0.140	0.200
-122.210	-76.096	-0.247	-0.086
