DTS Sentinel unit serial number:	SN413079Multiplexer serial number:	ORYXHardware model number:	OX4-SRSoftware version number:	ORYX F/W v4.00 Oryx Data Collector v3.7.2.0data status	okinstallation	princeton_trtdifferential loss correction	single-endedforward channel	channel 2reverse channel	N/Adate	2019/09/19time	11:27:34forward acquisition time	60.00reverse acquisition time	0.00gamma	496.2192k internal	0.2341k external	0.2341temperature offset calibration	1.0011default loss term (dB/km)	0.3790temperature slope calibration	1.0000multiplexer offset coefficient	1.0000multiplexer slope coefficient	1.0000fibre end	0.00T internal ref (°C)	25.36T ext. ref 1 (°C)	0.79T ext. ref 2 (°C)	21.17length (m)	temperature (°C)	Stokes	anti-Stokes-747.200	-200.000	-0.039	0.176
-746.185	395.182	-0.239	0.500
-745.171	251.212	0.178	0.303
-744.156	27.371	-0.195	0.164
-743.142	-200.000	0.001	0.295
-742.127	-126.567	0.173	-0.026
-741.112	159.140	-0.367	-0.511
-740.098	800.000	-0.078	-0.234
-739.083	1.333	-0.049	0.035
-738.069	267.741	-0.221	0.388
-737.054	52.319	0.076	-0.073
-736.039	167.768	-0.131	-0.187
-735.025	800.000	-0.119	0.356
-734.010	-122.721	-0.145	-0.023
-732.996	-117.236	-0.136	-0.025
-731.981	800.000	-0.072	0.284
-730.966	800.000	-0.078	0.329
-729.952	194.919	-0.242	-0.368
-728.937	-30.358	-0.044	-0.025
-727.923	184.320	-0.042	-0.062
-726.908	66.175	0.224	0.228
-725.894	86.114	-0.143	-0.158
-724.879	800.000	0.075	-0.293
-723.864	-175.725	-0.193	-0.005
-722.850	76.909	-0.063	0.067
-721.835	-200.000	0.004	0.223
-720.821	800.000	-0.109	-0.332
-719.806	80.427	0.164	-0.176
-718.791	223.972	0.176	0.285
-717.777	115.087	0.192	0.234
-716.762	622.758	-0.167	0.421
-715.748	-94.669	0.095	0.026
-714.733	-200.000	0.003	0.130
-713.718	-200.000	0.001	0.213
-712.704	-27.747	-0.058	0.034
-711.689	-3.286	0.259	0.180
-710.675	-175.499	0.253	-0.007
-709.660	-200.000	-0.009	-0.118
-708.645	-200.000	-0.001	-0.162
-707.631	-52.892	-0.194	0.089
-706.616	-29.350	0.135	0.077
-705.602	-200.000	-0.037	-0.272
-704.587	800.000	-0.103	0.345
-703.572	-63.481	0.203	-0.083
-702.558	142.122	0.214	-0.285
-701.543	55.775	0.137	-0.132
-700.529	-39.773	-0.224	0.117
-699.514	52.268	-0.168	-0.161
-698.499	-40.641	-0.052	0.027
-697.485	-180.365	-0.462	0.010
-696.470	800.000	-0.046	0.157
-695.456	109.170	-0.046	-0.055
-694.441	-36.199	0.349	-0.189
-693.426	-81.364	0.096	0.032
-692.412	-123.144	-0.122	-0.019
-691.397	634.920	-0.128	0.326
-690.383	80.654	0.052	0.056
-689.368	800.000	-0.053	0.199
-688.354	404.058	0.100	0.210
-687.339	800.000	0.048	0.159
-686.324	313.637	-0.025	-0.047
-685.310	-136.993	-0.183	-0.021
-684.295	44.083	-0.118	-0.108
-683.281	-41.253	-0.181	-0.093
-682.266	234.124	-0.230	0.379
-681.251	800.000	-0.137	0.392
-680.237	-11.061	-0.106	0.070
-679.222	-72.875	0.179	-0.066
-678.208	-116.339	-0.112	-0.021
-677.193	-36.527	0.360	-0.194
-676.178	-62.371	0.129	0.054
-675.164	32.356	0.226	0.195
-674.149	-180.699	-0.432	0.009
-673.135	-200.000	-0.013	0.096
-672.120	123.918	-0.145	-0.181
-671.105	236.812	-0.087	-0.144
-670.091	-200.000	-0.022	-0.286
-669.076	-44.306	-0.293	-0.147
-668.062	251.086	0.044	0.074
-667.047	314.189	-0.159	0.299
-666.032	-23.314	0.238	0.143
-665.018	-128.548	-0.286	-0.040
-664.003	302.246	0.252	0.465
-662.989	30.855	-0.252	-0.216
-661.974	-93.587	0.291	-0.080
-660.959	-54.079	0.149	-0.068
-659.945	-200.000	-0.001	-0.012
-658.930	-200.000	0.006	0.186
-657.916	-150.051	0.463	-0.036
-656.901	-138.590	0.252	-0.028
-655.886	-122.314	-0.349	0.057
-654.872	353.930	0.131	-0.260
-653.857	205.980	0.051	0.079
-652.843	272.109	-0.171	-0.301
-651.828	-124.076	0.290	-0.045
-650.814	381.113	0.031	-0.064
-649.799	-200.000	-0.005	-0.042
-648.784	-135.558	-0.262	0.031
-647.770	426.869	0.086	-0.186
-646.755	-200.000	0.028	0.261
-645.741	162.401	0.071	-0.099
-644.726	232.749	0.141	-0.231
-643.711	-57.444	0.153	-0.067
-642.697	-200.000	-0.054	-0.353
-641.682	-57.161	0.310	0.136
-640.668	313.469	0.206	0.387
-639.653	-85.298	0.131	0.041
-638.638	58.928	0.070	-0.069
-637.624	-124.953	-0.253	-0.039
-636.609	-24.451	-0.056	-0.033
-635.595	800.000	-0.090	-0.366
-634.580	368.886	0.059	-0.118
-633.565	-71.034	-0.169	0.063
-632.551	76.743	-0.189	0.200
-631.536	800.000	0.048	0.190
-630.522	277.269	0.097	0.172
-629.507	-128.843	0.161	-0.023
-628.492	-17.710	-0.143	0.089
-627.478	-61.087	0.090	0.038
-626.463	321.273	-0.122	0.231
-625.449	-155.988	-0.055	0.003
-624.434	56.593	0.195	-0.190
-623.419	-200.000	0.040	-0.187
-622.405	-35.284	-0.156	-0.085
-621.390	-172.303	0.202	0.006
-620.376	800.000	-0.054	0.200
-619.361	655.871	-0.062	0.159
-618.346	232.003	-0.065	0.107
-617.332	-200.000	0.003	-0.179
-616.317	-200.000	-0.011	-0.289
-615.303	-56.026	-0.432	-0.192
-614.288	334.448	0.072	-0.139
-613.273	-86.235	0.202	-0.062
-612.259	411.849	0.057	0.121
-611.244	237.750	-0.120	0.199
-610.230	204.248	0.212	-0.328
-609.215	52.374	0.160	-0.153
-608.201	22.832	0.049	-0.040
-607.186	-159.388	-0.246	0.014
-606.171	64.245	0.211	0.212
-605.157	-26.492	-0.565	0.330
-604.142	-33.078	0.272	-0.150
-603.128	737.769	-0.110	0.295
-602.113	42.679	-0.076	0.069
-601.098	58.685	-0.101	0.099
-600.084	-82.708	-0.158	0.051
-599.069	120.199	-0.037	-0.046
-598.055	-119.175	0.161	-0.028
-597.040	-116.770	0.355	0.065
-596.025	-41.086	0.122	0.063
-595.011	-47.666	-0.156	-0.076
-593.996	-32.286	0.220	-0.123
-592.982	-56.070	-0.146	0.065
-591.967	467.754	0.145	0.324
-590.952	696.515	0.103	-0.269
-589.938	-23.950	0.308	-0.183
-588.923	-117.932	-0.246	0.044
-587.909	-111.029	0.077	-0.016
-586.894	-160.298	-0.338	0.018
-585.879	-59.974	0.080	0.034
-584.865	90.472	0.184	-0.205
-583.850	-37.976	-0.310	0.164
-582.836	800.000	-0.038	0.122
-581.821	507.059	0.049	0.114
-580.806	238.999	0.117	0.193
-579.792	-8.886	-0.103	0.068
-578.777	-112.837	-0.344	0.068
-577.763	112.008	-0.231	-0.278
-576.748	-45.516	0.155	0.076
-575.733	-200.000	0.050	-0.358
-574.719	-200.000	-0.045	0.429
-573.704	266.278	-0.094	-0.164
-572.690	-200.000	0.056	-0.434
-571.675	39.951	-0.065	-0.058
-570.661	44.309	-0.173	-0.158
-569.646	-102.692	-0.339	0.080
-568.631	-37.897	-0.224	0.119
-567.617	-113.168	0.502	-0.098
-566.602	-108.995	-0.118	-0.025
-565.588	307.045	-0.090	-0.166
-564.573	-96.238	0.141	0.037
-563.558	-57.289	-0.173	0.076
-562.544	-119.132	-0.254	0.044
-561.529	83.731	-0.159	-0.173
-560.515	60.358	-0.130	-0.128
-559.500	59.970	-0.247	0.242
-558.485	490.120	0.064	-0.146
-557.471	800.000	-0.041	-0.158
-556.456	705.794	-0.046	0.122
-555.442	800.000	0.035	0.140
-554.427	-200.000	-0.036	-0.246
-553.412	362.530	-0.060	-0.121
-552.398	-15.330	-0.031	-0.020
-551.383	174.357	-0.140	0.201
-550.369	-92.371	0.350	0.098
-549.354	800.000	0.048	-0.180
-548.339	-57.922	0.427	-0.186
-547.325	-148.227	-0.199	0.016
-546.310	800.000	0.036	0.133
-545.296	21.993	0.121	0.098
-544.281	-23.968	-0.262	0.156
-543.266	188.399	-0.172	-0.256
-542.252	-5.352	-0.340	0.232
-541.237	800.000	0.060	-0.188
-540.223	800.000	-0.065	-0.178
-539.208	-47.083	0.120	0.058
-538.193	212.922	-0.018	0.028
-537.179	696.395	-0.054	0.141
-536.164	257.886	-0.071	-0.122
-535.150	-9.644	-0.261	0.173
-534.135	-135.897	0.259	0.030
-533.121	389.907	0.113	-0.234
-532.106	-200.000	0.019	0.163
-531.091	800.000	-0.033	-0.100
-530.077	-62.462	-0.125	-0.052
-529.062	800.000	-0.077	-0.291
-528.048	-23.938	0.152	0.090
-527.033	-74.695	0.238	-0.085
-526.018	417.043	-0.112	0.238
-525.004	192.428	0.211	0.316
-523.989	700.602	-0.068	0.178
-522.975	-147.720	-0.249	0.021
-521.960	-70.862	-0.236	-0.088
-520.945	59.403	-0.179	0.175
-519.931	-14.063	0.163	-0.105
-518.916	-200.000	0.011	0.179
-517.902	70.942	-0.238	0.244
-516.887	288.552	0.040	-0.071
-515.872	212.374	0.118	-0.185
-514.858	-83.855	-0.084	-0.027
-513.843	-34.575	-0.087	-0.047
-512.829	585.017	0.141	-0.343
-511.814	-166.480	0.248	0.010
-510.799	-136.341	-0.185	-0.021
-509.785	87.908	0.109	-0.120
-508.770	-131.467	0.301	-0.039
-507.756	-200.000	0.019	0.290
-506.741	-107.785	0.308	0.067
-505.726	-32.461	0.563	-0.311
-504.712	42.037	0.219	0.197
-503.697	351.240	0.067	-0.132
-502.683	-200.000	-0.095	-0.422
-501.668	-193.523	0.165	0.001
-500.653	-16.135	-0.262	-0.165
-499.639	-53.963	0.167	0.076
-498.624	429.671	-0.084	-0.179
-497.610	85.007	0.150	-0.163
-496.595	-13.703	0.061	0.039
-495.581	-11.512	0.070	0.046
-494.566	-72.741	-0.385	0.141
-493.551	-95.426	-0.294	0.078
-492.537	-14.601	0.312	0.199
-491.522	800.000	-0.036	0.142
-490.508	-84.469	-0.077	-0.024
-489.493	800.000	0.084	0.271
-488.478	-105.825	0.111	-0.025
-487.464	-106.176	-0.433	0.096
-486.449	-164.905	0.087	-0.004
-485.435	177.646	0.045	-0.065
-484.420	800.000	-0.030	0.108
-483.405	-72.232	0.330	-0.122
-482.391	-76.045	0.184	-0.065
-481.376	109.994	0.085	-0.101
-480.362	60.276	-0.135	-0.133
-479.347	-87.343	-0.326	0.098
-478.332	-34.523	-0.110	-0.060
-477.318	-200.000	0.005	-0.045
-476.303	-130.394	0.289	-0.039
-475.289	-151.226	0.225	0.017
-474.274	-200.000	-0.050	0.278
-473.259	12.565	-0.116	-0.089
-472.245	-119.033	-0.096	0.017
-471.230	106.568	0.191	0.225
-470.216	262.703	0.123	0.212
-469.201	-79.897	-0.224	0.075
-468.186	-162.694	-0.293	-0.014
-467.172	-46.108	-0.145	0.071
-466.157	67.874	0.140	0.142
-465.143	-200.000	0.001	-0.089
-464.128	53.482	0.220	0.209
-463.113	8.248	0.115	0.086
-462.099	270.264	0.348	-0.607
-461.084	624.683	0.059	0.147
-460.070	36.491	-0.253	-0.221
-459.055	-119.058	-0.194	0.034
-458.040	71.335	-0.306	0.315
-457.026	250.110	-0.176	0.295
-456.011	-200.000	0.022	-0.287
-454.997	335.669	-0.091	0.176
-453.982	-36.821	0.075	-0.040
-452.968	-63.875	0.039	-0.016
-451.953	236.703	0.042	0.070
-450.938	-200.000	-0.027	0.124
-449.924	-200.000	-0.093	0.000
-448.909	-62.182	-0.406	0.168
-447.895	-1.369	-0.229	0.160
-446.880	800.000	0.077	0.270
-445.865	-200.000	0.053	0.387
-444.851	-200.000	-0.007	0.043
-443.836	-69.611	-0.333	-0.126
-442.822	104.825	0.226	-0.264
-441.807	-200.000	-0.013	-0.217
-440.792	92.566	0.186	-0.208
-439.778	63.997	-0.194	0.193
-438.763	315.292	0.163	0.304
-437.749	105.127	-0.053	-0.062
-436.734	-200.000	-0.001	-0.102
-435.719	425.812	0.103	0.219
-434.705	-33.195	0.261	0.143
-433.690	465.638	0.080	0.178
-432.676	189.582	0.190	0.281
-431.661	-37.270	0.349	0.185
-430.646	-40.587	0.174	0.089
-429.632	800.000	-0.084	0.264
-428.617	-45.768	0.194	-0.095
-427.603	377.279	0.049	-0.099
-426.588	100.585	-0.057	-0.066
-425.573	-200.000	0.055	-0.245
-424.559	3.313	-0.153	0.110
-423.544	258.048	-0.144	0.245
-422.530	641.336	0.084	-0.211
-421.515	-200.000	-0.038	-0.292
-420.500	-75.378	-0.308	0.108
-419.486	93.780	0.200	0.225
-418.471	203.491	0.179	-0.273
-417.457	-114.443	0.031	-0.006
-416.442	42.659	0.125	-0.113
-415.428	-117.668	-0.080	-0.014
-414.413	-54.473	0.156	0.070
-413.398	480.430	-0.137	-0.308
-412.384	-8.383	-0.153	0.102
-411.369	375.435	-0.147	-0.296
-410.355	70.565	-0.030	0.031
-409.340	-8.237	-0.112	0.074
-408.325	-63.932	-0.018	-0.007
-407.311	21.811	0.354	-0.285
-406.296	326.614	0.292	-0.552
-405.282	161.291	0.088	-0.121
-404.267	-59.615	0.314	-0.133
-403.252	404.352	0.081	-0.169
-402.238	-46.718	-0.225	0.109
-401.223	-80.614	0.194	0.064
-400.209	-149.058	-0.411	-0.033
-399.194	800.000	0.117	0.344
-398.179	-51.455	-0.160	0.074
-397.165	-200.000	0.005	0.053
-396.150	62.000	-0.179	-0.176
-395.136	-160.288	-0.278	0.015
-394.121	-80.171	-0.490	0.162
-393.106	-105.068	0.357	0.081
-392.092	-200.000	-0.008	0.417
-391.077	167.618	-0.261	0.366
-390.063	-6.500	0.166	0.112
-389.048	-121.346	-0.315	0.052
-388.033	800.000	-0.055	-0.169
-387.019	-45.863	-0.236	0.115
-386.004	174.994	0.230	-0.329
-384.990	-22.724	-0.236	0.141
-383.975	-16.149	0.290	-0.182
-382.960	800.000	-0.017	-0.049
-381.946	-168.756	0.121	-0.005
-380.931	390.946	0.194	-0.397
-379.917	2.488	-0.163	-0.116
-378.902	-87.795	-0.234	0.070
-377.888	131.648	-0.030	-0.038
-376.873	169.167	0.029	0.041
-375.858	233.891	-0.192	-0.312
-374.844	28.902	-0.072	0.060
-373.829	-67.257	0.131	0.051
-372.815	-200.000	0.024	0.260
-371.800	800.000	-0.070	0.263
-370.785	62.673	-0.170	0.168
-369.771	442.444	-0.052	-0.112
-368.756	219.655	0.192	0.304
-367.742	800.000	0.105	-0.404
-366.727	27.569	-0.056	0.047
-365.712	-133.227	0.245	-0.031
-364.698	25.885	-0.160	0.131
-363.683	35.897	-0.136	0.118
-362.669	101.519	0.222	0.255
-361.654	-47.770	0.118	0.056
-360.639	598.113	0.105	-0.257
-359.625	13.108	0.204	-0.156
-358.610	555.253	0.071	0.169
-357.596	85.199	-0.176	-0.191
-356.581	-187.048	-0.110	-0.001
-355.566	238.091	-0.098	0.161
-354.552	800.000	-0.075	-0.318
-353.537	800.000	-0.047	-0.175
-352.523	29.801	-0.192	-0.161
-351.508	140.744	0.202	0.264
-350.493	14.190	0.184	0.141
-349.479	365.742	0.064	-0.128
-348.464	90.136	0.135	0.149
-347.450	728.191	0.093	-0.245
-346.435	-200.000	0.020	0.107
-345.420	-128.288	0.163	-0.023
-344.406	207.789	-0.089	-0.136
-343.391	-104.295	0.316	-0.072
-342.377	-91.156	0.237	0.067
-341.362	603.230	0.048	-0.118
-340.348	-200.000	0.026	-0.141
-339.333	-51.154	-0.053	0.024
-338.318	-63.527	0.364	0.148
-337.304	-200.000	-0.088	-0.390
-336.289	64.822	-0.366	-0.364
-335.275	-200.000	0.001	-0.065
-334.260	-183.848	0.445	-0.007
-333.245	-4.014	0.333	0.228
-332.231	34.105	-0.103	0.088
-331.216	-39.886	-0.056	0.029
-330.202	-54.051	0.272	0.122
-329.187	61.882	0.141	-0.139
-328.172	-84.691	0.531	-0.165
-327.158	800.000	-0.081	-0.305
-326.143	-49.005	-0.205	-0.097
-325.129	127.047	-0.092	-0.115
-324.114	-70.274	0.235	-0.088
-323.099	-116.300	-0.112	-0.020
-322.085	49.920	-0.115	0.107
-321.070	-54.871	0.535	-0.238
-320.056	-200.000	-0.031	0.195
-319.041	-123.153	0.106	-0.017
-318.026	23.866	-0.328	0.266
-317.012	-150.518	0.284	-0.021
-315.997	-69.609	0.167	0.063
-314.983	-12.217	0.470	-0.303
-313.968	-100.018	-0.234	0.058
-312.953	-90.241	-0.185	-0.053
-311.939	-160.142	0.200	-0.011
-310.924	-14.518	0.065	-0.041
-309.910	-96.573	-0.136	-0.035
-308.895	-49.916	-0.100	-0.047
-307.880	-70.763	0.085	0.031
-306.866	-146.699	-0.223	0.019
-305.851	800.000	0.138	-0.462
-304.837	-200.000	0.022	0.355
-303.822	5.290	-0.156	-0.113
-302.807	-14.856	0.063	-0.040
-301.793	-103.692	-0.085	-0.020
-300.778	-15.120	-0.382	-0.241
-299.764	-52.074	0.172	-0.078
-298.749	590.016	0.124	0.300
-297.735	14.946	-0.082	0.063
-296.720	-50.804	-0.068	-0.032
-295.705	-86.677	0.358	0.108
-294.691	51.472	-0.213	0.199
-293.676	438.941	-0.086	0.185
-292.662	-128.418	0.462	0.065
-291.647	-200.000	0.014	-0.080
-290.632	-200.000	-0.110	-0.504
-289.618	-60.773	-0.113	-0.047
-288.603	800.000	0.096	-0.347
-287.589	51.152	-0.243	-0.227
-286.574	1.743	-0.037	0.026
-285.559	-107.075	-0.282	0.061
-284.545	44.787	-0.148	-0.134
-283.530	68.989	-0.181	-0.183
-282.516	-66.911	0.195	-0.076
-281.501	-142.219	0.185	0.018
-280.486	66.750	-0.146	-0.146
-279.472	18.388	-0.305	-0.240
-278.457	79.670	0.247	-0.261
-277.443	75.573	0.107	-0.111
-276.428	104.311	-0.141	-0.164
-275.413	49.721	-0.165	-0.153
-274.399	64.462	-0.252	-0.250
-273.384	-171.255	0.198	-0.007
-272.370	-200.000	-0.032	0.162
-271.355	-89.773	-0.316	0.091
-270.340	-31.135	-0.291	-0.162
-269.326	-131.604	-0.471	-0.061
-268.311	179.265	0.029	-0.041
-267.297	-92.935	0.387	-0.106
-266.282	-57.520	-0.187	-0.081
-265.267	256.371	0.139	0.235
-264.253	158.090	-0.148	0.202
-263.238	30.893	-0.172	-0.145
-262.224	209.919	0.089	-0.138
-261.209	-200.000	0.027	0.352
-260.195	800.000	-0.047	-0.189
-259.180	800.000	-0.018	-0.057
-258.165	800.000	-0.040	-0.116
-257.151	-200.000	0.003	-0.234
-256.136	-200.000	-0.010	0.216
-255.122	-78.498	-0.091	-0.031
-254.107	68.521	0.222	-0.224
-253.092	-13.675	0.432	-0.275
-252.078	800.000	0.144	0.398
-251.063	-88.310	0.246	-0.072
-250.049	-59.586	-0.144	0.061
-249.034	94.417	-0.030	-0.034
-248.019	-121.115	0.303	0.050
-247.005	800.000	-0.016	-0.048
-245.990	-127.215	0.131	-0.019
-244.976	-200.000	-0.007	0.137
-243.961	-93.009	-0.017	-0.005
-242.946	96.114	-0.172	-0.193
-241.932	69.526	-0.291	-0.295
-240.917	63.979	-0.154	0.152
-239.903	800.000	-0.070	-0.253
-238.888	438.370	0.210	0.450
-237.873	-200.000	-0.003	0.148
-236.859	-71.241	0.415	0.153
-235.844	800.000	0.051	0.175
-234.830	800.000	0.052	0.148
-233.815	-79.883	0.174	-0.057
-232.800	245.180	-0.107	-0.177
-231.786	-200.000	0.025	0.137
-230.771	-29.280	0.263	-0.148
-229.757	-45.447	0.216	0.105
-228.742	81.166	-0.090	0.095
-227.727	800.000	0.036	0.116
-226.713	-39.609	0.202	-0.104
-225.698	-45.933	-0.096	-0.046
-224.684	-200.000	0.006	0.131
-223.669	800.000	0.047	0.153
-222.655	68.254	0.078	0.079
-221.640	800.000	0.020	0.074
-220.625	-63.936	0.158	-0.063
-219.611	652.279	-0.123	0.310
-218.596	800.000	0.026	0.076
-217.582	65.235	-0.209	0.207
-216.567	-49.635	0.259	-0.121
-215.552	-114.637	-0.077	0.014
-214.538	422.484	-0.140	-0.295
-213.523	169.738	-0.018	0.025
-212.509	176.069	-0.215	-0.307
-211.494	656.054	0.195	0.491
-210.479	1.424	-0.143	-0.101
-209.465	66.430	-0.078	0.078
-208.450	-174.896	-0.140	-0.004
-207.436	-29.691	-0.048	0.027
-206.421	3.641	0.241	0.172
-205.406	245.045	0.044	-0.072
-204.392	698.029	-0.056	-0.145
-203.377	-200.000	-0.002	-0.018
-202.363	800.000	-0.061	-0.195
-201.348	97.559	-0.224	0.253
-200.333	-146.870	0.117	0.010
-199.319	800.000	-0.105	-0.358
-198.304	-84.825	0.391	-0.120
-197.290	212.575	-0.188	0.291
-196.275	-32.502	0.270	0.147
-195.260	-200.000	0.013	0.118
-194.246	612.130	-0.069	0.170
-193.231	-34.748	-0.304	0.163
-192.217	800.000	0.074	0.239
-191.202	-33.298	-0.256	0.139
-190.187	-97.606	-0.161	-0.041
-189.173	800.000	0.076	0.313
-188.158	-65.147	0.112	0.044
-187.144	-83.534	-0.206	-0.065
-186.129	-186.329	-0.022	-0.000
-185.114	-200.000	-0.020	0.102
-184.100	-200.000	0.024	-0.230
-183.085	-41.396	0.285	-0.144
-182.071	-3.803	-0.112	-0.077
-181.056	641.063	0.078	0.194
-180.042	-158.303	-0.250	-0.014
-179.027	-200.000	-0.002	-0.083
-178.012	800.000	-0.069	0.192
-176.998	311.098	0.114	-0.209
-175.983	-3.399	-0.101	0.069
-174.969	37.430	-0.024	0.021
-173.954	96.835	-0.283	0.317
-172.939	800.000	0.059	0.179
-171.925	-200.000	-0.036	0.239
-170.910	8.945	-0.407	0.301
-169.896	-84.689	-0.452	0.140
-168.881	-7.403	-0.082	0.055
-167.866	-98.198	-0.108	-0.027
-166.852	67.764	-0.156	-0.156
-165.837	52.640	-0.123	-0.115
-164.823	-200.000	-0.009	0.084
-163.808	-113.306	0.367	0.071
-162.793	124.944	0.084	-0.104
-161.779	5.733	0.093	0.067
-160.764	-2.386	0.160	-0.110
-159.750	40.124	0.232	-0.204
-158.735	-200.000	0.030	0.231
-157.720	41.254	-0.228	0.202
-156.706	-200.000	0.070	0.409
-155.691	-157.314	-0.248	0.015
-154.677	14.036	0.357	0.272
-153.662	-13.082	-0.189	0.120
-152.647	800.000	-0.123	-0.459
-151.633	-50.638	0.079	0.036
-150.618	-132.397	-0.197	-0.025
-149.604	-200.000	0.056	0.244
-148.589	200.762	-0.199	0.300
-147.574	20.778	0.140	0.111
-146.560	-174.457	0.171	-0.005
-145.545	-125.335	-0.238	0.036
-144.531	38.528	0.076	-0.066
-143.516	800.000	0.136	0.455
-142.502	1.042	0.091	0.064
-141.487	-53.972	-0.246	-0.110
-140.472	-15.925	0.141	0.088
-139.458	-122.819	0.067	-0.011
-138.443	575.126	-0.040	0.096
-137.429	754.389	0.086	0.227
-136.414	800.000	-0.095	-0.271
-135.399	-118.657	0.142	-0.024
-134.385	147.231	0.067	0.088
-133.370	140.739	0.168	0.217
-132.356	-200.000	0.032	0.184
-131.341	526.730	0.235	0.543
-130.326	-19.348	-0.174	0.105
-129.312	460.354	0.036	0.078
-128.297	-194.322	0.515	-0.004
-127.283	-38.313	0.167	0.087
-126.268	17.253	-0.091	0.071
-125.253	-132.740	-0.109	-0.014
-124.239	641.917	-0.173	-0.432
-123.224	-143.712	0.150	0.014
-122.210	-200.000	-0.036	0.359
-121.195	16.190	0.150	-0.115
-120.180	44.177	-0.176	0.158
