DTS Sentinel unit serial number:	SN413079Multiplexer serial number:	ORYXHardware model number:	OX4-SRSoftware version number:	ORYX F/W v4.00 Oryx Data Collector v3.7.2.0data status	okinstallation	princeton_trtdifferential loss correction	single-endedforward channel	channel 2reverse channel	N/Adate	2019/09/19time	14:51:35forward acquisition time	60.00reverse acquisition time	0.00gamma	496.2192k internal	0.2322k external	0.2322temperature offset calibration	1.0021default loss term (dB/km)	0.3790temperature slope calibration	1.0000multiplexer offset coefficient	1.0000multiplexer slope coefficient	1.0000fibre end	0.00T internal ref (°C)	32.87T ext. ref 1 (°C)	1.10T ext. ref 2 (°C)	29.83length (m)	temperature (°C)	Stokes	anti-Stokes-747.200	483.010	0.180	0.414
-746.185	-200.000	0.018	-0.171
-745.171	-57.444	0.246	-0.109
-744.156	122.858	-0.144	0.182
-743.142	800.000	-0.104	-0.336
-742.127	800.000	-0.150	-0.500
-741.112	81.252	0.200	-0.219
-740.098	-167.501	-0.122	-0.005
-739.083	-200.000	-0.024	0.264
-738.069	54.081	-0.218	-0.212
-737.054	277.053	0.227	-0.407
-736.039	249.322	-0.131	-0.224
-735.025	-200.000	-0.054	-0.317
-734.010	413.086	-0.187	-0.402
-732.996	-82.250	-0.050	-0.017
-731.981	573.553	0.060	0.149
-730.966	244.988	-0.183	-0.311
-729.952	49.478	-0.131	-0.125
-728.937	-97.927	-0.164	-0.043
-727.923	-200.000	-0.003	0.077
-726.908	-106.329	-0.165	0.037
-725.894	-163.151	-0.207	0.010
-724.879	-109.550	0.423	-0.090
-723.864	-92.544	0.151	-0.043
-722.850	-55.940	-0.233	0.105
-721.835	800.000	0.110	-0.309
-720.821	-200.000	0.021	0.547
-719.806	-91.494	-0.445	-0.128
-718.791	197.427	-0.225	-0.346
-717.777	-200.000	-0.022	-0.305
-716.762	-200.000	-0.020	-0.426
-715.748	283.680	-0.075	0.137
-714.733	-153.679	0.149	0.010
-713.718	800.000	-0.102	-0.361
-712.704	-78.503	-0.149	-0.051
-711.689	122.925	0.153	-0.193
-710.675	800.000	-0.069	-0.245
-709.660	-200.000	-0.001	0.027
-708.645	-200.000	-0.029	0.148
-707.631	800.000	-0.056	0.209
-706.616	-132.956	0.429	0.055
-705.602	800.000	0.027	-0.111
-704.587	-8.641	-0.190	0.128
-703.572	8.666	0.172	0.131
-702.558	-32.662	0.100	-0.056
-701.543	363.674	-0.193	-0.392
-700.529	243.813	0.021	0.036
-699.514	-43.146	0.215	-0.110
-698.499	-83.004	-0.368	-0.120
-697.485	64.894	-0.082	-0.084
-696.470	-53.230	-0.352	-0.163
-695.456	120.605	-0.099	-0.124
-694.441	-200.000	-0.001	0.214
-693.426	-200.000	0.058	-0.305
-692.412	354.892	0.167	-0.334
-691.397	-1.823	-0.384	-0.273
-690.383	84.757	-0.136	0.150
-689.368	207.800	-0.091	0.143
-688.354	-120.523	-0.184	0.031
-687.339	800.000	-0.039	-0.115
-686.324	-101.626	-0.246	0.060
-685.310	125.737	-0.131	0.166
-684.295	199.544	-0.161	0.248
-683.281	-200.000	-0.011	0.412
-682.266	293.418	-0.072	0.132
-681.251	18.166	-0.151	-0.122
-680.237	398.019	-0.060	-0.127
-679.222	-200.000	0.016	-0.075
-678.208	126.849	-0.026	0.033
-677.193	28.565	-0.378	0.322
-676.178	-200.000	0.015	-0.335
-675.164	565.601	0.117	-0.287
-674.149	-88.089	0.198	-0.060
-673.135	-63.090	-0.406	0.169
-672.120	-67.472	0.390	0.154
-671.105	219.355	-0.167	-0.269
-670.091	800.000	-0.061	-0.251
-669.076	800.000	-0.105	-0.339
-668.062	-28.947	-0.323	-0.187
-667.047	-169.355	-0.452	0.017
-666.032	184.043	0.186	-0.278
-665.018	-15.002	-0.211	0.136
-664.003	-16.650	0.108	-0.069
-662.989	-184.957	0.110	0.002
-661.974	-31.890	-0.156	-0.088
-660.959	-200.000	-0.021	-0.116
-659.945	114.294	-0.208	0.255
-658.930	216.347	-0.141	-0.226
-657.916	-94.238	-0.342	-0.094
-656.901	-2.940	0.242	0.170
-655.886	399.061	-0.100	0.212
-654.872	-75.508	-0.080	-0.029
-653.857	29.710	-0.242	-0.207
-652.843	167.248	-0.147	-0.209
-651.828	137.864	-0.062	0.081
-650.814	252.126	0.170	-0.291
-649.799	-141.288	0.139	0.014
-648.784	-121.424	-0.520	0.087
-647.770	-71.428	-0.176	-0.066
-646.755	442.968	0.215	0.475
-645.741	36.357	0.060	-0.053
-644.726	-103.326	0.135	-0.032
-643.711	-200.000	-0.012	0.205
-642.697	278.265	0.119	0.213
-641.682	-200.000	-0.003	-0.105
-640.668	121.299	-0.215	-0.269
-639.653	-102.332	0.154	0.037
-638.638	-69.260	-0.174	-0.067
-637.624	-200.000	-0.039	-0.223
-636.609	32.918	0.253	-0.221
-635.595	443.147	-0.149	-0.329
-634.580	58.398	-0.112	-0.110
-633.565	40.631	-0.011	-0.010
-632.551	694.113	-0.131	-0.345
-631.536	-72.806	-0.093	-0.034
-630.522	13.789	-0.056	-0.044
-629.507	800.000	0.054	-0.176
-628.492	800.000	-0.053	-0.155
-627.478	800.000	-0.026	-0.100
-626.463	-74.957	-0.295	0.106
-625.449	-50.549	-0.456	-0.216
-624.434	-172.974	-0.094	0.003
-623.419	-200.000	0.053	0.238
-622.405	-16.334	-0.063	0.040
-621.390	-200.000	0.089	-0.456
-620.376	-144.715	0.056	0.005
-619.361	800.000	-0.016	-0.064
-618.346	-91.553	-0.553	-0.158
-617.332	124.053	-0.041	-0.051
-616.317	-200.000	-0.017	-0.279
-615.303	800.000	-0.045	0.166
-614.288	80.320	0.193	-0.209
-613.273	-11.785	-0.075	-0.050
-612.259	-123.397	0.240	-0.038
-611.244	-98.627	-0.205	-0.053
-610.230	451.510	-0.114	-0.252
-609.215	-200.000	0.049	0.397
-608.201	375.824	-0.102	0.210
-607.186	-111.288	-0.157	0.032
-606.171	-84.315	-0.269	0.085
-605.157	90.049	0.283	0.318
-604.142	-74.072	-0.059	-0.021
-603.128	97.517	-0.048	0.055
-602.113	-57.884	-0.293	0.129
-601.098	250.970	-0.104	0.177
-600.084	8.643	-0.008	0.006
-599.069	-120.169	-0.159	0.027
-598.055	77.521	-0.069	-0.074
-597.040	800.000	-0.065	-0.242
-596.025	570.137	0.107	-0.262
-595.011	58.963	-0.344	0.340
-593.996	-66.450	0.024	0.010
-592.982	486.995	0.134	-0.307
-591.967	800.000	-0.056	-0.185
-590.952	-200.000	0.004	-0.146
-589.938	346.643	0.082	-0.163
-588.923	-95.255	0.407	-0.110
-587.909	231.804	0.028	-0.047
-586.894	800.000	0.101	-0.309
-585.879	-37.718	0.199	0.106
-584.865	96.823	0.120	-0.138
-583.850	-49.236	0.267	-0.128
-582.836	-30.330	0.449	-0.256
-581.821	37.757	0.278	0.248
-580.806	800.000	0.062	-0.178
-579.792	-200.000	-0.021	-0.095
-578.777	-132.639	0.349	0.045
-577.763	75.000	0.177	-0.187
-576.748	75.249	0.234	-0.248
-575.733	-200.000	0.051	0.261
-574.719	237.315	0.125	-0.208
-573.704	-200.000	0.005	0.059
-572.690	-145.797	0.211	-0.019
-571.675	-104.654	-0.415	0.096
-570.661	118.464	0.106	0.131
-569.646	453.300	-0.133	0.296
-568.631	-135.564	-0.209	0.025
-567.617	-200.000	0.012	0.121
-566.602	800.000	0.076	0.271
-565.588	59.019	-0.124	-0.122
-564.573	-200.000	0.005	0.064
-563.558	142.503	-0.126	-0.168
-562.544	56.243	0.085	-0.083
-561.529	317.208	-0.030	0.056
-560.515	149.136	0.447	0.607
-559.500	-149.400	-0.189	-0.015
-558.485	-200.000	0.013	0.201
-557.471	-200.000	0.004	-0.129
-556.456	153.735	0.183	-0.251
-555.442	-57.442	0.158	-0.070
-554.427	206.195	-0.126	0.197
-553.412	-132.368	0.097	-0.013
-552.398	772.099	-0.045	-0.123
-551.383	-200.000	-0.007	0.047
-550.369	129.391	-0.159	-0.203
-549.354	-200.000	0.024	-0.145
-548.339	-200.000	-0.021	0.191
-547.325	52.863	-0.245	-0.235
-546.310	-41.697	-0.158	0.081
-545.296	401.081	0.154	0.324
-544.281	800.000	0.027	-0.079
-543.266	279.490	-0.065	0.116
-542.252	-40.237	-0.098	0.051
-541.237	-5.953	-0.222	-0.152
-540.223	-62.709	0.092	0.038
-539.208	455.348	-0.056	0.124
-538.193	-200.000	0.030	0.307
-537.179	-138.583	-0.270	0.030
-536.164	-77.257	-0.243	0.085
-535.150	-144.196	-0.439	0.041
-534.135	800.000	-0.073	-0.217
-533.121	-200.000	0.003	0.085
-532.106	800.000	0.064	-0.189
-531.091	800.000	0.052	0.202
-530.077	-200.000	-0.066	0.366
-529.062	-200.000	-0.042	0.193
-528.048	-105.174	0.164	0.038
-527.033	-81.082	-0.205	0.068
-526.018	-179.143	0.141	-0.003
-525.004	618.342	-0.060	-0.151
-523.989	36.835	0.084	0.075
-522.975	800.000	-0.062	-0.237
-521.960	462.758	0.050	0.111
-520.945	-200.000	0.010	0.052
-519.931	12.757	-0.173	0.134
-518.916	-200.000	0.008	0.373
-517.902	438.067	-0.076	0.167
-516.887	2.983	0.234	0.170
-515.872	84.035	0.107	-0.117
-514.858	-53.136	-0.092	-0.042
-513.843	780.146	-0.126	-0.344
-512.829	-107.426	-0.163	-0.036
-511.814	800.000	-0.039	0.150
-510.799	-200.000	-0.037	-0.232
-509.785	-144.476	0.397	0.037
-508.770	-113.643	0.039	0.008
-507.756	-100.114	0.132	0.033
-506.741	-70.477	0.306	-0.116
-505.726	230.922	0.034	0.055
-504.712	-164.584	0.164	-0.007
-503.697	800.000	0.019	0.072
-502.683	-200.000	0.022	0.180
-501.668	78.669	0.261	-0.279
-500.653	-73.981	0.166	-0.060
-499.639	179.446	0.121	-0.177
-498.624	-41.648	-0.176	0.090
-497.610	565.008	-0.137	0.333
-496.595	4.910	0.321	0.236
-495.581	-50.665	0.076	0.036
-494.566	52.298	-0.131	0.125
-493.551	-91.118	0.221	0.063
-492.537	141.400	0.128	-0.169
-491.522	6.654	0.323	-0.241
-490.508	-72.792	-0.273	-0.100
-489.493	-92.686	0.142	-0.040
-488.478	-200.000	0.033	-0.150
-487.464	-161.958	-0.136	-0.007
-486.449	-200.000	0.068	-0.317
-485.435	-200.000	-0.023	-0.221
-484.420	-152.340	0.171	-0.012
-483.405	-103.559	0.258	0.061
-482.391	-200.000	-0.016	-0.412
-481.376	193.745	-0.345	-0.523
-480.362	36.705	-0.194	0.171
-479.347	94.282	-0.115	-0.131
-478.332	162.409	-0.116	0.163
-477.318	-70.240	0.023	-0.009
-476.303	-200.000	0.025	-0.285
-475.289	-13.747	-0.121	-0.078
-474.274	113.907	-0.104	-0.126
-473.259	-126.713	-0.295	0.044
-472.245	-5.074	-0.116	0.080
-471.230	800.000	-0.039	0.169
-470.216	-140.723	0.084	0.009
-469.201	143.910	-0.271	0.361
-468.186	-191.362	-0.143	0.001
-467.172	-200.000	-0.010	0.043
-466.157	543.180	-0.186	-0.445
-465.143	-6.788	-0.218	0.148
-464.128	800.000	-0.029	0.091
-463.113	-132.930	-0.352	0.045
-462.099	-40.818	0.106	-0.055
-461.084	-5.384	-0.140	0.096
-460.070	204.907	0.116	0.180
-459.055	-200.000	-0.000	0.032
-458.040	312.991	0.098	0.184
-457.026	-137.582	0.147	0.017
-456.011	-200.000	-0.030	-0.168
-454.997	-200.000	0.012	0.590
-453.982	-163.326	-0.214	0.010
-452.968	-200.000	0.003	0.247
-451.953	800.000	0.097	0.423
-450.938	427.054	-0.080	-0.172
-449.924	-86.633	0.043	0.013
-448.909	30.903	0.024	0.020
-447.895	800.000	0.044	0.168
-446.880	-70.981	-0.146	0.055
-445.865	236.383	-0.179	-0.296
-444.851	62.669	0.186	0.185
-443.836	-96.813	0.545	0.143
-442.822	-112.539	-0.110	-0.022
-441.807	-76.578	-0.191	0.067
-440.792	-187.926	0.094	-0.001
-439.778	8.091	0.075	0.056
-438.763	-135.665	0.266	-0.031
-437.749	-130.469	-0.181	-0.024
-436.734	-35.550	-0.569	0.308
-435.719	395.388	0.132	0.275
-434.705	-200.000	-0.006	0.089
-433.690	-200.000	0.007	-0.072
-432.676	210.065	-0.214	0.335
-431.661	-38.006	-0.129	0.069
-430.646	-200.000	-0.153	0.000
-429.632	-200.000	-0.014	0.095
-428.617	-132.113	0.122	0.016
-427.603	-70.787	0.254	0.096
-426.588	-200.000	-0.007	-0.199
-425.573	-166.996	0.077	-0.003
-424.559	-59.486	-0.275	0.118
-423.544	49.051	0.243	0.228
-422.530	-127.868	-0.223	-0.032
-421.515	-40.111	0.246	-0.128
-420.500	-110.439	-0.113	-0.023
-419.486	-86.835	-0.091	-0.028
-418.471	-65.614	-0.235	-0.094
-417.457	-39.084	-0.200	0.105
-416.442	800.000	-0.039	-0.146
-415.428	-85.249	0.463	0.144
-414.413	18.833	0.228	-0.182
-413.398	171.606	0.108	0.154
-412.384	800.000	0.089	0.287
-411.369	-64.187	0.328	-0.133
-410.355	42.313	-0.084	0.077
-409.340	-200.000	0.027	0.216
-408.325	-35.278	-0.168	-0.091
-407.311	-13.100	-0.066	-0.043
-406.296	23.639	-0.092	0.076
-405.282	474.196	0.115	-0.260
-404.267	-81.886	-0.040	0.013
-403.252	-128.368	-0.157	-0.022
-402.238	241.087	-0.080	-0.134
-401.223	217.022	-0.073	0.116
-400.209	800.000	0.056	-0.202
-399.194	-200.000	0.010	-0.297
-398.179	-200.000	-0.060	-0.376
-397.165	465.273	0.140	-0.311
-396.150	-11.320	-0.343	0.225
-395.136	303.272	0.030	0.055
-394.121	-101.189	0.152	0.037
-393.106	-45.528	-0.297	-0.147
-392.092	-31.929	-0.133	0.074
-391.077	-10.541	0.192	0.127
-390.063	-195.558	-0.248	-0.002
-389.048	118.952	0.093	-0.114
-388.033	-174.402	0.110	-0.003
-387.019	299.611	-0.116	-0.212
-386.004	-200.000	-0.026	-0.259
-384.990	-200.000	-0.065	-0.357
-383.975	-200.000	0.001	-0.168
-382.960	-10.307	0.268	-0.177
-381.946	-84.209	-0.086	0.027
-380.931	203.222	0.148	0.229
-379.917	-144.876	-0.242	0.022
-378.902	164.356	0.066	-0.093
-377.888	716.342	0.059	-0.156
-376.873	705.356	0.088	-0.231
-375.858	6.603	0.262	0.194
-374.844	0.956	-0.207	-0.148
-373.829	-200.000	-0.006	0.053
-372.815	276.638	-0.118	-0.210
-371.800	391.743	0.053	-0.110
-370.785	-200.000	-0.008	0.065
-369.771	-150.151	-0.176	0.014
-368.756	15.922	0.092	-0.072
-367.742	107.241	0.135	-0.160
-366.727	-63.634	-0.139	0.057
-365.712	117.751	-0.339	0.415
-364.698	-64.950	0.208	0.084
-363.683	-67.714	0.062	0.024
-362.669	-71.166	-0.294	-0.110
-361.654	339.527	-0.093	0.180
-360.639	-52.934	0.195	-0.090
-359.625	-63.232	-0.046	-0.019
-358.610	-140.940	0.052	0.005
-357.596	24.153	0.167	-0.137
-356.581	-200.000	-0.007	0.489
-355.566	-200.000	-0.030	0.223
-354.552	-35.836	-0.250	-0.135
-353.537	-36.604	-0.287	0.153
-352.523	-200.000	0.031	0.206
-351.508	-29.420	-0.103	-0.059
-350.493	393.512	-0.071	-0.147
-349.479	-66.754	-0.340	0.134
-348.464	298.563	0.053	0.097
-347.450	800.000	0.077	-0.241
-346.435	800.000	-0.012	0.049
-345.420	-51.668	0.124	-0.057
-344.406	800.000	0.074	0.234
-343.391	-200.000	0.016	-0.179
-342.377	800.000	-0.071	-0.307
-341.362	501.977	-0.143	-0.329
-340.348	-130.710	0.185	0.025
-339.333	800.000	-0.103	-0.314
-338.318	-70.529	-0.129	0.048
-337.304	-94.216	0.342	0.093
-336.289	4.099	0.445	-0.324
-335.275	313.124	0.154	-0.289
-334.260	-171.299	0.159	0.005
-333.245	800.000	0.038	0.142
-332.231	25.136	-0.223	-0.184
-331.216	-138.743	-0.064	0.007
-330.202	733.704	-0.109	-0.289
-329.187	85.320	-0.255	0.279
-328.172	344.250	-0.138	0.268
-327.158	10.987	-0.122	-0.093
-326.143	594.036	-0.189	0.464
-325.129	19.047	-0.092	0.074
-324.114	106.366	0.191	0.225
-323.099	-49.750	0.377	0.178
-322.085	-64.155	-0.030	0.012
-321.070	-12.175	-0.148	0.096
-320.056	619.382	-0.088	-0.219
-319.041	-69.300	0.108	-0.041
-318.026	-94.276	-0.417	0.113
-317.012	-200.000	-0.033	-0.162
-315.997	-200.000	-0.004	0.252
-314.983	-78.343	0.089	0.030
-313.968	308.759	0.212	0.394
-312.953	-190.609	-0.164	0.002
-311.939	41.543	-0.242	-0.217
-310.924	-101.285	0.153	0.037
-309.910	-142.171	0.159	0.016
-308.895	800.000	-0.058	-0.212
-307.880	203.912	-0.082	-0.126
-306.866	-200.000	-0.076	-0.559
-305.851	25.489	-0.131	0.108
-304.837	32.800	-0.251	0.215
-303.822	-200.000	0.055	-0.241
-302.807	120.302	0.119	-0.147
-301.793	800.000	-0.023	0.091
-300.778	-200.000	0.047	-0.245
-299.764	-200.000	0.003	-0.042
-298.749	-114.381	0.053	0.010
-297.735	800.000	0.065	0.245
-296.720	-104.826	-0.056	0.013
-295.705	73.793	0.034	-0.036
-294.691	792.883	-0.044	-0.119
-293.676	800.000	-0.072	-0.245
-292.662	-125.760	0.390	0.059
-291.647	297.969	0.050	0.091
-290.632	47.436	-0.139	0.129
-289.618	204.664	-0.051	0.078
-288.603	800.000	-0.073	0.216
-287.589	-42.084	0.149	-0.076
-286.574	800.000	0.064	0.269
-285.559	-108.089	-0.086	-0.019
-284.545	800.000	0.079	0.222
-283.530	135.054	-0.079	-0.101
-282.516	-41.068	-0.277	0.142
-281.501	188.956	0.189	0.281
-280.486	800.000	0.101	0.310
-279.472	-108.403	-0.052	-0.011
-278.457	-200.000	0.015	0.392
-277.443	-200.000	-0.035	0.336
-276.428	-200.000	0.017	-0.173
-275.413	800.000	-0.103	-0.284
-274.399	-131.958	0.246	-0.032
-273.384	-187.355	-0.075	0.001
-272.370	-158.308	0.126	-0.007
-271.355	566.660	0.130	0.314
-270.340	-36.218	-0.153	0.082
-269.326	-70.691	0.120	-0.045
-268.311	216.202	0.189	-0.297
-267.297	95.137	0.173	0.196
-266.282	-145.102	0.084	-0.008
-265.267	800.000	0.044	0.190
-264.253	800.000	0.066	0.183
-263.238	-133.979	-0.079	0.010
-262.224	56.483	0.168	-0.162
-261.209	772.619	0.072	0.195
-260.195	800.000	0.023	0.068
-259.180	-200.000	0.017	-0.123
-258.165	47.577	-0.153	-0.142
-257.151	516.231	-0.105	0.244
-256.136	-122.249	-0.195	0.032
-255.122	-168.767	-0.397	-0.015
-254.107	-200.000	-0.040	0.348
-253.092	-200.000	0.012	-0.137
-252.078	-200.000	0.022	-0.207
-251.063	-116.759	-0.118	-0.021
-250.049	-200.000	-0.007	-0.127
-249.034	383.354	0.027	0.055
-248.019	-115.465	0.293	-0.055
-247.005	-124.164	0.253	0.039
-245.990	-56.326	0.147	0.065
-244.976	-126.410	-0.136	0.020
-243.961	75.781	0.097	0.102
-242.946	-200.000	-0.084	-0.415
-241.932	278.239	-0.101	0.178
-240.917	-87.161	-0.310	-0.093
-239.903	-154.953	-0.069	-0.004
-238.888	-33.621	0.261	0.143
-237.873	37.498	0.326	0.287
-236.859	476.819	-0.023	0.052
-235.844	46.314	-0.116	-0.106
-234.830	64.034	0.116	0.116
-233.815	-200.000	0.050	-0.248
-232.800	-10.578	-0.299	-0.196
-231.786	95.816	-0.254	-0.287
-230.771	322.958	0.138	0.261
-229.757	22.393	0.118	-0.096
-228.742	-200.000	-0.008	-0.069
-227.727	-49.956	0.099	-0.046
-226.713	-86.845	0.329	-0.100
-225.698	-39.047	-0.133	-0.069
-224.684	-146.355	0.159	0.014
-223.669	637.718	-0.152	0.381
-222.655	-58.897	0.160	-0.068
-221.640	-107.321	0.098	0.021
-220.625	-200.000	-0.032	-0.158
-219.611	-97.931	0.310	0.079
-218.596	-200.000	0.005	-0.069
-217.582	-80.137	0.094	-0.031
-216.567	-140.563	0.328	-0.034
-215.552	-64.076	0.099	0.040
-214.538	-19.349	0.178	0.109
-213.523	-66.061	0.212	-0.084
-212.509	94.258	-0.152	-0.170
-211.494	800.000	0.046	-0.197
-210.479	-45.212	0.187	-0.092
-209.465	-105.319	0.234	-0.053
-208.450	-21.667	-0.115	0.069
-207.436	245.479	0.127	0.212
-206.421	163.395	-0.163	-0.227
-205.406	-96.474	0.047	0.012
-204.392	-133.024	-0.055	-0.007
-203.377	229.534	-0.035	-0.057
-202.363	309.299	0.124	-0.229
-201.348	302.883	0.078	-0.143
-200.333	16.334	0.155	0.121
-199.319	212.055	0.106	-0.166
-198.304	-61.016	0.306	0.128
-197.290	-200.000	0.001	-0.082
-196.275	-153.822	0.231	-0.016
-195.260	-200.000	-0.041	0.276
-194.246	-170.215	0.267	0.009
-193.231	78.328	0.146	0.154
-192.217	-200.000	0.036	-0.242
-191.202	-62.070	-0.361	-0.149
-190.187	-200.000	-0.023	0.230
-189.173	-200.000	-0.035	0.245
-188.158	800.000	0.093	0.305
-187.144	-200.000	0.010	0.148
-186.129	800.000	-0.113	0.333
-185.114	691.066	-0.070	-0.181
-184.100	-200.000	-0.042	-0.216
-183.085	-200.000	0.015	-0.133
-182.071	-92.862	0.070	0.019
-181.056	-180.936	0.155	0.003
-180.042	39.420	-0.129	0.114
-179.027	800.000	-0.046	-0.199
-178.012	-46.926	-0.233	0.112
-176.998	607.864	-0.094	0.231
-175.983	-200.000	-0.008	-0.068
-174.969	644.271	-0.032	0.082
-173.954	800.000	0.096	0.325
-172.939	-122.680	-0.209	0.034
-171.925	227.852	-0.064	-0.103
-170.910	-200.000	-0.012	-0.163
-169.896	-200.000	0.016	0.454
-168.881	-200.000	0.012	-0.150
-167.866	170.562	-0.135	-0.190
-166.852	-2.296	0.121	-0.084
-165.837	800.000	0.058	-0.164
-164.823	677.455	0.058	0.150
-163.808	-150.602	0.059	-0.004
-162.793	-72.561	0.466	0.170
-161.779	-200.000	0.270	-0.000
-160.764	-200.000	-0.003	-0.038
-159.750	-106.408	0.236	-0.052
-158.735	-34.917	-0.182	-0.098
-157.720	129.679	-0.018	0.023
-156.706	455.362	-0.048	-0.105
-155.691	-119.868	0.336	0.057
-154.677	-200.000	0.013	-0.256
-153.662	-161.733	-0.240	-0.012
-152.647	-2.892	0.015	-0.010
-151.633	-51.892	-0.189	0.087
-150.618	-90.448	0.220	-0.063
-149.604	-141.291	-0.167	-0.017
-148.589	-117.685	0.171	-0.030
-147.574	-170.350	-0.282	0.010
-146.560	-171.777	-0.487	-0.016
-145.545	-72.386	-0.110	0.040
-144.531	238.676	0.148	-0.243
-143.516	538.648	-0.133	-0.312
-142.502	-62.559	0.229	0.094
-141.487	-170.655	-0.138	0.005
-140.472	-25.038	0.249	-0.146
-139.458	-200.000	0.016	-0.155
-138.443	-119.577	0.079	-0.014
-137.429	-86.757	0.287	0.087
-136.414	-200.000	-0.030	-0.159
-135.399	800.000	-0.078	0.223
-134.385	1.166	0.317	0.224
-133.370	-122.448	-0.214	0.034
-132.356	217.420	0.092	-0.144
-131.341	-200.000	-0.065	0.307
-130.326	19.270	0.160	-0.127
-129.312	-41.389	-0.294	0.149
-128.297	-28.472	0.122	0.069
-127.283	800.000	-0.089	-0.331
-126.268	-80.492	-0.229	0.075
-125.253	-200.000	-0.002	-0.070
-124.239	645.223	0.091	-0.229
-123.224	6.955	0.111	0.081
