DTS Sentinel unit serial number:	SN413079Multiplexer serial number:	ORYXHardware model number:	OX4-SRSoftware version number:	ORYX F/W v4.00 Oryx Data Collector v3.7.2.0data status	okinstallation	princeton_trtdifferential loss correction	single-endedforward channel	channel 2reverse channel	N/Adate	2019/09/12time	20:03:49forward acquisition time	15.00reverse acquisition time	0.00gamma	496.2192k internal	0.2327k external	0.2327temperature offset calibration	1.0152default loss term (dB/km)	0.3790temperature slope calibration	1.0000multiplexer offset coefficient	1.0000multiplexer slope coefficient	1.0000fibre end	0.00T internal ref (°C)	31.69T ext. ref 1 (°C)	3.43T ext. ref 2 (°C)	26.29length (m)	temperature (°C)	Stokes	anti-Stokes-747.200	41.364	0.474	0.432
-746.185	-19.866	-0.485	-0.302
-745.171	-153.625	0.509	0.035
-744.156	67.430	-0.537	0.552
-743.142	95.227	0.704	0.808
-742.127	-200.000	-0.009	-0.086
-741.112	296.477	0.267	-0.493
-740.098	116.737	-0.883	-1.092
-739.083	-76.544	0.260	0.092
-738.069	331.699	0.129	0.250
-737.054	-80.856	-0.958	0.320
-736.039	-39.788	-0.407	0.214
-735.025	-200.000	0.010	-0.092
-734.010	-44.783	-0.216	-0.109
-732.996	800.000	-0.113	0.430
-731.981	-80.814	-1.126	-0.377
-730.966	-200.000	0.022	0.351
-729.952	279.658	0.094	-0.169
-728.937	135.135	-0.526	-0.688
-727.923	258.590	0.798	-1.385
-726.908	140.928	-0.340	-0.453
-725.894	-38.327	-0.917	0.489
-724.879	-122.637	-0.495	-0.081
-723.864	-71.355	0.988	0.373
-722.850	14.691	0.350	-0.275
-721.835	693.516	-0.198	-0.523
-720.821	-158.175	-0.552	0.033
-719.806	65.685	-0.215	-0.219
-718.791	61.080	-0.086	-0.086
-717.777	-109.942	-0.426	0.090
-716.762	149.676	0.447	0.609
-715.748	5.444	-0.518	-0.385
-714.733	-200.000	0.009	0.666
-713.718	-200.000	-0.079	0.646
-712.704	-149.797	0.298	0.024
-711.689	217.130	-0.383	-0.614
-710.675	-141.439	0.792	-0.081
-709.660	74.929	-0.232	-0.246
-708.645	-200.000	0.007	0.165
-707.631	157.628	-0.201	-0.280
-706.616	-200.000	0.064	-0.376
-705.602	76.455	-0.320	0.342
-704.587	446.958	0.385	-0.852
-703.572	-135.516	0.929	-0.111
-702.558	-140.294	1.326	0.140
-701.543	-200.000	-0.105	0.761
-700.529	-200.000	0.091	-0.488
-699.514	32.628	-1.041	0.906
-698.499	-138.376	0.164	0.018
-697.485	-28.836	-0.647	-0.374
-696.470	-49.255	-0.495	-0.238
-695.456	800.000	0.134	0.466
-694.441	-200.000	0.134	-0.618
-693.426	70.852	-0.406	-0.423
-692.412	-200.000	0.029	-0.869
-691.397	-166.856	-0.602	-0.025
-690.383	105.916	-0.065	-0.078
-689.368	291.477	-0.222	-0.406
-688.354	130.393	-0.320	-0.412
-687.339	-15.829	-0.522	0.335
-686.324	89.441	-0.352	-0.395
-685.310	-200.000	0.007	-1.147
-684.295	753.339	0.127	0.346
-683.281	278.825	-0.063	-0.113
-682.266	-136.425	0.292	-0.034
-681.251	-162.530	0.582	-0.029
-680.237	9.764	0.107	0.081
-679.222	215.854	-0.517	-0.826
-678.208	800.000	0.148	-0.605
-677.193	800.000	0.188	0.678
-676.178	-102.844	-0.553	0.132
-675.164	-200.000	0.044	-0.509
-674.149	-160.577	-0.625	0.034
-673.135	-85.044	-0.391	0.123
-672.120	37.799	-0.748	-0.668
-671.105	-68.673	0.662	-0.257
-670.091	-200.000	0.062	0.402
-669.076	28.520	-0.246	0.209
-668.062	460.176	-0.218	-0.487
-667.047	85.408	-0.115	0.127
-666.032	321.075	-0.217	0.414
-665.018	132.698	-0.176	-0.228
-664.003	47.914	-0.783	-0.735
-662.989	563.336	-0.145	0.353
-661.974	-14.177	0.310	-0.201
-660.959	-200.000	0.029	-0.605
-659.945	-134.227	1.027	-0.127
-658.930	-200.000	-0.002	-1.015
-657.916	509.638	0.364	-0.851
-656.901	-200.000	-0.226	1.154
-655.886	-176.693	-0.485	-0.012
-654.872	-181.703	-0.228	0.004
-653.857	-200.000	-0.025	0.333
-652.843	551.079	0.224	-0.541
-651.828	184.984	0.144	0.214
-650.814	11.502	-0.710	-0.547
-649.799	461.985	-0.246	-0.552
-648.784	-10.922	0.079	0.052
-647.770	-200.000	-0.153	-1.023
-646.755	-87.373	-0.499	0.152
-645.741	-45.963	-0.094	-0.047
-644.726	-200.000	0.026	-0.315
-643.711	-200.000	-0.087	-0.492
-642.697	-200.000	-0.019	-1.187
-641.682	-200.000	-0.105	0.474
-640.668	14.513	-0.390	-0.305
-639.653	204.516	0.198	0.308
-638.638	-38.053	-0.582	0.310
-637.624	302.612	0.403	-0.749
-636.609	113.426	0.225	-0.274
-635.595	-70.083	-0.166	0.063
-634.580	426.985	0.579	1.254
-633.565	800.000	-0.066	0.281
-632.551	-134.761	-0.871	-0.106
-631.536	175.372	0.430	0.625
-630.522	-5.422	-0.287	0.198
-629.507	24.259	0.636	-0.527
-628.492	800.000	-0.239	0.773
-627.478	-138.537	0.687	0.076
-626.463	578.437	-0.404	0.993
-625.449	-93.501	0.432	0.120
-624.434	-5.440	-0.165	0.114
-623.419	-138.630	-1.051	-0.116
-622.405	-7.619	-0.448	-0.304
-621.390	104.697	0.367	-0.434
-620.376	-194.980	-0.963	0.007
-619.361	147.863	-0.306	0.413
-618.346	-63.851	0.472	0.194
-617.332	113.473	0.447	0.545
-616.317	-200.000	-0.005	-0.476
-615.303	-32.622	0.363	0.203
-614.288	800.000	-0.233	0.653
-613.273	199.516	-0.384	0.590
-612.259	-109.375	0.949	0.202
-611.244	-25.922	-0.395	0.233
-610.230	507.602	-0.178	-0.415
-609.215	-135.247	0.124	0.015
-608.201	19.813	-0.875	0.707
-607.186	266.639	-0.224	0.392
-606.171	-108.164	0.997	0.216
-605.157	800.000	0.215	0.764
-604.142	31.212	-0.047	0.040
-603.128	531.083	0.163	0.385
-602.113	-75.367	-0.212	-0.076
-601.098	2.304	0.458	-0.332
-600.084	161.849	0.206	0.288
-599.069	-91.976	0.747	-0.212
-598.055	191.162	-0.198	0.299
-597.040	346.622	-0.224	-0.442
-596.025	27.140	0.249	-0.210
-595.011	-119.628	0.748	-0.130
-593.996	800.000	0.303	-1.014
-592.982	59.432	-0.403	-0.398
-591.967	-95.058	0.232	0.063
-590.952	-96.642	0.249	0.066
-589.938	800.000	-0.177	0.718
-588.923	420.469	-0.081	-0.173
-587.909	-114.304	-0.433	0.084
-586.894	-33.967	-0.379	0.209
-585.879	-36.173	0.310	-0.168
-584.865	800.000	-0.298	-1.036
-583.850	307.726	0.508	-0.950
-582.836	-24.206	0.550	-0.329
-581.821	-200.000	-0.205	0.989
-580.806	54.646	-0.512	0.495
-579.792	-113.666	0.416	0.081
-578.777	800.000	-0.255	0.774
-577.763	-27.335	-0.261	-0.152
-576.748	-200.000	-0.014	-0.146
-575.733	-21.085	-0.168	0.103
-574.719	181.042	0.415	0.611
-573.704	-200.000	-0.018	0.869
-572.690	29.004	-0.324	-0.275
-571.675	800.000	-0.131	-0.538
-570.661	-118.841	0.227	-0.040
-569.646	315.100	-0.222	0.419
-568.631	-100.259	-0.742	0.185
-567.617	-200.000	-0.010	-0.063
-566.602	800.000	0.070	-0.260
-565.588	616.198	-0.112	0.280
-564.573	-16.554	-0.279	0.177
-563.558	-200.000	0.001	0.143
-562.544	244.370	0.349	-0.587
-561.529	34.223	0.258	-0.225
-560.515	800.000	-0.063	0.192
-559.500	151.130	-0.236	0.321
-558.485	-200.000	-0.155	-0.835
-557.471	-125.631	-1.268	-0.192
-556.456	-71.909	1.095	-0.408
-555.442	-20.339	-0.326	-0.201
-554.427	-200.000	0.043	1.084
-553.412	-150.203	0.820	-0.064
-552.398	101.528	0.452	0.527
-551.383	-30.049	-0.361	-0.205
-550.369	-45.928	0.174	0.086
-549.354	211.235	0.407	0.641
-548.339	9.098	-0.633	0.478
-547.325	571.561	-0.251	-0.611
-546.310	-152.328	-0.404	-0.029
-545.296	118.408	0.375	0.463
-544.281	-93.570	0.075	0.021
-543.266	-4.962	0.261	-0.180
-542.252	-114.790	0.255	-0.049
-541.237	490.775	0.293	0.670
-540.223	-167.289	-0.605	0.024
-539.208	37.475	0.323	0.286
-538.193	-60.066	0.293	0.125
-537.179	38.888	0.484	0.432
-536.164	-169.483	-0.635	0.023
-535.150	-137.852	0.674	0.075
-534.135	786.406	0.226	-0.621
-533.121	213.333	-0.302	-0.477
-532.106	-200.000	0.096	0.941
-531.091	94.643	-0.146	-0.166
-530.077	44.898	-0.348	-0.320
-529.062	203.072	0.137	-0.212
-528.048	12.720	0.273	-0.211
-527.033	255.565	-0.400	0.686
-526.018	28.795	0.511	-0.432
-525.004	-113.477	1.368	-0.268
-523.989	-147.989	-0.149	-0.012
-522.975	100.704	0.202	-0.234
-521.960	-99.386	0.321	-0.081
-520.945	-200.000	-0.067	-0.470
-519.931	-200.000	-0.009	-0.336
-518.916	-9.238	0.324	0.216
-517.902	-113.165	-0.189	0.037
-516.887	-200.000	0.102	-0.705
-515.872	-200.000	0.010	0.933
-514.858	-77.925	-0.246	0.085
-513.843	18.056	-0.497	0.396
-512.829	229.723	-0.088	0.144
-511.814	-168.913	0.558	-0.021
-510.799	-200.000	0.234	1.091
-509.785	120.101	-0.220	-0.273
-508.770	-200.000	-0.034	0.573
-507.756	-92.684	0.354	0.099
-506.741	-31.741	-0.477	-0.267
-505.726	-200.000	-0.006	0.378
-504.712	-40.082	0.411	0.214
-503.697	-200.000	-0.016	-0.167
-502.683	25.113	-0.345	-0.286
-501.668	388.085	0.291	0.602
-500.653	26.560	0.131	-0.109
-499.639	12.691	0.385	0.297
-498.624	39.234	-0.348	-0.311
-497.610	135.078	0.141	0.182
-496.595	-66.028	-1.289	0.514
-495.581	800.000	-0.355	1.355
-494.566	-200.000	-0.037	-0.225
-493.551	0.568	-0.601	-0.429
-492.537	39.492	0.808	0.722
-491.522	-93.655	0.502	-0.138
-490.508	-118.643	-0.242	-0.043
-489.493	220.476	-0.612	-0.979
-488.478	-119.877	-0.214	0.037
-487.464	-33.246	-0.790	-0.437
-486.449	26.039	0.537	0.447
-485.435	-137.222	-0.353	-0.040
-484.420	68.901	0.058	0.059
-483.405	800.000	0.215	-0.813
-482.391	-51.343	0.214	-0.100
-481.376	-175.670	0.890	0.024
-480.362	-142.684	0.323	-0.031
-479.347	-57.368	-0.516	-0.226
-478.332	383.205	0.284	-0.582
-477.318	800.000	-0.111	-0.483
-476.303	-138.211	1.250	0.138
-475.289	-76.655	0.288	0.101
-474.274	26.744	-0.484	-0.405
-473.259	-131.719	-0.632	-0.083
-472.245	-18.765	-0.442	0.275
-471.230	-57.727	0.331	0.145
-470.216	193.858	0.454	-0.686
-469.201	733.333	-0.231	-0.617
-468.186	73.881	0.426	-0.446
-467.172	-200.000	0.026	-0.267
-466.157	-15.536	0.291	0.185
-465.143	-129.369	0.165	-0.023
-464.128	-200.000	0.032	0.358
-463.113	-200.000	-0.099	0.613
-462.099	40.738	-0.727	-0.653
-461.084	280.480	-0.468	0.834
-460.070	77.574	0.237	-0.251
-459.055	165.079	0.454	-0.639
-458.040	800.000	-0.238	-0.757
-457.026	98.817	0.399	0.459
-456.011	-117.525	1.377	0.248
-454.997	386.916	0.203	0.419
-453.982	571.214	-0.346	-0.839
-452.968	465.254	0.278	-0.619
-451.953	45.146	-0.399	0.366
-450.938	-53.768	0.571	-0.260
-449.924	-106.060	-0.692	-0.155
-448.909	-22.160	-0.235	0.142
-447.895	-41.498	0.228	-0.117
-446.880	-200.000	-0.002	0.418
-445.865	234.429	0.298	0.489
-444.851	-17.861	0.218	-0.136
-443.836	-200.000	0.019	-1.379
-442.822	337.113	-0.347	0.673
-441.807	-41.881	-0.308	0.157
-440.792	-1.177	-0.380	-0.268
-439.778	75.118	0.650	0.682
-438.763	7.987	-0.315	0.235
-437.749	800.000	-0.081	-0.340
-436.734	130.228	-0.374	-0.477
-435.719	291.802	0.240	0.435
-434.705	-41.381	1.146	0.588
-433.690	283.761	0.400	0.717
-432.676	374.496	0.139	-0.281
-431.661	4.339	-0.903	0.659
-430.646	-189.196	-0.387	-0.005
-429.632	-200.000	0.071	0.648
-428.617	800.000	0.082	0.309
-427.603	-16.083	-0.334	0.211
-426.588	4.789	0.210	-0.153
-425.573	-44.214	-0.533	-0.266
-424.559	66.796	-0.262	0.266
-423.544	44.558	-0.253	-0.231
-422.530	-200.000	-0.118	-0.612
-421.515	-49.464	-0.397	-0.188
-420.500	64.413	0.185	-0.185
-419.486	-200.000	-0.059	-0.605
-418.471	800.000	-0.115	-0.322
-417.457	-63.403	-0.505	-0.207
-416.442	800.000	0.133	-0.384
-415.428	38.392	-0.505	-0.448
-414.413	-48.170	-0.819	-0.394
-413.398	-200.000	-0.074	-0.800
-412.384	559.670	-0.076	0.182
-411.369	160.828	-0.413	0.574
-410.355	-59.029	-0.057	0.025
-409.340	777.151	0.053	0.144
-408.325	377.220	0.089	-0.180
-407.311	-150.901	0.344	-0.026
-406.296	180.908	-0.316	-0.461
-405.282	-200.000	0.183	0.947
-404.267	800.000	-0.229	-0.748
-403.252	800.000	-0.015	-0.056
-402.238	-91.476	0.532	-0.151
-401.223	-200.000	-0.032	-0.308
-400.209	-113.926	-0.385	0.074
-399.194	167.199	-0.097	-0.137
-398.179	-76.637	0.615	-0.214
-397.165	512.114	-0.454	-1.051
-396.150	-110.569	0.505	-0.104
-395.136	-142.411	-0.627	0.061
-394.121	271.690	-0.229	0.401
-393.106	-200.000	-0.044	0.256
-392.092	443.234	0.354	-0.771
-391.077	-200.000	0.052	-0.731
-390.063	13.013	-0.551	0.424
-389.048	-85.294	0.348	0.108
-388.033	52.535	-0.337	-0.320
-387.019	-200.000	-0.027	0.189
-386.004	12.056	0.609	0.465
-384.990	68.180	-0.357	-0.363
-383.975	135.215	-0.626	-0.809
-382.960	351.648	0.212	0.416
-381.946	-82.849	-0.636	0.204
-380.931	-114.619	-0.248	0.047
-379.917	-200.000	0.087	1.082
-378.902	159.354	-0.255	0.353
-377.888	-200.000	0.012	0.848
-376.873	76.094	0.226	0.238
-375.858	800.000	0.111	0.400
-374.844	-7.241	-0.403	-0.272
-373.829	136.172	0.200	0.259
-372.815	48.333	-0.206	-0.192
-371.800	648.202	-0.162	0.412
-370.785	149.501	0.527	-0.709
-369.771	800.000	-0.285	0.836
-368.756	-200.000	0.009	0.159
-367.742	-17.467	0.625	0.390
-366.727	-200.000	0.093	-0.449
-365.712	-15.407	-0.353	0.224
-364.698	-200.000	0.062	-0.291
-363.683	369.359	0.054	-0.109
-362.669	-36.961	-0.212	-0.113
-361.654	204.701	0.416	-0.641
-360.639	-113.012	-0.069	0.014
-359.625	-97.230	-0.518	0.134
-358.610	-128.806	0.443	-0.062
-357.596	-200.000	-0.025	-0.299
-356.581	123.172	-0.119	0.148
-355.566	-142.145	0.475	0.047
-354.552	60.236	-0.218	0.214
-353.537	228.765	0.273	-0.442
-352.523	-200.000	0.163	0.874
-351.508	-135.284	0.062	0.007
-350.493	63.357	0.218	0.217
-349.479	693.847	-0.130	0.338
-348.464	-200.000	0.002	1.010
-347.450	-185.106	0.335	0.005
-346.435	-200.000	-0.106	-0.524
-345.420	-100.961	0.444	0.108
-344.406	-200.000	-0.050	0.422
-343.391	-67.968	0.460	-0.178
-342.377	-108.980	-1.146	0.242
-341.362	-105.344	-0.917	-0.207
-340.348	387.540	0.171	0.351
-339.333	-200.000	-0.023	-0.323
-338.318	3.742	-0.795	-0.576
-337.304	-200.000	0.006	0.405
-336.289	0.664	0.461	0.327
-335.275	209.725	0.130	-0.202
-334.260	-115.372	-0.400	0.075
-333.245	112.604	0.597	0.717
-332.231	463.392	0.360	-0.798
-331.216	-200.000	0.038	0.608
-330.202	129.869	-0.054	0.069
-329.187	-28.733	0.254	0.145
-328.172	-140.416	0.709	-0.073
-327.158	-200.000	-0.012	-0.135
-326.143	732.483	-0.083	0.220
-325.129	-85.893	0.870	-0.267
-324.114	-0.762	0.257	-0.180
-323.099	508.356	0.280	0.644
-322.085	176.651	0.297	0.428
-321.070	-71.718	-0.847	0.313
-320.056	-179.206	0.188	-0.004
-319.041	-10.366	0.385	0.253
-318.026	-200.000	0.013	-0.492
-317.012	-200.000	-0.008	-0.334
-315.997	-200.000	0.157	1.031
-314.983	637.431	-0.203	0.510
-313.968	-200.000	-0.001	-0.334
-312.953	-14.688	-0.586	-0.373
-311.939	24.684	0.424	0.348
-310.924	-71.063	0.376	0.140
-309.910	-71.422	0.334	-0.124
-308.895	-200.000	-0.060	0.611
-307.880	168.399	0.340	0.480
-306.866	-12.355	-0.469	-0.304
-305.851	-200.000	-0.008	0.674
-304.837	-200.000	-0.093	0.547
-303.822	779.120	0.227	-0.614
-302.807	-137.437	-0.723	0.081
-301.793	110.986	0.143	-0.170
-300.778	-157.332	-0.368	-0.022
-299.764	-90.252	-0.241	0.069
-298.749	226.060	-0.571	-0.917
-297.735	131.422	0.268	-0.341
-296.720	-76.617	-0.459	0.160
-295.705	-18.965	-0.318	0.196
-294.691	-158.668	0.726	-0.041
-293.676	-74.849	0.855	0.304
-292.662	151.718	-0.382	0.515
-291.647	-46.479	0.395	-0.192
-290.632	-109.792	0.602	-0.125
-289.618	-66.987	-0.242	-0.095
-288.603	58.213	0.552	-0.535
-287.589	-100.360	-0.408	0.100
-286.574	-99.424	-0.728	-0.182
-285.559	-100.987	0.529	0.129
-284.545	116.086	0.205	0.249
-283.530	-95.364	0.994	-0.265
-282.516	287.393	-0.433	0.774
-281.501	-11.862	0.665	-0.432
-280.486	-68.707	0.283	0.108
-279.472	608.528	-0.301	-0.743
-278.457	84.221	0.714	-0.773
-277.443	-3.893	-0.336	-0.231
-276.428	33.574	-0.198	-0.170
-275.413	-200.000	0.035	-1.350
-274.399	53.102	0.313	0.296
-273.384	-113.211	-0.318	-0.062
-272.370	800.000	0.053	0.151
-271.355	16.914	0.468	-0.367
-270.340	800.000	-0.086	-0.280
-269.326	593.720	0.097	-0.236
-268.311	646.518	0.289	-0.731
-267.297	-200.000	-0.032	0.316
-266.282	393.694	0.111	-0.230
-265.267	800.000	-0.269	0.771
-264.253	-82.883	-0.902	0.288
-263.238	23.463	-0.073	0.059
-262.224	228.042	-0.435	0.701
-261.209	192.312	0.116	-0.172
-260.195	-200.000	0.077	-0.464
-259.180	-129.453	0.144	-0.020
-258.165	70.584	-0.818	-0.837
-257.151	-12.222	-0.337	-0.218
-256.136	222.318	-0.359	-0.572
-255.122	-200.000	0.106	-0.553
-254.107	-200.000	0.116	-1.293
-253.092	-200.000	-0.037	0.287
-252.078	-58.213	0.444	-0.191
-251.063	112.332	-0.504	-0.603
-250.049	-105.866	0.876	-0.195
-249.034	-53.358	-0.276	-0.125
-248.019	-121.871	0.273	-0.044
-247.005	221.779	-0.276	-0.439
-245.990	-158.676	-0.856	0.049
-244.976	84.749	0.296	0.320
-243.961	-151.267	-0.457	0.034
-242.946	-85.221	0.303	-0.094
-241.932	142.745	-0.877	-1.152
-240.917	646.443	0.139	0.351
-239.903	-119.462	-0.840	0.144
-238.888	-54.115	-0.690	0.310
-237.873	374.794	0.172	0.346
-236.859	-100.415	-1.024	0.251
-235.844	221.566	-0.186	0.295
-234.830	56.039	-0.316	-0.303
-233.815	-200.000	-0.038	0.216
-232.800	797.843	-0.085	-0.232
-231.786	-200.000	0.208	-1.192
-230.771	800.000	0.141	0.587
-229.757	662.110	0.311	0.792
-228.742	515.140	-0.220	0.506
-227.727	-128.450	0.259	0.036
-226.713	-100.498	0.534	-0.131
-225.698	-37.337	-0.206	-0.109
-224.684	428.017	-0.133	-0.283
-223.669	-11.523	0.070	-0.046
-222.655	-200.000	0.104	-0.473
-221.640	194.762	0.091	-0.136
-220.625	659.082	-0.268	0.682
-219.611	115.032	0.236	-0.284
-218.596	342.816	-0.387	-0.748
-217.582	-110.506	-0.450	0.092
-216.567	-197.528	0.285	0.002
-215.552	-56.350	0.425	0.187
-214.538	153.205	-0.170	0.230
-213.523	-20.341	-0.505	0.307
-212.509	114.864	0.706	-0.851
-211.494	-200.000	0.062	-0.930
-210.479	-200.000	-0.144	-0.660
-209.465	138.406	0.275	0.356
-208.450	652.648	0.079	0.201
-207.436	5.398	-0.201	0.146
-206.421	752.930	-0.074	-0.197
-205.406	-27.978	-0.284	-0.162
-204.392	47.450	-0.250	-0.230
-203.377	3.668	0.362	0.261
-202.363	-200.000	0.035	-0.537
-201.348	-200.000	-0.006	0.685
-200.333	121.395	0.226	-0.278
-199.319	578.799	-0.159	0.383
-198.304	-155.406	-0.549	0.035
-197.290	800.000	-0.025	-0.069
-196.275	-200.000	0.126	0.900
-195.260	-200.000	0.028	0.445
-194.246	-50.496	-0.295	-0.137
-193.231	282.311	-0.194	-0.343
-192.217	24.709	0.336	0.274
-191.202	-95.721	0.537	-0.142
-190.187	-4.657	-0.555	0.378
-189.173	118.721	-0.123	-0.149
-188.158	743.137	0.295	-0.782
-187.144	133.453	-0.317	0.404
-186.129	25.698	0.388	0.319
-185.114	15.395	0.429	-0.332
-184.100	3.832	0.252	0.182
-183.085	-139.322	-1.321	-0.140
-182.071	-200.000	0.001	-0.283
-181.056	-200.000	0.000	-0.873
-180.042	524.226	0.180	0.418
-179.027	-200.000	-0.070	0.512
-178.012	-192.356	-0.534	0.005
-176.998	505.720	-0.071	0.161
-175.983	-200.000	-0.050	-0.385
-174.969	245.664	-0.343	0.569
-173.954	-117.670	0.670	0.119
-172.939	800.000	0.079	-0.287
-171.925	-41.112	-0.862	0.438
-170.910	111.008	-0.289	-0.343
-169.896	-65.309	0.825	-0.327
-168.881	-43.770	0.464	-0.231
-167.866	86.949	-0.428	0.466
-166.852	338.488	0.308	-0.591
-165.837	-200.000	-0.097	-0.676
-164.823	-103.999	1.316	0.302
-163.808	-64.317	0.681	-0.273
-162.793	-200.000	-0.126	0.909
-161.779	425.388	0.349	0.741
-160.764	800.000	0.105	-0.312
-159.750	-105.896	0.470	-0.105
-158.735	800.000	0.202	0.619
-157.720	718.136	-0.160	-0.419
-156.706	-120.944	-0.355	-0.059
-155.691	71.182	0.411	-0.419
-154.677	-97.680	0.374	0.096
-153.662	-6.863	0.550	0.368
-152.647	-161.758	0.319	-0.016
-151.633	243.958	-0.610	1.008
-150.618	-200.000	-0.031	0.860
-149.604	-10.618	0.608	-0.396
-148.589	298.815	-0.163	-0.295
-147.574	16.180	0.443	0.344
-146.560	52.435	-0.904	0.849
-145.545	237.846	0.349	0.570
-144.531	-200.000	0.095	0.632
-143.516	-79.740	0.711	0.236
-142.502	359.328	-0.102	0.202
-141.487	-200.000	0.065	0.289
-140.472	380.359	0.183	-0.370
-139.458	800.000	0.312	-0.947
-138.443	-200.000	-0.058	0.635
-137.429	-200.000	0.034	-0.264
-136.414	94.410	-0.050	-0.056
-135.399	-44.661	0.462	-0.227
-134.385	-200.000	-0.009	0.399
-133.370	89.036	0.144	0.158
-132.356	504.346	-0.127	0.289
-131.341	-6.283	0.402	-0.270
-130.326	-200.000	0.025	0.552
-129.312	263.427	-0.180	0.308
-128.297	800.000	-0.273	-0.781
-127.283	-150.999	-0.515	-0.038
-126.268	63.082	0.459	0.452
-125.253	-200.000	-0.042	-0.540
-124.239	200.463	0.388	0.586
-123.224	-75.674	0.379	-0.133
-122.210	254.787	-0.264	0.444
