DTS Sentinel unit serial number:	SN413079Multiplexer serial number:	ORYXHardware model number:	OX4-SRSoftware version number:	ORYX F/W v4.00 Oryx Data Collector v3.7.2.0data status	okinstallation	princeton_trtdifferential loss correction	single-endedforward channel	channel 2reverse channel	N/Adate	2019/09/18time	21:11:34forward acquisition time	60.00reverse acquisition time	0.00gamma	496.2192k internal	0.2343k external	0.2343temperature offset calibration	1.0022default loss term (dB/km)	0.3790temperature slope calibration	1.0000multiplexer offset coefficient	1.0000multiplexer slope coefficient	1.0000fibre end	0.00T internal ref (°C)	26.00T ext. ref 1 (°C)	0.85T ext. ref 2 (°C)	18.02length (m)	temperature (°C)	Stokes	anti-Stokes-747.200	21.300	0.163	0.132
-746.185	-200.000	0.016	0.200
-745.171	800.000	-0.125	0.452
-744.156	326.847	-0.093	0.178
-743.142	50.113	0.239	-0.226
-742.127	-42.918	-0.081	-0.041
-741.112	-77.858	-0.287	0.099
-740.098	-200.000	-0.008	0.037
-739.083	-75.092	0.137	-0.049
-738.069	7.655	0.180	0.135
-737.054	-35.949	-0.409	-0.221
-736.039	-68.274	-0.557	-0.217
-735.025	-122.431	0.106	-0.017
-734.010	-46.745	-0.191	-0.094
-732.996	800.000	-0.043	-0.123
-731.981	-9.421	0.199	0.133
-730.966	140.077	-0.107	-0.141
-729.952	319.092	-0.129	-0.245
-728.937	624.970	0.104	-0.262
-727.923	-23.987	-0.212	-0.127
-726.908	800.000	0.033	-0.139
-725.894	-200.000	0.027	0.402
-724.879	148.604	0.103	-0.139
-723.864	273.889	-0.062	-0.110
-722.850	475.135	0.093	-0.210
-721.835	-41.665	-0.300	-0.154
-720.821	-200.000	0.012	0.168
-719.806	800.000	-0.063	-0.248
-718.791	-109.466	0.078	0.017
-717.777	-5.041	-0.076	-0.052
-716.762	394.256	-0.099	-0.206
-715.748	-66.501	0.216	0.086
-714.733	24.585	0.241	-0.199
-713.718	90.249	-0.173	-0.194
-712.704	82.983	0.317	0.345
-711.689	521.587	-0.114	0.267
-710.675	-200.000	-0.051	-0.359
-709.660	-200.000	-0.043	0.239
-708.645	59.203	0.138	-0.136
-707.631	-200.000	0.012	-0.336
-706.616	37.177	0.160	0.142
-705.602	127.080	0.182	-0.231
-704.587	135.700	0.045	-0.058
-703.572	180.205	0.158	0.232
-702.558	-200.000	0.027	-0.375
-701.543	-46.826	-0.157	0.077
-700.529	-72.393	-0.093	-0.034
-699.514	-60.832	0.204	-0.086
-698.499	33.947	0.208	0.181
-697.485	-49.705	0.118	-0.056
-696.470	-92.957	-0.507	-0.141
-695.456	-81.386	-0.146	0.048
-694.441	368.088	-0.097	-0.196
-693.426	136.106	-0.114	0.149
-692.412	71.931	0.167	0.173
-691.397	-200.000	0.015	-0.128
-690.383	-200.000	-0.049	-0.282
-689.368	-184.512	0.205	0.003
-688.354	187.927	-0.062	-0.092
-687.339	102.173	0.116	0.135
-686.324	-56.258	0.100	0.044
-685.310	-94.683	-0.271	0.073
-684.295	70.710	0.120	0.124
-683.281	-143.644	0.360	0.034
-682.266	302.343	-0.150	-0.278
-681.251	319.849	-0.133	-0.252
-680.237	196.839	0.095	-0.145
-679.222	-124.338	0.228	-0.036
-678.208	-97.264	0.456	-0.119
-677.193	-81.649	0.159	0.052
-676.178	-103.337	-0.096	-0.023
-675.164	-97.777	0.280	0.072
-674.149	625.059	-0.098	-0.246
-673.135	113.661	0.228	-0.277
-672.120	-200.000	0.038	-0.181
-671.105	-139.616	-0.302	-0.032
-670.091	-116.309	-0.130	-0.024
-669.076	499.317	-0.018	-0.041
-668.062	189.714	0.059	-0.089
-667.047	-170.782	-0.196	0.007
-666.032	-169.001	0.277	-0.010
-665.018	700.967	0.069	-0.182
-664.003	429.914	-0.045	0.098
-662.989	115.578	0.017	0.020
-661.974	53.391	-0.074	0.070
-660.959	-13.398	-0.166	0.108
-659.945	-200.000	-0.003	-0.222
-658.930	-108.163	-0.048	-0.010
-657.916	485.704	0.092	0.210
-656.901	28.524	-0.241	-0.203
-655.886	-5.989	0.110	0.075
-654.872	390.792	-0.127	-0.262
-653.857	-4.075	-0.306	-0.211
-652.843	360.694	0.170	0.340
-651.828	609.225	0.037	-0.091
-650.814	-158.326	-0.065	-0.004
-649.799	182.633	0.121	0.177
-648.784	-200.000	-0.007	0.459
-647.770	800.000	-0.052	-0.163
-646.755	800.000	-0.051	-0.162
-645.741	407.870	-0.020	-0.042
-644.726	800.000	0.053	-0.179
-643.711	-72.921	0.112	0.041
-642.697	207.657	-0.033	-0.052
-641.682	-43.618	-0.056	-0.028
-640.668	-145.930	0.288	0.025
-639.653	97.485	-0.414	-0.474
-638.638	54.524	-0.154	-0.148
-637.624	44.911	-0.100	-0.092
-636.609	-200.000	-0.002	-0.014
-635.595	113.962	-0.196	-0.238
-634.580	286.806	-0.127	0.228
-633.565	-178.436	-0.240	0.006
-632.551	528.319	0.118	0.276
-631.536	-34.615	0.045	0.025
-630.522	-148.174	-0.229	0.019
-629.507	-101.475	0.205	-0.050
-628.492	33.203	-0.043	-0.037
-627.478	-200.000	0.008	-0.038
-626.463	170.893	-0.094	-0.134
-625.449	800.000	-0.071	0.241
-624.434	-44.333	0.293	0.146
-623.419	380.211	0.104	0.213
-622.405	-49.178	-0.363	-0.173
-621.390	-200.000	-0.039	-0.419
-620.376	-103.635	0.179	0.042
-619.361	171.187	0.181	0.259
-618.346	-56.253	0.290	-0.128
-617.332	567.897	-0.130	0.314
-616.317	128.921	0.096	-0.122
-615.303	-117.805	-0.275	-0.049
-614.288	604.335	0.100	-0.248
-613.273	27.553	0.093	-0.078
-612.259	-200.000	-0.036	0.169
-611.244	800.000	0.049	-0.179
-610.230	9.362	-0.095	0.072
-609.215	-70.507	0.191	-0.072
-608.201	800.000	0.083	0.238
-607.186	-200.000	-0.034	-0.306
-606.171	800.000	0.067	-0.225
-605.157	-200.000	0.014	-0.203
-604.142	800.000	0.062	0.169
-603.128	-29.392	-0.168	0.096
-602.113	-73.810	-0.074	-0.027
-601.098	282.230	0.088	0.158
-600.084	572.937	0.023	-0.056
-599.069	-96.606	0.279	0.073
-598.055	-26.846	0.148	-0.086
-597.040	509.592	0.111	0.256
-596.025	1.273	0.076	0.054
-595.011	219.076	-0.206	0.328
-593.996	-68.622	0.182	-0.070
-592.982	-7.302	0.104	-0.070
-591.967	427.873	-0.044	-0.095
-590.952	704.104	-0.069	0.181
-589.938	-123.858	-0.066	0.010
-588.923	-119.587	-0.207	0.036
-587.909	681.803	-0.056	-0.145
-586.894	-126.125	0.183	-0.027
-585.879	131.598	-0.189	-0.242
-584.865	-106.580	0.152	0.034
-583.850	-132.989	0.107	0.014
-582.836	17.404	0.144	-0.114
-581.821	754.475	-0.067	-0.180
-580.806	-112.272	-0.305	0.061
-579.792	-78.718	0.307	-0.104
-578.777	-124.407	0.066	-0.010
-577.763	53.847	-0.277	0.265
-576.748	-95.527	-0.380	-0.101
-575.733	17.853	-0.242	0.191
-574.719	-52.727	-0.237	0.109
-573.704	74.644	-0.097	-0.102
-572.690	-31.063	-0.141	-0.079
-571.675	800.000	-0.098	0.404
-570.661	-200.000	-0.042	0.266
-569.646	75.025	-0.106	0.111
-568.631	-200.000	0.063	0.329
-567.617	800.000	-0.073	-0.243
-566.602	348.436	0.071	0.140
-565.588	150.501	-0.073	-0.098
-564.573	205.878	-0.131	-0.203
-563.558	-81.311	-0.146	0.048
-562.544	51.853	0.051	-0.048
-561.529	-200.000	-0.004	-0.114
-560.515	-67.697	-0.182	0.071
-559.500	-53.197	0.210	0.096
-558.485	106.071	-0.086	0.101
-557.471	-4.232	-0.288	0.198
-556.456	261.280	0.220	0.378
-555.442	43.023	0.016	-0.015
-554.427	41.359	0.135	0.121
-553.412	-141.139	0.122	-0.012
-552.398	-121.886	-0.166	-0.027
-551.383	167.074	-0.050	0.070
-550.369	-109.418	0.151	0.032
-549.354	-200.000	-0.014	0.082
-548.339	38.657	-0.265	0.235
-547.325	252.968	-0.081	-0.138
-546.310	-165.700	0.347	-0.015
-545.296	-104.294	-0.314	0.072
-544.281	-27.733	0.332	-0.192
-543.266	222.360	-0.192	0.307
-542.252	375.069	-0.047	0.095
-541.237	485.267	-0.059	0.133
-540.223	58.118	0.047	-0.046
-539.208	-200.000	0.003	-0.039
-538.193	-11.275	0.008	0.005
-537.179	-62.953	0.074	-0.030
-536.164	-117.808	-0.237	-0.042
-535.150	800.000	0.050	-0.155
-534.135	-200.000	-0.020	-0.098
-533.121	112.550	0.380	-0.456
-532.106	-102.577	-0.254	-0.060
-531.091	-31.858	0.161	-0.090
-530.077	-200.000	-0.025	0.162
-529.062	-0.968	0.154	-0.108
-528.048	26.749	0.116	-0.096
-527.033	-200.000	-0.003	-0.036
-526.018	-27.366	-0.155	-0.090
-525.004	-27.638	0.072	0.041
-523.989	-89.162	-0.350	0.103
-522.975	104.855	0.219	-0.257
-521.960	275.781	0.101	-0.178
-520.945	-163.410	-0.142	0.007
-519.931	138.765	-0.052	0.068
-518.916	135.963	0.166	0.215
-517.902	-74.765	0.447	0.159
-516.887	800.000	0.032	0.130
-515.872	-54.054	-0.309	-0.139
-514.858	-200.000	0.012	0.149
-513.843	-200.000	0.013	-0.077
-512.829	-77.416	0.071	-0.024
-511.814	328.184	0.014	-0.026
-510.799	-200.000	0.096	0.433
-509.785	198.417	-0.308	-0.467
-508.770	130.493	-0.296	-0.376
-507.756	-87.467	0.157	0.047
-506.741	800.000	0.051	0.196
-505.726	162.677	-0.074	0.103
-504.712	-200.000	-0.001	0.151
-503.697	86.675	-0.037	-0.041
-502.683	-200.000	0.026	0.175
-501.668	199.478	-0.012	0.018
-500.653	-101.828	-0.069	0.017
-499.639	625.176	0.096	0.241
-498.624	-200.000	-0.002	-0.154
-497.610	261.753	0.078	0.135
-496.595	-200.000	0.043	-0.200
-495.581	-65.440	-0.089	0.036
-494.566	238.508	-0.149	0.246
-493.551	11.740	-0.207	0.158
-492.537	183.996	0.079	-0.116
-491.522	-81.022	0.017	0.006
-490.508	78.356	-0.148	-0.156
-489.493	-26.751	-0.029	-0.017
-488.478	-25.482	-0.124	-0.072
-487.464	800.000	-0.064	0.227
-486.449	300.502	0.093	-0.171
-485.435	-200.000	-0.035	0.165
-484.420	703.982	-0.065	-0.169
-483.405	-132.653	0.455	0.058
-482.391	305.501	-0.220	-0.406
-481.376	-2.447	-0.158	0.110
-480.362	-69.561	-0.164	-0.062
-479.347	-200.000	-0.019	-0.108
-478.332	-57.772	0.116	0.050
-477.318	203.918	0.094	0.145
-476.303	-165.749	-0.345	0.015
-475.289	427.504	-0.019	-0.041
-474.274	-200.000	-0.036	0.249
-473.259	4.142	0.111	0.080
-472.245	-200.000	0.014	-0.067
-471.230	800.000	0.046	-0.148
-470.216	-87.240	0.354	-0.107
-469.201	300.101	-0.203	-0.371
-468.186	641.760	0.154	0.388
-467.172	-200.000	-0.012	0.209
-466.157	-76.658	0.355	-0.123
-465.143	322.437	-0.214	-0.404
-464.128	-0.416	-0.195	-0.137
-463.113	-200.000	-0.058	0.279
-462.099	-75.037	-0.344	0.122
-461.084	800.000	0.087	-0.254
-460.070	537.653	-0.055	-0.129
-459.055	15.603	0.011	0.009
-458.040	456.322	0.093	0.205
-457.026	-200.000	0.016	0.086
-456.011	-200.000	0.032	-0.286
-454.997	-94.142	0.285	-0.077
-453.982	-67.098	-0.105	-0.041
-452.968	186.126	-0.101	0.149
-451.953	729.123	-0.168	-0.445
-450.938	-6.903	0.153	-0.103
-449.924	25.036	-0.308	-0.253
-448.909	-74.461	-0.203	0.072
-447.895	356.564	-0.090	0.178
-446.880	108.719	0.053	0.063
-445.865	800.000	-0.032	-0.090
-444.851	-26.098	0.258	-0.150
-443.836	171.901	-0.017	0.024
-442.822	-70.287	-0.148	-0.056
-441.807	331.961	0.043	0.082
-440.792	-48.409	-0.130	0.062
-439.778	748.555	-0.092	-0.246
-438.763	-200.000	0.020	-0.186
-437.749	-51.624	0.094	0.044
-436.734	78.687	0.096	-0.102
-435.719	-200.000	-0.075	0.394
-434.705	97.753	0.367	-0.417
-433.690	175.193	-0.076	0.109
-432.676	222.358	-0.128	-0.203
-431.661	-63.202	-0.201	0.082
-430.646	-150.068	-0.059	0.005
-429.632	658.625	0.037	0.093
-428.617	49.146	-0.124	-0.116
-427.603	800.000	0.049	0.187
-426.588	-129.421	0.087	-0.012
-425.573	-200.000	-0.038	0.249
-424.559	56.941	-0.107	-0.103
-423.544	-76.951	0.332	-0.115
-422.530	286.531	-0.061	0.109
-421.515	-16.047	0.248	0.156
-420.500	-200.000	-0.031	-0.273
-419.486	-115.702	-0.320	0.059
-418.471	800.000	-0.035	-0.140
-417.457	800.000	-0.052	-0.181
-416.442	-20.008	0.085	-0.052
-415.428	800.000	0.051	0.140
-414.413	81.323	0.125	0.133
-413.398	-200.000	0.036	0.250
-412.384	-69.404	0.420	-0.159
-411.369	-97.038	-0.172	0.044
-410.355	62.293	0.246	-0.242
-409.340	800.000	0.041	0.132
-408.325	-153.367	0.521	-0.036
-407.311	-170.555	0.433	0.015
-406.296	254.310	-0.047	-0.080
-405.282	170.851	0.027	0.038
-404.267	800.000	0.165	0.486
-403.252	40.276	-0.178	-0.158
-402.238	-66.546	0.309	-0.121
-401.223	-100.101	-0.110	-0.027
-400.209	-200.000	0.001	-0.165
-399.194	-19.705	-0.161	0.098
-398.179	-146.274	-0.081	-0.007
-397.165	-200.000	-0.023	0.150
-396.150	-5.221	-0.147	-0.100
-395.136	172.859	0.079	-0.112
-394.121	254.810	-0.122	0.206
-393.106	37.847	0.101	0.089
-392.092	362.772	-0.062	-0.124
-391.077	-50.033	0.255	0.119
-390.063	452.219	-0.127	-0.277
-389.048	89.084	-0.068	-0.074
-388.033	800.000	0.033	-0.108
-387.019	-200.000	0.038	0.181
-386.004	800.000	0.058	-0.191
-384.990	40.828	-0.093	0.083
-383.975	635.956	0.129	-0.323
-382.960	105.017	-0.162	-0.188
-381.946	-200.000	-0.012	0.421
-380.931	66.095	0.158	-0.159
-379.917	-200.000	0.055	0.244
-378.902	708.800	-0.160	0.418
-377.888	-84.547	0.087	0.027
-376.873	47.215	-0.171	-0.157
-375.858	-200.000	0.006	-0.125
-374.844	-200.000	-0.010	0.266
-373.829	22.804	-0.162	0.131
-372.815	214.471	-0.170	-0.265
-371.800	-200.000	0.039	0.191
-370.785	-54.759	0.243	0.108
-369.771	800.000	0.069	0.249
-368.756	800.000	-0.030	0.119
-367.742	20.092	-0.288	-0.229
-366.727	-95.630	0.320	-0.084
-365.712	80.281	-0.369	0.392
-364.698	269.221	0.165	0.285
-363.683	-2.164	0.195	0.135
-362.669	269.246	-0.170	0.294
-361.654	-200.000	0.015	0.309
-360.639	516.599	0.019	-0.044
-359.625	-200.000	-0.004	0.153
-358.610	-101.657	-0.416	-0.099
-357.596	45.407	0.196	0.178
-356.581	-200.000	-0.052	0.417
-355.566	-157.242	-0.167	0.010
-354.552	-42.175	-0.191	0.096
-353.537	147.700	0.110	0.146
-352.523	-196.407	-0.229	0.002
-351.508	764.412	0.092	-0.245
-350.493	-189.953	0.209	-0.002
-349.479	-124.505	-0.148	-0.023
-348.464	27.245	0.108	-0.089
-347.450	78.287	-0.152	-0.160
-346.435	-200.000	0.015	-0.080
-345.420	-71.277	0.143	0.053
-344.406	155.270	0.164	0.222
-343.391	-68.761	-0.445	0.170
-342.377	800.000	-0.097	-0.268
-341.362	635.841	-0.107	0.268
-340.348	242.360	-0.107	0.176
-339.333	800.000	-0.051	-0.139
-338.318	-149.217	0.261	0.021
-337.304	800.000	-0.009	0.030
-336.289	-74.663	-0.242	0.086
-335.275	179.366	0.031	-0.045
-334.260	-200.000	0.033	0.161
-333.245	17.064	-0.125	0.097
-332.231	448.584	-0.124	0.270
-331.216	477.767	-0.055	-0.122
-330.202	4.580	0.370	-0.268
-329.187	800.000	-0.040	-0.120
-328.172	645.501	-0.054	0.135
-327.158	-66.739	-0.176	0.069
-326.143	-0.206	0.173	-0.122
-325.129	686.322	0.123	0.317
-324.114	139.260	0.088	-0.114
-323.099	-200.000	0.022	-0.098
-322.085	40.487	0.048	0.042
-321.070	-200.000	-0.001	0.056
-320.056	-15.155	0.055	0.035
-319.041	7.068	0.176	0.129
-318.026	-171.349	-0.039	-0.001
-317.012	-200.000	0.005	0.159
-315.997	239.927	0.173	-0.284
-314.983	149.548	0.139	0.186
-313.968	191.405	0.093	-0.138
-312.953	-113.414	0.128	0.025
-311.939	12.319	-0.145	-0.110
-310.924	-5.603	0.210	-0.142
-309.910	-70.431	0.141	0.053
-308.895	-72.337	-0.319	-0.116
-307.880	41.927	-0.095	-0.085
-306.866	-83.262	-0.359	-0.114
-305.851	-119.455	-0.215	0.037
-304.837	-8.323	-0.179	0.118
-303.822	394.282	-0.054	-0.110
-302.807	435.586	0.265	0.568
-301.793	116.338	0.209	0.252
-300.778	-200.000	-0.017	0.289
-299.764	-200.000	-0.024	-0.171
-298.749	-63.992	0.170	-0.068
-297.735	89.970	0.212	0.233
-296.720	-107.781	-0.063	-0.014
-295.705	800.000	-0.079	-0.276
-294.691	448.045	0.052	0.112
-293.676	-27.027	0.112	0.064
-292.662	153.532	0.082	0.110
-291.647	-72.832	0.140	-0.051
-290.632	-26.480	-0.253	0.146
-289.618	-200.000	-0.005	-0.241
-288.603	-200.000	-0.038	-0.273
-287.589	-41.281	-0.202	-0.103
-286.574	-89.168	-0.329	0.096
-285.559	-122.010	0.404	0.065
-284.545	-158.639	-0.334	0.019
-283.530	-94.171	0.310	-0.084
-282.516	141.248	0.193	0.251
-281.501	-189.077	0.159	-0.002
-280.486	176.906	0.175	-0.250
-279.472	-121.010	-0.263	-0.043
-278.457	-49.003	-0.223	0.105
-277.443	444.576	-0.091	0.197
-276.428	-67.064	0.216	-0.084
-275.413	-103.327	0.080	-0.019
-274.399	25.222	-0.136	-0.111
-273.384	199.186	-0.096	0.144
-272.370	7.391	-0.356	-0.262
-271.355	-162.380	-0.415	-0.020
-270.340	-200.000	-0.002	0.039
-269.326	326.092	-0.088	0.165
-268.311	120.575	0.059	-0.072
-267.297	-38.897	0.182	-0.094
-266.282	-48.969	-0.270	-0.127
-265.267	-200.000	0.036	0.186
-264.253	800.000	0.070	-0.240
-263.238	-59.121	0.228	-0.097
-262.224	84.904	-0.160	-0.172
-261.209	800.000	0.113	-0.416
-260.195	-200.000	0.069	0.332
-259.180	-200.000	-0.081	0.379
-258.165	-87.242	-0.197	-0.059
-257.151	-158.146	0.051	-0.003
-256.136	-41.560	0.217	0.110
-255.122	-33.510	-0.211	0.115
-254.107	171.033	-0.122	-0.171
-253.092	-200.000	-0.046	-0.279
-252.078	-89.520	-0.092	0.027
-251.063	800.000	-0.061	-0.174
-250.049	-177.780	0.279	0.007
-249.034	137.892	0.232	-0.299
-248.019	734.169	-0.042	0.110
-247.005	-26.580	0.121	0.069
-245.990	-86.199	0.279	0.084
-244.976	800.000	-0.055	0.156
-243.961	159.233	0.063	0.086
-242.946	-200.000	-0.008	-0.262
-241.932	800.000	-0.032	-0.127
-240.917	-52.007	-0.064	-0.029
-239.903	800.000	-0.074	-0.213
-238.888	-200.000	-0.027	-0.125
-237.873	-53.383	-0.270	-0.121
-236.859	32.078	0.162	-0.137
-235.844	9.273	-0.206	0.153
-234.830	-65.358	0.266	0.105
-233.815	-200.000	0.013	-0.116
-232.800	-89.912	-0.219	-0.063
-231.786	-130.805	0.218	0.029
-230.771	-200.000	-0.027	-0.128
-229.757	440.729	0.034	0.073
-228.742	-82.765	-0.333	0.106
-227.727	-54.834	0.388	0.172
-226.713	504.472	-0.084	0.190
-225.698	-94.238	-0.068	0.018
-224.684	516.158	-0.181	-0.415
-223.669	5.163	0.176	0.127
-222.655	83.469	0.135	-0.144
-221.640	86.271	0.238	0.257
-220.625	-45.286	0.111	-0.054
-219.611	110.908	-0.235	-0.278
-218.596	-144.319	0.172	-0.016
-217.582	261.056	-0.074	0.125
-216.567	-156.428	0.246	-0.015
-215.552	-130.232	-0.331	-0.044
-214.538	-200.000	-0.032	-0.282
-213.523	23.626	0.241	0.195
-212.509	-200.000	0.008	0.414
-211.494	68.672	0.108	-0.108
-210.479	-53.296	-0.037	-0.017
-209.465	-43.319	-0.141	-0.070
-208.450	66.325	-0.096	-0.095
-207.436	-200.000	0.024	-0.361
-206.421	-10.645	0.258	-0.168
-205.406	417.981	-0.090	0.189
-204.392	-200.000	0.064	0.000
-203.377	112.572	0.151	-0.180
-202.363	800.000	0.043	0.146
-201.348	800.000	-0.054	-0.165
-200.333	-83.643	0.274	-0.086
-199.319	203.700	0.160	0.243
-198.304	800.000	-0.027	-0.094
-197.290	-103.812	0.447	-0.103
-196.275	1.747	0.093	-0.066
-195.260	764.663	0.044	-0.116
-194.246	627.379	-0.087	-0.216
-193.231	-144.953	0.417	-0.037
-192.217	55.599	0.109	0.103
-191.202	-89.602	-0.343	-0.099
-190.187	-200.000	0.060	-0.263
-189.173	-158.578	-0.083	-0.005
-188.158	-200.000	-0.031	0.365
-187.144	13.585	0.278	-0.211
-186.129	800.000	-0.061	-0.172
-185.114	800.000	-0.130	-0.353
-184.100	206.673	-0.230	0.351
-183.085	-3.908	-0.103	-0.070
-182.071	-24.873	-0.140	0.081
-181.056	508.727	0.081	-0.183
-180.042	-27.916	-0.172	-0.098
-179.027	-200.000	-0.024	-0.192
-178.012	-21.761	0.056	0.033
-176.998	-113.162	0.211	0.041
-175.983	204.717	-0.161	0.245
-174.969	-164.839	0.241	0.011
-173.954	-88.818	0.132	-0.038
-172.939	486.021	-0.070	0.157
-171.925	-54.051	-0.292	-0.130
-170.910	-53.647	-0.105	-0.047
-169.896	773.098	0.133	-0.355
-168.881	178.286	-0.184	-0.263
-167.866	733.468	0.056	-0.148
-166.852	800.000	0.028	0.099
-165.837	244.960	-0.048	-0.079
-164.823	241.549	-0.068	0.111
-163.808	110.990	0.347	0.409
-162.793	-72.039	0.263	-0.096
-161.779	-37.382	0.181	-0.095
-160.764	-140.627	-0.091	-0.009
-159.750	20.072	0.307	0.243
-158.735	-30.860	0.352	0.195
-157.720	68.909	-0.182	0.183
-156.706	-200.000	0.011	-0.152
-155.691	-46.015	0.122	0.059
-154.677	-185.319	0.162	0.002
-153.662	-47.096	-0.595	-0.284
-152.647	-127.073	0.233	0.033
-151.633	-200.000	0.010	0.150
-150.618	94.594	-0.262	-0.291
-149.604	214.567	-0.059	0.091
-148.589	-133.199	0.378	-0.047
-147.574	5.329	-0.298	0.215
-146.560	-200.000	-0.023	-0.126
-145.545	-125.442	-0.173	0.026
-144.531	-34.236	0.154	0.083
-143.516	-40.426	-0.115	0.058
-142.502	-101.336	0.082	0.020
-141.487	97.715	-0.243	0.273
-140.472	-129.886	-0.149	-0.020
-139.458	-200.000	-0.007	-0.151
-138.443	800.000	-0.050	-0.142
-137.429	67.614	0.134	-0.134
-136.414	800.000	-0.097	-0.405
-135.399	-113.438	0.219	0.042
-134.385	-173.184	0.136	0.004
-133.370	-200.000	-0.046	0.389
-132.356	-154.793	-0.446	0.029
-131.341	-125.535	-0.164	-0.024
-130.326	40.396	-0.237	-0.209
-129.312	-200.000	-0.084	-0.410
-128.297	-59.067	0.106	0.045
-127.283	-200.000	0.077	-0.437
-126.268	447.039	0.138	-0.296
-125.253	800.000	0.062	-0.225
-124.239	63.073	0.242	0.237
-123.224	-145.265	0.452	-0.040
-122.210	-200.000	-0.037	-0.235
