DTS Sentinel unit serial number:	SN413079Multiplexer serial number:	ORYXHardware model number:	OX4-SRSoftware version number:	ORYX F/W v4.00 Oryx Data Collector v3.7.2.0data status	okinstallation	princeton_trtdifferential loss correction	single-endedforward channel	channel 2reverse channel	N/Adate	2019/09/15time	13:39:35forward acquisition time	60.00reverse acquisition time	0.00gamma	496.2192k internal	0.2305k external	0.2305temperature offset calibration	0.9990default loss term (dB/km)	0.3790temperature slope calibration	1.0000multiplexer offset coefficient	1.0000multiplexer slope coefficient	1.0000fibre end	0.00T internal ref (°C)	37.86T ext. ref 1 (°C)	4.84T ext. ref 2 (°C)	34.99length (m)	temperature (°C)	Stokes	anti-Stokes-747.200	34.820	0.138	0.123
-746.185	198.778	0.123	0.192
-745.171	132.834	0.140	-0.184
-744.156	800.000	-0.044	-0.167
-743.142	117.001	0.136	-0.170
-742.127	44.315	-0.116	-0.109
-741.112	10.165	0.473	0.366
-740.098	-59.827	-0.093	0.041
-739.083	-189.339	0.211	0.003
-738.069	292.689	0.206	0.382
-737.054	-200.000	0.009	-0.155
-736.039	212.122	-0.237	-0.381
-735.025	-200.000	0.054	0.309
-734.010	-200.000	0.003	0.128
-732.996	-200.000	-0.006	0.116
-731.981	-51.314	0.173	0.082
-730.966	800.000	-0.172	-0.498
-729.952	-88.399	-0.052	-0.016
-728.937	796.287	0.092	-0.257
-727.923	-25.914	-0.403	-0.242
-726.908	-39.965	-0.386	0.205
-725.894	296.144	-0.054	0.101
-724.879	-200.000	0.030	0.196
-723.864	-158.259	0.143	-0.008
-722.850	-133.600	0.091	0.012
-721.835	-133.885	-0.111	0.014
-720.821	-60.952	0.220	0.095
-719.806	-200.000	0.076	-0.389
-718.791	-57.230	-0.079	0.035
-717.777	-95.841	-0.366	0.099
-716.762	-200.000	-0.085	-0.461
-715.748	2.755	-0.279	-0.206
-714.733	266.458	0.131	-0.233
-713.718	-200.000	-0.048	0.217
-712.704	-171.273	-0.087	-0.003
-711.689	-200.000	-0.002	-0.314
-710.675	800.000	-0.027	0.109
-709.660	800.000	-0.069	0.248
-708.645	-200.000	-0.003	-0.336
-707.631	-41.181	-0.126	-0.066
-706.616	-123.087	-0.227	-0.037
-705.602	78.073	-0.072	0.079
-704.587	93.962	0.139	-0.160
-703.572	123.824	0.151	-0.193
-702.558	94.022	-0.111	-0.128
-701.543	-80.784	0.106	-0.036
-700.529	45.800	0.064	-0.060
-699.514	-200.000	-0.019	0.541
-698.499	379.179	0.048	0.099
-697.485	-48.055	-0.262	-0.129
-696.470	-96.750	-0.396	-0.106
-695.456	5.042	-0.176	0.132
-694.441	22.279	-0.105	-0.087
-693.426	-116.636	0.225	-0.042
-692.412	504.359	-0.125	-0.295
-691.397	69.894	0.155	-0.162
-690.383	254.412	0.118	-0.204
-689.368	-146.495	0.188	-0.017
-688.354	-18.038	0.049	-0.031
-687.339	773.145	0.050	0.138
-686.324	29.752	-0.272	-0.235
-685.310	800.000	-0.078	-0.278
-684.295	-158.723	0.247	-0.014
-683.281	-102.329	-0.543	-0.132
-682.266	-26.666	-0.052	0.031
-681.251	90.678	-0.137	-0.156
-680.237	-26.380	-0.110	-0.066
-679.222	-180.606	0.304	0.006
-678.208	181.940	0.077	0.116
-677.193	-200.000	0.017	-0.262
-676.178	-58.081	0.337	0.149
-675.164	-95.469	0.233	-0.063
-674.149	-200.000	0.015	-0.263
-673.135	-32.859	0.038	-0.022
-672.120	-101.876	-0.082	-0.020
-671.105	-200.000	0.036	0.276
-670.091	-89.692	-0.034	0.010
-669.076	-93.492	-0.307	0.086
-668.062	-162.630	-0.297	0.015
-667.047	-127.822	-0.255	0.037
-666.032	-73.233	-0.126	-0.047
-665.018	-25.497	-0.155	-0.093
-664.003	279.351	0.164	-0.297
-662.989	-62.931	-0.171	0.072
-661.974	20.778	0.144	0.118
-660.959	116.141	-0.107	0.133
-659.945	321.962	0.129	-0.250
-658.930	39.065	0.181	-0.164
-657.916	-200.000	0.023	-0.116
-656.901	208.932	-0.020	0.032
-655.886	73.351	-0.082	-0.087
-654.872	-7.458	0.311	-0.213
-653.857	800.000	0.011	0.039
-652.843	358.552	-0.218	0.442
-651.828	118.740	-0.130	0.162
-650.814	-19.355	-0.085	0.054
-649.799	800.000	-0.114	0.448
-648.784	27.254	-0.044	-0.037
-647.770	-200.000	-0.018	-0.089
-646.755	-88.397	-0.301	0.091
-645.741	-200.000	-0.018	0.207
-644.726	273.727	0.074	0.132
-643.711	-143.403	-0.349	0.034
-642.697	-136.443	0.142	-0.017
-641.682	800.000	-0.019	-0.063
-640.668	10.532	0.124	0.095
-639.653	-200.000	0.011	-0.171
-638.638	-34.418	-0.192	0.106
-637.624	800.000	-0.062	0.180
-636.609	-97.990	0.474	0.124
-635.595	111.796	0.192	0.235
-634.580	-200.000	0.013	0.567
-633.565	3.430	0.231	-0.171
-632.551	360.080	-0.119	-0.242
-631.536	-53.681	-0.176	-0.082
-630.522	571.127	0.209	-0.515
-629.507	-200.000	0.062	-0.364
-628.492	800.000	0.052	-0.149
-627.478	-14.742	0.158	0.103
-626.463	800.000	-0.016	-0.065
-625.449	77.172	-0.154	-0.166
-624.434	-80.524	-0.324	-0.109
-623.419	324.849	-0.102	0.198
-622.405	-74.536	-0.172	-0.063
-621.390	3.288	-0.162	0.120
-620.376	-169.721	0.171	-0.006
-619.361	72.088	0.196	0.207
-618.346	1.055	0.107	-0.078
-617.332	800.000	0.016	0.055
-616.317	-111.548	0.296	0.061
-615.303	800.000	0.052	-0.184
-614.288	-77.160	0.299	0.106
-613.273	-120.336	-0.130	-0.022
-612.259	-106.575	-0.155	-0.035
-611.244	-69.663	0.059	-0.023
-610.230	78.132	-0.216	0.233
-609.215	-83.284	-0.072	0.023
-608.201	-200.000	-0.028	-0.154
-607.186	259.844	-0.182	-0.318
-606.171	-159.156	0.246	0.014
-605.157	-21.157	-0.114	0.071
-604.142	321.249	-0.056	-0.107
-603.128	16.326	0.252	0.201
-602.113	-120.386	-0.111	-0.019
-601.098	-29.900	0.262	0.151
-600.084	170.053	-0.085	-0.123
-599.069	3.841	-0.183	-0.135
-598.055	139.470	-0.055	0.073
-597.040	-200.000	0.011	-0.207
-596.025	540.883	-0.070	-0.168
-595.011	-0.901	0.157	0.113
-593.996	-135.678	-0.092	0.011
-592.982	-200.000	-0.069	0.453
-591.967	13.373	-0.197	0.155
-590.952	-39.693	0.132	-0.070
-589.938	-37.050	0.186	0.101
-588.923	3.550	-0.157	0.116
-587.909	623.849	0.076	0.194
-586.894	-30.568	0.211	-0.121
-585.879	-200.000	-0.057	0.000
-584.865	-200.000	-0.342	-0.000
-583.850	-0.492	-0.192	-0.138
-582.836	73.352	0.086	-0.091
-581.821	-89.504	0.116	-0.035
-580.806	-200.000	0.021	-0.167
-579.792	160.382	-0.116	0.164
-578.777	50.614	0.149	-0.142
-577.763	334.773	-0.129	0.252
-576.748	-94.468	-0.257	-0.071
-575.733	-98.754	-0.133	-0.034
-574.719	800.000	0.119	-0.391
-573.704	-90.461	-0.253	-0.074
-572.690	88.748	-0.052	-0.059
-571.675	800.000	0.087	-0.266
-570.661	10.692	-0.316	-0.243
-569.646	41.090	-0.045	-0.041
-568.631	-130.268	-0.184	-0.025
-567.617	473.731	0.095	0.215
-566.602	238.824	0.011	0.019
-565.588	-144.772	0.056	0.005
-564.573	182.235	-0.058	0.086
-563.558	-4.524	-0.205	-0.143
-562.544	371.629	0.046	-0.095
-561.529	166.727	-0.147	0.211
-560.515	17.448	-0.092	0.074
-559.500	656.327	-0.020	0.051
-558.485	31.304	-0.358	-0.310
-557.471	-47.485	-0.017	0.008
-556.456	-55.472	-0.187	-0.085
-555.442	-200.000	-0.031	0.237
-554.427	-132.877	-0.122	-0.016
-553.412	-38.276	-0.241	-0.129
-552.398	404.357	-0.132	-0.280
-551.383	202.567	-0.263	0.411
-550.369	-40.029	0.138	-0.073
-549.354	-42.470	0.079	-0.041
-548.339	-93.635	0.154	0.043
-547.325	51.117	-0.168	-0.161
-546.310	-47.738	0.152	-0.074
-545.296	-112.057	0.087	0.018
-544.281	161.338	0.130	-0.184
-543.266	116.546	0.184	-0.228
-542.252	-83.073	0.213	-0.069
-541.237	-200.000	-0.013	0.167
-540.223	-88.147	-0.300	0.091
-539.208	800.000	-0.063	-0.207
-538.193	-200.000	0.107	-0.558
-537.179	-56.143	-0.164	-0.074
-536.164	800.000	-0.080	-0.246
-535.150	711.973	0.159	0.424
-534.135	-200.000	0.022	-0.139
-533.121	-200.000	0.007	-0.151
-532.106	-61.630	0.220	0.093
-531.091	265.556	0.083	-0.146
-530.077	126.783	0.019	-0.024
-529.062	116.037	0.169	-0.209
-528.048	-47.222	-0.265	-0.130
-527.033	800.000	-0.150	-0.472
-526.018	-65.765	0.051	0.021
-525.004	37.533	0.050	-0.045
-523.989	104.686	-0.177	-0.211
-522.975	-24.594	-0.205	0.123
-521.960	11.792	-0.212	0.164
-520.945	-75.922	0.079	-0.028
-519.931	-48.788	-0.179	0.086
-518.916	-45.665	0.142	0.071
-517.902	93.747	-0.232	0.265
-516.887	-47.746	0.237	0.116
-515.872	41.201	-0.135	0.123
-514.858	-39.579	-0.034	0.018
-513.843	800.000	0.066	-0.186
-512.829	510.943	-0.059	0.139
-511.814	-200.000	-0.042	0.187
-510.799	83.497	0.031	-0.034
-509.785	-200.000	0.032	0.235
-508.770	584.654	-0.212	-0.525
-507.756	126.728	-0.099	-0.126
-506.741	800.000	-0.026	-0.105
-505.726	-104.874	0.205	0.047
-504.712	13.136	-0.275	-0.215
-503.697	569.944	0.165	-0.406
-502.683	29.119	0.164	0.140
-501.668	331.363	0.088	0.171
-500.653	697.646	0.093	-0.247
-499.639	-29.035	0.032	-0.019
-498.624	27.004	-0.189	-0.160
-497.610	800.000	-0.044	-0.148
-496.595	-118.130	0.495	-0.089
-495.581	243.855	-0.077	0.130
-494.566	-0.924	0.168	0.120
-493.551	-200.000	-0.003	-0.065
-492.537	800.000	-0.039	-0.171
-491.522	-100.511	0.115	-0.029
-490.508	429.168	0.050	0.109
-489.493	-41.899	-0.170	0.088
-488.478	46.660	0.151	0.142
-487.464	124.344	0.221	-0.281
-486.449	-200.000	-0.042	0.219
-485.435	29.754	-0.207	0.178
-484.420	22.529	-0.037	-0.030
-483.405	-60.972	0.251	-0.107
-482.391	-186.550	0.074	-0.001
-481.376	-61.323	-0.198	0.084
-480.362	-200.000	0.011	0.141
-479.347	-100.043	0.098	0.025
-478.332	-48.491	-0.245	0.119
-477.318	-200.000	-0.026	0.177
-476.303	111.637	0.181	-0.220
-475.289	485.858	0.063	-0.144
-474.274	67.608	-0.294	0.302
-473.259	188.589	0.033	-0.049
-472.245	222.915	-0.036	0.058
-471.230	-63.317	-0.036	0.015
-470.216	-200.000	-0.055	-0.341
-469.201	120.686	-0.128	0.160
-468.186	-82.835	-0.273	-0.089
-467.172	-159.301	0.221	0.012
-466.157	-40.243	-0.150	-0.079
-465.143	-143.756	0.067	-0.006
-464.128	526.200	-0.070	-0.166
-463.113	-44.484	-0.160	-0.081
-462.099	-46.181	-0.050	0.025
-461.084	-101.331	0.229	0.056
-460.070	-79.419	-0.170	-0.058
-459.055	97.558	-0.344	-0.397
-458.040	777.296	-0.079	-0.217
-457.026	-200.000	-0.006	0.063
-456.011	-200.000	-0.023	0.151
-454.997	800.000	0.020	0.079
-453.982	-200.000	-0.044	-0.204
-452.968	-18.810	0.134	-0.084
-451.953	-58.128	-0.193	-0.085
-450.938	-86.234	0.223	0.069
-449.924	123.802	0.075	0.094
-448.909	-14.963	0.253	0.163
-447.895	-23.499	0.293	-0.177
-446.880	-55.746	0.305	-0.137
-445.865	18.772	0.291	-0.235
-444.851	247.703	-0.188	-0.319
-443.836	800.000	-0.104	0.290
-442.822	-157.517	0.305	-0.018
-441.807	54.961	0.053	-0.051
-440.792	48.505	-0.121	0.114
-439.778	800.000	-0.089	0.267
-438.763	156.716	0.220	0.306
-437.749	-83.468	-0.155	0.050
-436.734	473.285	-0.076	-0.172
-435.719	102.268	-0.106	0.125
-434.705	-146.653	0.153	-0.013
-433.690	41.687	0.114	0.104
-432.676	800.000	-0.069	-0.245
-431.661	17.399	-0.338	0.270
-430.646	-33.068	0.093	0.052
-429.632	37.596	0.052	0.046
-428.617	788.556	-0.218	-0.603
-427.603	89.376	-0.289	-0.324
-426.588	459.183	0.081	-0.182
-425.573	800.000	-0.123	-0.454
-424.559	-158.439	0.056	0.003
-423.544	162.689	0.061	-0.086
-422.530	-105.982	-0.164	0.037
-421.515	-200.000	-0.061	-0.423
-420.500	-200.000	-0.002	0.193
-419.486	-66.187	-0.150	-0.060
-418.471	38.161	0.214	0.191
-417.457	-200.000	0.010	0.165
-416.442	-170.824	-0.215	-0.007
-415.428	800.000	0.068	0.294
-414.413	30.758	0.101	0.087
-413.398	-30.191	0.101	-0.058
-412.384	339.479	-0.155	0.303
-411.369	174.154	0.101	-0.147
-410.355	-153.173	-0.297	-0.021
-409.340	-200.000	-0.011	-0.123
-408.325	-106.029	0.164	-0.037
-407.311	-82.122	-0.152	-0.050
-406.296	297.880	0.055	0.101
-405.282	161.773	0.202	0.284
-404.267	42.623	0.069	0.063
-403.252	-200.000	-0.005	0.345
-402.238	800.000	-0.076	0.298
-401.223	-85.998	-0.383	0.119
-400.209	800.000	0.073	-0.299
-399.194	322.978	-0.127	-0.242
-398.179	122.801	0.133	-0.167
-397.165	-9.863	0.147	0.098
-396.150	298.320	0.071	0.132
-395.136	256.200	-0.024	0.041
-394.121	-132.682	0.458	-0.059
-393.106	-126.922	0.165	0.024
-392.092	800.000	-0.052	0.167
-391.077	-71.284	0.104	0.039
-390.063	-139.201	-0.134	-0.015
-389.048	621.208	0.075	0.189
-388.033	800.000	0.056	0.182
-387.019	-70.863	0.338	-0.128
-386.004	-104.415	-0.147	0.034
-384.990	19.276	-0.145	-0.117
-383.975	-93.728	-0.129	-0.036
-382.960	779.424	-0.048	0.133
-381.946	-16.524	0.118	-0.075
-380.931	-65.767	0.115	-0.046
-379.917	-200.000	0.010	-0.316
-378.902	173.986	-0.108	-0.157
-377.888	46.022	-0.196	-0.182
-376.873	2.494	-0.137	-0.100
-375.858	16.965	-0.099	-0.079
-374.844	237.100	0.108	0.180
-373.829	2.650	0.204	0.148
-372.815	374.730	0.041	0.084
-371.800	82.112	0.107	0.116
-370.785	-83.665	-0.154	0.049
-369.771	278.870	-0.033	-0.059
-368.756	-31.061	-0.139	0.079
-367.742	-0.018	0.250	-0.179
-366.727	-111.976	0.157	0.032
-365.712	-74.925	-0.130	-0.047
-364.698	-200.000	-0.004	0.215
-363.683	124.102	0.139	0.175
-362.669	-157.059	-0.211	0.013
-361.654	-200.000	-0.022	0.301
-360.639	-175.389	-0.185	-0.005
-359.625	800.000	-0.130	-0.432
-358.610	-200.000	-0.008	0.107
-357.596	-105.235	0.209	0.048
-356.581	-88.826	0.213	-0.063
-355.566	575.554	-0.082	0.200
-354.552	475.404	-0.098	-0.221
-353.537	800.000	0.065	0.191
-352.523	-74.651	0.238	0.086
-351.508	342.411	-0.058	0.114
-350.493	-16.744	0.207	-0.131
-349.479	-101.514	0.108	0.026
-348.464	800.000	-0.143	0.492
-347.450	-128.289	0.126	0.018
-346.435	106.121	-0.217	0.257
-345.420	67.351	-0.006	-0.007
-344.406	-1.921	-0.140	-0.099
-343.391	-76.853	0.124	-0.043
-342.377	-200.000	0.012	0.173
-341.362	49.579	0.163	-0.154
-340.348	349.858	-0.045	-0.089
-339.333	201.659	0.132	-0.203
-338.318	317.492	0.039	0.075
-337.304	-20.738	-0.197	-0.121
-336.289	-200.000	0.141	0.633
-335.275	-25.262	-0.340	0.201
-334.260	800.000	-0.001	-0.005
-333.245	-200.000	-0.023	0.172
-332.231	-200.000	-0.041	-0.442
-331.216	-134.696	-0.343	-0.042
-330.202	10.937	-0.277	0.212
-329.187	21.418	0.057	0.046
-328.172	-147.048	-0.194	-0.017
-327.158	410.379	-0.102	-0.217
-326.143	-200.000	0.021	-0.145
-325.129	-165.447	-0.389	-0.017
-324.114	261.251	0.221	0.383
-323.099	-104.018	-0.060	-0.014
-322.085	29.910	-0.227	0.194
-321.070	-136.287	-0.273	-0.032
-320.056	800.000	0.051	-0.162
-319.041	479.596	0.060	-0.136
-318.026	327.472	0.014	-0.027
-317.012	-103.159	0.118	0.028
-315.997	-10.129	-0.358	0.238
-314.983	-110.486	-0.082	0.017
-313.968	650.898	-0.072	-0.185
-312.953	-200.000	0.030	0.144
-311.939	-142.622	-0.378	0.037
-310.924	153.034	0.054	-0.074
-309.910	-187.129	0.283	-0.004
-308.895	24.505	0.114	-0.094
-307.880	-200.000	-0.035	-0.312
-306.866	598.160	-0.043	-0.107
-305.851	800.000	0.080	-0.241
-304.837	-98.369	0.168	-0.043
-303.822	-200.000	0.005	0.032
-302.807	149.260	-0.099	0.134
-301.793	195.835	-0.134	-0.204
-300.778	-3.411	-0.126	0.088
-299.764	800.000	-0.025	0.075
-298.749	-41.908	0.140	-0.072
-297.735	800.000	0.024	0.071
-296.720	-200.000	-0.002	-0.026
-295.705	144.223	0.169	-0.226
-294.691	90.423	0.056	0.063
-293.676	-200.000	0.028	-0.200
-292.662	-19.100	-0.226	0.141
-291.647	160.194	0.207	0.289
-290.632	-11.452	-0.176	-0.116
-289.618	-120.900	0.128	0.022
-288.603	-146.823	0.084	-0.007
-287.589	107.189	-0.198	0.236
-286.574	-113.145	0.236	0.047
-285.559	-94.450	-0.046	-0.012
-284.545	800.000	0.135	0.413
-283.530	800.000	0.137	-0.387
-282.516	59.494	0.031	-0.030
-281.501	351.521	0.112	-0.221
-280.486	-200.000	-0.030	0.206
-279.472	-39.607	-0.321	-0.168
-278.457	-83.128	-0.190	0.061
-277.443	-20.201	0.080	-0.049
-276.428	2.615	0.208	-0.151
-275.413	-56.321	0.161	-0.071
-274.399	-1.453	0.048	0.034
-273.384	-200.000	-0.000	0.092
-272.370	310.521	-0.071	-0.134
-271.355	155.384	-0.078	-0.108
-270.340	-163.230	-0.158	0.008
-269.326	-164.414	0.111	-0.005
-268.311	1.407	-0.108	0.078
-267.297	-200.000	0.048	0.284
-266.282	800.000	0.028	0.091
-265.267	65.655	-0.101	0.103
-264.253	-200.000	0.037	0.175
-263.238	-102.219	-0.146	-0.035
-262.224	346.507	0.132	-0.260
-261.209	-158.133	0.365	-0.021
-260.195	-180.131	0.260	0.005
-259.180	570.701	-0.100	0.244
-258.165	56.958	0.067	0.065
-257.151	-19.616	0.240	-0.148
-256.136	-104.998	-0.147	-0.034
-255.122	-90.895	-0.164	-0.047
-254.107	-90.108	0.049	-0.014
-253.092	-200.000	-0.053	0.379
-252.078	-112.230	-0.075	-0.015
-251.063	83.543	-0.294	0.320
-250.049	56.848	-0.076	-0.074
-249.034	-200.000	0.035	-0.324
-248.019	800.000	-0.032	0.099
-247.005	-200.000	0.046	0.223
-245.990	-23.729	-0.460	0.275
-244.976	-55.614	0.306	-0.137
-243.961	281.556	0.141	-0.253
-242.946	145.051	-0.129	0.173
-241.932	-88.277	0.249	0.074
-240.917	-98.169	-0.163	-0.042
-239.903	485.452	0.100	-0.228
-238.888	127.110	0.220	-0.278
-237.873	-200.000	-0.024	0.342
-236.859	17.349	0.187	0.148
-235.844	-30.467	0.084	-0.048
-234.830	292.427	0.142	0.258
-233.815	800.000	-0.053	-0.213
-232.800	-17.767	-0.174	-0.109
-231.786	-200.000	-0.039	-0.508
-230.771	10.395	0.113	0.086
-229.757	-110.642	0.160	0.033
-228.742	-151.967	-0.130	0.009
-227.727	155.426	0.030	0.041
-226.713	521.749	0.049	-0.115
-225.698	663.509	0.080	-0.206
-224.684	124.416	0.070	0.088
-223.669	5.426	0.133	0.098
-222.655	-32.608	-0.074	0.041
-221.640	3.161	-0.166	-0.120
-220.625	37.709	-0.088	0.078
-219.611	63.717	-0.088	0.088
-218.596	-83.834	0.327	0.104
-217.582	-200.000	0.018	0.145
-216.567	-200.000	0.004	-0.185
-215.552	-99.285	0.280	-0.071
-214.538	-16.852	0.244	-0.154
-213.523	66.130	-0.173	0.175
-212.509	-19.074	0.358	0.222
-211.494	163.988	-0.105	-0.147
-210.479	-132.116	0.129	0.017
-209.465	-97.602	0.300	-0.078
-208.450	-200.000	-0.017	-0.193
-207.436	111.012	0.119	0.143
-206.421	-36.841	0.313	0.167
-205.406	800.000	-0.038	0.105
-204.392	121.756	0.209	-0.260
-203.377	-80.031	-0.648	0.217
-202.363	800.000	-0.047	-0.161
-201.348	-131.990	-0.095	-0.012
-200.333	-156.482	0.463	0.029
-199.319	-184.271	0.171	-0.003
-198.304	29.544	0.185	0.157
-197.290	170.517	0.173	0.247
-196.275	-54.407	-0.210	0.095
-195.260	674.102	-0.055	0.143
-194.246	79.785	0.040	-0.043
-193.231	184.813	0.237	0.351
-192.217	-101.498	0.081	-0.020
-191.202	55.647	0.187	0.180
-190.187	-46.420	-0.064	-0.031
-189.173	-200.000	0.005	0.073
-188.158	-71.334	0.304	0.114
-187.144	-200.000	-0.067	0.369
-186.129	286.597	-0.153	-0.275
-185.114	800.000	0.058	0.240
-184.100	44.842	0.098	-0.090
-183.085	-165.724	0.221	-0.009
-182.071	-114.653	-0.418	0.080
-181.056	-200.000	0.036	0.207
-180.042	106.164	0.087	-0.102
-179.027	609.070	0.095	-0.237
-178.012	-38.763	-0.115	0.060
-176.998	-9.540	-0.364	0.242
-175.983	496.404	0.046	-0.105
-174.969	504.612	-0.059	0.136
-173.954	-94.294	0.098	-0.027
-172.939	-165.000	0.171	0.008
-171.925	-48.204	-0.240	-0.115
-170.910	-115.828	0.126	0.023
-169.896	43.255	-0.236	0.214
-168.881	2.422	0.159	-0.115
-167.866	-73.125	0.266	-0.097
-166.852	39.589	0.105	0.093
-165.837	-30.277	0.207	0.117
-164.823	800.000	0.086	0.278
-163.808	-142.408	0.168	-0.016
-162.793	14.870	-0.171	-0.133
-161.779	76.679	0.175	0.185
-160.764	-2.762	-0.269	-0.187
-159.750	72.578	0.073	0.075
-158.735	-73.500	0.143	0.052
-157.720	-54.944	0.218	0.098
-156.706	3.354	0.129	-0.094
-155.691	526.003	-0.052	-0.123
-154.677	800.000	-0.112	0.324
-153.662	-200.000	0.011	-0.087
-152.647	411.772	0.027	0.056
-151.633	-16.083	0.094	-0.059
-150.618	-122.082	0.637	-0.104
-149.604	-200.000	0.028	0.124
-148.589	-72.559	-0.031	0.011
-147.574	-200.000	-0.023	0.195
-146.560	171.118	0.256	-0.365
-145.545	-46.260	0.143	-0.070
-144.531	-71.840	0.416	-0.154
-143.516	-50.287	0.144	-0.068
-142.502	-200.000	0.021	0.115
-141.487	-200.000	0.020	0.434
-140.472	94.344	0.066	0.074
-139.458	-200.000	0.008	-0.469
-138.443	-17.409	-0.218	0.136
-137.429	-67.794	-0.074	0.029
-136.414	30.333	-0.245	-0.208
-135.399	-99.196	-0.337	0.085
-134.385	-50.259	0.285	-0.134
-133.370	-200.000	0.004	-0.198
-132.356	-200.000	-0.007	0.048
-131.341	-39.701	0.217	-0.113
-130.326	172.696	0.087	0.124
-129.312	193.897	-0.171	-0.258
-128.297	317.856	0.179	-0.336
-127.283	-200.000	0.043	-0.276
-126.268	-69.784	0.079	0.030
-125.253	-66.796	0.034	-0.013
-124.239	478.882	-0.059	-0.133
-123.224	-200.000	-0.032	0.188
-122.210	128.621	-0.128	0.162
-121.195	-200.000	0.015	-0.276
