DTS Sentinel unit serial number:	SN413079Multiplexer serial number:	ORYXHardware model number:	OX4-SRSoftware version number:	ORYX F/W v4.00 Oryx Data Collector v3.7.2.0data status	okinstallation	princeton_trtdifferential loss correction	single-endedforward channel	channel 2reverse channel	N/Adate	2019/09/19time	06:47:35forward acquisition time	60.00reverse acquisition time	0.00gamma	496.2192k internal	0.2349k external	0.2349temperature offset calibration	1.0013default loss term (dB/km)	0.3790temperature slope calibration	1.0000multiplexer offset coefficient	1.0000multiplexer slope coefficient	1.0000fibre end	0.00T internal ref (°C)	19.00T ext. ref 1 (°C)	0.56T ext. ref 2 (°C)	12.75length (m)	temperature (°C)	Stokes	anti-Stokes-747.200	-69.799	0.204	0.078
-746.185	43.885	0.181	0.166
-745.171	-60.018	0.180	0.077
-744.156	-45.141	0.326	0.162
-743.142	-78.331	0.035	0.012
-742.127	-85.163	-0.312	0.097
-741.112	-180.275	-0.169	-0.004
-740.098	331.875	-0.163	0.314
-739.083	-70.528	-0.166	-0.063
-738.069	-46.853	0.345	-0.169
-737.054	98.156	-0.272	-0.312
-736.039	47.419	-0.385	-0.358
-735.025	764.456	-0.069	0.186
-734.010	800.000	-0.079	0.231
-732.996	3.725	-0.132	-0.096
-731.981	-200.000	0.015	0.233
-730.966	359.047	0.099	-0.197
-729.952	-69.164	-0.299	-0.115
-728.937	-20.337	-0.333	0.204
-727.923	203.249	-0.172	0.265
-726.908	73.458	0.034	0.035
-725.894	-99.315	-0.468	-0.118
-724.879	309.163	-0.040	0.075
-723.864	-156.790	-0.293	0.018
-722.850	51.306	0.150	-0.142
-721.835	33.726	-0.396	-0.343
-720.821	-56.953	0.135	-0.059
-719.806	-200.000	0.041	-0.299
-718.791	-91.995	0.207	-0.058
-717.777	-89.633	-0.468	-0.137
-716.762	104.535	-0.143	-0.167
-715.748	-39.241	0.237	0.124
-714.733	800.000	-0.084	0.245
-713.718	59.009	-0.042	0.041
-712.704	-71.475	0.389	0.145
-711.689	-26.524	0.050	0.029
-710.675	-200.000	0.085	-0.447
-709.660	192.392	-0.160	-0.240
-708.645	625.677	0.004	-0.011
-707.631	438.147	-0.077	-0.167
-706.616	130.170	0.034	0.043
-705.602	-109.310	0.403	-0.085
-704.587	55.141	-0.214	0.207
-703.572	83.181	-0.081	0.088
-702.558	-200.000	-0.002	-0.349
-701.543	11.388	0.155	0.118
-700.529	-200.000	-0.086	-0.392
-699.514	310.085	-0.021	0.039
-698.499	-200.000	-0.079	-0.399
-697.485	145.798	-0.066	-0.089
-696.470	800.000	-0.076	0.328
-695.456	-121.225	-0.164	-0.027
-694.441	800.000	0.151	-0.451
-693.426	-150.464	-0.280	0.021
-692.412	25.928	-0.237	0.197
-691.397	161.581	0.181	0.252
-690.383	-118.797	-0.132	0.023
-689.368	800.000	-0.118	-0.336
-688.354	-10.029	-0.248	0.164
-687.339	-34.829	-0.158	0.086
-686.324	177.217	0.195	0.282
-685.310	80.494	-0.140	-0.151
-684.295	-61.237	0.193	-0.081
-683.281	41.474	0.127	0.114
-682.266	-186.146	-0.277	0.004
-681.251	-94.056	-0.202	0.055
-680.237	800.000	0.128	-0.417
-679.222	212.622	0.055	-0.087
-678.208	-97.567	0.157	-0.040
-677.193	131.682	0.145	-0.186
-676.178	-40.328	0.176	-0.091
-675.164	800.000	0.129	-0.386
-674.149	641.084	-0.011	-0.027
-673.135	-27.545	0.091	0.053
-672.120	-20.801	0.044	0.027
-671.105	-55.648	-0.068	-0.031
-670.091	-63.913	0.271	-0.110
-669.076	-172.958	-0.196	-0.006
-668.062	-200.000	0.013	-0.078
-667.047	6.370	0.204	0.151
-666.032	310.877	-0.052	-0.096
-665.018	-69.650	-0.246	-0.094
-664.003	9.267	0.295	-0.222
-662.989	166.693	-0.140	-0.198
-661.974	557.055	0.105	-0.252
-660.959	800.000	-0.069	-0.219
-659.945	-133.225	-0.098	0.012
-658.930	-200.000	-0.027	-0.171
-657.916	-200.000	0.035	-0.312
-656.901	240.952	-0.128	-0.213
-655.886	-62.040	-0.219	0.091
-654.872	-200.000	-0.008	0.054
-653.857	800.000	-0.042	0.129
-652.843	800.000	0.037	0.156
-651.828	-42.339	0.155	-0.079
-650.814	800.000	-0.094	0.345
-649.799	800.000	0.043	0.140
-648.784	-27.031	-0.454	0.264
-647.770	295.863	-0.043	-0.078
-646.755	180.838	0.178	-0.261
-645.741	-200.000	0.018	-0.241
-644.726	-139.527	-0.453	-0.048
-643.711	-51.825	0.290	-0.134
-642.697	-87.992	-0.283	0.085
-641.682	800.000	-0.043	-0.128
-640.668	-200.000	0.033	0.184
-639.653	-200.000	0.011	0.091
-638.638	-122.205	-0.333	0.054
-637.624	60.075	-0.135	0.133
-636.609	-200.000	-0.026	0.159
-635.595	-79.641	0.276	-0.093
-634.580	28.005	-0.095	-0.079
-633.565	800.000	-0.035	-0.117
-632.551	-37.702	-0.146	-0.077
-631.536	5.170	-0.202	-0.148
-630.522	-39.091	-0.142	-0.074
-629.507	-155.227	-0.164	-0.011
-628.492	315.659	0.231	-0.432
-627.478	198.803	-0.206	0.313
-626.463	-200.000	-0.029	-0.163
-625.449	47.007	0.109	-0.100
-624.434	-120.641	-0.136	-0.023
-623.419	800.000	-0.034	0.145
-622.405	-7.673	-0.274	-0.184
-621.390	-125.447	-0.322	-0.049
-620.376	-200.000	-0.003	0.090
-619.361	-103.380	0.052	0.012
-618.346	800.000	0.023	0.100
-617.332	-200.000	0.079	0.411
-616.317	-57.446	0.244	-0.107
-615.303	-139.343	-0.408	-0.044
-614.288	-86.310	-0.232	-0.071
-613.273	-77.442	0.143	-0.049
-612.259	196.387	-0.027	0.041
-611.244	-15.595	-0.340	-0.215
-610.230	-84.295	0.331	-0.104
-609.215	494.600	-0.122	0.278
-608.201	-200.000	-0.024	0.235
-607.186	202.567	-0.064	-0.098
-606.171	-92.044	-0.248	0.070
-605.157	-200.000	0.051	-0.255
-604.142	-40.213	0.202	0.104
-603.128	-161.359	-0.395	-0.020
-602.113	-65.691	-0.097	0.038
-601.098	-34.602	0.238	-0.129
-600.084	-91.383	0.215	-0.061
-599.069	444.902	0.097	0.212
-598.055	-141.898	-0.183	-0.018
-597.040	-129.376	0.174	-0.024
-596.025	-40.945	-0.317	0.163
-595.011	156.109	0.080	0.110
-593.996	-200.000	0.024	0.217
-592.982	-200.000	-0.053	-0.247
-591.967	800.000	-0.072	-0.271
-590.952	-200.000	0.006	-0.077
-589.938	23.042	0.362	-0.295
-588.923	-96.029	0.245	0.065
-587.909	27.190	0.164	0.137
-586.894	755.694	0.041	0.109
-585.879	800.000	0.067	0.213
-584.865	168.289	-0.211	-0.298
-583.850	588.759	0.147	0.359
-582.836	51.783	0.107	-0.101
-581.821	43.010	-0.037	-0.034
-580.806	800.000	0.105	-0.313
-579.792	466.042	-0.168	-0.374
-578.777	-7.630	0.223	0.150
-577.763	70.477	0.209	-0.215
-576.748	-129.541	-0.134	-0.018
-575.733	-100.733	-0.167	-0.041
-574.719	800.000	0.090	-0.368
-573.704	800.000	-0.088	-0.372
-572.690	-29.336	-0.129	0.073
-571.675	-175.052	0.093	0.003
-570.661	-24.106	0.117	-0.070
-569.646	-148.724	-0.231	0.019
-568.631	3.076	-0.165	0.119
-567.617	124.267	0.052	0.064
-566.602	-52.919	0.096	-0.044
-565.588	800.000	-0.055	0.185
-564.573	-102.957	0.337	0.079
-563.558	127.574	0.063	-0.079
-562.544	39.350	-0.087	-0.078
-561.529	12.423	-0.273	0.209
-560.515	800.000	-0.117	-0.343
-559.500	186.540	-0.176	0.260
-558.485	-41.820	0.187	0.095
-557.471	474.014	0.167	-0.373
-556.456	23.797	-0.318	-0.260
-555.442	167.760	-0.057	0.081
-554.427	132.450	-0.132	-0.168
-553.412	715.749	-0.037	-0.097
-552.398	19.262	-0.224	0.178
-551.383	-61.337	0.216	-0.090
-550.369	750.074	-0.088	-0.236
-549.354	-200.000	0.005	-0.140
-548.339	210.305	-0.125	-0.195
-547.325	-24.456	-0.118	-0.070
-546.310	147.055	0.120	-0.160
-545.296	59.100	-0.112	-0.109
-544.281	-200.000	-0.023	-0.101
-543.266	-51.340	0.330	0.153
-542.252	90.658	-0.140	0.155
-541.237	-146.610	-0.217	-0.019
-540.223	37.079	-0.113	0.099
-539.208	-99.241	0.068	-0.017
-538.193	277.275	0.091	-0.161
-537.179	660.861	0.104	0.265
-536.164	-71.424	0.085	-0.031
-535.150	287.678	0.055	-0.098
-534.135	-171.706	-0.035	-0.001
-533.121	76.782	0.300	0.315
-532.106	-147.493	0.101	0.008
-531.091	-200.000	-0.036	0.244
-530.077	-200.000	-0.029	0.599
-529.062	800.000	0.042	0.126
-528.048	115.160	0.089	0.107
-527.033	-74.495	0.173	0.062
-526.018	310.849	-0.025	0.046
-525.004	-200.000	-0.038	0.347
-523.989	-109.074	-0.298	-0.063
-522.975	-200.000	-0.063	-0.288
-521.960	-124.314	-0.176	0.027
-520.945	-200.000	0.003	0.066
-519.931	-200.000	-0.021	0.216
-518.916	41.233	-0.204	-0.183
-517.902	-200.000	-0.006	-0.146
-516.887	422.512	0.050	0.107
-515.872	-200.000	0.012	-0.304
-514.858	-82.043	0.197	0.064
-513.843	59.584	0.153	0.150
-512.829	13.377	-0.047	-0.036
-511.814	6.780	-0.329	-0.243
-510.799	-40.719	0.187	-0.096
-509.785	-2.963	0.107	0.074
-508.770	800.000	0.059	-0.184
-507.756	-57.851	-0.181	-0.078
-506.741	-200.000	-0.046	-0.242
-505.726	-127.564	0.121	-0.017
-504.712	-49.287	-0.164	0.077
-503.697	246.137	-0.190	-0.317
-502.683	800.000	-0.053	-0.208
-501.668	24.020	0.127	-0.104
-500.653	800.000	0.060	-0.175
-499.639	-200.000	-0.075	-0.389
-498.624	-22.901	0.066	0.039
-497.610	141.548	-0.071	0.092
-496.595	-200.000	0.007	0.180
-495.581	44.296	-0.056	-0.051
-494.566	487.124	0.088	0.198
-493.551	1.182	-0.134	0.095
-492.537	734.989	-0.129	-0.341
-491.522	334.463	0.101	-0.194
-490.508	-70.477	-0.311	0.116
-489.493	-81.829	-0.374	0.121
-488.478	285.609	-0.027	-0.048
-487.464	155.561	0.090	0.123
-486.449	-57.790	-0.148	0.064
-485.435	-61.475	-0.404	-0.168
-484.420	-107.781	-0.159	-0.034
-483.405	-117.508	0.125	-0.022
-482.391	209.663	-0.133	-0.205
-481.376	-175.320	0.305	-0.008
-480.362	398.897	-0.158	0.327
-479.347	-65.154	0.182	-0.072
-478.332	-64.754	-0.232	0.093
-477.318	-200.000	-0.012	-0.169
-476.303	-200.000	0.029	0.144
-475.289	-116.833	0.260	0.047
-474.274	-118.508	-0.348	0.061
-473.259	800.000	0.118	-0.397
-472.245	-38.462	0.053	-0.028
-471.230	800.000	0.071	-0.217
-470.216	73.181	-0.205	0.212
-469.201	9.202	0.079	-0.059
-468.186	90.782	-0.205	-0.227
-467.172	319.367	-0.091	-0.171
-466.157	-93.172	0.313	0.086
-465.143	-157.774	0.195	0.011
-464.128	50.911	-0.026	0.025
-463.113	-89.508	-0.244	-0.071
-462.099	-12.830	0.255	0.164
-461.084	92.860	-0.158	-0.176
-460.070	735.140	-0.027	-0.072
-459.055	800.000	-0.084	-0.349
-458.040	-80.001	0.163	-0.054
-457.026	254.916	-0.073	0.124
-456.011	-53.855	-0.057	-0.026
-454.997	82.421	0.105	-0.113
-453.982	-200.000	0.007	-0.076
-452.968	2.928	0.534	-0.383
-451.953	201.551	-0.030	-0.046
-450.938	26.487	0.199	-0.165
-449.924	-29.685	-0.171	0.096
-448.909	-167.349	0.146	0.006
-447.895	295.535	0.234	-0.423
-446.880	-200.000	0.000	0.270
-445.865	-200.000	0.002	0.143
-444.851	-14.423	0.066	-0.042
-443.836	-19.320	0.164	-0.100
-442.822	165.983	0.185	-0.258
-441.807	-110.686	0.467	0.095
-440.792	-200.000	0.014	0.145
-439.778	800.000	-0.055	0.186
-438.763	-2.190	0.166	-0.115
-437.749	125.837	0.167	-0.208
-436.734	89.862	-0.074	-0.082
-435.719	97.470	-0.172	0.195
-434.705	-157.310	0.028	0.002
-433.690	129.353	-0.132	0.167
-432.676	800.000	0.091	0.326
-431.661	29.590	0.137	-0.115
-430.646	-200.000	0.030	0.249
-429.632	-200.000	0.075	0.328
-428.617	-200.000	-0.000	0.019
-427.603	-117.539	-0.091	0.016
-426.588	-64.350	-0.052	0.021
-425.573	-200.000	-0.036	0.261
-424.559	346.542	0.075	-0.146
-423.544	-33.991	-0.141	-0.076
-422.530	40.073	-0.109	0.097
-421.515	-200.000	-0.014	0.226
-420.500	314.913	0.178	0.330
-419.486	543.837	-0.068	-0.160
-418.471	-157.589	0.154	0.009
-417.457	800.000	-0.023	-0.082
-416.442	97.138	0.175	-0.198
-415.428	800.000	-0.043	0.176
-414.413	800.000	0.092	0.386
-413.398	-130.638	0.079	-0.010
-412.384	77.000	0.244	0.255
-411.369	144.062	-0.102	0.134
-410.355	111.244	-0.101	0.120
-409.340	-82.502	-0.054	0.017
-408.325	320.352	0.173	-0.323
-407.311	201.255	-0.076	-0.115
-406.296	125.588	-0.369	0.459
-405.282	-79.631	0.066	-0.022
-404.267	32.395	0.104	-0.088
-403.252	117.695	0.074	-0.090
-402.238	-200.000	0.017	0.164
-401.223	290.980	-0.031	-0.055
-400.209	156.748	0.065	0.088
-399.194	-125.108	-0.244	0.037
-398.179	-136.813	-0.082	-0.009
-397.165	380.986	0.094	0.190
-396.150	-71.113	-0.140	-0.052
-395.136	21.512	-0.260	-0.209
-394.121	-177.536	0.245	-0.006
-393.106	158.638	-0.066	0.090
-392.092	-149.752	0.103	-0.008
-391.077	54.503	0.139	-0.132
-390.063	1.967	0.165	0.117
-389.048	233.784	0.186	0.302
-388.033	-96.468	0.167	0.043
-387.019	20.986	0.098	-0.078
-386.004	-154.108	-0.366	-0.024
-384.990	800.000	0.063	0.205
-383.975	396.628	0.172	-0.354
-382.960	800.000	0.034	0.112
-381.946	-200.000	-0.009	0.124
-380.931	212.027	0.294	0.455
-379.917	155.002	0.163	-0.221
-378.902	-59.635	-0.221	-0.093
-377.888	-200.000	0.033	0.145
-376.873	88.710	0.146	0.160
-375.858	-200.000	0.017	0.462
-374.844	5.137	0.193	0.140
-373.829	168.103	-0.088	-0.123
-372.815	-48.729	0.135	-0.064
-371.800	-200.000	-0.004	0.060
-370.785	-144.950	-0.174	0.016
-369.771	296.811	0.157	-0.284
-368.756	-76.671	-0.362	0.125
-367.742	620.662	-0.061	-0.150
-366.727	295.128	0.086	0.154
-365.712	-37.085	-0.190	0.100
-364.698	-34.426	0.117	-0.063
-363.683	250.490	0.068	0.114
-362.669	379.963	-0.128	0.258
-361.654	800.000	0.041	-0.155
-360.639	-200.000	0.017	0.080
-359.625	-200.000	-0.024	0.250
-358.610	-90.280	0.079	-0.023
-357.596	-87.846	0.231	-0.068
-356.581	-148.145	-0.214	0.017
-355.566	-113.851	0.214	-0.041
-354.552	123.407	0.125	0.155
-353.537	-101.723	0.103	0.025
-352.523	57.794	0.305	0.293
-351.508	-170.727	-0.196	-0.007
-350.493	20.852	0.208	-0.166
-349.479	92.655	0.112	-0.124
-348.464	-200.000	-0.026	-0.203
-347.450	118.700	0.017	0.021
-346.435	-5.147	-0.359	-0.243
-345.420	-102.701	0.214	0.050
-344.406	-37.723	-0.060	0.031
-343.391	-200.000	0.068	-0.463
-342.377	-200.000	-0.010	-0.132
-341.362	-181.495	-0.122	-0.002
-340.348	-31.216	0.226	-0.125
-339.333	-200.000	0.028	0.136
-338.318	-200.000	-0.023	-0.152
-337.304	41.322	0.171	0.152
-336.289	800.000	-0.025	0.082
-335.275	-12.227	-0.220	0.142
-334.260	-27.602	0.067	0.038
-333.245	-200.000	0.047	0.276
-332.231	57.204	-0.150	-0.144
-331.216	-200.000	-0.052	0.256
-330.202	123.365	0.083	-0.102
-329.187	-58.108	0.276	-0.118
-328.172	354.589	0.028	-0.055
-327.158	82.891	-0.198	-0.211
-326.143	-105.830	0.484	0.107
-325.129	67.283	-0.069	-0.069
-324.114	-200.000	-0.043	0.310
-323.099	-2.854	-0.148	0.101
-322.085	-111.874	-0.152	0.030
-321.070	-95.020	-0.226	-0.060
-320.056	-98.979	-0.124	-0.031
-319.041	366.909	0.045	-0.089
-318.026	-103.568	-0.384	0.089
-317.012	800.000	0.062	-0.223
-315.997	-200.000	-0.002	-0.196
-314.983	-129.066	-0.597	-0.082
-313.968	436.574	-0.083	0.177
-312.953	187.012	-0.079	-0.116
-311.939	-64.017	-0.207	-0.083
-310.924	-111.430	-0.121	-0.024
-309.910	793.965	-0.118	0.318
-308.895	-161.689	0.119	0.006
-307.880	534.304	-0.102	-0.238
-306.866	389.229	-0.095	0.194
-305.851	576.168	0.055	-0.131
-304.837	-200.000	0.035	0.175
-303.822	-0.600	-0.265	-0.184
-302.807	-200.000	0.000	0.239
-301.793	29.087	-0.172	-0.143
-300.778	294.225	0.062	0.111
-299.764	-122.151	0.203	-0.033
-298.749	800.000	-0.088	0.280
-297.735	-32.548	0.167	0.091
-296.720	-81.082	-0.115	0.037
-295.705	18.429	-0.275	-0.216
-294.691	800.000	-0.010	0.035
-293.676	-70.559	0.261	-0.097
-292.662	-98.166	-0.319	0.080
-291.647	800.000	-0.027	-0.080
-290.632	151.070	0.221	-0.295
-289.618	-200.000	0.048	-0.263
-288.603	-200.000	0.104	0.530
-287.589	141.512	0.131	0.170
-286.574	289.561	0.032	0.056
-285.559	-200.000	0.043	0.408
-284.545	-79.832	-0.090	0.030
-283.530	-154.899	0.268	-0.017
-282.516	358.683	-0.136	0.267
-281.501	170.372	-0.083	-0.117
-280.486	800.000	0.080	0.262
-279.472	-102.517	-0.254	0.060
-278.457	-7.009	0.092	0.061
-277.443	397.800	-0.057	-0.117
-276.428	-8.679	0.283	-0.186
-275.413	800.000	0.063	-0.258
-274.399	-200.000	-0.000	0.001
-273.384	-23.935	0.094	0.055
-272.370	800.000	0.040	0.121
-271.355	-139.454	0.145	-0.015
-270.340	-128.057	-0.353	-0.050
-269.326	-71.799	0.263	-0.096
-268.311	187.565	0.067	-0.098
-267.297	494.181	-0.096	-0.216
-266.282	-68.754	0.329	0.125
-265.267	-136.651	0.210	0.024
-264.253	-200.000	0.031	0.276
-263.238	-200.000	0.010	0.053
-262.224	800.000	0.058	-0.219
-261.209	-185.304	-0.278	0.004
-260.195	296.846	-0.024	-0.043
-259.180	-130.847	0.159	-0.021
-258.165	800.000	-0.051	0.178
-257.151	39.477	0.032	0.028
-256.136	-200.000	0.041	-0.245
-255.122	800.000	-0.048	-0.150
-254.107	-107.797	-0.207	0.044
-253.092	-91.043	-0.219	0.062
-252.078	9.386	0.019	0.014
-251.063	800.000	-0.037	-0.107
-250.049	-200.000	-0.066	0.386
-249.034	622.658	-0.085	-0.209
-248.019	800.000	0.122	0.332
-247.005	530.485	0.095	0.219
-245.990	-109.271	-0.223	-0.046
-244.976	248.242	0.156	0.258
-243.961	-200.000	0.015	0.196
-242.946	72.503	-0.092	-0.094
-241.932	275.986	0.126	0.218
-240.917	-100.024	-0.466	0.114
-239.903	-200.000	0.025	0.240
-238.888	-200.000	-0.013	0.072
-237.873	-190.279	-0.196	0.002
-236.859	-146.738	-0.168	-0.014
-235.844	-100.846	-0.055	-0.013
-234.830	193.477	-0.157	-0.232
-233.815	-200.000	-0.033	-0.203
-232.800	-119.947	-0.415	-0.070
-231.786	219.774	-0.187	-0.293
-230.771	-17.315	0.146	-0.090
-229.757	-182.111	-0.039	-0.001
-228.742	-200.000	-0.027	0.211
-227.727	-200.000	-0.096	0.429
-226.713	-12.095	0.129	-0.083
-225.698	-38.172	-0.199	-0.103
-224.684	-185.276	0.203	-0.003
-223.669	-79.403	0.245	0.081
-222.655	-132.051	0.341	-0.043
-221.640	366.075	-0.191	0.376
-220.625	140.098	0.085	-0.110
-219.611	-20.872	0.093	0.056
-218.596	-190.975	0.425	0.004
-217.582	-21.846	0.198	-0.118
-216.567	-200.000	0.260	-0.000
-215.552	-200.000	-0.006	0.047
-214.538	211.374	0.176	-0.270
-213.523	-54.501	0.149	-0.066
-212.509	-119.299	-0.133	-0.023
-211.494	397.601	0.071	-0.146
-210.479	-200.000	-0.017	-0.152
-209.465	-92.525	0.188	0.052
-208.450	-86.102	-0.180	-0.054
-207.436	-111.823	-0.312	-0.062
-206.421	102.800	0.061	-0.070
-205.406	-200.000	0.013	-0.091
-204.392	78.455	-0.176	0.183
-203.377	71.602	-0.066	-0.067
-202.363	14.423	-0.027	0.021
-201.348	-8.343	0.156	0.103
-200.333	-200.000	-0.024	0.129
-199.319	-200.000	0.006	-0.046
-198.304	-116.781	0.288	-0.052
-197.290	800.000	0.071	0.236
-196.275	41.267	0.062	-0.055
-195.260	-153.018	0.131	-0.009
-194.246	800.000	0.111	-0.314
-193.231	265.379	0.066	-0.112
-192.217	-123.544	0.200	-0.031
-191.202	9.014	0.305	0.225
-190.187	-152.530	0.266	-0.019
-189.173	133.021	-0.190	0.240
-188.158	174.389	0.209	0.296
-187.144	-200.000	0.013	0.173
-186.129	65.627	0.114	0.112
-185.114	-44.912	-0.253	-0.123
-184.100	363.363	0.098	0.192
-183.085	-200.000	0.005	0.218
-182.071	43.863	0.142	0.127
-181.056	15.333	-0.105	0.081
-180.042	-88.224	0.161	0.047
-179.027	-108.435	0.159	-0.033
-178.012	30.143	-0.094	-0.079
-176.998	207.335	-0.085	-0.129
-175.983	-5.849	0.195	-0.130
-174.969	20.159	-0.063	0.050
-173.954	-117.497	0.318	-0.056
-172.939	359.263	-0.015	-0.030
-171.925	-92.958	-0.212	-0.058
-170.910	800.000	0.076	0.284
-169.896	-200.000	0.011	-0.188
-168.881	800.000	0.039	-0.147
-167.866	258.621	0.148	-0.248
-166.852	500.930	0.047	-0.106
-165.837	16.726	-0.275	-0.213
-164.823	359.380	0.165	-0.322
-163.808	-29.596	-0.140	-0.078
-162.793	-74.264	-0.195	0.069
-161.779	7.848	0.264	-0.193
-160.764	-60.008	0.168	-0.070
-159.750	-200.000	0.027	0.307
-158.735	-54.514	-0.103	0.045
-157.720	328.774	-0.044	0.082
-156.706	-152.439	-0.198	-0.014
-155.691	-54.037	0.056	-0.025
-154.677	79.779	-0.077	-0.081
-153.662	-133.553	-0.028	0.003
-152.647	-200.000	0.008	-0.039
-151.633	49.520	0.282	0.259
-150.618	610.505	0.102	-0.248
-149.604	-200.000	0.003	0.065
-148.589	-16.998	0.120	-0.074
-147.574	84.196	-0.110	-0.117
-146.560	74.679	-0.228	0.233
-145.545	399.451	0.034	-0.069
-144.531	188.566	-0.076	0.111
-143.516	-115.551	0.309	-0.057
-142.502	-170.101	-0.166	-0.006
-141.487	154.164	0.122	0.164
-140.472	-200.000	0.049	0.231
-139.458	-15.155	-0.131	0.082
-138.443	3.890	0.174	0.124
-137.429	-54.645	0.220	-0.097
-136.414	-155.945	0.309	0.019
-135.399	63.800	-0.094	-0.092
-134.385	202.874	0.059	0.089
-133.370	335.995	-0.150	0.285
-132.356	-97.102	-0.368	-0.094
-131.341	-200.000	0.014	-0.138
-130.326	-200.000	-0.024	0.288
-129.312	133.303	-0.083	0.104
-128.297	800.000	-0.050	0.160
-127.283	21.903	0.180	0.143
-126.268	89.961	-0.150	-0.163
-125.253	800.000	0.042	-0.133
-124.239	583.577	-0.085	0.204
-123.224	89.463	-0.124	0.135
-122.210	55.393	0.195	0.184
