DTS Sentinel unit serial number:	SN413079Multiplexer serial number:	ORYXHardware model number:	OX4-SRSoftware version number:	ORYX F/W v4.00 Oryx Data Collector v3.7.2.0data status	okinstallation	princeton_trtdifferential loss correction	single-endedforward channel	channel 2reverse channel	N/Adate	2019/09/14time	04:27:34forward acquisition time	60.00reverse acquisition time	0.00gamma	496.2192k internal	0.2336k external	0.2336temperature offset calibration	1.0129default loss term (dB/km)	0.3790temperature slope calibration	1.0000multiplexer offset coefficient	1.0000multiplexer slope coefficient	1.0000fibre end	0.00T internal ref (°C)	26.75T ext. ref 1 (°C)	3.33T ext. ref 2 (°C)	21.91length (m)	temperature (°C)	Stokes	anti-Stokes-747.200	800.000	0.049	0.164
-746.185	-58.967	-0.289	0.125
-745.171	800.000	0.047	-0.184
-744.156	57.667	0.040	-0.040
-743.142	-200.000	0.060	-0.348
-742.127	465.946	-0.197	0.443
-741.112	174.074	0.141	0.204
-740.098	-40.002	-0.058	-0.030
-739.083	168.204	-0.283	-0.404
-738.069	161.325	0.210	-0.295
-737.054	-146.151	-0.196	0.017
-736.039	800.000	-0.034	0.100
-735.025	-137.701	0.232	0.026
-734.010	204.526	-0.244	-0.380
-732.996	117.351	0.026	-0.032
-731.981	-42.630	0.525	-0.268
-730.966	240.677	-0.075	0.125
-729.952	-75.421	-0.082	-0.029
-728.937	-145.669	-0.165	-0.015
-727.923	-93.958	-0.189	0.052
-726.908	601.243	-0.063	-0.156
-725.894	-72.055	-0.125	0.047
-724.879	50.790	-0.083	0.078
-723.864	31.330	-0.157	-0.135
-722.850	155.903	0.064	-0.089
-721.835	-200.000	0.020	-0.164
-720.821	-167.333	-0.158	0.006
-719.806	-65.621	0.158	-0.064
-718.791	-176.325	0.205	0.005
-717.777	114.985	-0.071	0.087
-716.762	767.023	-0.109	-0.296
-715.748	574.503	0.045	0.111
-714.733	-200.000	-0.045	-0.296
-713.718	-85.586	0.326	-0.102
-712.704	-200.000	-0.057	0.256
-711.689	-200.000	0.019	0.109
-710.675	-63.503	-0.410	-0.169
-709.660	-1.008	0.154	-0.109
-708.645	96.810	0.280	0.322
-707.631	-74.201	-0.182	0.066
-706.616	236.475	0.005	-0.008
-705.602	38.754	-0.132	-0.118
-704.587	701.251	-0.110	0.290
-703.572	-200.000	0.002	-0.320
-702.558	-200.000	-0.056	-0.274
-701.543	800.000	-0.027	-0.119
-700.529	124.342	-0.188	-0.237
-699.514	-81.284	0.202	0.067
-698.499	-95.228	0.102	-0.028
-697.485	-85.287	-0.109	0.034
-696.470	325.942	0.154	-0.296
-695.456	-200.000	-0.009	-0.058
-694.441	800.000	-0.059	-0.206
-693.426	-128.854	0.177	-0.025
-692.412	-96.581	-0.235	0.062
-691.397	766.230	0.077	-0.210
-690.383	-53.156	0.256	-0.118
-689.368	-61.347	0.320	0.135
-688.354	-200.000	0.042	0.202
-687.339	-134.123	-0.321	-0.040
-686.324	-200.000	0.004	0.048
-685.310	264.411	0.033	0.058
-684.295	800.000	-0.123	0.436
-683.281	-49.304	-0.299	-0.143
-682.266	550.598	-0.094	-0.225
-681.251	-145.970	-0.272	-0.024
-680.237	127.605	0.270	-0.344
-679.222	399.763	-0.083	-0.173
-678.208	-200.000	-0.007	-0.111
-677.193	60.683	0.060	-0.059
-676.178	62.070	-0.221	-0.221
-675.164	66.371	-0.166	-0.168
-674.149	-34.549	0.121	0.066
-673.135	-13.183	0.133	0.087
-672.120	800.000	0.049	-0.168
-671.105	800.000	-0.034	-0.144
-670.091	407.817	-0.022	0.047
-669.076	-60.751	0.056	0.024
-668.062	131.553	0.150	-0.193
-667.047	-200.000	-0.007	-0.041
-666.032	-200.000	0.023	0.553
-665.018	-101.653	-0.162	-0.039
-664.003	144.452	0.158	0.211
-662.989	-200.000	-0.024	-0.364
-661.974	100.603	-0.209	-0.243
-660.959	800.000	-0.063	-0.264
-659.945	159.047	0.057	-0.079
-658.930	-123.412	0.068	-0.011
-657.916	185.824	0.076	0.113
-656.901	800.000	-0.119	0.378
-655.886	112.564	0.161	0.195
-654.872	-92.681	-0.318	-0.089
-653.857	-1.036	0.002	0.001
-652.843	800.000	0.073	0.302
-651.828	-76.161	0.195	0.069
-650.814	-99.540	-0.249	0.063
-649.799	-38.320	0.175	-0.093
-648.784	29.815	0.272	0.232
-647.770	246.218	-0.191	0.322
-646.755	-130.700	-0.067	0.009
-645.741	-97.356	-0.125	0.033
-644.726	-114.951	-0.141	-0.027
-643.711	800.000	-0.056	-0.159
-642.697	-151.516	0.272	-0.020
-641.682	800.000	0.035	0.131
-640.668	-147.551	0.285	-0.024
-639.653	171.707	0.071	-0.102
-638.638	-129.949	0.178	0.024
-637.624	-139.742	-0.266	-0.028
-636.609	-28.370	-0.173	-0.100
-635.595	-135.855	0.171	-0.020
-634.580	800.000	0.006	-0.021
-633.565	380.973	-0.113	-0.231
-632.551	497.284	0.073	-0.168
-631.536	-24.570	0.278	0.166
-630.522	66.429	-0.137	0.140
-629.507	47.181	-0.188	-0.175
-628.492	-200.000	0.000	-0.166
-627.478	-200.000	-0.032	-0.162
-626.463	138.071	0.093	0.122
-625.449	800.000	-0.168	-0.469
-624.434	-129.883	0.386	-0.053
-623.419	429.007	-0.055	-0.119
-622.405	-20.623	0.129	0.079
-621.390	314.223	0.109	0.206
-620.376	-173.318	-0.087	-0.003
-619.361	-2.610	-0.255	-0.178
-618.346	61.725	-0.120	0.120
-617.332	-97.405	0.328	0.085
-616.317	-120.408	-0.231	-0.039
-615.303	65.632	0.171	0.173
-614.288	148.786	0.264	-0.356
-613.273	-95.124	-0.075	-0.020
-612.259	-117.143	-0.137	0.025
-611.244	-131.614	0.143	0.019
-610.230	800.000	0.166	-0.486
-609.215	117.923	-0.135	0.166
-608.201	67.863	-0.260	-0.266
-607.186	-54.310	-0.119	-0.054
-606.171	-46.433	-0.139	0.068
-605.157	-42.124	-0.164	-0.084
-604.142	-200.000	0.053	-0.250
-603.128	75.301	0.130	0.137
-602.113	44.680	-0.039	-0.036
-601.098	5.368	0.202	0.149
-600.084	-200.000	-0.175	0.000
-599.069	136.564	0.177	0.231
-598.055	387.597	-0.045	0.093
-597.040	126.001	-0.125	0.158
-596.025	610.165	-0.037	0.093
-595.011	-200.000	0.041	-0.196
-593.996	273.628	0.148	-0.261
-592.982	-154.404	-0.087	0.006
-591.967	205.097	-0.197	-0.305
-590.952	-142.707	-0.243	-0.024
-589.938	800.000	0.015	0.059
-588.923	457.684	-0.158	-0.351
-587.909	-108.955	0.408	-0.087
-586.894	69.478	0.046	-0.047
-585.879	11.834	0.256	0.196
-584.865	-200.000	0.043	0.195
-583.850	-200.000	0.016	0.152
-582.836	428.182	0.066	0.143
-581.821	-28.996	0.329	-0.189
-580.806	1.458	-0.187	0.134
-579.792	800.000	0.130	-0.381
-578.777	-64.461	0.085	-0.035
-577.763	3.576	0.268	0.195
-576.748	-161.363	0.187	0.010
-575.733	327.302	0.032	0.060
-574.719	281.434	-0.006	0.012
-573.704	-75.126	-0.203	0.073
-572.690	5.296	0.135	0.099
-571.675	800.000	-0.065	0.284
-570.661	-120.673	-0.127	-0.021
-569.646	311.116	0.216	0.404
-568.631	-128.701	-0.139	-0.020
-567.617	800.000	-0.022	-0.082
-566.602	264.004	-0.117	0.203
-565.588	-200.000	0.024	0.127
-564.573	-58.849	0.183	0.079
-563.558	-102.094	0.270	0.065
-562.544	-200.000	-0.019	-0.095
-561.529	27.631	0.132	0.110
-560.515	-200.000	-0.026	-0.136
-559.500	178.152	-0.199	-0.289
-558.485	72.929	-0.244	-0.254
-557.471	-20.136	-0.462	0.284
-556.456	-104.919	0.425	0.097
-555.442	126.197	-0.125	-0.158
-554.427	-96.198	0.251	0.066
-553.412	75.000	-0.257	0.270
-552.398	-122.772	0.329	-0.053
-551.383	-84.985	0.169	-0.053
-550.369	-200.000	0.049	-0.300
-549.354	-200.000	-0.049	-0.281
-548.339	129.941	-0.075	0.096
-547.325	-153.002	-0.219	-0.015
-546.310	-88.112	0.209	-0.062
-545.296	-200.000	-0.017	0.296
-544.281	112.406	-0.201	-0.243
-543.266	82.008	-0.230	-0.249
-542.252	-200.000	-0.005	-0.038
-541.237	-83.695	-0.151	-0.048
-540.223	-50.598	-0.220	0.104
-539.208	-88.786	0.105	0.031
-538.193	666.041	0.085	0.220
-537.179	800.000	-0.052	-0.225
-536.164	-123.521	0.133	0.021
-535.150	-148.685	0.055	-0.004
-534.135	39.601	-0.244	-0.218
-533.121	-51.742	0.234	0.109
-532.106	-200.000	0.004	-0.061
-531.091	113.426	0.330	-0.399
-530.077	-200.000	-0.055	-0.308
-529.062	-200.000	-0.017	-0.236
-528.048	445.859	0.029	-0.064
-527.033	-124.425	-0.606	-0.094
-526.018	-138.921	0.405	-0.044
-525.004	-151.523	0.444	-0.033
-523.989	-200.000	0.026	0.188
-522.975	347.345	-0.061	0.120
-521.960	800.000	0.036	0.124
-520.945	-69.702	0.152	-0.058
-519.931	800.000	0.016	-0.058
-518.916	-200.000	0.019	-0.145
-517.902	-200.000	0.007	-0.116
-516.887	-200.000	-0.069	0.588
-515.872	256.174	0.069	0.118
-514.858	-200.000	-0.005	-0.047
-513.843	-113.242	0.112	0.022
-512.829	-125.466	-0.216	-0.033
-511.814	170.383	-0.026	-0.037
-510.799	-44.727	-0.200	0.099
-509.785	-200.000	-0.008	0.121
-508.770	297.049	-0.013	-0.024
-507.756	73.057	-0.169	0.175
-506.741	-156.661	0.079	-0.005
-505.726	156.679	-0.401	-0.551
-504.712	84.152	0.276	0.300
-503.697	-108.147	0.033	-0.007
-502.683	194.495	0.063	-0.095
-501.668	-23.081	-0.373	-0.223
-500.653	-10.472	0.150	-0.099
-499.639	57.260	-0.014	-0.014
-498.624	82.388	0.142	-0.153
-497.610	100.871	0.076	-0.088
-496.595	126.123	0.333	-0.419
-495.581	248.739	-0.105	0.176
-494.566	147.015	-0.098	0.132
-493.551	28.361	-0.185	0.156
-492.537	-181.216	0.067	-0.001
-491.522	11.165	-0.195	-0.148
-490.508	-55.572	-0.074	-0.033
-489.493	456.619	-0.071	-0.157
-488.478	-130.183	-0.124	0.017
-487.464	-60.279	0.224	-0.095
-486.449	20.185	-0.176	0.142
-485.435	82.745	0.108	-0.117
-484.420	-112.848	-0.078	0.015
-483.405	-50.224	0.095	0.045
-482.391	-99.739	0.210	0.052
-481.376	71.444	-0.230	0.237
-480.362	228.152	-0.139	-0.225
-479.347	800.000	0.038	-0.129
-478.332	-165.292	-0.282	0.012
-477.318	-116.080	0.045	-0.008
-476.303	-42.784	0.235	0.119
-475.289	150.600	-0.117	-0.159
-474.274	-90.157	-0.300	-0.087
-473.259	-102.557	0.340	-0.081
-472.245	28.815	-0.307	0.258
-471.230	-78.381	-0.221	-0.075
-470.216	-200.000	0.024	0.116
-469.201	279.517	0.198	0.350
-468.186	198.563	0.305	0.464
-467.172	-68.590	0.153	0.059
-466.157	-32.365	0.123	-0.068
-465.143	-3.900	-0.355	-0.245
-464.128	-16.874	0.257	-0.161
-463.113	-51.349	-0.256	-0.119
-462.099	35.573	-0.294	-0.257
-461.084	263.614	-0.039	-0.067
-460.070	66.067	0.249	-0.251
-459.055	101.661	-0.019	-0.022
-458.040	-200.000	-0.014	0.329
-457.026	-81.986	0.116	-0.038
-456.011	23.160	0.102	0.083
-454.997	-83.905	0.315	0.100
-453.982	44.412	-0.195	0.178
-452.968	-200.000	0.001	0.225
-451.953	266.982	0.122	0.212
-450.938	108.260	0.103	0.122
-449.924	800.000	0.062	0.258
-448.909	-127.410	0.091	-0.013
-447.895	537.488	0.084	0.199
-446.880	-200.000	0.045	0.258
-445.865	-149.691	-0.192	0.015
-444.851	-126.587	-0.090	-0.013
-443.836	-33.501	0.079	0.043
-442.822	66.934	0.213	-0.215
-441.807	371.626	0.016	0.031
-440.792	-78.228	0.474	-0.161
-439.778	415.657	0.113	0.240
-438.763	1.354	0.206	-0.147
-437.749	328.957	-0.157	-0.300
-436.734	425.385	0.082	0.175
-435.719	46.176	-0.242	0.223
-434.705	749.454	0.106	0.283
-433.690	-200.000	-0.084	0.471
-432.676	227.414	0.043	0.070
-431.661	-200.000	-0.006	-0.314
-430.646	-43.033	-0.097	-0.049
-429.632	-200.000	-0.008	-0.066
-428.617	-61.966	0.334	-0.138
-427.603	-80.365	0.499	-0.165
-426.588	-1.207	0.276	0.193
-425.573	-200.000	0.015	0.082
-424.559	-64.992	-0.272	-0.109
-423.544	-200.000	-0.002	-0.073
-422.530	143.424	-0.090	0.119
-421.515	-111.073	-0.308	0.063
-420.500	800.000	-0.086	-0.236
-419.486	-200.000	-0.013	-0.103
-418.471	-200.000	0.025	-0.370
-417.457	800.000	-0.030	-0.094
-416.442	-32.504	-0.192	-0.106
-415.428	236.450	-0.198	-0.325
-414.413	511.909	0.042	0.096
-413.398	-79.753	0.243	0.081
-412.384	195.411	-0.129	0.194
-411.369	800.000	0.063	-0.195
-410.355	34.924	0.284	-0.246
-409.340	-8.510	-0.296	0.197
-408.325	-104.605	-0.191	-0.044
-407.311	-6.831	-0.105	-0.071
-406.296	-50.027	-0.245	-0.115
-405.282	204.888	0.293	0.451
-404.267	20.679	0.287	-0.231
-403.252	59.078	-0.139	-0.135
-402.238	-200.000	0.016	0.338
-401.223	-30.226	0.235	-0.132
-400.209	412.047	0.124	0.262
-399.194	-200.000	-0.003	0.071
-398.179	478.728	-0.132	-0.297
-397.165	62.050	0.082	0.081
-396.150	112.629	-0.086	0.103
-395.136	33.905	-0.257	-0.222
-394.121	155.598	0.122	0.166
-393.106	-200.000	-0.018	0.178
-392.092	-44.830	-0.152	0.075
-391.077	-39.376	-0.292	0.152
-390.063	-2.412	-0.205	-0.142
-389.048	-200.000	0.026	-0.159
-388.033	61.135	-0.079	-0.078
-387.019	122.215	-0.180	-0.223
-386.004	-92.049	0.208	-0.058
-384.990	564.631	-0.064	0.154
-383.975	322.155	-0.087	0.164
-382.960	58.005	-0.094	-0.091
-381.946	317.945	-0.047	-0.087
-380.931	-200.000	0.074	0.371
-379.917	-93.770	0.220	-0.060
-378.902	68.080	0.157	-0.159
-377.888	-200.000	-0.022	-0.148
-376.873	219.750	-0.131	-0.208
-375.858	46.474	-0.235	0.216
-374.844	-200.000	0.058	-0.325
-373.829	800.000	-0.080	0.330
-372.815	-200.000	0.007	0.151
-371.800	-94.674	0.131	0.035
-370.785	-41.990	0.086	-0.044
-369.771	-65.317	-0.105	-0.042
-368.756	261.161	-0.056	-0.096
-367.742	686.060	0.041	-0.107
-366.727	235.166	-0.151	0.247
-365.712	64.024	-0.057	-0.056
-364.698	-154.043	-0.454	-0.031
-363.683	137.787	-0.117	-0.151
-362.669	119.060	-0.144	-0.176
-361.654	-97.203	0.135	-0.035
-360.639	-200.000	-0.010	-0.159
-359.625	-200.000	0.026	-0.227
-358.610	-200.000	-0.030	0.321
-357.596	11.135	0.049	-0.037
-356.581	-104.695	0.051	-0.012
-355.566	-45.201	0.377	-0.186
-354.552	-77.164	0.254	-0.088
-353.537	194.683	0.067	0.100
-352.523	-92.151	-0.158	-0.044
-351.508	-125.906	0.347	-0.052
-350.493	-123.909	-0.416	0.065
-349.479	36.146	0.092	-0.081
-348.464	-200.000	0.014	0.206
-347.450	-58.967	-0.155	0.066
-346.435	-76.447	0.447	0.155
-345.420	-200.000	-0.022	0.142
-344.406	800.000	-0.084	-0.261
-343.391	205.227	-0.064	-0.099
-342.377	-200.000	-0.017	0.076
-341.362	311.576	0.069	-0.127
-340.348	-200.000	0.017	0.142
-339.333	207.261	-0.031	-0.048
-338.318	-19.238	0.206	0.126
-337.304	-139.574	-0.158	0.017
-336.289	-48.993	0.174	0.082
-335.275	-34.673	-0.189	0.102
-334.260	-16.105	-0.194	-0.122
-333.245	-126.256	0.399	0.059
-332.231	-121.028	-0.319	-0.053
-331.216	-168.834	0.287	-0.011
-330.202	-104.953	-0.469	0.106
-329.187	-94.595	0.160	-0.043
-328.172	50.107	0.240	0.223
-327.158	10.271	-0.072	0.054
-326.143	-36.978	0.103	-0.054
-325.129	315.661	-0.105	0.195
-324.114	218.954	0.173	-0.273
-323.099	-44.886	-0.202	-0.099
-322.085	0.719	0.103	0.073
-321.070	319.914	-0.041	-0.077
-320.056	-97.412	0.241	0.062
-319.041	-123.023	0.266	-0.042
-318.026	800.000	0.043	0.174
-317.012	-17.053	-0.220	-0.137
-315.997	515.568	-0.114	-0.264
-314.983	-91.186	-0.077	0.022
-313.968	-6.287	0.325	-0.219
-312.953	-105.021	-0.162	0.037
-311.939	406.505	-0.131	0.272
-310.924	-29.365	-0.114	0.065
-309.910	268.360	0.044	-0.076
-308.895	273.976	-0.130	0.226
-307.880	800.000	-0.024	0.093
-306.866	-107.600	-0.292	-0.063
-305.851	800.000	-0.037	-0.112
-304.837	-21.773	-0.125	0.075
-303.822	226.222	-0.121	0.194
-302.807	-169.122	0.279	-0.010
-301.793	25.032	-0.178	-0.146
-300.778	61.510	0.115	0.113
-299.764	-200.000	0.056	-0.474
-298.749	-200.000	-0.006	0.113
-297.735	314.705	-0.166	-0.308
-296.720	-200.000	0.036	0.212
-295.705	-108.053	-0.308	-0.066
-294.691	-93.566	-0.131	-0.036
-293.676	-148.467	0.367	0.030
-292.662	-18.086	0.110	-0.068
-291.647	232.188	-0.133	0.216
-290.632	127.072	-0.212	0.265
-289.618	-6.504	-0.316	0.212
-288.603	-200.000	0.021	0.233
-287.589	344.410	0.050	-0.097
-286.574	-200.000	-0.020	-0.257
-285.559	196.744	0.083	0.125
-284.545	-36.688	0.101	0.054
-283.530	-200.000	0.027	0.173
-282.516	62.767	0.090	0.089
-281.501	-95.697	-0.084	0.022
-280.486	-200.000	0.041	0.295
-279.472	-110.490	-0.108	0.022
-278.457	-200.000	-0.004	0.085
-277.443	31.913	0.112	-0.095
-276.428	-78.458	-0.118	0.040
-275.413	-176.418	-0.117	0.003
-274.399	-105.720	-0.092	-0.021
-273.384	-53.734	0.339	-0.153
-272.370	-59.503	-0.063	0.027
-271.355	-38.362	-0.151	-0.079
-270.340	35.567	0.052	0.045
-269.326	800.000	0.125	0.374
-268.311	780.198	0.134	-0.362
-267.297	266.719	-0.246	0.423
-266.282	800.000	-0.056	-0.177
-265.267	437.354	-0.082	0.176
-264.253	-200.000	0.016	0.093
-263.238	800.000	-0.152	0.493
-262.224	-84.671	-0.171	0.053
-261.209	-86.934	-0.090	0.027
-260.195	-200.000	-0.055	-0.240
-259.180	800.000	-0.077	-0.227
-258.165	229.152	0.101	0.163
-257.151	800.000	-0.064	0.239
-256.136	93.790	0.088	0.098
-255.122	146.074	0.072	0.095
-254.107	-200.000	0.016	0.241
-253.092	-200.000	0.029	-0.478
-252.078	-26.897	0.178	0.102
-251.063	42.872	-0.084	0.076
-250.049	-200.000	0.002	0.194
-249.034	-200.000	0.003	-0.072
-248.019	-200.000	0.043	-0.334
-247.005	55.982	-0.368	0.351
-245.990	-200.000	-0.014	0.142
-244.976	214.019	0.107	0.166
-243.961	-200.000	-0.024	0.269
-242.946	-200.000	-0.039	-0.324
-241.932	-200.000	-0.008	0.090
-240.917	-58.949	0.213	-0.091
-239.903	-154.604	-0.321	0.021
-238.888	-200.000	0.018	-0.095
-237.873	40.610	-0.098	0.087
-236.859	-131.420	0.048	-0.006
-235.844	-36.225	-0.182	0.097
-234.830	30.747	0.065	0.055
-233.815	-34.549	0.484	0.261
-232.800	-200.000	-0.038	0.183
-231.786	45.523	0.168	-0.153
-230.771	-88.095	-0.037	-0.011
-229.757	-90.568	0.039	0.011
-228.742	29.535	0.207	-0.173
-227.727	-124.450	-0.432	-0.066
-226.713	47.241	0.267	0.245
-225.698	86.351	-0.169	0.183
-224.684	-200.000	-0.011	0.115
-223.669	-200.000	-0.011	-0.199
-222.655	-200.000	0.047	0.226
-221.640	146.337	-0.070	0.092
-220.625	-166.227	0.343	0.014
-219.611	800.000	0.050	0.165
-218.596	-200.000	0.002	-0.189
-217.582	57.574	0.151	0.145
-216.567	749.388	-0.034	0.089
-215.552	-24.052	-0.288	-0.169
-214.538	-200.000	0.012	-0.093
-213.523	-74.568	0.224	-0.079
-212.509	70.379	-0.069	-0.070
-211.494	205.751	0.199	0.305
-210.479	-160.276	-0.072	-0.004
-209.465	33.372	0.022	-0.019
-208.450	-69.099	-0.093	-0.035
-207.436	160.806	0.244	0.335
-206.421	114.682	-0.060	-0.072
-205.406	-200.000	0.004	-0.083
-204.392	-49.436	-0.071	0.033
-203.377	-200.000	-0.064	-0.340
-202.363	-120.201	0.288	-0.048
-201.348	-200.000	-0.011	-0.240
-200.333	800.000	0.117	0.349
-199.319	479.151	-0.103	0.229
-198.304	800.000	-0.036	0.138
-197.290	-112.753	-0.170	0.033
-196.275	212.188	-0.226	-0.350
-195.260	-163.705	-0.193	0.009
-194.246	-129.481	0.254	0.035
-193.231	258.087	0.134	-0.226
-192.217	-81.850	-0.182	-0.059
-191.202	-200.000	0.043	0.205
-190.187	-119.114	-0.438	-0.075
-189.173	800.000	0.060	-0.208
-188.158	33.246	0.136	-0.116
-187.144	800.000	-0.082	0.272
-186.129	-10.652	-0.294	0.191
-185.114	-126.075	0.140	0.021
-184.100	-200.000	0.072	-0.000
-183.085	373.727	-0.082	-0.163
-182.071	-46.345	-0.097	-0.047
-181.056	283.742	-0.205	0.362
-180.042	-49.293	0.183	0.086
-179.027	-196.816	-0.140	0.001
-178.012	76.428	-0.163	0.170
-176.998	-82.067	-0.184	-0.059
-175.983	278.750	-0.176	-0.309
-174.969	103.739	0.061	0.070
-173.954	-141.635	0.148	-0.015
-172.939	-200.000	0.039	-0.215
-171.925	6.737	-0.031	-0.023
-170.910	800.000	-0.105	0.311
-169.896	47.016	0.132	-0.120
-168.881	5.196	-0.302	-0.219
-167.866	800.000	0.126	-0.368
-166.852	800.000	0.094	-0.310
-165.837	-162.303	0.133	-0.007
-164.823	-78.157	-0.206	-0.070
-163.808	167.094	0.130	-0.181
-162.793	-79.075	0.423	0.141
-161.779	594.078	0.101	-0.245
-160.764	63.767	-0.221	0.218
-159.750	-64.398	0.048	-0.019
-158.735	-27.890	0.026	0.015
-157.720	458.633	0.023	0.050
-156.706	-200.000	0.013	-0.238
-155.691	-138.532	0.153	0.016
-154.677	86.223	0.163	0.176
-153.662	800.000	0.026	0.109
-152.647	800.000	-0.085	-0.336
-151.633	-200.000	0.003	-0.070
-150.618	-145.707	-0.176	0.015
-149.604	164.100	0.058	0.080
-148.589	277.971	-0.048	0.083
-147.574	800.000	-0.077	0.238
-146.560	-106.154	0.153	0.034
-145.545	-126.349	-0.262	-0.038
-144.531	-67.949	0.300	0.115
-143.516	800.000	-0.049	-0.207
-142.502	91.084	-0.278	-0.305
-141.487	800.000	0.076	0.290
-140.472	-200.000	0.037	0.196
-139.458	-14.064	0.277	0.175
-138.443	349.150	0.087	-0.169
-137.429	-37.259	-0.265	0.139
-136.414	-200.000	0.004	0.269
-135.399	-6.243	-0.233	-0.156
-134.385	-111.525	0.140	0.028
-133.370	44.399	-0.084	0.075
-132.356	44.015	-0.201	0.181
-131.341	207.279	0.263	-0.403
-130.326	519.110	0.072	0.165
-129.312	-116.573	-0.329	0.059
-128.297	-134.200	-0.167	0.020
-127.283	407.003	-0.160	0.332
-126.268	-71.897	0.182	0.066
-125.253	-200.000	-0.003	-0.131
-124.239	-200.000	-0.061	-0.352
-123.224	800.000	0.038	-0.146
-122.210	-131.763	-0.099	-0.013
