DTS Sentinel unit serial number:	SN413079Multiplexer serial number:	ORYXHardware model number:	OX4-SRSoftware version number:	ORYX F/W v4.00 Oryx Data Collector v3.7.2.0data status	okinstallation	princeton_trtdifferential loss correction	single-endedforward channel	channel 2reverse channel	N/Adate	2019/09/17time	07:39:35forward acquisition time	60.00reverse acquisition time	0.00gamma	496.2192k internal	0.2335k external	0.2335temperature offset calibration	0.9973default loss term (dB/km)	0.3790temperature slope calibration	1.0000multiplexer offset coefficient	1.0000multiplexer slope coefficient	1.0000fibre end	0.00T internal ref (°C)	27.19T ext. ref 1 (°C)	0.12T ext. ref 2 (°C)	21.91length (m)	temperature (°C)	Stokes	anti-Stokes-747.200	542.535	-0.063	0.152
-746.185	797.506	0.071	0.197
-745.171	33.391	0.168	0.146
-744.156	-96.102	-0.257	0.069
-743.142	127.040	-0.093	0.118
-742.127	166.175	-0.191	0.272
-741.112	160.107	-0.174	0.244
-740.098	229.774	-0.161	0.264
-739.083	800.000	-0.087	-0.269
-738.069	800.000	0.067	0.281
-737.054	-53.090	-0.155	-0.071
-736.039	76.699	-0.110	0.118
-735.025	-200.000	0.018	0.078
-734.010	-10.044	-0.060	0.040
-732.996	747.625	-0.069	0.186
-731.981	206.503	-0.110	0.172
-730.966	-200.000	0.013	-0.170
-729.952	-122.853	0.219	0.036
-728.937	-200.000	-0.022	-0.162
-727.923	-83.067	0.058	-0.019
-726.908	288.823	-0.063	0.114
-725.894	-200.000	0.005	0.167
-724.879	-79.413	-0.115	0.039
-723.864	194.356	0.085	-0.129
-722.850	18.617	-0.355	-0.285
-721.835	-94.677	-0.270	-0.074
-720.821	674.117	-0.131	-0.342
-719.806	-200.000	0.029	-0.165
-718.791	45.909	-0.048	0.044
-717.777	97.343	0.138	-0.159
-716.762	85.602	-0.224	0.247
-715.748	800.000	-0.047	-0.171
-714.733	-84.979	-0.427	-0.134
-713.718	-200.000	-0.031	-0.365
-712.704	-139.509	-0.032	-0.003
-711.689	111.070	-0.032	-0.039
-710.675	800.000	0.009	-0.029
-709.660	-200.000	0.007	-0.149
-708.645	143.598	0.148	0.198
-707.631	181.858	-0.146	-0.215
-706.616	800.000	0.079	-0.288
-705.602	-200.000	0.019	-0.322
-704.587	191.061	-0.109	-0.165
-703.572	252.203	0.191	0.327
-702.558	-200.000	-0.006	-0.029
-701.543	460.329	0.081	-0.180
-700.529	-200.000	0.005	0.258
-699.514	-33.893	0.168	-0.093
-698.499	186.087	-0.160	0.239
-697.485	800.000	-0.066	-0.250
-696.470	-167.546	-0.110	0.004
-695.456	9.282	0.084	-0.064
-694.441	-109.171	-0.236	0.050
-693.426	-113.602	0.036	0.007
-692.412	232.789	0.089	-0.147
-691.397	-69.817	0.211	0.081
-690.383	262.441	0.093	0.162
-689.368	-200.000	0.007	-0.415
-688.354	574.448	0.036	0.087
-687.339	-148.005	0.227	0.019
-686.324	-200.000	-0.080	-0.427
-685.310	-11.600	-0.277	-0.183
-684.295	-200.000	0.038	0.240
-683.281	70.154	-0.125	-0.130
-682.266	800.000	0.013	-0.051
-681.251	730.318	-0.080	-0.215
-680.237	31.668	-0.230	-0.198
-679.222	-94.189	-0.311	0.085
-678.208	-182.798	-0.396	-0.007
-677.193	454.484	-0.035	-0.077
-676.178	-200.000	-0.187	0.000
-675.164	-93.355	-0.275	0.076
-674.149	-138.880	0.126	-0.014
-673.135	-96.725	-0.179	0.047
-672.120	92.764	-0.095	0.108
-671.105	-117.952	0.341	0.061
-670.091	-200.000	-0.002	-0.023
-669.076	325.796	-0.174	-0.333
-668.062	-200.000	0.021	-0.142
-667.047	239.761	-0.162	0.271
-666.032	-74.958	0.079	0.028
-665.018	-200.000	0.055	0.241
-664.003	58.268	0.082	-0.080
-662.989	255.054	0.075	-0.128
-661.974	45.957	0.165	0.153
-660.959	-20.960	-0.180	-0.111
-659.945	800.000	-0.058	-0.240
-658.930	-50.262	-0.008	0.004
-657.916	-50.955	-0.371	0.175
-656.901	-46.148	-0.076	-0.037
-655.886	-84.192	0.183	0.058
-654.872	257.484	-0.149	-0.257
-653.857	-7.223	-0.147	0.100
-652.843	320.360	0.112	-0.213
-651.828	-138.320	0.080	0.009
-650.814	44.626	0.096	-0.088
-649.799	112.446	-0.146	-0.177
-648.784	402.982	0.149	0.313
-647.770	-200.000	-0.009	0.219
-646.755	-175.361	-0.164	-0.005
-645.741	-200.000	-0.002	-0.147
-644.726	147.207	-0.093	-0.126
-643.711	501.185	0.260	-0.600
-642.697	257.150	0.187	-0.322
-641.682	-131.401	-0.102	-0.014
-640.668	186.741	-0.166	0.247
-639.653	-78.751	0.339	-0.116
-638.638	34.644	-0.160	-0.140
-637.624	356.075	0.121	-0.241
-636.609	127.361	0.145	0.184
-635.595	-47.623	-0.206	0.100
-634.580	-200.000	-0.007	-0.245
-633.565	-200.000	-0.016	-0.093
-632.551	-200.000	-0.029	0.371
-631.536	-156.968	0.383	-0.023
-630.522	-200.000	0.010	0.142
-629.507	-34.049	-0.305	0.168
-628.492	-134.303	0.284	0.035
-627.478	90.896	0.081	0.091
-626.463	-168.067	0.097	0.004
-625.449	-135.461	-0.089	0.011
-624.434	758.076	0.147	-0.397
-623.419	46.829	-0.176	0.163
-622.405	-200.000	-0.036	-0.307
-621.390	210.899	-0.162	-0.255
-620.376	9.523	-0.171	-0.129
-619.361	-33.608	-0.240	-0.132
-618.346	10.741	-0.130	-0.099
-617.332	182.329	-0.041	0.060
-616.317	800.000	-0.086	0.243
-615.303	-102.771	0.103	-0.025
-614.288	420.034	-0.135	0.288
-613.273	-200.000	0.015	-0.197
-612.259	-71.699	0.430	-0.160
-611.244	-14.510	-0.043	-0.028
-610.230	94.218	0.027	0.031
-609.215	154.611	-0.067	-0.092
-608.201	-30.827	-0.193	-0.109
-607.186	800.000	0.041	0.125
-606.171	65.307	-0.065	0.066
-605.157	800.000	0.040	-0.147
-604.142	-200.000	0.000	-0.066
-603.128	-200.000	0.101	-0.452
-602.113	117.172	-0.095	-0.117
-601.098	187.895	-0.089	-0.133
-600.084	800.000	0.160	-0.593
-599.069	-131.362	-0.212	0.028
-598.055	342.595	0.084	0.164
-597.040	64.761	0.075	-0.076
-596.025	107.873	0.057	-0.067
-595.011	-156.055	-0.245	-0.015
-593.996	-56.808	0.037	-0.016
-592.982	-72.782	0.127	-0.047
-591.967	100.180	-0.211	0.245
-590.952	18.694	-0.183	-0.147
-589.938	-148.932	0.066	0.005
-588.923	-94.387	0.208	0.057
-587.909	343.028	-0.085	-0.166
-586.894	5.864	-0.084	-0.062
-585.879	146.323	-0.202	-0.270
-584.865	-67.579	0.242	-0.095
-583.850	25.296	-0.152	-0.126
-582.836	-200.000	0.031	-0.369
-581.821	758.254	-0.116	-0.313
-580.806	223.872	0.234	-0.377
-579.792	-67.522	0.116	-0.046
-578.777	720.571	-0.075	-0.200
-577.763	-159.194	-0.168	0.009
-576.748	-25.866	-0.185	0.109
-575.733	295.992	-0.089	0.164
-574.719	-72.412	-0.092	0.034
-573.704	-200.000	-0.004	-0.038
-572.690	-200.000	0.005	-0.023
-571.675	-200.000	0.064	-0.372
-570.661	-200.000	0.090	-0.502
-569.646	-128.722	-0.201	0.028
-568.631	138.221	0.313	0.409
-567.617	61.110	-0.101	0.100
-566.602	96.553	-0.161	-0.184
-565.588	-111.502	0.210	0.043
-564.573	220.057	-0.129	0.207
-563.558	-66.993	0.266	0.105
-562.544	-73.086	0.122	-0.045
-561.529	-110.380	0.143	0.030
-560.515	-15.575	-0.095	0.061
-559.500	-200.000	-0.015	-0.125
-558.485	-63.036	-0.103	0.042
-557.471	-200.000	0.007	-0.159
-556.456	-200.000	-0.061	-0.291
-555.442	-133.935	-0.084	-0.010
-554.427	-169.942	-0.359	-0.013
-553.412	201.482	0.171	-0.263
-552.398	-200.000	-0.001	-0.066
-551.383	-200.000	-0.068	0.324
-550.369	-200.000	0.006	-0.298
-549.354	-200.000	-0.042	-0.262
-548.339	-83.543	-0.199	-0.064
-547.325	205.476	-0.065	-0.101
-546.310	-200.000	0.002	-0.362
-545.296	-56.679	0.097	0.043
-544.281	-198.374	-0.188	-0.001
-543.266	167.960	0.031	-0.044
-542.252	62.112	0.225	-0.224
-541.237	-146.786	-0.106	0.009
-540.223	33.564	0.164	-0.142
-539.208	800.000	-0.068	0.225
-538.193	278.487	-0.156	-0.278
-537.179	-200.000	0.017	-0.138
-536.164	90.111	-0.141	0.157
-535.150	20.881	0.205	0.166
-534.135	-6.834	0.178	0.120
-533.121	10.851	0.109	-0.083
-532.106	272.066	0.196	-0.345
-531.091	164.939	-0.081	0.113
-530.077	365.165	0.039	-0.078
-529.062	-87.063	-0.098	-0.030
-528.048	800.000	0.080	0.295
-527.033	-10.956	0.062	0.041
-526.018	82.699	0.189	-0.205
-525.004	306.397	0.158	0.292
-523.989	127.085	0.123	-0.155
-522.975	117.754	-0.122	-0.150
-521.960	724.116	-0.029	-0.076
-520.945	305.848	0.140	0.259
-519.931	-44.659	-0.033	-0.017
-518.916	-63.875	0.324	0.132
-517.902	-114.623	-0.153	0.029
-516.887	134.149	-0.179	-0.230
-515.872	163.105	0.099	-0.138
-514.858	63.218	0.096	0.096
-513.843	-200.000	0.028	0.300
-512.829	8.472	-0.123	-0.092
-511.814	299.181	-0.129	0.237
-510.799	7.939	-0.098	0.073
-509.785	112.646	0.266	-0.321
-508.770	800.000	-0.138	0.465
-507.756	78.560	-0.091	0.097
-506.741	-200.000	0.022	0.114
-505.726	41.347	-0.091	0.082
-504.712	-200.000	-0.014	-0.241
-503.697	-200.000	0.017	0.274
-502.683	47.734	-0.124	0.115
-501.668	-104.113	-0.196	-0.045
-500.653	36.353	-0.085	0.075
-499.639	-200.000	-0.015	0.270
-498.624	-200.000	0.022	0.129
-497.610	128.306	-0.059	-0.075
-496.595	-92.754	0.127	-0.035
-495.581	-53.465	-0.356	0.162
-494.566	-163.909	-0.215	-0.010
-493.551	-41.283	-0.068	0.035
-492.537	-25.241	-0.137	-0.080
-491.522	428.697	0.050	-0.108
-490.508	1.105	-0.101	0.072
-489.493	-200.000	-0.002	0.391
-488.478	64.987	-0.079	-0.080
-487.464	-4.263	0.085	-0.058
-486.449	134.301	-0.069	0.088
-485.435	-26.709	-0.079	0.046
-484.420	92.365	-0.228	-0.256
-483.405	-110.327	-0.293	-0.061
-482.391	800.000	-0.162	0.454
-481.376	338.609	0.183	0.353
-480.362	-0.764	0.175	-0.123
-479.347	800.000	-0.159	-0.465
-478.332	119.499	0.302	-0.372
-477.318	-25.443	0.054	-0.032
-476.303	577.431	0.024	-0.058
-475.289	-143.408	0.159	0.015
-474.274	27.643	-0.098	-0.082
-473.259	800.000	0.029	0.090
-472.245	365.645	-0.086	0.173
-471.230	221.294	0.080	0.127
-470.216	-111.341	0.429	-0.087
-469.201	-85.613	-0.089	-0.027
-468.186	38.278	0.118	0.104
-467.172	478.916	-0.028	0.063
-466.157	341.223	-0.067	-0.131
-465.143	100.308	0.177	0.204
-464.128	-100.150	0.348	0.086
-463.113	-91.696	0.201	0.057
-462.099	-130.578	0.125	0.017
-461.084	-72.619	-0.295	-0.108
-460.070	-88.997	-0.296	-0.087
-459.055	-200.000	0.003	0.295
-458.040	-55.884	-0.194	-0.086
-457.026	-200.000	-0.008	0.242
-456.011	219.980	0.112	0.177
-454.997	784.550	-0.040	-0.109
-453.982	-200.000	-0.015	-0.084
-452.968	99.293	0.166	0.191
-451.953	323.973	0.107	0.203
-450.938	145.386	-0.082	-0.109
-449.924	303.776	-0.122	-0.224
-448.909	-27.532	-0.313	-0.180
-447.895	-141.087	0.443	-0.045
-446.880	-132.958	0.197	0.025
-445.865	70.809	0.203	-0.208
-444.851	168.756	-0.248	0.352
-443.836	-83.735	0.296	-0.094
-442.822	4.525	0.139	-0.101
-441.807	-34.224	-0.205	-0.112
-440.792	140.389	0.146	0.191
-439.778	-80.871	-0.097	-0.032
-438.763	-45.760	-0.206	0.101
-437.749	133.539	0.075	-0.096
-436.734	71.177	-0.302	-0.310
-435.719	199.490	0.044	0.067
-434.705	576.493	-0.022	0.053
-433.690	-200.000	0.003	-0.201
-432.676	430.603	-0.051	-0.109
-431.661	198.464	-0.171	0.260
-430.646	201.510	0.111	-0.169
-429.632	222.252	-0.122	0.195
-428.617	-58.725	0.326	0.140
-427.603	208.136	-0.076	-0.118
-426.588	509.435	0.090	0.208
-425.573	-174.293	-0.074	-0.002
-424.559	114.035	0.198	0.239
-423.544	-18.989	-0.058	0.036
-422.530	-102.345	0.305	0.073
-421.515	269.135	0.143	-0.250
-420.500	-55.199	0.063	-0.028
-419.486	-200.000	0.064	-0.404
-418.471	199.129	0.073	-0.111
-417.457	-55.929	0.190	0.084
-416.442	-200.000	-0.025	-0.262
-415.428	-2.769	-0.368	-0.255
-414.413	-147.552	-0.156	0.013
-413.398	274.634	0.237	0.416
-412.384	63.098	-0.353	0.351
-411.369	-17.051	-0.170	0.106
-410.355	273.600	0.155	-0.271
-409.340	800.000	0.033	0.137
-408.325	-53.531	0.088	0.040
-407.311	-137.956	0.393	-0.044
-406.296	-17.613	0.112	0.070
-405.282	-24.394	0.249	0.147
-404.267	800.000	0.029	-0.100
-403.252	126.631	-0.128	0.160
-402.238	-200.000	-0.033	0.176
-401.223	-117.950	0.388	-0.069
-400.209	230.792	0.021	-0.034
-399.194	119.086	-0.234	-0.287
-398.179	247.332	0.081	0.136
-397.165	50.747	-0.095	0.089
-396.150	579.270	0.088	-0.214
-395.136	316.292	0.157	-0.294
-394.121	-45.033	-0.229	0.113
-393.106	352.165	-0.079	-0.156
-392.092	-200.000	0.050	0.227
-391.077	-200.000	0.030	-0.419
-390.063	-200.000	0.042	-0.403
-389.048	-200.000	0.057	-0.268
-388.033	-200.000	-0.034	0.285
-387.019	276.872	0.069	0.121
-386.004	-66.302	-0.531	-0.209
-384.990	124.157	-0.275	-0.343
-383.975	800.000	-0.065	0.188
-382.960	-200.000	-0.074	-0.387
-381.946	-80.492	-0.323	-0.107
-380.931	-67.825	-0.132	-0.051
-379.917	-56.048	-0.096	0.043
-378.902	-200.000	-0.030	0.382
-377.888	-0.534	0.017	0.012
-376.873	-171.221	0.074	0.002
-375.858	-114.945	-0.049	0.009
-374.844	87.016	0.077	0.084
-373.829	-200.000	0.057	0.274
-372.815	-200.000	0.014	-0.146
-371.800	-179.145	0.179	0.004
-370.785	-200.000	0.097	0.503
-369.771	800.000	0.059	0.223
-368.756	800.000	-0.099	-0.330
-367.742	-8.327	-0.047	-0.031
-366.727	800.000	0.069	0.221
-365.712	800.000	0.090	-0.264
-364.698	0.972	-0.096	-0.068
-363.683	303.555	0.197	-0.362
-362.669	800.000	-0.018	-0.069
-361.654	158.805	-0.197	0.271
-360.639	232.551	-0.110	-0.179
-359.625	-200.000	-0.075	0.357
-358.610	-69.278	-0.243	-0.092
-357.596	-200.000	-0.000	0.113
-356.581	-35.970	0.207	0.111
-355.566	-82.647	0.363	-0.116
-354.552	800.000	0.106	-0.302
-353.537	-170.265	0.226	-0.008
-352.523	-43.984	-0.195	-0.097
-351.508	102.329	0.095	0.110
-350.493	-105.652	0.077	0.017
-349.479	800.000	0.125	0.363
-348.464	-109.553	-0.102	0.021
-347.450	-107.674	0.136	0.029
-346.435	-200.000	0.013	0.181
-345.420	562.575	0.061	0.146
-344.406	-200.000	0.027	-0.253
-343.391	-200.000	0.014	0.077
-342.377	156.463	-0.221	-0.302
-341.362	155.111	-0.129	-0.176
-340.348	622.945	0.034	-0.084
-339.333	-115.770	0.015	0.003
-338.318	-200.000	-0.010	-0.246
-337.304	585.549	-0.118	0.286
-336.289	13.087	0.052	-0.040
-335.275	40.836	0.186	0.166
-334.260	-27.851	0.113	0.065
-333.245	-122.890	0.233	0.037
-332.231	-40.834	-0.100	-0.051
-331.216	336.403	0.043	-0.082
-330.202	-200.000	-0.027	0.291
-329.187	158.883	-0.235	-0.323
-328.172	-128.433	-0.119	0.017
-327.158	598.669	-0.118	0.290
-326.143	66.950	-0.165	-0.167
-325.129	98.849	-0.094	0.107
-324.114	156.572	0.063	0.086
-323.099	154.092	-0.053	0.071
-322.085	-80.143	-0.299	-0.099
-321.070	122.761	-0.117	0.145
-320.056	258.533	-0.073	0.124
-319.041	800.000	0.082	-0.248
-318.026	69.495	-0.115	-0.117
-317.012	26.669	0.268	0.222
-315.997	192.891	0.069	0.102
-314.983	279.257	-0.052	0.092
-313.968	800.000	0.044	0.141
-312.953	-66.572	0.232	0.091
-311.939	-200.000	0.045	0.342
-310.924	-200.000	0.032	-0.202
-309.910	-85.386	0.199	0.061
-308.895	800.000	0.071	0.305
-307.880	-200.000	-0.044	-0.217
-306.866	-158.588	0.278	0.016
-305.851	-63.659	-0.095	-0.038
-304.837	-10.161	0.056	0.037
-303.822	-112.115	0.041	0.008
-302.807	-200.000	0.020	-0.342
-301.793	99.147	-0.177	-0.202
-300.778	-36.884	0.183	-0.097
-299.764	411.109	0.106	0.221
-298.749	-107.700	-0.156	-0.034
-297.735	-130.190	0.229	0.031
-296.720	800.000	0.086	0.326
-295.705	71.362	-0.227	-0.233
-294.691	-200.000	0.014	0.095
-293.676	-200.000	0.076	0.373
-292.662	-115.944	0.123	-0.023
-291.647	-100.661	-0.164	0.040
-290.632	-200.000	-0.008	-0.159
-289.618	-200.000	0.031	0.208
-288.603	800.000	0.033	-0.093
-287.589	92.896	0.188	-0.210
-286.574	-162.571	0.121	0.006
-285.559	126.168	-0.142	-0.177
-284.545	83.439	-0.074	-0.080
-283.530	-200.000	-0.000	0.104
-282.516	479.716	-0.028	0.062
-281.501	88.625	-0.168	0.184
-280.486	67.344	-0.251	0.252
-279.472	-82.788	0.202	-0.064
-278.457	800.000	0.093	0.319
-277.443	-96.776	0.304	0.079
-276.428	-200.000	0.023	0.289
-275.413	2.543	-0.219	-0.157
-274.399	-57.402	-0.255	-0.110
-273.384	-15.083	-0.203	0.128
-272.370	-116.946	-0.235	-0.042
-271.355	50.050	-0.178	0.166
-270.340	100.405	-0.190	-0.218
-269.326	117.526	0.119	0.144
-268.311	-77.557	0.442	-0.151
-267.297	800.000	0.027	0.095
-266.282	-141.415	0.129	0.013
-265.267	-92.960	0.081	-0.022
-264.253	800.000	-0.060	0.171
-263.238	-65.661	-0.303	0.120
-262.224	-200.000	-0.048	0.521
-261.209	-200.000	-0.021	0.120
-260.195	800.000	0.074	-0.204
-259.180	119.235	-0.235	0.286
-258.165	274.874	0.123	0.215
-257.151	-200.000	0.011	-0.174
-256.136	110.368	-0.157	-0.186
-255.122	800.000	0.026	-0.094
-254.107	-200.000	-0.036	0.481
-253.092	118.591	0.153	0.186
-252.078	800.000	-0.094	0.373
-251.063	-200.000	0.037	0.371
-250.049	800.000	-0.117	0.398
-249.034	73.318	0.233	0.240
-248.019	165.746	0.097	0.135
-247.005	-200.000	0.028	0.127
-245.990	-76.973	-0.196	0.067
-244.976	-132.083	0.306	0.039
-243.961	-101.171	0.257	0.062
-242.946	-200.000	0.061	0.281
-241.932	12.189	-0.219	-0.166
-240.917	111.962	-0.084	0.100
-239.903	96.520	-0.066	0.075
-238.888	8.215	0.082	0.061
-237.873	466.713	-0.053	0.118
-236.859	202.882	0.124	0.189
-235.844	800.000	-0.071	0.277
-234.830	-22.077	0.101	-0.061
-233.815	-200.000	-0.029	0.157
-232.800	-76.137	-0.250	-0.087
-231.786	-200.000	0.017	-0.176
-230.771	-51.556	0.083	-0.038
-229.757	58.885	0.088	-0.085
-228.742	395.264	-0.082	-0.168
-227.727	-102.974	0.202	-0.047
-226.713	-84.215	0.357	-0.111
-225.698	-150.868	0.123	0.009
-224.684	-7.711	0.159	-0.106
-223.669	-144.051	-0.344	-0.032
-222.655	-33.261	0.107	0.059
-221.640	37.642	0.058	-0.050
-220.625	156.805	-0.173	0.235
-219.611	-200.000	-0.066	-0.376
-218.596	-200.000	0.034	-0.184
-217.582	-53.455	-0.129	0.058
-216.567	116.863	-0.129	0.156
-215.552	-52.001	-0.125	-0.057
-214.538	-134.009	-0.265	0.032
-213.523	800.000	0.105	0.314
-212.509	-200.000	0.040	-0.201
-211.494	-149.679	-0.379	-0.029
-210.479	383.782	0.095	-0.193
-209.465	463.581	-0.155	-0.341
-208.450	-200.000	0.005	-0.386
-207.436	-200.000	-0.049	-0.225
-206.421	-200.000	0.016	-0.109
-205.406	6.864	-0.292	0.214
-204.392	72.630	0.219	0.224
-203.377	-110.872	0.266	0.054
-202.363	341.361	0.113	0.217
-201.348	-54.945	-0.040	-0.018
-200.333	442.688	-0.087	0.188
-199.319	37.255	0.276	-0.241
-198.304	-200.000	-0.017	-0.083
-197.290	-200.000	-0.038	-0.282
-196.275	390.669	-0.013	0.028
-195.260	-73.678	0.047	-0.017
-194.246	-99.367	-0.267	-0.066
-193.231	-91.138	-0.024	0.007
-192.217	-126.267	0.012	0.002
-191.202	112.180	0.284	0.337
-190.187	176.262	0.076	-0.109
-189.173	-200.000	0.058	-0.324
-188.158	-175.981	0.231	0.006
-187.144	-56.351	-0.293	-0.128
-186.129	204.826	-0.119	0.182
-185.114	-200.000	0.050	0.333
-184.100	-191.504	-0.156	-0.002
-183.085	150.861	-0.053	-0.070
-182.071	-58.906	0.078	0.033
-181.056	66.333	0.048	0.048
-180.042	121.603	-0.276	0.338
-179.027	-200.000	-0.025	0.137
-178.012	-99.811	0.194	-0.048
-176.998	-125.635	-0.180	-0.027
-175.983	-167.969	0.190	-0.007
-174.969	444.067	-0.182	0.392
-173.954	141.007	0.119	-0.155
-172.939	800.000	0.045	-0.131
-171.925	-200.000	0.014	0.133
-170.910	77.842	-0.059	-0.061
-169.896	-45.511	-0.101	-0.049
-168.881	-40.287	0.319	-0.163
-167.866	84.728	-0.227	0.244
-166.852	0.556	0.252	-0.177
-165.837	12.240	-0.016	-0.012
-164.823	75.023	-0.071	-0.073
-163.808	238.310	-0.244	0.399
-162.793	43.412	-0.095	0.086
-161.779	-134.533	0.051	-0.006
-160.764	-161.133	0.273	-0.014
-159.750	-200.000	-0.006	0.186
-158.735	-200.000	0.024	-0.283
-157.720	-200.000	-0.018	0.099
-156.706	-52.511	0.172	-0.078
-155.691	-37.850	0.172	0.090
-154.677	42.492	0.207	-0.185
-153.662	-200.000	0.023	0.215
-152.647	-136.335	-0.020	0.002
-151.633	92.839	-0.090	0.099
-150.618	194.377	-0.078	-0.116
-149.604	-67.760	-0.100	-0.038
-148.589	800.000	-0.094	0.274
-147.574	-155.181	-0.249	-0.016
-146.560	-2.042	0.170	0.117
-145.545	-173.584	-0.304	-0.009
-144.531	-55.137	-0.144	-0.063
-143.516	128.591	-0.103	-0.128
-142.502	248.611	0.133	0.222
-141.487	356.142	-0.150	-0.294
-140.472	-200.000	0.017	0.453
-139.458	-200.000	0.033	0.166
-138.443	85.258	-0.193	-0.208
-137.429	13.142	0.052	-0.040
-136.414	-145.066	0.365	0.033
-135.399	366.060	0.056	0.111
-134.385	800.000	-0.037	0.113
-133.370	800.000	-0.047	-0.132
-132.356	3.953	0.157	-0.113
-131.341	800.000	-0.071	0.229
-130.326	-200.000	0.011	0.176
-129.312	547.307	-0.061	0.144
-128.297	-200.000	-0.016	0.071
-127.283	-113.244	-0.278	-0.054
-126.268	213.854	-0.098	0.152
-125.253	19.840	0.094	0.074
-124.239	-119.952	0.172	0.029
-123.224	800.000	0.012	-0.037
-122.210	86.723	0.101	-0.109
