DTS Sentinel unit serial number:	SN413079Multiplexer serial number:	ORYXHardware model number:	OX4-SRSoftware version number:	ORYX F/W v4.00 Oryx Data Collector v3.7.2.0data status	okinstallation	princeton_trtdifferential loss correction	single-endedforward channel	channel 2reverse channel	N/Adate	2019/09/19time	13:35:35forward acquisition time	60.00reverse acquisition time	0.00gamma	496.2192k internal	0.2326k external	0.2326temperature offset calibration	1.0019default loss term (dB/km)	0.3790temperature slope calibration	1.0000multiplexer offset coefficient	1.0000multiplexer slope coefficient	1.0000fibre end	0.00T internal ref (°C)	30.20T ext. ref 1 (°C)	0.98T ext. ref 2 (°C)	27.24length (m)	temperature (°C)	Stokes	anti-Stokes-747.200	-110.915	0.142	-0.030
-746.185	-108.239	-0.291	0.063
-745.171	-93.986	0.330	-0.091
-744.156	800.000	-0.088	0.271
-743.142	55.416	0.286	-0.279
-742.127	800.000	-0.050	-0.196
-741.112	558.738	0.043	-0.106
-740.098	-200.000	0.035	0.239
-739.083	-164.415	-0.020	-0.001
-738.069	-69.856	-0.161	0.062
-737.054	127.299	0.033	0.042
-736.039	-117.369	-0.337	0.062
-735.025	140.796	0.286	0.381
-734.010	-112.464	-0.241	0.048
-732.996	148.515	-0.226	-0.308
-731.981	-145.837	-0.224	-0.020
-730.966	632.327	0.097	-0.248
-729.952	800.000	-0.024	-0.099
-728.937	-163.270	-0.230	0.011
-727.923	307.558	-0.100	0.189
-726.908	797.313	0.031	0.088
-725.894	-200.000	-0.048	0.336
-724.879	-200.000	-0.003	-0.227
-723.864	-200.000	-0.009	-0.401
-722.850	-73.308	-0.141	-0.052
-721.835	-200.000	-0.024	-0.329
-720.821	-131.200	-0.234	-0.031
-719.806	-159.412	0.337	0.019
-718.791	-200.000	0.007	0.168
-717.777	-172.845	0.115	-0.004
-716.762	381.652	0.048	0.098
-715.748	-64.587	0.191	-0.078
-714.733	800.000	-0.026	0.112
-713.718	-200.000	0.037	0.201
-712.704	-200.000	0.033	0.229
-711.689	-73.257	0.444	-0.164
-710.675	-200.000	0.025	0.151
-709.660	-200.000	0.031	0.236
-708.645	-182.529	-0.484	-0.009
-707.631	-200.000	-0.022	-0.242
-706.616	129.043	0.163	-0.210
-705.602	800.000	0.055	-0.156
-704.587	-112.643	-0.282	0.056
-703.572	46.381	0.233	-0.217
-702.558	-137.823	0.182	-0.021
-701.543	-183.163	0.278	-0.005
-700.529	-45.535	-0.070	-0.035
-699.514	-175.653	0.214	-0.006
-698.499	-157.705	-0.123	0.007
-697.485	-105.703	0.149	-0.034
-696.470	-200.000	-0.005	-0.237
-695.456	433.508	0.118	-0.257
-694.441	800.000	0.045	0.176
-693.426	433.182	0.120	0.263
-692.412	85.094	0.144	-0.159
-691.397	-200.000	0.015	-0.119
-690.383	173.838	0.252	0.366
-689.368	-200.000	-0.017	-0.381
-688.354	252.984	-0.127	-0.218
-687.339	-200.000	0.039	-0.233
-686.324	-146.145	0.124	-0.011
-685.310	51.485	-0.181	0.173
-684.295	-56.584	-0.254	-0.113
-683.281	2.687	-0.143	0.104
-682.266	238.103	0.086	-0.144
-681.251	-43.282	0.102	0.052
-680.237	-200.000	0.015	0.196
-679.222	800.000	-0.094	0.332
-678.208	-200.000	0.006	-0.187
-677.193	324.902	0.124	-0.239
-676.178	-32.547	-0.066	-0.037
-675.164	93.351	-0.031	0.035
-674.149	284.710	0.036	0.065
-673.135	-88.501	-0.487	0.146
-672.120	111.457	0.128	-0.155
-671.105	-200.000	-0.073	-0.417
-670.091	-138.536	-0.220	0.024
-669.076	-38.326	-0.176	-0.094
-668.062	-52.574	-0.412	-0.191
-667.047	78.375	-0.077	0.083
-666.032	119.686	0.235	0.293
-665.018	242.916	0.020	-0.034
-664.003	188.991	-0.211	-0.317
-662.989	72.958	0.063	-0.066
-661.974	-108.668	-0.253	0.055
-660.959	335.133	-0.131	0.256
-659.945	64.290	0.132	-0.134
-658.930	-9.061	-0.119	0.080
-657.916	-70.556	0.020	-0.007
-656.901	185.502	-0.073	0.109
-655.886	-200.000	-0.019	-0.347
-654.872	775.370	0.032	0.088
-653.857	-19.121	0.139	0.087
-652.843	30.486	-0.334	0.287
-651.828	228.411	-0.203	0.333
-650.814	358.191	-0.165	0.331
-649.799	718.922	-0.099	-0.263
-648.784	448.512	-0.128	-0.283
-647.770	-21.813	-0.102	0.062
-646.755	-200.000	-0.004	0.078
-645.741	218.440	0.209	-0.336
-644.726	-200.000	0.011	-0.143
-643.711	76.380	0.085	-0.091
-642.697	-111.951	-0.194	0.039
-641.682	-73.976	-0.088	0.032
-640.668	-200.000	-0.000	-0.042
-639.653	800.000	0.121	0.392
-638.638	176.331	-0.071	-0.103
-637.624	495.442	-0.073	-0.169
-636.609	-91.840	-0.252	-0.072
-635.595	-200.000	-0.015	-0.080
-634.580	-54.040	0.044	0.020
-633.565	2.384	0.494	0.359
-632.551	-112.480	0.078	-0.016
-631.536	508.845	0.158	-0.368
-630.522	-51.609	0.235	0.110
-629.507	112.175	0.119	-0.145
-628.492	-200.000	0.015	0.321
-627.478	-200.000	-0.022	-0.194
-626.463	47.876	-0.089	0.084
-625.449	129.675	-0.341	0.438
-624.434	-123.697	0.101	-0.016
-623.419	800.000	0.060	0.230
-622.405	296.948	0.174	-0.320
-621.390	-107.357	-0.406	0.089
-620.376	33.409	0.179	-0.156
-619.361	-200.000	0.004	-0.449
-618.346	74.476	0.150	0.158
-617.332	-63.897	-0.070	0.029
-616.317	276.665	-0.173	-0.308
-615.303	-200.000	0.085	0.436
-614.288	-67.454	-0.093	-0.037
-613.273	163.345	0.024	-0.034
-612.259	32.854	0.233	0.203
-611.244	28.149	-0.182	0.155
-610.230	15.119	-0.132	-0.104
-609.215	173.638	0.096	0.139
-608.201	-82.435	0.206	0.067
-607.186	-47.327	-0.143	0.070
-606.171	36.123	-0.186	-0.164
-605.157	91.069	0.137	-0.154
-604.142	45.413	0.054	0.050
-603.128	160.496	0.192	0.269
-602.113	-83.273	0.115	-0.037
-601.098	-200.000	-0.042	-0.298
-600.084	132.010	-0.185	-0.239
-599.069	-200.000	0.027	-0.460
-598.055	35.900	-0.275	-0.242
-597.040	114.999	0.162	0.198
-596.025	283.727	-0.130	0.234
-595.011	7.493	0.168	-0.126
-593.996	-200.000	-0.002	-0.014
-592.982	-200.000	0.029	-0.229
-591.967	30.235	-0.108	0.092
-590.952	800.000	0.077	0.240
-589.938	-200.000	-0.002	-0.363
-588.923	266.450	-0.157	0.275
-587.909	54.051	-0.349	0.337
-586.894	-41.263	-0.206	-0.106
-585.879	-200.000	0.001	0.291
-584.865	25.236	-0.378	0.315
-583.850	339.424	-0.038	-0.075
-582.836	40.306	-0.092	0.083
-581.821	-145.948	-0.342	0.030
-580.806	199.873	-0.041	0.063
-579.792	429.564	-0.180	0.391
-578.777	784.176	0.070	-0.192
-577.763	-61.116	-0.131	0.056
-576.748	-200.000	-0.005	0.113
-575.733	-54.393	0.056	0.025
-574.719	65.556	0.184	-0.186
-573.704	-44.425	-0.069	-0.035
-572.690	-100.674	0.045	0.011
-571.675	-200.000	0.075	0.363
-570.661	-154.314	0.016	-0.001
-569.646	6.302	0.245	0.182
-568.631	-42.672	0.160	0.082
-567.617	-47.202	-0.300	-0.147
-566.602	-55.899	0.149	0.066
-565.588	71.303	-0.197	-0.205
-564.573	800.000	-0.166	-0.471
-563.558	-128.437	0.223	-0.032
-562.544	-200.000	0.000	0.115
-561.529	800.000	-0.039	0.136
-560.515	800.000	-0.230	-0.717
-559.500	-90.113	0.111	-0.032
-558.485	403.955	0.074	0.156
-557.471	635.429	-0.144	-0.365
-556.456	-37.284	0.270	-0.145
-555.442	-141.760	0.231	0.023
-554.427	-94.981	-0.348	0.094
-553.412	-200.000	0.025	-0.152
-552.398	677.438	0.106	-0.275
-551.383	-37.471	0.144	0.077
-550.369	47.988	-0.154	0.144
-549.354	72.222	0.154	-0.161
-548.339	120.131	0.172	-0.214
-547.325	-133.086	0.227	-0.029
-546.310	-111.064	-0.370	-0.076
-545.296	800.000	0.091	-0.398
-544.281	-200.000	-0.024	-0.180
-543.266	-84.110	-0.234	0.074
-542.252	-117.961	0.071	0.013
-541.237	-200.000	-0.012	0.155
-540.223	-95.625	0.232	-0.062
-539.208	164.022	-0.089	-0.125
-538.193	-200.000	0.050	0.235
-537.179	-122.646	0.399	-0.065
-536.164	-200.000	-0.003	0.170
-535.150	-38.294	-0.097	0.052
-534.135	463.705	-0.108	-0.240
-533.121	-78.979	0.430	0.146
-532.106	-94.961	-0.026	-0.007
-531.091	-200.000	-0.023	0.224
-530.077	316.949	0.131	0.248
-529.062	-31.407	-0.213	-0.120
-528.048	299.219	-0.122	0.224
-527.033	-200.000	-0.034	-0.380
-526.018	492.179	0.052	-0.119
-525.004	352.895	-0.099	-0.197
-523.989	27.016	0.205	-0.172
-522.975	151.149	0.059	0.080
-521.960	-103.102	0.095	-0.023
-520.945	676.108	0.073	0.189
-519.931	-200.000	-0.018	-0.163
-518.916	464.473	0.103	0.231
-517.902	34.587	-0.153	0.133
-516.887	-55.536	-0.243	-0.109
-515.872	386.465	-0.107	-0.222
-514.858	-200.000	-0.031	0.157
-513.843	-117.181	0.167	-0.030
-512.829	65.131	0.337	-0.341
-511.814	202.971	-0.128	-0.198
-510.799	97.999	0.144	0.166
-509.785	-200.000	0.021	0.318
-508.770	-127.977	-0.370	-0.053
-507.756	-93.741	-0.143	-0.039
-506.741	-110.547	0.019	-0.004
-505.726	-49.992	0.141	-0.067
-504.712	-159.497	-0.123	-0.007
-503.697	-200.000	-0.022	-0.114
-502.683	57.958	-0.224	-0.219
-501.668	195.798	-0.137	-0.208
-500.653	800.000	-0.082	0.269
-499.639	-115.341	0.269	0.051
-498.624	800.000	0.042	0.176
-497.610	206.925	0.156	-0.242
-496.595	88.101	0.075	0.083
-495.581	244.809	0.066	0.111
-494.566	529.520	-0.117	-0.275
-493.551	-90.520	-0.510	0.148
-492.537	-200.000	-0.038	-0.205
-491.522	5.791	-0.163	-0.121
-490.508	-131.702	0.135	-0.018
-489.493	-15.623	-0.063	-0.040
-488.478	194.537	-0.133	0.202
-487.464	-200.000	-0.019	-0.106
-486.449	-109.911	-0.318	-0.067
-485.435	606.449	-0.123	-0.307
-484.420	307.223	-0.098	-0.182
-483.405	17.309	-0.090	-0.072
-482.391	107.210	0.043	-0.051
-481.376	243.700	0.058	-0.097
-480.362	15.712	-0.353	-0.277
-479.347	-6.559	0.198	0.135
-478.332	-53.619	0.196	-0.089
-477.318	799.017	0.059	-0.161
-476.303	-165.823	-0.079	0.003
-475.289	-200.000	-0.033	-0.164
-474.274	-127.872	-0.252	0.036
-473.259	800.000	-0.023	-0.067
-472.245	58.744	0.257	-0.252
-471.230	114.284	-0.099	-0.120
-470.216	92.884	0.186	0.210
-469.201	-111.989	-0.120	-0.024
-468.186	-57.594	-0.118	0.052
-467.172	51.354	0.020	-0.019
-466.157	-27.984	0.221	-0.128
-465.143	-118.910	-0.219	0.038
-464.128	-15.957	0.189	-0.120
-463.113	800.000	-0.065	0.278
-462.099	2.564	0.088	-0.064
-461.084	-98.154	0.520	0.134
-460.070	-49.826	-0.084	-0.040
-459.055	93.293	0.121	0.136
-458.040	133.362	0.038	0.049
-457.026	-200.000	0.013	-0.442
-456.011	800.000	-0.132	0.448
-454.997	2.661	-0.286	0.207
-453.982	-44.161	0.238	0.119
-452.968	89.434	0.158	0.176
-451.953	-138.279	0.234	0.026
-450.938	30.527	0.107	0.092
-449.924	-34.719	0.094	0.051
-448.909	-93.627	0.176	0.048
-447.895	279.505	0.041	0.073
-446.880	-131.742	0.182	0.024
-445.865	558.289	0.189	0.454
-444.851	782.849	0.033	-0.091
-443.836	137.522	0.065	0.085
-442.822	-28.848	0.131	0.075
-441.807	-69.122	-0.209	0.080
-440.792	-200.000	0.047	0.267
-439.778	30.535	-0.060	0.051
-438.763	-200.000	-0.043	0.250
-437.749	17.014	0.093	0.074
-436.734	406.553	-0.184	-0.388
-435.719	-18.249	0.311	-0.194
-434.705	-200.000	-0.047	0.225
-433.690	-114.748	0.335	-0.064
-432.676	-125.948	0.186	0.028
-431.661	-104.131	0.246	-0.057
-430.646	-200.000	-0.320	0.001
-429.632	-200.000	0.022	-0.123
-428.617	-80.164	-0.145	-0.048
-427.603	-200.000	0.051	0.430
-426.588	-95.788	0.185	-0.049
-425.573	-123.910	0.132	-0.021
-424.559	121.611	0.151	-0.187
-423.544	-200.000	0.007	-0.053
-422.530	-200.000	-0.021	0.217
-421.515	-200.000	-0.006	0.124
-420.500	-34.455	0.143	0.078
-419.486	-35.558	0.101	0.055
-418.471	8.823	-0.111	-0.083
-417.457	-14.788	-0.060	0.038
-416.442	71.392	0.269	-0.278
-415.428	-105.266	-0.157	-0.036
-414.413	522.434	0.108	0.253
-413.398	-128.377	0.086	0.012
-412.384	-98.477	0.197	-0.050
-411.369	-8.004	0.302	-0.202
-410.355	-58.220	-0.324	-0.141
-409.340	39.255	0.039	-0.035
-408.325	-200.000	0.066	0.385
-407.311	-57.481	0.195	0.085
-406.296	-55.179	-0.107	0.048
-405.282	-200.000	-0.004	-0.209
-404.267	564.126	0.101	-0.243
-403.252	-67.481	0.141	-0.055
-402.238	-91.096	-0.265	-0.076
-401.223	61.901	-0.132	0.131
-400.209	125.237	0.124	0.155
-399.194	-26.902	0.043	-0.025
-398.179	-57.904	-0.299	0.130
-397.165	238.118	-0.046	-0.076
-396.150	118.581	0.039	0.047
-395.136	-156.386	-0.339	-0.021
-394.121	-39.402	-0.125	-0.065
-393.106	45.684	-0.069	0.063
-392.092	289.108	0.140	-0.252
-391.077	238.253	-0.060	-0.099
-390.063	80.883	-0.074	-0.079
-389.048	272.854	-0.073	0.129
-388.033	-145.215	-0.088	0.008
-387.019	7.239	-0.137	-0.101
-386.004	113.516	0.103	-0.124
-384.990	211.931	0.109	0.171
-383.975	-34.934	-0.351	0.191
-382.960	800.000	0.074	-0.321
-381.946	-200.000	-0.016	-0.087
-380.931	-28.653	-0.253	0.145
-379.917	-97.501	-0.181	0.047
-378.902	-47.584	0.154	0.074
-377.888	-104.097	0.244	-0.056
-376.873	35.578	0.220	0.192
-375.858	-200.000	0.003	-0.090
-374.844	-104.249	-0.147	-0.034
-373.829	-181.777	-0.200	0.004
-372.815	800.000	0.015	0.065
-371.800	-67.671	-0.156	0.061
-370.785	-158.619	0.250	-0.014
-369.771	155.965	-0.134	-0.184
-368.756	-99.814	0.442	-0.110
-367.742	96.719	0.115	0.131
-366.727	-121.608	-0.089	0.015
-365.712	326.781	-0.179	-0.341
-364.698	231.689	-0.072	-0.117
-363.683	99.067	-0.149	-0.171
-362.669	800.000	0.074	-0.281
-361.654	-37.992	0.179	0.094
-360.639	-158.209	-0.301	0.017
-359.625	31.768	0.085	-0.073
-358.610	-200.000	0.019	-0.400
-357.596	-6.706	0.096	-0.065
-356.581	-90.260	-0.061	-0.018
-355.566	-152.394	-0.088	-0.006
-354.552	-19.310	0.192	-0.118
-353.537	-200.000	-0.018	-0.308
-352.523	-142.044	-0.148	-0.015
-351.508	-84.047	0.113	-0.036
-350.493	800.000	0.051	-0.174
-349.479	-200.000	-0.063	0.286
-348.464	800.000	0.051	-0.193
-347.450	537.411	0.037	0.087
-346.435	-125.297	0.263	0.040
-345.420	292.129	-0.098	0.178
-344.406	349.991	0.065	-0.128
-343.391	-74.416	0.213	-0.076
-342.377	-20.449	-0.034	0.021
-341.362	54.879	0.111	-0.106
-340.348	-163.140	-0.250	0.012
-339.333	-200.000	0.023	-0.146
-338.318	-200.000	0.020	0.096
-337.304	800.000	0.031	0.111
-336.289	23.278	-0.051	-0.042
-335.275	-121.393	-0.094	-0.015
-334.260	145.375	-0.052	-0.070
-333.245	60.332	0.158	-0.155
-332.231	778.631	-0.044	0.119
-331.216	31.143	0.107	0.092
-330.202	-45.549	0.310	0.153
-329.187	-200.000	0.013	0.289
-328.172	66.131	-0.226	-0.228
-327.158	800.000	0.083	0.266
-326.143	800.000	0.023	0.099
-325.129	-200.000	-0.017	0.272
-324.114	-85.271	-0.431	0.134
-323.099	800.000	0.079	-0.307
-322.085	-200.000	0.005	0.076
-321.070	20.893	-0.246	0.198
-320.056	800.000	0.045	0.176
-319.041	-42.313	0.217	0.110
-318.026	-46.837	0.098	0.047
-317.012	-200.000	0.006	0.072
-315.997	21.287	-0.139	0.112
-314.983	-200.000	-0.029	0.151
-313.968	-6.133	0.176	0.120
-312.953	71.918	0.044	0.046
-311.939	443.708	0.170	0.370
-310.924	800.000	-0.160	0.545
-309.910	95.356	0.125	0.141
-308.895	-119.728	0.165	0.028
-307.880	9.885	0.185	-0.139
-306.866	-154.090	-0.282	0.019
-305.851	-193.630	-0.460	-0.004
-304.837	133.532	-0.138	0.177
-303.822	-32.713	0.176	-0.097
-302.807	-0.854	0.115	-0.080
-301.793	38.292	-0.255	-0.225
-300.778	-50.791	-0.060	-0.028
-299.764	-184.229	-0.220	-0.004
-298.749	800.000	-0.087	-0.315
-297.735	-127.330	0.141	0.020
-296.720	-35.487	0.068	-0.037
-295.705	-139.324	-0.099	-0.011
-294.691	114.974	0.128	-0.154
-293.676	800.000	0.073	0.204
-292.662	800.000	0.057	0.197
-291.647	-38.490	0.335	0.176
-290.632	-146.705	-0.277	-0.024
-289.618	-200.000	-0.026	-0.314
-288.603	-171.339	0.178	0.006
-287.589	-99.250	-0.242	0.061
-286.574	-200.000	-0.021	0.249
-285.559	181.552	-0.095	0.138
-284.545	27.822	0.285	0.238
-283.530	800.000	0.052	-0.161
-282.516	-200.000	0.006	-0.146
-281.501	-117.111	0.069	-0.013
-280.486	757.652	-0.099	0.265
-279.472	30.576	-0.125	-0.106
-278.457	-180.710	0.108	0.002
-277.443	46.217	-0.114	0.105
-276.428	800.000	0.081	-0.226
-275.413	800.000	-0.036	0.155
-274.399	-19.786	-0.032	0.020
-273.384	-48.767	-0.140	-0.067
-272.370	-87.625	0.094	0.028
-271.355	-200.000	0.025	0.299
-270.340	-84.538	0.077	-0.024
-269.326	351.551	-0.037	-0.073
-268.311	-112.861	0.133	-0.026
-267.297	365.725	0.049	-0.098
-266.282	697.355	0.079	0.205
-265.267	-200.000	-0.004	0.191
-264.253	-200.000	-0.007	0.200
-263.238	188.523	-0.153	0.227
-262.224	-200.000	0.012	0.139
-261.209	4.594	-0.286	0.208
-260.195	633.845	-0.144	0.360
-259.180	-95.392	0.139	0.037
-258.165	-11.014	-0.108	0.071
-257.151	202.127	-0.274	-0.419
-256.136	6.236	0.072	0.053
-255.122	5.582	0.162	0.119
-254.107	139.767	0.182	-0.238
-253.092	-200.000	-0.008	-0.205
-252.078	800.000	0.052	-0.185
-251.063	-200.000	-0.068	0.506
-250.049	-52.545	-0.049	0.023
-249.034	800.000	-0.038	-0.121
-248.019	800.000	-0.081	0.324
-247.005	-115.917	-0.322	-0.060
-245.990	324.067	0.176	-0.332
-244.976	-76.082	0.353	-0.123
-243.961	543.049	-0.115	-0.270
-242.946	-75.725	0.154	-0.054
-241.932	409.910	0.041	0.085
-240.917	228.448	-0.164	0.265
-239.903	-103.282	-0.395	0.092
-238.888	-4.350	0.140	0.096
-237.873	800.000	-0.108	-0.432
-236.859	-62.481	0.193	-0.079
-235.844	-138.794	0.043	-0.005
-234.830	-200.000	-0.017	-0.102
-233.815	-104.373	0.163	-0.037
-232.800	800.000	-0.009	0.031
-231.786	-7.585	0.064	0.043
-230.771	-200.000	0.037	0.181
-229.757	162.593	-0.078	0.108
-228.742	-164.419	0.288	0.013
-227.727	-3.951	-0.340	0.233
-226.713	-46.196	-0.509	-0.247
-225.698	85.423	-0.142	0.154
-224.684	-200.000	-0.008	0.058
-223.669	18.465	-0.093	-0.073
-222.655	-200.000	-0.083	-0.443
-221.640	-200.000	0.008	-0.038
-220.625	-15.346	-0.366	-0.231
-219.611	800.000	-0.037	0.147
-218.596	-200.000	0.039	0.274
-217.582	800.000	0.014	0.050
-216.567	-0.985	-0.037	-0.026
-215.552	322.812	0.154	0.291
-214.538	76.830	-0.224	0.235
-213.523	10.581	0.285	0.215
-212.509	5.628	0.061	0.045
-211.494	151.908	0.170	0.230
-210.479	195.488	0.042	-0.063
-209.465	485.190	0.106	0.239
-208.450	-83.804	-0.274	-0.086
-207.436	-107.590	0.159	0.034
-206.421	-186.842	0.212	0.003
-205.406	-71.993	-0.169	-0.062
-204.392	-16.904	0.118	0.074
-203.377	-200.000	-0.015	0.141
-202.363	71.936	0.029	-0.030
-201.348	-38.781	0.197	-0.103
-200.333	221.626	-0.121	-0.192
-199.319	167.766	0.057	0.080
-198.304	-200.000	0.003	-0.113
-197.290	-40.834	0.310	-0.159
-196.275	319.871	-0.197	-0.370
-195.260	650.520	-0.129	-0.326
-194.246	-13.872	0.257	-0.164
-193.231	-185.496	-0.259	-0.004
-192.217	800.000	-0.078	-0.228
-191.202	-154.023	0.235	-0.016
-190.187	70.746	-0.250	0.255
-189.173	-150.409	-0.065	-0.005
-188.158	42.070	0.102	-0.092
-187.144	117.213	-0.084	0.101
-186.129	-39.283	0.035	-0.018
-185.114	-200.000	0.098	-0.500
-184.100	-200.000	0.011	-0.228
-183.085	169.373	0.033	-0.046
-182.071	216.486	0.074	0.117
-181.056	-97.703	-0.361	-0.092
-180.042	477.367	0.116	0.260
-179.027	201.484	-0.099	-0.150
-178.012	-183.712	0.126	-0.002
-176.998	-80.356	-0.303	-0.100
-175.983	-194.885	-0.306	0.002
-174.969	-46.125	-0.175	0.085
-173.954	800.000	-0.108	0.312
-172.939	-59.567	-0.226	0.096
-171.925	-35.104	0.122	0.065
-170.910	-90.163	0.211	0.060
-169.896	-112.107	-0.195	-0.039
-168.881	57.499	0.036	-0.035
-167.866	-200.000	0.022	0.259
-166.852	104.004	-0.148	-0.171
-165.837	101.603	0.119	0.137
-164.823	-200.000	0.033	-0.159
-163.808	33.420	-0.111	-0.095
-162.793	-200.000	0.008	0.228
-161.779	-26.016	-0.119	0.069
-160.764	-200.000	0.041	0.231
-159.750	4.106	0.196	0.142
-158.735	476.293	0.079	-0.177
-157.720	130.625	0.094	0.119
-156.706	-79.218	0.139	0.046
-155.691	-5.272	0.386	-0.262
-154.677	-59.142	-0.122	0.052
-153.662	-108.786	0.223	0.047
-152.647	-8.694	0.220	0.146
-151.633	659.754	0.143	0.364
-150.618	-130.629	0.266	-0.035
-149.604	106.444	0.112	0.131
-148.589	87.055	0.036	0.039
-147.574	-78.756	0.105	0.035
-146.560	-140.665	0.419	-0.043
-145.545	84.670	0.101	0.109
-144.531	-57.185	0.082	-0.035
-143.516	-53.662	0.152	-0.069
-142.502	58.954	0.103	0.100
-141.487	324.019	0.082	0.155
-140.472	0.696	0.351	0.248
-139.458	139.046	0.062	-0.080
-138.443	-175.711	0.242	-0.006
-137.429	-37.052	0.256	0.135
-136.414	-200.000	0.010	0.262
-135.399	-128.984	0.312	0.043
-134.385	-200.000	0.027	-0.166
-133.370	23.742	-0.135	0.109
-132.356	-46.336	0.156	-0.076
-131.341	241.301	0.055	0.091
-130.326	-127.833	0.342	0.048
-129.312	800.000	-0.052	0.224
-128.297	800.000	-0.123	0.353
-127.283	-139.815	0.158	-0.017
-126.268	-103.370	0.197	0.046
-125.253	72.996	-0.089	-0.091
-124.239	25.853	-0.054	0.044
-123.224	711.446	0.022	-0.056
-122.210	-127.084	-0.230	-0.033
-121.195	81.226	-0.168	0.178
