DTS Sentinel unit serial number:	SN413079Multiplexer serial number:	ORYXHardware model number:	OX4-SRSoftware version number:	ORYX F/W v4.00 Oryx Data Collector v3.7.2.0data status	okinstallation	princeton_trtdifferential loss correction	single-endedforward channel	channel 2reverse channel	N/Adate	2019/09/15time	16:43:35forward acquisition time	60.00reverse acquisition time	0.00gamma	496.2192k internal	0.2285k external	0.2285temperature offset calibration	0.9929default loss term (dB/km)	0.3790temperature slope calibration	1.0000multiplexer offset coefficient	1.0000multiplexer slope coefficient	1.0000fibre end	0.00T internal ref (°C)	44.19T ext. ref 1 (°C)	5.70T ext. ref 2 (°C)	40.42length (m)	temperature (°C)	Stokes	anti-Stokes-747.200	-200.000	-0.011	0.080
-746.185	476.527	-0.130	0.301
-745.171	56.810	0.209	-0.209
-744.156	-200.000	-0.041	0.187
-743.142	775.179	0.069	0.192
-742.127	-182.878	0.258	0.005
-741.112	-72.832	0.091	-0.034
-740.098	178.859	-0.264	0.396
-739.083	-34.726	-0.342	0.192
-738.069	194.452	-0.088	0.138
-737.054	136.301	-0.179	0.240
-736.039	-64.546	-0.149	0.062
-735.025	23.002	0.348	-0.293
-734.010	18.089	-0.036	-0.029
-732.996	-0.443	-0.121	-0.088
-731.981	129.391	-0.072	0.095
-730.966	25.294	0.174	-0.149
-729.952	-132.846	0.115	0.015
-728.937	-200.000	0.008	0.097
-727.923	-200.000	-0.061	0.291
-726.908	-43.937	-0.179	-0.092
-725.894	-188.224	0.261	-0.003
-724.879	51.733	0.059	0.058
-723.864	279.425	0.037	0.067
-722.850	800.000	0.079	-0.327
-721.835	-107.071	-0.052	-0.012
-720.821	419.071	-0.040	-0.088
-719.806	400.332	0.187	0.402
-718.791	-200.000	0.030	-0.223
-717.777	-200.000	-0.002	-0.195
-716.762	-186.904	0.222	0.003
-715.748	138.193	-0.270	-0.364
-714.733	208.883	-0.112	-0.180
-713.718	-155.224	0.237	-0.016
-712.704	-200.000	0.053	0.446
-711.689	-53.457	-0.229	-0.107
-710.675	800.000	0.058	0.205
-709.660	434.674	0.060	-0.134
-708.645	781.772	0.103	-0.288
-707.631	30.883	-0.128	0.113
-706.616	-200.000	0.030	0.137
-705.602	-58.074	-0.108	0.048
-704.587	-200.000	-0.019	0.285
-703.572	-103.053	-0.385	0.093
-702.558	-200.000	-0.012	0.206
-701.543	-67.726	0.180	-0.072
-700.529	-6.149	-0.149	-0.105
-699.514	-200.000	-0.013	0.299
-698.499	-93.958	-0.145	-0.041
-697.485	28.660	0.094	0.082
-696.470	36.867	0.179	0.162
-695.456	-110.928	-0.139	-0.029
-694.441	52.934	-0.057	0.056
-693.426	-200.000	-0.005	-0.274
-692.412	-200.000	-0.017	-0.086
-691.397	145.780	0.028	-0.038
-690.383	15.555	-0.105	0.085
-689.368	45.160	0.169	0.159
-688.354	96.718	-0.022	-0.026
-687.339	376.412	0.083	0.174
-686.324	515.006	-0.222	-0.530
-685.310	-152.694	0.427	0.031
-684.295	-91.064	0.156	-0.046
-683.281	73.487	-0.188	-0.201
-682.266	11.212	0.189	-0.148
-681.251	-200.000	0.040	-0.287
-680.237	111.495	0.048	0.060
-679.222	-200.000	0.035	0.312
-678.208	800.000	0.145	0.488
-677.193	800.000	0.063	0.181
-676.178	-200.000	0.061	-0.304
-675.164	-46.478	0.159	-0.080
-674.149	379.237	0.155	-0.325
-673.135	-103.755	-0.301	0.072
-672.120	-85.137	0.129	-0.041
-671.105	-200.000	-0.008	0.093
-670.091	24.966	-0.114	-0.097
-669.076	455.953	-0.168	-0.382
-668.062	-162.475	0.151	-0.008
-667.047	198.717	-0.041	0.064
-666.032	95.913	-0.046	0.054
-665.018	-200.000	0.013	0.337
-664.003	237.059	0.153	-0.260
-662.989	191.403	-0.041	-0.063
-661.974	-117.593	0.062	0.011
-660.959	153.579	-0.174	0.244
-659.945	99.902	0.230	-0.273
-658.930	18.279	0.204	-0.167
-657.916	34.970	0.167	-0.149
-656.901	-200.000	-0.020	-0.516
-655.886	-31.482	-0.330	-0.190
-654.872	800.000	0.042	0.124
-653.857	742.225	0.071	-0.196
-652.843	99.447	-0.090	-0.107
-651.828	-200.000	-0.035	0.226
-650.814	259.030	-0.132	-0.234
-649.799	53.556	0.139	0.137
-648.784	-143.445	0.428	-0.042
-647.770	-133.276	-0.492	0.064
-646.755	-48.830	0.248	-0.122
-645.741	-119.400	-0.334	0.059
-644.726	-200.000	0.030	-0.186
-643.711	637.756	-0.130	-0.337
-642.697	-61.862	-0.242	-0.104
-641.682	-200.000	0.035	0.236
-640.668	-6.273	-0.155	-0.108
-639.653	179.616	-0.188	0.281
-638.638	-130.674	-0.351	-0.048
-637.624	722.681	0.131	-0.357
-636.609	-57.659	-0.317	0.142
-635.595	54.959	-0.375	0.370
-634.580	174.538	0.221	0.326
-633.565	-125.887	-0.179	-0.028
-632.551	-177.713	0.145	0.004
-631.536	-134.339	0.239	-0.030
-630.522	206.336	-0.239	-0.380
-629.507	-92.285	-0.353	-0.102
-628.492	800.000	0.083	-0.276
-627.478	-179.820	0.367	0.008
-626.463	-23.593	-0.170	-0.104
-625.449	41.580	0.130	-0.120
-624.434	-128.026	-0.303	-0.044
-623.419	159.483	-0.092	0.131
-622.405	-200.000	0.023	-0.302
-621.390	-200.000	0.038	-0.320
-620.376	36.033	0.100	-0.090
-619.361	67.060	0.245	-0.255
-618.346	32.083	0.138	-0.121
-617.332	209.478	0.172	-0.275
-616.317	726.022	-0.037	0.101
-615.303	-200.000	0.025	-0.275
-614.288	-138.261	0.342	-0.039
-613.273	-114.438	0.235	0.046
-612.259	-133.229	0.133	-0.017
-611.244	525.200	0.143	0.343
-610.230	192.032	-0.039	0.060
-609.215	-194.939	-0.201	-0.002
-608.201	-70.104	-0.255	-0.099
-607.186	-200.000	0.008	0.046
-606.171	-200.000	0.008	0.076
-605.157	-0.095	0.113	0.082
-604.142	137.970	-0.097	-0.129
-603.128	-176.278	0.224	0.006
-602.113	800.000	-0.028	-0.092
-601.098	-42.459	-0.169	0.088
-600.084	-97.199	-0.081	-0.022
-599.069	-200.000	0.004	-0.125
-598.055	120.536	0.216	-0.274
-597.040	324.229	0.034	0.066
-596.025	66.253	0.115	-0.120
-595.011	307.166	-0.061	-0.116
-593.996	238.550	0.084	-0.142
-592.982	800.000	-0.156	-0.503
-591.967	-200.000	0.000	-0.304
-590.952	-29.962	0.245	0.142
-589.938	45.703	-0.248	-0.234
-588.923	76.223	-0.209	0.226
-587.909	-80.586	-0.297	0.101
-586.894	800.000	-0.026	0.090
-585.879	350.541	-0.079	0.159
-584.865	84.009	0.309	0.344
-583.850	202.876	0.167	-0.263
-582.836	723.818	-0.049	-0.133
-581.821	800.000	0.068	0.276
-580.806	2.806	0.095	-0.070
-579.792	440.896	0.064	-0.142
-578.777	742.671	-0.053	0.146
-577.763	-86.075	0.298	-0.094
-576.748	800.000	-0.066	0.212
-575.733	-134.174	-0.132	0.017
-574.719	21.098	0.280	-0.232
-573.704	405.823	-0.165	-0.354
-572.690	-40.678	0.140	0.074
-571.675	-107.040	-0.351	0.079
-570.661	-21.679	0.075	0.046
-569.646	191.080	0.099	0.152
-568.631	46.060	0.255	0.241
-567.617	47.988	0.092	0.088
-566.602	-200.000	-0.002	-0.031
-565.588	-50.675	-0.054	-0.026
-564.573	-28.146	-0.330	-0.194
-563.558	-131.671	0.484	-0.065
-562.544	-60.904	-0.147	0.063
-561.529	502.132	0.055	-0.130
-560.515	-28.926	-0.224	0.131
-559.500	-82.753	0.189	0.062
-558.485	-88.884	0.211	-0.064
-557.471	-26.056	-0.172	0.103
-556.456	149.310	0.119	-0.164
-555.442	-51.060	0.060	-0.029
-554.427	-60.365	0.136	-0.059
-553.412	93.425	0.041	-0.047
-552.398	519.607	0.094	0.223
-551.383	66.212	-0.352	0.364
-550.369	326.558	0.175	-0.342
-549.354	-200.000	-0.065	0.552
-548.339	-75.194	-0.144	-0.052
-547.325	-194.511	-0.254	-0.002
-546.310	800.000	-0.059	0.175
-545.296	-200.000	-0.007	0.193
-544.281	-79.992	-0.242	-0.083
-543.266	-96.530	-0.097	-0.026
-542.252	113.966	-0.252	-0.312
-541.237	80.983	-0.164	-0.180
-540.223	51.226	0.165	-0.159
-539.208	25.023	-0.169	0.142
-538.193	-200.000	0.049	-0.313
-537.179	-110.426	0.252	0.053
-536.164	39.421	-0.134	-0.122
-535.150	-200.000	0.058	-0.329
-534.135	65.926	-0.204	-0.211
-533.121	174.619	0.147	-0.216
-532.106	800.000	0.058	-0.219
-531.091	-15.107	0.336	0.219
-530.077	-88.878	-0.098	-0.029
-529.062	251.266	-0.097	-0.167
-528.048	-54.251	-0.213	-0.099
-527.033	-55.717	0.368	0.167
-526.018	-74.649	-0.199	0.073
-525.004	-155.147	-0.366	0.024
-523.989	-37.069	0.180	-0.098
-522.975	128.765	-0.291	-0.377
-521.960	-151.663	0.386	0.029
-520.945	142.872	-0.117	-0.159
-519.931	-92.140	0.029	0.008
-518.916	109.854	-0.214	-0.261
-517.902	39.640	-0.139	-0.127
-516.887	126.086	-0.159	-0.204
-515.872	71.024	-0.136	-0.143
-514.858	11.144	0.423	0.329
-513.843	-1.029	-0.103	0.074
-512.829	-200.000	-0.010	0.271
-511.814	240.833	0.047	0.080
-510.799	207.093	0.138	0.218
-509.785	800.000	-0.060	-0.196
-508.770	-4.475	-0.046	-0.032
-507.756	-39.698	-0.134	0.071
-506.741	107.064	0.176	-0.213
-505.726	-200.000	0.044	-0.232
-504.712	-200.000	0.017	0.210
-503.697	-200.000	-0.060	-0.435
-502.683	-56.594	-0.078	0.035
-501.668	800.000	0.085	-0.268
-500.653	-80.523	0.112	0.038
-499.639	493.801	0.146	0.341
-498.624	-26.742	0.288	-0.171
-497.610	-175.065	0.276	-0.008
-496.595	-28.472	0.140	0.082
-495.581	660.696	0.084	-0.219
-494.566	800.000	-0.046	-0.135
-493.551	51.856	0.176	0.171
-492.537	56.793	0.272	-0.270
-491.522	-88.728	0.461	-0.139
-490.508	103.075	0.192	-0.229
-489.493	-200.000	-0.015	0.199
-488.478	800.000	0.045	0.153
-487.464	46.942	0.055	-0.052
-486.449	-200.000	0.022	0.180
-485.435	-137.488	0.093	-0.011
-484.420	-158.998	0.177	-0.010
-483.405	-50.698	-0.129	-0.062
-482.391	-35.186	-0.175	0.097
-481.376	289.355	-0.075	0.138
-480.362	111.374	0.108	-0.132
-479.347	-200.000	0.011	0.072
-478.332	167.762	0.190	0.275
-477.318	316.667	-0.070	-0.135
-476.303	438.687	0.054	-0.119
-475.289	0.743	0.250	-0.182
-474.274	-200.000	-0.006	-0.071
-473.259	-139.563	-0.210	-0.023
-472.245	800.000	-0.101	0.438
-471.230	56.324	-0.211	0.209
-470.216	-141.369	0.089	0.009
-469.201	-7.401	0.078	0.053
-468.186	257.336	0.015	0.027
-467.172	350.363	0.066	0.133
-466.157	-73.791	0.091	-0.034
-465.143	-200.000	-0.001	0.095
-464.128	-97.213	0.098	0.026
-463.113	82.161	-0.102	0.112
-462.099	-200.000	-0.004	0.076
-461.084	-140.769	0.315	-0.033
-460.070	-200.000	-0.030	-0.229
-459.055	-200.000	0.001	0.293
-458.040	99.558	-0.158	-0.186
-457.026	172.774	0.166	-0.242
-456.011	0.259	-0.190	-0.137
-454.997	-200.000	0.009	0.118
-453.982	112.180	-0.094	-0.115
-452.968	-200.000	-0.007	-0.050
-451.953	509.667	0.097	0.228
-450.938	-55.346	-0.338	-0.154
-449.924	-200.000	0.002	0.058
-448.909	800.000	0.024	0.074
-447.895	-200.000	-0.013	0.102
-446.880	198.242	-0.058	0.091
-445.865	-90.824	-0.345	0.101
-444.851	800.000	0.020	0.062
-443.836	292.637	-0.138	0.254
-442.822	-93.951	-0.160	-0.045
-441.807	800.000	0.060	0.224
-440.792	-7.605	-0.128	0.088
-439.778	-15.296	-0.306	-0.199
-438.763	-26.144	-0.156	0.093
-437.749	-200.000	0.052	-0.375
-436.734	-200.000	0.032	-0.223
-435.719	-98.660	0.076	0.020
-434.705	-32.416	-0.196	-0.111
-433.690	41.368	-0.184	-0.169
-432.676	-200.000	-0.036	0.459
-431.661	71.627	0.309	0.326
-430.646	-112.639	-0.371	-0.075
-429.632	-131.957	0.058	-0.008
-428.617	800.000	0.138	0.433
-427.603	489.400	-0.038	-0.089
-426.588	114.678	-0.127	0.156
-425.573	792.621	0.097	0.271
-424.559	-129.501	0.220	0.031
-423.544	-173.782	-0.369	-0.011
-422.530	33.095	-0.117	-0.102
-421.515	162.813	0.148	0.210
-420.500	12.594	-0.078	-0.061
-419.486	5.386	-0.066	0.049
-418.471	-75.674	-0.143	-0.052
-417.457	-200.000	-0.037	-0.200
-416.442	-107.157	-0.164	0.037
-415.428	-87.070	-0.186	0.057
-414.413	-58.966	0.206	0.090
-413.398	-36.667	0.343	0.187
-412.384	800.000	0.078	-0.264
-411.369	-125.880	-0.368	-0.056
-410.355	208.711	0.145	0.230
-409.340	297.945	0.121	0.226
-408.325	-27.128	0.194	0.115
-407.311	-54.185	-0.197	-0.091
-406.296	511.734	-0.113	0.265
-405.282	410.880	-0.118	-0.253
-404.267	-200.000	-0.022	-0.237
-403.252	65.899	-0.030	-0.031
-402.238	-135.807	-0.344	0.041
-401.223	-200.000	-0.065	0.386
-400.209	665.896	-0.108	0.282
-399.194	-102.414	0.105	-0.025
-398.179	144.969	-0.085	-0.115
-397.165	-104.881	-0.066	0.015
-396.150	-127.033	0.228	0.034
-395.136	-200.000	0.001	0.346
-394.121	-172.407	-0.238	-0.008
-393.106	-27.193	0.347	-0.205
-392.092	271.895	0.135	-0.242
-391.077	-161.839	0.145	0.007
-390.063	-13.229	0.097	-0.064
-389.048	-58.642	-0.052	-0.023
-388.033	59.664	0.038	-0.038
-387.019	393.402	0.114	0.240
-386.004	-120.259	0.367	0.063
-384.990	-200.000	0.092	0.519
-383.975	66.431	0.100	0.103
-382.960	-69.609	0.193	-0.075
-381.946	92.434	0.238	0.271
-380.931	-152.569	-0.176	0.013
-379.917	37.068	0.032	-0.028
-378.902	44.576	-0.081	0.076
-377.888	800.000	0.119	-0.341
-376.873	48.302	-0.107	0.102
-375.858	107.040	-0.173	0.208
-374.844	-65.924	-0.147	0.059
-373.829	776.361	0.067	0.186
-372.815	-65.703	-0.208	0.084
-371.800	-96.585	-0.386	-0.103
-370.785	474.720	-0.104	-0.238
-369.771	800.000	0.046	-0.193
-368.756	-72.316	-0.214	0.080
-367.742	-200.000	-0.060	0.342
-366.727	800.000	-0.052	-0.185
-365.712	82.815	-0.041	0.045
-364.698	-200.000	0.020	0.368
-363.683	-20.375	-0.165	0.103
-362.669	-123.890	-0.096	0.015
-361.654	-128.337	0.120	0.017
-360.639	800.000	0.171	-0.482
-359.625	-200.000	-0.034	0.201
-358.610	-200.000	0.009	0.332
-357.596	375.330	0.152	-0.313
-356.581	103.511	-0.182	-0.216
-355.566	420.530	-0.080	0.172
-354.552	55.954	0.242	0.238
-353.537	191.668	0.105	0.160
-352.523	235.587	0.180	0.301
-351.508	-200.000	0.043	0.460
-350.493	555.078	0.019	-0.046
-349.479	-200.000	-0.044	-0.279
-348.464	198.610	-0.135	-0.209
-347.450	-17.968	-0.107	-0.068
-346.435	-200.000	-0.007	0.053
-345.420	-77.457	-0.270	0.095
-344.406	-200.000	-0.048	-0.248
-343.391	-200.000	0.019	-0.253
-342.377	-136.259	-0.064	-0.008
-341.362	11.701	0.028	0.022
-340.348	-7.573	0.117	-0.080
-339.333	800.000	-0.024	-0.072
-338.318	-46.370	0.398	0.197
-337.304	-137.841	-0.275	-0.031
-336.289	-101.592	-0.146	0.036
-335.275	-63.079	0.159	-0.066
-334.260	-200.000	0.019	-0.172
-333.245	-200.000	0.000	0.006
-332.231	90.430	0.129	-0.146
-331.216	255.471	-0.074	0.128
-330.202	-33.612	0.106	0.059
-329.187	482.235	0.098	-0.224
-328.172	-104.445	0.249	0.058
-327.158	519.640	0.118	0.280
-326.143	-88.622	0.199	-0.060
-325.129	-200.000	0.011	0.207
-324.114	171.761	0.169	-0.245
-323.099	-23.147	-0.252	-0.153
-322.085	800.000	-0.024	-0.090
-321.070	-200.000	0.014	0.099
-320.056	-98.858	-0.373	0.096
-319.041	79.341	-0.109	0.117
-318.026	136.326	-0.181	-0.238
-317.012	62.373	0.199	-0.200
-315.997	184.575	0.107	-0.159
-314.983	-200.000	-0.036	0.383
-313.968	-200.000	-0.183	0.000
-312.953	37.552	0.067	-0.060
-311.939	-24.055	-0.139	-0.084
-310.924	-170.149	0.200	0.007
-309.910	-200.000	0.056	0.361
-308.895	124.983	0.220	0.279
-307.880	-37.794	-0.167	-0.090
-306.866	-200.000	0.003	0.023
-305.851	-200.000	-0.011	-0.055
-304.837	-110.075	0.145	-0.031
-303.822	361.281	0.178	-0.361
-302.807	8.343	0.222	-0.169
-301.793	113.517	0.153	-0.188
-300.778	-72.322	-0.167	-0.062
-299.764	-0.538	0.131	0.094
-298.749	-13.763	-0.088	-0.057
-297.735	13.051	0.145	0.113
-296.720	319.857	-0.077	-0.147
-295.705	-200.000	0.041	0.352
-294.691	-200.000	0.031	0.285
-293.676	-34.789	0.192	0.106
-292.662	-64.465	-0.143	0.059
-291.647	748.967	-0.121	-0.330
-290.632	-200.000	0.041	0.243
-289.618	642.446	-0.112	-0.288
-288.603	62.996	-0.211	-0.213
-287.589	120.818	0.047	-0.059
-286.574	-78.831	0.238	0.082
-285.559	800.000	-0.128	-0.493
-284.545	-59.177	0.130	-0.056
-283.530	800.000	0.097	0.410
-282.516	-200.000	-0.032	0.222
-281.501	-69.627	-0.059	-0.023
-280.486	-200.000	-0.018	0.096
-279.472	62.978	0.073	0.074
-278.457	614.061	0.125	-0.315
-277.443	800.000	-0.080	0.260
-276.428	-149.985	-0.127	0.010
-275.413	265.067	0.100	0.176
-274.399	800.000	-0.056	-0.205
-273.384	-129.507	0.147	0.020
-272.370	-146.657	0.080	0.007
-271.355	46.272	-0.310	0.290
-270.340	90.095	0.343	0.386
-269.326	217.560	-0.098	0.157
-268.311	-23.929	-0.122	0.074
-267.297	147.046	-0.185	-0.250
-266.282	-26.178	-0.220	-0.130
-265.267	-87.226	-0.061	-0.019
-264.253	89.140	0.104	-0.117
-263.238	-200.000	0.025	-0.202
-262.224	-67.636	-0.112	0.044
-261.209	-2.659	-0.145	-0.102
-260.195	-104.421	0.115	-0.027
-259.180	-58.908	0.254	-0.111
-258.165	-37.951	0.132	0.071
-257.151	800.000	0.082	0.344
-256.136	36.252	-0.209	-0.185
-255.122	-200.000	-0.033	-0.258
-254.107	-106.365	0.150	0.034
-253.092	232.091	-0.128	0.211
-252.078	181.110	0.163	0.242
-251.063	85.296	-0.178	-0.197
-250.049	-21.419	-0.020	0.012
-249.034	143.947	-0.127	0.171
-248.019	800.000	-0.026	-0.093
-247.005	25.602	0.193	0.161
-245.990	238.156	0.097	0.162
-244.976	-200.000	0.026	0.231
-243.961	-96.481	-0.202	-0.054
-242.946	800.000	0.058	0.189
-241.932	800.000	0.020	0.061
-240.917	-52.066	-0.248	0.116
-239.903	-99.865	-0.172	-0.043
-238.888	59.257	0.127	-0.126
-237.873	800.000	-0.056	-0.198
-236.859	-200.000	-0.007	0.078
-235.844	674.757	0.048	0.125
-234.830	-159.779	0.201	0.011
-233.815	-200.000	0.038	-0.342
-232.800	-123.178	0.267	-0.043
-231.786	197.179	0.082	0.126
-230.771	116.908	-0.107	-0.133
-229.757	-82.565	-0.202	-0.066
-228.742	-157.152	0.254	-0.016
-227.727	-200.000	0.011	-0.170
-226.713	-2.241	0.093	0.066
-225.698	52.072	-0.044	-0.042
-224.684	165.957	0.125	-0.178
-223.669	83.635	0.062	-0.068
-222.655	28.381	0.047	0.040
-221.640	656.219	0.051	0.132
-220.625	64.285	-0.088	-0.089
-219.611	-108.234	0.300	-0.065
-218.596	-184.749	-0.285	-0.005
-217.582	800.000	-0.107	0.327
-216.567	-39.881	-0.053	0.028
-215.552	21.828	0.426	0.349
-214.538	193.624	0.101	0.154
-213.523	355.907	0.146	-0.292
-212.509	-134.961	0.049	-0.006
-211.494	183.197	-0.203	0.302
-210.479	-200.000	-0.062	0.403
-209.465	-63.519	0.319	-0.132
-208.450	-200.000	-0.015	-0.161
-207.436	779.445	0.108	0.298
-206.421	11.945	0.195	0.150
-205.406	269.033	0.131	-0.231
-204.392	37.711	0.082	-0.073
-203.377	357.285	-0.090	-0.180
-202.363	-37.627	0.202	0.108
-201.348	-200.000	0.013	0.165
-200.333	800.000	0.069	-0.230
-199.319	220.707	-0.114	-0.184
-198.304	-96.756	0.150	0.040
-197.290	86.075	0.281	0.311
-196.275	800.000	-0.053	0.160
-195.260	777.270	-0.096	-0.264
-194.246	6.969	-0.019	-0.014
-193.231	85.793	-0.124	-0.137
-192.217	-77.113	-0.121	-0.042
-191.202	-200.000	0.018	-0.112
-190.187	-135.900	-0.210	0.025
-189.173	350.086	0.076	0.151
-188.158	215.725	0.146	0.232
-187.144	-4.532	-0.196	0.136
-186.129	-117.855	0.127	-0.023
-185.114	48.520	0.086	-0.081
-184.100	-200.000	0.003	0.222
-183.085	800.000	-0.035	0.099
-182.071	-92.795	-0.225	0.063
-181.056	181.742	-0.087	-0.128
-180.042	-200.000	-0.028	-0.215
-179.027	585.425	-0.065	-0.160
-178.012	-65.838	-0.243	0.098
-176.998	800.000	-0.018	-0.056
-175.983	167.101	-0.174	0.248
-174.969	-147.941	-0.280	-0.023
-173.954	188.393	-0.136	0.204
-172.939	326.755	-0.092	0.177
-171.925	-92.077	0.224	0.064
-170.910	-192.665	-0.262	0.002
-169.896	-173.034	-0.024	0.001
-168.881	-200.000	-0.043	-0.259
-167.866	-139.068	0.188	-0.020
-166.852	-200.000	-0.000	0.109
-165.837	145.680	-0.208	-0.280
-164.823	117.397	-0.118	-0.145
-163.808	181.673	-0.125	0.184
-162.793	800.000	0.162	0.478
-161.779	-200.000	-0.010	-0.044
-160.764	101.540	-0.111	-0.130
-159.750	-126.359	0.283	0.042
-158.735	447.516	0.080	0.177
-157.720	-37.869	-0.081	0.043
-156.706	-5.140	0.289	-0.199
-155.691	-181.197	-0.379	-0.008
-154.677	111.718	-0.145	-0.175
-153.662	-3.563	0.241	-0.168
-152.647	69.091	-0.156	-0.161
-151.633	113.270	-0.213	-0.259
-150.618	-128.490	-0.465	-0.066
-149.604	97.663	0.098	-0.113
-148.589	-104.930	-0.194	0.045
-147.574	-113.958	-0.021	-0.004
-146.560	-84.986	0.217	-0.068
-145.545	-78.935	0.343	0.117
-144.531	-38.076	0.061	-0.032
-143.516	310.750	0.101	-0.190
-142.502	-162.451	0.198	0.010
-141.487	137.775	0.120	0.158
-140.472	1.516	-0.118	0.085
-139.458	-71.268	0.213	0.080
-138.443	-101.729	0.188	0.046
-137.429	800.000	0.064	0.182
-136.414	32.955	-0.129	-0.112
-135.399	94.331	0.073	-0.083
-134.385	-200.000	-0.014	0.089
-133.370	83.842	0.116	0.127
-132.356	-150.672	0.226	-0.017
-131.341	263.206	-0.174	-0.303
-130.326	-71.268	0.158	0.059
-129.312	-91.348	0.169	0.048
-128.297	-118.188	-0.178	-0.032
-127.283	800.000	-0.115	0.333
-126.268	-200.000	0.017	0.121
-125.253	-94.841	-0.015	0.004
-124.239	-10.392	-0.200	0.133
-123.224	-120.474	0.161	0.027
-122.210	14.445	0.086	-0.067
-121.195	-18.414	0.332	0.208
