DTS Sentinel unit serial number:	SN413079Multiplexer serial number:	ORYXHardware model number:	OX4-SRSoftware version number:	ORYX F/W v4.00 Oryx Data Collector v3.7.2.0data status	okinstallation	princeton_trtdifferential loss correction	single-endedforward channel	channel 2reverse channel	N/Adate	2019/09/15time	10:47:35forward acquisition time	60.00reverse acquisition time	0.00gamma	496.2192k internal	0.2315k external	0.2315temperature offset calibration	1.0016default loss term (dB/km)	0.3790temperature slope calibration	1.0000multiplexer offset coefficient	1.0000multiplexer slope coefficient	1.0000fibre end	0.00T internal ref (°C)	34.25T ext. ref 1 (°C)	5.03T ext. ref 2 (°C)	29.61length (m)	temperature (°C)	Stokes	anti-Stokes-747.200	-33.543	0.017	-0.010
-746.185	40.661	-0.101	-0.092
-745.171	129.464	-0.075	-0.097
-744.156	-181.460	-0.214	0.004
-743.142	81.333	-0.166	-0.181
-742.127	-93.156	0.061	-0.017
-741.112	-94.361	-0.194	-0.054
-740.098	-61.484	0.182	-0.078
-739.083	-176.647	0.412	-0.011
-738.069	-200.000	0.017	0.176
-737.054	66.430	-0.121	-0.125
-736.039	-200.000	-0.024	-0.312
-735.025	-102.494	0.463	0.112
-734.010	-128.013	-0.226	-0.033
-732.996	-200.000	-0.001	0.089
-731.981	-99.794	-0.147	0.037
-730.966	213.155	-0.055	-0.088
-729.952	-138.520	-0.091	0.010
-728.937	-145.727	-0.317	-0.029
-727.923	-200.000	0.030	0.136
-726.908	-44.005	-0.412	-0.210
-725.894	565.825	-0.085	-0.209
-724.879	-200.000	0.034	-0.192
-723.864	121.664	0.149	0.188
-722.850	-3.988	0.109	-0.077
-721.835	-200.000	0.067	-0.476
-720.821	537.022	-0.065	-0.156
-719.806	-117.220	-0.094	-0.017
-718.791	-54.381	-0.367	0.169
-717.777	103.550	0.061	-0.072
-716.762	-1.666	0.159	0.113
-715.748	688.056	0.106	0.282
-714.733	-200.000	-0.014	0.067
-713.718	-141.682	-0.264	-0.027
-712.704	-28.299	0.121	-0.070
-711.689	-99.233	-0.281	0.072
-710.675	153.759	-0.143	0.198
-709.660	-200.000	0.024	-0.292
-708.645	800.000	-0.054	-0.201
-707.631	74.876	-0.043	0.046
-706.616	14.194	-0.115	0.091
-705.602	-200.000	0.010	-0.332
-704.587	-59.359	-0.200	-0.087
-703.572	240.471	-0.120	0.203
-702.558	-200.000	0.006	0.376
-701.543	23.739	-0.193	-0.161
-700.529	-198.331	-0.075	0.000
-699.514	39.311	0.022	0.020
-698.499	132.053	0.102	-0.132
-697.485	-90.765	-0.289	-0.084
-696.470	382.647	-0.170	-0.354
-695.456	193.559	0.080	-0.122
-694.441	154.935	0.144	-0.200
-693.426	800.000	-0.019	-0.065
-692.412	-80.980	0.124	-0.041
-691.397	-71.445	0.176	-0.067
-690.383	-200.000	-0.004	-0.361
-689.368	-82.765	-0.111	-0.036
-688.354	-18.474	-0.222	0.140
-687.339	-9.326	-0.126	-0.085
-686.324	800.000	-0.028	0.098
-685.310	162.570	0.094	0.134
-684.295	94.416	0.149	-0.171
-683.281	800.000	0.070	-0.215
-682.266	106.986	-0.116	-0.139
-681.251	-41.308	0.255	0.133
-680.237	-120.997	-0.208	-0.035
-679.222	-27.231	-0.188	-0.111
-678.208	395.103	0.078	-0.163
-677.193	-200.000	-0.007	0.217
-676.178	-135.254	0.255	-0.031
-675.164	800.000	-0.075	-0.227
-674.149	-87.679	0.084	0.026
-673.135	114.972	-0.220	0.271
-672.120	-8.878	-0.109	-0.074
-671.105	87.303	0.086	0.096
-670.091	736.493	-0.107	-0.289
-669.076	-29.771	-0.384	-0.221
-668.062	-21.097	-0.158	-0.097
-667.047	-57.901	0.293	-0.129
-666.032	323.719	-0.010	0.020
-665.018	-28.955	-0.249	-0.145
-664.003	-28.823	-0.227	-0.132
-662.989	-200.000	0.002	0.118
-661.974	-79.501	-0.312	0.106
-660.959	58.004	0.201	-0.198
-659.945	-133.737	-0.197	0.025
-658.930	55.620	0.189	0.185
-657.916	275.060	0.214	0.382
-656.901	-117.147	-0.104	0.019
-655.886	-94.296	0.307	-0.085
-654.872	-110.210	0.036	-0.007
-653.857	299.672	0.306	0.569
-652.843	432.966	-0.178	0.391
-651.828	-200.000	0.009	0.128
-650.814	7.757	0.196	0.148
-649.799	-164.244	-0.584	-0.027
-648.784	182.086	-0.131	-0.194
-647.770	-21.574	0.326	0.201
-646.755	-66.642	0.080	0.032
-645.741	-103.574	0.400	-0.095
-644.726	0.019	0.155	-0.112
-643.711	-112.069	0.161	0.033
-642.697	-122.264	-0.175	-0.029
-641.682	-55.940	0.186	-0.084
-640.668	-174.546	-0.306	0.009
-639.653	-95.869	-0.122	-0.033
-638.638	-4.408	0.164	0.115
-637.624	201.271	-0.039	-0.060
-636.609	78.967	-0.002	-0.002
-635.595	-132.116	-0.402	-0.053
-634.580	-57.897	0.126	0.055
-633.565	449.272	0.145	-0.323
-632.551	40.923	-0.118	0.107
-631.536	800.000	0.038	-0.134
-630.522	-90.463	0.182	0.053
-629.507	-63.417	-0.206	-0.086
-628.492	-1.304	0.118	-0.084
-627.478	-68.653	0.172	-0.067
-626.463	67.228	-0.171	-0.176
-625.449	800.000	-0.098	-0.330
-624.434	124.865	-0.073	0.093
-623.419	-181.746	0.299	-0.006
-622.405	-187.699	-0.252	0.003
-621.390	202.847	0.103	-0.160
-620.376	-87.222	-0.003	0.001
-619.361	-37.549	-0.122	0.066
-618.346	112.803	0.130	-0.159
-617.332	-94.510	0.110	0.030
-616.317	176.809	0.144	-0.211
-615.303	-39.999	0.184	-0.097
-614.288	293.489	0.129	-0.238
-613.273	-32.438	-0.208	0.117
-612.259	153.705	0.184	-0.254
-611.244	98.499	0.242	-0.281
-610.230	-111.673	0.078	-0.016
-609.215	-200.000	-0.013	-0.186
-608.201	-64.598	-0.285	0.116
-607.186	151.653	-0.155	-0.213
-606.171	-200.000	-0.011	0.104
-605.157	-200.000	0.059	-0.300
-604.142	75.776	-0.114	-0.121
-603.128	-33.197	0.092	0.051
-602.113	110.212	0.067	0.080
-601.098	800.000	0.096	-0.422
-600.084	-200.000	-0.088	0.403
-599.069	-200.000	0.015	0.170
-598.055	-126.264	-0.396	0.060
-597.040	-52.964	-0.065	0.030
-596.025	-176.365	-0.434	0.011
-595.011	-130.153	-0.242	0.033
-593.996	216.112	0.104	0.167
-592.982	-94.154	0.113	0.031
-591.967	-102.852	0.112	-0.027
-590.952	41.805	0.269	-0.246
-589.938	-200.000	0.016	-0.241
-588.923	800.000	-0.019	-0.058
-587.909	-97.724	-0.456	-0.119
-586.894	-57.779	0.300	0.132
-585.879	-200.000	-0.019	0.208
-584.865	-200.000	0.026	0.241
-583.850	59.439	0.270	-0.268
-582.836	-114.499	-0.632	-0.122
-581.821	-147.309	0.200	-0.017
-580.806	115.129	0.255	-0.313
-579.792	-33.005	0.102	0.057
-578.777	-97.692	0.231	-0.060
-577.763	-181.454	-0.246	0.005
-576.748	-112.657	0.110	-0.022
-575.733	-200.000	0.011	0.291
-574.719	356.256	0.158	0.317
-573.704	-23.921	-0.233	0.141
-572.690	115.570	-0.200	0.246
-571.675	13.678	-0.124	-0.097
-570.661	-149.655	-0.127	0.010
-569.646	800.000	0.091	-0.325
-568.631	-83.899	0.061	0.020
-567.617	-118.012	-0.099	0.018
-566.602	-83.747	-0.197	0.063
-565.588	-200.000	-0.053	0.256
-564.573	-200.000	-0.044	0.198
-563.558	-2.733	0.218	0.153
-562.544	335.429	0.099	0.192
-561.529	800.000	0.070	0.217
-560.515	-183.495	0.170	0.003
-559.500	-200.000	-0.024	0.272
-558.485	369.653	-0.028	-0.057
-557.471	-9.960	0.246	0.164
-556.456	112.747	-0.097	-0.118
-555.442	209.515	-0.204	-0.322
-554.427	-24.596	-0.356	-0.213
-553.412	-1.777	0.056	0.040
-552.398	111.852	0.146	-0.177
-551.383	89.644	0.201	0.225
-550.369	226.746	-0.054	-0.088
-549.354	-114.890	0.058	0.011
-548.339	-160.188	0.141	0.008
-547.325	87.304	-0.143	0.159
-546.310	-200.000	-0.005	-0.079
-545.296	-200.000	0.028	0.182
-544.281	-94.949	0.484	-0.132
-543.266	-23.220	0.071	0.043
-542.252	144.359	-0.212	0.284
-541.237	-170.415	0.394	-0.014
-540.223	-47.790	-0.195	-0.095
-539.208	104.934	0.208	0.247
-538.193	154.032	0.085	0.117
-537.179	92.705	-0.052	-0.059
-536.164	-85.617	-0.280	-0.087
-535.150	176.916	-0.157	0.230
-534.135	-123.403	-0.335	-0.054
-533.121	-200.000	-0.015	0.247
-532.106	3.133	-0.232	-0.169
-531.091	-7.147	-0.159	-0.108
-530.077	-200.000	-0.012	-0.155
-529.062	-66.086	0.232	0.093
-528.048	316.663	-0.045	-0.086
-527.033	309.525	0.216	-0.407
-526.018	-52.613	-0.265	-0.123
-525.004	-114.749	0.412	0.079
-523.989	800.000	0.023	-0.087
-522.975	-187.332	0.280	0.004
-521.960	-200.000	-0.040	-0.271
-520.945	6.695	-0.137	0.102
-519.931	413.949	-0.179	0.383
-518.916	-200.000	-0.069	0.443
-517.902	-54.606	-0.234	0.106
-516.887	787.508	-0.051	0.141
-515.872	-89.978	-0.159	-0.047
-514.858	-30.013	0.136	-0.078
-513.843	-109.124	0.188	-0.040
-512.829	15.699	0.025	-0.019
-511.814	36.082	-0.180	-0.159
-510.799	-102.987	0.122	0.029
-509.785	218.694	0.106	0.171
-508.770	-200.000	0.039	0.367
-507.756	-117.907	-0.182	0.033
-506.741	-71.671	0.313	-0.117
-505.726	-200.000	-0.014	0.226
-504.712	-200.000	0.052	-0.283
-503.697	95.185	-0.139	-0.159
-502.683	492.616	-0.128	0.294
-501.668	183.954	0.129	0.192
-500.653	89.885	-0.155	0.173
-499.639	-148.368	-0.281	0.023
-498.624	-21.786	0.210	0.128
-497.610	-161.702	0.003	0.000
-496.595	-75.666	0.276	0.098
-495.581	800.000	0.047	0.174
-494.566	384.679	0.050	0.103
-493.551	326.033	-0.028	-0.054
-492.537	-28.133	-0.125	0.072
-491.522	-200.000	-0.014	0.127
-490.508	64.613	0.141	-0.142
-489.493	800.000	-0.072	-0.233
-488.478	39.638	-0.147	0.133
-487.464	-16.265	-0.136	-0.087
-486.449	296.556	-0.034	-0.062
-485.435	152.547	0.207	0.283
-484.420	24.587	0.247	-0.205
-483.405	610.397	0.015	-0.038
-482.391	-40.192	0.199	-0.104
-481.376	-200.000	-0.001	-0.165
-480.362	-52.618	-0.236	0.109
-479.347	215.048	0.160	0.254
-478.332	582.796	-0.077	-0.190
-477.318	271.189	-0.113	0.200
-476.303	-31.771	-0.063	0.035
-475.289	369.441	-0.131	-0.265
-474.274	50.881	0.260	0.247
-473.259	160.321	0.043	-0.060
-472.245	-153.786	0.150	-0.010
-471.230	2.066	0.419	-0.304
-470.216	21.435	0.225	0.183
-469.201	656.363	-0.077	-0.198
-468.186	45.803	0.214	0.199
-467.172	800.000	-0.057	-0.243
-466.157	-200.000	-0.015	0.088
-465.143	-71.452	-0.142	0.053
-464.128	-42.021	0.042	-0.021
-463.113	295.416	0.151	0.278
-462.099	3.067	-0.101	-0.074
-461.084	800.000	-0.038	-0.159
-460.070	-18.840	-0.222	-0.138
-459.055	-200.000	-0.011	0.061
-458.040	-200.000	-0.003	0.131
-457.026	-145.492	-0.336	0.030
-456.011	-200.000	0.047	-0.321
-454.997	-200.000	-0.014	-0.209
-453.982	160.900	-0.235	0.329
-452.968	215.497	-0.106	0.169
-451.953	114.020	0.223	-0.271
-450.938	318.134	0.031	-0.059
-449.924	95.877	0.105	0.121
-448.909	-72.580	0.237	-0.087
-447.895	158.934	0.157	-0.219
-446.880	-27.727	-0.274	0.159
-445.865	158.967	-0.089	0.123
-444.851	368.206	0.154	0.312
-443.836	537.464	-0.054	0.129
-442.822	-107.906	-0.552	0.120
-441.807	-200.000	0.002	0.083
-440.792	-200.000	-0.013	0.174
-439.778	388.780	0.109	0.226
-438.763	183.959	0.216	0.319
-437.749	-59.325	-0.049	-0.021
-436.734	-135.310	-0.140	-0.017
-435.719	-30.997	-0.233	-0.131
-434.705	-7.944	0.127	-0.086
-433.690	800.000	-0.045	0.169
-432.676	-200.000	-0.021	-0.269
-431.661	-16.956	-0.143	-0.091
-430.646	12.870	0.098	-0.075
-429.632	-59.374	-0.219	-0.094
-428.617	-101.164	0.188	0.046
-427.603	-87.074	-0.151	0.046
-426.588	26.191	0.163	0.136
-425.573	40.979	0.123	0.111
-424.559	-69.342	0.331	-0.127
-423.544	-200.000	0.020	0.212
-422.530	-122.731	-0.221	-0.036
-421.515	-85.661	-0.220	-0.068
-420.500	40.482	-0.413	0.372
-419.486	636.979	-0.047	-0.119
-418.471	-59.362	0.263	-0.113
-417.457	-51.856	-0.085	0.039
-416.442	220.151	0.167	0.268
-415.428	-65.862	0.093	0.037
-414.413	150.517	-0.102	0.138
-413.398	74.182	0.083	-0.087
-412.384	11.028	0.133	0.102
-411.369	800.000	0.075	0.289
-410.355	-76.261	-0.263	0.093
-409.340	19.948	0.118	0.095
-408.325	93.858	-0.167	0.189
-407.311	-200.000	0.010	-0.074
-406.296	-200.000	-0.000	-0.229
-405.282	-200.000	-0.069	-0.410
-404.267	123.056	0.072	0.091
-403.252	100.701	-0.155	0.180
-402.238	800.000	-0.085	-0.250
-401.223	194.587	-0.078	-0.119
-400.209	-75.540	0.205	-0.073
-399.194	-157.694	0.195	-0.012
-398.179	91.850	0.162	0.182
-397.165	283.205	0.126	-0.227
-396.150	45.270	0.121	0.112
-395.136	-49.863	0.344	0.163
-394.121	424.297	0.093	0.200
-393.106	760.665	0.143	-0.389
-392.092	79.213	-0.096	0.103
-391.077	231.298	-0.010	0.016
-390.063	-189.570	0.360	-0.004
-389.048	-200.000	-0.033	0.404
-388.033	800.000	-0.019	0.079
-387.019	15.452	-0.086	0.067
-386.004	-45.388	0.065	-0.032
-384.990	-134.077	0.040	-0.005
-383.975	56.205	0.139	-0.135
-382.960	33.269	0.161	-0.140
-381.946	800.000	-0.090	-0.345
-380.931	638.215	-0.129	-0.327
-379.917	-10.741	-0.194	0.128
-378.902	800.000	0.072	-0.287
-377.888	554.484	-0.061	-0.147
-376.873	-194.860	0.318	0.002
-375.858	-115.137	0.256	0.048
-374.844	141.810	-0.085	-0.113
-373.829	-155.933	-0.236	0.015
-372.815	-111.350	-0.344	-0.070
-371.800	-107.423	-0.479	-0.105
-370.785	41.537	-0.101	-0.091
-369.771	-124.784	-0.109	0.017
-368.756	800.000	0.056	0.180
-367.742	-100.081	-0.326	0.081
-366.727	-53.680	0.215	0.098
-365.712	800.000	-0.069	0.196
-364.698	-3.158	-0.168	-0.117
-363.683	73.001	0.062	-0.065
-362.669	29.216	-0.059	0.050
-361.654	-99.214	0.295	0.074
-360.639	454.557	0.096	-0.213
-359.625	-89.919	-0.076	0.022
-358.610	-124.561	-0.221	-0.034
-357.596	-200.000	0.075	-0.390
-356.581	800.000	-0.124	-0.432
-355.566	540.679	0.071	0.169
-354.552	14.113	0.071	0.055
-353.537	47.353	-0.124	-0.116
-352.523	-200.000	-0.021	0.110
-351.508	-149.480	-0.261	-0.021
-350.493	-80.121	-0.569	-0.190
-349.479	655.658	-0.044	-0.113
-348.464	-92.723	-0.245	-0.068
-347.450	-70.060	-0.278	0.106
-346.435	-178.507	-0.182	-0.004
-345.420	260.530	0.148	-0.256
-344.406	-200.000	-0.079	-0.421
-343.391	-81.565	-0.161	-0.053
-342.377	-32.104	0.062	-0.035
-341.362	-200.000	0.021	0.095
-340.348	-62.159	-0.197	-0.082
-339.333	9.781	-0.104	-0.079
-338.318	-52.727	-0.267	0.123
-337.304	800.000	-0.058	-0.233
-336.289	6.237	-0.274	0.203
-335.275	-98.736	-0.178	-0.045
-334.260	172.293	-0.065	0.093
-333.245	16.355	0.161	0.127
-332.231	72.162	0.058	-0.060
-331.216	800.000	-0.021	-0.070
-330.202	115.052	-0.123	0.149
-329.187	-39.809	0.260	-0.135
-328.172	-200.000	-0.042	0.217
-327.158	-200.000	-0.008	-0.137
-326.143	125.394	0.195	0.245
-325.129	345.152	0.017	-0.033
-324.114	60.546	0.266	-0.262
-323.099	587.393	0.071	-0.174
-322.085	-72.484	0.169	-0.062
-321.070	-24.026	-0.156	0.093
-320.056	-200.000	-0.005	-0.191
-319.041	-200.000	0.032	0.298
-318.026	-163.119	-0.307	-0.015
-317.012	-134.974	0.083	-0.010
-315.997	-72.285	-0.367	-0.135
-314.983	-54.837	0.119	0.054
-313.968	459.313	0.073	-0.161
-312.953	-128.117	0.302	-0.043
-311.939	-200.000	0.041	0.181
-310.924	-44.612	0.294	0.147
-309.910	-96.580	0.047	0.012
-308.895	-90.791	0.119	-0.034
-307.880	422.664	-0.114	0.243
-306.866	26.438	-0.114	0.095
-305.851	9.723	-0.064	-0.049
-304.837	-196.450	0.351	-0.002
-303.822	-54.564	-0.406	0.183
-302.807	188.694	0.096	-0.143
-301.793	-6.320	0.266	0.181
-300.778	210.312	-0.102	-0.159
-299.764	6.516	-0.156	0.115
-298.749	187.252	0.136	-0.202
-297.735	-134.528	-0.102	-0.012
-296.720	-101.197	0.096	-0.023
-295.705	-200.000	0.073	-0.342
-294.691	-200.000	-0.011	-0.059
-293.676	21.376	0.247	0.200
-292.662	-167.445	0.294	-0.012
-291.647	98.674	-0.111	-0.127
-290.632	-116.819	-0.080	0.015
-289.618	-200.000	0.023	-0.192
-288.603	-200.000	-0.042	-0.289
-287.589	-94.842	0.190	-0.051
-286.574	-36.630	-0.317	0.170
-285.559	46.459	0.139	0.128
-284.545	168.001	-0.234	0.331
-283.530	-137.428	-0.369	-0.042
-282.516	-140.332	0.389	-0.040
-281.501	-70.603	-0.252	0.095
-280.486	-200.000	0.011	-0.235
-279.472	800.000	0.053	-0.206
-278.457	800.000	0.103	0.320
-277.443	-159.851	-0.169	-0.009
-276.428	-68.743	0.174	0.067
-275.413	800.000	0.040	0.130
-274.399	-200.000	-0.024	0.430
-273.384	800.000	-0.029	-0.122
-272.370	-200.000	-0.004	0.144
-271.355	-200.000	-0.035	0.260
-270.340	-200.000	-0.007	-0.042
-269.326	243.830	0.152	0.254
-268.311	563.080	-0.095	0.230
-267.297	-200.000	-0.057	-0.386
-266.282	227.775	-0.111	0.180
-265.267	-200.000	0.013	-0.160
-264.253	-9.579	-0.247	0.164
-263.238	-28.420	0.154	0.088
-262.224	55.499	0.036	0.034
-261.209	344.893	-0.035	0.069
-260.195	800.000	-0.018	0.061
-259.180	-82.371	0.167	-0.054
-258.165	-95.403	0.351	0.094
-257.151	-61.858	-0.209	-0.087
-256.136	-100.181	0.256	0.063
-255.122	-13.653	0.307	0.198
-254.107	57.395	0.282	0.274
-253.092	451.716	0.118	-0.258
-252.078	14.978	0.400	0.311
-251.063	128.363	0.102	-0.129
-250.049	88.796	0.065	-0.072
-249.034	20.814	0.190	0.153
-248.019	186.078	0.046	-0.068
-247.005	-29.533	-0.195	-0.111
-245.990	119.847	-0.227	0.280
-244.976	800.000	0.073	0.240
-243.961	-39.183	-0.305	0.159
-242.946	167.672	-0.152	0.214
-241.932	-121.737	-0.155	0.026
-240.917	800.000	-0.112	-0.326
-239.903	105.984	0.106	-0.125
-238.888	-131.499	0.085	-0.011
-237.873	-147.754	0.214	0.018
-236.859	51.365	-0.241	-0.227
-235.844	465.402	0.148	-0.329
-234.830	81.320	0.103	-0.111
-233.815	52.149	-0.175	-0.166
-232.800	43.396	-0.185	-0.167
-231.786	283.133	-0.088	0.156
-230.771	573.809	-0.074	0.178
-229.757	343.063	0.190	-0.370
-228.742	-25.347	-0.227	-0.133
-227.727	214.051	0.140	0.219
-226.713	62.951	0.239	0.238
-225.698	634.416	-0.057	0.143
-224.684	-109.144	0.336	0.071
-223.669	-48.353	0.154	-0.074
-222.655	-73.075	-0.249	0.091
-221.640	-21.605	-0.136	0.082
-220.625	106.883	0.169	-0.199
-219.611	-86.746	0.362	0.110
-218.596	-64.961	-0.267	0.107
-217.582	-200.000	-0.019	0.127
-216.567	-200.000	-0.015	-0.179
-215.552	-141.272	-0.414	-0.042
-214.538	123.100	0.305	-0.379
-213.523	23.827	-0.175	-0.143
-212.509	-11.842	0.256	0.166
-211.494	-72.585	-0.230	0.084
-210.479	-200.000	0.005	0.140
-209.465	77.436	-0.109	-0.115
-208.450	-40.175	-0.185	0.096
-207.436	178.699	-0.265	-0.384
-206.421	160.544	0.245	0.339
-205.406	-124.677	0.129	-0.020
-204.392	-200.000	-0.014	-0.201
-203.377	-200.000	0.012	0.136
-202.363	-78.238	0.155	0.053
-201.348	-25.397	0.131	-0.077
-200.333	-200.000	0.034	0.223
-199.319	-59.596	-0.337	0.143
-198.304	-27.200	0.113	0.065
-197.290	-106.051	-0.117	0.026
-196.275	72.706	-0.220	-0.228
-195.260	-82.725	0.095	0.031
-194.246	-133.120	-0.162	0.020
-193.231	-115.413	-0.196	0.037
-192.217	-113.776	0.259	0.050
-191.202	-80.586	0.315	-0.104
-190.187	409.466	0.106	-0.223
-189.173	568.795	0.020	-0.049
-188.158	-200.000	0.019	0.307
-187.144	-19.799	0.057	-0.035
-186.129	-64.225	0.031	-0.012
-185.114	94.769	-0.172	0.194
-184.100	-198.068	0.441	-0.003
-183.085	-82.035	-0.149	-0.048
-182.071	800.000	-0.023	-0.089
-181.056	-71.784	0.206	-0.076
-180.042	-200.000	0.031	0.000
-179.027	40.223	0.136	0.122
-178.012	-200.000	0.010	-0.360
-176.998	-160.420	-0.276	0.015
-175.983	686.025	0.062	0.161
-174.969	459.090	-0.056	-0.123
-173.954	-50.399	0.047	0.022
-172.939	299.995	0.099	-0.181
-171.925	444.061	-0.082	-0.179
-170.910	318.179	-0.130	0.244
-169.896	671.207	-0.098	-0.251
-168.881	800.000	0.079	0.266
-167.866	-73.419	-0.165	0.060
-166.852	110.827	-0.093	-0.110
-165.837	-200.000	0.028	-0.385
-164.823	358.692	0.174	-0.345
-163.808	-200.000	0.030	-0.180
-162.793	192.898	-0.021	-0.032
-161.779	-69.362	-0.196	0.074
-160.764	354.172	0.059	0.116
-159.750	-200.000	0.000	-0.019
-158.735	30.100	0.381	0.322
-157.720	-29.231	0.185	0.105
-156.706	800.000	0.118	0.383
-155.691	95.249	-0.175	-0.197
-154.677	212.371	-0.036	0.056
-153.662	-200.000	0.009	0.119
-152.647	-119.537	0.123	-0.021
-151.633	159.505	-0.158	-0.218
-150.618	-38.808	-0.169	-0.088
-149.604	295.674	-0.122	0.222
-148.589	244.496	0.037	-0.061
-147.574	212.217	-0.240	0.374
-146.560	-200.000	-0.002	-0.130
-145.545	-200.000	-0.009	-0.250
-144.531	446.019	-0.175	-0.381
-143.516	-200.000	-0.085	-0.568
-142.502	-9.495	0.285	-0.188
-141.487	17.257	-0.284	0.223
-140.472	136.646	0.084	0.109
-139.458	-175.970	-0.205	-0.005
-138.443	318.608	0.038	-0.071
-137.429	-127.874	-0.186	-0.026
-136.414	-29.999	0.148	0.083
-135.399	-200.000	0.014	0.272
-134.385	221.101	0.038	0.060
-133.370	-73.657	0.262	-0.094
-132.356	-38.350	-0.512	0.268
-131.341	718.613	0.028	0.073
-130.326	-110.720	0.344	-0.070
-129.312	-74.195	-0.327	0.117
-128.297	31.763	0.250	0.213
-127.283	-128.818	0.453	-0.063
-126.268	800.000	-0.065	-0.244
-125.253	-200.000	0.014	-0.276
-124.239	-94.379	0.140	-0.038
-123.224	187.689	-0.201	0.296
-122.210	-115.797	-0.043	-0.008
