DTS Sentinel unit serial number:	SN413079Multiplexer serial number:	ORYXHardware model number:	OX4-SRSoftware version number:	ORYX F/W v4.00 Oryx Data Collector v3.7.2.0data status	okinstallation	princeton_trtdifferential loss correction	single-endedforward channel	channel 2reverse channel	N/Adate	2019/09/17time	16:31:35forward acquisition time	60.00reverse acquisition time	0.00gamma	496.2192k internal	0.2293k external	0.2293temperature offset calibration	0.9985default loss term (dB/km)	0.3790temperature slope calibration	1.0000multiplexer offset coefficient	1.0000multiplexer slope coefficient	1.0000fibre end	0.00T internal ref (°C)	41.62T ext. ref 1 (°C)	0.36T ext. ref 2 (°C)	38.29length (m)	temperature (°C)	Stokes	anti-Stokes-747.200	270.223	0.163	0.293
-746.185	-200.000	0.032	0.270
-745.171	107.639	-0.220	-0.268
-744.156	-50.763	-0.120	0.058
-743.142	-74.118	0.212	-0.079
-742.127	55.155	0.168	0.166
-741.112	-62.336	0.201	-0.085
-740.098	19.584	-0.352	0.290
-739.083	-42.587	0.066	-0.034
-738.069	97.356	-0.496	0.583
-737.054	-47.587	-0.035	0.017
-736.039	-147.754	0.058	-0.005
-735.025	800.000	-0.036	0.112
-734.010	147.376	-0.199	-0.274
-732.996	-143.995	-0.378	-0.036
-731.981	25.945	-0.206	0.176
-730.966	800.000	-0.122	0.363
-729.952	47.343	0.017	0.017
-728.937	800.000	-0.065	-0.278
-727.923	107.479	-0.243	-0.296
-726.908	153.023	0.205	-0.287
-725.894	-170.968	-0.283	-0.010
-724.879	102.575	0.224	0.268
-723.864	-145.316	-0.192	-0.018
-722.850	14.650	-0.303	0.242
-721.835	-52.455	-0.090	-0.043
-720.821	-130.714	0.207	-0.029
-719.806	-200.000	0.000	0.171
-718.791	128.511	-0.196	-0.255
-717.777	-57.971	0.203	0.091
-716.762	544.317	0.037	-0.090
-715.748	-40.820	-0.257	0.136
-714.733	262.390	0.047	0.083
-713.718	786.421	-0.154	0.433
-712.704	-200.000	-0.010	0.279
-711.689	-200.000	0.017	-0.087
-710.675	39.066	-0.071	-0.065
-709.660	-46.348	-0.378	-0.190
-708.645	-58.421	0.181	-0.080
-707.631	800.000	-0.046	-0.132
-706.616	572.214	-0.034	-0.084
-705.602	112.232	-0.043	0.053
-704.587	-15.493	0.139	0.091
-703.572	207.548	0.187	0.298
-702.558	-200.000	0.095	0.000
-701.543	186.460	0.144	-0.219
-700.529	-200.000	0.044	-0.233
-699.514	800.000	-0.021	-0.088
-698.499	141.107	0.387	-0.522
-697.485	-5.394	0.092	0.064
-696.470	800.000	-0.041	0.152
-695.456	56.988	-0.114	0.113
-694.441	-89.903	0.162	0.048
-693.426	800.000	-0.027	-0.116
-692.412	-44.748	-0.109	-0.056
-691.397	-148.948	0.311	-0.026
-690.383	-82.081	0.255	0.085
-689.368	3.575	0.152	0.113
-688.354	5.855	0.169	-0.128
-687.339	77.177	-0.142	0.154
-686.324	54.144	-0.120	0.118
-685.310	199.365	-0.034	0.054
-684.295	800.000	-0.071	0.235
-683.281	-177.988	-0.034	0.001
-682.266	-200.000	-0.028	-0.249
-681.251	0.142	0.297	-0.216
-680.237	-176.629	0.420	-0.011
-679.222	-200.000	-0.036	0.369
-678.208	-126.057	-0.124	-0.019
-677.193	-200.000	0.032	-0.272
-676.178	-80.114	0.209	-0.071
-675.164	-130.292	-0.330	0.046
-674.149	-0.465	0.096	0.070
-673.135	-120.495	-0.412	0.071
-672.120	-47.143	-0.152	-0.075
-671.105	299.361	-0.122	0.229
-670.091	800.000	0.030	-0.090
-669.076	577.092	0.124	-0.310
-668.062	-200.000	0.082	-0.402
-667.047	178.755	-0.064	0.096
-666.032	168.875	-0.104	-0.151
-665.018	11.717	0.221	0.173
-664.003	-116.212	0.195	0.037
-662.989	164.392	0.035	0.050
-661.974	332.991	-0.049	0.097
-660.959	46.932	-0.070	-0.067
-659.945	116.128	0.371	-0.464
-658.930	146.066	-0.133	0.182
-657.916	114.306	-0.157	0.195
-656.901	-200.000	-0.020	-0.295
-655.886	595.017	-0.057	0.143
-654.872	-200.000	0.006	-0.175
-653.857	-88.631	-0.169	-0.051
-652.843	-200.000	0.038	-0.244
-651.828	800.000	-0.017	0.069
-650.814	-200.000	-0.080	-0.360
-649.799	113.561	-0.033	-0.041
-648.784	24.001	-0.088	0.074
-647.770	70.009	-0.022	0.023
-646.755	435.501	-0.049	0.108
-645.741	-78.366	0.151	-0.053
-644.726	-200.000	-0.002	-0.201
-643.711	-20.321	0.232	0.145
-642.697	-127.743	-0.131	-0.019
-641.682	-142.581	0.138	0.014
-640.668	-200.000	-0.006	-0.160
-639.653	-103.821	-0.262	-0.062
-638.638	-97.531	-0.121	0.032
-637.624	-75.618	0.165	0.060
-636.609	5.561	0.126	-0.095
-635.595	-30.627	-0.140	0.081
-634.580	-87.073	0.268	-0.083
-633.565	-112.149	0.375	-0.077
-632.551	-175.447	0.238	-0.007
-631.536	-200.000	-0.029	0.267
-630.522	-80.185	-0.373	-0.127
-629.507	-103.209	-0.171	-0.041
-628.492	-24.095	0.259	-0.157
-627.478	0.851	-0.198	0.144
-626.463	-200.000	0.014	-0.118
-625.449	15.052	0.075	0.060
-624.434	-200.000	-0.026	0.424
-623.419	800.000	0.070	0.199
-622.405	-63.898	-0.211	0.088
-621.390	-200.000	-0.003	0.129
-620.376	-52.327	-0.191	-0.090
-619.361	-59.792	0.203	0.088
-618.346	123.124	0.125	-0.160
-617.332	-20.803	0.109	-0.068
-616.317	74.092	-0.219	0.234
-615.303	751.400	0.072	0.197
-614.288	10.401	0.087	0.067
-613.273	33.735	0.161	-0.143
-612.259	-60.323	0.122	0.053
-611.244	-200.000	-0.003	0.020
-610.230	-200.000	0.039	0.304
-609.215	-89.564	-0.275	-0.082
-608.201	21.314	0.101	0.083
-607.186	449.336	-0.104	0.232
-606.171	800.000	-0.028	-0.125
-605.157	-26.980	-0.048	0.028
-604.142	9.531	0.111	-0.086
-603.128	304.963	0.058	0.109
-602.113	-135.856	0.087	-0.010
-601.098	192.537	0.093	0.143
-600.084	-26.689	0.119	0.071
-599.069	-48.768	-0.254	-0.124
-598.055	1.598	-0.112	-0.082
-597.040	133.213	0.139	0.182
-596.025	91.159	0.239	-0.273
-595.011	204.757	0.168	0.266
-593.996	102.037	-0.044	-0.052
-592.982	290.217	-0.105	-0.194
-591.967	-69.905	-0.131	-0.051
-590.952	555.454	-0.066	0.161
-589.938	-17.003	-0.175	0.112
-588.923	18.634	0.209	-0.170
-587.909	-200.000	0.078	-0.387
-586.894	-85.154	0.137	0.044
-585.879	-200.000	0.011	0.080
-584.865	165.178	0.203	-0.291
-583.850	-200.000	-0.004	0.118
-582.836	17.496	-0.181	-0.146
-581.821	800.000	0.056	0.159
-580.806	125.142	0.078	0.100
-579.792	-200.000	-0.018	0.124
-578.777	-110.962	-0.420	0.088
-577.763	-105.334	-0.201	0.047
-576.748	308.422	0.069	-0.130
-575.733	-200.000	0.045	-0.280
-574.719	-64.419	-0.364	-0.150
-573.704	-200.000	-0.049	0.372
-572.690	58.212	-0.199	-0.198
-571.675	-54.107	0.090	-0.042
-570.661	44.729	0.259	0.242
-569.646	-75.586	-0.226	-0.082
-568.631	65.174	-0.196	-0.201
-567.617	800.000	0.076	0.268
-566.602	800.000	0.071	0.220
-565.588	800.000	0.109	0.328
-564.573	-18.970	0.214	0.135
-563.558	-97.842	-0.112	-0.029
-562.544	38.807	-0.275	-0.250
-561.529	800.000	-0.029	0.085
-560.515	-42.304	-0.352	-0.183
-559.500	800.000	0.016	0.065
-558.485	1.247	-0.192	0.140
-557.471	-67.804	0.069	-0.027
-556.456	38.863	-0.147	-0.134
-555.442	-135.263	0.207	0.025
-554.427	-200.000	0.056	-0.256
-553.412	149.916	0.006	-0.008
-552.398	-35.679	-0.234	0.129
-551.383	580.843	-0.012	-0.031
-550.369	-200.000	-0.023	0.358
-549.354	-68.241	0.093	0.037
-548.339	222.878	0.065	-0.107
-547.325	-200.000	0.017	0.251
-546.310	7.800	-0.228	0.173
-545.296	15.227	0.253	0.201
-544.281	-136.708	0.021	0.002
-543.266	41.961	-0.163	-0.150
-542.252	361.147	-0.080	-0.164
-541.237	111.432	-0.280	-0.343
-540.223	116.406	-0.136	-0.169
-539.208	438.774	-0.112	0.248
-538.193	800.000	0.049	-0.201
-537.179	4.388	0.245	0.182
-536.164	-39.947	0.074	-0.039
-535.150	9.984	0.193	0.148
-534.135	-63.983	-0.445	0.185
-533.121	684.908	0.005	0.013
-532.106	800.000	-0.021	0.081
-531.091	-51.685	-0.413	-0.195
-530.077	800.000	-0.067	-0.246
-529.062	800.000	-0.056	0.240
-528.048	79.253	-0.026	0.029
-527.033	-71.967	-0.222	-0.084
-526.018	144.484	-0.258	0.350
-525.004	-31.086	-0.089	-0.051
-523.989	-94.539	-0.158	0.044
-522.975	-27.459	-0.299	0.176
-521.960	29.622	0.183	-0.158
-520.945	126.551	-0.078	-0.100
-519.931	57.037	-0.192	0.190
-518.916	800.000	0.098	0.357
-517.902	-200.000	0.021	-0.206
-516.887	-131.997	-0.120	0.016
-515.872	800.000	-0.068	-0.192
-514.858	-115.968	0.116	0.022
-513.843	-52.334	0.144	0.068
-512.829	354.545	0.062	-0.125
-511.814	800.000	-0.106	-0.394
-510.799	-88.065	0.217	-0.066
-509.785	192.223	0.117	0.178
-508.770	800.000	0.074	0.260
-507.756	-200.000	0.033	-0.235
-506.741	-139.639	0.109	0.012
-505.726	206.706	0.114	0.181
-504.712	800.000	0.030	0.087
-503.697	-106.815	-0.305	-0.069
-502.683	-176.746	0.135	-0.003
-501.668	-200.000	-0.021	0.098
-500.653	-200.000	-0.004	0.141
-499.639	59.512	0.109	-0.109
-498.624	-49.585	-0.186	0.090
-497.610	800.000	-0.060	-0.174
-496.595	-0.175	-0.093	-0.067
-495.581	-86.576	0.376	0.117
-494.566	800.000	0.034	0.097
-493.551	-84.534	0.376	0.120
-492.537	-200.000	-0.019	-0.208
-491.522	-200.000	0.042	0.436
-490.508	-149.927	0.280	-0.022
-489.493	-85.090	-0.183	0.058
-488.478	83.574	0.131	0.145
-487.464	70.291	-0.350	-0.366
-486.449	-200.000	-0.017	-0.181
-485.435	47.263	0.177	-0.167
-484.420	-14.533	0.227	-0.148
-483.405	135.769	-0.111	-0.146
-482.391	-86.046	-0.175	-0.055
-481.376	800.000	0.065	-0.229
-480.362	-200.000	0.043	0.306
-479.347	0.374	0.108	0.078
-478.332	305.448	0.166	0.312
-477.318	80.182	0.050	0.054
-476.303	48.429	0.122	0.116
-475.289	-200.000	0.037	-0.174
-474.274	117.081	-0.060	-0.075
-473.259	79.172	0.112	0.122
-472.245	-41.348	-0.234	0.122
-471.230	544.948	0.098	0.236
-470.216	316.588	0.153	0.293
-469.201	-33.094	0.042	0.024
-468.186	-36.530	0.176	-0.096
-467.172	33.209	0.325	-0.286
-466.157	475.442	-0.037	-0.084
-465.143	69.140	0.250	-0.260
-464.128	175.155	0.302	0.443
-463.113	-50.171	0.295	-0.141
-462.099	-46.916	-0.137	-0.068
-461.084	800.000	-0.034	-0.098
-460.070	-200.000	-0.007	0.092
-459.055	-64.296	0.162	0.067
-458.040	-33.115	-0.072	-0.040
-457.026	13.260	-0.150	-0.118
-456.011	170.227	-0.030	0.043
-454.997	-96.781	-0.203	-0.054
-453.982	800.000	0.053	0.229
-452.968	-200.000	-0.026	0.364
-451.953	175.236	0.100	-0.146
-450.938	-200.000	0.035	0.160
-449.924	368.352	0.143	0.293
-448.909	-118.181	-0.294	0.053
-447.895	118.391	0.038	-0.047
-446.880	-200.000	-0.054	-0.371
-445.865	800.000	0.068	0.203
-444.851	236.445	0.184	-0.308
-443.836	719.151	0.100	0.270
-442.822	673.449	0.118	0.309
-441.807	119.105	0.208	0.260
-440.792	660.726	0.104	0.272
-439.778	-6.598	0.193	0.133
-438.763	107.382	0.054	0.065
-437.749	-200.000	-0.046	-0.432
-436.734	107.739	0.205	-0.247
-435.719	159.949	-0.130	-0.183
-434.705	-200.000	0.037	-0.314
-433.690	17.541	-0.089	0.072
-432.676	-62.075	0.160	0.067
-431.661	-66.009	0.161	0.065
-430.646	-84.469	-0.118	0.038
-429.632	-3.744	0.145	0.102
-428.617	1.840	-0.039	0.028
-427.603	278.694	-0.059	-0.107
-426.588	-200.000	0.012	0.090
-425.573	-5.753	0.204	-0.141
-424.559	22.485	-0.127	-0.105
-423.544	800.000	0.040	-0.163
-422.530	32.068	-0.173	0.151
-421.515	239.707	0.111	-0.187
-420.500	-148.301	0.300	-0.025
-419.486	-1.189	-0.175	0.125
-418.471	-200.000	-0.004	0.209
-417.457	-112.672	0.163	0.033
-416.442	-83.471	0.238	0.077
-415.428	-71.127	-0.089	0.034
-414.413	-200.000	0.245	-0.001
-413.398	-29.504	0.097	-0.056
-412.384	-43.482	-0.113	0.058
-411.369	-112.028	0.211	-0.043
-410.355	169.261	-0.182	0.262
-409.340	-120.524	0.210	-0.036
-408.325	-200.000	-0.021	-0.177
-407.311	800.000	-0.014	-0.049
-406.296	781.512	-0.013	-0.036
-405.282	-109.097	0.292	0.063
-404.267	409.103	0.128	0.275
-403.252	-140.623	-0.067	-0.007
-402.238	-95.262	0.047	0.013
-401.223	-200.000	0.017	-0.193
-400.209	349.214	-0.078	0.155
-399.194	800.000	0.050	-0.178
-398.179	91.044	-0.152	-0.172
-397.165	123.341	-0.182	0.230
-396.150	-200.000	-0.002	0.250
-395.136	-106.172	0.272	-0.061
-394.121	800.000	0.022	0.076
-393.106	-200.000	-0.035	-0.204
-392.092	327.272	-0.060	-0.117
-391.077	-151.663	-0.162	0.012
-390.063	102.147	0.200	-0.235
-389.048	-49.809	-0.155	0.074
-388.033	-27.890	-0.192	0.112
-387.019	800.000	0.040	-0.120
-386.004	86.774	-0.087	-0.097
-384.990	97.483	-0.205	0.237
-383.975	44.865	0.072	-0.067
-382.960	-110.567	-0.265	0.055
-381.946	-66.949	0.137	0.055
-380.931	-88.980	0.393	-0.117
-379.917	-67.575	0.103	-0.041
-378.902	530.730	0.135	-0.321
-377.888	-154.631	-0.170	0.011
-376.873	-119.656	0.268	-0.047
-375.858	68.687	-0.041	0.042
-374.844	311.747	-0.241	-0.456
-373.829	52.122	-0.108	0.104
-372.815	-200.000	0.006	0.167
-371.800	-20.773	0.107	0.066
-370.785	677.692	-0.139	0.364
-369.771	-121.416	0.353	-0.059
-368.756	-61.096	0.103	-0.044
-367.742	88.077	-0.123	-0.137
-366.727	14.163	0.150	-0.118
-365.712	364.715	0.159	0.322
-364.698	59.691	-0.323	0.321
-363.683	800.000	-0.024	-0.070
-362.669	-17.661	-0.203	0.128
-361.654	45.047	-0.375	-0.348
-360.639	-200.000	0.009	-0.110
-359.625	-6.656	0.053	-0.037
-358.610	800.000	-0.094	-0.328
-357.596	74.026	-0.192	0.203
-356.581	-23.024	0.179	-0.109
-355.566	800.000	-0.032	0.129
-354.552	-121.921	-0.033	-0.005
-353.537	-76.752	0.388	0.137
-352.523	15.764	-0.122	0.097
-351.508	213.712	0.120	0.190
-350.493	-14.190	-0.185	-0.120
-349.479	438.951	-0.064	0.141
-348.464	301.719	0.135	-0.252
-347.450	-200.000	-0.007	0.051
-346.435	-127.771	-0.408	0.059
-345.420	-159.671	-0.301	0.017
-344.406	174.541	-0.088	-0.128
-343.391	188.287	-0.083	-0.125
-342.377	319.299	0.169	-0.323
-341.362	800.000	0.087	-0.263
-340.348	800.000	-0.110	-0.473
-339.333	800.000	0.022	-0.081
-338.318	-200.000	-0.014	0.232
-337.304	103.300	0.057	0.067
-336.289	-43.028	0.234	0.120
-335.275	-38.766	-0.261	0.138
-334.260	42.484	-0.193	-0.177
-333.245	-200.000	-0.008	-0.515
-332.231	555.759	-0.143	-0.348
-331.216	800.000	0.043	-0.162
-330.202	39.248	-0.146	-0.132
-329.187	587.444	-0.054	-0.135
-328.172	-163.808	0.304	-0.014
-327.158	51.955	-0.149	0.142
-326.143	-69.935	-0.161	-0.062
-325.129	-65.866	-0.412	0.166
-324.114	-182.466	0.028	-0.001
-323.099	-95.444	-0.057	0.015
-322.085	0.110	0.261	0.187
-321.070	800.000	0.077	-0.225
-320.056	-182.861	0.086	0.002
-319.041	103.669	0.089	-0.105
-318.026	88.746	-0.047	-0.052
-317.012	185.632	-0.045	0.067
-315.997	104.562	-0.135	-0.160
-314.983	8.010	-0.182	0.137
-313.968	79.505	0.133	0.144
-312.953	-93.550	-0.162	-0.045
-311.939	-75.716	0.147	-0.052
-310.924	209.735	-0.019	-0.030
-309.910	-43.393	0.280	-0.142
-308.895	-102.591	0.271	-0.065
-307.880	-200.000	0.055	-0.266
-306.866	-154.112	-0.543	0.037
-305.851	800.000	-0.020	0.056
-304.837	367.910	-0.052	0.106
-303.822	800.000	-0.045	0.132
-302.807	-200.000	0.060	0.449
-301.793	234.429	0.327	0.542
-300.778	-200.000	0.022	0.135
-299.764	95.013	-0.097	-0.111
-298.749	-3.080	0.214	0.150
-297.735	3.362	-0.140	-0.102
-296.720	-99.398	-0.311	0.079
-295.705	5.860	-0.299	0.223
-294.691	94.702	0.213	0.244
-293.676	800.000	-0.046	0.157
-292.662	-70.629	0.162	-0.061
-291.647	-23.739	-0.157	-0.094
-290.632	-37.921	-0.193	-0.103
-289.618	-200.000	-0.006	-0.382
-288.603	-65.818	0.357	0.144
-287.589	-200.000	0.040	-0.269
-286.574	-125.873	0.366	-0.056
-285.559	185.645	-0.206	0.307
-284.545	-37.693	-0.137	-0.073
-283.530	-9.944	-0.159	0.107
-282.516	171.195	0.174	0.251
-281.501	-27.283	-0.222	-0.130
-280.486	371.990	-0.168	-0.343
-279.472	-106.892	-0.023	0.005
-278.457	92.628	-0.195	0.221
-277.443	354.846	-0.093	0.186
-276.428	-200.000	-0.031	-0.218
-275.413	-200.000	0.001	0.103
-274.399	-200.000	-0.019	0.389
-273.384	-79.168	-0.368	-0.125
-272.370	46.780	0.021	-0.020
-271.355	-200.000	0.047	-0.343
-270.340	188.560	0.061	-0.092
-269.326	-200.000	-0.003	-0.179
-268.311	-200.000	0.043	-0.416
-267.297	-200.000	0.088	-0.491
-266.282	-84.278	0.189	-0.060
-265.267	124.933	-0.153	0.193
-264.253	40.805	-0.057	-0.052
-263.238	-23.366	-0.310	-0.187
-262.224	-81.759	-0.235	0.077
-261.209	-200.000	-0.007	-0.387
-260.195	-71.527	0.605	0.227
-259.180	-104.610	-0.272	-0.063
-258.165	-109.021	-0.295	0.063
-257.151	800.000	0.042	-0.141
-256.136	5.109	0.110	-0.081
-255.122	800.000	-0.029	0.121
-254.107	-90.833	-0.315	0.091
-253.092	52.590	-0.009	0.009
-252.078	-200.000	-0.002	-0.150
-251.063	800.000	0.030	0.113
-250.049	218.347	-0.098	-0.157
-249.034	196.016	-0.216	0.330
-248.019	29.689	0.272	-0.233
-247.005	28.165	-0.043	0.037
-245.990	800.000	0.132	0.377
-244.976	15.961	-0.204	0.161
-243.961	-59.648	-0.202	0.087
-242.946	331.703	0.126	0.243
-241.932	-155.573	-0.147	-0.010
-240.917	-200.000	0.044	0.459
-239.903	62.987	0.047	-0.047
-238.888	-168.220	-0.273	0.011
-237.873	800.000	-0.070	-0.225
-236.859	-41.831	0.128	0.066
-235.844	-99.798	0.030	-0.008
-234.830	49.712	-0.339	-0.321
-233.815	-200.000	0.048	0.221
-232.800	-200.000	0.041	0.336
-231.786	16.907	-0.155	-0.123
-230.771	-196.707	-0.145	-0.001
-229.757	-200.000	-0.014	-0.099
-228.742	151.051	0.034	-0.047
-227.727	-89.842	0.030	-0.009
-226.713	-159.445	-0.208	-0.012
-225.698	-117.034	-0.236	-0.043
-224.684	176.001	0.093	-0.136
-223.669	800.000	0.083	0.238
-222.655	-121.486	0.143	0.024
-221.640	456.280	-0.010	0.023
-220.625	-91.549	0.133	0.038
-219.611	96.325	0.183	0.210
-218.596	-200.000	0.051	-0.297
-217.582	-200.000	0.022	-0.142
-216.567	-200.000	0.028	-0.269
-215.552	-112.516	0.169	-0.034
-214.538	202.538	-0.136	-0.211
-213.523	-124.835	-0.407	-0.063
-212.509	80.577	0.099	-0.107
-211.494	-34.412	-0.170	0.094
-210.479	-40.424	0.208	0.108
-209.465	57.207	0.097	-0.095
-208.450	-200.000	0.002	-0.030
-207.436	-200.000	-0.080	-0.366
-206.421	17.325	0.107	0.085
-205.406	-85.120	0.136	-0.043
-204.392	-26.241	-0.126	0.074
-203.377	800.000	-0.105	0.319
-202.363	-64.647	0.200	0.081
-201.348	101.922	-0.242	-0.283
-200.333	-91.757	0.172	0.049
-199.319	-200.000	0.020	0.145
-198.304	8.840	-0.106	-0.080
-197.290	-200.000	0.012	-0.120
-196.275	164.051	0.226	-0.318
-195.260	-126.886	0.209	0.031
-194.246	-200.000	-0.010	0.295
-193.231	800.000	-0.052	0.177
-192.217	-48.071	-0.267	-0.129
-191.202	-173.344	-0.172	-0.005
-190.187	-200.000	0.028	0.210
-189.173	-200.000	-0.002	-0.296
-188.158	-54.135	-0.240	0.109
-187.144	189.632	0.133	0.199
-186.129	136.818	-0.128	-0.167
-185.114	-87.155	0.112	0.034
-184.100	800.000	0.065	-0.240
-183.085	-123.490	0.267	-0.042
-182.071	-121.867	-0.030	0.005
-181.056	362.303	-0.079	-0.160
-180.042	-55.991	0.170	-0.076
-179.027	40.136	0.217	0.196
-178.012	-20.837	-0.117	0.072
-176.998	-127.033	0.375	0.055
-175.983	786.744	-0.065	-0.178
-174.969	-143.661	0.081	0.008
-173.954	144.266	0.258	0.344
-172.939	22.810	0.310	0.255
-171.925	-200.000	0.024	-0.136
-170.910	800.000	-0.072	-0.298
-169.896	-153.132	-0.179	-0.013
-168.881	-200.000	0.023	-0.180
-167.866	-88.331	0.083	0.025
-166.852	-93.364	-0.078	-0.022
-165.837	-175.255	0.455	0.013
-164.823	-28.611	-0.380	0.219
-163.808	-101.782	0.315	-0.076
-162.793	800.000	-0.053	-0.190
-161.779	144.721	0.111	0.149
-160.764	57.594	0.162	-0.159
-159.750	70.232	-0.115	-0.119
-158.735	369.538	0.064	-0.130
-157.720	203.839	-0.066	0.102
-156.706	-83.543	0.422	-0.135
-155.691	-165.523	-0.291	-0.013
-154.677	677.759	0.053	-0.138
-153.662	-49.929	0.154	-0.073
-152.647	-200.000	-0.003	0.056
-151.633	-74.783	-0.151	-0.054
-150.618	800.000	-0.111	0.321
-149.604	-118.889	-0.213	0.037
-148.589	59.505	0.112	0.110
-147.574	740.531	-0.104	0.278
-146.560	-101.022	0.126	0.031
-145.545	-200.000	-0.032	-0.425
-144.531	5.741	-0.188	-0.139
-143.516	-34.545	-0.246	-0.135
-142.502	-121.762	0.548	0.090
-141.487	-135.427	0.140	0.017
-140.472	-200.000	0.005	-0.045
-139.458	246.279	-0.043	0.073
-138.443	-200.000	0.056	-0.299
-137.429	-49.722	0.069	-0.033
-136.414	9.666	0.101	0.077
-135.399	-200.000	0.036	0.214
-134.385	-95.631	0.118	0.032
-133.370	508.952	0.068	0.157
-132.356	-137.340	-0.481	0.055
-131.341	307.178	0.103	-0.193
-130.326	502.231	0.092	0.212
-129.312	7.902	-0.287	-0.215
-128.297	-25.731	-0.334	0.197
-127.283	352.531	0.109	0.216
-126.268	20.797	-0.237	0.191
-125.253	-109.124	-0.230	-0.049
-124.239	-200.000	-0.030	-0.162
-123.224	-4.274	0.251	-0.174
-122.210	149.640	0.106	0.144
-121.195	4.566	-0.189	0.138
-120.180	4.099	0.345	-0.252
