DTS Sentinel unit serial number:	SN413079Multiplexer serial number:	ORYXHardware model number:	OX4-SRSoftware version number:	ORYX F/W v4.00 Oryx Data Collector v3.7.2.0data status	okinstallation	princeton_trtdifferential loss correction	single-endedforward channel	channel 2reverse channel	N/Adate	2019/09/19time	05:39:35forward acquisition time	60.00reverse acquisition time	0.00gamma	496.2192k internal	0.2351k external	0.2351temperature offset calibration	1.0015default loss term (dB/km)	0.3790temperature slope calibration	1.0000multiplexer offset coefficient	1.0000multiplexer slope coefficient	1.0000fibre end	0.00T internal ref (°C)	19.31T ext. ref 1 (°C)	0.59T ext. ref 2 (°C)	12.83length (m)	temperature (°C)	Stokes	anti-Stokes-747.200	-200.000	-0.008	-0.377
-746.185	800.000	-0.114	0.351
-745.171	-200.000	-0.028	0.291
-744.156	150.968	-0.149	0.202
-743.142	24.568	-0.235	-0.194
-742.127	143.586	-0.125	0.167
-741.112	-200.000	-0.002	0.025
-740.098	-39.994	-0.053	0.028
-739.083	-200.000	0.019	-0.141
-738.069	-20.785	-0.178	0.109
-737.054	586.849	0.089	0.219
-736.039	-158.005	-0.033	0.002
-735.025	180.906	0.142	0.208
-734.010	-137.980	0.313	-0.035
-732.996	-60.120	0.100	0.042
-731.981	-200.000	-0.008	-0.078
-730.966	-67.425	-0.160	-0.063
-729.952	-91.570	0.353	-0.100
-728.937	-167.483	-0.177	-0.007
-727.923	-64.962	-0.134	-0.054
-726.908	472.446	-0.131	-0.294
-725.894	215.390	-0.084	0.133
-724.879	-102.377	0.224	-0.054
-723.864	109.542	-0.155	-0.185
-722.850	-159.218	-0.269	0.015
-721.835	145.621	0.238	-0.317
-720.821	800.000	0.190	-0.585
-719.806	75.251	-0.136	-0.143
-718.791	-38.037	0.164	-0.087
-717.777	-81.132	-0.138	0.045
-716.762	800.000	0.020	0.062
-715.748	306.816	-0.076	0.141
-714.733	-112.765	0.264	0.052
-713.718	122.908	0.235	-0.293
-712.704	-200.000	0.006	-0.205
-711.689	325.151	0.043	-0.083
-710.675	-137.469	0.136	0.015
-709.660	71.641	-0.129	0.134
-708.645	80.384	0.121	0.130
-707.631	-112.930	-0.330	-0.065
-706.616	-153.663	-0.235	0.016
-705.602	-8.324	0.158	0.106
-704.587	215.876	0.184	0.291
-703.572	-161.325	-0.230	0.012
-702.558	-200.000	-0.014	-0.151
-701.543	-94.245	-0.332	-0.090
-700.529	-27.106	0.093	-0.054
-699.514	163.254	0.092	-0.129
-698.499	800.000	-0.061	-0.222
-697.485	800.000	0.025	0.099
-696.470	-134.838	-0.141	-0.017
-695.456	243.691	0.131	0.219
-694.441	800.000	-0.037	-0.162
-693.426	-150.828	0.306	0.023
-692.412	9.815	-0.215	-0.163
-691.397	-200.000	0.031	-0.284
-690.383	800.000	-0.065	-0.196
-689.368	124.009	0.334	-0.418
-688.354	800.000	0.036	-0.130
-687.339	-34.312	-0.189	0.103
-686.324	60.572	-0.349	0.344
-685.310	-171.349	0.018	-0.001
-684.295	-51.113	-0.177	-0.082
-683.281	-20.700	-0.031	-0.019
-682.266	-27.388	-0.108	0.063
-681.251	-62.700	0.091	-0.037
-680.237	-153.019	0.257	0.018
-679.222	24.412	-0.324	-0.266
-678.208	630.400	-0.087	-0.219
-677.193	15.330	-0.232	-0.181
-676.178	179.655	-0.110	0.160
-675.164	254.249	-0.161	0.273
-674.149	189.714	-0.028	-0.043
-673.135	-49.345	-0.134	0.064
-672.120	444.859	0.138	-0.301
-671.105	-101.647	0.076	0.018
-670.091	205.405	-0.080	0.124
-669.076	-200.000	0.009	-0.245
-668.062	-80.795	0.235	-0.078
-667.047	13.961	-0.200	-0.155
-666.032	-115.873	-0.252	0.047
-665.018	-30.493	0.384	-0.217
-664.003	113.965	-0.159	-0.192
-662.989	-124.299	-0.241	-0.037
-661.974	-42.904	0.074	0.037
-660.959	486.704	0.096	0.217
-659.945	379.362	0.101	0.207
-658.930	-10.157	0.211	-0.139
-657.916	800.000	0.039	0.167
-656.901	73.106	-0.188	-0.195
-655.886	184.212	-0.066	0.097
-654.872	124.092	0.133	0.167
-653.857	-200.000	0.022	-0.260
-652.843	-124.343	-0.312	-0.048
-651.828	13.545	-0.154	-0.119
-650.814	-200.000	0.004	0.248
-649.799	-178.921	-0.307	0.007
-648.784	-85.987	0.110	-0.034
-647.770	17.331	-0.219	-0.173
-646.755	185.833	-0.112	-0.166
-645.741	392.983	-0.067	-0.138
-644.726	211.553	-0.216	-0.338
-643.711	93.361	-0.148	-0.167
-642.697	-200.000	-0.064	-0.305
-641.682	261.825	-0.096	-0.166
-640.668	-200.000	-0.017	-0.092
-639.653	-96.746	-0.120	-0.031
-638.638	90.600	-0.156	-0.174
-637.624	348.125	0.148	-0.289
-636.609	62.382	0.187	-0.186
-635.595	-84.004	0.249	-0.079
-634.580	-9.212	0.260	-0.173
-633.565	-40.386	0.240	0.124
-632.551	-119.224	0.183	-0.032
-631.536	-193.370	0.318	0.003
-630.522	-200.000	-0.035	-0.207
-629.507	699.443	-0.076	0.198
-628.492	15.850	0.132	-0.103
-627.478	58.782	0.128	0.124
-626.463	65.029	0.216	0.217
-625.449	800.000	-0.032	-0.102
-624.434	-159.770	-0.304	-0.017
-623.419	-48.222	0.247	0.118
-622.405	-56.517	-0.222	-0.098
-621.390	-108.314	0.410	-0.088
-620.376	-90.911	0.053	0.015
-619.361	-79.011	-0.325	0.110
-618.346	632.856	-0.131	0.330
-617.332	800.000	-0.068	-0.266
-616.317	-108.837	-0.227	0.048
-615.303	-51.167	-0.192	0.089
-614.288	378.371	0.119	0.242
-613.273	-22.468	-0.035	0.021
-612.259	-111.648	-0.257	0.052
-611.244	-200.000	-0.001	0.040
-610.230	-200.000	-0.005	-0.077
-609.215	-47.520	0.226	0.109
-608.201	-200.000	-0.021	-0.134
-607.186	-106.425	-0.062	-0.014
-606.171	800.000	0.037	0.158
-605.157	-200.000	-0.024	-0.104
-604.142	56.164	0.200	-0.192
-603.128	800.000	-0.042	0.125
-602.113	162.027	0.196	0.272
-601.098	-124.422	-0.036	0.006
-600.084	-33.724	0.293	-0.160
-599.069	282.515	0.106	-0.190
-598.055	118.506	0.165	-0.203
-597.040	62.851	0.116	-0.115
-596.025	-133.875	-0.022	-0.003
-595.011	45.221	-0.151	-0.138
-593.996	116.435	0.238	-0.290
-592.982	-25.985	0.073	-0.043
-591.967	113.253	0.096	-0.116
-590.952	-110.109	0.096	-0.020
-589.938	-162.002	0.472	-0.024
-588.923	304.628	-0.062	-0.114
-587.909	-119.687	-0.105	-0.018
-586.894	-37.383	-0.416	0.220
-585.879	-200.000	-0.038	0.168
-584.865	-6.942	-0.249	-0.168
-583.850	-151.069	0.362	0.027
-582.836	-142.947	0.029	0.003
-581.821	-200.000	-0.035	-0.164
-580.806	-107.647	-0.133	0.029
-579.792	-85.308	-0.078	-0.024
-578.777	-124.781	-0.176	-0.027
-577.763	164.079	0.336	-0.469
-576.748	800.000	-0.075	0.287
-575.733	-200.000	0.083	0.368
-574.719	-99.263	0.133	0.033
-573.704	800.000	0.039	0.144
-572.690	-139.840	-0.159	0.017
-571.675	359.953	-0.089	-0.177
-570.661	126.483	0.231	0.289
-569.646	1.572	-0.171	-0.122
-568.631	-17.883	0.414	-0.257
-567.617	-200.000	0.043	-0.282
-566.602	-80.349	0.252	0.083
-565.588	800.000	0.098	0.373
-564.573	-11.605	-0.113	-0.074
-563.558	511.027	-0.123	-0.283
-562.544	229.625	0.134	-0.216
-561.529	-200.000	0.043	0.237
-560.515	-84.942	-0.155	-0.048
-559.500	-3.918	0.092	-0.064
-558.485	-134.358	-0.159	-0.019
-557.471	-110.927	0.280	0.057
-556.456	333.507	-0.075	-0.143
-555.442	800.000	-0.066	0.250
-554.427	-94.311	-0.231	-0.063
-553.412	130.560	-0.349	-0.443
-552.398	230.798	0.231	0.375
-551.383	-53.816	0.170	0.077
-550.369	50.231	-0.097	0.091
-549.354	260.021	-0.242	-0.414
-548.339	-200.000	-0.047	-0.228
-547.325	-179.302	-0.319	-0.007
-546.310	-91.919	0.275	-0.077
-545.296	-130.593	-0.230	0.031
-544.281	-200.000	0.067	-0.431
-543.266	-150.441	0.367	-0.028
-542.252	68.153	-0.071	-0.072
-541.237	-71.901	-0.106	0.039
-540.223	-48.061	0.344	0.165
-539.208	-200.000	0.041	-0.358
-538.193	304.462	0.055	0.101
-537.179	-54.942	0.201	0.090
-536.164	43.218	-0.246	0.222
-535.150	-200.000	0.019	0.457
-534.135	61.284	0.168	-0.165
-533.121	800.000	0.086	0.302
-532.106	126.997	0.065	-0.081
-531.091	-200.000	-0.063	0.282
-530.077	-177.440	-0.321	0.008
-529.062	683.126	0.045	-0.116
-528.048	-56.089	-0.192	0.084
-527.033	-11.045	-0.046	-0.030
-526.018	461.912	-0.099	0.218
-525.004	119.028	0.051	-0.063
-523.989	247.088	0.119	0.199
-522.975	-44.419	-0.322	-0.160
-521.960	95.839	0.256	-0.289
-520.945	-50.675	-0.056	-0.026
-519.931	-52.251	-0.019	0.009
-518.916	800.000	0.041	0.168
-517.902	101.088	0.077	0.089
-516.887	93.532	0.037	0.042
-515.872	800.000	-0.041	-0.147
-514.858	305.496	0.066	0.121
-513.843	-95.396	0.082	-0.022
-512.829	-28.388	0.041	0.023
-511.814	521.629	-0.061	0.143
-510.799	94.306	0.102	0.114
-509.785	-33.433	0.390	0.213
-508.770	1.423	0.177	-0.126
-507.756	98.318	-0.239	0.272
-506.741	335.761	0.166	0.318
-505.726	800.000	-0.097	0.331
-504.712	800.000	0.171	0.499
-503.697	-74.919	0.192	0.068
-502.683	800.000	0.162	-0.491
-501.668	-50.008	-0.061	0.029
-500.653	800.000	0.055	-0.184
-499.639	-127.039	0.304	-0.044
-498.624	604.364	-0.083	0.205
-497.610	111.668	-0.108	0.128
-496.595	800.000	-0.091	0.261
-495.581	35.505	-0.224	-0.194
-494.566	437.708	0.083	-0.179
-493.551	-63.468	-0.431	-0.175
-492.537	-65.101	0.500	0.200
-491.522	-83.957	-0.316	-0.099
-490.508	644.478	-0.074	-0.187
-489.493	7.539	-0.136	0.101
-488.478	-9.830	-0.314	0.207
-487.464	289.666	-0.155	0.279
-486.449	-10.412	-0.198	0.130
-485.435	46.161	0.361	-0.330
-484.420	-3.347	-0.026	-0.018
-483.405	198.705	0.251	0.380
-482.391	367.383	-0.088	0.175
-481.376	800.000	0.125	-0.375
-480.362	170.212	0.132	-0.186
-479.347	69.381	0.257	-0.261
-478.332	404.281	0.159	0.332
-477.318	-46.824	-0.183	0.088
-476.303	-60.623	-0.267	-0.112
-475.289	-177.956	0.286	-0.007
-474.274	613.264	-0.062	0.154
-473.259	-129.124	0.231	-0.032
-472.245	522.245	0.059	-0.138
-471.230	-59.815	-0.329	0.139
-470.216	102.969	-0.180	-0.208
-469.201	8.408	-0.127	-0.094
-468.186	-36.470	-0.127	0.067
-467.172	-20.262	0.289	-0.176
-466.157	-200.000	-0.014	0.145
-465.143	96.259	-0.219	0.247
-464.128	-4.273	0.099	0.068
-463.113	-200.000	-0.028	-0.210
-462.099	-43.064	-0.037	-0.018
-461.084	-130.415	0.039	-0.005
-460.070	738.597	0.102	0.270
-459.055	185.790	-0.288	0.422
-458.040	172.088	-0.088	0.125
-457.026	238.017	0.190	0.311
-456.011	20.003	0.110	0.088
-454.997	-49.842	-0.080	-0.038
-453.982	-16.494	0.070	0.044
-452.968	151.210	-0.236	0.317
-451.953	0.245	0.211	0.149
-450.938	-91.084	-0.268	0.076
-449.924	23.462	-0.014	-0.011
-448.909	66.346	-0.185	0.186
-447.895	800.000	-0.097	0.308
-446.880	-90.115	0.191	-0.055
-445.865	15.141	-0.137	-0.106
-444.851	-143.670	-0.286	-0.027
-443.836	800.000	-0.119	-0.339
-442.822	632.745	-0.037	-0.091
-441.807	5.058	0.230	0.167
-440.792	-200.000	0.044	-0.247
-439.778	-63.015	0.269	-0.110
-438.763	-144.945	-0.307	-0.028
-437.749	-14.144	0.383	0.244
-436.734	800.000	-0.061	-0.231
-435.719	55.386	-0.222	-0.212
-434.705	800.000	-0.020	-0.069
-433.690	-164.652	0.094	-0.004
-432.676	-169.932	0.158	-0.006
-431.661	-109.314	-0.256	0.054
-430.646	-19.940	0.345	0.210
-429.632	729.039	-0.049	-0.130
-428.617	163.957	-0.137	-0.190
-427.603	-62.937	-0.160	-0.065
-426.588	-200.000	-0.009	-0.192
-425.573	-14.733	-0.130	0.082
-424.559	124.945	0.213	-0.264
-423.544	-200.000	-0.058	0.400
-422.530	-200.000	0.003	-0.182
-421.515	27.577	-0.139	-0.115
-420.500	-200.000	-0.034	-0.319
-419.486	142.674	0.299	0.392
-418.471	249.469	-0.107	0.179
-417.457	800.000	-0.079	-0.249
-416.442	19.583	0.189	-0.150
-415.428	289.364	-0.065	0.116
-414.413	560.490	-0.112	0.267
-413.398	4.630	-0.094	0.068
-412.384	-114.459	-0.160	-0.030
-411.369	-128.476	0.365	0.051
-410.355	-21.560	0.192	-0.115
-409.340	110.916	0.122	0.144
-408.325	-132.132	-0.146	-0.019
-407.311	213.180	-0.066	0.103
-406.296	402.163	0.086	0.179
-405.282	121.229	-0.141	0.173
-404.267	3.663	-0.124	-0.089
-403.252	800.000	0.064	-0.243
-402.238	800.000	0.017	0.049
-401.223	-106.032	0.218	-0.048
-400.209	250.502	-0.224	-0.374
-399.194	-200.000	0.003	-0.293
-398.179	-200.000	0.009	0.328
-397.165	-17.997	-0.280	-0.173
-396.150	127.652	0.047	0.059
-395.136	-200.000	0.003	0.049
-394.121	370.784	0.091	0.183
-393.106	-121.734	-0.264	0.043
-392.092	-200.000	-0.010	-0.045
-391.077	-200.000	-0.021	-0.098
-390.063	800.000	-0.028	-0.094
-389.048	174.550	0.042	0.059
-388.033	190.004	0.081	0.120
-387.019	90.670	0.048	0.053
-386.004	134.221	0.112	-0.143
-384.990	-156.138	-0.349	0.022
-383.975	-20.835	-0.258	0.155
-382.960	-200.000	0.009	-0.192
-381.946	558.611	-0.118	-0.281
-380.931	-200.000	0.163	0.000
-379.917	17.218	0.137	-0.107
-378.902	-200.000	-0.102	0.000
-377.888	126.195	-0.272	0.338
-376.873	11.851	-0.179	-0.135
-375.858	94.089	-0.181	0.202
-374.844	78.247	-0.136	0.143
-373.829	-6.023	-0.047	-0.032
-372.815	196.099	-0.344	-0.515
-371.800	509.512	0.077	0.176
-370.785	375.830	0.177	0.354
-369.771	800.000	0.088	-0.241
-368.756	6.782	-0.144	0.105
-367.742	-46.426	0.182	0.088
-366.727	0.264	0.135	-0.095
-365.712	207.387	0.067	-0.103
-364.698	800.000	-0.020	-0.065
-363.683	171.992	-0.100	-0.142
-362.669	34.295	-0.116	-0.099
-361.654	-200.000	-0.018	0.113
-360.639	800.000	-0.026	-0.102
-359.625	-200.000	-0.050	0.358
-358.610	448.841	-0.053	-0.114
-357.596	36.488	-0.286	-0.248
-356.581	-41.787	0.075	-0.038
-355.566	800.000	0.029	-0.114
-354.552	800.000	-0.073	0.212
-353.537	800.000	0.068	0.208
-352.523	648.395	-0.062	-0.155
-351.508	-75.410	0.139	-0.049
-350.493	17.365	-0.306	-0.239
-349.479	-87.876	0.189	0.056
-348.464	87.502	0.212	0.230
-347.450	91.772	-0.031	0.034
-346.435	800.000	0.031	-0.093
-345.420	-1.738	0.139	-0.096
-344.406	292.307	-0.044	-0.078
-343.391	-54.530	-0.257	0.114
-342.377	515.747	0.206	-0.473
-341.362	-200.000	-0.003	-0.167
-340.348	-200.000	0.025	-0.122
-339.333	281.832	0.148	-0.260
-338.318	-200.000	0.009	0.219
-337.304	47.102	-0.251	-0.229
-336.289	-4.493	-0.093	0.063
-335.275	-14.276	-0.208	0.132
-334.260	-92.401	0.337	-0.093
-333.245	-104.962	-0.173	0.039
-332.231	-46.651	-0.131	0.063
-331.216	-42.799	-0.317	-0.158
-330.202	72.180	0.233	-0.238
-329.187	-113.278	-0.037	-0.007
-328.172	14.230	-0.187	0.143
-327.158	287.528	0.216	-0.383
-326.143	-68.090	-0.265	0.101
-325.129	63.542	0.187	-0.185
-324.114	-32.323	0.316	0.173
-323.099	103.810	0.152	-0.175
-322.085	-163.350	-0.120	0.006
-321.070	43.414	0.056	-0.050
-320.056	-200.000	-0.025	-0.255
-319.041	-200.000	0.003	0.014
-318.026	-49.489	-0.142	-0.066
-317.012	141.307	0.194	0.251
-315.997	65.632	-0.102	0.101
-314.983	607.825	0.116	-0.285
-313.968	69.248	0.079	0.080
-312.953	-139.946	0.250	-0.026
-311.939	132.684	0.141	-0.178
-310.924	273.164	0.071	-0.123
-309.910	800.000	0.072	-0.250
-308.895	64.862	0.270	-0.267
-307.880	352.889	0.008	0.016
-306.866	-0.585	-0.060	-0.042
-305.851	800.000	0.075	0.207
-304.837	-200.000	-0.023	0.306
-303.822	800.000	-0.131	0.388
-302.807	35.073	0.081	0.069
-301.793	142.943	0.201	-0.263
-300.778	-89.655	0.171	-0.049
-299.764	-55.881	-0.167	-0.073
-298.749	800.000	-0.059	-0.195
-297.735	59.666	-0.223	-0.216
-296.720	-105.905	0.178	-0.039
-295.705	800.000	-0.106	0.397
-294.691	431.644	0.087	-0.185
-293.676	-176.985	-0.175	-0.004
-292.662	-200.000	-0.066	0.351
-291.647	-200.000	0.088	0.413
-290.632	94.258	-0.174	0.194
-289.618	-53.161	0.176	0.079
-288.603	-59.519	-0.219	0.092
-287.589	-50.548	-0.201	0.093
-286.574	470.744	-0.084	0.186
-285.559	800.000	-0.044	-0.160
-284.545	-116.371	0.370	0.067
-283.530	35.957	-0.116	0.100
-282.516	-200.000	0.022	-0.130
-281.501	179.829	-0.143	-0.206
-280.486	-94.242	0.161	-0.043
-279.472	-83.911	-0.304	0.095
-278.457	-96.068	0.191	0.050
-277.443	17.757	0.312	0.243
-276.428	652.491	-0.072	-0.182
-275.413	31.297	0.260	0.219
-274.399	-200.000	-0.049	-0.391
-273.384	37.951	-0.053	0.046
-272.370	800.000	0.101	0.414
-271.355	335.992	-0.251	-0.477
-270.340	-90.582	-0.095	-0.027
-269.326	190.296	0.168	-0.248
-268.311	-153.857	-0.365	0.024
-267.297	-200.000	-0.048	-0.464
-266.282	96.605	-0.174	0.196
-265.267	-23.713	0.217	0.128
-264.253	68.270	0.117	0.117
-263.238	352.195	-0.147	-0.286
-262.224	-81.628	0.284	0.091
-261.209	-200.000	0.033	0.211
-260.195	-29.070	0.179	-0.100
-259.180	-31.670	-0.229	0.126
-258.165	11.198	-0.196	0.147
-257.151	459.332	0.054	-0.118
-256.136	-26.249	-0.113	-0.065
-255.122	237.579	0.150	0.244
-254.107	-123.284	-0.144	-0.022
-253.092	800.000	0.041	0.127
-252.078	-12.832	0.271	0.173
-251.063	-120.993	-0.165	0.027
-250.049	800.000	0.055	-0.210
-249.034	-200.000	-0.000	-0.134
-248.019	-74.534	-0.311	0.110
-247.005	258.457	0.061	0.103
-245.990	-200.000	0.025	0.274
-244.976	164.377	-0.094	0.129
-243.961	-110.765	0.090	0.018
-242.946	72.389	0.112	0.114
-241.932	-118.561	-0.298	-0.052
-240.917	800.000	0.070	0.276
-239.903	-200.000	0.036	0.414
-238.888	132.702	0.091	0.114
-237.873	8.688	0.047	-0.035
-236.859	-200.000	-0.014	-0.059
-235.844	-94.766	-0.269	-0.071
-234.830	-183.359	-0.051	0.001
-233.815	-29.464	-0.219	0.123
-232.800	497.917	-0.036	0.082
-231.786	657.483	-0.135	-0.340
-230.771	-42.638	0.145	0.072
-229.757	385.942	0.108	0.218
-228.742	570.818	-0.230	0.548
-227.727	-141.976	0.165	-0.016
-226.713	-200.000	0.016	-0.272
-225.698	-83.387	-0.316	-0.099
-224.684	144.739	0.103	0.134
-223.669	-33.387	-0.264	-0.143
-222.655	-200.000	0.009	-0.090
-221.640	-107.317	-0.280	0.060
-220.625	-200.000	-0.000	0.145
-219.611	-85.927	0.126	0.038
-218.596	55.847	0.182	-0.172
-217.582	-200.000	-0.039	0.232
-216.567	257.130	-0.089	0.149
-215.552	-83.951	0.171	0.053
-214.538	61.075	-0.185	-0.180
-213.523	208.988	0.199	-0.304
-212.509	-53.345	0.204	-0.091
-211.494	173.003	-0.068	0.095
-210.479	518.664	0.096	-0.221
-209.465	371.006	0.136	0.270
-208.450	95.022	-0.100	0.111
-207.436	40.825	0.194	-0.171
-206.421	-200.000	0.023	0.203
-205.406	-200.000	-0.006	0.187
-204.392	-88.517	-0.159	-0.046
-203.377	-104.001	0.226	-0.051
-202.363	-71.516	0.186	-0.068
-201.348	68.193	-0.228	-0.228
-200.333	-57.688	0.112	-0.048
-199.319	-30.446	0.156	-0.087
-198.304	800.000	-0.054	0.201
-197.290	-27.344	0.053	0.030
-196.275	61.143	-0.212	-0.206
-195.260	-40.056	0.144	-0.073
-194.246	40.701	-0.079	-0.070
-193.231	-12.956	-0.157	0.100
-192.217	185.317	0.141	-0.204
-191.202	517.843	0.043	0.098
-190.187	-66.826	-0.202	0.078
-189.173	-200.000	-0.029	0.158
-188.158	-66.822	-0.131	0.050
-187.144	-200.000	-0.030	-0.273
-186.129	-35.826	-0.236	-0.125
-185.114	161.510	0.238	0.324
-184.100	-200.000	-0.005	0.135
-183.085	-50.397	0.139	0.064
-182.071	-71.367	-0.143	-0.052
-181.056	-200.000	-0.049	-0.503
-180.042	-200.000	0.005	0.266
-179.027	-200.000	0.016	-0.229
-178.012	-85.488	-0.093	0.028
-176.998	55.226	-0.220	-0.207
-175.983	-200.000	-0.013	-0.063
-174.969	592.247	-0.124	0.299
-173.954	412.667	0.109	-0.226
-172.939	-200.000	-0.012	-0.428
-171.925	-105.756	0.158	-0.035
-170.910	800.000	0.107	0.409
-169.896	-29.113	-0.108	0.060
-168.881	-186.623	0.263	-0.004
-167.866	-126.740	-0.233	-0.034
-166.852	-131.066	0.181	0.024
-165.837	-51.709	-0.224	-0.102
-164.823	568.759	-0.048	0.114
-163.808	58.830	0.262	-0.251
-162.793	-109.979	-0.367	-0.075
-161.779	-88.738	0.219	-0.064
-160.764	800.000	-0.087	0.255
-159.750	195.478	0.109	0.162
-158.735	117.195	0.468	0.561
-157.720	800.000	0.059	0.211
-156.706	-114.522	0.139	0.026
-155.691	-141.962	-0.228	-0.022
-154.677	222.047	0.181	0.283
-153.662	-91.112	-0.165	0.046
-152.647	14.601	0.093	0.070
-151.633	-86.767	0.397	0.118
-150.618	800.000	-0.017	-0.066
-149.604	-104.350	0.121	0.027
-148.589	-200.000	0.036	-0.254
-147.574	800.000	-0.057	-0.168
-146.560	-27.841	-0.412	0.233
-145.545	-200.000	-0.025	-0.145
-144.531	-171.523	-0.071	0.002
-143.516	-17.713	0.232	0.142
-142.502	-1.073	0.254	0.175
-141.487	24.735	-0.128	-0.103
-140.472	170.416	0.027	-0.038
-139.458	-87.752	0.205	-0.060
-138.443	-28.507	-0.220	0.124
-137.429	111.495	0.071	0.084
-136.414	800.000	-0.103	0.278
-135.399	-18.538	-0.118	0.072
-134.385	171.170	-0.095	-0.132
-133.370	-131.978	-0.194	0.025
-132.356	-84.597	-0.173	-0.053
-131.341	80.518	-0.137	0.144
-130.326	-54.699	0.146	-0.064
-129.312	-56.315	0.177	0.077
-128.297	-200.000	-0.014	0.149
-127.283	-4.152	-0.071	0.048
-126.268	-200.000	-0.072	0.405
-125.253	-46.473	-0.226	-0.108
-124.239	357.644	0.067	0.130
-123.224	72.823	0.116	-0.118
-122.210	228.028	0.122	0.194
-121.195	229.180	0.043	0.069
