DTS Sentinel unit serial number:	SN413079Multiplexer serial number:	ORYXHardware model number:	OX4-SRSoftware version number:	ORYX F/W v4.00 Oryx Data Collector v3.7.2.0data status	okinstallation	princeton_trtdifferential loss correction	single-endedforward channel	channel 2reverse channel	N/Adate	2019/09/17time	19:03:35forward acquisition time	60.00reverse acquisition time	0.00gamma	496.2192k internal	0.2304k external	0.2304temperature offset calibration	0.9990default loss term (dB/km)	0.3790temperature slope calibration	1.0000multiplexer offset coefficient	1.0000multiplexer slope coefficient	1.0000fibre end	0.00T internal ref (°C)	40.22T ext. ref 1 (°C)	0.28T ext. ref 2 (°C)	28.58length (m)	temperature (°C)	Stokes	anti-Stokes-747.200	26.907	-0.320	0.273
-746.185	69.969	0.220	0.231
-745.171	-200.000	-0.026	0.252
-744.156	68.773	-0.301	0.315
-743.142	45.943	-0.190	-0.179
-742.127	338.446	0.174	0.345
-741.112	-67.240	-0.165	0.066
-740.098	-36.183	0.297	0.163
-739.083	800.000	0.047	0.181
-738.069	-200.000	0.019	0.108
-737.054	800.000	0.024	0.102
-736.039	-36.399	-0.093	-0.051
-735.025	234.070	0.145	0.243
-734.010	147.842	0.073	-0.099
-732.996	-86.439	-0.172	0.054
-731.981	-38.239	0.213	0.115
-730.966	-200.000	-0.011	0.104
-729.952	-103.507	0.318	0.076
-728.937	55.047	-0.029	-0.028
-727.923	-200.000	-0.017	-0.237
-726.908	-200.000	-0.056	0.317
-725.894	-56.412	0.135	0.061
-724.879	-200.000	0.027	0.201
-723.864	150.521	-0.151	-0.208
-722.850	800.000	-0.094	-0.349
-721.835	-67.385	0.253	-0.101
-720.821	-12.617	-0.258	0.171
-719.806	-134.859	0.135	0.017
-718.791	-200.000	-0.056	0.436
-717.777	86.227	-0.139	0.155
-716.762	95.459	0.258	0.299
-715.748	-18.912	0.520	-0.329
-714.733	178.452	0.045	0.067
-713.718	-10.087	-0.287	0.194
-712.704	40.337	-0.322	0.295
-711.689	86.879	-0.375	-0.421
-710.675	-6.351	-0.170	-0.118
-709.660	-105.664	0.520	-0.120
-708.645	-200.000	0.035	0.185
-707.631	800.000	0.030	0.135
-706.616	-100.661	0.329	0.082
-705.602	-158.864	0.151	-0.009
-704.587	-101.563	0.174	-0.043
-703.572	-35.807	0.163	0.090
-702.558	75.032	-0.037	-0.040
-701.543	-83.149	-0.107	-0.035
-700.529	458.193	-0.045	0.103
-699.514	-27.808	0.298	-0.175
-698.499	-200.000	0.031	0.273
-697.485	-164.223	-0.384	0.018
-696.470	-110.831	-0.046	-0.010
-695.456	205.043	-0.116	-0.183
-694.441	-100.688	-0.220	-0.055
-693.426	-101.774	0.039	0.010
-692.412	392.684	0.048	-0.102
-691.397	-157.540	-0.166	0.010
-690.383	800.000	-0.136	-0.388
-689.368	-200.000	-0.340	0.000
-688.354	285.739	0.080	-0.146
-687.339	-69.805	0.191	0.074
-686.324	3.656	-0.284	-0.211
-685.310	-200.000	0.083	-0.388
-684.295	800.000	-0.065	-0.236
-683.281	-131.569	0.215	-0.029
-682.266	-200.000	-0.006	-0.175
-681.251	134.071	0.191	-0.252
-680.237	-87.024	-0.403	0.125
-679.222	-2.810	0.265	-0.188
-678.208	-143.098	-0.576	-0.056
-677.193	-159.195	-0.239	-0.014
-676.178	-122.296	0.135	0.022
-675.164	800.000	0.052	-0.195
-674.149	800.000	0.120	0.412
-673.135	275.177	-0.153	0.275
-672.120	649.874	-0.029	0.076
-671.105	-200.000	0.011	-0.096
-670.091	-200.000	-0.091	-0.434
-669.076	23.480	-0.126	0.105
-668.062	-34.348	-0.207	-0.116
-667.047	118.138	0.155	-0.194
-666.032	395.043	-0.030	-0.063
-665.018	800.000	0.022	-0.069
-664.003	218.710	-0.163	-0.264
-662.989	4.910	-0.229	0.171
-661.974	800.000	-0.049	0.143
-660.959	-95.966	-0.266	-0.072
-659.945	-95.264	-0.215	-0.059
-658.930	-183.349	0.462	0.008
-657.916	800.000	-0.061	0.219
-656.901	-68.421	0.175	0.069
-655.886	-34.822	-0.087	0.048
-654.872	150.223	-0.101	0.139
-653.857	-10.067	0.124	0.084
-652.843	449.812	0.175	0.392
-651.828	335.765	-0.140	0.275
-650.814	-172.685	-0.369	0.012
-649.799	-68.759	-0.154	-0.060
-648.784	-97.805	-0.161	-0.042
-647.770	-122.836	0.264	0.043
-646.755	24.227	-0.225	-0.188
-645.741	557.692	-0.040	-0.098
-644.726	20.447	-0.129	-0.106
-643.711	-84.862	-0.148	0.047
-642.697	2.151	-0.229	-0.168
-641.682	750.906	0.094	0.258
-640.668	-15.269	-0.067	-0.043
-639.653	222.909	-0.062	0.102
-638.638	175.387	-0.049	0.071
-637.624	-33.446	-0.202	-0.113
-636.609	252.172	-0.121	-0.208
-635.595	105.786	0.137	0.164
-634.580	800.000	0.059	-0.172
-633.565	274.324	-0.107	0.191
-632.551	-15.476	0.151	-0.098
-631.536	409.374	0.176	-0.377
-630.522	286.186	0.049	-0.090
-629.507	130.070	-0.092	0.119
-628.492	800.000	0.084	0.248
-627.478	-200.000	-0.018	-0.162
-626.463	-68.190	-0.182	0.072
-625.449	-31.240	-0.170	-0.097
-624.434	508.292	0.075	-0.177
-623.419	-118.902	0.063	0.011
-622.405	-7.713	-0.288	-0.197
-621.390	-146.877	0.078	0.007
-620.376	304.000	-0.123	0.231
-619.361	-17.801	0.163	0.103
-618.346	118.182	-0.048	0.060
-617.332	56.275	0.232	-0.229
-616.317	-48.248	-0.307	-0.150
-615.303	-42.056	0.049	-0.026
-614.288	2.283	-0.125	-0.092
-613.273	40.370	-0.340	-0.310
-612.259	-7.417	-0.206	-0.141
-611.244	800.000	0.098	0.365
-610.230	-122.917	0.125	-0.020
-609.215	-71.974	-0.524	0.197
-608.201	800.000	-0.053	-0.196
-607.186	751.326	-0.079	0.216
-606.171	800.000	0.076	0.217
-605.157	-93.909	0.050	0.014
-604.142	-200.000	0.037	-0.177
-603.128	51.031	0.151	0.145
-602.113	-200.000	-0.041	0.214
-601.098	-74.758	0.144	0.052
-600.084	-48.466	0.013	0.006
-599.069	175.158	0.104	0.152
-598.055	-85.765	0.254	-0.080
-597.040	-29.059	0.197	-0.114
-596.025	88.436	-0.189	0.213
-595.011	-152.109	-0.137	0.010
-593.996	-71.445	0.036	0.014
-592.982	-45.477	-0.234	0.117
-591.967	-200.000	-0.004	-0.161
-590.952	800.000	-0.093	-0.401
-589.938	-117.259	-0.082	-0.015
-588.923	-37.822	0.092	-0.049
-587.909	-127.927	0.081	0.012
-586.894	455.480	-0.086	0.192
-585.879	-89.660	0.149	0.044
-584.865	13.772	0.212	0.167
-583.850	-28.556	0.146	0.085
-582.836	193.577	-0.128	0.196
-581.821	-200.000	0.008	0.177
-580.806	43.997	-0.066	-0.061
-579.792	-66.295	-0.268	0.108
-578.777	-200.000	0.008	0.222
-577.763	-200.000	-0.005	-0.164
-576.748	274.776	-0.138	-0.247
-575.733	-116.966	0.067	0.012
-574.719	113.028	0.021	-0.026
-573.704	56.242	0.079	-0.077
-572.690	-95.574	-0.363	0.098
-571.675	-200.000	-0.292	0.001
-570.661	-200.000	-0.010	-0.152
-569.646	-200.000	-0.019	0.092
-568.631	800.000	-0.087	-0.248
-567.617	-36.248	-0.246	0.134
-566.602	-200.000	-0.018	0.172
-565.588	552.904	-0.047	0.113
-564.573	-117.553	0.263	0.048
-563.558	-200.000	-0.041	-0.233
-562.544	-187.822	0.326	0.004
-561.529	-200.000	-0.042	0.282
-560.515	-20.857	-0.351	0.217
-559.500	-10.435	-0.102	-0.068
-558.485	-200.000	0.018	0.128
-557.471	-13.980	-0.179	-0.117
-556.456	-64.189	0.234	0.097
-555.442	267.675	-0.111	-0.197
-554.427	151.399	-0.045	0.062
-553.412	-73.160	0.297	0.110
-552.398	-58.413	0.394	-0.173
-551.383	-101.468	-0.201	-0.049
-550.369	-49.153	-0.291	0.140
-549.354	-11.306	0.020	0.013
-548.339	-118.343	0.074	-0.013
-547.325	611.242	-0.117	-0.295
-546.310	83.037	0.071	0.078
-545.296	531.911	0.035	-0.083
-544.281	177.869	0.094	0.138
-543.266	-167.708	-0.185	-0.007
-542.252	-103.407	-0.237	0.056
-541.237	-28.069	-0.060	0.035
-540.223	170.658	-0.120	-0.173
-539.208	-66.433	0.194	-0.078
-538.193	-200.000	-0.003	-0.479
-537.179	-1.037	0.163	0.117
-536.164	-200.000	0.005	0.313
-535.150	-200.000	-0.006	-0.284
-534.135	-47.119	0.255	-0.126
-533.121	4.214	0.250	0.185
-532.106	-117.676	-0.047	-0.008
-531.091	800.000	-0.064	-0.195
-530.077	800.000	0.020	0.058
-529.062	351.392	0.066	-0.132
-528.048	292.148	0.098	0.180
-527.033	3.749	-0.117	-0.086
-526.018	207.614	-0.089	-0.141
-525.004	41.563	0.109	-0.100
-523.989	502.880	-0.101	-0.235
-522.975	-68.335	0.342	0.134
-521.960	7.949	0.064	-0.048
-520.945	-116.040	0.246	0.046
-519.931	60.752	-0.234	-0.234
-518.916	-23.876	-0.057	-0.035
-517.902	-200.000	0.007	-0.083
-516.887	-89.409	0.362	0.108
-515.872	-156.708	-0.341	0.021
-514.858	-184.683	0.074	0.001
-513.843	-20.166	0.256	0.159
-512.829	-200.000	0.003	-0.265
-511.814	-25.276	0.164	0.098
-510.799	604.003	0.088	0.222
-509.785	-2.899	0.184	0.130
-508.770	4.645	-0.187	0.139
-507.756	-0.460	-0.077	-0.055
-506.741	-101.539	-0.288	-0.071
-505.726	-138.494	0.114	0.013
-504.712	-200.000	-0.025	-0.277
-503.697	-37.611	-0.195	-0.105
-502.683	-200.000	-0.065	0.325
-501.668	-96.045	-0.272	-0.073
-500.653	-30.811	-0.135	-0.077
-499.639	42.200	-0.013	0.012
-498.624	-17.355	-0.137	-0.087
-497.610	-168.904	0.345	-0.013
-496.595	-26.591	0.166	0.098
-495.581	238.661	-0.076	-0.128
-494.566	-56.838	-0.252	-0.112
-493.551	-72.552	0.148	0.055
-492.537	663.254	0.143	-0.373
-491.522	328.142	0.042	0.082
-490.508	100.473	-0.210	-0.246
-489.493	22.759	0.195	0.161
-488.478	-160.814	-0.178	0.010
-487.464	285.296	-0.075	0.136
-486.449	-200.000	0.050	0.253
-485.435	-47.798	-0.434	0.212
-484.420	173.264	-0.036	-0.053
-483.405	67.721	0.226	0.232
-482.391	-59.797	0.115	0.050
-481.376	-109.968	0.106	-0.022
-480.362	89.768	-0.160	0.180
-479.347	168.590	0.091	-0.131
-478.332	-143.029	-0.151	-0.015
-477.318	-38.979	-0.143	-0.076
-476.303	-200.000	0.054	-0.361
-475.289	108.830	0.026	-0.031
-474.274	46.080	-0.130	-0.121
-473.259	48.797	0.067	0.063
-472.245	-200.000	-0.042	-0.245
-471.230	372.592	-0.091	0.185
-470.216	-200.000	0.001	-0.329
-469.201	-200.000	-0.008	-0.187
-468.186	24.150	-0.201	0.167
-467.172	-200.000	-0.008	0.387
-466.157	-48.312	-0.147	0.071
-465.143	-68.992	0.281	0.109
-464.128	43.433	-0.106	-0.097
-463.113	21.330	0.251	0.206
-462.099	800.000	-0.063	0.224
-461.084	171.770	0.060	-0.086
-460.070	-98.860	-0.329	0.084
-459.055	-200.000	0.002	0.012
-458.040	-190.747	-0.375	0.004
-457.026	-78.500	-0.301	0.104
-456.011	-200.000	-0.001	-0.066
-454.997	-200.000	-0.033	-0.278
-453.982	-200.000	-0.052	0.237
-452.968	-162.311	0.160	0.008
-451.953	-1.735	-0.065	0.046
-450.938	83.574	-0.013	-0.015
-449.924	-200.000	-0.028	-0.224
-448.909	-184.784	-0.139	0.002
-447.895	-200.000	0.025	-0.225
-446.880	7.700	0.073	-0.055
-445.865	480.590	-0.028	-0.064
-444.851	-200.000	0.009	-0.069
-443.836	-57.048	0.316	-0.140
-442.822	-87.221	0.014	0.004
-441.807	-64.812	0.324	-0.132
-440.792	645.616	-0.115	-0.296
-439.778	-200.000	0.057	0.438
-438.763	-85.187	0.239	-0.075
-437.749	-20.569	0.253	0.156
-436.734	800.000	-0.092	0.393
-435.719	800.000	-0.038	0.124
-434.705	293.448	-0.251	0.460
-433.690	184.951	0.071	0.106
-432.676	-118.550	-0.176	0.031
-431.661	800.000	0.113	0.409
-430.646	176.195	0.220	-0.321
-429.632	471.974	-0.121	0.274
-428.617	800.000	-0.014	-0.058
-427.603	464.579	0.055	-0.123
-426.588	-200.000	0.017	-0.104
-425.573	-42.843	0.355	0.181
-424.559	418.198	-0.142	0.305
-423.544	72.838	-0.099	-0.104
-422.530	24.957	0.097	0.081
-421.515	2.800	0.177	-0.129
-420.500	-58.618	0.153	-0.067
-419.486	44.835	-0.071	-0.065
-418.471	223.100	0.054	-0.088
-417.457	-74.362	0.316	-0.115
-416.442	-38.238	-0.086	-0.046
-415.428	66.220	0.215	0.220
-414.413	-113.054	0.303	0.060
-413.398	-123.297	-0.313	-0.050
-412.384	50.137	-0.189	-0.180
-411.369	-200.000	0.005	-0.231
-410.355	-200.000	0.001	0.031
-409.340	-200.000	-0.033	-0.211
-408.325	800.000	-0.111	0.372
-407.311	-127.771	0.099	0.014
-406.296	-100.382	-0.332	-0.083
-405.282	-26.706	-0.153	-0.090
-404.267	-91.524	-0.183	0.052
-403.252	-27.275	-0.240	-0.140
-402.238	800.000	0.073	-0.227
-401.223	-200.000	0.010	0.211
-400.209	-81.244	0.164	-0.054
-399.194	59.554	0.145	-0.143
-398.179	-96.239	0.091	-0.024
-397.165	314.522	0.141	-0.266
-396.150	370.602	0.077	0.157
-395.136	-200.000	0.001	0.175
-394.121	226.334	0.137	0.223
-393.106	-118.046	-0.144	0.026
-392.092	198.286	0.197	0.303
-391.077	-76.850	0.381	0.134
-390.063	769.679	0.072	0.197
-389.048	123.858	0.195	-0.245
-388.033	-64.075	-0.327	-0.134
-387.019	203.350	-0.068	-0.105
-386.004	354.915	0.135	-0.269
-384.990	-183.664	0.155	-0.003
-383.975	-142.744	-0.147	0.014
-382.960	100.143	0.169	0.197
-381.946	88.103	-0.121	-0.135
-380.931	204.272	0.098	-0.152
-379.917	386.327	0.233	-0.484
-378.902	197.883	-0.042	-0.064
-377.888	-168.615	0.055	0.002
-376.873	-87.824	-0.103	0.031
-375.858	233.833	-0.070	0.115
-374.844	-103.386	0.088	0.021
-373.829	-124.162	0.183	0.029
-372.815	-157.357	0.196	0.012
-371.800	-200.000	0.020	-0.169
-370.785	-200.000	-0.034	0.331
-369.771	247.791	0.138	-0.235
-368.756	-62.390	0.369	0.154
-367.742	-81.726	0.514	-0.169
-366.727	-7.589	0.423	-0.287
-365.712	800.000	-0.077	-0.251
-364.698	-200.000	0.021	-0.370
-363.683	85.993	-0.115	-0.127
-362.669	-43.394	0.094	0.048
-361.654	-200.000	-0.007	0.125
-360.639	84.589	-0.096	-0.106
-359.625	-200.000	-0.003	-0.066
-358.610	-200.000	-0.017	-0.122
-357.596	128.428	0.163	-0.208
-356.581	-44.704	0.097	0.049
-355.566	-200.000	0.009	0.096
-354.552	79.823	-0.076	0.082
-353.537	-200.000	0.016	-0.316
-352.523	362.698	-0.123	0.247
-351.508	-200.000	0.029	0.207
-350.493	530.474	0.056	-0.134
-349.479	-78.097	-0.338	0.117
-348.464	15.456	0.231	0.182
-347.450	404.079	0.171	-0.361
-346.435	800.000	0.066	0.236
-345.420	41.369	0.047	-0.043
-344.406	800.000	-0.023	0.091
-343.391	-96.886	-0.213	-0.056
-342.377	28.264	0.074	-0.063
-341.362	800.000	0.049	0.197
-340.348	-45.888	0.197	0.097
-339.333	-200.000	-0.091	-0.400
-338.318	288.399	-0.051	-0.092
-337.304	315.566	0.173	-0.327
-336.289	-39.904	-0.034	0.018
-335.275	800.000	-0.039	-0.156
-334.260	-200.000	-0.011	0.158
-333.245	-29.469	-0.046	0.026
-332.231	-77.827	-0.232	0.080
-331.216	-200.000	0.051	0.233
-330.202	-94.534	0.292	-0.080
-329.187	-200.000	-0.058	-0.364
-328.172	-200.000	0.000	0.111
-327.158	-200.000	0.007	0.080
-326.143	800.000	0.044	-0.170
-325.129	-121.943	0.269	-0.044
-324.114	-38.795	0.206	0.109
-323.099	18.231	0.112	-0.090
-322.085	39.785	0.285	-0.256
-321.070	-151.861	0.279	0.020
-320.056	-194.344	0.111	0.001
-319.041	-106.576	-0.061	-0.014
-318.026	84.030	0.311	0.340
-317.012	-10.298	0.129	-0.086
-315.997	-35.914	-0.373	-0.202
-314.983	51.103	0.093	-0.089
-313.968	-79.136	-0.394	-0.134
-312.953	147.685	-0.162	0.218
-311.939	-200.000	0.025	0.243
-310.924	800.000	0.049	-0.197
-309.910	-64.127	0.063	0.026
-308.895	-86.153	0.162	0.050
-307.880	-27.425	0.116	0.067
-306.866	800.000	0.072	0.200
-305.851	18.013	0.220	-0.176
-304.837	-86.638	0.334	0.102
-303.822	-117.714	0.250	-0.045
-302.807	-200.000	-0.035	-0.338
-301.793	-90.133	0.059	0.017
-300.778	648.756	-0.090	-0.229
-299.764	-59.213	0.255	-0.110
-298.749	662.349	-0.099	0.256
-297.735	-200.000	-0.067	-0.331
-296.720	154.705	-0.077	-0.106
-295.705	210.004	0.165	0.259
-294.691	704.678	0.098	0.259
-293.676	-200.000	0.014	0.138
-292.662	-65.194	-0.186	0.075
-291.647	-5.388	-0.208	0.143
-290.632	201.837	-0.219	-0.338
-289.618	-63.642	0.242	0.099
-288.603	48.312	0.076	-0.071
-287.589	-14.168	0.038	-0.025
-286.574	156.499	0.077	-0.106
-285.559	-200.000	-0.012	-0.184
-284.545	-200.000	-0.009	-0.120
-283.530	412.131	-0.033	0.071
-282.516	78.226	-0.055	-0.058
-281.501	-200.000	0.036	0.382
-280.486	50.822	-0.087	0.083
-279.472	-51.289	0.234	0.110
-278.457	-187.788	0.205	0.003
-277.443	-4.576	0.108	0.074
-276.428	-60.874	-0.240	-0.102
-275.413	-16.856	-0.197	-0.124
-274.399	-200.000	0.020	-0.111
-273.384	-200.000	-0.015	-0.198
-272.370	66.087	-0.144	0.146
-271.355	2.157	-0.036	-0.026
-270.340	55.511	0.090	0.087
-269.326	26.485	-0.153	-0.128
-268.311	-101.372	0.093	-0.023
-267.297	266.939	0.124	0.217
-266.282	224.024	0.100	0.162
-265.267	-1.957	-0.113	0.079
-264.253	97.821	-0.263	-0.302
-263.238	164.287	-0.240	-0.337
-262.224	-131.553	-0.429	-0.056
-261.209	-200.000	0.001	0.134
-260.195	741.530	-0.081	-0.218
-259.180	-20.395	0.201	0.123
-258.165	-200.000	-0.015	0.153
-257.151	-76.019	-0.224	0.079
-256.136	467.913	-0.232	0.520
-255.122	-61.196	0.152	0.064
-254.107	92.348	-0.190	-0.214
-253.092	800.000	0.066	0.246
-252.078	800.000	-0.023	0.070
-251.063	-180.338	-0.456	0.010
-250.049	14.846	-0.154	0.120
-249.034	-200.000	0.026	-0.278
-248.019	207.032	-0.105	-0.163
-247.005	-118.467	0.113	0.020
-245.990	199.169	-0.117	-0.179
-244.976	-50.170	-0.286	0.135
-243.961	27.548	-0.047	-0.039
-242.946	-19.962	-0.266	0.164
-241.932	-200.000	-0.009	0.076
-240.917	185.785	0.166	0.246
-239.903	4.661	0.263	-0.193
-238.888	775.016	0.022	0.060
-237.873	800.000	-0.203	0.593
-236.859	153.113	0.153	0.209
-235.844	-5.668	-0.155	0.106
-234.830	301.606	-0.103	-0.190
-233.815	800.000	-0.112	0.472
-232.800	-11.639	-0.105	-0.069
-231.786	-40.563	-0.274	-0.142
-230.771	-200.000	-0.023	-0.185
-229.757	175.839	-0.133	0.193
-228.742	65.700	-0.156	0.158
-227.727	30.939	0.063	-0.054
-226.713	-125.004	-0.051	0.008
-225.698	-61.795	-0.156	-0.065
-224.684	-85.965	0.113	-0.035
-223.669	-94.289	0.270	-0.074
-222.655	-16.510	-0.161	-0.102
-221.640	240.106	-0.090	0.149
-220.625	800.000	-0.049	-0.213
-219.611	-32.464	-0.029	0.016
-218.596	-125.164	0.194	-0.030
-217.582	8.731	0.165	-0.124
-216.567	-62.731	-0.235	-0.097
-215.552	-200.000	-0.030	-0.133
-214.538	74.579	-0.175	-0.183
-213.523	800.000	0.051	-0.186
-212.509	-158.297	-0.281	0.016
-211.494	-139.223	0.435	0.047
-210.479	-92.923	0.073	0.020
-209.465	-200.000	-0.015	-0.132
-208.450	1.756	-0.092	0.066
-207.436	705.495	0.078	0.205
-206.421	800.000	-0.096	0.335
-205.406	800.000	0.053	0.169
-204.392	200.875	0.186	0.285
-203.377	800.000	0.036	0.109
-202.363	-118.563	-0.349	-0.061
-201.348	320.618	0.258	-0.489
-200.333	486.436	-0.154	0.349
-199.319	800.000	-0.123	-0.426
-198.304	54.440	0.273	-0.262
-197.290	-200.000	0.026	-0.115
-196.275	124.972	-0.128	0.161
-195.260	-200.000	0.079	0.396
-194.246	364.064	0.092	0.185
-193.231	728.148	-0.100	0.265
-192.217	-200.000	-0.008	0.062
-191.202	-200.000	-0.027	-0.286
-190.187	10.203	0.102	-0.077
-189.173	23.721	-0.172	-0.141
-188.158	497.272	0.139	0.320
-187.144	559.916	-0.107	0.257
-186.129	254.109	0.122	-0.207
-185.114	267.609	-0.117	0.203
-184.100	800.000	-0.111	0.380
-183.085	112.758	0.056	0.068
-182.071	-8.144	0.355	-0.238
-181.056	129.736	-0.174	-0.222
-180.042	-130.285	-0.131	0.018
-179.027	-96.715	0.118	0.031
-178.012	-200.000	0.028	-0.212
-176.998	800.000	-0.020	0.068
-175.983	-200.000	0.012	0.278
-174.969	181.697	-0.186	0.272
-173.954	183.461	-0.125	0.184
-172.939	-55.089	0.253	-0.113
-171.925	-75.760	0.142	0.050
-170.910	60.294	0.144	0.142
-169.896	59.179	0.231	0.226
-168.881	77.837	-0.156	-0.165
-167.866	800.000	0.045	-0.163
-166.852	164.385	0.220	0.308
-165.837	800.000	-0.027	-0.079
-164.823	-200.000	0.035	-0.238
-163.808	2.631	0.359	0.259
-162.793	16.174	-0.205	0.161
-161.779	434.592	-0.045	-0.098
-160.764	-136.802	0.202	-0.023
-159.750	-21.254	-0.310	0.189
-158.735	387.939	-0.096	0.197
-157.720	72.367	-0.098	0.102
-156.706	-0.950	0.080	-0.056
-155.691	-200.000	-0.006	-0.220
-154.677	25.523	0.138	-0.115
-153.662	-149.060	0.210	0.017
-152.647	-200.000	-0.060	0.276
-151.633	4.710	-0.231	-0.169
-150.618	314.416	0.047	-0.089
-149.604	715.562	0.008	-0.022
-148.589	-60.781	0.127	0.053
-147.574	431.089	0.125	-0.268
-146.560	-163.752	0.309	0.014
-145.545	-200.000	0.019	0.189
-144.531	-164.964	-0.334	-0.015
-143.516	-200.000	0.015	-0.170
-142.502	118.844	0.197	0.242
-141.487	-200.000	0.053	-0.297
-140.472	-145.069	-0.284	0.026
-139.458	800.000	0.043	0.134
-138.443	710.795	0.079	-0.207
-137.429	81.377	0.029	-0.031
-136.414	40.238	-0.113	0.101
-135.399	386.698	0.029	-0.059
-134.385	-71.867	0.164	0.061
-133.370	44.836	0.170	-0.155
-132.356	-200.000	-0.008	0.164
-131.341	-200.000	0.010	-0.343
-130.326	5.200	-0.232	-0.170
-129.312	94.988	0.081	0.092
-128.297	350.386	-0.091	-0.179
-127.283	-139.334	-0.046	-0.005
-126.268	123.323	0.114	-0.142
-125.253	-63.112	0.015	-0.006
-124.239	-63.197	0.098	0.040
-123.224	800.000	-0.087	-0.316
-122.210	-41.653	0.037	-0.019
-121.195	-166.737	0.141	0.006
-120.180	-200.000	-0.100	0.540
