DTS Sentinel unit serial number:	SN413079Multiplexer serial number:	ORYXHardware model number:	OX4-SRSoftware version number:	ORYX F/W v4.00 Oryx Data Collector v3.7.2.0data status	okinstallation	princeton_trtdifferential loss correction	single-endedforward channel	channel 2reverse channel	N/Adate	2019/09/16time	01:47:35forward acquisition time	60.00reverse acquisition time	0.00gamma	496.2192k internal	0.2336k external	0.2336temperature offset calibration	0.9965default loss term (dB/km)	0.3790temperature slope calibration	1.0000multiplexer offset coefficient	1.0000multiplexer slope coefficient	1.0000fibre end	0.00T internal ref (°C)	27.37T ext. ref 1 (°C)	10.02T ext. ref 2 (°C)	22.25length (m)	temperature (°C)	Stokes	anti-Stokes-747.200	787.297	0.094	0.258
-746.185	206.446	-0.190	-0.297
-745.171	186.336	-0.083	0.124
-744.156	424.214	-0.150	0.323
-743.142	308.173	-0.122	0.228
-742.127	-147.202	-0.183	-0.016
-741.112	-14.470	-0.086	0.056
-740.098	-200.000	-0.062	0.341
-739.083	672.924	-0.113	0.295
-738.069	293.371	-0.219	-0.401
-737.054	429.071	0.056	-0.122
-736.039	555.114	0.037	0.090
-735.025	-141.083	0.070	0.007
-734.010	-155.359	0.251	-0.016
-732.996	800.000	-0.061	-0.177
-731.981	-200.000	0.027	0.130
-730.966	-200.000	0.026	0.152
-729.952	209.890	-0.168	-0.264
-728.937	-155.371	-0.227	0.015
-727.923	77.022	0.016	-0.017
-726.908	405.696	-0.081	-0.172
-725.894	-7.730	-0.279	0.189
-724.879	58.750	-0.166	0.163
-723.864	172.166	-0.038	-0.054
-722.850	-73.412	0.139	-0.051
-721.835	208.380	0.190	-0.298
-720.821	17.614	-0.167	-0.133
-719.806	90.800	0.045	-0.051
-718.791	-151.408	-0.050	-0.004
-717.777	-94.477	0.189	0.052
-716.762	26.062	0.106	-0.088
-715.748	-200.000	-0.024	0.196
-714.733	-143.454	-0.291	0.028
-713.718	-139.924	0.400	0.042
-712.704	337.050	-0.065	0.127
-711.689	526.363	-0.071	-0.167
-710.675	-149.989	-0.098	0.008
-709.660	55.204	0.121	-0.117
-708.645	248.435	-0.149	-0.253
-707.631	-200.000	0.224	0.001
-706.616	62.146	-0.150	0.150
-705.602	-13.320	-0.104	0.067
-704.587	126.216	-0.317	-0.402
-703.572	800.000	0.099	0.340
-702.558	237.797	-0.184	0.307
-701.543	-200.000	0.014	0.363
-700.529	-104.612	-0.348	0.081
-699.514	58.060	0.316	-0.311
-698.499	41.191	0.253	0.229
-697.485	19.607	-0.170	-0.137
-696.470	-9.610	0.263	-0.176
-695.456	-200.000	0.008	-0.153
-694.441	800.000	0.045	-0.148
-693.426	1.807	0.077	0.056
-692.412	-167.371	0.255	-0.010
-691.397	54.715	-0.200	0.193
-690.383	59.053	-0.072	0.071
-689.368	-132.456	0.121	0.016
-688.354	-200.000	0.000	-0.015
-687.339	-57.300	-0.228	-0.101
-686.324	800.000	-0.061	-0.216
-685.310	-200.000	-0.025	0.179
-684.295	160.341	-0.051	0.071
-683.281	-200.000	0.003	0.117
-682.266	17.714	-0.353	0.281
-681.251	193.399	0.325	0.493
-680.237	344.253	0.045	0.089
-679.222	214.129	0.162	0.257
-678.208	7.069	-0.216	-0.161
-677.193	-13.228	0.327	0.213
-676.178	-129.314	-0.074	-0.010
-675.164	283.084	-0.142	-0.256
-674.149	-96.891	0.444	0.117
-673.135	-28.441	-0.059	-0.034
-672.120	-118.737	-0.261	0.046
-671.105	800.000	-0.013	-0.051
-670.091	-102.633	0.141	0.034
-669.076	70.350	-0.218	0.226
-668.062	-88.831	-0.453	-0.135
-667.047	-180.638	-0.357	-0.007
-666.032	62.161	0.160	0.160
-665.018	-19.123	0.146	-0.091
-664.003	-34.756	0.334	0.183
-662.989	143.360	0.237	0.316
-661.974	-59.180	-0.184	-0.079
-660.959	800.000	-0.129	-0.389
-659.945	-132.417	0.369	0.048
-658.930	-158.920	-0.431	0.025
-657.916	-23.668	-0.263	-0.158
-656.901	128.844	-0.169	-0.215
-655.886	-200.000	0.008	-0.191
-654.872	-91.495	-0.138	-0.039
-653.857	17.547	-0.151	0.120
-652.843	30.622	-0.180	-0.154
-651.828	26.004	0.091	-0.076
-650.814	-37.181	0.204	0.109
-649.799	-18.244	0.200	0.125
-648.784	-42.662	-0.061	0.031
-647.770	253.380	-0.064	-0.109
-646.755	-163.933	0.135	-0.006
-645.741	-200.000	-0.038	-0.240
-644.726	-200.000	-0.087	-0.468
-643.711	-60.248	-0.125	-0.053
-642.697	-200.000	-0.024	-0.285
-641.682	182.951	-0.083	0.122
-640.668	-12.860	-0.154	-0.100
-639.653	-21.462	-0.123	-0.075
-638.638	-45.622	-0.122	0.060
-637.624	-200.000	0.003	-0.148
-636.609	-200.000	0.062	0.475
-635.595	1.457	-0.272	-0.195
-634.580	-79.644	0.203	-0.069
-633.565	-200.000	-0.018	0.120
-632.551	-200.000	0.015	-0.125
-631.536	800.000	0.082	0.237
-630.522	32.932	0.238	0.206
-629.507	59.485	0.113	-0.111
-628.492	-106.992	-0.165	0.037
-627.478	-12.491	0.152	0.099
-626.463	-137.251	-0.217	0.025
-625.449	155.582	0.014	-0.019
-624.434	-25.609	0.121	-0.071
-623.419	644.819	-0.043	0.110
-622.405	462.071	-0.151	0.336
-621.390	-68.789	-0.254	-0.098
-620.376	166.045	-0.194	0.274
-619.361	800.000	0.040	0.169
-618.346	-200.000	0.016	-0.120
-617.332	37.403	-0.359	-0.318
-616.317	-145.083	-0.200	-0.018
-615.303	186.111	0.133	0.198
-614.288	-200.000	-0.072	-0.470
-613.273	800.000	0.019	-0.075
-612.259	-109.247	0.281	0.060
-611.244	800.000	0.006	-0.021
-610.230	320.086	0.120	-0.228
-609.215	-200.000	0.012	0.213
-608.201	-26.815	0.013	-0.007
-607.186	800.000	-0.121	-0.508
-606.171	265.063	0.030	-0.052
-605.157	373.147	-0.070	0.142
-604.142	800.000	0.088	0.348
-603.128	239.873	-0.101	0.168
-602.113	-25.555	0.212	0.125
-601.098	20.137	-0.115	-0.093
-600.084	-200.000	-0.015	0.181
-599.069	-57.812	-0.195	0.085
-598.055	129.810	0.098	-0.125
-597.040	-104.977	0.095	-0.022
-596.025	800.000	0.147	-0.438
-595.011	-195.816	0.266	0.002
-593.996	629.194	0.105	0.265
-592.982	177.263	0.095	-0.138
-591.967	225.114	0.205	0.331
-590.952	404.749	0.134	0.281
-589.938	-200.000	0.040	0.244
-588.923	156.079	0.072	0.098
-587.909	-200.000	-0.029	-0.261
-586.894	-119.743	0.166	-0.029
-585.879	231.465	0.040	-0.066
-584.865	233.792	0.195	-0.321
-583.850	87.274	-0.070	0.077
-582.836	-51.921	-0.239	0.111
-581.821	-147.562	0.338	-0.028
-580.806	-89.795	-0.065	-0.019
-579.792	-73.362	0.080	0.029
-578.777	316.208	0.037	0.069
-577.763	-200.000	-0.018	0.087
-576.748	-200.000	-0.002	-0.152
-575.733	-200.000	-0.001	-0.080
-574.719	800.000	-0.050	-0.143
-573.704	800.000	0.014	0.053
-572.690	123.300	0.250	-0.312
-571.675	146.806	-0.115	0.154
-570.661	147.887	0.088	0.118
-569.646	-146.888	-0.226	0.019
-568.631	347.991	-0.074	-0.145
-567.617	-22.559	-0.178	-0.107
-566.602	113.988	-0.117	-0.142
-565.588	-200.000	-0.023	-0.217
-564.573	-64.145	0.148	-0.060
-563.558	-77.937	0.105	0.036
-562.544	251.327	-0.175	0.297
-561.529	186.848	-0.290	-0.430
-560.515	-80.550	0.339	0.113
-559.500	-153.097	-0.167	0.012
-558.485	-50.334	0.168	0.079
-557.471	-98.364	-0.224	-0.057
-556.456	-115.988	0.420	-0.078
-555.442	-200.000	0.027	-0.230
-554.427	-200.000	0.143	-0.653
-553.412	-200.000	0.029	-0.336
-552.398	-200.000	0.005	0.049
-551.383	-146.219	0.270	-0.024
-550.369	800.000	0.043	-0.136
-549.354	-174.844	-0.320	0.009
-548.339	12.721	-0.234	0.180
-547.325	665.406	0.074	-0.191
-546.310	-185.352	0.163	0.002
-545.296	529.859	-0.169	0.397
-544.281	-56.593	-0.305	0.135
-543.266	18.657	-0.158	0.126
-542.252	-16.115	0.104	-0.066
-541.237	469.067	0.062	-0.140
-540.223	-28.910	0.153	-0.088
-539.208	-107.726	-0.118	0.026
-538.193	-52.403	0.246	0.114
-537.179	45.822	0.116	-0.107
-536.164	3.819	-0.182	0.133
-535.150	800.000	-0.052	0.188
-534.135	158.037	-0.016	0.023
-533.121	-13.599	-0.213	0.137
-532.106	464.589	0.162	0.360
-531.091	-35.773	-0.189	0.102
-530.077	-110.661	-0.175	-0.036
-529.062	-28.062	-0.076	0.044
-528.048	571.728	-0.112	0.272
-527.033	89.233	-0.111	0.123
-526.018	65.716	0.118	-0.119
-525.004	800.000	0.081	-0.327
-523.989	346.163	0.047	-0.092
-522.975	-120.453	0.447	0.076
-521.960	-90.741	-0.156	-0.045
-520.945	-200.000	-0.043	-0.378
-519.931	800.000	0.075	-0.228
-518.916	199.625	0.191	-0.291
-517.902	149.306	-0.201	0.271
-516.887	-42.579	-0.265	0.134
-515.872	-26.523	0.421	0.245
-514.858	800.000	-0.031	-0.106
-513.843	-200.000	-0.019	0.155
-512.829	265.809	0.157	0.273
-511.814	-40.717	0.168	0.087
-510.799	114.228	-0.135	-0.163
-509.785	88.495	-0.105	-0.116
-508.770	-200.000	0.007	0.112
-507.756	800.000	-0.003	-0.010
-506.741	64.784	0.080	-0.080
-505.726	691.287	0.109	-0.285
-504.712	-200.000	0.004	-0.191
-503.697	800.000	-0.072	-0.269
-502.683	-0.920	0.106	0.074
-501.668	-63.790	0.378	-0.154
-500.653	-28.900	-0.100	-0.057
-499.639	-200.000	0.042	0.274
-498.624	4.893	0.049	0.036
-497.610	800.000	-0.063	-0.190
-496.595	-187.408	0.093	-0.001
-495.581	179.275	-0.184	-0.268
-494.566	445.423	-0.048	-0.104
-493.551	-52.281	-0.306	0.141
-492.537	-6.120	-0.182	-0.124
-491.522	-200.000	-0.038	0.365
-490.508	-135.673	-0.269	0.032
-489.493	-117.701	-0.356	0.064
-488.478	-132.397	-0.185	0.024
-487.464	564.005	-0.063	0.153
-486.449	224.143	0.079	0.127
-485.435	-172.235	-0.288	0.009
-484.420	1.615	0.440	0.315
-483.405	248.576	-0.129	-0.218
-482.391	-57.032	-0.165	0.072
-481.376	86.076	0.236	0.258
-480.362	472.465	-0.112	-0.251
-479.347	-74.137	0.335	0.120
-478.332	92.824	-0.197	0.221
-477.318	3.859	-0.109	0.079
-476.303	-55.755	0.108	-0.048
-475.289	0.198	0.151	0.107
-474.274	-200.000	0.046	-0.306
-473.259	-120.879	0.323	0.054
-472.245	429.536	-0.138	0.297
-471.230	23.354	-0.137	-0.112
-470.216	17.849	-0.092	0.072
-469.201	342.059	-0.115	-0.223
-468.186	347.304	-0.026	0.051
-467.172	-190.773	-0.138	0.001
-466.157	-200.000	0.076	0.668
-465.143	88.969	0.123	0.136
-464.128	469.600	0.056	0.125
-463.113	-2.694	-0.152	-0.105
-462.099	-200.000	-0.029	-0.182
-461.084	-88.619	-0.143	-0.042
-460.070	123.230	0.117	0.146
-459.055	-75.749	-0.159	0.056
-458.040	-200.000	-0.005	-0.272
-457.026	158.574	-0.066	0.090
-456.011	800.000	-0.045	-0.138
-454.997	-171.861	0.104	0.003
-453.982	68.791	0.233	-0.237
-452.968	224.958	0.073	0.117
-451.953	-41.997	-0.375	-0.190
-450.938	-144.709	0.147	0.013
-449.924	290.020	0.046	0.084
-448.909	-63.929	-0.095	0.038
-447.895	-60.810	0.378	0.159
-446.880	-76.405	0.097	0.034
-445.865	-133.538	0.164	0.020
-444.851	-28.623	-0.250	0.143
-443.836	348.089	0.167	-0.326
-442.822	800.000	0.055	-0.182
-441.807	-95.841	-0.190	0.050
-440.792	-61.685	0.080	0.033
-439.778	33.773	-0.067	0.058
-438.763	-3.133	0.051	-0.035
-437.749	-118.078	0.296	0.052
-436.734	-147.784	-0.133	-0.011
-435.719	-26.613	-0.245	0.142
-434.705	123.620	0.200	0.249
-433.690	-200.000	0.054	-0.257
-432.676	147.596	0.184	-0.246
-431.661	513.649	-0.118	0.272
-430.646	-200.000	0.027	-0.128
-429.632	-104.952	0.082	0.019
-428.617	800.000	0.064	0.275
-427.603	125.535	-0.178	-0.223
-426.588	-200.000	-0.037	0.263
-425.573	-200.000	-0.018	-0.147
-424.559	105.608	0.138	-0.161
-423.544	-105.412	-0.275	0.062
-422.530	-68.025	-0.232	0.090
-421.515	-13.026	-0.171	0.110
-420.500	-200.000	0.002	0.333
-419.486	-174.156	0.075	0.002
-418.471	45.944	0.155	0.142
-417.457	800.000	0.076	0.242
-416.442	-44.075	-0.216	-0.107
-415.428	102.812	0.115	-0.133
-414.413	50.753	-0.279	-0.262
-413.398	-126.620	-0.118	0.017
-412.384	-200.000	-0.000	-0.068
-411.369	-81.309	-0.219	-0.072
-410.355	-93.782	0.203	-0.055
-409.340	-174.870	0.045	-0.001
-408.325	-24.151	-0.347	-0.205
-407.311	507.352	-0.072	-0.165
-406.296	-58.635	0.386	0.166
-405.282	-132.250	-0.285	-0.037
-404.267	-200.000	0.039	-0.324
-403.252	-54.449	-0.083	-0.037
-402.238	-83.062	0.294	-0.094
-401.223	-200.000	-0.041	-0.209
-400.209	-200.000	0.000	-0.062
-399.194	253.313	0.164	-0.277
-398.179	800.000	-0.072	0.252
-397.165	586.498	-0.151	-0.368
-396.150	-108.582	-0.371	0.079
-395.136	-200.000	-0.031	-0.214
-394.121	38.534	0.073	0.064
-393.106	681.940	-0.036	-0.093
-392.092	-200.000	0.005	-0.198
-391.077	-105.337	0.098	0.022
-390.063	242.190	0.157	-0.261
-389.048	-200.000	0.009	0.324
-388.033	-7.477	0.109	0.073
-387.019	404.607	0.189	-0.393
-386.004	237.476	0.091	0.150
-384.990	800.000	0.051	-0.177
-383.975	181.779	0.149	0.217
-382.960	28.359	-0.107	0.090
-381.946	672.771	0.089	-0.229
-380.931	52.857	-0.054	-0.051
-379.917	-200.000	-0.077	-0.374
-378.902	800.000	0.032	-0.118
-377.888	-200.000	0.013	-0.193
-376.873	-200.000	-0.003	0.290
-375.858	-135.640	0.419	0.049
-374.844	328.688	0.161	-0.307
-373.829	62.070	0.164	0.161
-372.815	-200.000	-0.001	0.276
-371.800	800.000	0.029	0.099
-370.785	-29.287	0.043	-0.024
-369.771	-38.095	-0.064	-0.034
-368.756	800.000	-0.074	-0.233
-367.742	800.000	0.073	0.236
-366.727	-200.000	-0.001	0.126
-365.712	-51.470	-0.175	0.081
-364.698	368.929	0.079	-0.159
-363.683	-10.626	0.174	-0.114
-362.669	-17.969	-0.139	-0.086
-361.654	-175.351	0.223	0.006
-360.639	800.000	-0.029	-0.114
-359.625	800.000	-0.044	-0.135
-358.610	-200.000	0.003	-0.081
-357.596	-131.194	-0.169	0.022
-356.581	64.692	-0.079	-0.078
-355.566	-97.550	0.125	0.032
-354.552	-200.000	-0.002	-0.221
-353.537	10.959	-0.135	0.102
-352.523	46.071	0.165	0.151
-351.508	77.778	0.108	-0.113
-350.493	137.701	-0.070	0.091
-349.479	-125.214	0.133	0.020
-348.464	152.930	-0.151	-0.204
-347.450	-107.373	-0.215	-0.047
-346.435	106.465	0.106	0.125
-345.420	240.524	0.126	0.208
-344.406	73.648	-0.058	0.060
-343.391	-32.453	0.138	-0.076
-342.377	-112.864	0.213	0.042
-341.362	-95.368	-0.161	-0.043
-340.348	-122.430	0.368	-0.059
-339.333	-50.117	0.013	0.006
-338.318	56.289	0.261	-0.250
-337.304	61.311	-0.170	-0.167
-336.289	119.481	-0.101	0.123
-335.275	-200.000	-0.045	0.217
-334.260	94.879	-0.088	0.099
-333.245	382.628	-0.141	-0.286
-332.231	-3.130	0.151	-0.104
-331.216	-22.134	0.224	0.134
-330.202	-64.437	-0.211	0.085
-329.187	-36.378	-0.351	0.187
-328.172	800.000	0.077	-0.219
-327.158	200.288	0.125	0.190
-326.143	-200.000	-0.020	0.389
-325.129	51.967	-0.165	0.155
-324.114	800.000	0.085	0.367
-323.099	-114.641	-0.250	-0.047
-322.085	800.000	0.028	0.092
-321.070	-59.574	0.231	-0.098
-320.056	-200.000	-0.007	-0.138
-319.041	366.099	-0.108	0.215
-318.026	-200.000	0.019	0.331
-317.012	21.292	-0.294	-0.236
-315.997	-152.831	-0.045	-0.003
-314.983	800.000	0.020	0.054
-313.968	143.397	0.215	-0.283
-312.953	-131.938	-0.397	-0.051
-311.939	-130.191	-0.312	0.042
-310.924	800.000	-0.047	-0.130
-309.910	11.505	-0.106	0.080
-308.895	-200.000	0.023	-0.173
-307.880	800.000	-0.078	0.219
-306.866	-53.892	0.129	-0.058
-305.851	133.211	-0.040	-0.051
-304.837	230.351	0.093	0.151
-303.822	-5.715	0.140	0.095
-302.807	800.000	-0.065	0.278
-301.793	-126.441	0.055	-0.008
-300.778	800.000	0.037	0.129
-299.764	77.668	0.114	0.120
-298.749	365.303	-0.026	-0.051
-297.735	594.612	-0.116	0.284
-296.720	65.122	0.180	0.179
-295.705	12.078	0.113	0.086
-294.691	46.076	-0.183	-0.167
-293.676	-200.000	0.006	-0.159
-292.662	-118.407	-0.086	0.015
-291.647	114.417	0.152	0.183
-290.632	-1.706	0.339	-0.235
-289.618	-53.351	0.315	-0.142
-288.603	-200.000	0.017	-0.392
-287.589	-12.247	0.118	-0.076
-286.574	800.000	-0.107	-0.425
-285.559	-101.370	0.221	-0.053
-284.545	352.328	-0.028	0.055
-283.530	396.549	-0.150	0.308
-282.516	394.814	-0.137	0.282
-281.501	-117.764	0.187	0.033
-280.486	557.875	0.243	-0.577
-279.472	314.213	-0.035	0.065
-278.457	-145.248	-0.158	-0.014
-277.443	783.016	-0.112	0.301
-276.428	-153.025	-0.173	-0.012
-275.413	79.361	-0.243	-0.257
-274.399	-200.000	0.084	0.541
-273.384	-75.151	0.096	-0.034
-272.370	800.000	-0.059	-0.227
-271.355	-200.000	0.045	0.210
-270.340	-200.000	0.012	-0.137
-269.326	-200.000	0.010	0.096
-268.311	344.369	-0.116	-0.225
-267.297	259.280	0.191	-0.325
-266.282	800.000	0.054	0.213
-265.267	-2.751	0.150	0.103
-264.253	30.704	0.276	0.233
-263.238	128.566	0.156	0.196
-262.224	-97.111	0.356	-0.092
-261.209	-1.011	-0.144	-0.100
-260.195	-118.220	0.055	0.010
-259.180	-7.358	0.107	-0.071
-258.165	38.789	0.193	0.170
-257.151	-68.382	-0.196	-0.075
-256.136	602.092	0.003	-0.008
-255.122	-142.631	-0.527	-0.051
-254.107	-130.224	0.168	-0.023
-253.092	59.133	0.334	-0.324
-252.078	-10.100	0.053	0.035
-251.063	-86.743	-0.142	0.043
-250.049	42.794	-0.256	-0.230
-249.034	-87.592	-0.210	-0.062
-248.019	-4.267	-0.183	-0.125
-247.005	24.246	-0.239	-0.194
-245.990	800.000	-0.053	0.177
-244.976	33.988	-0.149	0.128
-243.961	800.000	-0.073	0.284
-242.946	-107.137	0.043	-0.009
-241.932	-102.236	-0.175	0.041
-240.917	800.000	-0.133	-0.366
-239.903	408.026	-0.050	0.103
-238.888	-68.647	-0.244	-0.093
-237.873	800.000	0.075	0.216
-236.859	800.000	0.038	0.142
-235.844	-100.531	0.096	0.023
-234.830	-51.724	0.494	0.226
-233.815	800.000	0.016	0.067
-232.800	-35.362	-0.244	0.131
-231.786	800.000	-0.074	-0.264
-230.771	-200.000	-0.064	0.313
-229.757	155.964	-0.122	0.166
-228.742	800.000	0.029	0.122
-227.727	-200.000	-0.001	0.175
-226.713	-57.079	-0.275	0.119
-225.698	-49.674	-0.110	-0.051
-224.684	43.078	0.244	0.219
-223.669	29.946	0.114	0.095
-222.655	38.206	-0.164	0.143
-221.640	23.194	0.351	0.283
-220.625	-50.231	-0.290	0.135
-219.611	130.713	0.219	-0.277
-218.596	21.376	-0.145	-0.116
-217.582	800.000	0.043	-0.164
-216.567	38.473	0.151	0.133
-215.552	-58.967	-0.071	0.030
-214.538	136.399	0.179	-0.229
-213.523	800.000	0.049	-0.192
-212.509	-127.188	-0.266	0.038
-211.494	-144.852	-0.466	-0.042
-210.479	800.000	-0.045	-0.196
-209.465	-126.152	0.158	0.023
-208.450	-51.335	-0.148	-0.068
-207.436	292.724	-0.226	0.406
-206.421	-200.000	0.001	0.341
-205.406	74.688	-0.106	-0.109
-204.392	-133.939	0.470	-0.057
-203.377	2.293	-0.159	-0.113
-202.363	-47.471	0.196	-0.094
-201.348	-151.428	0.138	-0.010
-200.333	64.235	0.208	0.206
-199.319	62.030	0.193	-0.189
-198.304	-55.748	0.107	-0.047
-197.290	-175.229	0.165	-0.004
-196.275	263.155	0.078	-0.133
-195.260	228.628	0.124	0.198
-194.246	-200.000	0.024	0.130
-193.231	800.000	-0.058	0.217
-192.217	-0.698	0.060	0.041
-191.202	595.117	-0.161	0.393
-190.187	674.872	0.077	0.196
-189.173	-47.801	-0.447	-0.213
-188.158	-200.000	-0.068	-0.449
-187.144	-72.919	0.297	-0.107
-186.129	-30.999	-0.203	-0.112
-185.114	165.647	0.136	0.189
-184.100	-200.000	-0.015	-0.073
-183.085	-200.000	-0.041	-0.319
-182.071	-161.516	-0.133	-0.007
-181.056	-200.000	0.045	0.233
-180.042	417.140	-0.054	0.113
-179.027	215.957	-0.046	-0.072
-178.012	-58.229	-0.166	-0.071
-176.998	-48.798	0.156	0.074
-175.983	-101.356	-0.096	0.023
-174.969	800.000	-0.022	-0.085
-173.954	9.086	0.161	0.119
-172.939	-102.652	-0.356	-0.083
-171.925	-144.364	0.199	0.018
-170.910	-77.678	-0.098	0.033
-169.896	121.826	0.163	0.200
-168.881	-13.239	-0.191	-0.122
-167.866	-33.202	0.265	0.144
-166.852	-200.000	-0.031	-0.204
-165.837	-200.000	-0.002	-0.094
-164.823	-200.000	-0.002	-0.267
-163.808	-68.439	0.329	0.125
-162.793	725.469	-0.050	-0.131
-161.779	84.803	-0.276	0.297
-160.764	-100.433	0.237	0.058
-159.750	800.000	0.007	-0.022
-158.735	224.235	-0.102	0.161
-157.720	-14.021	0.182	0.115
-156.706	41.871	-0.194	0.172
-155.691	124.714	0.182	0.224
-154.677	337.871	0.038	-0.073
-153.662	-200.000	-0.005	0.078
-152.647	36.702	-0.235	0.203
-151.633	774.692	-0.050	-0.135
-150.618	-94.579	0.266	0.071
-149.604	-200.000	-0.052	0.308
-148.589	70.670	0.103	0.105
-147.574	-200.000	-0.029	0.136
-146.560	-13.703	0.363	0.231
-145.545	166.414	0.083	0.115
-144.531	580.648	0.011	0.026
-143.516	52.662	0.195	0.183
-142.502	38.220	0.225	0.196
-141.487	-200.000	0.047	0.238
-140.472	199.159	0.175	-0.263
-139.458	77.703	-0.156	-0.163
-138.443	-200.000	0.037	0.174
-137.429	-85.065	-0.073	-0.022
-136.414	35.682	0.335	0.288
-135.399	310.636	-0.199	0.365
-134.385	197.424	0.137	0.204
-133.370	800.000	0.027	-0.111
-132.356	-38.693	0.201	0.104
-131.341	87.990	0.186	-0.202
-130.326	3.596	-0.039	0.028
-129.312	-9.300	0.036	-0.023
-128.297	800.000	0.087	-0.270
-127.283	-29.267	-0.185	0.104
-126.268	41.102	0.269	-0.239
-125.253	800.000	-0.015	-0.055
-124.239	-83.403	-0.312	0.098
-123.224	-200.000	-0.006	-0.321
-122.210	-154.944	0.232	0.015
-121.195	27.828	-0.080	0.066
-120.180	-115.066	0.391	0.073
