DTS Sentinel unit serial number:	SN413079Multiplexer serial number:	ORYXHardware model number:	OX4-SRSoftware version number:	ORYX F/W v4.00 Oryx Data Collector v3.7.2.0data status	okinstallation	princeton_trtdifferential loss correction	single-endedforward channel	channel 2reverse channel	N/Adate	2019/09/16time	03:11:34forward acquisition time	60.00reverse acquisition time	0.00gamma	496.2192k internal	0.2334k external	0.2334temperature offset calibration	0.9971default loss term (dB/km)	0.3790temperature slope calibration	1.0000multiplexer offset coefficient	1.0000multiplexer slope coefficient	1.0000fibre end	0.00T internal ref (°C)	27.75T ext. ref 1 (°C)	10.47T ext. ref 2 (°C)	22.08length (m)	temperature (°C)	Stokes	anti-Stokes-747.200	-153.926	-0.371	-0.025
-746.185	-5.065	-0.198	0.137
-745.171	-200.000	0.016	0.203
-744.156	-76.429	0.317	0.112
-743.142	-200.000	-0.013	-0.231
-742.127	20.009	-0.185	0.150
-741.112	192.275	0.041	0.062
-740.098	-200.000	-0.030	-0.179
-739.083	-200.000	-0.000	-0.003
-738.069	800.000	-0.074	0.214
-737.054	-44.906	0.114	0.057
-736.039	117.735	-0.206	-0.254
-735.025	-120.573	-0.285	0.049
-734.010	-200.000	0.072	-0.319
-732.996	-143.540	-0.052	0.005
-731.981	-81.101	-0.119	0.040
-730.966	-200.000	-0.001	0.024
-729.952	-40.394	-0.340	0.177
-728.937	384.492	-0.087	-0.180
-727.923	-54.703	0.215	0.097
-726.908	329.901	0.119	0.229
-725.894	-98.611	-0.312	-0.080
-724.879	30.240	-0.173	-0.149
-723.864	70.603	0.150	0.155
-722.850	115.710	-0.169	0.208
-721.835	200.841	0.240	0.371
-720.821	800.000	0.154	0.493
-719.806	-200.000	-0.023	-0.253
-718.791	-141.190	-0.092	-0.009
-717.777	-200.000	0.015	0.104
-716.762	-75.774	0.080	-0.028
-715.748	-149.592	0.368	-0.029
-714.733	-153.938	-0.219	0.015
-713.718	800.000	0.065	-0.251
-712.704	-82.344	-0.226	-0.074
-711.689	-200.000	-0.057	-0.257
-710.675	573.727	0.066	0.161
-709.660	-176.513	-0.078	-0.002
-708.645	15.451	0.312	-0.246
-707.631	480.439	-0.099	-0.226
-706.616	-125.386	-0.134	0.021
-705.602	-51.416	-0.107	-0.050
-704.587	-166.777	-0.447	-0.018
-703.572	25.893	0.111	-0.093
-702.558	244.424	-0.190	-0.320
-701.543	21.922	-0.218	-0.178
-700.529	-22.200	0.023	0.014
-699.514	79.442	-0.266	-0.286
-698.499	216.788	0.136	-0.217
-697.485	-10.454	0.335	-0.223
-696.470	-59.479	0.068	-0.029
-695.456	0.929	0.064	-0.046
-694.441	800.000	0.076	-0.316
-693.426	-130.938	0.412	-0.055
-692.412	800.000	-0.078	0.341
-691.397	94.283	-0.102	-0.116
-690.383	-200.000	0.025	-0.166
-689.368	-68.826	0.295	0.114
-688.354	96.097	-0.173	-0.198
-687.339	-112.536	0.457	-0.091
-686.324	-152.545	-0.361	-0.026
-685.310	-35.089	-0.220	-0.121
-684.295	800.000	-0.040	0.175
-683.281	-77.870	-0.060	0.021
-682.266	259.608	-0.044	-0.076
-681.251	800.000	0.078	0.341
-680.237	48.413	-0.244	-0.229
-679.222	-167.267	-0.203	0.008
-678.208	177.685	0.082	0.120
-677.193	-106.701	0.048	-0.011
-676.178	-163.269	-0.226	0.011
-675.164	583.057	0.154	-0.379
-674.149	-53.668	-0.324	-0.148
-673.135	421.969	0.168	-0.362
-672.120	-111.768	-0.321	-0.065
-671.105	613.888	0.031	0.077
-670.091	800.000	0.020	0.064
-669.076	800.000	-0.013	-0.054
-668.062	133.200	-0.074	-0.096
-667.047	2.281	-0.162	0.117
-666.032	-141.891	-0.182	-0.018
-665.018	-43.963	0.173	0.087
-664.003	-42.537	0.318	-0.162
-662.989	-118.203	0.289	-0.052
-661.974	-94.555	-0.154	0.042
-660.959	108.901	0.080	-0.096
-659.945	-200.000	0.042	-0.191
-658.930	-24.295	0.090	0.054
-657.916	-163.927	-0.260	-0.012
-656.901	-72.183	0.129	-0.048
-655.886	166.448	-0.178	-0.252
-654.872	800.000	-0.025	0.075
-653.857	157.250	-0.231	0.320
-652.843	-130.666	-0.058	-0.008
-651.828	236.353	0.116	0.192
-650.814	-200.000	-0.020	0.242
-649.799	-177.477	0.461	0.011
-648.784	-51.652	-0.323	-0.151
-647.770	170.935	0.168	-0.242
-646.755	20.659	-0.071	0.057
-645.741	-200.000	-0.061	0.272
-644.726	-106.613	-0.251	-0.056
-643.711	800.000	0.022	-0.065
-642.697	61.069	-0.199	-0.198
-641.682	155.278	0.189	0.260
-640.668	-200.000	-0.025	0.144
-639.653	-46.069	0.219	-0.108
-638.638	-76.301	0.438	-0.154
-637.624	280.948	0.168	-0.302
-636.609	31.107	0.292	0.251
-635.595	9.187	0.120	0.091
-634.580	-27.221	0.136	-0.079
-633.565	-200.000	0.029	-0.414
-632.551	174.058	-0.224	-0.324
-631.536	800.000	-0.085	-0.322
-630.522	-120.867	-0.216	-0.036
-629.507	800.000	-0.080	-0.225
-628.492	-200.000	-0.094	-0.446
-627.478	591.713	0.133	0.329
-626.463	-56.591	-0.298	0.132
-625.449	-96.390	-0.257	0.068
-624.434	-37.429	0.185	-0.099
-623.419	800.000	0.077	0.244
-622.405	-39.596	0.144	-0.075
-621.390	151.982	-0.074	0.100
-620.376	-200.000	-0.013	0.202
-619.361	649.754	-0.035	0.089
-618.346	127.662	-0.063	-0.080
-617.332	3.304	-0.139	0.101
-616.317	-62.894	0.158	0.065
-615.303	-29.179	-0.179	-0.103
-614.288	-175.913	0.304	-0.008
-613.273	175.719	-0.106	0.154
-612.259	-200.000	-0.017	-0.246
-611.244	800.000	-0.032	-0.135
-610.230	-200.000	-0.034	-0.149
-609.215	-122.793	0.322	0.052
-608.201	777.282	-0.070	-0.190
-607.186	60.233	0.142	-0.141
-606.171	-69.810	0.287	-0.110
-605.157	800.000	-0.134	-0.393
-604.142	178.561	-0.029	-0.042
-603.128	-70.923	0.029	-0.011
-602.113	-200.000	-0.001	0.252
-601.098	-200.000	-0.049	-0.223
-600.084	-200.000	0.055	0.333
-599.069	-89.871	-0.374	0.109
-598.055	-133.053	-0.502	0.064
-597.040	-6.641	-0.162	0.110
-596.025	109.485	0.139	0.166
-595.011	576.271	0.061	0.148
-593.996	-200.000	-0.030	0.215
-592.982	7.038	-0.091	0.068
-591.967	-28.122	-0.226	-0.131
-590.952	-168.126	0.178	-0.007
-589.938	-174.894	0.246	-0.007
-588.923	800.000	-0.151	-0.586
-587.909	38.140	-0.034	0.030
-586.894	12.210	-0.112	0.086
-585.879	90.070	0.128	0.143
-584.865	-174.165	0.225	0.007
-583.850	53.799	-0.344	0.330
-582.836	-66.569	-0.216	0.085
-581.821	-78.182	-0.278	0.096
-580.806	242.761	-0.169	-0.283
-579.792	-30.078	-0.112	-0.064
-578.777	-71.685	0.092	0.034
-577.763	-130.811	-0.343	0.046
-576.748	800.000	-0.024	-0.075
-575.733	155.274	-0.100	0.137
-574.719	348.842	-0.076	-0.149
-573.704	-30.437	0.250	0.142
-572.690	-29.138	0.096	0.055
-571.675	127.484	-0.055	-0.069
-570.661	274.375	-0.072	-0.127
-569.646	-161.669	-0.112	-0.006
-568.631	728.284	0.194	0.518
-567.617	-101.577	-0.112	-0.027
-566.602	-69.099	-0.375	-0.144
-565.588	800.000	0.047	0.198
-564.573	-129.221	0.261	0.036
-563.558	-59.884	-0.069	-0.029
-562.544	-200.000	0.080	-0.372
-561.529	48.879	0.072	-0.067
-560.515	-1.525	-0.185	-0.130
-559.500	241.946	-0.110	0.184
-558.485	-115.455	-0.306	0.058
-557.471	800.000	0.022	0.066
-556.456	126.607	-0.029	0.037
-555.442	172.488	0.169	0.243
-554.427	800.000	-0.033	-0.099
-553.412	-105.616	-0.202	-0.046
-552.398	-38.018	0.165	-0.087
-551.383	7.495	0.133	0.099
-550.369	79.031	0.046	-0.049
-549.354	-200.000	-0.014	0.205
-548.339	-200.000	-0.004	-0.055
-547.325	-200.000	0.028	0.373
-546.310	16.605	-0.088	0.070
-545.296	152.187	-0.173	-0.236
-544.281	-78.409	-0.208	-0.071
-543.266	72.690	-0.170	0.177
-542.252	-200.000	-0.059	-0.269
-541.237	-200.000	0.023	-0.185
-540.223	-96.758	-0.135	0.035
-539.208	-0.290	-0.239	-0.169
-538.193	-89.640	-0.271	0.079
-537.179	-200.000	0.033	0.298
-536.164	-200.000	0.003	0.167
-535.150	34.629	-0.094	0.082
-534.135	-86.148	-0.099	0.030
-533.121	13.954	0.053	-0.041
-532.106	-17.807	-0.291	-0.182
-531.091	-200.000	-0.440	0.002
-530.077	-200.000	0.063	0.359
-529.062	56.563	0.120	0.117
-528.048	86.761	-0.089	-0.098
-527.033	800.000	-0.067	-0.284
-526.018	-32.319	-0.141	-0.078
-525.004	12.016	0.145	-0.111
-523.989	33.844	-0.127	-0.110
-522.975	-158.728	0.222	0.013
-521.960	356.616	0.110	0.219
-520.945	543.898	-0.149	-0.354
-519.931	-138.959	-0.044	-0.005
-518.916	-200.000	0.059	0.266
-517.902	638.042	-0.039	0.100
-516.887	-129.554	-0.071	-0.010
-515.872	-162.804	-0.263	0.013
-514.858	-200.000	-0.035	-0.271
-513.843	-200.000	0.014	-0.290
-512.829	800.000	-0.088	0.290
-511.814	800.000	-0.010	-0.032
-510.799	-30.453	0.404	-0.228
-509.785	57.852	0.130	0.126
-508.770	-7.525	0.083	0.056
-507.756	-183.400	0.165	0.003
-506.741	693.381	0.060	-0.157
-505.726	628.243	-0.084	0.211
-504.712	-200.000	-0.015	-0.132
-503.697	82.164	-0.135	-0.145
-502.683	-87.434	-0.156	-0.047
-501.668	800.000	0.107	0.372
-500.653	-123.390	-0.342	-0.054
-499.639	800.000	0.052	-0.203
-498.624	6.708	0.267	-0.198
-497.610	-158.391	-0.360	0.021
-496.595	-47.008	-0.110	-0.053
-495.581	29.889	-0.230	-0.195
-494.566	13.484	0.143	-0.110
-493.551	800.000	0.057	0.188
-492.537	136.499	-0.117	0.152
-491.522	-130.059	0.303	-0.041
-490.508	88.860	-0.056	-0.062
-489.493	-200.000	0.038	-0.171
-488.478	705.655	0.049	0.128
-487.464	59.356	-0.190	0.186
-486.449	299.520	0.085	-0.156
-485.435	-0.118	-0.245	0.174
-484.420	-0.440	0.157	0.111
-483.405	-53.848	0.208	0.094
-482.391	-82.952	-0.199	-0.064
-481.376	-33.559	0.353	0.194
-480.362	158.726	-0.222	-0.306
-479.347	240.555	-0.100	0.166
-478.332	43.751	-0.348	-0.317
-477.318	-200.000	0.020	0.116
-476.303	-200.000	0.037	0.204
-475.289	101.363	-0.232	0.269
-474.274	-55.537	0.104	0.046
-473.259	-1.049	0.102	-0.072
-472.245	-95.073	-0.184	0.049
-471.230	18.712	0.216	-0.172
-470.216	-200.000	-0.002	0.316
-469.201	800.000	-0.068	0.188
-468.186	-50.879	-0.228	-0.107
-467.172	18.922	0.191	-0.152
-466.157	77.823	0.203	0.215
-465.143	-99.965	0.455	-0.113
-464.128	-118.558	-0.175	0.031
-463.113	-200.000	-0.011	-0.085
-462.099	-51.237	0.261	0.121
-461.084	-46.047	0.161	0.079
-460.070	-200.000	-0.005	-0.216
-459.055	-69.139	-0.263	0.100
-458.040	440.262	0.118	0.256
-457.026	-162.574	0.316	0.015
-456.011	-138.617	0.257	0.028
-454.997	-126.819	0.198	0.029
-453.982	-102.203	0.199	0.048
-452.968	-108.366	0.197	-0.042
-451.953	-104.019	0.197	-0.046
-450.938	-200.000	-0.065	-0.360
-449.924	-49.175	-0.135	-0.064
-448.909	-118.702	-0.345	-0.060
-447.895	-200.000	0.006	0.398
-446.880	-76.777	0.214	-0.074
-445.865	800.000	0.111	-0.327
-444.851	108.145	-0.124	0.147
-443.836	89.762	-0.049	-0.054
-442.822	-200.000	-0.012	-0.052
-441.807	-125.594	-0.235	0.035
-440.792	-120.878	-0.204	-0.034
-439.778	800.000	-0.108	-0.337
-438.763	-89.217	0.154	0.045
-437.749	159.534	0.064	-0.088
-436.734	4.689	-0.197	-0.144
-435.719	557.859	-0.143	0.342
-434.705	-83.354	-0.086	0.027
-433.690	160.027	0.099	0.136
-432.676	-35.627	-0.188	0.101
-431.661	-188.693	0.298	-0.004
-430.646	174.528	-0.102	-0.146
-429.632	641.300	0.106	-0.267
-428.617	603.210	-0.140	-0.345
-427.603	177.027	0.082	0.119
-426.588	348.494	-0.098	0.191
-425.573	-103.829	0.156	0.036
-424.559	-66.680	-0.235	0.093
-423.544	-21.372	-0.130	-0.079
-422.530	-37.389	0.230	-0.122
-421.515	124.534	0.173	0.216
-420.500	800.000	-0.072	0.210
-419.486	-178.937	-0.149	-0.003
-418.471	52.206	-0.060	-0.057
-417.457	800.000	0.042	0.138
-416.442	800.000	0.046	-0.138
-415.428	-37.989	0.132	-0.069
-414.413	-21.576	-0.190	0.115
-413.398	154.478	0.186	0.253
-412.384	-184.123	0.272	0.004
-411.369	-46.412	0.174	-0.085
-410.355	192.580	-0.099	-0.148
-409.340	800.000	0.091	-0.378
-408.325	428.585	-0.051	0.109
-407.311	-200.000	0.002	-0.018
-406.296	-200.000	-0.052	-0.526
-405.282	-200.000	0.014	-0.248
-404.267	-200.000	-0.017	-0.112
-403.252	-80.732	-0.249	0.082
-402.238	276.095	0.134	-0.236
-401.223	-30.323	-0.129	0.073
-400.209	-200.000	-0.007	0.294
-399.194	800.000	0.018	0.057
-398.179	-162.684	0.266	0.013
-397.165	-89.262	-0.096	-0.028
-396.150	-188.588	-0.443	-0.005
-395.136	-200.000	0.003	0.141
-394.121	-136.018	0.226	-0.026
-393.106	-200.000	0.010	0.286
-392.092	445.252	0.113	0.247
-391.077	800.000	0.072	0.232
-390.063	6.127	0.165	-0.121
-389.048	-200.000	0.013	0.091
-388.033	800.000	0.085	-0.306
-387.019	-200.000	-0.011	-0.154
-386.004	233.472	0.143	-0.234
-384.990	326.101	0.028	-0.054
-383.975	-94.706	0.090	0.024
-382.960	-140.943	-0.205	0.021
-381.946	-200.000	0.006	-0.085
-380.931	800.000	-0.101	-0.386
-379.917	-0.989	0.253	0.178
-378.902	-200.000	-0.027	-0.136
-377.888	4.168	0.118	0.085
-376.873	99.147	-0.183	-0.209
-375.858	-125.540	-0.205	0.031
-374.844	-58.365	0.455	0.196
-373.829	45.684	0.250	-0.229
-372.815	28.874	0.035	-0.029
-371.800	370.360	-0.127	0.254
-370.785	251.972	-0.169	-0.285
-369.771	800.000	0.030	-0.113
-368.756	-1.900	0.155	0.108
-367.742	74.258	-0.047	0.049
-366.727	447.850	-0.028	-0.061
-365.712	-77.632	-0.303	-0.104
-364.698	290.242	-0.215	-0.386
-363.683	115.201	0.316	-0.382
-362.669	-129.374	-0.215	-0.030
-361.654	201.103	0.177	-0.270
-360.639	-64.382	0.499	-0.201
-359.625	26.823	0.135	-0.112
-358.610	65.045	0.258	0.258
-357.596	190.821	-0.144	-0.214
-356.581	234.149	-0.082	-0.134
-355.566	-200.000	-0.004	0.235
-354.552	537.703	0.144	-0.339
-353.537	141.162	-0.021	0.027
-352.523	-200.000	0.020	0.119
-351.508	326.952	-0.072	0.136
-350.493	800.000	-0.053	-0.216
-349.479	-165.071	0.122	0.005
-348.464	-83.584	0.222	0.070
-347.450	-67.665	-0.334	-0.130
-346.435	-139.988	-0.113	0.012
-345.420	111.118	0.185	-0.220
-344.406	-180.512	0.221	0.005
-343.391	133.486	-0.162	-0.208
-342.377	800.000	-0.076	-0.280
-341.362	-117.141	0.502	0.090
-340.348	-8.663	-0.137	0.091
-339.333	-48.242	-0.016	0.008
-338.318	243.213	-0.125	0.208
-337.304	800.000	-0.049	0.149
-336.289	570.771	-0.140	0.338
-335.275	36.588	-0.110	-0.096
-334.260	800.000	-0.090	0.314
-333.245	-104.694	0.188	-0.043
-332.231	-200.000	-0.020	0.224
-331.216	-126.218	0.118	0.017
-330.202	-180.277	-0.319	-0.007
-329.187	-111.528	0.291	0.059
-328.172	7.839	-0.051	-0.037
-327.158	68.725	0.317	0.322
-326.143	234.930	0.224	0.366
-325.129	800.000	-0.091	-0.288
-324.114	-200.000	0.016	-0.386
-323.099	-29.342	0.472	0.267
-322.085	-200.000	-0.013	-0.191
-321.070	620.222	-0.133	0.331
-320.056	-55.467	0.336	-0.149
-319.041	268.298	-0.049	-0.085
-318.026	-45.408	-0.276	-0.135
-317.012	-200.000	0.020	0.216
-315.997	-182.546	-0.152	-0.003
-314.983	-180.307	0.149	-0.003
-313.968	-200.000	-0.005	0.128
-312.953	186.302	-0.088	0.129
-311.939	28.414	0.047	0.039
-310.924	800.000	0.045	0.161
-309.910	-85.519	0.099	-0.030
-308.895	77.147	-0.180	0.189
-307.880	467.360	0.157	-0.347
-306.866	-60.738	0.221	-0.092
-305.851	800.000	0.048	0.185
-304.837	800.000	0.074	-0.220
-303.822	293.547	-0.038	-0.068
-302.807	-67.833	-0.401	0.155
-301.793	800.000	-0.020	-0.072
-300.778	-96.373	-0.305	0.080
-299.764	101.470	-0.165	0.190
-298.749	-31.798	0.150	-0.083
-297.735	129.016	0.134	-0.169
-296.720	-200.000	-0.074	0.529
-295.705	257.995	-0.109	0.186
-294.691	-200.000	0.052	0.228
-293.676	162.029	-0.066	0.091
-292.662	403.633	-0.097	0.201
-291.647	-100.960	0.132	-0.032
-290.632	106.177	-0.156	-0.182
-289.618	270.263	-0.205	-0.356
-288.603	-79.555	0.368	0.123
-287.589	-81.332	-0.172	-0.056
-286.574	-165.475	0.135	0.006
-285.559	590.476	-0.126	-0.306
-284.545	-103.826	-0.161	0.037
-283.530	800.000	0.010	0.030
-282.516	23.029	0.202	-0.163
-281.501	151.421	0.274	-0.368
-280.486	-43.155	0.219	-0.110
-279.472	203.034	0.036	0.055
-278.457	-79.065	-0.198	0.066
-277.443	25.427	0.077	-0.063
-276.428	-150.331	0.267	-0.020
-275.413	398.073	-0.066	-0.137
-274.399	-200.000	-0.067	0.315
-273.384	-2.407	-0.065	0.045
-272.370	488.590	-0.045	-0.101
-271.355	-200.000	0.038	0.350
-270.340	-54.368	0.058	-0.026
-269.326	800.000	-0.006	-0.021
-268.311	-92.174	0.316	0.088
-267.297	-200.000	-0.007	-0.057
-266.282	800.000	0.030	0.123
-265.267	-10.501	0.301	-0.197
-264.253	-49.906	0.179	0.084
-263.238	114.672	-0.161	0.194
-262.224	290.502	0.184	0.330
-261.209	9.443	0.093	0.069
-260.195	800.000	-0.022	0.083
-259.180	373.418	0.105	0.210
-258.165	46.587	-0.205	0.188
-257.151	306.349	-0.124	0.227
-256.136	-41.067	0.183	0.093
-255.122	226.561	0.082	-0.132
-254.107	249.327	-0.068	0.114
-253.092	311.596	0.116	-0.214
-252.078	-81.328	-0.092	-0.030
-251.063	-41.617	-0.157	0.080
-250.049	800.000	0.110	0.368
-249.034	167.583	0.159	-0.223
-248.019	-3.635	-0.310	-0.213
-247.005	41.302	-0.075	-0.067
-245.990	156.726	0.153	0.209
-244.976	-200.000	-0.031	0.196
-243.961	385.641	-0.183	0.373
-242.946	-97.187	0.178	0.046
-241.932	800.000	0.040	-0.142
-240.917	49.911	0.207	-0.193
-239.903	415.341	-0.085	-0.180
-238.888	-68.762	0.156	0.059
-237.873	172.282	0.100	-0.142
-236.859	-200.000	-0.033	-0.287
-235.844	391.574	-0.113	0.230
-234.830	-20.930	0.151	-0.091
-233.815	112.847	-0.073	0.087
-232.800	-1.345	0.094	0.066
-231.786	-135.588	0.121	0.014
-230.771	374.601	0.072	0.145
-229.757	-36.294	0.240	0.128
-228.742	800.000	0.057	-0.172
-227.727	-196.060	-0.113	0.001
-226.713	-14.885	0.213	0.135
-225.698	120.639	0.129	0.158
-224.684	385.221	-0.047	0.095
-223.669	-54.260	0.156	-0.070
-222.655	-147.888	0.138	-0.011
-221.640	28.570	-0.228	-0.190
-220.625	-200.000	-0.019	-0.106
-219.611	17.148	0.368	0.288
-218.596	23.107	-0.072	0.058
-217.582	800.000	-0.082	-0.239
-216.567	-16.706	-0.234	0.146
-215.552	-200.000	0.015	-0.255
-214.538	-42.691	-0.172	0.086
-213.523	383.763	0.074	0.150
-212.509	20.331	0.184	0.146
-211.494	-200.000	0.018	-0.267
-210.479	-56.723	-0.217	0.095
-209.465	407.172	0.036	0.074
-208.450	-200.000	0.011	0.141
-207.436	-81.704	0.408	-0.132
-206.421	41.898	-0.041	0.036
-205.406	-8.907	-0.174	-0.115
-204.392	402.479	0.143	-0.296
-203.377	-158.307	-0.138	0.008
-202.363	9.163	0.318	0.236
-201.348	-104.880	-0.028	0.006
-200.333	-113.239	-0.031	0.006
-199.319	189.874	-0.284	-0.419
-198.304	-134.604	0.076	-0.009
-197.290	184.519	-0.089	0.130
-196.275	77.801	0.161	0.168
-195.260	-200.000	-0.039	-0.205
-194.246	29.367	0.124	-0.104
-193.231	-200.000	-0.021	0.114
-192.217	-116.878	0.039	-0.007
-191.202	-200.000	-0.002	0.136
-190.187	34.071	-0.235	0.201
-189.173	174.485	-0.187	-0.266
-188.158	-77.607	0.396	-0.135
-187.144	-16.531	-0.164	0.102
-186.129	2.692	0.164	-0.117
-185.114	-147.735	0.075	-0.006
-184.100	-71.659	0.166	-0.061
-183.085	-11.601	-0.185	-0.120
-182.071	158.183	0.144	-0.197
-181.056	66.691	-0.120	-0.121
-180.042	733.389	-0.191	0.504
-179.027	-200.000	-0.035	0.389
-178.012	-5.915	0.234	-0.157
-176.998	-10.832	0.231	-0.150
-175.983	169.688	-0.236	0.331
-174.969	187.011	0.045	0.065
-173.954	-200.000	-0.020	0.374
-172.939	83.214	-0.320	-0.343
-171.925	275.600	-0.105	-0.182
-170.910	-126.916	-0.155	0.022
-169.896	-200.000	-0.026	-0.230
-168.881	-200.000	0.050	0.234
-167.866	-84.829	-0.023	0.007
-166.852	-73.030	-0.086	-0.031
-165.837	280.413	0.064	0.112
-164.823	309.483	0.160	0.294
-163.808	-60.184	0.147	-0.062
-162.793	-197.738	-0.354	0.002
-161.779	-200.000	-0.418	-0.001
-160.764	-73.181	-0.413	0.149
-159.750	-200.000	0.023	0.114
-158.735	-155.100	0.221	-0.014
-157.720	128.172	0.030	0.037
-156.706	125.309	0.145	0.179
-155.691	-200.000	0.045	0.396
-154.677	93.216	-0.147	0.163
-153.662	-131.002	-0.177	-0.023
-152.647	-200.000	0.032	-0.351
-151.633	-26.410	-0.239	-0.137
-150.618	142.749	-0.124	0.162
-149.604	-71.621	-0.092	0.034
-148.589	21.500	0.122	0.097
-147.574	-32.725	0.232	0.127
-146.560	-113.302	0.301	0.058
-145.545	374.065	-0.120	0.241
-144.531	445.385	-0.036	-0.077
-143.516	-98.819	0.249	-0.062
-142.502	-32.445	-0.089	0.049
-141.487	-200.000	0.008	-0.175
-140.472	16.618	-0.091	-0.070
-139.458	-122.607	-0.190	0.030
-138.443	-200.000	0.038	-0.239
-137.429	8.172	-0.324	-0.239
-136.414	-126.627	0.136	-0.020
-135.399	-200.000	-0.029	0.270
-134.385	250.960	0.106	-0.176
-133.370	131.193	-0.162	-0.204
-132.356	-34.308	-0.256	0.138
-131.341	-13.658	0.119	-0.076
-130.326	167.610	-0.087	-0.122
-129.312	111.496	-0.223	0.264
-128.297	-200.000	0.095	-0.480
-127.283	304.588	-0.086	0.157
-126.268	9.352	0.092	-0.069
-125.253	-200.000	0.006	-0.102
-124.239	800.000	0.089	0.279
-123.224	-146.523	0.178	-0.015
-122.210	170.756	0.034	-0.047
