DTS Sentinel unit serial number:	SN413079Multiplexer serial number:	ORYXHardware model number:	OX4-SRSoftware version number:	ORYX F/W v4.00 Oryx Data Collector v3.7.2.0data status	okinstallation	princeton_trtdifferential loss correction	single-endedforward channel	channel 2reverse channel	N/Adate	2019/09/19time	06:15:34forward acquisition time	60.00reverse acquisition time	0.00gamma	496.2192k internal	0.2350k external	0.2350temperature offset calibration	1.0013default loss term (dB/km)	0.3790temperature slope calibration	1.0000multiplexer offset coefficient	1.0000multiplexer slope coefficient	1.0000fibre end	0.00T internal ref (°C)	19.08T ext. ref 1 (°C)	0.58T ext. ref 2 (°C)	12.74length (m)	temperature (°C)	Stokes	anti-Stokes-747.200	177.222	-0.024	0.035
-746.185	39.274	-0.261	-0.233
-745.171	524.265	-0.004	0.010
-744.156	-200.000	0.016	0.165
-743.142	109.684	-0.063	0.075
-742.127	-200.000	-0.022	-0.171
-741.112	-200.000	-0.001	0.281
-740.098	189.608	0.045	-0.068
-739.083	-72.201	-0.236	0.087
-738.069	-85.280	-0.401	0.125
-737.054	-176.030	-0.080	0.002
-736.039	341.100	-0.092	-0.180
-735.025	281.434	0.124	0.222
-734.010	138.922	-0.080	-0.105
-732.996	800.000	-0.157	-0.479
-731.981	-200.000	0.018	-0.270
-730.966	-200.000	0.034	0.217
-729.952	432.331	-0.127	0.274
-728.937	-83.570	-0.095	0.030
-727.923	254.958	-0.160	-0.274
-726.908	-110.648	-0.209	-0.043
-725.894	-85.655	-0.082	0.025
-724.879	-164.130	0.404	-0.019
-723.864	-175.325	0.225	0.006
-722.850	-185.025	-0.432	-0.007
-721.835	-0.614	-0.296	-0.210
-720.821	800.000	0.065	-0.224
-719.806	136.030	-0.087	-0.113
-718.791	-200.000	0.018	0.111
-717.777	97.539	-0.142	0.162
-716.762	-200.000	-0.089	-0.456
-715.748	-1.499	-0.142	-0.100
-714.733	800.000	-0.065	-0.203
-713.718	733.139	-0.173	-0.462
-712.704	-142.076	-0.176	-0.017
-711.689	-43.396	0.085	0.043
-710.675	-200.000	-0.036	0.235
-709.660	-129.689	0.202	-0.028
-708.645	-163.072	0.380	0.018
-707.631	63.115	-0.109	-0.109
-706.616	-39.005	0.426	0.224
-705.602	198.431	0.093	0.141
-704.587	-132.211	-0.259	-0.033
-703.572	-23.309	-0.403	-0.242
-702.558	378.015	0.082	-0.167
-701.543	468.129	0.120	0.269
-700.529	19.948	-0.180	0.145
-699.514	-13.454	0.234	-0.151
-698.499	-200.000	-0.062	-0.595
-697.485	372.327	0.075	-0.151
-696.470	-4.584	-0.248	-0.170
-695.456	14.401	-0.345	0.268
-694.441	-136.704	0.189	-0.022
-693.426	-200.000	0.032	-0.381
-692.412	19.658	0.074	0.059
-691.397	800.000	-0.030	0.092
-690.383	-200.000	-0.017	-0.128
-689.368	-200.000	0.008	0.103
-688.354	-92.743	-0.182	-0.051
-687.339	-200.000	-0.009	0.388
-686.324	458.948	0.117	0.258
-685.310	47.340	-0.130	-0.120
-684.295	800.000	-0.033	0.114
-683.281	-26.468	0.150	-0.087
-682.266	-200.000	0.046	0.202
-681.251	-101.496	0.093	0.023
-680.237	-36.499	-0.287	0.154
-679.222	-128.747	-0.369	-0.052
-678.208	-200.000	0.007	0.130
-677.193	321.486	0.037	-0.071
-676.178	28.911	0.019	0.016
-675.164	-120.994	0.116	0.019
-674.149	6.037	0.009	0.007
-673.135	-85.580	-0.252	-0.078
-672.120	83.330	-0.212	-0.230
-671.105	-3.337	0.288	0.200
-670.091	-112.125	-0.269	-0.054
-669.076	-4.362	0.250	-0.172
-668.062	-156.478	0.377	-0.023
-667.047	137.083	0.175	-0.227
-666.032	-200.000	-0.032	-0.290
-665.018	-200.000	-0.011	0.117
-664.003	-200.000	0.060	-0.283
-662.989	-39.919	0.298	-0.155
-661.974	77.860	-0.132	0.140
-660.959	-11.875	0.180	-0.117
-659.945	-200.000	-0.004	-0.157
-658.930	14.645	-0.190	-0.148
-657.916	-119.392	0.104	-0.018
-656.901	2.400	-0.251	-0.180
-655.886	-143.311	-0.147	0.014
-654.872	-33.968	0.216	-0.118
-653.857	203.430	-0.121	-0.187
-652.843	107.920	0.163	-0.193
-651.828	-200.000	0.021	-0.172
-650.814	-72.717	-0.204	-0.075
-649.799	-127.165	0.259	0.038
-648.784	34.392	-0.181	0.157
-647.770	-13.501	0.234	-0.151
-646.755	800.000	-0.031	-0.101
-645.741	47.335	0.199	0.184
-644.726	-75.177	0.216	0.077
-643.711	155.466	0.056	0.077
-642.697	-200.000	-0.009	-0.215
-641.682	800.000	-0.067	0.211
-640.668	-77.412	0.261	0.090
-639.653	108.238	-0.100	0.118
-638.638	800.000	0.043	-0.139
-637.624	29.156	0.206	-0.174
-636.609	62.776	-0.102	0.101
-635.595	201.025	0.006	0.009
-634.580	-63.803	0.221	0.090
-633.565	-120.002	-0.200	0.034
-632.551	800.000	0.134	0.563
-631.536	-200.000	0.017	-0.146
-630.522	-96.543	-0.349	-0.091
-629.507	202.726	0.028	0.043
-628.492	-40.870	-0.002	-0.001
-627.478	-200.000	-0.028	-0.229
-626.463	-94.690	0.057	0.015
-625.449	-75.974	0.256	0.090
-624.434	362.936	-0.116	-0.231
-623.419	800.000	-0.089	-0.275
-622.405	-200.000	0.012	0.055
-621.390	60.484	-0.219	0.216
-620.376	20.475	-0.194	-0.156
-619.361	800.000	0.021	-0.068
-618.346	-124.804	0.399	-0.061
-617.332	-110.168	-0.594	-0.123
-616.317	660.975	0.035	0.091
-615.303	-145.517	-0.366	0.033
-614.288	800.000	0.139	0.567
-613.273	-168.224	-0.163	0.006
-612.259	800.000	0.039	-0.153
-611.244	-78.137	0.400	-0.137
-610.230	61.856	-0.181	-0.179
-609.215	800.000	-0.016	-0.045
-608.201	-40.678	-0.079	0.041
-607.186	38.092	0.012	-0.010
-606.171	-132.565	0.312	-0.040
-605.157	169.569	-0.084	0.119
-604.142	230.418	0.179	-0.291
-603.128	-200.000	-0.014	-0.251
-602.113	-48.458	-0.206	0.099
-601.098	-62.430	0.247	-0.102
-600.084	599.577	-0.053	-0.131
-599.069	-3.388	-0.084	0.058
-598.055	-200.000	-0.007	-0.181
-597.040	-200.000	-0.054	-0.329
-596.025	-111.516	-0.263	-0.053
-595.011	-37.718	0.150	-0.079
-593.996	359.881	0.155	-0.307
-592.982	-79.368	0.158	-0.053
-591.967	6.694	-0.249	-0.184
-590.952	-200.000	0.080	0.390
-589.938	157.367	-0.081	-0.112
-588.923	-84.140	0.200	0.063
-587.909	244.655	-0.072	-0.121
-586.894	-28.250	0.290	-0.166
-585.879	-179.323	0.132	0.003
-584.865	-200.000	0.017	0.099
-583.850	33.368	-0.302	0.260
-582.836	74.485	-0.157	-0.164
-581.821	800.000	-0.066	-0.220
-580.806	277.539	-0.073	-0.129
-579.792	-36.839	0.150	0.080
-578.777	316.710	0.163	-0.306
-577.763	-97.588	-0.132	-0.034
-576.748	-9.997	0.173	-0.114
-575.733	-38.554	0.244	0.128
-574.719	246.426	0.162	0.272
-573.704	-115.111	-0.166	0.031
-572.690	631.026	-0.048	0.120
-571.675	35.563	0.140	0.122
-570.661	-113.114	-0.228	0.045
-569.646	-45.759	-0.091	0.045
-568.631	576.405	-0.025	0.059
-567.617	17.730	0.050	0.039
-566.602	-200.000	0.012	-0.152
-565.588	67.676	0.171	0.173
-564.573	4.088	-0.180	0.130
-563.558	-160.336	0.224	0.012
-562.544	90.037	0.047	-0.052
-561.529	248.261	-0.008	0.014
-560.515	-200.000	-0.050	-0.290
-559.500	88.922	0.462	-0.509
-558.485	-190.493	-0.189	-0.002
-557.471	284.442	0.123	0.219
-556.456	-200.000	0.094	-0.414
-555.442	800.000	-0.017	0.055
-554.427	-200.000	-0.011	0.253
-553.412	343.270	0.090	0.175
-552.398	-70.660	0.333	0.125
-551.383	-93.516	0.158	0.043
-550.369	258.287	0.075	-0.127
-549.354	14.265	0.067	0.052
-548.339	78.863	-0.218	-0.231
-547.325	800.000	-0.079	0.235
-546.310	-18.350	0.109	0.067
-545.296	800.000	0.004	-0.017
-544.281	800.000	0.130	-0.440
-543.266	800.000	0.067	0.264
-542.252	687.226	0.097	0.250
-541.237	-110.755	-0.296	-0.061
-540.223	-126.178	-0.314	-0.047
-539.208	-80.823	-0.372	-0.122
-538.193	-36.595	-0.419	0.223
-537.179	-200.000	0.057	0.293
-536.164	184.112	-0.096	-0.141
-535.150	-88.450	0.203	0.060
-534.135	-107.990	0.203	-0.044
-533.121	14.116	0.310	-0.239
-532.106	-200.000	0.029	-0.255
-531.091	-105.816	-0.065	0.014
-530.077	63.356	-0.123	0.122
-529.062	58.536	-0.330	-0.321
-528.048	-200.000	0.045	-0.230
-527.033	-200.000	-0.029	0.247
-526.018	-115.708	0.238	0.044
-525.004	-40.665	-0.320	0.164
-523.989	95.403	-0.113	-0.127
-522.975	-81.983	0.293	-0.095
-521.960	-27.841	-0.306	0.176
-520.945	-90.773	-0.129	-0.037
-519.931	-30.818	0.004	0.002
-518.916	-21.645	0.216	0.130
-517.902	800.000	-0.117	0.353
-516.887	-200.000	-0.026	-0.130
-515.872	-149.957	-0.113	-0.009
-514.858	140.163	0.063	-0.082
-513.843	121.237	0.254	0.312
-512.829	23.396	-0.237	-0.193
-511.814	-33.553	0.107	0.058
-510.799	156.233	0.217	-0.296
-509.785	-123.812	-0.295	-0.046
-508.770	-131.277	-0.353	0.046
-507.756	278.117	-0.038	-0.067
-506.741	67.879	-0.312	0.315
-505.726	435.207	0.022	0.048
-504.712	-102.346	0.113	-0.027
-503.697	285.719	0.191	0.341
-502.683	133.268	-0.102	0.130
-501.668	-99.550	0.143	0.035
-500.653	145.237	-0.119	0.158
-499.639	452.613	0.100	0.218
-498.624	800.000	0.092	-0.263
-497.610	252.848	-0.113	-0.191
-496.595	102.220	-0.156	-0.180
-495.581	757.852	-0.100	-0.267
-494.566	62.550	-0.270	-0.267
-493.551	1.667	0.231	0.165
-492.537	-200.000	-0.024	-0.217
-491.522	84.708	0.035	0.038
-490.508	800.000	0.081	0.342
-489.493	-170.634	0.331	0.011
-488.478	-200.000	-0.026	-0.202
-487.464	-200.000	0.053	0.293
-486.449	-138.160	0.283	-0.031
-485.435	-200.000	0.054	-0.335
-484.420	-200.000	0.011	0.070
-483.405	283.510	-0.151	-0.267
-482.391	-77.982	-0.237	-0.081
-481.376	331.804	0.148	0.282
-480.362	-200.000	-0.034	-0.438
-479.347	-39.581	-0.237	0.123
-478.332	279.376	0.104	0.184
-477.318	-92.059	0.284	-0.079
-476.303	12.360	0.214	0.163
-475.289	800.000	0.029	-0.113
-474.274	-129.743	0.336	0.046
-473.259	272.697	0.074	0.128
-472.245	-103.483	0.141	0.033
-471.230	466.099	-0.047	-0.104
-470.216	-67.602	-0.373	0.144
-469.201	-88.409	0.215	-0.063
-468.186	-200.000	-0.050	-0.278
-467.172	-200.000	-0.029	0.264
-466.157	800.000	0.131	-0.388
-465.143	26.164	0.074	-0.061
-464.128	-200.000	-0.056	0.345
-463.113	44.972	0.173	-0.158
-462.099	71.481	-0.212	-0.217
-461.084	254.539	0.142	-0.240
-460.070	275.069	0.124	-0.218
-459.055	698.715	0.066	0.172
-458.040	95.459	-0.104	-0.117
-457.026	44.028	-0.063	-0.057
-456.011	2.965	-0.193	-0.138
-454.997	-18.034	0.097	0.060
-453.982	42.115	-0.130	0.116
-452.968	-119.268	-0.142	0.024
-451.953	-87.934	-0.380	0.113
-450.938	-7.000	-0.116	0.078
-449.924	117.620	-0.200	0.243
-448.909	-200.000	-0.028	-0.122
-447.895	-127.924	0.101	-0.014
-446.880	-80.707	0.092	-0.030
-445.865	-49.614	0.156	-0.073
-444.851	321.847	-0.087	-0.164
-443.836	747.857	0.057	-0.151
-442.822	800.000	0.076	-0.262
-441.807	-171.279	0.343	0.011
-440.792	-70.751	-0.479	-0.179
-439.778	800.000	-0.113	-0.360
-438.763	476.045	-0.079	0.176
-437.749	219.250	0.028	-0.044
-436.734	-129.579	-0.177	-0.024
-435.719	-94.986	0.269	0.072
-434.705	40.596	-0.172	0.153
-433.690	283.806	-0.154	-0.274
-432.676	-52.668	-0.298	-0.135
-431.661	-62.446	0.304	-0.125
-430.646	-200.000	0.011	-0.068
-429.632	401.676	-0.087	-0.180
-428.617	34.712	-0.105	0.091
-427.603	89.755	-0.224	0.246
-426.588	-79.945	-0.050	-0.016
-425.573	287.948	0.125	0.223
-424.559	41.891	0.174	-0.156
-423.544	93.908	-0.178	0.199
-422.530	-200.000	0.070	0.352
-421.515	751.576	-0.092	0.244
-420.500	-166.678	0.177	-0.007
-419.486	-200.000	0.028	0.205
-418.471	-200.000	-0.041	0.232
-417.457	372.190	0.108	0.216
-416.442	-0.024	0.117	0.082
-415.428	18.058	-0.105	-0.083
-414.413	87.269	0.170	-0.185
-413.398	-135.462	0.137	-0.016
-412.384	273.856	0.132	-0.229
-411.369	379.181	-0.071	-0.144
-410.355	800.000	0.056	0.205
-409.340	189.392	-0.192	0.283
-408.325	130.911	-0.168	0.212
-407.311	-200.000	0.033	0.408
-406.296	-200.000	0.004	-0.249
-405.282	221.643	0.022	0.034
-404.267	82.937	-0.188	-0.201
-403.252	-200.000	0.033	0.180
-402.238	-106.607	-0.585	-0.128
-401.223	-23.063	0.207	-0.123
-400.209	-200.000	0.032	-0.322
-399.194	-110.099	-0.004	-0.001
-398.179	-200.000	-0.025	-0.127
-397.165	800.000	0.109	-0.453
-396.150	-104.412	0.184	0.042
-395.136	-107.619	0.094	-0.020
-394.121	-200.000	0.051	-0.281
-393.106	-143.475	0.318	0.030
-392.092	-160.792	0.335	-0.017
-391.077	-200.000	-0.010	0.360
-390.063	-126.290	-0.272	0.040
-389.048	-200.000	0.042	0.249
-388.033	-200.000	0.049	0.342
-387.019	165.848	0.149	-0.208
-386.004	-103.292	-0.338	0.078
-384.990	593.725	0.072	0.176
-383.975	159.591	-0.205	0.280
-382.960	84.709	0.198	-0.213
-381.946	-111.807	-0.223	0.044
-380.931	-135.807	-0.305	-0.036
-379.917	-149.372	0.263	-0.021
-378.902	126.131	-0.029	-0.036
-377.888	800.000	0.003	0.008
-376.873	-200.000	-0.007	0.157
-375.858	257.069	-0.050	0.084
-374.844	82.244	-0.154	-0.165
-373.829	-97.283	-0.043	-0.011
-372.815	78.657	0.113	-0.119
-371.800	788.734	-0.186	0.502
-370.785	166.398	0.163	0.227
-369.771	126.026	-0.116	0.145
-368.756	-182.672	0.111	-0.002
-367.742	84.102	0.124	0.133
-366.727	-200.000	-0.028	0.201
-365.712	-200.000	-0.027	-0.399
-364.698	-200.000	0.049	-0.237
-363.683	-200.000	-0.034	0.204
-362.669	-160.626	0.239	-0.013
-361.654	-17.194	0.186	-0.115
-360.639	-130.603	-0.404	-0.054
-359.625	-20.843	0.114	-0.069
-358.610	-112.829	0.237	-0.046
-357.596	-167.178	0.165	0.007
-356.581	800.000	-0.093	-0.344
-355.566	-0.951	-0.084	-0.058
-354.552	-27.398	-0.091	0.052
-353.537	-12.424	-0.242	0.156
-352.523	800.000	-0.047	0.201
-351.508	534.015	-0.062	0.143
-350.493	800.000	0.045	0.176
-349.479	800.000	0.111	0.323
-348.464	-176.453	0.282	-0.007
-347.450	89.266	0.043	0.047
-346.435	800.000	0.044	-0.139
-345.420	0.166	-0.329	-0.230
-344.406	280.958	-0.239	0.420
-343.391	-19.723	0.153	-0.093
-342.377	-86.591	-0.154	-0.046
-341.362	-200.000	0.064	-0.381
-340.348	-21.721	0.035	0.021
-339.333	-200.000	-0.002	0.133
-338.318	5.081	-0.167	0.121
-337.304	-137.795	0.151	0.017
-336.289	-200.000	-0.014	-0.229
-335.275	453.402	-0.084	0.183
-334.260	118.016	0.092	0.112
-333.245	-22.713	-0.307	-0.182
-332.231	-200.000	0.008	-0.118
-331.216	61.862	-0.048	0.047
-330.202	20.231	0.260	-0.206
-329.187	-200.000	0.013	-0.165
-328.172	-144.840	-0.220	-0.020
-327.158	-30.855	-0.302	0.167
-326.143	-78.098	0.018	-0.006
-325.129	800.000	-0.029	-0.098
-324.114	-122.608	-0.258	-0.041
-323.099	-152.669	-0.259	0.018
-322.085	162.688	0.117	-0.161
-321.070	6.611	0.292	-0.213
-320.056	-200.000	-0.034	0.360
-319.041	-26.745	0.173	0.099
-318.026	-200.000	-0.006	0.280
-317.012	-57.840	-0.127	0.054
-315.997	-36.341	-0.166	-0.088
-314.983	-111.234	0.108	-0.022
-313.968	-200.000	0.030	0.513
-312.953	313.991	-0.150	0.277
-311.939	-113.104	0.264	-0.051
-310.924	-37.121	0.145	-0.076
-309.910	800.000	0.039	0.111
-308.895	341.022	0.141	-0.270
-307.880	-46.858	-0.304	0.146
-306.866	-82.261	0.168	0.054
-305.851	13.064	-0.406	0.309
-304.837	79.156	-0.107	0.112
-303.822	800.000	-0.118	-0.334
-302.807	668.044	0.087	-0.222
-301.793	78.331	-0.134	0.140
-300.778	534.784	0.051	-0.118
-299.764	800.000	0.051	0.144
-298.749	114.750	0.055	0.066
-297.735	-200.000	-0.022	-0.232
-296.720	-73.157	0.098	0.035
-295.705	-200.000	0.058	0.520
-294.691	-28.705	-0.159	0.090
-293.676	-67.245	0.298	-0.115
-292.662	-145.290	0.127	-0.011
-291.647	-28.348	-0.326	-0.184
-290.632	48.694	-0.169	-0.155
-289.618	-111.260	-0.159	0.032
-288.603	-200.000	-0.004	-0.275
-287.589	-108.193	0.303	-0.064
-286.574	754.515	0.135	0.358
-285.559	-200.000	0.085	0.000
-284.545	-102.535	0.111	0.026
-283.530	-48.804	0.192	0.090
-282.516	-200.000	-0.006	0.124
-281.501	279.039	-0.130	0.227
-280.486	-200.000	0.018	0.163
-279.472	166.747	-0.052	0.072
-278.457	69.261	-0.195	0.197
-277.443	-66.243	-0.156	0.061
-276.428	-157.104	0.264	0.016
-275.413	-60.322	0.329	-0.137
-274.399	-126.178	0.072	0.011
-273.384	-140.724	0.181	-0.018
-272.370	-200.000	-0.008	0.075
-271.355	-106.923	0.322	-0.070
-270.340	137.722	-0.205	-0.263
-269.326	800.000	0.041	0.161
-268.311	53.827	-0.200	0.188
-267.297	71.045	0.123	0.125
-266.282	-88.667	0.510	0.149
-265.267	17.488	0.137	-0.107
-264.253	-200.000	0.044	0.194
-263.238	220.090	0.047	0.074
-262.224	-48.196	0.129	-0.061
-261.209	800.000	-0.097	-0.282
-260.195	545.947	-0.114	0.268
-259.180	-19.010	-0.156	-0.095
-258.165	-20.166	-0.175	-0.106
-257.151	12.606	0.099	-0.075
-256.136	16.081	0.267	-0.206
-255.122	-200.000	-0.276	-0.001
-254.107	25.651	0.088	-0.071
-253.092	-200.000	-0.055	-0.279
-252.078	-106.591	0.065	-0.014
-251.063	58.902	-0.266	0.256
-250.049	-113.956	0.331	-0.063
-249.034	-64.182	0.157	-0.063
-248.019	-200.000	-0.015	-0.123
-247.005	38.910	0.218	-0.191
-245.990	67.245	-0.053	-0.053
-244.976	-18.994	-0.248	-0.151
-243.961	-200.000	0.041	0.264
-242.946	800.000	-0.030	0.099
-241.932	79.515	0.097	-0.102
-240.917	636.155	-0.140	0.348
-239.903	800.000	0.029	-0.081
-238.888	6.517	-0.134	0.098
-237.873	123.947	0.112	0.137
-236.859	80.867	-0.155	0.163
-235.844	220.319	0.060	0.093
-234.830	-200.000	-0.002	-0.225
-233.815	-200.000	-0.011	0.117
-232.800	-45.449	-0.166	-0.081
-231.786	-45.958	0.262	0.126
-230.771	-44.237	-0.129	0.063
-229.757	-18.215	-0.193	-0.118
-228.742	60.337	0.219	0.212
-227.727	682.383	-0.031	0.080
-226.713	-200.000	0.027	0.284
-225.698	267.041	-0.111	0.190
-224.684	-56.517	-0.092	0.040
-223.669	212.944	0.147	-0.228
-222.655	49.359	0.150	0.138
-221.640	-39.068	-0.149	-0.077
-220.625	197.073	-0.091	0.136
-219.611	47.694	-0.175	0.160
-218.596	-8.834	0.197	-0.129
-217.582	54.181	0.081	-0.076
-216.567	800.000	0.084	-0.355
-215.552	721.914	0.119	0.311
-214.538	-23.232	-0.064	0.038
-213.523	176.284	-0.078	0.111
-212.509	-131.668	-0.233	0.030
-211.494	695.343	-0.176	0.453
-210.479	-70.295	0.473	0.175
-209.465	-200.000	-0.020	0.133
-208.450	-132.253	0.248	-0.031
-207.436	-200.000	-0.133	0.000
-206.421	70.660	0.088	-0.089
-205.406	311.163	-0.109	-0.200
-204.392	-200.000	-0.010	0.139
-203.377	-200.000	0.001	-0.231
-202.363	-200.000	0.005	-0.198
-201.348	-200.000	-0.001	0.106
-200.333	134.125	-0.204	-0.258
-199.319	-200.000	0.072	-0.396
-198.304	28.796	-0.070	0.058
-197.290	-131.315	-0.167	-0.022
-196.275	41.155	0.422	-0.373
-195.260	-89.125	-0.087	-0.025
-194.246	-200.000	0.017	0.103
-193.231	-134.564	0.121	0.014
-192.217	374.356	-0.131	-0.261
-191.202	114.900	-0.104	0.124
-190.187	-200.000	-0.032	-0.317
-189.173	-55.590	-0.230	0.100
-188.158	56.890	-0.214	0.204
-187.144	800.000	0.087	0.276
-186.129	-143.136	0.179	-0.017
-185.114	-84.254	-0.276	0.085
-184.100	21.251	-0.103	-0.081
-183.085	-200.000	-0.048	0.230
-182.071	-126.322	0.207	0.030
-181.056	521.575	0.099	0.228
-180.042	127.286	0.080	-0.100
-179.027	-66.696	0.110	0.043
-178.012	-84.291	0.176	0.054
-176.998	-200.000	0.062	-0.317
-175.983	29.867	0.166	0.138
-174.969	16.576	-0.182	-0.140
-173.954	-124.168	-0.033	0.005
-172.939	-200.000	-0.011	-0.347
-171.925	800.000	-0.088	-0.335
-170.910	-200.000	-0.025	0.247
-169.896	-200.000	0.018	-0.225
-168.881	-176.207	-0.054	0.001
-167.866	-134.633	-0.159	-0.019
-166.852	-123.167	0.140	0.022
-165.837	-91.805	-0.289	0.080
-164.823	-0.046	0.093	0.065
-163.808	781.264	-0.119	0.319
-162.793	7.025	0.219	-0.159
-161.779	-123.472	-0.259	0.040
-160.764	709.243	0.071	-0.183
-159.750	-28.613	0.169	-0.095
-158.735	-117.049	0.169	-0.030
-157.720	-24.968	-0.058	-0.033
-156.706	-200.000	0.106	0.000
-155.691	-49.402	0.146	0.068
-154.677	-101.576	-0.396	0.094
-153.662	-74.783	-0.340	-0.119
-152.647	552.373	-0.107	-0.250
-151.633	-200.000	0.004	-0.212
-150.618	-32.645	0.136	-0.074
-149.604	62.970	-0.391	-0.382
-148.589	484.133	0.009	0.021
-147.574	-113.601	-0.032	-0.006
-146.560	113.416	-0.058	-0.069
-145.545	-7.357	-0.050	0.033
-144.531	173.662	0.097	-0.136
-143.516	90.237	-0.208	0.227
-142.502	571.766	0.171	0.406
-141.487	53.525	0.298	0.279
-140.472	800.000	-0.016	-0.063
-139.458	-75.197	-0.023	-0.008
-138.443	182.981	-0.056	0.081
-137.429	-200.000	0.017	-0.168
-136.414	-152.627	0.396	-0.028
-135.399	-61.717	0.316	-0.129
-134.385	-33.191	-0.106	0.057
-133.370	-200.000	-0.012	0.244
-132.356	481.788	-0.170	-0.376
-131.341	625.863	0.108	-0.265
-130.326	-200.000	-0.030	0.153
-129.312	-105.333	0.141	0.031
-128.297	-118.196	-0.380	0.066
-127.283	155.052	0.211	0.283
-126.268	-200.000	0.006	-0.089
-125.253	76.781	-0.122	-0.126
-124.239	525.639	-0.028	-0.065
-123.224	-22.691	0.223	-0.131
-122.210	54.454	-0.123	0.116
