DTS Sentinel unit serial number:	SN413079Multiplexer serial number:	ORYXHardware model number:	OX4-SRSoftware version number:	ORYX F/W v4.00 Oryx Data Collector v3.7.2.0data status	okinstallation	princeton_trtdifferential loss correction	single-endedforward channel	channel 2reverse channel	N/Adate	2019/09/19time	02:55:35forward acquisition time	60.00reverse acquisition time	0.00gamma	496.2192k internal	0.2353k external	0.2353temperature offset calibration	1.0012default loss term (dB/km)	0.3790temperature slope calibration	1.0000multiplexer offset coefficient	1.0000multiplexer slope coefficient	1.0000fibre end	0.00T internal ref (°C)	20.87T ext. ref 1 (°C)	0.66T ext. ref 2 (°C)	14.66length (m)	temperature (°C)	Stokes	anti-Stokes-747.200	-158.075	-0.356	-0.021
-746.185	40.254	-0.388	-0.348
-745.171	140.430	0.217	0.286
-744.156	-200.000	-0.059	0.270
-743.142	-163.165	0.440	0.021
-742.127	-104.670	-0.309	-0.071
-741.112	420.358	0.060	-0.127
-740.098	15.477	0.180	0.141
-739.083	-200.000	-0.005	-0.034
-738.069	-59.984	-0.038	-0.016
-737.054	-200.000	0.003	-0.070
-736.039	-96.523	-0.233	-0.061
-735.025	-200.000	0.035	0.352
-734.010	312.497	-0.109	0.203
-732.996	-14.214	-0.201	-0.129
-731.981	800.000	0.061	0.183
-730.966	72.576	0.209	0.218
-729.952	611.622	-0.039	-0.098
-728.937	101.592	-0.067	0.078
-727.923	-143.408	0.332	-0.032
-726.908	-200.000	-0.030	-0.388
-725.894	-55.686	-0.306	-0.136
-724.879	-200.000	-0.064	0.308
-723.864	48.434	0.243	0.227
-722.850	161.805	0.026	-0.037
-721.835	-81.348	-0.072	0.024
-720.821	-200.000	-0.001	0.041
-719.806	-88.437	-0.209	-0.062
-718.791	-200.000	0.108	0.000
-717.777	-158.937	-0.238	0.013
-716.762	-77.357	0.095	-0.033
-715.748	-12.382	-0.106	-0.069
-714.733	-125.776	0.182	-0.027
-713.718	42.082	-0.147	-0.133
-712.704	729.838	0.155	-0.411
-711.689	-6.955	-0.137	-0.093
-710.675	-100.906	-0.274	-0.067
-709.660	-83.900	0.175	0.056
-708.645	-200.000	-0.030	-0.289
-707.631	138.920	0.128	0.168
-706.616	-7.083	0.233	0.158
-705.602	480.625	-0.121	0.273
-704.587	-111.247	0.166	0.034
-703.572	-188.683	0.073	-0.001
-702.558	-98.077	0.357	-0.092
-701.543	800.000	-0.045	0.132
-700.529	800.000	0.026	0.079
-699.514	4.544	0.120	-0.088
-698.499	-200.000	-0.009	0.044
-697.485	242.882	0.217	0.361
-696.470	-114.979	0.343	0.065
-695.456	-160.579	0.167	0.009
-694.441	-200.000	0.020	0.198
-693.426	-200.000	-0.025	0.126
-692.412	-200.000	0.030	0.157
-691.397	-200.000	-0.003	0.040
-690.383	-130.060	0.309	0.042
-689.368	-200.000	-0.004	-0.034
-688.354	60.634	-0.064	0.063
-687.339	-140.767	0.141	0.015
-686.324	273.587	-0.181	-0.319
-685.310	-40.265	-0.084	0.043
-684.295	-93.148	0.318	0.088
-683.281	-200.000	-0.032	0.362
-682.266	40.024	0.049	0.044
-681.251	17.341	-0.257	-0.203
-680.237	248.736	0.062	0.104
-679.222	-182.417	0.202	-0.004
-678.208	-200.000	0.003	0.308
-677.193	423.832	-0.082	-0.174
-676.178	-116.313	-0.126	-0.023
-675.164	-116.708	0.106	0.019
-674.149	-120.754	0.119	-0.020
-673.135	86.475	-0.106	0.116
-672.120	-200.000	-0.096	0.433
-671.105	99.735	-0.020	-0.023
-670.091	491.940	-0.081	-0.185
-669.076	16.303	0.107	-0.084
-668.062	-103.900	-0.190	-0.044
-667.047	-200.000	0.039	0.253
-666.032	80.988	0.050	0.054
-665.018	187.760	0.147	0.219
-664.003	-104.205	0.102	-0.024
-662.989	-200.000	0.029	-0.220
-661.974	-56.317	-0.279	-0.123
-660.959	-200.000	0.003	-0.266
-659.945	800.000	-0.080	0.338
-658.930	86.529	-0.156	-0.171
-657.916	254.915	0.164	0.279
-656.901	-84.017	-0.287	-0.091
-655.886	511.158	-0.078	0.179
-654.872	-200.000	0.060	0.298
-653.857	-200.000	0.015	-0.136
-652.843	151.400	0.162	0.219
-651.828	24.666	0.216	-0.178
-650.814	-12.088	0.204	-0.133
-649.799	34.820	0.235	-0.204
-648.784	244.795	-0.072	0.121
-647.770	222.818	-0.105	-0.167
-646.755	690.934	0.095	-0.247
-645.741	-116.652	-0.178	0.033
-644.726	-44.023	-0.235	0.117
-643.711	-55.558	0.332	-0.148
-642.697	-93.474	0.097	0.027
-641.682	68.211	0.225	0.228
-640.668	684.894	-0.157	0.406
-639.653	-127.315	0.109	0.016
-638.638	800.000	-0.062	0.201
-637.624	-135.424	-0.201	-0.024
-636.609	-52.174	0.157	-0.073
-635.595	-34.919	0.319	0.173
-634.580	-68.482	-0.240	-0.092
-633.565	800.000	0.010	-0.036
-632.551	-174.823	0.323	0.009
-631.536	-42.879	-0.074	-0.037
-630.522	289.332	0.026	-0.046
-629.507	-108.128	-0.167	-0.036
-628.492	107.551	-0.128	0.152
-627.478	-200.000	0.019	0.119
-626.463	51.423	0.106	0.100
-625.449	-200.000	-0.066	0.317
-624.434	-23.510	-0.083	-0.049
-623.419	-91.478	-0.287	-0.081
-622.405	-200.000	0.020	-0.106
-621.390	119.088	-0.095	0.116
-620.376	560.050	0.131	0.314
-619.361	-17.085	-0.231	0.145
-618.346	557.966	0.063	0.150
-617.332	-200.000	0.105	0.492
-616.317	-200.000	0.032	-0.208
-615.303	-32.276	-0.293	0.162
-614.288	-200.000	-0.001	0.037
-613.273	-179.408	-0.243	-0.005
-612.259	-41.308	-0.166	-0.085
-611.244	14.770	0.241	0.187
-610.230	-6.815	-0.292	0.197
-609.215	-200.000	0.044	0.244
-608.201	282.747	0.244	0.434
-607.186	-200.000	-0.009	0.143
-606.171	-27.366	0.319	0.184
-605.157	36.985	-0.291	-0.255
-604.142	-189.955	-0.306	-0.003
-603.128	31.757	0.068	0.058
-602.113	295.530	0.124	-0.224
-601.098	328.341	-0.116	-0.220
-600.084	-128.657	-0.425	0.060
-599.069	-5.904	0.224	-0.152
-598.055	717.612	0.213	-0.561
-597.040	-53.826	0.121	-0.055
-596.025	-84.686	0.310	0.097
-595.011	-102.227	-0.237	-0.056
-593.996	-200.000	-0.239	0.000
-592.982	800.000	0.065	0.272
-591.967	-77.016	-0.483	-0.167
-590.952	-66.370	-0.341	0.134
-589.938	-200.000	-0.030	0.306
-588.923	-178.595	0.196	0.004
-587.909	-184.716	0.215	-0.003
-586.894	428.753	0.133	-0.285
-585.879	30.466	-0.226	0.191
-584.865	101.636	0.186	-0.214
-583.850	-200.000	-0.047	0.382
-582.836	207.112	-0.222	-0.344
-581.821	-32.442	-0.110	-0.061
-580.806	6.124	0.083	-0.061
-579.792	-140.667	0.349	-0.036
-578.777	497.515	0.099	-0.225
-577.763	-171.571	-0.136	-0.004
-576.748	-107.413	0.246	-0.053
-575.733	-80.805	0.079	0.026
-574.719	800.000	0.075	0.268
-573.704	249.607	-0.156	-0.263
-572.690	800.000	0.099	-0.331
-571.675	-103.303	0.121	0.028
-570.661	-50.373	-0.358	-0.168
-569.646	48.059	0.153	-0.142
-568.631	-115.694	0.305	0.057
-567.617	800.000	-0.125	-0.393
-566.602	239.611	-0.174	-0.286
-565.588	263.056	0.031	0.054
-564.573	79.620	-0.176	-0.187
-563.558	-156.062	0.402	0.025
-562.544	141.695	0.076	0.100
-561.529	26.800	0.131	0.109
-560.515	-200.000	0.008	-0.103
-559.500	149.171	-0.094	0.126
-558.485	-89.734	-0.030	0.009
-557.471	800.000	-0.067	-0.271
-556.456	-2.048	0.064	-0.044
-555.442	195.765	0.149	0.225
-554.427	-13.398	0.164	-0.105
-553.412	59.620	0.087	0.085
-552.398	-117.736	-0.238	-0.042
-551.383	-200.000	0.044	-0.236
-550.369	-57.389	-0.317	-0.138
-549.354	-137.268	-0.211	0.024
-548.339	-155.048	0.140	0.009
-547.325	-69.539	-0.213	-0.081
-546.310	3.786	0.207	0.150
-545.296	105.427	-0.142	-0.166
-544.281	800.000	-0.123	-0.387
-543.266	222.440	-0.203	-0.323
-542.252	259.106	0.169	0.288
-541.237	203.365	0.050	0.077
-540.223	208.756	-0.232	-0.360
-539.208	182.016	0.219	-0.319
-538.193	104.758	-0.152	0.177
-537.179	-28.922	0.051	0.029
-536.164	155.106	0.186	-0.253
-535.150	-94.206	0.133	-0.036
-534.135	-170.414	-0.663	-0.023
-533.121	-200.000	-0.017	0.089
-532.106	-200.000	-0.017	0.100
-531.091	7.776	-0.221	-0.164
-530.077	-153.543	-0.225	-0.015
-529.062	-42.173	-0.120	0.061
-528.048	-166.453	0.194	0.008
-527.033	-108.507	0.270	-0.057
-526.018	84.229	-0.116	0.125
-525.004	727.979	-0.073	-0.192
-523.989	37.287	-0.104	0.091
-522.975	693.847	0.036	0.094
-521.960	20.045	-0.204	-0.163
-520.945	-48.989	-0.209	0.099
-519.931	-42.122	0.093	-0.047
-518.916	-200.000	0.050	-0.300
-517.902	392.655	-0.185	0.380
-516.887	135.986	0.217	-0.280
-515.872	649.061	-0.097	-0.246
-514.858	215.823	-0.132	0.208
-513.843	168.035	-0.205	0.288
-512.829	92.971	0.115	-0.128
-511.814	-54.887	-0.205	-0.091
-510.799	112.556	0.267	-0.319
-509.785	76.333	-0.137	0.143
-508.770	800.000	-0.045	-0.153
-507.756	-89.893	-0.316	-0.091
-506.741	364.665	-0.176	0.350
-505.726	152.406	-0.051	-0.069
-504.712	-25.330	0.320	0.187
-503.697	-200.000	-0.038	0.282
-502.683	800.000	-0.008	-0.023
-501.668	-200.000	0.008	-0.286
-500.653	-49.970	0.173	0.081
-499.639	-174.137	-0.071	-0.002
-498.624	-110.766	-0.045	0.009
-497.610	-166.866	-0.136	0.006
-496.595	189.432	0.125	-0.184
-495.581	242.324	-0.063	-0.104
-494.566	-13.287	-0.238	-0.152
-493.551	-79.418	-0.231	-0.077
-492.537	116.752	-0.153	-0.186
-491.522	328.859	0.052	0.098
-490.508	-97.567	-0.155	-0.040
-489.493	800.000	0.063	-0.202
-488.478	53.971	0.209	0.198
-487.464	176.574	0.092	-0.133
-486.449	-90.491	-0.196	-0.056
-485.435	-200.000	-0.027	0.426
-484.420	-49.860	0.110	-0.052
-483.405	-200.000	0.004	-0.020
-482.391	183.812	0.165	-0.241
-481.376	-163.140	-0.037	-0.002
-480.362	-200.000	0.026	0.213
-479.347	-200.000	0.022	-0.121
-478.332	223.292	0.170	0.271
-477.318	-80.201	-0.205	0.068
-476.303	800.000	-0.030	0.104
-475.289	800.000	-0.033	-0.126
-474.274	28.871	-0.049	0.041
-473.259	22.160	0.107	-0.086
-472.245	22.565	-0.182	-0.147
-471.230	495.200	-0.044	0.099
-470.216	178.847	0.132	-0.190
-469.201	57.344	-0.166	-0.160
-468.186	-10.837	0.334	-0.218
-467.172	255.626	0.115	-0.195
-466.157	-103.127	0.156	-0.036
-465.143	382.118	0.141	0.285
-464.128	-98.104	0.382	0.097
-463.113	128.435	-0.174	-0.218
-462.099	-200.000	0.019	-0.253
-461.084	-106.615	0.319	-0.070
-460.070	0.275	0.119	0.084
-459.055	800.000	-0.038	-0.108
-458.040	-200.000	0.025	-0.186
-457.026	78.873	0.134	0.141
-456.011	-200.000	0.001	-0.173
-454.997	121.046	0.205	0.252
-453.982	-110.993	0.331	0.067
-452.968	-200.000	0.051	-0.275
-451.953	800.000	0.023	0.091
-450.938	595.508	-0.071	-0.174
-449.924	152.064	-0.174	-0.234
-448.909	182.653	0.052	-0.076
-447.895	251.398	-0.081	0.136
-446.880	92.897	-0.099	-0.110
-445.865	-112.672	0.099	0.019
-444.851	427.657	-0.257	0.546
-443.836	180.944	-0.248	0.359
-442.822	200.201	0.053	0.081
-441.807	-200.000	0.046	0.314
-440.792	-200.000	-0.033	-0.302
-439.778	-23.709	0.123	-0.073
-438.763	-200.000	-0.005	0.364
-437.749	455.816	-0.094	-0.205
-436.734	-17.156	0.248	-0.154
-435.719	-200.000	-0.005	-0.268
-434.705	-41.039	-0.051	0.026
-433.690	-17.518	0.195	0.121
-432.676	800.000	0.065	-0.216
-431.661	765.368	-0.091	-0.244
-430.646	250.035	0.084	-0.140
-429.632	-160.063	0.277	-0.015
-428.617	-121.595	-0.412	0.067
-427.603	-78.160	0.232	0.079
-426.588	189.069	0.244	0.360
-425.573	625.366	-0.055	-0.138
-424.559	-70.315	-0.244	-0.091
-423.544	82.846	0.202	0.217
-422.530	-200.000	-0.005	0.306
-421.515	-200.000	0.002	0.013
-420.500	-200.000	0.000	-0.131
-419.486	76.696	-0.201	0.209
-418.471	-180.000	-0.214	0.004
-417.457	-71.978	0.077	0.028
-416.442	-72.033	-0.127	0.046
-415.428	8.948	0.046	0.034
-414.413	-200.000	-0.003	-0.171
-413.398	144.180	0.012	0.016
-412.384	-200.000	0.053	-0.272
-411.369	-130.064	0.207	0.028
-410.355	-8.814	-0.082	-0.054
-409.340	317.322	0.122	-0.227
-408.325	-84.732	0.159	-0.049
-407.311	-159.599	-0.367	-0.020
-406.296	-27.241	-0.061	-0.035
-405.282	-145.977	-0.310	0.027
-404.267	376.155	0.049	-0.099
-403.252	104.084	-0.085	0.098
-402.238	137.127	0.260	0.334
-401.223	800.000	-0.039	0.117
-400.209	47.461	-0.163	-0.150
-399.194	38.450	-0.140	0.122
-398.179	-134.179	0.291	-0.035
-397.165	-56.427	0.143	0.062
-396.150	-52.359	-0.244	0.111
-395.136	-86.516	0.403	0.122
-394.121	-200.000	-0.018	0.123
-393.106	-200.000	-0.043	0.318
-392.092	-74.554	0.166	0.059
-391.077	-8.007	0.055	0.036
-390.063	-41.603	-0.140	0.071
-389.048	-135.900	0.150	0.017
-388.033	800.000	0.057	0.225
-387.019	114.258	-0.052	0.062
-386.004	-140.257	0.120	0.012
-384.990	800.000	0.020	0.057
-383.975	-176.908	0.240	0.006
-382.960	-35.653	0.101	-0.054
-381.946	-200.000	0.012	-0.178
-380.931	730.545	0.059	-0.154
-379.917	-200.000	-0.028	0.138
-378.902	220.895	-0.132	0.208
-377.888	68.358	0.170	-0.171
-376.873	-41.137	-0.263	0.133
-375.858	-70.578	0.283	-0.105
-374.844	-200.000	0.022	-0.103
-373.829	691.208	-0.051	-0.131
-372.815	-200.000	-0.057	0.263
-371.800	-40.699	-0.266	0.136
-370.785	-200.000	0.012	0.335
-369.771	-200.000	0.021	0.093
-368.756	-200.000	0.036	0.160
-367.742	800.000	-0.049	0.208
-366.727	-132.342	-0.386	-0.049
-365.712	-14.699	0.238	0.150
-364.698	-93.947	-0.063	0.017
-363.683	-200.000	0.050	0.396
-362.669	74.662	0.032	-0.033
-361.654	-155.533	0.172	0.011
-360.639	-200.000	0.005	-0.042
-359.625	-120.219	-0.119	-0.020
-358.610	-47.332	-0.304	0.145
-357.596	-176.500	-0.157	-0.004
-356.581	800.000	0.050	0.186
-355.566	107.949	-0.056	0.065
-354.552	-72.826	-0.294	0.106
-353.537	1.725	-0.200	-0.141
-352.523	-31.740	0.149	0.082
-351.508	157.555	0.117	0.159
-350.493	-45.467	-0.282	0.137
-349.479	408.070	-0.079	0.164
-348.464	800.000	0.061	-0.247
-347.450	-74.591	-0.130	-0.046
-346.435	57.971	-0.107	0.103
-345.420	-55.652	0.150	0.066
-344.406	-68.536	-0.140	0.053
-343.391	109.232	0.114	-0.134
-342.377	-92.141	-0.276	-0.077
-341.362	-148.941	-0.125	-0.010
-340.348	106.831	0.070	0.082
-339.333	204.060	-0.090	-0.137
-338.318	-200.000	0.015	0.255
-337.304	-42.437	0.156	-0.078
-336.289	39.991	-0.080	-0.071
-335.275	371.413	0.065	0.130
-334.260	-34.073	-0.077	0.041
-333.245	-200.000	-0.058	0.302
-332.231	-139.701	-0.162	0.017
-331.216	65.782	0.074	-0.073
-330.202	130.174	-0.102	0.128
-329.187	69.286	-0.128	0.129
-328.172	-200.000	-0.003	-0.098
-327.158	-60.364	0.091	0.038
-326.143	-200.000	-0.000	-0.073
-325.129	800.000	0.069	0.243
-324.114	90.540	-0.222	0.244
-323.099	100.900	0.138	0.157
-322.085	-20.756	-0.046	0.028
-321.070	94.767	0.168	0.187
-320.056	12.572	-0.065	0.049
-319.041	-186.484	-0.087	0.001
-318.026	81.115	-0.192	-0.203
-317.012	-120.949	-0.218	-0.036
-315.997	-3.317	-0.212	-0.145
-314.983	-200.000	-0.039	-0.340
-313.968	-80.614	0.226	-0.074
-312.953	37.990	0.329	-0.287
-311.939	46.639	0.125	-0.114
-310.924	-200.000	0.063	-0.273
-309.910	-74.671	-0.270	0.095
-308.895	800.000	0.010	-0.028
-307.880	96.185	0.107	-0.120
-306.866	-200.000	-0.026	0.225
-305.851	-4.488	0.044	-0.030
-304.837	-200.000	0.027	-0.132
-303.822	800.000	-0.077	0.250
-302.807	-82.919	0.369	0.117
-301.793	-200.000	-0.041	-0.415
-300.778	263.645	0.166	0.283
-299.764	-104.787	-0.124	-0.028
-298.749	289.257	-0.178	-0.316
-297.735	176.488	-0.117	0.167
-296.720	-7.856	0.291	0.192
-295.705	-200.000	-0.049	0.227
-294.691	-200.000	0.041	-0.249
-293.676	-113.830	0.040	-0.008
-292.662	-86.390	0.100	0.030
-291.647	-146.334	-0.083	0.007
-290.632	-123.397	0.097	-0.015
-289.618	286.647	-0.061	-0.108
-288.603	-142.561	0.160	-0.015
-287.589	371.871	0.098	-0.195
-286.574	292.390	0.091	-0.163
-285.559	800.000	0.037	0.110
-284.545	-26.315	-0.270	-0.155
-283.530	28.312	0.300	0.249
-282.516	-68.243	0.089	-0.034
-281.501	54.437	-0.037	-0.035
-280.486	-30.692	-0.163	-0.090
-279.472	718.243	-0.039	0.101
-278.457	6.550	-0.093	0.068
-277.443	-85.912	-0.318	0.096
-276.428	-17.814	0.167	0.102
-275.413	-101.758	-0.303	0.072
-274.399	38.272	-0.086	-0.075
-273.384	119.530	0.085	-0.104
-272.370	-180.371	0.144	-0.003
-271.355	800.000	-0.158	-0.459
-270.340	39.683	-0.227	0.199
-269.326	-123.553	0.456	0.071
-268.311	-200.000	-0.015	0.171
-267.297	27.733	0.019	0.015
-266.282	255.079	-0.048	0.080
-265.267	164.335	0.268	-0.370
-264.253	47.632	0.143	-0.130
-263.238	800.000	0.053	0.148
-262.224	-129.370	-0.088	0.012
-261.209	309.198	0.117	0.213
-260.195	563.267	-0.006	0.014
-259.180	-200.000	0.045	-0.258
-258.165	-200.000	-0.021	-0.153
-257.151	-59.733	-0.124	0.052
-256.136	165.054	-0.174	0.240
-255.122	645.307	-0.012	0.030
-254.107	144.843	0.203	-0.266
-253.092	-175.531	-0.184	0.005
-252.078	-200.000	-0.064	-0.340
-251.063	-92.161	0.424	0.117
-250.049	734.072	0.040	-0.106
-249.034	185.918	0.083	-0.120
-248.019	553.445	0.152	0.358
-247.005	73.113	0.141	0.144
-245.990	800.000	-0.020	0.063
-244.976	28.524	0.054	0.045
-243.961	-2.413	0.172	0.118
-242.946	442.945	0.075	0.161
-241.932	2.757	0.208	-0.148
-240.917	-63.076	-0.121	0.049
-239.903	-8.893	0.155	0.101
-238.888	-129.786	0.178	-0.024
-237.873	-200.000	0.003	-0.122
-236.859	540.369	-0.169	-0.392
-235.844	38.915	-0.038	0.033
-234.830	800.000	0.019	0.057
-233.815	-124.348	0.152	-0.023
-232.800	290.038	-0.095	-0.168
-231.786	47.285	-0.156	-0.142
-230.771	-200.000	-0.068	-0.408
-229.757	787.371	-0.077	-0.208
-228.742	-79.922	0.266	0.087
-227.727	654.181	0.098	-0.247
-226.713	1.307	-0.171	-0.120
-225.698	-200.000	0.004	-0.139
-224.684	-200.000	0.045	0.342
-223.669	-125.671	0.306	0.045
-222.655	440.031	-0.129	-0.275
-221.640	6.831	-0.323	0.235
-220.625	149.808	0.136	-0.181
-219.611	212.015	0.028	-0.043
-218.596	76.729	0.140	-0.145
-217.582	219.780	-0.115	0.181
-216.567	-6.527	-0.052	0.035
-215.552	-200.000	-0.018	-0.167
-214.538	-109.203	-0.069	-0.014
-213.523	800.000	0.069	0.199
-212.509	37.456	0.239	-0.207
-211.494	124.226	-0.301	0.369
-210.479	-162.840	-0.408	-0.019
-209.465	-125.332	0.219	0.033
-208.450	-146.051	0.266	0.023
-207.436	41.789	0.198	0.175
-206.421	507.894	-0.009	0.021
-205.406	592.214	-0.049	0.119
-204.392	566.857	0.035	0.083
-203.377	-94.548	0.224	-0.060
-202.363	-177.741	-0.057	-0.001
-201.348	-19.570	0.309	-0.187
-200.333	490.824	-0.145	0.323
-199.319	213.687	0.135	0.208
-198.304	106.547	-0.123	-0.143
-197.290	-116.010	-0.077	0.014
-196.275	103.698	0.345	-0.395
-195.260	-107.966	0.058	0.012
-194.246	-90.225	-0.133	0.038
-193.231	351.281	0.076	0.146
-192.217	-172.313	0.195	-0.006
-191.202	349.756	0.112	0.217
-190.187	-54.913	-0.177	-0.078
-189.173	73.021	0.176	-0.180
-188.158	107.548	0.167	0.194
-187.144	101.739	0.134	-0.152
-186.129	555.433	0.121	-0.284
-185.114	-172.210	-0.117	-0.004
-184.100	800.000	0.090	0.311
-183.085	94.256	0.136	0.151
-182.071	-67.365	-0.250	-0.096
-181.056	800.000	-0.023	-0.072
-180.042	-81.273	-0.107	-0.034
-179.027	-83.979	-0.427	0.132
-178.012	262.534	0.039	0.067
-176.998	-126.990	0.320	-0.046
-175.983	471.537	-0.114	0.251
-174.969	13.802	0.262	-0.198
-173.954	178.784	-0.072	-0.103
-172.939	135.774	-0.250	0.317
-171.925	-200.000	-0.003	-0.050
-170.910	181.194	-0.233	-0.334
-169.896	-26.581	-0.187	0.107
-168.881	-104.249	-0.319	0.072
-167.866	-12.004	0.097	0.062
-166.852	-72.152	0.235	0.085
-165.837	231.304	-0.078	0.124
-164.823	-114.774	-0.193	-0.036
-163.808	-200.000	-0.033	-0.140
-162.793	-200.000	-0.005	0.121
-161.779	-64.221	0.152	-0.060
-160.764	98.249	-0.227	-0.255
-159.750	800.000	0.017	-0.067
-158.735	1.307	0.131	-0.092
-157.720	96.246	0.055	-0.061
-156.706	16.356	0.273	0.210
-155.691	14.557	0.202	0.154
-154.677	137.341	-0.158	-0.201
-153.662	-120.454	-0.084	-0.014
-152.647	-40.968	0.181	0.091
-151.633	12.488	0.130	-0.098
-150.618	474.673	0.135	-0.297
-149.604	-200.000	0.010	0.133
-148.589	274.432	0.231	0.399
-147.574	-65.000	-0.184	-0.073
-146.560	799.239	-0.081	0.217
-145.545	-180.991	-0.454	0.009
-144.531	-45.703	-0.132	0.064
-143.516	56.347	0.168	-0.159
-142.502	-157.314	0.255	0.015
-141.487	800.000	0.046	0.130
-140.472	-85.536	0.102	0.031
-139.458	-42.732	-0.188	0.093
-138.443	-37.804	0.057	0.030
-137.429	167.012	-0.156	-0.216
-136.414	-139.424	0.177	-0.019
-135.399	-23.790	-0.180	0.105
-134.385	176.288	-0.163	-0.230
-133.370	549.901	-0.084	0.197
-132.356	800.000	0.078	-0.212
-131.341	-21.523	-0.233	0.138
-130.326	-200.000	-0.001	0.402
-129.312	800.000	-0.111	-0.308
-128.297	-200.000	-0.106	-0.000
-127.283	575.386	-0.062	-0.147
-126.268	221.689	-0.156	0.244
-125.253	-141.327	0.200	-0.020
-124.239	-127.573	0.360	-0.051
-123.224	100.389	-0.163	-0.184
-122.210	22.843	-0.164	0.131
-121.195	-64.185	-0.290	0.115
