DTS Sentinel unit serial number:	SN413079Multiplexer serial number:	ORYXHardware model number:	OX4-SRSoftware version number:	ORYX F/W v4.00 Oryx Data Collector v3.7.2.0data status	okinstallation	princeton_trtdifferential loss correction	single-endedforward channel	channel 2reverse channel	N/Adate	2019/09/13time	10:51:35forward acquisition time	60.00reverse acquisition time	0.00gamma	496.2192k internal	0.2323k external	0.2323temperature offset calibration	1.0195default loss term (dB/km)	0.3790temperature slope calibration	1.0000multiplexer offset coefficient	1.0000multiplexer slope coefficient	1.0000fibre end	0.00T internal ref (°C)	31.69T ext. ref 1 (°C)	4.60T ext. ref 2 (°C)	28.32length (m)	temperature (°C)	Stokes	anti-Stokes-747.200	64.898	0.191	-0.194
-746.185	800.000	-0.092	0.282
-745.171	-13.956	0.172	-0.112
-744.156	-30.605	-0.317	0.181
-743.142	-60.015	-0.339	0.146
-742.127	-47.480	-0.399	0.196
-741.112	-92.713	0.314	0.089
-740.098	1.733	0.347	-0.252
-739.083	116.085	0.055	-0.068
-738.069	630.329	-0.071	0.180
-737.054	-200.000	-0.031	0.259
-736.039	-25.322	-0.149	-0.089
-735.025	385.344	0.020	0.041
-734.010	-29.146	0.071	0.041
-732.996	-158.078	-0.156	0.009
-731.981	800.000	-0.016	-0.049
-730.966	-105.900	-0.211	-0.048
-729.952	-70.387	-0.224	-0.086
-728.937	-200.000	0.047	-0.408
-727.923	-200.000	0.049	0.289
-726.908	637.360	0.102	-0.261
-725.894	-200.000	-0.094	-0.593
-724.879	-78.473	-0.203	0.070
-723.864	196.196	0.224	-0.344
-722.850	90.755	-0.192	-0.217
-721.835	-200.000	0.008	-0.447
-720.821	-23.420	-0.337	-0.205
-719.806	-200.000	-0.010	-0.309
-718.791	77.421	-0.275	-0.295
-717.777	-69.402	-0.134	0.052
-716.762	-200.000	0.013	0.090
-715.748	-151.205	-0.236	0.018
-714.733	800.000	-0.018	-0.076
-713.718	7.959	0.122	-0.092
-712.704	231.317	-0.074	-0.122
-711.689	130.237	-0.117	-0.151
-710.675	104.919	-0.282	-0.335
-709.660	-200.000	0.001	0.160
-708.645	-200.000	0.003	-0.212
-707.631	-157.771	0.410	0.025
-706.616	85.739	-0.169	-0.188
-705.602	-200.000	0.015	0.140
-704.587	118.985	-0.171	-0.213
-703.572	-15.938	0.223	-0.143
-702.558	-59.660	0.270	-0.117
-701.543	-3.419	-0.350	-0.246
-700.529	340.493	-0.050	-0.099
-699.514	-76.285	-0.204	0.072
-698.499	88.921	0.043	0.048
-697.485	231.202	-0.047	-0.077
-696.470	-149.081	-0.081	0.007
-695.456	-24.473	-0.224	-0.134
-694.441	-134.394	-0.066	-0.008
-693.426	-200.000	0.025	0.118
-692.412	-200.000	0.015	-0.075
-691.397	-179.336	-0.185	-0.004
-690.383	-52.636	-0.275	-0.128
-689.368	-141.685	0.472	0.048
-688.354	-142.991	-0.101	0.010
-687.339	-72.477	0.085	-0.032
-686.324	8.589	-0.130	-0.099
-685.310	220.669	-0.078	-0.126
-684.295	70.820	-0.261	-0.272
-683.281	-126.923	-0.105	0.016
-682.266	579.225	0.086	-0.213
-681.251	-131.180	0.112	-0.015
-680.237	800.000	-0.069	-0.249
-679.222	-18.774	0.256	-0.160
-678.208	654.700	0.089	0.230
-677.193	10.514	0.022	0.017
-676.178	-20.436	0.474	-0.293
-675.164	-78.114	0.273	-0.095
-674.149	271.732	-0.107	-0.190
-673.135	623.115	0.140	-0.355
-672.120	-174.442	-0.162	-0.005
-671.105	-200.000	0.315	-0.001
-670.091	246.024	0.089	0.151
-669.076	800.000	0.028	-0.114
-668.062	-170.894	-0.360	-0.012
-667.047	-145.737	-0.150	-0.013
-666.032	748.454	0.054	-0.146
-665.018	800.000	0.094	-0.271
-664.003	-54.604	0.102	0.047
-662.989	-48.445	-0.137	-0.066
-661.974	-200.000	0.025	0.151
-660.959	792.542	-0.025	-0.070
-659.945	800.000	0.139	-0.446
-658.930	-122.197	-0.185	-0.030
-657.916	39.979	-0.222	0.201
-656.901	-160.918	0.415	0.022
-655.886	800.000	0.082	-0.343
-654.872	-152.526	0.085	0.006
-653.857	-99.836	-0.249	-0.063
-652.843	76.689	-0.096	0.102
-651.828	264.792	-0.121	-0.213
-650.814	-27.975	0.306	0.178
-649.799	235.827	-0.060	0.100
-648.784	-154.227	-0.159	-0.011
-647.770	-150.030	-0.281	0.022
-646.755	74.633	0.211	0.224
-645.741	341.710	-0.044	-0.087
-644.726	-27.983	-0.161	-0.094
-643.711	-35.385	0.267	0.146
-642.697	-200.000	0.007	0.064
-641.682	800.000	0.038	-0.144
-640.668	198.879	-0.048	-0.074
-639.653	-35.021	0.227	0.125
-638.638	-85.179	-0.112	-0.035
-637.624	-89.976	-0.318	-0.093
-636.609	-48.804	0.088	0.042
-635.595	-76.958	0.233	-0.082
-634.580	69.198	0.124	-0.128
-633.565	62.624	0.206	0.207
-632.551	-38.311	-0.278	0.148
-631.536	-153.194	-0.467	0.033
-630.522	10.183	0.159	-0.122
-629.507	705.694	0.079	0.209
-628.492	-135.333	-0.472	-0.057
-627.478	-48.332	-0.101	0.049
-626.463	177.715	0.078	-0.114
-625.449	-103.668	-0.351	-0.083
-624.434	0.846	0.075	0.054
-623.419	259.319	-0.079	0.138
-622.405	-77.698	0.131	-0.045
-621.390	-43.136	0.455	0.232
-620.376	78.200	-0.169	0.181
-619.361	304.435	-0.160	-0.299
-618.346	723.442	-0.045	0.120
-617.332	23.217	-0.256	-0.211
-616.317	-200.000	-0.018	-0.406
-615.303	-26.501	0.204	0.120
-614.288	85.228	-0.043	-0.048
-613.273	-146.580	0.276	0.024
-612.259	182.249	-0.068	0.101
-611.244	-46.978	-0.356	-0.175
-610.230	-200.000	-0.001	-0.165
-609.215	-200.000	-0.031	-0.175
-608.201	-50.851	-0.193	-0.091
-607.186	800.000	0.016	-0.068
-606.171	-62.491	-0.087	0.036
-605.157	800.000	-0.065	-0.236
-604.142	-142.793	0.343	-0.034
-603.128	79.824	-0.342	-0.369
-602.113	-200.000	0.002	-0.033
-601.098	217.654	-0.261	0.418
-600.084	65.195	-0.216	-0.219
-599.069	800.000	-0.077	-0.307
-598.055	110.331	-0.182	0.219
-597.040	63.766	0.240	0.242
-596.025	35.817	-0.275	-0.243
-595.011	45.615	0.003	-0.003
-593.996	-200.000	0.029	-0.143
-592.982	800.000	0.045	0.125
-591.967	-120.876	-0.428	-0.072
-590.952	66.559	-0.085	-0.086
-589.938	289.476	-0.245	0.445
-588.923	800.000	0.048	-0.208
-587.909	-146.315	0.354	-0.031
-586.894	-191.938	-0.207	-0.002
-585.879	800.000	-0.078	0.340
-584.865	-26.272	-0.050	-0.030
-583.850	800.000	0.097	0.349
-582.836	64.622	-0.073	-0.074
-581.821	-139.232	0.481	0.052
-580.806	-42.655	0.082	-0.042
-579.792	-75.679	0.196	-0.070
-578.777	11.547	0.133	-0.102
-577.763	-36.582	0.023	0.012
-576.748	800.000	-0.203	0.596
-575.733	-200.000	-0.007	0.443
-574.719	87.704	-0.175	-0.194
-573.704	-25.499	-0.102	0.060
-572.690	-200.000	-0.011	0.203
-571.675	800.000	0.034	-0.116
-570.661	14.182	-0.064	0.050
-569.646	-110.186	0.242	0.051
-568.631	19.752	0.243	0.196
-567.617	800.000	-0.122	-0.421
-566.602	356.422	-0.078	0.156
-565.588	-95.699	0.034	-0.009
-564.573	-108.627	-0.071	0.015
-563.558	-200.000	0.017	-0.376
-562.544	82.898	0.165	-0.180
-561.529	-200.000	-0.007	-0.171
-560.515	110.083	0.153	-0.184
-559.500	463.536	-0.055	-0.122
-558.485	-200.000	0.054	0.296
-557.471	-122.776	-0.451	-0.073
-556.456	625.949	0.140	-0.355
-555.442	59.255	0.017	-0.017
-554.427	-200.000	0.006	-0.081
-553.412	33.319	0.275	-0.239
-552.398	-39.753	-0.065	0.034
-551.383	19.350	0.117	0.094
-550.369	-16.308	0.166	0.106
-549.354	795.288	0.075	-0.207
-548.339	139.897	-0.020	-0.027
-547.325	-200.000	-0.014	-0.214
-546.310	-59.537	-0.280	-0.121
-545.296	152.481	-0.227	0.310
-544.281	45.584	-0.190	-0.176
-543.266	460.274	-0.098	0.218
-542.252	356.162	-0.165	0.329
-541.237	-200.000	-0.019	-0.214
-540.223	-200.000	0.015	-0.329
-539.208	-72.313	-0.276	-0.103
-538.193	642.421	-0.098	-0.249
-537.179	-161.276	0.439	-0.023
-536.164	-70.415	0.288	0.109
-535.150	-88.230	0.189	0.057
-534.135	68.932	-0.164	-0.168
-533.121	-176.465	0.494	0.013
-532.106	114.595	0.314	0.383
-531.091	-200.000	0.056	0.265
-530.077	77.722	-0.113	0.120
-529.062	103.782	0.086	-0.102
-528.048	-113.241	-0.129	-0.025
-527.033	-6.676	-0.227	0.155
-526.018	118.185	0.171	-0.211
-525.004	309.264	-0.225	0.422
-523.989	30.036	0.299	-0.256
-522.975	-21.816	-0.245	-0.149
-521.960	-164.833	0.237	-0.011
-520.945	-85.017	-0.081	0.025
-519.931	174.461	-0.090	0.130
-518.916	463.909	0.007	0.015
-517.902	379.022	0.126	-0.259
-516.887	23.727	0.099	-0.082
-515.872	-200.000	-0.015	-0.118
-514.858	-200.000	-0.001	0.169
-513.843	6.095	-0.094	-0.070
-512.829	-147.901	0.089	-0.007
-511.814	-76.394	0.112	-0.039
-510.799	180.364	-0.083	0.122
-509.785	-186.476	0.046	0.001
-508.770	800.000	0.038	0.154
-507.756	-200.000	-0.022	-0.184
-506.741	-68.441	0.330	0.128
-505.726	800.000	-0.042	-0.120
-504.712	-98.030	-0.168	0.043
-503.697	-135.139	-0.208	0.025
-502.683	66.799	-0.288	0.293
-501.668	-200.000	0.029	0.256
-500.653	79.798	-0.029	0.031
-499.639	87.900	-0.258	-0.286
-498.624	-63.819	0.185	-0.076
-497.610	-94.755	0.388	0.105
-496.595	86.749	-0.124	0.136
-495.581	6.273	-0.093	-0.069
-494.566	-96.610	-0.200	-0.053
-493.551	25.493	0.250	0.208
-492.537	-200.000	-0.253	-0.000
-491.522	-37.881	-0.169	0.090
-490.508	66.690	0.056	-0.057
-489.493	9.439	-0.126	-0.096
-488.478	-120.859	-0.245	0.041
-487.464	-57.740	-0.163	0.071
-486.449	-200.000	-0.108	0.475
-485.435	27.187	0.232	0.195
-484.420	800.000	0.112	-0.363
-483.405	166.288	-0.028	0.039
-482.391	-19.310	0.139	-0.086
-481.376	192.247	0.161	-0.243
-480.362	692.847	0.104	0.272
-479.347	139.220	0.203	-0.266
-478.332	194.474	0.147	-0.223
-477.318	-165.961	-0.054	-0.002
-476.303	-200.000	0.028	-0.288
-475.289	-200.000	-0.013	-0.126
-474.274	800.000	-0.041	-0.123
-473.259	450.843	-0.148	0.326
-472.245	-26.298	0.055	-0.032
-471.230	-55.925	0.042	0.019
-470.216	800.000	-0.094	0.334
-469.201	36.593	-0.229	0.202
-468.186	77.830	0.092	0.098
-467.172	-78.461	0.217	0.074
-466.157	-32.705	0.434	-0.241
-465.143	106.384	-0.207	-0.245
-464.128	85.833	0.067	-0.074
-463.113	800.000	-0.028	-0.083
-462.099	-200.000	-0.043	-0.298
-461.084	727.021	-0.124	-0.331
-460.070	-31.926	-0.166	0.093
-459.055	30.463	-0.231	-0.198
-458.040	36.859	-0.216	0.191
-457.026	-84.910	0.153	-0.048
-456.011	-53.581	-0.118	0.054
-454.997	38.396	0.076	-0.068
-453.982	-200.000	0.002	-0.123
-452.968	256.717	0.117	-0.201
-451.953	203.069	-0.014	-0.022
-450.938	-102.751	-0.198	0.047
-449.924	88.386	0.304	0.338
-448.909	-73.256	-0.395	0.145
-447.895	-87.554	0.228	-0.069
-446.880	-200.000	0.005	-0.148
-445.865	-200.000	0.004	0.064
-444.851	42.108	0.087	0.079
-443.836	23.491	0.166	0.136
-442.822	65.837	-0.188	-0.190
-441.807	141.107	-0.132	-0.175
-440.792	-0.050	-0.026	-0.019
-439.778	-200.000	0.078	-0.372
-438.763	251.169	-0.120	0.203
-437.749	-200.000	-0.011	0.113
-436.734	-200.000	-0.083	-0.382
-435.719	724.800	0.028	0.075
-434.705	-196.827	-0.258	0.002
-433.690	-200.000	0.022	-0.196
-432.676	-11.670	0.134	-0.088
-431.661	-12.338	-0.314	-0.205
-430.646	-131.072	0.385	-0.051
-429.632	-59.858	-0.177	-0.075
-428.617	-37.556	0.104	0.055
-427.603	-100.816	-0.360	0.088
-426.588	-74.079	0.063	0.023
-425.573	142.307	-0.155	0.206
-424.559	-28.529	0.340	-0.196
-423.544	-58.035	-0.431	-0.187
-422.530	17.580	0.221	-0.175
-421.515	-48.949	-0.285	0.136
-420.500	-45.003	0.188	-0.093
-419.486	-95.112	-0.152	0.041
-418.471	-200.000	0.008	-0.090
-417.457	-124.204	0.331	-0.052
-416.442	-174.484	-0.189	0.005
-415.428	-20.389	-0.135	0.083
-414.413	238.442	0.157	-0.259
-413.398	-47.599	-0.177	0.086
-412.384	800.000	0.139	-0.405
-411.369	-27.329	0.071	-0.041
-410.355	96.681	0.236	0.269
-409.340	59.682	0.287	0.282
-408.325	496.948	0.067	0.153
-407.311	-21.189	-0.113	-0.069
-406.296	684.788	0.030	0.079
-405.282	800.000	0.101	0.394
-404.267	-119.839	-0.200	-0.034
-403.252	800.000	-0.024	0.104
-402.238	-200.000	0.046	0.543
-401.223	800.000	0.032	0.101
-400.209	800.000	0.112	0.436
-399.194	-116.222	-0.158	0.029
-398.179	-50.091	-0.174	-0.082
-397.165	50.461	0.118	0.111
-396.150	40.979	0.249	-0.224
-395.136	-200.000	0.020	-0.428
-394.121	30.681	0.102	-0.087
-393.106	-133.361	-0.427	0.053
-392.092	-87.011	-0.321	0.097
-391.077	-200.000	-0.040	-0.241
-390.063	-200.000	-0.006	0.137
-389.048	-200.000	0.016	0.091
-388.033	-200.000	0.057	0.287
-387.019	22.267	0.081	-0.066
-386.004	-33.170	-0.144	-0.079
-384.990	713.119	0.195	-0.513
-383.975	-133.805	0.229	0.028
-382.960	800.000	-0.110	0.446
-381.946	-200.000	0.024	0.153
-380.931	276.773	0.046	0.081
-379.917	-2.722	0.187	-0.130
-378.902	-29.280	0.271	-0.155
-377.888	-200.000	-0.012	0.095
-376.873	199.132	-0.109	-0.166
-375.858	155.477	-0.288	0.395
-374.844	184.743	-0.100	0.148
-373.829	-46.036	-0.110	0.054
-372.815	-146.797	-0.275	0.024
-371.800	246.466	0.072	0.121
-370.785	-109.124	-0.241	-0.051
-369.771	735.209	-0.098	0.260
-368.756	-0.753	-0.076	0.053
-367.742	-200.000	0.043	-0.285
-366.727	-200.000	-0.060	-0.430
-365.712	-200.000	0.005	0.146
-364.698	507.614	0.032	-0.073
-363.683	11.201	-0.076	-0.058
-362.669	427.590	-0.133	-0.286
-361.654	-200.000	-0.055	0.272
-360.639	-146.303	0.243	-0.021
-359.625	-107.949	0.071	0.015
-358.610	27.902	-0.061	-0.051
-357.596	-100.804	0.448	-0.110
-356.581	-200.000	-0.019	-0.174
-355.566	52.354	-0.064	-0.061
-354.552	-148.935	0.221	0.018
-353.537	179.237	0.046	0.067
-352.523	8.582	0.378	-0.283
-351.508	-19.225	-0.068	-0.042
-350.493	407.833	-0.066	0.139
-349.479	-200.000	-0.042	0.187
-348.464	-4.507	-0.303	-0.208
-347.450	-30.439	-0.367	-0.207
-346.435	225.214	0.114	0.184
-345.420	64.859	0.128	0.129
-344.406	-174.029	-0.169	0.005
-343.391	251.671	0.162	0.274
-342.377	-25.065	0.072	0.042
-341.362	-200.000	-0.106	-0.545
-340.348	69.067	0.062	0.063
-339.333	-107.191	-0.221	0.048
-338.318	103.679	0.234	-0.273
-337.304	800.000	0.078	0.330
-336.289	70.294	0.149	0.153
-335.275	-112.962	0.160	0.032
-334.260	-78.444	0.272	0.093
-333.245	-28.770	-0.119	0.068
-332.231	-200.000	0.006	0.225
-331.216	-137.398	0.345	0.039
-330.202	24.467	-0.065	-0.053
-329.187	-200.000	0.011	-0.240
-328.172	275.271	0.155	-0.273
-327.158	-64.448	-0.065	-0.026
-326.143	-126.105	-0.547	0.082
-325.129	-200.000	-0.049	0.326
-324.114	64.221	-0.098	-0.098
-323.099	530.171	-0.046	-0.109
-322.085	-98.918	0.290	0.073
-321.070	-200.000	0.012	0.086
-320.056	322.471	0.164	0.310
-319.041	-132.188	0.323	0.042
-318.026	-43.802	0.228	0.114
-317.012	139.024	-0.184	-0.240
-315.997	-81.898	-0.352	-0.114
-314.983	389.160	-0.232	-0.477
-313.968	-22.045	0.542	0.327
-312.953	-200.000	0.053	0.417
-311.939	-22.543	-0.262	0.158
-310.924	165.763	-0.076	-0.107
-309.910	-138.274	0.239	-0.026
-308.895	143.313	-0.082	0.108
-307.880	145.202	-0.049	-0.065
-306.866	-66.922	0.189	-0.074
-305.851	800.000	-0.042	-0.122
-304.837	-100.776	0.147	-0.036
-303.822	-42.348	-0.131	0.066
-302.807	36.206	0.115	0.100
-301.793	-200.000	0.024	0.346
-300.778	-146.375	0.478	0.041
-299.764	16.503	0.170	-0.133
-298.749	-102.028	0.065	0.016
-297.735	201.540	-0.125	0.190
-296.720	228.954	0.127	0.205
-295.705	-134.583	0.072	-0.009
-294.691	-131.827	0.527	0.068
-293.676	-200.000	0.031	-0.251
-292.662	-119.420	-0.191	-0.033
-291.647	-200.000	-0.008	-0.182
-290.632	-70.772	-0.329	-0.123
-289.618	61.578	-0.208	-0.205
-288.603	800.000	-0.091	-0.258
-287.589	86.587	0.124	-0.135
-286.574	800.000	0.070	0.207
-285.559	800.000	0.063	0.177
-284.545	34.818	-0.205	-0.178
-283.530	-200.000	-0.018	0.120
-282.516	415.983	-0.040	0.084
-281.501	-200.000	-0.008	0.270
-280.486	365.716	-0.191	-0.382
-279.472	-200.000	0.007	-0.223
-278.457	-107.413	-0.401	0.087
-277.443	-102.488	0.272	0.064
-276.428	-200.000	-0.063	0.478
-275.413	-200.000	-0.006	-0.201
-274.399	-111.623	0.298	-0.060
-273.384	-73.788	0.173	-0.062
-272.370	-78.353	0.187	-0.063
-271.355	-200.000	0.002	-0.322
-270.340	31.796	-0.178	-0.152
-269.326	63.189	-0.123	0.122
-268.311	675.234	0.050	0.128
-267.297	-197.105	0.099	0.001
-266.282	800.000	0.027	0.099
-265.267	-142.915	0.453	0.044
-264.253	193.394	0.089	0.133
-263.238	-34.571	0.337	0.183
-262.224	462.895	-0.091	0.201
-261.209	164.938	0.220	-0.307
-260.195	61.634	0.063	0.062
-259.180	800.000	0.097	-0.286
-258.165	378.544	-0.102	0.207
-257.151	25.174	0.277	0.228
-256.136	-200.000	0.031	-0.205
-255.122	-160.018	-0.333	0.018
-254.107	-38.382	0.441	-0.231
-253.092	343.416	0.088	-0.170
-252.078	-200.000	-0.045	-0.234
-251.063	-164.346	0.439	0.020
-250.049	-165.905	-0.117	0.005
-249.034	-200.000	-0.002	-0.186
-248.019	26.127	0.110	0.091
-247.005	-200.000	-0.077	0.342
-245.990	51.006	0.060	-0.056
-244.976	-200.000	0.013	-0.220
-243.961	243.531	-0.224	0.372
-242.946	800.000	0.033	0.125
-241.932	140.532	-0.096	-0.126
-240.917	-200.000	0.015	-0.133
-239.903	29.215	-0.104	-0.088
-238.888	43.320	0.075	0.067
-237.873	56.988	0.050	-0.048
-236.859	-61.258	0.104	0.043
-235.844	-200.000	0.008	0.104
-234.830	178.014	-0.143	-0.207
-233.815	-200.000	-0.005	-0.313
-232.800	170.072	-0.068	0.096
-231.786	-51.379	0.298	-0.138
-230.771	-20.228	0.174	-0.106
-229.757	800.000	0.068	-0.259
-228.742	-200.000	-0.040	0.351
-227.727	100.883	-0.221	-0.255
-226.713	-200.000	0.038	0.275
-225.698	-145.858	-0.186	0.016
-224.684	-194.622	-0.214	0.002
-223.669	-200.000	-0.072	0.382
-222.655	318.929	0.065	0.121
-221.640	316.465	0.197	0.368
-220.625	219.428	0.183	0.289
-219.611	-75.570	0.240	-0.084
-218.596	-200.000	-0.019	-0.107
-217.582	-7.604	0.090	-0.060
-216.567	-115.065	-0.199	0.037
-215.552	520.971	0.079	0.184
-214.538	223.367	-0.057	0.091
-213.523	-102.075	0.183	0.044
-212.509	-200.000	0.017	-0.161
-211.494	475.571	0.117	-0.261
-210.479	-56.545	0.176	0.077
-209.465	-94.337	-0.162	0.044
-208.450	459.694	-0.073	0.160
-207.436	341.282	0.020	-0.038
-206.421	46.290	0.074	-0.068
-205.406	800.000	-0.044	-0.153
-204.392	-200.000	-0.042	0.286
-203.377	-158.376	-0.210	0.012
-202.363	-34.352	0.130	-0.071
-201.348	355.796	-0.135	0.266
-200.333	800.000	0.094	0.350
-199.319	52.520	-0.138	0.131
-198.304	48.449	-0.020	-0.019
-197.290	-69.035	-0.211	0.080
-196.275	-200.000	-0.010	-0.123
-195.260	-69.917	-0.232	-0.087
-194.246	-10.067	-0.064	0.042
-193.231	-79.429	0.155	0.052
-192.217	-70.948	-0.074	0.028
-191.202	116.091	-0.049	0.059
-190.187	-40.656	0.272	-0.139
-189.173	-69.517	-0.188	-0.071
-188.158	-76.840	-0.300	0.104
-187.144	-200.000	0.062	0.270
-186.129	-4.975	-0.231	-0.157
-185.114	460.892	-0.101	0.223
-184.100	-200.000	-0.233	-0.000
-183.085	-31.956	0.078	-0.043
-182.071	105.272	-0.102	-0.119
-181.056	83.469	0.247	-0.266
-180.042	-4.101	0.063	-0.043
-179.027	-200.000	0.013	0.060
-178.012	800.000	-0.015	-0.052
-176.998	-200.000	0.005	-0.086
-175.983	68.446	-0.149	0.151
-174.969	46.751	-0.344	0.316
-173.954	49.518	0.095	0.088
-172.939	91.864	-0.181	0.201
-171.925	-1.654	-0.092	0.064
-170.910	-104.867	0.097	-0.022
-169.896	238.470	0.087	-0.142
-168.881	-104.367	-0.182	-0.042
-167.866	-200.000	0.007	-0.247
-166.852	800.000	-0.025	0.100
-165.837	5.597	-0.065	-0.048
-164.823	115.883	0.111	0.134
-163.808	-48.759	-0.236	-0.112
-162.793	-1.411	0.035	-0.024
-161.779	-145.793	0.272	-0.024
-160.764	-173.313	0.141	-0.004
-159.750	-15.359	-0.134	0.085
-158.735	73.776	0.061	-0.063
-157.720	-13.899	0.111	0.071
-156.706	-117.821	0.291	0.052
-155.691	-200.000	-0.009	0.049
-154.677	9.170	-0.214	-0.160
-153.662	187.659	0.122	-0.180
-152.647	27.740	0.065	0.054
-151.633	-0.476	0.060	0.042
-150.618	-200.000	0.004	0.144
-149.604	-165.737	0.123	0.005
-148.589	-85.021	-0.176	-0.055
-147.574	20.476	-0.145	-0.115
-146.560	-163.327	-0.197	0.009
-145.545	-200.000	0.034	0.390
-144.531	33.492	-0.044	0.038
-143.516	634.904	0.093	-0.233
-142.502	800.000	0.024	-0.084
-141.487	-200.000	-0.050	0.224
-140.472	460.531	-0.131	-0.288
-139.458	800.000	-0.042	0.134
-138.443	1.856	-0.053	0.038
-137.429	-83.335	-0.183	-0.058
-136.414	7.081	-0.172	0.127
-135.399	349.389	0.123	-0.239
-134.385	250.007	-0.084	0.141
-133.370	800.000	-0.023	0.085
-132.356	-51.300	0.039	0.018
-131.341	-3.058	-0.100	0.069
-130.326	240.967	0.080	0.132
-129.312	-74.529	0.494	-0.175
-128.297	354.912	0.022	-0.044
-127.283	91.194	0.292	-0.323
-126.268	-200.000	0.003	-0.174
-125.253	55.070	0.069	0.065
-124.239	-200.000	-0.072	-0.602
-123.224	-18.909	0.280	-0.172
-122.210	-93.888	-0.115	-0.031
-121.195	-100.318	0.235	-0.057
