DTS Sentinel unit serial number:	SN413079Multiplexer serial number:	ORYXHardware model number:	OX4-SRSoftware version number:	ORYX F/W v4.00 Oryx Data Collector v3.7.2.0data status	okinstallation	princeton_trtdifferential loss correction	single-endedforward channel	channel 2reverse channel	N/Adate	2019/09/12time	05:01:11forward acquisition time	60.00reverse acquisition time	0.00gamma	496.2192k internal	0.2326k external	0.2326temperature offset calibration	1.0072default loss term (dB/km)	0.3790temperature slope calibration	1.0000multiplexer offset coefficient	1.0000multiplexer slope coefficient	1.0000fibre end	0.00T internal ref (°C)	31.75T ext. ref 1 (°C)	1.74T ext. ref 2 (°C)	26.98length (m)	temperature (°C)	Stokes	anti-Stokes-747.200	580.925	0.064	0.159
-746.185	227.268	-0.172	0.282
-745.171	213.199	-0.103	-0.164
-744.156	190.220	0.231	0.350
-743.142	550.845	0.038	0.092
-742.127	800.000	0.127	0.444
-741.112	-200.000	-0.010	0.164
-740.098	43.263	-0.317	0.292
-739.083	-47.436	0.398	0.195
-738.069	-200.000	-0.045	0.213
-737.054	-151.432	0.115	-0.009
-736.039	201.070	-0.280	-0.435
-735.025	3.589	0.280	0.206
-734.010	800.000	0.017	0.050
-732.996	800.000	-0.085	0.342
-731.981	348.174	0.164	0.327
-730.966	-69.003	-0.369	-0.144
-729.952	58.270	-0.102	0.101
-728.937	-104.664	0.233	-0.054
-727.923	295.097	-0.142	-0.262
-726.908	-200.000	-0.038	-0.194
-725.894	-17.696	-0.294	-0.186
-724.879	252.138	-0.066	0.114
-723.864	-200.000	-0.002	0.179
-722.850	-82.965	-0.243	-0.079
-721.835	-104.280	0.427	-0.100
-720.821	-29.893	-0.185	-0.106
-719.806	-77.699	0.071	0.025
-718.791	-125.105	-0.138	-0.021
-717.777	42.291	0.395	-0.362
-716.762	109.143	0.157	0.189
-715.748	-83.131	-0.151	0.049
-714.733	-145.588	0.322	-0.029
-713.718	671.149	0.090	-0.235
-712.704	144.097	-0.129	-0.173
-711.689	44.874	-0.053	0.049
-710.675	262.084	-0.141	-0.246
-709.660	144.168	-0.056	-0.075
-708.645	181.047	0.134	0.198
-707.631	-200.000	-0.000	-0.177
-706.616	-21.756	-0.241	-0.148
-705.602	58.778	-0.142	-0.140
-704.587	788.069	-0.024	-0.068
-703.572	43.681	-0.194	-0.179
-702.558	-151.381	0.291	-0.022
-701.543	-30.918	-0.156	0.089
-700.529	-200.000	-0.017	-0.295
-699.514	-86.272	-0.388	-0.120
-698.499	-200.000	-0.021	0.101
-697.485	284.309	-0.049	0.088
-696.470	-153.144	-0.328	-0.023
-695.456	800.000	0.015	-0.052
-694.441	-90.043	0.168	-0.049
-693.426	78.771	-0.201	-0.216
-692.412	148.158	-0.202	0.275
-691.397	111.070	-0.314	0.380
-690.383	-200.000	-0.022	-0.255
-689.368	800.000	-0.069	-0.205
-688.354	99.397	-0.110	0.128
-687.339	-167.043	-0.455	-0.019
-686.324	-150.570	0.233	0.018
-685.310	-116.337	-0.203	0.038
-684.295	281.458	-0.064	-0.115
-683.281	-200.000	-0.016	-0.264
-682.266	71.185	-0.154	-0.161
-681.251	-200.000	-0.013	0.064
-680.237	5.279	-0.106	0.078
-679.222	-200.000	0.004	0.156
-678.208	20.091	0.117	-0.095
-677.193	54.193	-0.259	-0.251
-676.178	264.856	0.239	-0.419
-675.164	169.130	-0.163	-0.233
-674.149	-81.902	-0.363	-0.119
-673.135	-200.000	0.024	-0.155
-672.120	215.694	0.113	-0.180
-671.105	-55.764	-0.104	-0.047
-670.091	800.000	-0.042	0.124
-669.076	27.858	0.148	-0.125
-668.062	56.481	-0.308	-0.301
-667.047	-113.401	0.131	0.026
-666.032	284.182	-0.152	0.274
-665.018	185.324	-0.002	0.003
-664.003	-100.342	-0.137	-0.034
-662.989	-3.959	-0.217	-0.151
-661.974	65.647	-0.114	-0.116
-660.959	-83.923	0.232	-0.074
-659.945	-129.872	-0.032	0.004
-658.930	244.416	-0.083	-0.141
-657.916	800.000	-0.103	0.286
-656.901	267.781	-0.207	-0.365
-655.886	-110.713	0.144	-0.030
-654.872	46.258	0.065	-0.060
-653.857	-88.505	0.092	-0.027
-652.843	252.522	0.079	0.135
-651.828	-93.494	-0.280	0.078
-650.814	56.973	-0.151	-0.148
-649.799	-195.734	-0.268	0.002
-648.784	-122.673	-0.160	0.026
-647.770	-82.529	0.147	0.048
-646.755	-173.002	0.067	0.002
-645.741	21.684	-0.280	0.229
-644.726	-69.576	-0.183	-0.070
-643.711	-47.444	-0.174	-0.085
-642.697	-114.883	-0.122	0.023
-641.682	800.000	-0.023	0.071
-640.668	-20.975	0.225	0.138
-639.653	800.000	0.081	-0.258
-638.638	-200.000	0.006	0.151
-637.624	-140.745	-0.130	0.014
-636.609	18.322	-0.213	-0.171
-635.595	648.275	-0.066	-0.168
-634.580	-13.724	0.152	0.099
-633.565	-136.774	0.138	-0.016
-632.551	-200.000	-0.036	-0.468
-631.536	-200.000	0.017	0.225
-630.522	-140.646	0.170	0.018
-629.507	143.144	0.031	-0.042
-628.492	-64.882	0.332	-0.135
-627.478	35.437	-0.175	-0.154
-626.463	18.081	-0.275	0.220
-625.449	-67.324	-0.271	-0.107
-624.434	-164.643	-0.147	0.007
-623.419	-96.823	0.237	-0.063
-622.405	-200.000	-0.020	-0.166
-621.390	-200.000	-0.015	0.197
-620.376	346.560	-0.235	0.463
-619.361	-200.000	0.033	-0.148
-618.346	-200.000	0.015	-0.420
-617.332	-200.000	-0.006	0.070
-616.317	101.140	-0.111	0.130
-615.303	-117.852	0.185	-0.033
-614.288	-91.861	-0.406	0.116
-613.273	-116.304	-0.350	-0.065
-612.259	-124.706	-0.078	-0.012
-611.244	-30.862	0.178	0.101
-610.230	-200.000	-0.018	0.177
-609.215	57.562	0.167	0.163
-608.201	-200.000	0.045	-0.308
-607.186	46.612	-0.198	-0.185
-606.171	-152.986	0.172	-0.012
-605.157	8.186	-0.022	-0.016
-604.142	800.000	0.044	-0.153
-603.128	85.340	-0.122	0.134
-602.113	-200.000	-0.001	-0.033
-601.098	-22.668	0.133	-0.081
-600.084	-16.656	-0.400	0.254
-599.069	455.470	0.043	0.096
-598.055	-147.983	-0.114	0.009
-597.040	-95.586	0.170	0.046
-596.025	-84.902	0.181	-0.057
-595.011	-6.557	-0.098	0.067
-593.996	-52.405	-0.107	0.050
-592.982	465.352	0.055	0.123
-591.967	-85.999	0.080	0.025
-590.952	800.000	-0.081	0.226
-589.938	-105.540	0.074	0.017
-588.923	14.730	0.141	0.111
-587.909	42.456	0.030	-0.027
-586.894	800.000	0.040	-0.115
-585.879	-150.323	0.175	0.013
-584.865	800.000	0.022	-0.090
-583.850	-200.000	0.005	-0.171
-582.836	-200.000	-0.003	0.092
-581.821	69.842	0.156	-0.161
-580.806	4.705	-0.340	-0.250
-579.792	94.533	0.281	-0.320
-578.777	-200.000	-0.000	-0.061
-577.763	10.985	-0.051	0.039
-576.748	612.603	-0.066	0.167
-575.733	-122.531	0.129	0.021
-574.719	-88.877	-0.211	-0.063
-573.704	-200.000	0.001	-0.186
-572.690	-200.000	-0.028	-0.189
-571.675	98.376	-0.242	-0.279
-570.661	-75.099	0.395	-0.142
-569.646	-45.215	-0.187	-0.093
-568.631	8.773	-0.296	-0.223
-567.617	170.488	0.058	0.084
-566.602	-155.093	-0.156	0.010
-565.588	800.000	-0.036	0.126
-564.573	-159.475	0.152	0.008
-563.558	-200.000	0.006	0.120
-562.544	-84.779	-0.193	0.061
-561.529	-96.112	0.211	-0.056
-560.515	56.503	-0.181	0.176
-559.500	128.655	0.201	0.256
-558.485	-86.828	0.047	0.014
-557.471	-131.689	-0.370	0.049
-556.456	47.416	-0.124	0.115
-555.442	4.152	0.165	-0.121
-554.427	76.723	-0.229	-0.243
-553.412	800.000	0.091	0.288
-552.398	382.453	0.174	-0.359
-551.383	800.000	-0.045	0.129
-550.369	-100.860	-0.151	0.037
-549.354	-105.235	0.375	0.086
-548.339	800.000	0.061	-0.262
-547.325	-200.000	0.086	0.418
-546.310	-22.166	0.136	0.083
-545.296	800.000	-0.082	-0.250
-544.281	592.850	0.041	-0.102
-543.266	16.764	0.290	-0.229
-542.252	-146.704	0.199	0.017
-541.237	-4.505	-0.154	-0.107
-540.223	28.025	-0.064	0.054
-539.208	-47.127	-0.364	0.178
-538.193	-51.486	0.037	-0.017
-537.179	111.107	-0.169	0.204
-536.164	-61.234	0.102	0.043
-535.150	-56.045	0.174	-0.077
-534.135	115.814	0.313	-0.383
-533.121	-110.511	-0.122	-0.025
-532.106	-200.000	-0.059	0.359
-531.091	800.000	-0.087	0.378
-530.077	-155.217	0.089	0.006
-529.062	800.000	0.027	0.092
-528.048	222.083	0.050	0.080
-527.033	800.000	-0.032	0.100
-526.018	681.876	0.048	-0.125
-525.004	-107.951	-0.354	0.077
-523.989	-200.000	0.010	-0.237
-522.975	61.499	0.241	-0.240
-521.960	800.000	-0.025	-0.075
-520.945	-200.000	-0.032	-0.146
-519.931	-127.108	-0.229	0.034
-518.916	-53.405	0.210	0.096
-517.902	-200.000	0.036	-0.229
-516.887	-200.000	-0.035	0.203
-515.872	-91.894	-0.305	-0.087
-514.858	584.630	-0.014	0.034
-513.843	35.073	-0.116	-0.101
-512.829	13.832	-0.112	0.087
-511.814	85.505	0.077	-0.085
-510.799	-200.000	0.023	-0.513
-509.785	-103.768	0.148	-0.035
-508.770	-123.818	0.076	0.012
-507.756	45.432	0.143	-0.132
-506.741	-153.380	-0.267	0.019
-505.726	43.071	-0.136	-0.124
-504.712	-24.577	0.155	-0.092
-503.697	144.394	-0.041	0.055
-502.683	28.459	-0.088	0.074
-501.668	-33.291	-0.242	0.134
-500.653	-138.395	0.090	0.010
-499.639	-144.985	-0.163	0.015
-498.624	72.071	-0.108	0.112
-497.610	166.625	0.209	0.296
-496.595	-126.116	0.206	-0.031
-495.581	340.255	0.123	-0.239
-494.566	-200.000	-0.023	0.136
-493.551	-72.679	-0.356	-0.131
-492.537	-200.000	0.047	0.206
-491.522	800.000	0.073	0.269
-490.508	-170.831	0.117	0.004
-489.493	-200.000	0.056	0.336
-488.478	-104.415	0.459	0.106
-487.464	-200.000	0.003	0.078
-486.449	-95.952	0.289	-0.077
-485.435	-200.000	0.016	0.297
-484.420	133.535	0.103	0.133
-483.405	-116.938	0.200	0.036
-482.391	-200.000	-0.022	-0.119
-481.376	800.000	-0.050	0.165
-480.362	260.229	0.162	-0.279
-479.347	305.631	-0.109	0.202
-478.332	-47.011	-0.141	-0.069
-477.318	800.000	-0.066	-0.208
-476.303	-200.000	-0.033	-0.195
-475.289	-82.242	0.315	0.102
-474.274	-90.419	-0.305	-0.088
-473.259	-85.370	0.082	0.026
-472.245	-151.689	0.210	-0.015
-471.230	-0.219	-0.150	-0.107
-470.216	800.000	-0.105	-0.302
-469.201	289.560	-0.068	0.123
-468.186	470.998	0.068	0.153
-467.172	0.592	0.127	0.090
-466.157	324.201	0.112	-0.213
-465.143	228.700	0.071	0.116
-464.128	114.244	0.088	0.107
-463.113	-200.000	0.028	0.161
-462.099	-200.000	0.006	-0.139
-461.084	-90.839	0.221	-0.063
-460.070	-200.000	0.068	-0.317
-459.055	-200.000	0.028	-0.203
-458.040	-89.165	0.238	-0.070
-457.026	196.063	-0.114	-0.173
-456.011	-163.793	0.140	-0.007
-454.997	-200.000	-0.008	0.067
-453.982	-11.105	0.153	-0.101
-452.968	-114.139	0.195	-0.038
-451.953	-141.376	0.238	-0.024
-450.938	57.740	-0.203	-0.198
-449.924	427.607	-0.141	-0.303
-448.909	-63.523	-0.204	0.084
-447.895	-36.909	-0.291	-0.156
-446.880	-6.462	-0.146	-0.099
-445.865	32.663	0.087	-0.075
-444.851	-107.303	-0.242	-0.053
-443.836	39.220	0.011	0.010
-442.822	-184.501	0.285	0.005
-441.807	-70.212	-0.248	-0.094
-440.792	800.000	-0.012	-0.037
-439.778	16.378	-0.051	-0.040
-438.763	-104.049	0.224	0.052
-437.749	-44.724	0.167	-0.083
-436.734	146.223	-0.117	0.156
-435.719	-200.000	0.011	-0.072
-434.705	-75.812	0.283	-0.100
-433.690	-112.647	0.020	0.004
-432.676	193.109	0.243	0.366
-431.661	-17.445	0.359	0.225
-430.646	-165.141	-0.369	-0.016
-429.632	-72.393	0.078	0.029
-428.617	-200.000	-0.404	0.002
-427.603	150.583	0.078	-0.105
-426.588	-30.160	0.057	0.032
-425.573	-200.000	0.030	0.134
-424.559	-200.000	-0.059	0.285
-423.544	-131.560	0.130	-0.017
-422.530	16.661	-0.307	-0.242
-421.515	210.523	0.170	0.266
-420.500	100.323	-0.110	0.127
-419.486	-200.000	0.001	-0.155
-418.471	393.400	-0.100	-0.208
-417.457	189.132	0.189	-0.282
-416.442	-200.000	-0.001	-0.182
-415.428	800.000	0.050	-0.145
-414.413	-32.724	0.161	0.089
-413.398	115.776	0.100	-0.122
-412.384	-200.000	0.034	0.199
-411.369	114.953	0.231	0.280
-410.355	-200.000	0.026	-0.281
-409.340	800.000	-0.087	0.370
-408.325	424.616	-0.091	-0.195
-407.311	-200.000	0.165	0.000
-406.296	135.286	-0.188	-0.243
-405.282	122.368	0.039	-0.048
-404.267	-127.752	0.166	-0.024
-403.252	-73.017	-0.182	0.066
-402.238	77.858	0.166	-0.176
-401.223	608.665	-0.121	0.300
-400.209	-200.000	-0.007	-0.051
-399.194	-156.809	-0.436	0.027
-398.179	-30.920	0.226	0.127
-397.165	-63.431	-0.293	-0.120
-396.150	-37.021	-0.153	0.082
-395.136	-150.713	0.100	0.008
-394.121	38.747	0.237	0.211
-393.106	12.326	-0.171	-0.131
-392.092	800.000	0.096	-0.343
-391.077	800.000	-0.026	0.109
-390.063	800.000	-0.048	0.185
-389.048	-60.986	-0.276	-0.116
-388.033	10.953	-0.161	-0.122
-387.019	96.516	0.145	-0.165
-386.004	185.103	0.147	-0.217
-384.990	-104.069	0.152	-0.035
-383.975	64.018	-0.156	0.156
-382.960	-61.752	0.185	0.077
-381.946	-33.968	0.392	-0.215
-380.931	800.000	0.131	0.389
-379.917	-97.422	-0.033	-0.009
-378.902	30.123	-0.345	0.293
-377.888	-53.540	0.134	0.061
-376.873	221.514	-0.049	-0.079
-375.858	-134.588	0.466	0.057
-374.844	1.705	-0.052	0.037
-373.829	-110.263	0.352	0.073
-372.815	-123.075	0.116	0.019
-371.800	328.890	-0.036	-0.069
-370.785	-190.884	0.256	-0.003
-369.771	143.489	-0.171	-0.226
-368.756	217.209	-0.086	-0.136
-367.742	133.429	-0.112	-0.144
-366.727	18.054	0.192	0.152
-365.712	-200.000	0.003	-0.252
-364.698	551.326	-0.048	-0.116
-363.683	-200.000	-0.011	-0.061
-362.669	526.297	0.092	0.216
-361.654	800.000	-0.035	0.139
-360.639	-99.364	-0.322	-0.081
-359.625	-37.018	0.264	0.141
-358.610	6.803	-0.207	-0.153
-357.596	-70.346	-0.069	0.026
-356.581	-61.119	0.059	0.025
-355.566	-200.000	-0.015	0.173
-354.552	64.248	-0.074	-0.074
-353.537	174.425	0.047	-0.067
-352.523	800.000	0.045	-0.150
-351.508	49.484	-0.095	0.089
-350.493	-88.345	-0.196	-0.058
-349.479	199.616	-0.210	-0.320
-348.464	-120.312	0.154	-0.026
-347.450	9.537	-0.063	0.047
-346.435	348.235	-0.092	0.180
-345.420	-111.403	-0.145	-0.029
-344.406	-160.697	0.124	-0.007
-343.391	27.315	-0.349	0.291
-342.377	-6.304	-0.123	-0.083
-341.362	-155.666	-0.347	-0.022
-340.348	-155.559	-0.260	-0.017
-339.333	-200.000	0.004	0.101
-338.318	19.536	-0.170	-0.136
-337.304	-139.319	-0.293	-0.031
-336.289	800.000	-0.051	-0.192
-335.275	-172.234	0.093	-0.003
-334.260	127.457	0.209	-0.264
-333.245	-113.564	0.362	-0.070
-332.231	31.663	0.237	0.203
-331.216	-78.106	-0.183	0.062
-330.202	-135.135	0.293	0.035
-329.187	-52.982	-0.154	-0.070
-328.172	-28.737	-0.036	-0.020
-327.158	-140.293	0.116	0.012
-326.143	-125.154	-0.095	-0.014
-325.129	94.115	-0.103	-0.116
-324.114	125.372	-0.015	0.019
-323.099	-177.639	0.252	-0.006
-322.085	731.809	0.056	-0.148
-321.070	64.638	0.402	0.402
-320.056	98.358	0.151	0.173
-319.041	305.612	-0.091	-0.168
-318.026	-88.423	0.155	-0.046
-317.012	-144.562	0.094	-0.009
-315.997	-118.875	-0.247	0.043
-314.983	800.000	-0.066	-0.224
-313.968	246.366	-0.131	-0.219
-312.953	-200.000	0.058	0.402
-311.939	-200.000	0.016	-0.133
-310.924	-104.480	-0.170	-0.039
-309.910	-12.682	-0.047	-0.030
-308.895	-200.000	0.052	0.271
-307.880	61.343	0.061	0.060
-306.866	180.911	0.133	0.194
-305.851	-22.578	-0.203	-0.121
-304.837	-200.000	-0.001	0.043
-303.822	-62.366	-0.205	0.085
-302.807	-52.842	0.115	0.052
-301.793	-200.000	-0.036	-0.217
-300.778	-181.675	-0.449	-0.009
-299.764	-63.930	0.182	-0.074
-298.749	-95.692	0.095	-0.025
-297.735	-200.000	0.012	-0.363
-296.720	105.739	-0.160	-0.188
-295.705	800.000	0.023	-0.066
-294.691	-174.038	0.184	0.005
-293.676	-200.000	-0.024	-0.273
-292.662	-200.000	0.008	0.105
-291.647	179.066	-0.107	0.155
-290.632	-200.000	-0.021	0.458
-289.618	-200.000	-0.019	-0.098
-288.603	800.000	0.038	-0.151
-287.589	-6.362	0.213	-0.144
-286.574	-56.981	-0.421	-0.184
-285.559	-53.312	-0.146	0.066
-284.545	354.554	0.153	-0.302
-283.530	61.673	0.020	-0.020
-282.516	336.137	-0.091	-0.176
-281.501	478.198	-0.101	0.226
-280.486	7.804	0.153	0.113
-279.472	-93.295	0.284	-0.078
-278.457	800.000	-0.046	0.133
-277.443	-44.837	0.261	0.129
-276.428	-200.000	-0.056	0.356
-275.413	-200.000	0.023	-0.139
-274.399	134.309	-0.259	-0.332
-273.384	146.372	0.049	0.065
-272.370	-6.151	0.166	-0.113
-271.355	268.114	-0.149	0.258
-270.340	-66.284	0.123	0.049
-269.326	800.000	0.052	0.219
-268.311	274.832	-0.109	-0.191
-267.297	-79.628	0.098	-0.033
-266.282	800.000	-0.029	-0.104
-265.267	-200.000	0.003	0.046
-264.253	158.977	-0.078	0.107
-263.238	-200.000	-0.025	-0.271
-262.224	790.459	-0.042	0.113
-261.209	-200.000	-0.017	0.283
-260.195	-65.376	-0.123	-0.049
-259.180	-97.715	-0.371	0.095
-258.165	-200.000	0.016	0.185
-257.151	800.000	0.015	-0.055
-256.136	145.178	0.098	-0.130
-255.122	-122.956	-0.259	0.041
-254.107	51.392	0.148	-0.139
-253.092	800.000	-0.075	0.213
-252.078	-135.077	0.107	-0.013
-251.063	800.000	-0.152	-0.436
-250.049	-200.000	0.025	-0.129
-249.034	62.163	0.168	-0.165
-248.019	180.804	0.135	0.196
-247.005	-200.000	0.020	-0.162
-245.990	38.425	0.132	-0.116
-244.976	-200.000	0.080	0.375
-243.961	86.626	0.042	-0.046
-242.946	-0.188	0.189	-0.133
-241.932	-102.105	0.239	-0.057
-240.917	-200.000	-0.086	-0.414
-239.903	-104.569	-0.253	-0.058
-238.888	-114.424	0.112	0.021
-237.873	66.824	-0.273	0.275
-236.859	800.000	0.174	0.494
-235.844	-60.100	0.088	-0.037
-234.830	-151.814	-0.119	-0.009
-233.815	280.606	0.026	0.046
-232.800	281.975	-0.040	-0.071
-231.786	285.661	0.074	-0.131
-230.771	-22.962	0.185	0.110
-229.757	-122.369	0.251	0.040
-228.742	-59.561	0.203	-0.086
-227.727	-83.541	-0.367	-0.116
-226.713	162.264	0.096	0.133
-225.698	-93.595	-0.147	0.040
-224.684	268.978	0.080	0.138
-223.669	-35.090	0.158	0.085
-222.655	91.210	-0.140	-0.155
-221.640	-200.000	0.024	-0.421
-220.625	-32.939	-0.517	0.283
-219.611	800.000	-0.052	0.201
-218.596	-81.175	0.144	0.047
-217.582	-200.000	0.085	0.581
-216.567	800.000	0.043	-0.153
-215.552	143.399	0.101	0.133
-214.538	800.000	-0.124	0.364
-213.523	-200.000	0.062	0.514
-212.509	-33.694	-0.393	-0.214
-211.494	260.043	-0.127	0.217
-210.479	-80.121	0.213	0.071
-209.465	615.438	-0.109	0.270
-208.450	800.000	0.057	0.182
-207.436	112.842	-0.086	0.103
-206.421	37.699	0.081	0.071
-205.406	-51.116	-0.150	0.069
-204.392	98.962	-0.080	0.091
-203.377	-200.000	0.061	0.547
-202.363	-44.396	-0.265	0.131
-201.348	-141.793	0.063	0.006
-200.333	-200.000	-0.068	0.538
-199.319	-25.250	0.062	-0.036
-198.304	-99.563	0.252	0.063
-197.290	-200.000	-0.025	0.150
-196.275	-11.001	0.111	-0.072
-195.260	149.025	0.093	-0.124
-194.246	231.785	-0.069	0.111
-193.231	238.068	-0.134	-0.220
-192.217	-200.000	-0.005	-0.081
-191.202	-89.003	0.322	-0.094
-190.187	167.652	-0.117	0.164
-189.173	159.212	-0.076	-0.104
-188.158	475.315	-0.053	-0.119
-187.144	-118.904	-0.104	-0.018
-186.129	-4.761	-0.128	-0.087
-185.114	800.000	0.048	0.149
-184.100	26.464	-0.127	-0.105
-183.085	-200.000	-0.012	-0.313
-182.071	80.685	-0.147	0.156
-181.056	209.665	-0.031	0.047
-180.042	29.690	-0.041	0.034
-179.027	-91.913	0.353	-0.099
-178.012	-119.542	0.261	0.045
-176.998	-200.000	0.012	-0.108
-175.983	16.913	-0.196	-0.153
-174.969	-200.000	-0.011	0.416
-173.954	-200.000	0.023	0.172
-172.939	-200.000	-0.028	-0.415
-171.925	-4.033	0.221	0.151
-170.910	800.000	-0.122	0.336
-169.896	-117.834	-0.163	-0.029
-168.881	-46.681	0.132	-0.064
-167.866	-89.359	-0.431	-0.125
-166.852	-200.000	0.572	0.000
-165.837	-12.618	0.156	0.100
-164.823	138.271	0.126	0.163
-163.808	-66.339	-0.122	0.048
-162.793	458.710	0.144	-0.317
-161.779	800.000	0.069	0.253
-160.764	-200.000	-0.006	-0.206
-159.750	25.080	-0.104	0.085
-158.735	141.260	0.113	-0.147
-157.720	94.937	-0.086	-0.097
-156.706	-121.471	-0.245	0.040
-155.691	-200.000	-0.049	0.259
-154.677	176.508	0.016	-0.023
-153.662	361.481	0.061	0.120
-152.647	-36.718	0.267	-0.141
-151.633	14.261	0.129	-0.099
-150.618	153.215	0.115	0.155
-149.604	800.000	0.057	0.170
-148.589	120.686	0.071	-0.087
-147.574	-142.082	0.120	-0.012
-146.560	-200.000	0.046	-0.276
-145.545	-164.342	0.016	0.001
-144.531	-39.908	0.227	-0.117
-143.516	55.015	0.046	-0.043
-142.502	2.861	-0.081	-0.058
-141.487	800.000	-0.113	-0.366
-140.472	-200.000	-0.026	-0.138
-139.458	-89.622	-0.201	0.058
-138.443	190.324	-0.064	-0.095
-137.429	-88.191	0.195	0.058
-136.414	-45.929	0.163	0.079
-135.399	107.422	-0.121	0.142
-134.385	-200.000	-0.001	0.289
-133.370	-30.779	0.297	0.165
-132.356	-50.609	0.130	0.060
-131.341	-198.244	-0.156	-0.001
-130.326	698.350	0.117	0.303
-129.312	-170.905	0.119	0.004
-128.297	-200.000	-0.010	0.048
-127.283	-200.000	0.027	0.287
-126.268	233.554	0.189	0.306
-125.253	-125.131	0.137	-0.021
-124.239	-64.518	0.079	-0.031
-123.224	14.012	-0.041	0.031
-122.210	61.238	-0.475	0.465
