DTS Sentinel unit serial number:	SN413079Multiplexer serial number:	ORYXHardware model number:	OX4-SRSoftware version number:	ORYX F/W v4.00 Oryx Data Collector v3.7.2.0data status	okinstallation	princeton_trtdifferential loss correction	single-endedforward channel	channel 2reverse channel	N/Adate	2019/09/15time	15:07:35forward acquisition time	60.00reverse acquisition time	0.00gamma	496.2192k internal	0.2298k external	0.2298temperature offset calibration	0.9964default loss term (dB/km)	0.3790temperature slope calibration	1.0000multiplexer offset coefficient	1.0000multiplexer slope coefficient	1.0000fibre end	0.00T internal ref (°C)	40.39T ext. ref 1 (°C)	4.94T ext. ref 2 (°C)	37.54length (m)	temperature (°C)	Stokes	anti-Stokes-747.200	471.045	0.137	-0.314
-746.185	-5.020	-0.208	0.146
-745.171	316.402	-0.055	-0.106
-744.156	-200.000	-0.061	-0.350
-743.142	-95.495	0.337	0.092
-742.127	246.902	-0.120	0.207
-741.112	250.663	-0.135	0.234
-740.098	537.372	-0.285	0.691
-739.083	-200.000	-0.022	-0.302
-738.069	497.812	0.214	0.503
-737.054	179.442	0.195	-0.292
-736.039	370.554	-0.060	0.123
-735.025	-113.088	0.265	0.053
-734.010	291.140	0.149	0.276
-732.996	85.388	-0.087	-0.098
-731.981	-63.689	-0.346	-0.145
-730.966	137.675	-0.259	-0.347
-729.952	53.256	-0.070	-0.069
-728.937	-184.508	-0.291	0.005
-727.923	47.610	0.120	0.115
-726.908	-200.000	0.027	0.194
-725.894	-9.029	-0.339	0.231
-724.879	-200.000	-0.010	0.158
-723.864	-159.560	0.169	-0.010
-722.850	278.180	-0.183	-0.332
-721.835	-200.000	0.012	0.057
-720.821	14.516	0.104	-0.083
-719.806	-15.286	-0.244	0.159
-718.791	235.611	0.094	-0.158
-717.777	-200.000	-0.001	-0.244
-716.762	-200.000	0.016	-0.130
-715.748	-163.271	-0.195	0.010
-714.733	622.719	0.103	0.265
-713.718	-126.475	0.078	-0.012
-712.704	-200.000	-0.013	-0.140
-711.689	-45.283	0.457	0.231
-710.675	46.306	0.140	-0.132
-709.660	-141.787	0.306	-0.031
-708.645	160.306	0.110	0.156
-707.631	800.000	-0.050	-0.210
-706.616	12.703	-0.376	-0.296
-705.602	218.722	-0.161	0.262
-704.587	100.033	0.287	-0.339
-703.572	-52.270	0.025	-0.012
-702.558	256.229	0.101	-0.177
-701.543	-180.899	0.415	-0.009
-700.529	746.905	-0.083	0.229
-699.514	-200.000	-0.000	-0.237
-698.499	539.113	0.159	-0.386
-697.485	260.529	0.202	0.355
-696.470	-152.477	0.612	0.045
-695.456	-67.517	-0.230	0.092
-694.441	-68.690	-0.108	-0.042
-693.426	570.338	0.037	0.091
-692.412	740.410	-0.050	-0.137
-691.397	800.000	0.143	0.421
-690.383	-200.000	0.018	0.175
-689.368	-200.000	0.001	-0.020
-688.354	800.000	-0.169	-0.511
-687.339	-98.131	-0.135	0.035
-686.324	-158.968	0.327	0.019
-685.310	-32.027	-0.261	0.149
-684.295	147.891	-0.147	-0.202
-683.281	484.593	-0.129	-0.298
-682.266	-64.146	0.058	0.024
-681.251	-78.621	-0.532	-0.185
-680.237	49.652	0.250	-0.240
-679.222	250.958	-0.148	-0.256
-678.208	-50.878	0.005	-0.002
-677.193	-49.539	0.223	-0.108
-676.178	-200.000	-0.027	-0.495
-675.164	-73.615	0.363	-0.135
-674.149	-107.008	-0.214	-0.048
-673.135	-0.704	-0.185	-0.134
-672.120	-63.607	-0.277	-0.116
-671.105	525.483	-0.022	-0.052
-670.091	-43.830	0.143	0.073
-669.076	-200.000	0.008	0.251
-668.062	11.482	-0.216	0.168
-667.047	-200.000	-0.002	0.141
-666.032	800.000	0.149	-0.462
-665.018	-52.622	-0.116	-0.054
-664.003	-24.191	0.177	-0.107
-662.989	800.000	0.056	0.192
-661.974	-200.000	0.036	-0.238
-660.959	-3.941	0.112	0.079
-659.945	56.719	0.186	-0.184
-658.930	-48.597	-0.075	-0.037
-657.916	-84.563	-0.298	0.096
-656.901	800.000	-0.041	0.163
-655.886	-200.000	-0.005	-0.322
-654.872	-4.642	0.239	0.168
-653.857	179.400	0.081	-0.121
-652.843	-200.000	0.010	-0.150
-651.828	-84.423	-0.122	-0.039
-650.814	-88.743	0.258	-0.078
-649.799	-21.421	0.204	-0.126
-648.784	-19.367	-0.074	0.047
-647.770	800.000	-0.085	0.242
-646.755	-85.882	0.398	-0.125
-645.741	24.530	-0.056	0.047
-644.726	185.623	-0.205	-0.309
-643.711	-200.000	0.012	-0.245
-642.697	70.504	0.133	-0.140
-641.682	-81.755	0.272	-0.091
-640.668	-80.377	-0.298	0.101
-639.653	-119.113	-0.483	-0.086
-638.638	45.072	0.175	-0.164
-637.624	-55.602	0.133	-0.061
-636.609	81.912	-0.156	-0.172
-635.595	91.516	-0.081	0.093
-634.580	-89.279	-0.147	-0.044
-633.565	90.018	0.045	0.051
-632.551	800.000	-0.058	-0.227
-631.536	235.200	0.025	-0.041
-630.522	-189.329	-0.158	-0.002
-629.507	-60.198	-0.328	0.142
-628.492	0.523	-0.100	0.073
-627.478	-200.000	0.005	0.134
-626.463	68.966	0.127	0.133
-625.449	800.000	-0.015	0.067
-624.434	-200.000	0.045	0.232
-623.419	-136.061	-0.346	-0.041
-622.405	193.636	-0.147	0.226
-621.390	-117.904	0.236	-0.043
-620.376	-139.118	0.155	-0.017
-619.361	114.650	0.065	-0.081
-618.346	-200.000	0.001	-0.333
-617.332	-200.000	-0.018	-0.294
-616.317	-5.585	-0.098	-0.068
-615.303	98.237	0.155	0.181
-614.288	-48.306	-0.322	0.158
-613.273	800.000	0.076	-0.221
-612.259	-151.805	-0.216	-0.016
-611.244	-64.318	-0.059	0.024
-610.230	-140.507	0.099	-0.010
-609.215	800.000	0.056	-0.246
-608.201	741.578	0.080	0.218
-607.186	-200.000	-0.005	-0.173
-606.171	71.683	0.127	-0.134
-605.157	234.260	-0.172	-0.287
-604.142	138.914	-0.083	0.111
-603.128	-35.617	-0.368	0.202
-602.113	800.000	0.051	-0.196
-601.098	-200.000	0.021	0.255
-600.084	-67.203	-0.215	0.086
-599.069	800.000	-0.111	0.331
-598.055	346.761	-0.138	0.276
-597.040	168.872	-0.116	0.168
-596.025	-200.000	0.018	-0.155
-595.011	260.661	0.178	-0.313
-593.996	800.000	-0.047	-0.141
-592.982	517.407	-0.049	-0.116
-591.967	697.751	-0.023	-0.061
-590.952	-200.000	0.000	-0.046
-589.938	106.540	-0.262	0.315
-588.923	-32.233	0.140	0.079
-587.909	-200.000	-0.007	-0.183
-586.894	41.469	-0.203	-0.187
-585.879	40.895	-0.147	-0.134
-584.865	-76.256	-0.469	0.168
-583.850	-159.004	0.092	-0.005
-582.836	-18.395	0.296	-0.188
-581.821	-131.622	0.223	-0.030
-580.806	-103.674	-0.188	-0.045
-579.792	-103.733	0.412	0.098
-578.777	141.994	0.129	-0.173
-577.763	-200.000	0.018	0.144
-576.748	-68.924	0.111	-0.043
-575.733	-9.895	-0.130	0.088
-574.719	-20.123	0.073	0.045
-573.704	800.000	0.062	0.251
-572.690	-36.183	-0.210	-0.115
-571.675	-200.000	0.027	-0.147
-570.661	175.098	0.211	0.311
-569.646	82.985	0.101	-0.111
-568.631	-200.000	0.009	-0.143
-567.617	-34.616	-0.260	0.144
-566.602	800.000	0.119	-0.346
-565.588	-64.384	-0.362	-0.149
-564.573	206.389	0.229	0.361
-563.558	145.238	0.171	0.232
-562.544	-200.000	0.002	-0.071
-561.529	-122.002	0.172	-0.029
-560.515	800.000	-0.142	-0.442
-559.500	-100.166	0.298	-0.075
-558.485	-104.776	0.213	0.050
-557.471	-114.264	0.040	-0.008
-556.456	-120.326	0.160	0.028
-555.442	243.816	-0.111	-0.188
-554.427	-200.000	-0.002	-0.077
-553.412	87.424	0.218	-0.244
-552.398	800.000	-0.068	0.295
-551.383	-200.000	0.020	0.300
-550.369	-50.860	-0.196	-0.093
-549.354	-73.654	-0.082	0.030
-548.339	-143.063	-0.126	-0.012
-547.325	-200.000	0.022	0.432
-546.310	258.159	-0.111	0.194
-545.296	-200.000	-0.000	0.073
-544.281	-81.546	-0.193	-0.064
-543.266	117.312	-0.217	-0.271
-542.252	72.754	-0.072	-0.076
-541.237	262.534	0.014	0.025
-540.223	-59.609	-0.059	-0.025
-539.208	-98.697	0.177	0.046
-538.193	367.644	0.091	0.186
-537.179	717.903	0.112	-0.302
-536.164	100.792	0.125	0.147
-535.150	320.407	0.065	0.126
-534.135	-10.060	-0.156	0.105
-533.121	168.145	0.135	0.194
-532.106	-147.253	-0.273	0.024
-531.091	800.000	-0.055	-0.161
-530.077	-78.082	0.177	0.062
-529.062	162.641	0.118	-0.167
-528.048	8.935	-0.105	-0.080
-527.033	-200.000	0.010	0.181
-526.018	13.642	-0.105	-0.082
-525.004	-155.505	0.250	0.016
-523.989	25.432	0.059	0.049
-522.975	406.136	-0.023	-0.049
-521.960	-84.934	0.121	0.038
-520.945	-125.479	0.552	-0.085
-519.931	510.647	0.061	-0.145
-518.916	-95.398	-0.116	-0.032
-517.902	-80.894	0.314	0.105
-516.887	-200.000	-0.053	-0.333
-515.872	4.205	-0.194	-0.144
-514.858	10.434	-0.190	-0.146
-513.843	114.238	-0.140	-0.172
-512.829	-200.000	-0.024	-0.120
-511.814	-102.922	-0.102	-0.025
-510.799	-168.340	-0.258	-0.010
-509.785	-23.734	-0.060	-0.036
-508.770	-107.713	-0.243	-0.054
-507.756	144.463	-0.198	0.267
-506.741	-148.039	-0.280	-0.024
-505.726	-185.333	0.329	0.005
-504.712	-84.629	0.198	-0.063
-503.697	-156.262	0.265	-0.017
-502.683	-128.906	0.150	-0.021
-501.668	26.908	0.221	0.187
-500.653	-37.674	-0.208	0.112
-499.639	-129.134	0.323	-0.046
-498.624	-21.449	0.141	0.087
-497.610	-8.554	0.201	-0.137
-496.595	15.412	0.137	-0.109
-495.581	-200.000	-0.046	-0.232
-494.566	-31.619	0.189	-0.107
-493.551	-94.640	-0.365	0.100
-492.537	60.329	0.061	-0.061
-491.522	-106.546	0.237	-0.053
-490.508	88.370	0.169	0.190
-489.493	512.864	0.014	0.032
-488.478	287.605	-0.231	-0.422
-487.464	-96.653	-0.068	0.018
-486.449	-128.455	0.015	0.002
-485.435	800.000	-0.054	0.199
-484.420	16.407	0.261	0.208
-483.405	-200.000	0.025	-0.237
-482.391	-28.127	0.069	0.040
-481.376	-139.866	-0.304	0.033
-480.362	-163.598	0.197	0.009
-479.347	800.000	-0.095	-0.276
-478.332	49.236	-0.106	0.101
-477.318	-200.000	0.013	-0.235
-476.303	138.191	-0.124	0.164
-475.289	800.000	-0.093	-0.293
-474.274	-23.846	0.148	-0.089
-473.259	-103.876	0.398	-0.094
-472.245	54.210	-0.231	-0.224
-471.230	-200.000	0.039	-0.321
-470.216	-2.852	-0.138	0.097
-469.201	-67.381	-0.019	-0.008
-468.186	773.948	-0.092	-0.254
-467.172	-93.645	-0.173	-0.048
-466.157	800.000	0.013	-0.039
-465.143	800.000	-0.019	-0.080
-464.128	800.000	0.098	-0.322
-463.113	-93.537	0.097	-0.027
-462.099	17.810	0.229	0.184
-461.084	-2.827	0.087	-0.061
-460.070	35.032	0.265	-0.234
-459.055	-10.906	-0.030	-0.020
-458.040	138.111	-0.143	0.189
-457.026	67.300	-0.124	0.128
-456.011	-174.042	0.482	0.014
-454.997	75.035	0.066	-0.070
-453.982	117.904	-0.039	-0.048
-452.968	350.990	0.055	0.111
-451.953	407.314	0.067	0.143
-450.938	112.475	-0.060	-0.073
-449.924	95.829	-0.209	-0.241
-448.909	382.469	0.183	-0.380
-447.895	-200.000	0.031	-0.169
-446.880	-107.979	0.101	0.022
-445.865	54.156	0.143	0.139
-444.851	208.267	-0.181	-0.285
-443.836	-46.136	-0.134	0.066
-442.822	-160.412	0.116	0.006
-441.807	102.862	0.175	-0.207
-440.792	-99.651	0.117	0.030
-439.778	172.741	-0.010	0.015
-438.763	25.767	-0.298	0.251
-437.749	800.000	-0.050	-0.154
-436.734	-73.968	0.326	0.119
-435.719	-47.190	-0.139	0.068
-434.705	345.530	0.073	0.146
-433.690	34.499	-0.241	0.212
-432.676	-200.000	-0.009	-0.283
-431.661	-200.000	-0.002	0.037
-430.646	-200.000	0.354	0.000
-429.632	-200.000	0.005	-0.376
-428.617	42.369	0.181	0.166
-427.603	-104.320	0.318	0.074
-426.588	310.402	0.085	0.160
-425.573	-100.138	-0.415	-0.104
-424.559	441.901	-0.066	-0.146
-423.544	35.617	-0.330	0.292
-422.530	98.939	-0.209	-0.243
-421.515	189.158	-0.176	0.266
-420.500	150.602	-0.107	-0.146
-419.486	388.704	0.062	0.129
-418.471	-200.000	-0.038	0.218
-417.457	27.080	-0.156	-0.132
-416.442	-200.000	-0.010	-0.148
-415.428	287.872	0.076	-0.139
-414.413	-200.000	-0.013	0.488
-413.398	-153.911	-0.292	0.020
-412.384	66.376	-0.123	-0.126
-411.369	-2.453	0.216	-0.152
-410.355	-166.497	0.171	0.007
-409.340	424.596	-0.030	-0.065
-408.325	555.700	0.032	-0.077
-407.311	-133.504	-0.234	-0.030
-406.296	800.000	-0.067	-0.201
-405.282	710.982	-0.053	-0.140
-404.267	384.244	0.152	0.316
-403.252	-200.000	-0.015	0.278
-402.238	-200.000	-0.003	-0.093
-401.223	-2.119	0.220	0.155
-400.209	-96.819	0.124	0.033
-399.194	-200.000	-0.013	-0.136
-398.179	-182.303	-0.225	-0.004
-397.165	-99.326	0.088	0.022
-396.150	800.000	-0.057	0.182
-395.136	800.000	-0.007	0.019
-394.121	-46.989	-0.113	0.055
-393.106	-39.555	-0.228	-0.120
-392.092	-148.464	0.235	0.019
-391.077	-200.000	0.073	-0.329
-390.063	-200.000	-0.028	-0.125
-389.048	42.486	-0.088	0.081
-388.033	140.873	-0.196	-0.261
-387.019	-200.000	-0.058	-0.273
-386.004	800.000	0.058	-0.171
-384.990	-155.284	0.309	0.020
-383.975	-90.797	0.368	-0.107
-382.960	800.000	-0.046	0.131
-381.946	-160.516	0.021	0.001
-380.931	142.159	0.038	0.051
-379.917	254.401	-0.155	-0.267
-378.902	-200.000	0.033	0.237
-377.888	-200.000	-0.038	-0.218
-376.873	-146.058	-0.168	-0.015
-375.858	144.603	-0.063	-0.084
-374.844	92.219	-0.356	0.404
-373.829	12.255	0.288	-0.223
-372.815	-118.634	-0.467	0.083
-371.800	17.710	-0.218	0.174
-370.785	-105.743	-0.193	-0.044
-369.771	-200.000	-0.009	0.103
-368.756	1.305	0.125	0.090
-367.742	-200.000	0.015	0.206
-366.727	800.000	-0.123	-0.452
-365.712	-14.354	-0.308	0.199
-364.698	-200.000	0.028	0.204
-363.683	800.000	0.070	0.194
-362.669	-102.296	0.196	0.047
-361.654	-112.707	0.265	0.053
-360.639	-200.000	0.026	-0.197
-359.625	-43.033	-0.277	-0.141
-358.610	105.072	-0.067	-0.080
-357.596	800.000	0.086	-0.277
-356.581	-200.000	-0.010	0.195
-355.566	-200.000	-0.011	0.141
-354.552	-184.705	0.273	-0.004
-353.537	-15.284	-0.143	0.092
-352.523	-162.283	0.138	-0.007
-351.508	-81.656	0.307	0.101
-350.493	-149.764	-0.180	-0.014
-349.479	-200.000	0.004	0.062
-348.464	-40.653	0.196	0.102
-347.450	-44.370	-0.144	0.072
-346.435	800.000	-0.092	0.312
-345.420	321.881	0.173	0.332
-344.406	201.037	-0.080	-0.124
-343.391	-200.000	-0.014	-0.093
-342.377	16.777	0.464	0.369
-341.362	-79.972	-0.118	-0.040
-340.348	800.000	-0.046	0.187
-339.333	-141.318	0.107	-0.011
-338.318	-52.647	0.132	-0.061
-337.304	-200.000	0.005	-0.158
-336.289	-200.000	-0.018	-0.328
-335.275	-42.716	0.389	0.199
-334.260	-124.338	-0.306	0.048
-333.245	800.000	0.071	0.207
-332.231	-200.000	-0.031	0.210
-331.216	-32.347	0.030	0.017
-330.202	137.076	-0.095	-0.125
-329.187	-200.000	-0.025	-0.188
-328.172	-129.052	-0.096	0.014
-327.158	-75.671	-0.255	0.091
-326.143	293.790	-0.038	0.069
-325.129	-200.000	-0.022	0.306
-324.114	43.071	0.204	0.187
-323.099	800.000	0.031	0.135
-322.085	158.957	0.070	0.097
-321.070	71.369	0.265	0.277
-320.056	75.356	-0.363	0.384
-319.041	52.889	-0.120	-0.115
-318.026	800.000	-0.060	0.174
-317.012	-27.385	0.100	-0.058
-315.997	122.123	-0.173	-0.217
-314.983	361.571	-0.203	0.409
-313.968	-2.214	0.208	-0.146
-312.953	-200.000	-0.014	0.075
-311.939	19.759	-0.160	0.129
-310.924	434.119	-0.138	-0.302
-309.910	-127.278	0.135	-0.020
-308.895	78.905	-0.062	-0.066
-307.880	-125.796	0.159	0.024
-306.866	800.000	0.144	0.410
-305.851	-113.239	0.153	-0.030
-304.837	-200.000	0.033	-0.288
-303.822	192.472	0.125	-0.190
-302.807	8.065	0.225	-0.169
-301.793	-49.500	0.132	0.063
-300.778	225.450	0.029	-0.047
-299.764	-200.000	-0.005	0.113
-298.749	-200.000	-0.010	0.252
-297.735	21.174	0.174	-0.142
-296.720	496.199	0.069	-0.159
-295.705	-200.000	0.038	0.183
-294.691	-26.779	0.190	-0.111
-293.676	14.018	-0.242	-0.189
-292.662	23.508	-0.225	0.186
-291.647	260.185	0.078	-0.135
-290.632	113.196	0.104	0.127
-289.618	-200.000	0.043	0.223
-288.603	-155.064	0.150	0.010
-287.589	387.770	-0.107	-0.221
-286.574	-200.000	0.005	0.282
-285.559	800.000	0.075	-0.262
-284.545	331.837	-0.233	-0.450
-283.530	-149.453	0.303	0.024
-282.516	265.595	0.067	0.118
-281.501	800.000	0.050	-0.153
-280.486	-200.000	0.002	0.298
-279.472	677.645	0.029	-0.077
-278.457	300.876	0.070	0.130
-277.443	95.784	-0.046	-0.052
-276.428	-142.402	-0.221	-0.022
-275.413	-51.471	0.063	0.030
-274.399	-108.616	0.044	0.009
-273.384	-200.000	-0.006	-0.057
-272.370	-50.376	0.166	-0.078
-271.355	-41.898	0.037	-0.019
-270.340	-155.584	0.167	-0.011
-269.326	800.000	0.093	-0.363
-268.311	-110.326	-0.219	0.046
-267.297	800.000	-0.162	0.597
-266.282	6.321	-0.215	-0.160
-265.267	-83.242	-0.088	0.028
-264.253	-109.410	-0.216	0.046
-263.238	800.000	-0.120	0.342
-262.224	-200.000	-0.038	0.374
-261.209	800.000	0.051	-0.167
-260.195	147.047	0.116	-0.156
-259.180	393.104	-0.069	-0.143
-258.165	-200.000	-0.090	-0.508
-257.151	800.000	-0.046	-0.136
-256.136	-31.530	-0.097	-0.055
-255.122	800.000	-0.090	-0.374
-254.107	-49.923	-0.115	0.055
-253.092	142.825	0.134	-0.178
-252.078	-123.277	0.055	-0.009
-251.063	-200.000	-0.001	-0.202
-250.049	-200.000	-0.052	0.409
-249.034	26.079	0.052	0.043
-248.019	-200.000	-0.005	-0.181
-247.005	9.823	0.141	0.107
-245.990	46.453	0.247	-0.229
-244.976	250.954	0.076	-0.129
-243.961	-98.355	-0.224	0.057
-242.946	60.306	0.251	0.248
-241.932	320.759	0.168	-0.320
-240.917	-15.106	-0.159	-0.102
-239.903	800.000	-0.108	0.374
-238.888	-174.415	0.202	0.006
-237.873	-160.399	-0.305	0.016
-236.859	-58.574	-0.285	-0.124
-235.844	-54.468	0.194	0.088
-234.830	-200.000	-0.024	0.111
-233.815	-74.028	-0.178	0.065
-232.800	-8.969	-0.002	0.002
-231.786	-137.841	-0.307	0.034
-230.771	-85.061	-0.341	0.107
-229.757	-200.000	-0.003	0.098
-228.742	-116.724	-0.235	-0.043
-227.727	68.664	0.068	0.070
-226.713	163.130	-0.237	0.334
-225.698	99.913	-0.123	-0.142
-224.684	-73.153	-0.187	-0.068
-223.669	51.219	0.318	0.301
-222.655	-70.458	-0.245	0.093
-221.640	513.461	-0.106	0.248
-220.625	-200.000	-0.021	0.165
-219.611	800.000	-0.076	-0.293
-218.596	105.090	-0.181	-0.213
-217.582	-122.912	-0.220	0.036
-216.567	-30.323	-0.310	0.176
-215.552	-114.330	0.314	-0.060
-214.538	197.105	0.040	-0.061
-213.523	800.000	-0.030	0.091
-212.509	-43.087	-0.243	0.123
-211.494	257.739	-0.058	-0.100
-210.479	1.319	0.155	-0.111
-209.465	-200.000	-0.062	-0.383
-208.450	0.170	-0.264	0.188
-207.436	-102.673	-0.100	0.024
-206.421	43.534	-0.241	0.221
-205.406	-1.503	0.125	-0.088
-204.392	-141.065	0.222	0.023
-203.377	-155.592	-0.188	-0.012
-202.363	570.019	-0.095	0.230
-201.348	-32.706	-0.289	-0.161
-200.333	14.301	0.094	-0.073
-199.319	-200.000	-0.006	0.115
-198.304	-200.000	-0.004	0.149
-197.290	555.117	0.135	0.326
-196.275	-111.340	0.151	-0.031
-195.260	-200.000	0.084	0.393
-194.246	-169.280	-0.071	-0.003
-193.231	325.909	-0.035	-0.067
-192.217	800.000	0.036	0.136
-191.202	395.899	-0.035	-0.073
-190.187	800.000	0.041	-0.156
-189.173	17.547	-0.299	0.238
-188.158	86.926	0.113	0.125
-187.144	42.851	0.076	-0.069
-186.129	-59.234	0.419	0.180
-185.114	-200.000	-0.010	0.145
-184.100	441.463	0.103	0.226
-183.085	27.104	-0.228	0.191
-182.071	122.968	0.003	0.003
-181.056	102.419	0.221	-0.258
-180.042	-200.000	-0.025	-0.346
-179.027	400.405	0.044	0.092
-178.012	244.291	0.122	-0.204
-176.998	-42.925	-0.211	0.107
-175.983	535.750	-0.122	0.289
-174.969	-146.449	0.277	0.024
-173.954	-104.908	0.054	0.012
-172.939	-9.910	0.254	-0.169
-171.925	39.412	-0.046	-0.041
-170.910	649.514	0.096	-0.244
-169.896	-109.046	-0.141	-0.030
-168.881	-30.747	0.220	0.124
-167.866	36.547	0.154	0.135
-166.852	-200.000	-0.020	0.140
-165.837	204.095	0.041	0.064
-164.823	501.215	-0.007	-0.016
-163.808	-89.159	0.433	-0.128
-162.793	123.507	-0.212	0.266
-161.779	-132.190	0.122	0.016
-160.764	21.173	-0.096	0.078
-159.750	130.198	0.210	0.269
-158.735	-2.628	0.092	0.064
-157.720	-200.000	0.015	0.075
-156.706	-27.062	0.249	-0.145
-155.691	282.639	0.154	-0.275
-154.677	-200.000	-0.052	0.450
-153.662	-54.331	0.191	0.086
-152.647	-133.747	0.303	-0.038
-151.633	-40.292	0.208	0.108
-150.618	129.859	0.077	0.098
-149.604	-126.381	-0.028	0.004
-148.589	576.144	0.136	-0.331
-147.574	51.678	-0.215	-0.204
-146.560	78.089	-0.353	-0.375
-145.545	800.000	-0.052	-0.212
-144.531	-200.000	0.027	-0.150
-143.516	109.037	-0.119	0.142
-142.502	61.164	0.210	0.208
-141.487	167.410	0.098	-0.139
-140.472	-69.429	0.079	0.030
-139.458	-60.410	0.279	-0.118
-138.443	-200.000	0.081	0.390
-137.429	371.364	0.213	-0.431
-136.414	-23.473	0.089	0.053
-135.399	-200.000	0.069	0.466
-134.385	-200.000	-0.031	0.196
-133.370	800.000	0.049	0.186
-132.356	-87.519	0.124	-0.037
-131.341	-13.786	0.193	-0.124
-130.326	-118.055	0.169	0.030
-129.312	800.000	0.043	0.160
-128.297	-60.989	0.316	-0.133
-127.283	51.815	0.137	-0.130
-126.268	178.431	-0.145	-0.211
-125.253	647.767	-0.084	-0.215
-124.239	-94.767	-0.101	0.027
-123.224	125.496	0.071	0.090
-122.210	-75.044	0.256	0.091
