DTS Sentinel unit serial number:	SN413079Multiplexer serial number:	ORYXHardware model number:	OX4-SRSoftware version number:	ORYX F/W v4.00 Oryx Data Collector v3.7.2.0data status	okinstallation	princeton_trtdifferential loss correction	single-endedforward channel	channel 2reverse channel	N/Adate	2019/09/13time	12:51:35forward acquisition time	60.00reverse acquisition time	0.00gamma	496.2192k internal	0.2315k external	0.2315temperature offset calibration	1.0213default loss term (dB/km)	0.3790temperature slope calibration	1.0000multiplexer offset coefficient	1.0000multiplexer slope coefficient	1.0000fibre end	0.00T internal ref (°C)	34.75T ext. ref 1 (°C)	4.57T ext. ref 2 (°C)	30.41length (m)	temperature (°C)	Stokes	anti-Stokes-747.200	69.131	0.156	0.163
-746.185	-65.822	0.290	0.118
-745.171	-111.535	0.178	-0.037
-744.156	-139.961	-0.383	0.041
-743.142	-83.641	0.130	0.042
-742.127	-200.000	-0.002	-0.132
-741.112	-78.547	0.495	-0.172
-740.098	-33.569	-0.077	-0.043
-739.083	458.259	0.029	-0.066
-738.069	127.223	0.284	0.366
-737.054	-64.014	-0.081	-0.034
-736.039	1.523	0.101	-0.074
-735.025	787.697	0.075	-0.209
-734.010	-84.928	-0.179	-0.057
-732.996	-200.000	-0.036	-0.178
-731.981	-80.703	-0.244	-0.082
-730.966	-138.054	-0.257	-0.029
-729.952	-86.720	-0.365	-0.113
-728.937	-113.295	-0.347	-0.069
-727.923	-47.965	0.100	0.049
-726.908	800.000	0.085	-0.332
-725.894	39.471	0.201	0.183
-724.879	-200.000	0.008	0.265
-723.864	-200.000	0.010	0.115
-722.850	-18.918	-0.240	-0.151
-721.835	-35.961	-0.214	0.117
-720.821	66.728	0.129	0.133
-719.806	727.458	0.074	0.200
-718.791	-32.584	-0.422	0.238
-717.777	-52.490	-0.159	-0.075
-716.762	800.000	-0.045	0.151
-715.748	775.064	0.067	-0.186
-714.733	-12.083	0.257	-0.171
-713.718	-58.963	-0.301	0.132
-712.704	176.407	0.203	-0.299
-711.689	-149.448	0.231	0.019
-710.675	592.016	0.072	0.179
-709.660	392.109	-0.087	-0.183
-708.645	-200.000	-0.020	-0.200
-707.631	125.229	-0.177	0.226
-706.616	-134.478	-0.296	-0.037
-705.602	-97.058	-0.416	-0.110
-704.587	-52.189	0.150	-0.071
-703.572	246.158	0.012	-0.020
-702.558	-116.228	-0.194	0.036
-701.543	-200.000	0.016	-0.086
-700.529	800.000	-0.094	0.275
-699.514	800.000	-0.047	-0.143
-698.499	71.307	-0.244	-0.256
-697.485	-13.904	0.112	-0.073
-696.470	252.034	0.068	-0.118
-695.456	-88.103	-0.112	0.034
-694.441	800.000	0.011	-0.034
-693.426	-81.488	0.121	0.040
-692.412	75.349	-0.195	0.209
-691.397	-70.534	-0.118	0.045
-690.383	-22.033	0.335	0.205
-689.368	15.912	-0.202	-0.161
-688.354	-43.945	0.212	0.108
-687.339	329.827	0.075	0.147
-686.324	-23.837	0.085	0.052
-685.310	800.000	0.118	0.362
-684.295	321.935	-0.138	0.265
-683.281	95.305	-0.220	-0.254
-682.266	-10.479	-0.260	-0.174
-681.251	67.902	0.065	-0.067
-680.237	-109.024	-0.167	0.036
-679.222	-200.000	0.028	-0.153
-678.208	138.063	-0.057	0.076
-677.193	-164.093	0.162	0.008
-676.178	-100.396	-0.131	0.033
-675.164	-200.000	-0.027	0.245
-674.149	-164.072	0.276	-0.013
-673.135	-76.655	-0.219	0.078
-672.120	128.751	0.085	0.110
-671.105	800.000	0.021	-0.061
-670.091	-40.896	0.196	0.102
-669.076	252.585	0.165	-0.285
-668.062	-21.445	-0.033	-0.020
-667.047	-158.858	0.382	0.022
-666.032	-159.665	0.072	-0.004
-665.018	-200.000	0.023	0.300
-664.003	602.515	-0.083	0.209
-662.989	-200.000	-0.024	-0.358
-661.974	197.574	-0.117	-0.180
-660.959	-40.516	-0.446	-0.234
-659.945	-46.289	-0.375	0.186
-658.930	800.000	-0.103	-0.429
-657.916	114.634	-0.174	0.214
-656.901	48.550	0.186	-0.176
-655.886	-125.397	-0.493	0.076
-654.872	14.022	0.157	0.124
-653.857	-43.678	-0.075	0.038
-652.843	544.495	0.070	-0.168
-651.828	232.490	0.249	0.413
-650.814	169.990	-0.086	0.124
-649.799	24.228	-0.171	0.143
-648.784	-200.000	0.010	0.130
-647.770	-81.973	0.150	0.050
-646.755	-200.000	0.055	0.337
-645.741	-118.324	-0.280	-0.050
-644.726	97.656	-0.155	-0.180
-643.711	128.590	0.165	-0.212
-642.697	-80.852	-0.188	-0.063
-641.682	800.000	-0.064	0.182
-640.668	-45.463	0.148	0.074
-639.653	-56.859	0.180	-0.080
-638.638	166.767	-0.112	0.161
-637.624	85.140	-0.310	-0.343
-636.609	-58.547	0.253	0.111
-635.595	276.948	-0.117	0.210
-634.580	-64.543	0.147	0.060
-633.565	800.000	-0.076	-0.318
-632.551	-75.099	-0.384	0.139
-631.536	-91.574	0.197	0.057
-630.522	163.415	0.280	-0.397
-629.507	729.991	0.136	-0.366
-628.492	250.778	-0.158	0.271
-627.478	53.544	0.211	0.204
-626.463	-148.313	-0.226	0.019
-625.449	800.000	0.205	0.631
-624.434	-200.000	-0.009	-0.066
-623.419	413.998	0.043	-0.092
-622.405	-58.396	-0.218	0.095
-621.390	-48.112	-0.202	0.098
-620.376	-71.838	-0.137	-0.051
-619.361	-100.945	0.044	-0.011
-618.346	40.575	-0.346	-0.315
-617.332	16.019	-0.242	0.192
-616.317	-200.000	0.023	-0.137
-615.303	-161.944	0.235	0.012
-614.288	154.803	-0.101	0.140
-613.273	-99.756	0.317	0.080
-612.259	73.645	-0.116	0.123
-611.244	800.000	-0.080	0.239
-610.230	-149.275	-0.203	-0.016
-609.215	-200.000	0.002	-0.126
-608.201	-96.728	0.296	-0.078
-607.186	275.377	0.103	-0.184
-606.171	800.000	0.087	0.273
-605.157	-200.000	0.011	0.118
-604.142	-68.169	0.253	-0.099
-603.128	-200.000	-0.002	-0.047
-602.113	-110.356	-0.212	-0.044
-601.098	199.913	-0.157	0.243
-600.084	119.110	0.228	-0.285
-599.069	92.406	-0.129	-0.147
-598.055	-72.412	-0.309	-0.115
-597.040	-83.847	-0.301	-0.097
-596.025	-200.000	0.037	0.306
-595.011	-200.000	0.002	0.305
-593.996	-200.000	-0.041	-0.401
-592.982	-200.000	-0.007	-0.184
-591.967	50.333	-0.168	-0.160
-590.952	296.783	0.028	0.051
-589.938	-43.142	-0.288	0.147
-588.923	-94.721	0.277	0.076
-587.909	-118.700	-0.110	-0.020
-586.894	-78.645	0.187	0.064
-585.879	-115.407	0.273	-0.052
-584.865	800.000	0.140	-0.423
-583.850	800.000	-0.016	-0.067
-582.836	85.700	-0.191	-0.211
-581.821	9.405	-0.212	-0.162
-580.806	147.092	-0.057	-0.077
-579.792	-90.988	-0.153	0.044
-578.777	208.890	0.153	0.242
-577.763	-42.187	-0.092	0.048
-576.748	620.494	0.051	-0.129
-575.733	-39.590	0.076	-0.040
-574.719	-200.000	-0.014	0.108
-573.704	-88.093	0.285	-0.086
-572.690	-112.514	-0.388	0.078
-571.675	-107.546	-0.157	0.035
-570.661	-126.815	0.293	0.043
-569.646	234.443	0.040	-0.066
-568.631	800.000	-0.011	-0.045
-567.617	191.273	0.271	0.410
-566.602	-25.933	-0.149	-0.088
-565.588	521.624	0.054	-0.128
-564.573	-200.000	0.001	0.141
-563.558	-200.000	0.023	-0.168
-562.544	800.000	-0.019	-0.057
-561.529	-200.000	-0.024	-0.318
-560.515	-106.559	0.103	-0.023
-559.500	105.833	0.185	-0.220
-558.485	-79.849	0.108	-0.037
-557.471	-82.468	0.137	-0.045
-556.456	112.915	0.079	-0.096
-555.442	-200.000	0.020	-0.343
-554.427	-3.720	0.455	0.318
-553.412	45.628	0.088	0.081
-552.398	109.978	-0.294	-0.354
-551.383	-200.000	0.042	0.243
-550.369	-200.000	-0.033	0.176
-549.354	199.003	-0.148	-0.229
-548.339	32.336	0.141	-0.123
-547.325	247.291	0.141	0.239
-546.310	468.521	0.122	0.276
-545.296	-143.132	0.141	0.014
-544.281	800.000	-0.084	-0.270
-543.266	53.105	-0.280	-0.269
-542.252	-109.543	0.113	0.024
-541.237	800.000	0.040	0.147
-540.223	-200.000	0.059	0.348
-539.208	207.195	0.072	-0.113
-538.193	-84.226	0.510	0.163
-537.179	-24.677	-0.129	-0.077
-536.164	-111.758	-0.140	0.028
-535.150	-200.000	-0.006	0.134
-534.135	113.433	-0.183	0.223
-533.121	377.566	-0.032	-0.065
-532.106	-65.005	-0.285	0.116
-531.091	-113.109	0.169	-0.034
-530.077	-51.671	0.276	-0.130
-529.062	-50.033	0.170	-0.081
-528.048	74.151	-0.219	0.231
-527.033	-200.000	0.043	-0.466
-526.018	800.000	0.018	0.055
-525.004	724.829	0.139	-0.373
-523.989	131.129	0.073	0.094
-522.975	-90.181	-0.232	-0.068
-521.960	177.533	0.100	0.147
-520.945	-200.000	-0.022	0.304
-519.931	54.253	-0.057	0.055
-518.916	-14.751	0.209	0.135
-517.902	265.184	-0.224	0.392
-516.887	128.950	0.079	0.101
-515.872	574.185	-0.024	0.058
-514.858	800.000	-0.084	0.250
-513.843	8.057	0.185	-0.139
-512.829	168.408	-0.084	0.120
-511.814	217.308	-0.025	-0.040
-510.799	-200.000	0.037	0.206
-509.785	552.032	-0.095	-0.229
-508.770	43.295	0.352	0.323
-507.756	800.000	-0.136	-0.416
-506.741	-92.669	0.306	-0.086
-505.726	-114.835	-0.243	-0.046
-504.712	800.000	0.059	0.176
-503.697	-145.632	-0.327	0.029
-502.683	-101.409	-0.179	-0.044
-501.668	-200.000	0.022	-0.276
-500.653	-156.779	-0.220	-0.014
-499.639	-57.910	-0.314	0.138
-498.624	800.000	-0.050	0.191
-497.610	-58.482	-0.047	0.021
-496.595	-144.024	0.041	0.004
-495.581	-171.652	-0.196	0.007
-494.566	-200.000	-0.035	0.210
-493.551	-200.000	0.003	-0.021
-492.537	119.030	0.375	-0.465
-491.522	106.975	0.251	-0.299
-490.508	-132.607	0.230	-0.030
-489.493	156.693	0.111	-0.154
-488.478	-200.000	-0.006	-0.127
-487.464	192.864	0.164	-0.248
-486.449	202.640	-0.043	-0.066
-485.435	800.000	-0.050	-0.154
-484.420	551.437	-0.050	-0.120
-483.405	-145.487	0.150	-0.014
-482.391	-200.000	0.026	-0.138
-481.376	-55.031	-0.230	-0.104
-480.362	800.000	-0.045	-0.162
-479.347	-200.000	0.027	0.161
-478.332	393.020	-0.088	-0.185
-477.318	800.000	-0.117	0.364
-476.303	-48.817	-0.053	-0.025
-475.289	800.000	0.081	-0.332
-474.274	295.369	0.076	-0.139
-473.259	595.423	-0.049	-0.121
-472.245	398.622	-0.112	-0.235
-471.230	-109.717	0.226	-0.048
-470.216	315.978	0.130	0.246
-469.201	-200.000	-0.021	0.164
-468.186	-41.297	0.406	0.210
-467.172	732.268	-0.091	-0.245
-466.157	-33.754	-0.273	0.151
-465.143	-123.359	0.315	-0.050
-464.128	336.029	-0.127	0.247
-463.113	-26.346	-0.084	-0.049
-462.099	243.676	-0.111	0.186
-461.084	800.000	0.074	0.247
-460.070	97.849	-0.200	0.231
-459.055	800.000	-0.025	0.096
-458.040	23.060	-0.235	-0.193
-457.026	58.893	-0.127	0.125
-456.011	-109.333	-0.168	-0.036
-454.997	-78.103	0.146	0.050
-453.982	-117.288	-0.289	0.053
-452.968	-200.000	0.008	0.108
-451.953	18.167	-0.064	0.051
-450.938	49.157	0.211	-0.199
-449.924	-43.547	-0.280	0.141
-448.909	303.506	-0.151	-0.280
-447.895	-68.051	0.206	-0.081
-446.880	-157.658	0.229	-0.014
-445.865	800.000	0.046	-0.128
-444.851	-200.000	-0.081	0.420
-443.836	-200.000	-0.031	-0.185
-442.822	193.743	-0.032	-0.048
-441.807	167.813	-0.145	-0.206
-440.792	-28.912	-0.102	0.058
-439.778	-200.000	0.010	0.279
-438.763	127.198	-0.077	-0.097
-437.749	-19.053	0.219	-0.136
-436.734	-200.000	0.004	0.311
-435.719	-102.197	0.147	-0.035
-434.705	25.724	0.192	-0.160
-433.690	-115.530	-0.242	-0.046
-432.676	134.966	0.246	0.320
-431.661	383.688	0.034	-0.071
-430.646	-27.649	-0.155	-0.090
-429.632	-97.261	0.150	0.039
-428.617	-173.950	-0.091	-0.003
-427.603	40.432	0.135	0.121
-426.588	-131.781	0.234	0.031
-425.573	-166.558	0.243	0.010
-424.559	-86.982	0.264	0.081
-423.544	-85.847	-0.092	0.029
-422.530	48.577	-0.194	-0.182
-421.515	-113.445	0.376	0.074
-420.500	800.000	-0.070	-0.208
-419.486	216.998	0.052	0.083
-418.471	80.096	-0.227	0.244
-417.457	-137.116	-0.094	0.011
-416.442	800.000	-0.091	0.264
-415.428	214.788	-0.129	-0.205
-414.413	800.000	-0.067	-0.189
-413.398	800.000	-0.015	-0.065
-412.384	800.000	-0.083	0.277
-411.369	-200.000	0.027	0.195
-410.355	221.082	0.125	0.201
-409.340	165.451	0.098	-0.139
-408.325	-81.732	0.131	0.043
-407.311	-200.000	0.016	-0.178
-406.296	82.234	0.123	0.134
-405.282	-60.157	-0.138	-0.059
-404.267	800.000	-0.075	0.237
-403.252	-102.522	-0.099	-0.024
-402.238	-166.469	-0.213	-0.009
-401.223	191.871	-0.154	0.232
-400.209	55.489	-0.142	0.137
-399.194	800.000	0.121	-0.389
-398.179	-55.517	-0.111	0.050
-397.165	170.205	0.192	-0.275
-396.150	-14.411	0.085	-0.054
-395.136	-17.923	0.348	0.218
-394.121	0.561	-0.201	0.144
-393.106	-108.278	0.108	0.023
-392.092	540.833	0.026	0.062
-391.077	-100.401	-0.418	-0.104
-390.063	410.321	-0.146	-0.310
-389.048	-200.000	0.017	0.200
-388.033	-117.747	-0.175	0.031
-387.019	461.790	-0.084	0.188
-386.004	-29.819	0.113	-0.064
-384.990	-0.075	-0.092	0.065
-383.975	326.578	-0.036	-0.069
-382.960	603.632	0.032	0.080
-381.946	-200.000	-0.080	-0.388
-380.931	-200.000	0.004	-0.072
-379.917	775.581	0.131	-0.358
-378.902	-200.000	0.003	0.069
-377.888	24.348	-0.161	0.133
-376.873	502.537	-0.045	0.103
-375.858	-89.791	-0.299	-0.087
-374.844	306.767	-0.055	0.103
-373.829	-101.991	0.090	-0.022
-372.815	-200.000	0.051	0.476
-371.800	83.938	-0.232	0.253
-370.785	-200.000	0.008	-0.239
-369.771	404.052	0.147	-0.309
-368.756	800.000	0.045	-0.180
-367.742	70.375	-0.059	-0.061
-366.727	-200.000	-0.006	0.187
-365.712	-73.899	-0.144	-0.052
-364.698	408.868	-0.140	0.295
-363.683	298.991	0.040	0.074
-362.669	-68.094	0.227	0.088
-361.654	96.686	0.140	-0.160
-360.639	-200.000	-0.005	-0.097
-359.625	598.327	0.030	0.073
-358.610	87.306	-0.150	0.165
-357.596	284.106	0.047	0.085
-356.581	-180.435	0.273	0.006
-355.566	316.740	-0.151	-0.284
-354.552	-181.926	-0.189	0.004
-353.537	-70.095	-0.176	-0.067
-352.523	-116.512	-0.425	-0.078
-351.508	800.000	-0.029	-0.112
-350.493	109.854	-0.085	0.102
-349.479	397.315	0.163	-0.339
-348.464	-200.000	0.008	-0.259
-347.450	-14.116	-0.252	-0.162
-346.435	72.944	-0.158	0.165
-345.420	-200.000	0.011	-0.151
-344.406	230.648	-0.166	0.270
-343.391	782.500	0.071	0.193
-342.377	-200.000	0.012	-0.068
-341.362	-12.983	0.038	-0.025
-340.348	-200.000	0.024	-0.189
-339.333	-86.013	-0.138	-0.043
-338.318	-200.000	-0.038	0.457
-337.304	-154.087	0.195	-0.013
-336.289	65.547	0.166	-0.167
-335.275	276.774	0.087	-0.155
-334.260	-85.885	-0.104	0.032
-333.245	-59.400	-0.270	-0.116
-332.231	163.226	0.037	-0.052
-331.216	-77.006	-0.117	-0.041
-330.202	-123.253	-0.065	0.010
-329.187	-149.437	-0.447	-0.035
-328.172	112.512	-0.167	0.201
-327.158	-146.700	0.140	-0.012
-326.143	119.483	-0.161	0.199
-325.129	151.044	-0.138	-0.187
-324.114	-50.968	0.250	0.117
-323.099	-119.690	0.208	0.036
-322.085	-48.796	-0.150	0.072
-321.070	233.498	-0.191	0.313
-320.056	9.994	-0.342	-0.259
-319.041	58.353	0.187	-0.183
-318.026	210.561	-0.046	-0.071
-317.012	-46.957	0.363	-0.177
-315.997	-81.544	-0.250	-0.082
-314.983	111.418	0.094	0.113
-313.968	-120.467	0.171	0.029
-312.953	1.837	0.105	-0.075
-311.939	57.403	0.133	-0.129
-310.924	-4.571	-0.190	-0.131
-309.910	269.454	-0.098	-0.171
-308.895	-200.000	0.005	-0.046
-307.880	-125.115	0.391	0.060
-306.866	419.388	-0.106	-0.225
-305.851	233.374	-0.038	-0.062
-304.837	-69.271	-0.119	-0.046
-303.822	-88.429	-0.144	0.043
-302.807	-83.841	0.353	-0.112
-301.793	-51.046	0.142	0.066
-300.778	-200.000	-0.002	0.148
-299.764	68.676	0.195	-0.200
-298.749	-141.512	-0.156	0.016
-297.735	707.775	0.020	-0.054
-296.720	145.476	-0.085	-0.113
-295.705	-200.000	-0.063	0.324
-294.691	297.447	0.087	0.159
-293.676	-179.066	0.224	-0.005
-292.662	78.436	0.082	0.088
-291.647	4.735	0.107	-0.078
-290.632	140.688	-0.099	0.131
-289.618	-112.393	0.029	-0.006
-288.603	-179.746	0.139	-0.003
-287.589	-12.255	0.278	-0.181
-286.574	-56.742	-0.262	0.116
-285.559	-144.342	0.186	0.017
-284.545	-52.895	-0.119	0.055
-283.530	-200.000	0.035	0.175
-282.516	-26.855	-0.101	-0.059
-281.501	800.000	0.163	0.703
-280.486	42.779	0.181	0.164
-279.472	109.897	0.261	0.311
-278.457	-67.740	0.187	0.073
-277.443	175.432	-0.153	0.221
-276.428	-78.798	-0.139	0.047
-275.413	-200.000	-0.051	0.230
-274.399	-76.465	-0.121	-0.042
-273.384	89.854	0.287	-0.319
-272.370	-74.559	-0.210	0.075
-271.355	698.329	0.069	0.181
-270.340	59.109	0.132	0.129
-269.326	-50.384	0.028	-0.013
-268.311	18.113	-0.129	-0.103
-267.297	-30.450	0.436	-0.246
-266.282	-200.000	0.038	-0.226
-265.267	238.815	0.137	-0.227
-264.253	-200.000	-0.014	-0.147
-263.238	686.557	-0.105	0.274
-262.224	-200.000	-0.015	0.229
-261.209	-41.721	-0.200	-0.102
-260.195	800.000	-0.078	-0.277
-259.180	-200.000	0.084	-0.386
-258.165	80.799	-0.145	-0.156
-257.151	151.838	-0.067	-0.091
-256.136	198.365	-0.125	0.190
-255.122	-200.000	0.033	-0.288
-254.107	72.495	0.135	0.140
-253.092	93.564	-0.065	0.073
-252.078	-200.000	0.013	-0.095
-251.063	799.080	0.084	0.229
-250.049	-35.761	0.266	0.143
-249.034	-8.402	-0.212	0.142
-248.019	-66.589	0.256	-0.101
-247.005	-200.000	-0.042	-0.269
-245.990	-186.344	0.309	0.004
-244.976	-12.551	-0.331	-0.215
-243.961	-157.052	0.186	0.011
-242.946	-149.429	0.183	0.014
-241.932	-194.322	0.225	-0.002
-240.917	-36.405	0.216	-0.116
-239.903	-114.012	0.074	0.014
-238.888	-58.879	0.194	0.084
-237.873	459.883	-0.047	0.105
-236.859	-148.449	0.078	-0.006
-235.844	372.691	-0.077	0.156
-234.830	-85.363	0.210	-0.065
-233.815	60.643	0.215	0.211
-232.800	-200.000	-0.066	0.311
-231.786	-58.691	-0.138	-0.059
-230.771	43.409	0.152	0.138
-229.757	-94.904	0.084	0.023
-228.742	38.742	0.156	-0.138
-227.727	800.000	-0.038	0.120
-226.713	-135.772	-0.125	-0.015
-225.698	-133.810	-0.303	0.038
-224.684	126.364	0.109	0.137
-223.669	53.834	0.098	-0.093
-222.655	321.449	-0.124	0.234
-221.640	217.589	0.124	0.196
-220.625	-18.743	-0.173	0.107
-219.611	-90.984	-0.437	-0.125
-218.596	-154.418	0.145	0.010
-217.582	21.079	0.249	-0.200
-216.567	22.994	-0.165	0.135
-215.552	-177.785	-0.235	0.006
-214.538	-94.516	-0.160	-0.043
-213.523	-200.000	0.060	0.523
-212.509	-101.343	-0.228	0.055
-211.494	221.008	-0.114	-0.182
-210.479	-112.596	0.131	0.026
-209.465	800.000	0.079	-0.242
-208.450	304.166	0.149	-0.275
-207.436	800.000	-0.028	0.096
-206.421	800.000	0.063	0.247
-205.406	19.493	-0.131	0.105
-204.392	800.000	0.054	-0.208
-203.377	-91.225	-0.239	-0.068
-202.363	-21.183	-0.253	-0.153
-201.348	-157.850	-0.071	-0.004
-200.333	-17.676	0.062	0.038
-199.319	131.421	0.119	-0.152
-198.304	-118.194	-0.142	0.025
-197.290	-58.158	0.187	-0.081
-196.275	460.607	0.176	-0.389
-195.260	336.104	-0.150	-0.288
-194.246	169.559	-0.076	-0.108
-193.231	800.000	0.041	0.165
-192.217	-200.000	-0.036	0.298
-191.202	-167.015	0.279	-0.011
-190.187	305.040	0.088	-0.163
-189.173	-78.309	0.190	0.065
-188.158	-200.000	0.020	0.125
-187.144	15.022	0.117	0.091
-186.129	-73.509	-0.381	0.138
-185.114	33.812	0.154	0.133
-184.100	534.131	0.053	0.125
-183.085	161.595	-0.117	-0.162
-182.071	800.000	0.063	-0.224
-181.056	541.179	0.092	-0.218
-180.042	-9.889	0.246	-0.162
-179.027	186.125	-0.214	0.315
-178.012	140.248	-0.222	-0.290
-176.998	317.903	-0.072	0.135
-175.983	-73.783	-0.070	-0.025
-174.969	83.548	0.203	0.220
-173.954	-150.394	0.190	-0.015
-172.939	800.000	-0.023	0.085
-171.925	-29.174	0.090	0.051
-170.910	108.698	0.080	-0.094
-169.896	724.042	-0.062	-0.163
-168.881	362.458	0.083	0.164
-167.866	62.055	-0.110	0.109
-166.852	-120.217	0.284	0.048
-165.837	800.000	-0.068	-0.189
-164.823	-164.032	0.120	-0.006
-163.808	-8.542	-0.287	-0.191
-162.793	-200.000	-0.029	-0.136
-161.779	365.462	0.122	0.243
-160.764	800.000	0.015	0.046
-159.750	236.151	0.109	-0.179
-158.735	0.864	-0.150	-0.107
-157.720	-180.698	-0.145	-0.003
-156.706	367.969	0.019	-0.038
-155.691	128.332	0.121	0.152
-154.677	800.000	0.094	-0.335
-153.662	-200.000	-0.030	0.138
-152.647	-200.000	-0.057	0.315
-151.633	-83.352	-0.160	-0.051
-150.618	134.275	0.061	-0.078
-149.604	-3.669	0.152	0.105
-148.589	424.122	0.077	0.163
-147.574	354.540	-0.094	-0.185
-146.560	-200.000	-0.026	-0.222
-145.545	-200.000	0.031	-0.240
-144.531	327.978	-0.114	0.217
-143.516	-74.708	-0.225	0.080
-142.502	305.220	0.071	-0.130
-141.487	-200.000	0.016	-0.145
-140.472	-200.000	-0.039	-0.228
-139.458	-37.229	-0.211	0.112
-138.443	-41.279	0.059	0.030
-137.429	-200.000	0.008	0.153
-136.414	-75.116	0.308	0.109
-135.399	56.358	-0.102	-0.098
-134.385	-32.634	0.042	-0.023
-133.370	210.447	0.092	-0.143
-132.356	-114.290	0.249	-0.048
-131.341	-200.000	-0.011	-0.291
-130.326	295.623	0.024	-0.043
-129.312	-52.202	-0.055	-0.025
-128.297	-121.959	-0.174	-0.028
-127.283	-134.564	0.032	0.004
-126.268	-162.508	0.127	0.006
-125.253	1.264	0.152	-0.108
-124.239	800.000	-0.060	0.175
-123.224	-120.583	-0.172	-0.029
-122.210	-108.050	-0.337	0.072
