DTS Sentinel unit serial number:	SN413079Multiplexer serial number:	ORYXHardware model number:	OX4-SRSoftware version number:	ORYX F/W v4.00 Oryx Data Collector v3.7.2.0data status	okinstallation	princeton_trtdifferential loss correction	single-endedforward channel	channel 2reverse channel	N/Adate	2019/09/18time	21:43:35forward acquisition time	60.00reverse acquisition time	0.00gamma	496.2192k internal	0.2347k external	0.2347temperature offset calibration	1.0018default loss term (dB/km)	0.3790temperature slope calibration	1.0000multiplexer offset coefficient	1.0000multiplexer slope coefficient	1.0000fibre end	0.00T internal ref (°C)	24.89T ext. ref 1 (°C)	0.81T ext. ref 2 (°C)	18.24length (m)	temperature (°C)	Stokes	anti-Stokes-747.200	-200.000	-0.022	0.357
-746.185	57.866	-0.252	0.247
-745.171	-200.000	-0.034	0.315
-744.156	20.229	0.368	0.297
-743.142	-18.341	0.288	0.180
-742.127	-200.000	0.013	0.122
-741.112	160.568	0.174	0.243
-740.098	38.472	0.255	0.227
-739.083	-200.000	0.009	0.283
-738.069	-106.699	0.216	-0.048
-737.054	-200.000	-0.032	0.197
-736.039	104.292	-0.184	0.216
-735.025	-1.871	0.054	-0.038
-734.010	274.696	0.104	-0.184
-732.996	133.170	-0.195	-0.251
-731.981	800.000	0.011	-0.039
-730.966	-86.722	-0.072	0.022
-729.952	-2.462	-0.409	0.286
-728.937	-200.000	-0.086	-0.424
-727.923	800.000	0.063	-0.196
-726.908	-200.000	-0.018	0.145
-725.894	-200.000	0.000	-0.195
-724.879	377.555	-0.075	-0.153
-723.864	-84.094	0.222	-0.070
-722.850	300.534	-0.030	-0.056
-721.835	-100.208	0.164	-0.041
-720.821	-164.757	-0.441	0.020
-719.806	-155.755	0.168	-0.011
-718.791	-9.031	-0.227	-0.151
-717.777	739.873	0.125	-0.335
-716.762	800.000	0.057	-0.209
-715.748	51.584	-0.107	-0.101
-714.733	-76.449	-0.101	-0.035
-713.718	105.532	-0.039	0.046
-712.704	85.134	0.126	-0.138
-711.689	110.504	0.080	0.096
-710.675	-78.639	-0.240	-0.082
-709.660	196.200	0.244	-0.370
-708.645	161.798	-0.071	0.100
-707.631	147.964	-0.195	-0.263
-706.616	-118.049	0.203	0.036
-705.602	800.000	0.069	0.236
-704.587	-73.031	0.123	0.045
-703.572	-90.021	-0.080	0.023
-702.558	-200.000	-0.045	-0.423
-701.543	-200.000	-0.004	-0.035
-700.529	-135.688	-0.275	0.033
-699.514	586.311	0.072	-0.177
-698.499	-111.009	-0.251	-0.051
-697.485	25.912	-0.198	-0.165
-696.470	800.000	-0.115	-0.331
-695.456	-2.252	-0.313	-0.219
-694.441	-103.796	0.039	-0.009
-693.426	-200.000	-0.047	0.207
-692.412	110.502	0.179	-0.215
-691.397	150.707	-0.043	0.059
-690.383	-200.000	0.002	0.224
-689.368	169.603	0.198	-0.282
-688.354	-200.000	0.007	-0.378
-687.339	-102.514	0.084	0.020
-686.324	-50.539	-0.325	-0.153
-685.310	-148.042	0.110	-0.009
-684.295	-85.593	-0.340	-0.105
-683.281	-135.577	-0.543	0.064
-682.266	-114.452	-0.223	0.043
-681.251	92.163	0.100	0.113
-680.237	-157.050	0.180	0.011
-679.222	-121.686	0.289	-0.048
-678.208	-99.943	-0.132	-0.033
-677.193	-20.247	-0.208	-0.128
-676.178	-128.584	-0.392	-0.055
-675.164	-24.353	-0.166	0.099
-674.149	-200.000	0.086	-0.507
-673.135	-146.470	-0.292	-0.025
-672.120	172.710	-0.107	-0.153
-671.105	153.723	0.227	-0.311
-670.091	-100.601	-0.142	0.035
-669.076	42.812	-0.136	-0.124
-668.062	-24.064	0.064	0.038
-667.047	-200.000	0.000	-0.139
-666.032	441.935	0.165	-0.359
-665.018	174.162	0.217	0.312
-664.003	116.318	-0.034	0.041
-662.989	-131.772	-0.239	0.031
-661.974	-42.106	0.108	0.055
-660.959	800.000	0.035	0.106
-659.945	10.637	0.022	-0.017
-658.930	-200.000	-0.068	-0.372
-657.916	-200.000	0.022	0.301
-656.901	-9.921	0.089	0.059
-655.886	-12.978	0.129	0.084
-654.872	800.000	-0.031	0.108
-653.857	-37.483	-0.153	-0.081
-652.843	160.923	-0.065	-0.091
-651.828	22.285	-0.129	-0.105
-650.814	5.147	0.046	-0.034
-649.799	79.513	-0.207	-0.221
-648.784	-200.000	-0.005	-0.145
-647.770	726.530	0.065	0.172
-646.755	-200.000	-0.003	-0.103
-645.741	327.767	-0.038	-0.073
-644.726	-117.321	-0.421	0.076
-643.711	133.497	-0.075	-0.096
-642.697	800.000	-0.162	0.480
-641.682	301.487	0.169	0.311
-640.668	-200.000	0.004	-0.028
-639.653	-14.443	-0.219	-0.140
-638.638	229.938	0.177	-0.288
-637.624	64.865	0.057	-0.057
-636.609	16.869	0.162	-0.128
-635.595	-200.000	0.019	0.149
-634.580	-200.000	-0.064	0.406
-633.565	94.882	-0.194	0.219
-632.551	-200.000	0.038	0.216
-631.536	-26.860	-0.355	0.206
-630.522	333.647	-0.173	0.333
-629.507	800.000	0.016	0.064
-628.492	800.000	-0.057	-0.193
-627.478	-200.000	-0.004	-0.254
-626.463	-200.000	0.007	0.213
-625.449	271.751	-0.105	0.184
-624.434	472.727	-0.050	-0.111
-623.419	322.797	0.139	-0.263
-622.405	280.626	-0.064	0.113
-621.390	800.000	-0.041	0.152
-620.376	566.919	-0.119	-0.287
-619.361	-66.910	0.183	0.072
-618.346	-10.240	0.229	0.151
-617.332	-42.398	-0.238	0.121
-616.317	-200.000	0.060	0.309
-615.303	-200.000	-0.023	0.175
-614.288	30.864	0.295	-0.251
-613.273	81.361	0.196	-0.210
-612.259	-155.329	0.173	-0.011
-611.244	240.399	0.186	0.308
-610.230	98.367	0.093	0.107
-609.215	12.275	-0.187	-0.143
-608.201	-125.611	-0.443	-0.067
-607.186	-119.745	-0.152	-0.026
-606.171	4.737	0.158	-0.115
-605.157	800.000	-0.086	-0.321
-604.142	800.000	-0.078	-0.225
-603.128	-200.000	0.023	0.180
-602.113	81.684	0.176	-0.189
-601.098	112.613	0.093	0.112
-600.084	800.000	-0.086	-0.243
-599.069	-200.000	0.009	-0.119
-598.055	-88.007	-0.184	0.055
-597.040	-36.409	-0.385	-0.206
-596.025	25.696	-0.038	0.031
-595.011	752.884	0.065	-0.174
-593.996	463.157	-0.112	0.248
-592.982	800.000	-0.082	-0.247
-591.967	21.239	0.089	0.072
-590.952	65.203	0.144	0.145
-589.938	-200.000	-0.053	-0.262
-588.923	487.781	0.094	-0.214
-587.909	595.489	0.009	0.022
-586.894	800.000	0.068	0.232
-585.879	-105.767	0.030	-0.007
-584.865	-16.043	0.072	0.045
-583.850	800.000	-0.020	0.055
-582.836	-71.225	0.103	-0.038
-581.821	262.539	0.076	0.130
-580.806	-200.000	-0.024	0.179
-579.792	301.740	0.150	-0.276
-578.777	147.004	-0.103	-0.138
-577.763	-56.258	0.171	-0.076
-576.748	128.097	-0.044	-0.055
-575.733	-29.938	0.240	0.136
-574.719	-200.000	0.001	-0.167
-573.704	72.901	-0.118	-0.122
-572.690	800.000	0.048	0.146
-571.675	-200.000	0.023	0.141
-570.661	-147.065	0.356	-0.030
-569.646	120.076	-0.222	0.274
-568.631	-31.145	-0.141	-0.079
-567.617	-142.866	0.093	0.009
-566.602	23.190	-0.107	-0.087
-565.588	78.226	-0.138	-0.146
-564.573	-200.000	-0.021	-0.117
-563.558	-110.267	-0.183	0.038
-562.544	339.938	0.138	-0.267
-561.529	-110.986	0.111	-0.023
-560.515	684.168	-0.123	-0.320
-559.500	53.239	-0.348	-0.331
-558.485	-154.227	0.233	-0.016
-557.471	258.137	-0.119	-0.203
-556.456	-200.000	0.031	0.211
-555.442	87.036	0.128	-0.140
-554.427	800.000	-0.119	-0.399
-553.412	127.634	-0.075	-0.095
-552.398	-136.286	-0.337	-0.039
-551.383	-27.983	0.291	0.167
-550.369	-91.031	-0.198	-0.057
-549.354	800.000	0.040	0.157
-548.339	406.762	0.043	-0.090
-547.325	68.215	-0.272	0.277
-546.310	-200.000	0.049	-0.231
-545.296	-131.093	0.206	-0.027
-544.281	-27.012	-0.250	-0.145
-543.266	109.897	0.025	0.030
-542.252	-200.000	0.052	-0.241
-541.237	800.000	0.062	0.232
-540.223	-140.368	0.144	0.015
-539.208	22.345	-0.023	0.019
-538.193	-32.458	0.166	0.092
-537.179	273.663	0.155	-0.272
-536.164	800.000	-0.092	0.290
-535.150	-93.539	-0.201	-0.055
-534.135	800.000	-0.078	-0.226
-533.121	385.989	0.047	-0.096
-532.106	392.156	-0.147	-0.303
-531.091	124.009	0.041	0.051
-530.077	47.823	-0.213	0.197
-529.062	531.790	-0.064	-0.149
-528.048	345.861	-0.090	0.176
-527.033	-25.912	-0.187	-0.109
-526.018	-124.859	0.374	0.057
-525.004	56.457	-0.116	-0.112
-523.989	-25.020	0.342	-0.201
-522.975	-7.846	0.166	0.111
-521.960	800.000	-0.074	0.293
-520.945	234.541	-0.066	-0.108
-519.931	57.662	0.302	0.293
-518.916	-200.000	0.044	-0.256
-517.902	-200.000	0.033	-0.189
-516.887	-200.000	0.022	0.310
-515.872	22.932	-0.558	0.453
-514.858	-98.749	-0.099	-0.025
-513.843	259.963	0.005	-0.009
-512.829	17.407	-0.264	0.208
-511.814	19.741	0.159	-0.127
-510.799	-108.720	-0.138	-0.029
-509.785	328.683	0.135	-0.257
-508.770	33.101	-0.195	0.167
-507.756	194.118	-0.209	0.313
-506.741	418.037	0.099	0.210
-505.726	800.000	-0.095	0.293
-504.712	-200.000	0.044	0.206
-503.697	21.253	0.222	-0.179
-502.683	52.967	0.193	0.183
-501.668	75.258	-0.027	0.028
-500.653	1.511	-0.403	-0.287
-499.639	49.781	0.049	-0.046
-498.624	-1.052	0.137	-0.096
-497.610	-122.974	0.292	-0.047
-496.595	-70.936	0.271	-0.101
-495.581	43.788	-0.165	-0.150
-494.566	544.757	-0.128	-0.302
-493.551	-97.634	-0.091	0.023
-492.537	319.504	-0.148	0.279
-491.522	389.249	-0.093	0.190
-490.508	-149.990	0.497	0.038
-489.493	-49.796	-0.279	0.131
-488.478	-200.000	-0.028	0.122
-487.464	-103.391	0.038	-0.009
-486.449	-200.000	0.002	-0.026
-485.435	800.000	0.117	0.407
-484.420	-52.715	-0.150	-0.069
-483.405	29.384	-0.189	-0.159
-482.391	0.814	0.060	-0.043
-481.376	-27.856	0.289	0.166
-480.362	800.000	-0.116	-0.411
-479.347	800.000	0.024	0.083
-478.332	-200.000	-0.006	0.088
-477.318	-48.187	-0.047	-0.022
-476.303	-67.739	-0.395	0.153
-475.289	-200.000	0.007	-0.207
-474.274	371.465	0.054	-0.109
-473.259	-143.550	-0.036	0.003
-472.245	-0.270	-0.255	0.180
-471.230	-114.337	-0.255	0.049
-470.216	-200.000	-0.079	-0.349
-469.201	163.119	-0.040	-0.055
-468.186	-93.360	-0.450	0.123
-467.172	-200.000	-0.018	0.122
-466.157	-102.829	-0.047	-0.011
-465.143	-9.880	-0.088	-0.058
-464.128	25.129	0.198	0.163
-463.113	276.938	-0.167	0.294
-462.099	-200.000	-0.031	-0.369
-461.084	-17.118	-0.185	-0.115
-460.070	-8.440	0.164	-0.109
-459.055	-200.000	0.002	-0.284
-458.040	-71.648	-0.134	0.049
-457.026	31.891	-0.206	-0.175
-456.011	72.452	0.160	-0.165
-454.997	800.000	-0.084	0.306
-453.982	-200.000	-0.016	0.095
-452.968	81.310	0.083	-0.088
-451.953	-65.806	-0.148	-0.058
-450.938	-200.000	0.016	-0.188
-449.924	105.681	0.191	0.223
-448.909	-71.734	-0.112	0.041
-447.895	443.133	0.024	0.053
-446.880	72.147	0.219	0.225
-445.865	-81.495	0.197	0.064
-444.851	-146.540	-0.185	-0.016
-443.836	491.192	0.107	0.241
-442.822	301.663	0.060	0.110
-441.807	31.555	0.158	0.134
-440.792	222.271	-0.150	-0.238
-439.778	751.332	-0.100	0.267
-438.763	20.691	-0.209	0.167
-437.749	800.000	-0.165	0.554
-436.734	60.131	-0.125	0.122
-435.719	103.871	0.227	-0.264
-434.705	-200.000	0.015	0.282
-433.690	22.338	-0.013	-0.011
-432.676	-109.524	-0.321	0.067
-431.661	-104.356	0.071	-0.016
-430.646	-200.000	0.045	-0.217
-429.632	794.902	0.014	0.039
-428.617	397.516	0.035	0.071
-427.603	-200.000	-0.004	-0.253
-426.588	-98.688	0.059	0.015
-425.573	-106.358	0.132	0.029
-424.559	-95.695	-0.205	-0.054
-423.544	10.094	0.056	0.042
-422.530	170.669	0.079	0.112
-421.515	124.947	0.208	0.259
-420.500	211.995	-0.146	-0.227
-419.486	-200.000	0.007	0.163
-418.471	-29.069	0.288	0.163
-417.457	122.270	-0.045	-0.055
-416.442	-55.087	0.209	-0.093
-415.428	-200.000	-0.012	0.149
-414.413	-200.000	-0.051	-0.350
-413.398	-68.625	0.195	0.074
-412.384	103.203	0.050	-0.058
-411.369	172.739	0.074	-0.106
-410.355	-200.000	-0.001	-0.280
-409.340	385.259	-0.036	0.073
-408.325	800.000	-0.123	0.352
-407.311	800.000	0.038	0.115
-406.296	-101.308	-0.091	-0.022
-405.282	-186.234	0.226	0.003
-404.267	60.376	0.119	-0.117
-403.252	-200.000	0.078	-0.401
-402.238	-3.760	-0.201	-0.138
-401.223	129.426	-0.205	0.258
-400.209	-1.465	-0.068	0.047
-399.194	131.299	0.097	0.123
-398.179	-22.736	0.064	0.038
-397.165	-200.000	-0.025	-0.349
-396.150	102.460	0.087	0.100
-395.136	449.343	0.030	0.065
-394.121	97.489	-0.086	-0.097
-393.106	-18.465	0.167	-0.103
-392.092	239.287	-0.111	0.182
-391.077	108.790	-0.330	0.389
-390.063	227.163	0.092	0.147
-389.048	-169.083	-0.322	0.012
-388.033	-42.122	-0.138	-0.070
-387.019	128.609	0.231	0.291
-386.004	-74.590	0.131	0.046
-384.990	-200.000	-0.012	0.132
-383.975	-72.109	-0.270	-0.099
-382.960	-200.000	-0.036	-0.283
-381.946	800.000	0.107	-0.388
-380.931	543.104	0.087	-0.205
-379.917	43.816	0.214	0.193
-378.902	-95.597	-0.116	0.031
-377.888	-53.892	0.404	-0.181
-376.873	-16.359	-0.297	-0.185
-375.858	144.716	0.163	-0.214
-374.844	111.215	0.106	-0.126
-373.829	-88.233	0.126	-0.037
-372.815	-111.653	-0.157	0.031
-371.800	-84.025	0.299	-0.094
-370.785	-75.065	-0.268	-0.094
-369.771	-79.579	0.219	-0.073
-368.756	-200.000	-0.013	0.108
-367.742	434.500	-0.145	0.310
-366.727	-73.994	-0.167	0.060
-365.712	-138.567	0.063	0.007
-364.698	-200.000	0.004	0.144
-363.683	-171.836	0.335	0.011
-362.669	-200.000	0.066	-0.354
-361.654	28.343	0.087	0.072
-360.639	157.184	-0.072	0.098
-359.625	-152.154	0.042	-0.003
-358.610	-92.529	-0.136	0.038
-357.596	-200.000	0.017	0.096
-356.581	-147.275	-0.149	-0.012
-355.566	-200.000	0.011	0.316
-354.552	180.289	0.205	0.295
-353.537	309.263	-0.020	-0.038
-352.523	-200.000	0.015	0.088
-351.508	125.773	0.172	-0.214
-350.493	-200.000	0.011	0.283
-349.479	-200.000	-0.009	0.223
-348.464	800.000	-0.130	0.404
-347.450	-49.471	0.225	0.106
-346.435	-151.180	-0.388	0.029
-345.420	111.249	-0.248	-0.295
-344.406	-158.935	0.434	0.024
-343.391	315.048	0.072	-0.134
-342.377	-57.382	-0.381	0.165
-341.362	-200.000	-0.007	0.179
-340.348	110.852	0.127	0.150
-339.333	-1.938	0.129	0.089
-338.318	276.821	0.039	-0.068
-337.304	74.696	-0.108	-0.112
-336.289	136.303	-0.108	-0.139
-335.275	-74.583	0.244	0.086
-334.260	22.800	0.068	0.055
-333.245	-13.846	0.160	0.102
-332.231	574.632	-0.124	-0.297
-331.216	-200.000	-0.058	0.303
-330.202	-12.379	-0.173	0.111
-329.187	80.240	-0.134	-0.142
-328.172	230.976	0.013	0.021
-327.158	-200.000	0.036	-0.280
-326.143	-200.000	0.023	-0.154
-325.129	-200.000	0.019	0.187
-324.114	-200.000	0.026	0.313
-323.099	36.660	-0.133	0.115
-322.085	-200.000	-0.017	0.281
-321.070	-200.000	-0.018	0.129
-320.056	-200.000	-0.021	0.252
-319.041	-200.000	0.026	0.155
-318.026	-102.288	0.110	-0.026
-317.012	-56.075	0.103	-0.045
-315.997	-109.219	-0.252	-0.053
-314.983	800.000	-0.058	0.209
-313.968	58.305	0.299	-0.289
-312.953	-58.092	-0.194	0.083
-311.939	289.894	0.097	0.174
-310.924	87.024	-0.251	-0.273
-309.910	800.000	-0.041	-0.153
-308.895	-29.192	-0.250	0.141
-307.880	-200.000	0.070	-0.340
-306.866	-200.000	-0.029	0.199
-305.851	12.877	-0.244	0.185
-304.837	12.165	0.353	0.267
-303.822	26.466	-0.295	0.243
-302.807	-119.171	0.107	-0.018
-301.793	-200.000	0.013	0.071
-300.778	-45.905	0.034	-0.016
-299.764	-34.668	-0.212	-0.114
-298.749	-94.572	-0.165	0.044
-297.735	-77.132	-0.147	-0.050
-296.720	800.000	-0.023	-0.085
-295.705	-83.890	-0.296	-0.092
-294.691	4.692	0.257	-0.186
-293.676	-200.000	-0.010	0.158
-292.662	133.526	-0.068	0.086
-291.647	-127.110	-0.073	-0.011
-290.632	264.775	0.047	0.080
-289.618	313.514	-0.106	-0.195
-288.603	118.359	0.205	-0.249
-287.589	-84.505	0.415	0.129
-286.574	-70.045	-0.202	-0.075
-285.559	-78.340	0.130	-0.044
-284.545	800.000	0.017	-0.058
-283.530	439.417	-0.176	0.376
-282.516	-200.000	-0.034	-0.197
-281.501	9.135	0.216	0.160
-280.486	-70.680	0.176	-0.065
-279.472	-200.000	-0.027	-0.187
-278.457	335.085	0.065	0.124
-277.443	-34.247	-0.186	-0.100
-276.428	-200.000	-0.016	0.098
-275.413	-36.162	0.135	0.071
-274.399	421.722	0.083	0.175
-273.384	-200.000	-0.030	0.265
-272.370	-46.946	-0.062	-0.030
-271.355	343.724	0.027	0.051
-270.340	-119.317	0.114	0.020
-269.326	560.607	0.098	-0.232
-268.311	-200.000	-0.015	0.236
-267.297	-117.265	0.301	0.054
-266.282	190.302	0.038	-0.056
-265.267	-10.767	-0.137	-0.089
-264.253	-200.000	-0.025	0.174
-263.238	2.670	0.267	-0.190
-262.224	171.690	-0.113	0.160
-261.209	-36.921	0.200	0.105
-260.195	555.830	0.070	0.165
-259.180	-200.000	-0.042	-0.302
-258.165	360.280	-0.085	-0.167
-257.151	800.000	-0.207	-0.566
-256.136	-6.680	-0.209	-0.139
-255.122	13.890	-0.181	0.138
-254.107	-109.791	-0.070	0.014
-253.092	-200.000	-0.011	0.269
-252.078	17.218	0.146	0.114
-251.063	-34.854	0.488	0.261
-250.049	-200.000	0.446	-0.000
-249.034	-200.000	0.008	-0.300
-248.019	655.632	0.049	0.123
-247.005	-22.371	-0.252	-0.150
-245.990	234.510	0.031	-0.051
-244.976	36.741	0.104	0.090
-243.961	51.606	0.238	-0.222
-242.946	-159.437	0.269	-0.015
-241.932	-96.238	-0.226	-0.059
-240.917	-200.000	-0.043	-0.349
-239.903	-88.526	-0.095	0.028
-238.888	2.755	0.101	-0.072
-237.873	473.330	-0.169	0.374
-236.859	62.889	0.212	0.207
-235.844	-46.780	-0.193	-0.092
-234.830	800.000	0.090	0.329
-233.815	-200.000	0.017	0.102
-232.800	148.430	0.061	-0.081
-231.786	-200.000	0.013	0.303
-230.771	549.574	0.037	-0.088
-229.757	-26.370	-0.180	-0.104
-228.742	51.514	0.202	-0.188
-227.727	-168.671	-0.179	0.007
-226.713	21.300	0.050	0.040
-225.698	-11.629	0.169	-0.109
-224.684	800.000	0.047	-0.163
-223.669	-5.198	0.126	0.085
-222.655	106.531	0.049	0.057
-221.640	626.805	-0.145	-0.358
-220.625	-138.716	0.164	-0.018
-219.611	-67.013	0.129	0.050
-218.596	-19.076	-0.106	-0.065
-217.582	800.000	0.089	-0.350
-216.567	-200.000	-0.023	0.137
-215.552	24.819	-0.224	0.182
-214.538	800.000	-0.056	0.176
-213.523	-129.555	0.202	0.027
-212.509	-200.000	0.003	-0.396
-211.494	-200.000	-0.006	0.173
-210.479	-43.375	0.202	-0.100
-209.465	-132.187	-0.329	-0.042
-208.450	114.822	0.098	0.117
-207.436	309.512	0.137	0.251
-206.421	-200.000	0.015	-0.116
-205.406	328.806	-0.074	0.139
-204.392	800.000	-0.092	-0.342
-203.377	-200.000	0.165	0.001
-202.363	-76.519	0.218	0.075
-201.348	-200.000	0.000	0.083
-200.333	800.000	-0.077	-0.285
-199.319	323.577	0.017	0.031
-198.304	113.674	0.229	-0.272
-197.290	-17.860	0.222	-0.136
-196.275	800.000	-0.112	-0.320
-195.260	-25.246	0.244	0.142
-194.246	-66.123	0.221	-0.086
-193.231	-110.811	-0.225	-0.045
-192.217	-98.317	0.460	0.115
-191.202	800.000	-0.068	0.265
-190.187	-17.696	-0.231	-0.142
-189.173	371.651	-0.091	-0.181
-188.158	-193.738	-0.147	-0.001
-187.144	-200.000	0.077	-0.412
-186.129	-200.000	0.048	0.396
-185.114	101.227	-0.158	-0.180
-184.100	50.001	0.037	0.035
-183.085	476.723	-0.079	0.175
-182.071	-200.000	0.023	0.415
-181.056	416.553	0.187	0.389
-180.042	29.773	0.025	0.021
-179.027	-200.000	0.020	-0.198
-178.012	173.265	-0.105	-0.148
-176.998	133.450	-0.151	-0.191
-175.983	8.290	0.278	0.204
-174.969	107.832	0.104	0.121
-173.954	-50.044	-0.126	-0.058
-172.939	-200.000	-0.004	-0.135
-171.925	109.665	-0.110	-0.129
-170.910	-183.026	0.300	-0.005
-169.896	246.872	-0.239	-0.394
-168.881	-200.000	-0.056	-0.378
-167.866	0.190	-0.171	-0.119
-166.852	-164.451	-0.217	-0.010
-165.837	-42.743	-0.198	0.098
-164.823	-40.473	-0.108	0.055
-163.808	-70.222	0.365	0.136
-162.793	531.101	0.097	0.223
-161.779	-149.238	0.447	-0.035
-160.764	800.000	0.091	-0.302
-159.750	-51.077	-0.191	-0.087
-158.735	-113.182	0.233	-0.045
-157.720	-200.000	-0.009	-0.054
-156.706	-200.000	-0.051	-0.279
-155.691	-82.599	0.147	0.047
-154.677	-145.202	0.215	-0.019
-153.662	800.000	0.142	-0.392
-152.647	37.115	0.148	-0.128
-151.633	-26.929	-0.168	-0.096
-150.618	353.541	0.195	-0.378
-149.604	296.093	0.135	-0.242
-148.589	70.696	-0.391	0.395
-147.574	-200.000	0.033	-0.146
-146.560	-182.078	-0.389	-0.007
-145.545	41.018	0.305	0.269
-144.531	800.000	-0.084	0.232
-143.516	-88.771	-0.143	0.041
-142.502	-200.000	-0.005	0.070
-141.487	-91.890	-0.187	0.052
-140.472	784.062	-0.061	-0.163
-139.458	-38.164	-0.238	0.123
-138.443	-134.219	0.359	0.043
-137.429	800.000	-0.035	-0.135
-136.414	-200.000	-0.018	0.341
-135.399	25.733	-0.073	-0.060
-134.385	-114.601	0.095	0.018
-133.370	110.955	0.139	0.163
-132.356	239.674	-0.091	0.148
-131.341	-55.427	0.342	-0.150
-130.326	-60.529	0.166	0.069
-129.312	-75.362	-0.070	0.024
-128.297	800.000	0.051	0.173
-127.283	800.000	0.044	0.149
-126.268	-105.848	-0.149	-0.033
-125.253	6.204	-0.020	-0.015
-124.239	85.990	0.411	0.442
-123.224	304.617	-0.128	-0.232
-122.210	109.439	-0.205	0.240
-121.195	-126.558	-0.032	0.005
