DTS Sentinel unit serial number:	SN413079Multiplexer serial number:	ORYXHardware model number:	OX4-SRSoftware version number:	ORYX F/W v4.00 Oryx Data Collector v3.7.2.0data status	okinstallation	princeton_trtdifferential loss correction	single-endedforward channel	channel 2reverse channel	N/Adate	2019/09/17time	18:35:34forward acquisition time	60.00reverse acquisition time	0.00gamma	496.2192k internal	0.2290k external	0.2290temperature offset calibration	0.9978default loss term (dB/km)	0.3790temperature slope calibration	1.0000multiplexer offset coefficient	1.0000multiplexer slope coefficient	1.0000fibre end	0.00T internal ref (°C)	42.80T ext. ref 1 (°C)	0.29T ext. ref 2 (°C)	35.49length (m)	temperature (°C)	Stokes	anti-Stokes-747.200	176.538	0.085	-0.127
-746.185	-6.507	0.123	0.086
-745.171	-98.245	-0.256	0.067
-744.156	-125.136	-0.252	0.040
-743.142	-200.000	-0.043	-0.318
-742.127	-200.000	-0.042	0.317
-741.112	-6.904	0.144	-0.100
-740.098	241.487	0.022	0.038
-739.083	-200.000	0.023	-0.387
-738.069	395.449	-0.076	0.163
-737.054	29.129	-0.150	-0.131
-736.039	-19.447	0.131	0.083
-735.025	-200.000	0.011	0.382
-734.010	-92.862	-0.262	-0.075
-732.996	-124.926	-0.104	0.016
-731.981	-150.528	0.203	-0.016
-730.966	691.549	0.068	-0.183
-729.952	-14.956	0.374	0.245
-728.937	5.033	-0.368	-0.277
-727.923	-82.197	0.354	-0.118
-726.908	-200.000	0.005	0.201
-725.894	-8.512	-0.266	-0.183
-724.879	674.167	0.021	-0.056
-723.864	49.176	0.052	0.050
-722.850	188.758	0.216	-0.330
-721.835	140.669	-0.179	-0.242
-720.821	-200.000	0.014	-0.114
-719.806	-200.000	-0.015	-0.108
-718.791	409.763	0.109	0.236
-717.777	-196.594	0.148	0.001
-716.762	-200.000	0.033	0.296
-715.748	-200.000	-0.022	-0.369
-714.733	-150.638	-0.129	-0.010
-713.718	-200.000	0.015	-0.152
-712.704	331.833	-0.100	-0.197
-711.689	-63.920	-0.040	0.017
-710.675	-73.670	-0.135	0.050
-709.660	-200.000	0.033	0.248
-708.645	41.072	0.233	-0.216
-707.631	63.233	0.150	0.154
-706.616	-165.619	-0.143	-0.006
-705.602	-60.148	0.092	-0.040
-704.587	84.153	0.063	0.070
-703.572	17.033	0.154	-0.124
-702.558	20.077	0.092	0.076
-701.543	-122.465	-0.297	-0.049
-700.529	119.301	0.103	0.130
-699.514	-66.613	0.180	-0.073
-698.499	-47.279	0.101	-0.050
-697.485	-200.000	0.019	-0.196
-696.470	-50.469	0.169	-0.081
-695.456	247.916	-0.218	-0.377
-694.441	800.000	0.116	0.339
-693.426	-200.000	-0.002	-0.058
-692.412	-200.000	-0.042	-0.253
-691.397	29.856	0.143	0.125
-690.383	-174.046	-0.192	-0.006
-689.368	-140.956	0.513	-0.054
-688.354	-200.000	-0.018	-0.129
-687.339	58.969	-0.265	-0.266
-686.324	-68.481	0.114	-0.045
-685.310	59.264	-0.078	-0.078
-684.295	-200.000	-0.027	0.255
-683.281	-43.373	-0.594	-0.307
-682.266	33.171	0.188	-0.167
-681.251	-139.951	-0.370	-0.040
-680.237	-50.209	-0.145	0.070
-679.222	271.344	-0.157	-0.282
-678.208	53.081	0.248	-0.243
-677.193	275.434	-0.096	0.174
-676.178	45.836	0.262	-0.248
-675.164	-58.811	0.152	-0.067
-674.149	-146.517	-0.161	-0.014
-673.135	-17.796	-0.104	0.067
-672.120	800.000	0.019	0.079
-671.105	42.199	-0.164	-0.152
-670.091	147.043	-0.065	-0.090
-669.076	114.232	0.217	0.270
-668.062	-94.891	0.142	-0.039
-667.047	167.616	-0.072	-0.105
-666.032	-135.811	-0.366	0.044
-665.018	376.872	0.048	-0.100
-664.003	73.777	-0.135	-0.145
-662.989	800.000	0.089	-0.255
-661.974	66.972	-0.076	0.079
-660.959	-22.112	-0.248	-0.154
-659.945	-81.971	0.127	-0.042
-658.930	5.984	-0.337	0.255
-657.916	89.233	0.294	0.335
-656.901	-95.145	0.256	-0.070
-655.886	101.979	0.150	0.179
-654.872	800.000	0.086	0.266
-653.857	88.291	-0.318	-0.361
-652.843	-55.994	-0.236	-0.107
-651.828	39.093	-0.144	0.131
-650.814	-128.182	0.181	-0.026
-649.799	138.510	0.062	-0.083
-648.784	16.504	-0.117	-0.094
-647.770	84.573	-0.109	-0.122
-646.755	800.000	-0.027	-0.083
-645.741	1.616	-0.249	-0.183
-644.726	-37.811	0.217	0.118
-643.711	-83.751	0.202	-0.066
-642.697	139.826	0.179	0.240
-641.682	-71.939	-0.098	0.037
-640.668	-200.000	-0.022	-0.132
-639.653	-200.000	0.043	-0.268
-638.638	106.723	-0.162	-0.196
-637.624	358.116	-0.135	-0.276
-636.609	-110.468	0.279	-0.059
-635.595	-91.852	0.271	-0.079
-634.580	-200.000	-0.028	0.335
-633.565	-87.992	-0.177	0.054
-632.551	-18.667	-0.199	0.127
-631.536	6.962	0.148	-0.113
-630.522	346.178	0.035	0.071
-629.507	-52.454	-0.226	0.107
-628.492	-200.000	0.004	0.072
-627.478	200.366	0.064	0.100
-626.463	-200.000	0.004	-0.059
-625.449	-10.433	-0.142	0.096
-624.434	69.483	-0.060	0.063
-623.419	800.000	0.038	-0.133
-622.405	-71.557	0.173	0.066
-621.390	165.644	-0.162	-0.234
-620.376	12.051	0.142	0.111
-619.361	-75.535	-0.209	-0.076
-618.346	-200.000	0.032	-0.388
-617.332	-200.000	0.016	-0.149
-616.317	-200.000	0.004	-0.060
-615.303	-200.000	0.010	-0.106
-614.288	-65.063	0.227	-0.093
-613.273	-200.000	-0.025	-0.275
-612.259	42.907	-0.198	-0.184
-611.244	-179.830	-0.197	0.004
-610.230	-153.107	-0.114	-0.008
-609.215	532.818	-0.036	0.088
-608.201	-200.000	-0.462	0.001
-607.186	211.518	-0.101	-0.162
-606.171	4.831	0.339	0.254
-605.157	458.861	-0.104	-0.236
-604.142	54.338	-0.278	-0.273
-603.128	800.000	0.073	-0.314
-602.113	-182.009	-0.155	-0.003
-601.098	-200.000	0.028	-0.150
-600.084	-7.150	0.347	0.240
-599.069	4.243	-0.087	0.065
-598.055	32.271	0.155	-0.136
-597.040	-200.000	0.076	-0.386
-596.025	-15.657	-0.157	-0.102
-595.011	25.760	-0.263	-0.223
-593.996	213.490	0.057	-0.092
-592.982	-127.659	-0.239	0.035
-591.967	353.441	0.130	-0.263
-590.952	113.746	0.193	-0.238
-589.938	15.738	0.285	-0.228
-588.923	800.000	-0.028	0.115
-587.909	-168.878	-0.321	0.012
-586.894	-200.000	0.026	-0.227
-585.879	111.944	-0.088	-0.108
-584.865	52.019	0.070	0.067
-583.850	-200.000	0.045	0.387
-582.836	256.950	0.057	-0.100
-581.821	53.251	0.121	-0.118
-580.806	91.048	0.256	0.292
-579.792	191.162	0.031	-0.048
-578.777	108.587	0.011	0.013
-577.763	-137.539	0.266	0.031
-576.748	-58.205	-0.127	0.056
-575.733	800.000	0.160	-0.519
-574.719	55.738	-0.138	-0.136
-573.704	-38.574	-0.118	0.063
-572.690	800.000	-0.027	0.081
-571.675	-20.709	0.110	-0.069
-570.661	-9.595	0.117	-0.079
-569.646	-113.435	-0.134	0.027
-568.631	800.000	0.042	0.186
-567.617	-200.000	-0.031	0.141
-566.602	800.000	0.041	-0.121
-565.588	-61.549	-0.283	-0.121
-564.573	89.829	0.258	-0.293
-563.558	416.548	0.163	-0.354
-562.544	171.864	0.183	-0.268
-561.529	484.015	-0.020	0.045
-560.515	-46.975	0.371	0.184
-559.500	-200.000	0.021	0.096
-558.485	541.873	-0.065	0.158
-557.471	125.550	0.135	-0.173
-556.456	-200.000	-0.015	-0.182
-555.442	-200.000	0.015	-0.113
-554.427	800.000	-0.087	0.320
-553.412	-200.000	-0.010	0.093
-552.398	512.182	-0.044	-0.103
-551.383	67.834	-0.214	0.223
-550.369	-200.000	-0.035	0.290
-549.354	-144.739	-0.152	0.014
-548.339	-200.000	0.027	0.257
-547.325	-107.924	-0.290	0.064
-546.310	24.524	0.255	-0.215
-545.296	28.149	-0.259	0.222
-544.281	-102.449	-0.130	-0.032
-543.266	-102.001	0.152	-0.037
-542.252	800.000	0.047	-0.173
-541.237	581.908	-0.129	0.321
-540.223	-10.762	0.148	-0.099
-539.208	-105.352	0.039	-0.009
-538.193	-6.492	0.139	0.096
-537.179	334.996	0.027	0.054
-536.164	-23.606	-0.224	0.136
-535.150	-98.250	0.185	-0.048
-534.135	-200.000	-0.043	-0.193
-533.121	-86.876	0.174	0.054
-532.106	89.516	-0.085	0.097
-531.091	-200.000	-0.006	0.145
-530.077	-179.249	-0.192	0.004
-529.062	-103.270	0.101	-0.024
-528.048	-117.104	-0.192	-0.036
-527.033	135.395	0.185	-0.244
-526.018	182.684	-0.061	-0.092
-525.004	800.000	0.055	-0.157
-523.989	-156.398	0.157	0.010
-522.975	-20.898	-0.460	-0.286
-521.960	81.096	0.127	0.140
-520.945	210.278	0.110	-0.175
-519.931	92.343	0.236	0.270
-518.916	-5.001	0.375	-0.262
-517.902	2.952	-0.070	-0.052
-516.887	-63.278	0.227	0.095
-515.872	800.000	-0.100	0.357
-514.858	80.354	0.146	0.160
-513.843	123.309	0.191	0.244
-512.829	-46.760	-0.168	0.084
-511.814	-200.000	-0.028	0.336
-510.799	187.504	-0.229	0.347
-509.785	25.970	-0.247	-0.209
-508.770	-11.492	-0.166	0.111
-507.756	64.275	-0.233	0.238
-506.741	-158.276	0.386	-0.023
-505.726	-200.000	0.005	0.050
-504.712	252.680	0.128	0.221
-503.697	69.294	0.274	-0.286
-502.683	41.117	-0.100	0.091
-501.668	-124.683	0.105	-0.017
-500.653	21.520	0.190	0.157
-499.639	411.275	0.016	0.034
-498.624	-200.000	-0.023	-0.154
-497.610	175.602	0.014	-0.021
-496.595	-119.085	0.102	-0.018
-495.581	-143.677	0.151	-0.015
-494.566	379.943	-0.035	-0.073
-493.551	38.482	-0.162	-0.147
-492.537	42.028	-0.308	0.284
-491.522	476.245	-0.060	-0.138
-490.508	800.000	-0.080	-0.241
-489.493	64.203	-0.235	-0.240
-488.478	251.794	-0.132	-0.228
-487.464	-187.166	0.137	-0.002
-486.449	72.169	-0.139	-0.147
-485.435	-65.831	0.261	-0.106
-484.420	-157.353	0.075	0.005
-483.405	-51.783	-0.166	0.079
-482.391	13.395	-0.018	-0.014
-481.376	-34.978	0.179	0.099
-480.362	-200.000	0.016	0.218
-479.347	800.000	0.022	-0.074
-478.332	87.551	-0.060	-0.067
-477.318	215.611	0.113	0.182
-476.303	379.582	0.060	0.125
-475.289	-155.464	0.215	-0.014
-474.274	800.000	-0.049	0.196
-473.259	-106.152	0.238	-0.054
-472.245	25.326	-0.270	-0.227
-471.230	-200.000	-0.033	0.432
-470.216	-34.004	0.161	-0.090
-469.201	-135.949	-0.347	0.041
-468.186	-168.902	0.202	0.008
-467.172	-200.000	0.006	-0.162
-466.157	800.000	0.132	0.371
-465.143	385.085	-0.117	-0.245
-464.128	-200.000	0.022	0.119
-463.113	-125.331	-0.346	-0.054
-462.099	-200.000	-0.044	0.200
-461.084	248.334	0.117	-0.201
-460.070	-200.000	0.009	-0.268
-459.055	56.888	-0.123	-0.122
-458.040	-71.225	0.215	-0.082
-457.026	624.016	0.024	-0.060
-456.011	231.590	-0.067	-0.111
-454.997	-200.000	0.227	-0.000
-453.982	-26.442	-0.125	0.074
-452.968	-200.000	-0.009	-0.131
-451.953	33.059	0.231	-0.202
-450.938	-34.355	-0.394	0.219
-449.924	-200.000	-0.007	0.428
-448.909	444.990	-0.161	-0.358
-447.895	-130.260	-0.216	0.030
-446.880	-55.511	0.183	0.083
-445.865	101.333	-0.118	0.140
-444.851	24.809	-0.073	0.061
-443.836	800.000	0.023	0.072
-442.822	266.797	0.144	0.255
-441.807	73.880	-0.213	-0.226
-440.792	-200.000	0.024	-0.208
-439.778	-200.000	0.014	0.166
-438.763	151.140	-0.109	0.150
-437.749	341.121	0.044	0.087
-436.734	-47.615	-0.071	0.035
-435.719	-107.521	0.120	0.027
-434.705	227.403	0.123	0.202
-433.690	-4.819	0.189	0.132
-432.676	-63.709	-0.252	-0.104
-431.661	-99.727	0.094	0.024
-430.646	175.361	0.159	0.233
-429.632	59.901	-0.199	0.199
-428.617	67.451	-0.420	-0.434
-427.603	-200.000	-0.015	-0.250
-426.588	-5.637	0.263	0.183
-425.573	-124.565	0.253	-0.040
-424.559	204.255	-0.123	-0.193
-423.544	-200.000	0.095	-0.441
-422.530	-39.564	-0.087	-0.046
-421.515	767.279	-0.078	0.214
-420.500	-118.876	-0.343	0.061
-419.486	403.624	0.047	0.101
-418.471	-113.188	-0.262	0.052
-417.457	-72.762	0.235	-0.088
-416.442	-145.253	-0.314	-0.029
-415.428	-184.276	-0.230	0.004
-414.413	-21.390	-0.377	-0.232
-413.398	-134.382	-0.112	0.014
-412.384	-43.099	0.148	0.076
-411.369	161.274	0.093	0.131
-410.355	-200.000	0.024	0.324
-409.340	-0.493	0.252	0.181
-408.325	143.758	0.067	0.090
-407.311	-26.593	-0.309	0.183
-406.296	268.857	0.144	0.255
-405.282	800.000	-0.033	-0.095
-404.267	-93.733	-0.159	-0.044
-403.252	97.735	-0.167	-0.194
-402.238	310.850	-0.099	0.188
-401.223	-29.100	0.112	-0.065
-400.209	35.377	0.064	-0.056
-399.194	41.639	-0.333	-0.305
-398.179	-141.743	0.238	0.024
-397.165	-200.000	-0.033	-0.325
-396.150	-200.000	0.301	0.001
-395.136	782.195	0.120	-0.332
-394.121	-3.122	0.096	0.067
-393.106	800.000	-0.041	-0.154
-392.092	800.000	0.076	-0.296
-391.077	-200.000	-0.022	-0.309
-390.063	-200.000	-0.048	-0.525
-389.048	-97.661	0.151	0.039
-388.033	800.000	-0.118	0.387
-387.019	391.462	0.125	0.261
-386.004	76.210	0.104	0.111
-384.990	53.046	-0.174	0.168
-383.975	-127.473	0.437	0.064
-382.960	105.569	-0.119	-0.142
-381.946	67.037	0.162	0.167
-380.931	468.803	0.153	0.346
-379.917	37.001	0.109	-0.098
-378.902	131.435	0.094	-0.123
-377.888	-200.000	0.064	0.376
-376.873	-67.984	0.144	0.057
-375.858	800.000	0.032	0.129
-374.844	-200.000	-0.023	0.432
-373.829	461.337	-0.146	0.329
-372.815	-200.000	-0.000	-0.143
-371.800	-169.714	0.133	-0.005
-370.785	179.758	0.245	-0.362
-369.771	-200.000	-0.019	0.245
-368.756	-200.000	0.005	0.077
-367.742	-200.000	0.002	-0.046
-366.727	-200.000	-0.002	-0.136
-365.712	-200.000	-0.043	-0.239
-364.698	-149.396	0.058	-0.005
-363.683	-126.091	0.286	0.043
-362.669	-200.000	0.022	0.218
-361.654	-26.773	0.132	0.078
-360.639	-200.000	-0.010	0.114
-359.625	624.071	-0.037	-0.093
-358.610	-88.709	-0.190	-0.057
-357.596	-200.000	0.028	-0.141
-356.581	800.000	0.030	-0.107
-355.566	251.924	0.031	0.054
-354.552	199.986	0.130	-0.201
-353.537	163.259	-0.104	0.148
-352.523	112.955	0.188	-0.230
-351.508	-30.833	-0.182	-0.104
-350.493	182.309	0.153	0.228
-349.479	-32.626	0.130	0.073
-348.464	86.043	0.086	-0.095
-347.450	166.722	0.154	-0.220
-346.435	35.331	0.170	-0.150
-345.420	-156.190	-0.278	0.018
-344.406	-31.254	0.287	-0.163
-343.391	-156.010	-0.079	0.005
-342.377	-37.254	-0.142	0.076
-341.362	148.667	0.047	0.065
-340.348	-200.000	0.015	-0.154
-339.333	-132.267	0.101	0.013
-338.318	-200.000	0.013	0.111
-337.304	444.990	0.125	0.277
-336.289	-200.000	0.018	0.119
-335.275	183.818	0.132	-0.197
-334.260	-200.000	0.047	0.242
-333.245	-200.000	0.020	0.426
-332.231	11.617	0.031	-0.024
-331.216	-78.604	0.070	-0.024
-330.202	-200.000	0.023	-0.116
-329.187	-21.097	-0.153	-0.094
-328.172	46.636	-0.045	-0.042
-327.158	-93.650	-0.185	0.051
-326.143	63.942	0.096	0.097
-325.129	67.420	-0.216	0.222
-324.114	-129.705	-0.153	-0.021
-323.099	-158.490	-0.119	-0.007
-322.085	-62.442	0.174	-0.073
-321.070	-154.835	-0.314	0.021
-320.056	607.341	0.037	0.093
-319.041	-93.618	-0.138	0.038
-318.026	-140.465	0.353	0.037
-317.012	87.103	0.220	-0.245
-315.997	-200.000	0.033	-0.306
-314.983	-179.431	0.436	0.010
-313.968	70.747	-0.073	0.076
-312.953	91.971	-0.120	0.136
-311.939	597.675	-0.101	0.252
-310.924	78.579	0.139	0.150
-309.910	-105.660	0.223	0.051
-308.895	-137.917	-0.177	0.020
-307.880	-114.388	-0.298	0.058
-306.866	-162.447	-0.270	-0.013
-305.851	228.137	0.051	-0.084
-304.837	62.616	-0.194	0.195
-303.822	20.661	0.153	0.124
-302.807	-68.900	0.073	0.028
-301.793	201.450	0.185	-0.287
-300.778	641.429	0.027	0.070
-299.764	-129.004	-0.166	0.023
-298.749	206.088	-0.096	-0.150
-297.735	560.143	-0.237	0.576
-296.720	322.859	-0.251	0.481
-295.705	301.646	0.145	0.270
-294.691	-52.213	-0.290	0.136
-293.676	800.000	-0.065	0.181
-292.662	-102.888	-0.261	-0.063
-291.647	479.374	0.102	0.232
-290.632	608.831	0.150	-0.376
-289.618	-13.521	-0.174	-0.113
-288.603	-69.931	0.141	-0.054
-287.589	41.219	0.099	0.090
-286.574	-132.454	-0.108	-0.014
-285.559	-40.865	-0.221	-0.115
-284.545	332.998	-0.071	-0.137
-283.530	-67.700	0.236	-0.093
-282.516	-39.925	0.116	-0.061
-281.501	630.178	-0.060	-0.153
-280.486	-72.144	0.142	0.053
-279.472	9.232	-0.314	-0.239
-278.457	-136.634	-0.183	-0.021
-277.443	-25.389	0.063	-0.038
-276.428	-17.249	0.273	0.173
-275.413	161.340	-0.111	-0.156
-274.399	760.188	-0.048	-0.132
-273.384	-73.554	0.271	0.099
-272.370	-38.389	-0.116	0.062
-271.355	-18.814	-0.250	0.156
-270.340	800.000	0.033	-0.143
-269.326	28.217	0.170	0.145
-268.311	-200.000	-0.061	-0.346
-267.297	84.796	-0.077	-0.084
-266.282	32.790	-0.207	0.180
-265.267	-174.862	-0.141	0.004
-264.253	-112.837	0.300	-0.060
-263.238	140.726	-0.090	0.119
-262.224	-12.641	0.289	-0.189
-261.209	-200.000	0.023	-0.123
-260.195	189.608	-0.136	0.205
-259.180	-62.513	-0.112	0.047
-258.165	-74.227	-0.144	-0.052
-257.151	106.852	0.072	0.086
-256.136	-33.023	-0.206	-0.115
-255.122	750.452	0.019	0.052
-254.107	-27.985	-0.150	-0.087
-253.092	800.000	-0.068	-0.189
-252.078	800.000	-0.076	-0.292
-251.063	-200.000	0.015	-0.239
-250.049	-200.000	0.003	0.057
-249.034	-112.636	0.363	-0.073
-248.019	-200.000	-0.021	0.240
-247.005	800.000	0.080	0.244
-245.990	-35.782	-0.216	0.117
-244.976	-75.413	0.322	0.115
-243.961	-173.916	0.196	0.006
-242.946	-118.625	-0.031	0.005
-241.932	145.407	-0.072	-0.097
-240.917	-76.570	0.083	0.029
-239.903	-200.000	0.050	-0.235
-238.888	24.708	0.137	-0.114
-237.873	-54.365	0.211	-0.096
-236.859	18.491	-0.168	0.134
-235.844	-121.107	-0.217	-0.036
-234.830	302.019	-0.211	-0.391
-233.815	188.409	-0.035	-0.052
-232.800	623.150	0.186	0.470
-231.786	540.601	-0.059	0.141
-230.771	800.000	-0.034	-0.118
-229.757	6.792	0.212	-0.158
-228.742	-172.915	-0.061	0.002
-227.727	-75.325	-0.196	0.070
-226.713	-74.720	-0.203	0.073
-225.698	119.065	0.221	0.274
-224.684	423.711	-0.024	0.051
-223.669	24.827	0.131	-0.109
-222.655	-119.819	-0.275	-0.047
-221.640	-200.000	-0.005	0.392
-220.625	-41.591	-0.224	0.115
-219.611	5.542	-0.209	-0.155
-218.596	-40.182	-0.097	-0.051
-217.582	-200.000	-0.001	-0.344
-216.567	-200.000	0.007	0.070
-215.552	121.645	0.173	0.216
-214.538	94.986	0.065	-0.074
-213.523	-156.725	-0.193	-0.012
-212.509	61.671	-0.068	-0.068
-211.494	-103.583	0.108	-0.025
-210.479	-152.862	0.304	0.022
-209.465	-200.000	0.042	0.270
-208.450	-56.974	-0.117	0.052
-207.436	-49.684	0.326	-0.156
-206.421	55.110	0.195	0.189
-205.406	-200.000	0.007	0.052
-204.392	8.040	0.098	-0.074
-203.377	-92.338	0.571	-0.161
-202.363	-68.449	0.014	0.006
-201.348	-136.447	0.271	-0.032
-200.333	-51.111	0.064	0.030
-199.319	81.039	0.138	0.149
-198.304	800.000	-0.103	0.292
-197.290	-74.132	0.387	-0.141
-196.275	15.284	-0.223	-0.176
-195.260	800.000	0.092	0.368
-194.246	-115.973	-0.155	0.029
-193.231	-161.574	0.403	-0.021
-192.217	-200.000	-0.014	0.172
-191.202	-24.082	-0.194	0.116
-190.187	43.780	-0.261	0.240
-189.173	-3.226	0.171	0.119
-188.158	9.958	0.232	-0.177
-187.144	426.387	-0.076	0.163
-186.129	270.549	-0.072	-0.127
-185.114	777.514	-0.064	-0.174
-184.100	-94.812	-0.349	0.095
-183.085	724.124	-0.051	-0.137
-182.071	-200.000	0.016	0.209
-181.056	-200.000	0.011	-0.400
-180.042	-118.085	-0.071	0.013
-179.027	-165.552	0.033	-0.001
-178.012	201.131	-0.033	0.050
-176.998	305.937	-0.109	0.203
-175.983	-200.000	0.002	0.358
-174.969	295.326	0.105	0.192
-173.954	-18.123	-0.330	0.207
-172.939	-200.000	0.056	0.366
-171.925	-50.158	-0.240	-0.114
-170.910	178.585	0.102	0.150
-169.896	564.037	0.212	-0.515
-168.881	-30.515	-0.296	0.168
-167.866	-148.883	0.064	-0.005
-166.852	158.058	-0.186	-0.259
-165.837	22.192	-0.304	-0.249
-164.823	-156.669	0.158	-0.010
-163.808	-124.776	-0.243	0.038
-162.793	-66.504	0.226	0.090
-161.779	800.000	-0.102	-0.408
-160.764	-70.569	-0.494	0.187
-159.750	-22.798	0.129	0.078
-158.735	-110.954	0.559	-0.115
-157.720	-164.670	-0.400	-0.018
-156.706	-200.000	-0.119	0.535
-155.691	-70.304	0.210	0.080
-154.677	-118.971	0.094	0.016
-153.662	77.015	-0.212	-0.225
-152.647	8.622	-0.102	-0.077
-151.633	230.886	0.102	0.167
-150.618	-121.060	0.052	-0.009
-149.604	221.879	0.046	-0.074
-148.589	-137.257	-0.207	-0.024
-147.574	-200.000	0.004	0.064
-146.560	-167.948	-0.014	-0.001
-145.545	-18.027	0.225	-0.141
-144.531	-41.073	0.066	0.034
-143.516	-200.000	-0.011	0.724
-142.502	-146.187	0.168	-0.015
-141.487	339.032	-0.188	-0.366
-140.472	-164.311	0.127	0.006
-139.458	161.543	0.124	0.173
-138.443	117.926	-0.084	-0.104
-137.429	-153.225	-0.206	-0.014
-136.414	106.639	-0.272	-0.323
-135.399	265.981	-0.126	-0.221
-134.385	-118.588	0.211	0.037
-133.370	-18.252	0.058	-0.036
-132.356	-200.000	-0.011	-0.341
-131.341	-23.495	0.244	-0.147
-130.326	-55.221	-0.221	0.099
-129.312	-115.559	0.192	-0.036
-128.297	181.213	-0.132	-0.194
-127.283	45.915	0.104	0.096
-126.268	-44.355	0.173	0.087
-125.253	-42.704	0.257	-0.131
-124.239	-200.000	0.022	-0.364
-123.224	-200.000	-0.029	-0.235
-122.210	-141.440	-0.044	-0.004
-121.195	-164.432	0.318	0.015
