DTS Sentinel unit serial number:	SN413079Multiplexer serial number:	ORYXHardware model number:	OX4-SRSoftware version number:	ORYX F/W v4.00 Oryx Data Collector v3.7.2.0data status	okinstallation	princeton_trtdifferential loss correction	single-endedforward channel	channel 2reverse channel	N/Adate	2019/09/14time	00:23:34forward acquisition time	60.00reverse acquisition time	0.00gamma	496.2192k internal	0.2339k external	0.2339temperature offset calibration	1.0123default loss term (dB/km)	0.3790temperature slope calibration	1.0000multiplexer offset coefficient	1.0000multiplexer slope coefficient	1.0000fibre end	0.00T internal ref (°C)	26.50T ext. ref 1 (°C)	3.17T ext. ref 2 (°C)	21.33length (m)	temperature (°C)	Stokes	anti-Stokes-747.200	-21.724	-0.277	-0.169
-746.185	149.284	0.056	-0.077
-745.171	-99.073	-0.204	-0.052
-744.156	240.771	-0.130	0.217
-743.142	111.122	-0.221	0.267
-742.127	800.000	0.095	0.331
-741.112	20.588	-0.176	0.143
-740.098	800.000	0.062	0.185
-739.083	105.731	0.136	-0.161
-738.069	800.000	-0.138	0.408
-737.054	13.972	-0.159	-0.124
-736.039	464.436	0.046	-0.104
-735.025	-27.005	0.126	-0.074
-734.010	-200.000	-0.038	-0.215
-732.996	-165.754	-0.219	-0.009
-731.981	14.813	0.200	-0.157
-730.966	63.254	0.094	0.095
-729.952	263.816	-0.251	-0.437
-728.937	231.977	-0.084	-0.138
-727.923	-200.000	-0.023	0.137
-726.908	-179.976	0.076	-0.002
-725.894	55.032	0.116	-0.112
-724.879	-200.000	-0.079	-0.526
-723.864	223.194	-0.069	-0.111
-722.850	-74.730	-0.131	0.047
-721.835	588.513	-0.085	0.210
-720.821	-3.762	-0.277	0.193
-719.806	800.000	-0.085	-0.312
-718.791	-200.000	-0.014	0.319
-717.777	-22.727	0.017	-0.010
-716.762	-8.555	-0.135	-0.091
-715.748	95.292	0.168	-0.191
-714.733	-121.162	0.195	0.033
-713.718	7.838	-0.087	0.065
-712.704	74.194	-0.119	0.125
-711.689	-40.180	-0.068	-0.035
-710.675	-200.000	0.023	-0.122
-709.660	-200.000	-0.007	0.132
-708.645	-41.498	-0.178	0.092
-707.631	-91.153	0.273	-0.078
-706.616	-122.625	-0.166	-0.027
-705.602	-7.970	-0.096	0.065
-704.587	-200.000	-0.089	-0.424
-703.572	800.000	0.053	0.214
-702.558	606.539	0.134	-0.335
-701.543	-200.000	-0.074	-0.474
-700.529	160.160	-0.100	0.139
-699.514	-200.000	0.024	-0.156
-698.499	9.943	0.038	0.029
-697.485	342.393	-0.031	-0.060
-696.470	59.122	-0.062	0.061
-695.456	-120.894	-0.354	0.060
-694.441	26.609	-0.227	-0.190
-693.426	43.851	0.123	-0.112
-692.412	-200.000	0.010	-0.344
-691.397	129.671	-0.135	-0.172
-690.383	-200.000	0.032	-0.261
-689.368	784.488	-0.043	-0.118
-688.354	304.744	0.171	-0.317
-687.339	114.249	0.160	-0.195
-686.324	-65.169	-0.244	0.098
-685.310	12.984	-0.338	-0.261
-684.295	800.000	0.066	-0.246
-683.281	250.423	-0.277	0.471
-682.266	-11.594	-0.201	-0.132
-681.251	-200.000	-0.087	0.000
-680.237	-110.757	-0.353	0.073
-679.222	-200.000	-0.013	-0.077
-678.208	7.461	0.182	-0.136
-677.193	-140.219	-0.390	-0.041
-676.178	13.864	-0.207	-0.161
-675.164	-33.611	-0.375	0.207
-674.149	-200.000	-0.061	-0.274
-673.135	-105.078	0.441	-0.101
-672.120	-128.220	-0.443	-0.063
-671.105	-85.044	0.388	-0.122
-670.091	-9.466	-0.088	-0.059
-669.076	-135.180	0.250	0.030
-668.062	57.350	-0.172	-0.168
-667.047	-65.471	-0.084	0.034
-666.032	800.000	0.068	-0.277
-665.018	414.871	-0.182	-0.387
-664.003	296.341	-0.123	-0.226
-662.989	-86.941	-0.153	0.047
-661.974	-3.327	0.100	0.070
-660.959	-4.831	-0.166	0.115
-659.945	166.151	0.060	-0.084
-658.930	-67.248	-0.187	-0.074
-657.916	-176.533	-0.380	0.010
-656.901	-163.943	0.300	-0.014
-655.886	612.225	0.052	-0.130
-654.872	-60.965	0.160	-0.068
-653.857	-30.176	-0.236	0.134
-652.843	385.640	0.046	0.095
-651.828	786.627	-0.104	-0.286
-650.814	800.000	0.045	-0.163
-649.799	-137.776	-0.266	-0.030
-648.784	-189.247	-0.237	0.003
-647.770	-128.330	0.343	0.049
-646.755	-82.105	0.120	-0.039
-645.741	97.657	0.337	0.388
-644.726	-200.000	0.064	-0.304
-643.711	-149.937	0.192	-0.015
-642.697	800.000	-0.061	0.169
-641.682	-117.096	0.132	0.024
-640.668	-36.329	-0.178	-0.096
-639.653	-55.707	0.192	0.086
-638.638	-48.571	-0.137	-0.066
-637.624	61.419	-0.093	-0.092
-636.609	800.000	0.046	-0.158
-635.595	-112.127	-0.253	0.051
-634.580	-18.443	-0.042	-0.026
-633.565	-142.330	-0.050	0.005
-632.551	800.000	-0.110	0.320
-631.536	-18.553	-0.263	-0.164
-630.522	615.341	0.023	0.058
-629.507	62.029	0.130	0.130
-628.492	-200.000	-0.002	-0.312
-627.478	-96.874	0.206	0.054
-626.463	-46.134	0.140	-0.069
-625.449	141.057	-0.210	-0.277
-624.434	-200.000	-0.010	-0.102
-623.419	84.660	0.140	0.153
-622.405	-104.102	0.186	-0.043
-621.390	-75.738	0.438	0.155
-620.376	-79.873	0.085	0.029
-619.361	-121.940	0.038	0.006
-618.346	-167.316	-0.115	-0.005
-617.332	-200.000	-0.038	-0.349
-616.317	-62.446	-0.285	0.118
-615.303	-64.147	0.463	-0.188
-614.288	35.679	0.105	-0.092
-613.273	84.742	-0.360	0.393
-612.259	16.879	-0.192	-0.152
-611.244	-101.097	-0.221	0.054
-610.230	800.000	0.061	0.194
-609.215	-67.460	-0.223	0.088
-608.201	32.125	-0.038	0.032
-607.186	-96.074	0.188	0.050
-606.171	8.188	-0.279	0.209
-605.157	207.465	-0.123	0.192
-604.142	-7.386	-0.333	-0.225
-603.128	-195.788	0.415	0.003
-602.113	-169.649	-0.283	-0.010
-601.098	-147.252	0.093	0.008
-600.084	-143.675	-0.252	0.024
-599.069	43.384	-0.074	0.067
-598.055	800.000	0.058	-0.209
-597.040	140.589	-0.127	0.167
-596.025	-165.360	-0.376	0.016
-595.011	800.000	0.155	-0.469
-593.996	-24.754	-0.295	0.175
-592.982	-55.734	0.319	-0.142
-591.967	319.700	0.172	-0.326
-590.952	737.866	-0.091	-0.243
-589.938	-175.188	0.124	-0.003
-588.923	-200.000	-0.044	-0.279
-587.909	-51.327	0.192	0.090
-586.894	37.204	-0.119	-0.105
-585.879	54.699	-0.075	0.072
-584.865	800.000	-0.092	0.339
-583.850	-149.329	0.291	0.023
-582.836	426.658	-0.083	0.179
-581.821	-200.000	-0.018	-0.171
-580.806	-104.428	0.307	-0.071
-579.792	-200.000	-0.016	0.091
-578.777	-102.923	-0.455	0.108
-577.763	800.000	-0.033	0.126
-576.748	-110.898	-0.248	-0.051
-575.733	-72.944	0.325	0.119
-574.719	-96.179	0.136	-0.036
-573.704	-84.450	-0.163	-0.051
-572.690	260.107	0.126	-0.217
-571.675	130.222	0.076	-0.098
-570.661	-114.414	-0.065	-0.012
-569.646	-60.772	-0.288	0.122
-568.631	-87.856	0.155	-0.047
-567.617	-132.824	0.327	0.042
-566.602	-1.379	0.334	0.235
-565.588	12.266	-0.088	0.068
-564.573	800.000	-0.122	0.425
-563.558	800.000	-0.099	0.415
-562.544	25.089	-0.106	0.088
-561.529	118.859	0.117	-0.143
-560.515	614.137	0.060	-0.150
-559.500	83.670	-0.208	-0.226
-558.485	-137.377	0.156	-0.018
-557.471	104.993	0.402	0.472
-556.456	738.389	-0.055	-0.148
-555.442	-58.959	0.120	-0.051
-554.427	-41.121	-0.358	0.184
-553.412	-13.751	0.417	0.268
-552.398	282.942	0.108	-0.193
-551.383	-135.679	0.300	0.035
-550.369	283.938	-0.064	0.114
-549.354	14.790	0.118	-0.092
-548.339	10.700	-0.238	-0.181
-547.325	366.809	-0.128	-0.258
-546.310	-172.346	-0.075	0.002
-545.296	-183.751	-0.384	0.007
-544.281	-9.934	-0.323	0.214
-543.266	36.180	0.124	-0.108
-542.252	-115.538	-0.211	-0.040
-541.237	-200.000	-0.027	0.396
-540.223	107.596	0.177	-0.210
-539.208	-59.829	0.196	-0.083
-538.193	6.136	-0.071	-0.053
-537.179	93.905	0.150	-0.169
-536.164	800.000	-0.068	0.273
-535.150	428.127	-0.120	0.258
-534.135	-133.945	0.145	0.018
-533.121	800.000	-0.164	-0.486
-532.106	32.544	0.151	-0.130
-531.091	-47.367	-0.114	0.055
-530.077	-200.000	0.016	-0.379
-529.062	-81.000	-0.154	-0.051
-528.048	247.061	-0.208	0.349
-527.033	-200.000	-0.008	0.065
-526.018	179.033	0.024	0.034
-525.004	-200.000	-0.005	0.076
-523.989	36.931	0.212	0.186
-522.975	107.017	0.145	0.171
-521.960	-117.002	-0.109	-0.020
-520.945	-74.740	-0.446	0.159
-519.931	73.262	0.181	-0.189
-518.916	-46.077	0.417	-0.204
-517.902	-46.537	0.030	-0.015
-516.887	-131.278	0.153	0.020
-515.872	218.771	-0.077	0.122
-514.858	365.024	-0.115	0.230
-513.843	-23.969	0.195	0.116
-512.829	-62.819	-0.196	-0.081
-511.814	-112.585	0.136	0.027
-510.799	-200.000	-0.038	-0.224
-509.785	58.054	-0.147	-0.143
-508.770	86.838	0.107	-0.117
-507.756	800.000	0.114	-0.338
-506.741	-158.874	-0.288	-0.016
-505.726	-160.273	-0.252	0.014
-504.712	-8.105	-0.209	-0.140
-503.697	-107.676	-0.134	0.029
-502.683	800.000	-0.055	-0.156
-501.668	-132.251	0.045	-0.006
-500.653	16.761	0.145	0.114
-499.639	109.291	0.248	0.295
-498.624	-200.000	0.021	-0.199
-497.610	-200.000	0.025	-0.253
-496.595	-42.350	-0.195	0.099
-495.581	13.711	0.160	0.124
-494.566	-178.289	-0.268	-0.006
-493.551	-91.874	-0.211	0.059
-492.537	-26.612	0.193	0.112
-491.522	-68.849	0.109	0.042
-490.508	-200.000	-0.017	-0.106
-489.493	800.000	0.173	0.536
-488.478	-42.619	-0.117	-0.059
-487.464	733.028	0.026	-0.070
-486.449	-94.899	0.174	0.047
-485.435	-119.368	-0.538	0.093
-484.420	-200.000	0.054	-0.237
-483.405	29.712	-0.100	0.084
-482.391	148.963	-0.053	-0.071
-481.376	617.473	-0.094	-0.234
-480.362	673.982	0.142	0.366
-479.347	-200.000	0.002	0.052
-478.332	-145.315	0.109	-0.010
-477.318	-72.069	-0.523	-0.193
-476.303	-66.674	0.368	0.145
-475.289	24.123	-0.174	-0.143
-474.274	-1.086	0.154	-0.108
-473.259	175.736	-0.139	-0.200
-472.245	-200.000	-0.041	-0.243
-471.230	-20.796	0.411	0.250
-470.216	-200.000	-0.016	-0.244
-469.201	-200.000	0.052	0.252
-468.186	-59.910	0.049	0.021
-467.172	-200.000	0.020	-0.089
-466.157	-58.028	0.353	0.153
-465.143	136.890	-0.239	-0.309
-464.128	563.474	0.050	-0.120
-463.113	-74.043	0.027	0.010
-462.099	-31.096	-0.037	0.021
-461.084	414.606	-0.073	-0.155
-460.070	179.913	-0.075	0.110
-459.055	108.117	-0.081	0.096
-458.040	-154.027	-0.618	0.042
-457.026	-200.000	0.012	-0.058
-456.011	349.190	-0.171	-0.336
-454.997	17.260	0.374	-0.294
-453.982	-200.000	0.019	-0.236
-452.968	-43.433	-0.128	0.064
-451.953	-83.330	-0.096	0.031
-450.938	-82.018	-0.319	-0.103
-449.924	284.610	0.121	0.216
-448.909	562.048	0.007	-0.016
-447.895	37.788	-0.142	-0.125
-446.880	707.085	0.052	-0.135
-445.865	-140.321	0.259	0.027
-444.851	611.571	-0.079	-0.195
-443.836	734.292	-0.184	-0.487
-442.822	-200.000	0.000	-0.228
-441.807	-46.899	-0.319	0.155
-440.792	800.000	0.023	-0.068
-439.778	-124.542	-0.186	-0.029
-438.763	-200.000	0.031	-0.319
-437.749	86.873	0.187	0.205
-436.734	800.000	0.087	0.345
-435.719	-200.000	-0.081	0.474
-434.705	-26.831	0.080	-0.046
-433.690	113.575	0.130	-0.156
-432.676	114.069	-0.074	-0.089
-431.661	-200.000	0.010	0.127
-430.646	24.276	-0.079	0.064
-429.632	72.795	0.182	-0.188
-428.617	-200.000	0.001	-0.260
-427.603	800.000	0.126	0.348
-426.588	380.181	0.163	0.331
-425.573	-32.722	0.053	-0.029
-424.559	148.400	0.042	0.057
-423.544	119.064	-0.107	0.131
-422.530	751.900	0.049	-0.130
-421.515	-200.000	-0.034	-0.172
-420.500	-200.000	0.053	-0.252
-419.486	-95.394	0.138	0.037
-418.471	800.000	-0.050	-0.182
-417.457	13.992	-0.098	0.075
-416.442	227.881	-0.051	-0.083
-415.428	-200.000	0.066	-0.367
-414.413	-41.758	-0.170	0.086
-413.398	-62.946	-0.164	0.067
-412.384	-84.763	0.250	0.078
-411.369	293.686	0.092	-0.167
-410.355	229.036	0.206	-0.332
-409.340	26.619	0.223	-0.185
-408.325	298.246	-0.170	-0.309
-407.311	95.797	-0.085	0.096
-406.296	-12.845	-0.226	0.146
-405.282	11.929	0.366	0.279
-404.267	800.000	-0.062	-0.199
-403.252	68.337	0.263	-0.267
-402.238	-200.000	-0.004	-0.164
-401.223	-53.212	-0.280	0.127
-400.209	800.000	0.082	-0.293
-399.194	253.994	-0.114	-0.193
-398.179	-102.428	0.136	0.032
-397.165	576.274	-0.023	0.055
-396.150	114.560	0.189	-0.228
-395.136	-129.067	-0.139	0.019
-394.121	800.000	0.084	-0.331
-393.106	140.200	-0.103	-0.135
-392.092	800.000	0.090	0.284
-391.077	-68.681	0.271	0.104
-390.063	43.381	-0.119	-0.108
-389.048	-200.000	-0.048	-0.246
-388.033	-155.144	-0.147	0.009
-387.019	-38.933	0.065	-0.034
-386.004	-57.002	0.329	0.143
-384.990	9.791	-0.109	0.082
-383.975	-200.000	0.010	0.087
-382.960	-39.988	0.010	0.005
-381.946	-200.000	-0.045	-0.211
-380.931	429.553	-0.095	0.202
-379.917	43.267	-0.161	0.145
-378.902	291.861	-0.026	0.046
-377.888	-112.278	0.095	0.019
-376.873	1.387	0.320	0.227
-375.858	-101.972	-0.260	-0.062
-374.844	-200.000	0.014	0.269
-373.829	-200.000	-0.005	-0.027
-372.815	-200.000	0.053	0.256
-371.800	10.604	-0.335	0.253
-370.785	-92.337	-0.249	0.069
-369.771	800.000	0.044	0.174
-368.756	705.622	0.056	0.146
-367.742	-200.000	-0.033	-0.220
-366.727	800.000	-0.006	-0.024
-365.712	-200.000	0.028	-0.336
-364.698	-15.798	0.342	-0.215
-363.683	331.138	0.209	0.398
-362.669	-45.151	-0.046	0.023
-361.654	21.523	-0.078	-0.063
-360.639	-110.201	0.057	-0.012
-359.625	1.135	-0.174	0.123
-358.610	-200.000	0.043	-0.291
-357.596	-62.452	0.495	-0.203
-356.581	-153.514	0.104	-0.007
-355.566	-166.713	-0.363	0.015
-354.552	-200.000	-0.003	0.184
-353.537	-157.955	0.107	-0.006
-352.523	-9.155	0.332	0.219
-351.508	350.879	0.044	0.087
-350.493	800.000	0.058	-0.223
-349.479	-50.855	-0.144	0.067
-348.464	-137.878	-0.447	0.049
-347.450	-123.675	0.128	0.020
-346.435	-123.465	0.137	0.021
-345.420	-5.208	0.204	0.139
-344.406	301.153	0.072	0.131
-343.391	-70.178	-0.209	-0.078
-342.377	-53.538	-0.159	0.072
-341.362	40.546	0.039	0.034
-340.348	-93.859	0.103	-0.028
-339.333	-200.000	-0.048	0.280
-338.318	197.415	-0.064	0.096
-337.304	800.000	-0.093	-0.303
-336.289	402.342	0.159	0.329
-335.275	-86.202	-0.509	0.155
-334.260	-11.862	0.177	-0.114
-333.245	-51.884	-0.133	-0.061
-332.231	-200.000	-0.004	0.026
-331.216	-70.025	0.234	-0.088
-330.202	170.050	0.094	-0.133
-329.187	108.236	0.161	-0.190
-328.172	259.734	0.071	0.121
-327.158	-64.715	-0.078	0.031
-326.143	31.484	-0.097	-0.082
-325.129	-122.687	0.172	0.027
-324.114	-161.526	-0.176	-0.009
-323.099	800.000	-0.019	-0.061
-322.085	29.514	-0.160	0.134
-321.070	432.051	0.085	-0.181
-320.056	-52.113	0.402	-0.184
-319.041	404.122	0.090	-0.187
-318.026	800.000	0.028	-0.106
-317.012	238.729	0.214	0.351
-315.997	80.253	0.085	-0.090
-314.983	-117.581	-0.272	0.048
-313.968	-12.036	-0.280	0.181
-312.953	800.000	0.071	0.274
-311.939	-30.658	-0.133	0.074
-310.924	-200.000	-0.013	0.103
-309.910	336.739	0.122	0.234
-308.895	279.632	0.081	-0.142
-307.880	-92.316	-0.395	0.110
-306.866	-167.582	-0.076	0.003
-305.851	-27.889	0.362	-0.207
-304.837	-200.000	-0.016	0.440
-303.822	-200.000	-0.004	0.329
-302.807	167.046	-0.100	0.140
-301.793	-200.000	0.008	-0.269
-300.778	-200.000	-0.015	-0.265
-299.764	53.083	0.182	0.171
-298.749	124.464	-0.133	0.165
-297.735	35.998	-0.273	0.237
-296.720	-200.000	-0.023	0.223
-295.705	89.964	0.182	0.200
-294.691	-59.576	-0.132	-0.056
-293.676	-150.431	-0.260	0.020
-292.662	8.514	-0.091	0.067
-291.647	5.183	-0.153	-0.111
-290.632	-119.081	0.361	-0.062
-289.618	-110.635	-0.314	0.064
-288.603	-33.052	-0.210	0.115
-287.589	-200.000	-0.026	-0.147
-286.574	219.900	-0.016	-0.025
-285.559	800.000	0.033	0.093
-284.545	120.962	0.147	-0.180
-283.530	-182.920	0.202	-0.004
-282.516	766.636	-0.073	-0.195
-281.501	-200.000	0.031	-0.222
-280.486	-43.470	-0.216	0.107
-279.472	287.870	-0.129	-0.230
-278.457	-180.145	0.477	-0.010
-277.443	-200.000	-0.022	-0.264
-276.428	-200.000	-0.011	0.068
-275.413	57.719	0.140	-0.135
-274.399	-2.370	-0.132	0.091
-273.384	-106.511	-0.064	-0.014
-272.370	800.000	0.043	-0.145
-271.355	104.438	-0.205	0.238
-270.340	-11.016	0.058	-0.038
-269.326	42.720	-0.272	0.244
-268.311	170.722	0.078	-0.110
-267.297	57.244	0.264	0.254
-266.282	65.032	-0.170	-0.169
-265.267	800.000	0.042	-0.115
-264.253	-200.000	-0.002	0.045
-263.238	416.957	0.030	0.063
-262.224	320.839	0.176	0.330
-261.209	800.000	0.036	0.120
-260.195	-200.000	-0.039	-0.189
-259.180	-155.070	0.202	0.013
-258.165	626.427	0.048	-0.120
-257.151	-200.000	-0.004	0.178
-256.136	-177.660	-0.087	0.002
-255.122	50.847	0.218	-0.204
-254.107	494.551	0.082	0.185
-253.092	-39.209	-0.192	-0.099
-252.078	-6.449	0.242	0.163
-251.063	-184.891	-0.181	-0.003
-250.049	-200.000	0.022	0.221
-249.034	297.958	0.095	-0.173
-248.019	530.908	0.059	-0.137
-247.005	-52.388	-0.170	-0.077
-245.990	-200.000	0.052	0.276
-244.976	361.519	0.072	-0.142
-243.961	-158.792	0.282	-0.016
-242.946	-3.002	-0.076	-0.052
-241.932	-88.487	0.189	0.055
-240.917	200.080	-0.146	-0.221
-239.903	137.181	-0.192	0.247
-238.888	800.000	-0.056	-0.168
-237.873	220.026	-0.049	0.077
-236.859	-200.000	0.037	0.272
-235.844	-196.349	-0.241	-0.002
-234.830	-65.904	-0.155	-0.061
-233.815	124.883	0.241	-0.299
-232.800	-200.000	-0.002	-0.060
-231.786	-13.555	-0.130	0.083
-230.771	5.215	0.098	-0.071
-229.757	201.965	-0.128	0.194
-228.742	321.861	0.068	-0.128
-227.727	-24.663	-0.125	0.073
-226.713	-200.000	-0.037	-0.416
-225.698	334.506	-0.111	0.211
-224.684	-125.759	0.437	-0.065
-223.669	-96.409	-0.191	0.050
-222.655	330.347	0.068	0.130
-221.640	-74.249	0.075	0.027
-220.625	-45.227	0.251	0.122
-219.611	-14.278	0.139	-0.088
-218.596	-200.000	0.006	0.207
-217.582	260.648	-0.011	0.019
-216.567	-200.000	0.298	-0.000
-215.552	-80.075	-0.298	0.098
-214.538	687.603	0.039	-0.101
-213.523	127.500	0.017	0.021
-212.509	473.837	0.113	-0.249
-211.494	25.002	-0.067	-0.055
-210.479	18.248	0.190	-0.149
-209.465	-200.000	0.007	-0.061
-208.450	-133.611	-0.393	0.048
-207.436	89.003	0.130	0.143
-206.421	-174.368	-0.100	-0.003
-205.406	63.504	0.184	0.181
-204.392	-200.000	0.006	0.246
-203.377	-41.388	0.052	-0.026
-202.363	-97.438	-0.136	-0.035
-201.348	-200.000	-0.015	0.346
-200.333	155.253	0.168	0.227
-199.319	-71.160	-0.157	0.058
-198.304	51.177	-0.033	0.031
-197.290	-136.200	-0.037	-0.004
-196.275	-123.579	-0.273	-0.043
-195.260	684.356	-0.031	0.080
-194.246	3.449	-0.273	-0.195
-193.231	-70.183	-0.218	-0.081
-192.217	-86.736	0.254	-0.076
-191.202	-191.762	-0.474	-0.005
-190.187	-16.341	-0.088	0.055
-189.173	-200.000	-0.002	-0.059
-188.158	-136.972	-0.195	0.022
-187.144	-200.000	0.063	-0.421
-186.129	-163.842	-0.107	-0.005
-185.114	4.943	-0.072	0.052
-184.100	800.000	-0.057	-0.164
-183.085	-153.054	0.170	-0.012
-182.071	36.580	-0.125	0.108
-181.056	-89.975	0.033	-0.009
-180.042	35.937	-0.241	0.208
-179.027	-74.088	0.271	0.096
-178.012	415.989	0.217	0.454
-176.998	-200.000	0.043	-0.310
-175.983	-135.921	0.208	0.024
-174.969	54.602	0.117	-0.111
-173.954	-200.000	0.015	0.159
-172.939	-64.276	-0.398	0.159
-171.925	108.088	-0.212	-0.248
-170.910	-86.313	0.149	0.045
-169.896	230.861	0.172	-0.276
-168.881	-96.761	0.225	-0.058
-167.866	93.176	-0.205	0.227
-166.852	184.254	-0.097	0.141
-165.837	-110.908	0.048	0.010
-164.823	-200.000	0.032	0.288
-163.808	410.875	-0.134	-0.279
-162.793	410.227	0.155	-0.322
-161.779	-69.657	0.419	0.157
-160.764	-18.586	0.174	0.106
-159.750	-0.946	0.147	0.102
-158.735	28.101	0.371	-0.307
-157.720	-200.000	0.010	0.133
-156.706	248.187	-0.223	0.369
-155.691	-39.218	0.134	0.069
-154.677	800.000	0.033	-0.092
-153.662	-40.132	0.232	-0.118
-152.647	527.700	0.054	0.124
-151.633	-96.901	0.122	-0.031
-150.618	800.000	0.016	0.064
-149.604	-5.464	0.214	0.144
-148.589	656.179	0.083	-0.208
-147.574	270.090	0.116	-0.200
-146.560	575.572	0.059	0.141
-145.545	-200.000	0.032	0.198
-144.531	261.547	-0.212	-0.361
-143.516	-30.304	-0.085	-0.047
-142.502	-200.000	0.019	0.114
-141.487	11.810	-0.236	0.178
-140.472	184.841	-0.071	0.104
-139.458	-139.867	-0.217	-0.023
-138.443	-158.669	0.322	0.018
-137.429	449.577	0.068	-0.147
-136.414	-86.340	0.086	0.026
-135.399	-74.252	-0.082	0.029
-134.385	800.000	-0.099	0.291
-133.370	-200.000	0.101	0.446
-132.356	-200.000	-0.008	0.211
-131.341	-68.842	-0.509	0.192
-130.326	94.370	-0.111	0.123
-129.312	50.791	-0.070	-0.065
-128.297	-200.000	-0.003	-0.071
-127.283	789.158	-0.059	-0.159
-126.268	-61.906	-0.278	0.114
-125.253	68.228	0.325	0.326
-124.239	-142.004	0.383	-0.037
-123.224	-149.389	-0.110	0.009
-122.210	181.374	-0.063	0.091
-121.195	54.029	-0.137	0.129
