DTS Sentinel unit serial number:	SN413079Multiplexer serial number:	ORYXHardware model number:	OX4-SRSoftware version number:	ORYX F/W v4.00 Oryx Data Collector v3.7.2.0data status	okinstallation	princeton_trtdifferential loss correction	single-endedforward channel	channel 2reverse channel	N/Adate	2019/09/10time	19:29:11forward acquisition time	60.00reverse acquisition time	0.00gamma	496.2192k internal	0.2325k external	0.2325temperature offset calibration	0.9943default loss term (dB/km)	0.3790temperature slope calibration	1.0000multiplexer offset coefficient	1.0000multiplexer slope coefficient	1.0000fibre end	0.00T internal ref (°C)	33.50T ext. ref 1 (°C)	-0.39T ext. ref 2 (°C)	26.11length (m)	temperature (°C)	Stokes	anti-Stokes-747.200	-143.218	-0.059	-0.006
-746.185	245.181	-0.211	0.359
-745.171	-0.063	-0.274	0.197
-744.156	-200.000	-0.004	-0.056
-743.142	-112.053	0.302	-0.061
-742.127	-200.000	0.018	-0.229
-741.112	-76.937	0.266	-0.094
-740.098	-75.396	-0.231	0.083
-739.083	-200.000	-0.031	0.170
-738.069	-115.233	0.377	0.072
-737.054	50.028	-0.041	-0.039
-736.039	42.880	0.142	-0.130
-735.025	150.671	-0.009	-0.012
-734.010	644.580	0.079	0.204
-732.996	145.923	-0.110	-0.148
-731.981	-200.000	-0.045	0.310
-730.966	-6.222	0.227	-0.156
-729.952	-51.467	0.128	0.061
-728.937	-22.893	-0.070	-0.042
-727.923	-54.233	0.078	-0.036
-726.908	154.462	0.120	-0.166
-725.894	403.711	-0.102	0.216
-724.879	569.300	0.045	-0.111
-723.864	800.000	-0.114	-0.388
-722.850	-104.736	-0.284	-0.066
-721.835	-52.999	0.178	0.082
-720.821	-46.118	0.189	-0.094
-719.806	-200.000	-0.017	-0.250
-718.791	-200.000	0.007	-0.041
-717.777	366.721	-0.092	0.188
-716.762	166.684	0.132	-0.189
-715.748	800.000	-0.044	0.154
-714.733	-26.552	0.235	0.138
-713.718	21.502	-0.188	-0.154
-712.704	-200.000	0.010	-0.064
-711.689	-143.901	-0.323	0.031
-710.675	-14.331	0.092	0.060
-709.660	-200.000	0.019	-0.210
-708.645	-7.468	0.215	-0.147
-707.631	120.093	0.074	0.092
-706.616	190.784	0.150	-0.227
-705.602	-52.194	0.422	-0.197
-704.587	635.965	0.069	-0.176
-703.572	328.514	0.135	-0.261
-702.558	-119.398	0.389	-0.068
-701.543	27.376	-0.194	0.165
-700.529	-82.376	-0.165	0.054
-699.514	327.807	0.066	0.128
-698.499	-200.000	-0.048	-0.324
-697.485	-113.192	0.191	-0.038
-696.470	-46.804	-0.473	-0.233
-695.456	76.281	-0.169	-0.180
-694.441	40.408	0.177	-0.160
-693.426	69.497	-0.104	-0.108
-692.412	-200.000	0.022	-0.312
-691.397	774.787	-0.125	0.343
-690.383	-12.341	0.146	-0.096
-689.368	48.941	-0.179	-0.169
-688.354	-150.335	0.045	0.004
-687.339	-117.326	-0.160	0.029
-686.324	135.713	-0.132	-0.173
-685.310	-200.000	0.088	0.436
-684.295	-42.749	-0.073	0.038
-683.281	189.625	0.093	0.141
-682.266	-71.035	-0.185	-0.070
-681.251	-200.000	-0.049	-0.393
-680.237	69.439	0.206	0.214
-679.222	800.000	-0.036	-0.141
-678.208	143.688	0.263	-0.353
-677.193	-54.023	-0.136	0.062
-676.178	-116.511	-0.258	0.048
-675.164	800.000	-0.123	0.386
-674.149	268.755	-0.034	0.061
-673.135	-120.266	0.223	0.038
-672.120	-113.778	0.241	-0.047
-671.105	800.000	-0.102	0.378
-670.091	640.465	-0.059	0.151
-669.076	-77.595	-0.259	-0.090
-668.062	-142.782	-0.286	-0.028
-667.047	38.123	0.030	0.027
-666.032	228.244	-0.220	0.361
-665.018	-84.946	0.115	-0.036
-664.003	-21.383	-0.176	-0.108
-662.989	76.871	-0.258	0.276
-661.974	-200.000	-0.004	-0.295
-660.959	37.950	-0.116	-0.104
-659.945	-200.000	-0.007	-0.032
-658.930	-200.000	0.052	0.325
-657.916	256.310	0.039	0.067
-656.901	78.404	0.148	-0.159
-655.886	-177.820	0.296	-0.007
-654.872	-200.000	0.009	-0.204
-653.857	147.112	-0.138	-0.187
-652.843	-175.618	-0.207	-0.006
-651.828	-98.351	0.244	-0.063
-650.814	800.000	-0.051	-0.149
-649.799	-200.000	0.014	-0.368
-648.784	740.358	0.117	0.315
-647.770	-45.190	-0.322	-0.161
-646.755	-200.000	-0.076	-0.479
-645.741	151.259	-0.170	-0.232
-644.726	259.701	0.054	0.093
-643.711	139.469	-0.059	0.078
-642.697	-9.499	0.040	0.027
-641.682	-122.854	0.380	0.062
-640.668	-200.000	-0.065	-0.345
-639.653	155.690	-0.212	-0.294
-638.638	-200.000	-0.006	0.286
-637.624	-134.467	0.291	0.036
-636.609	-28.043	0.125	-0.073
-635.595	70.073	-0.083	-0.086
-634.580	-9.206	-0.085	-0.057
-633.565	11.374	0.179	0.138
-632.551	32.685	0.074	-0.064
-631.536	-200.000	0.008	-0.036
-630.522	317.258	-0.162	0.308
-629.507	214.528	-0.186	-0.296
-628.492	-23.832	-0.148	0.089
-627.478	-21.526	-0.082	0.050
-626.463	431.187	-0.092	0.200
-625.449	153.231	0.033	0.045
-624.434	194.089	0.082	0.125
-623.419	305.066	-0.127	-0.236
-622.405	-36.822	0.173	0.093
-621.390	161.090	0.133	0.186
-620.376	-132.667	0.119	-0.015
-619.361	46.056	-0.090	0.084
-618.346	512.820	-0.087	-0.203
-617.332	-200.000	0.018	0.232
-616.317	405.569	-0.106	-0.224
-615.303	-146.689	-0.250	-0.022
-614.288	111.226	0.229	-0.277
-613.273	-140.363	-0.078	-0.008
-612.259	99.821	-0.183	-0.213
-611.244	-55.949	-0.073	0.033
-610.230	-125.256	0.142	0.022
-609.215	-7.067	-0.427	-0.291
-608.201	-55.106	-0.344	0.155
-607.186	164.745	0.064	0.090
-606.171	228.072	-0.043	-0.070
-605.157	-99.142	0.177	-0.045
-604.142	526.974	-0.126	-0.298
-603.128	-200.000	0.006	-0.076
-602.113	800.000	0.017	-0.056
-601.098	-30.746	0.174	0.099
-600.084	800.000	-0.091	0.330
-599.069	90.506	-0.142	-0.159
-598.055	-200.000	0.056	-0.351
-597.040	-158.231	0.017	0.001
-596.025	-200.000	-0.054	-0.253
-595.011	70.702	0.296	0.307
-593.996	190.655	0.244	0.368
-592.982	-68.881	0.306	-0.118
-591.967	163.851	0.116	0.164
-590.952	-146.552	0.092	-0.008
-589.938	800.000	-0.012	0.050
-588.923	-108.811	0.346	0.074
-587.909	410.330	-0.060	0.128
-586.894	-13.677	-0.102	-0.066
-585.879	-97.662	0.156	-0.040
-584.865	216.057	0.172	0.274
-583.850	496.785	-0.151	-0.348
-582.836	78.296	-0.165	-0.177
-581.821	202.850	-0.181	-0.281
-580.806	23.394	-0.312	-0.257
-579.792	-88.349	-0.247	-0.074
-578.777	177.524	-0.150	-0.218
-577.763	-113.038	0.204	-0.040
-576.748	13.437	-0.131	-0.102
-575.733	-59.327	0.033	0.014
-574.719	784.507	0.041	0.114
-573.704	368.947	0.100	-0.203
-572.690	800.000	-0.053	0.232
-571.675	47.192	-0.128	0.120
-570.661	-200.000	0.010	-0.186
-569.646	-166.569	-0.184	-0.008
-568.631	800.000	0.044	-0.160
-567.617	151.269	0.032	-0.043
-566.602	-152.878	0.156	0.011
-565.588	33.013	-0.064	-0.056
-564.573	-63.916	-0.541	0.222
-563.558	17.356	-0.176	-0.140
-562.544	-200.000	0.021	0.156
-561.529	-140.231	-0.150	-0.016
-560.515	-84.042	-0.167	-0.053
-559.500	-200.000	0.065	-0.310
-558.485	471.572	-0.149	-0.337
-557.471	-14.625	-0.417	-0.268
-556.456	294.834	-0.097	-0.178
-555.442	85.214	-0.174	-0.191
-554.427	800.000	0.049	-0.155
-553.412	33.165	-0.050	0.043
-552.398	-119.946	-0.164	0.028
-551.383	-63.866	-0.322	0.132
-550.369	32.955	0.134	-0.117
-549.354	800.000	0.024	-0.066
-548.339	-84.043	0.152	-0.048
-547.325	-200.000	-0.006	0.170
-546.310	-2.957	0.018	-0.013
-545.296	-108.697	-0.225	0.048
-544.281	-39.514	0.227	-0.119
-543.266	-101.480	-0.248	-0.060
-542.252	800.000	-0.026	0.111
-541.237	-29.017	-0.136	0.078
-540.223	-93.594	-0.245	0.068
-539.208	800.000	0.015	0.063
-538.193	-157.275	0.258	-0.016
-537.179	-50.686	0.230	0.108
-536.164	-65.855	0.056	-0.022
-535.150	-200.000	0.030	0.347
-534.135	-200.000	0.016	0.219
-533.121	-200.000	0.004	0.078
-532.106	-74.752	0.105	0.038
-531.091	200.699	0.061	0.094
-530.077	383.274	0.158	0.326
-529.062	-113.466	0.058	0.011
-528.048	141.474	-0.174	0.231
-527.033	-200.000	-0.007	-0.086
-526.018	-200.000	0.030	-0.197
-525.004	800.000	0.027	0.109
-523.989	800.000	0.108	-0.392
-522.975	-200.000	0.018	0.113
-521.960	225.850	0.218	0.353
-520.945	209.729	-0.031	0.048
-519.931	-4.071	0.216	-0.150
-518.916	130.655	0.144	0.184
-517.902	-148.788	-0.192	0.016
-516.887	-4.076	-0.174	0.121
-515.872	41.481	0.172	0.155
-514.858	143.630	-0.101	-0.135
-513.843	29.964	-0.239	-0.203
-512.829	-111.255	-0.117	0.024
-511.814	174.970	-0.204	0.295
-510.799	800.000	-0.064	-0.192
-509.785	-58.521	0.185	0.080
-508.770	111.959	0.155	-0.187
-507.756	-112.299	-0.165	-0.033
-506.741	-156.693	0.362	-0.022
-505.726	800.000	-0.080	0.261
-504.712	-121.128	-0.081	-0.014
-503.697	-157.529	-0.035	-0.002
-502.683	193.075	0.141	-0.214
-501.668	-93.457	0.056	-0.016
-500.653	78.929	-0.087	0.093
-499.639	29.335	0.152	0.129
-498.624	276.371	0.074	0.131
-497.610	-200.000	0.007	0.305
-496.595	800.000	0.075	-0.249
-495.581	-113.578	-0.281	0.055
-494.566	209.031	0.123	0.192
-493.551	85.658	0.200	0.219
-492.537	75.179	-0.208	0.219
-491.522	800.000	0.045	-0.140
-490.508	-200.000	0.025	-0.404
-489.493	130.756	0.166	-0.213
-488.478	5.155	0.165	-0.122
-487.464	204.641	0.176	0.272
-486.449	-77.266	-0.152	-0.053
-485.435	800.000	0.085	0.240
-484.420	-42.525	-0.281	0.143
-483.405	-86.334	0.016	0.005
-482.391	-200.000	-0.051	-0.280
-481.376	222.082	0.141	-0.227
-480.362	-69.797	0.284	-0.108
-479.347	216.620	-0.088	-0.139
-478.332	-200.000	-0.016	0.097
-477.318	-32.878	-0.223	0.124
-476.303	800.000	0.043	0.135
-475.289	24.767	0.212	-0.175
-474.274	-42.027	-0.234	0.119
-473.259	-89.304	-0.316	0.093
-472.245	-200.000	0.019	-0.115
-471.230	44.054	-0.034	-0.031
-470.216	-200.000	0.009	-0.160
-469.201	552.278	0.062	-0.149
-468.186	348.642	-0.183	0.359
-467.172	19.729	0.212	-0.170
-466.157	-116.605	-0.278	0.051
-465.143	800.000	-0.139	0.583
-464.128	-90.958	-0.355	0.102
-463.113	59.506	-0.082	0.081
-462.099	-8.111	0.177	-0.119
-461.084	800.000	-0.043	0.138
-460.070	130.491	0.127	0.163
-459.055	60.443	-0.207	0.204
-458.040	50.574	-0.050	0.047
-457.026	-69.008	0.166	0.064
-456.011	169.818	-0.064	0.091
-454.997	-90.829	-0.105	-0.030
-453.982	-124.699	-0.137	0.021
-452.968	-200.000	0.051	0.266
-451.953	1.635	0.111	0.080
-450.938	-200.000	0.072	-0.390
-449.924	-185.169	0.087	0.001
-448.909	-102.922	0.154	-0.036
-447.895	-89.318	-0.048	-0.014
-446.880	84.039	-0.175	-0.191
-445.865	-58.777	-0.151	-0.065
-444.851	-94.919	0.118	-0.032
-443.836	-67.136	0.383	-0.151
-442.822	800.000	-0.048	-0.135
-441.807	-200.000	-0.068	-0.389
-440.792	351.961	0.134	0.264
-439.778	-161.208	0.177	-0.009
-438.763	-200.000	0.006	-0.202
-437.749	39.167	-0.078	-0.070
-436.734	233.744	0.195	0.320
-435.719	-157.398	-0.193	0.012
-434.705	-176.657	-0.257	-0.007
-433.690	-20.038	0.181	-0.111
-432.676	-200.000	-0.011	-0.073
-431.661	800.000	0.051	0.203
-430.646	800.000	0.073	-0.274
-429.632	800.000	0.047	-0.140
-428.617	-74.608	-0.308	-0.111
-427.603	-6.456	-0.129	0.088
-426.588	398.901	-0.024	-0.050
-425.573	426.960	0.092	0.198
-424.559	131.297	-0.234	-0.300
-423.544	-180.498	0.123	0.003
-422.530	-107.723	0.099	0.021
-421.515	-163.246	0.112	-0.005
-420.500	72.761	0.040	-0.042
-419.486	-156.113	0.269	-0.017
-418.471	31.829	-0.131	0.113
-417.457	53.330	0.132	-0.126
-416.442	-113.796	0.097	-0.019
-415.428	784.404	0.046	-0.126
-414.413	113.461	0.140	0.169
-413.398	28.356	0.154	-0.129
-412.384	-34.286	0.064	-0.035
-411.369	-135.241	0.377	-0.045
-410.355	-200.000	0.003	-0.139
-409.340	-9.676	0.244	0.162
-408.325	800.000	0.038	0.108
-407.311	222.593	-0.299	-0.480
-406.296	-200.000	0.112	0.496
-405.282	-200.000	0.004	0.149
-404.267	149.572	-0.145	0.196
-403.252	-43.672	-0.071	-0.036
-402.238	4.803	0.142	0.104
-401.223	-200.000	-0.031	0.159
-400.209	62.080	0.250	-0.249
-399.194	143.914	-0.080	0.106
-398.179	262.352	0.221	-0.381
-397.165	4.274	-0.185	0.135
-396.150	-7.115	-0.529	0.357
-395.136	-200.000	0.015	0.186
-394.121	800.000	-0.068	-0.275
-393.106	-69.984	-0.271	-0.103
-392.092	-200.000	0.066	0.403
-391.077	800.000	0.072	0.262
-390.063	-109.680	-0.193	-0.040
-389.048	-200.000	-0.034	-0.168
-388.033	263.151	0.113	0.195
-387.019	-23.155	-0.071	-0.043
-386.004	-200.000	-0.031	0.141
-384.990	543.095	-0.127	-0.301
-383.975	-131.660	0.036	-0.005
-382.960	-200.000	0.054	-0.269
-381.946	5.465	-0.279	-0.205
-380.931	53.971	0.299	0.286
-379.917	-43.989	-0.228	-0.114
-378.902	-200.000	0.067	-0.345
-377.888	-200.000	0.253	-0.001
-376.873	237.490	-0.190	0.313
-375.858	147.469	-0.181	0.242
-374.844	-193.824	0.338	0.003
-373.829	800.000	0.058	-0.215
-372.815	376.961	-0.110	0.223
-371.800	-43.810	0.234	-0.117
-370.785	12.651	-0.027	-0.021
-369.771	620.972	0.069	0.172
-368.756	-200.000	-0.007	-0.079
-367.742	-200.000	-0.039	0.293
-366.727	-200.000	-0.015	0.249
-365.712	89.633	0.128	0.142
-364.698	70.159	0.385	0.395
-363.683	-0.135	-0.047	0.033
-362.669	-88.889	0.381	-0.112
-361.654	-50.014	0.314	-0.148
-360.639	138.432	0.055	-0.072
-359.625	-29.341	0.111	-0.063
-358.610	62.069	0.200	0.199
-357.596	-10.801	-0.221	-0.145
-356.581	0.854	0.034	0.024
-355.566	-97.989	0.236	-0.061
-354.552	68.571	-0.154	0.157
-353.537	-41.170	-0.307	-0.157
-352.523	-33.579	-0.125	-0.068
-351.508	800.000	-0.125	0.427
-350.493	-200.000	0.024	0.354
-349.479	142.804	0.077	-0.101
-348.464	-71.282	-0.334	0.124
-347.450	-29.029	-0.149	0.085
-346.435	-200.000	-0.036	0.221
-345.420	800.000	-0.067	0.250
-344.406	203.468	0.151	0.232
-343.391	-200.000	0.106	0.690
-342.377	63.734	0.276	-0.276
-341.362	800.000	0.066	-0.208
-340.348	800.000	0.040	-0.148
-339.333	347.184	0.186	-0.363
-338.318	-200.000	-0.005	0.083
-337.304	-78.753	-0.322	-0.109
-336.289	90.676	-0.066	-0.073
-335.275	-91.623	-0.505	-0.143
-334.260	-28.641	0.147	-0.084
-333.245	800.000	-0.061	0.209
-332.231	5.439	-0.094	0.069
-331.216	-47.921	-0.369	-0.178
-330.202	130.510	-0.084	-0.107
-329.187	423.718	0.086	0.183
-328.172	-168.646	0.366	-0.014
-327.158	-133.353	-0.149	0.019
-326.143	326.170	-0.185	0.351
-325.129	-162.646	-0.034	-0.002
-324.114	151.433	0.053	-0.072
-323.099	347.207	0.046	0.090
-322.085	-5.284	-0.062	0.042
-321.070	-86.665	-0.216	-0.066
-320.056	-45.437	-0.447	-0.220
-319.041	800.000	-0.141	0.483
-318.026	573.916	0.146	0.353
-317.012	-200.000	-0.005	0.093
-315.997	-147.738	-0.225	0.019
-314.983	-200.000	0.012	0.251
-313.968	800.000	0.018	0.058
-312.953	377.333	0.026	0.053
-311.939	-63.617	0.530	0.216
-310.924	373.866	0.077	0.156
-309.910	-200.000	-0.006	0.183
-308.895	15.105	0.080	0.062
-307.880	81.006	0.244	0.261
-306.866	260.159	0.017	0.029
-305.851	-200.000	0.041	-0.196
-304.837	-200.000	-0.016	0.103
-303.822	-8.182	0.231	0.154
-302.807	-200.000	0.007	0.369
-301.793	705.212	0.062	-0.162
-300.778	-200.000	-0.025	0.189
-299.764	-30.913	0.083	0.046
-298.749	-80.376	0.359	-0.119
-297.735	95.597	-0.174	-0.197
-296.720	-83.039	-0.237	-0.076
-295.705	-3.691	0.147	0.101
-294.691	254.142	-0.125	-0.211
-293.676	-166.255	-0.319	-0.013
-292.662	-62.842	-0.069	-0.029
-291.647	240.324	0.074	0.122
-290.632	-200.000	-0.005	0.039
-289.618	-200.000	-0.023	0.140
-288.603	-200.000	-0.006	-0.124
-287.589	53.522	0.079	-0.075
-286.574	356.862	0.129	0.255
-285.559	-47.573	0.235	-0.113
-284.545	5.825	0.225	0.165
-283.530	220.925	-0.080	0.128
-282.516	-111.361	-0.108	-0.022
-281.501	33.319	0.199	-0.171
-280.486	329.808	-0.190	-0.363
-279.472	-121.259	0.338	0.056
-278.457	-129.901	0.397	-0.054
-277.443	-2.926	-0.072	-0.050
-276.428	417.987	0.048	0.101
-275.413	197.574	0.006	0.009
-274.399	-109.738	-0.056	-0.012
-273.384	308.012	-0.164	-0.303
-272.370	-105.883	-0.083	0.019
-271.355	-135.365	-0.103	0.012
-270.340	283.499	-0.076	-0.135
-269.326	-6.646	-0.176	0.119
-268.311	144.811	0.083	-0.110
-267.297	626.173	0.036	-0.089
-266.282	16.018	0.216	0.168
-265.267	-47.007	-0.194	0.094
-264.253	3.194	0.312	-0.225
-263.238	-30.151	-0.312	0.176
-262.224	174.693	0.287	0.411
-261.209	197.623	0.054	-0.081
-260.195	800.000	-0.023	-0.078
-259.180	-200.000	-0.008	0.076
-258.165	241.449	-0.221	0.366
-257.151	-168.095	-0.339	0.013
-256.136	-166.502	0.232	0.010
-255.122	-68.175	-0.403	0.155
-254.107	-175.526	-0.145	-0.004
-253.092	-115.871	0.116	0.021
-252.078	-56.918	0.196	0.086
-251.063	139.134	-0.157	0.204
-250.049	9.438	0.305	-0.229
-249.034	52.707	-0.115	-0.109
-248.019	800.000	-0.026	0.072
-247.005	464.539	0.050	0.111
-245.990	619.302	-0.008	0.021
-244.976	-82.818	-0.412	-0.132
-243.961	56.427	-0.118	-0.114
-242.946	-108.754	-0.089	-0.019
-241.932	-16.354	0.127	-0.080
-240.917	-25.562	-0.072	-0.042
-239.903	-200.000	-0.009	-0.195
-238.888	-124.700	-0.515	-0.079
-237.873	-200.000	-0.027	-0.174
-236.859	-17.362	-0.065	0.041
-235.844	-116.640	-0.285	-0.052
-234.830	184.370	-0.115	-0.169
-233.815	-98.431	-0.308	-0.078
-232.800	300.220	0.098	0.178
-231.786	-149.418	-0.261	-0.021
-230.771	-108.561	-0.282	-0.060
-229.757	106.054	-0.068	-0.080
-228.742	5.487	0.179	0.130
-227.727	-30.270	0.191	0.107
-226.713	-117.831	0.083	0.015
-225.698	388.823	0.111	-0.227
-224.684	47.365	0.139	0.128
-223.669	-90.868	-0.178	-0.051
-222.655	800.000	-0.073	-0.284
-221.640	68.255	0.104	-0.105
-220.625	652.276	0.135	-0.341
-219.611	95.001	-0.075	0.084
-218.596	144.991	0.157	0.208
-217.582	10.008	0.130	-0.097
-216.567	-33.231	-0.186	0.102
-215.552	-2.387	0.213	-0.148
-214.538	-42.185	-0.267	-0.135
-213.523	-200.000	-0.022	-0.363
-212.509	42.934	0.121	0.109
-211.494	-144.005	0.113	0.010
-210.479	-94.250	0.232	0.063
-209.465	-23.412	-0.123	-0.073
-208.450	-190.692	0.423	0.004
-207.436	57.848	0.160	0.155
-206.421	-200.000	0.054	0.241
-205.406	-141.734	-0.068	-0.007
-204.392	55.801	0.137	0.131
-203.377	-200.000	-0.037	0.240
-202.363	-128.235	0.259	0.036
-201.348	800.000	-0.042	-0.120
-200.333	407.258	-0.012	-0.025
-199.319	-17.334	0.249	0.155
-198.304	-144.411	-0.246	-0.023
-197.290	-70.141	0.322	0.121
-196.275	-200.000	-0.015	0.227
-195.260	-181.107	0.246	0.005
-194.246	206.383	0.090	-0.139
-193.231	-130.425	-0.441	0.059
-192.217	132.506	-0.226	0.288
-191.202	-42.444	0.294	-0.148
-190.187	280.485	-0.099	-0.175
-189.173	-76.868	-0.158	-0.055
-188.158	-92.242	0.202	-0.056
-187.144	397.984	0.096	-0.199
-186.129	761.370	-0.060	0.160
-185.114	-200.000	0.045	-0.266
-184.100	-124.571	0.131	-0.020
-183.085	-69.018	-0.189	0.072
-182.071	-200.000	-0.008	0.217
-181.056	800.000	0.042	0.151
-180.042	-107.065	0.166	-0.036
-179.027	239.761	-0.064	-0.106
-178.012	30.341	0.285	-0.241
-176.998	1.935	0.544	-0.388
-175.983	150.733	-0.174	-0.234
-174.969	-68.480	0.076	-0.029
-173.954	-121.386	0.363	-0.060
-172.939	-16.292	0.292	-0.183
-171.925	-45.053	0.196	0.096
-170.910	-200.000	0.002	-0.311
-169.896	-19.960	0.146	-0.089
-168.881	249.544	0.164	0.274
-167.866	-200.000	0.014	0.254
-166.852	-11.110	-0.108	0.070
-165.837	781.219	0.090	-0.243
-164.823	-125.001	-0.340	0.052
-163.808	75.710	0.032	0.033
-162.793	-31.409	0.096	0.053
-161.779	800.000	0.030	-0.106
-160.764	146.763	-0.080	-0.107
-159.750	353.663	-0.152	-0.298
-158.735	193.534	0.150	-0.224
-157.720	-99.699	0.031	-0.008
-156.706	-120.476	-0.327	-0.055
-155.691	-200.000	0.079	-0.380
-154.677	-68.726	-0.331	-0.126
-153.662	-5.497	0.162	-0.110
-152.647	-97.832	0.143	-0.037
-151.633	-70.142	0.151	-0.056
-150.618	47.156	-0.154	-0.141
-149.604	22.032	-0.277	-0.223
-148.589	630.950	-0.053	0.132
-147.574	54.987	0.270	-0.257
-146.560	-179.886	0.068	0.001
-145.545	-10.408	-0.126	0.082
-144.531	106.601	-0.172	-0.202
-143.516	113.606	0.144	0.173
-142.502	-120.383	0.268	0.045
-141.487	169.140	0.115	-0.162
-140.472	703.291	0.053	0.138
-139.458	7.922	-0.149	0.110
-138.443	-119.427	0.063	-0.011
-137.429	-200.000	-0.015	0.177
-136.414	9.891	-0.088	0.066
-135.399	464.712	0.074	-0.163
-134.385	6.512	0.104	-0.076
-133.370	-45.548	-0.385	0.188
-132.356	286.746	0.118	0.211
-131.341	800.000	0.022	0.080
-130.326	-66.103	-0.354	0.139
-129.312	-129.045	0.123	0.017
-128.297	697.440	-0.076	-0.196
-127.283	47.170	0.212	0.195
-126.268	215.811	-0.067	-0.104
-125.253	550.319	0.107	0.253
-124.239	-9.296	0.103	-0.068
-123.224	800.000	0.104	-0.282
-122.210	50.932	0.332	-0.310
-121.195	32.304	0.080	0.068
