DTS Sentinel unit serial number:	SN413079Multiplexer serial number:	ORYXHardware model number:	OX4-SRSoftware version number:	ORYX F/W v4.00 Oryx Data Collector v3.7.2.0data status	okinstallation	princeton_trtdifferential loss correction	single-endedforward channel	channel 2reverse channel	N/Adate	2019/09/10time	23:45:10forward acquisition time	60.00reverse acquisition time	0.00gamma	496.2192k internal	0.2330k external	0.2330temperature offset calibration	0.9947default loss term (dB/km)	0.3790temperature slope calibration	1.0000multiplexer offset coefficient	1.0000multiplexer slope coefficient	1.0000fibre end	0.00T internal ref (°C)	29.56T ext. ref 1 (°C)	-0.30T ext. ref 2 (°C)	22.93length (m)	temperature (°C)	Stokes	anti-Stokes-747.200	0.407	0.137	0.098
-746.185	121.890	-0.184	0.231
-745.171	-101.422	0.264	0.065
-744.156	-141.922	-0.287	0.029
-743.142	-200.000	-0.001	0.130
-742.127	-119.252	-0.132	0.023
-741.112	800.000	0.036	0.159
-740.098	-200.000	0.034	0.247
-739.083	-78.596	0.306	-0.105
-738.069	-61.825	-0.098	-0.041
-737.054	13.272	-0.295	-0.230
-736.039	-153.199	-0.447	-0.031
-735.025	5.854	-0.151	0.112
-734.010	17.467	0.352	0.281
-732.996	800.000	0.039	-0.155
-731.981	-48.111	0.243	0.118
-730.966	-60.835	-0.325	-0.138
-729.952	-200.000	-0.143	0.000
-728.937	55.412	-0.228	0.222
-727.923	-200.000	-0.024	0.346
-726.908	-200.000	0.063	-0.349
-725.894	-69.050	-0.134	-0.052
-724.879	-140.723	-0.246	-0.026
-723.864	-200.000	-0.022	0.237
-722.850	-44.159	0.130	-0.066
-721.835	-116.019	-0.363	0.068
-720.821	-63.470	0.099	0.041
-719.806	-107.240	-0.208	0.046
-718.791	-200.000	-0.032	0.299
-717.777	-41.151	-0.042	-0.022
-716.762	47.980	-0.171	0.161
-715.748	-182.714	-0.225	0.004
-714.733	-200.000	-0.026	0.256
-713.718	-87.461	0.190	0.058
-712.704	48.952	0.221	-0.208
-711.689	-200.000	-0.040	0.270
-710.675	305.467	-0.049	0.092
-709.660	-200.000	-0.032	-0.307
-708.645	-113.774	-0.110	-0.021
-707.631	-65.581	-0.294	0.118
-706.616	631.561	-0.096	-0.245
-705.602	800.000	-0.047	0.151
-704.587	280.770	-0.099	-0.179
-703.572	48.143	0.184	-0.173
-702.558	255.417	0.082	0.140
-701.543	800.000	0.044	0.166
-700.529	-68.284	-0.266	0.104
-699.514	-18.025	0.140	-0.088
-698.499	800.000	0.083	-0.285
-697.485	48.075	0.165	0.155
-696.470	-200.000	-0.016	0.287
-695.456	-9.785	0.086	-0.057
-694.441	86.073	-0.253	-0.279
-693.426	-117.742	0.121	0.022
-692.412	235.936	-0.016	0.027
-691.397	-51.556	0.084	-0.040
-690.383	16.200	-0.214	0.169
-689.368	-200.000	-0.013	-0.209
-688.354	118.855	-0.095	0.118
-687.339	244.872	-0.177	0.299
-686.324	84.548	-0.026	0.029
-685.310	-4.563	0.161	-0.112
-684.295	-92.227	-0.084	-0.024
-683.281	800.000	-0.029	0.113
-682.266	99.251	0.022	0.026
-681.251	-93.866	0.037	0.010
-680.237	800.000	0.114	-0.429
-679.222	800.000	-0.016	-0.063
-678.208	189.527	-0.273	0.411
-677.193	800.000	-0.070	0.203
-676.178	168.287	0.155	0.222
-675.164	84.356	0.081	-0.089
-674.149	301.734	-0.149	-0.277
-673.135	417.353	0.152	-0.325
-672.120	287.926	-0.068	0.124
-671.105	-25.695	0.178	-0.105
-670.091	-112.122	0.184	-0.037
-669.076	174.593	0.088	-0.128
-668.062	-91.798	-0.199	-0.057
-667.047	188.558	-0.042	-0.062
-666.032	-124.866	0.140	0.022
-665.018	-200.000	-0.008	-0.104
-664.003	260.134	0.192	-0.333
-662.989	-134.198	0.206	0.025
-661.974	-5.769	-0.199	-0.137
-660.959	-200.000	-0.033	-0.382
-659.945	-110.811	0.046	0.010
-658.930	-200.000	-0.057	0.304
-657.916	-200.000	-0.068	0.389
-656.901	173.397	-0.144	0.208
-655.886	124.490	0.183	-0.231
-654.872	-38.011	0.280	-0.149
-653.857	-55.460	-0.255	0.115
-652.843	267.728	-0.045	-0.080
-651.828	-200.000	0.012	0.204
-650.814	-151.370	-0.217	-0.016
-649.799	-200.000	0.016	-0.072
-648.784	-161.511	-0.111	0.006
-647.770	-18.858	-0.405	0.253
-646.755	230.582	0.069	0.113
-645.741	74.446	-0.103	-0.109
-644.726	-133.744	0.125	0.016
-643.711	-200.000	0.005	0.039
-642.697	-96.967	0.155	-0.041
-641.682	-200.000	0.016	0.153
-640.668	-182.779	-0.333	0.006
-639.653	79.255	0.078	0.084
-638.638	-83.122	-0.139	0.045
-637.624	-77.472	-0.140	-0.049
-636.609	-91.104	-0.081	-0.023
-635.595	-200.000	0.053	0.305
-634.580	-175.625	0.091	0.002
-633.565	800.000	-0.051	0.194
-632.551	800.000	0.044	0.160
-631.536	-8.955	0.191	-0.129
-630.522	-124.444	0.234	0.037
-629.507	-23.813	-0.126	0.075
-628.492	800.000	0.082	-0.312
-627.478	-30.813	-0.196	0.111
-626.463	-123.441	0.104	-0.017
-625.449	-7.723	-0.086	0.058
-624.434	-127.509	-0.238	0.035
-623.419	-179.994	-0.134	0.003
-622.405	264.718	-0.137	0.240
-621.390	800.000	-0.013	0.038
-620.376	-200.000	-0.041	0.392
-619.361	211.736	0.101	0.159
-618.346	800.000	0.112	0.416
-617.332	800.000	-0.105	-0.439
-616.317	-85.953	-0.158	-0.049
-615.303	-38.980	0.143	0.075
-614.288	-16.818	0.145	-0.092
-613.273	12.377	0.054	-0.041
-612.259	-13.013	0.136	-0.089
-611.244	-88.723	-0.419	-0.125
-610.230	-102.269	0.259	0.062
-609.215	517.851	0.150	0.352
-608.201	-200.000	0.045	0.375
-607.186	-172.156	-0.284	-0.009
-606.171	182.339	-0.172	0.253
-605.157	-19.337	0.278	-0.173
-604.142	-78.618	-0.249	0.085
-603.128	-64.894	-0.211	0.085
-602.113	-200.000	-0.047	-0.217
-601.098	338.501	0.137	-0.268
-600.084	-53.153	-0.065	-0.030
-599.069	-64.114	-0.072	-0.029
-598.055	145.638	0.101	0.136
-597.040	-74.747	0.233	0.084
-596.025	157.961	-0.094	0.131
-595.011	-89.942	-0.292	-0.085
-593.996	-119.599	0.401	0.069
-592.982	280.268	-0.038	-0.068
-591.967	-9.035	0.198	0.133
-590.952	-200.000	-0.024	-0.266
-589.938	-94.812	0.369	-0.100
-588.923	-200.000	-0.005	-0.134
-587.909	12.674	0.032	0.025
-586.894	-14.920	-0.073	0.047
-585.879	-22.918	-0.111	-0.067
-584.865	-200.000	0.036	-0.204
-583.850	-87.909	-0.206	-0.062
-582.836	201.062	-0.060	0.092
-581.821	-200.000	-0.007	-0.122
-580.806	639.526	0.062	-0.157
-579.792	-159.837	0.247	0.014
-578.777	-200.000	-0.030	-0.250
-577.763	800.000	0.067	0.251
-576.748	87.583	0.049	-0.055
-575.733	-200.000	0.009	-0.127
-574.719	66.651	0.100	-0.102
-573.704	601.095	0.094	-0.232
-572.690	28.673	0.338	-0.286
-571.675	255.876	-0.186	-0.318
-570.661	17.469	0.116	-0.092
-569.646	-200.000	0.060	-0.288
-568.631	708.134	0.097	0.256
-567.617	-139.583	-0.203	-0.022
-566.602	-117.713	-0.116	0.021
-565.588	-30.758	-0.198	-0.112
-564.573	-114.485	-0.212	0.041
-563.558	333.999	0.066	0.128
-562.544	57.418	0.239	-0.233
-561.529	-116.770	0.259	-0.048
-560.515	301.345	0.099	-0.182
-559.500	800.000	-0.046	0.173
-558.485	-200.000	-0.015	0.260
-557.471	21.358	0.323	-0.262
-556.456	-82.603	-0.303	0.098
-555.442	-30.549	-0.260	-0.147
-554.427	640.936	0.056	0.143
-553.412	18.933	-0.134	0.107
-552.398	800.000	-0.078	-0.278
-551.383	-91.919	-0.090	0.025
-550.369	800.000	-0.043	-0.154
-549.354	502.383	-0.074	-0.170
-548.339	256.494	0.111	0.190
-547.325	800.000	0.048	0.208
-546.310	-72.359	-0.118	-0.044
-545.296	6.676	-0.104	-0.077
-544.281	-63.060	-0.149	-0.061
-543.266	-110.186	0.211	0.044
-542.252	18.954	0.338	-0.271
-541.237	-157.448	-0.258	-0.015
-540.223	-53.419	-0.032	0.015
-539.208	-121.422	-0.218	-0.036
-538.193	-200.000	0.106	0.000
-537.179	-29.095	-0.085	0.049
-536.164	1.491	0.244	-0.175
-535.150	-59.648	0.076	-0.032
-534.135	-200.000	0.019	-0.092
-533.121	612.893	-0.104	0.261
-532.106	800.000	-0.043	0.179
-531.091	-105.782	-0.016	-0.004
-530.077	-100.979	-0.429	0.105
-529.062	1.987	0.087	-0.063
-528.048	594.989	-0.074	-0.184
-527.033	-18.842	-0.268	0.167
-526.018	-150.392	-0.229	0.018
-525.004	67.243	-0.237	0.242
-523.989	-146.945	-0.210	-0.018
-522.975	68.329	-0.094	-0.097
-521.960	-42.447	0.086	-0.044
-520.945	-97.928	0.121	0.031
-519.931	307.545	-0.121	0.225
-518.916	-108.689	-0.298	0.064
-517.902	98.193	-0.105	-0.121
-516.887	143.342	-0.115	0.153
-515.872	-60.232	-0.053	0.022
-514.858	-121.763	0.303	0.050
-513.843	-32.998	0.097	-0.054
-512.829	50.526	-0.327	0.309
-511.814	395.509	-0.146	-0.303
-510.799	8.042	0.159	-0.119
-509.785	316.546	-0.078	0.146
-508.770	71.212	0.225	-0.233
-507.756	-137.504	0.158	0.018
-506.741	800.000	-0.095	-0.317
-505.726	363.630	-0.169	0.338
-504.712	-114.201	-0.321	-0.062
-503.697	109.979	-0.055	0.065
-502.683	-200.000	0.273	0.001
-501.668	-101.588	0.200	0.048
-500.653	-129.170	0.240	-0.033
-499.639	282.021	0.104	0.187
-498.624	216.461	-0.179	0.285
-497.610	7.701	-0.160	-0.120
-496.595	-55.255	-0.407	-0.182
-495.581	-40.648	-0.218	0.113
-494.566	-122.715	0.163	0.026
-493.551	90.331	-0.092	0.102
-492.537	172.083	-0.075	0.107
-491.522	-200.000	-0.003	0.272
-490.508	122.635	-0.169	-0.211
-489.493	149.275	-0.107	-0.144
-488.478	-200.000	-0.044	-0.266
-487.464	208.303	-0.084	0.131
-486.449	-153.285	-0.270	0.019
-485.435	-183.326	0.514	0.009
-484.420	-56.415	0.294	-0.130
-483.405	-33.993	-0.169	-0.093
-482.391	-114.061	0.485	-0.094
-481.376	-200.000	0.037	0.177
-480.362	800.000	0.097	0.386
-479.347	525.777	0.039	-0.091
-478.332	-200.000	0.027	0.446
-477.318	800.000	-0.033	0.099
-476.303	-24.694	-0.359	-0.213
-475.289	-64.939	-0.198	0.080
-474.274	93.380	0.137	0.155
-473.259	58.815	-0.131	0.128
-472.245	-190.687	0.214	-0.002
-471.230	12.094	-0.083	0.064
-470.216	35.804	-0.111	0.098
-469.201	-200.000	0.007	-0.128
-468.186	-200.000	-0.019	0.303
-467.172	800.000	-0.081	-0.225
-466.157	117.909	-0.182	-0.223
-465.143	-136.347	-0.252	0.029
-464.128	88.662	-0.147	-0.163
-463.113	-56.731	-0.227	0.100
-462.099	93.418	-0.105	0.118
-461.084	14.004	-0.205	0.159
-460.070	-111.397	-0.199	-0.040
-459.055	-146.292	0.332	0.029
-458.040	101.725	0.057	0.066
-457.026	32.986	0.218	0.188
-456.011	222.712	-0.020	0.031
-454.997	-115.195	-0.205	-0.039
-453.982	-200.000	-0.040	0.286
-452.968	-27.165	0.085	-0.049
-451.953	800.000	0.079	0.243
-450.938	-93.659	-0.313	-0.086
-449.924	-2.239	0.259	-0.181
-448.909	56.623	0.092	0.089
-447.895	-55.890	-0.152	0.068
-446.880	209.091	0.017	-0.026
-445.865	111.262	-0.059	0.071
-444.851	-200.000	-0.005	-0.074
-443.836	109.878	-0.231	-0.276
-442.822	-200.000	0.039	0.239
-441.807	-17.554	0.351	0.220
-440.792	800.000	-0.074	0.205
-439.778	-28.107	-0.101	0.058
-438.763	-64.461	0.226	0.091
-437.749	800.000	0.124	-0.379
-436.734	164.219	-0.072	-0.101
-435.719	52.695	0.097	0.092
-434.705	-125.154	0.313	-0.048
-433.690	616.771	0.097	-0.241
-432.676	-98.538	0.470	0.119
-431.661	800.000	-0.114	0.380
-430.646	-200.000	-0.012	0.067
-429.632	-111.123	0.195	-0.040
-428.617	120.856	0.150	-0.186
-427.603	-198.870	0.037	-0.000
-426.588	-123.837	0.232	-0.036
-425.573	-200.000	-0.003	-0.103
-424.559	-138.575	-0.291	0.032
-423.544	493.728	-0.019	-0.043
-422.530	-100.548	0.172	0.042
-421.515	-83.206	0.218	-0.070
-420.500	210.803	0.044	0.068
-419.486	800.000	-0.122	-0.397
-418.471	-73.898	0.288	-0.104
-417.457	-200.000	-0.011	-0.233
-416.442	-200.000	-0.098	0.440
-415.428	-103.128	0.106	0.025
-414.413	-46.671	-0.143	0.069
-413.398	-144.171	0.289	-0.027
-412.384	300.551	-0.115	-0.211
-411.369	4.240	-0.058	-0.042
-410.355	-8.749	-0.264	-0.176
-409.340	-84.356	0.091	-0.029
-408.325	-146.868	0.072	0.006
-407.311	-11.771	0.238	0.155
-406.296	-117.389	-0.208	0.037
-405.282	-9.039	-0.174	-0.116
-404.267	-200.000	0.008	0.115
-403.252	754.730	0.036	-0.097
-402.238	-80.015	-0.056	0.019
-401.223	516.765	0.049	0.114
-400.209	-142.699	0.154	-0.015
-399.194	590.510	0.076	-0.186
-398.179	528.955	-0.056	0.131
-397.165	200.004	0.208	0.317
-396.150	-118.529	-0.172	-0.030
-395.136	-124.220	-0.344	0.053
-394.121	-34.953	0.352	-0.191
-393.106	-200.000	0.006	0.254
-392.092	125.605	0.124	-0.155
-391.077	-94.822	0.229	-0.062
-390.063	-200.000	0.066	-0.438
-389.048	123.463	0.113	-0.141
-388.033	-107.445	0.261	-0.057
-387.019	25.965	-0.324	-0.268
-386.004	-114.929	0.268	-0.051
-384.990	-6.755	-0.069	0.046
-383.975	-156.172	0.302	0.019
-382.960	-1.956	0.195	0.136
-381.946	-148.006	-0.605	0.050
-380.931	-11.490	0.039	0.026
-379.917	219.745	-0.082	-0.130
-378.902	-200.000	-0.012	0.298
-377.888	-119.286	0.096	-0.017
-376.873	-200.000	0.033	-0.210
-375.858	-33.347	0.145	0.079
-374.844	-200.000	0.023	-0.206
-373.829	102.994	0.204	0.237
-372.815	800.000	0.058	0.246
-371.800	34.207	0.114	-0.098
-370.785	-70.942	0.069	-0.026
-369.771	264.600	0.047	-0.081
-368.756	800.000	-0.044	-0.165
-367.742	-200.000	-0.035	0.179
-366.727	278.752	0.068	-0.121
-365.712	165.006	0.101	0.141
-364.698	228.515	-0.076	-0.123
-363.683	-37.620	-0.401	-0.212
-362.669	-0.256	-0.292	-0.206
-361.654	209.282	-0.080	0.124
-360.639	126.860	-0.134	0.168
-359.625	-160.563	0.237	-0.013
-358.610	-44.311	0.149	-0.074
-357.596	-113.576	0.249	-0.048
-356.581	-71.708	-0.216	0.080
-355.566	-200.000	-0.027	0.360
-354.552	-200.000	-0.026	0.122
-353.537	53.907	0.029	-0.028
-352.523	-200.000	-0.064	-0.310
-351.508	107.869	0.034	-0.040
-350.493	-200.000	-0.015	0.439
-349.479	45.924	0.188	-0.173
-348.464	800.000	0.016	-0.055
-347.450	-200.000	-0.017	0.136
-346.435	632.130	0.196	0.493
-345.420	-117.130	0.089	-0.016
-344.406	-58.638	-0.127	0.055
-343.391	160.705	0.009	-0.012
-342.377	82.594	0.135	0.146
-341.362	-200.000	-0.017	-0.111
-340.348	103.147	-0.206	0.240
-339.333	-51.332	0.046	0.021
-338.318	-200.000	-0.099	-0.509
-337.304	511.515	0.119	-0.274
-336.289	-58.836	0.452	0.194
-335.275	800.000	-0.018	-0.080
-334.260	43.360	0.054	-0.049
-333.245	-108.013	-0.131	-0.028
-332.231	119.932	0.190	0.234
-331.216	43.280	0.274	-0.248
-330.202	15.429	-0.185	-0.144
-329.187	-200.000	0.018	0.143
-328.172	-94.805	0.114	-0.031
-327.158	663.868	0.076	0.193
-326.143	-136.652	0.314	0.036
-325.129	-145.978	0.186	-0.016
-324.114	-24.807	-0.160	0.094
-323.099	-52.979	0.365	-0.166
-322.085	56.293	0.068	0.065
-321.070	-16.959	-0.116	-0.073
-320.056	195.644	0.143	0.215
-319.041	-5.973	0.080	-0.054
-318.026	394.153	0.199	0.411
-317.012	-146.156	0.301	-0.026
-315.997	-112.811	-0.189	0.037
-314.983	-200.000	0.006	0.191
-313.968	-86.500	-0.320	-0.097
-312.953	-14.076	-0.316	-0.202
-311.939	-60.122	-0.393	-0.166
-310.924	-126.175	-0.098	-0.014
-309.910	293.544	0.014	0.025
-308.895	-200.000	0.000	0.071
-307.880	-18.304	0.290	-0.179
-306.866	145.231	-0.016	-0.021
-305.851	-140.367	0.155	0.016
-304.837	-51.133	0.362	0.168
-303.822	583.803	0.075	-0.183
-302.807	25.182	-0.109	0.090
-301.793	800.000	-0.114	0.329
-300.778	499.093	-0.141	-0.321
-299.764	-174.059	0.191	-0.006
-298.749	764.137	-0.038	0.101
-297.735	-32.567	0.186	-0.102
-296.720	-125.939	0.248	0.037
-295.705	-143.499	-0.090	-0.009
-294.691	-170.729	-0.155	-0.005
-293.676	-80.702	-0.356	-0.117
-292.662	800.000	-0.030	-0.115
-291.647	-101.152	0.212	0.051
-290.632	-11.823	-0.214	0.139
-289.618	-200.000	-0.004	-0.032
-288.603	257.695	0.122	-0.207
-287.589	-102.654	0.289	-0.068
-286.574	97.269	-0.102	-0.116
-285.559	90.846	-0.155	-0.172
-284.545	-200.000	-0.026	-0.221
-283.530	-200.000	-0.012	0.052
-282.516	-125.684	0.209	-0.031
-281.501	-200.000	0.017	-0.183
-280.486	119.151	-0.147	0.180
-279.472	-19.700	-0.242	0.148
-278.457	-87.527	0.214	0.064
-277.443	-148.466	-0.364	0.029
-276.428	-200.000	-0.062	0.268
-275.413	-141.246	0.241	0.024
-274.399	-34.474	0.226	0.122
-273.384	-200.000	0.014	-0.313
-272.370	139.269	0.046	-0.060
-271.355	74.084	0.190	0.197
-270.340	117.838	-0.139	0.169
-269.326	-32.585	-0.559	-0.308
-268.311	335.342	-0.176	-0.337
-267.297	-200.000	0.000	-0.179
-266.282	72.659	-0.218	0.224
-265.267	-42.487	-0.067	0.034
-264.253	168.710	0.156	-0.220
-263.238	74.083	0.099	0.103
-262.224	260.778	0.194	0.331
-261.209	800.000	-0.086	0.334
-260.195	-16.027	0.354	-0.223
-259.180	800.000	0.018	-0.072
-258.165	-29.879	0.283	-0.160
-257.151	115.627	-0.286	-0.345
-256.136	-200.000	0.002	0.233
-255.122	21.501	0.223	0.179
-254.107	-127.837	0.175	0.025
-253.092	-135.943	0.149	0.017
-252.078	-73.042	0.087	-0.031
-251.063	69.404	0.248	-0.252
-250.049	42.025	0.190	-0.171
-249.034	-157.392	-0.273	0.016
-248.019	95.170	0.090	-0.101
-247.005	800.000	0.054	0.162
-245.990	338.926	0.168	-0.324
-244.976	-113.969	-0.295	-0.056
-243.961	-25.498	0.277	0.161
-242.946	-96.839	-0.455	0.118
-241.932	-200.000	0.006	-0.287
-240.917	-75.487	-0.107	-0.038
-239.903	800.000	-0.074	-0.205
-238.888	320.731	-0.116	-0.218
-237.873	194.200	-0.273	0.408
-236.859	103.215	0.094	-0.109
-235.844	30.066	-0.286	0.241
-234.830	-48.724	0.206	0.098
-233.815	280.334	-0.070	0.124
-232.800	-106.297	0.022	-0.005
-231.786	-8.891	0.127	0.084
-230.771	179.169	0.116	-0.167
-229.757	-150.768	0.220	0.017
-228.742	-88.069	-0.126	-0.037
-227.727	6.142	0.276	0.202
-226.713	414.547	-0.091	0.191
-225.698	800.000	0.051	0.172
-224.684	67.279	0.081	-0.081
-223.669	57.473	-0.043	0.042
-222.655	-20.950	0.303	-0.183
-221.640	118.468	-0.160	-0.194
-220.625	-200.000	-0.091	-0.471
-219.611	-26.305	-0.307	-0.178
-218.596	-200.000	0.008	-0.100
-217.582	-98.721	-0.349	-0.088
-216.567	370.221	0.202	-0.403
-215.552	-200.000	-0.020	-0.168
-214.538	-18.863	0.311	-0.191
-213.523	13.019	-0.237	0.181
-212.509	-200.000	-0.009	-0.111
-211.494	47.901	0.054	0.050
-210.479	61.037	-0.044	0.043
-209.465	-49.874	-0.237	0.111
-208.450	9.234	0.165	0.123
-207.436	-158.878	0.186	0.010
-206.421	466.574	0.107	0.237
-205.406	-200.000	-0.028	0.337
-204.392	153.740	-0.086	-0.116
-203.377	800.000	-0.138	-0.481
-202.363	-200.000	0.008	-0.187
-201.348	37.559	-0.133	0.116
-200.333	-200.000	0.004	0.112
-199.319	-148.172	-0.052	-0.004
-198.304	-12.642	-0.198	-0.127
-197.290	207.435	-0.250	-0.384
-196.275	-200.000	-0.007	-0.127
-195.260	0.681	-0.317	0.224
-194.246	-100.020	-0.142	0.035
-193.231	-15.898	-0.143	-0.090
-192.217	-172.353	0.044	-0.001
-191.202	-123.898	0.133	0.021
-190.187	325.161	0.093	0.176
-189.173	-51.311	-0.147	0.068
-188.158	213.305	-0.008	-0.012
-187.144	73.941	0.314	0.325
-186.129	-200.000	0.003	-0.131
-185.114	497.121	-0.116	-0.262
-184.100	-84.117	0.078	-0.025
-183.085	-200.000	0.011	-0.117
-182.071	-78.442	-0.277	0.094
-181.056	-26.806	-0.090	-0.052
-180.042	-130.179	-0.427	0.057
-179.027	-161.341	0.220	-0.011
-178.012	-110.547	-0.282	-0.058
-176.998	-60.488	-0.164	-0.069
-175.983	800.000	0.076	-0.228
-174.969	211.180	0.134	0.207
-173.954	7.999	0.159	0.117
-172.939	800.000	-0.092	0.259
-171.925	-10.113	-0.353	0.231
-170.910	22.192	0.163	0.131
-169.896	1.193	0.158	-0.112
-168.881	-84.531	-0.228	0.071
-167.866	243.775	-0.132	-0.218
-166.852	-87.433	0.126	-0.038
-165.837	-200.000	0.024	-0.163
-164.823	-137.215	-0.179	0.020
-163.808	800.000	-0.055	0.187
-162.793	-106.005	0.376	-0.083
-161.779	688.867	0.106	0.274
-160.764	-59.765	-0.231	-0.097
-159.750	-152.810	0.473	0.033
-158.735	143.133	-0.210	0.275
-157.720	-121.102	0.194	-0.032
-156.706	53.159	-0.063	0.060
-155.691	169.531	0.172	-0.242
-154.677	-200.000	0.013	-0.184
-153.662	-24.291	0.209	0.123
-152.647	-177.087	0.106	-0.003
-151.633	-200.000	-0.050	0.317
-150.618	67.159	0.179	0.179
-149.604	163.083	0.262	0.363
-148.589	-200.000	-0.021	0.208
-147.574	-17.747	-0.243	0.150
-146.560	-66.301	-0.332	0.130
-145.545	470.862	-0.024	0.052
-144.531	382.666	0.106	-0.215
-143.516	427.584	0.099	0.210
-142.502	-200.000	0.039	-0.171
-141.487	-200.000	-0.034	0.316
-140.472	201.217	0.084	-0.127
-139.458	-149.049	-0.181	0.014
-138.443	-188.649	0.143	-0.002
-137.429	267.775	-0.316	0.543
-136.414	800.000	-0.133	0.393
-135.399	127.623	-0.103	-0.128
-134.385	-86.272	0.134	0.041
-133.370	-200.000	-0.026	0.137
-132.356	-51.273	-0.295	-0.136
-131.341	6.160	0.074	-0.054
-130.326	-200.000	-0.030	-0.155
-129.312	-143.678	-0.121	-0.011
-128.297	-24.293	-0.195	-0.115
-127.283	21.501	-0.030	0.024
-126.268	-200.000	0.053	0.306
-125.253	-107.480	-0.262	-0.056
-124.239	93.391	-0.221	-0.246
-123.224	800.000	-0.033	-0.134
-122.210	444.225	-0.037	-0.080
