DTS Sentinel unit serial number:	SN413079Multiplexer serial number:	ORYXHardware model number:	OX4-SRSoftware version number:	ORYX F/W v4.00 Oryx Data Collector v3.7.2.0data status	okinstallation	princeton_trtdifferential loss correction	single-endedforward channel	channel 2reverse channel	N/Adate	2019/09/17time	20:19:35forward acquisition time	60.00reverse acquisition time	0.00gamma	496.2192k internal	0.2333k external	0.2333temperature offset calibration	0.9985default loss term (dB/km)	0.3790temperature slope calibration	1.0000multiplexer offset coefficient	1.0000multiplexer slope coefficient	1.0000fibre end	0.00T internal ref (°C)	31.52T ext. ref 1 (°C)	0.22T ext. ref 2 (°C)	21.91length (m)	temperature (°C)	Stokes	anti-Stokes-747.200	800.000	0.007	-0.020
-746.185	-37.600	-0.196	0.105
-745.171	-42.854	-0.187	-0.096
-744.156	-51.155	-0.408	0.192
-743.142	23.933	-0.143	-0.118
-742.127	-8.123	-0.220	0.149
-741.112	-51.259	-0.202	-0.095
-740.098	5.732	0.170	0.127
-739.083	-173.390	0.225	0.007
-738.069	167.565	0.137	0.196
-737.054	-131.905	-0.215	0.028
-736.039	-200.000	-0.028	-0.173
-735.025	87.196	0.172	-0.191
-734.010	-200.000	0.032	-0.150
-732.996	-83.766	0.053	-0.017
-731.981	-200.000	-0.003	-0.047
-730.966	-200.000	0.036	-0.162
-729.952	-200.000	0.016	0.137
-728.937	7.297	-0.311	-0.233
-727.923	205.233	-0.093	-0.145
-726.908	800.000	0.027	0.118
-725.894	-200.000	0.001	-0.014
-724.879	-108.068	-0.027	0.006
-723.864	81.069	-0.043	0.047
-722.850	-39.198	0.275	-0.145
-721.835	19.369	0.059	-0.048
-720.821	341.598	0.106	0.208
-719.806	-18.046	0.176	0.111
-718.791	-104.065	-0.197	-0.046
-717.777	-151.950	0.090	0.007
-716.762	-8.616	-0.064	-0.043
-715.748	-87.384	-0.284	-0.086
-714.733	800.000	-0.062	-0.242
-713.718	-200.000	-0.018	0.162
-712.704	160.189	-0.111	-0.156
-711.689	75.143	-0.145	-0.154
-710.675	9.595	-0.312	-0.238
-709.660	142.216	0.222	0.295
-708.645	-93.945	0.328	0.091
-707.631	161.089	0.149	0.209
-706.616	800.000	0.082	0.276
-705.602	-200.000	-0.049	0.288
-704.587	-200.000	-0.014	-0.132
-703.572	-27.112	-0.061	-0.036
-702.558	0.008	0.058	-0.042
-701.543	7.312	0.220	0.165
-700.529	800.000	0.009	-0.039
-699.514	44.912	0.085	0.079
-698.499	-75.489	-0.289	-0.103
-697.485	546.951	0.075	-0.181
-696.470	389.497	0.068	-0.142
-695.456	616.551	0.162	-0.408
-694.441	221.852	-0.097	-0.156
-693.426	-200.000	0.052	-0.232
-692.412	128.837	-0.078	-0.100
-691.397	258.941	-0.142	0.246
-690.383	63.627	-0.200	0.201
-689.368	-126.099	0.070	0.010
-688.354	800.000	0.131	-0.366
-687.339	-8.492	-0.228	0.154
-686.324	482.450	-0.038	-0.087
-685.310	185.629	-0.062	-0.092
-684.295	65.296	-0.103	0.105
-683.281	-200.000	-0.007	-0.093
-682.266	-200.000	-0.006	0.086
-681.251	-91.761	0.182	-0.052
-680.237	-90.757	0.010	0.003
-679.222	-186.915	-0.270	-0.004
-678.208	241.140	0.117	0.196
-677.193	76.211	0.250	-0.265
-676.178	-200.000	0.028	-0.150
-675.164	8.420	-0.163	0.123
-674.149	-200.000	0.015	0.064
-673.135	800.000	-0.071	-0.213
-672.120	-200.000	0.008	0.170
-671.105	664.609	-0.045	-0.116
-670.091	206.624	0.073	0.114
-669.076	-45.721	0.206	0.102
-668.062	-101.184	0.171	-0.042
-667.047	-36.833	-0.391	0.210
-666.032	-13.805	0.201	-0.131
-665.018	-62.314	-0.177	-0.074
-664.003	-59.347	-0.157	-0.068
-662.989	188.523	-0.233	-0.349
-661.974	-200.000	-0.068	-0.333
-660.959	285.299	-0.048	-0.086
-659.945	16.292	0.025	0.019
-658.930	-174.285	0.126	0.004
-657.916	-200.000	-0.004	0.252
-656.901	70.411	0.308	0.319
-655.886	-61.539	-0.384	-0.162
-654.872	115.689	0.117	-0.144
-653.857	-23.611	0.135	-0.081
-652.843	-118.182	0.295	-0.053
-651.828	-75.844	0.051	-0.018
-650.814	800.000	-0.033	-0.113
-649.799	295.198	-0.070	0.129
-648.784	-200.000	0.021	0.160
-647.770	800.000	0.038	-0.134
-646.755	-49.396	-0.133	0.063
-645.741	44.601	0.132	-0.121
-644.726	-46.354	0.099	-0.049
-643.711	-200.000	-0.020	0.103
-642.697	-2.436	-0.173	-0.121
-641.682	-200.000	0.344	-0.001
-640.668	-11.984	0.299	-0.196
-639.653	32.892	-0.233	0.202
-638.638	-105.461	-0.433	0.099
-637.624	65.755	-0.042	0.042
-636.609	347.026	0.143	0.283
-635.595	-118.919	0.061	-0.011
-634.580	-138.725	-0.168	0.018
-633.565	-200.000	0.012	-0.322
-632.551	390.462	-0.036	-0.075
-631.536	41.171	0.018	0.017
-630.522	81.106	-0.207	0.223
-629.507	246.841	0.168	0.285
-628.492	800.000	-0.016	-0.067
-627.478	-135.152	-0.132	0.016
-626.463	491.118	-0.154	-0.352
-625.449	176.309	0.199	0.290
-624.434	-51.894	-0.055	0.026
-623.419	-200.000	0.178	0.001
-622.405	-21.511	0.147	-0.090
-621.390	-200.000	0.021	-0.291
-620.376	305.332	-0.068	-0.127
-619.361	-200.000	-0.010	0.117
-618.346	424.669	-0.085	0.183
-617.332	800.000	0.036	-0.111
-616.317	352.751	0.110	0.218
-615.303	-110.289	-0.190	0.040
-614.288	62.477	-0.149	-0.149
-613.273	-200.000	-0.001	0.227
-612.259	800.000	0.016	-0.053
-611.244	213.450	-0.153	-0.242
-610.230	-49.481	0.116	-0.055
-609.215	228.919	0.037	-0.061
-608.201	113.250	-0.135	-0.164
-607.186	-89.096	0.278	-0.082
-606.171	99.771	-0.301	0.348
-605.157	307.686	0.081	0.151
-604.142	260.335	-0.057	-0.099
-603.128	-158.648	-0.150	0.009
-602.113	1.215	0.152	0.109
-601.098	-119.100	-0.083	0.014
-600.084	45.127	0.191	-0.176
-599.069	149.212	0.114	0.154
-598.055	-200.000	0.086	-0.399
-597.040	-200.000	0.002	0.270
-596.025	137.878	-0.171	0.224
-595.011	-12.793	0.133	0.087
-593.996	128.237	0.125	-0.160
-592.982	-200.000	0.009	-0.099
-591.967	-99.319	0.157	-0.040
-590.952	-200.000	-0.006	-0.203
-589.938	-137.138	-0.275	0.031
-588.923	168.271	0.199	-0.283
-587.909	-200.000	-0.027	0.263
-586.894	61.676	0.180	-0.179
-585.879	-5.575	0.168	-0.115
-584.865	-79.966	0.311	-0.104
-583.850	-200.000	-0.024	-0.326
-582.836	800.000	-0.117	0.465
-581.821	61.173	-0.307	-0.304
-580.806	-23.690	-0.338	-0.202
-579.792	80.348	0.156	0.168
-578.777	-113.553	-0.090	0.018
-577.763	-133.391	-0.329	-0.041
-576.748	-16.622	-0.189	-0.119
-575.733	-90.594	0.129	-0.037
-574.719	477.433	-0.058	0.131
-573.704	800.000	-0.053	-0.178
-572.690	-47.881	0.342	-0.165
-571.675	85.154	0.190	-0.208
-570.661	-77.452	-0.247	0.086
-569.646	800.000	-0.062	-0.244
-568.631	-40.318	-0.143	0.074
-567.617	12.033	-0.129	-0.099
-566.602	92.000	0.148	-0.166
-565.588	-200.000	-0.047	-0.286
-564.573	98.391	0.019	0.022
-563.558	800.000	0.105	0.371
-562.544	-15.179	-0.164	0.105
-561.529	159.393	0.044	-0.061
-560.515	-12.004	0.160	0.105
-559.500	20.083	0.200	0.161
-558.485	9.980	-0.343	0.260
-557.471	-112.474	-0.131	0.026
-556.456	99.770	-0.160	0.185
-555.442	194.856	-0.110	-0.166
-554.427	-20.853	-0.120	0.073
-553.412	-49.103	0.247	0.118
-552.398	-105.734	-0.050	-0.011
-551.383	588.173	-0.053	0.131
-550.369	-151.446	0.049	0.004
-549.354	-200.000	0.062	0.304
-548.339	419.030	-0.059	-0.126
-547.325	-86.969	0.015	-0.005
-546.310	391.593	0.109	0.226
-545.296	7.721	-0.267	0.199
-544.281	270.427	0.141	0.247
-543.266	-129.027	0.113	-0.016
-542.252	-200.000	-0.010	-0.149
-541.237	86.276	0.004	0.004
-540.223	-200.000	-0.002	0.054
-539.208	-114.922	0.139	-0.026
-538.193	135.548	-0.108	-0.140
-537.179	800.000	-0.036	0.120
-536.164	556.215	-0.033	-0.080
-535.150	258.191	0.172	0.295
-534.135	-135.773	0.264	-0.031
-533.121	39.969	-0.089	0.080
-532.106	83.694	0.202	-0.220
-531.091	-200.000	0.040	-0.258
-530.077	-200.000	-0.041	0.314
-529.062	-73.704	-0.057	0.021
-528.048	-91.145	0.213	0.061
-527.033	319.005	-0.186	0.352
-526.018	-121.363	0.277	-0.046
-525.004	-27.466	0.212	0.123
-523.989	55.092	0.315	0.304
-522.975	-200.000	-0.022	-0.534
-521.960	-127.696	-0.122	-0.018
-520.945	-110.686	0.248	0.051
-519.931	77.285	0.145	-0.154
-518.916	-83.229	-0.334	0.107
-517.902	86.602	0.094	0.104
-516.887	-43.211	0.193	0.097
-515.872	24.289	0.142	0.117
-514.858	-200.000	0.026	-0.255
-513.843	61.961	0.049	-0.048
-512.829	453.557	0.141	0.312
-511.814	-49.333	0.184	0.088
-510.799	248.965	-0.199	-0.336
-509.785	-73.990	-0.294	-0.106
-508.770	-74.812	0.160	-0.057
-507.756	586.472	-0.053	-0.130
-506.741	-200.000	0.020	-0.192
-505.726	-29.703	0.094	-0.053
-504.712	-72.669	0.190	0.070
-503.697	-110.088	-0.368	0.077
-502.683	26.506	-0.122	-0.101
-501.668	-124.821	0.113	-0.017
-500.653	-200.000	0.008	0.354
-499.639	273.769	0.145	0.256
-498.624	173.573	0.109	0.156
-497.610	1.673	0.248	0.178
-496.595	345.067	0.190	0.371
-495.581	800.000	-0.060	0.238
-494.566	-116.948	-0.471	0.086
-493.551	-10.778	-0.106	-0.070
-492.537	-200.000	-0.024	-0.197
-491.522	240.728	0.068	-0.112
-490.508	800.000	-0.044	-0.155
-489.493	415.149	0.093	-0.196
-488.478	419.060	0.092	-0.197
-487.464	-144.028	-0.238	-0.022
-486.449	46.591	-0.130	-0.120
-485.435	-200.000	0.038	-0.516
-484.420	-5.697	0.114	-0.078
-483.405	-50.641	-0.195	0.091
-482.391	0.776	0.152	0.108
-481.376	512.102	-0.133	-0.308
-480.362	134.732	0.156	0.202
-479.347	55.867	0.254	0.245
-478.332	-200.000	-0.065	-0.303
-477.318	251.108	-0.269	0.455
-476.303	-67.952	-0.248	0.096
-475.289	-67.133	0.398	-0.156
-474.274	-44.133	0.259	0.130
-473.259	-62.810	0.016	0.006
-472.245	-71.124	-0.061	0.023
-471.230	-75.655	-0.146	-0.052
-470.216	-200.000	-0.007	-0.067
-469.201	-200.000	-0.083	-0.478
-468.186	430.261	0.094	0.201
-467.172	374.879	-0.059	-0.119
-466.157	-29.176	-0.180	0.103
-465.143	-65.315	-0.563	-0.226
-464.128	-131.913	-0.157	-0.020
-463.113	51.866	-0.048	-0.046
-462.099	468.639	0.056	-0.126
-461.084	-85.564	0.044	0.014
-460.070	60.093	-0.241	-0.237
-459.055	79.863	0.046	0.049
-458.040	-26.276	-0.205	0.120
-457.026	-163.307	-0.260	0.012
-456.011	-162.037	0.398	-0.020
-454.997	183.853	-0.160	0.236
-453.982	-76.427	0.323	0.113
-452.968	-200.000	-0.004	0.104
-451.953	214.946	-0.135	-0.212
-450.938	7.890	-0.087	0.065
-449.924	-60.068	-0.503	0.213
-448.909	314.284	0.044	-0.082
-447.895	-148.725	0.165	0.013
-446.880	-27.231	-0.384	-0.223
-445.865	-200.000	0.042	-0.293
-444.851	-72.229	-0.152	0.056
-443.836	298.953	0.122	0.224
-442.822	42.688	-0.062	0.056
-441.807	233.847	-0.068	0.111
-440.792	4.571	-0.078	0.057
-439.778	34.002	0.186	-0.161
-438.763	158.476	-0.211	0.291
-437.749	-55.150	-0.217	-0.097
-436.734	480.201	0.076	-0.170
-435.719	-200.000	0.017	-0.147
-434.705	-22.617	0.190	0.114
-433.690	-141.001	0.196	-0.020
-432.676	-200.000	-0.043	0.282
-431.661	-110.763	-0.199	0.041
-430.646	-105.396	0.193	0.044
-429.632	-200.000	-0.032	0.162
-428.617	369.605	0.078	-0.157
-427.603	32.222	-0.163	0.140
-426.588	343.346	-0.090	0.176
-425.573	800.000	-0.057	-0.211
-424.559	800.000	-0.031	0.118
-423.544	-93.698	-0.248	0.068
-422.530	-89.630	-0.344	0.100
-421.515	358.752	-0.097	-0.192
-420.500	-200.000	0.029	-0.213
-419.486	34.763	0.078	-0.067
-418.471	689.244	0.122	-0.317
-417.457	-5.630	0.084	-0.057
-416.442	62.058	-0.071	0.071
-415.428	800.000	0.102	-0.402
-414.413	-18.696	-0.079	0.049
-413.398	-164.530	0.071	0.003
-412.384	-200.000	-0.011	-0.293
-411.369	21.676	0.334	-0.270
-410.355	380.725	-0.105	-0.214
-409.340	537.448	-0.076	0.179
-408.325	-120.661	-0.284	-0.048
-407.311	-147.966	0.420	0.035
-406.296	72.872	-0.272	-0.282
-405.282	800.000	-0.038	0.137
-404.267	82.611	0.183	-0.197
-403.252	127.350	0.058	-0.073
-402.238	-200.000	-0.015	0.357
-401.223	24.904	0.174	0.143
-400.209	800.000	-0.140	0.486
-399.194	-165.205	0.120	-0.005
-398.179	-200.000	-0.025	-0.210
-397.165	164.054	-0.078	-0.109
-396.150	747.848	-0.023	0.062
-395.136	88.104	0.209	0.230
-394.121	345.333	0.087	-0.169
-393.106	-130.756	0.114	0.015
-392.092	394.680	-0.171	-0.354
-391.077	739.245	-0.095	-0.254
-390.063	-61.624	0.239	0.100
-389.048	-71.975	-0.110	0.041
-388.033	-200.000	0.098	0.492
-387.019	169.230	-0.137	0.194
-386.004	-110.800	0.282	0.058
-384.990	135.346	-0.060	-0.078
-383.975	-200.000	0.054	0.266
-382.960	-200.000	-0.018	-0.239
-381.946	676.722	0.169	0.436
-380.931	33.298	-0.080	0.069
-379.917	-152.962	0.264	0.018
-378.902	128.247	-0.120	-0.151
-377.888	242.348	0.098	-0.162
-376.873	398.733	-0.025	0.053
-375.858	-88.008	0.068	0.020
-374.844	429.727	0.048	0.103
-373.829	-27.027	-0.320	0.185
-372.815	56.724	0.139	-0.134
-371.800	-55.604	-0.050	0.022
-370.785	800.000	0.095	0.331
-369.771	800.000	-0.130	0.444
-368.756	-200.000	-0.028	0.349
-367.742	132.814	-0.137	0.175
-366.727	-49.482	0.060	-0.028
-365.712	74.276	0.070	0.073
-364.698	-86.210	0.254	0.077
-363.683	99.426	-0.048	0.055
-362.669	133.060	-0.082	0.104
-361.654	15.197	0.120	0.093
-360.639	-200.000	-0.008	-0.082
-359.625	-144.496	0.305	-0.028
-358.610	212.639	0.149	0.232
-357.596	-66.985	0.262	-0.102
-356.581	0.057	0.223	-0.158
-355.566	597.119	-0.101	0.248
-354.552	-97.737	0.286	0.073
-353.537	310.500	-0.071	0.132
-352.523	-51.712	0.082	-0.038
-351.508	-66.034	0.133	-0.053
-350.493	-200.000	-0.061	-0.337
-349.479	-200.000	-0.034	0.302
-348.464	-134.145	-0.355	0.043
-347.450	800.000	-0.070	0.222
-346.435	-103.284	0.291	-0.068
-345.420	326.076	-0.206	-0.390
-344.406	-66.898	0.163	0.064
-343.391	-2.833	-0.068	0.047
-342.377	-138.581	-0.193	-0.021
-341.362	-59.174	-0.233	-0.100
-340.348	-37.710	0.104	0.055
-339.333	-89.484	-0.456	-0.133
-338.318	-145.574	0.155	0.014
-337.304	-200.000	-0.003	-0.156
-336.289	-106.230	0.307	0.068
-335.275	-48.601	-0.311	-0.148
-334.260	-35.060	-0.078	0.042
-333.245	39.407	-0.096	-0.085
-332.231	-66.108	-0.216	-0.085
-331.216	800.000	0.085	0.321
-330.202	461.862	0.092	-0.203
-329.187	-71.262	-0.162	0.060
-328.172	463.769	0.050	-0.111
-327.158	-200.000	0.003	0.023
-326.143	-52.140	-0.062	-0.028
-325.129	-7.837	-0.170	-0.113
-324.114	155.126	-0.206	-0.280
-323.099	-82.159	-0.334	-0.108
-322.085	-18.012	0.124	-0.077
-321.070	188.884	0.059	-0.087
-320.056	-60.845	-0.154	0.064
-319.041	-13.869	0.202	-0.129
-318.026	-200.000	-0.003	0.239
-317.012	-185.019	0.208	-0.003
-315.997	77.988	0.267	-0.282
-314.983	-73.223	-0.168	0.061
-313.968	800.000	-0.102	0.347
-312.953	354.935	0.102	-0.200
-311.939	-20.272	-0.209	0.127
-310.924	-200.000	-0.043	0.283
-309.910	376.769	0.089	0.180
-308.895	695.647	-0.041	-0.105
-307.880	674.174	-0.226	0.580
-306.866	-96.701	-0.211	-0.055
-305.851	37.412	0.311	0.272
-304.837	-96.067	0.414	0.109
-303.822	-141.220	-0.409	-0.041
-302.807	-90.730	0.373	0.106
-301.793	-200.000	0.023	0.246
-300.778	21.863	0.254	-0.205
-299.764	20.197	0.113	0.090
-298.749	252.100	0.166	-0.279
-297.735	-200.000	0.023	-0.249
-296.720	-153.514	-0.020	0.001
-295.705	-193.301	-0.233	0.002
-294.691	79.095	0.122	-0.129
-293.676	284.262	-0.165	-0.293
-292.662	-65.534	-0.092	-0.036
-291.647	-164.810	-0.098	-0.004
-290.632	52.751	-0.233	-0.220
-289.618	583.469	-0.102	-0.248
-288.603	27.688	0.050	-0.041
-287.589	800.000	-0.021	0.087
-286.574	-200.000	0.004	0.339
-285.559	-26.573	-0.327	-0.189
-284.545	-200.000	0.012	-0.130
-283.530	-78.646	0.210	0.071
-282.516	-16.444	-0.251	-0.157
-281.501	60.974	0.242	0.237
-280.486	-80.380	-0.047	0.015
-279.472	-200.000	0.033	-0.177
-278.457	-92.295	-0.166	-0.046
-277.443	-200.000	-0.038	0.318
-276.428	-115.766	0.105	0.019
-275.413	-175.342	-0.075	0.002
-274.399	-200.000	-0.001	0.078
-273.384	242.444	-0.164	-0.270
-272.370	-103.120	0.361	-0.084
-271.355	800.000	0.056	-0.159
-270.340	109.044	0.196	-0.232
-269.326	-26.847	0.132	0.076
-268.311	346.440	-0.215	-0.417
-267.297	165.647	0.138	-0.193
-266.282	-200.000	0.028	-0.331
-265.267	-132.039	0.101	0.013
-264.253	-200.000	-0.014	-0.088
-263.238	367.867	-0.157	-0.313
-262.224	120.413	-0.166	-0.203
-261.209	800.000	0.042	-0.177
-260.195	43.773	0.061	0.055
-259.180	395.612	-0.113	-0.232
-258.165	106.202	0.184	-0.216
-257.151	-35.562	-0.232	-0.124
-256.136	-92.863	-0.151	0.042
-255.122	-175.629	-0.109	0.003
-254.107	236.922	-0.021	-0.035
-253.092	576.815	-0.150	0.362
-252.078	-125.099	-0.126	0.019
-251.063	15.537	0.271	0.210
-250.049	-200.000	-0.024	0.300
-249.034	-60.571	-0.207	0.087
-248.019	42.903	0.302	-0.271
-247.005	-31.188	0.240	-0.133
-245.990	186.335	-0.171	-0.251
-244.976	-200.000	0.028	-0.173
-243.961	73.083	0.339	0.350
-242.946	10.048	-0.238	-0.178
-241.932	124.008	0.048	0.060
-240.917	-200.000	-0.054	-0.252
-239.903	52.463	-0.151	0.142
-238.888	-51.581	0.102	0.047
-237.873	-200.000	0.048	0.250
-236.859	-200.000	-0.009	0.080
-235.844	-58.673	0.223	0.095
-234.830	47.027	0.257	-0.236
-233.815	152.974	-0.247	-0.333
-232.800	602.914	0.078	-0.190
-231.786	295.549	0.051	-0.092
-230.771	-21.921	-0.127	0.076
-229.757	-98.951	0.232	0.058
-228.742	-53.218	-0.168	0.076
-227.727	-30.750	0.394	-0.220
-226.713	-128.448	-0.201	0.028
-225.698	-200.000	0.018	-0.380
-224.684	472.585	-0.120	-0.266
-223.669	212.127	-0.044	-0.068
-222.655	-119.643	-0.281	0.048
-221.640	-160.822	0.346	0.018
-220.625	-107.982	-0.034	0.007
-219.611	43.880	-0.085	0.077
-218.596	125.053	-0.206	0.255
-217.582	-200.000	0.012	0.290
-216.567	24.356	0.243	-0.198
-215.552	800.000	-0.023	-0.098
-214.538	-103.728	0.294	0.068
-213.523	-42.616	-0.171	0.086
-212.509	-200.000	0.243	0.001
-211.494	43.028	-0.287	0.258
-210.479	800.000	0.056	-0.161
-209.465	76.946	0.238	0.249
-208.450	-200.000	0.009	-0.058
-207.436	85.089	0.146	-0.158
-206.421	120.672	0.080	-0.098
-205.406	61.487	0.123	-0.121
-204.392	-120.369	-0.047	0.008
-203.377	71.391	-0.286	0.292
-202.363	800.000	0.082	0.285
-201.348	-174.343	-0.134	-0.004
-200.333	445.432	0.169	0.366
-199.319	-181.873	-0.215	0.004
-198.304	48.164	0.366	-0.337
-197.290	-149.058	0.196	0.015
-196.275	293.847	0.125	0.225
-195.260	38.814	-0.214	0.188
-194.246	-200.000	0.006	0.249
-193.231	-200.000	0.015	0.237
-192.217	800.000	-0.050	0.156
-191.202	204.470	-0.142	-0.217
-190.187	-0.132	0.290	0.203
-189.173	2.169	0.165	0.117
-188.158	159.371	-0.127	-0.174
-187.144	306.424	-0.041	0.076
-186.129	800.000	0.050	0.161
-185.114	737.587	0.073	-0.192
-184.100	-200.000	-0.048	-0.273
-183.085	108.126	0.362	-0.424
-182.071	-78.234	-0.109	-0.037
-181.056	425.172	0.087	-0.184
-180.042	-179.435	-0.258	0.006
-179.027	-200.000	-0.044	0.273
-178.012	46.350	-0.078	-0.071
-176.998	697.594	0.128	0.331
-175.983	96.281	0.022	0.025
-174.969	-200.000	-0.034	-0.238
-173.954	800.000	-0.081	0.247
-172.939	-50.436	0.258	-0.120
-171.925	-106.006	-0.039	0.009
-170.910	50.034	0.200	-0.186
-169.896	-122.634	0.280	-0.045
-168.881	-144.179	-0.126	-0.012
-167.866	241.547	-0.111	0.182
-166.852	-196.265	-0.509	0.003
-165.837	-130.181	0.317	-0.043
-164.823	-200.000	-0.004	-0.148
-163.808	31.530	-0.105	-0.089
-162.793	463.788	-0.004	0.008
-161.779	395.849	0.134	0.274
-160.764	-200.000	-0.117	0.518
-159.750	-200.000	-0.087	0.425
-158.735	-200.000	-0.041	-0.252
-157.720	-200.000	-0.028	0.156
-156.706	-146.236	0.084	-0.007
-155.691	116.615	-0.369	-0.444
-154.677	800.000	-0.063	-0.232
-153.662	-200.000	0.087	0.440
-152.647	-29.885	0.143	-0.080
-151.633	-62.765	-0.165	0.067
-150.618	208.067	-0.292	0.448
-149.604	-200.000	0.065	-0.345
-148.589	207.814	-0.237	-0.363
-147.574	79.557	-0.180	0.190
-146.560	594.228	0.050	0.120
-145.545	556.057	-0.214	0.507
-144.531	9.636	0.205	0.153
-143.516	-188.910	-0.117	-0.001
-142.502	-56.908	0.271	-0.117
-141.487	800.000	-0.195	-0.686
-140.472	-87.933	0.125	-0.037
-139.458	-200.000	0.034	0.381
-138.443	-143.864	-0.066	0.006
-137.429	-174.649	0.130	-0.004
-136.414	24.280	-0.140	-0.114
-135.399	184.240	-0.186	-0.270
-134.385	800.000	0.034	0.103
-133.370	-9.521	0.337	0.221
-132.356	-111.163	0.392	-0.079
-131.341	167.980	-0.142	-0.199
-130.326	-29.208	0.252	-0.142
-129.312	-107.238	0.202	0.044
-128.297	93.541	-0.090	-0.100
-127.283	72.948	0.154	0.158
-126.268	485.721	0.133	0.296
-125.253	174.569	0.115	-0.164
-124.239	-102.460	0.128	-0.030
-123.224	-200.000	-0.007	-0.169
-122.210	800.000	-0.107	-0.438
-121.195	-185.515	0.312	-0.005
