DTS Sentinel unit serial number:	SN413079Multiplexer serial number:	ORYXHardware model number:	OX4-SRSoftware version number:	ORYX F/W v4.00 Oryx Data Collector v3.7.2.0data status	okinstallation	princeton_trtdifferential loss correction	single-endedforward channel	channel 2reverse channel	N/Adate	2019/09/17time	10:55:35forward acquisition time	60.00reverse acquisition time	0.00gamma	496.2192k internal	0.2324k external	0.2324temperature offset calibration	0.9975default loss term (dB/km)	0.3790temperature slope calibration	1.0000multiplexer offset coefficient	1.0000multiplexer slope coefficient	1.0000fibre end	0.00T internal ref (°C)	30.25T ext. ref 1 (°C)	0.19T ext. ref 2 (°C)	25.80length (m)	temperature (°C)	Stokes	anti-Stokes-747.200	59.947	-0.099	0.098
-746.185	400.934	-0.038	0.081
-745.171	-200.000	0.017	0.254
-744.156	-200.000	0.002	0.214
-743.142	11.269	0.197	-0.152
-742.127	-33.473	-0.354	0.198
-741.112	-25.001	0.177	-0.106
-740.098	-118.100	-0.075	-0.014
-739.083	-200.000	-0.009	-0.501
-738.069	29.129	-0.295	0.253
-737.054	493.051	-0.123	0.284
-736.039	-200.000	-0.005	-0.054
-735.025	-31.744	0.073	0.041
-734.010	312.783	0.132	0.251
-732.996	-200.000	-0.034	-0.163
-731.981	-141.856	-0.527	0.053
-730.966	-18.192	-0.313	-0.197
-729.952	-109.362	-0.088	0.019
-728.937	800.000	-0.091	-0.259
-727.923	-200.000	-0.052	0.332
-726.908	800.000	-0.038	-0.165
-725.894	-200.000	-0.018	0.214
-724.879	-111.169	-0.410	0.085
-723.864	150.629	0.320	-0.439
-722.850	800.000	-0.099	0.325
-721.835	94.067	0.209	0.239
-720.821	265.944	-0.146	0.258
-719.806	29.110	0.075	0.064
-718.791	104.087	0.335	-0.397
-717.777	26.547	-0.438	-0.370
-716.762	-152.014	-0.242	0.018
-715.748	155.039	0.205	-0.284
-714.733	-132.109	-0.415	0.054
-713.718	-30.056	0.246	-0.141
-712.704	81.905	-0.139	0.152
-711.689	-87.918	0.118	0.036
-710.675	-57.941	-0.363	-0.160
-709.660	100.414	0.227	-0.266
-708.645	800.000	-0.128	-0.415
-707.631	78.003	-0.150	-0.161
-706.616	62.684	0.106	-0.107
-705.602	221.820	0.170	0.276
-704.587	-98.424	0.207	0.054
-703.572	800.000	0.058	0.215
-702.558	-0.941	-0.368	0.262
-701.543	395.381	-0.066	-0.139
-700.529	31.200	0.091	0.079
-699.514	-64.984	-0.128	-0.052
-698.499	-33.482	-0.356	0.198
-697.485	-124.023	-0.033	-0.005
-696.470	-200.000	0.070	0.378
-695.456	800.000	0.089	0.354
-694.441	-200.000	0.002	0.129
-693.426	-200.000	-0.018	0.142
-692.412	-13.936	-0.089	0.058
-691.397	-106.808	-0.118	0.026
-690.383	-75.209	-0.241	0.087
-689.368	-200.000	-0.015	0.129
-688.354	-144.380	-0.382	-0.036
-687.339	-124.239	-0.426	-0.067
-686.324	-45.057	0.124	0.062
-685.310	-130.117	0.089	-0.012
-684.295	-200.000	-0.046	-0.335
-683.281	-27.551	-0.257	-0.150
-682.266	682.157	-0.128	-0.337
-681.251	141.335	0.070	0.093
-680.237	-7.397	0.256	-0.174
-679.222	303.743	0.170	-0.318
-678.208	-200.000	0.010	-0.173
-677.193	-200.000	-0.028	-0.404
-676.178	-200.000	-0.028	-0.234
-675.164	48.016	0.259	-0.244
-674.149	-12.506	-0.153	-0.101
-673.135	147.958	0.110	-0.150
-672.120	287.141	0.138	-0.252
-671.105	-200.000	0.029	0.143
-670.091	-143.104	-0.280	0.027
-669.076	-62.432	-0.344	0.144
-668.062	-200.000	0.018	0.128
-667.047	-28.846	-0.230	-0.133
-666.032	302.086	0.116	0.216
-665.018	326.281	-0.110	-0.213
-664.003	-200.000	-0.023	0.149
-662.989	800.000	0.007	0.021
-661.974	119.410	0.107	-0.134
-660.959	-200.000	0.006	-0.082
-659.945	527.784	0.102	0.242
-658.930	41.479	0.226	0.206
-657.916	253.998	-0.189	-0.325
-656.901	179.027	-0.107	-0.157
-655.886	323.942	-0.062	0.120
-654.872	-41.868	-0.197	-0.101
-653.857	-40.249	0.216	-0.113
-652.843	125.440	-0.104	0.132
-651.828	800.000	-0.031	-0.119
-650.814	-97.465	0.122	0.032
-649.799	96.561	0.119	0.137
-648.784	-200.000	0.016	-0.164
-647.770	57.400	-0.156	0.153
-646.755	-199.656	0.145	-0.001
-645.741	-54.481	-0.114	-0.052
-644.726	-128.110	-0.431	0.062
-643.711	-144.613	-0.166	0.015
-642.697	800.000	-0.050	0.187
-641.682	130.803	-0.051	-0.065
-640.668	433.403	0.143	-0.312
-639.653	-200.000	0.085	-0.468
-638.638	-82.843	0.103	-0.033
-637.624	76.112	-0.035	-0.037
-636.609	-66.815	-0.358	-0.142
-635.595	-193.295	0.119	0.001
-634.580	800.000	-0.048	0.134
-633.565	800.000	0.041	-0.169
-632.551	356.315	0.081	-0.162
-631.536	17.247	-0.231	0.184
-630.522	-64.754	0.121	0.049
-629.507	119.177	-0.234	0.291
-628.492	-34.998	-0.172	0.094
-627.478	-62.476	0.131	0.055
-626.463	77.052	0.248	0.265
-625.449	80.886	0.121	0.132
-624.434	-179.289	-0.366	-0.008
-623.419	-40.652	0.332	0.173
-622.405	-200.000	-0.022	-0.253
-621.390	110.775	0.148	0.178
-620.376	-41.002	-0.165	0.086
-619.361	800.000	-0.100	-0.312
-618.346	-200.000	0.022	0.129
-617.332	-200.000	-0.011	0.386
-616.317	533.073	0.136	-0.324
-615.303	-120.384	0.030	-0.005
-614.288	-200.000	0.041	-0.188
-613.273	202.122	0.191	-0.296
-612.259	3.210	-0.204	-0.149
-611.244	-37.573	-0.285	0.153
-610.230	201.336	-0.156	0.241
-609.215	-91.381	0.098	-0.028
-608.201	329.663	0.091	0.176
-607.186	118.599	-0.130	0.161
-606.171	401.321	-0.116	0.245
-605.157	-95.704	-0.400	-0.108
-604.142	-13.467	-0.139	0.091
-603.128	800.000	0.138	-0.558
-602.113	-54.019	-0.175	0.080
-601.098	800.000	-0.072	0.201
-600.084	211.306	-0.070	0.110
-599.069	-134.811	-0.241	0.029
-598.055	37.054	-0.137	0.122
-597.040	-191.215	-0.073	0.001
-596.025	-121.666	0.328	0.055
-595.011	-200.000	-0.026	0.122
-593.996	96.786	0.085	0.098
-592.982	-91.020	-0.340	0.098
-591.967	-173.141	-0.183	0.006
-590.952	-200.000	0.055	-0.316
-589.938	-68.576	-0.247	-0.096
-588.923	-69.242	0.012	0.005
-587.909	-14.060	-0.282	-0.182
-586.894	-191.399	-0.495	-0.005
-585.879	69.069	0.024	-0.025
-584.865	800.000	0.086	-0.292
-583.850	-182.010	-0.133	-0.003
-582.836	184.610	-0.131	0.195
-581.821	19.249	0.133	0.107
-580.806	-84.816	-0.350	0.110
-579.792	-86.585	0.205	0.063
-578.777	362.488	-0.124	-0.250
-577.763	162.519	-0.077	-0.108
-576.748	-200.000	0.017	-0.185
-575.733	-134.070	0.439	-0.054
-574.719	-60.167	-0.137	-0.059
-573.704	-75.062	-0.162	0.058
-572.690	28.345	-0.183	0.155
-571.675	-159.277	-0.263	0.015
-570.661	-70.148	0.388	-0.148
-569.646	-200.000	-0.000	-0.029
-568.631	312.292	0.100	0.188
-567.617	-107.328	-0.176	0.039
-566.602	-9.028	-0.062	0.041
-565.588	-200.000	-0.035	-0.274
-564.573	-200.000	0.006	0.413
-563.558	800.000	-0.003	0.013
-562.544	-200.000	0.011	-0.332
-561.529	-200.000	-0.007	-0.035
-560.515	289.591	0.083	0.151
-559.500	-48.356	-0.263	-0.127
-558.485	800.000	0.103	0.385
-557.471	-143.326	-0.536	0.051
-556.456	229.260	-0.059	-0.097
-555.442	-136.009	0.194	0.023
-554.427	800.000	0.055	-0.223
-553.412	800.000	0.060	0.178
-552.398	-200.000	0.007	0.265
-551.383	80.014	-0.249	0.269
-550.369	-200.000	-0.004	0.190
-549.354	68.507	0.206	0.212
-548.339	-200.000	-0.020	-0.166
-547.325	72.008	-0.143	-0.149
-546.310	-137.093	0.035	-0.004
-545.296	-1.893	0.123	-0.087
-544.281	-8.933	0.217	-0.146
-543.266	100.754	0.133	0.155
-542.252	-2.557	-0.207	0.145
-541.237	57.724	-0.299	0.292
-540.223	-107.567	-0.139	-0.030
-539.208	-200.000	-0.042	-0.195
-538.193	-200.000	-0.078	-0.364
-537.179	-200.000	0.009	-0.165
-536.164	800.000	0.070	-0.279
-535.150	573.488	0.029	0.070
-534.135	216.438	0.168	0.268
-533.121	-62.307	-0.081	0.034
-532.106	-78.460	-0.102	-0.035
-531.091	-67.710	-0.342	0.134
-530.077	294.906	-0.146	0.268
-529.062	-200.000	0.017	0.090
-528.048	-19.022	0.038	0.024
-527.033	-52.328	0.153	0.071
-526.018	255.707	0.253	0.435
-525.004	-200.000	0.022	-0.104
-523.989	-78.591	0.315	0.108
-522.975	-200.000	0.201	0.001
-521.960	-159.754	0.073	0.004
-520.945	30.497	-0.056	0.048
-519.931	-61.876	0.308	0.129
-518.916	-59.812	0.138	-0.059
-517.902	-117.238	0.214	0.039
-516.887	-21.254	0.219	0.134
-515.872	-200.000	-0.059	-0.289
-514.858	-62.418	0.166	-0.069
-513.843	269.433	-0.114	0.201
-512.829	-136.693	0.071	0.008
-511.814	-44.290	-0.437	0.219
-510.799	-200.000	0.058	0.371
-509.785	-33.606	0.256	-0.141
-508.770	-73.685	0.160	0.058
-507.756	84.757	0.163	0.178
-506.741	800.000	0.078	-0.289
-505.726	-10.874	0.347	0.229
-504.712	451.187	-0.088	-0.194
-503.697	800.000	0.067	0.187
-502.683	800.000	0.064	0.275
-501.668	25.984	-0.075	0.062
-500.653	372.314	0.053	-0.108
-499.639	39.235	-0.196	0.175
-498.624	279.991	0.080	0.143
-497.610	83.065	0.052	0.057
-496.595	800.000	0.044	0.152
-495.581	536.260	0.119	0.283
-494.566	215.175	0.039	-0.062
-493.551	-1.565	-0.185	0.131
-492.537	-41.581	-0.010	-0.005
-491.522	-130.033	-0.098	-0.013
-490.508	-66.301	-0.281	-0.112
-489.493	-106.578	-0.183	0.041
-488.478	337.115	0.120	-0.233
-487.464	-36.823	0.237	-0.127
-486.449	-43.271	-0.192	-0.097
-485.435	111.571	-0.154	-0.186
-484.420	50.888	0.075	-0.071
-483.405	-191.813	-0.198	0.002
-482.391	-0.218	-0.219	0.156
-481.376	-171.285	0.394	0.013
-480.362	-200.000	-0.026	0.273
-479.347	-121.790	-0.317	0.052
-478.332	43.474	0.094	0.086
-477.318	-123.007	0.221	-0.036
-476.303	-177.332	-0.330	0.008
-475.289	-138.434	-0.383	0.042
-474.274	145.228	-0.088	0.117
-473.259	-88.582	-0.196	-0.058
-472.245	-200.000	-0.047	0.385
-471.230	158.655	-0.112	0.156
-470.216	-66.024	0.187	0.074
-469.201	800.000	-0.013	-0.051
-468.186	177.484	-0.169	-0.246
-467.172	52.022	0.174	0.166
-466.157	50.062	-0.078	0.073
-465.143	163.948	0.016	-0.022
-464.128	-200.000	-0.003	0.164
-463.113	-200.000	-0.025	0.135
-462.099	-18.673	0.068	-0.042
-461.084	800.000	0.060	-0.243
-460.070	-45.200	0.037	0.018
-459.055	-43.566	-0.194	-0.098
-458.040	-3.222	0.201	0.140
-457.026	-181.664	0.170	0.003
-456.011	339.922	0.022	-0.042
-454.997	66.379	0.028	-0.029
-453.982	44.439	-0.071	-0.066
-452.968	-200.000	0.025	-0.179
-451.953	-117.303	0.324	0.059
-450.938	15.306	0.263	-0.206
-449.924	221.958	0.069	-0.111
-448.909	-200.000	0.028	0.209
-447.895	-94.937	0.119	-0.032
-446.880	44.354	-0.077	0.071
-445.865	6.269	0.172	-0.127
-444.851	-67.426	-0.161	-0.063
-443.836	-200.000	0.043	-0.464
-442.822	106.594	0.068	-0.080
-441.807	-128.676	-0.125	0.018
-440.792	-16.478	-0.196	0.124
-439.778	-71.694	0.180	-0.067
-438.763	-6.381	0.215	0.147
-437.749	153.943	-0.137	0.187
-436.734	-129.103	-0.040	-0.006
-435.719	-200.000	0.090	-0.404
-434.705	-37.372	0.104	0.055
-433.690	243.273	0.016	-0.027
-432.676	60.828	-0.146	0.144
-431.661	116.866	0.120	0.147
-430.646	-14.902	-0.195	0.125
-429.632	218.946	0.221	-0.352
-428.617	88.850	-0.251	-0.278
-427.603	-117.144	0.166	0.030
-426.588	-116.243	-0.246	0.046
-425.573	-132.188	0.509	0.066
-424.559	94.444	0.181	0.205
-423.544	-42.426	0.097	-0.050
-422.530	104.174	0.140	0.164
-421.515	-80.159	-0.165	-0.055
-420.500	-125.097	-0.160	-0.024
-419.486	57.669	0.309	-0.301
-418.471	441.082	-0.164	0.358
-417.457	-200.000	0.083	0.409
-416.442	17.375	-0.045	0.035
-415.428	-200.000	-0.009	0.202
-414.413	54.171	0.229	-0.219
-413.398	-200.000	-0.035	-0.268
-412.384	78.576	-0.128	-0.136
-411.369	84.474	-0.174	-0.190
-410.355	-111.456	0.338	0.069
-409.340	-31.904	-0.363	-0.203
-408.325	-200.000	0.033	-0.164
-407.311	800.000	0.029	-0.088
-406.296	275.375	0.072	-0.126
-405.282	-200.000	0.008	0.135
-404.267	-200.000	-0.003	0.066
-403.252	-53.120	0.091	0.042
-402.238	-200.000	0.007	0.298
-401.223	-127.439	0.267	-0.039
-400.209	-200.000	0.002	-0.282
-399.194	-145.794	-0.154	0.014
-398.179	731.931	0.066	-0.175
-397.165	-36.307	-0.098	-0.053
-396.150	27.126	0.118	0.098
-395.136	336.666	0.040	0.077
-394.121	-200.000	-0.017	-0.111
-393.106	-200.000	0.047	0.562
-392.092	-78.093	-0.233	0.080
-391.077	-42.278	0.061	0.031
-390.063	800.000	-0.236	0.675
-389.048	-13.759	0.159	-0.102
-388.033	-104.747	-0.091	0.021
-387.019	130.857	0.164	-0.209
-386.004	-182.150	0.229	-0.004
-384.990	-35.470	-0.063	0.034
-383.975	800.000	0.077	0.217
-382.960	456.400	0.070	0.155
-381.946	15.698	0.139	-0.109
-380.931	4.337	0.313	0.229
-379.917	167.461	-0.127	0.180
-378.902	-116.660	0.392	-0.072
-377.888	800.000	-0.114	-0.354
-376.873	-114.584	-0.148	0.028
-375.858	-57.801	0.178	-0.078
-374.844	-200.000	-0.017	0.145
-373.829	82.994	0.250	0.271
-372.815	-34.325	0.176	-0.096
-371.800	437.272	-0.030	0.066
-370.785	209.226	-0.068	0.106
-369.771	-159.615	-0.045	-0.003
-368.756	322.134	-0.072	0.136
-367.742	73.585	0.042	0.044
-366.727	139.741	0.168	0.220
-365.712	-60.453	0.193	-0.081
-364.698	-109.886	0.180	-0.038
-363.683	22.654	-0.046	-0.038
-362.669	69.267	0.052	0.053
-361.654	277.025	0.107	0.188
-360.639	199.444	-0.019	0.030
-359.625	-11.392	0.097	-0.063
-358.610	-139.427	-0.341	-0.036
-357.596	-6.611	0.254	0.172
-356.581	-133.865	0.450	0.056
-355.566	800.000	-0.065	-0.254
-354.552	438.840	0.031	0.067
-353.537	800.000	0.011	0.038
-352.523	153.523	0.193	-0.263
-351.508	524.266	0.169	-0.394
-350.493	-23.159	0.146	-0.087
-349.479	-14.429	0.063	0.040
-348.464	-34.786	0.251	0.136
-347.450	195.825	0.016	0.024
-346.435	145.009	-0.107	-0.142
-345.420	39.633	0.288	0.257
-344.406	-128.190	-0.250	-0.035
-343.391	-200.000	0.026	-0.340
-342.377	-200.000	-0.005	-0.174
-341.362	-200.000	-0.032	0.234
-340.348	86.985	-0.068	-0.075
-339.333	34.155	0.210	-0.182
-338.318	-200.000	0.003	0.103
-337.304	543.891	-0.075	-0.179
-336.289	-55.223	-0.125	-0.056
-335.275	196.231	-0.155	-0.235
-334.260	-83.179	0.221	0.071
-333.245	15.117	-0.038	-0.030
-332.231	56.339	0.158	-0.153
-331.216	-10.782	0.055	0.036
-330.202	-200.000	0.030	-0.197
-329.187	-200.000	-0.009	0.244
-328.172	422.069	0.133	0.284
-327.158	-2.264	-0.122	0.085
-326.143	-122.958	0.250	-0.040
-325.129	272.791	0.157	-0.275
-324.114	-90.873	0.262	-0.075
-323.099	210.244	0.037	-0.057
-322.085	-152.485	-0.244	-0.017
-321.070	11.354	-0.074	0.056
-320.056	-36.513	-0.094	0.050
-319.041	-47.576	-0.291	-0.140
-318.026	27.062	-0.047	-0.039
-317.012	-200.000	0.032	-0.188
-315.997	251.381	0.101	-0.170
-314.983	800.000	-0.118	-0.484
-313.968	-166.625	0.119	-0.005
-312.953	800.000	0.160	-0.456
-311.939	60.623	0.125	0.123
-310.924	-162.216	-0.134	-0.007
-309.910	-200.000	-0.027	-0.133
-308.895	-156.655	0.137	-0.008
-307.880	101.678	0.084	-0.097
-306.866	213.980	0.085	-0.133
-305.851	229.869	0.175	0.283
-304.837	-44.133	-0.118	-0.059
-303.822	800.000	-0.004	-0.014
-302.807	-111.721	0.063	0.013
-301.793	-200.000	-0.007	0.055
-300.778	-11.944	-0.091	-0.059
-299.764	50.090	0.068	0.063
-298.749	115.939	-0.053	0.064
-297.735	-29.997	-0.404	0.228
-296.720	-69.276	-0.160	0.061
-295.705	-200.000	0.053	-0.394
-294.691	-73.429	-0.066	0.024
-293.676	14.943	0.351	-0.273
-292.662	-77.006	0.197	-0.068
-291.647	-48.380	-0.181	-0.087
-290.632	655.548	0.115	-0.292
-289.618	-123.831	-0.183	0.029
-288.603	-200.000	0.037	0.423
-287.589	77.174	-0.172	-0.182
-286.574	-12.733	-0.030	0.019
-285.559	382.706	0.016	0.033
-284.545	800.000	-0.104	-0.320
-283.530	219.515	0.205	-0.326
-282.516	-16.212	0.192	0.121
-281.501	-133.921	-0.322	-0.040
-280.486	-82.586	0.182	0.058
-279.472	-84.702	0.263	-0.082
-278.457	-39.833	0.070	0.036
-277.443	242.490	-0.099	0.164
-276.428	-66.183	0.053	0.021
-275.413	-164.379	-0.209	-0.009
-274.399	3.201	-0.123	0.089
-273.384	800.000	0.061	-0.190
-272.370	28.080	0.113	-0.094
-271.355	-200.000	0.006	0.289
-270.340	-200.000	0.002	0.205
-269.326	5.722	-0.013	-0.010
-268.311	-104.984	-0.611	-0.139
-267.297	474.538	0.147	-0.329
-266.282	800.000	-0.056	-0.235
-265.267	800.000	0.058	-0.164
-264.253	-200.000	-0.020	0.167
-263.238	-200.000	-0.073	-0.332
-262.224	-200.000	-0.036	-0.412
-261.209	-74.767	0.148	-0.053
-260.195	-64.920	0.283	0.113
-259.180	-10.630	-0.265	0.174
-258.165	-100.782	0.162	-0.040
-257.151	-2.304	-0.330	0.229
-256.136	800.000	-0.049	0.159
-255.122	-168.309	-0.381	-0.015
-254.107	-7.205	-0.091	-0.061
-253.092	-200.000	0.010	0.150
-252.078	-200.000	0.024	-0.200
-251.063	183.845	-0.085	-0.125
-250.049	800.000	-0.043	-0.128
-249.034	-89.509	0.209	0.061
-248.019	67.324	-0.190	-0.192
-247.005	-200.000	-0.018	-0.135
-245.990	749.406	0.049	0.132
-244.976	-161.341	-0.228	0.012
-243.961	-9.427	0.343	0.227
-242.946	74.363	-0.110	0.114
-241.932	32.446	0.096	-0.082
-240.917	-110.907	0.107	-0.022
-239.903	-200.000	-0.018	0.411
-238.888	117.388	-0.143	0.173
-237.873	46.576	-0.111	-0.102
-236.859	-78.792	0.177	-0.060
-235.844	290.418	0.101	-0.181
-234.830	-118.903	-0.178	-0.031
-233.815	-109.220	-0.280	-0.059
-232.800	-6.625	-0.330	0.222
-231.786	-118.799	0.415	0.072
-230.771	221.284	-0.106	0.168
-229.757	-82.627	0.213	0.068
-228.742	-92.530	0.128	0.035
-227.727	-43.411	-0.130	-0.065
-226.713	-200.000	0.018	-0.280
-225.698	-111.457	0.211	-0.043
-224.684	339.811	-0.066	0.126
-223.669	177.287	0.081	-0.116
-222.655	-200.000	-0.005	-0.163
-221.640	-200.000	-0.006	-0.099
-220.625	-200.000	-0.001	-0.039
-219.611	800.000	-0.054	0.230
-218.596	-139.040	-0.306	-0.033
-217.582	-111.031	-0.096	-0.019
-216.567	-200.000	-0.046	-0.335
-215.552	-200.000	0.062	-0.407
-214.538	-105.195	0.346	-0.078
-213.523	-125.592	0.022	0.003
-212.509	-2.514	0.405	0.280
-211.494	-104.664	-0.182	0.041
-210.479	-200.000	-0.165	-0.000
-209.465	-87.961	-0.258	-0.077
-208.450	341.798	-0.193	0.374
-207.436	800.000	-0.132	-0.529
-206.421	-109.583	-0.150	-0.031
-205.406	-119.010	-0.173	-0.030
-204.392	259.787	0.014	0.024
-203.377	800.000	-0.028	0.085
-202.363	-200.000	-0.023	-0.197
-201.348	-200.000	-0.052	-0.229
-200.333	-200.000	0.026	0.252
-199.319	240.063	0.131	0.215
-198.304	-77.623	-0.183	-0.063
-197.290	698.916	-0.149	0.388
-196.275	-41.535	-0.278	0.141
-195.260	-89.999	0.208	0.060
-194.246	-200.000	0.007	-0.188
-193.231	-7.616	0.185	-0.123
-192.217	-128.641	0.174	0.024
-191.202	-95.298	0.446	0.119
-190.187	-81.008	-0.066	0.022
-189.173	-200.000	0.010	-0.176
-188.158	-111.923	0.178	-0.035
-187.144	-200.000	0.070	0.366
-186.129	64.624	-0.155	-0.154
-185.114	44.146	-0.112	-0.101
-184.100	663.313	-0.049	0.124
-183.085	-52.768	0.318	-0.145
-182.071	41.689	0.192	-0.171
-181.056	258.469	0.215	-0.366
-180.042	-105.781	-0.025	0.006
-179.027	-20.590	-0.072	0.044
-178.012	-200.000	0.002	0.073
-176.998	58.723	-0.137	0.133
-175.983	165.431	-0.061	0.086
-174.969	-200.000	0.009	0.157
-173.954	-29.741	-0.153	0.086
-172.939	-200.000	-0.006	0.067
-171.925	-169.950	0.180	0.006
-170.910	-200.000	0.011	-0.046
-169.896	147.975	0.016	0.021
-168.881	27.293	-0.047	-0.039
-167.866	-56.045	-0.179	-0.079
-166.852	-150.063	-0.210	-0.016
-165.837	1.026	0.240	0.170
-164.823	44.214	-0.034	-0.031
-163.808	107.747	-0.083	0.097
-162.793	-126.391	-0.230	-0.034
-161.779	136.318	0.149	-0.192
-160.764	-200.000	0.000	0.109
-159.750	444.602	0.033	-0.072
-158.735	-108.406	0.151	-0.032
-157.720	214.325	0.082	-0.127
-156.706	-59.932	-0.137	-0.058
-155.691	84.573	-0.120	0.130
-154.677	-5.593	-0.165	-0.112
-153.662	-200.000	0.013	-0.312
-152.647	0.462	0.163	0.115
-151.633	491.445	-0.139	0.313
-150.618	-200.000	-0.004	-0.139
-149.604	183.159	-0.092	0.134
-148.589	-83.781	0.071	0.022
-147.574	-82.012	-0.307	-0.099
-146.560	12.473	-0.288	0.219
-145.545	262.148	-0.055	0.094
-144.531	148.871	-0.031	0.042
-143.516	-58.887	-0.247	0.105
-142.502	-200.000	0.058	0.321
-141.487	80.552	-0.221	-0.235
-140.472	-180.788	0.171	0.003
-139.458	-0.725	0.280	0.196
-138.443	800.000	0.158	0.435
-137.429	-108.007	-0.225	0.048
-136.414	575.869	-0.130	0.314
-135.399	-200.000	0.013	-0.085
-134.385	6.958	0.111	-0.081
-133.370	349.781	-0.094	0.183
-132.356	-115.484	-0.198	-0.037
-131.341	800.000	-0.062	0.227
-130.326	212.679	0.066	-0.103
-129.312	-148.687	-0.324	0.026
-128.297	115.806	-0.095	0.115
-127.283	1.918	-0.082	0.058
-126.268	74.257	0.265	-0.274
-125.253	169.776	-0.144	0.203
-124.239	-73.542	0.246	0.089
-123.224	-14.308	-0.038	0.024
-122.210	45.045	-0.109	-0.099
-121.195	-144.883	-0.597	0.054
