DTS Sentinel unit serial number:	SN413079Multiplexer serial number:	ORYXHardware model number:	OX4-SRSoftware version number:	ORYX F/W v4.00 Oryx Data Collector v3.7.2.0data status	okinstallation	princeton_trtdifferential loss correction	single-endedforward channel	channel 2reverse channel	N/Adate	2019/09/18time	11:23:35forward acquisition time	60.00reverse acquisition time	0.00gamma	496.2192k internal	0.2326k external	0.2326temperature offset calibration	0.9983default loss term (dB/km)	0.3790temperature slope calibration	1.0000multiplexer offset coefficient	1.0000multiplexer slope coefficient	1.0000fibre end	0.00T internal ref (°C)	30.12T ext. ref 1 (°C)	0.43T ext. ref 2 (°C)	27.92length (m)	temperature (°C)	Stokes	anti-Stokes-747.200	222.424	-0.035	-0.057
-746.185	-77.363	-0.162	0.057
-745.171	369.121	0.262	0.534
-744.156	-110.157	-0.112	0.024
-743.142	-178.788	0.140	0.003
-742.127	-107.408	0.070	-0.015
-741.112	800.000	-0.069	0.191
-740.098	216.256	-0.159	0.255
-739.083	-50.832	-0.464	0.220
-738.069	-200.000	0.056	0.292
-737.054	-184.952	0.165	0.003
-736.039	93.859	0.157	0.180
-735.025	132.101	0.233	0.303
-734.010	425.048	-0.156	-0.339
-732.996	-200.000	0.021	0.262
-731.981	-107.789	0.125	-0.027
-730.966	-128.196	0.044	0.006
-729.952	-59.647	-0.406	0.175
-728.937	62.661	-0.181	-0.183
-727.923	-200.000	0.074	-0.386
-726.908	-22.493	-0.208	-0.127
-725.894	572.017	-0.090	-0.221
-724.879	800.000	0.041	0.129
-723.864	225.313	-0.045	-0.074
-722.850	800.000	-0.118	0.379
-721.835	-39.532	-0.151	0.080
-720.821	-120.273	0.344	-0.059
-719.806	-86.774	0.110	0.034
-718.791	-200.000	-0.059	0.358
-717.777	-77.230	0.256	0.090
-716.762	-200.000	-0.033	-0.148
-715.748	135.613	0.165	-0.217
-714.733	-78.406	-0.042	-0.015
-713.718	436.106	0.129	-0.283
-712.704	-76.058	0.163	0.058
-711.689	-130.465	-0.138	-0.019
-710.675	184.730	0.203	0.303
-709.660	45.816	-0.203	0.189
-708.645	-120.050	-0.257	0.044
-707.631	185.022	-0.118	0.176
-706.616	800.000	-0.092	0.272
-705.602	-200.000	-0.035	-0.156
-704.587	31.060	-0.062	0.053
-703.572	-84.519	-0.266	-0.085
-702.558	207.286	0.150	0.235
-701.543	45.453	-0.181	-0.168
-700.529	22.389	-0.151	0.124
-699.514	-76.799	-0.079	0.028
-698.499	-200.000	-0.046	-0.394
-697.485	-27.040	-0.275	-0.162
-696.470	539.114	-0.113	-0.270
-695.456	800.000	0.051	0.150
-694.441	-77.655	-0.362	-0.126
-693.426	-8.779	-0.142	-0.096
-692.412	55.292	0.310	-0.302
-691.397	136.555	0.039	-0.051
-690.383	-191.130	0.161	-0.002
-689.368	-42.032	0.090	0.046
-688.354	-30.637	0.339	-0.193
-687.339	-154.253	0.161	0.011
-686.324	-200.000	-0.043	-0.368
-685.310	-24.773	0.185	-0.111
-684.295	-200.000	-0.013	0.431
-683.281	525.008	0.095	-0.225
-682.266	646.579	0.089	-0.228
-681.251	247.083	-0.061	-0.103
-680.237	800.000	0.008	0.031
-679.222	-200.000	0.010	-0.440
-678.208	800.000	0.017	0.060
-677.193	-200.000	0.038	-0.219
-676.178	154.946	-0.206	-0.285
-675.164	-120.767	-0.040	-0.007
-674.149	-200.000	0.054	-0.471
-673.135	-60.821	-0.151	-0.064
-672.120	-200.000	0.005	0.127
-671.105	-110.747	-0.225	-0.047
-670.091	68.011	0.301	0.310
-669.076	-23.840	0.122	0.073
-668.062	800.000	0.016	-0.058
-667.047	-30.428	-0.106	-0.060
-666.032	-134.181	-0.093	0.012
-665.018	515.027	-0.138	-0.325
-664.003	-200.000	0.071	0.367
-662.989	310.089	0.069	-0.129
-661.974	-200.000	-0.099	0.444
-660.959	-137.357	0.198	-0.023
-659.945	767.490	0.051	-0.139
-658.930	97.161	-0.190	-0.220
-657.916	497.733	-0.084	-0.194
-656.901	-21.247	0.064	-0.040
-655.886	-66.737	-0.338	0.135
-654.872	-72.715	-0.093	-0.034
-653.857	-170.003	-0.514	-0.018
-652.843	-200.000	-0.005	-0.152
-651.828	30.800	0.125	-0.107
-650.814	-103.092	0.146	0.035
-649.799	-156.044	0.188	0.012
-648.784	800.000	0.018	-0.051
-647.770	-110.350	0.116	0.024
-646.755	-75.740	-0.418	0.149
-645.741	-93.668	0.146	-0.041
-644.726	-60.924	-0.117	-0.050
-643.711	8.291	0.186	0.141
-642.697	-47.351	-0.340	-0.166
-641.682	-10.646	-0.201	-0.133
-640.668	-66.605	-0.069	0.028
-639.653	-200.000	-0.059	-0.389
-638.638	461.235	0.181	0.405
-637.624	-107.984	-0.121	-0.026
-636.609	658.637	0.113	0.291
-635.595	-44.024	0.252	0.127
-634.580	152.407	0.070	-0.096
-633.565	-200.000	-0.044	0.391
-632.551	800.000	0.008	-0.029
-631.536	19.636	0.124	0.100
-630.522	800.000	0.087	0.288
-629.507	154.858	-0.226	0.312
-628.492	36.010	0.134	0.119
-627.478	-71.553	-0.133	0.050
-626.463	-99.807	0.086	-0.022
-625.449	79.923	0.079	-0.085
-624.434	78.172	-0.299	0.321
-623.419	453.590	-0.133	-0.295
-622.405	-147.703	-0.242	-0.020
-621.390	228.476	-0.020	-0.032
-620.376	800.000	0.032	0.107
-619.361	-200.000	-0.004	-0.318
-618.346	-76.239	-0.441	0.156
-617.332	800.000	0.027	-0.085
-616.317	-138.262	-0.281	-0.031
-615.303	800.000	-0.007	-0.028
-614.288	345.086	-0.072	0.142
-613.273	800.000	0.062	-0.189
-612.259	-15.843	0.298	0.190
-611.244	-99.649	-0.228	0.057
-610.230	-56.767	0.128	-0.057
-609.215	180.142	0.009	-0.013
-608.201	-83.320	-0.230	0.074
-607.186	30.623	-0.088	0.075
-606.171	-41.196	0.204	0.106
-605.157	115.444	0.098	-0.121
-604.142	311.125	-0.140	-0.264
-603.128	308.692	0.138	-0.258
-602.113	254.877	-0.096	-0.164
-601.098	473.803	-0.086	-0.193
-600.084	275.742	0.105	-0.187
-599.069	-93.533	-0.185	0.051
-598.055	-118.902	-0.230	-0.041
-597.040	-79.922	0.290	-0.098
-596.025	28.229	0.142	0.121
-595.011	-108.699	-0.071	0.015
-593.996	201.719	-0.078	-0.120
-592.982	113.237	0.153	0.186
-591.967	-179.748	0.326	0.007
-590.952	106.720	0.214	-0.255
-589.938	800.000	-0.052	0.171
-588.923	-200.000	0.006	-0.239
-587.909	-186.961	0.015	-0.000
-586.894	-67.951	-0.166	-0.065
-585.879	-103.457	0.187	-0.044
-584.865	-73.750	-0.188	0.069
-583.850	468.616	-0.083	0.187
-582.836	-69.798	-0.431	-0.165
-581.821	-120.324	-0.304	0.052
-580.806	69.058	-0.246	0.254
-579.792	-164.488	-0.272	0.012
-578.777	74.842	-0.177	0.187
-577.763	-144.618	0.260	-0.024
-576.748	-98.754	-0.169	-0.043
-575.733	-102.830	-0.312	-0.074
-574.719	-183.380	-0.088	-0.002
-573.704	800.000	0.077	-0.227
-572.690	800.000	0.117	0.325
-571.675	174.461	-0.311	0.450
-570.661	-31.979	0.167	0.094
-569.646	-75.306	-0.176	-0.063
-568.631	315.563	0.091	-0.171
-567.617	-97.730	-0.158	0.041
-566.602	-200.000	-0.034	-0.258
-565.588	-120.976	0.233	0.039
-564.573	-200.000	-0.004	-0.195
-563.558	167.852	-0.111	-0.159
-562.544	503.645	-0.085	0.198
-561.529	-118.101	-0.185	0.033
-560.515	-200.000	0.044	0.199
-559.500	-112.048	0.205	-0.041
-558.485	234.072	0.040	0.066
-557.471	-200.000	0.016	-0.140
-556.456	-76.765	0.153	-0.054
-555.442	729.913	-0.078	0.210
-554.427	-198.151	-0.422	0.002
-553.412	30.449	0.117	0.100
-552.398	-31.485	0.183	0.103
-551.383	-200.000	-0.010	0.072
-550.369	-200.000	-0.028	0.250
-549.354	95.347	-0.072	-0.082
-548.339	8.667	0.316	0.239
-547.325	4.703	-0.075	-0.055
-546.310	655.548	-0.139	-0.358
-545.296	193.623	0.077	0.116
-544.281	-66.871	-0.100	-0.040
-543.266	-113.604	0.085	0.017
-542.252	322.201	0.048	-0.091
-541.237	-200.000	-0.007	0.159
-540.223	-8.217	-0.165	0.111
-539.208	3.976	-0.035	-0.026
-538.193	-200.000	-0.037	-0.167
-537.179	65.146	0.155	-0.156
-536.164	800.000	0.067	0.197
-535.150	163.306	0.206	-0.290
-534.135	-45.870	-0.086	-0.042
-533.121	110.605	-0.183	0.220
-532.106	185.104	-0.168	-0.249
-531.091	582.499	0.150	0.367
-530.077	-200.000	0.037	-0.257
-529.062	569.486	0.086	-0.209
-528.048	37.784	0.082	0.073
-527.033	800.000	0.063	-0.222
-526.018	238.548	-0.173	-0.288
-525.004	800.000	-0.063	-0.258
-523.989	140.107	-0.139	-0.183
-522.975	316.098	0.105	0.199
-521.960	358.597	-0.100	0.200
-520.945	-15.678	0.288	0.184
-519.931	-200.000	-0.058	0.365
-518.916	318.694	0.015	-0.029
-517.902	-42.666	0.195	-0.099
-516.887	70.248	-0.114	0.118
-515.872	36.662	-0.089	0.078
-514.858	-109.581	0.266	0.056
-513.843	-200.000	0.014	-0.195
-512.829	96.076	-0.160	-0.183
-511.814	366.117	-0.135	-0.272
-510.799	-200.000	0.006	0.212
-509.785	-30.101	0.359	0.204
-508.770	743.147	-0.051	0.137
-507.756	-137.557	0.177	-0.020
-506.741	-86.055	0.268	-0.083
-505.726	-102.024	-0.328	-0.079
-504.712	-35.540	-0.249	0.135
-503.697	275.450	-0.281	0.498
-502.683	-87.775	0.170	-0.051
-501.668	168.217	-0.255	0.363
-500.653	-200.000	-0.013	-0.057
-499.639	17.385	0.163	0.130
-498.624	-57.731	0.147	0.064
-497.610	-18.013	0.140	-0.087
-496.595	800.000	-0.006	0.021
-495.581	-27.365	0.267	-0.155
-494.566	-86.770	0.196	0.060
-493.551	-132.442	0.191	0.025
-492.537	-200.000	0.012	-0.252
-491.522	-120.579	-0.181	-0.031
-490.508	80.871	0.151	-0.163
-489.493	800.000	0.032	-0.098
-488.478	192.521	0.087	-0.131
-487.464	-106.523	0.186	0.041
-486.449	81.207	0.136	0.146
-485.435	800.000	-0.071	-0.238
-484.420	-63.235	0.082	0.034
-483.405	3.370	-0.107	-0.078
-482.391	204.316	0.223	-0.345
-481.376	-50.546	-0.196	-0.092
-480.362	-200.000	-0.031	-0.220
-479.347	-200.000	-0.005	-0.212
-478.332	-98.523	-0.109	-0.028
-477.318	-36.531	0.158	-0.085
-476.303	-200.000	0.016	-0.213
-475.289	-41.487	-0.337	0.173
-474.274	800.000	-0.053	-0.215
-473.259	502.761	-0.061	0.141
-472.245	-119.347	-0.117	-0.020
-471.230	-121.226	-0.329	-0.055
-470.216	800.000	0.040	-0.168
-469.201	181.873	-0.207	0.305
-468.186	-56.766	-0.098	0.043
-467.172	-20.245	0.015	-0.009
-466.157	-108.485	0.342	0.073
-465.143	800.000	0.017	0.060
-464.128	52.304	-0.055	0.052
-463.113	46.872	-0.321	-0.298
-462.099	254.099	-0.049	-0.083
-461.084	-132.838	0.353	0.045
-460.070	-106.029	0.105	0.024
-459.055	128.794	0.089	-0.113
-458.040	493.669	0.031	-0.071
-457.026	-181.707	0.190	0.004
-456.011	-200.000	0.020	-0.133
-454.997	-122.874	0.070	-0.011
-453.982	-26.747	0.121	0.070
-452.968	278.219	0.191	0.340
-451.953	53.374	-0.229	0.219
-450.938	299.871	-0.104	-0.192
-449.924	4.836	-0.233	0.171
-448.909	-162.239	-0.154	0.008
-447.895	87.139	0.056	-0.062
-446.880	28.261	0.423	-0.356
-445.865	-42.610	0.286	0.145
-444.851	800.000	0.023	-0.089
-443.836	-54.425	-0.130	0.059
-442.822	257.368	0.143	0.246
-441.807	-68.627	0.242	0.094
-440.792	300.418	0.152	0.279
-439.778	548.777	-0.021	-0.051
-438.763	72.219	0.128	-0.133
-437.749	141.194	-0.162	-0.214
-436.734	-200.000	0.006	0.318
-435.719	-200.000	-0.009	-0.228
-434.705	127.947	-0.227	-0.288
-433.690	-29.005	0.150	0.086
-432.676	800.000	0.140	0.416
-431.661	-47.554	0.157	-0.076
-430.646	53.012	-0.103	-0.099
-429.632	-200.000	-0.011	-0.159
-428.617	-113.116	-0.044	0.009
-427.603	509.130	0.063	-0.145
-426.588	-96.277	-0.239	0.063
-425.573	-130.247	-0.293	-0.040
-424.559	-80.801	0.164	0.054
-423.544	3.682	0.197	0.143
-422.530	145.332	-0.160	0.213
-421.515	800.000	-0.038	-0.107
-420.500	-86.332	0.367	0.112
-419.486	169.779	0.165	0.234
-418.471	-200.000	-0.015	-0.086
-417.457	303.647	0.129	-0.238
-416.442	92.469	-0.181	0.203
-415.428	-91.001	0.189	-0.054
-414.413	38.301	0.237	-0.211
-413.398	800.000	-0.068	-0.225
-412.384	-87.794	-0.068	0.020
-411.369	-200.000	-0.036	-0.250
-410.355	369.779	-0.155	-0.312
-409.340	-200.000	0.001	-0.179
-408.325	-28.706	0.299	0.171
-407.311	-200.000	-0.010	-0.075
-406.296	-48.899	0.140	0.067
-405.282	0.393	-0.119	0.085
-404.267	524.231	-0.044	0.102
-403.252	-65.330	0.151	-0.061
-402.238	-128.522	0.112	-0.016
-401.223	459.002	0.120	-0.265
-400.209	-160.763	-0.120	0.006
-399.194	529.128	-0.071	0.167
-398.179	-137.716	-0.328	-0.037
-397.165	-118.639	0.021	-0.004
-396.150	-57.906	0.230	0.100
-395.136	365.280	-0.170	0.340
-394.121	337.546	-0.162	0.314
-393.106	-6.879	-0.126	-0.085
-392.092	-82.177	0.018	0.006
-391.077	519.512	0.134	-0.312
-390.063	-200.000	-0.019	-0.178
-389.048	25.387	0.065	-0.054
-388.033	-200.000	-0.028	-0.275
-387.019	-94.268	0.085	0.023
-386.004	-200.000	-0.021	-0.265
-384.990	-168.615	0.316	0.012
-383.975	800.000	-0.133	0.415
-382.960	233.758	-0.113	-0.184
-381.946	21.107	0.080	-0.065
-380.931	271.881	0.101	0.177
-379.917	-94.082	-0.474	0.129
-378.902	-40.065	-0.321	-0.166
-377.888	85.110	0.147	-0.161
-376.873	-200.000	0.039	-0.180
-375.858	24.057	-0.256	-0.210
-374.844	-137.563	0.334	0.037
-373.829	-118.172	0.270	-0.048
-372.815	-110.449	-0.167	-0.034
-371.800	53.468	-0.093	-0.089
-370.785	-38.823	-0.153	0.080
-369.771	-200.000	-0.005	0.179
-368.756	-200.000	0.014	-0.159
-367.742	-188.318	0.417	-0.005
-366.727	800.000	0.059	0.170
-365.712	-104.539	0.498	0.114
-364.698	421.955	0.150	0.320
-363.683	-200.000	-0.023	0.226
-362.669	-200.000	-0.038	0.263
-361.654	-60.672	0.159	-0.067
-360.639	-29.331	-0.198	-0.113
-359.625	-11.175	0.050	0.033
-358.610	693.946	-0.065	-0.171
-357.596	800.000	0.090	0.367
-356.581	-200.000	-0.025	0.131
-355.566	468.695	0.070	0.157
-354.552	68.184	0.111	0.113
-353.537	800.000	-0.051	0.212
-352.523	-1.953	-0.091	-0.064
-351.508	309.896	-0.119	-0.222
-350.493	345.448	0.015	-0.029
-349.479	331.408	0.168	0.322
-348.464	800.000	0.108	0.405
-347.450	-173.464	0.231	0.007
-346.435	-22.523	-0.287	0.173
-345.420	-139.599	0.202	-0.021
-344.406	116.978	-0.068	-0.082
-343.391	-200.000	-0.074	-0.427
-342.377	-200.000	0.007	-0.164
-341.362	-41.476	0.318	0.163
-340.348	-200.000	0.033	-0.285
-339.333	-49.951	-0.174	-0.082
-338.318	-200.000	-0.038	0.478
-337.304	800.000	0.087	-0.242
-336.289	800.000	-0.036	-0.116
-335.275	16.050	0.058	0.046
-334.260	144.570	-0.226	-0.299
-333.245	-17.287	0.070	0.044
-332.231	733.951	0.086	0.228
-331.216	-200.000	-0.025	0.259
-330.202	-163.405	0.189	-0.009
-329.187	202.799	0.240	-0.368
-328.172	-118.056	0.129	0.023
-327.158	-102.935	-0.314	-0.074
-326.143	-126.200	0.326	-0.048
-325.129	800.000	-0.037	0.137
-324.114	8.910	0.112	-0.084
-323.099	-200.000	0.032	-0.237
-322.085	800.000	0.066	0.195
-321.070	335.461	-0.024	0.047
-320.056	84.031	0.395	0.429
-319.041	800.000	-0.016	0.063
-318.026	-200.000	0.032	0.391
-317.012	-80.708	-0.038	-0.013
-315.997	157.708	-0.142	-0.195
-314.983	567.173	0.080	-0.193
-313.968	-38.374	-0.179	-0.094
-312.953	-18.818	0.462	-0.285
-311.939	226.937	-0.037	-0.060
-310.924	-120.197	-0.152	-0.026
-309.910	223.184	-0.064	0.102
-308.895	-200.000	-0.014	0.069
-307.880	800.000	0.035	0.137
-306.866	-91.209	-0.287	0.082
-305.851	-88.969	-0.271	0.080
-304.837	-200.000	-0.006	-0.300
-303.822	382.417	-0.034	-0.069
-302.807	539.225	-0.072	-0.169
-301.793	-200.000	-0.001	-0.097
-300.778	-93.467	0.385	0.106
-299.764	800.000	0.042	0.169
-298.749	302.184	0.124	0.227
-297.735	155.296	-0.024	-0.032
-296.720	-200.000	0.021	-0.099
-295.705	329.376	0.137	0.261
-294.691	-149.363	-0.385	0.030
-293.676	11.328	-0.209	-0.158
-292.662	11.744	-0.100	-0.076
-291.647	74.618	-0.029	0.030
-290.632	-198.443	0.270	-0.002
-289.618	-15.746	0.232	-0.146
-288.603	-200.000	-0.032	0.261
-287.589	197.831	-0.112	0.170
-286.574	-200.000	0.020	0.136
-285.559	-200.000	0.019	0.094
-284.545	-123.070	0.211	-0.034
-283.530	-14.620	-0.053	0.034
-282.516	451.542	-0.120	-0.263
-281.501	-10.700	-0.150	-0.098
-280.486	-124.212	0.121	-0.019
-279.472	92.197	-0.140	0.156
-278.457	3.462	0.132	0.095
-277.443	-17.477	-0.209	-0.130
-276.428	30.437	0.235	0.199
-275.413	122.451	0.205	-0.254
-274.399	45.951	0.126	-0.116
-273.384	-200.000	-0.001	-0.253
-272.370	170.114	0.084	-0.119
-271.355	800.000	-0.058	0.213
-270.340	101.718	0.065	0.076
-269.326	-89.248	-0.124	0.036
-268.311	-200.000	0.035	-0.353
-267.297	-60.114	0.047	0.020
-266.282	-36.158	-0.245	-0.131
-265.267	86.080	0.040	0.043
-264.253	-200.000	0.017	-0.085
-263.238	665.858	-0.093	-0.239
-262.224	800.000	-0.075	-0.283
-261.209	-107.820	-0.426	-0.092
-260.195	234.097	0.127	0.208
-259.180	-200.000	-0.003	-0.236
-258.165	-200.000	-0.018	-0.403
-257.151	-107.050	0.252	0.055
-256.136	-109.520	0.159	0.033
-255.122	196.080	0.150	0.226
-254.107	800.000	-0.071	-0.230
-253.092	800.000	0.078	0.252
-252.078	314.054	-0.057	-0.106
-251.063	41.589	-0.284	-0.254
-250.049	-154.866	-0.378	0.025
-249.034	372.083	-0.091	-0.183
-248.019	204.443	-0.135	-0.208
-247.005	411.874	-0.145	0.305
-245.990	800.000	0.112	0.322
-244.976	113.469	-0.171	0.205
-243.961	-39.780	-0.108	0.056
-242.946	-200.000	-0.055	0.239
-241.932	800.000	-0.061	0.213
-240.917	-72.452	0.073	-0.027
-239.903	386.713	-0.129	0.264
-238.888	800.000	-0.122	-0.464
-237.873	690.600	0.080	-0.208
-236.859	-13.675	0.108	-0.069
-235.844	-193.582	-0.215	-0.002
-234.830	-77.835	-0.041	-0.014
-233.815	14.628	0.301	0.232
-232.800	-65.918	0.169	0.067
-231.786	-200.000	-0.003	0.182
-230.771	-58.974	-0.244	-0.104
-229.757	-71.768	0.182	-0.067
-228.742	8.791	0.111	-0.083
-227.727	-72.065	-0.199	0.073
-226.713	-23.113	0.132	-0.078
-225.698	-83.027	-0.185	0.059
-224.684	800.000	0.003	-0.014
-223.669	49.677	-0.083	-0.077
-222.655	96.179	-0.248	0.280
-221.640	-200.000	0.058	-0.470
-220.625	317.058	-0.135	-0.253
-219.611	28.643	0.342	-0.286
-218.596	139.807	-0.099	0.129
-217.582	-151.582	-0.120	-0.009
-216.567	4.484	0.158	-0.115
-215.552	-100.226	-0.318	0.078
-214.538	-200.000	-0.002	-0.313
-213.523	-9.630	-0.099	0.065
-212.509	89.127	0.053	-0.058
-211.494	24.223	-0.319	0.260
-210.479	211.555	0.069	-0.107
-209.465	427.156	0.012	0.026
-208.450	-200.000	-0.065	-0.301
-207.436	-94.477	0.092	-0.025
-206.421	-80.521	-0.141	0.046
-205.406	800.000	-0.091	0.375
-204.392	-19.238	0.120	0.074
-203.377	109.800	-0.192	0.228
-202.363	-98.102	0.114	0.029
-201.348	-200.000	0.014	-0.195
-200.333	-25.040	-0.089	-0.052
-199.319	-200.000	-0.025	-0.185
-198.304	80.413	-0.178	-0.190
-197.290	122.151	-0.162	0.200
-196.275	-164.730	-0.038	-0.002
-195.260	23.459	-0.055	-0.044
-194.246	-20.779	0.219	0.133
-193.231	-30.238	-0.271	0.152
-192.217	-154.726	-0.235	0.015
-191.202	800.000	-0.036	0.106
-190.187	-125.872	0.393	-0.058
-189.173	-193.754	-0.183	-0.002
-188.158	179.922	-0.109	-0.157
-187.144	-145.695	0.068	-0.006
-186.129	-200.000	-0.020	0.136
-185.114	-27.353	0.068	0.039
-184.100	52.204	0.123	-0.116
-183.085	245.791	-0.117	-0.195
-182.071	-200.000	0.022	-0.121
-181.056	-1.851	0.262	0.182
-180.042	281.738	0.076	0.135
-179.027	-69.902	-0.110	-0.041
-178.012	-200.000	-0.029	-0.228
-176.998	70.456	0.084	0.086
-175.983	15.834	-0.207	0.161
-174.969	800.000	-0.052	0.151
-173.954	-4.449	-0.120	0.082
-172.939	191.748	-0.052	0.078
-171.925	130.490	0.228	0.289
-170.910	-200.000	-0.028	0.416
-169.896	-59.310	-0.210	-0.089
-168.881	30.286	0.161	-0.135
-167.866	-13.015	0.226	-0.145
-166.852	-200.000	-0.018	-0.220
-165.837	-200.000	-0.056	0.404
-164.823	209.888	-0.156	-0.242
-163.808	11.787	0.280	-0.212
-162.793	655.910	-0.071	0.179
-161.779	-75.253	-0.096	0.034
-160.764	208.799	-0.072	-0.111
-159.750	-60.992	-0.186	-0.078
-158.735	-126.372	0.333	-0.049
-157.720	-121.614	0.169	-0.028
-156.706	-200.000	0.013	-0.116
-155.691	-157.538	0.292	-0.017
-154.677	385.539	0.261	0.531
-153.662	-200.000	-0.040	0.209
-152.647	-77.513	0.289	0.099
-151.633	146.248	0.112	0.148
-150.618	-200.000	0.001	0.075
-149.604	800.000	-0.033	-0.125
-148.589	-70.476	0.219	-0.082
-147.574	-200.000	-0.005	-0.038
-146.560	-75.540	0.301	0.106
-145.545	-56.035	0.072	-0.031
-144.531	495.091	0.170	0.384
-143.516	146.411	0.239	0.316
-142.502	-30.769	-0.181	0.101
-141.487	800.000	-0.087	-0.253
-140.472	241.874	0.106	0.174
-139.458	-149.670	0.185	0.014
-138.443	41.550	-0.475	0.423
-137.429	-200.000	0.020	-0.102
-136.414	-110.064	-0.175	0.036
-135.399	480.496	0.056	-0.126
-134.385	167.025	0.201	0.281
-133.370	135.316	-0.154	0.197
-132.356	211.951	0.143	0.221
-131.341	-48.317	-0.158	-0.075
-130.326	-200.000	-0.018	-0.160
-129.312	-50.873	0.221	-0.102
-128.297	104.140	-0.242	0.280
-127.283	305.591	0.056	0.102
-126.268	-76.315	-0.119	-0.041
-125.253	-163.711	-0.177	-0.008
-124.239	-52.063	-0.148	0.068
-123.224	-64.434	0.302	0.121
