DTS Sentinel unit serial number:	SN413079Multiplexer serial number:	ORYXHardware model number:	OX4-SRSoftware version number:	ORYX F/W v4.00 Oryx Data Collector v3.7.2.0data status	okinstallation	princeton_trtdifferential loss correction	single-endedforward channel	channel 2reverse channel	N/Adate	2019/09/18time	09:35:34forward acquisition time	60.00reverse acquisition time	0.00gamma	496.2192k internal	0.2336k external	0.2336temperature offset calibration	0.9975default loss term (dB/km)	0.3790temperature slope calibration	1.0000multiplexer offset coefficient	1.0000multiplexer slope coefficient	1.0000fibre end	0.00T internal ref (°C)	26.56T ext. ref 1 (°C)	0.27T ext. ref 2 (°C)	23.37length (m)	temperature (°C)	Stokes	anti-Stokes-747.200	34.390	-0.105	0.092
-746.185	222.325	0.073	-0.118
-745.171	43.316	-0.093	0.085
-744.156	800.000	-0.070	0.217
-743.142	800.000	0.129	-0.377
-742.127	-200.000	0.011	0.114
-741.112	122.950	0.120	-0.151
-740.098	-83.040	-0.096	-0.031
-739.083	-121.476	-0.152	0.025
-738.069	431.262	-0.102	-0.221
-737.054	157.086	-0.137	-0.190
-736.039	188.228	-0.118	0.176
-735.025	-200.000	-0.054	0.348
-734.010	267.918	0.134	0.236
-732.996	-83.699	-0.199	-0.064
-731.981	418.282	0.094	-0.203
-730.966	-31.717	-0.143	-0.080
-729.952	800.000	-0.099	0.296
-728.937	72.059	0.212	-0.221
-727.923	364.728	0.073	-0.148
-726.908	64.729	-0.098	-0.099
-725.894	80.835	-0.232	-0.251
-724.879	-70.341	0.080	0.030
-723.864	-55.901	-0.093	-0.042
-722.850	54.280	0.298	-0.288
-721.835	18.661	0.114	-0.091
-720.821	800.000	0.043	-0.172
-719.806	800.000	0.082	-0.293
-718.791	800.000	-0.049	-0.184
-717.777	70.708	-0.244	-0.253
-716.762	-19.762	0.217	0.135
-715.748	-35.899	0.043	0.024
-714.733	-110.135	0.264	-0.055
-713.718	-46.500	-0.192	-0.094
-712.704	-31.543	0.160	0.090
-711.689	-101.195	0.353	0.087
-710.675	19.144	-0.204	0.164
-709.660	-124.490	0.174	0.027
-708.645	163.211	0.120	0.169
-707.631	64.414	0.085	-0.086
-706.616	-15.898	-0.254	-0.162
-705.602	-55.235	-0.203	-0.092
-704.587	74.940	-0.130	0.137
-703.572	119.661	-0.176	0.218
-702.558	-143.637	0.149	-0.014
-701.543	226.641	-0.248	0.403
-700.529	-143.166	-0.148	0.014
-699.514	-200.000	0.003	-0.152
-698.499	138.150	-0.183	0.240
-697.485	-200.000	0.043	-0.224
-696.470	507.832	-0.038	-0.089
-695.456	800.000	-0.065	0.237
-694.441	64.145	-0.193	-0.195
-693.426	684.704	0.044	-0.115
-692.412	-119.999	-0.403	0.069
-691.397	-27.120	0.150	-0.088
-690.383	56.550	-0.081	-0.079
-689.368	-200.000	0.013	0.317
-688.354	-22.670	-0.221	0.134
-687.339	129.096	0.205	-0.262
-686.324	-119.469	0.134	0.023
-685.310	-200.000	-0.008	-0.090
-684.295	-41.298	0.164	0.084
-683.281	-111.127	0.091	0.019
-682.266	-144.658	-0.243	-0.022
-681.251	253.525	0.047	-0.080
-680.237	36.198	0.334	0.295
-679.222	333.926	-0.144	0.279
-678.208	-121.717	0.321	-0.053
-677.193	-37.309	-0.266	-0.143
-676.178	184.931	-0.055	0.082
-675.164	800.000	-0.044	-0.170
-674.149	-200.000	-0.014	-0.133
-673.135	-96.486	-0.281	0.074
-672.120	800.000	-0.098	-0.336
-671.105	177.067	-0.148	-0.216
-670.091	48.382	-0.341	-0.320
-669.076	516.804	0.095	-0.222
-668.062	177.142	-0.165	-0.241
-667.047	131.977	0.185	-0.239
-666.032	-166.742	-0.271	-0.011
-665.018	123.889	-0.073	0.092
-664.003	-111.978	0.187	0.038
-662.989	52.565	0.239	0.229
-661.974	503.123	-0.074	-0.172
-660.959	-134.163	-0.129	0.016
-659.945	80.286	-0.075	-0.081
-658.930	56.145	-0.116	-0.113
-657.916	800.000	-0.029	-0.080
-656.901	-142.977	-0.361	-0.035
-655.886	-53.418	-0.309	0.142
-654.872	67.224	-0.043	0.044
-653.857	-200.000	-0.002	-0.053
-652.843	-57.008	-0.075	-0.033
-651.828	514.977	0.037	-0.085
-650.814	-200.000	-0.008	-0.196
-649.799	28.863	-0.176	0.149
-648.784	-119.173	0.173	0.030
-647.770	-200.000	0.060	0.296
-646.755	-1.282	-0.183	-0.129
-645.741	-88.378	-0.487	-0.146
-644.726	-93.667	-0.195	-0.054
-643.711	16.218	-0.396	-0.313
-642.697	314.723	-0.067	-0.126
-641.682	93.554	-0.160	0.181
-640.668	228.080	0.109	-0.178
-639.653	94.025	0.111	0.126
-638.638	35.806	-0.481	0.423
-637.624	186.650	-0.068	0.101
-636.609	44.807	-0.084	-0.077
-635.595	538.484	-0.048	-0.114
-634.580	-0.234	0.092	-0.065
-633.565	374.654	-0.109	-0.222
-632.551	-91.946	-0.319	0.090
-631.536	54.852	-0.024	0.024
-630.522	-129.133	0.338	-0.047
-629.507	-128.028	-0.206	-0.030
-628.492	-191.808	0.167	0.002
-627.478	-200.000	-0.008	0.105
-626.463	800.000	0.091	0.322
-625.449	60.488	-0.142	0.141
-624.434	93.232	-0.283	0.320
-623.419	-200.000	0.012	0.439
-622.405	-200.000	0.013	-0.058
-621.390	800.000	0.068	-0.192
-620.376	-200.000	-0.002	-0.200
-619.361	-89.414	-0.172	-0.051
-618.346	779.371	0.067	-0.184
-617.332	513.603	0.084	-0.196
-616.317	-200.000	0.030	-0.206
-615.303	779.365	0.031	0.085
-614.288	199.663	0.162	-0.249
-613.273	85.922	-0.050	-0.055
-612.259	-60.075	0.285	0.122
-611.244	-200.000	0.043	0.225
-610.230	-72.789	0.211	0.078
-609.215	-103.439	-0.176	0.041
-608.201	-200.000	-0.155	0.811
-607.186	637.647	-0.102	0.259
-606.171	-104.060	-0.237	0.055
-605.157	-67.480	0.250	0.098
-604.142	437.414	-0.049	-0.108
-603.128	-79.980	0.362	0.121
-602.113	-56.442	-0.146	0.065
-601.098	226.603	0.055	-0.089
-600.084	-108.626	-0.140	-0.030
-599.069	501.364	-0.091	-0.210
-598.055	-61.152	0.389	-0.164
-597.040	197.127	-0.068	0.104
-596.025	-80.916	0.223	-0.074
-595.011	-32.034	0.128	0.071
-593.996	-200.000	0.165	0.000
-592.982	21.185	0.159	-0.129
-591.967	-6.587	-0.183	0.124
-590.952	-176.043	-0.228	-0.006
-589.938	-200.000	-0.009	-0.214
-588.923	-10.107	-0.251	0.166
-587.909	-62.815	-0.208	0.086
-586.894	-200.000	0.019	-0.123
-585.879	-200.000	0.018	-0.107
-584.865	229.407	-0.158	-0.257
-583.850	-32.212	-0.337	0.188
-582.836	-200.000	-0.018	0.093
-581.821	-200.000	-0.014	-0.122
-580.806	57.075	0.183	0.178
-579.792	220.143	0.062	-0.099
-578.777	800.000	0.041	-0.152
-577.763	723.297	0.135	-0.357
-576.748	-19.227	0.254	0.157
-575.733	-200.000	0.032	-0.178
-574.719	-112.061	-0.330	0.066
-573.704	-200.000	-0.019	0.336
-572.690	-200.000	-0.158	0.000
-571.675	27.739	-0.168	0.141
-570.661	800.000	0.144	-0.551
-569.646	213.246	-0.180	-0.284
-568.631	-49.406	0.247	0.117
-567.617	-200.000	0.046	-0.302
-566.602	-4.977	-0.191	0.131
-565.588	-164.334	0.081	0.004
-564.573	800.000	-0.063	-0.191
-563.558	280.846	-0.067	0.120
-562.544	-200.000	0.005	-0.108
-561.529	-123.389	-0.204	-0.032
-560.515	800.000	-0.117	-0.363
-559.500	191.752	0.175	-0.262
-558.485	-47.600	-0.117	-0.057
-557.471	-114.648	0.095	-0.018
-556.456	-0.053	-0.149	0.106
-555.442	173.214	-0.189	-0.272
-554.427	-11.414	0.293	0.192
-553.412	220.576	-0.152	-0.242
-552.398	79.389	-0.207	0.221
-551.383	-168.209	-0.265	-0.010
-550.369	170.771	-0.165	-0.235
-549.354	25.030	-0.200	0.165
-548.339	312.095	-0.157	-0.293
-547.325	180.256	0.174	-0.255
-546.310	106.907	-0.094	-0.111
-545.296	-2.234	0.156	-0.109
-544.281	58.973	0.032	-0.031
-543.266	-200.000	0.043	-0.196
-542.252	-200.000	0.065	-0.304
-541.237	-174.950	0.292	-0.008
-540.223	-200.000	-0.058	0.591
-539.208	85.197	0.225	-0.246
-538.193	271.049	-0.061	0.107
-537.179	-25.350	0.160	0.094
-536.164	172.187	-0.179	-0.257
-535.150	281.974	0.090	-0.160
-534.135	139.173	-0.052	0.068
-533.121	202.694	-0.176	-0.271
-532.106	-6.932	-0.123	0.083
-531.091	-200.000	0.007	0.141
-530.077	-200.000	-0.051	-0.244
-529.062	-200.000	0.046	-0.285
-528.048	106.722	-0.068	-0.080
-527.033	164.291	-0.217	-0.305
-526.018	-79.945	0.244	0.081
-525.004	130.218	0.197	0.252
-523.989	22.735	-0.114	0.093
-522.975	-120.524	-0.159	-0.027
-521.960	-200.000	0.006	-0.495
-520.945	800.000	0.019	-0.083
-519.931	-72.774	0.334	-0.122
-518.916	420.764	-0.144	0.308
-517.902	-103.758	0.181	0.042
-516.887	-84.083	-0.129	-0.041
-515.872	-200.000	0.037	-0.229
-514.858	469.392	0.015	0.032
-513.843	-62.063	-0.266	0.111
-512.829	800.000	0.079	0.291
-511.814	-153.877	-0.053	-0.004
-510.799	-181.312	-0.182	0.004
-509.785	-104.149	0.366	0.085
-508.770	-200.000	0.009	0.096
-507.756	114.018	-0.206	-0.250
-506.741	-103.887	-0.209	-0.049
-505.726	203.077	0.044	0.068
-504.712	63.615	0.124	0.124
-503.697	800.000	-0.063	-0.211
-502.683	197.318	-0.138	-0.209
-501.668	52.089	-0.076	-0.072
-500.653	-200.000	-0.066	-0.343
-499.639	81.546	0.353	-0.380
-498.624	-34.864	-0.134	-0.073
-497.610	188.560	0.081	-0.121
-496.595	-40.476	0.287	-0.148
-495.581	-200.000	-0.075	-0.384
-494.566	-88.718	0.039	0.012
-493.551	699.187	-0.115	0.301
-492.537	-83.657	0.075	0.024
-491.522	118.407	-0.028	0.034
-490.508	-200.000	-0.014	-0.134
-489.493	64.094	-0.106	0.106
-488.478	561.511	0.046	0.109
-487.464	800.000	0.070	0.199
-486.449	8.502	-0.137	0.102
-485.435	-179.398	-0.511	0.011
-484.420	-23.375	0.066	0.040
-483.405	-200.000	0.010	0.355
-482.391	-102.606	-0.234	0.056
-481.376	800.000	-0.024	-0.089
-480.362	-132.904	-0.205	-0.026
-479.347	-110.000	-0.197	-0.041
-478.332	-139.073	0.030	0.003
-477.318	27.634	-0.344	0.287
-476.303	353.594	-0.072	-0.141
-475.289	-200.000	-0.012	-0.101
-474.274	100.433	-0.130	0.150
-473.259	-91.519	-0.201	-0.057
-472.245	-147.987	0.198	0.016
-471.230	-89.047	0.367	-0.108
-470.216	-200.000	0.019	-0.138
-469.201	-131.968	0.328	-0.042
-468.186	-107.189	-0.172	-0.038
-467.172	-200.000	-0.067	0.303
-466.157	800.000	-0.083	-0.249
-465.143	732.262	-0.127	0.337
-464.128	800.000	-0.091	0.375
-463.113	-200.000	0.036	0.386
-462.099	-23.610	-0.296	0.176
-461.084	11.016	0.145	-0.110
-460.070	800.000	-0.110	-0.402
-459.055	-21.899	0.109	0.066
-458.040	603.164	-0.010	-0.026
-457.026	470.331	0.091	0.202
-456.011	28.896	-0.191	0.161
-454.997	-200.000	-0.020	-0.128
-453.982	-200.000	-0.031	0.169
-452.968	-147.363	-0.152	0.013
-451.953	108.167	0.106	0.125
-450.938	86.624	0.143	-0.156
-449.924	-163.112	-0.226	0.011
-448.909	-43.037	-0.209	0.105
-447.895	-119.412	0.344	-0.059
-446.880	279.556	0.072	-0.128
-445.865	-6.598	-0.091	0.061
-444.851	-81.946	-0.366	0.119
-443.836	-165.696	0.300	-0.013
-442.822	-133.134	-0.188	-0.024
-441.807	562.261	-0.070	-0.168
-440.792	240.867	0.101	0.166
-439.778	-155.928	-0.482	-0.030
-438.763	-142.903	-0.105	-0.010
-437.749	800.000	-0.039	-0.142
-436.734	-35.070	-0.136	0.073
-435.719	-165.475	0.216	0.009
-434.705	-200.000	0.001	0.144
-433.690	-107.480	-0.145	0.031
-432.676	171.729	-0.227	-0.323
-431.661	-2.782	0.319	-0.221
-430.646	-200.000	-0.085	-0.387
-429.632	-200.000	-0.011	-0.063
-428.617	-107.981	0.293	-0.063
-427.603	360.703	-0.078	0.155
-426.588	-124.777	0.274	0.042
-425.573	-106.999	-0.337	0.074
-424.559	-200.000	0.003	0.058
-423.544	45.146	-0.221	0.202
-422.530	256.162	0.266	0.452
-421.515	69.541	0.097	-0.099
-420.500	74.735	-0.171	-0.178
-419.486	-200.000	0.006	0.423
-418.471	-159.330	0.279	-0.015
-417.457	-177.402	-0.098	0.002
-416.442	-133.273	-0.154	-0.019
-415.428	-127.286	-0.053	-0.008
-414.413	-200.000	-0.038	0.189
-413.398	-200.000	0.060	0.333
-412.384	-173.061	-0.090	-0.003
-411.369	-89.583	0.208	-0.060
-410.355	-29.652	0.445	0.252
-409.340	-41.061	0.353	0.181
-408.325	-87.043	-0.286	0.086
-407.311	-96.328	-0.226	-0.059
-406.296	-151.234	0.125	0.009
-405.282	391.352	-0.131	0.269
-404.267	-77.685	-0.197	0.068
-403.252	30.969	0.183	-0.156
-402.238	75.291	0.268	-0.280
-401.223	250.642	-0.198	0.334
-400.209	789.513	-0.118	0.321
-399.194	-57.399	-0.225	0.098
-398.179	350.598	-0.168	-0.329
-397.165	-200.000	0.031	-0.169
-396.150	-104.081	-0.448	-0.103
-395.136	-200.000	0.018	0.282
-394.121	-83.756	0.098	0.031
-393.106	-63.630	0.320	0.130
-392.092	-34.354	0.230	0.125
-391.077	800.000	-0.131	-0.447
-390.063	-39.620	0.081	0.042
-389.048	258.716	-0.107	0.183
-388.033	217.447	-0.158	0.249
-387.019	174.554	0.141	-0.201
-386.004	-22.702	-0.145	-0.087
-384.990	-78.389	0.073	0.025
-383.975	-19.826	0.237	-0.145
-382.960	800.000	-0.061	0.232
-381.946	-116.933	-0.230	-0.042
-380.931	-172.871	-0.164	-0.005
-379.917	-1.983	-0.127	-0.088
-378.902	-200.000	0.065	0.479
-377.888	72.565	0.140	0.144
-376.873	-101.521	-0.389	0.094
-375.858	-170.623	-0.140	0.005
-374.844	-200.000	0.042	0.296
-373.829	366.790	-0.110	0.220
-372.815	98.114	0.151	0.172
-371.800	-40.027	0.272	0.141
-370.785	800.000	0.052	0.172
-369.771	-200.000	-0.020	0.208
-368.756	-47.459	-0.287	-0.138
-367.742	-58.506	0.104	-0.045
-366.727	-15.843	0.146	-0.092
-365.712	553.768	0.077	-0.184
-364.698	-200.000	0.058	-0.298
-363.683	354.761	-0.054	-0.106
-362.669	-55.556	-0.466	-0.207
-361.654	800.000	0.149	0.407
-360.639	-41.981	-0.256	0.129
-359.625	396.273	0.249	0.513
-358.610	79.949	-0.169	0.180
-357.596	-95.365	-0.179	-0.048
-356.581	9.309	0.308	0.230
-355.566	104.929	0.083	-0.097
-354.552	-154.592	0.099	0.007
-353.537	-200.000	0.015	-0.072
-352.523	-145.133	0.332	0.030
-351.508	-146.568	-0.318	-0.027
-350.493	227.231	-0.168	0.270
-349.479	-40.992	-0.305	0.156
-348.464	674.968	0.120	-0.308
-347.450	106.709	0.201	0.236
-346.435	63.862	-0.095	0.094
-345.420	-35.463	0.268	0.144
-344.406	2.763	0.200	-0.144
-343.391	40.653	-0.094	-0.083
-342.377	-84.798	-0.268	0.083
-341.362	-44.695	-0.268	-0.132
-340.348	-186.796	0.139	-0.002
-339.333	-200.000	-0.006	0.061
-338.318	-74.077	-0.289	0.104
-337.304	-200.000	0.037	0.232
-336.289	-200.000	0.019	-0.196
-335.275	543.701	-0.127	-0.299
-334.260	-200.000	-0.016	-0.207
-333.245	-82.539	-0.258	-0.083
-332.231	237.477	-0.190	0.311
-331.216	-165.654	0.268	-0.011
-330.202	59.669	0.271	0.265
-329.187	-200.000	-0.030	-0.190
-328.172	206.984	0.302	-0.465
-327.158	12.045	-0.057	-0.044
-326.143	800.000	0.019	0.061
-325.129	155.094	-0.069	-0.094
-324.114	-194.680	-0.171	-0.001
-323.099	-89.614	0.179	0.052
-322.085	99.168	0.195	0.222
-321.070	197.936	-0.126	0.191
-320.056	-2.067	0.192	-0.133
-319.041	-200.000	-0.002	-0.165
-318.026	-15.820	0.152	0.095
-317.012	332.594	0.061	0.116
-315.997	-85.175	0.295	-0.091
-314.983	197.293	0.007	-0.011
-313.968	800.000	0.105	-0.336
-312.953	-98.872	0.392	-0.098
-311.939	70.943	0.200	-0.204
-310.924	-42.444	-0.142	0.071
-309.910	141.592	-0.121	0.159
-308.895	-64.380	0.269	-0.108
-307.880	115.520	0.205	-0.248
-306.866	-8.179	-0.308	0.205
-305.851	720.504	0.171	0.448
-304.837	254.833	0.071	0.120
-303.822	381.250	0.113	0.229
-302.807	27.317	-0.014	0.011
-301.793	51.335	-0.069	-0.064
-300.778	235.559	-0.080	-0.131
-299.764	42.986	-0.083	0.075
-298.749	74.251	0.157	-0.163
-297.735	36.230	-0.190	0.165
-296.720	-152.699	-0.284	-0.020
-295.705	-50.468	-0.045	0.021
-294.691	-33.690	0.370	0.201
-293.676	-165.119	-0.349	-0.015
-292.662	800.000	-0.115	-0.400
-291.647	800.000	0.084	-0.241
-290.632	-100.650	0.107	-0.026
-289.618	-15.457	0.253	0.160
-288.603	-56.802	0.254	-0.111
-287.589	-114.432	0.145	0.028
-286.574	-152.704	-0.109	0.008
-285.559	-55.450	-0.348	-0.154
-284.545	-114.671	0.148	-0.028
-283.530	-10.931	0.272	-0.177
-282.516	-79.728	0.105	-0.035
-281.501	-106.098	0.281	-0.062
-280.486	539.857	0.029	0.067
-279.472	236.095	-0.039	-0.064
-278.457	-200.000	-0.061	-0.462
-277.443	17.140	0.265	0.207
-276.428	430.175	-0.032	-0.069
-275.413	47.925	-0.039	0.036
-274.399	-129.543	0.189	0.026
-273.384	800.000	0.025	0.071
-272.370	-97.577	0.109	-0.028
-271.355	-168.418	-0.420	0.016
-270.340	-141.340	-0.221	0.022
-269.326	-51.906	-0.079	-0.036
-268.311	-200.000	0.003	0.076
-267.297	319.672	-0.271	-0.506
-266.282	100.150	-0.137	0.157
-265.267	-87.047	0.046	-0.014
-264.253	800.000	-0.073	-0.213
-263.238	-144.816	0.090	-0.008
-262.224	800.000	0.042	-0.120
-261.209	-170.229	0.128	-0.004
-260.195	-52.070	-0.182	-0.083
-259.180	57.853	-0.382	0.368
-258.165	-8.147	0.276	0.183
-257.151	-52.119	-0.249	-0.114
-256.136	-147.142	0.438	-0.037
-255.122	-200.000	-0.034	-0.266
-254.107	-82.086	0.093	-0.030
-253.092	-67.002	0.172	0.067
-252.078	-110.491	-0.154	0.031
-251.063	-116.915	0.170	0.031
-250.049	89.531	0.093	0.102
-249.034	-110.611	-0.084	-0.017
-248.019	-103.922	-0.169	0.039
-247.005	41.867	-0.124	-0.110
-245.990	-50.540	0.148	-0.069
-244.976	-155.712	-0.106	0.007
-243.961	202.207	-0.105	-0.159
-242.946	-109.589	-0.190	0.039
-241.932	-200.000	0.002	0.205
-240.917	800.000	0.017	0.047
-239.903	-77.972	-0.140	-0.047
-238.888	-34.731	-0.035	0.019
-237.873	499.367	0.216	0.491
-236.859	-111.912	-0.149	-0.030
-235.844	593.875	0.115	-0.281
-234.830	199.257	-0.049	-0.073
-233.815	800.000	0.039	-0.123
-232.800	800.000	-0.053	0.201
-231.786	290.464	-0.039	-0.070
-230.771	-55.702	-0.176	0.078
-229.757	800.000	0.070	-0.217
-228.742	400.806	0.182	0.375
-227.727	-200.000	-0.004	0.202
-226.713	254.515	0.182	0.306
-225.698	-149.089	0.159	-0.013
-224.684	-200.000	-0.031	-0.161
-223.669	-30.021	0.342	-0.192
-222.655	-136.017	0.201	0.023
-221.640	800.000	0.091	-0.359
-220.625	-125.792	0.273	-0.041
-219.611	-200.000	0.020	-0.161
-218.596	-182.459	-0.262	0.005
-217.582	-28.256	0.274	0.156
-216.567	20.617	-0.262	0.209
-215.552	48.961	0.133	0.122
-214.538	111.716	-0.230	-0.273
-213.523	-200.000	0.052	-0.272
-212.509	160.279	-0.172	-0.236
-211.494	-57.110	0.236	-0.102
-210.479	-200.000	0.047	-0.490
-209.465	-200.000	-0.124	-0.651
-208.450	370.157	0.120	-0.238
-207.436	36.869	-0.072	0.063
-206.421	-200.000	-0.005	-0.140
-205.406	95.471	-0.131	0.147
-204.392	212.866	0.202	-0.313
-203.377	-176.930	0.176	0.004
-202.363	-200.000	0.008	0.208
-201.348	141.610	-0.060	0.077
-200.333	241.389	0.151	0.248
-199.319	-200.000	-0.043	0.191
-198.304	137.700	-0.020	-0.025
-197.290	-20.802	0.158	-0.095
-196.275	317.091	0.081	-0.150
-195.260	-0.700	-0.109	0.076
-194.246	-200.000	-0.011	0.188
-193.231	-109.135	0.061	0.013
-192.217	-67.944	0.264	0.101
-191.202	-116.362	-0.037	0.007
-190.187	328.498	-0.046	-0.087
-189.173	-200.000	-0.008	0.107
-188.158	-200.000	0.003	0.198
-187.144	800.000	-0.059	0.237
-186.129	165.307	-0.043	0.060
-185.114	107.707	-0.109	-0.128
-184.100	800.000	0.040	-0.153
-183.085	109.795	0.199	-0.234
-182.071	6.462	0.193	0.141
-181.056	-200.000	-0.030	-0.148
-180.042	800.000	-0.028	-0.117
-179.027	-71.869	0.290	-0.106
-178.012	800.000	-0.062	0.204
-176.998	-200.000	-0.055	0.265
-175.983	275.407	0.111	0.194
-174.969	292.867	0.153	0.275
-173.954	-48.370	0.382	0.181
-172.939	166.580	0.134	0.186
-171.925	13.472	0.255	-0.194
-170.910	664.144	-0.089	0.224
-169.896	-51.079	0.115	-0.053
-168.881	-200.000	0.000	-0.259
-167.866	23.007	0.159	0.128
-166.852	21.183	0.283	0.226
-165.837	-58.397	0.411	-0.175
-164.823	-200.000	-0.021	0.350
-163.808	-186.948	0.306	0.004
-162.793	800.000	0.054	-0.151
-161.779	18.329	0.161	-0.126
-160.764	109.959	-0.214	0.252
-159.750	78.566	0.061	0.063
-158.735	-0.935	0.363	-0.252
-157.720	73.270	-0.100	0.103
-156.706	305.121	-0.080	-0.145
-155.691	98.962	0.003	0.004
-154.677	-124.583	0.093	-0.014
-153.662	17.243	0.322	0.251
-152.647	-79.705	0.174	0.057
-151.633	-133.263	0.214	-0.027
-150.618	-8.808	-0.198	0.130
-149.604	102.058	-0.165	-0.189
-148.589	-62.833	-0.044	-0.018
-147.574	-200.000	-0.015	0.277
-146.560	339.913	0.086	0.164
-145.545	-200.000	0.035	0.264
-144.531	133.977	-0.072	0.091
-143.516	-200.000	0.011	-0.049
-142.502	-46.396	0.130	0.063
-141.487	448.030	0.097	0.210
-140.472	-200.000	0.022	-0.152
-139.458	-151.583	-0.209	0.015
-138.443	-200.000	0.011	0.062
-137.429	-200.000	-0.007	0.234
-136.414	-85.269	0.244	0.075
-135.399	75.231	0.126	-0.130
-134.385	800.000	0.037	0.146
-133.370	-200.000	0.004	-0.081
-132.356	-79.277	-0.276	0.092
-131.341	-46.253	-0.231	-0.111
-130.326	-14.270	-0.045	0.029
-129.312	-137.117	0.136	-0.015
-128.297	52.371	-0.181	0.169
-127.283	695.030	0.091	0.233
-126.268	238.668	-0.199	-0.325
-125.253	-48.139	-0.087	-0.041
-124.239	-200.000	0.019	0.100
-123.224	-200.000	-0.002	0.264
