DTS Sentinel unit serial number:	SN413079Multiplexer serial number:	ORYXHardware model number:	OX4-SRSoftware version number:	ORYX F/W v4.00 Oryx Data Collector v3.7.2.0data status	okinstallation	princeton_trtdifferential loss correction	single-endedforward channel	channel 2reverse channel	N/Adate	2019/09/16time	15:31:34forward acquisition time	60.00reverse acquisition time	0.00gamma	496.2192k internal	0.2298k external	0.2298temperature offset calibration	0.9936default loss term (dB/km)	0.3790temperature slope calibration	1.0000multiplexer offset coefficient	1.0000multiplexer slope coefficient	1.0000fibre end	0.00T internal ref (°C)	41.16T ext. ref 1 (°C)	14.68T ext. ref 2 (°C)	37.04length (m)	temperature (°C)	Stokes	anti-Stokes-747.200	34.539	-0.312	0.278
-746.185	-200.000	-0.017	0.128
-745.171	-200.000	-0.030	0.346
-744.156	201.701	-0.125	-0.196
-743.142	-200.000	-0.047	0.330
-742.127	27.838	-0.276	0.237
-741.112	258.535	-0.148	-0.260
-740.098	45.316	-0.092	0.087
-739.083	800.000	0.014	-0.049
-738.069	7.444	-0.232	0.177
-737.054	-156.844	0.268	0.017
-736.039	-78.117	-0.135	0.048
-735.025	241.837	-0.063	0.107
-734.010	73.035	0.142	-0.151
-732.996	98.664	-0.172	-0.202
-731.981	-23.405	-0.258	-0.158
-730.966	-76.407	-0.163	-0.058
-729.952	-61.387	-0.070	-0.030
-728.937	-169.596	-0.326	0.012
-727.923	-3.673	-0.062	-0.044
-726.908	2.373	0.125	-0.092
-725.894	214.739	-0.123	0.199
-724.879	-36.731	-0.216	0.118
-723.864	800.000	-0.067	-0.229
-722.850	-22.950	-0.261	-0.161
-721.835	-131.268	0.230	-0.031
-720.821	-134.818	0.207	0.026
-719.806	62.055	0.260	-0.264
-718.791	800.000	-0.089	0.314
-717.777	-200.000	0.000	0.113
-716.762	-4.935	-0.103	0.072
-715.748	214.130	0.104	0.167
-714.733	-13.274	-0.121	0.080
-713.718	-35.722	0.279	0.154
-712.704	153.698	-0.126	0.175
-711.689	-184.805	-0.133	0.002
-710.675	191.825	0.182	0.280
-709.660	95.010	-0.156	-0.181
-708.645	-151.939	0.306	0.023
-707.631	-118.912	0.327	0.059
-706.616	170.871	0.127	-0.186
-705.602	-67.910	0.146	-0.058
-704.587	-200.000	0.003	-0.025
-703.572	800.000	0.004	0.014
-702.558	-32.964	-0.109	-0.062
-701.543	-193.680	0.127	-0.001
-700.529	800.000	-0.156	-0.480
-699.514	172.199	0.051	0.075
-698.499	46.170	-0.296	-0.279
-697.485	-200.000	0.011	-0.099
-696.470	-83.388	0.095	-0.031
-695.456	-80.313	-0.073	0.025
-694.441	-90.586	-0.259	0.076
-693.426	-153.208	-0.143	0.010
-692.412	390.579	0.050	0.106
-691.397	-97.306	-0.205	-0.054
-690.383	-34.072	-0.187	-0.105
-689.368	138.495	-0.079	0.106
-688.354	7.445	-0.126	-0.096
-687.339	92.231	0.130	-0.149
-686.324	27.869	0.070	-0.060
-685.310	800.000	0.047	0.196
-684.295	-60.896	-0.182	0.078
-683.281	257.931	0.220	-0.385
-682.266	-200.000	-0.150	-0.001
-681.251	80.203	0.086	0.095
-680.237	105.909	-0.195	0.235
-679.222	-200.000	0.019	0.312
-678.208	-67.354	-0.203	0.081
-677.193	105.762	-0.231	-0.279
-676.178	-22.410	-0.163	0.101
-675.164	-200.000	-0.046	-0.264
-674.149	-136.659	-0.072	0.009
-673.135	17.482	0.118	-0.096
-672.120	-125.599	-0.189	-0.029
-671.105	707.982	-0.085	-0.229
-670.091	156.073	0.126	0.177
-669.076	428.533	-0.112	0.245
-668.062	-111.277	0.179	0.037
-667.047	-137.257	0.065	0.007
-666.032	-112.507	-0.413	-0.084
-665.018	12.443	-0.146	0.115
-664.003	-200.000	0.058	0.286
-662.989	-200.000	0.012	-0.161
-661.974	-11.570	-0.193	0.129
-660.959	482.354	0.010	0.023
-659.945	141.297	0.167	-0.224
-658.930	800.000	0.006	-0.025
-657.916	-123.675	-0.067	0.011
-656.901	212.951	-0.085	-0.137
-655.886	-74.062	0.418	0.154
-654.872	-72.132	-0.033	0.013
-653.857	369.942	-0.080	-0.165
-652.843	-157.105	-0.214	-0.013
-651.828	-102.672	0.178	0.043
-650.814	428.286	0.101	-0.223
-649.799	313.903	-0.083	0.160
-648.784	-200.000	0.004	-0.408
-647.770	316.242	-0.216	-0.414
-646.755	-32.851	0.226	-0.127
-645.741	-117.889	-0.052	0.010
-644.726	-10.601	-0.258	-0.174
-643.711	-200.000	-0.005	-0.392
-642.697	-147.754	-0.197	-0.017
-641.682	-36.169	-0.335	-0.184
-640.668	-114.995	-0.076	0.015
-639.653	353.222	-0.194	0.392
-638.638	-7.434	-0.115	-0.079
-637.624	800.000	0.018	-0.073
-636.609	800.000	0.017	-0.064
-635.595	-200.000	-0.029	0.139
-634.580	-124.386	-0.226	0.036
-633.565	-144.644	0.298	-0.028
-632.551	1.434	-0.172	0.125
-631.536	-161.527	-0.194	0.010
-630.522	-99.542	0.172	0.044
-629.507	-82.043	-0.196	-0.065
-628.492	770.753	-0.038	0.105
-627.478	-25.071	-0.200	-0.121
-626.463	-29.023	-0.137	-0.080
-625.449	-45.550	0.062	-0.031
-624.434	-115.945	-0.178	-0.034
-623.419	-146.487	0.366	-0.032
-622.405	174.828	0.228	-0.335
-621.390	36.793	-0.088	-0.079
-620.376	525.501	0.020	-0.048
-619.361	104.298	0.067	0.080
-618.346	-136.163	-0.078	-0.009
-617.332	-173.312	-0.612	-0.019
-616.317	-107.069	-0.361	0.081
-615.303	-200.000	0.016	-0.075
-614.288	-24.259	0.034	0.020
-613.273	-200.000	-0.004	-0.104
-612.259	-134.684	-0.306	-0.038
-611.244	-56.014	-0.216	0.098
-610.230	21.080	0.092	-0.076
-609.215	-37.978	-0.191	0.103
-608.201	63.629	0.087	-0.089
-607.186	-200.000	-0.022	-0.399
-606.171	235.678	0.080	0.135
-605.157	-37.063	0.201	-0.109
-604.142	-123.119	0.230	0.037
-603.128	238.872	-0.236	-0.398
-602.113	437.814	0.061	-0.135
-601.098	-200.000	0.004	0.328
-600.084	22.043	0.157	-0.130
-599.069	-200.000	0.080	-0.367
-598.055	214.217	-0.042	-0.067
-597.040	149.103	-0.039	0.053
-596.025	63.543	-0.124	-0.126
-595.011	325.757	0.126	0.245
-593.996	95.264	-0.150	-0.174
-592.982	-108.002	-0.202	-0.044
-591.967	31.043	-0.254	0.221
-590.952	-27.712	-0.234	-0.138
-589.938	499.611	0.028	-0.065
-588.923	-200.000	0.181	0.000
-587.909	289.651	-0.062	0.114
-586.894	243.336	0.173	-0.294
-585.879	-13.832	-0.157	0.103
-584.865	-11.091	0.196	-0.131
-583.850	-111.823	0.070	-0.014
-582.836	-42.651	-0.107	0.055
-581.821	-112.064	0.263	0.054
-580.806	-143.106	-0.292	-0.029
-579.792	27.894	0.309	0.264
-578.777	175.328	0.067	0.099
-577.763	-76.355	-0.340	0.121
-576.748	19.987	-0.227	-0.185
-575.733	800.000	-0.098	0.306
-574.719	-90.883	-0.221	0.065
-573.704	-49.252	0.037	0.018
-572.690	-200.000	-0.012	-0.058
-571.675	320.624	0.061	0.118
-570.661	-99.634	-0.127	0.032
-569.646	-51.264	-0.202	-0.096
-568.631	-52.489	-0.239	0.112
-567.617	-126.975	-0.155	-0.023
-566.602	800.000	-0.074	-0.259
-565.588	-51.828	0.439	0.207
-564.573	-119.472	-0.136	-0.024
-563.558	-72.027	-0.203	-0.077
-562.544	59.336	0.087	-0.087
-561.529	11.575	-0.255	-0.198
-560.515	-118.956	-0.365	-0.065
-559.500	-41.363	-0.536	-0.280
-558.485	-200.000	-0.020	0.221
-557.471	373.982	0.151	0.312
-556.456	89.741	-0.214	-0.242
-555.442	-73.872	0.135	0.050
-554.427	117.939	0.303	0.379
-553.412	-51.641	0.200	-0.095
-552.398	114.185	0.138	0.170
-551.383	-3.228	-0.086	-0.060
-550.369	330.113	0.129	0.251
-549.354	433.594	0.050	-0.110
-548.339	-128.641	0.358	0.051
-547.325	175.773	-0.111	0.164
-546.310	158.758	0.078	0.110
-545.296	170.825	0.126	0.183
-544.281	-135.274	0.251	-0.030
-543.266	64.218	0.087	-0.089
-542.252	-107.083	0.072	-0.016
-541.237	260.109	0.048	-0.084
-540.223	17.185	-0.224	0.180
-539.208	-92.139	-0.225	-0.064
-538.193	-103.505	0.409	0.097
-537.179	800.000	-0.043	-0.136
-536.164	-142.715	-0.386	0.038
-535.150	512.572	0.142	0.335
-534.135	344.043	0.085	-0.168
-533.121	414.993	-0.148	-0.319
-532.106	5.548	0.151	0.113
-531.091	83.761	-0.110	0.122
-530.077	-30.831	-0.108	0.062
-529.062	253.817	0.073	-0.127
-528.048	-168.814	0.223	0.009
-527.033	-59.899	0.095	-0.041
-526.018	800.000	0.071	-0.234
-525.004	800.000	-0.085	-0.269
-523.989	-69.740	-0.162	0.063
-522.975	519.151	-0.076	0.180
-521.960	-48.478	0.277	-0.135
-520.945	-39.541	-0.052	-0.027
-519.931	-200.000	-0.020	0.129
-518.916	-109.978	-0.203	-0.043
-517.902	-68.040	-0.298	-0.117
-516.887	495.382	-0.036	-0.084
-515.872	-200.000	0.045	-0.237
-514.858	-3.817	-0.164	-0.115
-513.843	-131.989	0.098	0.013
-512.829	-200.000	0.056	-0.289
-511.814	125.547	0.311	-0.397
-510.799	-104.889	0.076	0.018
-509.785	-105.260	-0.453	-0.104
-508.770	-42.677	0.389	-0.200
-507.756	111.304	0.157	0.191
-506.741	437.788	0.095	0.210
-505.726	250.570	-0.216	-0.371
-504.712	-39.219	-0.256	-0.136
-503.697	4.152	0.205	0.152
-502.683	-105.928	-0.591	0.135
-501.668	26.544	-0.162	-0.137
-500.653	108.187	-0.103	-0.124
-499.639	-37.663	-0.120	0.065
-498.624	-200.000	-0.035	0.169
-497.610	-147.997	0.338	0.028
-496.595	-82.222	0.231	-0.076
-495.581	-110.927	0.314	0.065
-494.566	-43.593	-0.143	0.073
-493.551	-115.179	-0.147	0.028
-492.537	-64.539	0.093	0.038
-491.522	-123.766	-0.187	0.030
-490.508	-133.009	-0.234	0.030
-489.493	443.266	-0.105	-0.233
-488.478	-39.821	0.100	-0.053
-487.464	-200.000	0.040	0.190
-486.449	103.500	-0.119	0.142
-485.435	-133.906	0.335	0.042
-484.420	800.000	-0.044	-0.146
-483.405	-200.000	-0.005	0.084
-482.391	-200.000	0.000	0.071
-481.376	-200.000	-0.051	0.338
-480.362	-110.801	0.042	0.009
-479.347	46.564	-0.221	0.207
-478.332	-200.000	-0.009	0.119
-477.318	800.000	0.061	0.178
-476.303	-80.022	0.200	0.068
-475.289	320.907	0.086	-0.164
-474.274	-48.737	0.122	0.059
-473.259	-31.739	0.105	-0.060
-472.245	26.811	-0.202	0.171
-471.230	-148.817	-0.643	0.053
-470.216	-65.988	0.106	0.043
-469.201	238.500	0.169	-0.283
-468.186	-6.912	0.097	-0.067
-467.172	226.417	-0.199	-0.326
-466.157	-68.856	0.197	0.077
-465.143	33.435	-0.291	0.255
-464.128	-40.713	0.176	-0.092
-463.113	-62.370	-0.053	0.022
-462.099	-21.949	0.450	0.276
-461.084	-200.000	-0.014	-0.087
-460.070	-200.000	0.017	0.086
-459.055	212.228	-0.124	0.197
-458.040	110.556	0.171	0.207
-457.026	596.303	-0.055	-0.137
-456.011	-165.436	0.085	-0.004
-454.997	800.000	0.028	0.098
-453.982	-53.486	-0.142	-0.066
-452.968	13.615	-0.239	0.187
-451.953	262.385	0.046	-0.080
-450.938	-134.711	0.339	0.042
-449.924	-200.000	0.030	0.143
-448.909	231.586	-0.222	0.367
-447.895	2.661	0.044	-0.033
-446.880	47.982	0.054	0.051
-445.865	800.000	0.040	-0.120
-444.851	-25.028	0.422	0.252
-443.836	-105.786	0.179	-0.041
-442.822	10.341	0.158	-0.121
-441.807	800.000	0.018	-0.053
-440.792	-149.188	-0.071	-0.006
-439.778	-127.748	0.367	-0.053
-438.763	-111.174	0.349	-0.072
-437.749	-200.000	-0.031	0.262
-436.734	243.216	-0.127	0.214
-435.719	140.452	-0.089	-0.118
-434.705	-200.000	0.005	0.317
-433.690	-82.427	-0.394	-0.129
-432.676	-13.823	0.099	-0.064
-431.661	800.000	0.043	-0.130
-430.646	-94.695	-0.300	-0.082
-429.632	-36.727	0.353	0.191
-428.617	-200.000	-0.022	-0.208
-427.603	-22.252	0.379	-0.232
-426.588	-200.000	0.000	0.416
-425.573	-100.954	-0.176	0.044
-424.559	-200.000	-0.001	0.020
-423.544	123.487	-0.151	0.191
-422.530	-72.616	-0.251	0.093
-421.515	120.164	-0.147	-0.184
-420.500	128.520	0.134	-0.172
-419.486	-75.663	-0.054	0.019
-418.471	143.342	0.348	0.467
-417.457	90.965	0.077	-0.087
-416.442	92.538	-0.150	0.170
-415.428	-101.760	0.350	0.085
-414.413	-81.387	-0.339	0.113
-413.398	153.688	0.202	-0.279
-412.384	-200.000	-0.019	-0.097
-411.369	800.000	-0.096	-0.270
-410.355	-48.675	-0.091	0.044
-409.340	-158.175	-0.157	-0.009
-408.325	429.278	0.033	-0.072
-407.311	145.872	-0.158	-0.214
-406.296	-200.000	0.061	-0.331
-405.282	-128.348	0.039	0.006
-404.267	-29.643	-0.278	-0.160
-403.252	391.454	-0.116	-0.242
-402.238	764.703	0.103	-0.281
-401.223	-90.827	-0.169	-0.049
-400.209	-58.223	0.256	0.112
-399.194	705.412	-0.073	-0.195
-398.179	138.025	0.119	-0.157
-397.165	-0.450	-0.050	-0.036
-396.150	-200.000	-0.048	-0.375
-395.136	-33.195	0.207	-0.116
-394.121	-95.581	-0.157	-0.042
-393.106	-64.371	0.161	-0.066
-392.092	-200.000	-0.010	0.165
-391.077	-128.154	0.076	0.011
-390.063	-200.000	0.020	0.152
-389.048	264.557	0.016	0.029
-388.033	-200.000	-0.016	0.171
-387.019	-94.074	0.275	-0.076
-386.004	800.000	0.016	0.064
-384.990	-94.866	0.114	-0.031
-383.975	383.953	0.183	0.380
-382.960	-138.059	0.153	0.017
-381.946	-51.292	0.357	-0.168
-380.931	160.715	-0.037	-0.052
-379.917	-153.421	-0.131	-0.009
-378.902	-6.597	0.312	-0.214
-377.888	9.494	-0.130	-0.099
-376.873	78.415	0.035	-0.037
-375.858	-107.379	-0.089	0.020
-374.844	48.084	0.083	0.079
-373.829	-200.000	0.085	-0.386
-372.815	99.045	-0.170	0.197
-371.800	-79.622	-0.523	0.178
-370.785	-115.216	-0.211	0.040
-369.771	-200.000	0.002	-0.105
-368.756	422.449	0.019	-0.041
-367.742	259.134	0.058	0.100
-366.727	-37.987	0.258	0.138
-365.712	-200.000	0.046	0.346
-364.698	17.018	-0.136	0.108
-363.683	5.322	0.192	-0.143
-362.669	-53.590	-0.247	-0.114
-361.654	240.180	-0.188	-0.315
-360.639	-106.675	0.175	-0.039
-359.625	800.000	0.144	0.452
-358.610	-200.000	0.025	-0.124
-357.596	-34.200	-0.151	-0.084
-356.581	450.273	-0.062	0.138
-355.566	-61.315	0.335	-0.142
-354.552	800.000	-0.053	-0.163
-353.537	169.364	0.059	0.085
-352.523	-200.000	-0.132	0.588
-351.508	-40.011	-0.112	-0.059
-350.493	-188.686	-0.065	-0.001
-349.479	-200.000	-0.004	0.090
-348.464	800.000	-0.030	-0.100
-347.450	800.000	-0.043	0.162
-346.435	-200.000	-0.042	0.239
-345.420	91.553	-0.148	-0.167
-344.406	-200.000	-0.209	0.000
-343.391	-57.595	0.171	0.076
-342.377	220.287	-0.143	-0.231
-341.362	-2.425	0.086	0.061
-340.348	-200.000	-0.056	0.287
-339.333	222.339	0.185	0.298
-338.318	800.000	0.048	-0.177
-337.304	-138.641	0.323	0.036
-336.289	-200.000	0.047	0.252
-335.275	-141.736	0.240	-0.024
-334.260	537.449	0.035	0.084
-333.245	-200.000	-0.023	0.229
-332.231	-86.131	0.053	0.017
-331.216	25.506	-0.149	0.124
-330.202	800.000	-0.084	-0.324
-329.187	-200.000	-0.029	-0.251
-328.172	-200.000	0.031	-0.139
-327.158	-110.219	0.251	0.053
-326.143	298.976	0.108	-0.200
-325.129	800.000	0.066	-0.256
-324.114	783.853	-0.081	-0.222
-323.099	-200.000	-0.096	-0.556
-322.085	-119.916	-0.223	0.038
-321.070	56.574	-0.211	0.206
-320.056	-116.309	-0.245	0.045
-319.041	-164.485	-0.141	0.006
-318.026	463.350	-0.066	0.149
-317.012	11.813	-0.058	-0.044
-315.997	-107.362	-0.515	-0.114
-314.983	138.828	-0.070	0.093
-313.968	66.637	-0.145	-0.148
-312.953	-200.000	-0.019	0.237
-311.939	-151.369	0.150	0.011
-310.924	177.307	-0.097	-0.142
-309.910	-200.000	0.011	-0.212
-308.895	161.107	-0.048	-0.068
-307.880	800.000	-0.087	-0.340
-306.866	-92.537	0.017	-0.005
-305.851	76.456	0.064	0.069
-304.837	145.481	0.074	0.099
-303.822	317.007	-0.085	0.161
-302.807	-175.096	0.125	-0.003
-301.793	-200.000	-0.040	0.291
-300.778	134.239	0.189	-0.245
-299.764	-48.645	0.169	0.081
-298.749	266.000	-0.137	-0.240
-297.735	-82.326	0.262	0.086
-296.720	-200.000	0.018	-0.091
-295.705	-77.948	0.163	-0.056
-294.691	303.047	0.138	-0.256
-293.676	146.142	0.264	0.355
-292.662	-140.215	-0.081	0.009
-291.647	-4.335	-0.182	0.126
-290.632	-200.000	0.016	-0.332
-289.618	55.014	-0.172	0.166
-288.603	146.709	-0.120	-0.162
-287.589	-200.000	0.004	0.059
-286.574	172.985	0.121	-0.174
-285.559	-47.107	-0.252	-0.123
-284.545	-200.000	0.027	0.255
-283.530	81.078	0.158	0.171
-282.516	119.128	0.161	0.200
-281.501	-118.185	-0.193	-0.034
-280.486	-64.273	0.270	0.110
-279.472	581.455	-0.032	-0.078
-278.457	-200.000	0.091	0.416
-277.443	47.804	-0.160	0.150
-276.428	800.000	0.050	0.150
-275.413	-200.000	-0.000	-0.248
-274.399	134.107	0.044	-0.057
-273.384	800.000	0.043	0.170
-272.370	81.717	-0.088	-0.095
-271.355	-88.235	0.220	0.066
-270.340	-28.210	-0.083	-0.048
-269.326	7.919	0.209	-0.157
-268.311	-50.429	0.087	0.041
-267.297	800.000	-0.009	0.030
-266.282	205.513	0.060	-0.093
-265.267	-54.635	0.207	-0.094
-264.253	-75.864	0.166	-0.059
-263.238	36.359	0.053	0.046
-262.224	800.000	0.049	0.176
-261.209	259.333	0.116	0.200
-260.195	476.939	-0.071	-0.162
-259.180	-8.876	0.276	-0.185
-258.165	19.093	0.183	0.147
-257.151	22.287	-0.098	-0.080
-256.136	5.004	0.042	0.031
-255.122	-200.000	0.016	0.195
-254.107	-200.000	0.019	0.128
-253.092	-200.000	0.018	-0.148
-252.078	800.000	0.075	0.222
-251.063	-57.044	0.159	-0.070
-250.049	800.000	0.050	0.158
-249.034	-101.571	-0.092	0.022
-248.019	-200.000	-0.001	-0.007
-247.005	13.046	0.142	0.110
-245.990	-47.486	-0.250	-0.122
-244.976	-200.000	-0.027	0.170
-243.961	-200.000	-0.089	0.000
-242.946	-28.635	0.155	-0.089
-241.932	-163.944	-0.291	0.014
-240.917	28.538	0.088	0.075
-239.903	7.326	0.114	0.085
-238.888	-85.436	0.153	-0.048
-237.873	124.696	-0.132	-0.166
-236.859	-200.000	0.015	0.206
-235.844	418.903	-0.123	0.263
-234.830	-200.000	0.001	0.482
-233.815	-200.000	-0.045	-0.417
-232.800	19.615	0.163	-0.131
-231.786	800.000	0.021	0.075
-230.771	117.053	0.085	-0.105
-229.757	-188.400	-0.100	0.001
-228.742	-200.000	-0.007	0.055
-227.727	-113.309	0.331	0.065
-226.713	170.198	0.083	-0.119
-225.698	-102.737	0.075	0.018
-224.684	172.321	0.055	-0.079
-223.669	-148.553	0.328	0.027
-222.655	-64.330	-0.223	-0.091
-221.640	-62.949	-0.108	0.045
-220.625	269.790	0.117	-0.206
-219.611	-200.000	-0.064	0.285
-218.596	-200.000	0.007	0.171
-217.582	-10.076	0.137	-0.091
-216.567	-200.000	0.047	0.262
-215.552	-112.707	-0.142	-0.028
-214.538	-80.225	0.169	-0.056
-213.523	-116.705	0.263	-0.048
-212.509	800.000	-0.032	0.116
-211.494	-73.156	0.054	-0.020
-210.479	-200.000	-0.007	0.046
-209.465	-84.158	0.219	-0.069
-208.450	-200.000	0.067	0.592
-207.436	128.474	0.137	0.175
-206.421	8.191	0.075	0.056
-205.406	60.784	-0.180	-0.178
-204.392	-32.920	0.125	-0.069
-203.377	230.724	0.110	0.179
-202.363	-129.324	-0.607	-0.084
-201.348	422.944	0.075	0.162
-200.333	-115.911	0.267	0.050
-199.319	-200.000	-0.120	-0.000
-198.304	208.326	-0.038	-0.060
-197.290	-56.861	0.478	0.211
-196.275	-63.114	0.336	-0.138
-195.260	150.446	0.058	0.079
-194.246	217.938	0.029	0.046
-193.231	-75.032	-0.370	0.132
-192.217	-30.353	0.134	-0.076
-191.202	16.034	0.055	-0.043
-190.187	-95.197	0.280	0.075
-189.173	-32.502	0.129	0.072
-188.158	13.684	0.130	-0.101
-187.144	-200.000	0.001	-0.014
-186.129	-86.952	-0.246	0.075
-185.114	-57.564	0.150	-0.066
-184.100	328.018	0.168	0.322
-183.085	81.623	0.153	0.165
-182.071	-51.770	-0.066	0.030
-181.056	-82.514	0.020	-0.007
-180.042	-123.787	0.110	0.017
-179.027	-129.732	-0.351	-0.048
-178.012	8.711	-0.245	-0.184
-176.998	-200.000	-0.017	0.092
-175.983	-96.981	0.190	0.050
-174.969	-73.871	0.238	0.086
-173.954	-192.272	-0.338	0.003
-172.939	16.957	-0.168	0.133
-171.925	-200.000	-0.047	0.251
-170.910	-111.870	0.148	-0.030
-169.896	56.390	0.057	0.055
-168.881	800.000	0.054	-0.172
-167.866	-68.681	-0.216	-0.084
-166.852	-200.000	-0.009	-0.312
-165.837	139.005	-0.112	-0.146
-164.823	19.991	0.107	0.086
-163.808	-200.000	-0.011	0.347
-162.793	800.000	-0.026	-0.077
-161.779	800.000	-0.097	-0.286
-160.764	-115.291	-0.172	0.032
-159.750	-200.000	0.046	-0.377
-158.735	-82.253	-0.065	0.021
-157.720	-200.000	0.043	0.194
-156.706	-141.619	0.209	-0.021
-155.691	800.000	0.051	0.161
-154.677	-17.006	-0.096	-0.060
-153.662	759.496	0.058	-0.156
-152.647	800.000	0.107	-0.425
-151.633	44.835	-0.360	0.330
-150.618	-3.604	-0.199	0.138
-149.604	-200.000	0.003	0.339
-148.589	-54.550	0.443	-0.200
-147.574	-171.128	0.297	0.010
-146.560	6.280	-0.201	0.148
-145.545	-1.340	0.409	-0.288
-144.531	-200.000	-0.017	0.523
-143.516	95.808	-0.051	-0.058
-142.502	-168.454	-0.115	-0.004
-141.487	-148.432	-0.068	-0.006
-140.472	181.576	0.104	0.152
-139.458	-102.510	-0.299	-0.071
-138.443	57.508	0.233	0.227
-137.429	547.147	-0.048	0.115
-136.414	-189.759	0.566	0.006
-135.399	84.095	0.195	0.212
-134.385	-36.509	-0.037	0.020
-133.370	131.740	-0.210	-0.269
-132.356	-145.795	0.237	-0.021
-131.341	49.543	-0.092	0.087
-130.326	-164.619	0.136	-0.006
-129.312	211.387	0.105	-0.164
-128.297	-200.000	-0.031	0.178
-127.283	-200.000	-0.023	0.395
-126.268	25.705	-0.089	0.074
-125.253	-36.505	-0.199	0.107
-124.239	46.351	0.297	0.275
-123.224	53.489	-0.102	-0.097
-122.210	-200.000	0.030	0.270
-121.195	-200.000	0.041	0.398
