DTS Sentinel unit serial number:	SN413079Multiplexer serial number:	ORYXHardware model number:	OX4-SRSoftware version number:	ORYX F/W v4.00 Oryx Data Collector v3.7.2.0data status	okinstallation	princeton_trtdifferential loss correction	single-endedforward channel	channel 2reverse channel	N/Adate	2019/09/17time	03:15:35forward acquisition time	60.00reverse acquisition time	0.00gamma	496.2192k internal	0.2326k external	0.2326temperature offset calibration	0.9970default loss term (dB/km)	0.3790temperature slope calibration	1.0000multiplexer offset coefficient	1.0000multiplexer slope coefficient	1.0000fibre end	0.00T internal ref (°C)	29.98T ext. ref 1 (°C)	0.14T ext. ref 2 (°C)	24.92length (m)	temperature (°C)	Stokes	anti-Stokes-747.200	719.290	-0.072	0.194
-746.185	-162.375	-0.216	-0.011
-745.171	-200.000	0.020	0.159
-744.156	164.589	-0.141	0.201
-743.142	12.761	-0.022	0.017
-742.127	-200.000	-0.019	-0.123
-741.112	-79.345	-0.305	0.104
-740.098	64.284	0.096	0.098
-739.083	120.658	0.091	0.114
-738.069	34.240	0.138	0.121
-737.054	-85.459	-0.152	-0.048
-736.039	51.165	-0.119	-0.114
-735.025	-159.229	-0.163	0.009
-734.010	-200.000	-0.043	-0.306
-732.996	-200.000	0.042	-0.207
-731.981	39.623	-0.220	0.199
-730.966	-51.499	-0.196	-0.092
-729.952	239.709	0.082	-0.138
-728.937	-136.545	0.139	-0.016
-727.923	37.277	-0.085	0.076
-726.908	-43.547	0.096	0.049
-725.894	800.000	-0.070	-0.230
-724.879	104.234	-0.175	0.208
-723.864	800.000	0.053	0.180
-722.850	452.071	-0.137	0.305
-721.835	80.631	0.217	-0.236
-720.821	800.000	0.086	0.255
-719.806	-104.968	-0.187	-0.043
-718.791	671.574	0.047	0.124
-717.777	800.000	-0.031	0.096
-716.762	-200.000	0.001	0.102
-715.748	-90.597	-0.285	0.083
-714.733	-90.430	-0.101	0.029
-713.718	54.785	-0.151	0.146
-712.704	33.044	-0.151	-0.132
-711.689	800.000	0.051	0.206
-710.675	523.225	0.067	0.158
-709.660	12.960	0.189	-0.148
-708.645	49.813	-0.181	0.172
-707.631	-200.000	0.001	0.214
-706.616	-62.680	0.378	0.158
-705.602	228.341	-0.196	-0.322
-704.587	-71.235	-0.110	0.041
-703.572	34.095	-0.111	0.097
-702.558	417.640	0.056	-0.121
-701.543	-6.641	-0.209	-0.143
-700.529	-55.418	-0.221	-0.100
-699.514	4.025	0.192	0.141
-698.499	41.002	-0.288	-0.262
-697.485	76.049	0.219	0.233
-696.470	165.062	-0.103	0.147
-695.456	-9.008	-0.124	-0.083
-694.441	-156.563	0.174	0.011
-693.426	-173.246	0.270	-0.008
-692.412	91.131	-0.320	-0.362
-691.397	-200.000	0.010	-0.174
-690.383	101.645	-0.393	-0.461
-689.368	-135.397	-0.195	0.023
-688.354	-31.308	0.138	0.078
-687.339	-151.081	0.428	0.032
-686.324	-88.821	-0.214	0.064
-685.310	-200.000	0.000	0.456
-684.295	-200.000	0.041	0.235
-683.281	800.000	-0.055	-0.187
-682.266	-200.000	0.026	-0.134
-681.251	-29.272	-0.121	0.070
-680.237	55.943	-0.048	-0.046
-679.222	44.388	0.014	-0.013
-678.208	224.994	0.151	-0.245
-677.193	-117.482	0.055	0.010
-676.178	134.617	-0.017	0.022
-675.164	-163.873	-0.341	0.016
-674.149	-200.000	0.025	-0.181
-673.135	800.000	0.106	-0.295
-672.120	-75.009	0.246	-0.089
-671.105	-140.824	-0.273	-0.028
-670.091	707.128	0.098	0.261
-669.076	-39.694	-0.099	0.052
-668.062	800.000	-0.036	-0.100
-667.047	-2.008	-0.118	-0.083
-666.032	-200.000	0.017	-0.103
-665.018	-70.217	-0.270	0.103
-664.003	-6.884	-0.189	0.129
-662.989	88.930	-0.260	0.291
-661.974	-196.235	-0.307	0.002
-660.959	21.861	0.313	-0.256
-659.945	-33.590	-0.231	-0.128
-658.930	800.000	0.098	-0.287
-657.916	800.000	0.065	-0.230
-656.901	230.687	0.146	-0.239
-655.886	28.687	-0.430	0.366
-654.872	232.163	-0.023	-0.038
-653.857	392.690	0.035	-0.074
-652.843	225.610	0.157	-0.255
-651.828	-198.727	-0.275	0.002
-650.814	137.636	-0.056	-0.074
-649.799	-41.102	-0.124	0.064
-648.784	-200.000	-0.070	-0.431
-647.770	194.648	-0.099	-0.152
-646.755	-41.717	0.202	0.104
-645.741	75.584	-0.271	0.287
-644.726	-200.000	0.076	0.334
-643.711	40.365	0.107	0.097
-642.697	47.707	0.167	-0.156
-641.682	-200.000	0.000	0.074
-640.668	-44.033	-0.123	0.062
-639.653	-200.000	-0.088	0.659
-638.638	-133.313	-0.199	-0.025
-637.624	-98.098	-0.277	0.072
-636.609	-200.000	0.004	0.447
-635.595	-96.483	0.095	0.025
-634.580	-80.716	0.218	0.073
-633.565	-200.000	0.058	0.297
-632.551	90.301	-0.094	0.106
-631.536	-94.310	-0.260	0.071
-630.522	-200.000	0.056	0.310
-629.507	267.123	0.073	0.128
-628.492	76.853	0.194	0.207
-627.478	-107.386	0.108	0.024
-626.463	-165.101	0.257	0.011
-625.449	-143.436	-0.109	-0.010
-624.434	-52.889	-0.232	0.107
-623.419	-200.000	-0.058	0.280
-622.405	414.067	-0.103	0.220
-621.390	-89.577	0.312	-0.092
-620.376	800.000	0.056	-0.179
-619.361	-68.088	0.280	0.109
-618.346	27.612	-0.210	0.178
-617.332	33.414	0.076	0.066
-616.317	242.621	-0.145	0.244
-615.303	-200.000	-0.029	-0.335
-614.288	-200.000	0.026	-0.214
-613.273	-200.000	-0.020	-0.222
-612.259	17.127	-0.051	-0.040
-611.244	195.407	-0.230	0.350
-610.230	-152.653	-0.436	0.031
-609.215	103.874	0.180	-0.212
-608.201	86.806	-0.139	0.154
-607.186	155.147	-0.066	0.091
-606.171	800.000	-0.017	-0.067
-605.157	-95.640	-0.402	-0.108
-604.142	26.275	0.238	0.199
-603.128	800.000	-0.061	0.184
-602.113	-200.000	-0.042	-0.276
-601.098	-141.050	-0.235	0.024
-600.084	-200.000	-0.002	-0.087
-599.069	-65.997	0.142	-0.057
-598.055	800.000	0.080	-0.229
-597.040	438.916	0.025	0.055
-596.025	-200.000	-0.035	-0.301
-595.011	66.561	0.130	-0.132
-593.996	-200.000	-0.045	0.268
-592.982	-168.651	-0.127	-0.005
-591.967	-64.305	0.289	0.118
-590.952	-108.243	-0.097	0.021
-589.938	800.000	0.064	-0.242
-588.923	-76.318	-0.054	-0.019
-587.909	-64.793	0.109	0.044
-586.894	-179.268	-0.378	-0.008
-585.879	-86.445	0.289	0.089
-584.865	174.959	0.131	-0.190
-583.850	-147.664	0.229	0.019
-582.836	-84.297	-0.253	0.080
-581.821	-62.462	-0.154	-0.064
-580.806	-44.755	-0.318	-0.159
-579.792	-200.000	0.002	0.082
-578.777	-37.750	0.205	0.109
-577.763	470.451	0.124	-0.278
-576.748	0.240	-0.193	-0.138
-575.733	-24.777	-0.082	-0.049
-574.719	-69.156	-0.248	-0.096
-573.704	-107.753	-0.127	-0.028
-572.690	-38.715	0.199	-0.105
-571.675	-135.086	0.191	0.023
-570.661	-75.049	0.229	0.082
-569.646	-102.948	0.185	-0.044
-568.631	-121.413	0.056	-0.009
-567.617	-98.946	-0.138	-0.035
-566.602	204.809	0.081	-0.125
-565.588	-200.000	-0.045	-0.311
-564.573	-153.288	-0.065	-0.005
-563.558	-120.801	-0.168	-0.028
-562.544	-119.143	-0.372	-0.065
-561.529	127.010	0.175	0.223
-560.515	-22.327	-0.270	-0.164
-559.500	42.050	-0.153	-0.139
-558.485	800.000	0.025	0.069
-557.471	-105.834	-0.148	0.034
-556.456	29.149	0.070	0.060
-555.442	554.782	0.116	-0.279
-554.427	800.000	-0.026	0.073
-553.412	-68.357	0.500	0.194
-552.398	677.201	-0.122	-0.317
-551.383	677.771	-0.089	0.231
-550.369	-29.133	0.137	-0.079
-549.354	-118.060	-0.291	0.052
-548.339	800.000	0.057	-0.205
-547.325	378.858	0.084	-0.171
-546.310	377.377	0.120	0.245
-545.296	250.418	-0.148	-0.251
-544.281	525.944	0.115	0.270
-543.266	9.756	-0.275	-0.209
-542.252	-200.000	0.023	0.126
-541.237	-174.995	0.261	0.007
-540.223	-200.000	-0.021	-0.235
-539.208	-55.778	0.240	0.107
-538.193	-58.171	-0.246	0.107
-537.179	193.176	0.214	0.324
-536.164	-54.180	0.306	-0.139
-535.150	105.631	-0.152	0.179
-534.135	-200.000	-0.012	-0.247
-533.121	-40.874	-0.265	0.137
-532.106	-54.838	0.060	-0.027
-531.091	-55.183	0.210	-0.095
-530.077	-44.710	-0.243	0.122
-529.062	565.575	-0.032	-0.076
-528.048	310.155	-0.086	0.161
-527.033	800.000	-0.116	-0.333
-526.018	195.879	-0.048	0.073
-525.004	37.080	-0.179	-0.158
-523.989	-146.747	-0.076	0.007
-522.975	-36.166	-0.392	-0.212
-521.960	-84.453	-0.182	-0.057
-520.945	689.684	-0.032	0.083
-519.931	400.826	-0.165	-0.347
-518.916	-88.703	-0.286	-0.085
-517.902	-87.600	-0.313	-0.095
-516.887	-200.000	0.002	0.035
-515.872	116.028	0.057	-0.070
-514.858	-105.761	0.187	0.042
-513.843	800.000	0.018	-0.057
-512.829	-105.398	0.109	-0.025
-511.814	-200.000	0.005	0.157
-510.799	-54.330	-0.207	0.094
-509.785	-136.377	-0.405	0.047
-508.770	800.000	-0.019	-0.076
-507.756	-200.000	-0.024	0.426
-506.741	-200.000	-0.041	0.423
-505.726	-115.591	0.240	0.045
-504.712	-200.000	-0.021	0.166
-503.697	-151.385	-0.157	-0.012
-502.683	-51.478	0.282	-0.131
-501.668	-156.455	-0.280	-0.017
-500.653	466.248	-0.121	0.270
-499.639	185.601	0.192	0.285
-498.624	-125.066	0.371	-0.057
-497.610	614.795	-0.066	-0.165
-496.595	-118.678	-0.076	0.013
-495.581	70.636	0.201	-0.208
-494.566	179.574	0.080	0.116
-493.551	800.000	-0.009	0.037
-492.537	34.906	-0.267	-0.233
-491.522	282.554	0.125	-0.224
-490.508	-200.000	0.015	-0.398
-489.493	141.486	-0.202	-0.267
-488.478	-64.086	0.135	0.055
-487.464	-51.494	0.214	-0.100
-486.449	219.845	-0.185	0.296
-485.435	-200.000	-0.043	0.297
-484.420	17.017	-0.056	0.045
-483.405	3.957	0.044	-0.032
-482.391	332.842	-0.092	-0.178
-481.376	800.000	0.095	-0.262
-480.362	96.393	-0.089	-0.102
-479.347	-200.000	-0.268	-0.001
-478.332	-73.771	0.150	0.055
-477.318	-89.427	-0.214	0.063
-476.303	-110.381	0.272	0.056
-475.289	183.357	-0.109	0.160
-474.274	-128.503	0.335	0.047
-473.259	-84.535	-0.086	0.027
-472.245	800.000	0.073	-0.260
-471.230	-25.277	0.186	-0.110
-470.216	2.340	-0.055	-0.040
-469.201	-47.916	0.287	-0.138
-468.186	250.030	0.105	0.178
-467.172	-200.000	-0.038	-0.281
-466.157	572.798	-0.080	0.195
-465.143	28.381	0.156	0.132
-464.128	-200.000	0.003	0.109
-463.113	-86.813	-0.225	0.069
-462.099	-130.904	-0.489	-0.065
-461.084	-126.934	0.151	-0.022
-460.070	89.269	-0.106	0.118
-459.055	-128.613	0.109	-0.015
-458.040	66.588	-0.190	-0.193
-457.026	-83.224	-0.121	-0.039
-456.011	-83.659	-0.094	0.030
-454.997	236.189	-0.020	-0.033
-453.982	347.178	0.074	0.145
-452.968	-166.771	0.095	0.004
-451.953	48.681	-0.170	-0.159
-450.938	-131.497	0.058	-0.008
-449.924	187.846	-0.036	-0.054
-448.909	-200.000	0.021	-0.106
-447.895	-200.000	0.034	0.175
-446.880	-44.045	-0.036	0.018
-445.865	330.497	-0.131	0.252
-444.851	-53.342	-0.146	-0.067
-443.836	800.000	0.080	0.256
-442.822	-78.750	0.068	-0.023
-441.807	531.435	0.103	0.243
-440.792	800.000	0.030	-0.125
-439.778	693.718	0.085	-0.223
-438.763	-53.843	-0.259	-0.118
-437.749	456.184	-0.099	0.219
-436.734	534.198	0.054	-0.128
-435.719	92.664	-0.042	0.047
-434.705	-14.057	-0.085	0.055
-433.690	-200.000	0.051	-0.293
-432.676	105.136	-0.093	-0.109
-431.661	-101.894	0.127	0.031
-430.646	-87.587	0.288	0.087
-429.632	88.878	-0.193	-0.214
-428.617	-54.637	0.226	0.102
-427.603	-18.353	-0.120	0.074
-426.588	67.633	0.296	0.301
-425.573	-200.000	-0.030	0.213
-424.559	0.396	0.018	-0.013
-423.544	178.061	-0.059	-0.086
-422.530	524.040	0.133	0.311
-421.515	-84.005	-0.274	-0.087
-420.500	68.551	-0.212	-0.216
-419.486	-2.814	0.170	0.119
-418.471	-6.065	0.098	-0.067
-417.457	102.362	0.231	0.269
-416.442	93.374	-0.140	-0.157
-415.428	-22.119	0.212	-0.128
-414.413	-20.900	-0.136	-0.083
-413.398	800.000	-0.051	-0.168
-412.384	-110.054	0.196	-0.041
-411.369	-200.000	0.060	0.315
-410.355	360.737	-0.165	-0.330
-409.340	-67.423	0.328	0.128
-408.325	-39.676	-0.154	-0.080
-407.311	586.636	0.007	-0.016
-406.296	-59.652	0.299	0.128
-405.282	-26.128	-0.060	0.035
-404.267	487.711	-0.181	0.412
-403.252	-81.690	0.230	0.075
-402.238	155.325	-0.126	0.172
-401.223	108.805	0.075	-0.089
-400.209	46.796	0.194	-0.180
-399.194	-200.000	-0.044	0.241
-398.179	-118.587	0.195	-0.034
-397.165	-149.640	-0.279	-0.022
-396.150	800.000	0.146	-0.484
-395.136	159.079	0.087	-0.121
-394.121	550.925	0.066	0.158
-393.106	-200.000	-0.029	-0.158
-392.092	199.919	0.130	0.199
-391.077	-200.000	-0.017	-0.096
-390.063	800.000	0.046	0.181
-389.048	313.171	0.100	-0.186
-388.033	-157.310	0.142	0.009
-387.019	-10.750	0.266	-0.175
-386.004	-123.246	0.188	-0.030
-384.990	-71.904	-0.240	-0.089
-383.975	77.122	-0.189	-0.200
-382.960	800.000	-0.114	0.365
-381.946	-20.175	-0.476	0.292
-380.931	-188.084	-0.246	0.003
-379.917	99.807	0.112	-0.129
-378.902	800.000	-0.162	-0.465
-377.888	106.914	-0.298	0.351
-376.873	578.231	0.071	0.172
-375.858	140.915	0.153	0.202
-374.844	52.420	0.194	-0.184
-373.829	-200.000	0.044	-0.251
-372.815	-200.000	-0.007	-0.134
-371.800	-152.970	0.092	0.006
-370.785	72.753	0.262	0.272
-369.771	329.488	0.152	0.290
-368.756	-130.515	-0.148	-0.020
-367.742	170.559	0.100	0.143
-366.727	36.266	-0.240	-0.210
-365.712	-51.427	0.126	-0.058
-364.698	-17.981	-0.116	0.072
-363.683	-200.000	-0.019	0.208
-362.669	58.831	-0.023	0.022
-361.654	570.385	-0.158	0.381
-360.639	109.538	0.141	-0.168
-359.625	-83.055	0.232	-0.074
-358.610	-200.000	-0.002	-0.060
-357.596	166.554	0.055	-0.078
-356.581	-128.951	0.330	0.046
-355.566	-200.000	0.017	0.086
-354.552	-200.000	0.045	-0.206
-353.537	-162.589	0.268	0.013
-352.523	-200.000	-0.022	-0.160
-351.508	800.000	-0.010	-0.034
-350.493	-3.034	0.086	0.060
-349.479	-45.701	-0.174	-0.086
-348.464	-1.214	-0.259	0.182
-347.450	-96.000	0.291	0.077
-346.435	-200.000	0.005	0.059
-345.420	227.033	-0.056	0.091
-344.406	-153.889	-0.218	-0.015
-343.391	-200.000	-0.016	-0.433
-342.377	-61.976	-0.165	-0.068
-341.362	-200.000	0.010	0.138
-340.348	-200.000	0.004	-0.207
-339.333	-6.692	0.195	0.132
-338.318	-113.480	0.278	0.054
-337.304	67.877	-0.221	-0.224
-336.289	800.000	-0.062	-0.219
-335.275	-81.078	-0.253	-0.083
-334.260	84.573	0.127	-0.138
-333.245	-25.532	0.241	-0.141
-332.231	598.189	0.133	-0.328
-331.216	800.000	-0.046	0.194
-330.202	-200.000	0.008	-0.083
-329.187	-26.192	-0.316	-0.184
-328.172	561.289	0.091	0.217
-327.158	-82.002	0.299	0.097
-326.143	78.672	-0.137	-0.145
-325.129	-200.000	-0.013	-0.122
-324.114	452.826	0.025	-0.054
-323.099	115.162	0.114	0.138
-322.085	-185.268	0.192	-0.003
-321.070	-53.328	0.161	-0.073
-320.056	-122.236	0.134	-0.022
-319.041	-89.812	-0.281	-0.082
-318.026	-51.762	-0.094	-0.043
-317.012	-200.000	0.039	0.328
-315.997	-67.374	-0.192	0.075
-314.983	-127.508	0.469	-0.068
-313.968	-73.317	0.148	0.054
-312.953	17.142	0.120	0.095
-311.939	233.203	0.146	0.238
-310.924	-31.492	-0.170	-0.095
-309.910	64.960	0.194	-0.195
-308.895	-200.000	0.093	0.437
-307.880	-75.813	-0.142	-0.050
-306.866	164.450	0.030	0.042
-305.851	-111.668	-0.173	0.035
-304.837	-200.000	0.047	0.375
-303.822	-200.000	0.001	0.114
-302.807	-200.000	-0.058	0.256
-301.793	-200.000	-0.035	0.187
-300.778	-127.174	-0.215	-0.031
-299.764	-6.802	0.136	0.091
-298.749	-121.193	-0.155	-0.026
-297.735	-36.121	-0.275	0.147
-296.720	-17.718	0.192	0.119
-295.705	-200.000	0.027	0.185
-294.691	-200.000	-0.017	-0.129
-293.676	800.000	-0.013	0.049
-292.662	191.376	0.099	0.148
-291.647	-24.524	-0.195	-0.115
-290.632	-168.699	0.440	0.017
-289.618	624.814	-0.068	-0.169
-288.603	-200.000	-0.088	-0.398
-287.589	-3.265	0.035	0.024
-286.574	-128.857	0.287	0.040
-285.559	219.380	-0.305	-0.484
-284.545	-200.000	0.021	0.152
-283.530	-95.411	-0.138	0.037
-282.516	-200.000	0.001	-0.016
-281.501	800.000	-0.048	0.198
-280.486	394.960	0.104	-0.215
-279.472	-63.309	0.175	-0.071
-278.457	6.948	-0.280	0.207
-277.443	800.000	0.027	-0.101
-276.428	154.608	0.225	-0.306
-275.413	309.040	0.099	-0.182
-274.399	-200.000	0.016	-0.219
-273.384	24.249	0.077	-0.063
-272.370	-44.310	0.129	0.064
-271.355	-200.000	0.022	0.137
-270.340	-65.016	0.139	-0.056
-269.326	30.187	0.128	-0.109
-268.311	290.703	-0.112	-0.202
-267.297	101.202	-0.192	0.222
-266.282	1.394	0.067	-0.048
-265.267	-54.702	0.266	0.119
-264.253	-200.000	-0.004	-0.115
-263.238	-200.000	0.072	-0.423
-262.224	-95.914	-0.527	-0.139
-261.209	205.980	-0.131	-0.202
-260.195	-117.030	0.036	-0.006
-259.180	-77.051	-0.261	0.090
-258.165	23.899	0.243	-0.198
-257.151	-144.510	0.204	-0.019
-256.136	-200.000	-0.007	0.195
-255.122	-200.000	0.067	-0.321
-254.107	313.399	-0.102	-0.190
-253.092	625.531	-0.053	0.133
-252.078	33.036	-0.091	0.078
-251.063	-162.726	-0.153	-0.007
-250.049	169.794	0.270	0.381
-249.034	215.151	-0.115	0.180
-248.019	800.000	-0.020	0.059
-247.005	-135.013	-0.162	0.019
-245.990	323.547	0.137	0.258
-244.976	44.427	0.112	0.101
-243.961	-93.746	0.234	-0.064
-242.946	-84.022	0.085	0.027
-241.932	-200.000	0.004	-0.123
-240.917	-192.068	0.091	-0.001
-239.903	-160.176	-0.408	-0.022
-238.888	800.000	0.070	-0.261
-237.873	-162.621	0.325	-0.016
-236.859	-105.407	0.274	-0.062
-235.844	-39.358	-0.119	-0.062
-234.830	-100.892	-0.324	-0.079
-233.815	196.432	-0.150	-0.225
-232.800	-19.559	0.127	-0.078
-231.786	379.536	-0.130	-0.264
-230.771	-200.000	0.021	0.238
-229.757	800.000	-0.033	-0.091
-228.742	-200.000	-0.067	-0.000
-227.727	-62.121	-0.108	0.045
-226.713	-135.954	0.158	0.018
-225.698	117.863	0.056	0.068
-224.684	800.000	0.047	0.160
-223.669	149.234	0.231	-0.309
-222.655	59.838	-0.179	0.175
-221.640	-194.667	0.122	0.001
-220.625	12.363	-0.145	0.111
-219.611	47.115	0.166	0.153
-218.596	-104.969	-0.075	-0.017
-217.582	-50.066	-0.140	-0.065
-216.567	-57.740	0.124	0.054
-215.552	-198.772	-0.064	0.000
-214.538	190.768	-0.148	0.220
-213.523	-103.757	-0.189	0.044
-212.509	165.161	0.131	0.183
-211.494	372.509	-0.019	-0.039
-210.479	-200.000	0.032	0.240
-209.465	351.571	-0.097	-0.189
-208.450	146.640	-0.148	0.196
-207.436	-136.391	0.099	0.011
-206.421	-16.195	-0.295	-0.185
-205.406	800.000	0.068	-0.293
-204.392	-66.784	0.101	0.039
-203.377	554.903	0.127	-0.302
-202.363	631.103	-0.066	-0.165
-201.348	199.235	0.130	0.197
-200.333	210.532	-0.029	-0.044
-199.319	-151.075	0.347	-0.026
-198.304	-99.900	0.085	0.021
-197.290	-74.995	0.253	-0.089
-196.275	-33.107	-0.260	-0.142
-195.260	800.000	-0.112	-0.319
-194.246	21.161	-0.139	-0.112
-193.231	-149.002	0.207	-0.016
-192.217	800.000	0.021	0.085
-191.202	-200.000	0.024	-0.280
-190.187	48.764	0.194	-0.180
-189.173	-30.691	0.239	-0.134
-188.158	-85.804	-0.044	-0.013
-187.144	-189.451	-0.601	-0.007
-186.129	10.562	0.217	-0.163
-185.114	-164.190	-0.490	0.022
-184.100	-15.649	-0.085	0.053
-183.085	236.224	0.109	0.178
-182.071	799.021	-0.025	-0.068
-181.056	709.247	-0.040	-0.104
-180.042	-38.461	-0.040	0.021
-179.027	189.428	0.031	0.046
-178.012	-200.000	0.050	-0.331
-176.998	226.873	0.105	0.169
-175.983	-120.407	0.218	-0.037
-174.969	-110.634	0.181	0.037
-173.954	-37.535	0.203	0.107
-172.939	214.499	0.109	0.170
-171.925	-44.138	0.072	0.036
-170.910	-200.000	-0.059	0.425
-169.896	217.953	0.142	-0.224
-168.881	202.034	0.222	-0.338
-167.866	-149.810	0.314	-0.024
-166.852	-200.000	-0.026	0.313
-165.837	-200.000	0.006	0.154
-164.823	-200.000	-0.035	-0.154
-163.808	800.000	-0.116	0.328
-162.793	-120.231	-0.171	-0.029
-161.779	106.219	-0.168	0.196
-160.764	-200.000	-0.034	0.174
-159.750	20.917	0.107	-0.085
-158.735	-127.518	-0.303	-0.043
-157.720	-200.000	0.038	0.167
-156.706	-200.000	0.038	0.171
-155.691	-200.000	0.017	0.263
-154.677	-22.120	0.157	0.094
-153.662	56.399	0.093	-0.089
-152.647	786.425	0.026	0.071
-151.633	436.033	-0.100	-0.214
-150.618	226.161	-0.136	-0.218
-149.604	351.335	-0.055	0.106
-148.589	-200.000	-0.046	-0.370
-147.574	-108.050	-0.232	-0.050
-146.560	-147.722	-0.249	-0.021
-145.545	-200.000	-0.060	0.336
-144.531	28.915	-0.044	-0.037
-143.516	-70.160	-0.103	0.039
-142.502	-181.320	-0.133	0.003
-141.487	78.867	0.233	0.246
-140.472	226.125	-0.153	-0.245
-139.458	0.674	-0.262	-0.184
-138.443	-123.030	-0.477	-0.075
-137.429	-4.906	-0.242	-0.164
-136.414	-82.371	-0.455	0.146
-135.399	-131.584	0.189	0.024
-134.385	116.334	0.209	-0.253
-133.370	-200.000	0.018	-0.260
-132.356	-53.048	-0.284	0.129
-131.341	-103.612	0.279	0.065
-130.326	124.400	-0.017	-0.021
-129.312	2.009	0.237	0.169
-128.297	75.044	0.210	0.218
-127.283	65.932	-0.134	0.134
-126.268	-200.000	0.020	0.166
-125.253	313.229	0.054	0.100
-124.239	335.634	0.031	0.058
-123.224	-38.987	0.116	-0.060
-122.210	-86.201	0.293	-0.089
