DTS Sentinel unit serial number:	SN413079Multiplexer serial number:	ORYXHardware model number:	OX4-SRSoftware version number:	ORYX F/W v4.00 Oryx Data Collector v3.7.2.0data status	okinstallation	princeton_trtdifferential loss correction	single-endedforward channel	channel 2reverse channel	N/Adate	2019/09/18time	22:47:34forward acquisition time	60.00reverse acquisition time	0.00gamma	496.2192k internal	0.2349k external	0.2349temperature offset calibration	1.0016default loss term (dB/km)	0.3790temperature slope calibration	1.0000multiplexer offset coefficient	1.0000multiplexer slope coefficient	1.0000fibre end	0.00T internal ref (°C)	24.11T ext. ref 1 (°C)	0.79T ext. ref 2 (°C)	18.00length (m)	temperature (°C)	Stokes	anti-Stokes-747.200	-51.207	-0.291	-0.136
-746.185	800.000	-0.146	0.483
-745.171	121.693	-0.243	0.303
-744.156	-10.102	-0.339	0.225
-743.142	-102.814	-0.283	0.067
-742.127	-200.000	-0.001	0.104
-741.112	446.098	0.172	0.378
-740.098	-127.883	-0.151	0.022
-739.083	800.000	0.052	0.215
-738.069	-44.899	0.217	0.108
-737.054	-200.000	-0.007	-0.208
-736.039	158.586	-0.079	-0.109
-735.025	-47.621	0.182	-0.088
-734.010	-200.000	0.034	-0.269
-732.996	-96.066	-0.345	-0.092
-731.981	-200.000	-0.016	-0.097
-730.966	-200.000	0.030	-0.175
-729.952	125.525	-0.160	-0.202
-728.937	449.056	-0.145	-0.319
-727.923	800.000	-0.078	-0.246
-726.908	-109.814	-0.168	-0.035
-725.894	-103.831	-0.190	-0.044
-724.879	635.324	-0.137	-0.347
-723.864	-200.000	0.015	0.247
-722.850	-14.991	-0.260	0.166
-721.835	-200.000	-0.019	-0.275
-720.821	-200.000	0.022	-0.247
-719.806	-200.000	0.031	-0.195
-718.791	161.902	0.133	-0.186
-717.777	-200.000	0.028	0.507
-716.762	-200.000	0.046	-0.238
-715.748	-94.238	-0.208	-0.057
-714.733	-197.749	-0.227	0.001
-713.718	171.996	-0.103	0.147
-712.704	-179.777	-0.312	0.007
-711.689	-79.944	-0.292	0.098
-710.675	-116.783	-0.153	0.028
-709.660	88.956	0.124	0.138
-708.645	-82.506	0.230	-0.075
-707.631	-200.000	0.011	-0.071
-706.616	508.391	-0.041	-0.095
-705.602	354.320	-0.089	-0.175
-704.587	-93.932	0.416	0.114
-703.572	-139.950	-0.383	-0.040
-702.558	-86.531	-0.168	-0.051
-701.543	-120.005	0.516	-0.088
-700.529	-31.659	-0.092	-0.051
-699.514	-91.303	-0.139	0.040
-698.499	492.323	0.018	0.042
-697.485	112.788	0.145	-0.175
-696.470	-52.837	-0.177	0.081
-695.456	800.000	-0.022	0.096
-694.441	101.809	-0.177	0.206
-693.426	133.572	-0.164	0.212
-692.412	-55.339	0.199	0.089
-691.397	-156.606	0.226	-0.014
-690.383	233.032	-0.083	-0.136
-689.368	-77.244	0.126	0.044
-688.354	-200.000	-0.014	-0.230
-687.339	451.279	0.167	-0.366
-686.324	-135.927	-0.354	0.042
-685.310	33.631	-0.168	-0.146
-684.295	-200.000	0.011	-0.250
-683.281	-160.280	0.192	0.010
-682.266	-200.000	-0.014	0.065
-681.251	-92.467	0.210	-0.059
-680.237	469.575	0.164	-0.367
-679.222	-91.707	0.104	-0.029
-678.208	147.079	-0.074	-0.099
-677.193	800.000	-0.054	-0.156
-676.178	348.921	-0.148	-0.290
-675.164	-200.000	0.018	-0.156
-674.149	-25.378	-0.153	-0.090
-673.135	-3.738	0.464	-0.321
-672.120	6.202	0.050	-0.037
-671.105	-200.000	-0.003	-0.107
-670.091	591.689	0.081	0.199
-669.076	-200.000	-0.028	-0.279
-668.062	-128.563	-0.292	-0.041
-667.047	625.137	0.091	-0.229
-666.032	73.542	0.147	-0.153
-665.018	104.770	-0.236	-0.277
-664.003	-5.920	0.223	-0.152
-662.989	-200.000	0.010	0.149
-661.974	81.250	-0.255	0.274
-660.959	514.165	0.024	0.056
-659.945	-63.459	-0.112	-0.046
-658.930	800.000	0.065	0.217
-657.916	10.697	-0.251	-0.190
-656.901	-67.620	-0.030	-0.012
-655.886	-200.000	0.026	-0.175
-654.872	-200.000	-0.024	-0.435
-653.857	-13.926	-0.152	-0.098
-652.843	-200.000	0.010	0.100
-651.828	-112.022	0.475	-0.095
-650.814	687.545	-0.061	0.157
-649.799	353.484	-0.067	-0.133
-648.784	-98.232	0.116	0.030
-647.770	-81.977	0.423	0.138
-646.755	33.493	-0.246	0.213
-645.741	-200.000	-0.034	-0.371
-644.726	28.195	-0.190	0.160
-643.711	27.313	-0.176	-0.147
-642.697	238.891	0.079	0.131
-641.682	123.488	-0.067	0.084
-640.668	800.000	0.088	-0.310
-639.653	-200.000	-0.013	0.123
-638.638	218.926	-0.177	-0.281
-637.624	-85.158	-0.091	0.028
-636.609	-200.000	-0.006	0.094
-635.595	-14.167	-0.117	-0.075
-634.580	800.000	0.078	0.233
-633.565	566.341	-0.016	0.037
-632.551	-119.236	-0.005	0.001
-631.536	171.138	-0.149	0.213
-630.522	-103.856	0.096	0.022
-629.507	-200.000	-0.041	-0.253
-628.492	-89.566	-0.320	-0.093
-627.478	272.560	0.211	0.370
-626.463	-10.491	0.203	0.134
-625.449	-157.862	-0.240	0.014
-624.434	28.123	-0.109	-0.091
-623.419	466.793	-0.147	-0.327
-622.405	-200.000	0.166	0.001
-621.390	-128.924	-0.377	0.053
-620.376	80.649	-0.222	0.238
-619.361	-143.281	-0.235	0.022
-618.346	133.386	0.109	0.140
-617.332	-26.831	-0.154	-0.090
-616.317	800.000	0.043	-0.176
-615.303	-71.761	-0.250	-0.092
-614.288	520.331	0.043	0.100
-613.273	-12.693	0.229	-0.149
-612.259	-200.000	-0.043	-0.416
-611.244	-26.453	0.138	-0.080
-610.230	200.000	-0.300	0.458
-609.215	-170.343	0.090	0.003
-608.201	-121.458	-0.029	0.005
-607.186	-114.124	0.180	-0.035
-606.171	-140.356	-0.364	0.038
-605.157	-200.000	0.019	0.097
-604.142	103.772	0.084	-0.098
-603.128	-93.276	0.132	-0.036
-602.113	-86.461	-0.169	0.052
-601.098	68.751	0.125	-0.127
-600.084	-36.914	0.115	0.062
-599.069	-47.775	0.119	-0.057
-598.055	-200.000	-0.011	0.095
-597.040	-13.369	0.444	0.286
-596.025	64.780	0.310	0.310
-595.011	-166.439	-0.197	0.008
-593.996	-24.881	0.089	0.053
-592.982	4.946	-0.062	0.045
-591.967	-40.801	0.136	0.070
-590.952	279.188	-0.169	0.300
-589.938	494.766	-0.114	-0.260
-588.923	-200.000	0.038	-0.536
-587.909	55.603	0.223	0.214
-586.894	21.332	-0.134	0.108
-585.879	-27.914	0.118	-0.068
-584.865	283.652	0.183	0.326
-583.850	54.487	0.109	0.104
-582.836	111.073	-0.062	0.074
-581.821	-200.000	0.017	-0.127
-580.806	289.218	0.081	-0.145
-579.792	328.754	-0.254	-0.484
-578.777	-200.000	-0.003	-0.123
-577.763	46.282	-0.268	0.247
-576.748	229.264	-0.035	0.057
-575.733	-77.311	-0.179	0.062
-574.719	-200.000	-0.094	-0.545
-573.704	344.083	0.036	-0.071
-572.690	-99.176	0.286	0.072
-571.675	-200.000	0.030	-0.362
-570.661	556.194	0.148	-0.353
-569.646	-22.518	0.184	-0.111
-568.631	-200.000	-0.067	-0.324
-567.617	619.673	-0.036	-0.090
-566.602	-25.535	0.194	0.113
-565.588	225.213	-0.101	-0.162
-564.573	2.914	0.319	-0.230
-563.558	-44.811	0.234	0.116
-562.544	80.728	-0.225	0.240
-561.529	-141.118	0.399	0.040
-560.515	-93.201	0.258	-0.071
-559.500	-96.328	-0.177	0.047
-558.485	119.843	0.155	0.191
-557.471	-132.586	-0.161	-0.021
-556.456	68.202	-0.041	-0.041
-555.442	800.000	-0.092	-0.284
-554.427	800.000	-0.072	-0.228
-553.412	24.944	0.132	-0.109
-552.398	-200.000	-0.014	-0.318
-551.383	169.332	-0.156	-0.221
-550.369	-200.000	0.022	-0.179
-549.354	379.578	0.113	0.229
-548.339	800.000	-0.052	0.176
-547.325	800.000	-0.114	0.396
-546.310	800.000	-0.029	0.081
-545.296	-200.000	0.015	-0.235
-544.281	300.982	-0.167	-0.306
-543.266	-6.963	-0.119	-0.080
-542.252	-115.424	0.322	-0.060
-541.237	-81.183	0.177	0.058
-540.223	800.000	-0.068	0.246
-539.208	64.434	-0.239	-0.239
-538.193	-125.794	0.194	0.029
-537.179	-200.000	0.002	0.060
-536.164	40.590	0.067	0.059
-535.150	38.578	0.141	0.125
-534.135	800.000	-0.047	-0.137
-533.121	43.475	-0.125	-0.113
-532.106	29.052	0.060	0.050
-531.091	-80.883	-0.025	-0.008
-530.077	800.000	0.037	0.100
-529.062	-200.000	-0.017	0.142
-528.048	-41.215	-0.158	-0.081
-527.033	800.000	0.053	0.196
-526.018	335.288	-0.192	-0.368
-525.004	-136.371	-0.182	-0.021
-523.989	-7.459	0.110	0.074
-522.975	218.883	0.108	-0.171
-521.960	326.545	-0.074	0.141
-520.945	22.028	0.104	0.084
-519.931	118.170	0.068	-0.083
-518.916	-176.427	-0.080	0.002
-517.902	800.000	-0.057	-0.218
-516.887	595.726	-0.108	0.263
-515.872	10.443	-0.091	0.068
-514.858	-150.557	0.159	-0.012
-513.843	-123.101	0.192	-0.031
-512.829	-105.868	-0.301	0.067
-511.814	-200.000	0.103	0.553
-510.799	92.357	0.075	-0.084
-509.785	33.963	-0.180	-0.155
-508.770	59.907	-0.270	0.264
-507.756	66.204	-0.119	0.119
-506.741	-200.000	0.027	0.130
-505.726	157.500	-0.138	-0.189
-504.712	-44.471	-0.277	-0.137
-503.697	-81.934	0.239	-0.077
-502.683	54.708	-0.413	0.394
-501.668	212.821	0.116	-0.182
-500.653	-9.049	0.183	-0.121
-499.639	545.050	0.023	0.053
-498.624	136.513	0.163	-0.210
-497.610	-32.114	-0.103	0.057
-496.595	-63.617	-0.093	0.038
-495.581	23.911	-0.235	0.191
-494.566	-19.016	0.252	-0.155
-493.551	-41.791	-0.100	-0.051
-492.537	-171.463	-0.247	0.008
-491.522	-200.000	0.041	-0.194
-490.508	-138.459	-0.090	0.010
-489.493	-144.182	0.168	-0.016
-488.478	320.713	0.119	0.224
-487.464	323.328	0.119	0.224
-486.449	-163.198	-0.137	0.006
-485.435	-11.226	0.221	0.144
-484.420	104.100	-0.230	0.268
-483.405	-45.045	0.072	0.036
-482.391	-69.875	-0.261	0.098
-481.376	-149.924	-0.351	-0.027
-480.362	7.302	0.142	0.105
-479.347	137.830	0.040	-0.052
-478.332	800.000	0.090	-0.383
-477.318	-87.871	0.293	0.087
-476.303	73.933	0.046	-0.048
-475.289	113.771	0.323	-0.388
-474.274	299.964	-0.140	0.255
-473.259	-31.321	0.091	0.051
-472.245	-173.041	0.262	0.008
-471.230	-108.230	-0.137	-0.029
-470.216	-110.073	0.048	-0.010
-469.201	-200.000	-0.023	0.387
-468.186	89.675	0.125	-0.138
-467.172	437.695	0.075	0.161
-466.157	-79.331	0.284	-0.095
-465.143	-24.902	0.092	0.054
-464.128	248.036	0.097	0.162
-463.113	-37.888	0.106	-0.056
-462.099	-149.720	0.126	-0.010
-461.084	133.694	0.068	-0.087
-460.070	800.000	0.115	-0.339
-459.055	-200.000	-0.007	-0.381
-458.040	-34.343	0.055	-0.030
-457.026	-86.640	0.108	0.033
-456.011	71.901	0.222	-0.228
-454.997	525.574	0.075	0.174
-453.982	800.000	0.039	-0.141
-452.968	800.000	-0.025	0.088
-451.953	290.368	-0.096	-0.173
-450.938	4.261	0.227	-0.164
-449.924	624.865	-0.059	-0.147
-448.909	-200.000	0.003	0.037
-447.895	106.720	0.145	-0.170
-446.880	401.668	0.236	0.488
-445.865	800.000	0.021	0.061
-444.851	111.044	-0.094	0.112
-443.836	-200.000	-0.006	0.039
-442.822	167.872	-0.180	-0.253
-441.807	800.000	0.031	0.129
-440.792	800.000	0.114	0.373
-439.778	-51.620	-0.239	-0.110
-438.763	76.822	0.079	-0.083
-437.749	433.198	0.041	-0.089
-436.734	-200.000	0.043	0.302
-435.719	-131.882	-0.141	0.018
-434.705	-95.422	-0.145	0.038
-433.690	-200.000	-0.026	0.241
-432.676	800.000	-0.049	-0.167
-431.661	-200.000	-0.004	-0.619
-430.646	-200.000	0.004	0.110
-429.632	-113.403	0.203	-0.039
-428.617	-200.000	0.011	0.325
-427.603	125.638	-0.079	0.098
-426.588	-200.000	0.079	-0.387
-425.573	54.105	-0.303	-0.288
-424.559	-200.000	-0.239	0.001
-423.544	-104.039	0.318	-0.073
-422.530	-42.565	-0.252	-0.127
-421.515	800.000	0.091	0.325
-420.500	545.377	0.157	0.370
-419.486	800.000	-0.065	0.185
-418.471	423.470	-0.037	-0.078
-417.457	224.653	-0.152	0.243
-416.442	-200.000	-0.008	0.131
-415.428	360.050	0.057	-0.112
-414.413	170.408	-0.113	-0.159
-413.398	385.329	0.034	-0.070
-412.384	-200.000	0.011	0.091
-411.369	358.476	0.106	-0.210
-410.355	-200.000	-0.065	0.303
-409.340	-200.000	0.001	-0.185
-408.325	33.665	-0.290	0.248
-407.311	81.690	0.078	0.083
-406.296	-53.212	-0.215	0.097
-405.282	164.772	-0.052	0.073
-404.267	-175.231	-0.195	-0.005
-403.252	-19.592	-0.125	0.076
-402.238	800.000	-0.099	0.307
-401.223	-135.346	-0.151	-0.018
-400.209	-73.732	0.266	-0.095
-399.194	635.993	0.090	0.226
-398.179	-200.000	-0.002	-0.130
-397.165	-126.340	-0.170	0.025
-396.150	-200.000	0.033	-0.168
-395.136	-200.000	0.011	0.155
-394.121	-40.944	-0.071	0.036
-393.106	316.969	0.004	0.008
-392.092	-185.666	-0.137	-0.002
-391.077	-11.045	-0.192	0.125
-390.063	63.590	0.154	-0.152
-389.048	65.297	0.039	0.039
-388.033	0.244	-0.120	0.085
-387.019	-51.537	0.030	-0.014
-386.004	-47.230	-0.074	0.035
-384.990	56.536	-0.302	-0.290
-383.975	192.127	0.198	-0.295
-382.960	82.053	0.151	-0.161
-381.946	-154.467	-0.104	0.007
-380.931	254.358	0.136	-0.229
-379.917	46.007	0.230	-0.210
-378.902	-84.092	0.105	-0.033
-377.888	137.997	-0.117	-0.151
-376.873	-200.000	0.003	-0.185
-375.858	75.517	0.188	0.196
-374.844	-200.000	0.015	-0.068
-373.829	-82.471	-0.177	-0.057
-372.815	46.747	0.087	0.079
-371.800	800.000	0.057	0.232
-370.785	-200.000	0.005	-0.101
-369.771	-47.083	0.187	0.090
-368.756	-111.206	0.340	-0.069
-367.742	800.000	-0.021	-0.089
-366.727	198.853	-0.075	-0.112
-365.712	234.554	0.027	-0.043
-364.698	-59.930	-0.072	-0.030
-363.683	-74.642	0.319	0.113
-362.669	392.252	-0.189	0.386
-361.654	-200.000	-0.010	-0.152
-360.639	49.524	0.207	0.192
-359.625	754.551	-0.157	-0.418
-358.610	-14.298	0.198	0.125
-357.596	-129.581	0.204	-0.028
-356.581	-157.429	0.179	-0.011
-355.566	324.778	-0.202	0.379
-354.552	217.381	-0.249	-0.391
-353.537	-124.677	0.270	0.041
-352.523	-105.660	0.280	0.062
-351.508	-44.537	0.268	-0.132
-350.493	68.206	0.051	-0.052
-349.479	552.299	0.119	0.280
-348.464	-200.000	-0.001	-0.109
-347.450	-104.375	0.277	-0.063
-346.435	-65.985	-0.102	-0.040
-345.420	267.665	0.153	-0.263
-344.406	473.803	-0.093	-0.206
-343.391	-77.196	-0.031	-0.011
-342.377	-127.126	0.144	-0.021
-341.362	800.000	-0.092	0.314
-340.348	3.733	-0.176	0.126
-339.333	16.213	-0.143	-0.111
-338.318	85.452	-0.113	0.122
-337.304	350.511	-0.012	-0.022
-336.289	527.770	0.058	0.134
-335.275	-68.379	-0.198	-0.076
-334.260	-179.028	0.133	0.003
-333.245	-24.489	0.196	0.115
-332.231	-200.000	-0.021	-0.121
-331.216	-37.348	-0.318	0.167
-330.202	-84.922	0.129	-0.040
-329.187	-200.000	-0.044	-0.207
-328.172	-0.792	-0.230	-0.160
-327.158	189.200	-0.066	-0.098
-326.143	-200.000	-0.014	-0.150
-325.129	-200.000	0.034	0.147
-324.114	-200.000	0.031	0.274
-323.099	104.209	-0.122	0.141
-322.085	-91.996	0.241	0.067
-321.070	-200.000	-0.023	0.102
-320.056	500.404	-0.017	-0.038
-319.041	-191.560	0.253	-0.002
-318.026	-200.000	0.046	0.249
-317.012	253.233	-0.091	0.152
-315.997	800.000	-0.012	0.034
-314.983	-135.820	-0.259	-0.030
-313.968	-69.572	-0.085	0.032
-312.953	-93.487	0.232	-0.063
-311.939	142.302	-0.189	0.246
-310.924	72.064	-0.211	-0.215
-309.910	-22.132	0.076	0.045
-308.895	23.087	-0.111	-0.090
-307.880	12.050	-0.097	-0.073
-306.866	-124.793	-0.154	0.023
-305.851	-143.125	0.293	0.028
-304.837	-86.699	0.170	-0.051
-303.822	433.829	0.039	-0.083
-302.807	-200.000	0.030	0.333
-301.793	22.160	0.303	-0.242
-300.778	-31.545	0.061	0.033
-299.764	800.000	-0.114	0.378
-298.749	-200.000	-0.007	-0.096
-297.735	-45.471	0.230	0.112
-296.720	126.767	-0.221	-0.274
-295.705	-74.429	0.179	-0.064
-294.691	-200.000	0.027	-0.132
-293.676	-44.419	-0.065	-0.032
-292.662	211.898	-0.073	-0.113
-291.647	-200.000	0.005	-0.036
-290.632	-200.000	0.085	0.407
-289.618	-200.000	-0.033	0.341
-288.603	489.261	0.164	-0.368
-287.589	418.047	-0.120	0.252
-286.574	-200.000	-0.027	0.426
-285.559	49.602	0.281	-0.260
-284.545	-72.626	0.232	-0.084
-283.530	124.242	-0.176	-0.217
-282.516	800.000	0.147	0.416
-281.501	208.126	-0.182	0.279
-280.486	-200.000	0.010	0.127
-279.472	800.000	0.030	0.105
-278.457	-200.000	-0.046	-0.261
-277.443	-53.190	0.374	-0.168
-276.428	4.714	-0.243	-0.175
-275.413	-21.271	0.072	-0.043
-274.399	153.666	-0.204	-0.274
-273.384	640.980	0.133	0.331
-272.370	577.604	-0.061	0.146
-271.355	-200.000	-0.017	0.240
-270.340	-119.496	0.223	0.038
-269.326	126.364	0.074	-0.091
-268.311	-76.293	-0.110	-0.038
-267.297	13.979	0.121	0.092
-266.282	181.548	0.180	-0.260
-265.267	334.993	-0.040	-0.076
-264.253	-100.356	0.323	0.078
-263.238	-200.000	0.003	-0.334
-262.224	-31.184	-0.147	0.081
-261.209	-29.329	0.040	-0.022
-260.195	-100.216	-0.223	-0.054
-259.180	62.495	-0.186	0.182
-258.165	-60.912	0.087	0.036
-257.151	-200.000	-0.021	-0.176
-256.136	-193.797	-0.435	0.004
-255.122	210.957	0.140	0.216
-254.107	615.658	-0.078	0.193
-253.092	-87.216	0.112	-0.033
-252.078	89.416	-0.053	0.057
-251.063	-200.000	0.002	-0.132
-250.049	-108.996	0.130	0.027
-249.034	206.471	-0.044	0.067
-248.019	7.925	-0.277	0.203
-247.005	-40.172	0.263	-0.134
-245.990	-200.000	0.001	-0.105
-244.976	298.122	0.172	0.310
-243.961	653.059	0.062	0.155
-242.946	-74.611	-0.267	0.094
-241.932	216.771	-0.205	-0.319
-240.917	464.637	0.051	-0.112
-239.903	-90.792	0.048	-0.013
-238.888	-200.000	0.041	0.300
-237.873	52.610	-0.091	-0.085
-236.859	133.902	0.227	0.287
-235.844	740.301	0.070	0.185
-234.830	633.379	-0.141	0.349
-233.815	423.496	-0.130	0.273
-232.800	-44.283	-0.124	-0.061
-231.786	-200.000	0.026	0.122
-230.771	138.129	0.232	0.298
-229.757	-4.049	-0.173	-0.118
-228.742	-40.451	-0.171	0.087
-227.727	-128.678	-0.176	-0.024
-226.713	-34.597	0.176	-0.094
-225.698	-92.970	-0.395	-0.108
-224.684	-200.000	-0.037	-0.219
-223.669	-85.009	-0.178	0.055
-222.655	32.411	0.227	-0.192
-221.640	-200.000	0.026	0.312
-220.625	36.335	-0.318	-0.275
-219.611	60.104	0.152	-0.147
-218.596	-77.963	0.248	-0.084
-217.582	-165.222	0.363	-0.016
-216.567	800.000	0.032	-0.123
-215.552	579.746	-0.102	0.245
-214.538	644.521	0.027	0.067
-213.523	-200.000	-0.017	0.187
-212.509	-149.320	-0.631	0.049
-211.494	-128.727	-0.321	0.044
-210.479	225.780	0.040	-0.064
-209.465	229.591	-0.032	0.051
-208.450	-200.000	-0.031	-0.200
-207.436	-103.158	0.175	-0.041
-206.421	-200.000	-0.014	0.090
-205.406	-111.602	0.263	-0.052
-204.392	320.105	0.061	-0.114
-203.377	-200.000	0.011	0.067
-202.363	15.369	0.135	-0.103
-201.348	-159.171	-0.322	-0.018
-200.333	800.000	0.065	-0.189
-199.319	63.152	-0.280	-0.275
-198.304	-186.444	0.172	-0.002
-197.290	476.114	0.197	-0.434
-196.275	-200.000	0.007	-0.086
-195.260	-49.869	0.272	0.126
-194.246	-184.924	-0.348	-0.005
-193.231	102.235	-0.056	0.064
-192.217	-171.675	0.116	-0.004
-191.202	-12.754	-0.208	0.132
-190.187	-32.376	-0.289	-0.158
-189.173	188.433	0.051	0.075
-188.158	39.319	-0.146	0.128
-187.144	-120.418	0.254	-0.042
-186.129	-200.000	0.036	0.192
-185.114	-25.609	-0.356	-0.205
-184.100	461.256	0.112	0.243
-183.085	-48.016	0.282	0.133
-182.071	134.285	-0.235	-0.298
-181.056	-119.778	-0.325	0.055
-180.042	-51.168	0.120	-0.055
-179.027	800.000	0.054	-0.180
-178.012	-116.140	-0.327	-0.059
-176.998	800.000	0.087	0.237
-175.983	728.266	0.080	-0.208
-174.969	800.000	0.036	0.152
-173.954	225.338	0.105	0.166
-172.939	-125.767	0.110	-0.016
-171.925	-71.146	-0.429	0.157
-170.910	800.000	0.054	0.174
-169.896	-200.000	0.001	-0.120
-168.881	800.000	0.081	-0.331
-167.866	-174.001	0.280	-0.008
-166.852	-200.000	0.071	0.317
-165.837	-79.074	-0.311	0.103
-164.823	136.987	-0.100	-0.127
-163.808	-124.038	0.350	-0.054
-162.793	-200.000	-0.007	0.162
-161.779	-200.000	-0.010	0.074
-160.764	302.998	0.124	-0.224
-159.750	286.809	-0.127	-0.223
-158.735	-95.490	-0.217	-0.057
-157.720	-114.314	-0.155	0.029
-156.706	800.000	0.011	0.044
-155.691	-11.703	-0.065	0.042
-154.677	308.843	-0.039	0.072
-153.662	-88.808	0.321	0.093
-152.647	800.000	0.088	-0.327
-151.633	-114.103	-0.358	-0.068
-150.618	-200.000	-0.025	-0.181
-149.604	800.000	0.043	-0.145
-148.589	-82.172	0.132	0.042
-147.574	-76.549	0.355	0.122
-146.560	44.110	0.097	0.087
-145.545	-29.955	-0.155	-0.086
-144.531	-200.000	0.029	-0.243
-143.516	-43.717	0.047	-0.023
-142.502	23.363	-0.120	0.096
-141.487	3.811	-0.330	0.235
-140.472	254.055	-0.069	0.114
-139.458	-144.643	0.391	-0.035
-138.443	260.883	0.210	-0.354
-137.429	0.675	0.156	-0.109
-136.414	-1.929	0.115	-0.079
-135.399	-143.024	-0.125	-0.012
-134.385	8.744	-0.205	0.151
-133.370	-43.731	-0.133	0.066
-132.356	79.171	-0.108	0.113
-131.341	-200.000	0.022	-0.111
-130.326	362.549	0.096	0.187
-129.312	-13.411	-0.278	0.176
-128.297	-56.743	0.116	-0.050
-127.283	81.541	-0.187	0.197
-126.268	186.806	-0.172	0.250
-125.253	800.000	0.062	0.248
-124.239	86.309	-0.080	0.085
-123.224	-200.000	0.009	-0.051
-122.210	-87.492	0.155	-0.046
