DTS Sentinel unit serial number:	SN413079Multiplexer serial number:	ORYXHardware model number:	OX4-SRSoftware version number:	ORYX F/W v4.00 Oryx Data Collector v3.7.2.0data status	okinstallation	princeton_trtdifferential loss correction	single-endedforward channel	channel 2reverse channel	N/Adate	2019/09/18time	10:47:35forward acquisition time	60.00reverse acquisition time	0.00gamma	496.2192k internal	0.2330k external	0.2330temperature offset calibration	0.9985default loss term (dB/km)	0.3790temperature slope calibration	1.0000multiplexer offset coefficient	1.0000multiplexer slope coefficient	1.0000fibre end	0.00T internal ref (°C)	28.94T ext. ref 1 (°C)	0.37T ext. ref 2 (°C)	25.42length (m)	temperature (°C)	Stokes	anti-Stokes-747.200	26.494	0.124	-0.104
-746.185	-132.172	-0.394	0.051
-745.171	-53.451	-0.249	0.115
-744.156	255.156	-0.137	0.236
-743.142	24.988	-0.182	-0.152
-742.127	-115.502	-0.282	0.053
-741.112	-173.976	0.136	0.004
-740.098	47.974	-0.124	0.117
-739.083	180.795	0.073	-0.108
-738.069	800.000	-0.067	0.199
-737.054	800.000	0.145	-0.498
-736.039	395.800	0.137	-0.287
-735.025	-195.034	0.100	0.001
-734.010	394.173	0.108	-0.227
-732.996	78.245	0.064	0.068
-731.981	66.659	-0.121	0.124
-730.966	32.108	-0.051	-0.045
-729.952	-200.000	-0.044	0.199
-728.937	49.877	-0.293	0.278
-727.923	-92.103	-0.130	-0.037
-726.908	-200.000	-0.029	-0.248
-725.894	138.908	-0.115	0.152
-724.879	800.000	-0.057	-0.171
-723.864	800.000	-0.021	0.076
-722.850	-200.000	-0.028	0.232
-721.835	800.000	0.057	0.193
-720.821	12.633	0.243	-0.188
-719.806	800.000	0.037	-0.138
-718.791	-49.296	0.442	0.212
-717.777	-147.316	-0.324	0.028
-716.762	-89.401	0.422	-0.125
-715.748	800.000	-0.013	0.056
-714.733	-148.706	-0.325	-0.027
-713.718	346.325	0.191	-0.379
-712.704	-65.011	-0.160	0.065
-711.689	800.000	0.011	0.032
-710.675	295.586	-0.044	-0.081
-709.660	199.321	0.099	-0.153
-708.645	-2.296	0.083	0.059
-707.631	-200.000	0.043	-0.262
-706.616	-40.295	-0.075	-0.039
-705.602	91.375	0.061	-0.068
-704.587	560.875	0.039	0.094
-703.572	800.000	0.039	-0.159
-702.558	800.000	0.010	-0.037
-701.543	-56.479	-0.299	0.133
-700.529	-49.017	-0.134	-0.064
-699.514	-200.000	-0.011	-0.127
-698.499	88.728	-0.043	-0.048
-697.485	141.774	0.152	-0.203
-696.470	800.000	-0.033	-0.096
-695.456	-200.000	0.001	0.030
-694.441	129.045	0.306	-0.392
-693.426	746.147	-0.076	-0.205
-692.412	260.712	-0.060	-0.104
-691.397	-200.000	0.003	0.017
-690.383	42.066	-0.174	0.159
-689.368	66.800	-0.207	0.211
-688.354	38.721	-0.183	0.164
-687.339	-189.409	0.283	-0.003
-686.324	-109.722	-0.178	-0.038
-685.310	65.074	0.130	0.132
-684.295	1.150	-0.119	-0.086
-683.281	67.260	-0.202	-0.207
-682.266	-165.493	-0.173	0.008
-681.251	-200.000	-0.024	0.370
-680.237	-200.000	0.110	-0.490
-679.222	5.414	0.220	0.163
-678.208	-4.444	0.236	-0.164
-677.193	-39.446	0.200	-0.105
-676.178	57.065	-0.238	-0.233
-675.164	111.975	0.044	-0.053
-674.149	800.000	-0.024	0.081
-673.135	160.167	0.176	-0.246
-672.120	52.123	-0.084	0.080
-671.105	-121.562	0.132	-0.022
-670.091	8.943	0.279	0.211
-669.076	-32.780	0.054	0.030
-668.062	-45.809	0.142	0.071
-667.047	494.007	0.231	-0.533
-666.032	212.910	0.082	0.130
-665.018	-97.037	-0.120	-0.032
-664.003	-200.000	0.068	-0.457
-662.989	-200.000	-0.007	0.278
-661.974	-200.000	0.011	0.116
-660.959	-200.000	-0.029	-0.257
-659.945	-19.118	-0.026	-0.016
-658.930	-19.540	0.113	0.070
-657.916	-30.187	-0.063	-0.036
-656.901	114.074	-0.202	-0.247
-655.886	80.024	-0.104	-0.113
-654.872	125.636	-0.276	-0.350
-653.857	-200.000	-0.024	-0.236
-652.843	-104.918	-0.175	0.040
-651.828	800.000	-0.067	0.282
-650.814	235.205	-0.067	0.111
-649.799	7.926	0.152	-0.114
-648.784	158.928	-0.247	0.344
-647.770	-91.175	-0.322	0.093
-646.755	-8.574	-0.385	0.260
-645.741	-57.293	0.195	-0.086
-644.726	373.963	-0.113	0.230
-643.711	-128.922	0.168	0.024
-642.697	-88.382	0.042	-0.013
-641.682	-18.900	0.226	-0.141
-640.668	120.957	-0.016	-0.020
-639.653	8.965	-0.082	-0.062
-638.638	-200.000	-0.023	-0.188
-637.624	-53.463	-0.150	0.069
-636.609	23.769	-0.224	0.185
-635.595	-200.000	-0.124	-0.553
-634.580	-24.432	-0.200	-0.120
-633.565	-200.000	-0.003	0.194
-632.551	-200.000	0.028	0.147
-631.536	-31.247	0.127	-0.072
-630.522	-112.548	-0.104	-0.021
-629.507	-196.827	0.071	0.000
-628.492	800.000	-0.084	0.304
-627.478	-69.552	-0.196	0.075
-626.463	-55.132	-0.175	-0.079
-625.449	124.002	-0.214	-0.269
-624.434	-42.463	0.219	-0.112
-623.419	277.725	0.147	0.262
-622.405	800.000	0.034	-0.148
-621.390	2.269	-0.191	0.139
-620.376	-141.211	0.318	-0.032
-619.361	-83.506	-0.114	0.036
-618.346	18.443	-0.106	-0.085
-617.332	416.778	-0.156	0.333
-616.317	90.425	0.061	-0.068
-615.303	14.415	0.221	-0.172
-614.288	78.018	-0.207	-0.221
-613.273	22.220	0.159	-0.130
-612.259	-134.502	-0.177	0.022
-611.244	800.000	-0.083	-0.359
-610.230	48.662	-0.155	0.145
-609.215	230.464	-0.063	-0.103
-608.201	-176.506	0.203	-0.005
-607.186	40.463	-0.092	-0.083
-606.171	-200.000	0.010	0.148
-605.157	134.454	0.101	-0.131
-604.142	-64.028	-0.075	0.031
-603.128	37.709	0.062	-0.055
-602.113	534.926	-0.171	0.406
-601.098	-44.631	0.226	-0.113
-600.084	-200.000	-0.007	-0.218
-599.069	-200.000	0.006	-0.088
-598.055	598.183	0.019	-0.046
-597.040	56.161	-0.173	-0.168
-596.025	-200.000	0.026	-0.220
-595.011	-62.395	-0.263	0.109
-593.996	-86.491	-0.106	-0.033
-592.982	129.975	-0.158	0.202
-591.967	152.008	-0.182	-0.249
-590.952	322.879	-0.092	-0.175
-589.938	-200.000	0.044	-0.396
-588.923	636.454	-0.032	-0.082
-587.909	6.684	-0.127	-0.095
-586.894	119.583	-0.117	0.145
-585.879	-74.453	0.154	-0.056
-584.865	-104.202	-0.091	-0.021
-583.850	800.000	-0.010	0.029
-582.836	225.983	-0.257	-0.417
-581.821	-123.920	-0.269	-0.042
-580.806	-121.883	-0.157	-0.026
-579.792	-154.378	-0.080	-0.005
-578.777	-74.407	-0.346	0.125
-577.763	800.000	0.093	0.312
-576.748	219.470	-0.100	0.161
-575.733	158.263	0.184	0.255
-574.719	-39.196	-0.066	0.035
-573.704	800.000	-0.076	-0.212
-572.690	800.000	-0.028	-0.121
-571.675	-155.542	0.455	0.029
-570.661	344.492	0.104	0.203
-569.646	-56.054	-0.051	0.023
-568.631	-132.599	0.353	0.045
-567.617	-200.000	-0.001	-0.115
-566.602	-38.123	-0.100	-0.053
-565.588	8.476	0.240	0.180
-564.573	86.809	-0.081	0.090
-563.558	800.000	0.087	-0.258
-562.544	-28.144	0.227	-0.131
-561.529	-20.854	0.463	0.284
-560.515	-52.631	0.105	-0.049
-559.500	-200.000	0.007	0.066
-558.485	-120.563	0.335	0.057
-557.471	164.294	0.086	-0.121
-556.456	-114.799	0.197	0.038
-555.442	-87.231	-0.138	-0.042
-554.427	83.484	-0.224	-0.244
-553.412	417.304	-0.078	-0.167
-552.398	-200.000	-0.009	-0.075
-551.383	-123.559	-0.372	0.059
-550.369	-30.760	0.113	0.064
-549.354	-200.000	0.029	-0.268
-548.339	374.159	-0.122	-0.248
-547.325	239.474	0.100	-0.166
-546.310	-72.563	-0.222	-0.082
-545.296	-100.149	-0.153	-0.038
-544.281	-200.000	0.018	0.108
-543.266	239.278	0.022	-0.037
-542.252	50.052	-0.219	-0.206
-541.237	-200.000	-0.035	-0.230
-540.223	267.278	-0.108	-0.189
-539.208	49.054	-0.409	0.383
-538.193	-59.319	-0.063	0.027
-537.179	800.000	0.094	-0.260
-536.164	6.078	0.096	-0.071
-535.150	800.000	-0.138	0.417
-534.135	800.000	-0.050	-0.172
-533.121	96.081	0.192	0.219
-532.106	-165.827	-0.094	0.004
-531.091	-123.519	-0.103	-0.016
-530.077	800.000	-0.028	0.090
-529.062	153.389	-0.203	0.278
-528.048	56.431	0.108	-0.105
-527.033	800.000	-0.059	-0.193
-526.018	140.532	0.202	0.266
-525.004	-53.237	-0.100	-0.046
-523.989	-200.000	-0.010	0.238
-522.975	83.594	-0.179	0.195
-521.960	206.069	-0.114	0.177
-520.945	293.769	-0.115	0.210
-519.931	75.148	0.261	-0.275
-518.916	-60.776	0.322	-0.136
-517.902	19.410	0.301	0.242
-516.887	41.483	0.311	0.281
-515.872	800.000	0.028	-0.117
-514.858	-20.686	-0.135	0.082
-513.843	-148.808	-0.272	0.022
-512.829	372.806	0.147	0.298
-511.814	314.535	0.055	0.103
-510.799	140.615	-0.188	0.247
-509.785	24.353	0.156	-0.129
-508.770	188.672	-0.056	0.083
-507.756	-107.310	-0.235	-0.051
-506.741	26.488	-0.204	0.170
-505.726	-52.318	0.047	0.022
-504.712	-89.016	-0.441	-0.130
-503.697	-63.440	0.196	0.080
-502.683	116.793	-0.198	-0.243
-501.668	-110.128	-0.303	-0.063
-500.653	237.851	-0.181	0.300
-499.639	-22.496	-0.047	-0.029
-498.624	607.726	0.096	-0.239
-497.610	132.066	-0.080	0.102
-496.595	493.825	0.047	0.108
-495.581	800.000	0.108	0.367
-494.566	11.258	-0.124	0.095
-493.551	27.748	0.063	0.053
-492.537	132.529	-0.094	0.121
-491.522	-200.000	-0.004	0.157
-490.508	136.755	0.062	0.081
-489.493	-34.537	-0.180	-0.098
-488.478	519.997	-0.104	0.244
-487.464	107.873	-0.237	-0.282
-486.449	-27.066	-0.207	-0.120
-485.435	254.946	-0.042	0.072
-484.420	92.251	-0.184	-0.206
-483.405	97.229	0.241	-0.276
-482.391	117.429	-0.114	-0.140
-481.376	-185.054	0.407	-0.006
-480.362	46.056	0.037	-0.034
-479.347	6.579	-0.077	-0.057
-478.332	-200.000	0.046	0.307
-477.318	-167.390	-0.149	0.006
-476.303	429.936	0.117	0.252
-475.289	130.879	-0.117	0.150
-474.274	96.412	-0.068	-0.078
-473.259	-164.114	0.119	-0.005
-472.245	526.349	0.079	-0.185
-471.230	-127.875	-0.231	0.033
-470.216	800.000	-0.096	0.293
-469.201	350.946	0.093	0.184
-468.186	107.958	0.159	0.189
-467.172	33.468	0.084	0.072
-466.157	55.980	0.219	0.212
-465.143	800.000	0.022	-0.097
-464.128	-199.408	0.437	-0.002
-463.113	-22.552	-0.185	0.111
-462.099	133.171	-0.197	-0.253
-461.084	320.919	0.068	0.129
-460.070	410.961	0.111	-0.235
-459.055	56.246	-0.042	0.041
-458.040	-200.000	-0.013	0.174
-457.026	-105.961	-0.351	-0.079
-456.011	-51.258	-0.089	-0.041
-454.997	-66.110	-0.165	-0.065
-453.982	-163.436	0.303	0.014
-452.968	-46.859	-0.207	0.101
-451.953	-200.000	-0.070	-0.460
-450.938	51.675	-0.265	-0.251
-449.924	20.475	0.093	0.075
-448.909	-200.000	0.007	-0.055
-447.895	163.444	0.209	0.292
-446.880	-38.399	0.246	0.129
-445.865	800.000	0.071	0.269
-444.851	14.727	0.185	0.144
-443.836	-30.885	0.262	0.147
-442.822	-6.477	-0.136	-0.092
-441.807	-200.000	0.006	0.047
-440.792	141.052	0.036	-0.048
-439.778	-109.953	-0.475	0.099
-438.763	163.535	0.147	-0.205
-437.749	-5.923	-0.076	0.051
-436.734	65.390	0.018	0.018
-435.719	68.297	-0.175	0.179
-434.705	-200.000	-0.039	-0.235
-433.690	275.499	0.048	-0.084
-432.676	-123.245	0.164	0.026
-431.661	-49.110	0.129	0.062
-430.646	-135.854	-0.232	0.027
-429.632	70.786	-0.025	-0.026
-428.617	-200.000	-0.025	-0.172
-427.603	-22.042	0.310	0.187
-426.588	-39.262	-0.303	-0.158
-425.573	-25.902	-0.281	0.165
-424.559	-200.000	0.037	-0.171
-423.544	663.899	-0.134	-0.343
-422.530	-200.000	-0.041	-0.255
-421.515	-105.533	0.444	-0.100
-420.500	-90.657	-0.229	-0.066
-419.486	-26.469	0.248	-0.145
-418.471	-46.078	0.238	0.117
-417.457	-49.427	-0.403	-0.191
-416.442	-16.722	0.032	-0.020
-415.428	4.612	0.103	0.075
-414.413	-142.342	-0.245	-0.024
-413.398	17.677	-0.526	-0.416
-412.384	-130.701	0.109	0.015
-411.369	-91.400	0.183	-0.052
-410.355	-129.089	0.200	-0.028
-409.340	21.608	0.241	0.195
-408.325	-200.000	0.002	0.134
-407.311	-197.220	0.179	0.001
-406.296	719.692	0.053	-0.140
-405.282	-200.000	0.010	0.059
-404.267	61.498	0.293	-0.289
-403.252	13.852	0.090	-0.070
-402.238	162.235	-0.186	0.260
-401.223	-118.151	0.125	0.022
-400.209	-41.119	-0.210	-0.108
-399.194	5.048	-0.060	0.044
-398.179	510.976	0.032	-0.074
-397.165	800.000	0.096	-0.275
-396.150	-128.569	0.164	0.023
-395.136	201.995	0.256	-0.392
-394.121	-61.515	0.308	0.129
-393.106	-89.185	0.171	0.050
-392.092	35.957	0.172	-0.151
-391.077	573.854	-0.160	-0.387
-390.063	115.035	-0.224	0.272
-389.048	93.415	-0.051	-0.057
-388.033	-154.480	0.397	-0.026
-387.019	-72.574	-0.415	0.152
-386.004	-101.093	-0.119	0.029
-384.990	109.687	-0.088	-0.105
-383.975	800.000	0.056	-0.223
-382.960	119.718	-0.037	0.046
-381.946	333.756	0.067	-0.128
-380.931	158.800	-0.125	-0.173
-379.917	-47.119	-0.381	-0.185
-378.902	800.000	0.067	0.283
-377.888	-123.667	0.414	-0.065
-376.873	-126.672	0.414	-0.061
-375.858	-57.240	-0.173	-0.076
-374.844	-120.470	-0.084	0.014
-373.829	-62.580	0.314	0.129
-372.815	644.504	0.231	0.585
-371.800	-200.000	-0.033	-0.297
-370.785	70.303	0.218	-0.224
-369.771	9.114	-0.244	-0.183
-368.756	-73.880	0.294	-0.106
-367.742	159.031	-0.011	-0.015
-366.727	-40.639	0.228	-0.117
-365.712	-53.707	0.377	-0.171
-364.698	800.000	0.035	-0.151
-363.683	-42.918	-0.100	0.050
-362.669	37.635	-0.196	-0.172
-361.654	35.397	0.202	-0.176
-360.639	-107.973	-0.155	0.033
-359.625	-200.000	0.007	0.364
-358.610	-53.272	-0.111	-0.051
-357.596	800.000	-0.055	-0.225
-356.581	23.932	0.223	-0.183
-355.566	66.235	-0.181	-0.182
-354.552	-36.636	0.237	0.127
-353.537	-27.011	0.225	0.130
-352.523	498.509	-0.063	-0.143
-351.508	-79.855	0.084	-0.028
-350.493	800.000	-0.079	-0.287
-349.479	-200.000	-0.031	0.145
-348.464	-64.482	0.074	0.030
-347.450	-4.703	0.082	0.056
-346.435	-134.497	-0.431	0.052
-345.420	-39.993	0.325	-0.168
-344.406	110.758	-0.236	-0.281
-343.391	-116.304	-0.031	-0.006
-342.377	-200.000	0.005	-0.212
-341.362	-102.587	0.265	-0.063
-340.348	-77.336	-0.154	0.053
-339.333	369.164	0.127	0.255
-338.318	11.388	-0.068	0.052
-337.304	-184.088	-0.205	-0.003
-336.289	-71.001	-0.300	-0.112
-335.275	-200.000	-0.023	-0.193
-334.260	36.265	-0.130	0.113
-333.245	180.353	-0.120	0.174
-332.231	63.630	0.063	-0.062
-331.216	59.927	-0.277	0.271
-330.202	15.991	-0.278	0.217
-329.187	354.651	-0.143	0.281
-328.172	21.851	0.152	0.123
-327.158	-9.938	0.207	-0.136
-326.143	1.916	0.197	-0.140
-325.129	-21.665	0.101	-0.061
-324.114	-200.000	-0.026	0.145
-323.099	-132.931	0.017	0.002
-322.085	-200.000	-0.003	0.179
-321.070	228.028	0.201	0.324
-320.056	3.687	0.355	0.256
-319.041	-66.781	-0.195	-0.076
-318.026	-200.000	0.032	0.201
-317.012	298.614	0.058	-0.106
-315.997	36.059	-0.055	0.048
-314.983	800.000	-0.116	0.430
-313.968	82.763	0.103	-0.111
-312.953	800.000	0.109	-0.335
-311.939	-198.778	0.315	0.002
-310.924	-115.342	-0.149	0.028
-309.910	390.115	-0.057	0.116
-308.895	-200.000	0.029	-0.329
-307.880	800.000	-0.033	-0.108
-306.866	-200.000	0.056	-0.389
-305.851	-126.714	0.339	-0.050
-304.837	111.608	0.076	0.090
-303.822	595.580	0.050	-0.123
-302.807	535.944	-0.093	0.219
-301.793	-146.177	-0.347	0.030
-300.778	129.321	0.139	-0.176
-299.764	-31.440	-0.099	0.055
-298.749	96.107	0.150	-0.170
-297.735	116.067	0.068	-0.082
-296.720	800.000	-0.033	-0.138
-295.705	73.406	0.189	0.196
-294.691	-145.562	-0.232	-0.021
-293.676	-91.941	0.218	-0.061
-292.662	-32.648	0.301	0.166
-291.647	-106.122	-0.223	-0.050
-290.632	546.247	-0.096	-0.228
-289.618	12.360	-0.180	0.137
-288.603	35.741	0.222	0.193
-287.589	-48.999	-0.369	-0.175
-286.574	-57.544	0.210	0.091
-285.559	227.749	0.064	0.102
-284.545	207.061	0.115	-0.178
-283.530	234.982	-0.094	-0.153
-282.516	-176.367	-0.116	0.003
-281.501	13.611	-0.142	0.109
-280.486	-107.768	-0.180	0.039
-279.472	-53.298	-0.149	-0.067
-278.457	-129.401	-0.153	-0.021
-277.443	153.801	-0.101	0.137
-276.428	-44.004	0.333	-0.165
-275.413	-200.000	0.031	-0.275
-274.399	-125.741	0.384	0.057
-273.384	-118.317	0.325	0.057
-272.370	-200.000	0.030	0.206
-271.355	-33.135	-0.151	0.082
-270.340	80.310	-0.291	0.309
-269.326	-200.000	-0.039	-0.333
-268.311	496.040	0.066	-0.149
-267.297	800.000	0.021	0.084
-266.282	-66.332	-0.044	0.017
-265.267	-59.780	0.286	0.121
-264.253	-58.978	-0.102	-0.044
-263.238	191.820	0.116	-0.172
-262.224	406.254	-0.044	0.091
-261.209	-32.549	-0.086	-0.047
-260.195	226.397	0.102	-0.164
-259.180	425.055	0.036	-0.078
-258.165	-81.081	0.128	-0.042
-257.151	-159.928	0.292	-0.016
-256.136	13.362	-0.090	0.069
-255.122	800.000	0.146	-0.505
-254.107	-200.000	-0.027	0.145
-253.092	-200.000	0.002	-0.124
-252.078	-200.000	-0.010	0.180
-251.063	800.000	-0.082	-0.287
-250.049	800.000	0.026	0.100
-249.034	140.065	0.141	-0.184
-248.019	-143.665	-0.114	-0.011
-247.005	-24.478	-0.125	-0.074
-245.990	-200.000	0.052	0.304
-244.976	-121.435	-0.213	0.035
-243.961	-23.985	-0.194	0.114
-242.946	-200.000	-0.102	0.507
-241.932	-125.205	0.179	0.027
-240.917	-200.000	-0.014	0.294
-239.903	-200.000	0.006	0.118
-238.888	-200.000	-0.018	-0.093
-237.873	234.626	0.153	-0.250
-236.859	716.911	-0.127	-0.332
-235.844	31.038	-0.287	0.243
-234.830	-200.000	-0.001	-0.347
-233.815	-118.985	-0.281	-0.049
-232.800	800.000	0.096	0.314
-231.786	-200.000	0.051	0.243
-230.771	-200.000	0.008	0.055
-229.757	-70.249	-0.178	-0.067
-228.742	-146.775	-0.134	0.011
-227.727	-0.856	-0.229	-0.160
-226.713	-53.701	0.255	-0.115
-225.698	-8.092	-0.043	-0.029
-224.684	-109.402	0.038	-0.008
-223.669	538.686	0.039	0.092
-222.655	800.000	0.021	0.079
-221.640	-55.494	-0.168	-0.074
-220.625	-156.496	-0.376	0.023
-219.611	-200.000	0.049	0.320
-218.596	-188.645	0.273	-0.003
-217.582	97.252	0.130	0.148
-216.567	690.262	0.069	-0.177
-215.552	-92.701	-0.170	0.047
-214.538	130.924	-0.114	0.144
-213.523	-200.000	0.022	0.127
-212.509	-200.000	-0.014	0.168
-211.494	-200.000	-0.043	0.287
-210.479	346.606	0.130	0.252
-209.465	79.681	0.134	0.142
-208.450	-200.000	-0.011	0.155
-207.436	573.308	0.038	-0.091
-206.421	-160.495	-0.036	0.002
-205.406	150.818	0.143	0.191
-204.392	-11.502	0.153	-0.099
-203.377	148.639	0.065	0.086
-202.363	37.631	-0.094	0.083
-201.348	2.730	0.228	-0.163
-200.333	-121.477	-0.097	-0.016
-199.319	29.774	-0.179	0.150
-198.304	-200.000	-0.025	-0.166
-197.290	-3.560	0.074	0.051
-196.275	-200.000	-0.026	-0.358
-195.260	587.304	-0.038	-0.092
-194.246	-200.000	-0.029	-0.155
-193.231	-200.000	-0.020	0.124
-192.217	21.378	-0.129	0.103
-191.202	800.000	0.050	-0.154
-190.187	-149.168	0.300	-0.024
-189.173	-200.000	-0.036	0.167
-188.158	255.742	-0.072	-0.122
-187.144	-200.000	-0.044	0.199
-186.129	-140.182	-0.089	0.009
-185.114	-139.857	0.200	-0.021
-184.100	-124.287	0.061	-0.009
-183.085	49.860	-0.242	0.225
-182.071	177.900	0.095	0.136
-181.056	-93.717	-0.304	-0.083
-180.042	-200.000	-0.010	0.066
-179.027	-200.000	-0.001	-0.030
-178.012	-76.875	-0.124	0.043
-176.998	-34.544	0.410	0.221
-175.983	-157.239	0.133	-0.008
-174.969	-200.000	-0.055	0.384
-173.954	-108.516	0.142	-0.030
-172.939	134.059	-0.199	-0.254
-171.925	-116.597	0.305	-0.055
-170.910	20.801	-0.047	-0.037
-169.896	-139.689	0.434	-0.045
-168.881	157.604	-0.290	0.396
-167.866	-134.842	0.349	0.042
-166.852	-39.669	0.254	0.131
-165.837	30.415	-0.091	0.077
-164.823	-200.000	0.074	0.322
-163.808	-200.000	0.054	-0.275
-162.793	-200.000	-0.028	0.129
-161.779	-200.000	-0.010	-0.129
-160.764	79.500	0.017	-0.018
-159.750	-110.726	0.277	-0.056
-158.735	-148.751	0.253	-0.020
-157.720	800.000	0.057	0.160
-156.706	302.300	-0.060	-0.108
-155.691	-200.000	-0.081	0.494
-154.677	238.645	0.208	-0.340
-153.662	180.004	-0.133	-0.192
-152.647	120.669	0.287	0.351
-151.633	35.223	0.262	0.226
-150.618	-1.030	0.285	-0.198
-149.604	-200.000	-0.006	-0.155
-148.589	33.254	0.056	0.048
-147.574	361.813	0.063	0.124
-146.560	-15.722	0.416	0.261
-145.545	350.717	0.065	-0.126
-144.531	-116.618	-0.236	-0.043
-143.516	556.380	-0.117	-0.277
-142.502	154.076	0.035	0.048
-141.487	-200.000	0.004	0.024
-140.472	4.802	0.031	0.022
-139.458	-119.240	-0.263	0.045
-138.443	-18.354	0.115	0.071
-137.429	-183.935	-0.326	-0.005
-136.414	196.970	0.112	-0.168
-135.399	-200.000	0.021	-0.242
-134.385	800.000	-0.088	-0.256
-133.370	-25.027	-0.196	0.114
-132.356	28.968	0.116	-0.097
-131.341	-115.557	0.044	0.008
-130.326	-200.000	-0.067	-0.401
-129.312	-200.000	0.034	0.187
-128.297	-32.289	0.177	0.097
-127.283	-83.793	-0.097	-0.030
-126.268	-53.527	-0.318	-0.143
-125.253	800.000	-0.037	-0.118
-124.239	-105.194	0.295	-0.066
-123.224	800.000	0.100	0.312
-122.210	282.077	-0.095	0.166
-121.195	-87.164	0.151	-0.045
