DTS Sentinel unit serial number:	SN413079Multiplexer serial number:	ORYXHardware model number:	OX4-SRSoftware version number:	ORYX F/W v4.00 Oryx Data Collector v3.7.2.0data status	okinstallation	princeton_trtdifferential loss correction	single-endedforward channel	channel 2reverse channel	N/Adate	2019/09/15time	23:55:35forward acquisition time	60.00reverse acquisition time	0.00gamma	496.2192k internal	0.2336k external	0.2336temperature offset calibration	0.9959default loss term (dB/km)	0.3790temperature slope calibration	1.0000multiplexer offset coefficient	1.0000multiplexer slope coefficient	1.0000fibre end	0.00T internal ref (°C)	27.91T ext. ref 1 (°C)	9.33T ext. ref 2 (°C)	21.81length (m)	temperature (°C)	Stokes	anti-Stokes-747.200	491.395	0.225	0.517
-746.185	53.008	-0.186	0.179
-745.171	-54.211	0.253	0.116
-744.156	69.384	-0.272	-0.281
-743.142	179.033	-0.197	-0.290
-742.127	521.377	-0.060	0.142
-741.112	81.465	-0.079	0.086
-740.098	9.235	-0.072	-0.055
-739.083	15.407	0.225	0.177
-738.069	-13.094	-0.145	0.095
-737.054	34.386	0.140	-0.123
-736.039	7.339	0.196	-0.147
-735.025	-200.000	0.029	-0.332
-734.010	-123.673	-0.234	0.037
-732.996	-200.000	0.000	0.032
-731.981	4.063	-0.238	0.175
-730.966	-99.644	-0.275	0.069
-729.952	-200.000	0.009	-0.265
-728.937	-200.000	0.090	0.456
-727.923	-160.702	-0.121	0.006
-726.908	800.000	0.041	-0.135
-725.894	-43.539	-0.140	-0.071
-724.879	24.242	0.091	0.075
-723.864	2.994	0.084	0.061
-722.850	84.654	0.152	0.167
-721.835	-44.502	-0.184	0.092
-720.821	-200.000	0.003	-0.221
-719.806	72.474	0.146	0.153
-718.791	800.000	-0.043	0.124
-717.777	146.642	-0.158	-0.213
-716.762	-71.823	-0.245	-0.091
-715.748	555.802	0.089	0.215
-714.733	-108.742	0.191	0.041
-713.718	295.922	-0.106	0.194
-712.704	-200.000	-0.022	0.123
-711.689	-106.587	0.416	0.093
-710.675	432.736	0.197	-0.429
-709.660	-57.702	0.187	-0.082
-708.645	345.212	0.210	-0.414
-707.631	800.000	-0.050	0.148
-706.616	-47.206	-0.056	-0.027
-705.602	11.012	0.237	-0.182
-704.587	-115.869	-0.372	-0.070
-703.572	-200.000	0.028	-0.143
-702.558	-2.134	0.134	0.095
-701.543	27.874	0.199	-0.168
-700.529	1.075	0.121	-0.087
-699.514	20.818	-0.235	-0.191
-698.499	-86.209	0.074	-0.023
-697.485	-200.000	0.003	-0.047
-696.470	639.486	-0.053	-0.136
-695.456	-200.000	0.010	0.157
-694.441	-144.094	-0.258	-0.024
-693.426	-107.638	0.198	-0.043
-692.412	-150.392	-0.063	-0.005
-691.397	-116.954	-0.102	-0.019
-690.383	118.656	0.098	0.121
-689.368	800.000	0.089	-0.270
-688.354	160.318	-0.094	-0.131
-687.339	78.661	0.100	0.108
-686.324	35.806	-0.090	-0.079
-685.310	286.278	0.188	-0.340
-684.295	374.384	0.106	0.216
-683.281	-64.365	-0.335	-0.137
-682.266	-105.220	0.135	-0.031
-681.251	-60.204	-0.231	-0.099
-680.237	-18.839	0.451	-0.281
-679.222	-133.065	0.105	0.013
-678.208	-96.006	-0.264	0.070
-677.193	800.000	-0.035	0.103
-676.178	-48.978	0.096	-0.046
-675.164	-144.344	-0.170	-0.016
-674.149	-200.000	-0.044	0.196
-673.135	-200.000	0.004	-0.384
-672.120	-106.432	0.018	-0.004
-671.105	800.000	0.075	-0.223
-670.091	225.813	0.138	-0.224
-669.076	-31.817	0.108	0.061
-668.062	-200.000	0.000	-0.058
-667.047	5.139	0.097	0.072
-666.032	-155.983	0.193	-0.012
-665.018	-147.759	-0.169	0.014
-664.003	-1.667	0.289	-0.204
-662.989	-108.091	-0.247	0.054
-661.974	-156.868	0.284	-0.017
-660.959	-12.638	-0.180	-0.117
-659.945	249.898	-0.077	-0.131
-658.930	105.548	-0.141	-0.166
-657.916	16.703	0.069	-0.055
-656.901	66.196	-0.116	-0.118
-655.886	407.565	0.128	-0.271
-654.872	-58.196	0.071	-0.031
-653.857	115.913	0.137	0.167
-652.843	-146.398	-0.361	-0.032
-651.828	-46.527	0.400	-0.196
-650.814	-165.829	0.063	0.003
-649.799	-106.194	-0.082	-0.018
-648.784	-200.000	0.060	0.378
-647.770	-63.530	-0.081	0.033
-646.755	507.586	-0.098	-0.229
-645.741	-135.352	0.089	-0.011
-644.726	800.000	0.052	-0.175
-643.711	-200.000	0.041	-0.398
-642.697	-21.382	0.232	-0.142
-641.682	410.205	0.090	-0.191
-640.668	128.415	-0.110	-0.141
-639.653	232.531	-0.046	-0.076
-638.638	-200.000	-0.015	0.147
-637.624	-119.911	-0.286	-0.049
-636.609	22.044	-0.050	0.041
-635.595	-200.000	0.008	-0.083
-634.580	800.000	0.026	0.107
-633.565	-9.371	0.206	0.137
-632.551	-98.435	0.261	-0.067
-631.536	647.276	-0.089	0.228
-630.522	-78.856	0.074	-0.025
-629.507	-28.064	0.232	0.134
-628.492	-200.000	-0.051	0.354
-627.478	800.000	-0.123	-0.449
-626.463	95.704	0.069	0.078
-625.449	98.393	0.150	-0.172
-624.434	-200.000	-0.026	-0.396
-623.419	-111.227	0.192	-0.039
-622.405	-4.553	-0.198	-0.137
-621.390	-88.023	-0.246	0.074
-620.376	-200.000	-0.096	-0.419
-619.361	81.600	-0.111	0.120
-618.346	800.000	-0.076	-0.244
-617.332	5.085	-0.379	-0.279
-616.317	77.428	0.135	0.143
-615.303	800.000	-0.069	0.228
-614.288	-48.459	0.353	0.170
-613.273	-130.249	-0.042	0.006
-612.259	156.262	0.127	-0.175
-611.244	15.060	0.331	0.259
-610.230	-36.490	-0.209	-0.112
-609.215	138.112	-0.136	-0.178
-608.201	-200.000	0.016	0.108
-607.186	-200.000	-0.027	0.123
-606.171	-99.096	0.427	-0.108
-605.157	-135.197	-0.071	0.009
-604.142	354.307	-0.093	0.185
-603.128	-38.776	0.134	0.071
-602.113	33.011	-0.195	0.168
-601.098	290.923	0.130	-0.235
-600.084	556.079	0.134	-0.323
-599.069	483.370	-0.119	0.271
-598.055	151.788	-0.255	0.347
-597.040	-88.075	-0.080	-0.024
-596.025	105.825	0.114	-0.135
-595.011	800.000	-0.078	-0.227
-593.996	103.545	0.102	-0.120
-592.982	800.000	0.041	-0.137
-591.967	-18.526	-0.110	0.069
-590.952	-6.205	-0.196	-0.133
-589.938	103.743	-0.163	-0.191
-588.923	-59.988	0.071	0.030
-587.909	-34.131	0.270	0.148
-586.894	106.115	0.316	-0.373
-585.879	-200.000	0.027	-0.224
-584.865	-19.732	0.149	-0.092
-583.850	17.739	-0.157	-0.124
-582.836	-90.990	0.136	-0.039
-581.821	729.556	-0.060	-0.159
-580.806	800.000	-0.056	0.233
-579.792	39.032	0.153	0.137
-578.777	800.000	0.047	-0.146
-577.763	-70.261	0.148	0.056
-576.748	-103.119	-0.257	0.061
-575.733	-76.170	0.254	-0.089
-574.719	-26.766	-0.198	-0.115
-573.704	-166.734	0.120	0.005
-572.690	54.011	-0.178	-0.171
-571.675	-200.000	-0.035	-0.207
-570.661	800.000	0.061	0.211
-569.646	220.415	-0.090	0.144
-568.631	800.000	-0.113	-0.433
-567.617	-200.000	0.012	-0.284
-566.602	800.000	0.071	-0.201
-565.588	-200.000	-0.004	0.357
-564.573	-31.852	0.225	-0.126
-563.558	212.115	-0.083	-0.131
-562.544	59.995	-0.113	0.111
-561.529	-141.995	-0.063	0.006
-560.515	86.929	-0.363	0.400
-559.500	-82.690	-0.224	-0.072
-558.485	-34.196	0.141	0.077
-557.471	-93.916	-0.147	-0.040
-556.456	-115.774	-0.150	0.028
-555.442	-200.000	-0.017	0.228
-554.427	0.861	-0.167	-0.119
-553.412	-200.000	0.039	0.291
-552.398	-55.584	-0.325	0.145
-551.383	800.000	0.061	0.213
-550.369	-100.216	-0.402	-0.100
-549.354	59.266	-0.099	-0.097
-548.339	-98.755	0.397	0.101
-547.325	41.584	-0.346	0.312
-546.310	80.463	0.205	0.220
-545.296	800.000	-0.038	0.129
-544.281	-200.000	-0.083	0.415
-543.266	-140.457	-0.090	-0.009
-542.252	-17.413	-0.305	-0.191
-541.237	-200.000	-0.011	0.124
-540.223	-200.000	0.006	0.225
-539.208	-14.782	0.120	0.077
-538.193	-200.000	-0.014	0.187
-537.179	-65.138	-0.107	-0.043
-536.164	-84.718	0.124	-0.039
-535.150	103.622	-0.107	-0.126
-534.135	-106.507	-0.248	0.055
-533.121	800.000	0.023	-0.089
-532.106	-39.266	0.018	0.009
-531.091	333.505	0.149	0.288
-530.077	24.552	0.187	0.154
-529.062	800.000	0.049	-0.135
-528.048	-80.431	0.277	-0.092
-527.033	-57.966	-0.075	0.033
-526.018	295.759	-0.147	-0.268
-525.004	119.978	-0.211	0.261
-523.989	53.889	0.123	0.118
-522.975	-164.435	0.146	-0.007
-521.960	-140.831	-0.163	-0.017
-520.945	-116.163	0.404	-0.075
-519.931	-95.008	-0.211	-0.057
-518.916	126.633	0.103	-0.130
-517.902	661.875	-0.099	0.254
-516.887	-126.646	-0.103	0.015
-515.872	-200.000	-0.014	-0.187
-514.858	-108.391	-0.563	0.121
-513.843	58.086	0.124	0.121
-512.829	224.475	-0.079	0.128
-511.814	18.927	-0.194	-0.155
-510.799	-146.644	0.013	0.001
-509.785	-142.913	0.272	0.026
-508.770	-200.000	-0.081	-0.406
-507.756	662.660	0.116	-0.297
-506.741	-56.217	-0.137	-0.060
-505.726	223.187	-0.091	-0.145
-504.712	555.816	-0.089	0.214
-503.697	159.863	0.233	0.323
-502.683	449.148	-0.054	-0.119
-501.668	-200.000	0.003	-0.212
-500.653	327.825	0.082	0.157
-499.639	-59.192	-0.315	-0.135
-498.624	-117.748	0.255	-0.046
-497.610	-152.490	-0.094	0.007
-496.595	266.683	-0.129	-0.225
-495.581	107.302	0.038	-0.044
-494.566	800.000	0.068	-0.188
-493.551	445.872	0.145	0.316
-492.537	-118.687	-0.144	-0.025
-491.522	35.177	-0.263	0.229
-490.508	-4.793	-0.255	0.175
-489.493	-200.000	0.034	-0.290
-488.478	340.831	0.003	-0.006
-487.464	29.099	-0.541	-0.457
-486.449	-139.741	-0.102	-0.011
-485.435	660.992	0.143	-0.366
-484.420	-200.000	0.004	0.020
-483.405	615.266	-0.031	0.077
-482.391	66.209	0.150	0.151
-481.376	43.909	-0.179	-0.163
-480.362	159.536	-0.100	-0.138
-479.347	-200.000	-0.033	-0.156
-478.332	800.000	-0.024	-0.094
-477.318	3.130	0.272	-0.197
-476.303	-200.000	-0.010	0.168
-475.289	99.733	0.130	-0.150
-474.274	-62.101	-0.311	0.129
-473.259	272.488	-0.114	0.200
-472.245	-200.000	-0.024	-0.151
-471.230	-126.040	0.267	0.040
-470.216	5.414	-0.077	0.056
-469.201	-100.257	0.124	0.031
-468.186	-200.000	0.008	-0.097
-467.172	-127.601	-0.143	0.021
-466.157	-37.951	0.183	0.097
-465.143	-200.000	0.077	0.424
-464.128	262.285	-0.070	-0.121
-463.113	165.339	0.196	0.274
-462.099	96.566	0.211	-0.239
-461.084	41.516	-0.080	0.072
-460.070	-106.780	-0.299	-0.066
-459.055	214.186	0.047	0.074
-458.040	-13.874	0.151	0.097
-457.026	-86.966	-0.251	-0.076
-456.011	637.558	0.107	-0.269
-454.997	-148.836	0.143	0.011
-453.982	-121.401	-0.132	-0.022
-452.968	-7.746	0.208	-0.139
-451.953	162.810	0.154	0.214
-450.938	-103.201	0.256	0.060
-449.924	800.000	-0.055	-0.173
-448.909	-152.222	0.228	-0.016
-447.895	504.040	-0.101	0.232
-446.880	-86.683	0.111	0.034
-445.865	-41.787	0.075	-0.038
-444.851	-108.183	0.278	0.060
-443.836	-49.943	-0.273	0.129
-442.822	147.980	-0.081	0.109
-441.807	800.000	-0.009	0.028
-440.792	-200.000	0.009	0.309
-439.778	180.023	0.104	0.151
-438.763	800.000	-0.033	0.093
-437.749	-183.731	0.231	0.004
-436.734	518.548	0.099	-0.230
-435.719	600.616	-0.090	-0.221
-434.705	800.000	0.052	0.147
-433.690	800.000	0.057	-0.166
-432.676	-143.954	0.034	0.003
-431.661	71.300	0.166	-0.170
-430.646	-155.384	0.098	-0.006
-429.632	-134.414	0.284	-0.035
-428.617	182.196	-0.248	0.362
-427.603	-31.767	0.156	0.087
-426.588	800.000	-0.073	0.203
-425.573	-40.709	0.267	-0.137
-424.559	-22.166	0.185	-0.111
-423.544	-200.000	0.004	-0.115
-422.530	-40.355	0.071	-0.036
-421.515	111.539	-0.279	-0.333
-420.500	-45.089	-0.064	0.031
-419.486	462.617	-0.044	-0.098
-418.471	800.000	-0.051	0.208
-417.457	800.000	0.032	0.113
-416.442	-44.792	0.170	0.084
-415.428	349.102	-0.092	0.180
-414.413	226.444	0.101	-0.162
-413.398	-25.016	-0.156	0.092
-412.384	-57.647	0.179	0.078
-411.369	52.641	-0.192	0.182
-410.355	800.000	-0.060	-0.194
-409.340	-153.049	0.310	-0.022
-408.325	472.837	0.069	-0.155
-407.311	42.093	-0.142	0.127
-406.296	702.483	0.054	0.141
-405.282	-9.232	-0.071	-0.047
-404.267	-98.840	0.342	0.086
-403.252	-147.965	0.098	0.008
-402.238	134.653	-0.085	0.109
-401.223	-200.000	0.037	-0.237
-400.209	8.248	0.137	-0.102
-399.194	-88.013	0.057	-0.017
-398.179	94.958	-0.220	0.249
-397.165	-34.961	-0.122	0.066
-396.150	-58.208	-0.366	-0.158
-395.136	-200.000	0.007	-0.425
-394.121	-63.822	0.232	-0.094
-393.106	229.318	-0.198	0.320
-392.092	-200.000	0.021	0.110
-391.077	100.841	-0.126	0.145
-390.063	-111.144	0.182	0.037
-389.048	61.385	-0.141	0.139
-388.033	338.622	0.131	0.252
-387.019	800.000	0.079	-0.236
-386.004	150.771	0.158	-0.212
-384.990	-200.000	0.019	0.351
-383.975	800.000	0.072	0.226
-382.960	-53.471	0.223	0.101
-381.946	-146.239	0.074	-0.006
-380.931	167.409	0.102	-0.144
-379.917	-200.000	0.002	0.123
-378.902	-101.637	-0.047	-0.011
-377.888	-115.965	-0.219	0.040
-376.873	188.024	-0.157	-0.233
-375.858	500.541	-0.117	0.266
-374.844	465.242	-0.096	-0.212
-373.829	-200.000	0.055	0.331
-372.815	800.000	0.091	-0.318
-371.800	-111.424	-0.112	-0.023
-370.785	106.965	0.085	-0.100
-369.771	57.957	-0.258	-0.250
-368.756	-200.000	-0.049	0.453
-367.742	-20.862	0.153	0.093
-366.727	-200.000	-0.016	-0.159
-365.712	56.511	-0.119	0.115
-364.698	-84.295	0.525	-0.164
-363.683	25.588	-0.247	0.204
-362.669	-23.845	-0.375	-0.222
-361.654	16.575	-0.144	0.112
-360.639	-200.000	-0.020	0.383
-359.625	-183.950	-0.369	0.006
-358.610	-90.897	0.282	0.080
-357.596	-140.530	0.147	-0.015
-356.581	-200.000	0.039	0.209
-355.566	-0.750	0.078	-0.055
-354.552	-30.417	-0.374	-0.210
-353.537	-200.000	0.014	0.129
-352.523	338.372	-0.030	-0.059
-351.508	147.317	-0.107	0.143
-350.493	171.740	0.045	0.064
-349.479	-26.431	0.093	-0.054
-348.464	-167.095	0.580	0.023
-347.450	-17.163	-0.195	0.122
-346.435	-54.539	-0.323	0.145
-345.420	-144.119	-0.127	-0.012
-344.406	-178.283	0.200	0.005
-343.391	-69.311	-0.360	0.137
-342.377	800.000	0.027	-0.110
-341.362	176.582	0.082	-0.118
-340.348	-39.446	-0.384	-0.199
-339.333	800.000	-0.024	0.077
-338.318	-116.338	0.330	-0.060
-337.304	587.039	0.057	-0.138
-336.289	-200.000	-0.001	0.089
-335.275	283.211	-0.046	0.082
-334.260	-200.000	-0.061	-0.325
-333.245	800.000	-0.063	0.177
-332.231	-10.086	-0.401	0.264
-331.216	-200.000	-0.050	0.316
-330.202	389.118	-0.068	0.138
-329.187	14.829	-0.145	-0.112
-328.172	113.133	-0.259	-0.310
-327.158	63.166	-0.252	-0.250
-326.143	-54.523	-0.152	-0.068
-325.129	544.856	0.039	0.091
-324.114	223.049	-0.046	-0.073
-323.099	-200.000	-0.039	0.257
-322.085	34.266	-0.082	0.071
-321.070	800.000	-0.030	-0.110
-320.056	281.533	0.013	0.022
-319.041	137.053	-0.302	-0.390
-318.026	-78.263	-0.177	-0.060
-317.012	800.000	-0.055	0.152
-315.997	-200.000	0.008	-0.251
-314.983	800.000	-0.059	0.165
-313.968	-200.000	0.022	-0.172
-312.953	2.208	0.206	-0.147
-311.939	-200.000	0.026	-0.268
-310.924	-132.038	0.317	0.041
-309.910	-124.511	0.243	-0.037
-308.895	251.299	-0.056	-0.094
-307.880	515.287	-0.115	0.266
-306.866	-200.000	0.032	0.352
-305.851	-69.786	0.239	0.090
-304.837	-31.707	0.354	0.196
-303.822	5.236	-0.109	0.079
-302.807	-108.420	-0.101	0.022
-301.793	787.347	-0.129	0.350
-300.778	-55.788	0.292	-0.129
-299.764	-170.541	-0.124	-0.004
-298.749	800.000	0.104	0.303
-297.735	-46.233	-0.196	0.095
-296.720	1.002	-0.071	-0.050
-295.705	-200.000	-0.033	-0.330
-294.691	19.377	-0.080	0.064
-293.676	-200.000	-0.020	-0.267
-292.662	359.519	0.134	-0.264
-291.647	300.071	0.143	0.260
-290.632	-200.000	0.009	0.107
-289.618	-5.394	0.133	-0.090
-288.603	-181.928	0.084	-0.002
-287.589	135.766	0.168	-0.215
-286.574	-89.433	-0.169	-0.049
-285.559	-200.000	0.008	-0.078
-284.545	181.769	-0.188	-0.273
-283.530	-200.000	-0.016	-0.239
-282.516	-200.000	0.067	0.312
-281.501	-64.283	0.283	0.114
-280.486	4.711	-0.124	0.090
-279.472	10.109	-0.213	0.160
-278.457	2.953	-0.359	-0.257
-277.443	384.771	0.084	0.171
-276.428	40.892	0.202	-0.179
-275.413	800.000	-0.091	0.327
-274.399	800.000	-0.022	-0.089
-273.384	-200.000	0.038	-0.391
-272.370	127.488	-0.125	0.156
-271.355	24.963	0.270	0.221
-270.340	-14.864	0.185	-0.117
-269.326	-33.329	-0.320	0.175
-268.311	290.259	0.170	-0.304
-267.297	-135.152	-0.098	0.012
-266.282	-113.369	-0.162	-0.031
-265.267	492.479	0.029	-0.066
-264.253	12.029	-0.036	0.027
-263.238	-21.527	0.317	-0.191
-262.224	-15.524	-0.066	0.042
-261.209	-73.892	-0.151	0.054
-260.195	-139.204	0.051	-0.005
-259.180	-114.446	0.219	0.041
-258.165	-193.808	0.150	0.001
-257.151	5.900	0.336	-0.245
-256.136	363.928	-0.069	-0.136
-255.122	-131.860	0.168	-0.022
-254.107	-119.314	0.338	0.058
-253.092	421.805	0.105	0.222
-252.078	-200.000	-0.009	-0.085
-251.063	-133.024	0.583	-0.073
-250.049	278.259	-0.193	-0.338
-249.034	295.095	-0.092	-0.165
-248.019	3.027	0.169	-0.121
-247.005	292.114	0.123	-0.221
-245.990	-21.587	-0.218	0.131
-244.976	-54.710	-0.179	-0.080
-243.961	-66.845	0.117	-0.045
-242.946	-62.718	0.093	0.038
-241.932	-60.917	0.132	-0.055
-240.917	-86.711	-0.193	0.058
-239.903	-18.912	-0.114	-0.070
-238.888	800.000	0.003	0.010
-237.873	-200.000	0.006	-0.103
-236.859	147.171	-0.093	0.124
-235.844	800.000	-0.047	0.141
-234.830	-2.852	-0.281	0.193
-233.815	58.167	0.259	-0.250
-232.800	-200.000	-0.009	0.214
-231.786	-149.379	0.357	-0.028
-230.771	34.263	0.202	-0.173
-229.757	145.555	0.179	0.236
-228.742	-144.942	0.239	-0.021
-227.727	377.080	0.039	0.078
-226.713	79.581	-0.304	0.322
-225.698	800.000	-0.079	-0.310
-224.684	105.228	-0.026	0.030
-223.669	519.395	0.104	0.240
-222.655	-145.203	-0.065	0.006
-221.640	-59.669	0.106	-0.045
-220.625	800.000	0.104	-0.306
-219.611	-107.368	-0.212	-0.046
-218.596	-124.700	-0.117	-0.018
-217.582	-200.000	-0.007	-0.140
-216.567	528.246	0.062	0.143
-215.552	92.000	-0.107	0.119
-214.538	9.950	0.241	-0.180
-213.523	-66.070	-0.139	-0.055
-212.509	800.000	0.089	0.280
-211.494	740.137	-0.031	0.081
-210.479	-200.000	-0.027	0.230
-209.465	81.849	-0.139	-0.148
-208.450	-50.021	-0.266	0.124
-207.436	-22.791	-0.236	-0.140
-206.421	33.911	-0.190	-0.163
-205.406	122.487	-0.126	0.155
-204.392	-112.907	-0.222	0.043
-203.377	-27.597	0.176	-0.101
-202.363	-75.954	-0.163	0.057
-201.348	191.354	0.198	-0.293
-200.333	-73.908	-0.105	-0.037
-199.319	-147.974	0.146	0.012
-198.304	-200.000	0.007	0.281
-197.290	-96.619	-0.224	-0.058
-196.275	-200.000	-0.001	0.076
-195.260	103.654	-0.024	0.027
-194.246	-13.306	-0.158	0.101
-193.231	-133.359	0.338	0.042
-192.217	-76.295	-0.261	0.090
-191.202	-67.206	-0.146	0.057
-190.187	256.351	0.157	0.265
-189.173	251.152	0.143	-0.239
-188.158	29.230	0.200	-0.167
-187.144	-200.000	-0.055	0.316
-186.129	-97.562	0.275	-0.070
-185.114	-151.951	-0.259	0.019
-184.100	-200.000	-0.032	0.291
-183.085	79.682	-0.203	-0.214
-182.071	246.856	0.043	-0.072
-181.056	193.383	-0.078	-0.116
-180.042	-137.677	0.172	0.019
-179.027	-15.291	-0.225	-0.141
-178.012	-200.000	0.009	0.150
-176.998	-6.714	0.163	0.109
-175.983	-104.505	0.250	-0.057
-174.969	-148.759	0.099	0.008
-173.954	-163.411	-0.017	0.001
-172.939	800.000	0.044	-0.176
-171.925	-142.184	0.624	-0.061
-170.910	-32.250	0.247	0.135
-169.896	322.000	-0.088	-0.164
-168.881	2.316	0.212	0.150
-167.866	-200.000	-0.042	0.331
-166.852	-200.000	-0.010	-0.151
-165.837	371.495	-0.110	0.220
-164.823	0.841	0.360	-0.253
-163.808	-200.000	-0.017	-0.077
-162.793	-90.074	0.071	0.020
-161.779	68.883	-0.188	0.189
-160.764	-120.989	0.140	0.023
-159.750	-9.723	-0.070	-0.045
-158.735	800.000	0.051	-0.186
-157.720	93.720	0.190	0.211
-156.706	114.502	0.181	0.217
-155.691	800.000	0.054	-0.168
-154.677	-200.000	0.001	0.114
-153.662	800.000	0.049	0.171
-152.647	149.225	-0.135	0.179
-151.633	-166.246	-0.144	0.006
-150.618	16.151	0.077	0.059
-149.604	-47.198	-0.230	-0.110
-148.589	62.702	-0.087	-0.085
-147.574	512.500	0.009	-0.021
-146.560	-6.258	0.083	-0.056
-145.545	-200.000	-0.016	-0.124
-144.531	-61.205	-0.315	-0.130
-143.516	-19.973	-0.252	-0.153
-142.502	26.981	0.140	0.115
-141.487	-68.267	0.202	0.077
-140.472	-159.632	-0.348	-0.019
-139.458	0.947	0.404	0.284
-138.443	-200.000	-0.003	-0.065
-137.429	-148.054	0.233	-0.019
-136.414	88.532	0.235	0.256
-135.399	260.613	-0.067	-0.114
-134.385	105.583	-0.335	0.389
-133.370	-200.000	-0.015	0.134
-132.356	305.576	0.089	0.162
-131.341	-45.746	0.186	-0.090
-130.326	53.297	-0.238	0.224
-129.312	-160.780	0.488	-0.025
-128.297	100.740	-0.121	0.138
-127.283	800.000	-0.057	0.190
-126.268	-200.000	0.030	0.325
-125.253	164.980	-0.185	0.256
-124.239	163.746	0.278	-0.384
-123.224	-41.366	0.112	-0.057
-122.210	-128.519	-0.525	-0.073
-121.195	-200.000	-0.002	0.275
