DTS Sentinel unit serial number:	SN413079Multiplexer serial number:	ORYXHardware model number:	OX4-SRSoftware version number:	ORYX F/W v4.00 Oryx Data Collector v3.7.2.0data status	okinstallation	princeton_trtdifferential loss correction	single-endedforward channel	channel 2reverse channel	N/Adate	2019/09/13time	19:31:35forward acquisition time	60.00reverse acquisition time	0.00gamma	496.2192k internal	0.2329k external	0.2329temperature offset calibration	1.0156default loss term (dB/km)	0.3790temperature slope calibration	1.0000multiplexer offset coefficient	1.0000multiplexer slope coefficient	1.0000fibre end	0.00T internal ref (°C)	30.67T ext. ref 1 (°C)	3.50T ext. ref 2 (°C)	24.44length (m)	temperature (°C)	Stokes	anti-Stokes-747.200	-161.887	0.038	0.002
-746.185	800.000	0.080	0.253
-745.171	203.114	0.240	0.374
-744.156	74.529	0.135	0.143
-743.142	8.445	0.032	-0.024
-742.127	-22.527	0.066	0.040
-741.112	-14.621	0.273	0.176
-740.098	-1.107	-0.139	0.099
-739.083	-37.622	0.065	0.035
-738.069	238.591	-0.248	0.415
-737.054	125.801	-0.257	0.326
-736.039	-200.000	0.027	0.156
-735.025	-147.719	-0.204	0.017
-734.010	-76.754	0.317	0.112
-732.996	800.000	0.016	0.062
-731.981	800.000	-0.064	-0.202
-730.966	800.000	0.049	0.160
-729.952	223.859	-0.220	-0.358
-728.937	-56.527	-0.069	-0.031
-727.923	36.116	-0.302	0.267
-726.908	-200.000	-0.037	0.298
-725.894	-110.621	-0.102	-0.021
-724.879	-200.000	-0.155	0.001
-723.864	-119.137	-0.212	-0.037
-722.850	-74.806	-0.366	-0.132
-721.835	-51.713	-0.152	0.071
-720.821	75.171	0.066	0.070
-719.806	-200.000	0.025	-0.405
-718.791	478.334	-0.123	0.280
-717.777	492.811	0.126	-0.291
-716.762	185.044	-0.177	-0.263
-715.748	596.019	-0.092	0.229
-714.733	106.699	-0.215	0.256
-713.718	231.810	0.034	-0.056
-712.704	-101.794	-0.253	-0.062
-711.689	146.867	-0.208	-0.282
-710.675	19.260	0.234	-0.189
-709.660	-200.000	-0.005	0.043
-708.645	-20.948	-0.288	-0.178
-707.631	-111.414	-0.110	0.023
-706.616	15.175	0.077	-0.061
-705.602	-78.681	0.221	-0.076
-704.587	-60.322	-0.123	-0.053
-703.572	-158.793	0.267	0.015
-702.558	-111.950	-0.344	-0.070
-701.543	-150.098	0.384	0.030
-700.529	285.843	-0.084	-0.153
-699.514	-134.892	0.030	-0.004
-698.499	800.000	0.088	-0.345
-697.485	145.795	-0.174	-0.235
-696.470	-84.475	-0.159	-0.051
-695.456	27.980	-0.084	0.071
-694.441	89.878	0.064	0.072
-693.426	49.520	-0.077	0.073
-692.412	800.000	0.108	0.321
-691.397	125.312	0.104	-0.131
-690.383	-82.328	-0.075	0.024
-689.368	227.183	0.140	0.229
-688.354	-40.604	-0.112	-0.058
-687.339	191.202	0.085	-0.129
-686.324	164.382	0.159	0.225
-685.310	-135.735	0.206	0.025
-684.295	209.961	-0.143	0.226
-683.281	-69.113	0.106	-0.041
-682.266	201.127	-0.082	-0.127
-681.251	86.302	0.114	-0.126
-680.237	-68.002	-0.108	0.042
-679.222	-126.460	-0.168	-0.025
-678.208	-200.000	0.012	0.124
-677.193	59.271	0.083	-0.082
-676.178	42.514	-0.129	-0.118
-675.164	97.746	0.085	-0.098
-674.149	-58.541	0.166	0.073
-673.135	-69.419	-0.205	0.079
-672.120	271.277	0.080	-0.141
-671.105	52.902	0.047	0.045
-670.091	-57.928	-0.289	-0.127
-669.076	-61.825	-0.141	0.059
-668.062	691.730	-0.053	-0.139
-667.047	27.623	-0.313	-0.264
-666.032	534.248	0.100	-0.238
-665.018	284.576	-0.168	-0.303
-664.003	-200.000	-0.032	-0.361
-662.989	800.000	-0.030	-0.084
-661.974	-200.000	-0.036	-0.481
-660.959	8.055	-0.040	0.030
-659.945	-200.000	-0.039	-0.221
-658.930	34.876	-0.021	0.018
-657.916	-49.053	-0.184	0.089
-656.901	-200.000	-0.023	-0.265
-655.886	-108.131	-0.457	-0.099
-654.872	-200.000	-0.002	0.072
-653.857	101.540	-0.070	-0.082
-652.843	-200.000	0.028	0.199
-651.828	-142.481	0.253	-0.025
-650.814	35.125	-0.021	0.018
-649.799	-13.666	0.255	-0.166
-648.784	-200.000	-0.040	0.400
-647.770	800.000	0.076	-0.296
-646.755	-125.494	0.043	-0.007
-645.741	677.233	0.044	-0.114
-644.726	-17.577	-0.155	0.098
-643.711	-125.003	0.361	-0.056
-642.697	112.044	-0.081	0.098
-641.682	206.605	-0.146	0.228
-640.668	-154.057	-0.206	-0.014
-639.653	-128.990	0.318	0.045
-638.638	246.420	-0.058	-0.098
-637.624	-93.107	0.266	-0.074
-636.609	202.613	-0.127	0.196
-635.595	-11.093	0.218	0.144
-634.580	48.555	-0.108	0.102
-633.565	167.763	-0.074	-0.105
-632.551	-154.867	0.164	0.011
-631.536	189.471	-0.281	0.422
-630.522	-200.000	0.019	0.166
-629.507	106.338	0.020	0.024
-628.492	32.702	0.219	-0.190
-627.478	-114.850	0.182	-0.035
-626.463	-200.000	-0.008	0.202
-625.449	23.502	-0.116	-0.096
-624.434	62.335	-0.079	-0.079
-623.419	800.000	0.067	0.241
-622.405	-85.149	-0.386	0.121
-621.390	-73.791	0.098	-0.036
-620.376	160.710	-0.105	-0.147
-619.361	215.125	-0.064	0.102
-618.346	-200.000	0.026	-0.216
-617.332	-79.958	0.241	-0.081
-616.317	107.484	0.153	-0.182
-615.303	-88.146	0.083	-0.025
-614.288	184.148	-0.028	0.041
-613.273	-58.619	-0.093	-0.040
-612.259	-135.960	0.122	-0.014
-611.244	800.000	-0.084	0.310
-610.230	-162.516	-0.505	0.025
-609.215	128.094	-0.167	-0.213
-608.201	21.618	0.295	0.241
-607.186	-200.000	0.002	0.091
-606.171	-200.000	-0.011	0.185
-605.157	67.191	0.216	0.221
-604.142	800.000	-0.102	-0.299
-603.128	-32.863	-0.019	0.010
-602.113	-200.000	-0.026	0.216
-601.098	196.773	0.106	0.162
-600.084	-70.195	-0.078	-0.030
-599.069	-200.000	0.010	-0.083
-598.055	66.672	-0.175	0.178
-597.040	-117.626	-0.340	-0.061
-596.025	-69.612	-0.072	0.028
-595.011	800.000	0.036	-0.115
-593.996	474.787	0.063	-0.142
-592.982	666.059	-0.048	-0.125
-591.967	-24.970	-0.225	-0.134
-590.952	-200.000	-0.006	0.354
-589.938	800.000	0.016	0.051
-588.923	-79.060	-0.276	0.094
-587.909	-0.673	0.162	0.115
-586.894	96.158	0.140	-0.160
-585.879	28.708	0.162	-0.138
-584.865	800.000	-0.129	-0.488
-583.850	-78.207	-0.222	-0.076
-582.836	-124.129	0.101	0.016
-581.821	285.095	-0.109	-0.196
-580.806	800.000	-0.157	0.482
-579.792	141.155	0.081	0.107
-578.777	210.053	0.143	-0.224
-577.763	-76.551	-0.082	0.029
-576.748	-94.394	-0.366	-0.100
-575.733	242.233	0.003	-0.005
-574.719	46.904	-0.089	-0.083
-573.704	-147.358	-0.259	0.022
-572.690	174.898	-0.128	0.186
-571.675	-61.496	0.292	0.123
-570.661	9.464	-0.095	0.072
-569.646	-29.209	-0.181	0.104
-568.631	94.849	-0.180	-0.204
-567.617	90.695	0.235	-0.263
-566.602	-200.000	-0.018	0.103
-565.588	122.365	-0.095	-0.118
-564.573	130.174	0.136	-0.174
-563.558	32.998	0.120	-0.104
-562.544	134.966	-0.129	-0.168
-561.529	-200.000	-0.014	-0.235
-560.515	-162.692	0.275	-0.013
-559.500	-162.152	0.277	-0.014
-558.485	-183.418	-0.214	0.004
-557.471	-77.478	0.180	-0.062
-556.456	631.450	-0.125	-0.317
-555.442	796.821	-0.065	-0.180
-554.427	268.932	0.196	-0.343
-553.412	197.615	-0.105	-0.160
-552.398	8.044	-0.210	-0.158
-551.383	-29.046	0.084	0.048
-550.369	-2.913	-0.062	0.043
-549.354	51.410	0.171	0.162
-548.339	-200.000	-0.046	0.458
-547.325	8.515	-0.260	0.196
-546.310	-132.101	-0.170	0.022
-545.296	-86.507	0.161	-0.049
-544.281	-200.000	-0.034	0.170
-543.266	-75.382	0.239	0.085
-542.252	47.222	-0.145	-0.135
-541.237	-77.417	0.197	-0.068
-540.223	-200.000	-0.032	-0.297
-539.208	7.792	-0.177	0.132
-538.193	-53.744	-0.380	-0.173
-537.179	-90.288	0.238	-0.069
-536.164	5.954	0.119	0.088
-535.150	201.870	0.077	-0.118
-534.135	800.000	-0.108	-0.303
-533.121	-168.750	0.473	0.018
-532.106	-128.771	-0.216	-0.030
-531.091	109.818	0.276	-0.331
-530.077	-200.000	0.016	-0.129
-529.062	46.126	-0.412	-0.381
-528.048	60.467	-0.250	-0.247
-527.033	188.752	0.143	-0.213
-526.018	800.000	-0.053	-0.146
-525.004	291.637	-0.090	0.163
-523.989	513.678	-0.043	0.100
-522.975	-117.989	0.102	0.018
-521.960	466.619	0.083	0.185
-520.945	-195.216	0.151	-0.001
-519.931	800.000	-0.023	-0.071
-518.916	-200.000	0.023	0.227
-517.902	-37.827	-0.393	-0.208
-516.887	37.601	-0.287	0.254
-515.872	101.524	0.101	0.117
-514.858	800.000	-0.010	-0.038
-513.843	-193.831	0.034	-0.000
-512.829	-200.000	-0.047	0.242
-511.814	125.982	-0.027	-0.034
-510.799	58.134	0.183	0.179
-509.785	-24.313	0.215	-0.128
-508.770	-113.967	0.247	-0.048
-507.756	-83.447	-0.308	-0.098
-506.741	-200.000	-0.003	0.278
-505.726	-200.000	-0.005	0.094
-504.712	-200.000	0.027	-0.183
-503.697	-19.469	-0.400	-0.247
-502.683	59.763	0.107	-0.105
-501.668	373.749	0.238	0.484
-500.653	800.000	0.087	0.348
-499.639	-39.792	-0.196	0.102
-498.624	331.409	-0.050	-0.097
-497.610	-102.032	0.355	0.085
-496.595	33.157	-0.255	-0.221
-495.581	-200.000	-0.027	-0.190
-494.566	-39.109	-0.329	0.173
-493.551	-54.070	-0.173	0.078
-492.537	-131.757	0.231	0.030
-491.522	-114.919	-0.059	-0.011
-490.508	800.000	-0.019	-0.060
-489.493	-6.079	-0.251	0.171
-488.478	-94.416	0.370	-0.101
-487.464	-189.901	0.289	-0.003
-486.449	32.443	-0.153	0.132
-485.435	800.000	-0.117	0.335
-484.420	-120.457	0.084	-0.014
-483.405	-200.000	0.042	0.342
-482.391	-127.252	-0.242	-0.035
-481.376	-123.387	0.261	-0.042
-480.362	161.612	0.072	0.100
-479.347	-200.000	0.010	0.222
-478.332	466.548	-0.069	-0.154
-477.318	-200.000	0.054	0.246
-476.303	-106.443	0.275	0.061
-475.289	46.689	-0.193	0.178
-474.274	-101.595	-0.355	0.086
-473.259	-113.583	-0.111	0.022
-472.245	11.536	-0.126	0.096
-471.230	-34.840	-0.154	-0.084
-470.216	561.527	-0.104	0.251
-469.201	-96.441	0.279	0.073
-468.186	478.609	0.018	0.040
-467.172	-87.028	0.098	-0.030
-466.157	208.516	0.061	0.095
-465.143	-200.000	-0.016	-0.336
-464.128	-72.456	-0.398	-0.146
-463.113	507.566	-0.085	-0.197
-462.099	-85.584	0.033	-0.010
-461.084	-200.000	-0.021	0.234
-460.070	44.473	0.148	-0.136
-459.055	54.922	-0.220	-0.212
-458.040	68.082	0.228	0.232
-457.026	-16.418	-0.554	-0.350
-456.011	203.674	0.132	-0.203
-454.997	-200.000	-0.001	0.180
-453.982	81.396	-0.065	-0.070
-452.968	499.368	0.086	-0.198
-451.953	142.068	-0.239	0.315
-450.938	-36.021	0.058	-0.031
-449.924	-200.000	-0.012	0.086
-448.909	-200.000	0.091	0.434
-447.895	-85.610	-0.102	-0.032
-446.880	-126.542	0.173	0.026
-445.865	-200.000	-0.036	-0.193
-444.851	113.458	-0.153	-0.185
-443.836	800.000	-0.114	0.432
-442.822	115.276	0.038	-0.047
-441.807	-105.794	-0.179	-0.040
-440.792	-200.000	-0.005	-0.097
-439.778	92.924	-0.115	0.129
-438.763	-104.232	-0.053	-0.012
-437.749	461.266	0.081	0.181
-436.734	-200.000	0.023	0.134
-435.719	12.107	0.111	-0.085
-434.705	-61.759	0.349	0.145
-433.690	-0.066	-0.190	-0.135
-432.676	-98.193	-0.615	-0.157
-431.661	-28.146	0.105	0.060
-430.646	-72.663	0.261	-0.096
-429.632	-200.000	0.001	0.361
-428.617	-68.155	0.107	0.042
-427.603	-37.257	-0.275	-0.146
-426.588	309.640	0.061	-0.113
-425.573	425.938	-0.040	-0.085
-424.559	-200.000	-0.045	-0.236
-423.544	251.707	-0.127	0.215
-422.530	-200.000	0.019	-0.235
-421.515	-200.000	-0.001	-0.277
-420.500	69.097	-0.120	-0.123
-419.486	796.214	-0.079	-0.217
-418.471	-81.758	0.295	0.096
-417.457	435.189	-0.169	0.365
-416.442	304.718	0.090	-0.166
-415.428	343.093	-0.160	-0.312
-414.413	-200.000	-0.025	-0.321
-413.398	359.379	-0.150	0.297
-412.384	-145.318	-0.122	0.011
-411.369	551.540	-0.011	-0.027
-410.355	227.472	-0.018	0.029
-409.340	30.253	-0.221	0.187
-408.325	-177.461	0.226	0.005
-407.311	4.489	-0.201	-0.146
-406.296	34.616	0.077	-0.067
-405.282	23.411	-0.238	-0.195
-404.267	-200.000	0.023	-0.106
-403.252	800.000	0.063	0.205
-402.238	238.108	0.135	-0.223
-401.223	-80.514	0.136	-0.045
-400.209	-196.191	0.131	0.001
-399.194	-51.200	0.074	-0.034
-398.179	-88.308	-0.129	0.038
-397.165	-139.420	0.167	-0.018
-396.150	70.428	0.203	-0.208
-395.136	-200.000	0.010	0.124
-394.121	53.190	-0.213	0.203
-393.106	800.000	-0.057	0.199
-392.092	-200.000	-0.021	0.106
-391.077	-82.288	0.452	0.146
-390.063	320.266	0.083	0.157
-389.048	-200.000	0.021	0.144
-388.033	172.173	-0.136	0.194
-387.019	-200.000	0.012	0.403
-386.004	-44.205	-0.199	-0.099
-384.990	-106.766	0.146	0.032
-383.975	-34.244	-0.183	0.100
-382.960	-200.000	0.053	0.275
-381.946	800.000	0.126	0.402
-380.931	43.925	-0.141	0.128
-379.917	107.262	0.207	0.245
-378.902	217.754	0.128	0.203
-377.888	72.790	0.089	-0.092
-376.873	619.615	0.138	-0.344
-375.858	-133.137	-0.154	0.019
-374.844	-200.000	0.311	0.001
-373.829	-128.369	0.125	0.018
-372.815	313.796	0.083	0.155
-371.800	20.517	-0.107	0.086
-370.785	-89.358	0.129	0.038
-369.771	-200.000	0.008	0.160
-368.756	194.430	0.104	0.157
-367.742	-200.000	-0.014	-0.121
-366.727	27.407	0.125	-0.105
-365.712	93.218	0.303	-0.341
-364.698	50.001	0.103	0.097
-363.683	-57.880	-0.424	-0.184
-362.669	-79.018	-0.314	0.106
-361.654	-20.009	-0.162	0.099
-360.639	62.788	0.261	0.259
-359.625	800.000	-0.158	0.452
-358.610	800.000	-0.112	-0.311
-357.596	800.000	0.091	0.309
-356.581	-118.934	-0.200	0.035
-355.566	-146.936	0.258	0.022
-354.552	589.861	-0.160	-0.390
-353.537	90.019	0.126	0.140
-352.523	-93.815	-0.229	0.063
-351.508	194.287	-0.168	-0.252
-350.493	11.035	-0.239	-0.181
-349.479	-114.243	0.147	0.028
-348.464	-200.000	0.064	-0.363
-347.450	292.477	0.028	0.050
-346.435	-55.994	0.192	-0.085
-345.420	-57.833	0.145	0.063
-344.406	60.195	-0.204	0.200
-343.391	-200.000	0.037	0.239
-342.377	800.000	-0.051	0.203
-341.362	-92.145	0.104	0.029
-340.348	7.979	0.139	-0.104
-339.333	-200.000	0.013	0.121
-338.318	556.328	-0.058	0.139
-337.304	94.035	-0.124	0.140
-336.289	23.435	-0.110	0.090
-335.275	134.077	0.089	-0.114
-334.260	-122.284	-0.132	-0.021
-333.245	180.705	-0.015	-0.021
-332.231	142.856	0.187	0.247
-331.216	119.172	0.111	-0.136
-330.202	188.979	0.108	-0.161
-329.187	-200.000	0.058	0.270
-328.172	-39.876	0.217	0.113
-327.158	179.656	-0.083	-0.121
-326.143	-200.000	-0.075	-0.445
-325.129	-44.689	-0.191	0.095
-324.114	-125.547	0.437	0.066
-323.099	800.000	0.054	-0.154
-322.085	-200.000	0.029	0.262
-321.070	-57.520	-0.140	-0.061
-320.056	-15.219	0.120	0.076
-319.041	-96.486	-0.214	-0.056
-318.026	30.347	0.232	-0.197
-317.012	128.407	-0.085	0.108
-315.997	3.208	0.368	0.265
-314.983	800.000	-0.054	0.163
-313.968	-3.039	-0.154	-0.107
-312.953	-127.991	0.290	0.041
-311.939	762.765	-0.147	-0.396
-310.924	638.839	0.028	0.070
-309.910	85.456	0.060	0.066
-308.895	-58.718	-0.284	-0.122
-307.880	121.978	0.036	-0.044
-306.866	-24.488	0.141	0.083
-305.851	-22.022	0.213	0.128
-304.837	-127.576	-0.217	-0.031
-303.822	188.443	0.139	-0.205
-302.807	1.025	-0.044	0.031
-301.793	27.390	0.311	0.259
-300.778	705.812	-0.130	0.341
-299.764	-200.000	0.084	-0.504
-298.749	563.028	0.072	0.172
-297.735	766.772	0.033	-0.090
-296.720	166.891	0.060	-0.084
-295.705	-172.528	0.207	-0.006
-294.691	354.959	-0.059	-0.117
-293.676	112.558	0.289	-0.346
-292.662	138.293	0.107	-0.139
-291.647	-55.171	-0.142	-0.063
-290.632	-68.172	-0.111	0.043
-289.618	-200.000	0.018	0.268
-288.603	-200.000	0.004	0.309
-287.589	800.000	-0.041	-0.127
-286.574	800.000	0.052	0.203
-285.559	-200.000	0.010	0.065
-284.545	14.215	0.185	0.143
-283.530	-1.317	-0.261	-0.182
-282.516	-121.502	-0.068	-0.011
-281.501	-28.558	0.083	-0.048
-280.486	800.000	-0.095	-0.350
-279.472	-7.748	-0.227	0.152
-278.457	-81.424	0.206	0.067
-277.443	-200.000	-0.020	0.114
-276.428	-198.971	-0.136	-0.001
-275.413	-94.466	0.361	0.097
-274.399	46.352	0.127	-0.116
-273.384	-74.232	0.426	-0.152
-272.370	390.570	0.168	-0.344
-271.355	-4.894	-0.130	-0.089
-270.340	-200.000	0.007	-0.033
-269.326	43.664	0.182	-0.164
-268.311	359.362	-0.125	0.247
-267.297	-3.835	-0.270	0.186
-266.282	-24.992	0.180	0.106
-265.267	102.470	-0.254	0.294
-264.253	-98.528	0.617	0.156
-263.238	135.462	-0.115	0.148
-262.224	-109.903	-0.142	0.029
-261.209	47.259	-0.134	0.123
-260.195	-167.823	0.198	0.008
-259.180	-105.568	-0.350	0.078
-258.165	-32.389	-0.104	-0.057
-257.151	451.559	-0.168	-0.366
-256.136	-32.477	-0.416	-0.229
-255.122	50.492	0.152	-0.142
-254.107	-59.111	0.110	0.047
-253.092	-59.476	0.232	-0.098
-252.078	-26.408	0.244	-0.141
-251.063	148.696	0.310	-0.413
-250.049	-200.000	-0.019	0.140
-249.034	248.094	0.057	-0.095
-248.019	-124.584	0.241	0.037
-247.005	31.577	-0.264	-0.225
-245.990	-82.903	0.171	-0.054
-244.976	-37.850	0.165	0.086
-243.961	-178.895	-0.259	0.006
-242.946	262.560	-0.161	0.275
-241.932	314.496	0.036	-0.067
-240.917	800.000	-0.041	-0.157
-239.903	-83.154	-0.207	0.066
-238.888	152.438	-0.166	-0.224
-237.873	-127.300	-0.241	-0.035
-236.859	-5.407	0.086	0.058
-235.844	140.527	0.141	0.184
-234.830	6.768	0.021	0.016
-233.815	33.760	0.080	-0.069
-232.800	-200.000	-0.005	0.033
-231.786	-51.319	-0.331	-0.153
-230.771	-200.000	0.012	0.438
-229.757	-44.692	-0.090	0.045
-228.742	65.809	-0.148	-0.148
-227.727	-77.201	0.219	-0.075
-226.713	27.350	0.123	-0.102
-225.698	-62.705	-0.291	0.119
-224.684	-200.000	0.002	0.154
-223.669	-200.000	0.024	0.163
-222.655	-200.000	-0.023	-0.124
-221.640	-155.211	-0.196	0.013
-220.625	-113.746	-0.115	-0.022
-219.611	-139.988	0.473	0.049
-218.596	294.681	0.087	-0.157
-217.582	-98.613	0.273	0.069
-216.567	365.796	0.135	-0.269
-215.552	24.923	0.395	-0.323
-214.538	-13.507	0.268	-0.171
-213.523	796.334	-0.109	-0.297
-212.509	-108.352	0.263	-0.056
-211.494	-75.524	0.237	0.083
-210.479	-59.921	-0.103	0.043
-209.465	204.748	0.155	-0.237
-208.450	-129.424	-0.227	-0.031
-207.436	-200.000	-0.002	0.288
-206.421	43.768	-0.128	0.116
-205.406	-26.433	0.186	-0.107
-204.392	257.677	-0.031	-0.052
-203.377	800.000	-0.045	-0.128
-202.363	-200.000	-0.101	0.455
-201.348	-97.463	-0.241	0.062
-200.333	-76.646	0.559	-0.193
-199.319	360.132	0.156	-0.307
-198.304	-113.297	-0.238	-0.046
-197.290	-37.554	-0.376	-0.198
-196.275	152.577	0.102	-0.138
-195.260	-200.000	-0.074	-0.321
-194.246	800.000	0.050	0.201
-193.231	119.093	-0.133	-0.162
-192.217	-200.000	0.014	-0.275
-191.202	-142.544	-0.083	-0.008
-190.187	-200.000	-0.040	-0.332
-189.173	-100.455	0.317	-0.077
-188.158	800.000	0.043	0.135
-187.144	-74.169	-0.151	-0.054
-186.129	68.102	-0.197	-0.198
-185.114	-28.772	0.439	-0.249
-184.100	381.816	-0.036	0.073
-183.085	-110.939	-0.325	0.066
-182.071	-156.524	-0.370	-0.023
-181.056	-57.637	-0.121	-0.052
-180.042	162.468	0.099	0.137
-179.027	-200.000	0.009	-0.128
-178.012	800.000	-0.061	-0.226
-176.998	264.251	-0.099	0.169
-175.983	-200.000	-0.073	0.383
-174.969	-200.000	-0.023	0.218
-173.954	464.116	-0.103	-0.227
-172.939	363.167	0.125	0.247
-171.925	-200.000	-0.056	0.393
-170.910	800.000	-0.070	0.277
-169.896	543.929	0.083	-0.194
-168.881	5.266	-0.051	-0.037
-167.866	-8.787	0.282	-0.186
-166.852	-200.000	-0.027	0.231
-165.837	30.799	-0.357	-0.301
-164.823	-10.824	0.083	0.054
-163.808	-175.477	-0.031	-0.001
-162.793	-97.210	0.263	-0.067
-161.779	-24.243	-0.089	-0.052
-160.764	-117.511	0.305	-0.054
-159.750	-200.000	-0.038	-0.225
-158.735	-144.460	0.236	0.022
-157.720	-200.000	0.023	0.249
-156.706	-170.053	-0.038	0.001
-155.691	-50.050	-0.215	0.100
-154.677	-32.165	0.144	0.079
-153.662	22.561	-0.155	-0.125
-152.647	72.945	0.159	0.164
-151.633	163.551	0.085	-0.118
-150.618	504.293	-0.104	-0.236
-149.604	18.417	0.206	-0.162
-148.589	360.547	-0.064	-0.127
-147.574	800.000	0.054	0.165
-146.560	67.944	0.090	-0.090
-145.545	800.000	-0.035	-0.097
-144.531	-79.874	0.209	0.069
-143.516	99.983	-0.061	0.070
-142.502	-74.145	0.338	-0.120
-141.487	-8.224	-0.230	0.152
-140.472	-200.000	-0.093	-0.000
-139.458	-200.000	-0.030	0.250
-138.443	-36.148	-0.091	0.049
-137.429	-51.065	-0.260	0.120
-136.414	61.730	0.279	-0.273
-135.399	800.000	0.041	0.138
-134.385	-59.663	-0.280	-0.118
-133.370	-200.000	0.029	0.189
-132.356	-125.754	-0.068	-0.010
-131.341	-200.000	0.027	-0.139
-130.326	366.282	-0.152	0.302
-129.312	800.000	-0.086	-0.341
-128.297	-37.032	0.097	0.051
-127.283	-200.000	-0.018	-0.272
-126.268	-127.489	-0.478	-0.068
-125.253	11.746	-0.245	-0.185
-124.239	260.849	0.094	-0.159
-123.224	-200.000	-0.014	0.068
-122.210	456.977	-0.047	0.103
-121.195	800.000	-0.125	0.377
