DTS Sentinel unit serial number:	SN413079Multiplexer serial number:	ORYXHardware model number:	OX4-SRSoftware version number:	ORYX F/W v4.00 Oryx Data Collector v3.7.2.0data status	okinstallation	princeton_trtdifferential loss correction	single-endedforward channel	channel 2reverse channel	N/Adate	2019/09/18time	00:19:35forward acquisition time	60.00reverse acquisition time	0.00gamma	496.2192k internal	0.2350k external	0.2350temperature offset calibration	0.9986default loss term (dB/km)	0.3790temperature slope calibration	1.0000multiplexer offset coefficient	1.0000multiplexer slope coefficient	1.0000fibre end	0.00T internal ref (°C)	23.62T ext. ref 1 (°C)	0.17T ext. ref 2 (°C)	17.21length (m)	temperature (°C)	Stokes	anti-Stokes-747.200	800.000	-0.075	-0.270
-746.185	272.467	0.109	0.192
-745.171	27.952	-0.268	0.226
-744.156	-200.000	0.066	0.292
-743.142	-200.000	-0.041	0.290
-742.127	-184.187	-0.101	-0.002
-741.112	-66.135	0.333	-0.132
-740.098	-69.921	-0.245	0.093
-739.083	-200.000	0.002	0.293
-738.069	138.730	-0.187	0.245
-737.054	234.784	0.074	0.121
-736.039	195.928	-0.174	-0.264
-735.025	-133.976	-0.462	0.057
-734.010	93.482	-0.192	-0.217
-732.996	448.570	0.191	-0.420
-731.981	-185.521	-0.261	0.004
-730.966	1.690	-0.282	-0.203
-729.952	333.370	-0.144	-0.277
-728.937	84.534	-0.216	-0.236
-727.923	-31.864	0.062	-0.035
-726.908	-63.420	-0.227	-0.093
-725.894	-200.000	-0.012	0.110
-724.879	392.299	-0.219	-0.455
-723.864	-73.269	-0.234	-0.085
-722.850	563.310	-0.122	-0.294
-721.835	-57.398	0.241	0.106
-720.821	-37.895	-0.322	-0.171
-719.806	-72.808	0.305	0.112
-718.791	-200.000	0.012	0.069
-717.777	11.035	0.188	0.144
-716.762	800.000	-0.136	0.388
-715.748	150.584	0.158	0.213
-714.733	51.776	0.153	-0.146
-713.718	-200.000	-0.004	-0.086
-712.704	-200.000	0.019	0.505
-711.689	800.000	0.064	-0.203
-710.675	-157.060	-0.248	0.015
-709.660	-116.634	0.218	0.040
-708.645	-200.000	-0.037	-0.367
-707.631	-110.675	-0.165	0.034
-706.616	144.672	0.320	-0.426
-705.602	428.901	-0.128	0.275
-704.587	175.750	-0.233	-0.337
-703.572	-200.000	0.011	0.058
-702.558	-34.963	-0.082	0.045
-701.543	-200.000	-0.009	-0.099
-700.529	800.000	0.087	-0.263
-699.514	454.419	-0.115	-0.254
-698.499	-35.806	-0.131	-0.071
-697.485	706.991	0.056	0.147
-696.470	-200.000	-0.003	-0.160
-695.456	-13.651	-0.118	0.076
-694.441	153.852	-0.165	-0.225
-693.426	-115.311	0.116	0.022
-692.412	193.930	0.052	0.079
-691.397	800.000	-0.078	0.316
-690.383	-81.202	0.251	-0.083
-689.368	761.890	-0.054	0.146
-688.354	-26.145	-0.215	0.126
-687.339	-0.674	0.140	0.099
-686.324	68.649	0.061	-0.063
-685.310	-200.000	-0.017	-0.165
-684.295	800.000	0.072	-0.283
-683.281	6.276	0.169	0.125
-682.266	-200.000	0.011	-0.195
-681.251	219.410	0.084	-0.134
-680.237	-98.669	-0.274	0.070
-679.222	-114.899	0.457	-0.087
-678.208	-7.969	0.063	-0.042
-677.193	300.513	0.047	0.086
-676.178	-140.815	0.207	-0.021
-675.164	-26.408	0.244	0.143
-674.149	175.328	0.019	0.027
-673.135	134.948	0.085	0.111
-672.120	0.762	-0.249	-0.178
-671.105	-172.377	-0.258	-0.008
-670.091	20.480	-0.139	0.112
-669.076	-128.309	-0.144	0.020
-668.062	176.186	0.245	0.354
-667.047	-200.000	-0.038	0.263
-666.032	14.573	-0.203	-0.158
-665.018	178.808	-0.061	0.089
-664.003	16.247	-0.179	0.140
-662.989	-5.771	0.129	-0.088
-661.974	800.000	0.041	0.140
-660.959	-40.262	-0.445	-0.230
-659.945	-10.055	-0.245	0.162
-658.930	-200.000	-0.035	0.224
-657.916	-8.537	0.257	-0.172
-656.901	-10.412	-0.146	-0.097
-655.886	-81.341	0.275	-0.090
-654.872	-132.097	0.166	0.021
-653.857	-186.386	-0.298	0.004
-652.843	22.335	-0.038	-0.031
-651.828	-152.779	-0.426	0.030
-650.814	-130.484	0.445	-0.060
-649.799	-119.126	-0.272	-0.047
-648.784	-33.528	0.058	0.032
-647.770	-21.768	0.360	0.218
-646.755	590.901	-0.064	-0.156
-645.741	27.558	0.356	0.298
-644.726	65.338	-0.379	0.382
-643.711	-13.545	0.088	0.057
-642.697	252.268	0.084	-0.142
-641.682	101.964	-0.242	-0.281
-640.668	-200.000	0.003	0.087
-639.653	66.025	-0.183	0.184
-638.638	25.499	0.187	-0.155
-637.624	15.766	0.181	-0.141
-636.609	800.000	0.035	-0.121
-635.595	-200.000	-0.007	0.137
-634.580	-106.721	0.407	0.090
-633.565	-0.401	-0.103	0.073
-632.551	-200.000	-0.037	-0.244
-631.536	448.751	0.065	-0.142
-630.522	558.620	-0.045	0.107
-629.507	45.024	-0.240	-0.220
-628.492	-24.500	0.155	0.092
-627.478	-91.812	0.324	0.091
-626.463	635.545	0.047	0.119
-625.449	-200.000	0.006	0.097
-624.434	685.764	0.087	0.227
-623.419	-200.000	0.037	-0.387
-622.405	269.013	0.117	-0.205
-621.390	-7.916	-0.114	-0.076
-620.376	744.469	0.067	-0.179
-619.361	-105.316	-0.166	-0.038
-618.346	92.332	-0.289	-0.324
-617.332	-200.000	0.030	-0.163
-616.317	375.092	-0.115	0.232
-615.303	86.092	0.094	-0.102
-614.288	139.901	-0.139	-0.182
-613.273	-79.364	0.090	0.030
-612.259	-158.744	0.162	-0.009
-611.244	800.000	0.031	-0.089
-610.230	-91.191	-0.226	0.064
-609.215	-3.796	0.358	0.247
-608.201	-101.477	-0.159	-0.038
-607.186	-99.683	-0.282	-0.070
-606.171	-106.645	0.057	-0.013
-605.157	-200.000	-0.018	-0.373
-604.142	358.600	-0.050	-0.098
-603.128	-109.599	0.209	0.044
-602.113	-42.291	0.146	0.074
-601.098	-9.185	-0.261	0.173
-600.084	273.358	0.026	-0.046
-599.069	-200.000	-0.017	0.118
-598.055	-13.897	0.080	-0.051
-597.040	185.130	-0.092	-0.135
-596.025	-28.289	-0.165	-0.095
-595.011	-183.739	-0.160	-0.003
-593.996	-200.000	-0.019	-0.195
-592.982	-84.854	-0.359	-0.112
-591.967	-53.524	0.086	-0.039
-590.952	478.955	0.038	-0.086
-589.938	-200.000	0.040	-0.183
-588.923	-43.410	-0.422	0.212
-587.909	78.997	-0.253	-0.269
-586.894	13.838	0.291	-0.225
-585.879	-200.000	0.054	0.239
-584.865	-200.000	0.022	0.376
-583.850	-115.604	-0.403	0.075
-582.836	-200.000	0.032	0.139
-581.821	-77.210	-0.332	-0.115
-580.806	133.849	0.101	-0.129
-579.792	-28.962	-0.145	0.083
-578.777	33.814	-0.074	0.064
-577.763	-194.352	0.356	-0.003
-576.748	-30.364	-0.108	0.061
-575.733	684.435	-0.073	-0.190
-574.719	-44.014	-0.154	0.077
-573.704	800.000	-0.021	-0.081
-572.690	-200.000	-0.024	-0.288
-571.675	8.794	-0.065	-0.048
-570.661	122.822	0.085	-0.105
-569.646	-200.000	0.013	-0.117
-568.631	1.337	-0.145	-0.103
-567.617	-110.267	-0.094	0.019
-566.602	-54.413	0.070	-0.031
-565.588	-200.000	0.057	-0.312
-564.573	-118.015	-0.128	-0.023
-563.558	800.000	-0.014	0.057
-562.544	-81.952	-0.364	0.118
-561.529	20.979	-0.121	-0.097
-560.515	12.194	0.319	0.243
-559.500	-33.389	-0.126	-0.069
-558.485	-200.000	0.007	-0.093
-557.471	536.773	0.052	-0.121
-556.456	-23.178	0.115	-0.068
-555.442	-141.366	0.221	-0.022
-554.427	28.132	0.109	-0.091
-553.412	129.079	-0.123	0.155
-552.398	409.846	0.049	-0.103
-551.383	215.289	0.257	0.403
-550.369	-39.792	-0.235	-0.122
-549.354	-200.000	-0.024	0.162
-548.339	1.004	0.118	-0.084
-547.325	-132.236	-0.231	-0.030
-546.310	-114.227	0.274	0.052
-545.296	110.661	-0.108	-0.129
-544.281	-103.464	0.480	0.112
-543.266	-48.061	0.021	0.010
-542.252	-10.734	-0.189	-0.124
-541.237	34.746	-0.243	0.211
-540.223	-18.059	0.185	-0.115
-539.208	-53.000	0.157	0.072
-538.193	34.584	-0.103	-0.089
-537.179	-77.161	-0.266	0.092
-536.164	-200.000	0.023	-0.237
-535.150	14.100	0.258	-0.199
-534.135	-200.000	0.039	-0.344
-533.121	509.273	0.126	-0.290
-532.106	-110.721	-0.140	-0.029
-531.091	-73.815	0.237	0.085
-530.077	53.444	-0.202	-0.191
-529.062	-100.940	0.254	-0.062
-528.048	1.657	0.343	0.244
-527.033	42.375	0.059	-0.053
-526.018	-93.821	-0.102	0.028
-525.004	-56.985	-0.351	-0.153
-523.989	-42.904	-0.435	-0.219
-522.975	301.115	0.067	-0.123
-521.960	-200.000	-0.012	-0.354
-520.945	-200.000	-0.019	0.154
-519.931	-27.478	0.388	0.223
-518.916	-200.000	-0.014	0.119
-517.902	79.438	-0.372	-0.395
-516.887	349.647	0.066	-0.129
-515.872	800.000	-0.054	-0.222
-514.858	491.409	0.038	0.087
-513.843	-200.000	-0.036	0.194
-512.829	-200.000	0.052	-0.229
-511.814	-200.000	-0.030	-0.234
-510.799	-111.324	0.154	0.031
-509.785	135.011	-0.144	-0.185
-508.770	356.134	-0.203	0.401
-507.756	796.025	0.078	0.214
-506.741	-132.677	0.164	-0.021
-505.726	-30.837	0.225	-0.126
-504.712	-200.000	0.032	0.303
-503.697	-200.000	-0.013	-0.145
-502.683	169.267	0.047	-0.066
-501.668	800.000	-0.143	-0.412
-500.653	-130.863	-0.276	0.037
-499.639	-200.000	-0.007	0.358
-498.624	-137.313	0.146	0.016
-497.610	33.747	0.121	0.104
-496.595	109.146	-0.129	-0.152
-495.581	24.702	-0.349	-0.286
-494.566	-165.872	-0.216	0.009
-493.551	34.242	-0.116	0.100
-492.537	-109.418	-0.287	-0.060
-491.522	-20.838	-0.166	0.101
-490.508	33.332	0.277	-0.238
-489.493	-61.336	-0.164	-0.068
-488.478	448.973	-0.016	-0.035
-487.464	-119.144	-0.128	-0.022
-486.449	-75.401	0.134	-0.047
-485.435	8.004	0.130	0.096
-484.420	551.752	-0.078	0.186
-483.405	800.000	0.059	0.161
-482.391	-106.638	0.456	0.100
-481.376	-200.000	-0.018	0.113
-480.362	312.165	-0.091	0.168
-479.347	-45.714	-0.172	-0.084
-478.332	24.354	0.068	0.055
-477.318	-200.000	0.010	0.230
-476.303	-64.147	0.116	-0.047
-475.289	-200.000	-0.015	0.069
-474.274	-75.084	-0.522	-0.184
-473.259	-155.722	-0.148	-0.009
-472.245	-109.922	-0.142	-0.029
-471.230	-38.459	0.390	-0.204
-470.216	-54.142	-0.313	0.140
-469.201	8.885	-0.165	-0.123
-468.186	34.076	0.330	0.284
-467.172	30.765	0.337	0.285
-466.157	-169.069	0.170	-0.006
-465.143	104.056	-0.134	0.156
-464.128	121.118	-0.088	0.108
-463.113	-9.193	0.270	0.178
-462.099	435.083	0.084	0.180
-461.084	-200.000	0.007	0.450
-460.070	-16.894	0.163	0.102
-459.055	57.292	0.269	-0.259
-458.040	-4.353	0.204	0.139
-457.026	-62.431	0.353	0.145
-456.011	752.607	0.055	0.146
-454.997	-138.080	0.451	-0.050
-453.982	16.650	0.150	-0.117
-452.968	199.766	0.132	-0.200
-451.953	145.010	0.024	0.031
-450.938	-108.943	0.194	-0.041
-449.924	-21.675	-0.323	0.194
-448.909	-77.234	0.138	-0.047
-447.895	-19.843	-0.319	-0.194
-446.880	742.997	-0.049	0.131
-445.865	-31.273	-0.273	0.151
-444.851	-93.255	-0.117	0.032
-443.836	-176.201	0.299	-0.008
-442.822	800.000	0.140	0.389
-441.807	-0.725	0.134	0.094
-440.792	-26.131	-0.183	-0.106
-439.778	-200.000	0.010	0.182
-438.763	-115.122	-0.227	0.043
-437.749	114.311	-0.304	0.365
-436.734	800.000	0.039	0.115
-435.719	-170.823	-0.235	0.008
-434.705	-5.433	-0.036	-0.024
-433.690	-107.327	-0.453	0.098
-432.676	-97.679	-0.099	-0.025
-431.661	-200.000	0.000	-0.016
-430.646	93.415	0.148	0.165
-429.632	-200.000	0.007	-0.047
-428.617	-39.539	-0.127	-0.066
-427.603	-5.768	-0.028	-0.019
-426.588	106.881	0.140	-0.164
-425.573	347.879	0.073	-0.143
-424.559	-6.036	-0.091	-0.061
-423.544	-8.820	-0.065	0.043
-422.530	63.962	0.393	-0.390
-421.515	40.661	0.275	-0.244
-420.500	273.321	0.047	-0.081
-419.486	149.028	0.311	-0.414
-418.471	416.430	-0.095	0.199
-417.457	-200.000	-0.005	-0.089
-416.442	328.380	-0.140	0.265
-415.428	236.660	0.157	0.257
-414.413	800.000	-0.090	0.292
-413.398	-14.082	-0.036	0.023
-412.384	-63.404	0.098	0.040
-411.369	-31.121	0.195	-0.108
-410.355	150.010	-0.114	0.153
-409.340	210.793	-0.127	-0.197
-408.325	-100.143	0.369	-0.091
-407.311	608.603	-0.187	-0.460
-406.296	469.662	0.042	-0.092
-405.282	-164.914	0.178	0.008
-404.267	-200.000	0.003	-0.075
-403.252	-114.925	-0.469	0.088
-402.238	40.652	-0.438	0.389
-401.223	293.392	0.164	-0.294
-400.209	-200.000	0.029	-0.130
-399.194	-157.991	-0.291	0.017
-398.179	246.562	0.190	0.316
-397.165	-108.852	0.262	-0.055
-396.150	-200.000	0.079	0.495
-395.136	-78.616	0.466	0.157
-394.121	398.264	0.116	0.239
-393.106	800.000	0.067	-0.263
-392.092	-76.932	-0.461	0.159
-391.077	56.282	0.301	0.288
-390.063	383.782	0.169	-0.343
-389.048	-200.000	0.045	-0.457
-388.033	-93.101	0.188	-0.052
-387.019	119.345	-0.048	-0.059
-386.004	73.622	-0.157	-0.162
-384.990	140.122	0.123	-0.160
-383.975	-36.484	-0.229	-0.121
-382.960	-200.000	-0.007	0.082
-381.946	113.900	0.106	0.127
-380.931	136.529	-0.161	0.207
-379.917	-58.587	0.326	-0.139
-378.902	-200.000	0.034	-0.188
-377.888	-106.643	0.310	-0.068
-376.873	106.516	-0.052	-0.061
-375.858	56.957	-0.225	0.216
-374.844	800.000	-0.056	0.170
-373.829	-65.719	0.176	-0.069
-372.815	-131.899	-0.239	-0.031
-371.800	-200.000	-0.013	0.211
-370.785	185.491	0.195	-0.284
-369.771	45.747	0.221	-0.201
-368.756	800.000	-0.148	0.543
-367.742	586.843	0.138	0.333
-366.727	-141.033	-0.300	-0.030
-365.712	800.000	-0.034	-0.139
-364.698	66.467	-0.233	-0.233
-363.683	-47.821	-0.194	0.092
-362.669	-86.488	-0.174	-0.053
-361.654	-99.302	-0.108	-0.027
-360.639	148.391	0.075	-0.099
-359.625	22.935	-0.300	0.242
-358.610	-21.602	0.099	0.059
-357.596	-70.843	-0.196	-0.073
-356.581	-155.367	-0.254	-0.016
-355.566	66.844	-0.158	-0.158
-354.552	-151.489	0.080	-0.006
-353.537	-200.000	-0.093	-0.412
-352.523	660.732	-0.104	-0.264
-351.508	-26.170	0.068	0.039
-350.493	-13.466	0.116	-0.074
-349.479	159.784	-0.128	-0.175
-348.464	-3.603	0.168	-0.115
-347.450	-200.000	0.014	-0.257
-346.435	21.111	0.166	0.132
-345.420	-178.358	0.176	-0.004
-344.406	-200.000	0.018	0.488
-343.391	64.155	0.113	0.112
-342.377	-135.900	0.219	-0.025
-341.362	-200.000	-0.073	0.324
-340.348	-58.621	0.021	-0.009
-339.333	108.834	0.030	-0.035
-338.318	-88.890	-0.301	0.088
-337.304	13.531	0.223	0.170
-336.289	-93.296	0.357	-0.097
-335.275	-200.000	-0.059	-0.328
-334.260	-38.717	-0.145	0.075
-333.245	-134.749	-0.258	0.031
-332.231	-200.000	0.034	-0.236
-331.216	156.893	-0.078	0.106
-330.202	-96.946	-0.434	-0.112
-329.187	455.336	0.051	0.112
-328.172	404.053	-0.133	-0.275
-327.158	800.000	-0.051	-0.146
-326.143	542.260	0.029	-0.068
-325.129	56.255	0.156	0.149
-324.114	-17.714	-0.203	0.125
-323.099	-16.937	0.194	-0.120
-322.085	661.107	-0.163	0.411
-321.070	-16.022	0.110	0.069
-320.056	-136.770	0.304	-0.034
-319.041	800.000	-0.068	-0.223
-318.026	30.634	-0.222	-0.186
-317.012	402.828	0.190	-0.392
-315.997	-165.159	0.240	-0.010
-314.983	-200.000	-0.008	0.056
-313.968	98.690	-0.102	0.116
-312.953	398.900	0.031	0.064
-311.939	-200.000	0.012	0.367
-310.924	-54.645	0.320	-0.142
-309.910	-60.405	0.094	0.039
-308.895	61.125	-0.012	0.012
-307.880	-200.000	-0.053	0.389
-306.866	800.000	-0.082	0.344
-305.851	-62.601	0.143	0.058
-304.837	800.000	-0.030	-0.084
-303.822	11.657	0.048	-0.036
-302.807	-151.832	0.073	-0.005
-301.793	-200.000	-0.026	-0.320
-300.778	11.830	-0.262	0.197
-299.764	117.894	0.072	-0.087
-298.749	217.311	-0.107	0.167
-297.735	110.426	-0.237	0.280
-296.720	-200.000	-0.005	0.140
-295.705	800.000	-0.019	0.071
-294.691	121.329	0.121	0.148
-293.676	-180.854	0.114	-0.002
-292.662	-28.877	0.032	0.018
-291.647	-100.052	0.206	0.050
-290.632	-100.379	0.365	-0.089
-289.618	800.000	0.092	-0.323
-288.603	36.832	0.252	-0.218
-287.589	800.000	-0.030	-0.102
-286.574	-200.000	-0.051	0.273
-285.559	1.755	-0.303	0.214
-284.545	-144.665	0.266	0.024
-283.530	-33.861	0.175	-0.094
-282.516	-73.282	0.119	0.043
-281.501	150.443	0.109	-0.145
-280.486	800.000	0.109	-0.456
-279.472	175.329	0.074	0.106
-278.457	503.905	0.112	0.254
-277.443	-91.904	-0.255	0.071
-276.428	-200.000	0.143	0.000
-275.413	-200.000	-0.030	0.282
-274.399	-200.000	-0.030	-0.168
-273.384	454.251	0.102	-0.222
-272.370	-67.575	0.164	-0.063
-271.355	-112.028	-0.420	0.083
-270.340	-29.173	-0.360	0.203
-269.326	-141.643	0.254	0.025
-268.311	114.743	-0.089	0.106
-267.297	-182.466	-0.089	0.002
-266.282	173.402	0.119	-0.168
-265.267	168.764	0.208	0.291
-264.253	257.916	-0.054	0.091
-263.238	-137.910	0.107	-0.012
-262.224	-100.616	-0.300	-0.073
-261.209	-83.937	0.344	0.107
-260.195	-17.785	-0.330	-0.203
-259.180	631.254	0.040	-0.100
-258.165	84.366	0.156	-0.167
-257.151	18.801	-0.143	0.113
-256.136	-175.487	0.082	0.002
-255.122	-142.548	0.214	0.021
-254.107	-200.000	-0.018	-0.124
-253.092	-132.338	-0.120	0.015
-252.078	16.294	-0.119	0.092
-251.063	-65.945	-0.416	0.163
-250.049	-200.000	0.011	-0.126
-249.034	-63.687	0.343	0.138
-248.019	-34.213	0.134	0.072
-247.005	140.293	0.072	0.093
-245.990	-53.869	-0.110	-0.049
-244.976	-36.697	0.181	0.095
-243.961	800.000	-0.024	0.084
-242.946	197.813	-0.098	-0.147
-241.932	65.124	0.115	0.114
-240.917	-78.219	0.220	0.074
-239.903	-200.000	-0.003	-0.091
-238.888	-108.638	0.177	0.037
-237.873	-105.259	0.148	0.033
-236.859	15.731	-0.060	0.046
-235.844	-6.904	0.249	0.166
-234.830	186.758	-0.068	-0.099
-233.815	-36.692	-0.333	-0.175
-232.800	800.000	-0.059	-0.189
-231.786	483.642	-0.082	-0.183
-230.771	-200.000	0.001	0.091
-229.757	223.528	-0.069	-0.109
-228.742	-23.293	-0.330	-0.194
-227.727	-131.596	0.126	-0.016
-226.713	78.100	-0.067	-0.070
-225.698	-200.000	0.060	0.332
-224.684	-6.513	-0.254	-0.169
-223.669	-82.881	0.214	0.068
-222.655	-200.000	-0.073	0.367
-221.640	168.940	-0.174	-0.243
-220.625	-37.695	-0.255	-0.133
-219.611	-42.564	-0.193	-0.096
-218.596	-200.000	-0.002	0.066
-217.582	-123.823	0.300	-0.046
-216.567	488.673	-0.050	-0.111
-215.552	-110.521	-0.319	-0.065
-214.538	260.695	0.084	-0.142
-213.523	-163.002	-0.388	0.018
-212.509	-166.722	-0.182	0.007
-211.494	-79.799	-0.135	0.044
-210.479	-84.306	-0.151	-0.047
-209.465	-175.468	0.088	0.002
-208.450	-200.000	0.010	-0.132
-207.436	-30.505	0.202	0.112
-206.421	647.915	0.113	0.282
-205.406	-200.000	-0.050	0.403
-204.392	22.599	0.142	0.113
-203.377	-15.499	-0.324	0.203
-202.363	27.943	0.271	0.224
-201.348	42.571	-0.315	-0.280
-200.333	-67.026	-0.283	-0.109
-199.319	76.095	-0.363	0.375
-198.304	-141.084	0.292	-0.029
-197.290	-78.108	0.075	-0.025
-196.275	342.788	0.202	-0.386
-195.260	800.000	-0.119	0.357
-194.246	-8.361	-0.121	-0.080
-193.231	-54.060	0.263	-0.117
-192.217	-56.339	0.269	0.117
-191.202	800.000	-0.022	0.094
-190.187	135.431	0.195	0.248
-189.173	300.840	0.073	-0.132
-188.158	374.844	0.048	-0.096
-187.144	-6.448	-0.019	-0.013
-186.129	-200.000	-0.065	0.391
-185.114	-17.337	0.075	-0.046
-184.100	-200.000	0.011	-0.155
-183.085	-164.338	-0.405	-0.018
-182.071	-200.000	0.032	0.337
-181.056	191.183	-0.165	0.243
-180.042	800.000	0.103	0.300
-179.027	-29.939	-0.200	0.111
-178.012	181.050	0.224	0.322
-176.998	1.612	0.143	0.100
-175.983	290.743	-0.144	-0.256
-174.969	800.000	-0.061	0.247
-173.954	77.412	0.228	-0.236
-172.939	-133.081	0.039	-0.005
-171.925	-200.000	-0.020	0.105
-170.910	-176.223	0.219	0.006
-169.896	800.000	0.073	-0.286
-168.881	20.119	-0.394	-0.311
-167.866	46.159	0.289	0.262
-166.852	17.669	0.263	-0.204
-165.837	764.049	0.059	0.155
-164.823	-118.705	-0.150	0.026
-163.808	800.000	0.041	0.150
-162.793	-200.000	-0.017	0.075
-161.779	800.000	0.042	-0.131
-160.764	412.916	-0.121	0.251
-159.750	106.742	0.078	0.090
-158.735	-17.565	0.173	-0.106
-157.720	16.225	-0.130	-0.100
-156.706	272.147	-0.108	-0.186
-155.691	584.925	-0.137	-0.328
-154.677	800.000	0.029	-0.088
-153.662	-20.136	0.065	-0.039
-152.647	52.884	0.204	0.191
-151.633	138.758	-0.103	-0.132
-150.618	-103.773	-0.443	-0.101
-149.604	800.000	0.075	0.221
-148.589	353.683	-0.126	0.245
-147.574	0.248	0.326	0.227
-146.560	0.239	-0.265	0.184
-145.545	-48.479	0.100	0.047
-144.531	-78.696	0.118	0.039
-143.516	-125.029	-0.205	0.031
-142.502	22.510	-0.139	0.111
-141.487	-200.000	-0.022	0.134
-140.472	-79.743	-0.015	0.005
-139.458	235.139	-0.010	-0.017
-138.443	-200.000	0.020	-0.344
-137.429	-123.014	0.257	0.040
-136.414	800.000	-0.092	0.392
-135.399	70.642	0.155	0.156
-134.385	372.775	-0.152	0.301
-133.370	-200.000	0.030	-0.188
-132.356	-200.000	0.058	-0.247
-131.341	197.109	-0.060	-0.089
-130.326	800.000	-0.058	0.210
-129.312	83.106	-0.163	-0.173
-128.297	-200.000	0.008	-0.049
-127.283	-2.087	-0.162	0.111
-126.268	312.078	0.075	0.137
-125.253	-200.000	-0.008	-0.337
-124.239	-53.831	-0.214	-0.095
-123.224	13.466	0.199	0.150
-122.210	-107.221	-0.086	0.018
-121.195	-98.175	0.256	-0.064
