DTS Sentinel unit serial number:	SN413079Multiplexer serial number:	ORYXHardware model number:	OX4-SRSoftware version number:	ORYX F/W v4.00 Oryx Data Collector v3.7.2.0data status	okinstallation	princeton_trtdifferential loss correction	single-endedforward channel	channel 2reverse channel	N/Adate	2019/09/16time	16:47:34forward acquisition time	60.00reverse acquisition time	0.00gamma	496.2192k internal	0.2304k external	0.2304temperature offset calibration	0.9943default loss term (dB/km)	0.3790temperature slope calibration	1.0000multiplexer offset coefficient	1.0000multiplexer slope coefficient	1.0000fibre end	0.00T internal ref (°C)	39.64T ext. ref 1 (°C)	15.19T ext. ref 2 (°C)	33.87length (m)	temperature (°C)	Stokes	anti-Stokes-747.200	-79.278	-0.436	-0.151
-746.185	-158.137	-0.276	-0.016
-745.171	-56.714	0.292	0.131
-744.156	-114.271	0.200	-0.039
-743.142	-200.000	0.070	0.415
-742.127	-200.000	-0.013	0.214
-741.112	-77.336	-0.109	0.038
-740.098	2.964	-0.329	0.243
-739.083	76.841	-0.269	0.290
-738.069	-113.903	-0.302	0.060
-737.054	44.671	-0.214	0.200
-736.039	800.000	-0.049	-0.169
-735.025	10.274	0.083	0.065
-734.010	46.070	0.240	-0.226
-732.996	-80.795	-0.121	-0.041
-731.981	-124.521	0.160	-0.025
-730.966	146.170	0.195	-0.266
-729.952	-158.448	-0.197	0.012
-728.937	-90.039	-0.059	-0.017
-727.923	-15.898	-0.172	0.112
-726.908	-148.044	-0.310	0.026
-725.894	-12.170	-0.111	0.074
-724.879	-114.606	-0.182	-0.035
-723.864	20.494	0.137	0.113
-722.850	800.000	-0.105	0.370
-721.835	70.648	0.112	0.118
-720.821	70.347	0.047	0.049
-719.806	12.642	-0.181	0.142
-718.791	800.000	-0.055	-0.187
-717.777	800.000	-0.084	0.258
-716.762	-30.136	-0.111	0.064
-715.748	-37.704	0.110	0.060
-714.733	55.890	0.123	-0.122
-713.718	16.666	0.123	-0.099
-712.704	-7.904	-0.360	-0.247
-711.689	800.000	0.065	-0.234
-710.675	-98.026	-0.109	-0.028
-709.660	107.963	-0.343	0.415
-708.645	222.589	0.141	-0.230
-707.631	128.709	-0.128	-0.166
-706.616	-58.662	-0.238	0.105
-705.602	-200.000	-0.064	0.508
-704.587	-40.425	-0.210	-0.111
-703.572	800.000	-0.047	0.169
-702.558	-139.860	0.126	-0.014
-701.543	800.000	-0.044	-0.148
-700.529	19.874	-0.175	0.143
-699.514	-48.661	0.187	-0.091
-698.499	-178.386	-0.421	0.010
-697.485	800.000	0.105	-0.386
-696.470	-74.160	0.247	-0.091
-695.456	64.844	0.130	-0.134
-694.441	-200.000	-0.014	-0.081
-693.426	-158.341	-0.151	-0.009
-692.412	-69.455	-0.134	0.052
-691.397	74.474	-0.302	0.323
-690.383	-164.354	-0.283	-0.013
-689.368	-71.437	0.046	0.018
-688.354	442.798	-0.017	0.038
-687.339	-38.908	0.130	0.070
-686.324	-7.741	0.047	0.032
-685.310	-44.516	0.256	-0.130
-684.295	82.860	-0.228	0.252
-683.281	-200.000	0.041	-0.244
-682.266	-99.337	0.306	-0.078
-681.251	402.944	0.102	-0.217
-680.237	220.539	0.069	-0.112
-679.222	167.440	-0.026	-0.037
-678.208	265.491	0.157	0.279
-677.193	-50.466	0.248	-0.119
-676.178	-77.171	0.279	-0.099
-675.164	-62.331	0.247	-0.104
-674.149	-200.000	-0.001	-0.235
-673.135	-200.000	0.019	-0.214
-672.120	16.259	0.059	0.047
-671.105	-179.942	0.267	0.006
-670.091	-100.113	-0.273	0.069
-669.076	322.156	-0.220	-0.426
-668.062	-94.979	0.167	-0.046
-667.047	288.729	0.140	0.257
-666.032	219.435	0.169	0.275
-665.018	-114.341	-0.257	0.050
-664.003	-200.000	0.060	-0.441
-662.989	103.550	0.146	-0.174
-661.974	-142.590	-0.345	0.034
-660.959	35.238	0.046	0.041
-659.945	-137.318	-0.262	0.030
-658.930	-200.000	0.006	0.046
-657.916	-173.792	-0.417	-0.013
-656.901	800.000	-0.022	0.081
-655.886	106.163	0.171	0.205
-654.872	-200.000	0.051	-0.388
-653.857	-1.911	0.149	-0.106
-652.843	-190.374	-0.255	0.003
-651.828	230.808	0.096	0.159
-650.814	-36.284	-0.250	-0.137
-649.799	167.472	-0.081	-0.116
-648.784	-90.719	-0.094	0.028
-647.770	324.403	0.030	-0.058
-646.755	-45.561	0.160	0.080
-645.741	98.095	-0.127	0.148
-644.726	800.000	-0.060	-0.179
-643.711	-86.963	0.091	0.028
-642.697	286.740	0.041	-0.076
-641.682	-38.233	0.066	-0.035
-640.668	137.545	0.144	-0.190
-639.653	25.827	0.051	0.043
-638.638	-144.024	-0.201	0.019
-637.624	155.832	0.102	0.143
-636.609	101.709	-0.090	0.106
-635.595	-25.005	-0.252	-0.152
-634.580	-187.308	0.389	-0.005
-633.565	15.962	0.104	-0.083
-632.551	-200.000	0.021	-0.542
-631.536	282.475	0.111	-0.201
-630.522	-40.932	-0.311	-0.163
-629.507	-69.952	-0.150	0.058
-628.492	-130.588	-0.348	0.048
-627.478	-200.000	0.010	-0.313
-626.463	-138.979	-0.058	-0.006
-625.449	-47.607	-0.112	0.055
-624.434	-75.381	0.193	-0.070
-623.419	-47.240	-0.248	0.122
-622.405	-101.341	-0.286	-0.071
-621.390	265.517	-0.162	0.286
-620.376	-9.878	0.207	0.140
-619.361	73.554	-0.173	-0.183
-618.346	90.996	-0.118	0.134
-617.332	132.508	-0.121	0.158
-616.317	-49.534	-0.338	-0.163
-615.303	-127.418	-0.348	0.051
-614.288	337.261	0.037	0.073
-613.273	-71.454	0.354	0.134
-612.259	-200.000	0.059	-0.296
-611.244	-200.000	-0.028	0.319
-610.230	74.304	0.083	0.088
-609.215	-74.471	-0.024	-0.009
-608.201	800.000	0.054	-0.209
-607.186	-177.151	0.139	-0.004
-606.171	328.026	0.205	0.397
-605.157	-87.717	0.471	-0.144
-604.142	606.424	-0.016	-0.041
-603.128	349.671	0.102	0.204
-602.113	35.743	-0.169	-0.151
-601.098	742.441	-0.098	-0.268
-600.084	28.908	-0.245	-0.210
-599.069	188.647	-0.113	0.171
-598.055	-14.290	0.153	0.100
-597.040	647.224	-0.038	-0.098
-596.025	155.577	0.067	0.094
-595.011	-200.000	0.069	-0.589
-593.996	-200.000	0.052	-0.278
-592.982	102.444	0.051	-0.060
-591.967	174.231	-0.041	-0.060
-590.952	160.801	0.052	-0.074
-589.938	-200.000	-0.012	-0.327
-588.923	-200.000	-0.006	-0.247
-587.909	-22.749	-0.091	-0.056
-586.894	-37.764	-0.356	-0.191
-585.879	800.000	-0.086	-0.289
-584.865	-98.243	-0.167	-0.043
-583.850	-200.000	-0.005	0.071
-582.836	-66.821	0.041	-0.016
-581.821	-129.812	0.372	-0.052
-580.806	24.098	-0.336	-0.281
-579.792	631.570	0.046	-0.117
-578.777	4.109	0.077	0.057
-577.763	800.000	0.052	0.155
-576.748	101.034	0.133	0.156
-575.733	-16.451	0.106	0.068
-574.719	-64.183	-0.221	0.091
-573.704	557.492	-0.007	-0.017
-572.690	-200.000	0.019	0.360
-571.675	3.937	0.063	-0.047
-570.661	67.634	0.308	-0.319
-569.646	83.929	0.144	-0.158
-568.631	800.000	0.012	0.041
-567.617	-99.805	0.131	0.033
-566.602	-200.000	0.005	0.027
-565.588	-200.000	-0.014	-0.113
-564.573	800.000	-0.124	0.404
-563.558	336.324	-0.094	0.185
-562.544	-200.000	-0.005	-0.100
-561.529	-89.624	-0.172	-0.051
-560.515	71.116	0.168	0.176
-559.500	-200.000	0.001	-0.024
-558.485	167.153	-0.077	-0.111
-557.471	800.000	0.074	-0.277
-556.456	-200.000	-0.006	0.029
-555.442	-104.261	-0.353	0.083
-554.427	85.235	0.060	0.067
-553.412	0.543	-0.141	-0.102
-552.398	-119.845	-0.268	0.047
-551.383	-70.595	0.446	0.170
-550.369	5.089	-0.256	0.190
-549.354	-200.000	-0.044	0.244
-548.339	196.742	0.056	-0.086
-547.325	800.000	0.021	-0.085
-546.310	-47.030	-0.317	0.156
-545.296	188.689	0.115	0.173
-544.281	800.000	-0.016	0.046
-543.266	216.791	0.079	0.126
-542.252	-200.000	0.029	-0.346
-541.237	560.137	0.036	-0.088
-540.223	800.000	-0.042	0.122
-539.208	-200.000	-0.017	0.095
-538.193	-200.000	-0.005	-0.175
-537.179	-12.981	-0.257	-0.169
-536.164	-1.241	0.413	-0.294
-535.150	-20.022	-0.076	-0.047
-534.135	-42.998	-0.132	0.068
-533.121	-144.069	0.103	-0.010
-532.106	800.000	-0.028	-0.115
-531.091	61.634	-0.074	-0.074
-530.077	196.073	0.155	-0.238
-529.062	219.176	0.057	0.092
-528.048	71.197	0.109	-0.114
-527.033	70.433	-0.015	0.016
-526.018	49.890	0.126	0.120
-525.004	-200.000	-0.008	-0.092
-523.989	-49.689	0.259	-0.124
-522.975	-64.784	-0.235	-0.096
-521.960	22.127	0.257	-0.212
-520.945	-79.288	-0.187	0.064
-519.931	410.832	0.036	0.077
-518.916	58.813	-0.244	-0.242
-517.902	800.000	-0.082	-0.231
-516.887	-125.228	0.171	-0.026
-515.872	134.970	-0.166	0.218
-514.858	46.236	-0.186	-0.174
-513.843	56.596	-0.359	0.353
-512.829	29.851	0.234	-0.201
-511.814	21.928	0.173	-0.142
-510.799	-121.224	-0.114	-0.019
-509.785	-161.131	-0.309	-0.016
-508.770	-62.039	-0.082	0.035
-507.756	800.000	-0.069	-0.304
-506.741	-53.469	0.096	-0.044
-505.726	-37.397	0.199	-0.107
-504.712	800.000	0.030	0.106
-503.697	-200.000	0.013	0.106
-502.683	-67.826	0.433	0.171
-501.668	-200.000	0.020	-0.205
-500.653	800.000	-0.097	-0.290
-499.639	-126.683	-0.143	0.021
-498.624	389.220	-0.130	0.272
-497.610	41.480	0.256	0.234
-496.595	9.936	-0.214	-0.163
-495.581	156.006	0.140	0.194
-494.566	171.620	-0.092	-0.133
-493.551	-137.176	-0.169	-0.019
-492.537	-200.000	0.065	-0.344
-491.522	-113.880	-0.104	0.020
-490.508	27.291	-0.210	0.178
-489.493	-70.626	0.244	0.093
-488.478	85.196	-0.124	0.137
-487.464	117.403	0.169	0.210
-486.449	76.948	-0.284	0.304
-485.435	-86.821	-0.262	-0.081
-484.420	800.000	0.061	-0.224
-483.405	-27.556	0.135	0.079
-482.391	310.734	-0.135	-0.254
-481.376	-81.397	0.191	0.063
-480.362	-200.000	-0.002	0.085
-479.347	65.462	0.102	-0.104
-478.332	-200.000	0.036	-0.210
-477.318	-54.101	-0.265	-0.121
-476.303	-47.700	0.199	-0.097
-475.289	615.268	0.085	0.214
-474.274	-200.000	-0.060	0.369
-473.259	-26.202	0.047	0.028
-472.245	97.505	0.205	-0.238
-471.230	-148.645	-0.303	0.025
-470.216	-26.995	-0.150	0.088
-469.201	-200.000	0.020	-0.152
-468.186	305.717	-0.186	-0.349
-467.172	-200.000	0.018	-0.178
-466.157	279.173	0.203	0.365
-465.143	-56.222	-0.312	0.140
-464.128	75.566	-0.088	0.093
-463.113	-168.993	0.129	-0.005
-462.099	800.000	-0.074	-0.280
-461.084	-65.589	0.340	-0.137
-460.070	-157.384	-0.242	0.015
-459.055	-64.864	-0.382	0.156
-458.040	-200.000	-0.026	-0.204
-457.026	-37.202	0.253	0.136
-456.011	800.000	0.068	0.210
-454.997	3.103	0.186	0.136
-453.982	-88.101	0.147	-0.045
-452.968	22.321	0.156	-0.128
-451.953	281.464	0.086	0.155
-450.938	-21.954	0.145	-0.089
-449.924	-33.840	0.315	0.175
-448.909	-163.823	0.342	-0.016
-447.895	-4.716	0.361	-0.251
-446.880	232.584	-0.218	-0.360
-445.865	-156.892	-0.281	0.017
-444.851	-85.031	-0.087	-0.027
-443.836	-127.702	-0.050	-0.007
-442.822	-133.823	-0.052	0.007
-441.807	-200.000	0.052	0.319
-440.792	-121.801	-0.196	-0.033
-439.778	786.184	-0.084	0.232
-438.763	-45.019	0.150	0.075
-437.749	-93.048	0.185	-0.052
-436.734	-67.922	0.102	-0.040
-435.719	-21.655	-0.351	0.215
-434.705	-200.000	-0.019	0.087
-433.690	220.694	-0.093	0.149
-432.676	55.915	-0.128	-0.124
-431.661	-92.680	0.318	0.090
-430.646	800.000	-0.112	-0.408
-429.632	-39.952	0.371	0.195
-428.617	-14.770	-0.317	0.204
-427.603	139.625	-0.167	0.222
-426.588	-106.368	-0.157	0.035
-425.573	800.000	0.105	-0.318
-424.559	-200.000	0.000	0.158
-423.544	-169.332	-0.137	0.005
-422.530	134.642	-0.112	-0.146
-421.515	8.223	-0.102	-0.077
-420.500	-70.757	0.114	-0.043
-419.486	-124.647	0.352	0.055
-418.471	636.041	0.078	0.200
-417.457	-98.963	0.453	0.115
-416.442	614.890	0.026	0.066
-415.428	194.947	-0.076	-0.116
-414.413	-100.497	0.286	-0.071
-413.398	-200.000	-0.002	-0.466
-412.384	370.757	-0.147	-0.300
-411.369	101.021	-0.073	-0.086
-410.355	-140.243	-0.156	-0.016
-409.340	-200.000	0.009	-0.266
-408.325	-167.009	-0.530	-0.022
-407.311	800.000	0.059	-0.201
-406.296	489.561	0.121	-0.277
-405.282	800.000	0.075	0.241
-404.267	77.599	0.283	-0.302
-403.252	125.697	0.073	-0.093
-402.238	-26.194	0.115	0.068
-401.223	137.522	-0.215	0.282
-400.209	-152.545	-0.094	-0.007
-399.194	373.946	0.138	0.283
-398.179	-43.355	0.127	0.064
-397.165	800.000	0.067	-0.232
-396.150	-7.410	0.262	-0.178
-395.136	-200.000	0.022	0.270
-394.121	-9.339	-0.248	-0.166
-393.106	-18.977	-0.097	0.061
-392.092	249.925	-0.129	-0.220
-391.077	-82.913	0.237	-0.077
-390.063	737.459	0.073	0.198
-389.048	-200.000	-0.005	-0.144
-388.033	211.526	0.108	-0.171
-387.019	69.433	0.242	-0.250
-386.004	-200.000	0.003	0.296
-384.990	78.542	-0.078	0.084
-383.975	343.998	-0.119	0.233
-382.960	267.789	0.065	0.115
-381.946	-147.276	0.088	-0.008
-380.931	229.059	-0.170	-0.278
-379.917	174.408	0.106	0.154
-378.902	-200.000	0.047	-0.374
-377.888	68.111	-0.288	-0.296
-376.873	159.070	-0.080	0.112
-375.858	-76.451	0.139	-0.049
-374.844	59.440	-0.116	-0.114
-373.829	15.635	-0.289	0.228
-372.815	-40.804	0.108	-0.056
-371.800	7.572	0.228	0.171
-370.785	-67.943	-0.184	0.072
-369.771	-200.000	-0.017	0.221
-368.756	-173.908	0.246	0.007
-367.742	-42.945	0.147	-0.075
-366.727	800.000	-0.092	0.334
-365.712	-94.043	0.352	-0.097
-364.698	91.477	0.124	-0.140
-363.683	71.491	0.340	0.354
-362.669	-105.943	-0.383	0.087
-361.654	24.101	0.159	-0.132
-360.639	-117.046	0.291	0.053
-359.625	-62.267	0.050	-0.021
-358.610	-72.033	-0.446	0.166
-357.596	-69.977	0.250	-0.095
-356.581	41.358	-0.143	-0.130
-355.566	215.719	-0.094	0.150
-354.552	-151.604	-0.160	0.012
-353.537	-147.784	0.268	0.022
-352.523	-200.000	0.011	0.059
-351.508	340.164	0.125	0.244
-350.493	-145.490	-0.274	0.025
-349.479	-36.666	-0.183	0.099
-348.464	-99.143	0.039	0.010
-347.450	800.000	-0.078	0.272
-346.435	-200.000	-0.049	0.249
-345.420	179.652	0.129	0.190
-344.406	-1.177	0.537	0.380
-343.391	-90.938	-0.288	-0.083
-342.377	-64.214	-0.244	-0.100
-341.362	-200.000	-0.052	0.259
-340.348	-150.825	0.107	0.008
-339.333	800.000	0.060	0.191
-338.318	198.578	0.074	-0.114
-337.304	194.915	0.017	-0.026
-336.289	-97.259	-0.077	0.020
-335.275	-0.770	-0.203	0.144
-334.260	-164.597	-0.216	0.010
-333.245	32.432	0.183	0.158
-332.231	-19.173	-0.118	-0.073
-331.216	-200.000	-0.016	0.081
-330.202	371.993	-0.126	-0.257
-329.187	261.224	0.113	-0.196
-328.172	16.654	0.235	0.186
-327.158	-107.681	0.061	0.013
-326.143	-28.260	-0.088	-0.051
-325.129	-61.151	0.233	0.098
-324.114	15.657	0.129	0.101
-323.099	307.637	0.123	0.230
-322.085	-42.091	-0.134	-0.069
-321.070	-161.803	0.229	-0.012
-320.056	-176.903	0.152	-0.004
-319.041	-200.000	-0.009	-0.060
-318.026	-155.067	-0.208	0.014
-317.012	781.304	-0.049	-0.134
-315.997	-102.701	-0.302	0.072
-314.983	-97.718	-0.166	0.043
-313.968	-19.599	-0.042	-0.026
-312.953	165.553	0.169	-0.239
-311.939	186.921	-0.051	-0.076
-310.924	280.943	-0.109	-0.194
-309.910	-156.712	0.396	0.024
-308.895	153.059	-0.087	0.119
-307.880	-29.583	0.054	-0.031
-306.866	800.000	-0.036	0.114
-305.851	272.532	-0.212	0.374
-304.837	94.096	-0.230	0.261
-303.822	217.615	0.155	0.247
-302.807	-200.000	-0.018	0.161
-301.793	-200.000	0.122	0.000
-300.778	-80.667	0.112	-0.037
-299.764	477.452	-0.112	0.254
-298.749	552.055	-0.078	-0.188
-297.735	800.000	0.066	-0.265
-296.720	-19.580	-0.169	0.105
-295.705	-200.000	-0.039	0.185
-294.691	-200.000	-0.069	-0.447
-293.676	-114.712	0.153	0.029
-292.662	336.986	-0.137	0.266
-291.647	200.646	-0.235	-0.361
-290.632	-54.838	0.213	0.096
-289.618	-200.000	0.038	0.192
-288.603	-26.523	0.285	-0.167
-287.589	-200.000	-0.001	-0.190
-286.574	156.910	0.015	-0.020
-285.559	23.890	0.137	0.113
-284.545	800.000	-0.066	0.221
-283.530	21.672	0.272	-0.221
-282.516	662.410	0.115	-0.297
-281.501	350.304	-0.183	0.361
-280.486	-34.893	0.124	0.068
-279.472	-15.950	-0.378	-0.240
-278.457	-78.499	-0.444	0.152
-277.443	-200.000	0.002	0.045
-276.428	125.541	0.199	0.250
-275.413	12.191	-0.260	0.200
-274.399	272.848	0.051	-0.090
-273.384	-26.022	0.365	-0.214
-272.370	-200.000	0.000	-0.113
-271.355	120.861	-0.078	-0.097
-270.340	-160.069	0.138	-0.008
-269.326	-88.273	0.236	-0.070
-268.311	336.361	-0.060	0.116
-267.297	-200.000	-0.013	0.221
-266.282	207.826	-0.086	-0.134
-265.267	-200.000	0.008	-0.157
-264.253	800.000	-0.041	0.176
-263.238	-200.000	0.002	-0.018
-262.224	227.376	-0.081	0.131
-261.209	-200.000	-0.015	0.272
-260.195	-64.357	-0.077	0.031
-259.180	-55.418	-0.338	0.151
-258.165	-57.345	-0.276	-0.121
-257.151	5.026	0.151	0.111
-256.136	-162.416	-0.258	0.013
-255.122	-200.000	0.063	0.427
-254.107	157.100	0.053	0.073
-253.092	800.000	0.030	0.083
-252.078	17.937	-0.255	0.203
-251.063	533.063	0.070	0.166
-250.049	-21.613	-0.311	0.189
-249.034	-103.485	-0.490	-0.115
-248.019	-76.652	0.350	-0.123
-247.005	-2.436	0.078	-0.054
-245.990	-6.075	-0.184	-0.126
-244.976	317.777	0.125	0.237
-243.961	-86.812	-0.037	0.011
-242.946	268.728	0.161	-0.282
-241.932	57.049	0.205	0.199
-240.917	-200.000	0.019	0.227
-239.903	-200.000	0.063	0.453
-238.888	-50.077	0.326	0.154
-237.873	-200.000	0.061	0.454
-236.859	-200.000	-0.005	0.127
-235.844	139.663	0.070	-0.091
-234.830	84.331	-0.123	-0.134
-233.815	0.012	0.219	0.155
-232.800	-200.000	0.016	0.078
-231.786	-136.752	0.153	-0.018
-230.771	-103.786	-0.131	0.031
-229.757	211.309	-0.099	-0.155
-228.742	-200.000	-0.026	-0.147
-227.727	244.469	-0.137	-0.230
-226.713	-43.394	0.043	-0.022
-225.698	290.034	0.093	0.168
-224.684	59.936	0.105	0.104
-223.669	190.753	0.045	-0.068
-222.655	-147.240	-0.272	-0.023
-221.640	-200.000	-0.055	-0.271
-220.625	-9.808	0.038	-0.025
-219.611	701.532	-0.064	0.167
-218.596	-200.000	-0.008	0.060
-217.582	30.158	-0.062	-0.053
-216.567	213.745	-0.150	0.236
-215.552	-20.804	0.152	-0.093
-214.538	-200.000	0.013	0.149
-213.523	36.922	0.077	-0.068
-212.509	800.000	0.054	-0.180
-211.494	-200.000	-0.006	-0.332
-210.479	621.171	0.087	-0.218
-209.465	-151.401	0.381	-0.028
-208.450	288.879	-0.190	0.344
-207.436	-18.712	0.227	-0.141
-206.421	-125.437	0.305	0.046
-205.406	205.296	0.058	0.091
-204.392	113.246	0.256	0.310
-203.377	-124.732	-0.134	-0.021
-202.363	-146.732	-0.380	0.033
-201.348	800.000	0.049	0.168
-200.333	-200.000	-0.027	0.156
-199.319	-170.537	0.249	0.009
-198.304	-13.744	-0.116	-0.074
-197.290	-156.405	0.219	-0.014
-196.275	-200.000	0.050	-0.361
-195.260	-142.712	-0.373	0.036
-194.246	-75.268	-0.025	-0.009
-193.231	-162.057	-0.076	-0.004
-192.217	-200.000	0.021	0.156
-191.202	23.179	-0.165	0.135
-190.187	-120.337	0.285	-0.048
-189.173	-5.858	-0.128	-0.087
-188.158	17.569	0.055	-0.044
-187.144	279.307	-0.089	-0.158
-186.129	136.494	0.019	-0.025
-185.114	77.407	-0.082	-0.087
-184.100	800.000	-0.054	-0.209
-183.085	163.424	0.095	-0.133
-182.071	-200.000	-0.020	-0.110
-181.056	-18.216	-0.143	-0.089
-180.042	91.538	0.119	-0.133
-179.027	311.362	-0.112	-0.210
-178.012	55.660	0.203	0.196
-176.998	170.146	-0.086	-0.123
-175.983	65.869	-0.212	0.214
-174.969	-99.982	0.193	0.048
-173.954	282.413	0.107	-0.190
-172.939	-83.651	-0.522	-0.166
-171.925	-110.174	0.117	-0.024
-170.910	-52.539	0.165	0.076
-169.896	-200.000	0.028	-0.281
-168.881	-42.874	-0.088	-0.045
-167.866	-176.117	-0.181	0.005
-166.852	800.000	-0.031	0.119
-165.837	169.623	-0.076	-0.108
-164.823	-152.219	-0.075	0.005
-163.808	593.189	0.124	0.304
-162.793	151.065	-0.065	-0.089
-161.779	800.000	0.027	-0.095
-160.764	800.000	0.086	-0.354
-159.750	187.640	0.061	0.091
-158.735	-57.175	0.187	0.082
-157.720	800.000	-0.043	0.162
-156.706	287.916	0.095	0.171
-155.691	178.979	0.056	0.081
-154.677	-77.654	-0.305	0.105
-153.662	-51.022	0.189	0.088
-152.647	-103.212	0.281	0.066
-151.633	121.257	0.160	0.198
-150.618	-101.992	0.119	0.029
-149.604	51.894	0.130	0.123
-148.589	-200.000	-0.012	-0.305
-147.574	26.619	-0.343	-0.286
-146.560	43.815	-0.401	0.365
-145.545	8.728	0.185	0.139
-144.531	31.610	-0.165	-0.141
-143.516	-6.815	-0.051	-0.034
-142.502	1.615	-0.052	-0.037
-141.487	-200.000	0.061	0.323
-140.472	-53.616	-0.142	0.065
-139.458	72.864	-0.188	0.195
-138.443	510.510	-0.138	-0.318
-137.429	-157.885	0.245	-0.014
-136.414	160.098	0.116	-0.160
-135.399	-97.461	-0.158	-0.041
-134.385	-47.054	0.149	-0.072
-133.370	-25.356	-0.308	0.181
-132.356	800.000	0.102	0.292
-131.341	-144.210	-0.163	0.015
-130.326	82.094	-0.137	0.148
-129.312	139.830	-0.233	0.305
-128.297	74.951	-0.055	0.058
-127.283	800.000	0.157	-0.457
-126.268	-69.134	0.142	-0.054
-125.253	-151.691	0.284	-0.021
-124.239	-200.000	0.061	0.389
-123.224	-55.407	-0.347	0.155
-122.210	-194.516	0.257	-0.002
-121.195	-200.000	0.015	-0.194
-120.180	89.173	-0.109	0.121
