DTS Sentinel unit serial number:	SN413079Multiplexer serial number:	ORYXHardware model number:	OX4-SRSoftware version number:	ORYX F/W v4.00 Oryx Data Collector v3.7.2.0data status	okinstallation	princeton_trtdifferential loss correction	single-endedforward channel	channel 2reverse channel	N/Adate	2019/09/18time	09:47:35forward acquisition time	60.00reverse acquisition time	0.00gamma	496.2192k internal	0.2335k external	0.2335temperature offset calibration	0.9976default loss term (dB/km)	0.3790temperature slope calibration	1.0000multiplexer offset coefficient	1.0000multiplexer slope coefficient	1.0000fibre end	0.00T internal ref (°C)	27.00T ext. ref 1 (°C)	0.28T ext. ref 2 (°C)	23.59length (m)	temperature (°C)	Stokes	anti-Stokes-747.200	800.000	-0.080	-0.258
-746.185	-181.536	-0.289	0.006
-745.171	-134.898	0.056	-0.007
-744.156	-200.000	-0.010	0.302
-743.142	216.775	0.032	0.052
-742.127	617.552	-0.127	-0.319
-741.112	37.869	0.141	0.126
-740.098	-66.828	-0.223	0.088
-739.083	19.528	0.245	0.198
-738.069	-70.635	-0.091	0.035
-737.054	-200.000	-0.011	0.113
-736.039	800.000	-0.057	0.240
-735.025	41.952	0.206	-0.188
-734.010	-46.176	-0.339	-0.168
-732.996	-200.000	-0.054	0.334
-731.981	316.318	0.120	0.227
-730.966	-200.000	0.030	-0.440
-729.952	22.382	-0.057	-0.047
-728.937	-55.206	-0.203	0.092
-727.923	800.000	0.035	0.133
-726.908	-115.053	-0.269	0.051
-725.894	-144.716	-0.114	0.011
-724.879	-200.000	-0.049	-0.370
-723.864	-106.689	-0.259	0.058
-722.850	-41.992	-0.239	-0.123
-721.835	12.931	-0.085	-0.066
-720.821	127.916	0.163	0.207
-719.806	-200.000	0.053	-0.303
-718.791	-83.274	-0.174	-0.056
-717.777	41.084	0.086	0.078
-716.762	-174.571	-0.310	-0.009
-715.748	-93.419	0.266	-0.074
-714.733	115.619	-0.322	-0.396
-713.718	-95.082	-0.086	-0.023
-712.704	-57.731	-0.133	0.059
-711.689	328.336	0.205	-0.395
-710.675	-70.810	-0.196	-0.074
-709.660	-200.000	-0.113	-0.535
-708.645	-200.000	-0.008	0.039
-707.631	-115.622	-0.371	-0.070
-706.616	-91.917	-0.303	0.086
-705.602	-76.074	0.283	0.100
-704.587	-200.000	-0.007	-0.166
-703.572	-6.332	-0.134	0.092
-702.558	800.000	0.130	0.448
-701.543	35.872	-0.056	0.050
-700.529	-124.818	0.544	-0.084
-699.514	-80.210	0.220	0.074
-698.499	-200.000	0.017	-0.190
-697.485	612.497	0.030	0.074
-696.470	800.000	-0.033	0.129
-695.456	-126.508	0.430	-0.064
-694.441	-96.941	0.049	0.013
-693.426	70.217	-0.205	-0.212
-692.412	-52.689	-0.275	-0.127
-691.397	-22.574	-0.206	-0.125
-690.383	776.100	-0.122	0.335
-689.368	-200.000	-0.034	-0.346
-688.354	40.342	-0.328	-0.296
-687.339	-62.676	0.132	0.055
-686.324	22.676	-0.106	-0.087
-685.310	-115.536	-0.317	0.060
-684.295	360.423	-0.043	0.087
-683.281	-200.000	-0.015	-0.142
-682.266	467.960	-0.051	-0.114
-681.251	13.066	0.100	-0.078
-680.237	-200.000	0.007	-0.142
-679.222	800.000	0.023	-0.068
-678.208	112.765	0.046	0.056
-677.193	76.128	-0.258	-0.273
-676.178	-6.293	-0.216	-0.147
-675.164	292.371	-0.155	-0.282
-674.149	-110.528	0.239	0.050
-673.135	12.702	-0.190	-0.147
-672.120	11.519	-0.344	-0.264
-671.105	-200.000	0.052	0.231
-670.091	393.486	0.036	0.074
-669.076	-174.191	0.101	-0.003
-668.062	145.105	0.076	-0.101
-667.047	-200.000	-0.027	0.244
-666.032	-135.754	-0.228	0.027
-665.018	-81.321	0.155	0.051
-664.003	800.000	-0.101	-0.285
-662.989	-200.000	-0.015	-0.082
-661.974	-66.101	-0.076	0.030
-660.959	279.385	0.112	0.201
-659.945	-107.225	-0.020	0.004
-658.930	225.687	0.109	-0.176
-657.916	14.514	0.284	-0.222
-656.901	399.834	-0.113	-0.237
-655.886	50.137	-0.237	-0.224
-654.872	-17.307	0.174	0.110
-653.857	800.000	0.086	0.273
-652.843	800.000	0.044	0.149
-651.828	-93.813	-0.380	0.105
-650.814	-200.000	-0.011	0.139
-649.799	153.184	-0.147	-0.201
-648.784	109.911	-0.098	-0.118
-647.770	-58.036	0.077	0.034
-646.755	-6.393	0.098	0.067
-645.741	-200.000	0.008	0.147
-644.726	32.250	0.109	-0.094
-643.711	436.018	0.053	-0.116
-642.697	-153.089	0.295	-0.021
-641.682	-40.065	0.137	0.071
-640.668	-181.071	-0.399	-0.008
-639.653	-46.296	0.198	-0.097
-638.638	-0.682	-0.052	0.037
-637.624	122.383	-0.131	0.163
-636.609	155.802	0.042	0.057
-635.595	-46.745	0.174	0.085
-634.580	-3.348	-0.288	-0.201
-633.565	-84.791	-0.213	0.067
-632.551	121.408	-0.111	-0.138
-631.536	104.261	0.031	-0.036
-630.522	188.282	0.176	-0.263
-629.507	274.670	0.132	-0.234
-628.492	-149.886	0.242	-0.019
-627.478	-26.235	0.253	-0.149
-626.463	800.000	-0.133	-0.415
-625.449	67.705	-0.031	0.031
-624.434	-77.848	0.126	-0.043
-623.419	4.160	-0.354	-0.259
-622.405	-80.590	0.349	-0.116
-621.390	800.000	0.126	-0.396
-620.376	21.412	-0.281	-0.228
-619.361	495.742	0.076	0.175
-618.346	-83.997	0.253	0.081
-617.332	96.831	-0.203	0.233
-616.317	-194.279	-0.021	0.000
-615.303	-160.235	-0.184	0.010
-614.288	-200.000	0.009	0.167
-613.273	34.894	-0.223	-0.195
-612.259	-54.944	-0.278	-0.125
-611.244	-12.945	-0.126	-0.082
-610.230	281.428	0.007	0.013
-609.215	800.000	0.066	-0.217
-608.201	304.934	0.115	0.214
-607.186	6.889	0.134	0.100
-606.171	-110.158	-0.039	0.008
-605.157	-200.000	0.032	-0.200
-604.142	118.737	-0.066	0.082
-603.128	32.736	-0.030	0.026
-602.113	800.000	0.071	-0.241
-601.098	18.661	-0.154	-0.123
-600.084	205.182	-0.155	0.241
-599.069	800.000	0.044	0.187
-598.055	-28.527	0.138	0.080
-597.040	-200.000	0.007	0.202
-596.025	-9.633	0.093	0.062
-595.011	-87.983	-0.189	-0.057
-593.996	-200.000	0.032	0.180
-592.982	90.748	-0.249	0.278
-591.967	215.588	0.092	-0.146
-590.952	-182.664	-0.268	-0.005
-589.938	-69.590	0.224	-0.086
-588.923	-50.430	0.219	-0.103
-587.909	-200.000	0.018	0.223
-586.894	-142.132	-0.222	0.022
-585.879	44.926	-0.220	-0.202
-584.865	-71.012	0.280	0.105
-583.850	-43.747	-0.116	0.058
-582.836	2.744	-0.187	-0.136
-581.821	239.313	-0.048	0.080
-580.806	-28.532	-0.099	-0.057
-579.792	-200.000	-0.023	-0.253
-578.777	-78.999	0.107	-0.036
-577.763	4.067	0.074	0.054
-576.748	-112.090	-0.069	-0.014
-575.733	-105.097	-0.298	0.068
-574.719	-129.214	-0.226	-0.031
-573.704	29.696	-0.310	-0.263
-572.690	305.681	0.134	0.248
-571.675	800.000	0.110	-0.316
-570.661	86.913	0.159	-0.176
-569.646	-200.000	0.011	0.053
-568.631	-1.081	-0.195	0.137
-567.617	164.606	-0.097	-0.137
-566.602	-200.000	0.016	-0.157
-565.588	-200.000	0.003	0.120
-564.573	115.768	0.145	-0.177
-563.558	98.468	-0.041	0.047
-562.544	15.671	0.136	0.107
-561.529	587.896	0.027	-0.067
-560.515	-173.501	0.147	-0.004
-559.500	-70.329	-0.416	0.157
-558.485	-34.441	0.158	-0.086
-557.471	-200.000	0.010	-0.176
-556.456	95.497	-0.165	0.187
-555.442	789.884	0.065	-0.179
-554.427	80.187	0.140	0.150
-553.412	-131.480	-0.171	-0.023
-552.398	-38.963	0.062	0.032
-551.383	-51.023	-0.213	-0.100
-550.369	-89.928	-0.174	0.051
-549.354	210.490	-0.111	0.175
-548.339	38.575	-0.169	0.150
-547.325	-20.296	0.079	-0.049
-546.310	586.488	0.041	-0.100
-545.296	-110.838	-0.223	-0.046
-544.281	51.035	0.222	0.210
-543.266	-113.636	-0.220	0.043
-542.252	-52.313	-0.177	0.082
-541.237	-127.986	0.283	0.041
-540.223	-25.843	-0.309	0.182
-539.208	-66.445	-0.191	-0.076
-538.193	-44.466	-0.201	-0.100
-537.179	109.387	-0.114	-0.136
-536.164	800.000	-0.044	-0.129
-535.150	-200.000	0.003	0.274
-534.135	233.943	-0.074	0.121
-533.121	-66.585	-0.497	-0.196
-532.106	800.000	-0.024	-0.080
-531.091	492.200	0.117	-0.268
-530.077	382.024	-0.113	-0.232
-529.062	118.552	-0.069	-0.085
-528.048	-82.971	-0.368	0.118
-527.033	544.338	0.189	-0.449
-526.018	-200.000	0.012	-0.409
-525.004	493.889	-0.102	0.233
-523.989	-120.337	-0.400	-0.068
-522.975	128.511	-0.127	0.161
-521.960	490.518	-0.089	-0.202
-520.945	244.618	0.137	-0.230
-519.931	-200.000	-0.003	-0.042
-518.916	140.080	-0.134	-0.175
-517.902	-200.000	0.000	-0.149
-516.887	-91.944	-0.104	0.029
-515.872	99.358	-0.021	-0.024
-514.858	-198.880	-0.266	-0.001
-513.843	243.117	0.020	-0.033
-512.829	469.311	-0.054	0.122
-511.814	474.699	-0.167	0.374
-510.799	800.000	-0.100	-0.360
-509.785	-125.984	-0.314	-0.047
-508.770	-34.637	-0.362	-0.197
-507.756	616.066	0.088	0.219
-506.741	66.621	0.265	0.269
-505.726	-69.794	0.058	-0.022
-504.712	800.000	0.014	0.046
-503.697	-200.000	0.092	-0.430
-502.683	72.328	0.113	0.117
-501.668	742.618	0.084	0.223
-500.653	800.000	0.053	-0.207
-499.639	800.000	-0.059	-0.223
-498.624	189.161	0.214	-0.319
-497.610	-61.070	-0.035	0.015
-496.595	569.442	0.061	0.147
-495.581	239.301	0.063	0.104
-494.566	-66.540	0.149	0.059
-493.551	51.360	0.186	-0.176
-492.537	-110.265	-0.183	0.038
-491.522	289.171	-0.126	0.227
-490.508	42.921	0.215	0.195
-489.493	237.024	-0.102	-0.169
-488.478	106.760	0.018	-0.021
-487.464	-159.959	-0.248	-0.013
-486.449	-200.000	0.051	-0.303
-485.435	-200.000	-0.025	-0.245
-484.420	-20.811	0.262	0.160
-483.405	-166.915	-0.062	0.003
-482.391	800.000	-0.129	-0.370
-481.376	-146.320	-0.339	-0.029
-480.362	-148.950	0.074	0.006
-479.347	800.000	0.061	0.217
-478.332	782.749	0.075	-0.205
-477.318	-200.000	0.071	0.405
-476.303	-124.234	-0.167	-0.026
-475.289	-92.290	-0.132	0.037
-474.274	353.487	0.211	-0.416
-473.259	-175.978	0.134	-0.004
-472.245	22.365	0.130	0.106
-471.230	-184.883	-0.246	0.004
-470.216	561.306	-0.140	0.337
-469.201	-128.308	-0.216	0.031
-468.186	-200.000	0.008	-0.163
-467.172	-92.315	0.099	-0.028
-466.157	23.282	-0.102	0.084
-465.143	55.793	-0.353	0.340
-464.128	361.584	-0.067	0.133
-463.113	687.079	-0.030	-0.077
-462.099	20.298	0.087	0.070
-461.084	-55.749	-0.235	0.105
-460.070	-79.731	0.089	0.030
-459.055	-128.553	-0.114	-0.016
-458.040	69.489	0.117	0.120
-457.026	-200.000	-0.001	-0.077
-456.011	800.000	0.061	-0.208
-454.997	-126.786	0.327	-0.048
-453.982	-163.755	-0.051	0.002
-452.968	515.838	-0.070	-0.162
-451.953	-151.359	0.200	-0.015
-450.938	-106.422	0.402	-0.089
-449.924	-138.617	0.272	-0.030
-448.909	-108.093	0.253	-0.054
-447.895	30.318	0.332	-0.282
-446.880	-36.005	-0.231	0.124
-445.865	-200.000	-0.012	0.055
-444.851	-200.000	0.020	-0.249
-443.836	-98.735	-0.032	-0.008
-442.822	800.000	0.019	-0.075
-441.807	-98.174	-0.178	0.045
-440.792	-200.000	0.029	-0.191
-439.778	-200.000	-0.033	0.207
-438.763	-91.268	0.109	0.031
-437.749	-90.980	-0.091	0.026
-436.734	-200.000	-0.026	0.142
-435.719	800.000	0.041	-0.137
-434.705	-123.433	0.667	-0.105
-433.690	-120.795	-0.200	0.034
-432.676	-111.359	-0.459	0.093
-431.661	67.483	0.102	0.104
-430.646	-157.175	0.300	-0.018
-429.632	-99.265	0.235	0.059
-428.617	601.342	0.059	0.145
-427.603	608.352	0.017	0.042
-426.588	-65.106	0.067	-0.027
-425.573	258.241	-0.176	0.300
-424.559	800.000	-0.089	-0.296
-423.544	800.000	0.072	0.301
-422.530	7.624	0.435	0.323
-421.515	-3.297	-0.040	0.028
-420.500	800.000	-0.038	0.114
-419.486	-131.776	-0.371	-0.048
-418.471	587.344	-0.092	0.225
-417.457	18.364	0.198	-0.157
-416.442	7.212	0.223	-0.165
-415.428	-46.361	0.230	-0.112
-414.413	-34.359	0.236	0.128
-413.398	118.514	-0.068	-0.083
-412.384	57.919	-0.164	0.159
-411.369	358.789	-0.044	0.086
-410.355	18.697	0.123	-0.098
-409.340	232.162	0.129	0.210
-408.325	800.000	-0.071	0.305
-407.311	-200.000	-0.001	0.392
-406.296	44.213	0.220	0.200
-405.282	102.077	0.178	0.206
-404.267	-130.436	0.146	0.020
-403.252	800.000	0.109	0.350
-402.238	404.558	0.200	-0.417
-401.223	-134.727	0.073	0.009
-400.209	800.000	-0.091	0.254
-399.194	722.528	0.032	0.086
-398.179	693.873	0.134	0.349
-397.165	240.088	-0.211	-0.349
-396.150	-75.904	-0.203	-0.071
-395.136	-52.594	0.322	-0.147
-394.121	181.795	-0.129	0.187
-393.106	-144.969	-0.313	-0.028
-392.092	-22.729	-0.162	0.097
-391.077	-200.000	-0.015	0.163
-390.063	43.509	0.175	0.159
-389.048	80.540	-0.151	0.161
-388.033	-182.712	-0.248	0.004
-387.019	74.393	0.096	-0.100
-386.004	-85.303	-0.193	0.060
-384.990	412.457	0.062	0.131
-383.975	144.401	-0.076	-0.101
-382.960	67.492	0.141	-0.143
-381.946	150.815	-0.100	-0.134
-380.931	570.757	0.092	0.222
-379.917	-45.853	-0.282	-0.138
-378.902	106.706	-0.176	-0.207
-377.888	594.045	0.056	0.136
-376.873	-123.296	-0.567	0.090
-375.858	800.000	0.045	0.160
-374.844	74.610	-0.097	-0.101
-373.829	800.000	0.045	0.131
-372.815	-200.000	-0.046	0.257
-371.800	-120.863	0.271	0.045
-370.785	217.322	-0.062	0.098
-369.771	-122.232	-0.020	0.003
-368.756	-200.000	0.017	0.161
-367.742	-141.391	0.031	0.003
-366.727	-106.820	0.265	-0.058
-365.712	-42.226	-0.221	-0.112
-364.698	-93.574	-0.309	-0.085
-363.683	146.974	0.020	-0.027
-362.669	310.460	-0.188	-0.349
-361.654	800.000	-0.079	-0.217
-360.639	800.000	-0.064	-0.202
-359.625	800.000	0.060	0.183
-358.610	3.543	-0.009	0.006
-357.596	-200.000	0.001	0.180
-356.581	-188.414	0.105	-0.001
-355.566	94.537	0.102	0.115
-354.552	-45.926	-0.152	-0.074
-353.537	-200.000	-0.013	0.392
-352.523	-200.000	-0.004	0.284
-351.508	-92.343	-0.192	-0.053
-350.493	-99.837	-0.205	0.051
-349.479	18.030	0.191	-0.151
-348.464	800.000	0.032	-0.113
-347.450	-75.399	0.147	0.052
-346.435	248.266	-0.116	0.194
-345.420	-200.000	-0.013	-0.127
-344.406	-28.449	-0.089	-0.051
-343.391	594.989	0.094	0.230
-342.377	317.273	-0.096	0.180
-341.362	44.401	-0.096	-0.087
-340.348	330.869	-0.177	-0.337
-339.333	-117.801	0.256	0.045
-338.318	-97.035	-0.387	-0.100
-337.304	72.265	0.063	0.065
-336.289	673.159	0.124	0.319
-335.275	-92.466	0.255	-0.071
-334.260	70.178	-0.285	-0.291
-333.245	-200.000	0.049	-0.260
-332.231	800.000	0.072	0.272
-331.216	271.404	0.199	0.347
-330.202	-200.000	0.012	0.114
-329.187	68.653	-0.151	-0.153
-328.172	63.826	0.267	-0.265
-327.158	-34.139	-0.178	0.097
-326.143	466.068	0.124	0.274
-325.129	-83.397	0.065	-0.021
-324.114	-200.000	0.043	-0.203
-323.099	-51.399	-0.180	0.083
-322.085	33.760	-0.161	0.139
-321.070	49.473	-0.217	-0.202
-320.056	-200.000	-0.010	0.230
-319.041	26.809	0.214	-0.177
-318.026	187.434	0.066	0.097
-317.012	-108.960	0.259	-0.055
-315.997	138.876	0.006	-0.008
-314.983	-11.801	0.146	0.095
-313.968	197.092	0.147	-0.221
-312.953	-200.000	0.039	-0.205
-311.939	800.000	-0.042	-0.154
-310.924	800.000	-0.097	-0.388
-309.910	-28.148	0.115	0.066
-308.895	-174.039	0.062	0.002
-307.880	408.678	-0.182	0.381
-306.866	-200.000	-0.002	0.038
-305.851	172.165	-0.102	0.145
-304.837	-200.000	0.002	-0.109
-303.822	115.214	0.158	-0.191
-302.807	61.775	-0.208	0.205
-301.793	-95.882	0.067	-0.018
-300.778	-200.000	-0.018	-0.118
-299.764	-112.369	-0.021	-0.004
-298.749	73.269	0.112	0.116
-297.735	-115.275	-0.104	0.019
-296.720	-164.684	0.262	-0.012
-295.705	800.000	0.064	0.198
-294.691	-57.198	-0.205	0.089
-293.676	4.655	0.131	-0.095
-292.662	397.580	-0.207	0.427
-291.647	-200.000	0.036	0.230
-290.632	58.078	-0.149	0.144
-289.618	687.667	-0.156	0.403
-288.603	-144.142	0.135	-0.012
-287.589	-120.277	-0.180	-0.030
-286.574	243.101	0.073	0.121
-285.559	-151.676	0.336	-0.024
-284.545	-82.594	-0.140	0.045
-283.530	-134.683	-0.351	0.042
-282.516	-200.000	0.046	-0.441
-281.501	-188.931	-0.358	-0.004
-280.486	-200.000	-0.006	0.171
-279.472	122.246	-0.210	-0.259
-278.457	-51.669	-0.169	0.078
-277.443	58.308	-0.152	0.147
-276.428	456.560	0.087	-0.190
-275.413	401.809	0.074	0.153
-274.399	-200.000	0.028	0.294
-273.384	357.303	0.225	0.442
-272.370	-135.095	0.194	0.023
-271.355	-200.000	0.014	0.219
-270.340	-139.152	-0.259	-0.028
-269.326	9.157	-0.088	0.066
-268.311	-86.880	0.142	-0.043
-267.297	-37.677	0.370	-0.194
-266.282	-105.148	0.334	-0.075
-265.267	86.319	-0.156	-0.170
-264.253	-179.397	0.288	0.006
-263.238	-13.559	0.181	0.116
-262.224	170.065	0.176	0.248
-261.209	294.190	0.115	0.207
-260.195	-200.000	-0.029	-0.198
-259.180	-112.601	0.166	0.033
-258.165	-83.514	-0.125	0.039
-257.151	149.074	0.170	0.227
-256.136	63.804	0.065	0.065
-255.122	448.558	-0.088	0.191
-254.107	-200.000	0.002	-0.086
-253.092	106.439	0.031	0.036
-252.078	800.000	0.148	-0.406
-251.063	-200.000	0.014	0.127
-250.049	-153.205	-0.159	-0.011
-249.034	-136.743	0.168	-0.019
-248.019	-157.936	-0.061	0.004
-247.005	419.769	0.135	0.286
-245.990	-42.797	-0.118	-0.059
-244.976	15.443	0.271	-0.210
-243.961	-42.059	-0.065	0.033
-242.946	479.946	0.105	0.236
-241.932	-200.000	0.025	-0.165
-240.917	800.000	0.049	0.199
-239.903	-81.762	0.155	-0.050
-238.888	-32.150	0.232	-0.128
-237.873	-115.508	0.044	0.008
-236.859	-92.303	0.096	0.027
-235.844	131.533	-0.050	-0.063
-234.830	-123.000	-0.110	0.017
-233.815	49.746	-0.127	-0.118
-232.800	44.660	0.194	0.176
-231.786	-200.000	-0.091	-0.525
-230.771	-193.657	0.227	-0.002
-229.757	-20.308	0.143	0.087
-228.742	72.581	0.147	-0.151
-227.727	-71.503	-0.038	0.014
-226.713	70.024	0.094	0.095
-225.698	111.554	-0.057	-0.068
-224.684	89.587	0.110	-0.121
-223.669	9.728	-0.094	0.070
-222.655	800.000	-0.015	0.041
-221.640	-186.838	-0.206	0.003
-220.625	800.000	0.100	-0.348
-219.611	242.361	-0.036	-0.059
-218.596	-193.202	0.327	0.003
-217.582	44.427	0.139	0.126
-216.567	-200.000	0.004	0.292
-215.552	8.159	0.185	-0.137
-214.538	-200.000	0.083	0.528
-213.523	-200.000	0.007	0.046
-212.509	-45.760	0.020	0.010
-211.494	-44.625	-0.256	0.126
-210.479	508.418	0.163	-0.372
-209.465	260.063	-0.146	-0.249
-208.450	-121.234	-0.468	0.077
-207.436	-39.942	-0.181	0.093
-206.421	54.066	0.078	-0.074
-205.406	344.994	0.116	-0.224
-204.392	75.858	-0.179	-0.186
-203.377	4.208	0.109	-0.078
-202.363	-75.628	0.228	-0.080
-201.348	-185.130	0.308	-0.005
-200.333	173.929	-0.243	0.345
-199.319	800.000	-0.081	0.271
-198.304	-56.273	-0.136	-0.059
-197.290	-102.865	-0.121	0.028
-196.275	34.814	-0.183	0.157
-195.260	16.127	-0.072	0.056
-194.246	475.324	-0.089	0.197
-193.231	-104.902	0.161	-0.036
-192.217	-200.000	0.036	-0.301
-191.202	6.177	-0.168	-0.122
-190.187	220.179	0.096	0.152
-189.173	800.000	0.059	-0.208
-188.158	800.000	0.051	0.188
-187.144	-75.061	0.301	0.106
-186.129	242.127	0.284	-0.467
-185.114	259.793	-0.109	-0.186
-184.100	-200.000	0.016	0.247
-183.085	121.314	-0.237	-0.290
-182.071	800.000	-0.097	-0.335
-181.056	-200.000	0.001	0.363
-180.042	-124.679	0.199	0.030
-179.027	-13.144	0.376	0.240
-178.012	-170.696	0.176	0.006
-176.998	210.888	0.351	0.542
-175.983	-200.000	0.006	-0.174
-174.969	210.455	-0.187	-0.288
-173.954	-96.782	-0.362	-0.094
-172.939	212.741	0.329	-0.510
-171.925	114.498	0.068	-0.082
-170.910	254.541	0.076	0.127
-169.896	800.000	-0.041	-0.133
-168.881	-122.909	-0.109	0.017
-167.866	-136.279	-0.092	-0.011
-166.852	-200.000	0.008	0.178
-165.837	-77.290	-0.178	0.061
-164.823	31.167	0.108	-0.091
-163.808	-200.000	0.004	0.046
-162.793	-33.490	0.294	0.159
-161.779	-137.310	0.312	-0.035
-160.764	-26.989	-0.094	0.054
-159.750	110.892	0.213	-0.251
-158.735	-58.083	0.073	0.031
-157.720	-200.000	0.050	-0.233
-156.706	96.522	0.200	0.225
-155.691	434.824	0.045	-0.096
-154.677	117.547	0.153	0.184
-153.662	-200.000	-0.011	-0.175
-152.647	800.000	0.083	-0.323
-151.633	-50.960	0.178	0.082
-150.618	503.571	0.095	0.216
-149.604	-53.641	0.244	-0.109
-148.589	426.818	-0.137	0.291
-147.574	-200.000	0.003	0.081
-146.560	30.004	-0.290	0.243
-145.545	327.754	-0.178	-0.336
-144.531	800.000	0.039	-0.116
-143.516	113.886	0.057	-0.068
-142.502	-3.315	0.322	0.220
-141.487	-200.000	0.011	0.061
-140.472	-200.000	0.033	-0.170
-139.458	246.809	-0.181	-0.300
-138.443	-73.521	0.290	-0.104
-137.429	71.693	0.282	0.288
-136.414	-200.000	0.023	-0.130
-135.399	45.993	0.209	0.190
-134.385	705.475	-0.070	-0.182
-133.370	716.328	-0.066	-0.172
-132.356	-200.000	0.061	-0.301
-131.341	322.377	-0.213	-0.398
-130.326	171.371	-0.140	0.198
-129.312	134.696	-0.178	0.226
-128.297	-6.492	0.319	0.213
-127.283	-109.557	0.214	-0.044
-126.268	598.660	0.061	0.147
-125.253	240.451	-0.132	-0.216
-124.239	-200.000	0.003	-0.245
-123.224	118.196	0.214	0.258
-122.210	-200.000	0.003	-0.291
-121.195	342.867	-0.038	0.073
-120.180	-118.453	-0.201	-0.035
