DTS Sentinel unit serial number:	SN413079Multiplexer serial number:	ORYXHardware model number:	OX4-SRSoftware version number:	ORYX F/W v4.00 Oryx Data Collector v3.7.2.0data status	okinstallation	princeton_trtdifferential loss correction	single-endedforward channel	channel 2reverse channel	N/Adate	2019/09/17time	12:43:35forward acquisition time	60.00reverse acquisition time	0.00gamma	496.2192k internal	0.2321k external	0.2321temperature offset calibration	0.9988default loss term (dB/km)	0.3790temperature slope calibration	1.0000multiplexer offset coefficient	1.0000multiplexer slope coefficient	1.0000fibre end	0.00T internal ref (°C)	32.48T ext. ref 1 (°C)	0.41T ext. ref 2 (°C)	30.53length (m)	temperature (°C)	Stokes	anti-Stokes-747.200	-200.000	-0.013	-0.185
-746.185	766.007	0.122	0.335
-745.171	196.782	-0.077	-0.119
-744.156	-98.446	-0.171	0.044
-743.142	285.456	0.193	0.352
-742.127	800.000	-0.053	0.197
-741.112	800.000	0.029	-0.110
-740.098	-7.758	0.101	-0.069
-739.083	-42.969	0.253	-0.130
-738.069	162.277	-0.125	0.177
-737.054	109.080	-0.054	-0.065
-736.039	59.431	-0.042	-0.042
-735.025	339.205	0.096	-0.189
-734.010	48.075	-0.396	0.374
-732.996	141.992	-0.216	-0.289
-731.981	-200.000	0.011	-0.088
-730.966	-9.086	-0.141	0.095
-729.952	-9.102	-0.095	0.064
-728.937	42.676	-0.252	-0.232
-727.923	-200.000	-0.019	-0.101
-726.908	800.000	0.069	-0.268
-725.894	-200.000	0.070	-0.324
-724.879	53.960	-0.246	-0.239
-723.864	169.801	-0.102	0.147
-722.850	-73.898	-0.078	-0.029
-721.835	251.624	0.040	0.070
-720.821	227.158	0.083	0.137
-719.806	21.698	-0.106	0.087
-718.791	-200.000	-0.005	0.055
-717.777	322.329	0.190	-0.365
-716.762	-100.572	0.067	0.017
-715.748	-75.116	-0.262	-0.095
-714.733	-61.018	-0.267	-0.114
-713.718	-200.000	0.004	0.303
-712.704	800.000	-0.057	0.158
-711.689	-88.683	-0.320	-0.096
-710.675	-139.670	0.214	-0.023
-709.660	97.706	0.037	-0.043
-708.645	-200.000	-0.008	0.076
-707.631	-56.933	-0.448	-0.200
-706.616	127.585	-0.184	0.236
-705.602	-85.978	-0.233	-0.073
-704.587	296.735	0.099	0.183
-703.572	682.733	0.075	-0.198
-702.558	92.061	0.098	0.111
-701.543	-40.186	0.231	-0.122
-700.529	-200.000	-0.012	0.069
-699.514	-49.323	0.089	0.043
-698.499	-63.939	0.170	-0.070
-697.485	-14.080	0.221	0.144
-696.470	-66.393	0.107	-0.043
-695.456	-131.673	0.178	0.024
-694.441	-140.624	0.207	-0.022
-693.426	-148.726	0.447	0.037
-692.412	43.461	-0.191	0.176
-691.397	184.921	-0.063	0.094
-690.383	-200.000	0.022	0.167
-689.368	321.995	-0.105	0.202
-688.354	222.259	0.055	0.090
-687.339	800.000	-0.044	0.190
-686.324	239.412	0.056	0.094
-685.310	683.008	-0.078	0.206
-684.295	-45.622	-0.095	-0.047
-683.281	-2.477	-0.303	-0.214
-682.266	396.552	0.131	-0.276
-681.251	105.204	-0.116	0.139
-680.237	800.000	0.077	-0.238
-679.222	-130.663	-0.100	-0.014
-678.208	190.986	0.199	-0.302
-677.193	800.000	-0.048	-0.162
-676.178	782.826	-0.088	-0.243
-675.164	-47.119	-0.252	-0.124
-674.149	-200.000	-0.032	-0.143
-673.135	-122.860	-0.162	-0.026
-672.120	-40.835	0.422	-0.220
-671.105	-159.573	0.167	0.009
-670.091	800.000	-0.073	-0.293
-669.076	-175.190	-0.026	0.001
-668.062	90.022	0.066	0.074
-667.047	-200.000	0.020	-0.125
-666.032	-200.000	0.019	-0.200
-665.018	-50.063	-0.246	0.118
-664.003	142.149	-0.248	0.331
-662.989	-12.705	-0.061	0.040
-661.974	16.497	0.087	0.069
-660.959	143.518	-0.104	-0.140
-659.945	-86.089	0.244	0.076
-658.930	145.032	0.257	-0.346
-657.916	88.748	0.193	-0.217
-656.901	-110.775	-0.540	-0.112
-655.886	-111.036	-0.161	-0.033
-654.872	-200.000	-0.012	-0.278
-653.857	46.389	-0.068	-0.063
-652.843	-58.395	-0.204	0.089
-651.828	-75.836	0.230	-0.082
-650.814	-58.384	0.157	-0.069
-649.799	-65.920	0.150	-0.060
-648.784	-2.984	-0.434	0.306
-647.770	-38.237	0.114	0.061
-646.755	338.370	0.087	-0.170
-645.741	-189.079	0.123	0.001
-644.726	92.409	0.447	-0.508
-643.711	83.682	0.175	0.192
-642.697	-165.734	-0.248	0.011
-641.682	-200.000	-0.007	0.051
-640.668	-34.137	-0.170	-0.094
-639.653	486.703	-0.125	0.287
-638.638	-103.284	-0.326	0.078
-637.624	-165.849	-0.343	0.015
-636.609	52.122	0.149	0.143
-635.595	-142.450	0.054	0.005
-634.580	-101.037	-0.548	0.135
-633.565	-200.000	-0.031	-0.470
-632.551	-23.528	0.208	0.126
-631.536	-34.061	0.248	0.138
-630.522	-200.000	0.039	-0.178
-629.507	-49.407	-0.159	0.077
-628.492	-71.485	0.413	0.156
-627.478	-200.000	-0.005	0.113
-626.463	73.421	0.168	-0.177
-625.449	25.679	-0.140	0.117
-624.434	-127.409	-0.383	-0.056
-623.419	-200.000	-0.018	0.102
-622.405	-121.476	0.336	0.056
-621.390	631.374	0.079	0.202
-620.376	-18.054	0.030	0.019
-619.361	-200.000	-0.028	0.259
-618.346	272.916	0.112	-0.200
-617.332	800.000	0.079	0.244
-616.317	-193.639	-0.067	0.001
-615.303	-90.750	0.125	0.036
-614.288	506.242	0.075	-0.176
-613.273	102.556	0.106	0.125
-612.259	61.705	-0.100	-0.100
-611.244	203.679	-0.164	-0.255
-610.230	10.305	-0.198	0.152
-609.215	211.801	-0.169	0.268
-608.201	-65.151	0.175	-0.071
-607.186	800.000	0.064	-0.256
-606.171	603.287	0.073	0.183
-605.157	634.528	-0.141	0.360
-604.142	-200.000	-0.031	0.211
-603.128	-7.144	-0.202	-0.137
-602.113	-33.100	0.132	0.073
-601.098	65.124	-0.018	-0.018
-600.084	-95.959	0.198	-0.053
-599.069	48.917	-0.242	0.228
-598.055	55.301	-0.221	0.215
-597.040	485.800	-0.041	0.093
-596.025	-160.029	-0.216	0.012
-595.011	-117.086	-0.285	-0.052
-593.996	800.000	0.023	0.068
-592.982	-37.211	0.224	0.120
-591.967	-76.191	-0.082	-0.029
-590.952	800.000	0.040	0.119
-589.938	-0.020	0.306	0.219
-588.923	72.509	-0.118	-0.123
-587.909	280.824	-0.136	-0.244
-586.894	95.869	0.091	-0.104
-585.879	-200.000	-0.042	0.277
-584.865	-64.953	0.088	-0.036
-583.850	-168.308	0.311	-0.012
-582.836	-33.292	-0.070	-0.039
-581.821	-200.000	0.047	0.216
-580.806	632.692	-0.141	0.359
-579.792	-200.000	-0.005	0.058
-578.777	-93.651	0.284	0.079
-577.763	-152.461	-0.185	-0.013
-576.748	-49.057	0.076	0.037
-575.733	-34.188	0.279	0.154
-574.719	481.854	0.099	0.226
-573.704	-86.913	0.033	0.010
-572.690	143.732	0.126	0.169
-571.675	289.104	0.188	0.342
-570.661	781.564	-0.041	0.112
-569.646	-69.690	-0.411	0.158
-568.631	693.443	-0.099	-0.261
-567.617	800.000	0.022	0.079
-566.602	-169.327	0.120	-0.004
-565.588	186.951	0.178	0.266
-564.573	800.000	-0.030	0.121
-563.558	-136.611	0.415	-0.048
-562.544	52.536	-0.275	0.264
-561.529	11.047	0.262	0.201
-560.515	800.000	-0.050	-0.193
-559.500	800.000	0.077	0.244
-558.485	44.924	0.195	0.180
-557.471	800.000	0.013	0.052
-556.456	-26.616	-0.053	0.031
-555.442	-35.066	-0.403	0.220
-554.427	-102.133	0.106	-0.026
-553.412	250.147	-0.284	-0.484
-552.398	-78.116	0.369	0.128
-551.383	3.059	-0.077	-0.056
-550.369	-10.318	0.293	-0.195
-549.354	67.160	0.146	-0.149
-548.339	708.696	-0.089	-0.236
-547.325	-138.553	-0.303	-0.033
-546.310	296.980	-0.117	0.215
-545.296	-120.218	0.144	-0.025
-544.281	-45.155	0.319	-0.159
-543.266	800.000	0.044	-0.123
-542.252	-200.000	0.014	-0.246
-541.237	93.445	0.090	-0.103
-540.223	-104.838	-0.150	-0.035
-539.208	680.522	-0.048	-0.126
-538.193	-197.354	0.117	-0.001
-537.179	800.000	-0.090	-0.314
-536.164	-156.830	-0.074	-0.005
-535.150	-69.201	-0.198	-0.076
-534.135	-117.308	-0.250	-0.046
-533.121	371.358	-0.217	0.442
-532.106	-82.747	-0.191	0.062
-531.091	467.429	0.067	0.151
-530.077	-66.144	-0.109	-0.044
-529.062	-66.287	-0.082	-0.033
-528.048	-41.176	-0.245	-0.127
-527.033	-31.387	-0.080	0.045
-526.018	-200.000	0.045	-0.247
-525.004	-38.842	-0.072	0.038
-523.989	17.436	-0.127	-0.101
-522.975	175.966	0.186	0.270
-521.960	-25.334	-0.327	-0.194
-520.945	-112.894	-0.242	0.048
-519.931	275.493	0.043	-0.076
-518.916	785.603	-0.097	-0.268
-517.902	-118.824	-0.362	0.064
-516.887	-186.360	-0.094	-0.001
-515.872	586.758	-0.166	-0.408
-514.858	800.000	0.109	0.323
-513.843	31.045	0.114	-0.098
-512.829	-200.000	0.002	-0.108
-511.814	-35.844	0.219	0.119
-510.799	-200.000	0.055	-0.459
-509.785	132.821	0.111	-0.143
-508.770	-200.000	-0.012	0.216
-507.756	-136.826	-0.380	-0.044
-506.741	-29.284	-0.153	0.087
-505.726	-121.246	-0.258	0.043
-504.712	376.826	-0.117	-0.239
-503.697	173.727	0.267	0.386
-502.683	-44.338	-0.240	0.121
-501.668	11.795	-0.182	-0.140
-500.653	-14.447	-0.094	-0.061
-499.639	17.875	0.042	0.033
-498.624	-96.902	0.192	0.050
-497.610	59.444	0.111	0.110
-496.595	239.828	0.061	0.102
-495.581	613.901	-0.057	-0.143
-494.566	-144.063	0.161	0.015
-493.551	129.747	0.150	0.192
-492.537	96.767	0.191	0.219
-491.522	157.454	0.165	-0.229
-490.508	240.882	0.064	-0.108
-489.493	324.841	0.158	-0.302
-488.478	-18.446	-0.197	-0.123
-487.464	-200.000	0.008	-0.114
-486.449	437.549	0.126	-0.274
-485.435	800.000	-0.072	0.290
-484.420	119.145	-0.130	0.160
-483.405	-28.092	-0.022	-0.012
-482.391	-200.000	0.015	-0.123
-481.376	289.068	-0.249	-0.453
-480.362	4.880	-0.066	0.049
-479.347	-106.171	-0.334	-0.075
-478.332	301.703	0.130	0.241
-477.318	-60.799	0.058	0.025
-476.303	-200.000	0.032	-0.399
-475.289	18.421	-0.044	0.035
-474.274	-200.000	-0.006	-0.067
-473.259	-82.433	-0.125	-0.040
-472.245	-64.393	0.221	0.090
-471.230	286.378	0.103	0.186
-470.216	47.561	0.150	0.140
-469.201	17.887	0.247	0.197
-468.186	800.000	-0.062	0.172
-467.172	-179.038	0.007	0.000
-466.157	-132.835	-0.121	-0.015
-465.143	-151.717	-0.143	-0.011
-464.128	93.921	-0.077	-0.088
-463.113	119.067	-0.115	-0.143
-462.099	399.514	-0.026	-0.054
-461.084	-138.926	-0.052	0.006
-460.070	-184.241	-0.259	0.004
-459.055	-128.636	0.227	-0.032
-458.040	-46.967	-0.165	-0.081
-457.026	800.000	-0.038	0.149
-456.011	543.733	0.031	-0.075
-454.997	52.750	0.362	0.346
-453.982	-3.622	-0.291	-0.202
-452.968	-44.236	-0.054	-0.027
-451.953	206.245	0.090	0.140
-450.938	-200.000	0.001	-0.183
-449.924	-109.786	0.373	0.078
-448.909	180.521	-0.056	0.082
-447.895	91.650	0.160	0.180
-446.880	78.148	-0.163	0.174
-445.865	591.894	-0.114	0.282
-444.851	127.421	-0.157	-0.200
-443.836	114.612	0.169	-0.206
-442.822	128.097	-0.077	0.098
-441.807	271.284	0.142	-0.250
-440.792	343.831	-0.018	0.036
-439.778	206.841	-0.072	-0.113
-438.763	-36.921	-0.172	-0.092
-437.749	-134.342	-0.247	0.030
-436.734	-37.316	-0.255	-0.136
-435.719	-2.597	-0.044	0.031
-434.705	-31.568	0.073	0.041
-433.690	28.052	0.185	-0.156
-432.676	-158.844	-0.159	0.009
-431.661	72.081	0.084	-0.088
-430.646	-111.097	0.300	-0.061
-429.632	72.323	0.162	0.168
-428.617	800.000	0.052	-0.198
-427.603	-10.011	-0.272	0.181
-426.588	-200.000	-0.031	0.220
-425.573	169.660	0.105	0.150
-424.559	694.476	0.088	-0.230
-423.544	-200.000	0.038	-0.248
-422.530	-132.388	-0.047	-0.006
-421.515	800.000	0.043	0.128
-420.500	-200.000	-0.007	-0.045
-419.486	35.173	-0.232	-0.203
-418.471	-34.457	0.226	0.124
-417.457	-53.795	0.195	-0.089
-416.442	159.800	-0.053	-0.073
-415.428	21.294	0.150	0.122
-414.413	-37.568	0.248	0.132
-413.398	45.881	-0.170	-0.157
-412.384	49.894	0.131	-0.123
-411.369	-200.000	0.006	0.138
-410.355	-49.212	0.172	0.082
-409.340	4.187	0.256	0.187
-408.325	-167.930	0.292	-0.011
-407.311	-125.343	0.113	-0.017
-406.296	159.053	-0.138	0.191
-405.282	-169.954	-0.153	0.005
-404.267	-200.000	0.008	0.044
-403.252	269.889	0.139	0.244
-402.238	32.457	0.159	0.137
-401.223	259.837	0.056	0.097
-400.209	-200.000	-0.012	0.156
-399.194	5.706	0.164	0.121
-398.179	-25.748	-0.061	-0.036
-397.165	128.009	-0.237	0.301
-396.150	-67.453	-0.295	-0.116
-395.136	-59.037	-0.046	0.020
-394.121	800.000	-0.030	-0.095
-393.106	-200.000	-0.019	0.161
-392.092	-200.000	0.007	-0.047
-391.077	111.248	-0.126	0.152
-390.063	-200.000	0.010	0.291
-389.048	-200.000	-0.036	0.240
-388.033	-200.000	-0.031	-0.215
-387.019	-103.751	-0.449	-0.105
-386.004	-61.580	0.244	-0.102
-384.990	-200.000	0.017	-0.332
-383.975	136.570	0.221	-0.288
-382.960	-164.311	-0.259	0.012
-381.946	-200.000	0.070	-0.340
-380.931	-51.127	-0.204	-0.095
-379.917	-39.689	0.335	0.174
-378.902	78.744	-0.053	0.056
-377.888	-200.000	0.040	-0.264
-376.873	10.487	0.285	-0.216
-375.858	91.959	0.145	0.163
-374.844	471.385	0.149	-0.333
-373.829	-102.503	-0.038	0.009
-372.815	-157.222	0.246	-0.015
-371.800	338.911	-0.110	0.214
-370.785	-141.950	-0.327	-0.033
-369.771	29.272	0.129	0.109
-368.756	-200.000	-0.008	-0.046
-367.742	-187.330	0.254	0.003
-366.727	220.499	-0.085	-0.136
-365.712	-109.314	0.149	-0.031
-364.698	-32.843	0.253	-0.140
-363.683	-104.924	-0.264	0.060
-362.669	-200.000	-0.036	-0.410
-361.654	-73.106	0.209	-0.076
-360.639	-98.860	-0.226	0.057
-359.625	800.000	0.020	0.076
-358.610	-58.887	0.138	0.059
-357.596	-71.302	-0.079	0.030
-356.581	800.000	-0.128	0.405
-355.566	-30.963	-0.198	-0.111
-354.552	314.933	-0.067	0.125
-353.537	-78.828	-0.210	-0.071
-352.523	-115.115	-0.129	-0.024
-351.508	800.000	0.130	0.407
-350.493	-200.000	0.025	-0.170
-349.479	-33.283	-0.254	-0.140
-348.464	-104.070	0.045	0.011
-347.450	393.215	0.127	0.264
-346.435	1.563	-0.209	0.150
-345.420	-200.000	-0.043	-0.232
-344.406	16.928	0.072	0.057
-343.391	-85.085	-0.128	-0.040
-342.377	-200.000	0.024	-0.221
-341.362	7.727	-0.124	0.092
-340.348	157.029	0.031	-0.043
-339.333	93.705	0.066	-0.075
-338.318	800.000	0.034	-0.127
-337.304	228.685	-0.177	0.287
-336.289	92.881	-0.127	-0.143
-335.275	-30.590	-0.306	0.172
-334.260	174.844	0.167	-0.240
-333.245	800.000	-0.081	0.261
-332.231	-8.107	-0.109	0.073
-331.216	66.372	0.015	0.015
-330.202	122.197	-0.265	0.330
-329.187	-176.093	-0.215	-0.006
-328.172	-103.473	0.292	-0.068
-327.158	-200.000	0.012	-0.129
-326.143	-173.010	0.368	-0.011
-325.129	-65.777	-0.323	-0.129
-324.114	637.320	-0.018	0.044
-323.099	-195.780	0.499	0.004
-322.085	-62.789	0.133	-0.055
-321.070	-87.210	0.473	0.143
-320.056	-143.468	0.211	0.020
-319.041	-57.783	0.108	-0.047
-318.026	-200.000	0.027	0.226
-317.012	-88.289	0.225	0.067
-315.997	-200.000	0.030	-0.152
-314.983	247.986	0.043	0.073
-313.968	62.663	-0.203	0.202
-312.953	-200.000	-0.007	-0.120
-311.939	325.928	-0.087	-0.166
-310.924	43.259	0.080	-0.073
-309.910	363.388	0.124	-0.247
-308.895	800.000	-0.073	-0.312
-307.880	-20.773	0.173	0.106
-306.866	800.000	-0.004	-0.011
-305.851	331.092	0.129	-0.246
-304.837	-15.452	0.102	-0.065
-303.822	800.000	0.010	0.038
-302.807	-200.000	0.030	-0.212
-301.793	-41.665	-0.107	-0.055
-300.778	118.031	-0.170	0.208
-299.764	733.217	0.088	0.235
-298.749	298.977	-0.045	0.082
-297.735	-99.108	-0.204	-0.051
-296.720	46.034	-0.292	-0.268
-295.705	-97.948	0.419	-0.107
-294.691	-35.444	-0.086	-0.046
-293.676	-174.301	-0.237	0.007
-292.662	-124.299	0.273	0.042
-291.647	-147.312	-0.109	0.009
-290.632	717.066	0.060	-0.158
-289.618	12.542	0.056	0.043
-288.603	-81.287	0.374	-0.123
-287.589	-90.662	0.120	0.035
-286.574	-112.139	-0.236	-0.047
-285.559	186.630	0.083	-0.123
-284.545	32.657	-0.105	0.090
-283.530	-123.740	0.087	0.014
-282.516	341.733	-0.174	-0.338
-281.501	569.105	0.047	-0.112
-280.486	-200.000	0.012	0.324
-279.472	-200.000	0.006	-0.055
-278.457	297.096	-0.183	-0.333
-277.443	-200.000	-0.020	0.234
-276.428	79.572	-0.218	-0.232
-275.413	800.000	-0.058	-0.198
-274.399	-200.000	-0.032	-0.200
-273.384	-160.938	0.191	-0.010
-272.370	137.190	0.133	0.172
-271.355	-55.379	0.130	-0.058
-270.340	-41.524	0.107	-0.055
-269.326	-80.775	0.206	-0.068
-268.311	84.245	-0.357	0.388
-267.297	-161.522	-0.130	0.007
-266.282	-141.326	0.305	0.031
-265.267	238.368	-0.226	-0.373
-264.253	-91.807	0.160	-0.045
-263.238	10.179	-0.125	-0.094
-262.224	-200.000	0.009	-0.103
-261.209	-49.395	-0.098	0.047
-260.195	-200.000	-0.001	0.098
-259.180	111.769	-0.163	-0.195
-258.165	158.816	0.157	-0.216
-257.151	-29.795	0.146	0.082
-256.136	336.325	-0.173	-0.333
-255.122	-168.754	0.193	0.007
-254.107	800.000	-0.085	0.325
-253.092	-31.559	0.102	0.057
-252.078	-96.354	0.437	-0.115
-251.063	800.000	0.008	-0.029
-250.049	-62.382	0.336	0.139
-249.034	-24.892	0.278	0.163
-248.019	-156.339	-0.377	-0.023
-247.005	-133.854	0.286	0.035
-245.990	-127.577	0.243	-0.035
-244.976	-200.000	-0.018	-0.107
-243.961	-200.000	-0.068	-0.392
-242.946	-6.739	0.065	0.044
-241.932	536.180	0.088	-0.207
-240.917	-21.959	0.464	-0.279
-239.903	323.756	0.132	0.250
-238.888	-44.395	0.297	0.147
-237.873	446.759	0.234	0.509
-236.859	261.010	0.035	-0.059
-235.844	49.752	0.148	-0.138
-234.830	800.000	0.035	0.111
-233.815	-47.136	0.088	0.043
-232.800	401.222	-0.158	-0.329
-231.786	535.874	-0.115	0.271
-230.771	800.000	0.089	0.290
-229.757	-38.663	-0.109	0.057
-228.742	-200.000	0.014	-0.072
-227.727	-1.820	0.148	0.103
-226.713	-149.900	0.117	0.009
-225.698	-4.985	-0.152	-0.104
-224.684	-124.236	0.027	0.004
-223.669	161.897	-0.103	0.143
-222.655	-200.000	-0.011	0.103
-221.640	-32.121	-0.183	0.101
-220.625	-74.434	-0.316	-0.113
-219.611	155.340	0.195	-0.266
-218.596	-24.613	-0.378	-0.223
-217.582	265.443	0.106	-0.183
-216.567	-110.612	-0.224	0.046
-215.552	-3.672	-0.230	0.158
-214.538	20.328	-0.192	-0.154
-213.523	800.000	-0.006	0.023
-212.509	-41.520	0.117	-0.059
-211.494	-168.866	-0.084	0.003
-210.479	800.000	0.017	-0.050
-209.465	214.941	-0.028	0.043
-208.450	-20.167	-0.204	0.124
-207.436	435.182	-0.114	-0.246
-206.421	-200.000	-0.295	-0.001
-205.406	-62.396	0.357	-0.147
-204.392	-200.000	0.000	0.316
-203.377	800.000	-0.087	0.278
-202.363	-200.000	0.016	-0.068
-201.348	-160.783	0.116	-0.006
-200.333	610.362	-0.170	-0.421
-199.319	69.211	0.209	-0.213
-198.304	435.029	-0.069	0.148
-197.290	-37.182	0.363	-0.192
-196.275	7.394	0.125	0.093
-195.260	180.965	-0.209	0.303
-194.246	-11.596	-0.362	0.235
-193.231	800.000	0.058	-0.204
-192.217	-200.000	-0.040	0.262
-191.202	298.138	0.119	-0.216
-190.187	35.522	-0.203	-0.177
-189.173	29.730	-0.189	0.159
-188.158	-129.595	-0.341	-0.047
-187.144	271.050	-0.079	0.138
-186.129	800.000	0.115	-0.358
-185.114	-22.114	-0.305	-0.183
-184.100	-200.000	0.001	0.131
-183.085	-123.421	-0.248	0.039
-182.071	71.323	-0.332	0.341
-181.056	-200.000	-0.006	0.063
-180.042	-85.669	0.174	0.053
-179.027	63.207	-0.248	-0.246
-178.012	-200.000	0.032	-0.315
-176.998	57.239	0.038	-0.036
-175.983	369.438	0.073	-0.146
-174.969	373.277	0.087	0.174
-173.954	-200.000	-0.021	-0.205
-172.939	-200.000	-0.001	0.269
-171.925	-52.473	0.076	0.035
-170.910	66.816	0.095	-0.096
-169.896	-200.000	-0.049	-0.265
-168.881	-200.000	-0.036	-0.167
-167.866	46.374	0.163	0.149
-166.852	-114.635	0.158	-0.030
-165.837	-132.243	0.133	-0.017
-164.823	-79.176	-0.195	0.065
-163.808	800.000	0.025	0.098
-162.793	45.873	-0.233	-0.213
-161.779	-112.561	0.014	0.003
-160.764	-80.752	-0.210	-0.069
-159.750	-200.000	-0.004	0.081
-158.735	400.454	-0.065	-0.135
-157.720	800.000	0.065	0.214
-156.706	800.000	0.125	0.381
-155.691	-77.538	0.129	0.044
-154.677	-121.836	0.168	-0.027
-153.662	349.481	0.128	-0.249
-152.647	-153.515	0.113	-0.008
-151.633	800.000	0.121	0.333
-150.618	-200.000	0.052	0.312
-149.604	354.292	-0.129	0.254
-148.589	-104.186	0.174	-0.040
-147.574	800.000	0.123	0.347
-146.560	11.833	-0.093	-0.071
-145.545	-159.894	-0.241	0.013
-144.531	-120.332	0.294	-0.049
-143.516	-113.317	0.174	-0.034
-142.502	-182.968	0.033	-0.001
-141.487	154.525	-0.115	-0.155
-140.472	-36.200	-0.232	0.124
-139.458	-200.000	0.017	-0.129
-138.443	634.240	-0.052	-0.131
-137.429	800.000	0.103	0.314
-136.414	-32.115	-0.098	0.054
-135.399	-189.239	0.201	0.002
-134.385	-116.948	-0.330	-0.059
-133.370	800.000	0.040	-0.119
-132.356	-200.000	0.009	-0.206
-131.341	122.716	0.112	0.138
-130.326	-103.031	-0.169	-0.040
-129.312	800.000	-0.044	-0.171
-128.297	-97.206	0.112	0.029
-127.283	-88.527	-0.304	0.089
-126.268	101.454	-0.070	0.081
-125.253	539.580	-0.093	-0.218
-124.239	-10.570	0.302	0.198
-123.224	-26.249	0.232	0.134
-122.210	-200.000	-0.011	0.124
-121.195	181.759	-0.083	-0.121
