DTS Sentinel unit serial number:	SN413079Multiplexer serial number:	ORYXHardware model number:	OX4-SRSoftware version number:	ORYX F/W v4.00 Oryx Data Collector v3.7.2.0data status	okinstallation	princeton_trtdifferential loss correction	single-endedforward channel	channel 2reverse channel	N/Adate	2019/09/18time	15:59:34forward acquisition time	60.00reverse acquisition time	0.00gamma	496.2192k internal	0.2307k external	0.2307temperature offset calibration	1.0008default loss term (dB/km)	0.3790temperature slope calibration	1.0000multiplexer offset coefficient	1.0000multiplexer slope coefficient	1.0000fibre end	0.00T internal ref (°C)	37.23T ext. ref 1 (°C)	0.81T ext. ref 2 (°C)	36.71length (m)	temperature (°C)	Stokes	anti-Stokes-747.200	9.393	0.198	-0.152
-746.185	47.501	0.131	-0.124
-745.171	-200.000	0.034	0.179
-744.156	120.266	0.223	0.282
-743.142	800.000	-0.098	0.406
-742.127	800.000	-0.063	0.187
-741.112	-75.506	-0.154	0.056
-740.098	800.000	-0.059	0.188
-739.083	-114.944	-0.136	0.026
-738.069	-58.535	-0.122	-0.054
-737.054	-174.831	0.263	-0.008
-736.039	-105.912	-0.348	-0.080
-735.025	314.864	-0.009	0.017
-734.010	571.973	0.053	-0.131
-732.996	32.957	-0.156	0.137
-731.981	-73.431	0.119	-0.044
-730.966	-191.935	-0.268	-0.003
-729.952	-61.804	-0.265	-0.113
-728.937	3.020	-0.078	0.058
-727.923	-134.337	-0.286	0.036
-726.908	-138.063	-0.143	-0.016
-725.894	-38.650	0.091	0.049
-724.879	-40.276	-0.122	-0.064
-723.864	-97.717	0.054	-0.014
-722.850	-127.466	0.055	-0.008
-721.835	-164.416	-0.209	0.010
-720.821	-109.809	-0.160	0.034
-719.806	205.880	0.242	-0.382
-718.791	334.921	0.083	-0.164
-717.777	800.000	-0.034	0.126
-716.762	-90.800	-0.330	0.097
-715.748	-84.428	-0.321	-0.103
-714.733	-200.000	-0.004	-0.053
-713.718	-200.000	-0.029	0.139
-712.704	-35.924	-0.200	-0.110
-711.689	-146.180	0.290	0.026
-710.675	800.000	0.018	0.076
-709.660	-14.725	0.339	-0.221
-708.645	-200.000	0.190	0.000
-707.631	-148.754	0.201	-0.017
-706.616	-200.000	0.009	0.053
-705.602	800.000	0.029	0.130
-704.587	-27.722	-0.109	0.064
-703.572	-147.766	0.190	-0.016
-702.558	-58.466	0.089	0.039
-701.543	-123.996	-0.115	-0.018
-700.529	230.105	-0.141	-0.234
-699.514	-81.074	0.146	-0.049
-698.499	136.972	-0.107	-0.142
-697.485	-110.386	-0.248	-0.052
-696.470	-104.728	-0.394	0.092
-695.456	-165.732	-0.351	-0.015
-694.441	-101.081	-0.344	-0.086
-693.426	-200.000	0.031	0.310
-692.412	-140.829	-0.471	0.049
-691.397	-11.921	-0.179	-0.119
-690.383	77.695	-0.106	0.114
-689.368	130.004	-0.195	-0.253
-688.354	-40.065	-0.230	0.122
-687.339	-43.277	-0.156	0.080
-686.324	76.029	-0.090	0.097
-685.310	-13.097	-0.064	0.042
-684.295	50.515	-0.137	0.132
-683.281	-200.000	0.016	0.492
-682.266	450.858	-0.034	-0.077
-681.251	89.203	0.066	0.075
-680.237	280.601	0.103	0.186
-679.222	-53.965	-0.082	0.038
-678.208	50.588	0.112	-0.108
-677.193	-49.663	0.280	-0.135
-676.178	-52.278	-0.054	-0.025
-675.164	800.000	0.156	-0.446
-674.149	-123.492	-0.282	0.045
-673.135	-175.080	-0.171	0.005
-672.120	-116.828	0.422	0.078
-671.105	165.450	-0.043	0.061
-670.091	-83.836	0.120	-0.039
-669.076	107.419	-0.116	0.140
-668.062	-47.925	-0.026	0.013
-667.047	70.848	-0.121	0.127
-666.032	-200.000	-0.001	0.179
-665.018	-200.000	-0.050	0.238
-664.003	-200.000	0.056	0.327
-662.989	195.191	0.145	0.223
-661.974	-200.000	-0.036	-0.172
-660.959	-70.744	0.257	-0.098
-659.945	800.000	-0.070	-0.241
-658.930	385.988	-0.063	-0.132
-657.916	-200.000	0.014	0.274
-656.901	65.203	-0.180	0.184
-655.886	1.470	-0.231	-0.169
-654.872	603.941	-0.042	-0.107
-653.857	32.731	-0.179	-0.157
-652.843	20.142	0.183	-0.149
-651.828	-52.064	0.236	-0.111
-650.814	-34.548	0.052	0.029
-649.799	341.428	-0.181	-0.358
-648.784	30.160	0.091	-0.078
-647.770	-104.811	-0.087	-0.020
-646.755	71.563	-0.101	0.107
-645.741	75.316	-0.048	-0.051
-644.726	-200.000	-0.017	0.303
-643.711	-139.227	-0.094	-0.010
-642.697	39.918	-0.174	-0.158
-641.682	-86.547	-0.186	-0.058
-640.668	-159.474	-0.430	-0.024
-639.653	257.203	-0.160	0.278
-638.638	126.307	-0.211	0.271
-637.624	-179.884	0.316	0.007
-636.609	6.140	0.135	-0.102
-635.595	20.963	-0.247	-0.203
-634.580	46.662	0.290	0.272
-633.565	-110.254	-0.262	0.055
-632.551	-128.991	-0.180	0.026
-631.536	-200.000	-0.015	-0.257
-630.522	3.185	0.254	0.187
-629.507	-92.667	0.106	-0.030
-628.492	800.000	0.126	-0.412
-627.478	-200.000	-0.009	0.157
-626.463	-200.000	0.004	-0.070
-625.449	-86.187	-0.184	-0.057
-624.434	-98.517	-0.385	-0.100
-623.419	-61.812	-0.151	-0.064
-622.405	-200.000	-0.022	0.150
-621.390	-200.000	0.008	-0.170
-620.376	-191.827	-0.143	-0.001
-619.361	51.799	-0.211	-0.204
-618.346	-84.297	-0.168	-0.054
-617.332	75.160	-0.032	0.034
-616.317	146.651	0.112	0.152
-615.303	2.156	0.054	0.039
-614.288	-148.950	0.121	0.010
-613.273	-100.539	-0.185	-0.046
-612.259	34.876	0.191	-0.169
-611.244	70.153	-0.267	-0.279
-610.230	317.884	0.093	-0.179
-609.215	-63.874	-0.040	-0.017
-608.201	107.392	0.132	0.158
-607.186	-143.221	-0.137	-0.013
-606.171	94.575	0.051	0.058
-605.157	800.000	0.011	0.035
-604.142	800.000	0.103	-0.374
-603.128	-45.723	0.054	0.027
-602.113	-200.000	0.049	0.254
-601.098	-119.106	0.148	0.026
-600.084	310.673	0.033	-0.063
-599.069	-47.758	-0.158	-0.077
-598.055	-169.324	-0.317	0.012
-597.040	-105.864	0.203	-0.046
-596.025	-200.000	-0.076	-0.411
-595.011	86.857	0.160	-0.179
-593.996	-72.225	0.102	-0.038
-592.982	800.000	-0.096	0.318
-591.967	81.928	-0.084	-0.092
-590.952	-97.045	0.180	-0.048
-589.938	-127.308	-0.214	-0.032
-588.923	-200.000	0.009	-0.127
-587.909	-200.000	-0.086	-0.515
-586.894	614.790	-0.133	0.337
-585.879	-120.524	-0.250	-0.043
-584.865	-200.000	-0.004	-0.399
-583.850	800.000	-0.016	-0.070
-582.836	-2.053	0.312	0.221
-581.821	-200.000	0.018	-0.214
-580.806	15.739	0.167	-0.132
-579.792	14.222	-0.054	0.042
-578.777	-187.187	0.325	0.004
-577.763	68.183	0.237	0.246
-576.748	-35.023	-0.035	0.019
-575.733	132.448	-0.254	-0.331
-574.719	-36.074	-0.324	0.177
-573.704	15.935	-0.044	0.035
-572.690	-81.836	0.036	-0.012
-571.675	800.000	-0.082	-0.297
-570.661	-12.368	0.174	0.115
-569.646	-64.011	0.155	0.064
-568.631	-79.936	-0.232	-0.079
-567.617	800.000	0.070	-0.243
-566.602	-121.494	-0.156	-0.026
-565.588	-200.000	-0.039	-0.398
-564.573	-72.686	-0.038	0.014
-563.558	635.052	-0.030	0.077
-562.544	141.243	0.079	-0.105
-561.529	-200.000	0.011	0.285
-560.515	-200.000	-0.008	0.223
-559.500	724.090	0.037	0.101
-558.485	-133.885	0.154	-0.019
-557.471	76.538	-0.190	-0.203
-556.456	-17.889	0.220	-0.139
-555.442	11.169	-0.184	-0.142
-554.427	-200.000	-0.006	-0.222
-553.412	-200.000	0.373	0.001
-552.398	396.645	0.091	-0.191
-551.383	-99.998	0.043	-0.011
-550.369	-161.171	0.205	-0.011
-549.354	-10.303	0.253	-0.170
-548.339	168.770	0.020	-0.028
-547.325	-142.445	-0.031	0.003
-546.310	800.000	-0.054	0.152
-545.296	-88.405	-0.483	0.145
-544.281	-200.000	-0.013	0.079
-543.266	93.307	-0.029	0.033
-542.252	-35.326	-0.175	0.096
-541.237	-23.742	0.326	0.197
-540.223	81.918	0.194	-0.212
-539.208	-141.733	-0.477	0.048
-538.193	-62.939	0.272	-0.113
-537.179	-69.510	0.209	0.081
-536.164	81.791	0.069	0.075
-535.150	-134.251	-0.113	0.014
-534.135	28.711	-0.290	-0.248
-533.121	-200.000	-0.047	-0.235
-532.106	44.793	-0.214	-0.198
-531.091	-200.000	0.020	0.098
-530.077	162.945	-0.207	-0.293
-529.062	-29.642	0.283	0.163
-528.048	-117.752	-0.137	-0.025
-527.033	-200.000	0.007	-0.120
-526.018	-118.086	0.092	0.016
-525.004	599.286	-0.133	-0.332
-523.989	317.120	0.064	0.122
-522.975	174.893	0.116	-0.169
-521.960	-25.004	-0.250	0.149
-520.945	-0.773	-0.082	-0.059
-519.931	-51.587	-0.160	-0.075
-518.916	-14.264	0.260	-0.169
-517.902	-41.511	0.138	-0.071
-516.887	168.817	-0.130	0.187
-515.872	-19.930	0.068	-0.042
-514.858	-74.121	-0.486	-0.178
-513.843	-200.000	-0.005	0.025
-512.829	-166.006	0.119	0.005
-511.814	-200.000	0.006	-0.069
-510.799	304.285	0.112	-0.210
-509.785	-68.770	0.049	-0.019
-508.770	518.807	-0.101	0.238
-507.756	800.000	-0.065	0.241
-506.741	-118.157	0.345	-0.062
-505.726	-200.000	0.066	-0.319
-504.712	-99.644	0.509	0.129
-503.697	180.196	0.155	-0.228
-502.683	-200.000	-0.009	0.073
-501.668	128.763	-0.051	-0.066
-500.653	800.000	0.058	-0.205
-499.639	205.650	0.021	0.032
-498.624	-157.707	0.103	-0.006
-497.610	25.495	0.085	0.071
-496.595	-78.247	0.402	-0.139
-495.581	455.306	0.072	0.161
-494.566	-155.860	0.265	0.017
-493.551	-200.000	-0.022	0.177
-492.537	-47.794	-0.073	0.036
-491.522	-200.000	0.002	-0.117
-490.508	-31.116	0.194	-0.110
-489.493	408.539	0.188	0.401
-488.478	-165.170	-0.388	0.017
-487.464	44.772	-0.027	0.025
-486.449	-100.732	-0.146	-0.036
-485.435	150.319	-0.134	-0.183
-484.420	-78.343	-0.047	0.016
-483.405	20.307	0.153	0.125
-482.391	86.833	0.341	-0.378
-481.376	800.000	0.024	0.088
-480.362	-43.088	-0.156	-0.080
-479.347	-115.649	-0.140	-0.026
-478.332	800.000	-0.094	0.316
-477.318	162.250	-0.037	0.052
-476.303	332.117	0.085	-0.164
-475.289	36.699	-0.229	-0.204
-474.274	288.323	-0.102	0.187
-473.259	182.314	-0.309	0.458
-472.245	-152.344	-0.208	0.015
-471.230	-147.735	0.234	-0.020
-470.216	-118.911	0.026	0.005
-469.201	-65.539	0.070	0.028
-468.186	-106.895	0.115	0.026
-467.172	199.555	0.026	0.041
-466.157	-6.158	-0.049	-0.034
-465.143	-116.427	0.413	-0.077
-464.128	-200.000	-0.005	0.082
-463.113	56.009	0.046	-0.045
-462.099	-125.030	-0.431	-0.067
-461.084	-12.113	0.152	-0.100
-460.070	-200.000	-0.056	0.286
-459.055	32.665	-0.257	0.223
-458.040	800.000	-0.020	0.060
-457.026	-200.000	0.016	0.216
-456.011	22.615	-0.113	0.093
-454.997	-120.415	-0.144	0.025
-453.982	-136.441	0.318	0.037
-452.968	516.014	0.133	-0.312
-451.953	130.118	0.067	-0.087
-450.938	311.437	0.117	-0.221
-449.924	-53.666	0.199	-0.091
-448.909	-96.604	-0.182	-0.048
-447.895	114.665	-0.291	0.357
-446.880	-30.706	-0.184	-0.105
-445.865	-200.000	0.013	0.076
-444.851	-12.484	-0.108	-0.071
-443.836	82.858	-0.073	-0.080
-442.822	-3.825	0.113	-0.079
-441.807	14.753	0.149	-0.117
-440.792	800.000	0.053	0.213
-439.778	-200.000	0.012	-0.058
-438.763	800.000	-0.028	0.079
-437.749	-8.698	0.228	0.154
-436.734	-30.619	-0.188	0.107
-435.719	657.031	-0.046	0.119
-434.705	66.370	-0.104	0.106
-433.690	-133.832	-0.067	-0.008
-432.676	-51.369	-0.088	-0.042
-431.661	-200.000	0.005	-0.402
-430.646	800.000	-0.028	0.080
-429.632	470.681	0.127	0.286
-428.617	-127.247	0.134	-0.020
-427.603	519.175	0.133	0.312
-426.588	24.219	0.243	0.202
-425.573	-200.000	0.001	-0.017
-424.559	160.722	0.076	0.106
-423.544	183.322	0.144	-0.214
-422.530	151.552	0.174	0.238
-421.515	-64.312	-0.056	0.023
-420.500	-156.163	0.119	-0.008
-419.486	-35.162	0.222	-0.121
-418.471	-115.069	0.240	-0.046
-417.457	-112.000	0.240	0.049
-416.442	690.751	-0.073	-0.191
-415.428	-65.632	0.236	-0.095
-414.413	31.892	-0.165	0.143
-413.398	9.140	0.062	0.047
-412.384	-172.220	0.510	-0.016
-411.369	218.044	-0.163	0.262
-410.355	337.859	0.049	-0.096
-409.340	800.000	0.181	-0.522
-408.325	67.171	0.105	-0.108
-407.311	-57.790	0.164	-0.072
-406.296	-33.915	0.291	0.161
-405.282	-200.000	-0.010	0.436
-404.267	685.493	-0.173	-0.454
-403.252	-200.000	0.018	-0.082
-402.238	649.824	-0.111	0.286
-401.223	-200.000	-0.001	-0.038
-400.209	90.155	0.207	-0.232
-399.194	225.267	-0.085	-0.139
-398.179	-199.090	0.105	-0.001
-397.165	800.000	-0.077	0.245
-396.150	617.039	0.082	-0.206
-395.136	-98.389	-0.358	0.092
-394.121	-51.811	0.117	0.055
-393.106	360.270	-0.132	0.264
-392.092	-200.000	-0.021	-0.106
-391.077	-78.382	0.112	0.039
-390.063	-200.000	-0.014	0.206
-389.048	-9.886	-0.190	-0.126
-388.033	53.466	-0.099	0.095
-387.019	702.769	0.040	0.107
-386.004	-200.000	0.014	0.093
-384.990	46.224	0.087	-0.081
-383.975	-168.515	0.267	-0.010
-382.960	-82.306	0.272	0.089
-381.946	128.233	-0.091	-0.117
-380.931	-76.512	0.043	-0.015
-379.917	51.216	-0.164	-0.156
-378.902	301.270	-0.143	-0.264
-377.888	800.000	0.070	-0.282
-376.873	354.359	-0.092	0.183
-375.858	130.574	-0.049	-0.063
-374.844	16.141	-0.264	0.209
-373.829	-101.879	-0.088	-0.021
-372.815	68.190	-0.066	0.068
-371.800	800.000	-0.033	0.105
-370.785	76.663	-0.242	-0.258
-369.771	-200.000	0.122	0.550
-368.756	800.000	-0.137	0.433
-367.742	-200.000	0.023	0.347
-366.727	800.000	-0.027	-0.109
-365.712	800.000	-0.071	-0.231
-364.698	245.594	0.109	0.184
-363.683	115.661	0.260	0.318
-362.669	16.777	-0.281	0.223
-361.654	-80.733	-0.163	0.054
-360.639	51.053	0.079	0.075
-359.625	-116.039	-0.192	-0.036
-358.610	-145.310	-0.101	0.009
-357.596	-24.805	-0.121	0.072
-356.581	24.891	-0.266	-0.221
-355.566	470.291	0.099	0.224
-354.552	-200.000	0.013	0.153
-353.537	203.606	0.131	-0.203
-352.523	-48.658	-0.023	0.011
-351.508	717.930	-0.032	0.085
-350.493	800.000	0.048	0.148
-349.479	-115.808	-0.063	0.012
-348.464	-101.447	0.186	-0.045
-347.450	65.405	-0.120	0.121
-346.435	143.502	-0.263	-0.351
-345.420	800.000	0.126	-0.349
-344.406	-181.345	0.147	-0.003
-343.391	94.231	-0.097	0.111
-342.377	-6.921	-0.142	0.097
-341.362	10.796	0.274	0.210
-340.348	800.000	-0.068	-0.203
-339.333	134.140	0.115	0.150
-338.318	-200.000	-0.019	0.143
-337.304	-113.357	-0.252	0.050
-336.289	-124.648	-0.295	0.046
-335.275	112.077	0.187	0.226
-334.260	15.848	-0.206	0.162
-333.245	-63.753	0.354	0.145
-332.231	-189.384	-0.172	-0.002
-331.216	-187.686	-0.328	0.004
-330.202	-90.913	-0.137	0.039
-329.187	760.059	-0.101	0.273
-328.172	295.431	-0.038	0.069
-327.158	-81.617	-0.200	0.066
-326.143	454.222	-0.103	0.228
-325.129	567.835	-0.059	-0.142
-324.114	-149.912	0.211	0.017
-323.099	295.486	-0.027	0.049
-322.085	-200.000	-0.019	0.125
-321.070	-85.343	-0.124	-0.039
-320.056	534.850	0.067	0.159
-319.041	-79.691	0.187	-0.063
-318.026	-200.000	0.056	0.321
-317.012	-200.000	-0.059	-0.333
-315.997	-200.000	0.017	-0.132
-314.983	-123.296	0.066	-0.011
-313.968	-115.170	-0.342	0.065
-312.953	-86.712	0.320	0.098
-311.939	72.755	-0.180	-0.187
-310.924	671.042	-0.057	-0.148
-309.910	286.357	-0.114	0.206
-308.895	239.253	0.075	0.124
-307.880	-170.837	0.266	0.009
-306.866	-157.562	-0.171	0.010
-305.851	136.560	0.094	0.123
-304.837	90.089	-0.139	-0.156
-303.822	-200.000	0.040	-0.341
-302.807	168.150	-0.029	0.042
-301.793	-174.342	0.347	-0.010
-300.778	-200.000	-0.061	-0.285
-299.764	325.662	-0.155	-0.296
-298.749	-161.858	-0.333	-0.017
-297.735	187.319	0.046	0.068
-296.720	227.942	-0.115	0.187
-295.705	-47.549	-0.195	-0.095
-294.691	-160.027	0.409	0.022
-293.676	250.499	0.098	0.165
-292.662	432.947	-0.094	0.205
-291.647	39.732	-0.168	-0.150
-290.632	-80.242	-0.101	-0.034
-289.618	2.567	0.339	0.245
-288.603	83.286	-0.057	0.062
-287.589	68.560	-0.138	0.141
-286.574	263.394	-0.106	0.184
-285.559	143.906	0.255	0.340
-284.545	-200.000	-0.022	0.166
-283.530	-72.224	-0.117	0.043
-282.516	-137.070	0.602	-0.069
-281.501	4.718	-0.111	-0.081
-280.486	-27.180	-0.408	0.237
-279.472	800.000	0.141	0.434
-278.457	79.231	0.221	-0.237
-277.443	-39.281	-0.213	-0.112
-276.428	-200.000	-0.003	0.103
-275.413	402.849	0.107	-0.225
-274.399	800.000	0.028	-0.081
-273.384	196.306	0.127	-0.194
-272.370	3.486	-0.322	-0.234
-271.355	245.863	-0.120	0.201
-270.340	-59.872	-0.145	0.062
-269.326	800.000	-0.053	0.189
-268.311	76.434	-0.287	0.303
-267.297	-200.000	-0.044	0.311
-266.282	-129.545	0.191	0.026
-265.267	-160.854	-0.041	0.002
-264.253	800.000	0.054	-0.206
-263.238	-168.783	-0.218	0.008
-262.224	121.339	0.204	0.253
-261.209	-26.848	0.095	-0.055
-260.195	625.989	-0.038	0.096
-259.180	800.000	-0.105	-0.320
-258.165	-200.000	-0.006	-0.077
-257.151	-200.000	-0.032	-0.147
-256.136	-154.674	0.282	0.019
-255.122	19.442	-0.114	-0.091
-254.107	252.396	-0.071	-0.121
-253.092	-120.686	0.224	0.038
-252.078	372.988	-0.120	-0.244
-251.063	-67.292	0.102	0.040
-250.049	259.661	-0.148	0.256
-249.034	-78.648	0.172	0.059
-248.019	216.821	0.083	-0.132
-247.005	-13.753	0.335	-0.216
-245.990	-70.845	0.012	-0.004
-244.976	65.674	0.122	-0.123
-243.961	362.502	-0.050	-0.100
-242.946	282.519	0.191	0.342
-241.932	707.391	-0.119	0.312
-240.917	238.802	-0.135	0.224
-239.903	-200.000	0.045	0.326
-238.888	658.899	0.059	0.151
-237.873	32.499	0.289	-0.249
-236.859	555.697	-0.007	0.016
-235.844	233.046	-0.090	-0.148
-234.830	-151.671	0.528	-0.039
-233.815	-97.160	0.448	-0.117
-232.800	-107.613	-0.075	-0.016
-231.786	84.145	-0.267	0.291
-230.771	25.872	0.385	0.320
-229.757	100.933	-0.163	0.189
-228.742	454.491	-0.187	0.413
-227.727	66.976	-0.119	-0.121
-226.713	-200.000	-0.013	-0.101
-225.698	800.000	-0.062	0.234
-224.684	313.205	-0.044	-0.083
-223.669	510.787	-0.112	-0.259
-222.655	0.804	-0.102	-0.072
-221.640	-200.000	0.021	0.357
-220.625	-180.968	0.034	-0.001
-219.611	285.204	0.035	-0.062
-218.596	-200.000	-0.017	-0.162
-217.582	18.881	0.113	0.090
-216.567	-93.037	-0.365	0.101
-215.552	-200.000	-0.020	-0.321
-214.538	-21.113	0.093	0.057
-213.523	327.590	0.099	-0.190
-212.509	452.558	-0.034	0.074
-211.494	800.000	-0.047	-0.194
-210.479	-200.000	-0.017	-0.211
-209.465	-199.685	-0.258	-0.001
-208.450	-9.546	0.232	-0.154
-207.436	69.542	0.160	-0.164
-206.421	780.336	0.112	-0.305
-205.406	-76.936	-0.118	-0.041
-204.392	241.036	-0.079	0.131
-203.377	-52.588	-0.322	0.148
-202.363	800.000	-0.100	-0.321
-201.348	-69.187	0.439	0.168
-200.333	493.900	0.157	-0.358
-199.319	-104.573	-0.385	-0.089
-198.304	-200.000	0.003	0.157
-197.290	-172.359	-0.233	-0.007
-196.275	800.000	0.120	0.331
-195.260	177.980	0.002	-0.003
-194.246	-200.000	-0.062	-0.280
-193.231	365.462	-0.138	-0.277
-192.217	-73.472	0.346	-0.126
-191.202	-73.166	-0.139	-0.051
-190.187	-6.824	0.268	0.182
-189.173	16.418	-0.138	-0.108
-188.158	-141.422	0.139	-0.014
-187.144	800.000	0.069	0.237
-186.129	-200.000	-0.002	-0.232
-185.114	136.213	-0.116	0.151
-184.100	-120.902	-0.275	0.046
-183.085	-115.316	-0.097	-0.018
-182.071	-13.149	-0.066	0.043
-181.056	-158.276	0.256	0.015
-180.042	800.000	-0.094	-0.364
-179.027	-59.889	0.207	-0.088
-178.012	516.608	-0.083	0.192
-176.998	179.408	-0.200	0.292
-175.983	800.000	-0.097	0.412
-174.969	-200.000	0.034	0.258
-173.954	454.641	0.165	0.363
-172.939	-200.000	-0.012	0.140
-171.925	113.987	-0.126	-0.152
-170.910	12.643	0.195	-0.150
-169.896	55.859	-0.159	0.153
-168.881	-90.229	-0.225	-0.065
-167.866	-75.773	0.315	-0.111
-166.852	-108.913	0.082	-0.017
-165.837	-1.132	-0.108	-0.076
-164.823	-45.010	0.310	-0.154
-163.808	-108.545	-0.354	0.076
-162.793	-200.000	-0.002	0.199
-161.779	-22.470	0.134	0.081
-160.764	-200.000	-0.036	-0.368
-159.750	-200.000	-0.006	-0.164
-158.735	322.835	0.184	-0.349
-157.720	-55.865	0.137	-0.061
-156.706	-66.146	0.220	-0.087
-155.691	72.388	0.230	-0.238
-154.677	34.962	0.216	-0.188
-153.662	57.589	-0.176	-0.171
-152.647	800.000	0.135	0.506
-151.633	122.794	0.107	0.134
-150.618	-35.420	-0.162	-0.087
-149.604	-34.998	0.146	0.079
-148.589	-175.643	0.150	0.004
-147.574	-90.697	0.371	0.106
-146.560	-64.149	-0.330	0.134
-145.545	515.968	0.138	-0.321
-144.531	24.878	0.156	0.129
-143.516	-200.000	-0.028	-0.133
-142.502	203.528	-0.155	-0.238
-141.487	364.146	0.244	-0.488
-140.472	-10.211	0.121	-0.080
-139.458	107.281	-0.102	0.121
-138.443	-150.487	-0.143	0.011
-137.429	800.000	-0.138	0.401
-136.414	-72.304	0.115	0.042
-135.399	-55.110	-0.141	0.063
-134.385	800.000	0.105	0.360
-133.370	115.041	0.161	-0.196
-132.356	800.000	0.157	0.437
-131.341	-10.820	-0.165	0.109
-130.326	267.691	0.086	-0.149
-129.312	-156.815	-0.235	-0.014
-128.297	-134.293	-0.299	-0.036
-127.283	800.000	-0.089	0.274
-126.268	-200.000	0.005	0.026
-125.253	-112.020	-0.420	0.084
-124.239	-32.274	-0.287	0.159
-123.224	31.369	-0.233	0.198
-122.210	-86.636	0.368	0.112
