DTS Sentinel unit serial number:	SN413079Multiplexer serial number:	ORYXHardware model number:	OX4-SRSoftware version number:	ORYX F/W v4.00 Oryx Data Collector v3.7.2.0data status	okinstallation	princeton_trtdifferential loss correction	single-endedforward channel	channel 2reverse channel	N/Adate	2019/09/17time	17:55:35forward acquisition time	60.00reverse acquisition time	0.00gamma	496.2192k internal	0.2289k external	0.2289temperature offset calibration	0.9984default loss term (dB/km)	0.3790temperature slope calibration	1.0000multiplexer offset coefficient	1.0000multiplexer slope coefficient	1.0000fibre end	0.00T internal ref (°C)	43.50T ext. ref 1 (°C)	0.33T ext. ref 2 (°C)	38.38length (m)	temperature (°C)	Stokes	anti-Stokes-747.200	14.311	-0.150	0.120
-746.185	-200.000	0.057	0.523
-745.171	451.910	-0.154	0.350
-744.156	-200.000	-0.036	0.365
-743.142	102.083	0.074	0.089
-742.127	87.155	0.082	-0.092
-741.112	-106.237	0.145	0.033
-740.098	-38.908	0.167	-0.090
-739.083	-24.728	0.162	0.099
-738.069	-164.070	-0.223	-0.011
-737.054	50.787	-0.114	-0.111
-736.039	-42.416	0.263	0.138
-735.025	-200.000	0.032	0.465
-734.010	-85.592	-0.212	0.067
-732.996	-38.199	-0.087	-0.047
-731.981	91.066	-0.247	-0.284
-730.966	49.135	-0.153	0.147
-729.952	66.714	-0.371	-0.386
-728.937	683.773	-0.157	-0.418
-727.923	245.894	0.252	-0.435
-726.908	84.328	-0.078	0.088
-725.894	53.134	0.138	0.136
-724.879	230.489	0.134	-0.224
-723.864	-100.341	-0.412	0.105
-722.850	86.446	-0.068	-0.077
-721.835	800.000	0.038	-0.143
-720.821	-89.229	0.090	-0.027
-719.806	-122.888	0.026	0.004
-718.791	401.941	-0.144	-0.310
-717.777	-116.516	0.231	0.044
-716.762	-12.765	0.129	-0.086
-715.748	-118.178	-0.133	0.024
-714.733	-20.527	-0.183	0.115
-713.718	-70.345	0.422	-0.164
-712.704	-200.000	-0.008	-0.089
-711.689	-200.000	-0.093	-0.556
-710.675	800.000	0.052	-0.159
-709.660	800.000	0.079	-0.242
-708.645	118.150	-0.062	0.078
-707.631	-91.555	-0.119	0.035
-706.616	-116.907	0.137	-0.026
-705.602	800.000	-0.106	0.387
-704.587	-153.448	-0.356	-0.025
-703.572	97.376	-0.207	-0.243
-702.558	89.410	-0.158	-0.180
-701.543	2.762	0.168	-0.125
-700.529	51.165	0.109	-0.106
-699.514	-61.270	0.174	0.075
-698.499	800.000	-0.062	0.184
-697.485	800.000	-0.129	0.479
-696.470	-200.000	0.047	0.453
-695.456	-25.663	-0.081	-0.049
-694.441	-59.439	-0.266	-0.117
-693.426	-200.000	-0.024	-0.197
-692.412	159.085	0.097	-0.138
-691.397	-155.326	-0.037	0.002
-690.383	-200.000	0.027	0.135
-689.368	159.538	0.057	0.082
-688.354	335.415	0.079	0.156
-687.339	150.875	-0.056	0.078
-686.324	523.762	0.179	0.431
-685.310	35.927	0.154	0.138
-684.295	-117.825	0.235	0.043
-683.281	-200.000	0.008	0.168
-682.266	-200.000	0.000	-0.178
-681.251	116.666	-0.068	-0.085
-680.237	-200.000	-0.010	-0.428
-679.222	13.665	-0.263	0.209
-678.208	605.349	-0.087	0.222
-677.193	-36.898	0.187	-0.102
-676.178	-107.721	0.149	0.033
-675.164	-59.055	0.138	0.061
-674.149	-21.082	-0.349	-0.219
-673.135	800.000	-0.098	-0.415
-672.120	-97.867	0.165	0.044
-671.105	-116.194	-0.350	0.066
-670.091	289.530	0.093	0.171
-669.076	246.359	-0.131	-0.226
-668.062	7.616	0.017	-0.013
-667.047	-40.209	0.196	-0.104
-666.032	26.774	-0.124	0.106
-665.018	-0.197	-0.072	-0.052
-664.003	436.115	-0.053	0.117
-662.989	100.541	0.014	-0.017
-661.974	-115.395	-0.227	0.044
-660.959	-92.473	-0.142	0.041
-659.945	262.024	-0.192	-0.341
-658.930	-113.210	0.179	0.036
-657.916	-60.857	-0.200	0.087
-656.901	-105.533	0.126	0.029
-655.886	-137.264	0.169	-0.020
-654.872	335.228	0.104	-0.206
-653.857	-109.220	-0.376	-0.081
-652.843	-91.326	-0.200	-0.059
-651.828	-121.387	0.049	0.008
-650.814	224.120	0.059	-0.097
-649.799	385.243	-0.083	-0.174
-648.784	73.950	-0.041	0.044
-647.770	12.268	0.240	-0.189
-646.755	800.000	-0.071	-0.281
-645.741	204.915	0.031	-0.049
-644.726	800.000	0.043	-0.139
-643.711	-82.428	0.201	-0.067
-642.697	-200.000	0.035	-0.295
-641.682	800.000	-0.171	-0.529
-640.668	-1.163	-0.096	0.070
-639.653	-200.000	0.047	-0.248
-638.638	176.339	-0.104	0.154
-637.624	-200.000	0.006	0.185
-636.609	-29.416	0.228	0.133
-635.595	177.647	0.061	0.091
-634.580	800.000	-0.065	-0.185
-633.565	800.000	-0.042	0.171
-632.551	-78.459	-0.166	0.058
-631.536	-114.035	-0.390	0.077
-630.522	-86.993	0.365	0.114
-629.507	20.768	0.100	-0.083
-628.492	97.515	-0.020	0.023
-627.478	146.708	0.230	0.316
-626.463	-75.634	-0.076	0.027
-625.449	-86.764	0.182	-0.057
-624.434	-138.886	0.180	-0.020
-623.419	171.846	-0.222	0.326
-622.405	0.514	0.224	-0.163
-621.390	-94.092	0.273	-0.076
-620.376	271.281	0.052	0.093
-619.361	-94.292	-0.224	0.063
-618.346	-113.915	0.141	0.028
-617.332	-134.124	-0.602	0.076
-616.317	-200.000	0.005	0.224
-615.303	800.000	0.065	-0.239
-614.288	-200.000	0.012	-0.060
-613.273	47.558	-0.153	0.145
-612.259	-37.058	0.224	0.122
-611.244	412.644	-0.036	-0.077
-610.230	-200.000	-0.029	-0.156
-609.215	83.146	0.314	-0.349
-608.201	318.749	0.053	0.102
-607.186	638.091	-0.085	0.220
-606.171	119.066	0.214	0.270
-605.157	28.055	-0.335	-0.288
-604.142	-92.861	-0.136	-0.039
-603.128	348.243	0.059	0.119
-602.113	-61.247	-0.170	0.073
-601.098	-62.392	-0.500	0.212
-600.084	-200.000	-0.035	0.343
-599.069	-200.000	-0.021	0.137
-598.055	-62.742	0.228	-0.096
-597.040	16.705	0.219	0.176
-596.025	-106.999	0.183	0.041
-595.011	-107.054	-0.529	-0.119
-593.996	-200.000	-0.015	-0.520
-592.982	-71.434	0.076	0.029
-591.967	-15.724	-0.118	0.077
-590.952	-60.185	0.235	-0.102
-589.938	-30.227	0.107	0.062
-588.923	-83.806	0.288	0.094
-587.909	-200.000	-0.021	-0.144
-586.894	-200.000	0.018	0.175
-585.879	800.000	-0.028	-0.120
-584.865	-129.955	0.258	0.036
-583.850	-200.000	-0.052	-0.317
-582.836	-102.090	0.162	0.040
-581.821	-200.000	-0.020	0.371
-580.806	132.383	0.075	-0.099
-579.792	134.376	-0.212	-0.280
-578.777	800.000	0.102	0.396
-577.763	-200.000	-0.036	0.380
-576.748	800.000	0.038	-0.166
-575.733	284.554	0.128	0.234
-574.719	9.727	-0.131	-0.101
-573.704	312.860	-0.066	-0.126
-572.690	358.257	0.143	0.291
-571.675	195.004	-0.315	0.488
-570.661	298.078	0.075	-0.141
-569.646	-138.928	-0.052	0.006
-568.631	-119.368	-0.335	-0.059
-567.617	-79.679	0.263	-0.090
-566.602	-159.851	0.522	0.029
-565.588	800.000	0.054	0.179
-564.573	158.766	0.063	0.089
-563.558	53.254	0.119	0.116
-562.544	195.596	0.091	0.140
-561.529	369.576	-0.126	0.259
-560.515	800.000	0.057	-0.236
-559.500	105.230	0.119	-0.143
-558.485	-82.425	0.050	-0.016
-557.471	39.237	-0.242	-0.221
-556.456	-200.000	-0.015	0.189
-555.442	437.994	0.084	0.186
-554.427	106.009	-0.109	-0.131
-553.412	-118.000	0.152	0.028
-552.398	204.798	0.169	-0.266
-551.383	162.055	-0.284	0.404
-550.369	-200.000	-0.005	0.174
-549.354	-17.291	0.118	0.075
-548.339	-20.132	0.334	-0.209
-547.325	-21.788	0.035	-0.022
-546.310	274.684	-0.040	0.072
-545.296	542.518	0.087	0.212
-544.281	-76.485	-0.205	0.073
-543.266	199.181	0.072	-0.113
-542.252	448.334	-0.017	-0.039
-541.237	6.885	-0.174	0.132
-540.223	-200.000	0.014	-0.143
-539.208	-13.474	-0.144	0.095
-538.193	13.436	-0.322	0.254
-537.179	-200.000	-0.029	0.246
-536.164	-200.000	-0.025	-0.134
-535.150	800.000	0.080	-0.229
-534.135	-164.318	-0.390	0.018
-533.121	-40.417	0.123	-0.065
-532.106	397.398	0.096	-0.203
-531.091	-71.035	-0.266	0.102
-530.077	-77.685	0.503	0.177
-529.062	4.883	0.073	-0.054
-528.048	-50.989	0.317	0.151
-527.033	-200.000	-0.022	-0.173
-526.018	800.000	0.065	-0.225
-525.004	-200.000	-0.025	-0.215
-523.989	297.474	0.074	-0.137
-522.975	-200.000	-0.343	0.001
-521.960	-107.753	-0.348	0.077
-520.945	118.400	0.101	0.126
-519.931	-151.428	0.172	-0.013
-518.916	-138.766	-0.196	-0.022
-517.902	17.888	0.254	0.206
-516.887	453.964	-0.178	0.400
-515.872	23.736	-0.095	0.079
-514.858	800.000	-0.049	-0.191
-513.843	-24.504	0.246	-0.149
-512.829	-200.000	-0.075	-0.416
-511.814	-146.492	-0.168	-0.015
-510.799	14.772	0.103	0.082
-509.785	11.759	-0.219	0.171
-508.770	-15.871	-0.173	-0.112
-507.756	-86.362	-0.343	-0.107
-506.741	-1.786	-0.089	0.064
-505.726	416.200	0.069	0.149
-504.712	449.354	-0.157	-0.351
-503.697	41.882	0.153	-0.141
-502.683	204.177	0.036	0.057
-501.668	152.553	-0.092	-0.128
-500.653	-150.914	0.018	-0.001
-499.639	-65.548	0.139	-0.057
-498.624	228.286	-0.163	-0.270
-497.610	31.381	-0.226	0.197
-496.595	213.773	0.101	0.162
-495.581	-170.490	0.157	-0.006
-494.566	3.042	-0.224	-0.165
-493.551	-200.000	-0.026	0.155
-492.537	251.347	0.026	-0.045
-491.522	50.072	-0.305	0.292
-490.508	-200.000	-0.034	-0.174
-489.493	-136.915	-0.202	0.024
-488.478	37.641	-0.177	0.159
-487.464	-35.731	-0.094	-0.052
-486.449	-200.000	0.015	0.234
-485.435	-75.403	-0.273	-0.099
-484.420	74.416	-0.100	0.107
-483.405	800.000	-0.084	0.268
-482.391	-41.186	0.315	-0.165
-481.376	-145.143	-0.432	0.040
-480.362	-22.290	0.236	-0.145
-479.347	-13.750	-0.163	0.107
-478.332	-131.247	0.125	-0.017
-477.318	-175.097	-0.240	0.007
-476.303	-123.924	-0.282	0.045
-475.289	-119.162	0.261	-0.046
-474.274	-107.698	-0.278	-0.062
-473.259	-100.929	-0.284	-0.071
-472.245	-69.865	-0.257	-0.100
-471.230	208.370	0.092	0.145
-470.216	684.334	-0.086	0.228
-469.201	-107.465	-0.062	0.014
-468.186	-200.000	0.008	-0.170
-467.172	298.234	0.082	-0.153
-466.157	-124.218	-0.376	0.060
-465.143	10.419	-0.140	-0.108
-464.128	20.438	-0.054	0.045
-463.113	24.093	0.109	-0.092
-462.099	487.210	0.092	0.213
-461.084	-114.209	0.125	-0.025
-460.070	-200.000	0.028	-0.160
-459.055	80.460	-0.180	-0.197
-458.040	21.228	0.436	-0.359
-457.026	800.000	-0.075	-0.225
-456.011	-154.475	-0.189	-0.013
-454.997	-88.495	-0.140	-0.042
-453.982	-113.277	-0.260	0.052
-452.968	-124.691	0.147	-0.023
-451.953	800.000	-0.096	0.276
-450.938	-39.816	-0.368	0.195
-449.924	220.609	-0.168	0.272
-448.909	-159.092	0.320	0.018
-447.895	-200.000	0.019	0.097
-446.880	-75.795	0.123	-0.044
-445.865	-200.000	-0.049	0.274
-444.851	-177.796	-0.391	-0.010
-443.836	-1.078	0.112	0.080
-442.822	-200.000	-0.051	-0.346
-441.807	-51.252	-0.080	0.038
-440.792	504.508	0.135	-0.317
-439.778	-76.591	0.174	0.062
-438.763	-68.432	0.221	0.087
-437.749	111.275	-0.216	0.263
-436.734	-18.385	-0.115	-0.073
-435.719	-160.047	0.243	0.013
-434.705	-200.000	-0.011	0.113
-433.690	-200.000	0.001	0.195
-432.676	-85.215	0.131	-0.042
-431.661	172.533	0.139	-0.202
-430.646	526.310	0.101	0.240
-429.632	282.152	0.057	-0.104
-428.617	178.455	0.166	0.245
-427.603	150.718	0.144	-0.199
-426.588	-130.062	0.365	-0.050
-425.573	-130.518	-0.131	0.018
-424.559	-94.539	-0.389	0.107
-423.544	-99.027	0.280	-0.072
-422.530	-24.203	0.164	0.099
-421.515	-117.289	-0.153	-0.028
-420.500	297.692	0.094	-0.175
-419.486	-132.960	0.170	-0.022
-418.471	800.000	-0.046	-0.175
-417.457	-55.293	0.064	-0.029
-416.442	800.000	0.106	0.320
-415.428	64.222	0.209	-0.213
-414.413	-162.921	0.209	-0.010
-413.398	-200.000	-0.012	0.435
-412.384	34.816	0.035	0.031
-411.369	-200.000	0.000	0.168
-410.355	800.000	-0.050	-0.216
-409.340	585.954	-0.103	-0.257
-408.325	78.694	0.111	-0.121
-407.311	-200.000	0.034	0.158
-406.296	79.655	-0.101	0.110
-405.282	-145.826	-0.179	0.016
-404.267	-89.425	0.257	-0.076
-403.252	80.104	0.313	0.340
-402.238	800.000	-0.014	-0.040
-401.223	14.540	0.242	0.191
-400.209	111.694	0.084	0.102
-399.194	-42.855	0.247	-0.127
-398.179	-96.699	0.352	-0.094
-397.165	-200.000	0.047	-0.294
-396.150	41.051	-0.121	-0.110
-395.136	-33.665	-0.147	-0.082
-394.121	57.171	-0.135	0.133
-393.106	27.923	-0.197	-0.168
-392.092	-200.000	-0.030	0.179
-391.077	800.000	0.168	-0.487
-390.063	42.268	0.216	-0.198
-389.048	800.000	-0.042	-0.184
-388.033	91.946	-0.102	0.116
-387.019	-200.000	-0.028	0.135
-386.004	95.692	-0.137	0.158
-384.990	113.935	0.140	-0.172
-383.975	-154.023	-0.316	0.022
-382.960	-99.237	-0.064	0.016
-381.946	-85.960	-0.485	-0.152
-380.931	87.238	-0.002	0.003
-379.917	-95.578	0.173	-0.047
-378.902	432.567	0.168	0.367
-377.888	98.454	-0.163	0.189
-376.873	270.733	-0.056	-0.099
-375.858	251.568	0.082	0.141
-374.844	-164.223	-0.509	-0.024
-373.829	-99.964	0.095	-0.024
-372.815	-200.000	-0.016	0.124
-371.800	-97.655	-0.183	0.048
-370.785	-200.000	-0.018	-0.524
-369.771	800.000	-0.093	0.308
-368.756	518.376	-0.112	-0.265
-367.742	28.222	0.217	0.185
-366.727	-200.000	-0.013	0.223
-365.712	-200.000	-0.010	0.107
-364.698	-200.000	-0.020	-0.149
-363.683	114.344	0.136	0.167
-362.669	-65.504	-0.482	0.196
-361.654	43.806	0.083	0.077
-360.639	216.027	0.190	-0.304
-359.625	-200.000	0.024	-0.145
-358.610	298.447	-0.069	0.128
-357.596	-124.314	0.232	0.037
-356.581	-200.000	0.023	-0.214
-355.566	372.261	-0.047	-0.097
-354.552	-200.000	0.044	-0.201
-353.537	-70.614	-0.185	-0.071
-352.523	-200.000	0.004	-0.100
-351.508	-163.702	-0.079	-0.004
-350.493	-200.000	-0.059	-0.261
-349.479	205.940	0.150	-0.236
-348.464	47.516	0.120	-0.113
-347.450	-4.220	-0.353	0.247
-346.435	4.358	0.073	0.054
-345.420	379.579	-0.088	-0.182
-344.406	-52.893	0.145	-0.068
-343.391	-9.955	0.206	0.138
-342.377	-200.000	0.007	0.062
-341.362	-73.407	0.357	-0.132
-340.348	-200.000	-0.006	-0.171
-339.333	27.775	0.095	0.081
-338.318	530.222	0.077	-0.183
-337.304	-156.090	-0.385	-0.025
-336.289	-134.724	0.242	-0.030
-335.275	-200.000	-0.019	-0.493
-334.260	800.000	0.024	-0.102
-333.245	-162.018	0.113	0.006
-332.231	135.219	0.058	0.076
-331.216	-36.315	-0.101	-0.055
-330.202	114.163	0.275	0.337
-329.187	-158.437	-0.354	-0.021
-328.172	61.475	-0.098	-0.098
-327.158	48.269	-0.117	0.110
-326.143	306.672	-0.053	-0.099
-325.129	-200.000	0.002	0.129
-324.114	163.034	0.029	-0.041
-323.099	45.040	0.093	-0.086
-322.085	-145.143	-0.051	-0.005
-321.070	-23.381	0.022	-0.013
-320.056	800.000	0.033	-0.106
-319.041	239.715	0.086	-0.145
-318.026	800.000	-0.071	0.274
-317.012	-126.021	-0.325	-0.049
-315.997	-198.425	-0.192	0.001
-314.983	-130.329	-0.378	0.052
-313.968	80.280	-0.145	-0.158
-312.953	-106.309	0.180	0.041
-311.939	-92.883	-0.355	0.100
-310.924	199.091	-0.058	-0.089
-309.910	370.080	-0.094	-0.192
-308.895	-200.000	0.044	-0.241
-307.880	19.604	-0.104	-0.084
-306.866	-25.383	-0.111	-0.066
-305.851	11.983	0.093	-0.072
-304.837	82.363	0.108	0.118
-303.822	-200.000	-0.009	-0.072
-302.807	10.493	-0.318	0.244
-301.793	-13.955	0.215	0.140
-300.778	409.511	0.145	0.310
-299.764	227.453	-0.131	0.214
-298.749	-164.861	0.195	-0.009
-297.735	204.028	0.105	0.163
-296.720	-101.896	0.126	0.031
-295.705	-200.000	0.070	0.372
-294.691	-200.000	0.007	-0.151
-293.676	-75.011	0.150	0.054
-292.662	27.181	-0.084	-0.071
-291.647	365.729	-0.102	0.207
-290.632	-200.000	-0.085	0.443
-289.618	-59.072	-0.474	-0.206
-288.603	-174.527	0.420	0.012
-287.589	800.000	0.063	0.233
-286.574	-200.000	0.048	-0.269
-285.559	800.000	-0.071	0.269
-284.545	52.371	-0.017	0.016
-283.530	-200.000	-0.005	0.054
-282.516	-116.304	-0.160	-0.030
-281.501	800.000	-0.119	-0.331
-280.486	800.000	-0.109	-0.306
-279.472	19.050	-0.164	-0.132
-278.457	-123.865	0.150	-0.024
-277.443	-90.123	0.147	-0.043
-276.428	-8.524	-0.515	0.348
-275.413	-200.000	-0.035	0.164
-274.399	223.198	-0.148	-0.241
-273.384	-105.181	0.177	-0.041
-272.370	-200.000	-0.006	-0.080
-271.355	-99.711	0.107	0.027
-270.340	-200.000	-0.015	-0.195
-269.326	145.966	0.084	-0.114
-268.311	-30.525	0.177	0.101
-267.297	120.711	-0.218	-0.273
-266.282	139.065	0.205	-0.271
-265.267	227.678	0.189	-0.309
-264.253	-200.000	0.010	0.092
-263.238	-22.614	-0.202	0.123
-262.224	-200.000	0.009	0.186
-261.209	-72.598	-0.294	-0.109
-260.195	-200.000	0.022	-0.144
-259.180	-58.069	0.312	0.137
-258.165	195.570	-0.121	0.185
-257.151	-46.349	-0.264	0.130
-256.136	-167.503	-0.094	-0.004
-255.122	-0.782	-0.223	-0.159
-254.107	-200.000	-0.018	-0.284
-253.092	800.000	-0.120	0.357
-252.078	52.447	0.210	0.202
-251.063	-158.626	0.240	-0.014
-250.049	-85.444	-0.082	0.026
-249.034	-35.283	-0.289	0.158
-248.019	-200.000	0.006	0.145
-247.005	-17.496	0.233	-0.148
-245.990	30.208	0.205	-0.176
-244.976	800.000	0.094	0.341
-243.961	463.666	-0.024	-0.054
-242.946	101.076	0.068	-0.080
-241.932	800.000	-0.070	0.282
-240.917	800.000	0.047	0.159
-239.903	-146.343	0.082	-0.007
-238.888	-200.000	0.033	-0.183
-237.873	518.387	0.187	0.440
-236.859	800.000	0.081	-0.249
-235.844	800.000	0.081	-0.238
-234.830	-87.422	-0.098	0.030
-233.815	800.000	-0.092	0.288
-232.800	44.761	0.188	0.174
-231.786	76.979	-0.147	0.157
-230.771	-1.478	-0.063	0.044
-229.757	735.843	0.041	0.111
-228.742	89.353	0.112	0.125
-227.727	226.468	-0.193	-0.315
-226.713	-121.841	0.154	-0.025
-225.698	115.045	-0.416	-0.510
-224.684	-200.000	0.002	-0.116
-223.669	-134.467	0.264	0.032
-222.655	109.588	-0.304	0.366
-221.640	-148.468	0.250	0.021
-220.625	-33.661	-0.094	-0.052
-219.611	-70.760	0.344	-0.131
-218.596	-108.844	-0.169	0.036
-217.582	-95.124	0.028	0.008
-216.567	-200.000	-0.003	-0.014
-215.552	300.794	-0.105	-0.194
-214.538	582.390	0.086	-0.211
-213.523	-69.290	-0.211	0.081
-212.509	-60.831	0.228	-0.097
-211.494	200.751	-0.169	-0.260
-210.479	456.134	0.040	-0.088
-209.465	116.792	-0.260	0.320
-208.450	-162.564	0.439	0.022
-207.436	309.644	-0.094	-0.176
-206.421	-62.705	0.153	-0.064
-205.406	-117.727	0.372	-0.067
-204.392	800.000	0.117	-0.370
-203.377	-142.163	0.254	-0.025
-202.363	-27.575	0.178	0.104
-201.348	-56.364	0.121	0.054
-200.333	189.461	0.090	-0.135
-199.319	491.445	-0.028	0.063
-198.304	70.735	-0.227	0.235
-197.290	-137.008	-0.283	-0.033
-196.275	-102.344	-0.085	-0.020
-195.260	800.000	0.073	0.290
-194.246	122.619	-0.104	0.130
-193.231	800.000	-0.005	0.018
-192.217	-164.800	0.153	0.007
-191.202	-169.458	0.306	0.011
-190.187	136.555	0.116	0.152
-189.173	174.395	0.112	0.162
-188.158	467.753	0.062	-0.140
-187.144	-122.773	0.101	-0.016
-186.129	18.052	-0.223	-0.178
-185.114	-73.556	0.121	-0.044
-184.100	-63.293	0.216	0.089
-183.085	800.000	-0.064	-0.222
-182.071	-104.730	0.358	-0.083
-181.056	-70.645	-0.213	-0.081
-180.042	651.414	-0.024	-0.061
-179.027	-104.782	0.098	-0.023
-178.012	-20.777	0.104	0.064
-176.998	-94.799	-0.199	-0.054
-175.983	207.839	-0.070	0.110
-174.969	-192.748	0.317	0.003
-173.954	-86.681	-0.129	-0.040
-172.939	-52.226	0.360	0.167
-171.925	13.532	0.066	0.051
-170.910	0.194	0.117	0.084
-169.896	124.744	0.117	-0.148
-168.881	-10.345	0.254	-0.169
-167.866	249.653	-0.079	-0.134
-166.852	202.262	-0.177	-0.274
-165.837	800.000	0.064	-0.185
-164.823	366.412	-0.151	0.306
-163.808	-200.000	0.021	0.159
-162.793	-152.284	0.347	-0.025
-161.779	-74.431	0.377	0.136
-160.764	-11.327	-0.159	0.105
-159.750	366.913	0.025	0.051
-158.735	-82.164	0.211	-0.069
-157.720	-74.835	-0.204	-0.073
-156.706	-119.781	0.224	-0.039
-155.691	275.646	0.061	-0.109
-154.677	-71.465	0.055	0.021
-153.662	462.781	0.079	0.177
-152.647	-121.607	-0.275	-0.046
-151.633	173.742	-0.098	0.142
-150.618	167.708	-0.136	0.194
-149.604	-76.276	-0.291	-0.103
-148.589	-11.208	0.139	0.092
-147.574	800.000	-0.121	-0.443
-146.560	800.000	0.024	-0.094
-145.545	-7.291	-0.114	-0.077
-144.531	386.384	0.054	-0.112
-143.516	35.970	0.126	0.111
-142.502	-10.281	-0.245	-0.163
-141.487	-77.384	-0.233	-0.081
-140.472	-29.851	0.207	0.118
-139.458	800.000	-0.080	-0.240
-138.443	800.000	0.078	-0.329
-137.429	74.948	-0.153	-0.161
-136.414	-6.552	0.096	-0.065
-135.399	106.817	-0.276	-0.328
-134.385	-65.645	0.196	0.079
-133.370	-200.000	0.054	0.521
-132.356	176.628	-0.039	-0.057
-131.341	139.435	-0.049	0.065
-130.326	-131.796	-0.187	0.025
-129.312	44.808	0.193	0.177
-128.297	-98.175	0.101	-0.026
-127.283	-93.636	-0.152	-0.042
-126.268	109.982	0.109	0.131
-125.253	-25.195	0.254	0.150
-124.239	-34.731	0.347	-0.190
-123.224	-56.269	0.124	0.055
-122.210	-1.763	0.237	0.167
-121.195	29.388	-0.214	0.182
