DTS Sentinel unit serial number:	SN413079Multiplexer serial number:	ORYXHardware model number:	OX4-SRSoftware version number:	ORYX F/W v4.00 Oryx Data Collector v3.7.2.0data status	okinstallation	princeton_trtdifferential loss correction	single-endedforward channel	channel 2reverse channel	N/Adate	2019/09/17time	06:51:35forward acquisition time	60.00reverse acquisition time	0.00gamma	496.2192k internal	0.2333k external	0.2333temperature offset calibration	0.9980default loss term (dB/km)	0.3790temperature slope calibration	1.0000multiplexer offset coefficient	1.0000multiplexer slope coefficient	1.0000fibre end	0.00T internal ref (°C)	27.69T ext. ref 1 (°C)	0.13T ext. ref 2 (°C)	21.02length (m)	temperature (°C)	Stokes	anti-Stokes-747.200	-137.886	-0.161	-0.018
-746.185	-87.846	0.179	-0.054
-745.171	160.701	-0.104	-0.146
-744.156	354.864	0.144	0.287
-743.142	-120.566	-0.426	0.073
-742.127	55.161	-0.177	0.172
-741.112	-127.324	0.009	0.001
-740.098	800.000	-0.061	0.200
-739.083	21.012	-0.295	-0.240
-738.069	-200.000	0.001	-0.245
-737.054	545.198	0.036	-0.088
-736.039	-200.000	0.001	-0.083
-735.025	-71.487	0.132	0.049
-734.010	800.000	-0.107	-0.389
-732.996	800.000	-0.053	-0.154
-731.981	100.647	0.157	-0.183
-730.966	800.000	0.066	-0.264
-729.952	284.554	-0.070	0.128
-728.937	167.621	0.168	-0.240
-727.923	-200.000	-0.061	-0.409
-726.908	-200.000	-0.052	-0.337
-725.894	-123.251	0.065	-0.011
-724.879	71.189	0.173	-0.180
-723.864	-10.916	-0.129	0.086
-722.850	-200.000	-0.005	-0.287
-721.835	-21.114	-0.336	-0.206
-720.821	800.000	-0.152	-0.622
-719.806	769.208	-0.092	0.251
-718.791	-200.000	0.000	-0.388
-717.777	-89.456	0.078	0.023
-716.762	206.255	0.098	-0.154
-715.748	81.671	-0.134	-0.145
-714.733	-41.955	-0.110	-0.057
-713.718	417.836	0.079	-0.169
-712.704	-144.830	0.210	0.019
-711.689	-200.000	0.049	-0.247
-710.675	7.711	-0.174	-0.131
-709.660	-200.000	0.014	0.161
-708.645	-200.000	-0.016	-0.128
-707.631	-87.071	0.302	0.092
-706.616	-200.000	-0.012	-0.160
-705.602	800.000	-0.048	0.175
-704.587	-200.000	-0.023	0.177
-703.572	-200.000	0.006	-0.556
-702.558	136.098	-0.191	-0.251
-701.543	-185.353	0.365	-0.006
-700.529	-2.348	0.131	-0.092
-699.514	46.182	0.141	-0.131
-698.499	-129.181	-0.233	0.033
-697.485	40.187	0.111	0.100
-696.470	-92.048	0.357	0.101
-695.456	800.000	0.097	-0.281
-694.441	135.681	0.162	-0.212
-693.426	-200.000	-0.003	-0.120
-692.412	7.250	-0.166	0.125
-691.397	33.276	0.091	-0.080
-690.383	-95.815	0.220	-0.059
-689.368	100.200	-0.024	0.028
-688.354	-105.667	-0.202	0.046
-687.339	99.010	-0.199	0.231
-686.324	270.757	0.166	-0.293
-685.310	293.616	-0.100	0.184
-684.295	-0.131	-0.253	-0.181
-683.281	-73.828	-0.138	0.050
-682.266	-87.878	-0.318	0.096
-681.251	244.022	0.122	-0.205
-680.237	-200.000	-0.017	0.240
-679.222	213.988	0.060	-0.096
-678.208	219.101	-0.197	-0.316
-677.193	-37.064	-0.079	0.042
-676.178	173.845	0.118	0.170
-675.164	800.000	0.076	0.255
-674.149	29.872	0.086	-0.074
-673.135	457.562	-0.081	-0.181
-672.120	94.714	0.135	0.154
-671.105	-90.722	0.327	-0.095
-670.091	190.466	0.113	-0.171
-669.076	733.764	-0.140	-0.377
-668.062	-44.908	-0.233	-0.117
-667.047	-147.733	0.217	0.018
-666.032	83.645	-0.224	-0.245
-665.018	123.924	-0.095	0.119
-664.003	-200.000	-0.013	0.166
-662.989	246.092	0.061	-0.103
-661.974	71.621	-0.103	0.107
-660.959	-10.108	-0.119	-0.079
-659.945	-75.314	0.089	0.032
-658.930	-200.000	0.025	-0.258
-657.916	-32.776	0.400	-0.223
-656.901	304.434	-0.132	0.246
-655.886	62.683	0.153	-0.154
-654.872	-76.934	0.212	-0.074
-653.857	140.953	0.149	-0.198
-652.843	489.204	0.074	0.169
-651.828	20.427	-0.350	-0.284
-650.814	800.000	0.051	0.214
-649.799	125.810	-0.038	0.049
-648.784	-133.879	-0.088	-0.011
-647.770	54.110	0.024	-0.023
-646.755	-181.540	0.114	0.002
-645.741	3.081	0.198	-0.144
-644.726	492.683	-0.144	0.330
-643.711	-36.851	-0.410	-0.221
-642.697	626.321	-0.216	-0.546
-641.682	-200.000	-0.039	0.213
-640.668	159.342	-0.084	0.116
-639.653	319.816	0.068	0.129
-638.638	741.682	-0.048	0.129
-637.624	221.497	-0.139	-0.224
-636.609	116.952	-0.234	-0.288
-635.595	-200.000	-0.039	-0.185
-634.580	-3.562	-0.177	0.123
-633.565	-4.500	-0.327	-0.226
-632.551	169.466	-0.108	0.155
-631.536	-108.213	-0.230	0.050
-630.522	-154.911	-0.272	0.018
-629.507	129.105	-0.155	-0.198
-628.492	211.241	0.163	-0.257
-627.478	77.538	-0.137	0.146
-626.463	-200.000	-0.037	-0.236
-625.449	188.567	-0.116	-0.174
-624.434	204.729	-0.062	0.096
-623.419	-158.932	0.054	0.003
-622.405	-200.000	-0.021	-0.161
-621.390	1.001	-0.111	-0.079
-620.376	-106.143	-0.240	-0.054
-619.361	-124.797	0.148	0.023
-618.346	-16.856	-0.132	-0.083
-617.332	283.301	-0.100	-0.180
-616.317	451.049	0.120	0.265
-615.303	1.590	0.042	0.030
-614.288	96.153	-0.084	-0.096
-613.273	97.668	0.028	0.032
-612.259	-200.000	-0.001	-0.050
-611.244	-200.000	0.029	-0.321
-610.230	300.949	-0.056	0.103
-609.215	544.156	-0.087	0.207
-608.201	367.245	0.036	-0.072
-607.186	136.448	0.173	0.226
-606.171	491.395	-0.082	0.189
-605.157	-37.958	-0.147	0.078
-604.142	-200.000	0.019	0.113
-603.128	-19.892	-0.184	0.113
-602.113	143.910	0.150	-0.199
-601.098	118.055	0.098	0.121
-600.084	-198.301	-0.128	0.001
-599.069	-114.162	0.475	0.092
-598.055	-200.000	0.040	0.302
-597.040	-21.137	0.118	-0.072
-596.025	358.763	-0.053	-0.105
-595.011	206.059	-0.144	0.224
-593.996	306.197	-0.160	0.298
-592.982	-44.739	0.246	-0.123
-591.967	-35.074	0.070	0.038
-590.952	41.115	0.187	-0.169
-589.938	162.210	0.139	0.194
-588.923	155.689	-0.097	0.133
-587.909	-200.000	0.004	-0.219
-586.894	110.364	0.048	0.058
-585.879	-110.701	-0.494	-0.102
-584.865	-200.000	0.083	0.371
-583.850	30.229	-0.168	-0.143
-582.836	-95.589	-0.154	-0.041
-581.821	-6.148	-0.146	-0.099
-580.806	-200.000	-0.050	0.226
-579.792	-55.065	-0.349	-0.157
-578.777	126.859	0.296	-0.374
-577.763	101.361	-0.056	0.065
-576.748	-128.074	0.154	-0.022
-575.733	-103.473	-0.132	-0.031
-574.719	-81.471	0.187	0.061
-573.704	426.440	-0.186	-0.402
-572.690	-1.828	0.159	0.112
-571.675	48.408	0.001	0.001
-570.661	-36.009	-0.340	0.184
-569.646	-200.000	0.016	-0.135
-568.631	-200.000	0.020	-0.318
-567.617	-124.344	0.356	-0.055
-566.602	-71.195	-0.308	0.115
-565.588	116.981	0.087	0.107
-564.573	-151.950	-0.523	-0.038
-563.558	358.735	-0.118	-0.235
-562.544	-153.441	0.299	0.021
-561.529	-200.000	-0.034	0.195
-560.515	-45.121	0.180	-0.089
-559.500	-200.000	-0.051	0.262
-558.485	-176.452	0.285	0.007
-557.471	116.993	-0.111	0.136
-556.456	-200.000	-0.112	0.617
-555.442	-107.190	-0.065	-0.014
-554.427	800.000	-0.061	0.225
-553.412	-190.866	-0.395	0.004
-552.398	800.000	-0.091	-0.264
-551.383	294.717	0.078	-0.141
-550.369	800.000	-0.151	-0.504
-549.354	-200.000	-0.029	-0.151
-548.339	57.331	0.218	-0.213
-547.325	800.000	0.054	0.173
-546.310	-5.036	-0.340	0.234
-545.296	-200.000	0.027	-0.336
-544.281	181.582	-0.114	-0.168
-543.266	-38.665	0.231	-0.121
-542.252	254.291	0.079	0.134
-541.237	398.762	0.183	-0.382
-540.223	-111.967	-0.307	0.062
-539.208	142.896	-0.131	0.173
-538.193	-23.829	0.330	0.197
-537.179	245.000	0.126	0.211
-536.164	54.416	-0.237	-0.228
-535.150	-14.849	0.196	-0.125
-534.135	800.000	-0.082	-0.283
-533.121	-4.863	-0.198	0.136
-532.106	800.000	0.109	-0.438
-531.091	-3.885	0.392	-0.272
-530.077	-79.013	-0.255	0.087
-529.062	237.068	0.059	0.097
-528.048	-200.000	-0.024	0.168
-527.033	-95.848	-0.202	-0.054
-526.018	-72.172	-0.114	-0.042
-525.004	-16.823	-0.079	0.050
-523.989	-200.000	-0.021	-0.141
-522.975	-135.194	-0.188	-0.023
-521.960	53.001	-0.092	-0.088
-520.945	-200.000	0.015	0.170
-519.931	-111.839	-0.202	0.041
-518.916	49.032	0.192	0.180
-517.902	-32.658	0.110	-0.061
-516.887	59.209	0.077	-0.075
-515.872	800.000	0.036	0.107
-514.858	-63.328	0.163	-0.067
-513.843	-10.686	-0.052	0.035
-512.829	177.361	-0.144	0.209
-511.814	-0.014	-0.247	0.176
-510.799	800.000	0.037	0.115
-509.785	-13.869	-0.197	-0.127
-508.770	84.558	-0.273	0.297
-507.756	200.528	-0.103	0.157
-506.741	780.684	0.061	0.167
-505.726	-200.000	0.046	0.425
-504.712	-200.000	-0.032	0.294
-503.697	521.764	-0.018	-0.043
-502.683	43.995	0.127	-0.116
-501.668	-161.361	0.179	-0.009
-500.653	-60.958	0.170	-0.071
-499.639	-80.121	0.285	0.095
-498.624	-103.664	-0.154	0.036
-497.610	1.467	-0.293	-0.210
-496.595	118.578	0.133	-0.164
-495.581	800.000	0.167	0.542
-494.566	-200.000	-0.023	0.313
-493.551	-200.000	-0.033	0.156
-492.537	800.000	0.032	-0.127
-491.522	-21.444	0.225	0.137
-490.508	528.539	0.078	-0.182
-489.493	-136.131	0.340	0.040
-488.478	-135.374	-0.168	0.020
-487.464	-6.412	0.261	0.177
-486.449	90.657	0.196	-0.219
-485.435	-200.000	0.006	-0.236
-484.420	160.839	-0.178	0.248
-483.405	30.954	-0.029	0.025
-482.391	800.000	-0.028	0.091
-481.376	200.925	-0.076	-0.116
-480.362	-200.000	0.010	-0.301
-479.347	303.957	0.115	-0.213
-478.332	618.754	-0.039	-0.097
-477.318	-2.732	-0.160	0.111
-476.303	-62.800	0.126	0.052
-475.289	-6.080	-0.045	-0.030
-474.274	-84.315	-0.279	-0.088
-473.259	142.943	0.239	0.317
-472.245	-97.541	0.411	0.106
-471.230	800.000	0.170	-0.489
-470.216	-200.000	-0.014	0.091
-469.201	-107.782	0.162	0.035
-468.186	414.366	0.115	-0.244
-467.172	524.772	-0.141	-0.331
-466.157	-13.375	0.165	0.107
-465.143	100.846	0.283	0.327
-464.128	800.000	0.078	-0.290
-463.113	800.000	0.128	0.445
-462.099	-98.570	0.343	0.087
-461.084	-80.768	-0.136	-0.045
-460.070	381.988	-0.042	-0.086
-459.055	-177.965	-0.127	-0.003
-458.040	-98.968	0.178	-0.045
-457.026	-2.515	0.342	-0.238
-456.011	-52.451	-0.069	-0.032
-454.997	70.531	-0.265	0.273
-453.982	490.174	0.051	0.115
-452.968	141.764	0.165	-0.217
-451.953	-63.649	0.128	0.052
-450.938	-200.000	0.011	-0.181
-449.924	-133.868	0.367	0.045
-448.909	57.043	0.202	-0.196
-447.895	328.573	-0.192	0.366
-446.880	-200.000	-0.001	0.276
-445.865	163.202	0.169	-0.236
-444.851	-30.015	-0.442	-0.250
-443.836	438.498	0.060	0.129
-442.822	-67.210	-0.419	0.164
-441.807	25.010	0.143	0.118
-440.792	77.795	-0.130	0.138
-439.778	-193.463	-0.293	0.003
-438.763	81.321	-0.083	-0.089
-437.749	-68.277	-0.206	-0.080
-436.734	-200.000	-0.013	-0.199
-435.719	-200.000	-0.004	0.065
-434.705	529.301	0.095	-0.222
-433.690	-30.338	-0.268	-0.151
-432.676	800.000	0.054	-0.167
-431.661	70.424	0.090	0.092
-430.646	318.559	-0.098	0.184
-429.632	-19.613	0.160	-0.098
-428.617	-153.121	0.289	0.020
-427.603	-130.074	0.129	-0.017
-426.588	-200.000	-0.043	0.295
-425.573	800.000	-0.077	0.215
-424.559	-200.000	-0.014	-0.070
-423.544	-200.000	0.058	0.420
-422.530	153.273	0.192	-0.261
-421.515	411.532	-0.044	-0.093
-420.500	-113.083	-0.210	-0.041
-419.486	56.931	-0.107	0.104
-418.471	-200.000	-0.029	-0.166
-417.457	-11.538	-0.092	0.060
-416.442	800.000	-0.059	-0.174
-415.428	118.570	-0.165	-0.202
-414.413	75.408	0.215	-0.225
-413.398	800.000	-0.108	-0.413
-412.384	-108.230	0.393	0.084
-411.369	339.378	0.112	0.217
-410.355	-54.331	-0.104	0.047
-409.340	-178.146	0.177	0.004
-408.325	-122.200	0.201	0.033
-407.311	-86.084	0.145	-0.044
-406.296	117.252	0.185	-0.225
-405.282	64.339	-0.123	0.123
-404.267	-16.718	0.161	-0.101
-403.252	800.000	-0.070	-0.239
-402.238	68.687	0.199	0.202
-401.223	150.736	-0.070	0.094
-400.209	-164.150	0.376	-0.017
-399.194	-200.000	0.011	-0.238
-398.179	578.242	-0.159	-0.385
-397.165	100.851	0.113	-0.131
-396.150	469.882	0.052	-0.115
-395.136	-57.312	-0.204	0.089
-394.121	800.000	-0.116	-0.363
-393.106	-3.199	0.202	-0.140
-392.092	800.000	-0.034	0.109
-391.077	-35.887	0.224	0.120
-390.063	-58.442	0.135	-0.058
-389.048	800.000	-0.038	-0.160
-388.033	46.511	0.185	0.170
-387.019	800.000	0.083	-0.346
-386.004	-200.000	0.044	-0.331
-384.990	566.959	0.035	0.085
-383.975	800.000	0.049	0.205
-382.960	-200.000	-0.046	-0.229
-381.946	-35.900	0.223	0.120
-380.931	176.468	0.048	0.069
-379.917	-50.195	-0.110	0.051
-378.902	413.453	0.051	-0.108
-377.888	-200.000	-0.007	-0.290
-376.873	-200.000	-0.012	0.066
-375.858	283.101	0.063	-0.113
-374.844	259.998	0.030	0.051
-373.829	131.157	-0.092	-0.117
-372.815	337.073	0.075	-0.144
-371.800	800.000	-0.100	0.289
-370.785	777.223	0.094	0.254
-369.771	51.371	0.258	0.243
-368.756	-133.100	-0.209	0.026
-367.742	800.000	0.045	-0.172
-366.727	-26.702	0.242	-0.140
-365.712	58.952	-0.193	0.188
-364.698	-200.000	0.027	0.150
-363.683	800.000	0.057	0.167
-362.669	524.976	0.037	0.085
-361.654	-93.504	0.460	0.126
-360.639	-142.614	0.136	-0.013
-359.625	-152.203	-0.254	0.018
-358.610	160.859	0.171	-0.237
-357.596	-125.962	-0.258	0.039
-356.581	554.742	0.061	0.144
-355.566	-76.326	-0.067	0.024
-354.552	-131.691	0.027	0.004
-353.537	-200.000	-0.014	0.101
-352.523	-63.409	-0.255	0.104
-351.508	-159.319	0.028	-0.002
-350.493	-123.587	0.138	0.022
-349.479	-110.796	-0.402	-0.082
-348.464	58.287	-0.150	-0.145
-347.450	-67.296	0.273	-0.106
-346.435	31.584	0.283	0.241
-345.420	-41.817	0.199	0.101
-344.406	105.443	0.044	-0.051
-343.391	-106.615	0.223	-0.049
-342.377	104.569	0.022	-0.025
-341.362	-75.126	-0.127	-0.045
-340.348	-29.426	0.126	0.071
-339.333	-73.105	-0.093	0.034
-338.318	-34.034	0.336	0.183
-337.304	-20.320	-0.140	-0.085
-336.289	-200.000	0.025	0.337
-335.275	317.760	-0.153	0.286
-334.260	800.000	0.031	-0.102
-333.245	328.620	-0.136	-0.258
-332.231	34.491	-0.116	-0.100
-331.216	-163.720	0.138	-0.006
-330.202	800.000	-0.064	-0.175
-329.187	237.623	0.121	-0.199
-328.172	152.256	-0.175	-0.236
-327.158	-200.000	0.047	0.387
-326.143	-152.827	0.078	0.005
-325.129	67.804	-0.200	-0.203
-324.114	216.156	-0.064	-0.101
-323.099	60.224	-0.105	0.102
-322.085	392.367	-0.114	0.233
-321.070	-120.529	0.332	-0.056
-320.056	-134.865	-0.202	-0.024
-319.041	800.000	-0.117	-0.366
-318.026	-41.890	0.110	0.056
-317.012	115.691	0.094	0.114
-315.997	797.758	0.052	0.142
-314.983	-98.529	0.164	-0.041
-313.968	-200.000	0.071	0.335
-312.953	293.734	0.050	-0.089
-311.939	-148.617	-0.397	0.032
-310.924	-200.000	-0.282	-0.001
-309.910	-200.000	0.064	0.494
-308.895	501.587	0.100	0.228
-307.880	-157.829	-0.266	-0.016
-306.866	-172.243	-0.214	0.007
-305.851	103.417	-0.060	-0.070
-304.837	-124.544	-0.078	-0.012
-303.822	-200.000	-0.026	-0.243
-302.807	503.278	-0.037	-0.084
-301.793	-28.345	0.083	0.048
-300.778	147.925	0.277	-0.369
-299.764	-46.789	0.166	-0.080
-298.749	-138.968	0.056	0.006
-297.735	-91.345	0.247	-0.070
-296.720	800.000	-0.067	0.246
-295.705	-200.000	-0.090	-0.423
-294.691	73.593	0.271	-0.281
-293.676	-113.192	-0.372	0.072
-292.662	-98.470	0.056	-0.014
-291.647	-43.377	-0.203	-0.101
-290.632	800.000	-0.071	0.236
-289.618	51.022	-0.125	0.117
-288.603	27.126	-0.075	0.062
-287.589	-200.000	0.029	-0.150
-286.574	180.618	0.182	0.263
-285.559	800.000	-0.027	0.078
-284.545	483.806	-0.128	0.287
-283.530	-83.719	-0.203	0.064
-282.516	-109.637	-0.273	-0.057
-281.501	232.195	-0.222	0.360
-280.486	-200.000	0.005	0.073
-279.472	-200.000	-0.025	-0.124
-278.457	303.937	-0.120	0.219
-277.443	782.182	0.134	0.363
-276.428	-200.000	0.070	-0.322
-275.413	-92.231	-0.199	-0.055
-274.399	42.184	-0.050	-0.045
-273.384	-175.142	0.336	0.009
-272.370	218.634	-0.143	0.225
-271.355	14.739	-0.046	0.035
-270.340	202.687	-0.099	-0.151
-269.326	-111.781	0.224	0.045
-268.311	174.179	-0.010	0.015
-267.297	154.280	-0.133	-0.180
-266.282	26.181	0.322	-0.265
-265.267	238.062	-0.068	0.111
-264.253	561.016	0.038	0.090
-263.238	-174.220	0.259	0.007
-262.224	595.369	0.069	-0.170
-261.209	196.223	0.066	0.099
-260.195	-123.671	0.272	0.043
-259.180	155.829	0.328	0.446
-258.165	-104.413	-0.334	-0.076
-257.151	390.054	-0.091	-0.186
-256.136	303.918	0.153	-0.280
-255.122	-7.495	-0.105	-0.070
-254.107	800.000	0.062	0.250
-253.092	26.182	0.200	0.165
-252.078	-130.818	0.161	-0.021
-251.063	-85.991	-0.086	0.026
-250.049	-95.618	-0.429	-0.113
-249.034	-84.869	0.249	0.077
-248.019	115.969	-0.181	-0.219
-247.005	-85.353	0.345	-0.106
-245.990	53.772	-0.156	-0.148
-244.976	-108.840	0.205	0.043
-243.961	-113.147	0.137	0.027
-242.946	-200.000	-0.024	-0.171
-241.932	-80.943	0.276	-0.090
-240.917	-178.887	-0.232	-0.005
-239.903	347.209	0.174	0.338
-238.888	257.492	0.047	-0.080
-237.873	-142.199	0.176	0.017
-236.859	250.205	0.115	-0.193
-235.844	-51.713	0.292	-0.134
-234.830	800.000	-0.024	-0.098
-233.815	88.637	-0.185	0.203
-232.800	-157.037	0.042	0.003
-231.786	-186.789	0.093	0.001
-230.771	232.392	0.112	-0.181
-229.757	165.598	0.156	0.217
-228.742	-39.830	-0.401	0.207
-227.727	-200.000	0.003	-0.148
-226.713	6.980	0.187	0.137
-225.698	-132.603	-0.145	0.018
-224.684	-7.314	0.077	-0.051
-223.669	194.509	-0.030	0.045
-222.655	55.951	0.090	-0.086
-221.640	53.969	-0.290	0.275
-220.625	-200.000	0.016	-0.073
-219.611	-25.104	-0.246	-0.144
-218.596	-160.297	0.092	-0.005
-217.582	-181.315	-0.514	-0.010
-216.567	618.612	0.129	-0.318
-215.552	800.000	0.038	-0.130
-214.538	-62.765	-0.070	0.029
-213.523	800.000	-0.112	-0.426
-212.509	-146.956	0.247	-0.021
-211.494	121.564	-0.332	0.408
-210.479	-62.330	-0.131	-0.054
-209.465	240.744	0.083	0.137
-208.450	209.751	0.241	0.372
-207.436	126.620	0.118	0.147
-206.421	169.045	-0.106	-0.149
-205.406	82.243	0.123	0.132
-204.392	-181.464	-0.300	-0.006
-203.377	-88.188	0.218	0.064
-202.363	-67.966	0.095	0.036
-201.348	11.433	0.083	-0.062
-200.333	302.330	0.124	0.226
-199.319	23.799	-0.198	0.161
-198.304	800.000	-0.052	-0.204
-197.290	171.950	-0.253	0.358
-196.275	800.000	0.044	0.177
-195.260	144.027	0.132	0.173
-194.246	202.454	-0.122	-0.186
-193.231	-200.000	0.019	0.203
-192.217	-62.715	0.125	0.051
-191.202	-200.000	-0.015	0.111
-190.187	211.654	0.098	-0.151
-189.173	213.463	0.059	0.092
-188.158	90.149	0.137	0.150
-187.144	-166.215	0.305	0.013
-186.129	409.512	-0.011	0.023
-185.114	-49.048	0.056	0.026
-184.100	-60.000	0.112	0.047
-183.085	-200.000	-0.039	-0.203
-182.071	800.000	0.080	-0.294
-181.056	-33.011	-0.126	-0.069
-180.042	47.535	-0.072	-0.066
-179.027	-178.265	0.345	0.008
-178.012	192.170	-0.247	0.367
-176.998	-41.975	-0.113	-0.057
-175.983	19.258	-0.111	-0.088
-174.969	225.544	-0.150	0.239
-173.954	-158.132	-0.350	0.020
-172.939	142.573	-0.160	0.209
-171.925	-53.888	-0.399	-0.179
-170.910	488.906	-0.126	-0.284
-169.896	96.856	0.344	-0.387
-168.881	-200.000	-0.060	-0.283
-167.866	-110.071	-0.455	-0.093
-166.852	17.197	-0.165	0.128
-165.837	800.000	-0.061	0.256
-164.823	556.495	-0.081	0.191
-163.808	127.649	0.157	0.196
-162.793	-128.585	-0.190	0.026
-161.779	-200.000	0.006	0.036
-160.764	-130.036	0.194	0.026
-159.750	-52.057	0.088	0.040
-158.735	-200.000	-0.026	0.137
-157.720	-101.432	0.286	-0.069
-156.706	-2.084	-0.209	-0.144
-155.691	114.253	-0.050	0.059
-154.677	-46.775	0.314	-0.151
-153.662	-200.000	-0.010	0.311
-152.647	-114.449	0.142	-0.027
-151.633	-46.536	0.275	-0.133
-150.618	15.456	0.225	0.173
-149.604	56.256	0.113	0.108
-148.589	401.233	-0.158	0.326
-147.574	-35.729	0.273	0.145
-146.560	17.354	0.267	0.208
-145.545	-98.255	0.342	-0.086
-144.531	749.589	-0.070	-0.187
-143.516	626.497	0.160	-0.397
-142.502	9.826	-0.097	-0.072
-141.487	200.127	0.123	-0.186
-140.472	-77.226	0.212	0.073
-139.458	800.000	-0.057	-0.166
-138.443	-91.611	0.239	0.067
-137.429	-83.309	-0.255	-0.080
-136.414	39.581	0.070	0.062
-135.399	5.444	0.182	-0.132
-134.385	-68.965	0.051	-0.019
-133.370	275.643	-0.068	0.118
-132.356	800.000	-0.037	0.117
-131.341	-189.159	-0.266	-0.003
-130.326	745.517	-0.034	0.089
-129.312	-41.826	0.278	0.140
-128.297	-20.268	-0.102	0.061
-127.283	404.972	-0.144	0.297
-126.268	-200.000	-0.032	0.146
-125.253	800.000	-0.054	-0.152
-124.239	-96.989	-0.358	-0.092
-123.224	63.909	0.186	-0.184
-122.210	102.790	0.279	0.321
-121.195	133.047	-0.103	0.131
