DTS Sentinel unit serial number:	SN413079Multiplexer serial number:	ORYXHardware model number:	OX4-SRSoftware version number:	ORYX F/W v4.00 Oryx Data Collector v3.7.2.0data status	okinstallation	princeton_trtdifferential loss correction	single-endedforward channel	channel 2reverse channel	N/Adate	2019/09/18time	05:07:35forward acquisition time	60.00reverse acquisition time	0.00gamma	496.2192k internal	0.2347k external	0.2347temperature offset calibration	0.9984default loss term (dB/km)	0.3790temperature slope calibration	1.0000multiplexer offset coefficient	1.0000multiplexer slope coefficient	1.0000fibre end	0.00T internal ref (°C)	23.50T ext. ref 1 (°C)	0.19T ext. ref 2 (°C)	17.57length (m)	temperature (°C)	Stokes	anti-Stokes-747.200	-47.755	-0.311	0.151
-746.185	427.906	-0.149	0.321
-745.171	183.779	0.010	0.014
-744.156	-88.999	0.102	0.030
-743.142	381.227	-0.100	-0.205
-742.127	-24.437	-0.285	0.170
-741.112	800.000	-0.023	0.092
-740.098	-200.000	0.027	0.120
-739.083	-200.000	0.049	0.233
-738.069	65.658	-0.144	0.146
-737.054	-9.811	0.322	0.214
-736.039	-13.703	-0.170	0.110
-735.025	-132.558	0.303	-0.039
-734.010	-200.000	0.016	0.100
-732.996	-101.427	-0.062	0.015
-731.981	-113.133	0.155	0.031
-730.966	422.109	0.090	-0.194
-729.952	120.443	0.250	-0.310
-728.937	81.212	-0.024	0.026
-727.923	-19.365	-0.214	-0.133
-726.908	707.640	0.056	-0.148
-725.894	317.130	0.257	-0.486
-724.879	-73.664	0.128	0.046
-723.864	-3.802	-0.339	-0.235
-722.850	-98.765	0.183	0.046
-721.835	-200.000	-0.011	0.059
-720.821	91.249	0.238	0.266
-719.806	321.277	0.150	-0.284
-718.791	-200.000	-0.026	0.274
-717.777	361.711	0.043	-0.087
-716.762	255.169	0.046	-0.079
-715.748	134.417	0.020	0.026
-714.733	144.986	-0.115	-0.153
-713.718	-139.188	0.270	-0.029
-712.704	302.546	0.097	-0.180
-711.689	-9.561	-0.160	-0.107
-710.675	-200.000	-0.027	-0.195
-709.660	-200.000	-0.022	0.146
-708.645	-122.394	-0.157	-0.026
-707.631	3.520	-0.176	-0.128
-706.616	-14.463	0.099	-0.064
-705.602	800.000	-0.041	0.135
-704.587	-200.000	0.023	0.146
-703.572	170.696	-0.101	-0.145
-702.558	-123.533	0.179	-0.028
-701.543	332.242	0.021	-0.040
-700.529	-77.888	0.146	0.050
-699.514	154.037	-0.227	0.310
-698.499	38.411	-0.222	-0.197
-697.485	-200.000	-0.015	0.163
-696.470	-134.483	0.188	-0.023
-695.456	441.998	-0.030	0.066
-694.441	172.700	-0.063	0.090
-693.426	161.840	0.189	-0.264
-692.412	-200.000	0.026	-0.119
-691.397	73.624	-0.210	-0.219
-690.383	-200.000	-0.003	-0.029
-689.368	-161.167	-0.302	-0.016
-688.354	-47.309	-0.194	0.094
-687.339	106.424	0.097	-0.115
-686.324	781.653	-0.029	-0.079
-685.310	-51.564	-0.102	-0.048
-684.295	208.068	-0.175	-0.273
-683.281	-98.109	0.044	-0.011
-682.266	524.771	-0.090	-0.212
-681.251	342.059	-0.032	-0.063
-680.237	17.246	-0.085	-0.067
-679.222	630.002	-0.063	0.159
-678.208	80.884	0.111	-0.119
-677.193	-96.031	-0.423	-0.112
-676.178	66.887	-0.117	0.119
-675.164	554.019	-0.120	0.288
-674.149	-200.000	0.024	0.199
-673.135	-176.107	0.390	0.010
-672.120	59.102	-0.094	0.092
-671.105	-29.769	-0.217	-0.123
-670.091	-154.854	-0.006	-0.000
-669.076	-200.000	-0.023	0.125
-668.062	-83.256	0.087	-0.028
-667.047	800.000	0.036	-0.115
-666.032	-84.112	-0.372	-0.118
-665.018	-200.000	0.027	0.197
-664.003	800.000	0.019	-0.057
-662.989	60.016	-0.081	-0.080
-661.974	-80.577	-0.311	0.103
-660.959	220.931	-0.108	0.173
-659.945	90.223	-0.085	-0.094
-658.930	173.789	-0.068	0.098
-657.916	-47.975	0.305	0.147
-656.901	44.179	0.216	-0.197
-655.886	800.000	-0.048	0.197
-654.872	-89.391	-0.052	-0.015
-653.857	607.436	-0.116	-0.287
-652.843	305.365	-0.045	0.084
-651.828	156.812	-0.112	-0.155
-650.814	-113.423	-0.382	-0.075
-649.799	570.277	-0.093	0.225
-648.784	-21.680	0.186	-0.113
-647.770	-200.000	0.025	-0.122
-646.755	589.360	-0.041	0.101
-645.741	-167.366	0.321	-0.013
-644.726	-113.004	-0.085	-0.017
-643.711	-200.000	-0.034	-0.399
-642.697	-60.056	0.246	-0.105
-641.682	211.592	0.105	0.165
-640.668	-78.500	-0.193	0.066
-639.653	-200.000	0.010	-0.122
-638.638	291.233	-0.117	-0.212
-637.624	800.000	0.066	-0.208
-636.609	-94.077	-0.144	0.039
-635.595	-161.955	0.520	0.026
-634.580	-75.998	0.080	-0.028
-633.565	-200.000	-0.013	0.132
-632.551	216.406	-0.052	0.083
-631.536	-200.000	0.011	-0.258
-630.522	137.652	0.160	0.208
-629.507	-52.252	0.078	0.036
-628.492	-200.000	-0.004	0.087
-627.478	34.077	0.182	0.158
-626.463	302.201	-0.047	0.086
-625.449	30.349	0.159	-0.135
-624.434	-16.388	0.155	0.098
-623.419	-10.867	-0.302	-0.199
-622.405	191.394	0.048	0.072
-621.390	97.231	-0.176	0.201
-620.376	-200.000	-0.021	-0.227
-619.361	-200.000	-0.001	-0.013
-618.346	800.000	-0.032	-0.122
-617.332	-200.000	0.046	-0.432
-616.317	-94.117	0.100	0.027
-615.303	116.581	0.047	-0.058
-614.288	800.000	0.048	-0.135
-613.273	-200.000	0.023	-0.307
-612.259	-0.832	-0.225	-0.159
-611.244	-60.042	-0.345	0.146
-610.230	49.102	-0.407	0.381
-609.215	800.000	-0.074	-0.271
-608.201	657.262	0.048	-0.122
-607.186	151.346	0.141	0.191
-606.171	198.869	-0.102	-0.155
-605.157	-143.478	-0.378	-0.036
-604.142	800.000	0.044	0.151
-603.128	12.624	0.305	0.234
-602.113	314.476	-0.051	-0.095
-601.098	-200.000	0.105	-0.472
-600.084	110.531	0.126	-0.150
-599.069	-46.445	0.360	0.176
-598.055	150.377	-0.156	0.210
-597.040	272.237	0.103	0.181
-596.025	-2.361	0.360	0.250
-595.011	-13.053	-0.216	0.140
-593.996	678.904	0.048	0.124
-592.982	-153.169	-0.156	0.011
-591.967	800.000	-0.021	0.066
-590.952	-200.000	0.013	0.082
-589.938	-93.883	-0.170	-0.047
-588.923	207.373	-0.183	-0.283
-587.909	-200.000	0.006	-0.216
-586.894	-61.549	0.206	0.086
-585.879	273.622	-0.084	0.148
-584.865	-101.365	-0.443	0.107
-583.850	800.000	0.047	-0.143
-582.836	165.435	-0.086	-0.120
-581.821	-31.331	0.134	0.075
-580.806	-40.010	-0.423	0.219
-579.792	800.000	0.058	0.226
-578.777	214.309	0.074	-0.116
-577.763	283.975	0.133	-0.237
-576.748	800.000	-0.124	-0.398
-575.733	46.350	0.072	-0.067
-574.719	-200.000	-0.085	-0.375
-573.704	800.000	0.081	-0.230
-572.690	-181.889	-0.185	-0.004
-571.675	11.460	0.139	-0.106
-570.661	-80.595	-0.259	-0.086
-569.646	800.000	-0.096	0.352
-568.631	256.273	-0.167	0.284
-567.617	-200.000	0.016	0.103
-566.602	61.243	-0.275	-0.271
-565.588	226.767	0.216	0.348
-564.573	27.173	0.299	-0.249
-563.558	-53.275	-0.153	-0.070
-562.544	-94.740	0.287	-0.077
-561.529	382.279	-0.117	-0.239
-560.515	-35.681	0.017	-0.009
-559.500	-52.867	-0.203	-0.093
-558.485	-3.843	0.121	-0.084
-557.471	21.891	0.390	0.315
-556.456	295.603	-0.181	0.329
-555.442	546.581	0.181	0.430
-554.427	-46.208	-0.145	-0.071
-553.412	84.229	0.147	0.159
-552.398	18.488	0.073	-0.058
-551.383	293.343	-0.264	0.477
-550.369	96.437	-0.025	-0.029
-549.354	-104.528	0.123	-0.028
-548.339	176.956	-0.100	0.144
-547.325	-29.807	-0.249	-0.141
-546.310	-200.000	-0.007	0.306
-545.296	-96.248	-0.331	0.087
-544.281	-194.535	-0.100	0.001
-543.266	98.991	0.265	0.304
-542.252	52.244	0.114	-0.108
-541.237	434.424	-0.121	-0.261
-540.223	186.800	-0.045	0.066
-539.208	288.180	-0.269	-0.482
-538.193	-115.434	-0.181	-0.034
-537.179	-200.000	-0.001	0.265
-536.164	-2.312	0.138	0.096
-535.150	328.372	0.082	-0.156
-534.135	422.629	0.190	0.404
-533.121	-102.973	-0.210	-0.050
-532.106	142.390	-0.157	-0.207
-531.091	-166.352	0.362	-0.015
-530.077	800.000	-0.088	0.316
-529.062	-200.000	-0.047	-0.342
-528.048	239.860	0.133	-0.220
-527.033	107.015	-0.185	0.218
-526.018	-200.000	-0.054	0.436
-525.004	-96.901	0.103	-0.027
-523.989	36.815	-0.163	-0.143
-522.975	-200.000	0.057	-0.275
-521.960	98.860	-0.132	0.151
-520.945	-9.486	-0.188	-0.124
-519.931	185.217	-0.075	0.110
-518.916	-200.000	-0.039	-0.200
-517.902	26.311	-0.171	0.141
-516.887	40.973	0.329	-0.294
-515.872	68.373	0.149	-0.152
-514.858	-39.508	-0.246	0.128
-513.843	-27.276	0.053	0.031
-512.829	-190.642	0.226	0.002
-511.814	800.000	-0.044	0.137
-510.799	-67.071	-0.353	-0.138
-509.785	105.387	0.165	0.193
-508.770	-200.000	0.013	-0.263
-507.756	179.975	0.047	0.068
-506.741	800.000	-0.139	-0.411
-505.726	-32.385	-0.123	-0.068
-504.712	-54.636	-0.274	0.123
-503.697	-61.689	0.156	-0.065
-502.683	268.475	0.157	-0.273
-501.668	166.023	-0.130	0.182
-500.653	-123.570	-0.477	0.075
-499.639	204.708	0.154	-0.237
-498.624	57.485	-0.353	-0.341
-497.610	116.013	-0.244	-0.296
-496.595	-168.247	0.311	0.012
-495.581	41.338	-0.107	-0.096
-494.566	386.130	0.186	0.380
-493.551	132.346	-0.021	-0.026
-492.537	31.337	0.290	-0.247
-491.522	-24.100	-0.088	0.052
-490.508	457.882	0.039	0.087
-489.493	186.793	0.043	-0.064
-488.478	-165.852	0.241	0.010
-487.464	352.032	0.141	0.275
-486.449	-200.000	0.007	0.176
-485.435	119.937	-0.191	-0.234
-484.420	-17.172	-0.205	0.128
-483.405	560.598	-0.058	-0.139
-482.391	-200.000	0.025	-0.173
-481.376	-200.000	-0.037	-0.195
-480.362	-109.413	-0.223	-0.047
-479.347	-94.886	0.321	0.086
-478.332	163.428	0.106	-0.147
-477.318	229.635	-0.201	-0.325
-476.303	376.388	-0.075	0.151
-475.289	9.576	0.080	-0.060
-474.274	-61.491	0.291	0.121
-473.259	-114.125	-0.162	0.031
-472.245	-48.300	-0.112	0.053
-471.230	-12.836	-0.072	-0.046
-470.216	40.453	0.180	0.161
-469.201	257.879	-0.051	-0.087
-468.186	239.551	0.103	0.170
-467.172	72.294	0.134	-0.138
-466.157	85.117	-0.221	0.240
-465.143	154.421	-0.085	0.115
-464.128	-159.745	0.292	0.016
-463.113	-73.792	-0.190	0.068
-462.099	15.139	-0.289	0.224
-461.084	-23.523	0.278	0.165
-460.070	-200.000	0.027	0.232
-459.055	-48.187	-0.271	0.129
-458.040	-82.144	0.171	-0.055
-457.026	247.664	-0.095	-0.159
-456.011	56.598	-0.087	-0.083
-454.997	20.680	0.184	-0.147
-453.982	-156.480	0.120	-0.007
-452.968	254.487	-0.053	-0.089
-451.953	800.000	0.063	-0.242
-450.938	427.097	0.150	-0.319
-449.924	182.570	0.167	0.243
-448.909	-89.228	0.283	0.083
-447.895	270.968	0.106	0.185
-446.880	-152.081	0.426	0.031
-445.865	-200.000	0.000	-0.102
-444.851	-25.212	0.212	0.124
-443.836	-87.959	-0.118	-0.035
-442.822	-200.000	0.003	-0.165
-441.807	85.840	-0.113	0.123
-440.792	18.542	0.070	-0.056
-439.778	-140.585	0.246	-0.025
-438.763	111.619	-0.122	-0.145
-437.749	-112.598	-0.175	-0.034
-436.734	-40.882	-0.103	0.053
-435.719	430.511	-0.135	-0.289
-434.705	32.283	0.070	-0.060
-433.690	800.000	0.072	0.211
-432.676	530.866	0.067	-0.157
-431.661	203.024	0.089	-0.135
-430.646	27.734	-0.162	-0.134
-429.632	800.000	-0.032	-0.115
-428.617	195.357	-0.086	-0.129
-427.603	100.098	-0.187	-0.214
-426.588	-23.568	-0.453	0.268
-425.573	800.000	-0.037	0.140
-424.559	-29.694	0.402	0.226
-423.544	225.754	0.179	0.287
-422.530	83.629	-0.200	0.215
-421.515	-103.539	0.102	0.024
-420.500	-78.888	0.167	0.056
-419.486	-200.000	0.026	0.199
-418.471	-45.255	-0.336	-0.165
-417.457	-13.287	0.151	0.097
-416.442	33.934	0.190	0.163
-415.428	-101.980	-0.284	-0.068
-414.413	-200.000	-0.003	0.067
-413.398	0.455	-0.142	-0.100
-412.384	123.805	0.109	0.135
-411.369	-200.000	-0.060	-0.340
-410.355	-42.485	0.100	-0.050
-409.340	44.250	-0.112	-0.101
-408.325	72.197	0.050	-0.051
-407.311	-200.000	0.035	0.271
-406.296	800.000	0.018	0.072
-405.282	800.000	-0.033	0.114
-404.267	-61.314	-0.426	0.177
-403.252	-200.000	-0.037	-0.263
-402.238	-200.000	0.055	-0.237
-401.223	-200.000	0.008	-0.271
-400.209	44.904	0.113	0.102
-399.194	526.684	0.106	0.247
-398.179	-143.495	-0.244	-0.023
-397.165	-144.498	0.312	-0.028
-396.150	303.265	0.062	0.113
-395.136	265.529	-0.259	-0.445
-394.121	-200.000	0.002	0.058
-393.106	-38.503	-0.129	0.067
-392.092	-27.880	0.364	0.208
-391.077	343.216	0.208	0.402
-390.063	-136.321	-0.123	-0.014
-389.048	-96.138	-0.383	0.100
-388.033	-46.058	0.372	0.181
-387.019	17.298	0.288	0.226
-386.004	-200.000	-0.029	0.151
-384.990	628.444	0.164	-0.408
-383.975	-24.077	0.059	-0.035
-382.960	-26.286	-0.101	0.058
-381.946	291.942	-0.093	-0.167
-380.931	4.247	-0.205	0.148
-379.917	485.673	-0.169	0.380
-378.902	124.446	-0.063	0.078
-377.888	-75.439	0.108	-0.038
-376.873	-32.447	0.105	0.058
-375.858	-154.570	-0.321	0.021
-374.844	-77.278	0.021	-0.007
-373.829	800.000	0.063	-0.192
-372.815	-130.617	0.226	0.030
-371.800	-121.721	0.128	0.021
-370.785	294.270	-0.064	-0.115
-369.771	-200.000	-0.033	0.273
-368.756	-57.658	-0.137	-0.059
-367.742	-65.489	0.276	0.109
-366.727	800.000	-0.036	0.100
-365.712	59.919	-0.059	-0.057
-364.698	499.446	0.283	-0.643
-363.683	35.924	-0.247	-0.214
-362.669	249.541	-0.266	-0.444
-361.654	800.000	0.048	0.197
-360.639	-200.000	0.024	0.121
-359.625	27.331	0.132	0.109
-358.610	-116.865	-0.074	-0.013
-357.596	-145.925	0.152	0.013
-356.581	-200.000	0.034	0.181
-355.566	-200.000	-0.036	0.476
-354.552	96.670	-0.161	0.181
-353.537	-60.567	-0.111	0.046
-352.523	-84.124	-0.283	0.088
-351.508	150.116	0.104	-0.139
-350.493	-200.000	-0.014	0.086
-349.479	-200.000	-0.020	-0.214
-348.464	113.968	-0.093	0.112
-347.450	-200.000	0.023	0.164
-346.435	-57.697	-0.108	0.047
-345.420	53.708	0.094	0.089
-344.406	229.109	-0.184	-0.296
-343.391	-182.208	0.320	-0.006
-342.377	-133.504	-0.106	0.013
-341.362	-91.274	-0.167	-0.047
-340.348	-102.576	-0.188	0.044
-339.333	-50.765	0.328	-0.152
-338.318	97.182	0.085	0.096
-337.304	35.001	-0.205	-0.177
-336.289	-93.887	0.241	-0.065
-335.275	-79.295	0.252	0.084
-334.260	-25.412	-0.052	0.030
-333.245	438.255	-0.080	-0.172
-332.231	42.999	-0.123	0.110
-331.216	-200.000	0.017	-0.133
-330.202	-139.242	0.198	0.021
-329.187	-66.849	0.456	0.177
-328.172	-100.963	-0.168	-0.041
-327.158	8.748	-0.269	0.199
-326.143	-25.084	-0.088	-0.051
-325.129	6.455	-0.147	-0.107
-324.114	-200.000	0.048	-0.424
-323.099	278.086	-0.079	-0.138
-322.085	94.281	-0.294	-0.329
-321.070	520.834	-0.142	-0.326
-320.056	-200.000	-0.027	-0.179
-319.041	-110.153	-0.097	-0.020
-318.026	800.000	0.042	0.163
-317.012	-151.580	-0.415	0.030
-315.997	-53.967	0.162	0.072
-314.983	339.619	0.178	0.341
-313.968	651.095	-0.028	0.070
-312.953	33.727	0.312	-0.267
-311.939	293.168	0.161	0.289
-310.924	264.830	0.110	-0.189
-309.910	-107.350	0.391	-0.085
-308.895	-5.148	0.241	-0.163
-307.880	-79.009	-0.070	-0.023
-306.866	314.498	0.049	0.091
-305.851	4.314	0.197	-0.142
-304.837	198.742	-0.146	-0.220
-303.822	121.267	-0.102	-0.125
-302.807	-200.000	0.032	0.421
-301.793	800.000	-0.177	0.566
-300.778	-200.000	-0.024	-0.108
-299.764	-61.986	-0.128	0.052
-298.749	-200.000	0.019	-0.280
-297.735	-200.000	0.048	-0.256
-296.720	-200.000	-0.018	-0.140
-295.705	-92.059	0.038	-0.011
-294.691	-200.000	-0.012	0.307
-293.676	-200.000	-0.019	0.149
-292.662	-124.099	-0.645	-0.099
-291.647	-114.546	-0.215	0.041
-290.632	800.000	0.028	-0.107
-289.618	-3.989	0.089	-0.060
-288.603	800.000	0.098	0.307
-287.589	199.244	0.254	-0.382
-286.574	-79.449	-0.264	-0.088
-285.559	-84.955	0.247	-0.076
-284.545	163.910	-0.303	-0.419
-283.530	-106.041	0.100	0.022
-282.516	136.520	-0.205	0.263
-281.501	-35.526	-0.117	0.062
-280.486	278.960	0.084	-0.147
-279.472	236.158	-0.137	0.222
-278.457	800.000	0.135	0.374
-277.443	800.000	0.032	-0.100
-276.428	-21.929	0.306	-0.182
-275.413	-140.389	0.224	-0.023
-274.399	220.295	0.252	0.396
-273.384	-200.000	-0.010	0.254
-272.370	177.986	-0.160	0.229
-271.355	-18.959	0.181	0.111
-270.340	435.917	-0.166	0.355
-269.326	-137.830	0.184	0.020
-268.311	219.816	0.151	0.237
-267.297	72.503	0.190	-0.194
-266.282	384.328	0.084	-0.170
-265.267	111.734	0.158	0.188
-264.253	23.351	-0.147	-0.118
-263.238	19.470	0.211	0.167
-262.224	186.613	-0.209	0.306
-261.209	-200.000	0.046	0.271
-260.195	226.069	0.145	-0.231
-259.180	-200.000	0.008	0.071
-258.165	-55.532	-0.098	0.043
-257.151	-200.000	-0.014	0.168
-256.136	639.471	-0.068	-0.170
-255.122	-98.440	-0.157	-0.039
-254.107	-53.625	0.194	-0.087
-253.092	80.969	-0.221	-0.234
-252.078	800.000	-0.074	-0.246
-251.063	-15.600	-0.131	-0.082
-250.049	27.012	0.240	0.198
-249.034	646.125	-0.051	0.128
-248.019	-160.243	-0.195	-0.010
-247.005	800.000	0.064	-0.181
-245.990	53.496	0.188	-0.176
-244.976	-170.632	0.344	-0.012
-243.961	800.000	-0.111	0.358
-242.946	-32.084	-0.010	-0.005
-241.932	-101.812	0.249	0.059
-240.917	195.169	0.089	-0.133
-239.903	-15.171	0.141	0.088
-238.888	436.799	-0.098	-0.210
-237.873	-103.290	0.296	-0.068
-236.859	-165.701	-0.164	-0.007
-235.844	-139.769	0.027	-0.003
-234.830	-82.980	-0.373	-0.118
-233.815	-103.901	0.342	-0.078
-232.800	800.000	-0.065	0.239
-231.786	175.196	0.075	0.106
-230.771	-200.000	0.024	-0.341
-229.757	-200.000	0.004	-0.133
-228.742	800.000	0.081	-0.286
-227.727	-200.000	-0.034	0.214
-226.713	197.415	-0.100	0.150
-225.698	-145.124	-0.146	0.013
-224.684	-200.000	-0.011	0.146
-223.669	-53.581	-0.159	0.071
-222.655	-200.000	-0.011	-0.220
-221.640	-200.000	-0.020	0.135
-220.625	-51.228	-0.263	-0.120
-219.611	800.000	0.074	0.271
-218.596	800.000	0.024	-0.090
-217.582	-200.000	0.033	0.512
-216.567	-8.720	0.209	0.137
-215.552	344.762	-0.044	-0.085
-214.538	-41.332	-0.304	0.153
-213.523	68.056	-0.097	-0.097
-212.509	-200.000	0.022	-0.141
-211.494	800.000	0.044	0.182
-210.479	736.563	0.039	-0.103
-209.465	-74.812	-0.152	-0.053
-208.450	-200.000	0.043	0.333
-207.436	800.000	-0.047	0.189
-206.421	42.262	0.253	-0.225
-205.406	111.422	0.040	0.048
-204.392	-89.974	-0.134	-0.038
-203.377	454.061	0.142	-0.307
-202.363	332.944	-0.166	0.314
-201.348	6.970	-0.066	-0.048
-200.333	-57.487	-0.320	-0.137
-199.319	800.000	0.040	-0.162
-198.304	-159.898	0.163	-0.009
-197.290	85.659	-0.121	-0.130
-196.275	-108.976	-0.077	0.016
-195.260	-27.715	0.178	0.101
-194.246	800.000	-0.018	-0.049
-193.231	241.303	0.175	0.286
-192.217	25.249	-0.103	0.084
-191.202	-17.689	-0.497	-0.305
-190.187	-200.000	-0.007	-0.103
-189.173	649.884	-0.018	-0.046
-188.158	-181.639	0.197	0.004
-187.144	-81.381	-0.291	-0.094
-186.129	-200.000	0.014	0.520
-185.114	599.553	-0.066	-0.159
-184.100	49.813	-0.063	0.058
-183.085	-30.914	-0.156	0.086
-182.071	-56.436	-0.161	-0.070
-181.056	800.000	-0.081	-0.297
-180.042	-200.000	-0.061	-0.364
-179.027	-200.000	0.001	0.070
-178.012	-200.000	-0.017	0.235
-176.998	-200.000	0.013	-0.205
-175.983	-200.000	0.043	-0.226
-174.969	459.286	0.099	0.214
-173.954	-172.324	0.177	0.006
-172.939	-31.416	0.087	0.048
-171.925	33.372	0.134	0.114
-170.910	-99.809	0.097	0.024
-169.896	-11.944	0.170	0.109
-168.881	365.237	0.128	0.252
-167.866	-200.000	0.000	0.154
-166.852	-200.000	-0.000	-0.166
-165.837	-57.388	0.356	-0.153
-164.823	-112.057	0.145	-0.028
-163.808	27.897	0.136	-0.112
-162.793	-200.000	0.004	-0.125
-161.779	-38.654	-0.072	-0.037
-160.764	-107.321	-0.192	0.041
-159.750	232.171	0.031	-0.049
-158.735	-200.000	0.015	-0.078
-157.720	293.124	-0.117	0.208
-156.706	-152.258	0.447	-0.032
-155.691	800.000	0.041	0.159
-154.677	-129.672	0.218	-0.029
-153.662	-97.756	0.051	-0.013
-152.647	-29.804	-0.107	0.060
-151.633	-18.671	0.212	0.129
-150.618	7.379	0.425	-0.310
-149.604	310.888	0.036	0.065
-148.589	347.230	-0.082	0.157
-147.574	2.117	-0.132	-0.093
-146.560	-66.313	-0.084	-0.033
-145.545	203.442	0.043	-0.064
-144.531	-122.695	-0.142	-0.022
-143.516	-200.000	0.013	0.159
-142.502	-200.000	-0.045	-0.360
-141.487	447.220	-0.153	0.328
-140.472	-38.782	0.155	-0.080
-139.458	215.402	-0.063	-0.098
-138.443	48.365	-0.111	-0.102
-137.429	-200.000	-0.028	0.143
-136.414	-62.954	0.306	0.124
-135.399	-115.654	-0.244	-0.045
-134.385	134.212	0.098	0.124
-133.370	-124.180	-0.116	0.018
-132.356	516.222	-0.081	0.184
-131.341	-67.158	0.271	0.104
-130.326	-141.627	0.173	0.017
-129.312	-134.400	0.326	-0.039
-128.297	295.304	-0.224	0.400
-127.283	5.815	-0.211	0.152
-126.268	-200.000	0.034	0.159
-125.253	655.673	-0.209	-0.524
-124.239	273.762	0.170	0.293
-123.224	-151.812	0.481	0.034
-122.210	26.199	0.332	-0.270
-121.195	-72.841	0.412	0.148
