DTS Sentinel unit serial number:	SN413079Multiplexer serial number:	ORYXHardware model number:	OX4-SRSoftware version number:	ORYX F/W v4.00 Oryx Data Collector v3.7.2.0data status	okinstallation	princeton_trtdifferential loss correction	single-endedforward channel	channel 2reverse channel	N/Adate	2019/09/14time	01:15:35forward acquisition time	60.00reverse acquisition time	0.00gamma	496.2192k internal	0.2337k external	0.2337temperature offset calibration	1.0127default loss term (dB/km)	0.3790temperature slope calibration	1.0000multiplexer offset coefficient	1.0000multiplexer slope coefficient	1.0000fibre end	0.00T internal ref (°C)	26.37T ext. ref 1 (°C)	3.19T ext. ref 2 (°C)	21.41length (m)	temperature (°C)	Stokes	anti-Stokes-747.200	112.234	0.221	0.269
-746.185	548.503	-0.194	0.468
-745.171	336.787	-0.089	0.173
-744.156	-133.895	-0.178	-0.022
-743.142	-108.227	-0.213	0.046
-742.127	-200.000	-0.039	0.325
-741.112	112.361	0.136	-0.165
-740.098	-138.724	-0.185	0.020
-739.083	-49.792	0.331	0.158
-738.069	-41.547	-0.216	-0.112
-737.054	-200.000	0.032	-0.244
-736.039	-103.135	-0.317	-0.075
-735.025	586.967	0.009	0.022
-734.010	2.582	0.165	0.120
-732.996	-33.111	-0.352	-0.196
-731.981	-117.343	-0.161	0.029
-730.966	-200.000	0.046	0.326
-729.952	-200.000	0.024	0.426
-728.937	68.139	0.130	-0.133
-727.923	536.189	-0.099	-0.237
-726.908	-200.000	-0.019	-0.188
-725.894	-79.446	0.268	-0.091
-724.879	-99.367	-0.292	0.074
-723.864	-86.491	0.267	0.082
-722.850	-133.954	0.262	-0.033
-721.835	-28.586	-0.137	-0.079
-720.821	-200.000	-0.024	0.173
-719.806	76.544	0.130	-0.139
-718.791	-3.647	0.319	-0.222
-717.777	-83.708	-0.083	-0.027
-716.762	370.756	0.067	0.136
-715.748	29.511	-0.122	0.104
-714.733	266.337	0.171	0.299
-713.718	347.105	0.074	-0.146
-712.704	-200.000	-0.024	-0.271
-711.689	-39.378	-0.510	0.268
-710.675	-200.000	-0.001	-0.179
-709.660	-200.000	0.009	0.222
-708.645	-200.000	-0.003	0.262
-707.631	800.000	-0.104	-0.299
-706.616	542.180	-0.275	-0.656
-705.602	-78.965	0.170	-0.058
-704.587	-107.878	0.209	-0.046
-703.572	308.620	-0.137	0.256
-702.558	439.184	-0.041	0.089
-701.543	-69.202	0.306	-0.118
-700.529	-64.991	0.314	-0.127
-699.514	341.362	0.067	-0.132
-698.499	4.981	-0.175	0.129
-697.485	-43.011	-0.087	0.044
-696.470	-149.912	-0.068	-0.005
-695.456	-63.354	-0.273	-0.113
-694.441	-148.651	0.010	0.001
-693.426	-200.000	-0.003	-0.048
-692.412	-74.763	-0.166	0.060
-691.397	717.928	-0.048	-0.128
-690.383	-25.177	-0.244	-0.145
-689.368	-62.793	-0.401	-0.167
-688.354	112.310	0.227	-0.275
-687.339	-15.668	-0.122	-0.078
-686.324	5.077	0.196	-0.144
-685.310	199.799	0.248	-0.381
-684.295	800.000	0.067	0.200
-683.281	-75.689	-0.160	0.057
-682.266	-11.138	0.086	-0.057
-681.251	-181.039	0.318	-0.006
-680.237	186.851	0.135	0.201
-679.222	-167.747	-0.378	-0.015
-678.208	-200.000	0.034	0.165
-677.193	-200.000	-0.034	0.157
-676.178	-73.146	0.307	0.113
-675.164	800.000	0.076	-0.278
-674.149	-106.159	0.072	0.016
-673.135	17.965	-0.021	0.017
-672.120	172.589	-0.103	0.149
-671.105	13.473	-0.087	0.067
-670.091	-89.191	-0.055	0.016
-669.076	584.396	-0.100	-0.246
-668.062	276.442	-0.109	0.193
-667.047	-200.000	-0.013	-0.199
-666.032	-169.139	-0.282	-0.010
-665.018	422.681	0.086	-0.184
-664.003	-46.339	0.194	-0.096
-662.989	-1.136	0.208	0.147
-661.974	-80.498	0.290	0.097
-660.959	800.000	0.048	-0.161
-659.945	126.810	0.181	0.229
-658.930	6.343	-0.468	0.348
-657.916	-62.806	-0.049	0.020
-656.901	-182.587	-0.170	0.003
-655.886	-19.251	0.023	-0.014
-654.872	-55.471	-0.179	0.080
-653.857	130.923	0.136	-0.175
-652.843	110.582	0.092	-0.110
-651.828	-200.000	0.028	-0.364
-650.814	-151.986	-0.248	0.018
-649.799	56.752	-0.211	0.205
-648.784	123.173	-0.315	0.394
-647.770	-200.000	-0.005	-0.076
-646.755	52.651	-0.207	-0.198
-645.741	187.313	0.154	0.230
-644.726	102.014	-0.286	0.334
-643.711	-189.932	-0.082	0.001
-642.697	255.815	0.151	-0.258
-641.682	-184.268	-0.223	-0.004
-640.668	-200.000	-0.005	-0.274
-639.653	800.000	0.128	-0.401
-638.638	-74.820	-0.263	0.094
-637.624	36.861	0.299	0.265
-636.609	-43.615	0.062	-0.031
-635.595	257.746	0.099	-0.170
-634.580	213.461	0.018	-0.028
-633.565	-15.205	-0.196	0.126
-632.551	62.255	-0.077	0.077
-631.536	48.029	-0.126	-0.117
-630.522	-124.598	-0.157	-0.024
-629.507	300.044	0.090	-0.166
-628.492	-68.844	-0.317	-0.122
-627.478	-58.654	-0.078	0.034
-626.463	-200.000	-0.015	-0.135
-625.449	-103.595	-0.275	-0.064
-624.434	-0.626	0.287	0.204
-623.419	-200.000	0.028	-0.534
-622.405	-65.627	-0.210	0.084
-621.390	-31.147	0.068	-0.039
-620.376	-141.253	0.057	0.006
-619.361	800.000	0.073	-0.278
-618.346	393.198	-0.031	-0.064
-617.332	67.114	0.095	-0.097
-616.317	-200.000	-0.004	0.020
-615.303	-33.922	0.072	0.039
-614.288	-184.117	0.464	-0.008
-613.273	235.092	0.204	0.336
-612.259	-77.362	-0.241	0.084
-611.244	-144.146	-0.246	0.023
-610.230	-200.000	-0.042	0.251
-609.215	-85.053	0.371	0.116
-608.201	-70.624	0.163	-0.062
-607.186	49.550	0.083	-0.078
-606.171	-200.000	-0.011	-0.209
-605.157	-10.636	0.108	-0.071
-604.142	-102.266	0.251	0.060
-603.128	-77.904	-0.208	-0.072
-602.113	-200.000	-0.048	0.245
-601.098	42.262	-0.231	-0.209
-600.084	38.500	0.139	-0.124
-599.069	-70.139	-0.102	-0.039
-598.055	-156.089	-0.075	0.005
-597.040	-200.000	0.017	0.204
-596.025	525.777	0.126	0.296
-595.011	9.968	0.049	0.037
-593.996	800.000	-0.014	-0.042
-592.982	-9.206	-0.271	0.181
-591.967	48.913	-0.204	-0.191
-590.952	-55.818	-0.374	0.167
-589.938	188.008	0.144	-0.214
-588.923	-200.000	-0.005	0.029
-587.909	-200.000	0.032	-0.375
-586.894	138.595	0.050	-0.065
-585.879	-200.000	0.023	0.261
-584.865	-50.948	0.138	0.065
-583.850	-148.431	0.154	-0.013
-582.836	745.354	-0.060	0.160
-581.821	-21.468	-0.073	0.044
-580.806	-144.352	0.207	-0.019
-579.792	56.705	-0.114	0.110
-578.777	800.000	0.042	0.143
-577.763	-114.261	0.204	-0.039
-576.748	224.129	-0.172	-0.277
-575.733	604.958	-0.078	-0.195
-574.719	142.821	0.186	-0.246
-573.704	-200.000	-0.024	-0.146
-572.690	43.216	0.114	0.104
-571.675	4.038	-0.125	0.091
-570.661	121.469	0.128	-0.159
-569.646	-194.302	0.055	0.000
-568.631	-200.000	-0.039	0.222
-567.617	141.860	-0.056	-0.074
-566.602	-102.933	0.165	0.039
-565.588	775.918	0.022	-0.060
-564.573	536.294	-0.098	-0.232
-563.558	185.940	0.055	0.082
-562.544	352.383	-0.055	0.109
-561.529	-71.746	-0.178	-0.066
-560.515	22.689	-0.090	0.073
-559.500	-55.634	0.178	-0.079
-558.485	8.661	-0.059	-0.045
-557.471	440.192	0.109	0.238
-556.456	800.000	0.047	-0.169
-555.442	-1.201	-0.297	0.209
-554.427	51.233	-0.332	-0.314
-553.412	-200.000	-0.081	-0.363
-552.398	-93.207	-0.313	-0.087
-551.383	435.484	-0.157	0.339
-550.369	-200.000	-0.006	0.030
-549.354	-200.000	0.017	-0.119
-548.339	-59.663	0.387	-0.165
-547.325	-200.000	-0.080	-0.419
-546.310	3.942	0.101	-0.073
-545.296	370.060	-0.069	-0.140
-544.281	800.000	0.026	-0.111
-543.266	-6.591	-0.202	-0.137
-542.252	257.898	0.074	0.126
-541.237	298.415	-0.262	0.479
-540.223	-68.019	-0.108	-0.042
-539.208	159.747	-0.303	-0.421
-538.193	90.398	0.221	0.246
-537.179	-87.234	-0.148	0.045
-536.164	57.184	-0.193	0.187
-535.150	445.620	-0.041	0.089
-534.135	-200.000	-0.029	0.324
-533.121	72.702	-0.147	-0.153
-532.106	800.000	0.054	-0.166
-531.091	-25.109	-0.382	-0.226
-530.077	-152.430	-0.191	0.014
-529.062	-200.000	-0.014	0.271
-528.048	-200.000	-0.001	-0.162
-527.033	-200.000	-0.003	0.133
-526.018	258.963	0.040	-0.069
-525.004	800.000	-0.095	0.302
-523.989	800.000	-0.121	-0.345
-522.975	128.008	-0.136	-0.172
-521.960	154.852	-0.094	-0.129
-520.945	-166.995	0.153	-0.006
-519.931	-83.275	0.112	0.036
-518.916	-122.391	-0.358	-0.058
-517.902	-52.922	0.107	-0.049
-516.887	91.099	-0.071	-0.079
-515.872	555.162	0.066	0.159
-514.858	67.968	-0.072	0.074
-513.843	227.378	0.062	0.101
-512.829	800.000	0.017	-0.059
-511.814	52.821	-0.118	-0.112
-510.799	800.000	0.075	-0.290
-509.785	43.379	0.187	0.170
-508.770	132.312	0.016	-0.020
-507.756	84.623	-0.044	-0.047
-506.741	190.053	0.067	-0.100
-505.726	-74.914	-0.171	0.061
-504.712	132.253	0.183	0.234
-503.697	-109.927	-0.576	0.120
-502.683	-84.822	-0.063	-0.020
-501.668	-200.000	-0.009	-0.082
-500.653	-200.000	-0.000	-0.143
-499.639	-10.617	0.206	-0.135
-498.624	-200.000	-0.003	0.200
-497.610	-16.653	0.271	0.170
-496.595	-17.823	-0.246	-0.153
-495.581	-103.171	-0.146	-0.034
-494.566	-62.896	0.157	0.064
-493.551	-200.000	0.040	0.368
-492.537	33.908	0.136	0.118
-491.522	109.908	-0.077	0.092
-490.508	306.325	0.066	0.122
-489.493	800.000	0.059	-0.183
-488.478	-153.625	0.071	0.005
-487.464	187.340	-0.127	-0.188
-486.449	-152.955	0.273	0.019
-485.435	48.383	-0.095	0.088
-484.420	463.860	0.070	0.155
-483.405	622.194	0.098	0.246
-482.391	-150.541	-0.228	0.017
-481.376	202.290	0.151	0.231
-480.362	-47.888	-0.091	-0.044
-479.347	-31.541	-0.322	-0.180
-478.332	323.098	0.112	0.211
-477.318	-85.189	-0.079	-0.025
-476.303	-79.961	-0.132	0.044
-475.289	164.111	0.101	0.142
-474.274	273.501	-0.207	0.364
-473.259	449.662	-0.129	0.283
-472.245	800.000	0.047	0.152
-471.230	-200.000	0.000	-0.072
-470.216	-200.000	0.067	0.292
-469.201	-38.023	0.017	0.009
-468.186	-113.534	0.225	-0.044
-467.172	-163.947	-0.158	0.007
-466.157	-200.000	0.018	-0.224
-465.143	-183.872	0.073	0.001
-464.128	-109.040	0.298	0.063
-463.113	-120.042	0.269	0.046
-462.099	-200.000	0.014	-0.133
-461.084	-105.373	-0.146	0.033
-460.070	-200.000	-0.017	-0.233
-459.055	800.000	0.069	-0.190
-458.040	-129.139	-0.359	0.050
-457.026	-129.798	-0.070	0.010
-456.011	-137.944	-0.070	-0.008
-454.997	78.006	-0.173	-0.183
-453.982	50.210	0.207	0.194
-452.968	-134.904	-0.161	0.019
-451.953	-200.000	0.008	0.147
-450.938	-88.527	-0.216	-0.064
-449.924	-92.680	-0.193	0.054
-448.909	-200.000	-0.039	0.571
-447.895	755.525	-0.072	-0.194
-446.880	-53.363	-0.283	-0.129
-445.865	-66.273	0.197	0.078
-444.851	110.460	-0.051	0.060
-443.836	-105.057	0.422	0.096
-442.822	4.498	0.192	-0.140
-441.807	800.000	0.072	0.201
-440.792	800.000	-0.072	0.244
-439.778	585.072	0.160	-0.390
-438.763	-200.000	-0.010	-0.054
-437.749	381.278	0.066	0.134
-436.734	491.321	-0.099	-0.224
-435.719	-99.205	-0.148	0.037
-434.705	66.637	-0.241	-0.243
-433.690	-18.384	0.070	0.044
-432.676	800.000	0.112	-0.332
-431.661	3.577	0.059	0.042
-430.646	-148.404	0.262	-0.021
-429.632	-200.000	0.006	0.070
-428.617	800.000	0.035	0.130
-427.603	-200.000	0.063	-0.299
-426.588	-67.124	0.173	0.068
-425.573	-17.784	-0.171	0.106
-424.559	-14.331	0.280	0.179
-423.544	520.321	-0.046	0.108
-422.530	30.147	0.224	-0.190
-421.515	-44.742	0.062	-0.031
-420.500	-50.537	0.367	0.172
-419.486	-62.629	-0.165	0.068
-418.471	-1.203	-0.228	-0.160
-417.457	76.845	0.190	-0.200
-416.442	-13.087	-0.163	-0.105
-415.428	-187.768	-0.354	0.005
-414.413	800.000	-0.078	0.255
-413.398	-105.785	0.130	-0.029
-412.384	-34.861	-0.236	-0.128
-411.369	-85.510	-0.124	0.038
-410.355	-200.000	-0.036	-0.217
-409.340	-200.000	0.002	-0.223
-408.325	614.250	-0.135	-0.335
-407.311	32.610	0.241	0.207
-406.296	325.379	0.154	-0.291
-405.282	458.581	-0.135	-0.298
-404.267	-8.734	0.222	-0.148
-403.252	-77.055	-0.409	0.141
-402.238	116.977	-0.240	-0.292
-401.223	114.698	-0.131	-0.158
-400.209	-200.000	0.009	-0.157
-399.194	-106.244	0.220	-0.049
-398.179	-40.597	-0.102	-0.052
-397.165	-99.623	-0.241	0.060
-396.150	800.000	0.036	0.107
-395.136	-200.000	0.001	0.208
-394.121	-128.632	-0.214	0.030
-393.106	-200.000	0.002	-0.157
-392.092	800.000	-0.046	-0.141
-391.077	-95.979	0.527	0.139
-390.063	-116.690	-0.154	-0.028
-389.048	-200.000	0.013	-0.175
-388.033	357.912	-0.044	0.087
-387.019	-7.270	0.164	-0.110
-386.004	-146.974	0.106	-0.009
-384.990	363.411	-0.038	0.075
-383.975	-200.000	0.046	-0.367
-382.960	-200.000	0.045	0.456
-381.946	-200.000	-0.034	0.205
-380.931	800.000	-0.029	0.106
-379.917	71.062	-0.076	-0.078
-378.902	610.305	0.034	-0.085
-377.888	-200.000	0.015	-0.106
-376.873	-200.000	0.105	0.566
-375.858	-200.000	0.022	0.187
-374.844	-127.456	0.210	-0.030
-373.829	-186.548	0.308	0.004
-372.815	-59.470	-0.315	0.134
-371.800	-187.470	0.401	-0.005
-370.785	183.741	-0.084	0.124
-369.771	800.000	0.035	0.137
-368.756	-200.000	0.411	-0.002
-367.742	766.185	0.060	-0.161
-366.727	54.880	-0.198	0.189
-365.712	-138.076	0.167	-0.018
-364.698	36.257	-0.111	-0.097
-363.683	69.017	0.083	0.084
-362.669	386.452	0.124	0.252
-361.654	-115.573	0.431	0.080
-360.639	-183.365	-0.301	-0.005
-359.625	-65.068	0.348	0.139
-358.610	-85.003	0.162	-0.050
-357.596	-75.848	-0.337	-0.118
-356.581	318.867	0.017	0.031
-355.566	-169.222	-0.210	-0.008
-354.552	-179.518	-0.240	-0.005
-353.537	-97.080	-0.006	-0.001
-352.523	-107.517	0.312	0.067
-351.508	-143.838	0.168	-0.016
-350.493	-81.453	0.214	-0.070
-349.479	-114.105	-0.211	0.040
-348.464	-157.385	0.065	0.004
-347.450	-200.000	0.011	-0.218
-346.435	286.210	-0.162	-0.289
-345.420	278.986	-0.142	-0.250
-344.406	53.061	0.130	-0.123
-343.391	79.335	-0.045	-0.048
-342.377	-40.740	0.109	0.056
-341.362	24.607	0.212	-0.173
-340.348	267.561	-0.090	-0.156
-339.333	-12.952	-0.073	-0.047
-338.318	-19.205	0.203	0.125
-337.304	-80.789	-0.061	-0.020
-336.289	-119.538	-0.191	-0.033
-335.275	800.000	-0.034	-0.113
-334.260	23.897	-0.175	0.143
-333.245	152.313	0.085	-0.114
-332.231	-92.116	-0.273	0.076
-331.216	-21.145	0.255	0.154
-330.202	-200.000	-0.005	0.219
-329.187	-200.000	0.083	0.443
-328.172	-200.000	-0.030	-0.149
-327.158	-19.802	0.020	-0.012
-326.143	-99.411	0.133	-0.033
-325.129	255.339	-0.253	0.427
-324.114	120.974	0.300	0.368
-323.099	-99.944	-0.306	-0.075
-322.085	-30.660	0.193	-0.108
-321.070	-54.820	-0.291	-0.130
-320.056	-77.741	-0.189	-0.065
-319.041	47.635	-0.165	-0.152
-318.026	-154.613	0.289	0.019
-317.012	-200.000	0.004	0.244
-315.997	316.723	0.044	0.082
-314.983	90.714	-0.078	0.086
-313.968	-200.000	-0.015	-0.082
-312.953	2.391	-0.276	0.197
-311.939	-79.810	0.258	0.086
-310.924	-36.908	-0.212	0.112
-309.910	96.836	0.122	-0.138
-308.895	-132.589	0.176	-0.022
-307.880	12.433	-0.301	-0.229
-306.866	-86.967	0.342	-0.103
-305.851	35.043	0.113	0.098
-304.837	-142.771	-0.131	-0.013
-303.822	308.570	-0.061	0.112
-302.807	48.369	0.020	-0.019
-301.793	800.000	0.053	-0.194
-300.778	54.035	0.354	0.336
-299.764	277.768	-0.208	0.365
-298.749	-147.739	-0.216	0.018
-297.735	468.047	0.056	-0.125
-296.720	162.486	0.265	-0.367
-295.705	76.274	0.225	0.235
-294.691	-142.648	0.298	-0.029
-293.676	-23.935	0.233	-0.137
-292.662	63.653	-0.060	-0.059
-291.647	-200.000	-0.017	-0.300
-290.632	-200.000	-0.013	0.131
-289.618	-200.000	0.022	-0.149
-288.603	130.331	-0.067	0.084
-287.589	-101.608	-0.226	0.054
-286.574	89.255	-0.076	0.084
-285.559	285.897	0.122	-0.216
-284.545	327.488	-0.014	0.026
-283.530	-200.000	-0.050	0.393
-282.516	-94.324	0.285	0.077
-281.501	-24.487	0.043	0.025
-280.486	-200.000	0.003	0.050
-279.472	-200.000	0.033	0.154
-278.457	-119.258	-0.077	-0.013
-277.443	800.000	0.034	-0.092
-276.428	14.299	-0.111	-0.085
-275.413	68.676	0.099	0.100
-274.399	-200.000	0.000	-0.084
-273.384	-150.461	-0.039	-0.003
-272.370	-104.438	0.238	0.054
-271.355	159.428	-0.107	-0.147
-270.340	-43.617	-0.127	0.063
-269.326	-120.598	-0.157	-0.026
-268.311	-177.322	-0.175	-0.004
-267.297	274.928	-0.329	-0.574
-266.282	212.076	0.097	0.151
-265.267	-45.642	0.050	0.024
-264.253	30.465	0.231	0.194
-263.238	-200.000	0.052	-0.297
-262.224	-74.734	-0.139	0.049
-261.209	234.580	0.144	-0.234
-260.195	-26.013	0.145	0.084
-259.180	207.472	0.126	0.193
-258.165	-200.000	-0.009	-0.138
-257.151	-200.000	-0.008	0.137
-256.136	-67.109	-0.505	-0.196
-255.122	-200.000	0.003	0.126
-254.107	160.681	0.070	0.097
-253.092	-130.661	-0.283	0.038
-252.078	-200.000	0.053	0.358
-251.063	68.076	0.126	0.127
-250.049	89.151	-0.079	0.087
-249.034	553.731	0.075	-0.178
-248.019	17.319	-0.185	-0.145
-247.005	-200.000	0.001	-0.022
-245.990	-52.989	-0.101	0.046
-244.976	-80.051	-0.038	-0.012
-243.961	80.400	0.125	-0.133
-242.946	-200.000	-0.008	0.178
-241.932	-129.442	0.254	0.035
-240.917	9.151	-0.247	0.184
-239.903	-64.676	-0.207	0.083
-238.888	-108.936	0.131	0.028
-237.873	29.676	-0.255	0.214
-236.859	210.427	0.096	0.148
-235.844	-33.857	-0.097	0.052
-234.830	-35.137	-0.310	-0.166
-233.815	128.707	-0.069	-0.086
-232.800	698.041	0.071	-0.183
-231.786	-123.326	0.128	-0.020
-230.771	-200.000	0.035	-0.258
-229.757	800.000	0.055	-0.181
-228.742	-65.906	0.397	0.156
-227.727	-166.511	-0.156	0.006
-226.713	-200.000	-0.005	-0.150
-225.698	-154.375	-0.056	-0.004
-224.684	-137.460	-0.088	-0.010
-223.669	-200.000	0.015	0.185
-222.655	524.936	-0.152	-0.352
-221.640	-86.382	-0.194	-0.059
-220.625	162.355	-0.159	0.219
-219.611	800.000	-0.022	0.095
-218.596	-135.205	0.372	0.044
-217.582	246.356	-0.247	0.410
-216.567	-200.000	0.049	-0.249
-215.552	107.866	-0.187	-0.219
-214.538	-7.967	0.331	-0.220
-213.523	175.399	0.193	-0.274
-212.509	800.000	0.099	0.360
-211.494	-33.001	0.291	-0.158
-210.479	-81.753	-0.238	0.077
-209.465	800.000	0.059	-0.172
-208.450	-4.037	0.203	-0.138
-207.436	-200.000	0.007	0.225
-206.421	266.358	0.128	0.220
-205.406	240.431	0.131	0.215
-204.392	19.896	0.285	0.226
-203.377	213.862	0.164	-0.254
-202.363	-178.907	-0.307	-0.007
-201.348	361.388	0.130	-0.257
-200.333	-200.000	0.005	0.211
-199.319	390.145	0.174	0.354
-198.304	-34.156	0.291	-0.157
-197.290	590.479	0.099	-0.240
-196.275	-200.000	-0.004	-0.132
-195.260	118.498	0.229	0.278
-194.246	-51.021	0.280	-0.129
-193.231	800.000	0.058	-0.160
-192.217	86.375	0.049	-0.053
-191.202	-108.311	-0.095	0.020
-190.187	-47.905	-0.330	0.157
-189.173	10.383	-0.227	-0.170
-188.158	130.238	0.079	0.099
-187.144	800.000	0.030	-0.106
-186.129	-50.897	0.430	0.198
-185.114	5.453	0.257	-0.186
-184.100	-48.217	-0.117	-0.056
-183.085	800.000	-0.061	0.241
-182.071	231.114	-0.186	-0.299
-181.056	133.873	0.217	0.276
-180.042	402.995	0.164	0.339
-179.027	4.774	-0.121	0.087
-178.012	-200.000	0.087	0.406
-176.998	292.533	0.127	0.228
-175.983	1.629	-0.164	-0.116
-174.969	-17.431	-0.160	0.099
-173.954	10.853	0.044	0.033
-172.939	-111.686	0.451	-0.090
-171.925	-84.858	-0.419	0.129
-170.910	262.191	0.120	0.204
-169.896	284.870	-0.130	-0.229
-168.881	22.345	0.317	-0.254
-167.866	-30.745	0.306	-0.170
-166.852	41.354	0.268	0.238
-165.837	-124.379	-0.255	0.039
-164.823	-200.000	-0.035	0.293
-163.808	-200.000	0.006	-0.263
-162.793	-15.827	0.163	0.102
-161.779	800.000	0.049	-0.197
-160.764	-152.480	-0.071	-0.005
-159.750	-146.146	-0.180	0.016
-158.735	-66.071	-0.184	-0.072
-157.720	-56.715	0.399	-0.173
-156.706	800.000	0.025	-0.097
-155.691	2.333	-0.159	-0.113
-154.677	-200.000	0.057	0.364
-153.662	260.176	0.225	-0.382
-152.647	-142.922	-0.238	-0.023
-151.633	800.000	0.067	-0.271
-150.618	81.205	0.079	-0.084
-149.604	800.000	-0.026	-0.073
-148.589	489.643	0.082	0.184
-147.574	211.778	0.056	0.086
-146.560	45.408	-0.224	0.202
-145.545	-57.376	-0.082	-0.035
-144.531	185.722	-0.106	-0.154
-143.516	800.000	-0.046	-0.145
-142.502	92.578	-0.097	0.108
-141.487	-69.758	0.166	-0.062
-140.472	-112.502	-0.470	-0.092
-139.458	-93.100	0.022	-0.006
-138.443	-114.127	0.047	-0.009
-137.429	-69.952	-0.157	-0.059
-136.414	-25.631	0.221	0.128
-135.399	393.202	0.052	0.107
-134.385	7.751	-0.215	0.158
-133.370	-119.383	0.272	0.046
-132.356	-16.495	0.172	-0.107
-131.341	395.227	-0.109	-0.224
-130.326	-29.483	-0.171	0.096
-129.312	83.913	-0.084	-0.090
-128.297	-19.448	-0.106	-0.064
-127.283	12.099	0.141	-0.106
-126.268	-147.223	0.337	-0.028
-125.253	-125.659	-0.135	0.020
-124.239	800.000	0.065	-0.224
-123.224	59.941	0.140	-0.135
-122.210	-200.000	-0.088	-0.441
