DTS Sentinel unit serial number:	SN413079Multiplexer serial number:	ORYXHardware model number:	OX4-SRSoftware version number:	ORYX F/W v4.00 Oryx Data Collector v3.7.2.0data status	okinstallation	princeton_trtdifferential loss correction	single-endedforward channel	channel 2reverse channel	N/Adate	2019/09/14time	13:11:34forward acquisition time	60.00reverse acquisition time	0.00gamma	496.2192k internal	0.2306k external	0.2306temperature offset calibration	1.0155default loss term (dB/km)	0.3790temperature slope calibration	1.0000multiplexer offset coefficient	1.0000multiplexer slope coefficient	1.0000fibre end	0.00T internal ref (°C)	37.95T ext. ref 1 (°C)	4.89T ext. ref 2 (°C)	34.10length (m)	temperature (°C)	Stokes	anti-Stokes-747.200	167.065	0.103	0.149
-746.185	800.000	-0.029	-0.106
-745.171	800.000	-0.045	0.193
-744.156	17.714	0.291	0.236
-743.142	800.000	0.063	0.255
-742.127	-200.000	0.002	0.241
-741.112	139.150	0.203	0.272
-740.098	110.112	0.319	0.390
-739.083	-200.000	-0.018	-0.134
-738.069	-58.467	0.081	-0.036
-737.054	-200.000	0.004	0.085
-736.039	-200.000	-0.028	-0.325
-735.025	108.151	0.087	0.106
-734.010	800.000	-0.077	0.278
-732.996	124.447	-0.053	-0.068
-731.981	106.024	-0.075	-0.091
-730.966	9.164	-0.219	-0.169
-729.952	-109.122	-0.135	0.029
-728.937	800.000	0.052	0.148
-727.923	349.628	0.025	0.049
-726.908	800.000	0.015	-0.059
-725.894	156.328	-0.067	-0.094
-724.879	132.654	-0.247	-0.324
-723.864	-200.000	-0.047	-0.234
-722.850	35.091	0.151	-0.135
-721.835	145.733	-0.156	0.213
-720.821	61.636	-0.181	-0.184
-719.806	-200.000	-0.050	0.238
-718.791	800.000	0.046	-0.198
-717.777	-196.561	-0.147	-0.001
-716.762	-80.052	-0.263	0.090
-715.748	21.362	0.448	-0.370
-714.733	-86.331	-0.294	-0.092
-713.718	800.000	0.042	0.146
-712.704	191.281	0.106	0.162
-711.689	413.827	0.120	0.259
-710.675	-88.480	-0.215	0.065
-709.660	-100.111	-0.242	0.061
-708.645	429.398	-0.102	-0.225
-707.631	-200.000	0.116	0.000
-706.616	-139.767	-0.164	0.018
-705.602	-200.000	-0.009	-0.099
-704.587	-78.293	-0.178	0.062
-703.572	-200.000	-0.019	-0.136
-702.558	800.000	-0.028	0.090
-701.543	173.478	0.194	0.284
-700.529	-119.530	0.382	0.067
-699.514	-78.618	-0.311	0.108
-698.499	-79.703	0.461	0.158
-697.485	800.000	0.024	0.070
-696.470	-200.000	0.018	-0.194
-695.456	-71.555	-0.187	-0.071
-694.441	28.149	0.087	0.074
-693.426	-80.123	0.161	0.055
-692.412	53.112	-0.147	-0.143
-691.397	37.950	0.012	0.011
-690.383	-13.253	-0.122	-0.081
-689.368	-200.000	0.015	-0.105
-688.354	452.185	-0.041	-0.091
-687.339	539.742	-0.072	0.173
-686.324	-74.615	-0.391	-0.143
-685.310	800.000	0.010	0.040
-684.295	-200.000	0.043	0.262
-683.281	329.209	-0.102	-0.200
-682.266	748.658	0.035	-0.095
-681.251	-181.164	0.222	0.004
-680.237	-39.278	-0.132	0.070
-679.222	800.000	0.066	-0.195
-678.208	-200.000	-0.025	0.151
-677.193	-97.242	-0.042	0.011
-676.178	56.973	-0.076	-0.075
-675.164	11.316	0.165	0.128
-674.149	70.062	0.080	0.084
-673.135	373.818	0.114	-0.236
-672.120	-138.883	-0.316	-0.035
-671.105	-173.631	-0.072	-0.002
-670.091	-15.540	-0.366	-0.237
-669.076	14.217	-0.516	0.408
-668.062	-19.797	-0.110	-0.069
-667.047	116.072	0.089	0.111
-666.032	150.885	0.102	-0.141
-665.018	-27.302	-0.313	-0.185
-664.003	47.805	-0.226	-0.214
-662.989	-79.521	-0.136	0.047
-661.974	4.654	-0.242	-0.180
-660.959	-158.682	-0.162	-0.009
-659.945	-200.000	0.009	-0.309
-658.930	33.649	-0.274	0.242
-657.916	-200.000	0.021	-0.170
-656.901	44.432	0.385	-0.359
-655.886	800.000	-0.101	0.304
-654.872	-91.260	-0.171	-0.050
-653.857	54.443	-0.221	0.216
-652.843	-200.000	-0.058	-0.284
-651.828	-200.000	-0.033	-0.284
-650.814	-40.010	0.229	-0.121
-649.799	-47.958	-0.089	0.044
-648.784	18.714	0.056	0.046
-647.770	-153.462	-0.209	0.015
-646.755	152.052	-0.191	0.264
-645.741	206.650	0.086	-0.136
-644.726	266.246	0.044	-0.078
-643.711	-100.630	0.107	0.027
-642.697	-58.660	-0.125	0.055
-641.682	800.000	-0.071	-0.276
-640.668	283.413	-0.110	-0.201
-639.653	-200.000	0.007	-0.184
-638.638	-200.000	-0.029	0.239
-637.624	-176.377	0.315	-0.008
-636.609	-200.000	-0.097	-0.615
-635.595	-37.344	-0.204	-0.110
-634.580	-200.000	-0.025	-0.262
-633.565	-20.227	-0.165	-0.103
-632.551	-126.398	-0.394	-0.059
-631.536	-133.143	-0.153	0.020
-630.522	26.301	0.113	-0.096
-629.507	-200.000	0.002	0.178
-628.492	87.296	-0.182	-0.204
-627.478	103.238	-0.060	-0.072
-626.463	109.671	-0.120	-0.146
-625.449	-200.000	0.034	-0.335
-624.434	-200.000	0.034	-0.259
-623.419	409.109	0.085	-0.183
-622.405	18.851	0.041	0.034
-621.390	-38.106	0.209	-0.113
-620.376	400.640	0.049	-0.104
-619.361	255.007	-0.249	0.432
-618.346	279.031	0.147	0.265
-617.332	264.528	-0.141	-0.248
-616.317	93.562	0.230	-0.263
-615.303	353.386	-0.221	-0.445
-614.288	-184.922	-0.276	-0.004
-613.273	-158.017	-0.319	0.019
-612.259	-200.000	-0.031	-0.258
-611.244	-200.000	-0.017	0.326
-610.230	478.900	-0.098	-0.225
-609.215	141.967	-0.192	-0.257
-608.201	-200.000	0.046	-0.229
-607.186	168.785	0.158	0.227
-606.171	704.855	0.181	-0.482
-605.157	-42.611	-0.134	0.069
-604.142	4.826	-0.174	0.130
-603.128	-6.467	0.189	0.130
-602.113	-66.068	0.082	0.033
-601.098	67.003	0.339	0.349
-600.084	22.305	-0.287	0.238
-599.069	-200.000	0.031	0.218
-598.055	-71.844	0.071	0.027
-597.040	31.560	0.217	0.189
-596.025	150.278	0.152	-0.209
-595.011	-112.777	-0.333	0.067
-593.996	519.996	-0.078	-0.185
-592.982	-132.727	0.207	-0.027
-591.967	74.668	-0.072	0.077
-590.952	-32.093	-0.244	0.138
-589.938	-17.313	0.125	-0.079
-588.923	-0.463	-0.151	-0.109
-587.909	665.612	-0.107	-0.280
-586.894	800.000	0.058	-0.199
-585.879	-125.560	0.258	-0.040
-584.865	13.192	-0.226	0.177
-583.850	77.553	0.017	-0.019
-582.836	-200.000	0.000	-0.083
-581.821	-200.000	0.000	0.131
-580.806	-87.743	0.082	0.025
-579.792	-200.000	-0.011	0.136
-578.777	-130.756	0.026	-0.004
-577.763	-157.135	-0.333	0.020
-576.748	186.474	-0.100	0.150
-575.733	76.984	-0.276	0.297
-574.719	29.136	-0.093	0.080
-573.704	-200.000	-0.005	0.268
-572.690	-101.113	-0.081	0.020
-571.675	-123.989	0.211	-0.034
-570.661	-200.000	-0.055	-0.247
-569.646	-88.619	0.232	0.070
-568.631	162.046	-0.025	0.036
-567.617	-38.570	0.176	0.094
-566.602	-54.983	0.164	-0.075
-565.588	-107.111	-0.109	0.024
-564.573	800.000	-0.030	-0.111
-563.558	41.655	0.392	0.358
-562.544	800.000	0.112	0.383
-561.529	-59.618	-0.097	-0.042
-560.515	-48.889	-0.338	0.164
-559.500	-7.023	-0.137	0.094
-558.485	-53.618	-0.143	-0.066
-557.471	757.959	0.087	0.237
-556.456	800.000	-0.111	0.373
-555.442	-200.000	0.012	-0.325
-554.427	-24.861	0.251	-0.151
-553.412	228.537	0.107	0.175
-552.398	-200.000	-0.026	0.223
-551.383	-160.895	0.270	-0.014
-550.369	-102.377	-0.350	-0.085
-549.354	3.817	-0.153	0.113
-548.339	-141.013	0.153	-0.016
-547.325	800.000	0.022	0.082
-546.310	-27.224	0.120	-0.070
-545.296	369.157	-0.062	0.127
-544.281	450.038	0.125	0.279
-543.266	99.598	-0.133	-0.155
-542.252	189.013	0.131	0.197
-541.237	-72.225	0.347	-0.130
-540.223	-11.157	0.125	0.083
-539.208	6.455	0.155	-0.116
-538.193	322.288	-0.206	0.395
-537.179	-113.958	0.380	-0.074
-536.164	800.000	0.045	0.126
-535.150	26.357	-0.124	-0.104
-534.135	45.898	-0.211	-0.197
-533.121	508.546	-0.027	-0.062
-532.106	-121.960	-0.130	0.022
-531.091	-200.000	0.043	-0.198
-530.077	316.380	-0.107	-0.204
-529.062	-172.477	-0.377	0.012
-528.048	-105.149	0.148	-0.034
-527.033	-189.484	0.066	0.001
-526.018	74.022	-0.236	0.250
-525.004	9.510	0.134	0.102
-523.989	56.126	0.162	0.159
-522.975	800.000	0.058	0.229
-521.960	-200.000	-0.053	-0.296
-520.945	80.154	0.047	-0.051
-519.931	17.375	0.214	-0.172
-518.916	-79.394	0.276	-0.094
-517.902	273.472	-0.079	-0.141
-516.887	-169.017	0.253	0.010
-515.872	-8.993	-0.195	0.132
-514.858	293.368	0.157	-0.289
-513.843	150.579	0.116	0.160
-512.829	9.209	0.251	-0.192
-511.814	-131.735	-0.372	-0.049
-510.799	651.077	0.104	-0.269
-509.785	46.833	-0.150	-0.140
-508.770	800.000	0.071	-0.209
-507.756	21.248	0.145	-0.119
-506.741	-19.341	0.149	0.093
-505.726	366.350	-0.027	0.054
-504.712	-79.323	0.204	-0.070
-503.697	-112.723	-0.306	0.061
-502.683	295.327	-0.065	-0.119
-501.668	21.412	-0.250	0.205
-500.653	-200.000	-0.003	0.309
-499.639	529.985	-0.041	-0.097
-498.624	-87.171	-0.221	0.068
-497.610	-200.000	-0.068	-0.453
-496.595	-46.788	-0.233	0.115
-495.581	78.175	-0.111	-0.119
-494.566	-123.246	-0.183	-0.029
-493.551	-8.278	0.370	-0.251
-492.537	88.493	-0.167	-0.187
-491.522	-43.632	0.106	0.054
-490.508	-200.000	-0.016	-0.118
-489.493	134.693	-0.260	-0.339
-488.478	-60.892	0.292	-0.124
-487.464	334.003	-0.059	0.114
-486.449	-184.879	-0.165	-0.003
-485.435	703.565	-0.077	-0.205
-484.420	255.157	-0.091	0.157
-483.405	-79.987	0.304	0.103
-482.391	-188.170	0.263	-0.003
-481.376	673.570	-0.142	-0.370
-480.362	-18.307	-0.142	0.089
-479.347	41.128	-0.035	0.032
-478.332	-102.310	0.253	-0.061
-477.318	72.203	0.133	0.139
-476.303	84.033	0.366	0.403
-475.289	-75.807	0.154	0.055
-474.274	202.739	-0.094	-0.147
-473.259	-140.565	-0.203	0.021
-472.245	207.658	0.114	-0.179
-471.230	265.399	0.214	0.376
-470.216	-200.000	-0.036	0.198
-469.201	800.000	0.048	0.198
-468.186	-177.194	-0.135	-0.003
-467.172	-116.841	0.285	-0.052
-466.157	-186.746	0.344	-0.005
-465.143	-200.000	0.056	0.280
-464.128	408.295	-0.087	0.186
-463.113	123.084	0.267	-0.336
-462.099	-159.322	-0.404	-0.023
-461.084	800.000	-0.039	0.139
-460.070	-58.689	-0.180	0.079
-459.055	-200.000	-0.018	-0.080
-458.040	-31.557	0.130	-0.074
-457.026	189.333	-0.136	-0.205
-456.011	313.441	0.077	-0.146
-454.997	-39.283	0.070	0.037
-453.982	175.692	0.066	0.096
-452.968	-107.217	-0.094	0.021
-451.953	-62.699	-0.230	-0.096
-450.938	502.826	0.083	-0.194
-449.924	233.951	-0.030	-0.050
-448.909	-38.946	0.193	-0.102
-447.895	371.793	-0.066	-0.134
-446.880	800.000	-0.015	-0.043
-445.865	-200.000	-0.028	0.159
-444.851	621.123	0.098	0.248
-443.836	-200.000	-0.004	0.178
-442.822	-200.000	0.035	0.252
-441.807	-200.000	-0.008	-0.327
-440.792	231.323	0.175	-0.288
-439.778	-200.000	-0.029	0.298
-438.763	168.022	-0.164	0.235
-437.749	-96.453	0.062	-0.016
-436.734	-139.460	0.058	0.006
-435.719	-24.778	0.237	0.142
-434.705	-25.885	-0.276	-0.164
-433.690	3.634	-0.145	-0.107
-432.676	91.236	-0.096	-0.109
-431.661	98.037	-0.069	0.080
-430.646	800.000	-0.032	-0.093
-429.632	-91.336	-0.284	-0.082
-428.617	119.008	-0.116	0.145
-427.603	8.222	-0.148	0.111
-426.588	-85.421	0.235	-0.074
-425.573	-62.805	-0.273	-0.114
-424.559	289.201	0.075	-0.137
-423.544	-124.423	0.150	-0.024
-422.530	57.786	0.039	0.038
-421.515	84.646	-0.165	0.181
-420.500	-200.000	-0.015	0.464
-419.486	-112.910	0.281	0.056
-418.471	-120.554	-0.044	0.008
-417.457	-200.000	-0.023	-0.229
-416.442	-200.000	0.015	0.108
-415.428	-200.000	-0.015	-0.184
-414.413	-61.873	0.068	-0.029
-413.398	-43.794	-0.326	-0.165
-412.384	229.007	-0.142	0.233
-411.369	-200.000	-0.014	0.281
-410.355	131.597	-0.175	0.226
-409.340	-87.920	0.145	-0.044
-408.325	-200.000	0.006	-0.436
-407.311	-170.036	-0.345	0.012
-406.296	-47.994	0.318	-0.154
-405.282	107.730	-0.155	0.186
-404.267	-200.000	-0.001	0.062
-403.252	-200.000	-0.099	0.444
-402.238	-23.314	0.246	-0.148
-401.223	253.471	0.062	0.107
-400.209	163.838	-0.080	0.113
-399.194	800.000	0.030	0.119
-398.179	-64.758	0.286	-0.116
-397.165	800.000	0.028	-0.108
-396.150	751.491	0.023	0.063
-395.136	-130.484	0.302	-0.041
-394.121	-200.000	0.006	0.061
-393.106	-200.000	-0.027	-0.143
-392.092	-94.244	0.192	-0.053
-391.077	-200.000	0.027	0.335
-390.063	309.490	-0.096	-0.180
-389.048	-177.586	-0.117	0.003
-388.033	-113.524	-0.177	-0.035
-387.019	-122.544	-0.051	-0.008
-386.004	-116.717	0.075	-0.014
-384.990	223.814	0.060	0.097
-383.975	89.646	0.184	-0.206
-382.960	-159.575	0.174	0.010
-381.946	417.426	-0.047	-0.100
-380.931	-200.000	0.018	-0.409
-379.917	-9.832	-0.087	-0.058
-378.902	-82.562	0.225	-0.073
-377.888	105.340	-0.061	-0.072
-376.873	-200.000	0.028	0.220
-375.858	-122.198	0.270	0.044
-374.844	81.331	0.260	-0.281
-373.829	187.771	0.068	0.102
-372.815	800.000	0.152	0.427
-371.800	800.000	-0.054	0.150
-370.785	-171.742	0.136	0.004
-369.771	-200.000	0.039	0.222
-368.756	480.278	0.106	0.242
-367.742	103.057	-0.079	-0.093
-366.727	-164.422	-0.266	0.012
-365.712	-159.556	-0.208	-0.012
-364.698	-21.318	-0.131	-0.080
-363.683	-10.474	-0.044	-0.029
-362.669	-98.199	-0.425	-0.110
-361.654	-200.000	0.004	0.393
-360.639	127.124	0.269	0.342
-359.625	32.099	-0.077	0.067
-358.610	-200.000	0.008	0.093
-357.596	800.000	0.022	-0.069
-356.581	-200.000	0.018	0.095
-355.566	-27.536	0.313	0.182
-354.552	-79.965	-0.517	0.174
-353.537	-39.517	0.079	-0.041
-352.523	800.000	-0.065	0.206
-351.508	-129.155	-0.186	-0.026
-350.493	-200.000	0.037	-0.327
-349.479	483.918	0.137	0.312
-348.464	167.968	-0.137	-0.195
-347.450	79.869	-0.121	0.131
-346.435	2.550	-0.141	0.102
-345.420	72.047	0.148	0.154
-344.406	-200.000	0.022	0.179
-343.391	391.054	0.054	0.113
-342.377	-57.593	-0.166	-0.073
-341.362	-133.613	-0.329	-0.041
-340.348	760.173	0.110	-0.300
-339.333	-200.000	0.010	0.070
-338.318	31.706	0.114	-0.098
-337.304	-200.000	0.010	-0.095
-336.289	800.000	-0.031	-0.099
-335.275	800.000	0.063	-0.207
-334.260	178.026	0.002	0.003
-333.245	-200.000	0.095	-0.628
-332.231	-174.154	0.377	0.011
-331.216	-200.000	0.031	-0.152
-330.202	-200.000	0.052	0.228
-329.187	186.446	0.132	-0.197
-328.172	329.267	-0.139	-0.267
-327.158	-147.415	-0.175	-0.015
-326.143	378.799	0.025	0.052
-325.129	231.624	-0.201	-0.330
-324.114	-35.341	-0.262	-0.142
-323.099	232.925	0.137	-0.225
-322.085	32.083	0.254	-0.220
-321.070	147.880	-0.202	-0.272
-320.056	800.000	0.062	0.250
-319.041	27.787	0.080	-0.067
-318.026	50.931	-0.221	0.209
-317.012	-165.078	-0.347	0.015
-315.997	541.025	0.090	0.214
-314.983	-48.656	0.156	-0.075
-313.968	-83.828	-0.324	-0.103
-312.953	-126.518	0.186	0.028
-311.939	-77.798	-0.161	-0.056
-310.924	-112.483	0.209	-0.042
-309.910	11.898	0.024	0.019
-308.895	-13.139	-0.152	0.099
-307.880	800.000	-0.075	-0.209
-306.866	77.434	0.080	0.085
-305.851	228.357	0.118	-0.193
-304.837	-129.626	-0.235	-0.032
-303.822	-126.918	-0.323	0.047
-302.807	260.544	-0.021	0.036
-301.793	237.568	-0.083	0.138
-300.778	103.602	0.174	-0.205
-299.764	178.856	-0.178	0.260
-298.749	-63.304	0.098	-0.040
-297.735	44.890	0.039	0.035
-296.720	-200.000	0.003	0.430
-295.705	119.197	0.120	0.148
-294.691	423.000	-0.044	0.095
-293.676	-111.501	-0.241	-0.049
-292.662	800.000	0.062	-0.189
-291.647	333.300	-0.091	-0.176
-290.632	-35.791	0.126	0.068
-289.618	-54.300	-0.395	-0.179
-288.603	13.960	-0.080	-0.063
-287.589	800.000	-0.042	-0.138
-286.574	-14.196	-0.109	0.070
-285.559	-30.229	0.096	0.054
-284.545	-43.977	-0.079	0.040
-283.530	-200.000	-0.065	-0.306
-282.516	129.979	-0.082	-0.104
-281.501	-91.961	0.401	-0.114
-280.486	368.116	-0.075	-0.152
-279.472	-200.000	-0.040	0.234
-278.457	800.000	-0.018	-0.053
-277.443	30.522	-0.224	-0.192
-276.428	302.876	0.082	-0.152
-275.413	-103.343	0.138	-0.033
-274.399	-69.561	0.088	0.034
-273.384	-72.493	0.012	0.004
-272.370	144.330	0.007	-0.009
-271.355	-69.350	-0.363	-0.139
-270.340	95.900	0.143	-0.163
-269.326	-3.478	0.172	0.120
-268.311	-137.463	0.335	-0.038
-267.297	279.649	-0.118	-0.211
-266.282	-37.310	0.261	-0.139
-265.267	-161.823	0.170	0.009
-264.253	-200.000	0.018	-0.157
-263.238	-24.431	-0.259	0.154
-262.224	46.510	-0.185	-0.171
-261.209	26.434	0.216	0.181
-260.195	789.701	0.101	-0.278
-259.180	-70.452	0.029	0.011
-258.165	329.372	0.200	0.383
-257.151	32.338	0.231	0.199
-256.136	302.955	-0.169	0.313
-255.122	84.244	-0.220	0.240
-254.107	-147.550	-0.273	-0.023
-253.092	-123.308	0.049	-0.008
-252.078	73.800	-0.011	0.012
-251.063	-200.000	-0.020	0.175
-250.049	-49.554	0.245	0.116
-249.034	800.000	0.099	0.329
-248.019	31.385	0.246	0.211
-247.005	774.417	-0.088	-0.238
-245.990	800.000	0.055	0.156
-244.976	-114.242	-0.247	0.047
-243.961	138.647	0.099	-0.129
-242.946	64.233	0.078	0.078
-241.932	67.521	0.076	0.077
-240.917	393.762	0.043	0.089
-239.903	246.200	0.116	0.196
-238.888	-200.000	-0.046	0.215
-237.873	-200.000	0.012	-0.076
-236.859	-56.960	0.320	0.141
-235.844	271.510	-0.230	0.404
-234.830	-200.000	0.028	0.401
-233.815	20.749	0.207	-0.167
-232.800	-137.178	0.157	0.018
-231.786	25.804	0.305	0.253
-230.771	-107.165	0.055	-0.012
-229.757	122.625	0.220	-0.274
-228.742	245.903	-0.027	0.046
-227.727	190.144	0.035	0.053
-226.713	417.389	0.100	0.213
-225.698	-200.000	0.026	0.155
-224.684	-18.717	-0.105	-0.065
-223.669	190.220	-0.119	0.178
-222.655	3.039	0.141	0.102
-221.640	-35.813	-0.181	0.098
-220.625	208.741	0.138	0.216
-219.611	-171.095	-0.206	-0.007
-218.596	19.798	0.201	-0.161
-217.582	164.419	-0.094	0.131
-216.567	12.543	-0.384	0.296
-215.552	-200.000	-0.100	0.000
-214.538	-7.394	0.122	-0.082
-213.523	-137.352	0.135	0.015
-212.509	-2.810	0.087	-0.060
-211.494	-200.000	0.038	0.243
-210.479	-200.000	-0.023	0.280
-209.465	67.351	0.084	-0.086
-208.450	573.437	0.045	0.110
-207.436	-200.000	0.005	-0.036
-206.421	-8.495	0.205	0.137
-205.406	-200.000	-0.034	0.344
-204.392	-200.000	-0.003	0.096
-203.377	-161.329	-0.408	-0.021
-202.363	-200.000	-0.016	-0.131
-201.348	-71.270	-0.171	0.064
-200.333	-114.159	0.060	-0.012
-199.319	800.000	0.056	-0.170
-198.304	-12.640	0.266	-0.173
-197.290	-81.612	0.099	0.032
-196.275	55.407	-0.020	0.019
-195.260	800.000	-0.044	-0.174
-194.246	27.465	-0.096	-0.080
-193.231	580.650	-0.078	-0.190
-192.217	75.940	-0.148	0.156
-191.202	800.000	0.076	0.216
-190.187	-200.000	-0.020	0.212
-189.173	-36.595	0.388	0.208
-188.158	457.522	0.075	-0.167
-187.144	241.644	-0.062	0.103
-186.129	185.089	-0.184	-0.272
-185.114	-103.406	0.262	-0.061
-184.100	-125.332	-0.238	0.036
-183.085	3.946	-0.172	0.125
-182.071	68.358	0.162	-0.165
-181.056	800.000	-0.037	-0.101
-180.042	349.564	0.083	-0.162
-179.027	-100.784	0.125	-0.031
-178.012	-200.000	-0.000	0.046
-176.998	487.786	0.058	0.132
-175.983	-38.819	0.206	0.108
-174.969	-40.582	0.102	-0.053
-173.954	599.276	0.050	-0.123
-172.939	800.000	-0.061	-0.216
-171.925	450.871	0.070	-0.154
-170.910	311.301	-0.056	0.105
-169.896	-200.000	-0.170	-0.001
-168.881	-200.000	-0.064	-0.482
-167.866	-9.292	0.401	-0.266
-166.852	-200.000	0.046	-0.350
-165.837	-99.119	0.291	-0.073
-164.823	330.626	0.171	0.328
-163.808	-200.000	-0.050	-0.313
-162.793	-105.340	0.201	0.046
-161.779	-200.000	-0.033	0.261
-160.764	343.898	0.036	-0.069
-159.750	800.000	0.053	-0.181
-158.735	-12.834	-0.180	0.117
-157.720	-200.000	0.060	0.288
-156.706	-89.289	-0.440	-0.129
-155.691	292.589	0.021	-0.037
-154.677	168.322	0.026	0.037
-153.662	-47.912	-0.208	-0.100
-152.647	-77.813	-0.099	-0.034
-151.633	-147.248	-0.162	0.014
-150.618	301.586	-0.180	-0.331
-149.604	-200.000	-0.113	-0.498
-148.589	-31.095	0.189	-0.106
-147.574	800.000	0.077	-0.329
-146.560	-200.000	0.058	-0.445
-145.545	-179.275	0.180	-0.004
-144.531	127.945	0.063	-0.079
-143.516	-103.586	-0.156	-0.036
-142.502	-4.043	0.220	-0.152
-141.487	800.000	0.091	-0.254
-140.472	-68.558	-0.268	-0.103
-139.458	-117.688	-0.162	0.029
-138.443	-200.000	-0.016	0.120
-137.429	47.117	-0.261	-0.241
-136.414	800.000	0.043	-0.154
-135.399	-144.907	-0.164	0.015
-134.385	-157.053	0.492	0.030
-133.370	800.000	0.076	-0.218
-132.356	-15.413	0.103	-0.065
-131.341	-6.545	0.263	0.178
-130.326	-8.477	-0.259	0.173
-129.312	-65.855	0.195	0.078
-128.297	-200.000	0.057	0.296
-127.283	-75.586	-0.294	0.104
-126.268	56.291	-0.265	0.256
-125.253	204.940	-0.124	-0.191
-124.239	-200.000	0.020	-0.203
-123.224	25.768	0.194	-0.161
-122.210	160.612	-0.023	-0.032
-121.195	150.482	0.087	0.118
