DTS Sentinel unit serial number:	SN413079Multiplexer serial number:	ORYXHardware model number:	OX4-SRSoftware version number:	ORYX F/W v4.00 Oryx Data Collector v3.7.2.0data status	okinstallation	princeton_trtdifferential loss correction	single-endedforward channel	channel 2reverse channel	N/Adate	2019/09/18time	03:47:35forward acquisition time	60.00reverse acquisition time	0.00gamma	496.2192k internal	0.2349k external	0.2349temperature offset calibration	0.9979default loss term (dB/km)	0.3790temperature slope calibration	1.0000multiplexer offset coefficient	1.0000multiplexer slope coefficient	1.0000fibre end	0.00T internal ref (°C)	23.00T ext. ref 1 (°C)	0.17T ext. ref 2 (°C)	18.09length (m)	temperature (°C)	Stokes	anti-Stokes-747.200	-143.950	0.242	-0.023
-746.185	-28.020	-0.131	-0.075
-745.171	-200.000	0.009	0.143
-744.156	97.931	-0.129	0.148
-743.142	-27.921	0.190	0.110
-742.127	-138.627	-0.427	0.047
-741.112	-17.532	0.179	-0.112
-740.098	1.305	-0.162	0.116
-739.083	-79.552	0.058	0.019
-738.069	800.000	-0.094	0.332
-737.054	529.933	0.052	-0.123
-736.039	-62.283	-0.268	0.112
-735.025	643.328	0.131	0.332
-734.010	-28.321	-0.225	-0.130
-732.996	-200.000	-0.028	-0.566
-731.981	40.850	-0.297	-0.267
-730.966	-83.572	-0.191	0.061
-729.952	106.166	0.095	0.112
-728.937	-74.831	0.256	-0.092
-727.923	-97.121	0.055	-0.014
-726.908	-200.000	-0.021	-0.187
-725.894	323.362	-0.179	0.341
-724.879	111.820	-0.085	0.102
-723.864	800.000	-0.038	-0.146
-722.850	-200.000	0.047	-0.275
-721.835	-97.017	-0.096	-0.025
-720.821	-200.000	-0.012	-0.064
-719.806	-22.623	0.079	-0.048
-718.791	-59.775	-0.409	-0.175
-717.777	267.901	-0.047	-0.082
-716.762	-57.908	-0.228	0.099
-715.748	-200.000	-0.003	0.075
-714.733	800.000	0.049	0.157
-713.718	800.000	0.103	-0.409
-712.704	-200.000	0.067	-0.377
-711.689	43.854	-0.225	-0.205
-710.675	506.931	-0.159	-0.368
-709.660	-200.000	0.001	-0.156
-708.645	57.830	0.128	0.125
-707.631	29.269	-0.193	-0.163
-706.616	53.364	-0.104	-0.100
-705.602	2.350	-0.281	-0.203
-704.587	239.989	0.024	-0.040
-703.572	-40.894	0.136	0.070
-702.558	343.352	0.187	-0.364
-701.543	-97.038	0.442	0.115
-700.529	451.979	-0.101	0.222
-699.514	-200.000	-0.002	-0.111
-698.499	-161.178	0.230	-0.012
-697.485	-77.678	-0.150	-0.052
-696.470	-200.000	0.010	0.122
-695.456	800.000	-0.057	-0.237
-694.441	47.616	-0.128	0.119
-693.426	-73.348	-0.221	0.081
-692.412	-105.770	0.470	0.106
-691.397	97.846	0.209	-0.240
-690.383	124.500	0.039	0.049
-689.368	-75.923	0.066	0.023
-688.354	691.609	0.144	0.375
-687.339	-200.000	-0.015	-0.239
-686.324	-94.629	-0.237	-0.064
-685.310	800.000	0.039	0.110
-684.295	-126.353	-0.252	0.038
-683.281	42.194	-0.345	-0.312
-682.266	-200.000	-0.007	0.116
-681.251	-97.937	-0.236	0.061
-680.237	-200.000	0.005	0.070
-679.222	399.969	0.108	0.225
-678.208	0.539	-0.240	0.171
-677.193	-200.000	0.120	-0.532
-676.178	-52.490	0.207	0.095
-675.164	-108.788	0.072	0.015
-674.149	-9.135	-0.280	0.186
-673.135	800.000	0.069	-0.230
-672.120	4.862	-0.097	0.071
-671.105	-66.127	-0.521	0.207
-670.091	29.457	0.133	-0.112
-669.076	-104.888	-0.053	-0.012
-668.062	-64.959	0.109	-0.044
-667.047	272.619	-0.056	-0.099
-666.032	37.589	0.258	-0.228
-665.018	-200.000	0.016	-0.078
-664.003	2.643	-0.337	0.243
-662.989	246.638	-0.089	-0.149
-661.974	-77.153	-0.321	0.111
-660.959	218.513	-0.118	0.188
-659.945	-119.598	-0.234	-0.040
-658.930	-46.096	-0.495	-0.243
-657.916	-75.206	0.186	-0.066
-656.901	623.885	-0.104	-0.262
-655.886	-200.000	-0.013	0.167
-654.872	296.747	-0.156	-0.284
-653.857	-120.100	-0.170	0.029
-652.843	32.279	0.109	-0.094
-651.828	-200.000	-0.421	0.000
-650.814	800.000	-0.020	-0.070
-649.799	-26.550	-0.089	-0.052
-648.784	79.429	0.330	-0.352
-647.770	138.656	-0.095	-0.124
-646.755	-200.000	-0.057	-0.289
-645.741	-155.717	-0.207	0.013
-644.726	109.594	0.223	0.266
-643.711	283.456	0.182	-0.325
-642.697	-8.922	-0.133	-0.088
-641.682	-49.582	-0.228	0.108
-640.668	344.914	-0.097	-0.189
-639.653	800.000	0.075	-0.262
-638.638	-200.000	0.003	0.294
-637.624	-200.000	0.013	-0.137
-636.609	800.000	0.063	-0.226
-635.595	-10.282	0.143	-0.094
-634.580	-200.000	0.020	-0.119
-633.565	-200.000	-0.033	0.156
-632.551	265.953	0.099	0.171
-631.536	555.632	-0.141	-0.337
-630.522	-21.427	0.143	-0.087
-629.507	68.009	-0.132	0.134
-628.492	-38.420	-0.117	0.061
-627.478	176.297	0.036	-0.052
-626.463	-157.948	-0.369	0.022
-625.449	252.267	0.043	-0.072
-624.434	-111.456	0.183	0.037
-623.419	-200.000	-0.017	-0.466
-622.405	-115.190	-0.140	-0.026
-621.390	-133.249	-0.213	-0.027
-620.376	-200.000	-0.032	0.265
-619.361	472.039	0.086	-0.192
-618.346	55.132	0.015	-0.014
-617.332	-84.402	-0.246	0.077
-616.317	24.716	-0.090	-0.074
-615.303	-117.990	-0.044	-0.008
-614.288	23.747	0.186	-0.153
-613.273	125.708	-0.115	-0.145
-612.259	-117.896	-0.366	-0.065
-611.244	558.471	0.073	-0.174
-610.230	-200.000	-0.025	-0.517
-609.215	-121.317	-0.145	0.024
-608.201	-33.879	-0.036	0.020
-607.186	-108.707	0.471	0.100
-606.171	-123.377	0.106	0.017
-605.157	-200.000	-0.030	-0.210
-604.142	169.642	-0.056	0.079
-603.128	-2.485	0.157	0.109
-602.113	24.073	-0.208	0.171
-601.098	-93.893	-0.249	-0.068
-600.084	35.876	-0.387	-0.338
-599.069	25.902	0.223	0.185
-598.055	800.000	-0.076	-0.290
-597.040	-129.424	-0.257	0.035
-596.025	-80.595	-0.294	0.097
-595.011	800.000	0.037	-0.112
-593.996	800.000	-0.062	0.245
-592.982	-47.662	0.248	0.119
-591.967	3.875	0.084	0.061
-590.952	131.792	-0.218	0.279
-589.938	800.000	-0.089	-0.382
-588.923	-99.636	0.288	0.072
-587.909	-200.000	-0.090	0.415
-586.894	-200.000	-0.010	-0.049
-585.879	422.110	0.010	-0.022
-584.865	-200.000	-0.044	-0.200
-583.850	744.444	-0.010	0.027
-582.836	168.870	-0.297	0.420
-581.821	800.000	0.096	-0.305
-580.806	67.928	0.178	-0.180
-579.792	-119.279	0.147	0.025
-578.777	-37.427	-0.306	-0.162
-577.763	31.877	-0.257	-0.220
-576.748	-74.109	-0.211	0.076
-575.733	-63.835	-0.332	0.135
-574.719	33.184	-0.046	-0.039
-573.704	-200.000	0.023	-0.432
-572.690	-50.473	-0.099	-0.047
-571.675	166.845	0.080	0.112
-570.661	-143.793	0.346	0.032
-569.646	-171.289	-0.183	-0.006
-568.631	-16.919	-0.159	-0.100
-567.617	-200.000	-0.036	-0.180
-566.602	-126.804	0.326	-0.048
-565.588	800.000	0.075	0.291
-564.573	800.000	-0.088	0.356
-563.558	-91.888	-0.228	0.064
-562.544	-121.425	0.234	-0.039
-561.529	440.511	0.127	0.275
-560.515	221.904	-0.283	-0.451
-559.500	800.000	0.018	-0.059
-558.485	180.762	0.157	0.228
-557.471	157.669	-0.101	0.139
-556.456	178.397	-0.109	0.157
-555.442	-107.122	0.105	0.023
-554.427	1.874	0.216	-0.154
-553.412	36.689	0.062	-0.054
-552.398	800.000	-0.052	0.182
-551.383	198.910	0.159	-0.241
-550.369	93.989	-0.091	-0.102
-549.354	-64.124	0.281	0.114
-548.339	132.642	0.127	-0.162
-547.325	303.854	-0.121	0.222
-546.310	3.763	0.279	-0.202
-545.296	-44.970	0.315	0.156
-544.281	-90.883	-0.166	-0.047
-543.266	302.037	-0.114	-0.209
-542.252	-200.000	0.000	-0.439
-541.237	-137.806	0.211	-0.023
-540.223	100.031	0.008	0.009
-539.208	-102.716	-0.509	-0.120
-538.193	-82.128	-0.070	0.023
-537.179	-20.169	-0.198	0.121
-536.164	153.849	0.069	-0.093
-535.150	-200.000	0.012	-0.221
-534.135	-67.801	-0.148	0.057
-533.121	43.867	-0.085	-0.077
-532.106	-89.256	0.167	-0.049
-531.091	-26.169	-0.159	-0.092
-530.077	-200.000	-0.036	0.233
-529.062	279.317	0.114	0.202
-528.048	-41.024	0.224	-0.115
-527.033	775.076	0.102	-0.275
-526.018	-29.746	-0.207	0.117
-525.004	64.259	-0.095	0.095
-523.989	350.176	0.023	-0.045
-522.975	-200.000	0.018	-0.107
-521.960	517.052	-0.193	0.447
-520.945	-124.508	0.075	-0.012
-519.931	682.171	-0.026	0.067
-518.916	-200.000	0.031	0.367
-517.902	-12.424	0.234	0.152
-516.887	-200.000	-0.017	-0.247
-515.872	14.005	0.031	0.024
-514.858	48.630	-0.113	-0.105
-513.843	-61.700	0.146	0.061
-512.829	668.911	-0.093	0.238
-511.814	-56.139	-0.340	0.150
-510.799	245.473	-0.050	0.083
-509.785	99.856	-0.118	-0.135
-508.770	-124.652	0.239	0.037
-507.756	-200.000	0.047	0.245
-506.741	306.028	0.178	-0.328
-505.726	-92.274	-0.312	-0.087
-504.712	-200.000	0.022	-0.099
-503.697	-7.869	0.290	-0.194
-502.683	-200.000	0.022	0.162
-501.668	-200.000	-0.007	-0.314
-500.653	762.836	-0.080	0.214
-499.639	800.000	-0.088	0.317
-498.624	90.653	-0.089	0.099
-497.610	-87.217	0.059	-0.018
-496.595	12.777	-0.133	-0.101
-495.581	448.239	0.059	-0.128
-494.566	664.909	-0.095	-0.243
-493.551	138.081	-0.215	0.279
-492.537	-79.052	0.327	-0.110
-491.522	-40.441	-0.050	-0.026
-490.508	48.990	0.116	-0.108
-489.493	60.813	0.204	0.200
-488.478	-95.536	0.185	-0.049
-487.464	465.518	-0.062	0.137
-486.449	-38.931	0.274	-0.143
-485.435	-200.000	0.033	0.231
-484.420	791.603	-0.147	-0.400
-483.405	46.842	0.072	-0.066
-482.391	292.523	-0.089	-0.160
-481.376	706.193	-0.137	0.359
-480.362	-62.571	-0.210	-0.086
-479.347	-200.000	0.345	0.001
-478.332	-200.000	-0.041	-0.186
-477.318	-7.626	0.301	-0.201
-476.303	250.012	-0.091	-0.153
-475.289	191.047	-0.022	0.033
-474.274	-200.000	0.044	0.225
-473.259	167.459	0.131	-0.184
-472.245	800.000	-0.115	0.392
-471.230	-38.557	-0.120	0.063
-470.216	-4.022	-0.244	0.167
-469.201	800.000	0.040	0.120
-468.186	-200.000	0.018	-0.283
-467.172	-155.601	-0.073	-0.005
-466.157	800.000	0.080	0.261
-465.143	34.199	0.199	-0.172
-464.128	-1.961	0.146	0.102
-463.113	187.515	0.148	0.219
-462.099	-58.343	-0.164	-0.071
-461.084	-59.963	-0.243	-0.102
-460.070	159.735	-0.127	-0.174
-459.055	40.360	-0.084	0.074
-458.040	-100.331	0.617	0.151
-457.026	-113.408	-0.491	-0.095
-456.011	307.436	-0.102	0.187
-454.997	-57.425	-0.143	0.062
-453.982	683.100	0.128	-0.331
-452.968	800.000	0.039	-0.109
-451.953	15.850	-0.162	-0.126
-450.938	-47.790	-0.416	0.199
-449.924	-200.000	0.015	-0.154
-448.909	77.636	0.035	0.037
-447.895	-82.214	-0.043	0.014
-446.880	800.000	-0.059	-0.166
-445.865	435.739	-0.207	-0.445
-444.851	-109.000	-0.316	0.066
-443.836	-68.350	-0.251	0.096
-442.822	136.282	0.098	0.127
-441.807	708.499	-0.029	-0.075
-440.792	-200.000	-0.001	-0.107
-439.778	261.352	0.155	0.266
-438.763	58.506	0.076	-0.074
-437.749	84.530	0.185	-0.199
-436.734	29.902	0.031	-0.026
-435.719	-143.548	0.082	-0.008
-434.705	-58.349	0.135	0.058
-433.690	800.000	-0.050	-0.156
-432.676	67.196	-0.107	0.107
-431.661	-200.000	0.020	0.092
-430.646	-27.389	-0.120	0.069
-429.632	-200.000	0.007	0.234
-428.617	115.231	0.262	0.315
-427.603	134.768	-0.161	0.206
-426.588	-137.718	-0.202	-0.022
-425.573	-19.060	-0.252	-0.154
-424.559	205.936	0.065	0.100
-423.544	-28.288	-0.199	0.113
-422.530	133.993	-0.219	0.280
-421.515	-29.493	0.100	0.056
-420.500	-200.000	0.014	-0.062
-419.486	-1.816	-0.086	-0.060
-418.471	-14.200	0.242	0.154
-417.457	-35.655	0.356	-0.190
-416.442	800.000	-0.123	-0.353
-415.428	236.488	-0.102	0.166
-414.413	147.184	0.074	-0.098
-413.398	81.779	-0.270	0.288
-412.384	-88.761	0.156	-0.046
-411.369	302.748	-0.123	0.224
-410.355	-200.000	0.004	0.058
-409.340	-92.451	-0.184	0.051
-408.325	-0.294	-0.101	-0.071
-407.311	-50.960	0.068	0.031
-406.296	-200.000	-0.007	-0.203
-405.282	138.366	-0.113	0.146
-404.267	-200.000	-0.010	-0.325
-403.252	152.794	0.160	-0.215
-402.238	505.191	-0.226	-0.516
-401.223	-200.000	-0.036	0.243
-400.209	-97.532	-0.372	-0.095
-399.194	-200.000	0.050	-0.287
-398.179	594.902	0.156	0.381
-397.165	127.411	-0.043	0.054
-396.150	182.617	0.076	0.111
-395.136	-153.203	-0.088	0.006
-394.121	-187.392	-0.441	-0.006
-393.106	-127.391	0.093	-0.013
-392.092	800.000	-0.026	0.097
-391.077	-121.013	0.284	-0.047
-390.063	800.000	-0.048	-0.183
-389.048	393.015	0.101	0.206
-388.033	800.000	0.097	0.320
-387.019	-200.000	-0.061	-0.507
-386.004	800.000	-0.067	-0.249
-384.990	-172.738	0.419	0.013
-383.975	800.000	0.127	-0.352
-382.960	-200.000	0.007	0.118
-381.946	-195.449	-0.381	0.003
-380.931	-11.843	0.064	-0.041
-379.917	24.646	-0.133	-0.108
-378.902	64.641	0.205	0.203
-377.888	-200.000	-0.005	-0.164
-376.873	-200.000	-0.025	0.486
-375.858	-161.196	0.102	-0.005
-374.844	-200.000	-0.049	-0.437
-373.829	30.490	-0.037	-0.031
-372.815	54.835	-0.068	0.065
-371.800	116.365	-0.230	-0.277
-370.785	-41.408	-0.321	0.162
-369.771	-55.034	0.286	-0.127
-368.756	12.078	0.150	-0.114
-367.742	-149.775	-0.429	-0.033
-366.727	-200.000	-0.026	-0.121
-365.712	244.756	0.107	0.177
-364.698	-94.181	0.116	0.031
-363.683	800.000	0.057	-0.196
-362.669	-106.477	-0.146	-0.032
-361.654	-111.792	-0.285	0.057
-360.639	147.964	0.163	0.216
-359.625	464.224	0.056	0.122
-358.610	540.418	-0.075	-0.175
-357.596	-114.221	-0.099	-0.019
-356.581	19.059	-0.098	0.078
-355.566	-138.487	-0.080	-0.009
-354.552	-200.000	0.016	0.179
-353.537	-173.254	0.370	0.011
-352.523	-117.418	0.299	-0.053
-351.508	78.133	-0.175	-0.183
-350.493	-200.000	-0.028	-0.200
-349.479	206.116	-0.104	0.160
-348.464	247.213	0.054	0.089
-347.450	-138.143	0.172	-0.019
-346.435	11.356	0.252	-0.190
-345.420	180.577	0.075	0.108
-344.406	193.053	-0.074	0.110
-343.391	-200.000	-0.016	-0.107
-342.377	326.739	0.061	-0.115
-341.362	-113.460	0.218	0.042
-340.348	254.458	0.091	-0.153
-339.333	800.000	-0.074	-0.225
-338.318	-106.107	-0.297	0.065
-337.304	-29.591	0.159	-0.089
-336.289	-84.264	0.069	-0.022
-335.275	-125.779	0.252	0.037
-334.260	448.702	0.194	0.420
-333.245	-200.000	0.014	-0.182
-332.231	-200.000	-0.054	0.336
-331.216	43.786	0.018	-0.016
-330.202	124.091	0.049	-0.061
-329.187	149.753	-0.021	-0.028
-328.172	-104.280	-0.094	-0.021
-327.158	379.609	0.309	0.622
-326.143	-200.000	0.000	-0.077
-325.129	-200.000	-0.002	-0.042
-324.114	98.017	-0.204	-0.230
-323.099	4.828	-0.112	-0.081
-322.085	62.841	-0.164	0.161
-321.070	-78.403	0.169	-0.057
-320.056	379.886	0.011	0.023
-319.041	-200.000	0.070	-0.328
-318.026	-68.844	-0.123	-0.047
-317.012	-152.378	0.125	-0.009
-315.997	-31.223	-0.297	0.164
-314.983	-65.095	-0.099	0.039
-313.968	-10.317	0.483	0.315
-312.953	-59.475	0.468	0.198
-311.939	-78.207	-0.291	-0.098
-310.924	-200.000	0.015	-0.412
-309.910	-64.106	-0.203	-0.081
-308.895	-200.000	0.035	-0.245
-307.880	-117.852	0.058	-0.010
-306.866	-183.987	-0.328	-0.005
-305.851	-25.621	-0.226	-0.131
-304.837	-53.487	-0.335	-0.150
-303.822	369.620	0.035	0.070
-302.807	2.580	-0.078	0.055
-301.793	-70.122	0.329	0.123
-300.778	-200.000	-0.025	0.222
-299.764	29.114	-0.192	-0.160
-298.749	800.000	0.090	0.264
-297.735	800.000	0.188	0.536
-296.720	-200.000	0.000	0.180
-295.705	-74.805	-0.081	-0.029
-294.691	-200.000	0.002	0.041
-293.676	-70.759	0.112	0.042
-292.662	-83.819	0.083	0.026
-291.647	231.942	0.243	0.391
-290.632	-200.000	0.015	0.459
-289.618	-79.629	-0.512	0.169
-288.603	-148.317	0.169	0.014
-287.589	168.361	-0.127	0.177
-286.574	-200.000	0.014	0.249
-285.559	234.364	-0.108	-0.174
-284.545	-1.192	0.461	0.319
-283.530	283.592	-0.139	0.246
-282.516	106.934	0.072	0.084
-281.501	-20.334	0.052	-0.032
-280.486	102.292	-0.070	0.081
-279.472	-24.558	0.410	0.239
-278.457	-17.912	-0.132	0.081
-277.443	-78.753	0.244	-0.082
-276.428	150.744	0.079	0.105
-275.413	800.000	0.045	-0.145
-274.399	-200.000	0.006	-0.051
-273.384	170.189	0.172	0.242
-272.370	-113.152	0.144	-0.028
-271.355	-61.970	0.042	0.017
-270.340	96.268	0.168	-0.188
-269.326	180.806	0.115	-0.166
-268.311	103.949	-0.174	0.201
-267.297	-140.220	0.133	0.014
-266.282	-1.365	-0.034	0.023
-265.267	-37.550	0.187	0.098
-264.253	800.000	-0.009	0.037
-263.238	-34.166	0.319	-0.172
-262.224	589.348	-0.042	-0.101
-261.209	-17.373	0.112	0.069
-260.195	234.576	0.039	-0.062
-259.180	-91.337	-0.456	-0.128
-258.165	378.608	0.067	-0.134
-257.151	-124.428	0.398	0.061
-256.136	46.163	0.154	-0.140
-255.122	420.782	0.051	0.106
-254.107	-182.165	0.506	0.009
-253.092	-113.402	0.338	0.065
-252.078	800.000	0.064	-0.191
-251.063	800.000	0.094	-0.291
-250.049	-120.432	-0.062	-0.010
-249.034	-44.133	0.169	0.083
-248.019	-200.000	0.002	-0.170
-247.005	-200.000	-0.030	0.241
-245.990	-34.815	-0.337	0.180
-244.976	-9.549	0.300	0.196
-243.961	8.531	-0.070	0.052
-242.946	800.000	0.128	-0.532
-241.932	-200.000	0.023	0.255
-240.917	800.000	0.089	0.300
-239.903	-128.034	0.208	0.029
-238.888	-56.856	0.209	0.091
-237.873	-12.358	0.308	0.197
-236.859	-55.383	-0.127	0.056
-235.844	-73.118	0.173	0.062
-234.830	48.788	0.214	0.197
-233.815	-19.568	-0.081	-0.049
-232.800	-200.000	-0.006	-0.118
-231.786	-41.653	0.243	-0.122
-230.771	-200.000	-0.016	-0.143
-229.757	-16.357	-0.062	-0.038
-228.742	-200.000	0.002	0.117
-227.727	-200.000	0.021	0.187
-226.713	-200.000	-0.014	-0.117
-225.698	-200.000	0.025	-0.351
-224.684	51.503	-0.108	-0.100
-223.669	-29.827	-0.216	0.120
-222.655	-182.041	0.330	-0.006
-221.640	56.132	-0.153	0.146
-220.625	41.125	0.080	-0.071
-219.611	-14.080	0.296	-0.187
-218.596	206.666	-0.059	-0.090
-217.582	58.054	0.124	0.118
-216.567	43.370	0.150	0.134
-215.552	423.004	-0.075	-0.159
-214.538	253.168	0.017	0.029
-213.523	-69.725	0.105	-0.039
-212.509	-97.957	0.632	0.159
-211.494	-200.000	-0.029	-0.303
-210.479	-86.113	-0.298	-0.090
-209.465	-200.000	0.011	0.049
-208.450	800.000	0.133	-0.386
-207.436	230.149	-0.164	0.263
-206.421	-80.443	0.174	-0.057
-205.406	-145.679	0.131	-0.011
-204.392	-200.000	0.042	0.235
-203.377	318.429	0.068	-0.126
-202.363	189.990	-0.233	-0.342
-201.348	297.302	-0.121	-0.218
-200.333	800.000	-0.134	-0.361
-199.319	800.000	0.211	0.572
-198.304	156.432	-0.280	0.377
-197.290	42.263	-0.212	0.188
-196.275	-147.134	-0.399	-0.033
-195.260	-148.096	0.188	0.015
-194.246	15.408	0.085	-0.065
-193.231	-90.475	-0.246	0.070
-192.217	34.235	0.183	-0.156
-191.202	-134.899	-0.103	0.012
-190.187	86.571	-0.084	0.090
-189.173	-45.836	-0.175	0.084
-188.158	-83.592	0.059	0.019
-187.144	-129.093	0.294	-0.040
-186.129	-146.967	-0.285	-0.024
-185.114	-135.308	0.145	-0.017
-184.100	-133.228	-0.319	0.039
-183.085	-43.212	0.072	0.036
-182.071	388.441	0.082	0.165
-181.056	-50.193	-0.257	-0.119
-180.042	23.445	0.077	-0.062
-179.027	-93.433	0.299	-0.081
-178.012	-130.873	-0.241	0.031
-176.998	-200.000	-0.002	0.038
-175.983	800.000	0.078	-0.270
-174.969	800.000	-0.020	0.066
-173.954	79.230	0.064	0.067
-172.939	177.451	-0.181	0.258
-171.925	-36.961	-0.237	0.124
-170.910	-200.000	0.059	-0.272
-169.896	800.000	0.080	0.290
-168.881	411.187	-0.045	0.093
-167.866	-200.000	0.054	0.353
-166.852	10.341	-0.182	-0.135
-165.837	467.050	-0.046	0.100
-164.823	800.000	-0.042	0.162
-163.808	54.635	-0.086	-0.081
-162.793	-200.000	0.059	-0.261
-161.779	103.261	-0.113	0.129
-160.764	459.495	0.118	0.255
-159.750	-79.097	-0.226	0.075
-158.735	188.495	0.122	0.178
-157.720	-200.000	-0.006	-0.158
-156.706	-16.138	0.149	0.093
-155.691	128.971	-0.081	0.100
-154.677	-38.684	-0.122	0.063
-153.662	118.834	0.113	-0.137
-152.647	123.293	-0.187	0.228
-151.633	-200.000	-0.002	-0.028
-150.618	-200.000	0.002	-0.099
-149.604	115.164	-0.043	-0.051
-148.589	23.747	0.235	-0.189
-147.574	73.359	-0.264	-0.270
-146.560	692.106	0.122	0.312
-145.545	-200.000	-0.061	-0.291
-144.531	-200.000	0.044	-0.223
-143.516	-156.277	-0.240	-0.015
-142.502	681.831	0.150	0.382
-141.487	-65.564	0.089	-0.035
-140.472	-148.327	0.059	0.005
-139.458	-68.060	0.150	0.057
-138.443	-176.704	0.330	-0.008
-137.429	800.000	0.053	-0.152
-136.414	-142.413	-0.201	0.019
-135.399	16.387	0.145	-0.112
-134.385	-86.886	0.157	-0.047
-133.370	-16.225	0.092	-0.057
-132.356	-44.866	0.031	-0.015
-131.341	-200.000	-0.034	-0.162
-130.326	-200.000	0.032	-0.195
-129.312	-4.677	0.210	0.141
-128.297	-200.000	0.004	-0.297
-127.283	-159.608	0.102	-0.006
-126.268	-91.126	0.114	-0.032
-125.253	800.000	0.019	0.058
-124.239	800.000	0.086	-0.341
-123.224	-105.585	0.474	0.105
-122.210	-200.000	-0.031	0.362
