DTS Sentinel unit serial number:	SN413079Multiplexer serial number:	ORYXHardware model number:	OX4-SRSoftware version number:	ORYX F/W v4.00 Oryx Data Collector v3.7.2.0data status	okinstallation	princeton_trtdifferential loss correction	single-endedforward channel	channel 2reverse channel	N/Adate	2019/09/13time	23:59:34forward acquisition time	60.00reverse acquisition time	0.00gamma	496.2192k internal	0.2338k external	0.2338temperature offset calibration	1.0127default loss term (dB/km)	0.3790temperature slope calibration	1.0000multiplexer offset coefficient	1.0000multiplexer slope coefficient	1.0000fibre end	0.00T internal ref (°C)	26.55T ext. ref 1 (°C)	3.16T ext. ref 2 (°C)	21.36length (m)	temperature (°C)	Stokes	anti-Stokes-747.200	544.135	0.131	-0.314
-746.185	639.765	-0.113	0.287
-745.171	119.783	0.286	0.355
-744.156	31.489	0.074	0.064
-743.142	155.046	0.126	-0.174
-742.127	19.737	-0.245	0.198
-741.112	112.832	-0.043	0.052
-740.098	-157.883	0.121	-0.007
-739.083	595.064	0.100	-0.248
-738.069	-200.000	0.018	0.309
-737.054	800.000	0.015	0.047
-736.039	-153.388	-0.435	-0.030
-735.025	800.000	-0.043	0.131
-734.010	-41.146	-0.128	-0.066
-732.996	95.366	-0.256	-0.292
-731.981	-172.754	-0.116	-0.004
-730.966	-65.662	0.079	-0.032
-729.952	284.137	-0.101	0.182
-728.937	-130.086	-0.184	0.025
-727.923	633.685	0.142	0.361
-726.908	196.606	-0.135	-0.207
-725.894	-200.000	0.023	-0.117
-724.879	800.000	0.106	0.304
-723.864	9.853	-0.235	0.178
-722.850	-200.000	-0.037	0.200
-721.835	-56.527	-0.434	-0.193
-720.821	-29.877	-0.153	-0.088
-719.806	69.482	0.137	-0.141
-718.791	45.847	-0.194	0.180
-717.777	-200.000	0.059	-0.431
-716.762	-200.000	0.016	0.280
-715.748	-20.765	0.220	0.135
-714.733	475.250	0.083	0.187
-713.718	-200.000	0.000	-0.096
-712.704	648.464	-0.094	-0.241
-711.689	222.615	-0.065	0.104
-710.675	-200.000	0.002	0.014
-709.660	169.366	-0.087	0.125
-708.645	800.000	-0.020	-0.057
-707.631	800.000	0.028	0.096
-706.616	153.771	-0.247	-0.338
-705.602	4.094	-0.319	0.233
-704.587	-200.000	0.035	-0.287
-703.572	342.467	-0.086	-0.169
-702.558	-200.000	-0.056	-0.449
-701.543	362.816	0.081	0.162
-700.529	800.000	-0.100	0.280
-699.514	-120.058	-0.365	0.063
-698.499	-46.870	-0.027	-0.013
-697.485	-200.000	-0.007	0.253
-696.470	-157.133	-0.196	-0.012
-695.456	34.874	0.385	-0.337
-694.441	501.415	0.017	0.039
-693.426	25.082	-0.040	-0.033
-692.412	-163.457	-0.267	0.013
-691.397	-200.000	-0.008	0.042
-690.383	-200.000	-0.003	-0.128
-689.368	-55.736	-0.254	0.114
-688.354	-200.000	0.004	0.088
-687.339	252.641	-0.269	-0.459
-686.324	-53.433	-0.092	-0.042
-685.310	-200.000	-0.050	-0.267
-684.295	125.338	-0.232	-0.292
-683.281	-143.819	-0.136	-0.013
-682.266	-70.084	-0.115	-0.044
-681.251	36.214	0.244	0.216
-680.237	-100.040	0.289	0.072
-679.222	5.538	-0.096	-0.071
-678.208	-200.000	0.041	-0.371
-677.193	157.363	-0.148	-0.204
-676.178	84.324	-0.046	-0.050
-675.164	605.572	0.104	-0.258
-674.149	-133.057	-0.077	-0.010
-673.135	-84.864	-0.301	-0.095
-672.120	1.749	0.114	0.082
-671.105	-28.722	-0.162	0.093
-670.091	295.018	-0.124	-0.226
-669.076	21.537	0.135	-0.110
-668.062	148.288	-0.270	-0.364
-667.047	-67.111	0.354	-0.140
-666.032	550.652	0.077	0.186
-665.018	-146.874	-0.168	0.014
-664.003	-75.321	-0.166	0.059
-662.989	-133.678	-0.175	-0.022
-661.974	132.745	0.073	0.094
-660.959	-94.916	-0.257	-0.069
-659.945	-144.701	0.276	-0.025
-658.930	-58.436	0.176	-0.077
-657.916	270.877	0.115	0.202
-656.901	394.100	-0.048	-0.100
-655.886	-200.000	0.043	-0.213
-654.872	237.419	-0.153	0.254
-653.857	-158.962	-0.262	-0.015
-652.843	3.476	-0.339	-0.247
-651.828	-27.927	0.125	-0.072
-650.814	-8.497	0.201	-0.135
-649.799	-31.919	-0.240	0.134
-648.784	18.938	-0.132	-0.106
-647.770	91.084	-0.046	-0.052
-646.755	175.362	0.077	-0.111
-645.741	578.594	-0.078	-0.191
-644.726	37.063	0.169	0.150
-643.711	-200.000	-0.003	-0.405
-642.697	-147.757	-0.083	-0.007
-641.682	-200.000	0.003	-0.174
-640.668	111.600	0.108	0.130
-639.653	800.000	-0.143	-0.399
-638.638	-147.910	-0.270	0.022
-637.624	222.415	0.165	-0.265
-636.609	-139.958	-0.327	-0.034
-635.595	-124.766	0.139	0.021
-634.580	800.000	-0.045	-0.189
-633.565	-18.174	0.277	0.173
-632.551	-200.000	-0.071	-0.346
-631.536	-200.000	-0.025	-0.401
-630.522	325.107	0.028	0.053
-629.507	33.602	-0.084	0.073
-628.492	800.000	-0.032	-0.110
-627.478	-72.922	-0.342	-0.126
-626.463	-73.844	0.114	0.041
-625.449	-35.604	0.293	-0.159
-624.434	335.452	0.044	0.085
-623.419	-200.000	-0.031	0.164
-622.405	-67.680	0.162	-0.063
-621.390	-39.400	0.184	0.096
-620.376	-67.668	0.090	0.035
-619.361	-200.000	-0.006	-0.093
-618.346	-200.000	-0.002	-0.189
-617.332	-200.000	0.019	-0.088
-616.317	-200.000	0.025	0.132
-615.303	-200.000	0.049	0.248
-614.288	657.406	-0.100	0.257
-613.273	262.496	0.037	-0.064
-612.259	33.542	-0.176	-0.152
-611.244	800.000	-0.020	-0.062
-610.230	-200.000	0.059	0.280
-609.215	-36.949	0.269	-0.144
-608.201	2.393	0.131	-0.094
-607.186	-30.668	-0.200	-0.113
-606.171	-12.073	-0.191	0.125
-605.157	730.411	0.111	-0.295
-604.142	-98.472	-0.357	-0.091
-603.128	-200.000	-0.033	0.234
-602.113	-20.343	0.335	-0.206
-601.098	-40.627	0.152	0.079
-600.084	474.093	0.070	-0.157
-599.069	25.366	-0.055	-0.045
-598.055	-200.000	0.015	-0.169
-597.040	-21.140	0.163	0.099
-596.025	-143.276	0.088	-0.008
-595.011	214.570	0.138	0.217
-593.996	-62.392	0.139	-0.057
-592.982	257.005	-0.099	-0.170
-591.967	746.759	0.040	-0.106
-590.952	-5.525	-0.169	-0.116
-589.938	-79.470	-0.052	-0.017
-588.923	-172.675	0.136	0.004
-587.909	-69.523	0.459	0.175
-586.894	181.461	0.099	0.145
-585.879	159.359	-0.256	-0.355
-584.865	731.984	0.013	-0.035
-583.850	-87.060	0.201	0.061
-582.836	-55.824	-0.357	0.159
-581.821	-64.544	-0.564	0.228
-580.806	48.159	-0.315	0.294
-579.792	-4.895	-0.140	0.096
-578.777	800.000	0.066	0.250
-577.763	-15.829	-0.018	0.011
-576.748	-50.442	0.402	-0.189
-575.733	-200.000	-0.036	-0.227
-574.719	800.000	-0.025	0.084
-573.704	-124.084	0.314	-0.049
-572.690	633.550	-0.131	0.332
-571.675	106.006	0.118	-0.139
-570.661	-18.368	-0.092	0.057
-569.646	-23.525	-0.200	0.120
-568.631	216.060	0.049	-0.077
-567.617	21.801	0.244	-0.198
-566.602	800.000	-0.096	0.304
-565.588	181.049	-0.127	-0.186
-564.573	743.977	0.044	-0.119
-563.558	800.000	0.069	-0.242
-562.544	-77.209	0.308	-0.107
-561.529	-158.931	-0.167	-0.009
-560.515	258.434	-0.049	0.084
-559.500	-34.369	0.108	0.059
-558.485	-24.428	-0.316	0.188
-557.471	-200.000	0.022	0.276
-556.456	51.496	0.055	0.052
-555.442	14.876	-0.329	0.256
-554.427	-7.609	0.056	-0.038
-553.412	39.887	-0.244	-0.218
-552.398	20.089	-0.221	0.178
-551.383	-93.426	0.244	0.067
-550.369	-200.000	0.039	-0.253
-549.354	-15.222	-0.019	0.012
-548.339	-200.000	-0.034	0.486
-547.325	33.029	-0.231	-0.200
-546.310	-200.000	0.003	-0.170
-545.296	49.412	0.128	0.120
-544.281	694.339	-0.022	-0.057
-543.266	229.571	-0.056	-0.091
-542.252	800.000	-0.093	0.318
-541.237	212.020	-0.218	0.342
-540.223	-94.793	-0.156	-0.042
-539.208	800.000	0.108	0.370
-538.193	11.300	-0.203	0.155
-537.179	21.630	-0.102	-0.083
-536.164	-108.373	-0.079	0.017
-535.150	-179.984	0.248	0.005
-534.135	202.013	0.064	-0.098
-533.121	186.093	0.221	-0.328
-532.106	151.385	-0.047	-0.064
-531.091	-84.768	-0.329	0.103
-530.077	8.330	0.063	-0.047
-529.062	253.587	0.070	0.120
-528.048	-6.799	-0.102	0.069
-527.033	35.050	0.186	0.162
-526.018	-111.235	-0.149	-0.030
-525.004	-148.312	0.099	-0.008
-523.989	388.419	0.087	0.179
-522.975	-194.171	-0.339	-0.003
-521.960	-200.000	-0.033	-0.159
-520.945	800.000	0.096	0.288
-519.931	-200.000	-0.037	-0.212
-518.916	-46.244	0.274	-0.134
-517.902	-121.142	0.141	-0.023
-516.887	13.735	0.255	-0.197
-515.872	-200.000	-0.019	0.130
-514.858	-83.074	0.394	0.126
-513.843	334.065	0.047	-0.090
-512.829	0.381	-0.023	0.017
-511.814	563.002	0.096	-0.232
-510.799	42.703	-0.223	-0.202
-509.785	-200.000	0.008	-0.113
-508.770	228.122	0.103	0.167
-507.756	800.000	-0.052	-0.165
-506.741	42.382	0.273	-0.247
-505.726	-30.562	0.258	-0.145
-504.712	41.646	-0.215	-0.193
-503.697	-119.090	0.136	0.024
-502.683	187.360	0.074	0.110
-501.668	208.885	0.184	0.286
-500.653	-66.718	-0.426	0.167
-499.639	-156.972	-0.210	-0.013
-498.624	-85.720	0.156	0.048
-497.610	81.873	-0.290	-0.312
-496.595	-114.766	0.215	-0.041
-495.581	-200.000	-0.009	0.177
-494.566	-200.000	0.025	0.269
-493.551	96.261	-0.105	0.119
-492.537	-42.587	0.076	-0.038
-491.522	28.016	-0.383	0.321
-490.508	285.777	0.104	0.186
-489.493	-29.661	-0.164	-0.093
-488.478	23.615	0.078	-0.064
-487.464	-46.707	0.209	0.102
-486.449	-76.311	-0.177	-0.062
-485.435	613.871	-0.050	0.123
-484.420	-18.115	-0.315	0.196
-483.405	-200.000	-0.046	-0.254
-482.391	-25.173	-0.201	-0.118
-481.376	-200.000	0.000	-0.195
-480.362	-8.436	0.202	-0.135
-479.347	205.071	-0.223	-0.343
-478.332	-89.958	-0.439	-0.127
-477.318	-51.982	0.114	0.053
-476.303	800.000	-0.075	-0.260
-475.289	-200.000	-0.022	-0.120
-474.274	-46.785	0.132	0.064
-473.259	738.183	0.080	0.212
-472.245	114.948	0.221	-0.268
-471.230	-99.539	-0.286	0.071
-470.216	176.601	0.044	-0.064
-469.201	800.000	0.044	0.167
-468.186	-200.000	-0.007	-0.058
-467.172	-58.440	-0.347	0.150
-466.157	800.000	0.024	-0.101
-465.143	800.000	-0.054	-0.190
-464.128	-144.466	0.174	-0.016
-463.113	-12.943	0.123	0.080
-462.099	-128.051	0.343	-0.049
-461.084	196.370	0.064	0.097
-460.070	-200.000	-0.018	-0.092
-459.055	191.134	-0.154	-0.229
-458.040	17.093	-0.142	0.112
-457.026	127.907	-0.177	-0.223
-456.011	-147.083	-0.246	-0.021
-454.997	348.696	0.064	0.125
-453.982	302.641	-0.056	-0.103
-452.968	-80.651	0.010	-0.003
-451.953	169.823	0.149	-0.211
-450.938	-13.933	-0.219	0.140
-449.924	67.269	0.121	-0.123
-448.909	-154.510	-0.223	0.015
-447.895	94.415	-0.074	-0.083
-446.880	-3.543	-0.202	0.139
-445.865	39.395	-0.210	0.187
-444.851	27.039	0.057	-0.047
-443.836	-200.000	0.004	-0.085
-442.822	-58.308	0.256	0.111
-441.807	-164.782	0.444	0.020
-440.792	-41.243	0.152	-0.077
-439.778	99.303	0.027	-0.031
-438.763	208.788	0.199	0.308
-437.749	-16.608	-0.296	0.186
-436.734	177.886	0.213	-0.308
-435.719	-163.870	-0.325	0.015
-434.705	-48.452	-0.326	0.155
-433.690	-59.125	-0.449	0.192
-432.676	-73.188	0.409	0.149
-431.661	19.848	-0.104	-0.083
-430.646	378.199	-0.107	-0.217
-429.632	-49.283	0.342	0.162
-428.617	800.000	0.059	-0.191
-427.603	800.000	-0.029	-0.101
-426.588	36.927	0.309	-0.270
-425.573	-61.226	-0.105	-0.044
-424.559	0.102	-0.072	0.051
-423.544	-200.000	-0.003	-0.060
-422.530	51.578	0.245	-0.231
-421.515	-45.112	-0.178	-0.088
-420.500	-37.672	0.302	-0.160
-419.486	173.578	0.056	-0.080
-418.471	-37.303	-0.142	-0.075
-417.457	-98.017	0.045	-0.011
-416.442	198.530	-0.105	0.159
-415.428	-200.000	0.023	0.152
-414.413	262.017	-0.110	0.189
-413.398	-200.000	0.022	-0.240
-412.384	271.476	-0.081	-0.141
-411.369	174.159	-0.290	0.415
-410.355	241.869	0.161	0.266
-409.340	-59.993	0.232	0.098
-408.325	791.873	0.075	0.204
-407.311	94.290	-0.070	-0.079
-406.296	-200.000	-0.052	-0.413
-405.282	-131.561	0.220	0.029
-404.267	21.230	-0.113	-0.091
-403.252	-71.085	0.122	-0.045
-402.238	-200.000	0.010	-0.098
-401.223	800.000	-0.041	0.162
-400.209	-23.706	-0.318	0.189
-399.194	231.793	-0.041	-0.066
-398.179	38.833	-0.308	-0.272
-397.165	-81.255	0.382	-0.125
-396.150	149.837	0.209	0.281
-395.136	43.571	0.087	-0.079
-394.121	19.418	-0.195	0.155
-393.106	-67.729	-0.153	0.059
-392.092	-56.384	0.065	-0.029
-391.077	-46.495	-0.263	0.128
-390.063	-0.508	0.059	-0.041
-389.048	-174.865	0.274	0.008
-388.033	60.094	-0.038	0.037
-387.019	-41.099	-0.234	-0.120
-386.004	-48.712	0.108	0.051
-384.990	-79.037	0.150	0.050
-383.975	-200.000	0.026	0.173
-382.960	-145.287	-0.279	0.025
-381.946	286.221	-0.051	-0.092
-380.931	635.775	-0.093	0.232
-379.917	-200.000	-0.030	-0.169
-378.902	-169.769	-0.230	0.008
-377.888	-109.596	-0.309	0.064
-376.873	-87.853	0.289	0.086
-375.858	427.713	0.042	0.090
-374.844	-140.969	-0.160	0.016
-373.829	-35.409	-0.300	-0.161
-372.815	-177.920	0.059	0.001
-371.800	68.220	0.377	0.382
-370.785	493.940	0.161	0.366
-369.771	-200.000	-0.089	0.394
-368.756	391.011	0.084	-0.171
-367.742	86.328	0.183	0.199
-366.727	676.555	-0.157	0.402
-365.712	-122.615	-0.143	-0.023
-364.698	180.021	0.177	0.256
-363.683	-2.279	-0.270	0.187
-362.669	-30.462	-0.130	0.073
-361.654	-23.491	-0.265	0.157
-360.639	50.247	0.075	0.070
-359.625	-123.580	0.103	0.016
-358.610	117.883	-0.121	-0.148
-357.596	-46.866	0.222	0.107
-356.581	-16.838	-0.088	0.055
-355.566	-54.583	0.240	0.107
-354.552	-99.970	0.162	-0.040
-353.537	-200.000	-0.016	-0.211
-352.523	-49.084	-0.184	-0.087
-351.508	211.620	0.099	-0.154
-350.493	-88.118	0.104	-0.031
-349.479	37.714	-0.148	0.130
-348.464	800.000	-0.029	-0.118
-347.450	-67.854	0.122	-0.047
-346.435	431.685	0.138	0.296
-345.420	-200.000	0.024	0.339
-344.406	282.318	0.147	0.261
-343.391	328.662	0.194	-0.367
-342.377	435.747	0.105	-0.225
-341.362	582.513	-0.040	-0.096
-340.348	-171.300	0.261	0.009
-339.333	-143.293	-0.123	-0.012
-338.318	-200.000	-0.019	0.179
-337.304	-200.000	-0.029	0.185
-336.289	234.405	0.211	-0.343
-335.275	-81.004	-0.237	0.077
-334.260	181.326	0.076	-0.110
-333.245	722.986	0.027	-0.072
-332.231	800.000	-0.146	0.412
-331.216	-77.846	0.355	-0.121
-330.202	87.978	-0.013	0.015
-329.187	165.437	0.142	-0.199
-328.172	58.465	0.031	-0.030
-327.158	119.481	-0.133	0.163
-326.143	-200.000	0.046	-0.429
-325.129	116.239	0.151	-0.182
-324.114	21.472	-0.053	-0.042
-323.099	110.688	0.174	0.207
-322.085	194.492	-0.030	-0.045
-321.070	24.064	0.269	-0.219
-320.056	800.000	0.062	0.217
-319.041	-200.000	0.025	0.263
-318.026	207.782	-0.252	-0.389
-317.012	-113.037	0.135	0.026
-315.997	-56.229	-0.295	0.129
-314.983	-200.000	0.060	0.498
-313.968	-21.324	0.090	-0.054
-312.953	5.294	0.147	-0.107
-311.939	455.318	0.091	0.200
-310.924	-172.047	-0.217	0.007
-309.910	168.323	-0.181	0.254
-308.895	-153.368	0.463	-0.032
-307.880	194.788	0.113	-0.169
-306.866	36.616	-0.276	0.241
-305.851	411.485	-0.068	-0.142
-304.837	-117.673	-0.310	-0.055
-303.822	-155.752	-0.086	0.005
-302.807	30.181	-0.123	0.104
-301.793	-47.197	-0.163	-0.078
-300.778	-129.209	0.438	-0.060
-299.764	800.000	0.041	-0.163
-298.749	-142.562	0.459	-0.044
-297.735	672.121	-0.044	0.114
-296.720	465.062	-0.096	0.211
-295.705	-120.827	0.204	0.034
-294.691	-131.237	-0.319	0.042
-293.676	-84.342	0.175	0.055
-292.662	29.096	-0.328	-0.274
-291.647	-200.000	-0.043	-0.344
-290.632	-200.000	-0.014	0.296
-289.618	638.398	0.081	0.202
-288.603	-14.325	-0.140	-0.089
-287.589	-81.196	0.203	0.066
-286.574	-200.000	-0.031	-0.441
-285.559	79.043	-0.093	-0.098
-284.545	7.116	0.250	-0.184
-283.530	-200.000	0.021	0.145
-282.516	800.000	0.069	0.191
-281.501	108.817	-0.091	0.107
-280.486	800.000	0.021	0.069
-279.472	-105.313	0.061	-0.014
-278.457	385.990	0.125	-0.254
-277.443	-94.086	-0.238	0.064
-276.428	-106.262	0.448	-0.099
-275.413	-200.000	-0.013	0.165
-274.399	-200.000	-0.028	-0.319
-273.384	800.000	0.006	-0.017
-272.370	-200.000	-0.011	-0.157
-271.355	-15.981	-0.049	-0.031
-270.340	381.824	-0.023	-0.046
-269.326	182.302	-0.132	-0.192
-268.311	-200.000	-0.051	-0.256
-267.297	-115.688	-0.071	-0.013
-266.282	132.188	0.234	0.297
-265.267	179.338	-0.071	0.103
-264.253	-62.947	0.093	-0.038
-263.238	-8.713	-0.086	0.057
-262.224	-200.000	-0.008	-0.082
-261.209	-79.636	-0.339	0.113
-260.195	196.699	0.136	0.204
-259.180	226.812	0.048	0.076
-258.165	-154.994	0.212	0.014
-257.151	230.043	-0.137	-0.221
-256.136	-128.949	0.219	0.030
-255.122	12.411	0.149	-0.113
-254.107	-143.957	0.260	-0.024
-253.092	27.513	-0.172	0.142
-252.078	-162.446	-0.436	-0.021
-251.063	130.362	0.135	-0.170
-250.049	-200.000	0.022	0.146
-249.034	-98.812	-0.174	-0.044
-248.019	52.488	-0.021	0.020
-247.005	800.000	-0.076	-0.311
-245.990	-200.000	-0.059	0.302
-244.976	18.244	-0.100	-0.078
-243.961	-48.676	-0.227	-0.107
-242.946	-174.576	0.178	-0.005
-241.932	-77.541	0.386	-0.132
-240.917	800.000	0.105	-0.426
-239.903	189.446	-0.113	0.166
-238.888	-107.858	0.421	-0.090
-237.873	800.000	-0.035	0.106
-236.859	24.449	0.163	0.132
-235.844	36.438	-0.101	-0.088
-234.830	-135.645	-0.107	-0.013
-233.815	-126.421	-0.109	0.016
-232.800	-33.600	-0.132	-0.072
-231.786	-67.640	-0.370	-0.143
-230.771	-200.000	0.037	-0.423
-229.757	54.817	-0.090	-0.086
-228.742	55.700	0.244	0.232
-227.727	-137.403	0.207	-0.023
-226.713	-67.542	-0.216	0.083
-225.698	-200.000	0.019	0.139
-224.684	-76.039	0.107	-0.037
-223.669	-71.287	0.303	0.112
-222.655	-97.233	-0.167	-0.043
-221.640	-200.000	0.011	0.060
-220.625	551.690	-0.141	0.333
-219.611	-200.000	0.004	0.468
-218.596	-100.771	-0.170	0.041
-217.582	-200.000	-0.086	-0.379
-216.567	-46.529	0.551	-0.266
-215.552	-136.863	0.300	-0.034
-214.538	-200.000	-0.030	0.512
-213.523	-72.872	-0.677	0.245
-212.509	74.323	-0.264	0.272
-211.494	20.537	-0.220	-0.175
-210.479	-82.008	0.381	0.122
-209.465	-63.167	-0.130	-0.053
-208.450	-4.609	-0.068	-0.046
-207.436	138.021	0.140	0.181
-206.421	210.475	0.059	-0.090
-205.406	136.029	0.152	-0.194
-204.392	-15.597	0.144	-0.091
-203.377	-200.000	0.017	-0.105
-202.363	237.110	0.191	0.311
-201.348	-137.029	0.041	-0.005
-200.333	81.842	-0.060	-0.064
-199.319	339.783	0.083	0.159
-198.304	-200.000	0.012	-0.077
-197.290	-113.452	-0.086	-0.017
-196.275	-200.000	-0.047	-0.232
-195.260	-36.537	0.146	-0.077
-194.246	-61.626	-0.235	0.097
-193.231	-10.083	0.205	0.134
-192.217	75.111	0.189	-0.196
-191.202	672.810	0.054	-0.138
-190.187	21.751	-0.045	0.036
-189.173	-200.000	0.065	0.450
-188.158	-144.584	-0.544	-0.049
-187.144	143.755	0.074	0.096
-186.129	-118.452	-0.391	-0.068
-185.114	204.615	0.076	-0.115
-184.100	-200.000	0.005	0.139
-183.085	6.633	-0.217	0.158
-182.071	-111.314	0.137	0.027
-181.056	-67.479	-0.081	-0.031
-180.042	15.371	0.155	0.120
-179.027	103.882	-0.092	0.106
-178.012	-31.114	0.070	0.039
-176.998	110.468	-0.103	-0.122
-175.983	101.457	0.106	0.121
-174.969	58.142	0.051	-0.049
-173.954	800.000	0.123	0.415
-172.939	86.932	-0.151	0.164
-171.925	-105.813	-0.081	-0.018
-170.910	-0.216	-0.072	-0.050
-169.896	-200.000	0.040	0.394
-168.881	121.008	0.251	-0.307
-167.866	800.000	0.109	-0.343
-166.852	298.705	-0.190	-0.343
-165.837	311.436	-0.065	-0.119
-164.823	-159.087	0.392	0.022
-163.808	24.161	-0.065	0.053
-162.793	-127.999	-0.205	-0.029
-161.779	142.030	0.048	-0.062
-160.764	-159.313	-0.318	0.017
-159.750	237.483	0.207	-0.337
-158.735	800.000	0.082	-0.344
-157.720	-42.750	0.312	-0.155
-156.706	-145.512	0.230	0.020
-155.691	59.507	0.150	0.145
-154.677	378.454	0.077	-0.154
-153.662	554.381	-0.089	0.209
-152.647	-142.692	-0.206	-0.020
-151.633	800.000	-0.078	0.320
-150.618	785.336	0.064	0.171
-149.604	-24.910	-0.109	-0.063
-148.589	-127.995	-0.241	0.034
-147.574	191.062	-0.104	-0.153
-146.560	-105.114	0.097	0.022
-145.545	-200.000	-0.037	-0.179
-144.531	-200.000	0.011	-0.105
-143.516	-200.000	-0.011	-0.243
-142.502	301.183	0.067	0.121
-141.487	-126.878	0.252	-0.036
-140.472	-26.192	-0.148	-0.085
-139.458	-91.939	-0.204	-0.057
-138.443	731.730	0.126	0.331
-137.429	-200.000	-0.045	0.291
-136.414	800.000	-0.099	-0.290
-135.399	-183.164	-0.125	-0.002
-134.385	165.873	-0.201	0.278
-133.370	367.776	-0.059	0.117
-132.356	-200.000	-0.029	0.270
-131.341	800.000	-0.075	-0.254
-130.326	21.567	0.201	0.161
-129.312	-24.867	0.044	0.026
-128.297	51.685	-0.158	-0.147
-127.283	800.000	0.047	-0.154
-126.268	122.145	0.097	-0.119
-125.253	800.000	0.052	0.190
-124.239	800.000	0.073	0.303
-123.224	-200.000	-0.002	-0.055
-122.210	-43.477	-0.200	-0.099
