DTS Sentinel unit serial number:	SN413079Multiplexer serial number:	ORYXHardware model number:	OX4-SRSoftware version number:	ORYX F/W v4.00 Oryx Data Collector v3.7.2.0data status	okinstallation	princeton_trtdifferential loss correction	single-endedforward channel	channel 2reverse channel	N/Adate	2019/09/16time	04:39:35forward acquisition time	60.00reverse acquisition time	0.00gamma	496.2192k internal	0.2335k external	0.2335temperature offset calibration	0.9974default loss term (dB/km)	0.3790temperature slope calibration	1.0000multiplexer offset coefficient	1.0000multiplexer slope coefficient	1.0000fibre end	0.00T internal ref (°C)	27.20T ext. ref 1 (°C)	10.90T ext. ref 2 (°C)	21.48length (m)	temperature (°C)	Stokes	anti-Stokes-747.200	-82.459	-0.305	-0.100
-746.185	-200.000	0.012	0.309
-745.171	723.787	-0.030	-0.081
-744.156	423.114	-0.105	0.226
-743.142	71.323	-0.141	-0.147
-742.127	37.112	0.212	0.188
-741.112	145.497	-0.163	0.220
-740.098	190.747	-0.195	0.294
-739.083	64.956	-0.105	0.107
-738.069	-32.419	-0.307	-0.172
-737.054	49.978	-0.101	0.096
-736.039	-118.990	-0.298	0.052
-735.025	-142.652	0.365	0.036
-734.010	-11.439	-0.045	-0.030
-732.996	-188.774	-0.134	-0.002
-731.981	-144.562	-0.218	-0.020
-730.966	71.182	-0.058	0.061
-729.952	800.000	-0.149	0.485
-728.937	7.850	-0.449	-0.338
-727.923	-152.506	0.061	0.004
-726.908	117.249	-0.124	0.153
-725.894	-200.000	-0.060	-0.448
-724.879	6.819	-0.144	-0.107
-723.864	-200.000	-0.016	-0.266
-722.850	-96.412	-0.400	-0.106
-721.835	-134.021	-0.196	-0.024
-720.821	11.943	-0.085	-0.065
-719.806	800.000	-0.064	-0.232
-718.791	-200.000	-0.031	-0.169
-717.777	50.313	-0.100	0.095
-716.762	-40.195	0.397	-0.208
-715.748	-7.780	-0.105	-0.071
-714.733	-200.000	-0.012	-0.305
-713.718	119.118	-0.190	-0.236
-712.704	359.322	-0.087	-0.174
-711.689	177.397	0.122	-0.178
-710.675	285.700	-0.091	-0.165
-709.660	321.409	-0.100	0.192
-708.645	-10.594	-0.061	-0.041
-707.631	282.891	-0.164	-0.295
-706.616	-169.035	-0.154	0.006
-705.602	-200.000	0.032	-0.221
-704.587	-200.000	0.053	-0.259
-703.572	585.459	0.128	-0.315
-702.558	-141.260	-0.278	-0.028
-701.543	-200.000	-0.029	-0.235
-700.529	-200.000	-0.015	0.104
-699.514	66.723	-0.030	-0.030
-698.499	-200.000	0.025	-0.117
-697.485	546.793	-0.069	-0.166
-696.470	2.562	-0.347	-0.252
-695.456	-75.956	0.082	-0.029
-694.441	-46.737	0.230	-0.113
-693.426	-19.805	0.171	0.106
-692.412	-200.000	0.010	-0.311
-691.397	81.088	-0.180	-0.195
-690.383	-200.000	-0.030	-0.358
-689.368	-23.718	0.165	0.099
-688.354	-66.193	-0.150	-0.060
-687.339	-82.291	-0.173	0.056
-686.324	256.678	0.042	-0.072
-685.310	-133.426	0.447	0.056
-684.295	-53.358	-0.191	0.088
-683.281	-175.738	0.316	-0.009
-682.266	-154.264	0.064	-0.004
-681.251	-200.000	-0.047	0.271
-680.237	271.323	0.096	0.169
-679.222	-200.000	0.001	0.098
-678.208	123.871	-0.114	0.143
-677.193	800.000	0.050	-0.194
-676.178	800.000	-0.067	-0.269
-675.164	-82.523	-0.294	-0.096
-674.149	461.791	-0.160	-0.357
-673.135	-121.377	-0.356	0.059
-672.120	-56.479	-0.070	-0.031
-671.105	-23.689	-0.299	0.180
-670.091	29.337	0.258	0.220
-669.076	125.472	-0.133	0.168
-668.062	-200.000	-0.010	-0.111
-667.047	385.302	-0.106	0.218
-666.032	76.002	0.258	-0.274
-665.018	-44.260	0.085	0.043
-664.003	-200.000	0.010	-0.142
-662.989	198.714	-0.192	0.295
-661.974	-200.000	-0.044	0.197
-660.959	433.406	-0.033	0.072
-659.945	800.000	-0.056	-0.238
-658.930	-177.807	0.224	-0.005
-657.916	800.000	-0.125	0.401
-656.901	223.705	0.048	-0.077
-655.886	-70.764	0.159	-0.060
-654.872	170.019	0.108	-0.154
-653.857	-68.816	-0.245	-0.095
-652.843	-86.156	-0.175	0.054
-651.828	321.787	-0.079	0.150
-650.814	800.000	-0.074	-0.206
-649.799	284.259	0.129	-0.233
-648.784	138.299	0.125	0.164
-647.770	-200.000	0.043	-0.197
-646.755	-84.086	0.402	-0.128
-645.741	45.396	-0.131	-0.121
-644.726	-200.000	-0.006	-0.054
-643.711	-106.062	0.166	-0.037
-642.697	678.536	-0.080	-0.208
-641.682	31.706	-0.262	-0.226
-640.668	224.181	-0.154	-0.250
-639.653	607.231	-0.130	-0.323
-638.638	187.229	-0.121	0.180
-637.624	800.000	-0.090	0.319
-636.609	-200.000	-0.026	-0.162
-635.595	-200.000	-0.357	0.001
-634.580	5.019	0.128	-0.095
-633.565	-4.755	0.326	0.225
-632.551	75.814	-0.173	-0.183
-631.536	-100.358	-0.193	0.048
-630.522	156.618	0.138	-0.190
-629.507	-148.098	0.172	0.014
-628.492	-73.273	-0.042	-0.015
-627.478	235.845	0.102	0.169
-626.463	-5.024	0.075	0.052
-625.449	7.262	-0.139	0.103
-624.434	134.610	0.038	-0.049
-623.419	800.000	0.042	0.159
-622.405	152.266	-0.047	-0.064
-621.390	14.772	-0.142	-0.111
-620.376	-136.159	-0.201	0.024
-619.361	70.827	-0.183	-0.189
-618.346	-200.000	-0.030	-0.139
-617.332	-144.416	0.155	-0.014
-616.317	-200.000	-0.031	0.230
-615.303	-113.636	-0.087	0.017
-614.288	-19.681	0.109	-0.067
-613.273	464.284	0.064	0.143
-612.259	800.000	0.025	-0.089
-611.244	-116.092	0.328	0.061
-610.230	-200.000	-0.002	-0.102
-609.215	800.000	0.052	0.187
-608.201	43.396	0.178	0.162
-607.186	-200.000	0.020	-0.231
-606.171	800.000	-0.077	-0.257
-605.157	-63.873	-0.084	0.035
-604.142	-18.839	-0.222	-0.138
-603.128	487.128	0.063	-0.144
-602.113	246.708	-0.016	0.026
-601.098	-87.300	0.178	0.054
-600.084	-14.140	0.336	-0.217
-599.069	-76.946	-0.208	0.073
-598.055	45.820	-0.128	0.118
-597.040	800.000	0.039	0.120
-596.025	449.724	0.126	0.279
-595.011	800.000	0.060	0.246
-593.996	167.917	-0.350	-0.498
-592.982	-119.741	0.411	0.071
-591.967	49.629	0.088	-0.083
-590.952	-98.659	-0.281	-0.072
-589.938	304.637	0.057	0.105
-588.923	-200.000	-0.008	0.042
-587.909	800.000	0.030	-0.102
-586.894	-86.512	-0.223	-0.068
-585.879	-125.221	0.268	0.041
-584.865	-167.462	0.041	-0.002
-583.850	22.108	0.076	0.062
-582.836	-200.000	0.021	-0.116
-581.821	72.444	-0.080	-0.084
-580.806	14.331	0.185	-0.144
-579.792	46.780	-0.221	-0.205
-578.777	34.918	-0.124	-0.108
-577.763	-143.859	0.276	0.026
-576.748	378.564	-0.086	0.175
-575.733	-30.915	0.267	-0.151
-574.719	-200.000	0.046	-0.201
-573.704	440.762	-0.043	-0.094
-572.690	166.020	0.112	-0.158
-571.675	249.366	0.123	-0.207
-570.661	-46.099	-0.198	-0.097
-569.646	-152.541	0.134	0.010
-568.631	800.000	0.085	0.255
-567.617	-185.489	0.064	0.001
-566.602	-37.518	0.126	-0.067
-565.588	141.028	-0.074	-0.097
-564.573	111.489	0.168	-0.203
-563.558	-17.635	-0.085	0.053
-562.544	736.703	0.056	-0.151
-561.529	-200.000	-0.039	-0.241
-560.515	15.243	0.030	0.023
-559.500	-200.000	0.006	-0.127
-558.485	550.477	0.014	-0.034
-557.471	-188.146	-0.251	0.003
-556.456	60.608	0.242	0.239
-555.442	-3.883	-0.130	0.090
-554.427	-105.139	-0.133	0.030
-553.412	106.520	0.093	-0.110
-552.398	91.165	-0.114	0.127
-551.383	135.734	0.084	0.110
-550.369	77.237	-0.270	-0.286
-549.354	-180.386	0.175	-0.004
-548.339	-136.254	-0.254	-0.030
-547.325	440.943	0.070	-0.153
-546.310	86.784	-0.170	0.187
-545.296	110.007	-0.198	0.237
-544.281	-59.940	-0.314	-0.134
-543.266	-78.978	0.031	-0.011
-542.252	-158.136	-0.196	-0.011
-541.237	-127.749	0.064	0.009
-540.223	56.809	-0.222	0.215
-539.208	-31.755	0.013	-0.007
-538.193	515.822	-0.078	0.183
-537.179	-115.708	-0.171	-0.032
-536.164	716.231	-0.126	0.333
-535.150	-200.000	0.029	0.170
-534.135	-16.702	-0.194	0.122
-533.121	117.634	0.105	0.129
-532.106	-84.781	-0.178	0.056
-531.091	-200.000	0.045	-0.324
-530.077	108.632	-0.106	-0.127
-529.062	30.270	0.365	-0.310
-528.048	-74.049	-0.131	-0.047
-527.033	-22.012	-0.219	-0.132
-526.018	-85.090	0.369	-0.115
-525.004	800.000	-0.054	0.166
-523.989	-51.300	-0.227	-0.106
-522.975	-122.055	0.343	0.056
-521.960	-68.661	-0.350	0.135
-520.945	800.000	-0.075	-0.261
-519.931	800.000	0.084	0.239
-518.916	115.016	0.233	0.283
-517.902	-200.000	-0.034	-0.231
-516.887	-54.705	0.112	0.051
-515.872	-200.000	-0.079	-0.474
-514.858	254.693	-0.151	0.258
-513.843	-64.129	0.166	-0.067
-512.829	-200.000	0.047	-0.219
-511.814	163.178	-0.160	0.224
-510.799	212.614	-0.106	0.167
-509.785	-54.154	0.098	0.044
-508.770	197.049	0.106	0.161
-507.756	-187.082	0.205	0.003
-506.741	-109.352	-0.389	0.082
-505.726	-33.053	0.314	-0.173
-504.712	591.224	0.023	-0.056
-503.697	206.830	-0.077	0.119
-502.683	-76.827	-0.233	0.081
-501.668	-80.655	0.296	-0.098
-500.653	-10.255	-0.358	-0.236
-499.639	287.451	0.023	-0.042
-498.624	-41.052	0.075	-0.039
-497.610	-200.000	-0.075	0.343
-496.595	-66.568	-0.247	0.097
-495.581	16.313	0.066	-0.052
-494.566	-200.000	0.009	-0.056
-493.551	-115.103	0.287	0.054
-492.537	-129.510	0.074	0.010
-491.522	-107.884	0.299	0.065
-490.508	-71.213	0.308	-0.115
-489.493	55.076	0.261	0.251
-488.478	243.367	0.099	-0.165
-487.464	-200.000	0.016	0.113
-486.449	91.122	-0.164	0.183
-485.435	-85.340	0.142	-0.044
-484.420	-194.892	0.204	0.002
-483.405	800.000	-0.013	-0.049
-482.391	-99.540	-0.450	0.112
-481.376	-200.000	0.033	0.316
-480.362	-174.135	-0.191	-0.006
-479.347	-132.155	0.305	-0.039
-478.332	-77.537	0.295	0.102
-477.318	-200.000	-0.018	0.117
-476.303	-78.670	0.232	-0.079
-475.289	-105.905	-0.157	-0.035
-474.274	-51.405	0.064	0.030
-473.259	-151.501	-0.517	-0.038
-472.245	104.737	-0.190	0.223
-471.230	-153.888	0.227	-0.015
-470.216	-200.000	0.049	0.559
-469.201	83.704	0.263	0.286
-468.186	800.000	0.061	-0.209
-467.172	120.261	0.141	0.173
-466.157	800.000	-0.043	0.145
-465.143	-164.004	-0.142	-0.007
-464.128	302.800	0.078	0.143
-463.113	-19.636	-0.275	0.169
-462.099	-21.085	0.213	0.130
-461.084	264.361	-0.019	-0.032
-460.070	-200.000	-0.027	-0.147
-459.055	-133.446	0.400	0.050
-458.040	-107.327	0.212	0.046
-457.026	256.169	-0.063	-0.108
-456.011	-200.000	-0.024	-0.127
-454.997	-24.467	0.139	0.082
-453.982	800.000	-0.036	0.143
-452.968	-100.990	0.254	0.062
-451.953	-93.340	-0.362	-0.100
-450.938	800.000	0.068	-0.240
-449.924	532.037	-0.108	-0.253
-448.909	165.131	0.201	0.281
-447.895	86.545	-0.207	0.227
-446.880	-43.764	-0.182	-0.091
-445.865	-170.777	0.106	-0.004
-444.851	271.628	-0.150	-0.262
-443.836	-30.653	-0.286	0.161
-442.822	46.523	-0.144	-0.133
-441.807	-200.000	-0.010	0.447
-440.792	-200.000	0.053	-0.246
-439.778	-77.448	-0.032	0.011
-438.763	55.376	-0.141	-0.136
-437.749	576.029	0.043	0.103
-436.734	-200.000	-0.022	0.115
-435.719	140.069	0.174	0.228
-434.705	-96.487	-0.075	-0.020
-433.690	77.300	0.197	-0.208
-432.676	-8.078	0.110	0.074
-431.661	42.801	0.099	-0.090
-430.646	-49.206	-0.314	0.149
-429.632	185.261	-0.224	-0.329
-428.617	16.931	0.025	-0.020
-427.603	-200.000	-0.009	-0.190
-426.588	456.469	-0.083	-0.182
-425.573	-200.000	0.022	-0.172
-424.559	800.000	0.128	0.357
-423.544	800.000	-0.071	-0.212
-422.530	-200.000	0.018	-0.538
-421.515	-174.083	0.074	-0.002
-420.500	-53.415	-0.031	0.014
-419.486	-139.084	0.129	-0.014
-418.471	-200.000	0.027	0.367
-417.457	-139.751	-0.158	0.017
-416.442	22.492	0.205	0.167
-415.428	-103.297	-0.042	0.010
-414.413	11.861	-0.030	0.023
-413.398	-106.643	0.133	-0.029
-412.384	132.681	0.191	-0.244
-411.369	126.540	0.013	0.016
-410.355	-155.421	0.460	-0.030
-409.340	150.951	-0.140	-0.189
-408.325	-55.160	0.015	-0.007
-407.311	-111.575	0.511	0.103
-406.296	800.000	0.081	0.266
-405.282	-131.187	-0.443	-0.058
-404.267	-27.673	-0.200	-0.115
-403.252	123.484	0.110	0.137
-402.238	-21.430	-0.454	-0.275
-401.223	-200.000	-0.018	-0.194
-400.209	374.642	0.120	-0.241
-399.194	-56.215	-0.197	-0.087
-398.179	755.734	0.034	0.091
-397.165	-158.681	-0.218	0.012
-396.150	187.096	0.185	0.274
-395.136	478.886	-0.093	0.209
-394.121	-52.851	0.437	-0.200
-393.106	774.329	0.030	0.080
-392.092	-200.000	-0.037	-0.292
-391.077	37.914	-0.351	0.309
-390.063	800.000	0.186	-0.567
-389.048	579.977	0.075	-0.183
-388.033	3.060	-0.229	-0.165
-387.019	-92.850	0.148	0.041
-386.004	-200.000	0.022	-0.210
-384.990	430.791	0.079	-0.169
-383.975	-200.000	0.040	-0.223
-382.960	-120.583	0.021	-0.003
-381.946	800.000	0.021	-0.084
-380.931	-79.141	-0.407	0.137
-379.917	178.686	0.082	0.118
-378.902	-94.930	0.119	-0.032
-377.888	1.638	-0.096	0.068
-376.873	42.722	-0.041	-0.037
-375.858	-188.457	-0.191	0.002
-374.844	-200.000	-0.037	0.406
-373.829	-72.693	-0.080	-0.029
-372.815	-116.301	0.192	-0.035
-371.800	60.704	0.051	0.050
-370.785	-200.000	0.008	0.036
-369.771	-23.789	-0.117	0.070
-368.756	800.000	0.039	0.116
-367.742	-128.977	0.384	-0.053
-366.727	-94.910	0.365	0.098
-365.712	146.041	-0.054	0.072
-364.698	142.341	0.194	-0.255
-363.683	-103.676	0.213	-0.049
-362.669	113.677	-0.243	0.293
-361.654	-200.000	-0.010	0.151
-360.639	198.168	-0.218	0.329
-359.625	62.908	-0.103	-0.102
-358.610	28.285	-0.266	0.222
-357.596	-128.011	0.092	-0.013
-356.581	72.358	-0.038	-0.040
-355.566	800.000	-0.001	0.003
-354.552	-193.217	-0.162	0.001
-353.537	127.149	-0.137	-0.172
-352.523	111.620	-0.038	-0.045
-351.508	-200.000	0.052	-0.295
-350.493	57.048	0.151	0.146
-349.479	12.182	-0.073	0.055
-348.464	-9.634	0.182	0.120
-347.450	-143.394	-0.196	-0.019
-346.435	12.013	0.260	-0.198
-345.420	527.978	0.140	-0.326
-344.406	-29.854	0.329	0.186
-343.391	800.000	-0.049	0.195
-342.377	-173.024	0.065	-0.002
-341.362	213.337	-0.175	-0.274
-340.348	656.866	-0.072	-0.182
-339.333	-62.164	-0.222	0.091
-338.318	33.821	0.272	-0.234
-337.304	-123.780	-0.261	0.041
-336.289	-200.000	0.009	-0.629
-335.275	493.620	0.039	-0.090
-334.260	-36.448	-0.333	-0.177
-333.245	91.780	0.077	0.086
-332.231	-83.035	-0.096	0.030
-331.216	800.000	0.028	-0.100
-330.202	-125.264	0.407	0.061
-329.187	800.000	-0.083	0.357
-328.172	-107.784	-0.236	0.051
-327.158	-200.000	0.032	-0.253
-326.143	-104.123	0.367	0.084
-325.129	-200.000	0.007	0.085
-324.114	800.000	-0.058	-0.233
-323.099	198.442	0.118	-0.179
-322.085	-1.781	0.051	-0.036
-321.070	-95.597	-0.030	0.008
-320.056	-24.244	-0.322	0.190
-319.041	154.744	0.130	0.177
-318.026	116.368	-0.262	-0.317
-317.012	-200.000	0.047	-0.251
-315.997	0.340	-0.132	-0.093
-314.983	212.108	-0.073	-0.114
-313.968	-200.000	0.259	-0.000
-312.953	81.292	-0.186	-0.198
-311.939	628.061	-0.082	0.204
-310.924	-77.369	0.210	-0.072
-309.910	-94.774	-0.169	0.045
-308.895	155.644	0.177	0.241
-307.880	-200.000	0.026	-0.178
-306.866	-200.000	0.002	0.379
-305.851	-73.753	-0.067	-0.024
-304.837	285.459	0.014	0.025
-303.822	62.801	0.224	-0.221
-302.807	70.256	0.063	0.065
-301.793	-49.097	0.193	-0.091
-300.778	444.471	0.114	-0.247
-299.764	-31.351	0.059	0.033
-298.749	800.000	-0.038	0.144
-297.735	311.563	0.162	0.299
-296.720	-132.779	-0.295	-0.037
-295.705	121.745	0.232	-0.286
-294.691	-56.974	0.246	0.107
-293.676	412.517	-0.105	0.219
-292.662	-200.000	0.039	-0.208
-291.647	800.000	0.053	0.177
-290.632	51.166	-0.058	0.054
-289.618	-105.233	-0.323	0.073
-288.603	-200.000	-0.012	-0.059
-287.589	-54.880	-0.304	-0.135
-286.574	-200.000	0.003	0.017
-285.559	-200.000	-0.040	0.290
-284.545	188.543	-0.202	0.298
-283.530	35.331	-0.115	-0.099
-282.516	-32.336	-0.294	0.162
-281.501	56.667	-0.123	0.118
-280.486	182.006	0.064	0.093
-279.472	800.000	-0.112	0.315
-278.457	70.538	-0.105	-0.107
-277.443	-63.888	-0.067	0.027
-276.428	-36.886	0.053	-0.028
-275.413	-128.785	0.075	0.010
-274.399	-2.025	-0.232	0.161
-273.384	-169.294	-0.140	-0.005
-272.370	-49.528	-0.189	0.089
-271.355	129.939	-0.041	-0.052
-270.340	-16.422	-0.076	0.048
-269.326	258.141	-0.028	-0.047
-268.311	373.465	0.131	0.263
-267.297	-93.137	0.263	0.072
-266.282	-200.000	0.018	0.270
-265.267	-200.000	-0.003	0.185
-264.253	16.070	-0.133	0.103
-263.238	800.000	0.062	0.173
-262.224	37.936	0.167	-0.147
-261.209	-149.071	-0.115	0.009
-260.195	-77.599	0.105	0.036
-259.180	-200.000	-0.016	-0.234
-258.165	474.610	0.041	0.091
-257.151	58.490	-0.200	-0.193
-256.136	205.455	-0.101	0.154
-255.122	227.049	-0.194	0.310
-254.107	-200.000	0.016	0.140
-253.092	-117.403	-0.186	0.033
-252.078	24.699	-0.189	0.154
-251.063	-169.524	0.270	-0.010
-250.049	94.143	-0.052	0.058
-249.034	105.654	-0.174	0.203
-248.019	-200.000	0.008	-0.342
-247.005	-101.816	0.271	0.065
-245.990	47.721	0.179	-0.165
-244.976	-200.000	-0.007	0.086
-243.961	-90.365	-0.397	0.113
-242.946	-78.460	0.127	-0.043
-241.932	-56.327	-0.178	0.078
-240.917	17.922	-0.211	-0.165
-239.903	800.000	-0.022	-0.070
-238.888	-98.825	0.313	0.078
-237.873	-200.000	-0.071	-0.308
-236.859	800.000	-0.011	0.033
-235.844	14.951	-0.127	0.098
-234.830	-140.734	-0.374	0.038
-233.815	-135.188	-0.124	-0.015
-232.800	-57.036	0.040	0.017
-231.786	-38.452	0.161	0.084
-230.771	100.638	0.163	0.186
-229.757	34.420	-0.076	-0.065
-228.742	3.832	-0.190	-0.136
-227.727	83.534	0.360	-0.386
-226.713	-140.245	-0.162	0.017
-225.698	619.452	0.069	0.170
-224.684	529.868	0.101	-0.234
-223.669	-200.000	-0.046	0.309
-222.655	-81.545	0.032	-0.010
-221.640	-97.688	0.074	-0.019
-220.625	54.874	0.221	0.210
-219.611	783.705	0.103	0.278
-218.596	205.511	0.144	0.220
-217.582	-200.000	-0.006	-0.033
-216.567	277.257	-0.052	0.092
-215.552	-22.916	0.100	-0.059
-214.538	-200.000	0.014	-0.211
-213.523	-183.462	-0.157	-0.003
-212.509	71.361	0.068	-0.070
-211.494	-2.420	0.247	-0.170
-210.479	383.541	-0.075	-0.153
-209.465	-97.751	0.351	-0.089
-208.450	800.000	0.069	-0.253
-207.436	-200.000	0.039	-0.266
-206.421	685.874	0.050	-0.128
-205.406	111.005	-0.166	0.196
-204.392	-200.000	-0.081	0.584
-203.377	-31.500	0.117	0.065
-202.363	71.960	0.101	0.103
-201.348	-126.986	-0.186	-0.027
-200.333	102.725	-0.098	0.113
-199.319	-126.669	-0.307	-0.045
-198.304	218.563	-0.033	0.051
-197.290	800.000	0.019	-0.071
-196.275	64.949	-0.169	-0.167
-195.260	-197.172	-0.427	-0.003
-194.246	800.000	0.059	-0.168
-193.231	15.050	0.224	0.173
-192.217	-52.842	0.030	-0.013
-191.202	-182.930	0.025	0.000
-190.187	800.000	-0.060	0.163
-189.173	-116.095	0.318	-0.058
-188.158	127.128	0.140	-0.174
-187.144	476.810	0.093	-0.206
-186.129	525.651	0.096	0.222
-185.114	370.977	0.131	0.261
-184.100	-105.439	-0.245	-0.055
-183.085	-77.198	0.008	0.003
-182.071	8.632	-0.048	0.036
-181.056	149.698	-0.100	0.133
-180.042	-200.000	0.020	-0.229
-179.027	-200.000	-0.022	-0.193
-178.012	-200.000	-0.076	0.395
-176.998	-200.000	-0.051	-0.284
-175.983	52.038	0.170	-0.159
-174.969	800.000	-0.051	0.211
-173.954	147.672	0.376	0.498
-172.939	800.000	-0.219	-0.599
-171.925	800.000	-0.061	-0.200
-170.910	-200.000	-0.006	0.201
-169.896	67.428	-0.122	0.123
-168.881	-87.706	0.187	-0.055
-167.866	255.933	-0.233	0.393
-166.852	532.131	0.116	0.269
-165.837	-103.152	-0.238	0.055
-164.823	302.142	0.069	0.126
-163.808	-200.000	-0.023	-0.139
-162.793	-200.000	0.034	-0.171
-161.779	-200.000	-0.002	-0.015
-160.764	-63.851	0.153	-0.061
-159.750	95.639	0.385	-0.431
-158.735	51.904	-0.045	-0.042
-157.720	84.693	-0.138	-0.149
-156.706	-200.000	0.040	0.525
-155.691	-113.631	0.290	0.056
-154.677	48.807	-0.169	0.155
-153.662	-200.000	-0.074	0.324
-152.647	-1.808	0.098	0.068
-151.633	-40.614	0.156	-0.079
-150.618	-200.000	-0.012	-0.070
-149.604	80.670	0.091	-0.097
-148.589	-127.119	-0.286	-0.041
-147.574	231.535	-0.272	0.438
-146.560	44.397	0.226	-0.203
-145.545	-72.916	0.131	-0.047
-144.531	184.702	0.087	0.127
-143.516	800.000	0.081	0.239
-142.502	-168.204	-0.308	0.012
-141.487	-200.000	0.033	0.183
-140.472	-91.267	0.204	0.057
-139.458	-163.627	-0.069	0.003
-138.443	-141.202	-0.204	0.020
-137.429	-132.131	0.208	-0.026
-136.414	-155.862	0.192	0.012
-135.399	284.781	-0.096	-0.170
-134.385	113.201	-0.155	0.184
-133.370	107.437	0.167	-0.195
-132.356	-72.989	-0.247	-0.089
-131.341	-33.291	-0.370	-0.201
-130.326	-200.000	-0.005	-0.448
-129.312	-84.796	-0.107	-0.033
-128.297	-200.000	-0.034	0.255
-127.283	306.880	0.067	0.122
-126.268	477.747	-0.116	-0.258
-125.253	800.000	0.107	0.380
-124.239	229.857	0.226	-0.363
-123.224	-200.000	-0.017	-0.107
-122.210	-158.064	0.013	-0.001
