DTS Sentinel unit serial number:	SN413079Multiplexer serial number:	ORYXHardware model number:	OX4-SRSoftware version number:	ORYX F/W v4.00 Oryx Data Collector v3.7.2.0data status	okinstallation	princeton_trtdifferential loss correction	single-endedforward channel	channel 2reverse channel	N/Adate	2019/09/11time	21:57:11forward acquisition time	60.00reverse acquisition time	0.00gamma	496.2192k internal	0.2325k external	0.2325temperature offset calibration	1.0073default loss term (dB/km)	0.3790temperature slope calibration	1.0000multiplexer offset coefficient	1.0000multiplexer slope coefficient	1.0000fibre end	0.00T internal ref (°C)	35.56T ext. ref 1 (°C)	1.73T ext. ref 2 (°C)	29.65length (m)	temperature (°C)	Stokes	anti-Stokes-747.200	40.392	-0.165	-0.149
-746.185	155.380	-0.077	-0.107
-745.171	59.508	-0.149	0.148
-744.156	345.137	0.225	0.446
-743.142	30.638	0.188	0.163
-742.127	72.723	0.210	0.221
-741.112	132.758	-0.080	-0.105
-740.098	331.324	0.018	0.035
-739.083	-70.923	0.243	-0.092
-738.069	66.669	0.293	0.301
-737.054	79.406	-0.213	0.231
-736.039	295.131	-0.154	-0.285
-735.025	37.677	-0.131	0.117
-734.010	-72.717	-0.289	-0.107
-732.996	-72.078	0.081	0.030
-731.981	800.000	-0.038	-0.153
-730.966	-200.000	-0.023	-0.297
-729.952	-135.762	0.415	-0.050
-728.937	800.000	0.102	-0.339
-727.923	57.950	-0.166	-0.164
-726.908	-8.884	-0.178	0.121
-725.894	341.465	0.110	0.218
-724.879	-42.867	-0.189	0.097
-723.864	-86.494	-0.316	0.098
-722.850	121.247	-0.264	0.332
-721.835	12.969	0.215	-0.168
-720.821	-50.560	0.241	-0.115
-719.806	373.672	-0.154	0.316
-718.791	-123.988	-0.300	-0.048
-717.777	84.411	-0.153	-0.168
-716.762	-200.000	-0.000	-0.124
-715.748	800.000	0.078	0.305
-714.733	611.005	-0.105	0.264
-713.718	-163.095	0.198	-0.010
-712.704	-200.000	0.057	-0.338
-711.689	-121.139	-0.248	0.042
-710.675	78.190	0.045	-0.049
-709.660	-70.062	-0.204	0.078
-708.645	616.278	-0.086	-0.218
-707.631	154.762	0.304	0.421
-706.616	142.774	0.058	0.078
-705.602	385.549	-0.074	0.154
-704.587	246.073	0.084	-0.143
-703.572	447.137	-0.125	0.278
-702.558	186.606	0.104	0.155
-701.543	54.434	-0.130	0.126
-700.529	70.350	-0.328	0.342
-699.514	-200.000	-0.003	-0.168
-698.499	106.507	-0.162	0.193
-697.485	-138.670	0.298	-0.033
-696.470	-88.109	0.099	-0.030
-695.456	-139.952	0.125	-0.013
-694.441	-200.000	0.033	-0.487
-693.426	105.516	0.100	-0.119
-692.412	-200.000	-0.020	-0.161
-691.397	-55.358	0.078	0.035
-690.383	65.840	0.179	-0.182
-689.368	19.571	0.182	-0.147
-688.354	-200.000	0.044	-0.338
-687.339	-31.110	0.235	0.134
-686.324	800.000	0.094	-0.350
-685.310	450.671	-0.054	-0.121
-684.295	-50.419	-0.237	0.113
-683.281	90.733	-0.137	0.154
-682.266	-17.600	0.150	-0.095
-681.251	592.618	-0.087	0.217
-680.237	-64.607	0.269	0.110
-679.222	-140.447	-0.604	0.063
-678.208	86.351	-0.274	0.304
-677.193	-118.649	-0.522	0.093
-676.178	105.515	-0.153	0.182
-675.164	-172.231	0.171	0.006
-674.149	619.502	-0.021	-0.052
-673.135	-127.401	-0.126	0.018
-672.120	-200.000	-0.032	0.295
-671.105	800.000	0.086	0.246
-670.091	238.697	-0.228	-0.382
-669.076	800.000	-0.065	0.235
-668.062	0.260	-0.400	-0.287
-667.047	-71.817	0.269	-0.101
-666.032	-53.329	0.025	-0.012
-665.018	21.211	0.123	-0.101
-664.003	6.503	-0.040	-0.030
-662.989	-172.279	-0.231	0.007
-661.974	800.000	0.085	-0.260
-660.959	-67.133	-0.191	-0.076
-659.945	-200.000	0.006	-0.169
-658.930	-96.102	-0.120	0.032
-657.916	-116.866	0.417	-0.077
-656.901	49.042	-0.026	0.025
-655.886	-200.000	0.011	0.477
-654.872	-84.648	0.314	-0.099
-653.857	800.000	0.067	0.223
-652.843	-30.576	-0.081	-0.046
-651.828	-151.038	-0.084	-0.006
-650.814	-170.784	-0.190	0.007
-649.799	-61.006	0.143	0.061
-648.784	-33.563	0.211	-0.117
-647.770	800.000	0.045	0.126
-646.755	-63.943	-0.137	-0.056
-645.741	800.000	-0.053	-0.166
-644.726	-106.372	-0.200	-0.045
-643.711	-144.799	-0.264	0.024
-642.697	-165.760	-0.274	0.012
-641.682	-150.079	0.169	0.013
-640.668	-86.749	-0.158	-0.048
-639.653	-131.916	0.188	0.025
-638.638	-200.000	-0.004	-0.134
-637.624	-66.533	-0.115	-0.046
-636.609	-18.383	-0.043	0.027
-635.595	800.000	0.064	-0.186
-634.580	800.000	0.031	0.088
-633.565	122.667	-0.124	-0.156
-632.551	800.000	-0.136	-0.503
-631.536	-154.928	-0.195	0.013
-630.522	-200.000	-0.019	-0.180
-629.507	800.000	-0.049	-0.162
-628.492	-200.000	0.039	-0.207
-627.478	-121.563	-0.320	-0.053
-626.463	62.921	-0.279	0.280
-625.449	800.000	-0.013	-0.048
-624.434	-88.202	-0.047	-0.014
-623.419	-200.000	0.033	-0.370
-622.405	-48.352	-0.206	-0.100
-621.390	-107.872	0.379	0.083
-620.376	-55.538	0.045	0.020
-619.361	800.000	0.098	0.369
-618.346	111.219	-0.121	-0.146
-617.332	-157.415	0.166	-0.010
-616.317	-200.000	-0.003	-0.282
-615.303	-139.649	0.199	-0.021
-614.288	-178.125	0.280	-0.007
-613.273	324.822	-0.137	0.264
-612.259	636.440	-0.130	-0.331
-611.244	-10.298	-0.234	-0.156
-610.230	609.073	-0.097	-0.244
-609.215	800.000	0.124	-0.403
-608.201	-1.026	0.069	-0.049
-607.186	430.091	-0.042	-0.092
-606.171	-74.989	-0.009	0.003
-605.157	-66.138	-0.291	0.116
-604.142	312.091	-0.316	0.595
-603.128	800.000	-0.097	-0.401
-602.113	-67.622	-0.307	-0.121
-601.098	393.844	0.138	-0.288
-600.084	-102.826	0.089	0.021
-599.069	-117.302	-0.375	-0.068
-598.055	-4.626	0.175	-0.121
-597.040	-29.980	0.070	0.040
-596.025	-63.888	0.171	0.070
-595.011	-76.955	-0.096	-0.033
-593.996	800.000	0.064	-0.205
-592.982	-41.921	-0.137	0.071
-591.967	171.460	0.077	-0.111
-590.952	-200.000	0.013	0.119
-589.938	800.000	-0.055	0.202
-588.923	200.689	0.198	-0.305
-587.909	529.922	-0.185	-0.439
-586.894	83.081	0.114	0.125
-585.879	160.093	-0.019	-0.027
-584.865	-169.033	-0.166	-0.006
-583.850	-200.000	-0.062	0.363
-582.836	147.185	-0.178	-0.241
-581.821	-56.564	0.174	-0.077
-580.806	120.455	0.147	-0.183
-579.792	558.339	0.031	0.074
-578.777	70.611	0.084	-0.087
-577.763	7.488	0.191	-0.143
-576.748	71.261	-0.155	0.162
-575.733	43.110	0.144	0.132
-574.719	20.044	0.098	-0.079
-573.704	800.000	-0.041	0.139
-572.690	-21.149	0.025	0.015
-571.675	108.719	0.212	-0.254
-570.661	-126.833	-0.158	0.023
-569.646	79.610	-0.123	-0.132
-568.631	-200.000	0.025	0.258
-567.617	424.948	-0.071	0.153
-566.602	-200.000	-0.022	0.132
-565.588	-200.000	-0.019	0.126
-564.573	-200.000	-0.002	0.180
-563.558	-200.000	-0.017	-0.232
-562.544	630.918	-0.111	0.282
-561.529	-200.000	0.004	-0.288
-560.515	-200.000	0.009	-0.073
-559.500	-133.337	0.105	0.013
-558.485	-78.037	-0.489	0.169
-557.471	0.197	0.140	0.100
-556.456	800.000	0.103	-0.323
-555.442	-200.000	0.033	0.157
-554.427	38.844	0.103	-0.092
-553.412	-39.873	0.027	0.014
-552.398	225.747	0.047	0.076
-551.383	-51.356	0.185	0.086
-550.369	-200.000	0.010	0.219
-549.354	92.528	-0.095	-0.107
-548.339	234.685	-0.257	-0.424
-547.325	-61.309	-0.213	-0.090
-546.310	430.905	0.072	0.156
-545.296	-82.324	0.119	0.039
-544.281	3.841	0.176	-0.128
-543.266	-127.533	0.423	0.061
-542.252	361.294	0.040	0.080
-541.237	-179.113	0.210	-0.005
-540.223	-200.000	0.002	0.052
-539.208	-71.665	-0.233	0.087
-538.193	-200.000	0.002	-0.107
-537.179	-200.000	0.022	0.129
-536.164	-88.945	0.014	0.004
-535.150	-104.725	0.193	0.045
-534.135	116.745	-0.122	-0.150
-533.121	25.903	0.011	0.010
-532.106	394.064	0.010	0.021
-531.091	-200.000	-0.076	0.388
-530.077	108.271	-0.072	-0.085
-529.062	-200.000	0.045	0.331
-528.048	97.316	-0.109	-0.125
-527.033	105.629	-0.230	0.272
-526.018	800.000	0.071	0.300
-525.004	-125.563	-0.337	0.051
-523.989	-200.000	0.022	0.270
-522.975	-29.781	-0.219	0.125
-521.960	230.628	-0.101	0.166
-520.945	800.000	-0.116	0.326
-519.931	129.084	-0.253	-0.323
-518.916	-200.000	-0.022	-0.322
-517.902	69.819	-0.035	-0.037
-516.887	800.000	-0.041	-0.133
-515.872	112.124	-0.011	0.013
-514.858	-83.983	0.172	0.055
-513.843	-142.755	0.365	-0.036
-512.829	-200.000	0.013	0.185
-511.814	16.777	-0.120	0.095
-510.799	-100.523	-0.098	0.024
-509.785	800.000	0.048	-0.166
-508.770	-121.791	-0.150	-0.025
-507.756	9.386	0.203	0.153
-506.741	-51.227	0.078	0.037
-505.726	152.523	-0.101	0.137
-504.712	14.231	0.168	0.131
-503.697	788.752	-0.055	-0.150
-502.683	264.666	0.134	-0.233
-501.668	-151.595	-0.187	0.014
-500.653	-200.000	0.006	-0.292
-499.639	-141.437	0.343	0.035
-498.624	-186.209	0.110	-0.002
-497.610	3.116	-0.104	-0.076
-496.595	75.258	0.056	0.059
-495.581	-39.831	-0.176	-0.092
-494.566	-49.484	0.164	-0.078
-493.551	388.957	0.091	-0.187
-492.537	-35.454	0.364	0.198
-491.522	-15.459	0.142	0.091
-490.508	-131.176	-0.111	-0.015
-489.493	-66.594	0.105	-0.042
-488.478	800.000	0.060	0.199
-487.464	11.904	-0.297	-0.228
-486.449	192.321	0.216	-0.326
-485.435	-200.000	-0.038	0.178
-484.420	189.529	-0.146	0.219
-483.405	-56.666	-0.148	0.065
-482.391	-48.350	-0.273	-0.131
-481.376	-93.741	0.137	0.038
-480.362	-11.392	-0.275	-0.181
-479.347	800.000	-0.041	0.177
-478.332	-200.000	-0.008	0.069
-477.318	-14.504	-0.264	-0.170
-476.303	-200.000	-0.028	0.217
-475.289	-11.605	0.113	0.074
-474.274	-21.183	0.186	-0.113
-473.259	-200.000	0.013	-0.198
-472.245	147.863	-0.137	0.184
-471.230	1.366	-0.162	0.116
-470.216	-200.000	0.017	-0.108
-469.201	41.838	0.303	0.274
-468.186	11.745	-0.063	0.048
-467.172	-109.328	0.417	-0.088
-466.157	76.200	0.142	0.150
-465.143	-58.538	-0.276	0.120
-464.128	-160.764	-0.163	0.009
-463.113	2.460	0.053	0.038
-462.099	-200.000	0.004	-0.203
-461.084	780.331	0.019	0.051
-460.070	-200.000	0.007	-0.184
-459.055	237.513	-0.066	0.110
-458.040	-35.760	-0.269	-0.145
-457.026	-133.486	0.237	0.030
-456.011	-33.340	-0.121	0.067
-454.997	178.247	0.142	0.207
-453.982	75.732	-0.260	0.274
-452.968	168.944	0.186	0.265
-451.953	-144.022	0.143	0.013
-450.938	82.689	-0.255	-0.277
-449.924	-85.631	0.383	-0.119
-448.909	607.813	0.077	-0.192
-447.895	-40.211	-0.233	-0.121
-446.880	74.168	-0.162	-0.169
-445.865	24.969	0.075	0.062
-444.851	-200.000	-0.004	0.171
-443.836	-88.008	0.108	-0.032
-442.822	-18.813	-0.460	0.286
-441.807	242.076	-0.121	-0.201
-440.792	-200.000	-0.022	-0.154
-439.778	134.043	0.098	0.126
-438.763	62.955	0.157	-0.157
-437.749	-200.000	-0.012	-0.136
-436.734	-115.250	0.049	-0.009
-435.719	-45.110	-0.170	0.084
-434.705	-53.320	0.135	0.062
-433.690	53.291	-0.097	-0.093
-432.676	-200.000	-0.047	0.280
-431.661	2.897	0.082	0.059
-430.646	274.906	-0.167	-0.295
-429.632	-70.808	-0.076	-0.028
-428.617	-199.264	-0.275	-0.001
-427.603	-36.738	-0.292	0.156
-426.588	54.588	0.060	-0.058
-425.573	80.410	-0.064	-0.069
-424.559	139.513	-0.085	-0.112
-423.544	-71.322	-0.051	-0.019
-422.530	-129.502	-0.213	-0.029
-421.515	-200.000	0.020	-0.111
-420.500	272.540	0.094	0.166
-419.486	613.907	0.070	0.176
-418.471	-27.901	0.185	0.107
-417.457	800.000	-0.124	-0.416
-416.442	123.468	0.068	-0.085
-415.428	552.030	-0.056	0.135
-414.413	15.272	0.058	-0.046
-413.398	-33.629	0.251	-0.138
-412.384	24.116	-0.074	0.061
-411.369	800.000	0.057	0.163
-410.355	800.000	0.073	-0.316
-409.340	132.766	0.207	-0.266
-408.325	-200.000	0.023	-0.185
-407.311	114.296	0.070	0.085
-406.296	-105.783	0.128	-0.029
-405.282	-4.611	-0.129	0.089
-404.267	-148.201	0.238	-0.020
-403.252	96.492	0.203	0.231
-402.238	147.663	0.086	-0.115
-401.223	19.999	-0.175	-0.140
-400.209	-46.899	0.436	0.212
-399.194	-200.000	-0.038	0.219
-398.179	-37.152	-0.369	-0.197
-397.165	98.362	0.162	0.185
-396.150	-200.000	-0.010	-0.258
-395.136	800.000	-0.074	0.274
-394.121	-33.985	0.199	-0.109
-393.106	-6.509	-0.079	0.054
-392.092	-200.000	0.041	0.281
-391.077	-173.435	-0.055	0.002
-390.063	-179.036	0.098	-0.002
-389.048	-28.790	-0.148	-0.085
-388.033	175.332	0.127	0.183
-387.019	-66.108	0.378	0.150
-386.004	-200.000	-0.030	-0.140
-384.990	-63.193	-0.422	0.173
-383.975	800.000	-0.070	0.241
-382.960	-52.124	0.335	0.155
-381.946	-112.795	0.079	0.016
-380.931	-25.708	0.017	0.010
-379.917	4.548	-0.286	-0.209
-378.902	155.513	0.186	-0.255
-377.888	-151.211	0.281	0.021
-376.873	-14.894	0.284	0.181
-375.858	45.362	-0.115	-0.105
-374.844	-131.887	0.080	-0.010
-373.829	140.511	0.099	0.130
-372.815	-70.251	-0.114	0.043
-371.800	299.933	-0.063	0.115
-370.785	-162.388	0.259	0.013
-369.771	800.000	0.097	0.349
-368.756	283.242	-0.107	0.190
-367.742	159.649	0.061	-0.084
-366.727	800.000	0.057	-0.163
-365.712	800.000	0.100	-0.299
-364.698	371.275	0.028	0.057
-363.683	56.850	-0.209	-0.203
-362.669	296.192	0.074	0.135
-361.654	763.005	-0.096	-0.260
-360.639	800.000	-0.035	-0.095
-359.625	52.809	-0.022	-0.021
-358.610	-181.774	-0.313	0.006
-357.596	-97.283	0.057	0.015
-356.581	441.007	-0.042	-0.090
-355.566	31.910	-0.113	-0.097
-354.552	-200.000	-0.035	-0.166
-353.537	-86.334	0.007	0.002
-352.523	-200.000	-0.066	0.302
-351.508	160.622	0.124	-0.172
-350.493	116.978	-0.159	-0.194
-349.479	153.551	-0.072	0.098
-348.464	150.085	-0.083	0.112
-347.450	-13.837	0.124	0.080
-346.435	114.981	0.259	0.314
-345.420	-8.940	0.035	0.023
-344.406	19.270	-0.054	-0.043
-343.391	194.214	-0.101	0.152
-342.377	-200.000	0.015	-0.294
-341.362	800.000	-0.049	0.166
-340.348	-181.439	0.136	-0.003
-339.333	-138.156	0.234	-0.026
-338.318	-200.000	0.033	0.224
-337.304	17.573	0.051	-0.040
-336.289	35.099	0.310	0.270
-335.275	566.368	0.166	-0.399
-334.260	-200.000	-0.006	0.032
-333.245	-200.000	-0.020	-0.213
-332.231	-86.709	0.431	-0.131
-331.216	-66.153	0.250	-0.099
-330.202	-47.670	-0.148	0.072
-329.187	16.207	-0.158	-0.123
-328.172	800.000	0.057	-0.175
-327.158	252.437	0.129	-0.218
-326.143	132.707	0.268	-0.343
-325.129	753.128	-0.086	-0.230
-324.114	-71.720	0.209	-0.077
-323.099	140.554	-0.183	0.240
-322.085	-200.000	0.050	-0.229
-321.070	193.292	-0.179	0.268
-320.056	-200.000	0.014	-0.089
-319.041	800.000	-0.127	0.428
-318.026	-129.146	-0.343	0.047
-317.012	509.861	-0.022	-0.051
-315.997	-154.232	-0.155	0.010
-314.983	800.000	0.016	0.056
-313.968	76.806	-0.121	0.127
-312.953	126.638	0.093	-0.117
-311.939	-200.000	0.019	-0.330
-310.924	-200.000	0.014	-0.163
-309.910	-8.809	-0.331	-0.221
-308.895	399.356	0.100	0.207
-307.880	184.586	0.053	0.078
-306.866	177.662	0.118	-0.171
-305.851	-200.000	0.023	0.299
-304.837	-75.196	0.225	0.080
-303.822	-200.000	-0.005	-0.234
-302.807	58.740	-0.061	-0.059
-301.793	252.529	-0.056	0.095
-300.778	54.589	0.172	-0.164
-299.764	249.374	-0.077	0.129
-298.749	800.000	-0.102	0.280
-297.735	97.784	0.144	0.164
-296.720	114.048	0.143	0.172
-295.705	800.000	-0.015	-0.060
-294.691	-200.000	-0.027	0.345
-293.676	-198.590	-0.298	0.002
-292.662	79.742	0.242	0.257
-291.647	105.851	-0.084	-0.098
-290.632	800.000	0.036	-0.141
-289.618	-200.000	0.020	-0.094
-288.603	-42.115	0.164	0.083
-287.589	359.676	0.157	-0.312
-286.574	457.412	-0.122	0.269
-285.559	183.637	-0.088	0.128
-284.545	706.458	0.058	0.151
-283.530	-200.000	0.022	-0.146
-282.516	455.072	-0.091	-0.199
-281.501	-97.242	0.190	-0.049
-280.486	-30.350	0.338	-0.190
-279.472	-116.486	0.073	-0.013
-278.457	-65.473	0.255	-0.101
-277.443	204.710	-0.191	0.293
-276.428	36.394	0.185	0.162
-275.413	51.292	-0.240	-0.226
-274.399	150.750	-0.117	0.158
-273.384	-39.741	-0.134	-0.070
-272.370	-58.236	0.386	-0.166
-271.355	165.234	0.157	0.219
-270.340	53.215	-0.359	-0.340
-269.326	-200.000	0.043	-0.233
-268.311	89.201	0.048	0.053
-267.297	-56.883	0.152	-0.067
-266.282	-46.465	-0.165	-0.080
-265.267	-86.051	0.057	-0.017
-264.253	169.904	0.185	0.262
-263.238	75.161	0.067	-0.070
-262.224	800.000	-0.054	0.181
-261.209	-72.265	0.320	-0.117
-260.195	-4.353	-0.097	0.067
-259.180	216.085	-0.054	0.085
-258.165	800.000	0.060	-0.187
-257.151	31.170	0.165	-0.140
-256.136	142.807	-0.192	-0.252
-255.122	9.360	-0.143	-0.107
-254.107	568.214	-0.037	0.089
-253.092	51.113	0.177	0.166
-252.078	126.355	-0.212	-0.265
-251.063	-22.801	0.341	0.204
-250.049	-200.000	0.001	0.117
-249.034	800.000	-0.062	-0.207
-248.019	-109.618	0.201	0.042
-247.005	-15.603	-0.147	0.093
-245.990	-57.871	0.128	0.055
-244.976	-200.000	-0.090	0.416
-243.961	90.510	-0.193	-0.214
-242.946	-17.865	-0.106	0.066
-241.932	-200.000	-0.016	-0.229
-240.917	124.717	-0.171	-0.213
-239.903	-85.368	0.512	-0.158
-238.888	-55.059	-0.120	-0.054
-237.873	-156.069	-0.252	0.016
-236.859	74.759	-0.201	-0.209
-235.844	-200.000	0.030	-0.255
-234.830	-200.000	-0.013	0.089
-233.815	-20.674	0.036	0.022
-232.800	130.091	0.175	-0.222
-231.786	-88.064	0.071	-0.021
-230.771	800.000	0.034	0.130
-229.757	39.439	0.107	0.095
-228.742	-119.346	-0.095	-0.016
-227.727	-103.938	-0.195	-0.045
-226.713	419.581	0.106	-0.225
-225.698	-111.854	-0.064	0.013
-224.684	-72.279	-0.116	-0.042
-223.669	111.766	-0.233	0.278
-222.655	100.053	0.184	-0.211
-221.640	-144.852	-0.098	-0.009
-220.625	457.175	-0.162	0.356
-219.611	-122.307	0.083	0.013
-218.596	-102.619	-0.178	0.042
-217.582	104.897	0.178	0.207
-216.567	-29.452	-0.330	0.186
-215.552	-82.417	-0.129	0.041
-214.538	-43.824	0.319	-0.159
-213.523	449.152	-0.216	0.471
-212.509	-24.400	-0.142	0.084
-211.494	-104.563	0.059	0.014
-210.479	-9.922	-0.297	-0.195
-209.465	-27.009	0.070	0.041
-208.450	-200.000	-0.007	0.148
-207.436	800.000	-0.015	0.057
-206.421	-95.592	0.111	-0.029
-205.406	800.000	-0.074	0.317
-204.392	134.563	0.051	-0.066
-203.377	-200.000	-0.047	0.260
-202.363	-97.945	0.205	-0.052
-201.348	256.414	-0.164	0.278
-200.333	86.621	0.161	0.175
-199.319	-200.000	-0.005	-0.053
-198.304	121.462	-0.223	0.275
-197.290	-59.080	0.164	-0.070
-196.275	-32.470	0.111	-0.061
-195.260	65.530	-0.174	0.174
-194.246	186.126	-0.121	0.178
-193.231	800.000	-0.069	0.249
-192.217	-200.000	0.007	0.073
-191.202	-200.000	0.015	0.190
-190.187	-200.000	-0.050	-0.480
-189.173	208.511	0.218	-0.337
-188.158	-124.741	-0.424	-0.065
-187.144	-139.983	0.121	0.013
-186.129	30.889	0.153	0.129
-185.114	-134.728	-0.434	0.052
-184.100	-146.606	-0.084	-0.007
-183.085	253.020	0.154	-0.260
-182.071	-178.800	0.100	0.002
-181.056	-52.172	0.090	0.041
-180.042	-112.881	0.369	0.072
-179.027	620.080	-0.049	0.121
-178.012	358.008	0.156	-0.307
-176.998	53.571	-0.219	0.207
-175.983	-74.568	-0.227	-0.081
-174.969	-124.178	-0.230	0.036
-173.954	-200.000	-0.016	0.155
-172.939	304.638	0.113	0.207
-171.925	-200.000	0.031	0.364
-170.910	322.262	-0.047	0.088
-169.896	-99.484	-0.170	-0.042
-168.881	-200.000	-0.026	0.129
-167.866	546.314	0.041	0.098
-166.852	-200.000	-0.018	0.114
-165.837	-200.000	0.054	0.344
-164.823	-67.168	-0.140	-0.054
-163.808	22.342	0.535	0.432
-162.793	-57.313	-0.244	-0.106
-161.779	-200.000	0.005	0.193
-160.764	310.179	0.125	-0.230
-159.750	-89.033	-0.281	0.082
-158.735	133.806	0.244	-0.311
-157.720	-200.000	-0.023	-0.130
-156.706	119.962	-0.189	0.231
-155.691	-55.444	0.236	0.104
-154.677	-142.839	0.126	0.012
-153.662	-183.337	0.389	0.007
-152.647	38.429	0.111	0.097
-151.633	-200.000	-0.019	-0.241
-150.618	-86.145	-0.371	-0.113
-149.604	-119.774	0.129	0.022
-148.589	30.158	-0.169	0.142
-147.574	-200.000	-0.024	-0.146
-146.560	262.700	0.156	-0.267
-145.545	-200.000	0.007	0.034
-144.531	-36.262	0.217	0.115
-143.516	-200.000	0.002	-0.266
-142.502	-200.000	0.026	-0.297
-141.487	80.903	0.155	0.165
-140.472	-160.747	0.212	-0.011
-139.458	800.000	-0.062	0.174
-138.443	-17.391	-0.113	0.070
-137.429	24.365	-0.018	-0.015
-136.414	623.313	0.123	0.304
-135.399	782.367	0.033	0.088
-134.385	116.436	0.084	0.102
-133.370	800.000	-0.003	-0.010
-132.356	800.000	-0.075	-0.228
-131.341	33.172	-0.143	0.123
-130.326	-159.956	-0.316	-0.017
-129.312	-200.000	0.039	0.264
-128.297	-117.079	0.149	-0.027
-127.283	-33.495	0.273	0.149
-126.268	135.481	-0.066	-0.084
-125.253	-24.125	0.345	0.203
-124.239	262.055	0.066	-0.113
-123.224	-140.759	0.135	0.014
-122.210	-36.965	-0.208	-0.110
-121.195	43.372	-0.292	-0.263
-120.180	-82.874	-0.292	0.093
