DTS Sentinel unit serial number:	SN413079Multiplexer serial number:	ORYXHardware model number:	OX4-SRSoftware version number:	ORYX F/W v4.00 Oryx Data Collector v3.7.2.0data status	okinstallation	princeton_trtdifferential loss correction	single-endedforward channel	channel 2reverse channel	N/Adate	2019/09/18time	13:27:35forward acquisition time	60.00reverse acquisition time	0.00gamma	496.2192k internal	0.2319k external	0.2319temperature offset calibration	0.9993default loss term (dB/km)	0.3790temperature slope calibration	1.0000multiplexer offset coefficient	1.0000multiplexer slope coefficient	1.0000fibre end	0.00T internal ref (°C)	34.17T ext. ref 1 (°C)	0.62T ext. ref 2 (°C)	30.14length (m)	temperature (°C)	Stokes	anti-Stokes-747.200	424.597	-0.122	-0.265
-746.185	137.266	-0.171	0.226
-745.171	41.554	-0.031	-0.028
-744.156	-38.759	-0.155	-0.083
-743.142	-68.791	0.126	-0.049
-742.127	-50.073	-0.277	0.133
-741.112	156.940	-0.198	-0.276
-740.098	-148.202	-0.216	0.018
-739.083	485.524	0.058	0.133
-738.069	-200.000	0.008	0.073
-737.054	486.823	-0.086	-0.198
-736.039	56.689	0.085	0.084
-735.025	-146.140	0.182	0.016
-734.010	-137.292	-0.209	0.024
-732.996	-200.000	0.004	0.072
-731.981	-27.718	-0.043	0.025
-730.966	66.684	-0.096	0.099
-729.952	-156.448	-0.192	0.012
-728.937	-200.000	0.017	-0.231
-727.923	800.000	0.080	-0.293
-726.908	-72.150	-0.244	-0.092
-725.894	282.717	-0.118	-0.214
-724.879	138.700	-0.161	0.213
-723.864	196.555	-0.079	-0.121
-722.850	137.386	-0.061	0.081
-721.835	-81.854	-0.210	-0.069
-720.821	-74.966	-0.195	-0.070
-719.806	-200.000	-0.073	-0.352
-718.791	-123.346	0.411	-0.066
-717.777	-154.970	-0.269	-0.018
-716.762	-159.367	0.315	0.018
-715.748	-200.000	-0.025	-0.122
-714.733	-83.734	-0.087	0.028
-713.718	426.239	0.070	-0.151
-712.704	800.000	0.097	-0.384
-711.689	800.000	0.076	0.303
-710.675	-150.544	-0.182	0.014
-709.660	179.129	-0.051	0.075
-708.645	-200.000	-0.007	-0.172
-707.631	-85.612	-0.307	-0.097
-706.616	761.039	-0.108	-0.297
-705.602	-141.503	0.323	-0.033
-704.587	67.184	0.052	0.054
-703.572	800.000	-0.051	-0.199
-702.558	-200.000	0.019	-0.186
-701.543	-177.460	-0.242	-0.006
-700.529	800.000	-0.024	0.082
-699.514	182.064	0.143	-0.213
-698.499	800.000	0.043	-0.151
-697.485	-22.345	-0.074	0.045
-696.470	-15.675	-0.117	0.075
-695.456	322.724	-0.086	0.166
-694.441	-118.790	-0.128	0.023
-693.426	2.312	0.169	-0.123
-692.412	42.536	0.036	-0.033
-691.397	-60.985	-0.426	0.182
-690.383	-72.856	-0.131	0.049
-689.368	-112.030	-0.167	-0.034
-688.354	-200.000	0.016	-0.139
-687.339	-95.017	-0.230	0.063
-686.324	800.000	0.083	0.290
-685.310	-67.268	-0.310	0.123
-684.295	-50.924	-0.345	0.164
-683.281	-10.439	0.208	-0.139
-682.266	-21.134	0.062	-0.038
-681.251	-100.824	-0.226	0.056
-680.237	-121.853	-0.192	0.032
-679.222	-200.000	-0.052	0.253
-678.208	-153.366	-0.247	0.017
-677.193	-109.826	-0.119	-0.025
-676.178	-200.000	0.088	-0.398
-675.164	593.913	0.064	-0.160
-674.149	800.000	-0.015	-0.064
-673.135	189.529	0.168	-0.253
-672.120	800.000	-0.047	-0.198
-671.105	327.025	-0.140	-0.270
-670.091	800.000	0.052	-0.207
-669.076	800.000	-0.082	-0.263
-668.062	509.027	-0.070	0.163
-667.047	247.310	0.156	-0.265
-666.032	25.668	-0.337	-0.283
-665.018	-15.427	0.230	-0.148
-664.003	8.741	0.104	-0.079
-662.989	-200.000	0.006	-0.162
-661.974	59.603	-0.232	-0.231
-660.959	-36.912	-0.164	-0.089
-659.945	-17.401	0.149	-0.095
-658.930	82.795	-0.224	-0.246
-657.916	-122.309	-0.230	-0.038
-656.901	-200.000	0.018	0.136
-655.886	-123.742	-0.224	0.036
-654.872	-63.340	-0.371	-0.154
-653.857	-200.000	0.005	-0.240
-652.843	197.413	-0.032	-0.049
-651.828	442.546	0.176	-0.389
-650.814	133.098	-0.070	-0.091
-649.799	-200.000	-0.069	0.473
-648.784	-200.000	0.002	-0.166
-647.770	36.780	0.166	-0.148
-646.755	-101.221	0.084	0.021
-645.741	245.024	0.062	0.106
-644.726	75.020	-0.176	0.187
-643.711	3.642	-0.282	-0.207
-642.697	250.803	-0.102	0.174
-641.682	32.255	-0.246	0.214
-640.668	98.592	0.065	-0.075
-639.653	-200.000	-0.033	-0.152
-638.638	-167.609	-0.438	-0.018
-637.624	-28.594	0.151	0.088
-636.609	434.017	-0.098	-0.215
-635.595	-171.564	0.103	0.003
-634.580	159.717	0.089	0.125
-633.565	-200.000	0.035	-0.338
-632.551	-100.520	-0.175	0.044
-631.536	-200.000	0.035	0.182
-630.522	-200.000	0.000	0.026
-629.507	-200.000	0.000	0.323
-628.492	-92.258	0.139	0.040
-627.478	-9.448	0.091	0.061
-626.463	59.368	-0.095	-0.094
-625.449	152.137	0.187	-0.258
-624.434	-55.260	-0.366	-0.166
-623.419	-200.000	-0.036	-0.226
-622.405	133.372	0.188	0.245
-621.390	-22.787	-0.181	0.110
-620.376	-26.705	-0.347	0.204
-619.361	-13.365	0.157	0.102
-618.346	-60.012	-0.270	-0.116
-617.332	800.000	-0.011	0.046
-616.317	63.381	-0.171	-0.172
-615.303	800.000	0.040	-0.160
-614.288	-101.849	0.137	0.033
-613.273	488.699	-0.141	-0.324
-612.259	249.948	0.078	0.133
-611.244	89.980	-0.121	-0.136
-610.230	-200.000	-0.139	-0.000
-609.215	253.935	0.121	-0.209
-608.201	449.593	-0.081	-0.180
-607.186	193.429	-0.244	0.371
-606.171	-120.735	0.074	0.013
-605.157	-200.000	0.079	-0.363
-604.142	-106.645	-0.212	0.047
-603.128	-25.642	0.071	-0.042
-602.113	86.942	-0.148	0.165
-601.098	-200.000	-0.009	-0.117
-600.084	208.561	-0.096	0.151
-599.069	-200.000	-0.012	0.244
-598.055	-200.000	0.017	0.107
-597.040	503.097	-0.047	-0.108
-596.025	3.539	-0.113	0.083
-595.011	178.150	-0.168	-0.247
-593.996	310.168	-0.079	-0.148
-592.982	-33.245	-0.097	-0.054
-591.967	-200.000	0.012	-0.250
-590.952	-189.415	-0.125	-0.001
-589.938	121.620	-0.104	0.131
-588.923	-131.198	-0.032	-0.004
-587.909	121.852	-0.026	0.032
-586.894	-17.900	0.227	0.143
-585.879	-200.000	-0.031	-0.347
-584.865	800.000	-0.081	0.246
-583.850	84.974	0.237	-0.261
-582.836	510.511	-0.056	-0.130
-581.821	-11.878	0.287	-0.190
-580.806	-29.295	-0.145	-0.083
-579.792	-200.000	0.014	0.106
-578.777	-113.709	0.096	-0.019
-577.763	800.000	0.090	-0.384
-576.748	125.820	-0.104	0.133
-575.733	800.000	-0.041	0.132
-574.719	800.000	0.032	-0.130
-573.704	97.373	0.161	0.186
-572.690	-200.000	0.006	0.237
-571.675	-49.387	-0.299	0.143
-570.661	-200.000	0.021	-0.363
-569.646	-200.000	0.007	-0.189
-568.631	-0.967	-0.136	0.097
-567.617	-114.507	0.210	-0.040
-566.602	19.932	-0.206	0.167
-565.588	87.442	0.098	0.109
-564.573	-200.000	-0.019	-0.436
-563.558	800.000	-0.127	0.421
-562.544	-21.532	0.197	-0.120
-561.529	39.074	0.082	0.073
-560.515	-22.140	0.581	0.354
-559.500	800.000	-0.082	-0.226
-558.485	-57.909	-0.160	-0.070
-557.471	-110.416	0.321	-0.067
-556.456	-200.000	-0.123	-0.555
-555.442	72.283	0.295	-0.309
-554.427	61.702	0.316	-0.315
-553.412	-94.746	0.079	-0.022
-552.398	390.681	0.083	0.174
-551.383	-17.250	-0.127	0.081
-550.369	136.869	-0.083	0.108
-549.354	-34.891	0.061	0.033
-548.339	569.099	-0.088	-0.214
-547.325	654.659	0.126	0.325
-546.310	-189.562	0.282	0.003
-545.296	46.065	-0.191	-0.178
-544.281	-111.141	-0.237	0.049
-543.266	-125.611	0.213	-0.032
-542.252	-30.048	0.311	-0.178
-541.237	-112.052	0.138	-0.028
-540.223	139.392	0.156	-0.205
-539.208	-104.184	0.453	-0.106
-538.193	101.315	-0.083	-0.097
-537.179	70.849	-0.276	-0.287
-536.164	-95.153	-0.510	0.138
-535.150	-117.074	0.102	-0.019
-534.135	-200.000	0.048	-0.520
-533.121	89.365	-0.134	0.150
-532.106	-200.000	0.000	-0.213
-531.091	-23.029	-0.042	0.026
-530.077	-135.732	-0.021	-0.003
-529.062	280.767	0.181	0.325
-528.048	-17.259	0.158	0.100
-527.033	210.622	0.057	0.090
-526.018	-86.467	-0.258	0.080
-525.004	-24.497	0.393	-0.234
-523.989	-32.207	-0.175	0.098
-522.975	-141.480	0.456	0.046
-521.960	-10.010	0.241	0.160
-520.945	278.093	0.045	-0.080
-519.931	-128.912	-0.147	0.021
-518.916	704.431	0.051	0.136
-517.902	441.174	-0.111	0.243
-516.887	235.332	-0.054	-0.090
-515.872	800.000	-0.041	0.147
-514.858	-200.000	-0.034	0.213
-513.843	122.148	0.148	-0.185
-512.829	-46.282	-0.214	0.106
-511.814	490.980	0.063	-0.144
-510.799	-68.269	-0.379	0.148
-509.785	0.549	-0.058	0.041
-508.770	-123.749	0.492	0.078
-507.756	-134.419	0.228	0.028
-506.741	-147.516	-0.204	-0.017
-505.726	-68.432	-0.225	0.087
-504.712	-200.000	0.010	0.166
-503.697	35.970	-0.095	-0.084
-502.683	-87.457	-0.043	-0.013
-501.668	48.305	-0.170	0.160
-500.653	800.000	0.020	-0.056
-499.639	-151.099	-0.073	0.006
-498.624	800.000	0.125	0.359
-497.610	-77.753	-0.096	-0.033
-496.595	-200.000	-0.016	0.362
-495.581	800.000	-0.051	0.178
-494.566	312.986	-0.304	-0.572
-493.551	168.800	0.077	-0.111
-492.537	22.119	0.220	0.180
-491.522	-170.625	0.231	-0.008
-490.508	67.390	0.134	0.137
-489.493	-39.922	-0.177	-0.093
-488.478	-200.000	0.052	-0.370
-487.464	-200.000	0.042	0.191
-486.449	-200.000	0.075	-0.471
-485.435	150.202	-0.236	0.320
-484.420	430.292	-0.034	-0.074
-483.405	-148.906	-0.271	-0.022
-482.391	229.821	0.097	-0.159
-481.376	-158.178	-0.251	-0.015
-480.362	800.000	0.058	-0.174
-479.347	262.451	0.170	-0.295
-478.332	312.512	0.033	-0.062
-477.318	-17.331	-0.272	0.172
-476.303	-44.171	-0.119	0.060
-475.289	800.000	0.008	-0.022
-474.274	-38.379	-0.136	0.072
-473.259	-31.762	-0.096	-0.054
-472.245	11.368	-0.228	-0.175
-471.230	-200.000	0.003	0.024
-470.216	-21.677	0.171	-0.105
-469.201	800.000	-0.099	0.392
-468.186	17.167	-0.265	0.210
-467.172	-200.000	0.017	-0.164
-466.157	800.000	-0.036	0.125
-465.143	-97.971	-0.202	0.052
-464.128	-121.547	0.133	-0.022
-463.113	391.946	0.060	-0.124
-462.099	17.714	0.094	0.075
-461.084	86.678	-0.079	0.088
-460.070	-66.642	0.276	0.109
-459.055	45.444	-0.257	-0.237
-458.040	4.718	-0.246	0.181
-457.026	273.769	-0.083	-0.147
-456.011	-166.587	0.251	-0.010
-454.997	314.950	-0.017	-0.031
-453.982	17.200	0.132	-0.104
-452.968	-200.000	0.063	0.356
-451.953	648.256	-0.088	-0.226
-450.938	52.452	0.241	-0.230
-449.924	800.000	0.058	0.164
-448.909	-103.308	-0.388	0.092
-447.895	214.159	0.052	0.083
-446.880	421.825	0.071	0.153
-445.865	-156.124	-0.295	-0.019
-444.851	-200.000	-0.008	0.433
-443.836	-200.000	0.002	-0.135
-442.822	800.000	-0.108	-0.413
-441.807	-67.416	0.062	0.024
-440.792	800.000	0.095	-0.267
-439.778	549.700	0.075	-0.179
-438.763	-200.000	0.028	0.145
-437.749	65.745	-0.220	0.223
-436.734	146.362	0.126	0.169
-435.719	-90.026	-0.125	-0.037
-434.705	32.861	-0.192	0.166
-433.690	800.000	-0.151	0.436
-432.676	-200.000	0.004	0.092
-431.661	-77.327	0.271	0.094
-430.646	266.566	-0.146	0.255
-429.632	-200.000	0.005	0.215
-428.617	-59.552	-0.018	0.008
-427.603	-200.000	0.035	0.176
-426.588	115.469	0.178	0.217
-425.573	-133.002	-0.146	0.018
-424.559	-125.510	0.112	0.017
-423.544	800.000	0.112	0.408
-422.530	-17.280	-0.197	-0.124
-421.515	-83.502	-0.087	0.028
-420.500	-200.000	0.013	0.152
-419.486	800.000	0.047	0.182
-418.471	-147.684	0.274	-0.023
-417.457	-57.147	0.170	0.075
-416.442	-29.374	-0.250	-0.143
-415.428	157.632	0.214	-0.296
-414.413	-129.588	-0.039	0.005
-413.398	-140.118	-0.028	0.003
-412.384	161.202	0.005	0.007
-411.369	-200.000	0.045	-0.271
-410.355	247.337	-0.130	-0.219
-409.340	32.097	-0.013	-0.011
-408.325	295.109	0.139	0.254
-407.311	108.504	-0.264	0.314
-406.296	-57.758	-0.084	-0.037
-405.282	610.538	0.081	0.202
-404.267	-200.000	-0.013	-0.140
-403.252	53.131	0.263	-0.251
-402.238	-44.023	0.156	-0.078
-401.223	800.000	-0.008	0.025
-400.209	157.665	0.135	-0.186
-399.194	-62.396	-0.207	0.086
-398.179	800.000	0.061	0.190
-397.165	-200.000	0.029	-0.357
-396.150	-200.000	0.027	-0.210
-395.136	309.899	-0.168	0.313
-394.121	14.434	0.250	0.195
-393.106	-200.000	0.001	0.129
-392.092	27.252	-0.178	-0.149
-391.077	198.201	0.088	0.134
-390.063	382.745	0.103	0.212
-389.048	-200.000	0.040	0.374
-388.033	-48.330	-0.106	0.051
-387.019	-200.000	-0.011	-0.047
-386.004	-200.000	0.048	-0.249
-384.990	262.604	-0.138	-0.239
-383.975	-11.960	-0.018	0.012
-382.960	-127.720	-0.128	0.018
-381.946	666.794	0.097	-0.251
-380.931	800.000	0.106	-0.343
-379.917	162.021	0.196	-0.274
-378.902	619.831	-0.028	-0.071
-377.888	148.585	-0.068	-0.091
-376.873	119.973	-0.080	0.099
-375.858	14.903	-0.213	0.166
-374.844	-31.172	-0.247	-0.139
-373.829	800.000	-0.074	0.217
-372.815	-158.275	0.129	-0.007
-371.800	-200.000	-0.049	-0.236
-370.785	-200.000	-0.034	0.296
-369.771	-91.617	-0.169	-0.048
-368.756	-54.835	0.218	0.098
-367.742	221.431	0.133	-0.213
-366.727	800.000	-0.015	0.063
-365.712	-200.000	-0.051	-0.267
-364.698	1.154	-0.050	-0.036
-363.683	-200.000	-0.009	0.181
-362.669	145.269	0.119	0.159
-361.654	-178.447	-0.064	-0.001
-360.639	18.541	-0.348	-0.277
-359.625	-200.000	0.024	0.144
-358.610	-200.000	-0.048	0.238
-357.596	-200.000	0.020	0.277
-356.581	-14.590	0.166	0.106
-355.566	-83.456	0.474	-0.151
-354.552	800.000	0.094	0.339
-353.537	-200.000	0.012	0.075
-352.523	-117.547	-0.301	0.054
-351.508	-116.925	0.105	-0.019
-350.493	800.000	0.041	-0.142
-349.479	-35.451	0.219	0.119
-348.464	125.601	-0.146	-0.184
-347.450	-16.466	-0.113	0.072
-346.435	39.940	-0.170	-0.152
-345.420	-187.373	-0.067	0.001
-344.406	543.430	0.156	-0.370
-343.391	800.000	-0.069	-0.216
-342.377	-200.000	0.055	-0.368
-341.362	800.000	0.044	-0.171
-340.348	-173.261	0.481	-0.015
-339.333	-27.311	-0.128	-0.074
-338.318	164.872	0.239	0.336
-337.304	800.000	0.044	0.130
-336.289	311.043	-0.220	-0.411
-335.275	-200.000	-0.049	0.218
-334.260	55.559	-0.219	-0.211
-333.245	-26.607	-0.164	0.096
-332.231	42.709	0.041	-0.038
-331.216	-133.447	-0.534	0.067
-330.202	391.216	0.106	0.218
-329.187	316.174	-0.124	-0.233
-328.172	19.787	-0.141	-0.113
-327.158	37.836	-0.226	0.200
-326.143	-200.000	0.067	-0.341
-325.129	119.426	0.140	-0.173
-324.114	-76.015	-0.106	-0.037
-323.099	-166.998	0.091	-0.004
-322.085	-97.397	-0.300	0.078
-321.070	325.979	0.080	-0.152
-320.056	-181.721	0.229	0.004
-319.041	-81.672	0.185	0.060
-318.026	273.784	-0.041	-0.072
-317.012	13.002	0.167	0.129
-315.997	178.721	0.277	-0.403
-314.983	-39.474	0.137	0.072
-313.968	162.852	-0.144	0.201
-312.953	177.552	0.250	0.362
-311.939	-200.000	0.009	-0.198
-310.924	64.455	-0.429	-0.430
-309.910	-116.555	0.150	0.028
-308.895	-80.624	0.466	0.154
-307.880	-146.779	-0.163	-0.014
-306.866	-200.000	-0.007	0.038
-305.851	-200.000	-0.071	0.308
-304.837	800.000	-0.088	0.346
-303.822	800.000	0.051	0.212
-302.807	-144.840	-0.174	-0.016
-301.793	81.366	-0.110	0.118
-300.778	546.234	0.071	0.168
-299.764	328.262	0.024	0.045
-298.749	-169.957	-0.267	-0.009
-297.735	-65.526	0.310	-0.124
-296.720	210.740	-0.180	-0.281
-295.705	117.537	0.194	-0.237
-294.691	-200.000	-0.092	0.405
-293.676	-200.000	0.054	-0.278
-292.662	571.943	-0.105	-0.255
-291.647	255.539	0.039	0.066
-290.632	218.925	0.148	-0.236
-289.618	-20.627	-0.103	-0.063
-288.603	-2.110	-0.237	-0.165
-287.589	373.035	0.099	0.199
-286.574	89.139	0.049	0.055
-285.559	-143.531	-0.443	0.042
-284.545	5.581	0.251	0.184
-283.530	800.000	0.046	0.133
-282.516	10.663	-0.236	0.179
-281.501	-200.000	0.037	0.164
-280.486	224.385	0.031	0.049
-279.472	340.975	0.148	0.287
-278.457	-164.884	-0.113	-0.005
-277.443	-200.000	0.034	0.329
-276.428	160.612	-0.040	-0.056
-275.413	32.717	0.344	-0.295
-274.399	169.447	0.135	0.191
-273.384	-55.335	-0.092	0.041
-272.370	319.063	-0.106	0.199
-271.355	-150.084	0.222	-0.017
-270.340	-0.819	-0.121	0.085
-269.326	-120.163	-0.245	-0.042
-268.311	62.226	-0.135	0.134
-267.297	-15.893	-0.191	0.121
-266.282	635.218	0.047	0.118
-265.267	30.268	-0.004	0.003
-264.253	153.752	0.015	-0.021
-263.238	-163.622	0.413	-0.019
-262.224	800.000	-0.144	0.422
-261.209	25.707	0.113	-0.094
-260.195	20.301	0.134	0.107
-259.180	200.332	-0.068	0.103
-258.165	64.929	-0.364	-0.365
-257.151	-200.000	0.017	0.211
-256.136	72.767	0.063	-0.065
-255.122	-200.000	0.026	0.228
-254.107	357.638	-0.059	-0.117
-253.092	-30.268	-0.131	-0.074
-252.078	-200.000	0.065	0.441
-251.063	-166.182	-0.256	0.011
-250.049	-163.325	0.141	0.007
-249.034	-171.412	-0.127	-0.004
-248.019	687.711	-0.152	0.393
-247.005	125.130	0.228	-0.286
-245.990	-200.000	0.027	-0.170
-244.976	-200.000	0.014	0.101
-243.961	-95.314	-0.276	0.074
-242.946	-131.524	-0.145	-0.019
-241.932	-118.398	0.079	-0.014
-240.917	14.255	-0.228	-0.176
-239.903	219.423	0.179	0.285
-238.888	-15.702	0.229	-0.145
-237.873	44.765	-0.080	-0.073
-236.859	476.259	-0.075	0.168
-235.844	-154.066	0.183	0.012
-234.830	-32.141	0.110	0.061
-233.815	-51.448	0.360	-0.167
-232.800	-78.635	0.126	0.043
-231.786	264.604	-0.113	-0.196
-230.771	-24.358	0.164	-0.097
-229.757	-184.686	-0.038	0.001
-228.742	0.226	0.272	0.193
-227.727	537.282	0.062	0.147
-226.713	88.402	-0.175	0.193
-225.698	198.055	0.089	0.135
-224.684	800.000	-0.078	-0.315
-223.669	-200.000	-0.011	-0.082
-222.655	-102.676	-0.177	-0.042
-221.640	-44.796	0.247	-0.122
-220.625	-42.345	-0.348	0.176
-219.611	800.000	-0.071	0.197
-218.596	215.990	-0.061	0.097
-217.582	-56.396	0.309	0.136
-216.567	153.147	-0.034	-0.046
-215.552	-182.236	0.360	-0.007
-214.538	494.683	0.056	-0.127
-213.523	-154.094	-0.130	-0.009
-212.509	-112.532	0.170	-0.034
-211.494	103.506	-0.165	-0.191
-210.479	-36.178	-0.154	-0.083
-209.465	-200.000	0.016	-0.451
-208.450	221.076	-0.030	0.048
-207.436	11.475	0.235	0.178
-206.421	73.938	0.163	0.170
-205.406	-200.000	0.018	0.320
-204.392	-24.731	-0.062	0.037
-203.377	-200.000	0.072	-0.356
-202.363	-136.570	-0.164	0.019
-201.348	184.592	0.112	-0.165
-200.333	-33.203	-0.068	-0.037
-199.319	522.910	0.038	-0.089
-198.304	-200.000	0.026	-0.231
-197.290	-0.709	0.394	-0.276
-196.275	-99.204	0.095	0.024
-195.260	-50.386	0.242	0.113
-194.246	-173.940	-0.018	0.001
-193.231	-200.000	0.028	-0.150
-192.217	-135.448	0.221	0.026
-191.202	-200.000	-0.038	-0.244
-190.187	29.379	0.307	-0.258
-189.173	44.758	0.217	0.197
-188.158	-120.402	0.199	-0.033
-187.144	-25.466	0.152	-0.089
-186.129	-200.000	-0.019	-0.326
-185.114	733.099	0.081	-0.216
-184.100	151.452	0.074	0.099
-183.085	268.385	0.117	0.203
-182.071	526.135	0.069	-0.160
-181.056	17.350	0.178	0.140
-180.042	-16.577	0.251	-0.157
-179.027	-150.047	-0.100	0.008
-178.012	-200.000	-0.058	0.289
-176.998	286.586	0.030	-0.054
-175.983	-83.773	0.037	-0.012
-174.969	800.000	-0.038	-0.144
-173.954	800.000	0.056	-0.187
-172.939	-200.000	0.039	0.226
-171.925	61.212	0.094	0.093
-170.910	-81.103	0.195	0.064
-169.896	800.000	-0.024	0.089
-168.881	124.648	0.055	0.069
-167.866	281.643	-0.078	0.139
-166.852	33.650	0.219	0.188
-165.837	-147.115	-0.182	0.015
-164.823	525.559	0.036	0.084
-163.808	171.802	-0.126	0.179
-162.793	45.479	0.074	0.068
-161.779	363.447	-0.168	-0.334
-160.764	193.604	-0.029	-0.044
-159.750	-200.000	0.004	0.018
-158.735	-31.471	0.149	-0.083
-157.720	-67.153	-0.147	-0.057
-156.706	-100.639	-0.162	0.040
-155.691	-7.842	-0.190	0.127
-154.677	-28.776	-0.060	0.034
-153.662	-9.872	-0.187	-0.123
-152.647	-200.000	-0.003	-0.148
-151.633	159.530	-0.270	-0.372
-150.618	751.365	0.109	0.292
-149.604	-200.000	0.008	0.109
-148.589	235.201	0.103	-0.168
-147.574	800.000	-0.081	0.335
-146.560	-90.335	-0.195	0.056
-145.545	259.292	0.075	-0.128
-144.531	45.131	0.182	0.166
-143.516	252.905	0.096	0.161
-142.502	800.000	-0.105	0.327
-141.487	202.096	-0.145	0.221
-140.472	-200.000	0.055	0.274
-139.458	-66.240	-0.067	-0.026
-138.443	559.528	0.058	0.139
-137.429	-200.000	-0.032	0.152
-136.414	-146.918	-0.211	0.018
-135.399	-200.000	-0.003	-0.331
-134.385	-200.000	0.014	0.230
-133.370	-200.000	0.004	-0.122
-132.356	7.406	-0.293	-0.216
-131.341	-112.997	-0.071	-0.014
-130.326	-200.000	-0.040	-0.239
-129.312	-42.973	0.149	-0.075
-128.297	800.000	-0.054	-0.161
-127.283	66.003	-0.011	0.011
-126.268	-200.000	-0.010	-0.337
-125.253	70.658	-0.095	-0.098
-124.239	-146.388	-0.139	0.012
-123.224	-152.342	0.222	-0.016
-122.210	-58.274	-0.117	0.050
