DTS Sentinel unit serial number:	SN413079Multiplexer serial number:	ORYXHardware model number:	OX4-SRSoftware version number:	ORYX F/W v4.00 Oryx Data Collector v3.7.2.0data status	okinstallation	princeton_trtdifferential loss correction	single-endedforward channel	channel 2reverse channel	N/Adate	2019/09/12time	19:52:49forward acquisition time	15.00reverse acquisition time	0.00gamma	496.2192k internal	0.2327k external	0.2327temperature offset calibration	1.0166default loss term (dB/km)	0.3790temperature slope calibration	1.0000multiplexer offset coefficient	1.0000multiplexer slope coefficient	1.0000fibre end	0.00T internal ref (°C)	31.87T ext. ref 1 (°C)	3.45T ext. ref 2 (°C)	26.39length (m)	temperature (°C)	Stokes	anti-Stokes-747.200	349.005	0.368	0.732
-746.185	-89.125	-0.634	-0.189
-745.171	-200.000	0.019	0.165
-744.156	575.191	0.192	0.472
-743.142	800.000	-0.155	-0.630
-742.127	196.909	-0.400	0.615
-741.112	-74.244	-0.371	-0.135
-740.098	140.320	0.255	-0.339
-739.083	291.471	-0.519	-0.953
-738.069	-143.605	0.309	0.030
-737.054	-54.433	0.221	0.101
-736.039	-25.308	-0.377	0.225
-735.025	103.936	0.445	0.527
-734.010	128.342	-0.197	-0.253
-732.996	-179.134	-0.689	-0.016
-731.981	-134.375	-0.328	0.041
-730.966	-66.860	0.842	0.335
-729.952	-65.237	0.465	-0.189
-728.937	-147.723	0.953	0.080
-727.923	-200.000	0.112	-0.527
-726.908	-148.843	-0.316	0.026
-725.894	15.640	0.777	0.616
-724.879	275.946	-0.278	0.498
-723.864	12.422	0.344	0.267
-722.850	101.641	-0.386	-0.453
-721.835	-131.694	-0.558	0.074
-720.821	-65.578	-0.746	-0.301
-719.806	13.898	-1.006	-0.788
-718.791	-127.799	0.246	-0.036
-717.777	-4.588	-0.084	-0.058
-716.762	-200.000	0.006	0.138
-715.748	297.288	-0.228	0.422
-714.733	617.194	0.433	-1.096
-713.718	87.178	-0.422	-0.470
-712.704	-200.000	0.066	-0.319
-711.689	-64.207	0.426	0.175
-710.675	-57.512	0.499	0.221
-709.660	79.397	0.454	-0.490
-708.645	-12.273	-0.147	-0.097
-707.631	-72.389	0.202	-0.075
-706.616	149.631	0.167	0.227
-705.602	154.916	-0.323	0.447
-704.587	153.123	-0.663	-0.913
-703.572	-182.401	0.683	-0.013
-702.558	273.417	0.340	-0.605
-701.543	-74.738	0.064	0.023
-700.529	-156.889	-0.515	0.032
-699.514	8.561	0.531	0.403
-698.499	758.268	-0.098	-0.268
-697.485	-87.954	-0.352	-0.107
-696.470	-62.996	-0.731	-0.304
-695.456	351.890	-0.432	-0.861
-694.441	-200.000	0.015	-0.508
-693.426	124.273	-0.109	-0.138
-692.412	-200.000	-0.046	-0.590
-691.397	-197.580	0.385	0.002
-690.383	-155.367	-0.322	-0.021
-689.368	-102.849	-0.813	-0.194
-688.354	50.747	0.648	0.618
-687.339	-200.000	-0.033	0.260
-686.324	167.317	0.238	-0.340
-685.310	124.835	-0.522	-0.662
-684.295	-200.000	0.020	0.388
-683.281	131.696	-0.161	-0.209
-682.266	-11.830	-0.272	-0.179
-681.251	800.000	0.052	-0.176
-680.237	-53.553	-0.646	-0.297
-679.222	277.084	0.281	0.503
-678.208	-146.427	1.078	-0.095
-677.193	23.358	0.324	0.268
-676.178	-72.389	0.991	-0.369
-675.164	-154.467	-0.469	0.032
-674.149	172.136	0.431	-0.624
-673.135	96.897	-0.263	-0.303
-672.120	705.393	0.085	0.226
-671.105	207.740	0.168	-0.263
-670.091	-17.101	-0.354	0.225
-669.076	-181.338	-0.100	-0.002
-668.062	108.638	-0.711	-0.854
-667.047	-200.000	-0.079	-0.515
-666.032	54.501	-0.544	-0.527
-665.018	-200.000	-0.006	-0.373
-664.003	-200.000	-0.067	0.380
-662.989	127.587	-0.478	-0.610
-661.974	-154.112	0.403	0.027
-660.959	-45.582	-0.458	0.228
-659.945	-60.792	0.183	0.078
-658.930	800.000	0.061	-0.235
-657.916	123.083	0.285	0.359
-656.901	-200.000	-0.182	-0.864
-655.886	-108.960	-0.611	0.131
-654.872	800.000	0.155	0.546
-653.857	-200.000	0.009	0.279
-652.843	-200.000	-0.038	-0.343
-651.828	-30.726	0.789	0.448
-650.814	230.484	-0.833	-1.370
-649.799	43.584	-0.539	-0.496
-648.784	426.950	-0.221	0.479
-647.770	-114.792	-0.216	0.041
-646.755	88.295	-0.417	-0.465
-645.741	46.399	0.503	-0.468
-644.726	-1.704	-0.407	-0.288
-643.711	-12.872	0.453	-0.296
-642.697	800.000	0.049	-0.199
-641.682	800.000	-0.194	0.731
-640.668	396.043	0.083	0.174
-639.653	-126.022	0.662	0.100
-638.638	52.195	-1.268	-1.214
-637.624	800.000	-0.045	-0.131
-636.609	800.000	-0.242	0.724
-635.595	-153.081	0.222	-0.016
-634.580	83.321	-0.285	-0.311
-633.565	800.000	-0.128	0.384
-632.551	-140.357	1.046	-0.110
-631.536	-79.691	0.538	0.182
-630.522	-50.579	0.220	0.104
-629.507	-5.082	0.135	-0.093
-628.492	800.000	0.214	-0.691
-627.478	-15.565	0.393	0.252
-626.463	-200.000	0.034	-0.766
-625.449	263.502	-0.287	-0.500
-624.434	800.000	0.111	0.330
-623.419	-50.364	0.518	0.246
-622.405	283.333	0.355	-0.641
-621.390	-34.013	-0.340	0.188
-620.376	-200.000	-0.125	0.828
-619.361	800.000	0.084	-0.235
-618.346	-126.542	0.661	0.099
-617.332	-200.000	-0.038	-0.244
-616.317	53.208	-0.399	-0.384
-615.303	-200.000	0.015	0.131
-614.288	-99.778	-0.324	-0.081
-613.273	-80.268	0.156	0.052
-612.259	92.031	0.117	0.132
-611.244	-200.000	-0.012	-0.377
-610.230	-200.000	0.031	0.158
-609.215	719.213	0.113	0.301
-608.201	94.899	-0.288	-0.329
-607.186	-99.634	-0.944	-0.238
-606.171	15.184	-0.534	-0.420
-605.157	-138.843	0.282	0.031
-604.142	-145.340	-0.314	0.028
-603.128	-190.817	-1.154	0.012
-602.113	61.907	-0.419	-0.419
-601.098	211.276	-0.254	0.401
-600.084	-200.000	-0.015	-0.243
-599.069	31.010	0.315	-0.271
-598.055	-32.603	0.900	0.503
-597.040	142.875	-0.659	0.878
-596.025	696.114	0.119	-0.313
-595.011	337.605	-0.184	-0.358
-593.996	-112.800	0.550	0.109
-592.982	-200.000	0.017	0.499
-591.967	-200.000	0.035	-0.467
-590.952	-200.000	0.149	0.930
-589.938	-200.000	0.009	-0.432
-588.923	-126.414	1.066	0.159
-587.909	-67.545	-0.416	-0.163
-586.894	229.110	0.151	-0.247
-585.879	26.481	-0.572	-0.480
-584.865	800.000	0.214	-0.908
-583.850	800.000	-0.038	0.122
-582.836	227.498	0.250	-0.408
-581.821	55.002	0.231	0.223
-580.806	108.443	-0.215	-0.257
-579.792	106.008	0.415	-0.492
-578.777	-200.000	0.042	-0.190
-577.763	81.473	0.389	0.422
-576.748	255.737	-0.091	0.156
-575.733	17.459	-0.420	0.334
-574.719	731.886	-0.140	0.374
-573.704	-32.965	0.225	-0.125
-572.690	72.602	0.781	0.816
-571.675	-15.640	0.201	-0.129
-570.661	59.570	-0.529	0.522
-569.646	294.355	-0.326	0.597
-568.631	-125.531	0.215	0.033
-567.617	40.449	0.235	-0.212
-566.602	-200.000	0.161	0.717
-565.588	-154.702	0.601	0.040
-564.573	124.766	-0.359	-0.452
-563.558	14.557	0.755	0.590
-562.544	-108.746	-0.583	-0.125
-561.529	-60.694	-0.541	0.230
-560.515	348.855	0.237	0.468
-559.500	800.000	0.143	-0.413
-558.485	-200.000	0.086	-0.581
-557.471	55.557	-0.045	-0.043
-556.456	21.564	-0.112	-0.091
-555.442	35.464	0.221	-0.194
-554.427	85.585	0.200	0.220
-553.412	94.258	0.729	0.828
-552.398	749.425	0.221	0.597
-551.383	-9.804	0.241	-0.161
-550.369	-200.000	0.083	-0.407
-549.354	-200.000	-0.111	0.493
-548.339	109.769	-0.041	-0.049
-547.325	134.700	-0.126	0.163
-546.310	-115.539	0.819	-0.154
-545.296	-200.000	0.165	1.215
-544.281	453.935	-0.205	0.455
-543.266	324.618	-0.279	-0.532
-542.252	74.511	0.496	0.522
-541.237	214.224	-0.141	0.223
-540.223	-53.469	-0.638	0.292
-539.208	193.549	-0.119	0.181
-538.193	52.131	0.300	0.286
-537.179	609.353	0.192	-0.480
-536.164	62.155	-0.210	-0.210
-535.150	-200.000	-0.046	0.817
-534.135	29.238	-0.428	0.363
-533.121	-200.000	-0.040	0.261
-532.106	-139.456	0.635	0.068
-531.091	-200.000	-0.037	-0.503
-530.077	-200.000	-0.003	-0.211
-529.062	-200.000	0.097	-0.548
-528.048	-135.268	0.640	0.077
-527.033	253.466	0.443	0.756
-526.018	800.000	-0.185	-0.741
-525.004	-171.417	0.707	-0.024
-523.989	291.148	-0.135	0.246
-522.975	-85.647	0.283	-0.088
-521.960	-69.818	-0.341	-0.130
-520.945	56.008	0.384	-0.372
-519.931	-170.372	-0.199	0.007
-518.916	66.951	-0.438	0.446
-517.902	38.313	0.640	-0.570
-516.887	-43.398	0.334	-0.169
-515.872	126.719	0.275	0.348
-514.858	800.000	-0.032	0.116
-513.843	47.599	0.289	0.269
-512.829	15.916	-0.397	0.312
-511.814	-91.707	-0.581	0.165
-510.799	-58.389	-0.178	-0.077
-509.785	119.646	-0.095	-0.117
-508.770	800.000	0.295	0.860
-507.756	-6.204	-0.595	0.406
-506.741	107.059	0.558	0.662
-505.726	48.649	-0.386	-0.362
-504.712	-21.262	0.265	0.162
-503.697	-200.000	0.061	-0.284
-502.683	800.000	-0.128	0.510
-501.668	30.292	0.590	0.503
-500.653	800.000	-0.031	0.089
-499.639	800.000	-0.183	0.617
-498.624	-2.670	-0.669	0.468
-497.610	109.302	-0.304	-0.364
-496.595	4.740	-0.482	-0.354
-495.581	-140.467	-0.477	0.050
-494.566	-99.585	-1.203	-0.302
-493.551	-108.563	-0.330	-0.071
-492.537	-200.000	-0.089	-0.426
-491.522	-59.523	0.095	0.041
-490.508	409.420	0.134	-0.283
-489.493	-112.477	-0.163	-0.032
-488.478	1.539	0.271	-0.194
-487.464	-93.720	-0.491	0.135
-486.449	50.177	-0.451	-0.425
-485.435	-13.560	-0.417	0.270
-484.420	-19.606	-0.193	-0.119
-483.405	75.339	0.353	-0.372
-482.391	-200.000	0.020	0.371
-481.376	-130.805	-0.491	0.066
-480.362	162.750	-0.250	0.350
-479.347	218.284	-0.529	0.843
-478.332	-200.000	0.043	-0.557
-477.318	-130.492	0.786	0.106
-476.303	-4.946	-0.273	-0.187
-475.289	-57.591	0.172	-0.075
-474.274	-200.000	-0.011	-0.058
-473.259	30.918	0.920	0.786
-472.245	800.000	0.026	-0.097
-471.230	-103.770	0.990	0.231
-470.216	-39.780	-0.526	0.274
-469.201	89.556	-0.402	-0.447
-468.186	18.018	0.371	0.295
-467.172	-80.217	0.783	-0.261
-466.157	142.757	0.529	-0.701
-465.143	-34.795	0.284	0.155
-464.128	-66.136	-0.565	-0.225
-463.113	263.556	0.189	0.327
-462.099	12.847	-0.441	-0.340
-461.084	356.781	0.241	-0.479
-460.070	800.000	-0.276	-1.199
-459.055	-89.944	-0.667	-0.194
-458.040	171.163	0.526	-0.752
-457.026	-200.000	-0.113	0.635
-456.011	-52.647	0.242	0.112
-454.997	-200.000	-0.050	-0.759
-453.982	305.107	-0.435	-0.806
-452.968	-93.514	0.401	0.110
-451.953	36.904	0.437	-0.385
-450.938	-82.409	-0.226	0.073
-449.924	458.781	-0.176	0.391
-448.909	-47.084	0.288	-0.140
-447.895	800.000	-0.136	-0.532
-446.880	-123.391	0.374	-0.059
-445.865	-25.355	-0.082	-0.048
-444.851	-162.281	-0.693	-0.034
-443.836	51.606	-0.721	-0.684
-442.822	-200.000	-0.060	-1.239
-441.807	-73.931	-0.704	0.255
-440.792	164.689	-0.230	0.324
-439.778	30.651	-0.320	-0.272
-438.763	73.512	0.292	-0.305
-437.749	431.076	-0.079	0.170
-436.734	153.947	0.204	-0.278
-435.719	13.882	0.466	-0.361
-434.705	-65.631	-1.068	0.427
-433.690	-80.884	-0.320	-0.106
-432.676	-132.744	-0.464	-0.059
-431.661	10.316	0.290	-0.220
-430.646	-200.000	0.066	0.666
-429.632	39.758	-0.076	-0.068
-428.617	-200.000	0.096	-0.663
-427.603	800.000	-0.129	-0.545
-426.588	-64.268	-0.591	-0.240
-425.573	102.007	0.399	-0.464
-424.559	60.875	0.083	-0.082
-423.544	77.524	-0.063	-0.067
-422.530	-49.576	-0.351	-0.166
-421.515	-114.211	0.403	-0.077
-420.500	170.158	0.138	0.197
-419.486	-13.733	-0.453	0.292
-418.471	-200.000	0.007	0.439
-417.457	-30.749	-0.981	-0.552
-416.442	-106.192	0.704	-0.157
-415.428	-93.435	-0.206	0.057
-414.413	-200.000	0.049	0.263
-413.398	-162.698	0.350	-0.017
-412.384	-55.205	0.465	0.208
-411.369	454.584	-0.309	-0.681
-410.355	-200.000	-0.054	-1.151
-409.340	375.928	-0.330	-0.670
-408.325	324.704	0.466	0.886
-407.311	147.294	-0.445	-0.596
-406.296	-200.000	-0.061	0.331
-405.282	496.040	0.177	0.406
-404.267	-139.254	1.044	-0.112
-403.252	267.720	-0.113	-0.196
-402.238	247.530	-0.531	0.893
-401.223	-200.000	-0.144	-0.703
-400.209	800.000	-0.385	-1.131
-399.194	340.307	-0.316	-0.614
-398.179	459.859	0.110	-0.245
-397.165	-26.615	0.850	0.495
-396.150	-61.507	0.230	-0.096
-395.136	-5.138	0.312	0.214
-394.121	-30.867	-0.183	0.103
-393.106	492.907	-0.180	0.411
-392.092	291.466	0.158	-0.286
-391.077	-200.000	-0.027	-0.315
-390.063	-113.700	-0.552	-0.107
-389.048	273.751	-0.223	0.392
-388.033	344.409	-0.210	-0.410
-387.019	-200.000	-0.009	-0.243
-386.004	-159.486	-0.270	-0.015
-384.990	106.009	0.020	-0.024
-383.975	49.799	-0.593	-0.556
-382.960	-38.643	0.600	-0.315
-381.946	46.955	0.851	0.787
-380.931	-164.523	-0.152	0.007
-379.917	297.667	-0.216	-0.394
-378.902	800.000	0.063	-0.188
-377.888	301.223	0.302	0.554
-376.873	156.860	0.568	0.780
-375.858	-200.000	0.064	0.315
-374.844	-37.195	0.905	-0.481
-373.829	-200.000	0.041	0.299
-372.815	-200.000	0.013	0.148
-371.800	144.704	0.431	0.572
-370.785	205.160	-0.179	0.276
-369.771	55.509	0.275	0.264
-368.756	70.556	0.913	0.938
-367.742	42.878	-0.314	0.284
-366.727	-102.665	-0.859	-0.203
-365.712	-99.904	-0.782	-0.194
-364.698	-200.000	-0.112	0.542
-363.683	167.674	-0.502	-0.709
-362.669	-200.000	0.157	0.689
-361.654	505.289	-0.275	0.633
-360.639	116.254	0.170	0.207
-359.625	-200.000	0.119	-0.536
-358.610	63.139	0.531	0.529
-357.596	-200.000	0.196	-0.910
-356.581	-200.000	0.139	1.326
-355.566	170.338	0.131	-0.186
-354.552	1.356	1.025	-0.732
-353.537	-54.662	-0.251	-0.113
-352.523	-40.171	0.365	-0.189
-351.508	-200.000	0.015	0.542
-350.493	-140.779	-0.588	0.060
-349.479	-17.325	0.258	-0.161
-348.464	-113.130	0.621	0.122
-347.450	-24.009	-0.893	-0.530
-346.435	-69.536	0.693	-0.263
-345.420	-59.340	-0.189	-0.081
-344.406	-200.000	0.017	-0.079
-343.391	-115.987	0.111	0.021
-342.377	800.000	-0.154	0.608
-341.362	155.762	0.279	0.382
-340.348	-131.562	0.471	-0.062
-339.333	-200.000	-0.051	0.613
-338.318	257.699	0.511	0.872
-337.304	-200.000	0.053	-0.344
-336.289	800.000	-0.131	-0.389
-335.275	-36.294	-0.157	0.084
-334.260	-38.986	-0.074	0.039
-333.245	-52.512	0.776	-0.356
-332.231	-106.444	-0.468	0.104
-331.216	-83.513	-0.784	0.249
-330.202	-177.154	0.618	-0.015
-329.187	302.347	-0.304	0.558
-328.172	-200.000	-0.027	0.152
-327.158	800.000	-0.210	-0.618
-326.143	228.199	0.349	-0.564
-325.129	-200.000	-0.002	-0.329
-324.114	26.212	0.089	0.074
-323.099	599.149	-0.104	-0.255
-322.085	-11.442	0.047	-0.031
-321.070	-136.047	-0.271	0.032
-320.056	-200.000	0.052	0.361
-319.041	-120.273	0.261	0.044
-318.026	-200.000	-0.220	1.162
-317.012	800.000	-0.041	-0.151
-315.997	-123.888	-1.455	0.228
-314.983	-44.977	0.429	-0.212
-313.968	78.684	-0.614	0.651
-312.953	-200.000	-0.148	-0.678
-311.939	800.000	-0.132	0.395
-310.924	-55.462	-0.116	-0.051
-309.910	233.031	-0.155	-0.253
-308.895	-107.739	-0.620	0.134
-307.880	-104.203	0.518	0.119
-306.866	-200.000	0.131	-0.795
-305.851	-200.000	-0.039	-0.719
-304.837	241.473	-0.136	0.224
-303.822	-127.380	0.693	-0.100
-302.807	-200.000	-0.030	-0.136
-301.793	657.277	0.198	0.505
-300.778	203.068	-0.508	-0.778
-299.764	-72.872	0.430	-0.157
-298.749	-15.684	-0.442	-0.279
-297.735	-200.000	-0.091	-0.479
-296.720	800.000	-0.120	0.380
-295.705	-129.511	0.342	0.047
-294.691	164.491	-0.410	-0.573
-293.676	-199.845	-0.726	0.004
-292.662	328.249	0.159	0.303
-291.647	-12.627	-0.470	0.304
-290.632	800.000	-0.060	0.182
-289.618	38.447	-0.808	0.713
-288.603	10.025	-0.361	0.272
-287.589	-154.668	-0.569	-0.037
-286.574	35.234	0.264	-0.229
-285.559	186.671	0.334	0.493
-284.545	-200.000	-0.031	-0.558
-283.530	149.547	-0.737	-0.988
-282.516	-31.493	-0.656	0.365
-281.501	-41.316	-0.296	-0.151
-280.486	57.527	-0.414	-0.401
-279.472	-200.000	-0.110	-0.556
-278.457	42.742	0.078	-0.070
-277.443	18.107	-0.670	0.529
-276.428	800.000	-0.017	-0.048
-275.413	-200.000	0.019	0.116
-274.399	800.000	0.118	-0.363
-273.384	-200.000	-0.051	-0.371
-272.370	-200.000	-0.062	-0.806
-271.355	59.107	0.791	0.771
-270.340	-101.970	-0.401	0.096
-269.326	-24.480	-0.682	-0.402
-268.311	-200.000	0.114	0.543
-267.297	120.460	0.372	-0.457
-266.282	129.899	0.338	-0.428
-265.267	-173.808	0.662	-0.019
-264.253	-61.776	-0.465	-0.193
-263.238	86.913	0.234	-0.255
-262.224	15.266	1.041	-0.808
-261.209	-176.898	-0.709	0.018
-260.195	-159.211	-1.089	-0.061
-259.180	800.000	0.132	0.424
-258.165	-79.341	-0.226	-0.076
-257.151	-35.935	-0.644	-0.345
-256.136	-109.171	0.544	0.114
-255.122	-26.439	0.039	-0.022
-254.107	800.000	-0.138	-0.433
-253.092	-21.621	0.120	-0.072
-252.078	-94.637	0.784	0.211
-251.063	49.075	-0.231	-0.214
-250.049	-200.000	0.026	-0.873
-249.034	-166.465	0.128	0.005
-248.019	6.119	-0.553	-0.405
-247.005	42.388	-0.768	0.690
-245.990	-1.547	-0.224	-0.156
-244.976	-38.424	-0.429	-0.224
-243.961	186.433	0.324	-0.477
-242.946	137.905	0.203	-0.263
-241.932	78.998	-0.516	0.547
-240.917	-200.000	0.130	0.616
-239.903	-6.632	0.585	0.394
-238.888	-200.000	-0.128	-1.043
-237.873	-67.013	0.748	-0.292
-236.859	-169.224	0.776	-0.028
-235.844	-133.156	-0.235	-0.029
-234.830	320.153	-0.230	-0.432
-233.815	123.213	0.490	-0.607
-232.800	419.437	0.206	-0.437
-231.786	129.229	-0.252	0.317
-230.771	-200.000	0.035	0.232
-229.757	194.374	-0.337	0.505
-228.742	-60.249	0.689	0.290
-227.727	800.000	0.013	0.053
-226.713	800.000	0.126	-0.463
-225.698	-57.976	0.627	-0.270
-224.684	800.000	-0.118	0.344
-223.669	283.650	0.058	-0.103
-222.655	71.661	0.179	0.184
-221.640	-79.160	-0.360	-0.121
-220.625	-200.000	0.100	0.575
-219.611	-185.595	-0.820	-0.012
-218.596	-121.111	0.634	0.105
-217.582	-60.188	0.357	0.150
-216.567	32.719	-0.418	0.357
-215.552	-125.750	-0.461	0.069
-214.538	-200.000	0.014	-0.536
-213.523	69.475	-0.495	0.504
-212.509	67.973	-0.331	0.335
-211.494	-129.690	0.495	-0.067
-210.479	-171.697	0.402	-0.013
-209.465	-192.903	0.468	0.004
-208.450	800.000	0.112	0.322
-207.436	-200.000	-0.025	0.930
-206.421	-77.472	0.254	-0.087
-205.406	-200.000	-0.106	0.613
-204.392	-200.000	-0.030	-0.362
-203.377	-38.304	-0.938	-0.491
-202.363	-200.000	0.078	0.531
-201.348	-92.444	-0.733	-0.204
-200.333	-200.000	-0.062	0.675
-199.319	-22.777	0.926	-0.552
-198.304	-125.548	0.835	0.125
-197.290	328.285	0.336	0.637
-196.275	-115.204	-0.220	0.041
-195.260	73.981	0.407	0.422
-194.246	-12.990	-0.627	-0.402
-193.231	181.138	0.322	-0.468
-192.217	800.000	-0.326	1.039
-191.202	-86.513	0.559	-0.169
-190.187	800.000	-0.360	1.000
-189.173	-54.812	-0.441	0.197
-188.158	33.459	0.298	0.255
-187.144	23.616	0.516	-0.419
-186.129	-200.000	-0.030	0.396
-185.114	35.607	-0.104	0.090
-184.100	-110.633	-0.448	-0.091
-183.085	800.000	0.167	0.623
-182.071	-200.000	0.012	-0.287
-181.056	49.651	0.296	0.275
-180.042	35.485	-0.336	0.291
-179.027	-200.000	0.015	-0.135
-178.012	-114.939	0.558	-0.105
-176.998	221.833	-0.373	0.591
-175.983	800.000	0.062	-0.194
-174.969	105.100	0.235	-0.274
-173.954	-200.000	0.009	0.459
-172.939	282.863	0.358	0.634
-171.925	466.797	0.238	-0.525
-170.910	248.243	-0.431	0.719
-169.896	-101.125	0.560	0.135
-168.881	-88.328	0.162	0.048
-167.866	-131.672	-0.323	-0.042
-166.852	-110.490	0.596	0.122
-165.837	14.953	-0.408	-0.315
-164.823	348.946	-0.226	-0.439
-163.808	113.329	0.336	-0.402
-162.793	-183.915	0.669	0.011
-161.779	-106.604	0.135	-0.030
-160.764	42.766	-0.256	0.230
-159.750	36.059	-0.633	0.549
-158.735	-177.069	0.411	-0.010
-157.720	-81.639	0.351	0.114
-156.706	202.180	0.134	-0.203
-155.691	800.000	0.127	0.513
-154.677	410.467	-0.354	0.740
-153.662	-200.000	-0.009	-0.146
-152.647	-60.355	0.781	0.327
-151.633	-73.254	0.612	0.221
-150.618	232.698	-0.381	-0.617
-149.604	-132.306	-1.235	0.157
-148.589	279.389	-0.184	-0.323
-147.574	-178.154	0.675	0.016
-146.560	-200.000	0.046	0.860
-145.545	15.412	-0.829	0.641
-144.531	-152.880	0.958	-0.067
-143.516	-30.739	0.351	-0.195
-142.502	-111.673	0.342	-0.068
-141.487	137.815	0.216	-0.279
-140.472	634.758	0.080	-0.201
-139.458	-200.000	0.079	-0.416
-138.443	-21.017	-0.318	0.192
-137.429	197.946	0.306	0.460
-136.414	186.601	-0.438	0.642
-135.399	-67.325	-0.336	0.130
-134.385	-17.857	0.449	-0.277
-133.370	-88.546	-0.247	0.072
-132.356	607.098	0.280	-0.687
-131.341	-22.212	0.962	0.574
-130.326	-9.346	0.084	0.055
-129.312	-38.040	-0.497	0.260
-128.297	800.000	-0.170	-0.471
-127.283	-19.128	-0.552	-0.337
-126.268	-191.739	-0.883	-0.009
-125.253	149.251	-0.084	-0.113
-124.239	800.000	-0.216	-0.863
-123.224	-37.388	0.457	-0.240
-122.210	-122.508	0.719	-0.115
