DTS Sentinel unit serial number:	SN413079Multiplexer serial number:	ORYXHardware model number:	OX4-SRSoftware version number:	ORYX F/W v4.00 Oryx Data Collector v3.7.2.0data status	okinstallation	princeton_trtdifferential loss correction	single-endedforward channel	channel 2reverse channel	N/Adate	2019/09/15time	04:43:35forward acquisition time	60.00reverse acquisition time	0.00gamma	496.2192k internal	0.2326k external	0.2326temperature offset calibration	1.0033default loss term (dB/km)	0.3790temperature slope calibration	1.0000multiplexer offset coefficient	1.0000multiplexer slope coefficient	1.0000fibre end	0.00T internal ref (°C)	30.80T ext. ref 1 (°C)	4.73T ext. ref 2 (°C)	25.35length (m)	temperature (°C)	Stokes	anti-Stokes-747.200	44.227	-0.119	0.110
-746.185	66.470	0.198	0.204
-745.171	-200.000	-0.029	0.283
-744.156	-86.254	-0.174	0.054
-743.142	-52.404	0.051	0.024
-742.127	-140.453	0.533	0.056
-741.112	9.467	-0.248	-0.189
-740.098	-44.938	0.293	0.147
-739.083	69.949	-0.277	0.288
-738.069	-120.697	0.216	0.037
-737.054	-145.870	-0.396	0.035
-736.039	-93.762	-0.164	-0.045
-735.025	127.258	-0.047	0.060
-734.010	25.977	0.059	-0.050
-732.996	-102.737	-0.098	0.024
-731.981	-200.000	0.006	0.121
-730.966	-31.373	-0.175	-0.099
-729.952	498.091	-0.102	-0.237
-728.937	-200.000	-0.057	-0.258
-727.923	-145.288	0.083	-0.008
-726.908	302.051	-0.087	-0.162
-725.894	113.425	-0.237	0.290
-724.879	-91.198	-0.380	-0.110
-723.864	433.833	-0.162	-0.355
-722.850	-107.315	-0.099	0.022
-721.835	-200.000	-0.039	-0.428
-720.821	21.118	-0.065	-0.053
-719.806	-130.587	0.197	-0.027
-718.791	48.375	0.172	0.162
-717.777	-36.637	0.258	0.140
-716.762	-1.334	0.157	-0.112
-715.748	-76.228	-0.263	-0.093
-714.733	-56.528	-0.364	-0.162
-713.718	-2.972	0.226	-0.159
-712.704	-32.871	0.241	-0.135
-711.689	449.709	-0.099	-0.221
-710.675	-151.732	-0.154	-0.011
-709.660	-200.000	0.054	-0.285
-708.645	59.965	-0.077	0.077
-707.631	-200.000	-0.008	0.338
-706.616	-7.594	-0.392	-0.267
-705.602	-200.000	0.076	0.386
-704.587	350.753	-0.126	-0.252
-703.572	-70.933	-0.081	-0.031
-702.558	800.000	0.034	-0.110
-701.543	-18.808	-0.338	-0.212
-700.529	18.768	-0.115	-0.093
-699.514	-10.165	-0.274	0.183
-698.499	-27.433	-0.158	-0.092
-697.485	143.821	0.254	-0.341
-696.470	426.656	0.058	-0.126
-695.456	0.071	-0.126	-0.091
-694.441	19.999	-0.141	-0.115
-693.426	39.293	-0.291	-0.262
-692.412	331.250	-0.067	-0.130
-691.397	-34.956	0.329	-0.180
-690.383	-77.136	-0.221	-0.077
-689.368	88.383	-0.028	-0.031
-688.354	337.720	-0.094	0.184
-687.339	147.853	0.022	-0.030
-686.324	-200.000	-0.009	-0.129
-685.310	100.219	0.230	0.269
-684.295	122.256	-0.202	0.254
-683.281	800.000	-0.047	0.174
-682.266	-4.974	-0.272	0.188
-681.251	-34.659	0.031	-0.017
-680.237	-95.132	-0.076	-0.021
-679.222	-114.681	0.063	0.012
-678.208	-200.000	-0.011	0.386
-677.193	-45.517	-0.009	-0.004
-676.178	428.196	0.084	-0.183
-675.164	-110.808	0.025	0.005
-674.149	800.000	-0.040	0.156
-673.135	55.958	0.252	0.246
-672.120	517.029	-0.073	0.171
-671.105	-200.000	0.003	-0.108
-670.091	-105.951	0.356	-0.081
-669.076	568.283	0.125	-0.306
-668.062	-113.377	-0.077	-0.015
-667.047	-200.000	-0.020	0.221
-666.032	-200.000	-0.041	0.321
-665.018	517.824	0.039	-0.092
-664.003	-95.481	-0.125	-0.034
-662.989	-9.716	0.255	0.171
-661.974	800.000	-0.046	-0.195
-660.959	-46.943	-0.179	-0.088
-659.945	234.098	-0.112	-0.186
-658.930	42.459	0.164	-0.150
-657.916	25.324	0.313	-0.261
-656.901	-200.000	-0.011	-0.098
-655.886	-127.897	0.140	0.020
-654.872	-105.526	0.065	-0.015
-653.857	-24.110	-0.250	0.150
-652.843	-1.437	0.170	0.121
-651.828	652.929	-0.131	0.336
-650.814	196.840	-0.189	0.290
-649.799	-200.000	0.012	-0.160
-648.784	-107.283	-0.218	0.048
-647.770	406.995	0.034	-0.072
-646.755	254.395	-0.055	-0.095
-645.741	-146.975	0.124	0.011
-644.726	-148.033	-0.120	-0.010
-643.711	800.000	-0.037	-0.142
-642.697	-177.091	-0.179	0.004
-641.682	-200.000	-0.009	0.171
-640.668	-200.000	-0.015	-0.223
-639.653	-40.473	0.114	0.059
-638.638	-72.243	0.110	0.041
-637.624	31.480	-0.092	0.079
-636.609	-161.326	-0.096	-0.005
-635.595	-129.013	-0.196	-0.028
-634.580	517.017	0.036	0.085
-633.565	800.000	-0.029	0.112
-632.551	170.483	0.146	-0.211
-631.536	-21.425	0.138	-0.085
-630.522	-200.000	0.029	-0.296
-629.507	-169.123	-0.418	-0.016
-628.492	205.563	-0.161	0.251
-627.478	-105.937	0.126	0.029
-626.463	-200.000	0.011	0.096
-625.449	735.823	0.038	-0.102
-624.434	-200.000	0.057	0.279
-623.419	97.966	0.209	0.241
-622.405	-138.995	0.322	0.035
-621.390	-85.078	-0.052	-0.016
-620.376	800.000	0.017	-0.056
-619.361	290.381	-0.063	0.115
-618.346	151.374	0.052	-0.070
-617.332	-19.783	-0.278	-0.173
-616.317	269.363	-0.224	-0.394
-615.303	-135.848	0.211	0.025
-614.288	-108.118	-0.172	-0.037
-613.273	-153.994	-0.137	0.009
-612.259	61.419	0.110	-0.110
-611.244	-76.955	0.420	-0.147
-610.230	8.982	0.061	0.046
-609.215	131.937	-0.054	-0.069
-608.201	55.075	0.107	0.104
-607.186	-190.287	-0.577	0.006
-606.171	97.777	-0.090	0.103
-605.157	-31.702	0.092	0.052
-604.142	489.002	-0.051	0.116
-603.128	121.931	-0.198	0.248
-602.113	35.274	-0.186	0.164
-601.098	-36.047	0.152	0.082
-600.084	-200.000	-0.020	0.097
-599.069	-200.000	0.026	-0.174
-598.055	592.126	-0.042	0.105
-597.040	491.476	-0.067	-0.153
-596.025	16.522	0.178	0.141
-595.011	-200.000	0.014	0.135
-593.996	348.766	-0.137	0.270
-592.982	-53.067	0.139	-0.064
-591.967	576.521	-0.112	0.274
-590.952	14.962	-0.139	-0.109
-589.938	52.102	-0.297	0.284
-588.923	94.334	0.151	-0.171
-587.909	-63.369	-0.043	-0.018
-586.894	-116.210	0.208	0.039
-585.879	93.250	-0.146	0.166
-584.865	146.098	0.279	0.376
-583.850	-68.659	-0.174	-0.068
-582.836	-81.831	0.245	-0.081
-581.821	42.124	-0.260	-0.237
-580.806	28.269	-0.206	0.175
-579.792	628.820	0.073	0.185
-578.777	24.441	-0.174	-0.144
-577.763	-49.589	0.475	0.227
-576.748	-46.880	-0.247	0.121
-575.733	503.663	0.083	0.192
-574.719	-50.249	-0.114	-0.054
-573.704	-130.964	0.335	0.045
-572.690	94.423	-0.122	0.139
-571.675	-141.047	0.146	0.015
-570.661	-28.320	-0.162	-0.093
-569.646	-149.193	-0.260	0.021
-568.631	-131.876	-0.388	-0.051
-567.617	312.097	0.126	-0.237
-566.602	-200.000	0.002	0.034
-565.588	60.076	0.217	-0.215
-564.573	-200.000	-0.021	0.140
-563.558	-45.704	0.199	0.099
-562.544	83.193	-0.137	0.149
-561.529	-200.000	0.026	-0.226
-560.515	757.687	-0.163	-0.442
-559.500	83.026	-0.063	0.068
-558.485	-19.735	-0.234	-0.145
-557.471	800.000	0.037	-0.113
-556.456	-200.000	-0.036	-0.183
-555.442	85.189	0.220	0.241
-554.427	-93.625	-0.337	-0.093
-553.412	193.670	-0.110	-0.166
-552.398	5.336	-0.357	-0.263
-551.383	-120.880	-0.298	0.050
-550.369	4.744	-0.092	0.067
-549.354	-55.646	-0.211	0.095
-548.339	-118.942	0.351	-0.062
-547.325	800.000	-0.121	-0.335
-546.310	-53.509	-0.049	0.022
-545.296	631.460	-0.100	0.254
-544.281	263.272	-0.131	-0.228
-543.266	-200.000	0.081	0.395
-542.252	-140.931	0.082	-0.008
-541.237	-4.963	0.235	-0.162
-540.223	-200.000	-0.030	-0.189
-539.208	-200.000	0.025	0.121
-538.193	66.842	0.114	0.116
-537.179	-50.819	-0.192	-0.090
-536.164	-200.000	-0.009	-0.252
-535.150	15.271	0.135	-0.106
-534.135	-44.180	-0.129	0.065
-533.121	-200.000	0.027	-0.354
-532.106	-200.000	-0.074	0.338
-531.091	-97.448	-0.191	-0.050
-530.077	-88.730	-0.445	-0.132
-529.062	-36.053	-0.168	-0.091
-528.048	27.623	-0.247	-0.208
-527.033	455.322	0.106	-0.234
-526.018	39.278	-0.285	0.255
-525.004	-200.000	0.032	0.430
-523.989	-51.703	0.189	-0.088
-522.975	-6.028	-0.183	-0.125
-521.960	800.000	-0.023	-0.097
-520.945	-97.836	-0.120	-0.031
-519.931	278.808	-0.095	0.169
-518.916	800.000	0.065	-0.220
-517.902	71.821	0.189	0.196
-516.887	-69.535	0.188	-0.072
-515.872	-69.979	-0.430	-0.164
-514.858	800.000	0.066	-0.213
-513.843	-126.217	-0.182	-0.027
-512.829	-200.000	-0.001	-0.088
-511.814	-25.706	0.207	0.122
-510.799	800.000	0.076	0.221
-509.785	800.000	-0.034	-0.112
-508.770	-105.799	-0.180	0.041
-507.756	14.201	0.230	-0.179
-506.741	-50.376	0.138	-0.065
-505.726	126.468	-0.240	0.303
-504.712	-126.905	0.345	0.051
-503.697	-66.731	0.220	-0.087
-502.683	-200.000	0.007	-0.189
-501.668	-186.049	0.264	-0.004
-500.653	222.637	-0.091	-0.146
-499.639	-150.604	0.457	-0.035
-498.624	-49.730	0.088	0.042
-497.610	-200.000	-0.045	0.255
-496.595	565.289	0.065	-0.157
-495.581	-73.150	-0.260	0.095
-494.566	-161.873	-0.341	0.017
-493.551	356.918	-0.047	-0.093
-492.537	-144.909	0.091	0.008
-491.522	-200.000	-0.004	0.029
-490.508	107.009	0.194	0.230
-489.493	-200.000	0.001	-0.191
-488.478	585.258	0.025	-0.062
-487.464	109.007	-0.131	0.156
-486.449	10.822	-0.082	-0.062
-485.435	-180.388	-0.065	-0.001
-484.420	-5.733	-0.059	0.040
-483.405	18.385	0.317	-0.253
-482.391	-78.284	0.328	-0.113
-481.376	800.000	-0.038	0.108
-480.362	131.790	-0.220	-0.282
-479.347	-72.830	0.115	0.042
-478.332	-48.077	0.050	0.024
-477.318	283.336	-0.092	-0.164
-476.303	-200.000	0.043	-0.261
-475.289	-200.000	-0.033	-0.371
-474.274	-135.765	0.125	-0.015
-473.259	-200.000	-0.010	0.088
-472.245	800.000	0.104	0.338
-471.230	59.995	0.271	0.267
-470.216	-33.086	-0.293	-0.162
-469.201	-35.088	0.206	-0.112
-468.186	-33.732	0.223	-0.123
-467.172	800.000	0.085	-0.280
-466.157	-85.567	0.181	-0.056
-465.143	-18.838	-0.084	0.052
-464.128	123.679	0.286	0.358
-463.113	-200.000	0.040	0.475
-462.099	-82.277	0.128	-0.042
-461.084	-68.941	0.220	0.085
-460.070	-200.000	-0.012	-0.068
-459.055	442.198	-0.143	-0.312
-458.040	-125.160	-0.291	-0.044
-457.026	-200.000	-0.022	0.100
-456.011	158.319	-0.222	-0.307
-454.997	8.508	-0.243	-0.183
-453.982	-200.000	-0.008	0.082
-452.968	-87.491	0.198	-0.060
-451.953	53.394	0.155	0.149
-450.938	-116.055	0.256	0.047
-449.924	-73.983	0.249	-0.090
-448.909	-74.611	-0.343	0.123
-447.895	252.019	-0.175	0.298
-446.880	60.020	0.234	-0.230
-445.865	-111.207	0.143	0.029
-444.851	-148.470	-0.165	0.013
-443.836	77.681	0.185	0.196
-442.822	-200.000	-0.012	0.075
-441.807	365.305	0.126	0.252
-440.792	-74.759	0.449	-0.161
-439.778	-53.453	-0.070	0.032
-438.763	67.430	-0.126	-0.128
-437.749	257.676	0.069	0.118
-436.734	22.169	-0.182	-0.148
-435.719	-32.380	0.178	0.099
-434.705	-156.410	0.302	0.019
-433.690	-53.890	0.136	0.062
-432.676	-200.000	0.040	0.269
-431.661	79.235	0.044	0.046
-430.646	421.728	-0.084	-0.180
-429.632	-85.494	-0.578	0.179
-428.617	37.624	0.288	0.254
-427.603	800.000	0.017	0.074
-426.588	800.000	-0.057	-0.217
-425.573	-3.689	0.188	0.130
-424.559	-34.168	-0.278	0.152
-423.544	-112.955	0.213	-0.042
-422.530	-0.129	0.254	-0.180
-421.515	-153.930	-0.228	0.015
-420.500	3.197	-0.097	0.070
-419.486	191.728	-0.086	0.129
-418.471	144.372	0.101	-0.134
-417.457	-48.759	0.077	-0.037
-416.442	-200.000	-0.070	-0.308
-415.428	800.000	-0.073	0.291
-414.413	-200.000	-0.013	0.249
-413.398	17.771	-0.110	-0.087
-412.384	419.728	0.132	0.281
-411.369	524.332	0.153	0.357
-410.355	-33.537	0.023	0.012
-409.340	800.000	-0.071	-0.210
-408.325	115.599	0.067	-0.081
-407.311	-200.000	-0.005	-0.144
-406.296	25.987	0.104	-0.087
-405.282	80.062	-0.063	0.067
-404.267	-17.546	-0.532	0.333
-403.252	77.237	-0.210	-0.222
-402.238	-80.032	-0.243	-0.081
-401.223	-80.436	0.133	-0.044
-400.209	-62.421	0.253	-0.105
-399.194	-200.000	-0.002	-0.156
-398.179	445.847	-0.061	0.134
-397.165	800.000	0.100	0.320
-396.150	-24.032	0.139	0.082
-395.136	800.000	-0.043	-0.180
-394.121	-200.000	0.021	0.242
-393.106	208.831	-0.067	-0.105
-392.092	-135.322	-0.123	0.015
-391.077	-97.620	-0.172	-0.044
-390.063	48.857	-0.057	0.053
-389.048	197.659	0.132	-0.201
-388.033	103.659	-0.069	-0.081
-387.019	375.272	-0.060	0.121
-386.004	-200.000	0.010	-0.265
-384.990	-200.000	-0.020	0.210
-383.975	162.191	-0.101	0.141
-382.960	74.994	-0.056	-0.059
-381.946	17.254	0.187	-0.147
-380.931	167.965	-0.271	0.384
-379.917	-102.035	-0.145	-0.035
-378.902	-84.683	-0.131	0.041
-377.888	-47.055	-0.213	-0.103
-376.873	-13.486	0.260	-0.167
-375.858	-14.395	0.299	-0.192
-374.844	5.077	-0.055	0.040
-373.829	127.334	-0.105	-0.132
-372.815	50.423	-0.146	0.137
-371.800	-29.773	0.147	0.084
-370.785	-158.548	0.157	-0.009
-369.771	-153.957	-0.396	0.027
-368.756	-137.125	0.216	0.025
-367.742	30.499	-0.195	0.166
-366.727	-167.129	0.124	-0.005
-365.712	-180.653	-0.094	0.002
-364.698	117.198	0.134	-0.163
-363.683	-64.350	0.253	0.102
-362.669	-28.399	0.119	0.068
-361.654	-81.766	-0.390	-0.127
-360.639	-31.247	0.184	0.103
-359.625	88.102	-0.072	-0.079
-358.610	-200.000	0.012	-0.203
-357.596	-15.286	-0.116	-0.074
-356.581	800.000	-0.093	0.260
-355.566	-105.934	0.541	-0.121
-354.552	-200.000	0.054	0.239
-353.537	-69.646	0.407	-0.155
-352.523	269.726	-0.029	0.051
-351.508	-86.152	0.162	-0.050
-350.493	-41.573	0.140	-0.071
-349.479	136.110	0.147	-0.191
-348.464	800.000	-0.015	-0.046
-347.450	-99.320	0.130	-0.033
-346.435	105.918	-0.224	-0.263
-345.420	-200.000	0.058	0.334
-344.406	-14.728	-0.140	-0.090
-343.391	166.753	0.219	-0.309
-342.377	10.083	0.079	-0.060
-341.362	346.099	0.156	0.304
-340.348	-200.000	-0.052	-0.457
-339.333	-200.000	-0.001	0.109
-338.318	3.961	-0.090	-0.066
-337.304	107.606	-0.017	0.020
-336.289	-91.658	-0.313	-0.088
-335.275	-74.863	-0.431	-0.154
-334.260	-200.000	-0.005	0.129
-333.245	33.922	-0.089	0.077
-332.231	80.607	-0.184	-0.196
-331.216	800.000	-0.123	0.357
-330.202	-71.892	-0.072	0.026
-329.187	-200.000	-0.187	0.000
-328.172	-101.622	0.144	0.035
-327.158	-156.257	-0.069	0.004
-326.143	33.260	0.066	0.057
-325.129	24.672	0.087	0.071
-324.114	800.000	0.037	0.139
-323.099	-52.174	-0.178	-0.082
-322.085	229.429	0.070	-0.114
-321.070	385.115	-0.075	0.153
-320.056	-96.190	0.231	-0.061
-319.041	-78.321	0.224	0.076
-318.026	-17.727	0.129	0.080
-317.012	-200.000	-0.004	-0.349
-315.997	56.693	-0.319	0.308
-314.983	-104.183	-0.160	0.037
-313.968	-134.577	-0.090	0.011
-312.953	-200.000	-0.060	-0.420
-311.939	44.503	0.119	0.108
-310.924	506.657	0.097	0.223
-309.910	-136.824	0.322	-0.037
-308.895	-40.226	-0.238	-0.123
-307.880	674.655	-0.088	0.226
-306.866	433.397	0.167	-0.360
-305.851	-200.000	-0.014	-0.290
-304.837	-122.014	0.125	-0.020
-303.822	83.283	0.146	-0.157
-302.807	110.926	0.168	-0.201
-301.793	298.376	-0.112	0.205
-300.778	-79.064	0.308	0.104
-299.764	579.092	-0.099	-0.241
-298.749	-200.000	0.007	-0.208
-297.735	-69.559	0.262	0.099
-296.720	-3.863	-0.109	0.075
-295.705	238.701	0.151	-0.249
-294.691	283.505	0.131	0.234
-293.676	-103.345	-0.088	-0.021
-292.662	222.456	0.090	0.143
-291.647	800.000	-0.065	-0.200
-290.632	424.208	-0.139	-0.297
-289.618	175.605	-0.153	0.220
-288.603	-49.644	0.190	-0.090
-287.589	67.953	-0.161	0.163
-286.574	-200.000	0.020	0.312
-285.559	270.574	0.023	0.041
-284.545	800.000	-0.120	0.389
-283.530	271.328	0.068	0.119
-282.516	-125.480	-0.107	0.016
-281.501	-3.566	-0.178	-0.123
-280.486	800.000	-0.097	0.417
-279.472	800.000	0.052	-0.159
-278.457	-18.425	-0.263	-0.163
-277.443	800.000	0.092	-0.260
-276.428	-200.000	0.002	0.036
-275.413	696.360	-0.084	0.219
-274.399	-79.602	-0.253	0.085
-273.384	163.300	0.169	-0.236
-272.370	-200.000	0.075	-0.333
-271.355	800.000	0.089	-0.246
-270.340	-136.957	-0.101	-0.011
-269.326	-48.682	-0.192	-0.091
-268.311	-200.000	0.036	0.301
-267.297	-200.000	-0.009	0.196
-266.282	-200.000	0.003	0.244
-265.267	33.761	0.110	-0.094
-264.253	7.054	0.564	0.417
-263.238	74.574	-0.065	-0.068
-262.224	800.000	0.005	0.015
-261.209	-105.368	-0.151	-0.034
-260.195	-200.000	-0.058	-0.333
-259.180	-75.974	0.099	0.035
-258.165	-200.000	-0.007	0.391
-257.151	-200.000	-0.029	-0.366
-256.136	406.632	-0.152	0.318
-255.122	-178.936	0.088	0.002
-254.107	-6.679	0.063	0.042
-253.092	389.587	-0.094	0.193
-252.078	800.000	-0.051	-0.204
-251.063	-49.576	0.125	0.059
-250.049	728.860	-0.018	0.048
-249.034	-19.674	0.228	0.139
-248.019	-186.481	0.209	0.003
-247.005	65.575	0.212	-0.212
-245.990	-168.797	-0.239	-0.009
-244.976	724.238	-0.064	0.170
-243.961	-147.280	0.291	-0.024
-242.946	192.818	0.135	-0.201
-241.932	-200.000	-0.033	0.182
-240.917	800.000	0.071	-0.255
-239.903	-93.257	-0.329	-0.090
-238.888	-200.000	0.013	-0.177
-237.873	171.656	0.163	0.231
-236.859	-88.506	-0.270	-0.080
-235.844	-114.835	0.293	-0.055
-234.830	-104.016	0.251	0.058
-233.815	54.729	0.015	0.014
-232.800	-61.130	-0.124	-0.052
-231.786	-200.000	-0.013	0.227
-230.771	7.828	0.232	0.172
-229.757	-85.410	-0.172	0.053
-228.742	-200.000	-0.008	0.308
-227.727	-133.718	0.071	0.009
-226.713	-177.656	-0.165	-0.004
-225.698	-200.000	-0.001	-0.109
-224.684	-200.000	-0.010	-0.073
-223.669	-38.647	0.238	0.124
-222.655	-101.653	-0.561	-0.134
-221.640	-147.549	0.093	-0.008
-220.625	-200.000	-0.001	0.147
-219.611	-27.233	-0.273	-0.157
-218.596	-164.303	-0.323	-0.015
-217.582	-144.560	0.378	0.035
-216.567	-200.000	-0.046	0.340
-215.552	800.000	-0.030	0.126
-214.538	253.716	0.123	0.208
-213.523	136.742	0.093	-0.120
-212.509	797.490	0.030	0.083
-211.494	334.725	-0.271	0.518
-210.479	800.000	0.098	0.342
-209.465	-88.647	0.418	0.123
-208.450	-200.000	0.027	-0.123
-207.436	-200.000	0.038	0.359
-206.421	-200.000	-0.009	-0.177
-205.406	197.377	0.208	-0.314
-204.392	0.401	-0.211	0.149
-203.377	81.517	0.082	0.087
-202.363	-96.482	0.142	-0.037
-201.348	-53.998	0.189	0.085
-200.333	-122.069	0.106	0.017
-199.319	-200.000	-0.034	-0.217
-198.304	128.494	0.180	-0.226
-197.290	800.000	-0.025	-0.076
-196.275	-134.868	-0.267	0.032
-195.260	499.683	0.134	-0.306
-194.246	184.400	0.097	0.143
-193.231	-64.713	-0.368	0.147
-192.217	-26.691	-0.006	0.003
-191.202	-113.797	0.509	-0.098
-190.187	-66.722	-0.158	0.062
-189.173	57.410	0.252	-0.243
-188.158	-200.000	0.012	-0.215
-187.144	-176.702	0.289	-0.007
-186.129	-200.000	0.029	-0.188
-185.114	-129.330	0.272	0.037
-184.100	-54.473	0.112	-0.050
-183.085	-200.000	0.055	-0.266
-182.071	-200.000	0.040	0.296
-181.056	205.199	0.121	0.185
-180.042	-200.000	0.024	0.162
-179.027	-200.000	-0.019	0.124
-178.012	800.000	0.018	-0.066
-176.998	-47.540	-0.058	-0.028
-175.983	263.666	-0.164	-0.281
-174.969	586.357	0.073	-0.177
-173.954	774.770	-0.042	-0.113
-172.939	375.882	0.035	0.070
-171.925	-200.000	-0.010	-0.075
-170.910	41.878	-0.209	0.187
-169.896	-0.884	0.117	0.082
-168.881	99.583	-0.112	-0.128
-167.866	-10.580	0.114	-0.074
-166.852	74.714	-0.266	-0.276
-165.837	-49.668	0.254	0.119
-164.823	-129.266	-0.512	-0.070
-163.808	-172.843	0.124	-0.004
-162.793	12.443	0.397	0.302
-161.779	14.271	0.124	0.095
-160.764	188.770	-0.044	0.065
-159.750	152.899	-0.152	0.205
-158.735	-152.339	-0.259	0.018
-157.720	-149.646	-0.336	0.026
-156.706	155.882	-0.021	-0.028
-155.691	-200.000	-0.003	-0.372
-154.677	70.546	0.188	-0.192
-153.662	26.966	-0.305	-0.252
-152.647	-94.244	0.151	0.041
-151.633	-118.732	-0.161	-0.028
-150.618	-109.980	0.014	0.003
-149.604	-134.237	0.255	-0.031
-148.589	30.340	0.186	-0.156
-147.574	-90.059	-0.140	0.040
-146.560	120.116	0.081	-0.099
-145.545	-200.000	0.042	-0.235
-144.531	71.881	-0.213	0.218
-143.516	256.039	-0.099	0.167
-142.502	121.977	-0.175	0.216
-141.487	-31.514	0.228	-0.126
-140.472	-200.000	-0.001	-0.015
-139.458	-69.012	-0.264	0.100
-138.443	-162.659	0.177	0.009
-137.429	-59.664	0.115	-0.049
-136.414	530.103	0.041	-0.095
-135.399	199.003	-0.126	0.190
-134.385	-25.377	0.128	-0.075
-133.370	-5.195	-0.248	-0.168
-132.356	-102.871	-0.231	-0.054
-131.341	-200.000	0.024	-0.106
-130.326	-78.783	-0.139	0.047
-129.312	-85.086	0.185	0.057
-128.297	-133.617	-0.276	-0.034
-127.283	-200.000	-0.002	0.120
-126.268	132.100	-0.075	0.095
-125.253	-67.628	0.583	0.225
-124.239	-200.000	0.011	0.131
-123.224	-200.000	0.003	-0.027
-122.210	157.685	0.124	-0.169
