DTS Sentinel unit serial number:	SN413079Multiplexer serial number:	ORYXHardware model number:	OX4-SRSoftware version number:	ORYX F/W v4.00 Oryx Data Collector v3.7.2.0data status	okinstallation	princeton_trtdifferential loss correction	single-endedforward channel	channel 2reverse channel	N/Adate	2019/09/12time	03:45:11forward acquisition time	60.00reverse acquisition time	0.00gamma	496.2192k internal	0.2326k external	0.2326temperature offset calibration	1.0096default loss term (dB/km)	0.3790temperature slope calibration	1.0000multiplexer offset coefficient	1.0000multiplexer slope coefficient	1.0000fibre end	0.00T internal ref (°C)	32.17T ext. ref 1 (°C)	2.14T ext. ref 2 (°C)	27.12length (m)	temperature (°C)	Stokes	anti-Stokes-747.200	-57.493	-0.187	0.083
-746.185	5.152	0.138	0.103
-745.171	140.762	-0.141	0.188
-744.156	-24.053	0.217	0.131
-743.142	246.204	-0.068	0.116
-742.127	266.408	0.172	0.303
-741.112	32.366	0.100	-0.087
-740.098	-176.083	0.114	-0.003
-739.083	800.000	-0.078	-0.279
-738.069	-200.000	0.020	0.180
-737.054	-200.000	-0.006	-0.254
-736.039	800.000	-0.057	0.240
-735.025	48.626	0.173	0.163
-734.010	-57.202	-0.169	0.075
-732.996	-200.000	-0.000	0.102
-731.981	-41.156	-0.219	0.114
-730.966	-172.563	-0.333	-0.011
-729.952	12.854	0.212	-0.165
-728.937	800.000	-0.021	-0.077
-727.923	-11.980	-0.194	-0.128
-726.908	2.065	-0.204	-0.149
-725.894	200.390	-0.064	0.100
-724.879	-88.825	0.157	0.047
-723.864	-102.153	-0.046	0.011
-722.850	257.775	0.242	-0.420
-721.835	29.384	-0.177	-0.152
-720.821	-145.262	0.086	0.008
-719.806	-200.000	-0.018	-0.156
-718.791	-72.510	-0.295	-0.110
-717.777	634.115	0.051	-0.130
-716.762	-156.752	0.054	0.003
-715.748	-21.666	-0.315	0.193
-714.733	800.000	0.078	0.267
-713.718	147.466	0.121	-0.163
-712.704	29.811	-0.101	0.087
-711.689	412.270	0.086	0.184
-710.675	-200.000	0.108	-0.000
-709.660	-200.000	0.005	-0.176
-708.645	-112.626	0.199	0.040
-707.631	800.000	-0.135	-0.418
-706.616	-129.261	-0.425	-0.060
-705.602	268.918	-0.054	0.095
-704.587	-200.000	-0.005	0.047
-703.572	-200.000	-0.017	0.106
-702.558	208.435	0.255	-0.401
-701.543	-200.000	0.015	-0.138
-700.529	800.000	0.036	-0.149
-699.514	9.234	0.175	-0.133
-698.499	502.725	-0.233	-0.542
-697.485	800.000	-0.044	0.153
-696.470	-86.165	0.058	0.018
-695.456	-98.773	-0.124	0.032
-694.441	-200.000	0.007	-0.348
-693.426	-181.243	0.115	-0.002
-692.412	-11.335	-0.207	0.137
-691.397	-200.000	0.022	0.140
-690.383	466.423	0.099	0.224
-689.368	354.599	0.049	-0.098
-688.354	-200.000	-0.045	-0.198
-687.339	-81.630	0.279	-0.092
-686.324	800.000	0.049	0.145
-685.310	272.325	0.062	-0.110
-684.295	172.497	-0.194	-0.280
-683.281	-73.006	-0.152	0.056
-682.266	233.915	0.137	0.227
-681.251	490.545	-0.137	0.316
-680.237	59.265	0.164	-0.163
-679.222	-27.999	0.321	-0.187
-678.208	117.468	0.129	-0.160
-677.193	-125.463	0.163	0.025
-676.178	800.000	0.074	-0.268
-675.164	-79.185	-0.225	-0.077
-674.149	-51.834	-0.265	0.124
-673.135	103.405	-0.147	0.173
-672.120	-88.121	-0.089	-0.027
-671.105	-115.570	-0.251	-0.047
-670.091	28.816	0.179	0.153
-669.076	-200.000	-0.025	-0.246
-668.062	339.658	0.120	-0.235
-667.047	-16.945	-0.096	-0.061
-666.032	-83.189	0.327	0.106
-665.018	-76.901	0.261	-0.092
-664.003	318.389	-0.085	-0.162
-662.989	800.000	-0.049	-0.188
-661.974	383.461	0.070	0.144
-660.959	69.272	0.182	0.188
-659.945	190.289	0.074	-0.112
-658.930	800.000	0.072	-0.244
-657.916	-56.823	-0.311	0.138
-656.901	-110.262	-0.125	0.026
-655.886	-92.028	-0.170	-0.048
-654.872	-102.801	0.181	-0.043
-653.857	-78.815	-0.455	-0.156
-652.843	-18.461	0.136	-0.085
-651.828	-136.404	0.152	0.018
-650.814	-100.628	-0.392	-0.097
-649.799	800.000	0.092	-0.323
-648.784	-84.103	-0.247	-0.079
-647.770	-200.000	0.039	-0.200
-646.755	-200.000	-0.004	-0.195
-645.741	-7.357	0.045	0.031
-644.726	800.000	-0.054	-0.230
-643.711	76.210	0.117	0.124
-642.697	-107.847	0.239	0.052
-641.682	509.044	-0.087	-0.203
-640.668	632.514	-0.116	-0.294
-639.653	800.000	-0.140	-0.408
-638.638	800.000	0.009	0.036
-637.624	800.000	-0.070	0.211
-636.609	-200.000	0.021	0.271
-635.595	-200.000	-0.032	0.158
-634.580	-76.433	0.070	0.025
-633.565	-162.158	-0.078	-0.004
-632.551	-200.000	-0.005	0.065
-631.536	49.083	0.065	0.062
-630.522	-67.009	-0.065	-0.026
-629.507	5.478	0.157	0.116
-628.492	-45.998	0.204	-0.101
-627.478	-45.180	0.135	-0.067
-626.463	-200.000	0.014	0.091
-625.449	-11.774	-0.194	0.128
-624.434	46.032	0.047	-0.043
-623.419	-200.000	0.045	-0.428
-622.405	232.813	0.074	-0.123
-621.390	272.709	-0.100	-0.178
-620.376	97.735	0.146	0.169
-619.361	88.300	0.223	0.249
-618.346	468.299	0.055	-0.125
-617.332	-77.778	-0.204	-0.071
-616.317	378.196	0.139	0.285
-615.303	391.893	0.104	0.216
-614.288	-21.130	0.380	-0.233
-613.273	800.000	-0.113	0.323
-612.259	-200.000	-0.007	-0.127
-611.244	-200.000	0.012	-0.292
-610.230	132.689	0.099	-0.128
-609.215	-119.329	0.263	0.046
-608.201	800.000	-0.109	0.329
-607.186	800.000	-0.019	-0.072
-606.171	-31.597	0.251	0.141
-605.157	-200.000	0.005	0.169
-604.142	-200.000	-0.013	-0.336
-603.128	800.000	0.044	0.187
-602.113	-185.499	0.276	-0.004
-601.098	-24.215	-0.102	0.061
-600.084	-116.212	-0.357	-0.067
-599.069	-200.000	-0.001	-0.349
-598.055	39.933	0.108	0.097
-597.040	-72.978	0.098	-0.036
-596.025	-200.000	0.005	0.190
-595.011	-52.952	0.344	-0.159
-593.996	-200.000	0.016	0.272
-592.982	800.000	-0.118	0.434
-591.967	800.000	0.059	-0.182
-590.952	-56.995	0.114	0.050
-589.938	546.764	0.120	-0.289
-588.923	-200.000	-0.031	0.403
-587.909	146.841	-0.123	0.166
-586.894	-91.116	-0.057	0.016
-585.879	65.452	-0.054	-0.054
-584.865	-89.071	0.180	-0.053
-583.850	-76.967	-0.151	-0.053
-582.836	337.720	-0.126	-0.245
-581.821	-153.758	-0.402	0.028
-580.806	77.207	-0.096	-0.102
-579.792	-3.761	0.105	-0.073
-578.777	134.678	-0.221	-0.288
-577.763	-150.892	-0.382	-0.029
-576.748	-200.000	0.051	-0.266
-575.733	712.353	0.055	0.147
-574.719	800.000	0.014	0.053
-573.704	-17.794	-0.343	-0.216
-572.690	-137.591	-0.192	-0.022
-571.675	-52.155	-0.346	-0.161
-570.661	-200.000	0.016	-0.208
-569.646	-200.000	-0.002	-0.102
-568.631	-25.238	0.177	0.105
-567.617	-200.000	0.033	-0.208
-566.602	132.624	0.154	0.200
-565.588	-200.000	0.002	0.073
-564.573	650.935	0.079	0.202
-563.558	-25.392	0.074	-0.044
-562.544	67.718	-0.197	-0.202
-561.529	-46.657	-0.365	-0.179
-560.515	11.367	-0.266	-0.204
-559.500	179.444	-0.084	0.123
-558.485	-0.329	-0.278	0.197
-557.471	800.000	-0.044	-0.172
-556.456	94.242	-0.235	-0.267
-555.442	55.709	0.095	-0.092
-554.427	-200.000	0.034	-0.154
-553.412	139.526	-0.213	-0.281
-552.398	-118.495	-0.153	-0.027
-551.383	-200.000	0.031	0.136
-550.369	24.984	0.089	-0.074
-549.354	-33.701	-0.105	-0.058
-548.339	-55.062	0.163	0.073
-547.325	-200.000	0.032	0.328
-546.310	403.736	0.163	0.344
-545.296	608.024	0.080	-0.199
-544.281	-52.177	0.215	-0.100
-543.266	-41.808	0.314	0.161
-542.252	-120.461	-0.226	0.039
-541.237	299.088	0.140	0.257
-540.223	-4.683	-0.094	-0.065
-539.208	88.199	0.033	-0.037
-538.193	-35.393	0.225	-0.123
-537.179	-35.555	-0.212	0.115
-536.164	-200.000	-0.017	0.200
-535.150	-30.237	0.369	0.210
-534.135	800.000	-0.021	-0.075
-533.121	-200.000	0.028	0.276
-532.106	100.107	0.084	0.098
-531.091	-200.000	-0.060	-0.371
-530.077	709.662	-0.119	0.315
-529.062	-61.181	0.266	0.112
-528.048	-200.000	0.044	0.499
-527.033	536.766	0.032	0.076
-526.018	-99.450	-0.093	0.023
-525.004	-175.413	0.204	0.006
-523.989	304.629	0.124	-0.229
-522.975	-114.581	0.121	0.023
-521.960	-1.124	0.102	0.072
-520.945	-200.000	-0.006	-0.054
-519.931	-200.000	0.029	-0.135
-518.916	-119.925	-0.296	-0.051
-517.902	123.026	-0.124	-0.156
-516.887	127.724	-0.095	-0.120
-515.872	-200.000	-0.079	-0.499
-514.858	-21.970	0.159	0.097
-513.843	-197.460	0.063	0.000
-512.829	-102.141	-0.244	-0.059
-511.814	-116.780	-0.136	-0.025
-510.799	433.891	0.170	0.368
-509.785	-129.098	-0.339	-0.047
-508.770	148.270	-0.123	-0.165
-507.756	-155.477	-0.259	0.017
-506.741	-168.180	-0.300	0.012
-505.726	-113.812	0.383	-0.074
-504.712	800.000	0.060	-0.187
-503.697	288.710	0.097	-0.175
-502.683	403.671	0.129	0.270
-501.668	-200.000	0.051	0.348
-500.653	-200.000	0.012	0.077
-499.639	263.696	0.144	-0.249
-498.624	33.673	-0.151	0.131
-497.610	-145.391	0.241	-0.022
-496.595	800.000	0.078	0.234
-495.581	-93.090	0.112	-0.031
-494.566	-126.989	-0.256	0.038
-493.551	46.281	0.062	0.057
-492.537	-102.915	-0.073	-0.017
-491.522	154.194	0.052	-0.071
-490.508	97.575	-0.085	-0.097
-489.493	-200.000	-0.040	-0.177
-488.478	-168.338	0.106	0.004
-487.464	228.479	-0.117	-0.191
-486.449	800.000	-0.052	0.176
-485.435	81.948	0.378	0.409
-484.420	-85.572	0.152	0.047
-483.405	-127.944	0.172	0.025
-482.391	147.449	-0.119	-0.159
-481.376	-114.005	-0.177	-0.034
-480.362	-119.343	-0.109	0.019
-479.347	800.000	-0.059	0.177
-478.332	542.713	-0.038	-0.091
-477.318	-71.185	-0.164	-0.062
-476.303	-93.388	-0.356	-0.098
-475.289	800.000	0.090	0.275
-474.274	46.402	0.088	-0.081
-473.259	800.000	-0.100	0.408
-472.245	419.266	-0.187	0.400
-471.230	-84.556	-0.118	-0.037
-470.216	-112.677	0.061	0.012
-469.201	-57.377	0.169	-0.074
-468.186	800.000	-0.040	0.138
-467.172	800.000	-0.036	0.129
-466.157	-122.500	-0.313	-0.051
-465.143	-171.075	0.161	0.005
-464.128	-194.539	-0.177	-0.001
-463.113	17.266	0.106	-0.084
-462.099	120.775	-0.058	-0.072
-461.084	-128.691	-0.031	-0.004
-460.070	-113.734	0.212	-0.041
-459.055	-200.000	0.017	-0.075
-458.040	-200.000	0.017	0.257
-457.026	-45.519	-0.209	0.103
-456.011	-6.134	-0.091	0.062
-454.997	132.801	0.169	-0.217
-453.982	-157.315	-0.119	0.007
-452.968	18.295	0.053	-0.042
-451.953	-77.792	0.101	0.035
-450.938	-33.556	-0.170	0.094
-449.924	784.435	-0.085	-0.232
-448.909	-33.825	0.112	0.062
-447.895	31.695	-0.103	0.088
-446.880	800.000	-0.050	0.194
-445.865	132.826	0.142	0.182
-444.851	-96.405	-0.126	0.033
-443.836	-200.000	0.044	0.428
-442.822	14.736	-0.311	0.243
-441.807	12.132	0.273	-0.209
-440.792	-36.157	0.208	-0.112
-439.778	31.023	-0.194	-0.166
-438.763	-45.539	0.103	-0.051
-437.749	6.063	-0.153	-0.113
-436.734	57.156	0.155	-0.151
-435.719	800.000	0.081	0.295
-434.705	608.701	0.143	0.356
-433.690	-117.897	-0.200	-0.036
-432.676	562.625	-0.041	-0.098
-431.661	5.360	-0.326	0.240
-430.646	13.233	-0.159	-0.123
-429.632	-200.000	-0.024	-0.167
-428.617	-200.000	-0.012	0.070
-427.603	-14.590	-0.149	0.095
-426.588	800.000	-0.038	0.144
-425.573	-200.000	0.032	0.143
-424.559	688.979	0.083	0.216
-423.544	57.786	-0.137	0.133
-422.530	-116.056	-0.193	0.036
-421.515	-140.250	0.409	0.043
-420.500	21.274	0.150	0.121
-419.486	-200.000	0.074	-0.360
-418.471	-79.219	-0.404	0.136
-417.457	118.296	-0.102	0.126
-416.442	-200.000	0.050	0.395
-415.428	-200.000	0.104	0.490
-414.413	-142.511	0.022	-0.002
-413.398	492.078	0.100	0.228
-412.384	353.954	0.076	0.150
-411.369	-200.000	-0.011	0.050
-410.355	800.000	0.033	-0.100
-409.340	89.876	0.122	-0.135
-408.325	800.000	0.048	-0.197
-407.311	-14.198	-0.206	0.133
-406.296	366.125	-0.016	-0.032
-405.282	-179.388	0.166	0.004
-404.267	-43.746	-0.223	0.112
-403.252	103.165	0.186	-0.217
-402.238	-200.000	0.007	0.048
-401.223	20.060	-0.357	0.287
-400.209	92.082	-0.077	0.086
-399.194	593.055	-0.095	0.235
-398.179	215.791	0.083	-0.131
-397.165	-39.031	-0.289	0.151
-396.150	-14.452	0.147	0.094
-395.136	555.667	-0.090	-0.216
-394.121	-18.879	0.198	0.123
-393.106	-200.000	-0.005	-0.258
-392.092	-200.000	-0.017	-0.243
-391.077	-80.816	0.180	-0.060
-390.063	403.490	-0.072	0.150
-389.048	23.431	0.069	-0.057
-388.033	622.531	-0.175	0.438
-387.019	-200.000	0.046	0.343
-386.004	-200.000	0.007	-0.061
-384.990	-200.000	-0.001	-0.160
-383.975	-63.934	-0.185	-0.075
-382.960	800.000	-0.056	0.194
-381.946	-71.593	-0.229	-0.085
-380.931	206.476	-0.057	0.088
-379.917	-124.790	-0.251	-0.039
-378.902	-98.602	0.210	0.053
-377.888	-119.423	0.096	0.017
-376.873	160.020	-0.171	0.237
-375.858	-200.000	0.037	0.260
-374.844	59.626	0.184	-0.180
-373.829	800.000	0.046	-0.139
-372.815	-137.667	0.270	0.030
-371.800	-17.416	0.164	-0.103
-370.785	61.109	0.047	0.046
-369.771	-200.000	-0.009	0.098
-368.756	237.298	0.226	-0.372
-367.742	1.329	0.102	0.073
-366.727	178.789	-0.081	-0.117
-365.712	-54.711	-0.252	0.113
-364.698	79.755	-0.113	0.121
-363.683	209.541	-0.089	-0.138
-362.669	-171.069	0.037	-0.001
-361.654	-138.230	-0.204	0.022
-360.639	111.349	-0.040	0.048
-359.625	-19.150	0.164	0.101
-358.610	22.625	0.079	0.064
-357.596	90.434	0.177	-0.197
-356.581	-122.935	-0.050	-0.008
-355.566	314.786	0.167	-0.313
-354.552	-67.931	-0.253	-0.098
-353.537	11.318	0.136	0.104
-352.523	145.618	-0.157	-0.209
-351.508	380.445	-0.092	-0.187
-350.493	27.514	0.353	0.295
-349.479	264.245	0.228	0.394
-348.464	-200.000	0.002	0.133
-347.450	800.000	0.073	-0.252
-346.435	348.733	0.112	-0.219
-345.420	205.882	0.124	-0.191
-344.406	236.803	-0.094	-0.155
-343.391	142.314	0.090	-0.119
-342.377	95.743	0.179	0.203
-341.362	-200.000	0.037	-0.230
-340.348	-200.000	0.001	-0.237
-339.333	121.215	0.082	-0.101
-338.318	-200.000	0.054	0.255
-337.304	-200.000	0.003	-0.036
-336.289	800.000	-0.034	-0.107
-335.275	-200.000	0.011	-0.304
-334.260	9.165	0.055	-0.041
-333.245	-61.733	-0.138	-0.057
-332.231	-117.732	0.324	-0.058
-331.216	-20.553	-0.248	0.151
-330.202	-162.913	0.327	-0.016
-329.187	-57.764	-0.347	-0.151
-328.172	-129.917	-0.214	-0.029
-327.158	-119.635	0.193	0.033
-326.143	20.177	0.249	-0.199
-325.129	-38.340	0.149	-0.078
-324.114	-177.671	0.157	-0.004
-323.099	-11.869	0.189	-0.123
-322.085	800.000	0.031	-0.112
-321.070	-200.000	-0.006	-0.111
-320.056	110.992	-0.105	-0.126
-319.041	40.710	-0.207	0.185
-318.026	-158.642	-0.308	0.018
-317.012	-46.021	0.174	-0.085
-315.997	118.645	0.160	0.196
-314.983	-200.000	0.010	0.157
-313.968	-124.183	-0.073	-0.011
-312.953	-137.903	0.257	0.028
-311.939	-200.000	-0.039	-0.180
-310.924	81.070	0.053	0.056
-309.910	-200.000	-0.019	0.307
-308.895	-200.000	-0.088	0.429
-307.880	-200.000	-0.008	-0.215
-306.866	-181.435	-0.341	0.007
-305.851	41.822	0.223	0.200
-304.837	-40.064	0.083	0.043
-303.822	198.129	-0.278	0.422
-302.807	286.699	0.175	-0.314
-301.793	-24.602	0.183	0.108
-300.778	-99.817	-0.111	-0.028
-299.764	24.791	-0.125	0.103
-298.749	-200.000	-0.015	0.232
-297.735	-84.327	-0.105	0.033
-296.720	-75.149	0.275	0.097
-295.705	800.000	-0.119	-0.348
-294.691	-110.987	-0.161	-0.033
-293.676	29.476	-0.148	-0.124
-292.662	-93.476	0.226	0.062
-291.647	29.965	-0.148	-0.125
-290.632	-200.000	0.045	0.252
-289.618	-200.000	-0.017	0.220
-288.603	250.214	0.235	-0.396
-287.589	392.389	0.075	0.155
-286.574	-74.502	-0.068	-0.024
-285.559	125.880	-0.253	0.317
-284.545	441.709	-0.078	0.169
-283.530	-130.636	-0.265	0.035
-282.516	48.780	-0.129	0.120
-281.501	17.728	-0.176	-0.139
-280.486	-10.546	-0.053	-0.035
-279.472	56.465	0.185	-0.178
-278.457	-0.909	-0.237	-0.166
-277.443	373.017	0.103	-0.207
-276.428	114.300	0.056	0.067
-275.413	-95.487	-0.184	0.049
-274.399	800.000	-0.032	0.103
-273.384	-25.810	-0.185	0.108
-272.370	-50.738	-0.115	-0.053
-271.355	606.703	-0.138	0.340
-270.340	320.920	0.021	-0.040
-269.326	84.463	0.175	0.189
-268.311	16.568	-0.297	0.232
-267.297	800.000	0.030	0.107
-266.282	129.184	-0.214	-0.271
-265.267	-95.682	0.292	-0.077
-264.253	45.440	0.223	0.204
-263.238	74.378	0.107	-0.111
-262.224	14.782	-0.148	-0.115
-261.209	-200.000	-0.020	-0.119
-260.195	-145.645	-0.093	-0.008
-259.180	-200.000	0.040	-0.218
-258.165	469.868	-0.038	-0.085
-257.151	273.375	0.081	0.142
-256.136	546.030	-0.030	-0.072
-255.122	-86.870	0.277	-0.084
-254.107	-11.927	0.283	-0.184
-253.092	428.057	0.148	0.317
-252.078	800.000	0.059	-0.166
-251.063	-200.000	-0.017	-0.139
-250.049	230.579	0.132	0.213
-249.034	-72.539	-0.246	0.090
-248.019	8.019	0.197	0.146
-247.005	800.000	-0.020	-0.071
-245.990	-200.000	0.008	-0.093
-244.976	-123.674	0.322	-0.050
-243.961	-19.359	0.262	-0.161
-242.946	146.507	-0.191	-0.253
-241.932	800.000	-0.060	0.187
-240.917	-123.966	-0.136	-0.021
-239.903	41.063	0.061	0.055
-238.888	600.720	0.062	0.153
-237.873	254.283	-0.174	-0.295
-236.859	73.961	-0.085	-0.088
-235.844	14.014	0.227	-0.174
-234.830	-200.000	-0.054	-0.264
-233.815	-200.000	-0.004	-0.279
-232.800	800.000	0.040	-0.115
-231.786	800.000	0.025	-0.084
-230.771	-154.981	0.195	0.013
-229.757	-200.000	0.032	0.604
-228.742	-95.222	-0.290	-0.077
-227.727	800.000	0.126	0.400
-226.713	-106.075	0.238	-0.053
-225.698	-200.000	-0.046	0.222
-224.684	-132.522	0.109	-0.014
-223.669	-90.164	-0.236	-0.068
-222.655	235.049	-0.196	-0.319
-221.640	47.594	0.214	-0.198
-220.625	135.468	0.219	-0.281
-219.611	195.261	0.058	-0.087
-218.596	8.148	-0.144	-0.107
-217.582	-182.166	-0.213	0.004
-216.567	-200.000	-0.022	0.105
-215.552	49.222	0.131	0.122
-214.538	-68.473	-0.249	-0.095
-213.523	46.377	-0.216	0.198
-212.509	800.000	0.090	0.337
-211.494	-200.000	-0.041	-0.184
-210.479	-200.000	0.017	0.107
-209.465	-200.000	-0.019	-0.147
-208.450	-13.242	-0.185	0.119
-207.436	800.000	-0.046	0.140
-206.421	141.698	0.208	-0.272
-205.406	190.103	-0.032	0.048
-204.392	-163.550	0.258	-0.012
-203.377	800.000	0.086	-0.244
-202.363	1.411	0.271	-0.192
-201.348	38.375	-0.128	0.112
-200.333	-200.000	0.000	0.143
-199.319	-46.011	0.270	0.131
-198.304	-79.979	0.269	-0.089
-197.290	-47.876	-0.328	-0.157
-196.275	41.452	0.025	-0.023
-195.260	-127.393	-0.083	0.012
-194.246	800.000	0.051	0.142
-193.231	-200.000	-0.039	0.357
-192.217	19.546	-0.112	-0.089
-191.202	-75.933	0.178	-0.062
-190.187	-16.338	0.352	0.220
-189.173	-6.621	-0.201	-0.135
-188.158	5.829	0.170	-0.124
-187.144	-64.461	0.370	0.149
-186.129	-200.000	0.044	-0.208
-185.114	38.567	-0.084	-0.074
-184.100	-17.590	-0.211	-0.131
-183.085	800.000	0.123	-0.471
-182.071	794.492	0.031	0.084
-181.056	199.535	0.156	0.236
-180.042	267.346	0.154	-0.265
-179.027	476.765	-0.147	-0.327
-178.012	200.393	-0.062	0.094
-176.998	-145.809	-0.415	-0.036
-175.983	-140.625	-0.091	-0.009
-174.969	-21.803	0.065	0.039
-173.954	35.664	-0.042	-0.036
-172.939	-200.000	0.001	-0.222
-171.925	800.000	0.043	-0.161
-170.910	-200.000	-0.040	-0.344
-169.896	-8.208	-0.131	-0.087
-168.881	-200.000	-0.014	0.125
-167.866	46.829	0.119	-0.109
-166.852	30.095	-0.164	0.138
-165.837	4.454	-0.212	-0.153
-164.823	-200.000	0.028	0.286
-163.808	-200.000	0.010	-0.080
-162.793	-41.623	0.256	0.130
-161.779	-159.466	-0.190	-0.010
-160.764	-80.054	-0.189	-0.062
-159.750	184.491	0.051	-0.074
-158.735	-200.000	0.011	0.138
-157.720	48.193	0.021	-0.020
-156.706	659.633	0.079	-0.200
-155.691	-135.510	0.215	0.025
-154.677	337.944	-0.020	0.038
-153.662	80.062	0.079	0.084
-152.647	-16.668	-0.330	-0.206
-151.633	-140.039	0.238	-0.025
-150.618	-9.931	0.260	-0.170
-149.604	-154.103	-0.059	-0.004
-148.589	91.505	0.161	-0.179
-147.574	53.781	-0.132	-0.125
-146.560	-182.242	0.245	-0.004
-145.545	-65.449	0.194	-0.077
-144.531	121.439	-0.230	-0.282
-143.516	88.604	-0.024	0.026
-142.502	620.396	0.084	0.207
-141.487	-179.483	-0.299	0.006
-140.472	-200.000	0.028	0.330
-139.458	33.891	-0.082	0.070
-138.443	-200.000	0.206	-0.001
-137.429	11.294	0.102	0.077
-136.414	-171.803	0.218	-0.007
-135.399	-154.475	0.305	0.020
-134.385	16.253	-0.118	-0.092
-133.370	800.000	-0.043	-0.124
-132.356	565.864	-0.128	-0.305
-131.341	800.000	0.108	0.379
-130.326	-10.839	0.158	-0.103
-129.312	-65.018	-0.175	-0.069
-128.297	-124.257	-0.151	-0.023
-127.283	-200.000	0.025	0.140
-126.268	-33.888	0.135	-0.073
-125.253	-200.000	0.005	-0.054
-124.239	-22.672	-0.220	-0.131
-123.224	-25.386	0.223	-0.130
-122.210	-47.109	-0.275	-0.132
