DTS Sentinel unit serial number:	SN413079Multiplexer serial number:	ORYXHardware model number:	OX4-SRSoftware version number:	ORYX F/W v4.00 Oryx Data Collector v3.7.2.0data status	okinstallation	princeton_trtdifferential loss correction	single-endedforward channel	channel 2reverse channel	N/Adate	2019/09/19time	04:47:35forward acquisition time	60.00reverse acquisition time	0.00gamma	496.2192k internal	0.2351k external	0.2351temperature offset calibration	1.0017default loss term (dB/km)	0.3790temperature slope calibration	1.0000multiplexer offset coefficient	1.0000multiplexer slope coefficient	1.0000fibre end	0.00T internal ref (°C)	19.87T ext. ref 1 (°C)	0.61T ext. ref 2 (°C)	12.96length (m)	temperature (°C)	Stokes	anti-Stokes-747.200	64.404	-0.081	-0.081
-746.185	214.452	0.151	0.238
-745.171	-54.077	0.271	0.123
-744.156	-124.601	-0.289	-0.045
-743.142	-68.135	0.090	-0.035
-742.127	-76.251	-0.477	0.168
-741.112	234.985	0.153	0.253
-740.098	150.746	0.095	0.129
-739.083	300.752	0.110	0.202
-738.069	-138.107	0.228	-0.025
-737.054	-61.954	0.305	0.127
-736.039	-23.112	-0.193	0.116
-735.025	800.000	-0.024	0.088
-734.010	-153.551	-0.306	0.021
-732.996	90.746	0.068	0.076
-731.981	800.000	-0.074	-0.211
-730.966	800.000	0.027	-0.112
-729.952	74.827	-0.342	-0.359
-728.937	800.000	-0.060	0.177
-727.923	-105.786	-0.164	-0.037
-726.908	98.682	0.162	-0.186
-725.894	800.000	0.062	-0.236
-724.879	-200.000	-0.049	0.245
-723.864	-141.876	-0.205	0.020
-722.850	-70.085	0.074	0.028
-721.835	800.000	-0.010	0.038
-720.821	186.160	0.078	-0.116
-719.806	519.557	-0.094	-0.219
-718.791	-1.390	-0.172	-0.121
-717.777	45.073	0.108	-0.100
-716.762	70.154	0.118	0.122
-715.748	-39.087	-0.193	0.101
-714.733	758.845	-0.079	-0.212
-713.718	-128.124	-0.364	0.052
-712.704	5.859	-0.216	0.160
-711.689	167.552	0.105	-0.149
-710.675	-101.317	0.089	0.022
-709.660	28.712	-0.201	0.170
-708.645	-200.000	0.004	-0.356
-707.631	800.000	-0.116	0.419
-706.616	800.000	0.031	-0.109
-705.602	-33.093	-0.526	-0.291
-704.587	6.676	0.143	-0.106
-703.572	261.016	-0.129	-0.223
-702.558	45.636	-0.361	-0.333
-701.543	95.750	-0.033	0.038
-700.529	-200.000	-0.002	-0.169
-699.514	-26.540	-0.296	-0.173
-698.499	-101.511	0.080	-0.019
-697.485	-126.355	0.361	-0.054
-696.470	-21.564	0.165	-0.100
-695.456	2.295	0.168	-0.121
-694.441	-76.841	-0.256	-0.089
-693.426	800.000	-0.057	0.163
-692.412	-32.685	0.081	-0.045
-691.397	-27.237	-0.092	0.053
-690.383	-78.119	-0.131	0.045
-689.368	253.552	0.034	-0.058
-688.354	199.614	0.101	-0.154
-687.339	-162.607	-0.091	0.004
-686.324	86.342	0.046	0.051
-685.310	282.513	-0.088	0.158
-684.295	800.000	-0.100	0.332
-683.281	-121.774	-0.323	-0.053
-682.266	-5.146	-0.246	-0.169
-681.251	57.019	-0.061	-0.059
-680.237	-200.000	-0.054	-0.258
-679.222	-106.087	-0.167	-0.037
-678.208	99.993	0.123	-0.142
-677.193	71.140	0.184	0.190
-676.178	10.658	-0.224	-0.170
-675.164	-24.457	-0.239	0.142
-674.149	-80.809	0.076	0.025
-673.135	185.252	0.198	0.293
-672.120	83.531	-0.202	0.219
-671.105	-66.517	-0.247	-0.097
-670.091	800.000	-0.078	0.217
-669.076	800.000	-0.101	-0.417
-668.062	-200.000	-0.022	-0.134
-667.047	-200.000	0.017	0.390
-666.032	6.890	0.039	-0.029
-665.018	39.742	-0.131	0.117
-664.003	800.000	0.037	0.105
-662.989	-200.000	0.073	-0.526
-661.974	-200.000	-0.026	0.252
-660.959	192.510	0.118	-0.177
-659.945	-128.873	0.326	0.046
-658.930	-68.722	-0.252	-0.097
-657.916	-200.000	-0.026	0.137
-656.901	-19.676	-0.095	0.058
-655.886	104.326	-0.130	-0.152
-654.872	-200.000	-0.001	0.016
-653.857	-173.191	-0.147	0.004
-652.843	-36.556	-0.051	0.027
-651.828	56.131	-0.140	0.135
-650.814	-136.094	-0.228	0.027
-649.799	-9.573	-0.058	-0.038
-648.784	321.090	0.022	-0.042
-647.770	267.257	-0.192	-0.334
-646.755	-200.000	-0.009	-0.134
-645.741	39.511	0.101	-0.090
-644.726	568.548	-0.171	0.414
-643.711	-200.000	0.156	-0.000
-642.697	-119.552	0.028	-0.005
-641.682	158.723	0.212	-0.293
-640.668	459.585	0.112	0.249
-639.653	-175.426	0.050	0.001
-638.638	-159.096	-0.357	0.020
-637.624	-59.335	0.392	-0.168
-636.609	-72.037	-0.367	-0.135
-635.595	-137.477	0.296	0.033
-634.580	65.427	-0.303	-0.304
-633.565	800.000	0.041	0.141
-632.551	5.817	0.177	0.130
-631.536	211.614	-0.196	-0.307
-630.522	-114.533	0.160	0.030
-629.507	-108.414	0.134	-0.029
-628.492	800.000	0.053	-0.183
-627.478	572.311	-0.117	0.283
-626.463	-118.401	0.304	-0.054
-625.449	-33.931	-0.363	0.198
-624.434	95.664	0.111	-0.125
-623.419	92.436	-0.115	0.129
-622.405	-200.000	0.017	-0.109
-621.390	2.629	-0.056	0.040
-620.376	264.068	-0.071	-0.122
-619.361	217.731	-0.135	-0.213
-618.346	-126.991	-0.242	0.035
-617.332	88.698	0.140	0.155
-616.317	-79.795	-0.044	-0.015
-615.303	-108.540	-0.312	-0.067
-614.288	-95.079	0.424	0.114
-613.273	800.000	0.068	-0.287
-612.259	127.356	-0.115	-0.145
-611.244	15.123	0.239	-0.186
-610.230	-113.068	-0.266	0.052
-609.215	311.833	0.027	-0.050
-608.201	-200.000	-0.014	0.113
-607.186	-200.000	-0.005	-0.032
-606.171	181.199	0.108	-0.158
-605.157	11.267	0.142	0.108
-604.142	-200.000	0.013	-0.167
-603.128	180.722	0.186	-0.272
-602.113	-93.328	-0.396	0.109
-601.098	-116.391	-0.256	-0.047
-600.084	-157.702	0.339	-0.020
-599.069	-120.810	0.119	-0.020
-598.055	15.535	-0.127	0.099
-597.040	-200.000	0.016	0.102
-596.025	800.000	0.107	-0.355
-595.011	94.297	-0.137	-0.155
-593.996	-165.415	0.089	0.004
-592.982	302.977	0.161	-0.295
-591.967	-84.295	-0.354	0.111
-590.952	187.806	0.080	0.119
-589.938	-7.166	0.194	0.131
-588.923	-60.490	-0.369	-0.156
-587.909	-200.000	-0.021	0.119
-586.894	214.306	-0.178	-0.280
-585.879	602.115	0.066	0.163
-584.865	-200.000	-0.018	-0.362
-583.850	190.400	-0.132	0.197
-582.836	-200.000	0.015	-0.170
-581.821	-45.727	-0.220	0.108
-580.806	-127.576	0.423	-0.061
-579.792	-96.765	-0.110	-0.029
-578.777	-200.000	-0.004	0.326
-577.763	800.000	0.101	0.278
-576.748	-7.865	-0.201	-0.134
-575.733	112.988	0.038	-0.045
-574.719	-133.900	0.366	-0.045
-573.704	-186.646	0.191	0.003
-572.690	-200.000	0.006	-0.173
-571.675	-20.754	-0.236	0.143
-570.661	-102.177	-0.164	0.039
-569.646	-200.000	-0.059	-0.396
-568.631	7.123	-0.095	-0.070
-567.617	295.883	0.095	-0.173
-566.602	-200.000	0.012	-0.284
-565.588	-59.609	-0.023	0.010
-564.573	222.664	-0.142	-0.226
-563.558	-200.000	0.006	0.032
-562.544	92.538	-0.081	0.091
-561.529	26.565	-0.242	0.201
-560.515	-96.536	0.487	0.127
-559.500	-56.786	-0.187	-0.082
-558.485	-41.427	-0.190	0.097
-557.471	-117.834	0.307	-0.055
-556.456	301.881	0.123	-0.225
-555.442	-200.000	-0.031	0.265
-554.427	-200.000	0.060	0.409
-553.412	-127.832	-0.296	0.042
-552.398	800.000	-0.187	-0.511
-551.383	-78.314	-0.203	-0.069
-550.369	-106.492	-0.259	-0.057
-549.354	271.201	-0.063	-0.111
-548.339	20.225	0.240	0.192
-547.325	-79.216	-0.034	0.012
-546.310	-68.342	0.088	-0.034
-545.296	72.396	-0.293	-0.302
-544.281	64.195	-0.239	0.238
-543.266	41.898	-0.181	-0.162
-542.252	116.750	0.182	-0.221
-541.237	81.422	0.066	0.071
-540.223	-127.974	0.120	-0.017
-539.208	269.639	-0.143	-0.248
-538.193	27.258	0.243	-0.202
-537.179	584.538	-0.090	-0.219
-536.164	800.000	0.070	-0.258
-535.150	800.000	0.045	-0.181
-534.135	578.279	0.033	0.079
-533.121	-200.000	-0.024	0.218
-532.106	139.503	0.126	-0.164
-531.091	43.093	0.068	0.062
-530.077	-11.227	-0.254	-0.165
-529.062	37.326	-0.117	-0.103
-528.048	-46.906	-0.211	0.102
-527.033	-95.981	0.351	0.092
-526.018	-151.286	-0.087	0.006
-525.004	-178.767	-0.335	-0.008
-523.989	-200.000	0.002	0.078
-522.975	-69.820	0.294	0.111
-521.960	-45.670	-0.043	-0.021
-520.945	-200.000	0.011	-0.141
-519.931	-200.000	-0.047	-0.457
-518.916	92.788	-0.054	-0.061
-517.902	-196.292	-0.193	-0.001
-516.887	-48.933	-0.276	-0.131
-515.872	163.004	0.272	0.378
-514.858	79.460	-0.100	-0.106
-513.843	185.681	-0.089	-0.131
-512.829	800.000	-0.075	-0.248
-511.814	800.000	0.091	-0.348
-510.799	-78.413	0.047	0.016
-509.785	-158.446	0.210	-0.012
-508.770	72.574	0.178	-0.184
-507.756	-10.878	-0.340	0.222
-506.741	718.467	-0.061	-0.160
-505.726	127.248	-0.156	0.196
-504.712	160.676	0.132	-0.182
-503.697	696.400	-0.074	0.191
-502.683	415.269	-0.065	-0.137
-501.668	-200.000	0.039	-0.199
-500.653	-55.257	0.128	0.057
-499.639	88.301	-0.361	0.396
-498.624	523.390	-0.076	0.177
-497.610	323.565	-0.089	-0.168
-496.595	-73.423	0.124	-0.045
-495.581	-56.524	-0.411	0.180
-494.566	-40.067	0.189	-0.098
-493.551	-34.378	0.196	0.106
-492.537	800.000	-0.101	-0.402
-491.522	584.125	-0.078	0.190
-490.508	800.000	-0.096	0.305
-489.493	-47.418	0.308	-0.148
-488.478	-85.247	0.077	-0.024
-487.464	64.094	0.185	0.184
-486.449	35.344	0.158	0.137
-485.435	-200.000	-0.002	0.176
-484.420	366.953	0.184	0.367
-483.405	-200.000	-0.051	-0.248
-482.391	800.000	-0.098	-0.321
-481.376	253.831	0.209	-0.352
-480.362	402.854	-0.074	0.154
-479.347	218.970	-0.181	-0.286
-478.332	-67.669	0.319	0.123
-477.318	-200.000	-0.002	0.242
-476.303	-96.636	0.290	0.076
-475.289	-200.000	0.024	0.518
-474.274	-1.978	-0.307	-0.213
-473.259	127.211	-0.145	0.182
-472.245	157.507	0.148	-0.202
-471.230	-200.000	0.054	-0.356
-470.216	-200.000	0.026	-0.368
-469.201	-200.000	-0.110	-0.519
-468.186	73.931	0.052	-0.054
-467.172	40.492	0.110	-0.097
-466.157	-200.000	-0.054	-0.310
-465.143	800.000	0.099	-0.272
-464.128	800.000	0.047	-0.180
-463.113	156.374	0.185	0.251
-462.099	-125.807	0.393	-0.059
-461.084	-166.094	0.075	0.003
-460.070	132.911	-0.077	-0.099
-459.055	376.482	0.097	0.195
-458.040	-79.162	0.140	-0.047
-457.026	800.000	-0.059	0.191
-456.011	29.970	-0.067	-0.056
-454.997	-168.384	-0.234	-0.009
-453.982	641.758	-0.067	0.168
-452.968	-109.114	0.177	0.037
-451.953	542.308	-0.110	-0.258
-450.938	495.536	0.045	-0.101
-449.924	478.527	-0.154	0.344
-448.909	-59.152	-0.056	0.024
-447.895	800.000	-0.073	0.252
-446.880	-200.000	-0.016	0.087
-445.865	800.000	0.009	-0.035
-444.851	-73.916	-0.224	0.080
-443.836	370.297	0.187	0.373
-442.822	759.325	0.132	0.352
-441.807	-200.000	-0.042	0.190
-440.792	99.316	-0.147	-0.168
-439.778	466.844	0.071	0.158
-438.763	800.000	0.043	0.158
-437.749	236.229	0.108	-0.176
-436.734	62.546	-0.118	0.116
-435.719	800.000	0.102	0.342
-434.705	-9.034	0.322	0.213
-433.690	232.255	-0.183	-0.296
-432.676	-200.000	-0.040	0.210
-431.661	800.000	-0.014	-0.048
-430.646	214.483	0.064	-0.100
-429.632	-108.149	-0.529	0.113
-428.617	143.451	0.111	-0.145
-427.603	-154.324	-0.179	-0.012
-426.588	266.459	0.099	-0.171
-425.573	-100.417	-0.134	-0.033
-424.559	800.000	0.099	0.297
-423.544	-78.146	-0.345	0.117
-422.530	10.057	-0.325	-0.243
-421.515	40.240	-0.175	0.155
-420.500	-200.000	-0.011	-0.350
-419.486	-179.757	-0.279	0.006
-418.471	-7.076	0.143	-0.096
-417.457	-135.937	0.445	0.052
-416.442	-59.514	-0.224	-0.095
-415.428	-96.660	0.037	-0.009
-414.413	-200.000	-0.058	-0.341
-413.398	-200.000	0.022	-0.182
-412.384	19.566	0.111	-0.088
-411.369	-200.000	0.046	-0.202
-410.355	800.000	0.125	-0.395
-409.340	-80.069	0.155	0.051
-408.325	-200.000	-0.010	-0.168
-407.311	-98.655	0.207	-0.052
-406.296	-200.000	0.084	0.397
-405.282	-200.000	-0.056	-0.410
-404.267	800.000	-0.073	0.315
-403.252	800.000	0.098	0.341
-402.238	-200.000	-0.048	0.323
-401.223	-87.755	-0.068	-0.020
-400.209	800.000	-0.041	0.114
-399.194	800.000	-0.093	0.272
-398.179	372.525	0.115	-0.231
-397.165	-200.000	0.025	-0.177
-396.150	309.228	0.032	0.059
-395.136	7.265	-0.105	-0.077
-394.121	-124.319	-0.092	0.014
-393.106	38.486	0.065	-0.057
-392.092	800.000	0.020	0.074
-391.077	-90.574	-0.031	0.009
-390.063	83.966	0.248	0.266
-389.048	-39.501	-0.190	-0.098
-388.033	24.845	-0.008	-0.007
-387.019	-200.000	0.007	-0.122
-386.004	800.000	-0.072	0.227
-384.990	34.364	0.137	-0.118
-383.975	86.477	0.193	0.210
-382.960	-23.136	-0.099	-0.059
-381.946	68.620	0.231	0.233
-380.931	-200.000	0.004	0.116
-379.917	776.837	-0.080	0.216
-378.902	147.231	-0.237	0.314
-377.888	-156.633	-0.251	-0.015
-376.873	-102.115	-0.265	0.063
-375.858	-100.702	-0.328	0.080
-374.844	-116.109	0.271	-0.050
-373.829	-36.097	-0.121	-0.064
-372.815	800.000	-0.099	-0.291
-371.800	-35.850	0.380	0.202
-370.785	-53.766	0.112	-0.050
-369.771	-152.551	-0.278	-0.020
-368.756	180.709	0.096	0.139
-367.742	-200.000	-0.027	0.120
-366.727	800.000	0.089	-0.264
-365.712	-124.486	0.115	-0.018
-364.698	-77.800	-0.178	-0.061
-363.683	800.000	0.024	-0.078
-362.669	-111.542	-0.218	-0.043
-361.654	36.713	0.111	-0.096
-360.639	60.835	0.092	-0.090
-359.625	-81.023	0.408	-0.133
-358.610	800.000	-0.073	0.302
-357.596	55.949	-0.105	-0.100
-356.581	-200.000	0.035	-0.153
-355.566	222.649	-0.099	-0.156
-354.552	-138.117	-0.349	0.038
-353.537	206.607	0.255	0.390
-352.523	-188.362	0.108	0.001
-351.508	38.795	-0.321	-0.281
-350.493	-125.993	0.332	0.049
-349.479	-200.000	-0.020	-0.115
-348.464	38.258	0.213	-0.186
-347.450	370.140	0.164	0.326
-346.435	-183.568	-0.088	0.001
-345.420	-12.312	-0.282	0.181
-344.406	-20.091	0.109	0.066
-343.391	2.429	-0.195	0.139
-342.377	800.000	0.088	0.247
-341.362	118.514	-0.155	0.188
-340.348	-53.548	0.233	-0.105
-339.333	800.000	-0.081	-0.301
-338.318	154.659	0.216	0.291
-337.304	246.762	0.140	0.233
-336.289	-150.357	0.235	0.018
-335.275	208.717	-0.098	-0.150
-334.260	555.789	0.054	-0.129
-333.245	800.000	-0.085	-0.297
-332.231	34.146	0.110	-0.094
-331.216	800.000	0.112	0.417
-330.202	165.505	0.146	0.202
-329.187	22.410	-0.175	0.140
-328.172	-2.555	-0.209	0.144
-327.158	800.000	-0.113	-0.321
-326.143	-155.419	0.154	0.010
-325.129	2.998	0.171	-0.122
-324.114	10.566	-0.374	-0.279
-323.099	-59.690	-0.152	0.064
-322.085	-60.973	0.229	0.095
-321.070	219.013	0.056	0.088
-320.056	-23.035	-0.593	0.351
-319.041	-200.000	-0.037	0.232
-318.026	800.000	-0.052	0.142
-317.012	800.000	-0.011	-0.030
-315.997	-73.265	0.122	-0.044
-314.983	-200.000	-0.045	0.491
-313.968	283.029	-0.143	-0.253
-312.953	-200.000	-0.037	-0.254
-311.939	653.254	-0.144	0.362
-310.924	800.000	0.047	-0.128
-309.910	47.100	0.190	-0.173
-308.895	-99.922	-0.219	0.054
-307.880	-200.000	0.072	0.383
-306.866	104.373	0.062	-0.072
-305.851	800.000	0.064	0.253
-304.837	-120.264	-0.327	0.055
-303.822	85.776	0.067	-0.072
-302.807	270.280	-0.127	0.219
-301.793	-178.206	0.135	-0.003
-300.778	-74.682	-0.061	-0.021
-299.764	55.934	-0.092	-0.087
-298.749	-72.523	-0.169	0.061
-297.735	-18.087	0.102	-0.062
-296.720	160.657	0.060	0.082
-295.705	80.234	0.280	0.295
-294.691	121.272	0.117	0.143
-293.676	-18.002	0.220	-0.135
-292.662	457.139	0.010	-0.022
-291.647	-113.357	-0.154	-0.030
-290.632	598.521	0.088	-0.214
-289.618	5.074	0.242	-0.175
-288.603	-68.208	0.169	0.065
-287.589	192.087	-0.124	-0.183
-286.574	621.576	0.079	-0.195
-285.559	-183.506	0.351	-0.006
-284.545	-116.659	0.220	-0.040
-283.530	-200.000	-0.037	0.191
-282.516	36.681	-0.192	0.166
-281.501	-142.264	-0.345	-0.033
-280.486	-187.537	0.340	-0.004
-279.472	-46.743	0.177	-0.085
-278.457	557.582	0.130	0.306
-277.443	-107.297	0.320	0.069
-276.428	214.300	0.084	0.130
-275.413	715.995	0.065	0.168
-274.399	-112.895	-0.151	0.029
-273.384	-167.363	0.392	0.015
-272.370	22.930	0.267	0.215
-271.355	-61.495	-0.469	0.193
-270.340	80.741	0.040	0.042
-269.326	11.442	0.151	0.114
-268.311	485.911	0.194	-0.433
-267.297	-200.000	-0.040	-0.222
-266.282	275.819	0.121	0.210
-265.267	364.077	-0.051	-0.101
-264.253	-200.000	0.074	0.436
-263.238	20.525	-0.052	0.041
-262.224	94.704	0.105	-0.116
-261.209	27.314	-0.282	0.232
-260.195	-88.297	-0.164	0.048
-259.180	478.058	-0.088	0.196
-258.165	213.761	0.169	-0.262
-257.151	76.607	0.079	-0.082
-256.136	-72.727	-0.205	0.074
-255.122	-59.944	0.135	0.057
-254.107	-200.000	-0.032	-0.148
-253.092	403.270	0.099	-0.204
-252.078	191.485	-0.113	0.166
-251.063	-30.637	-0.111	-0.061
-250.049	147.742	-0.414	-0.546
-249.034	9.028	0.192	0.142
-248.019	-96.323	0.242	-0.063
-247.005	310.358	-0.142	0.259
-245.990	229.541	-0.164	0.263
-244.976	592.399	-0.070	-0.168
-243.961	65.959	-0.247	0.245
-242.946	-110.389	0.212	0.043
-241.932	49.969	-0.069	0.064
-240.917	-139.879	0.128	0.013
-239.903	385.214	-0.226	0.457
-238.888	-19.059	0.159	-0.097
-237.873	-168.599	-0.031	-0.001
-236.859	-38.536	-0.174	-0.090
-235.844	-151.323	-0.167	0.012
-234.830	32.664	-0.043	0.036
-233.815	-178.756	-0.047	0.001
-232.800	-94.900	-0.135	-0.036
-231.786	-92.756	-0.283	0.077
-230.771	-71.317	0.106	-0.039
-229.757	-176.146	-0.416	0.011
-228.742	-29.932	-0.219	-0.122
-227.727	-63.547	0.162	-0.065
-226.713	-25.202	-0.209	0.121
-225.698	131.000	0.087	-0.110
-224.684	-200.000	0.496	-0.002
-223.669	46.642	-0.250	0.227
-222.655	83.523	0.116	0.124
-221.640	-70.578	-0.045	0.017
-220.625	-69.879	0.123	-0.046
-219.611	-27.406	0.059	0.033
-218.596	18.357	-0.129	-0.100
-217.582	219.557	0.159	0.248
-216.567	56.598	0.072	-0.068
-215.552	751.889	0.074	-0.194
-214.538	49.336	-0.160	-0.147
-213.523	251.905	-0.066	-0.110
-212.509	-55.150	-0.262	-0.115
-211.494	-110.803	0.242	0.049
-210.479	53.560	-0.053	0.050
-209.465	-92.689	0.163	-0.045
-208.450	-70.666	-0.073	-0.027
-207.436	-99.033	0.166	-0.041
-206.421	-83.389	0.294	-0.092
-205.406	82.195	-0.121	0.128
-204.392	800.000	-0.082	0.344
-203.377	-74.847	0.145	0.051
-202.363	15.856	0.214	0.165
-201.348	50.870	-0.179	0.165
-200.333	-117.088	-0.348	0.062
-199.319	-111.372	0.193	0.038
-198.304	222.050	0.232	0.364
-197.290	-118.977	-0.061	-0.010
-196.275	94.683	0.065	-0.072
-195.260	800.000	0.086	-0.346
-194.246	345.581	0.061	-0.117
-193.231	26.806	0.135	-0.110
-192.217	-21.316	0.107	-0.064
-191.202	18.755	0.228	0.178
-190.187	284.517	-0.032	-0.055
-189.173	-107.886	-0.137	-0.029
-188.158	4.946	0.099	0.071
-187.144	-200.000	0.008	0.118
-186.129	-200.000	-0.044	0.309
-185.114	37.882	0.039	0.034
-184.100	53.549	-0.089	-0.084
-183.085	-13.656	0.092	-0.058
-182.071	29.614	0.022	-0.018
-181.056	-160.917	-0.314	-0.016
-180.042	256.660	-0.166	0.278
-179.027	-82.007	0.084	0.027
-178.012	800.000	0.028	0.092
-176.998	-109.428	-0.126	-0.026
-175.983	5.638	-0.105	0.076
-174.969	800.000	0.055	0.235
-173.954	-200.000	-0.021	0.210
-172.939	-0.805	0.096	-0.066
-171.925	-124.107	0.160	0.024
-170.910	-121.431	-0.213	0.035
-169.896	-87.147	0.228	-0.068
-168.881	-200.000	0.009	0.411
-167.866	130.287	-0.185	-0.231
-166.852	-30.576	0.225	-0.124
-165.837	-103.121	-0.268	-0.062
-164.823	800.000	-0.043	0.138
-163.808	164.755	0.225	-0.309
-162.793	-200.000	-0.072	-0.378
-161.779	-26.471	-0.195	0.112
-160.764	697.173	0.104	0.267
-159.750	800.000	-0.015	-0.047
-158.735	-200.000	0.007	-0.278
-157.720	-104.632	0.283	0.064
-156.706	-4.241	-0.081	-0.055
-155.691	399.122	0.076	0.155
-154.677	-154.718	0.509	0.033
-153.662	161.501	0.110	0.150
-152.647	800.000	0.089	-0.372
-151.633	-54.670	0.218	0.096
-150.618	538.454	0.105	0.243
-149.604	-200.000	-0.019	0.125
-148.589	-36.168	0.226	-0.119
-147.574	-156.844	-0.109	-0.007
-146.560	-92.908	0.255	-0.069
-145.545	45.214	0.283	0.255
-144.531	-200.000	0.020	0.321
-143.516	800.000	0.052	0.213
-142.502	62.628	-0.115	-0.112
-141.487	146.077	-0.205	-0.268
-140.472	-200.000	-0.026	-0.133
-139.458	219.584	0.199	-0.311
-138.443	-66.188	-0.343	0.133
-137.429	-111.172	0.039	0.008
-136.414	-147.729	0.236	-0.019
-135.399	187.639	0.078	0.113
-134.385	800.000	-0.147	0.410
-133.370	23.280	-0.181	-0.145
-132.356	105.103	-0.186	-0.213
-131.341	114.893	0.143	0.170
-130.326	-200.000	0.041	0.537
-129.312	-200.000	0.018	0.249
-128.297	-18.184	0.166	0.101
-127.283	800.000	-0.009	-0.029
-126.268	-200.000	-0.025	0.106
-125.253	800.000	-0.068	-0.225
-124.239	800.000	0.081	-0.263
-123.224	-60.527	0.284	0.117
-122.210	-200.000	-0.012	-0.243
-121.195	112.595	0.141	0.166
