DTS Sentinel unit serial number:	SN413079Multiplexer serial number:	ORYXHardware model number:	OX4-SRSoftware version number:	ORYX F/W v4.00 Oryx Data Collector v3.7.2.0data status	okinstallation	princeton_trtdifferential loss correction	single-endedforward channel	channel 2reverse channel	N/Adate	2019/09/11time	13:37:11forward acquisition time	60.00reverse acquisition time	0.00gamma	496.2192k internal	0.2292k external	0.2292temperature offset calibration	1.0007default loss term (dB/km)	0.3790temperature slope calibration	1.0000multiplexer offset coefficient	1.0000multiplexer slope coefficient	1.0000fibre end	0.00T internal ref (°C)	41.94T ext. ref 1 (°C)	0.84T ext. ref 2 (°C)	35.69length (m)	temperature (°C)	Stokes	anti-Stokes-747.200	800.000	-0.106	0.400
-746.185	-99.058	-0.560	0.145
-745.171	800.000	0.058	0.195
-744.156	168.246	-0.103	0.150
-743.142	-171.038	0.089	0.003
-742.127	69.608	-0.174	0.183
-741.112	-31.182	0.263	0.152
-740.098	710.434	0.102	0.275
-739.083	72.705	0.110	-0.118
-738.069	83.027	0.394	0.438
-737.054	-61.704	0.242	0.104
-736.039	-200.000	0.018	-0.236
-735.025	740.484	0.036	-0.100
-734.010	12.160	-0.200	0.158
-732.996	92.180	-0.027	0.031
-731.981	4.588	-0.107	-0.081
-730.966	-2.543	-0.233	0.167
-729.952	-200.000	-0.015	-0.169
-728.937	-0.906	0.094	-0.068
-727.923	-145.842	-0.317	0.029
-726.908	-75.647	-0.185	-0.067
-725.894	-200.000	-0.010	0.052
-724.879	61.896	-0.405	-0.413
-723.864	-126.755	-0.427	0.065
-722.850	-200.000	0.002	0.265
-721.835	-125.874	0.330	-0.051
-720.821	-10.764	-0.184	0.124
-719.806	-200.000	-0.019	0.159
-718.791	105.235	0.193	-0.233
-717.777	36.464	-0.042	0.037
-716.762	112.996	0.228	-0.283
-715.748	-145.115	-0.373	0.035
-714.733	263.095	-0.073	0.129
-713.718	-35.837	-0.301	-0.167
-712.704	-131.001	0.302	0.041
-711.689	-200.000	0.062	-0.410
-710.675	-141.692	0.134	0.014
-709.660	-200.000	-0.023	0.138
-708.645	-174.736	-0.344	-0.010
-707.631	-0.484	0.514	-0.373
-706.616	800.000	0.049	0.186
-705.602	-91.282	0.461	0.135
-704.587	-26.776	-0.174	0.104
-703.572	400.578	-0.115	0.247
-702.558	65.577	-0.222	-0.230
-701.543	-64.297	0.174	0.072
-700.529	-0.701	0.245	0.178
-699.514	260.300	0.103	0.182
-698.499	800.000	-0.012	-0.037
-697.485	32.574	-0.196	0.173
-696.470	-150.953	-0.031	-0.002
-695.456	18.326	0.241	-0.197
-694.441	-200.000	0.029	-0.281
-693.426	-200.000	-0.024	-0.140
-692.412	-72.131	0.137	-0.052
-691.397	-117.599	-0.057	-0.010
-690.383	-70.844	-0.132	0.051
-689.368	505.789	-0.123	-0.291
-688.354	564.670	-0.033	0.080
-687.339	107.569	-0.057	-0.069
-686.324	320.481	-0.058	-0.112
-685.310	-124.153	-0.152	-0.024
-684.295	-39.577	0.176	0.094
-683.281	-200.000	-0.058	-0.304
-682.266	448.850	0.059	-0.133
-681.251	-46.325	-0.255	-0.128
-680.237	800.000	-0.046	0.147
-679.222	77.093	0.188	-0.204
-678.208	-89.392	-0.295	-0.089
-677.193	243.295	0.107	0.182
-676.178	130.264	0.112	-0.146
-675.164	-200.000	0.009	-0.275
-674.149	-13.110	-0.063	0.042
-673.135	24.978	-0.072	0.061
-672.120	-200.000	-0.012	-0.068
-671.105	83.542	0.047	-0.052
-670.091	334.726	-0.086	-0.170
-669.076	-3.808	0.186	0.132
-668.062	194.972	-0.087	-0.134
-667.047	-52.923	0.189	0.089
-666.032	168.555	0.169	-0.246
-665.018	-160.081	0.074	-0.004
-664.003	430.465	-0.121	-0.268
-662.989	-56.008	0.253	-0.115
-661.974	-200.000	0.004	0.247
-660.959	-159.728	-0.144	0.008
-659.945	800.000	-0.054	0.214
-658.930	-200.000	-0.038	0.280
-657.916	457.895	-0.112	-0.255
-656.901	-175.865	0.177	-0.005
-655.886	-200.000	-0.016	-0.199
-654.872	-114.186	0.232	-0.046
-653.857	115.874	0.174	-0.217
-652.843	-140.808	0.334	0.035
-651.828	-83.648	0.066	0.021
-650.814	-121.987	0.065	0.011
-649.799	331.021	0.018	-0.035
-648.784	-200.000	0.007	0.041
-647.770	16.191	0.214	0.172
-646.755	199.296	-0.227	-0.355
-645.741	26.625	0.044	0.038
-644.726	-200.000	0.033	-0.289
-643.711	-77.854	-0.374	-0.132
-642.697	-71.118	0.189	0.072
-641.682	-200.000	-0.017	-0.177
-640.668	-77.745	-0.224	-0.079
-639.653	53.869	0.185	0.181
-638.638	-27.660	0.363	-0.215
-637.624	46.731	0.071	-0.067
-636.609	-158.020	-0.288	-0.017
-635.595	-4.207	0.152	0.107
-634.580	-114.010	0.190	0.038
-633.565	-38.129	-0.262	0.142
-632.551	-133.920	-0.352	0.045
-631.536	141.116	-0.156	-0.210
-630.522	-95.321	0.106	0.029
-629.507	220.468	-0.161	0.262
-628.492	129.001	-0.009	-0.011
-627.478	57.483	0.056	0.055
-626.463	12.045	-0.214	-0.168
-625.449	-54.735	-0.224	-0.103
-624.434	-200.000	0.024	-0.325
-623.419	-200.000	0.035	0.310
-622.405	-81.930	-0.130	0.043
-621.390	800.000	0.072	0.301
-620.376	-200.000	-0.013	0.229
-619.361	-200.000	-0.001	0.069
-618.346	-114.724	0.130	-0.025
-617.332	178.514	-0.332	-0.494
-616.317	-119.546	0.078	0.014
-615.303	9.288	0.144	0.111
-614.288	-81.105	-0.223	0.075
-613.273	-147.249	-0.195	-0.017
-612.259	-200.000	-0.072	-0.351
-611.244	-32.819	-0.113	0.064
-610.230	154.116	0.139	0.194
-609.215	60.445	0.098	0.099
-608.201	-51.182	0.180	-0.086
-607.186	-200.000	-0.026	-0.296
-606.171	42.599	0.150	-0.139
-605.157	-122.609	0.235	-0.039
-604.142	288.751	0.087	-0.161
-603.128	-78.420	0.369	-0.129
-602.113	800.000	-0.074	-0.235
-601.098	-200.000	0.040	0.398
-600.084	-200.000	-0.064	-0.456
-599.069	260.765	-0.172	-0.303
-598.055	-42.414	-0.230	0.119
-597.040	113.655	0.055	-0.068
-596.025	579.210	-0.116	-0.290
-595.011	110.510	-0.130	0.159
-593.996	-25.617	0.167	0.100
-592.982	800.000	0.075	-0.316
-591.967	2.682	-0.091	-0.067
-590.952	600.859	-0.108	-0.272
-589.938	320.956	0.202	0.391
-588.923	134.266	-0.147	0.194
-587.909	-200.000	0.063	0.287
-586.894	189.310	-0.120	-0.184
-585.879	31.195	0.328	0.287
-584.865	800.000	-0.081	-0.354
-583.850	-200.000	-0.065	0.364
-582.836	-175.424	-0.054	-0.002
-581.821	656.842	0.022	0.057
-580.806	-7.792	0.200	0.137
-579.792	-102.993	0.152	-0.037
-578.777	-62.561	0.180	0.076
-577.763	-72.838	0.248	0.093
-576.748	-118.637	-0.153	-0.027
-575.733	800.000	0.083	0.243
-574.719	-108.936	-0.273	-0.059
-573.704	190.242	0.049	-0.075
-572.690	-53.278	0.574	0.267
-571.675	-88.514	0.078	0.024
-570.661	201.046	0.041	-0.064
-569.646	143.509	0.248	0.336
-568.631	-2.219	0.160	0.114
-567.617	282.325	0.041	0.074
-566.602	-45.013	0.215	0.109
-565.588	-125.240	0.097	-0.015
-564.573	-200.000	-0.049	0.263
-563.558	-6.883	-0.035	-0.024
-562.544	-28.770	0.343	0.201
-561.529	252.044	-0.079	-0.138
-560.515	-200.000	0.070	-0.322
-559.500	-35.254	0.141	0.078
-558.485	26.303	0.069	-0.059
-557.471	-133.082	0.090	0.012
-556.456	-151.968	-0.286	0.021
-555.442	490.121	0.061	-0.142
-554.427	45.971	-0.144	-0.135
-553.412	-20.577	0.191	0.119
-552.398	-54.052	0.123	0.057
-551.383	-200.000	-0.004	0.031
-550.369	-200.000	0.028	-0.190
-549.354	-63.455	0.202	-0.084
-548.339	300.107	-0.207	-0.387
-547.325	-200.000	0.011	0.292
-546.310	288.946	0.148	0.273
-545.296	16.411	-0.380	-0.305
-544.281	268.029	0.196	-0.348
-543.266	-78.165	-0.193	-0.067
-542.252	-200.000	0.020	0.150
-541.237	158.841	-0.086	-0.121
-540.223	39.577	-0.268	-0.244
-539.208	-200.000	0.072	-0.363
-538.193	65.211	-0.115	0.118
-537.179	-146.407	-0.223	0.020
-536.164	800.000	-0.033	-0.095
-535.150	231.660	-0.123	-0.205
-534.135	143.961	0.176	0.239
-533.121	-200.000	-0.038	0.262
-532.106	-200.000	0.018	-0.171
-531.091	-173.743	0.046	0.001
-530.077	25.393	0.202	0.170
-529.062	-34.061	-0.049	-0.027
-528.048	-21.167	-0.155	0.096
-527.033	-37.330	0.316	0.171
-526.018	800.000	0.070	-0.233
-525.004	192.301	0.212	0.325
-523.989	-195.410	-0.076	0.001
-522.975	-200.000	0.022	0.294
-521.960	-27.891	-0.122	-0.072
-520.945	-141.213	0.259	-0.027
-519.931	-44.820	-0.188	-0.095
-518.916	593.985	0.124	-0.311
-517.902	-200.000	-0.015	0.084
-516.887	-96.585	0.335	0.089
-515.872	-200.000	0.048	0.245
-514.858	-29.980	-0.082	0.048
-513.843	745.611	0.106	-0.288
-512.829	58.112	-0.079	0.079
-511.814	24.402	0.086	0.072
-510.799	79.863	-0.188	0.205
-509.785	-36.486	0.205	-0.112
-508.770	-139.773	-0.331	-0.036
-507.756	64.756	0.299	-0.306
-506.741	-200.000	0.002	-0.168
-505.726	-64.343	-0.501	0.207
-504.712	101.159	-0.243	-0.286
-503.697	-34.641	0.382	-0.212
-502.683	-91.337	-0.050	-0.015
-501.668	-200.000	0.014	0.073
-500.653	183.755	0.262	0.393
-499.639	-129.044	0.084	0.012
-498.624	-200.000	-0.005	-0.377
-497.610	800.000	-0.113	-0.349
-496.595	800.000	0.071	-0.293
-495.581	-122.698	-0.300	0.049
-494.566	-112.350	0.315	-0.064
-493.551	-21.634	-0.133	0.082
-492.537	-200.000	0.000	0.370
-491.522	-200.000	0.020	-0.166
-490.508	-168.604	0.367	0.014
-489.493	-200.000	-0.026	-0.267
-488.478	79.730	-0.281	0.305
-487.464	629.902	-0.052	0.133
-486.449	158.599	-0.254	-0.357
-485.435	13.805	-0.240	-0.189
-484.420	-4.002	0.306	-0.215
-483.405	-200.000	-0.019	0.378
-482.391	334.402	0.179	0.351
-481.376	22.050	-0.249	0.206
-480.362	-97.465	-0.349	0.092
-479.347	221.150	0.094	-0.153
-478.332	263.535	0.122	-0.214
-477.318	585.874	-0.110	0.274
-476.303	-78.450	0.198	-0.069
-475.289	800.000	-0.067	-0.223
-474.274	170.185	-0.195	0.283
-473.259	239.075	0.171	0.288
-472.245	261.672	-0.090	0.157
-471.230	-200.000	0.018	-0.221
-470.216	-200.000	-0.019	0.109
-469.201	112.520	-0.143	0.175
-468.186	65.942	0.241	-0.247
-467.172	23.402	-0.021	-0.018
-466.157	17.336	0.219	-0.176
-465.143	-200.000	0.003	0.353
-464.128	-86.767	-0.308	0.095
-463.113	800.000	0.019	-0.081
-462.099	113.481	0.016	-0.020
-461.084	-84.169	0.117	0.037
-460.070	706.313	-0.140	0.375
-459.055	-138.725	-0.303	0.033
-458.040	-35.230	-0.106	0.059
-457.026	701.100	0.059	0.157
-456.011	457.091	-0.113	-0.253
-454.997	104.219	0.171	-0.203
-453.982	98.754	0.130	0.152
-452.968	204.375	0.070	0.110
-451.953	90.051	0.198	0.224
-450.938	55.184	-0.098	0.096
-449.924	-35.546	0.110	-0.060
-448.909	800.000	0.092	-0.354
-447.895	-71.128	-0.151	-0.057
-446.880	-2.397	-0.178	-0.126
-445.865	-85.139	-0.069	0.022
-444.851	-119.679	-0.265	0.046
-443.836	-126.578	0.417	0.063
-442.822	-7.446	0.283	0.194
-441.807	-121.125	-0.084	-0.014
-440.792	-54.520	0.108	-0.050
-439.778	-108.486	0.148	0.032
-438.763	300.280	-0.138	-0.257
-437.749	-143.991	0.289	0.028
-436.734	-200.000	-0.004	0.105
-435.719	57.074	-0.405	0.400
-434.705	-200.000	0.002	0.276
-433.690	0.006	-0.243	-0.175
-432.676	27.504	0.178	-0.151
-431.661	206.003	-0.018	-0.028
-430.646	84.602	-0.360	-0.398
-429.632	-113.850	0.220	-0.043
-428.617	-32.224	0.078	0.044
-427.603	-41.910	-0.305	-0.158
-426.588	121.563	-0.195	-0.246
-425.573	-200.000	-0.052	0.441
-424.559	253.640	0.123	0.213
-423.544	-116.827	-0.236	0.044
-422.530	-200.000	0.002	-0.201
-421.515	6.433	-0.200	0.150
-420.500	171.337	0.100	0.144
-419.486	-200.000	-0.023	0.188
-418.471	-9.856	-0.314	0.211
-417.457	780.560	-0.085	-0.235
-416.442	6.050	-0.440	-0.330
-415.428	-60.380	0.095	-0.041
-414.413	-115.494	-0.061	0.012
-413.398	154.882	-0.161	-0.223
-412.384	92.610	-0.120	0.137
-411.369	747.652	-0.072	-0.195
-410.355	137.225	0.080	-0.106
-409.340	308.495	0.196	0.369
-408.325	24.650	-0.207	0.173
-407.311	-68.908	0.092	-0.036
-406.296	148.859	-0.131	0.179
-405.282	151.367	-0.187	-0.256
-404.267	-170.297	-0.092	-0.003
-403.252	-200.000	-0.027	-0.392
-402.238	-67.875	-0.067	0.027
-401.223	143.664	0.078	0.105
-400.209	-131.640	-0.381	-0.051
-399.194	22.636	-0.207	-0.171
-398.179	-112.589	0.264	0.053
-397.165	641.787	0.097	0.250
-396.150	17.782	-0.048	0.039
-395.136	329.000	-0.122	-0.237
-394.121	-85.144	0.133	-0.042
-393.106	800.000	-0.125	-0.394
-392.092	-92.251	-0.059	0.017
-391.077	-86.105	0.208	0.065
-390.063	-91.929	0.269	0.077
-389.048	800.000	-0.019	-0.070
-388.033	92.594	0.068	0.077
-387.019	482.435	0.132	0.302
-386.004	27.435	-0.214	0.181
-384.990	18.064	0.293	-0.236
-383.975	-176.650	-0.179	-0.005
-382.960	-200.000	-0.033	0.199
-381.946	133.666	0.043	-0.056
-380.931	-81.820	-0.109	-0.036
-379.917	87.838	-0.186	0.208
-378.902	-118.334	0.028	-0.005
-377.888	-137.243	-0.284	-0.033
-376.873	-68.520	0.432	-0.169
-375.858	-34.534	0.109	0.060
-374.844	29.624	-0.124	0.106
-373.829	-200.000	0.037	-0.244
-372.815	32.413	-0.233	-0.203
-371.800	23.795	-0.020	-0.017
-370.785	-200.000	-0.031	-0.266
-369.771	-200.000	-0.057	0.261
-368.756	-44.039	-0.170	-0.086
-367.742	-166.690	0.198	0.008
-366.727	-4.375	-0.157	0.110
-365.712	800.000	-0.088	0.271
-364.698	-110.396	-0.106	-0.022
-363.683	-115.589	0.275	-0.052
-362.669	-62.950	-0.218	0.091
-361.654	-112.394	0.297	0.060
-360.639	-200.000	0.009	-0.497
-359.625	327.989	-0.024	-0.047
-358.610	-81.920	-0.114	-0.038
-357.596	-107.786	0.210	0.046
-356.581	-200.000	0.000	-0.108
-355.566	-43.192	-0.336	0.172
-354.552	-127.003	0.068	-0.010
-353.537	73.869	0.019	0.020
-352.523	30.723	-0.174	-0.150
-351.508	800.000	0.084	-0.350
-350.493	95.432	-0.130	-0.149
-349.479	800.000	-0.045	-0.159
-348.464	-116.601	0.284	0.053
-347.450	-200.000	0.025	-0.179
-346.435	-93.112	0.221	-0.062
-345.420	6.450	-0.063	0.047
-344.406	34.331	0.134	-0.118
-343.391	-192.600	-0.464	-0.004
-342.377	-47.608	-0.190	0.093
-341.362	625.928	-0.024	-0.061
-340.348	800.000	0.062	0.214
-339.333	527.159	0.134	-0.318
-338.318	411.935	-0.159	0.339
-337.304	-200.000	-0.030	0.250
-336.289	-31.257	0.043	0.024
-335.275	141.320	0.232	-0.309
-334.260	-102.606	-0.355	0.085
-333.245	-73.268	-0.107	-0.039
-332.231	123.496	0.159	0.200
-331.216	-103.241	0.312	0.074
-330.202	800.000	0.015	0.066
-329.187	125.050	0.087	-0.110
-328.172	800.000	0.074	-0.307
-327.158	800.000	0.086	0.238
-326.143	65.793	0.148	0.151
-325.129	-41.321	-0.438	-0.227
-324.114	-200.000	-0.051	0.322
-323.099	800.000	-0.041	-0.171
-322.085	172.271	-0.320	0.464
-321.070	-88.013	-0.296	0.090
-320.056	-26.700	0.157	-0.092
-319.041	70.282	-0.147	0.153
-318.026	46.510	-0.308	0.288
-317.012	534.511	-0.129	-0.309
-315.997	566.971	-0.081	-0.198
-314.983	-200.000	0.004	0.299
-313.968	-154.405	0.214	0.014
-312.953	144.326	-0.195	0.262
-311.939	56.342	-0.110	-0.107
-310.924	-123.050	-0.130	-0.021
-309.910	800.000	-0.056	-0.236
-308.895	2.713	0.174	0.127
-307.880	38.826	-0.150	0.134
-306.866	-129.195	0.209	0.029
-305.851	-3.980	-0.228	0.159
-304.837	95.460	-0.086	0.099
-303.822	5.043	0.071	-0.053
-302.807	31.317	0.232	0.200
-301.793	-200.000	0.025	0.247
-300.778	-200.000	0.017	0.094
-299.764	30.668	-0.181	0.156
-298.749	-60.317	-0.096	-0.041
-297.735	5.422	0.275	-0.204
-296.720	33.397	-0.017	0.015
-295.705	244.879	-0.103	0.174
-294.691	800.000	0.067	-0.253
-293.676	-179.973	-0.225	-0.005
-292.662	384.393	0.074	0.153
-291.647	142.734	-0.125	0.167
-290.632	-28.803	-0.122	0.070
-289.618	281.046	-0.057	-0.103
-288.603	95.162	0.037	-0.043
-287.589	-200.000	0.244	-0.001
-286.574	-200.000	-0.033	-0.227
-285.559	-28.533	-0.444	-0.257
-284.545	-116.116	0.052	-0.010
-283.530	361.064	-0.082	-0.165
-282.516	79.341	0.032	-0.034
-281.501	56.732	0.087	-0.085
-280.486	-81.138	0.186	0.062
-279.472	-66.583	-0.157	0.063
-278.457	-123.923	0.100	-0.016
-277.443	-200.000	0.012	0.308
-276.428	-200.000	0.055	-0.354
-275.413	285.246	-0.125	0.227
-274.399	-200.000	0.023	0.158
-273.384	-81.092	0.139	0.046
-272.370	4.977	-0.047	-0.035
-271.355	-200.000	-0.151	-0.001
-270.340	-200.000	0.001	0.343
-269.326	82.785	0.039	0.043
-268.311	-99.971	-0.053	0.013
-267.297	-92.950	0.175	-0.049
-266.282	-105.087	0.398	-0.091
-265.267	46.442	-0.200	0.187
-264.253	-186.955	0.244	0.003
-263.238	521.520	0.075	-0.178
-262.224	43.978	0.162	0.149
-261.209	-52.470	0.280	0.130
-260.195	109.743	0.121	0.145
-259.180	26.780	-0.144	0.121
-258.165	616.937	0.139	0.349
-257.151	-3.959	0.419	0.292
-256.136	-200.000	0.001	0.018
-255.122	-109.701	-0.376	0.080
-254.107	542.111	0.045	-0.108
-253.092	63.934	-0.138	-0.139
-252.078	55.044	0.235	0.228
-251.063	-50.867	-0.229	-0.108
-250.049	-5.663	0.153	-0.105
-249.034	211.874	0.264	-0.417
-248.019	50.429	0.307	-0.291
-247.005	147.410	0.210	-0.284
-245.990	-39.654	-0.065	-0.034
-244.976	-133.180	-0.133	0.017
-243.961	-150.108	-0.268	0.021
-242.946	-52.231	-0.107	0.050
-241.932	-200.000	0.013	-0.201
-240.917	-66.208	0.313	0.125
-239.903	191.186	-0.104	-0.158
-238.888	-126.340	0.204	-0.030
-237.873	-200.000	0.030	-0.187
-236.859	45.985	-0.231	-0.215
-235.844	-169.017	-0.088	-0.003
-234.830	-200.000	-0.032	0.243
-233.815	-200.000	0.034	0.319
-232.800	-166.793	0.088	-0.004
-231.786	375.213	0.043	-0.088
-230.771	800.000	-0.078	0.217
-229.757	-97.207	-0.265	0.070
-228.742	-200.000	-0.013	0.424
-227.727	58.158	0.056	-0.055
-226.713	-153.900	0.430	-0.029
-225.698	-200.000	0.007	-0.124
-224.684	-68.319	0.149	-0.058
-223.669	243.214	0.170	-0.285
-222.655	36.961	0.211	0.187
-221.640	-200.000	-0.017	0.171
-220.625	757.484	-0.107	0.289
-219.611	-144.569	0.123	0.011
-218.596	-53.698	-0.281	-0.129
-217.582	-159.596	0.216	0.012
-216.567	-137.925	0.288	-0.032
-215.552	-200.000	0.006	0.487
-214.538	197.961	-0.121	0.186
-213.523	-200.000	-0.046	-0.215
-212.509	24.493	0.213	-0.177
-211.494	435.604	0.113	0.246
-210.479	-20.751	-0.209	-0.129
-209.465	-28.115	0.159	0.092
-208.450	-155.753	0.221	0.014
-207.436	800.000	-0.109	-0.445
-206.421	800.000	-0.055	0.179
-205.406	-54.760	0.457	0.207
-204.392	-50.389	-0.114	0.054
-203.377	-200.000	0.016	0.283
-202.363	-79.457	0.279	-0.094
-201.348	83.405	0.131	0.144
-200.333	317.493	0.063	-0.119
-199.319	239.192	-0.073	0.121
-198.304	548.814	0.092	-0.220
-197.290	-8.440	-0.291	-0.196
-196.275	-200.000	-0.035	-0.196
-195.260	280.338	-0.058	-0.105
-194.246	-162.604	0.248	-0.012
-193.231	67.479	-0.142	0.145
-192.217	356.608	0.094	-0.187
-191.202	57.434	-0.085	0.083
-190.187	184.566	0.030	0.044
-189.173	-46.431	-0.081	-0.040
-188.158	125.631	-0.192	-0.242
-187.144	-12.063	0.063	0.041
-186.129	-200.000	0.049	-0.435
-185.114	-125.713	0.164	0.025
-184.100	-36.213	-0.061	-0.033
-183.085	11.504	-0.096	0.074
-182.071	15.389	-0.186	-0.146
-181.056	775.816	0.066	0.179
-180.042	-75.035	0.329	-0.118
-179.027	-111.665	0.197	-0.040
-178.012	38.485	0.106	0.094
-176.998	253.404	-0.075	-0.129
-175.983	-78.254	-0.111	0.038
-174.969	800.000	-0.074	-0.283
-173.954	800.000	0.060	-0.205
-172.939	-98.366	-0.202	-0.052
-171.925	-135.403	-0.065	0.008
-170.910	-65.177	-0.232	0.093
-169.896	-200.000	-0.015	0.155
-168.881	461.029	0.082	0.183
-167.866	468.256	-0.084	0.188
-166.852	47.112	0.240	0.224
-165.837	-60.910	-0.117	-0.049
-164.823	243.615	0.126	-0.212
-163.808	-86.222	-0.182	-0.056
-162.793	-159.863	-0.175	0.010
-161.779	-128.731	-0.050	-0.007
-160.764	-200.000	0.029	-0.167
-159.750	425.985	-0.031	-0.067
-158.735	517.777	0.149	-0.348
-157.720	109.770	-0.131	0.158
-156.706	-200.000	-0.061	0.345
-155.691	800.000	0.035	0.126
-154.677	-52.129	0.261	-0.121
-153.662	27.924	-0.100	0.084
-152.647	-134.465	0.148	0.018
-151.633	-200.000	0.006	0.073
-150.618	-88.186	-0.256	-0.077
-149.604	-83.170	-0.253	-0.081
-148.589	-186.172	-0.378	-0.006
-147.574	97.428	-0.114	-0.131
-146.560	800.000	-0.018	0.051
-145.545	-200.000	0.001	-0.096
-144.531	-91.921	0.103	0.029
-143.516	11.614	-0.171	-0.131
-142.502	-200.000	-0.076	0.407
-141.487	800.000	-0.043	0.184
-140.472	800.000	0.068	-0.274
-139.458	267.431	0.220	-0.385
-138.443	-173.245	-0.220	-0.007
-137.429	-23.597	0.130	0.078
-136.414	510.457	0.090	0.210
-135.399	252.312	0.062	0.106
-134.385	551.464	-0.134	-0.322
-133.370	27.628	0.092	-0.077
-132.356	-200.000	0.018	0.124
-131.341	-200.000	0.039	-0.220
-130.326	347.659	0.162	0.319
-129.312	-114.853	-0.292	0.056
-128.297	241.893	-0.131	0.219
-127.283	-136.121	-0.025	-0.003
-126.268	27.734	-0.320	-0.269
-125.253	-139.095	0.388	-0.042
-124.239	118.843	0.201	-0.248
-123.224	800.000	-0.054	-0.183
-122.210	-109.365	0.447	0.095
-121.195	209.406	-0.104	0.163
