DTS Sentinel unit serial number:	SN413079Multiplexer serial number:	ORYXHardware model number:	OX4-SRSoftware version number:	ORYX F/W v4.00 Oryx Data Collector v3.7.2.0data status	okinstallation	princeton_trtdifferential loss correction	single-endedforward channel	channel 2reverse channel	N/Adate	2019/09/17time	09:55:34forward acquisition time	60.00reverse acquisition time	0.00gamma	496.2192k internal	0.2326k external	0.2326temperature offset calibration	0.9976default loss term (dB/km)	0.3790temperature slope calibration	1.0000multiplexer offset coefficient	1.0000multiplexer slope coefficient	1.0000fibre end	0.00T internal ref (°C)	29.55T ext. ref 1 (°C)	0.17T ext. ref 2 (°C)	25.27length (m)	temperature (°C)	Stokes	anti-Stokes-747.200	-42.058	0.076	-0.039
-746.185	-95.960	0.177	-0.048
-745.171	2.331	-0.446	0.326
-744.156	47.156	0.077	0.072
-743.142	-200.000	-0.055	0.282
-742.127	223.526	-0.241	0.393
-741.112	20.338	0.355	0.289
-740.098	-34.808	-0.113	0.062
-739.083	-121.642	0.052	-0.009
-738.069	60.165	-0.334	0.333
-737.054	528.186	0.042	-0.099
-736.039	800.000	0.104	-0.455
-735.025	-200.000	-0.015	0.079
-734.010	-200.000	0.011	-0.340
-732.996	64.805	-0.216	0.220
-731.981	114.652	-0.045	-0.055
-730.966	-131.501	-0.288	0.038
-729.952	545.058	0.204	-0.492
-728.937	-91.461	-0.295	-0.085
-727.923	-29.100	0.180	-0.104
-726.908	-200.000	0.042	0.226
-725.894	-169.701	-0.054	-0.002
-724.879	800.000	-0.064	-0.232
-723.864	-200.000	-0.068	0.358
-722.850	-83.769	0.010	0.003
-721.835	800.000	-0.105	-0.310
-720.821	339.836	-0.088	0.172
-719.806	256.814	0.124	-0.215
-718.791	-200.000	0.045	-0.229
-717.777	-136.287	-0.335	-0.039
-716.762	-148.998	-0.179	-0.015
-715.748	69.748	-0.220	-0.228
-714.733	-35.183	-0.314	-0.172
-713.718	-200.000	-0.021	0.093
-712.704	-144.272	0.226	0.021
-711.689	-200.000	-0.027	-0.404
-710.675	-200.000	0.010	-0.138
-709.660	-200.000	-0.055	0.274
-708.645	-122.319	-0.242	-0.040
-707.631	240.419	-0.110	-0.185
-706.616	-61.622	-0.082	-0.035
-705.602	9.619	0.108	0.082
-704.587	335.853	-0.077	-0.150
-703.572	24.723	-0.190	-0.159
-702.558	-45.969	-0.144	0.071
-701.543	571.184	0.101	-0.248
-700.529	-200.000	-0.019	-0.298
-699.514	-123.188	0.246	0.040
-698.499	-108.217	-0.223	-0.048
-697.485	400.303	0.078	0.165
-696.470	26.675	0.186	-0.157
-695.456	-200.000	-0.040	0.313
-694.441	-45.342	-0.342	0.171
-693.426	-28.268	-0.125	0.072
-692.412	57.068	-0.144	-0.142
-691.397	51.090	-0.072	-0.069
-690.383	543.268	0.100	-0.241
-689.368	105.875	-0.275	-0.328
-688.354	-71.742	-0.278	-0.105
-687.339	-200.000	0.002	0.066
-686.324	11.529	-0.106	-0.082
-685.310	-50.416	-0.333	-0.158
-684.295	319.432	-0.050	-0.096
-683.281	-128.223	-0.153	0.022
-682.266	-78.727	-0.374	-0.129
-681.251	-37.709	-0.188	-0.100
-680.237	-144.082	0.092	0.009
-679.222	-86.075	0.086	-0.027
-678.208	-53.329	0.257	0.119
-677.193	-31.125	-0.251	0.142
-676.178	797.306	-0.186	0.516
-675.164	800.000	0.054	0.191
-674.149	9.837	0.105	-0.080
-673.135	475.638	-0.118	-0.267
-672.120	-53.356	0.214	0.098
-671.105	-200.000	0.069	-0.407
-670.091	59.262	-0.241	0.238
-669.076	-43.603	0.181	0.092
-668.062	32.909	0.157	0.137
-667.047	-115.364	-0.062	0.012
-666.032	49.926	-0.533	0.506
-665.018	157.713	0.054	-0.076
-664.003	-37.197	-0.176	-0.095
-662.989	-200.000	-0.018	0.208
-661.974	-36.754	-0.351	-0.189
-660.959	-200.000	0.031	-0.315
-659.945	127.245	-0.083	0.106
-658.930	406.697	-0.056	-0.119
-657.916	23.418	-0.089	-0.074
-656.901	-110.045	-0.273	-0.057
-655.886	154.311	-0.051	-0.071
-654.872	427.043	0.122	0.263
-653.857	139.213	-0.144	-0.190
-652.843	-162.938	-0.139	0.007
-651.828	-129.415	-0.039	-0.005
-650.814	271.956	0.041	0.072
-649.799	-127.731	0.049	0.007
-648.784	222.503	-0.115	-0.187
-647.770	208.025	-0.071	-0.111
-646.755	502.618	-0.049	-0.114
-645.741	-34.100	-0.221	0.122
-644.726	-9.943	-0.195	0.130
-643.711	-200.000	-0.023	0.126
-642.697	369.533	0.090	-0.182
-641.682	439.111	0.107	-0.234
-640.668	-200.000	0.011	0.214
-639.653	-200.000	0.050	-0.296
-638.638	2.005	0.133	-0.097
-637.624	-68.647	-0.180	-0.070
-636.609	-183.489	-0.183	-0.003
-635.595	521.448	-0.096	0.226
-634.580	-163.236	0.087	-0.004
-633.565	800.000	0.019	0.062
-632.551	800.000	-0.057	-0.159
-631.536	113.905	0.172	-0.211
-630.522	57.935	-0.120	0.118
-629.507	122.310	0.081	0.101
-628.492	800.000	-0.122	-0.386
-627.478	-200.000	-0.002	0.115
-626.463	-200.000	-0.014	0.091
-625.449	-200.000	-0.013	0.197
-624.434	177.112	-0.153	0.223
-623.419	436.363	0.093	0.203
-622.405	-46.419	0.118	0.058
-621.390	-185.895	0.529	0.008
-620.376	-91.103	0.240	0.069
-619.361	-122.120	-0.103	0.017
-618.346	109.579	-0.231	0.278
-617.332	-119.092	-0.481	0.084
-616.317	152.147	-0.069	-0.095
-615.303	122.286	-0.139	-0.174
-614.288	-110.246	0.454	0.095
-613.273	-200.000	-0.026	-0.371
-612.259	-11.631	0.035	0.023
-611.244	800.000	0.058	0.177
-610.230	14.044	-0.026	-0.021
-609.215	-200.000	-0.031	0.151
-608.201	-144.396	-0.352	-0.033
-607.186	-117.718	0.260	-0.047
-606.171	-200.000	0.031	-0.136
-605.157	165.292	-0.056	-0.079
-604.142	410.112	-0.063	-0.134
-603.128	-167.517	-0.110	-0.004
-602.113	266.384	0.102	-0.179
-601.098	-134.119	-0.342	-0.042
-600.084	-160.793	-0.178	0.009
-599.069	236.453	-0.111	0.185
-598.055	-200.000	0.003	-0.053
-597.040	-200.000	0.001	-0.376
-596.025	-6.283	-0.131	0.090
-595.011	-200.000	0.024	0.234
-593.996	58.687	0.138	-0.136
-592.982	-91.629	0.310	0.089
-591.967	121.451	-0.085	0.106
-590.952	7.561	0.166	0.124
-589.938	-1.322	0.267	-0.189
-588.923	800.000	0.012	0.053
-587.909	391.924	-0.200	-0.416
-586.894	175.364	0.170	0.248
-585.879	-57.384	0.259	0.114
-584.865	-106.529	0.107	-0.024
-583.850	59.604	0.256	0.253
-582.836	800.000	0.091	-0.260
-581.821	384.844	-0.130	0.269
-580.806	-140.369	-0.278	-0.029
-579.792	-129.144	0.156	0.022
-578.777	149.422	-0.159	0.216
-577.763	-200.000	0.007	-0.069
-576.748	-21.721	0.215	-0.131
-575.733	-200.000	-0.289	0.000
-574.719	800.000	0.020	-0.074
-573.704	-138.379	-0.029	0.003
-572.690	-200.000	-0.027	-0.199
-571.675	-71.249	0.232	-0.087
-570.661	800.000	0.090	-0.261
-569.646	-200.000	-0.030	-0.416
-568.631	-88.788	0.292	-0.087
-567.617	140.915	0.143	0.190
-566.602	-200.000	-0.013	-0.057
-565.588	26.800	-0.081	-0.068
-564.573	-74.487	-0.330	0.119
-563.558	-110.648	0.111	-0.023
-562.544	-74.219	-0.045	-0.016
-561.529	-27.481	0.039	-0.023
-560.515	-56.787	-0.422	0.187
-559.500	28.806	0.146	0.124
-558.485	-72.698	-0.539	0.199
-557.471	389.724	0.078	0.162
-556.456	-124.374	-0.120	-0.019
-555.442	-7.956	-0.208	-0.140
-554.427	-111.085	-0.140	0.029
-553.412	-69.957	0.277	0.106
-552.398	28.964	-0.266	0.226
-551.383	-66.606	0.086	-0.034
-550.369	124.430	0.012	-0.016
-549.354	-26.966	0.156	-0.091
-548.339	563.743	0.015	0.037
-547.325	-83.800	0.106	0.034
-546.310	-102.071	0.108	-0.026
-545.296	-125.696	-0.248	-0.038
-544.281	753.121	-0.080	-0.216
-543.266	-139.109	-0.180	0.020
-542.252	-126.295	-0.267	-0.040
-541.237	236.925	0.151	0.250
-540.223	-200.000	-0.007	0.086
-539.208	301.516	-0.107	-0.198
-538.193	-130.752	0.255	0.034
-537.179	-1.725	-0.170	0.120
-536.164	780.463	-0.070	0.191
-535.150	390.123	-0.145	-0.300
-534.135	648.642	0.059	-0.151
-533.121	-200.000	-0.003	-0.060
-532.106	9.270	-0.035	0.027
-531.091	363.500	0.064	-0.129
-530.077	-17.033	-0.242	0.153
-529.062	3.797	-0.143	-0.104
-528.048	-136.518	0.418	0.049
-527.033	58.066	-0.347	-0.340
-526.018	-17.001	0.204	-0.129
-525.004	-9.533	0.346	-0.231
-523.989	709.374	0.069	0.183
-522.975	37.105	0.114	-0.101
-521.960	-117.875	-0.125	-0.022
-520.945	800.000	0.091	-0.272
-519.931	243.139	0.133	0.223
-518.916	800.000	-0.071	0.233
-517.902	480.057	-0.017	-0.039
-516.887	-48.724	-0.504	0.242
-515.872	314.828	-0.074	-0.139
-514.858	-51.073	-0.217	0.102
-513.843	-200.000	-0.043	0.235
-512.829	25.505	-0.166	-0.138
-511.814	-19.548	0.229	-0.142
-510.799	86.709	0.297	-0.327
-509.785	-63.119	-0.147	-0.060
-508.770	-200.000	-0.020	0.103
-507.756	-99.915	-0.274	-0.068
-506.741	-62.329	-0.173	-0.072
-505.726	-170.244	0.346	0.012
-504.712	45.317	-0.214	0.197
-503.697	-149.732	0.335	0.026
-502.683	99.257	-0.312	0.361
-501.668	199.606	0.070	-0.107
-500.653	-95.699	0.248	0.066
-499.639	285.418	-0.131	-0.235
-498.624	-200.000	0.002	0.260
-497.610	698.376	-0.059	0.154
-496.595	15.301	0.127	0.100
-495.581	-38.095	-0.100	0.053
-494.566	101.131	0.039	0.046
-493.551	-200.000	-0.027	-0.165
-492.537	-10.436	0.090	-0.060
-491.522	-200.000	0.000	0.065
-490.508	-135.828	0.051	-0.006
-489.493	-200.000	0.004	-0.438
-488.478	216.005	-0.063	-0.100
-487.464	-16.857	-0.254	-0.160
-486.449	-63.914	-0.322	-0.131
-485.435	-108.210	0.268	-0.058
-484.420	6.357	-0.109	0.081
-483.405	387.712	0.060	0.124
-482.391	-33.899	-0.304	0.167
-481.376	41.433	0.098	0.088
-480.362	800.000	-0.040	0.116
-479.347	-77.340	-0.275	0.095
-478.332	-200.000	-0.016	-0.085
-477.318	-72.825	0.206	0.076
-476.303	0.724	0.098	-0.070
-475.289	-176.708	0.342	-0.009
-474.274	800.000	-0.160	0.449
-473.259	105.741	-0.094	-0.111
-472.245	-93.015	-0.389	-0.108
-471.230	-49.558	-0.157	0.075
-470.216	-200.000	0.092	0.550
-469.201	24.204	-0.187	-0.154
-468.186	787.758	-0.154	0.421
-467.172	-119.379	0.340	0.059
-466.157	-58.933	0.135	-0.058
-465.143	-53.147	0.121	-0.056
-464.128	-200.000	0.010	-0.260
-463.113	-200.000	0.008	0.235
-462.099	-67.983	0.236	0.092
-461.084	-200.000	0.001	-0.031
-460.070	-121.082	0.081	-0.014
-459.055	278.461	-0.076	0.135
-458.040	157.986	0.140	-0.194
-457.026	-200.000	-0.044	-0.219
-456.011	-200.000	-0.017	0.355
-454.997	-200.000	0.065	0.366
-453.982	364.855	-0.049	-0.099
-452.968	15.987	-0.209	-0.164
-451.953	11.404	0.264	0.202
-450.938	-73.672	-0.453	-0.164
-449.924	-200.000	0.014	-0.064
-448.909	-76.698	0.402	0.140
-447.895	79.215	-0.220	0.235
-446.880	120.671	0.259	-0.320
-445.865	82.646	-0.170	0.184
-444.851	209.254	0.126	-0.197
-443.836	44.697	-0.075	0.068
-442.822	132.157	-0.198	-0.254
-441.807	-57.218	-0.124	-0.054
-440.792	395.462	-0.049	-0.101
-439.778	-53.381	0.174	-0.079
-438.763	697.013	0.064	0.168
-437.749	257.724	0.057	0.098
-436.734	-87.991	0.076	0.023
-435.719	-135.401	0.100	-0.012
-434.705	-132.704	-0.501	0.064
-433.690	-182.244	0.250	-0.005
-432.676	114.100	0.073	0.088
-431.661	800.000	-0.048	0.161
-430.646	-83.667	0.116	0.037
-429.632	-12.679	0.277	-0.180
-428.617	-200.000	0.011	0.224
-427.603	-94.290	-0.449	0.122
-426.588	800.000	0.035	0.120
-425.573	1.158	0.114	0.082
-424.559	-200.000	-0.006	0.143
-423.544	229.725	-0.058	0.094
-422.530	-126.856	-0.111	-0.016
-421.515	-200.000	0.011	-0.156
-420.500	33.877	0.018	0.015
-419.486	-167.731	0.175	-0.007
-418.471	-51.416	-0.119	-0.055
-417.457	21.150	0.308	-0.249
-416.442	67.145	-0.121	0.123
-415.428	168.161	0.025	-0.035
-414.413	562.148	-0.062	-0.150
-413.398	-163.625	-0.191	0.009
-412.384	-200.000	-0.034	0.227
-411.369	-200.000	-0.000	-0.051
-410.355	82.019	-0.126	-0.136
-409.340	-62.052	-0.371	-0.154
-408.325	16.819	-0.359	-0.283
-407.311	-78.428	-0.138	-0.047
-406.296	-28.056	0.269	0.155
-405.282	-88.598	0.203	0.060
-404.267	190.741	0.088	-0.132
-403.252	-93.608	0.147	0.040
-402.238	13.579	-0.138	0.107
-401.223	575.374	-0.058	-0.142
-400.209	-200.000	-0.036	-0.164
-399.194	104.818	0.015	0.018
-398.179	-181.593	-0.237	-0.005
-397.165	-7.424	-0.141	0.095
-396.150	137.083	0.326	-0.424
-395.136	68.392	-0.340	-0.347
-394.121	800.000	0.031	-0.094
-393.106	800.000	-0.022	-0.084
-392.092	800.000	0.017	-0.067
-391.077	143.793	0.149	-0.197
-390.063	143.050	0.136	-0.180
-389.048	263.601	-0.067	0.116
-388.033	221.361	0.155	-0.248
-387.019	-31.724	0.231	-0.129
-386.004	738.003	0.059	-0.156
-384.990	-117.825	-0.187	0.033
-383.975	800.000	-0.066	0.279
-382.960	-168.069	0.074	-0.003
-381.946	-200.000	0.019	-0.130
-380.931	58.203	-0.041	-0.040
-379.917	-67.158	0.065	0.025
-378.902	369.998	0.121	-0.244
-377.888	12.178	-0.178	-0.136
-376.873	-4.587	0.125	-0.086
-375.858	240.049	0.099	-0.165
-374.844	-120.882	-0.132	-0.022
-373.829	-200.000	-0.005	-0.163
-372.815	-71.007	-0.388	-0.145
-371.800	-23.287	0.106	-0.063
-370.785	-169.107	0.018	0.001
-369.771	-200.000	-0.007	-0.286
-368.756	195.618	0.114	0.172
-367.742	-28.838	0.199	-0.114
-366.727	-200.000	0.023	-0.166
-365.712	-105.687	-0.094	-0.021
-364.698	-27.878	0.221	0.127
-363.683	228.201	-0.094	0.152
-362.669	-140.642	0.069	0.007
-361.654	-91.476	-0.265	-0.075
-360.639	-88.079	-0.214	0.064
-359.625	-39.082	0.134	-0.070
-358.610	-86.031	0.199	-0.061
-357.596	272.325	0.092	0.162
-356.581	157.417	-0.081	-0.112
-355.566	-200.000	-0.019	0.180
-354.552	106.375	-0.138	0.163
-353.537	-200.000	0.004	-0.180
-352.523	207.408	0.097	0.150
-351.508	102.490	0.058	-0.067
-350.493	119.287	0.077	-0.095
-349.479	129.347	0.209	0.264
-348.464	514.688	-0.135	0.312
-347.450	115.371	-0.186	0.226
-346.435	-200.000	-0.007	0.323
-345.420	-200.000	0.004	0.034
-344.406	-137.060	0.075	0.009
-343.391	-168.912	0.230	-0.009
-342.377	19.184	-0.063	-0.050
-341.362	-168.049	0.169	0.007
-340.348	-0.753	-0.185	0.130
-339.333	-46.665	0.069	0.033
-338.318	-32.061	-0.340	-0.189
-337.304	-200.000	-0.004	0.249
-336.289	-26.197	0.073	0.043
-335.275	-200.000	-0.008	0.087
-334.260	24.889	0.337	0.277
-333.245	299.118	0.021	0.039
-332.231	-200.000	-0.025	-0.150
-331.216	-46.521	0.515	-0.251
-330.202	721.414	-0.102	0.270
-329.187	-119.284	-0.221	0.038
-328.172	25.249	-0.130	0.107
-327.158	-24.865	0.061	0.036
-326.143	-26.003	0.224	-0.131
-325.129	-89.087	0.221	-0.065
-324.114	-10.067	-0.065	-0.043
-323.099	97.556	0.174	0.198
-322.085	235.464	-0.132	-0.216
-321.070	800.000	-0.080	0.258
-320.056	-30.512	0.012	-0.007
-319.041	-47.038	0.204	-0.099
-318.026	-200.000	0.005	0.069
-317.012	-49.717	-0.218	0.103
-315.997	-157.651	0.042	0.002
-314.983	37.610	0.112	0.099
-313.968	-23.799	-0.365	-0.217
-312.953	-36.732	0.201	0.107
-311.939	-46.321	0.137	0.067
-310.924	80.651	-0.181	-0.193
-309.910	-200.000	-0.037	-0.208
-308.895	-200.000	-0.027	0.129
-307.880	354.785	0.110	0.217
-306.866	-166.233	-0.301	0.013
-305.851	44.845	-0.237	0.216
-304.837	241.260	-0.081	-0.134
-303.822	57.144	-0.023	-0.022
-302.807	-10.403	0.148	-0.097
-301.793	-84.225	0.106	-0.033
-300.778	-200.000	-0.027	-0.319
-299.764	-200.000	0.066	0.293
-298.749	248.327	0.098	-0.164
-297.735	-148.326	-0.199	0.016
-296.720	26.936	-0.100	0.083
-295.705	-17.073	0.128	-0.080
-294.691	-35.141	-0.050	-0.027
-293.676	475.783	0.039	0.087
-292.662	-39.987	0.156	-0.081
-291.647	-152.786	0.203	-0.014
-290.632	536.154	0.132	0.310
-289.618	86.472	-0.105	0.114
-288.603	5.531	0.434	0.318
-287.589	-200.000	0.031	0.328
-286.574	800.000	0.063	0.183
-285.559	-200.000	-0.014	-0.145
-284.545	-63.565	-0.151	-0.062
-283.530	-60.584	0.357	-0.150
-282.516	6.924	-0.194	0.143
-281.501	-91.335	0.136	0.038
-280.486	-140.571	0.122	-0.013
-279.472	261.900	0.084	0.145
-278.457	-200.000	0.005	0.257
-277.443	18.229	-0.165	-0.130
-276.428	-66.743	-0.074	-0.029
-275.413	121.055	0.302	0.372
-274.399	-200.000	-0.003	0.326
-273.384	356.817	0.064	0.126
-272.370	234.062	-0.067	0.109
-271.355	-122.045	-0.073	-0.012
-270.340	-90.169	-0.156	0.045
-269.326	47.587	0.188	-0.173
-268.311	-71.136	-0.153	-0.057
-267.297	511.697	0.061	-0.142
-266.282	-37.815	0.093	0.049
-265.267	-200.000	0.056	-0.312
-264.253	-51.309	-0.238	-0.110
-263.238	24.268	0.158	-0.129
-262.224	-200.000	0.029	-0.184
-261.209	109.912	0.109	0.130
-260.195	26.312	0.225	-0.186
-259.180	209.095	0.117	-0.181
-258.165	-200.000	-0.130	0.001
-257.151	-200.000	0.004	0.053
-256.136	-166.679	0.413	0.017
-255.122	505.495	0.087	-0.199
-254.107	287.777	0.141	-0.252
-253.092	-110.503	0.159	0.033
-252.078	-18.826	-0.087	-0.054
-251.063	-200.000	-0.084	0.496
-250.049	-12.612	-0.211	0.136
-249.034	-200.000	0.010	0.119
-248.019	29.775	0.313	0.264
-247.005	3.163	0.105	-0.076
-245.990	-23.061	0.266	0.159
-244.976	109.039	-0.061	-0.072
-243.961	94.076	0.183	0.205
-242.946	800.000	-0.081	-0.256
-241.932	150.847	-0.164	-0.220
-240.917	63.813	0.073	-0.072
-239.903	25.375	0.240	-0.197
-238.888	107.141	0.132	-0.155
-237.873	800.000	-0.118	0.356
-236.859	87.284	0.176	-0.192
-235.844	113.094	-0.064	-0.077
-234.830	800.000	-0.035	0.106
-233.815	-103.056	-0.560	-0.131
-232.800	96.714	-0.101	-0.114
-231.786	-70.735	-0.138	-0.052
-230.771	-93.527	0.176	0.048
-229.757	199.861	0.072	-0.109
-228.742	-144.239	-0.125	0.012
-227.727	244.954	-0.126	0.209
-226.713	182.384	-0.177	-0.258
-225.698	-55.145	-0.188	0.084
-224.684	742.581	0.076	0.201
-223.669	-107.413	-0.359	-0.078
-222.655	-11.664	0.047	-0.031
-221.640	592.433	-0.028	-0.067
-220.625	-108.092	-0.108	0.023
-219.611	-114.573	-0.199	-0.038
-218.596	800.000	0.093	-0.354
-217.582	-200.000	0.044	0.367
-216.567	-39.402	0.210	-0.109
-215.552	10.758	0.296	0.223
-214.538	230.200	0.102	0.165
-213.523	93.003	-0.164	-0.184
-212.509	800.000	0.032	-0.125
-211.494	-49.332	0.176	0.083
-210.479	592.007	0.115	-0.280
-209.465	-27.890	-0.104	-0.060
-208.450	245.896	0.044	0.073
-207.436	185.756	0.166	-0.243
-206.421	102.780	-0.202	0.233
-205.406	-132.699	-0.348	-0.044
-204.392	-101.216	-0.336	-0.081
-203.377	718.591	-0.109	-0.287
-202.363	299.268	0.033	-0.060
-201.348	-200.000	-0.071	-0.404
-200.333	-199.552	-0.505	-0.003
-199.319	800.000	0.065	0.183
-198.304	-124.261	-0.214	-0.033
-197.290	-93.639	-0.197	-0.054
-196.275	-16.765	-0.037	-0.023
-195.260	800.000	-0.053	-0.220
-194.246	-153.669	0.300	0.020
-193.231	-100.494	-0.383	-0.094
-192.217	-146.325	0.148	-0.013
-191.202	800.000	0.068	0.204
-190.187	-32.538	0.148	0.082
-189.173	-108.741	-0.273	-0.058
-188.158	-200.000	0.003	0.023
-187.144	-93.609	0.355	0.097
-186.129	800.000	-0.042	-0.157
-185.114	279.707	0.054	0.094
-184.100	123.389	0.085	-0.105
-183.085	-133.785	0.031	-0.004
-182.071	-200.000	-0.012	0.356
-181.056	-200.000	0.005	0.413
-180.042	-90.503	0.274	0.078
-179.027	40.149	-0.281	-0.249
-178.012	237.600	0.054	0.089
-176.998	-200.000	-0.038	0.208
-175.983	-200.000	-0.024	0.180
-174.969	-5.824	-0.267	0.180
-173.954	659.011	0.068	0.173
-172.939	20.048	0.150	-0.119
-171.925	-73.590	0.305	0.110
-170.910	88.312	0.238	0.260
-169.896	206.470	-0.074	-0.114
-168.881	206.809	-0.068	0.105
-167.866	-200.000	-0.033	-0.208
-166.852	-93.915	0.211	-0.057
-165.837	-200.000	-0.023	0.128
-164.823	152.713	0.179	0.242
-163.808	98.327	0.121	0.138
-162.793	-117.166	0.370	0.066
-161.779	280.171	-0.120	0.211
-160.764	7.535	-0.152	0.112
-159.750	374.628	0.141	-0.283
-158.735	-200.000	0.001	-0.254
-157.720	254.757	-0.055	-0.093
-156.706	-38.076	0.085	-0.045
-155.691	-200.000	0.015	-0.084
-154.677	-103.395	0.337	0.078
-153.662	100.650	0.094	0.108
-152.647	527.437	0.141	-0.328
-151.633	-17.703	-0.222	-0.138
-150.618	154.208	-0.121	0.164
-149.604	-37.873	0.116	-0.061
-148.589	203.112	0.023	0.035
-147.574	800.000	0.120	0.335
-146.560	-58.385	-0.178	0.076
-145.545	-74.235	0.167	0.059
-144.531	-5.250	0.354	-0.240
-143.516	-2.064	0.117	-0.081
-142.502	-20.003	-0.477	-0.290
-141.487	-134.660	0.263	0.032
-140.472	-6.356	0.174	0.117
-139.458	-200.000	0.007	0.051
-138.443	-200.000	-0.001	0.059
-137.429	-200.000	0.000	0.053
-136.414	87.528	0.101	0.110
-135.399	-133.318	0.320	-0.040
-134.385	479.128	0.124	0.277
-133.370	52.009	0.223	-0.209
-132.356	800.000	-0.020	0.088
-131.341	62.952	-0.216	0.213
-130.326	-85.150	0.011	-0.003
-129.312	-153.220	-0.160	-0.011
-128.297	-200.000	0.053	-0.241
-127.283	-141.479	0.297	-0.030
-126.268	112.223	0.100	-0.119
-125.253	-200.000	0.005	-0.072
-124.239	-33.504	0.090	-0.049
-123.224	-160.888	-0.159	0.008
-122.210	800.000	0.030	-0.096
