DTS Sentinel unit serial number:	SN413079Multiplexer serial number:	ORYXHardware model number:	OX4-SRSoftware version number:	ORYX F/W v4.00 Oryx Data Collector v3.7.2.0data status	okinstallation	princeton_trtdifferential loss correction	single-endedforward channel	channel 2reverse channel	N/Adate	2019/09/18time	05:43:34forward acquisition time	60.00reverse acquisition time	0.00gamma	496.2192k internal	0.2349k external	0.2349temperature offset calibration	0.9986default loss term (dB/km)	0.3790temperature slope calibration	1.0000multiplexer offset coefficient	1.0000multiplexer slope coefficient	1.0000fibre end	0.00T internal ref (°C)	23.31T ext. ref 1 (°C)	0.19T ext. ref 2 (°C)	16.86length (m)	temperature (°C)	Stokes	anti-Stokes-747.200	136.692	0.140	-0.182
-746.185	-120.549	-0.228	0.039
-745.171	36.647	0.103	0.091
-744.156	71.325	0.192	0.199
-743.142	95.205	-0.269	0.306
-742.127	160.742	-0.152	0.211
-741.112	-53.760	0.171	-0.078
-740.098	-80.871	-0.203	-0.067
-739.083	281.905	-0.144	0.258
-738.069	169.850	-0.328	0.468
-737.054	-200.000	-0.028	0.157
-736.039	-200.000	0.003	-0.015
-735.025	-200.000	0.004	0.135
-734.010	143.342	-0.069	-0.091
-732.996	66.741	-0.312	0.317
-731.981	91.233	0.161	-0.181
-730.966	114.723	0.332	0.404
-729.952	-200.000	-0.013	0.145
-728.937	-90.059	0.162	-0.047
-727.923	-200.000	-0.075	-0.378
-726.908	35.390	-0.212	-0.185
-725.894	22.024	-0.188	-0.153
-724.879	72.399	-0.060	0.063
-723.864	-31.060	-0.143	0.081
-722.850	141.743	-0.246	0.325
-721.835	377.851	-0.086	-0.176
-720.821	25.112	-0.133	0.110
-719.806	45.724	0.080	0.074
-718.791	-200.000	-0.007	-0.258
-717.777	-16.744	0.180	0.114
-716.762	-200.000	0.220	-0.000
-715.748	-75.303	0.084	-0.030
-714.733	-200.000	0.019	-0.253
-713.718	28.802	-0.380	0.321
-712.704	-200.000	-0.066	0.301
-711.689	41.437	0.048	-0.044
-710.675	163.703	0.081	-0.114
-709.660	45.320	-0.182	0.167
-708.645	-8.088	-0.117	-0.078
-707.631	326.381	0.084	-0.160
-706.616	112.681	-0.078	0.094
-705.602	60.569	-0.094	-0.093
-704.587	-22.452	-0.294	0.177
-703.572	-200.000	-0.023	0.168
-702.558	95.129	0.188	0.213
-701.543	382.027	0.122	0.250
-700.529	-53.544	-0.229	-0.104
-699.514	-35.535	0.146	-0.079
-698.499	800.000	-0.082	-0.338
-697.485	389.846	0.061	-0.125
-696.470	-25.309	-0.221	-0.130
-695.456	64.445	-0.248	-0.249
-694.441	2.888	0.271	-0.196
-693.426	49.504	-0.045	-0.042
-692.412	58.769	-0.126	-0.124
-691.397	-200.000	0.037	-0.459
-690.383	-141.576	-0.314	0.032
-689.368	-84.543	0.268	0.084
-688.354	175.283	0.230	0.332
-687.339	257.918	-0.043	-0.073
-686.324	106.156	-0.314	-0.371
-685.310	-118.626	0.109	-0.019
-684.295	-96.437	-0.075	0.020
-683.281	-74.489	-0.164	-0.059
-682.266	-114.711	0.196	-0.037
-681.251	78.011	0.179	-0.190
-680.237	-54.851	0.266	-0.120
-679.222	800.000	0.084	0.251
-678.208	-188.356	0.083	-0.001
-677.193	-16.123	0.133	-0.084
-676.178	128.222	0.166	-0.211
-675.164	-12.071	-0.077	-0.050
-674.149	800.000	-0.035	-0.149
-673.135	800.000	0.040	0.118
-672.120	242.356	-0.117	0.194
-671.105	-113.174	-0.329	-0.065
-670.091	-16.563	-0.038	-0.024
-669.076	8.669	0.342	0.256
-668.062	-61.612	-0.254	-0.106
-667.047	-32.407	0.310	-0.172
-666.032	184.747	-0.034	-0.050
-665.018	-200.000	0.012	-0.276
-664.003	-4.828	0.248	-0.170
-662.989	-7.649	-0.351	-0.236
-661.974	77.456	0.089	0.095
-660.959	-200.000	-0.012	0.265
-659.945	128.687	-0.063	-0.080
-658.930	-86.648	0.310	0.094
-657.916	0.794	0.010	0.007
-656.901	23.529	-0.158	-0.129
-655.886	-88.657	-0.509	-0.151
-654.872	-200.000	-0.033	-0.167
-653.857	33.057	-0.174	0.150
-652.843	-66.764	0.196	0.077
-651.828	-175.555	-0.160	-0.004
-650.814	143.780	-0.105	0.139
-649.799	5.039	0.217	-0.159
-648.784	538.642	-0.097	-0.230
-647.770	-25.396	0.237	-0.139
-646.755	183.289	-0.119	-0.175
-645.741	800.000	0.159	0.506
-644.726	-78.841	0.099	0.034
-643.711	-166.651	0.216	-0.009
-642.697	-101.108	-0.222	-0.054
-641.682	-200.000	-0.040	-0.351
-640.668	-147.976	-0.322	0.027
-639.653	-75.634	-0.329	0.116
-638.638	9.261	-0.366	-0.275
-637.624	800.000	0.077	0.212
-636.609	85.089	0.126	0.137
-635.595	-200.000	0.006	-0.067
-634.580	115.194	-0.166	-0.202
-633.565	34.989	-0.144	-0.125
-632.551	-200.000	0.017	-0.232
-631.536	244.323	0.131	0.219
-630.522	100.818	0.321	0.371
-629.507	-87.605	-0.182	-0.055
-628.492	74.072	0.062	-0.065
-627.478	189.477	-0.151	-0.225
-626.463	-200.000	-0.021	-0.336
-625.449	132.689	0.171	0.219
-624.434	-17.235	-0.081	-0.050
-623.419	-200.000	0.128	-0.000
-622.405	800.000	0.015	0.058
-621.390	-200.000	0.024	0.145
-620.376	-200.000	-0.028	0.138
-619.361	214.440	-0.134	0.212
-618.346	200.743	-0.044	0.068
-617.332	710.540	0.043	0.112
-616.317	233.945	0.140	0.229
-615.303	125.966	0.119	0.149
-614.288	-192.681	-0.079	0.001
-613.273	-41.473	0.242	0.124
-612.259	-58.338	0.150	-0.065
-611.244	32.910	-0.070	0.060
-610.230	-126.414	-0.058	0.009
-609.215	800.000	-0.108	0.350
-608.201	17.535	-0.094	-0.074
-607.186	-200.000	-0.001	0.019
-606.171	-49.802	0.263	-0.124
-605.157	75.796	-0.022	0.023
-604.142	-200.000	0.012	-0.109
-603.128	-10.209	-0.137	0.090
-602.113	395.272	0.066	0.137
-601.098	-200.000	0.050	0.277
-600.084	221.971	0.156	0.249
-599.069	-41.294	-0.122	-0.062
-598.055	600.874	-0.044	0.108
-597.040	-37.545	0.118	-0.062
-596.025	-157.573	0.194	0.012
-595.011	-12.032	0.141	-0.092
-593.996	-116.895	0.033	-0.006
-592.982	-18.166	0.041	-0.025
-591.967	87.365	-0.101	0.111
-590.952	316.183	-0.115	-0.215
-589.938	-15.119	-0.136	-0.087
-588.923	-200.000	0.025	-0.128
-587.909	-200.000	0.078	0.401
-586.894	178.021	-0.108	-0.156
-585.879	67.287	-0.134	-0.136
-584.865	98.812	0.016	-0.018
-583.850	35.850	0.112	0.098
-582.836	235.125	0.201	-0.328
-581.821	13.883	0.106	-0.082
-580.806	-59.463	0.082	-0.035
-579.792	332.891	-0.177	0.340
-578.777	800.000	-0.032	-0.111
-577.763	34.007	0.095	0.082
-576.748	-23.470	-0.219	0.131
-575.733	15.779	-0.144	-0.112
-574.719	64.345	0.228	0.227
-573.704	644.353	-0.079	0.200
-572.690	-21.286	0.061	-0.037
-571.675	800.000	-0.009	0.034
-570.661	-8.632	0.230	0.153
-569.646	749.094	-0.104	-0.279
-568.631	53.961	0.242	-0.231
-567.617	27.881	0.114	0.095
-566.602	-114.965	0.229	0.043
-565.588	-42.327	-0.186	0.094
-564.573	-200.000	0.018	0.174
-563.558	-171.593	-0.096	-0.003
-562.544	252.484	0.091	-0.154
-561.529	371.560	-0.136	-0.275
-560.515	149.388	-0.061	-0.082
-559.500	-7.846	0.102	-0.068
-558.485	-67.071	-0.337	0.132
-557.471	-144.349	0.254	0.023
-556.456	508.130	-0.059	-0.135
-555.442	278.681	0.082	-0.145
-554.427	800.000	-0.106	0.351
-553.412	15.952	0.055	-0.043
-552.398	72.839	-0.065	-0.067
-551.383	-200.000	-0.001	-0.302
-550.369	-74.013	-0.147	-0.053
-549.354	-200.000	0.102	-0.000
-548.339	143.879	-0.157	-0.208
-547.325	114.850	-0.100	-0.121
-546.310	469.216	-0.033	-0.074
-545.296	209.767	0.146	-0.227
-544.281	800.000	-0.027	0.105
-543.266	-200.000	0.012	0.064
-542.252	468.688	-0.111	-0.247
-541.237	47.282	-0.159	0.147
-540.223	133.223	-0.157	-0.201
-539.208	800.000	0.061	-0.196
-538.193	-200.000	-0.001	-0.069
-537.179	800.000	0.017	0.057
-536.164	-200.000	0.017	0.097
-535.150	120.225	-0.065	0.080
-534.135	46.103	-0.118	-0.108
-533.121	-120.344	0.266	0.045
-532.106	-107.913	0.169	0.036
-531.091	-200.000	-0.022	-0.140
-530.077	190.538	-0.195	0.290
-529.062	-200.000	-0.028	-0.228
-528.048	-200.000	0.000	-0.073
-527.033	-94.629	-0.314	0.085
-526.018	242.253	-0.115	-0.190
-525.004	87.206	-0.097	-0.107
-523.989	39.053	0.256	0.227
-522.975	199.393	-0.218	-0.330
-521.960	800.000	0.044	0.155
-520.945	212.000	0.186	0.290
-519.931	137.054	-0.095	0.123
-518.916	-98.788	0.089	-0.022
-517.902	3.316	0.307	-0.222
-516.887	-80.570	-0.280	-0.092
-515.872	406.478	0.110	-0.230
-514.858	-48.406	-0.295	-0.141
-513.843	-200.000	0.014	0.168
-512.829	-27.372	-0.188	0.109
-511.814	-200.000	0.038	0.260
-510.799	-30.226	-0.168	-0.095
-509.785	-60.299	0.357	-0.151
-508.770	-160.129	-0.276	0.015
-507.756	128.843	-0.096	0.122
-506.741	603.688	-0.087	0.215
-505.726	453.312	0.024	0.052
-504.712	98.035	-0.114	-0.129
-503.697	-167.051	0.184	0.007
-502.683	38.148	-0.095	-0.084
-501.668	-173.444	-0.164	0.005
-500.653	-66.283	-0.306	-0.120
-499.639	96.620	0.211	-0.239
-498.624	-135.353	0.139	0.016
-497.610	-62.647	0.407	0.167
-496.595	187.864	-0.113	0.168
-495.581	660.714	0.042	-0.107
-494.566	-200.000	0.033	0.170
-493.551	454.611	-0.135	-0.297
-492.537	-200.000	-0.019	-0.154
-491.522	-26.436	-0.292	0.169
-490.508	73.252	0.073	0.075
-489.493	323.200	-0.134	0.252
-488.478	-102.168	0.285	-0.068
-487.464	-200.000	-0.013	-0.066
-486.449	658.532	0.059	-0.149
-485.435	-200.000	-0.014	0.193
-484.420	59.423	0.258	-0.251
-483.405	-29.693	0.130	0.073
-482.391	-68.707	-0.228	0.087
-481.376	-200.000	0.031	0.214
-480.362	105.010	-0.201	-0.235
-479.347	15.012	-0.270	-0.209
-478.332	39.023	0.045	0.040
-477.318	-200.000	-0.024	0.249
-476.303	137.452	-0.095	0.123
-475.289	800.000	-0.017	0.070
-474.274	122.542	-0.028	-0.035
-473.259	592.777	0.095	0.232
-472.245	-116.588	0.341	0.062
-471.230	315.493	-0.109	-0.203
-470.216	13.472	-0.228	0.175
-469.201	-200.000	0.051	-0.326
-468.186	344.156	0.076	-0.147
-467.172	-200.000	-0.036	0.540
-466.157	-109.176	-0.153	0.032
-465.143	426.928	0.154	-0.328
-464.128	-200.000	-0.052	-0.272
-463.113	-200.000	-0.036	-0.332
-462.099	800.000	-0.022	-0.092
-461.084	250.797	0.136	-0.229
-460.070	104.391	0.229	-0.266
-459.055	-147.207	-0.495	-0.042
-458.040	-21.852	-0.200	0.120
-457.026	-143.457	-0.238	-0.022
-456.011	-158.132	0.199	0.012
-454.997	800.000	0.038	0.124
-453.982	12.406	0.162	0.123
-452.968	98.796	-0.083	-0.095
-451.953	800.000	0.096	0.282
-450.938	546.453	0.179	0.423
-449.924	800.000	0.079	0.295
-448.909	-200.000	0.003	-0.143
-447.895	-100.389	0.309	-0.076
-446.880	-200.000	-0.004	0.110
-445.865	-96.612	0.279	-0.073
-444.851	40.479	-0.104	-0.092
-443.836	24.440	-0.109	0.089
-442.822	163.797	0.073	-0.101
-441.807	-101.445	0.331	-0.080
-440.792	800.000	0.096	0.267
-439.778	-200.000	0.053	-0.551
-438.763	7.293	0.090	-0.066
-437.749	53.233	0.085	0.080
-436.734	-21.666	-0.324	-0.195
-435.719	95.001	0.210	-0.236
-434.705	42.218	-0.187	-0.167
-433.690	-200.000	-0.015	0.239
-432.676	18.142	-0.227	0.178
-431.661	-200.000	0.035	0.292
-430.646	-100.951	0.269	0.065
-429.632	247.500	0.135	0.225
-428.617	71.334	-0.343	-0.351
-427.603	38.840	0.327	-0.288
-426.588	-62.317	0.185	-0.076
-425.573	-90.519	-0.109	0.031
-424.559	581.171	-0.046	0.112
-423.544	-44.596	0.086	0.043
-422.530	-53.058	-0.257	-0.116
-421.515	-200.000	-0.039	-0.179
-420.500	800.000	0.047	-0.155
-419.486	-175.512	0.298	0.008
-418.471	-25.730	-0.192	-0.111
-417.457	-109.393	-0.025	0.005
-416.442	272.964	0.080	-0.139
-415.428	800.000	0.078	0.268
-414.413	-200.000	-0.013	0.223
-413.398	70.356	0.030	0.031
-412.384	183.195	-0.021	0.030
-411.369	584.977	-0.105	0.255
-410.355	-24.767	0.209	0.122
-409.340	800.000	0.041	0.169
-408.325	-200.000	-0.028	0.182
-407.311	-200.000	0.048	-0.397
-406.296	340.185	-0.093	-0.179
-405.282	-36.132	0.218	0.116
-404.267	800.000	-0.107	0.363
-403.252	800.000	0.070	0.228
-402.238	-162.235	-0.289	-0.014
-401.223	-167.788	0.091	0.004
-400.209	120.583	-0.244	-0.298
-399.194	-103.744	-0.168	0.039
-398.179	469.979	0.020	0.045
-397.165	800.000	-0.040	0.157
-396.150	382.326	0.183	0.370
-395.136	-97.670	-0.194	-0.050
-394.121	-30.382	-0.226	-0.126
-393.106	800.000	0.051	-0.142
-392.092	-55.585	0.156	-0.069
-391.077	64.484	0.137	-0.136
-390.063	-200.000	-0.025	-0.419
-389.048	-200.000	-0.017	-0.407
-388.033	-200.000	-0.068	0.307
-387.019	480.874	0.074	0.165
-386.004	8.870	-0.331	0.246
-384.990	-200.000	0.027	-0.314
-383.975	110.911	-0.064	-0.076
-382.960	346.162	-0.162	-0.314
-381.946	-200.000	0.018	-0.156
-380.931	-106.410	-0.180	0.040
-379.917	676.189	-0.024	-0.061
-378.902	-85.530	0.331	-0.101
-377.888	-120.259	-0.234	-0.039
-376.873	-200.000	0.013	0.113
-375.858	-200.000	-0.011	0.097
-374.844	135.294	-0.110	0.141
-373.829	-200.000	-0.004	-0.065
-372.815	49.591	0.090	0.083
-371.800	-105.429	0.273	-0.061
-370.785	102.579	-0.090	-0.104
-369.771	-128.028	-0.154	-0.022
-368.756	-122.338	-0.154	-0.025
-367.742	-200.000	-0.037	-0.236
-366.727	216.431	0.195	-0.305
-365.712	97.262	-0.060	-0.068
-364.698	-27.683	-0.313	0.179
-363.683	169.950	-0.041	-0.057
-362.669	-163.059	-0.231	-0.011
-361.654	48.957	-0.333	0.308
-360.639	-200.000	-0.037	0.258
-359.625	417.419	-0.121	0.254
-358.610	141.671	0.124	0.161
-357.596	-200.000	-0.026	0.156
-356.581	80.657	-0.256	0.272
-355.566	-171.584	0.136	0.004
-354.552	-23.916	0.093	0.055
-353.537	49.306	-0.317	0.293
-352.523	-180.905	-0.335	0.007
-351.508	-200.000	-0.017	0.093
-350.493	275.919	-0.026	0.046
-349.479	135.967	0.009	0.011
-348.464	-200.000	-0.032	-0.178
-347.450	-200.000	0.038	-0.174
-346.435	-41.033	0.133	-0.067
-345.420	-106.132	-0.328	0.073
-344.406	-57.929	-0.356	0.153
-343.391	111.990	-0.216	-0.257
-342.377	85.295	0.178	0.192
-341.362	139.294	-0.019	-0.025
-340.348	276.197	-0.217	-0.379
-339.333	562.092	0.096	-0.228
-338.318	533.931	0.074	-0.172
-337.304	595.245	0.131	-0.319
-336.289	108.084	-0.128	-0.150
-335.275	163.468	0.180	-0.248
-334.260	-34.218	-0.117	-0.063
-333.245	297.445	0.234	0.423
-332.231	38.657	0.052	-0.045
-331.216	9.774	0.126	0.094
-330.202	-135.225	-0.367	-0.043
-329.187	-200.000	-0.050	-0.226
-328.172	-66.849	-0.294	-0.114
-327.158	800.000	-0.097	0.293
-326.143	157.023	-0.085	0.115
-325.129	-22.364	-0.291	-0.173
-324.114	-66.700	-0.271	0.105
-323.099	732.543	-0.016	-0.042
-322.085	510.421	-0.050	-0.115
-321.070	-124.469	-0.119	-0.018
-320.056	-25.959	-0.232	-0.134
-319.041	-164.967	0.142	0.006
-318.026	-132.432	-0.186	0.024
-317.012	800.000	-0.048	-0.193
-315.997	-200.000	0.024	-0.201
-314.983	386.022	0.030	0.060
-313.968	-110.827	0.199	-0.040
-312.953	-75.851	-0.041	0.014
-311.939	241.169	-0.135	-0.221
-310.924	119.744	0.064	0.078
-309.910	-76.957	-0.224	0.077
-308.895	61.816	0.169	-0.166
-307.880	-85.831	-0.323	0.098
-306.866	247.403	0.164	-0.272
-305.851	232.721	-0.188	-0.303
-304.837	800.000	-0.008	0.031
-303.822	32.739	0.248	0.211
-302.807	395.146	0.055	0.113
-301.793	-90.735	-0.213	0.060
-300.778	-108.010	0.187	0.040
-299.764	-94.481	-0.306	0.082
-298.749	-60.971	0.019	-0.008
-297.735	561.625	-0.070	0.165
-296.720	-200.000	-0.045	0.239
-295.705	-107.993	0.404	0.086
-294.691	-162.815	0.207	0.010
-293.676	502.772	-0.131	0.297
-292.662	-5.864	0.073	0.049
-291.647	-168.951	-0.142	-0.005
-290.632	-14.784	-0.154	0.097
-289.618	-200.000	0.027	0.316
-288.603	800.000	-0.044	0.141
-287.589	-200.000	0.060	-0.309
-286.574	800.000	0.120	-0.361
-285.559	800.000	0.057	-0.239
-284.545	-9.590	0.256	0.167
-283.530	-200.000	0.086	0.432
-282.516	179.282	0.321	-0.460
-281.501	55.511	-0.074	0.070
-280.486	64.032	-0.148	-0.146
-279.472	-114.531	0.389	-0.073
-278.457	-200.000	0.030	0.245
-277.443	380.130	-0.120	-0.242
-276.428	-55.266	0.165	-0.073
-275.413	-9.334	-0.128	0.084
-274.399	-200.000	-0.001	0.203
-273.384	254.694	-0.109	0.182
-272.370	527.352	0.114	0.263
-271.355	800.000	-0.050	-0.156
-270.340	-200.000	-0.014	0.250
-269.326	-200.000	-0.006	-0.063
-268.311	153.222	-0.087	0.117
-267.297	-200.000	0.016	-0.112
-266.282	111.775	0.181	-0.214
-265.267	259.202	0.142	0.240
-264.253	-200.000	-0.003	-0.092
-263.238	-116.385	0.117	-0.021
-262.224	-115.796	0.218	-0.040
-261.209	50.073	0.371	-0.343
-260.195	-200.000	-0.004	0.432
-259.180	118.096	-0.040	0.048
-258.165	22.657	0.147	0.118
-257.151	581.192	0.030	0.072
-256.136	15.103	0.349	-0.268
-255.122	-123.070	0.249	0.039
-254.107	-93.933	0.084	-0.023
-253.092	-200.000	0.065	-0.406
-252.078	-161.402	-0.275	0.014
-251.063	-82.588	-0.226	0.072
-250.049	-6.567	-0.138	0.092
-249.034	800.000	-0.144	0.400
-248.019	-137.472	0.371	0.041
-247.005	195.536	-0.310	-0.462
-245.990	-160.361	-0.155	0.008
-244.976	-173.917	0.293	-0.008
-243.961	89.746	0.178	0.194
-242.946	-151.112	-0.322	0.024
-241.932	-200.000	0.001	-0.314
-240.917	-146.514	-0.078	0.007
-239.903	-200.000	-0.053	0.298
-238.888	-200.000	-0.008	-0.106
-237.873	-139.884	0.046	-0.005
-236.859	-79.548	-0.207	-0.068
-235.844	-33.705	0.346	0.187
-234.830	-46.448	0.125	-0.060
-233.815	61.365	0.238	-0.232
-232.800	-200.000	-0.035	-0.331
-231.786	153.128	-0.124	-0.167
-230.771	127.833	-0.077	-0.096
-229.757	-24.920	-0.323	0.187
-228.742	252.332	0.129	-0.215
-227.727	110.517	-0.122	-0.144
-226.713	-102.951	0.223	-0.052
-225.698	-40.892	0.081	-0.041
-224.684	-200.000	-0.026	-0.172
-223.669	-31.707	0.361	-0.198
-222.655	-64.609	0.334	0.133
-221.640	1.159	0.232	-0.163
-220.625	-200.000	-0.006	0.380
-219.611	12.399	-0.037	-0.028
-218.596	254.441	-0.213	0.357
-217.582	-8.438	-0.298	0.196
-216.567	249.872	0.262	0.434
-215.552	525.543	-0.057	0.130
-214.538	-2.807	0.042	0.029
-213.523	27.949	-0.174	0.144
-212.509	510.779	0.149	0.339
-211.494	-200.000	-0.022	0.188
-210.479	64.309	0.178	0.175
-209.465	800.000	-0.158	-0.515
-208.450	122.487	-0.138	0.169
-207.436	112.015	-0.127	0.150
-206.421	-115.458	-0.197	-0.036
-205.406	-126.773	-0.252	-0.036
-204.392	249.494	-0.019	-0.031
-203.377	-7.035	-0.126	-0.083
-202.363	66.593	0.309	-0.307
-201.348	-14.992	0.176	-0.110
-200.333	677.975	-0.058	0.147
-199.319	188.198	-0.021	-0.031
-198.304	-82.345	0.249	0.079
-197.290	-137.013	-0.127	0.014
-196.275	-71.657	0.239	-0.087
-195.260	95.924	-0.240	0.268
-194.246	6.682	-0.158	0.115
-193.231	-126.886	0.228	-0.033
-192.217	-166.898	-0.384	0.015
-191.202	57.735	-0.106	-0.101
-190.187	121.969	-0.131	0.160
-189.173	81.770	0.120	-0.127
-188.158	633.202	0.146	0.362
-187.144	244.036	-0.070	-0.114
-186.129	-110.498	0.192	-0.039
-185.114	-66.602	-0.317	0.123
-184.100	-30.607	0.244	0.135
-183.085	552.155	0.042	-0.099
-182.071	140.678	0.169	0.218
-181.056	3.096	0.109	-0.077
-180.042	2.932	0.216	-0.153
-179.027	-109.876	0.312	0.064
-178.012	224.037	0.050	0.079
-176.998	227.611	0.085	-0.134
-175.983	-200.000	-0.009	-0.094
-174.969	-149.645	0.029	0.002
-173.954	725.400	-0.033	0.086
-172.939	-63.553	0.154	0.062
-171.925	13.325	0.140	0.106
-170.910	-64.081	0.288	0.115
-169.896	-156.749	0.096	-0.006
-168.881	-200.000	-0.022	-0.166
-167.866	-135.137	-0.143	0.017
-166.852	-106.241	0.188	0.041
-165.837	-99.163	0.347	0.086
-164.823	800.000	-0.115	-0.369
-163.808	-200.000	-0.019	0.285
-162.793	-55.017	0.245	-0.108
-161.779	-200.000	-0.001	0.195
-160.764	351.036	-0.178	-0.344
-159.750	57.007	0.189	-0.180
-158.735	97.265	-0.173	0.194
-157.720	427.116	-0.042	0.089
-156.706	80.403	-0.074	-0.078
-155.691	204.268	0.136	0.205
-154.677	-200.000	-0.088	0.425
-153.662	-38.102	0.157	0.081
-152.647	398.141	0.019	-0.040
-151.633	-88.985	0.494	-0.143
-150.618	194.545	-0.205	-0.303
-149.604	-9.741	0.278	-0.181
-148.589	154.139	0.135	0.181
-147.574	-50.963	0.247	-0.113
-146.560	-117.484	-0.198	0.035
-145.545	55.035	-0.119	0.112
-144.531	642.483	0.092	-0.228
-143.516	-55.327	0.189	-0.083
-142.502	-154.285	0.126	0.008
-141.487	114.226	-0.128	0.151
-140.472	-47.616	0.026	-0.012
-139.458	443.193	0.063	0.135
-138.443	-57.393	-0.165	-0.071
-137.429	800.000	0.063	0.245
-136.414	112.544	0.121	0.143
-135.399	378.940	-0.043	0.085
-134.385	-28.580	-0.104	-0.058
-133.370	-200.000	-0.005	0.510
-132.356	-158.285	0.538	-0.031
-131.341	141.223	-0.260	0.335
-130.326	279.234	0.194	-0.338
-129.312	-70.610	-0.167	-0.062
-128.297	-41.208	0.172	0.087
-127.283	-5.870	-0.229	-0.152
-126.268	18.779	-0.259	0.202
-125.253	-89.798	-0.202	-0.058
-124.239	54.783	-0.293	-0.276
-123.224	-116.579	0.154	-0.028
-122.210	-38.530	0.262	0.135
-121.195	17.403	0.292	0.226
