DTS Sentinel unit serial number:	SN413079Multiplexer serial number:	ORYXHardware model number:	OX4-SRSoftware version number:	ORYX F/W v4.00 Oryx Data Collector v3.7.2.0data status	okinstallation	princeton_trtdifferential loss correction	single-endedforward channel	channel 2reverse channel	N/Adate	2019/09/16time	06:55:35forward acquisition time	60.00reverse acquisition time	0.00gamma	496.2192k internal	0.2335k external	0.2335temperature offset calibration	0.9978default loss term (dB/km)	0.3790temperature slope calibration	1.0000multiplexer offset coefficient	1.0000multiplexer slope coefficient	1.0000fibre end	0.00T internal ref (°C)	27.37T ext. ref 1 (°C)	11.48T ext. ref 2 (°C)	21.77length (m)	temperature (°C)	Stokes	anti-Stokes-747.200	91.042	-0.217	0.245
-746.185	71.422	-0.252	0.263
-745.171	-75.729	0.077	0.027
-744.156	84.537	0.230	0.253
-743.142	-34.512	-0.230	-0.126
-742.127	-200.000	0.005	-0.041
-741.112	-45.765	-0.228	0.113
-740.098	-76.624	-0.272	0.096
-739.083	148.401	0.023	0.031
-738.069	75.099	-0.007	-0.007
-737.054	66.322	0.063	-0.064
-736.039	-142.190	-0.354	0.035
-735.025	-191.054	-0.098	-0.001
-734.010	10.792	-0.088	-0.068
-732.996	800.000	-0.082	-0.310
-731.981	-200.000	-0.222	-0.000
-730.966	370.966	-0.147	0.299
-729.952	-173.502	-0.306	0.009
-728.937	108.055	0.111	0.133
-727.923	-28.632	-0.067	-0.039
-726.908	-156.346	0.042	-0.003
-725.894	-67.275	-0.449	0.177
-724.879	-60.749	0.341	-0.145
-723.864	146.340	-0.155	-0.209
-722.850	-47.665	-0.159	0.078
-721.835	-200.000	0.244	-0.001
-720.821	357.363	-0.126	-0.253
-719.806	126.196	-0.054	-0.068
-718.791	-27.318	-0.145	-0.085
-717.777	732.639	0.104	-0.280
-716.762	-121.498	0.103	0.017
-715.748	-76.613	-0.179	0.063
-714.733	-200.000	0.060	-0.299
-713.718	205.320	0.110	0.172
-712.704	18.096	-0.100	0.080
-711.689	337.549	0.074	-0.145
-710.675	-200.000	-0.012	0.057
-709.660	73.908	0.104	-0.109
-708.645	640.762	-0.053	0.135
-707.631	-200.000	-0.010	0.084
-706.616	63.422	-0.295	-0.296
-705.602	-64.249	0.075	-0.031
-704.587	-61.131	-0.321	0.136
-703.572	-21.320	0.335	-0.205
-702.558	-27.505	-0.154	-0.090
-701.543	-40.293	-0.381	-0.199
-700.529	-200.000	-0.073	-0.393
-699.514	-109.021	0.221	0.047
-698.499	800.000	-0.042	-0.152
-697.485	682.926	0.282	-0.738
-696.470	-78.178	-0.058	0.020
-695.456	-145.989	0.221	0.020
-694.441	221.487	0.039	-0.063
-693.426	-91.803	-0.344	0.098
-692.412	-82.039	0.209	-0.069
-691.397	-147.617	-0.059	-0.005
-690.383	3.001	0.357	-0.260
-689.368	-111.874	-0.215	0.044
-688.354	44.648	-0.403	-0.372
-687.339	800.000	0.053	-0.159
-686.324	-25.831	-0.049	-0.029
-685.310	175.713	-0.177	-0.257
-684.295	-4.219	-0.222	-0.154
-683.281	36.555	-0.262	0.231
-682.266	-200.000	0.060	0.000
-681.251	163.715	0.124	-0.175
-680.237	396.200	0.086	-0.179
-679.222	230.705	-0.193	-0.316
-678.208	800.000	0.110	-0.375
-677.193	800.000	0.072	-0.261
-676.178	-73.948	-0.169	-0.061
-675.164	-56.991	-0.370	-0.163
-674.149	214.559	-0.060	-0.096
-673.135	146.529	0.261	0.351
-672.120	0.340	0.096	0.068
-671.105	-28.041	0.277	-0.160
-670.091	800.000	-0.032	-0.116
-669.076	-28.473	-0.223	0.129
-668.062	-113.079	0.118	-0.023
-667.047	-83.437	-0.233	0.075
-666.032	183.592	-0.064	0.095
-665.018	-166.812	-0.293	0.012
-664.003	289.321	0.165	0.299
-662.989	27.447	-0.281	-0.237
-661.974	31.931	-0.080	-0.069
-660.959	-200.000	-0.027	-0.247
-659.945	-83.176	0.135	0.044
-658.930	-200.000	0.040	0.379
-657.916	-137.469	0.210	0.024
-656.901	203.516	0.138	0.213
-655.886	-200.000	0.009	0.051
-654.872	-200.000	-0.020	0.371
-653.857	800.000	-0.077	0.275
-652.843	-72.402	-0.312	-0.116
-651.828	79.850	0.164	-0.177
-650.814	9.049	-0.181	0.137
-649.799	749.948	0.074	0.199
-648.784	426.178	-0.039	-0.085
-647.770	800.000	-0.042	-0.147
-646.755	27.109	-0.403	0.339
-645.741	-200.000	0.021	0.176
-644.726	242.951	0.092	0.154
-643.711	693.530	-0.102	-0.269
-642.697	52.533	0.093	0.089
-641.682	-200.000	-0.074	-0.414
-640.668	-143.195	0.321	0.031
-639.653	-26.099	-0.247	-0.145
-638.638	-109.671	-0.280	-0.059
-637.624	17.212	-0.047	0.038
-636.609	-175.383	0.354	0.010
-635.595	-200.000	-0.035	0.258
-634.580	94.633	0.235	-0.267
-633.565	414.569	0.088	-0.188
-632.551	106.237	-0.167	0.198
-631.536	381.680	-0.102	0.209
-630.522	-65.451	0.210	-0.084
-629.507	800.000	0.049	-0.143
-628.492	-66.325	-0.413	0.164
-627.478	-200.000	0.030	0.201
-626.463	-172.567	-0.121	-0.004
-625.449	-200.000	0.000	-0.002
-624.434	162.234	-0.226	0.317
-623.419	800.000	0.127	-0.366
-622.405	77.294	0.158	-0.168
-621.390	289.596	0.152	-0.277
-620.376	-150.713	0.292	-0.022
-619.361	-200.000	-0.065	-0.330
-618.346	-27.364	-0.206	-0.120
-617.332	-200.000	0.000	-0.339
-616.317	274.986	0.281	-0.498
-615.303	101.475	0.094	0.109
-614.288	-200.000	0.004	-0.042
-613.273	88.507	0.167	0.186
-612.259	248.599	-0.035	0.059
-611.244	-161.116	0.364	0.019
-610.230	-200.000	-0.021	0.226
-609.215	-24.766	-0.180	0.107
-608.201	85.220	0.098	-0.107
-607.186	159.090	0.022	-0.031
-606.171	-200.000	0.017	0.278
-605.157	538.161	-0.079	-0.188
-604.142	-200.000	-0.055	-0.487
-603.128	-200.000	0.022	-0.176
-602.113	-49.941	0.121	0.058
-601.098	619.864	0.158	0.396
-600.084	-200.000	0.001	-0.042
-599.069	-112.222	0.236	-0.047
-598.055	378.191	0.043	-0.088
-597.040	800.000	-0.086	0.317
-596.025	-197.698	-0.235	-0.001
-595.011	-200.000	0.022	0.214
-593.996	-39.006	-0.162	-0.085
-592.982	800.000	0.034	0.135
-591.967	800.000	0.061	-0.174
-590.952	135.793	0.148	0.192
-589.938	237.233	-0.141	0.234
-588.923	67.481	-0.259	0.264
-587.909	800.000	0.013	0.041
-586.894	-89.173	0.027	0.008
-585.879	12.544	-0.050	-0.039
-584.865	214.481	0.071	0.112
-583.850	-200.000	-0.014	-0.290
-582.836	-67.158	0.234	-0.092
-581.821	800.000	0.074	-0.217
-580.806	-200.000	-0.004	-0.137
-579.792	-57.041	-0.205	0.090
-578.777	26.136	0.067	-0.056
-577.763	12.978	0.197	0.152
-576.748	-115.178	0.278	-0.053
-575.733	50.998	-0.079	0.075
-574.719	-200.000	0.025	0.261
-573.704	181.195	-0.138	-0.203
-572.690	-1.920	0.232	-0.163
-571.675	302.422	-0.191	0.352
-570.661	800.000	0.041	-0.131
-569.646	-200.000	0.028	-0.165
-568.631	-5.956	0.222	0.152
-567.617	-79.072	-0.162	0.055
-566.602	-200.000	-0.019	-0.086
-565.588	-40.319	-0.115	-0.060
-564.573	126.358	-0.162	0.204
-563.558	-122.506	-0.078	-0.013
-562.544	212.952	0.162	0.255
-561.529	-200.000	-0.010	-0.157
-560.515	-109.457	-0.137	-0.029
-559.500	-151.075	-0.245	-0.018
-558.485	445.971	0.020	0.044
-557.471	134.519	-0.064	-0.083
-556.456	279.322	0.085	-0.151
-555.442	-30.457	0.150	-0.085
-554.427	-200.000	0.015	-0.186
-553.412	-58.761	-0.134	-0.058
-552.398	-200.000	0.016	0.210
-551.383	-32.063	0.261	0.146
-550.369	-78.718	0.121	-0.041
-549.354	707.518	0.052	0.138
-548.339	18.331	-0.082	-0.065
-547.325	-200.000	0.012	-0.311
-546.310	-200.000	0.013	-0.161
-545.296	-200.000	0.038	0.185
-544.281	-66.749	-0.067	0.027
-543.266	-117.098	-0.457	-0.083
-542.252	-86.876	-0.207	-0.063
-541.237	-98.965	-0.104	0.026
-540.223	-84.912	-0.190	0.060
-539.208	-130.245	0.507	-0.069
-538.193	-115.660	-0.072	-0.013
-537.179	-119.826	-0.376	0.065
-536.164	-106.371	-0.053	-0.012
-535.150	-112.300	0.288	-0.057
-534.135	-103.931	0.207	-0.048
-533.121	800.000	-0.057	0.221
-532.106	800.000	0.031	-0.119
-531.091	-200.000	0.005	0.089
-530.077	800.000	0.027	0.116
-529.062	-56.927	0.137	-0.060
-528.048	203.093	0.065	-0.100
-527.033	481.143	-0.193	0.436
-526.018	-200.000	0.034	-0.169
-525.004	800.000	-0.154	0.527
-523.989	-200.000	-0.006	-0.131
-522.975	361.453	0.087	0.174
-521.960	-200.000	0.035	0.297
-520.945	51.568	0.041	0.039
-519.931	-131.451	-0.187	-0.025
-518.916	-116.804	0.206	-0.038
-517.902	77.435	0.146	0.155
-516.887	33.197	-0.216	0.186
-515.872	-39.595	0.191	0.100
-514.858	-200.000	0.008	-0.184
-513.843	-31.755	0.157	-0.087
-512.829	-200.000	-0.014	0.162
-511.814	28.613	-0.344	-0.290
-510.799	-23.183	0.300	-0.180
-509.785	-128.001	-0.416	0.059
-508.770	-80.977	-0.316	0.104
-507.756	227.173	0.084	0.136
-506.741	800.000	-0.063	-0.193
-505.726	79.720	-0.105	-0.113
-504.712	157.538	-0.069	-0.096
-503.697	58.819	0.076	0.074
-502.683	-200.000	-0.015	0.329
-501.668	249.425	-0.134	-0.225
-500.653	209.588	0.222	0.347
-499.639	-16.962	-0.095	0.060
-498.624	384.399	-0.099	-0.203
-497.610	-64.272	-0.232	0.094
-496.595	26.609	-0.291	0.242
-495.581	-200.000	-0.039	0.350
-494.566	-74.647	0.141	-0.050
-493.551	115.472	-0.264	-0.321
-492.537	-136.231	0.246	0.029
-491.522	-119.029	0.212	-0.037
-490.508	-195.760	-0.360	0.003
-489.493	-200.000	0.037	-0.359
-488.478	94.260	0.259	-0.292
-487.464	-90.530	0.242	0.070
-486.449	-99.507	0.063	0.016
-485.435	122.858	0.174	-0.217
-484.420	143.921	0.197	0.262
-483.405	-81.202	-0.324	-0.106
-482.391	-90.331	0.093	0.027
-481.376	98.371	0.095	-0.109
-480.362	-197.573	-0.186	-0.001
-479.347	475.133	-0.087	0.196
-478.332	-154.848	-0.063	-0.004
-477.318	-200.000	-0.162	0.000
-476.303	-200.000	-0.013	-0.086
-475.289	257.529	-0.167	-0.285
-474.274	-200.000	0.044	-0.207
-473.259	50.808	-0.135	-0.127
-472.245	19.930	-0.091	-0.073
-471.230	-8.541	-0.271	0.181
-470.216	257.204	-0.019	-0.032
-469.201	-200.000	-0.019	-0.334
-468.186	800.000	-0.028	0.112
-467.172	-53.221	-0.259	0.118
-466.157	106.935	-0.095	0.112
-465.143	348.935	0.187	-0.367
-464.128	-200.000	-0.041	-0.192
-463.113	121.817	-0.219	-0.271
-462.099	360.815	-0.142	0.282
-461.084	100.434	0.157	0.182
-460.070	-20.189	0.138	-0.084
-459.055	800.000	-0.063	-0.257
-458.040	229.703	-0.146	-0.236
-457.026	800.000	0.065	0.232
-456.011	76.689	-0.095	-0.100
-454.997	800.000	-0.054	-0.155
-453.982	-110.442	0.247	0.051
-452.968	82.436	-0.173	0.187
-451.953	-128.541	-0.170	0.024
-450.938	778.129	-0.048	-0.130
-449.924	-200.000	-0.084	-0.403
-448.909	-30.385	0.114	0.064
-447.895	-9.228	-0.132	-0.088
-446.880	29.665	-0.191	-0.162
-445.865	123.525	0.168	-0.209
-444.851	-94.250	-0.222	0.060
-443.836	308.004	0.185	-0.343
-442.822	800.000	0.056	0.165
-441.807	-170.729	0.185	-0.006
-440.792	314.763	-0.172	-0.323
-439.778	57.424	-0.135	-0.131
-438.763	800.000	0.100	-0.334
-437.749	-200.000	-0.004	-0.241
-436.734	800.000	-0.041	0.154
-435.719	534.483	-0.128	-0.301
-434.705	170.327	0.101	-0.144
-433.690	-48.967	-0.227	-0.108
-432.676	-200.000	0.069	-0.308
-431.661	800.000	0.044	-0.154
-430.646	-118.398	0.111	0.020
-429.632	-33.628	-0.153	0.084
-428.617	-178.152	-0.267	0.006
-427.603	-200.000	-0.032	-0.186
-426.588	-171.013	-0.106	0.004
-425.573	-118.616	0.341	0.060
-424.559	800.000	-0.050	0.138
-423.544	-29.231	-0.020	0.011
-422.530	339.325	0.118	-0.228
-421.515	729.292	0.045	0.120
-420.500	-200.000	-0.060	0.365
-419.486	-33.069	-0.243	0.134
-418.471	800.000	0.068	0.206
-417.457	25.154	0.299	0.246
-416.442	8.104	0.154	-0.114
-415.428	202.513	0.064	-0.099
-414.413	20.903	-0.051	-0.041
-413.398	337.385	-0.158	-0.305
-412.384	59.269	-0.122	-0.119
-411.369	-52.272	-0.102	0.047
-410.355	-145.425	-0.464	-0.041
-409.340	250.354	0.070	-0.118
-408.325	286.665	0.125	0.224
-407.311	-60.062	0.192	-0.081
-406.296	-2.286	-0.090	-0.063
-405.282	-74.898	-0.180	-0.064
-404.267	92.355	-0.192	-0.214
-403.252	-200.000	-0.006	0.251
-402.238	224.305	0.044	0.071
-401.223	100.517	-0.198	0.227
-400.209	-131.572	0.257	-0.034
-399.194	25.499	-0.205	-0.169
-398.179	74.985	-0.048	0.050
-397.165	213.166	0.123	0.192
-396.150	-62.404	0.024	-0.010
-395.136	209.914	0.164	-0.255
-394.121	-200.000	0.010	0.224
-393.106	-141.735	0.238	0.024
-392.092	-186.844	0.235	-0.003
-391.077	800.000	0.036	-0.146
-390.063	80.193	-0.195	-0.208
-389.048	-200.000	-0.018	-0.119
-388.033	-200.000	0.006	0.093
-387.019	163.635	0.154	0.215
-386.004	-83.277	-0.096	-0.030
-384.990	800.000	-0.152	0.430
-383.975	231.984	0.090	0.146
-382.960	326.877	0.090	0.172
-381.946	-200.000	-0.012	0.107
-380.931	567.433	-0.088	0.211
-379.917	0.237	-0.137	-0.097
-378.902	-27.024	-0.113	0.065
-377.888	84.317	-0.098	-0.106
-376.873	-200.000	-0.005	-0.151
-375.858	-200.000	0.027	-0.136
-374.844	-200.000	-0.011	-0.142
-373.829	156.144	-0.197	-0.269
-372.815	22.474	0.323	0.262
-371.800	119.745	0.213	-0.261
-370.785	613.112	0.037	-0.093
-369.771	418.459	-0.156	-0.330
-368.756	-200.000	-0.030	-0.173
-367.742	-200.000	0.019	-0.085
-366.727	-59.144	0.421	0.180
-365.712	800.000	-0.057	0.229
-364.698	-200.000	0.004	-0.055
-363.683	-109.796	0.201	-0.042
-362.669	65.245	-0.192	0.193
-361.654	-60.383	0.027	-0.011
-360.639	800.000	0.042	-0.126
-359.625	388.459	-0.135	0.277
-358.610	23.881	-0.046	0.037
-357.596	25.594	0.245	0.201
-356.581	800.000	-0.019	0.073
-355.566	92.372	0.287	0.321
-354.552	-182.593	-0.241	0.004
-353.537	-150.021	-0.374	0.029
-352.523	154.772	0.129	-0.175
-351.508	645.502	0.063	0.160
-350.493	31.467	0.290	-0.247
-349.479	-35.773	0.094	-0.050
-348.464	-80.381	-0.343	0.113
-347.450	30.140	0.225	-0.190
-346.435	14.536	0.210	-0.163
-345.420	372.597	-0.093	0.186
-344.406	61.486	-0.127	0.125
-343.391	800.000	0.142	0.405
-342.377	800.000	-0.002	-0.007
-341.362	800.000	0.043	0.140
-340.348	-24.666	0.151	0.089
-339.333	-7.726	-0.150	-0.100
-338.318	116.262	0.107	0.129
-337.304	800.000	-0.039	0.166
-336.289	800.000	-0.125	-0.384
-335.275	-200.000	-0.018	-0.235
-334.260	398.347	0.053	-0.109
-333.245	129.042	-0.346	0.437
-332.231	3.277	-0.182	-0.131
-331.216	33.710	0.168	0.144
-330.202	106.906	-0.123	0.145
-329.187	-14.002	-0.243	0.155
-328.172	471.757	-0.067	0.150
-327.158	64.998	-0.205	-0.204
-326.143	-200.000	0.011	-0.163
-325.129	-28.283	-0.098	0.056
-324.114	-66.543	-0.277	0.109
-323.099	-79.825	0.492	-0.164
-322.085	-200.000	-0.008	-0.236
-321.070	621.422	0.126	-0.314
-320.056	-200.000	-0.019	0.198
-319.041	-54.374	-0.222	0.099
-318.026	272.542	-0.128	0.223
-317.012	-200.000	-0.130	-0.000
-315.997	-200.000	0.030	0.172
-314.983	132.314	0.350	-0.445
-313.968	649.332	0.045	-0.115
-312.953	-12.049	0.071	0.046
-311.939	-200.000	-0.002	-0.091
-310.924	-200.000	-0.012	-0.075
-309.910	-200.000	-0.003	-0.152
-308.895	-200.000	0.039	-0.176
-307.880	243.879	0.033	0.055
-306.866	-160.977	-0.121	0.006
-305.851	800.000	0.086	0.290
-304.837	-123.107	0.300	-0.048
-303.822	-36.810	0.202	-0.107
-302.807	475.536	0.061	0.136
-301.793	-3.994	0.085	-0.058
-300.778	-200.000	0.029	-0.259
-299.764	-200.000	0.046	-0.225
-298.749	17.876	0.126	-0.099
-297.735	-13.133	0.171	-0.110
-296.720	64.739	-0.028	0.028
-295.705	-200.000	0.081	-0.375
-294.691	376.268	0.166	0.334
-293.676	-200.000	0.021	0.200
-292.662	-200.000	0.016	0.078
-291.647	-200.000	0.018	-0.229
-290.632	18.012	0.156	0.123
-289.618	67.516	0.323	0.326
-288.603	-56.511	-0.330	0.145
-287.589	-106.789	-0.263	0.058
-286.574	326.205	0.109	0.207
-285.559	-86.235	-0.088	0.027
-284.545	-156.134	0.041	0.003
-283.530	800.000	-0.037	-0.106
-282.516	-200.000	0.130	-0.000
-281.501	-36.293	0.102	-0.054
-280.486	-54.781	-0.168	-0.075
-279.472	-200.000	0.043	0.256
-278.457	-200.000	0.004	0.375
-277.443	424.712	0.157	-0.334
-276.428	800.000	-0.029	0.113
-275.413	377.003	0.110	0.222
-274.399	-125.845	0.303	-0.045
-273.384	-200.000	0.014	-0.115
-272.370	611.170	0.092	0.226
-271.355	800.000	-0.054	-0.175
-270.340	-79.668	-0.423	0.141
-269.326	117.697	-0.156	-0.190
-268.311	173.013	0.100	0.142
-267.297	146.881	-0.069	0.092
-266.282	-24.461	0.239	0.141
-265.267	132.345	0.165	0.209
-264.253	-153.141	-0.136	0.009
-263.238	169.294	-0.214	0.301
-262.224	-52.376	0.101	-0.046
-261.209	60.178	-0.290	0.283
-260.195	-83.097	-0.175	-0.056
-259.180	260.197	-0.213	-0.364
-258.165	-138.095	-0.270	0.030
-257.151	-200.000	0.009	-0.208
-256.136	-129.097	0.226	0.031
-255.122	-106.762	0.154	-0.034
-254.107	-26.746	0.076	0.044
-253.092	-23.914	-0.025	0.014
-252.078	800.000	0.085	0.242
-251.063	-200.000	0.015	0.085
-250.049	266.016	0.182	0.314
-249.034	-200.000	0.002	0.362
-248.019	653.713	0.055	-0.139
-247.005	-200.000	0.001	-0.028
-245.990	-9.583	-0.120	-0.079
-244.976	-134.458	0.270	-0.033
-243.961	-138.545	0.136	0.015
-242.946	800.000	-0.027	-0.091
-241.932	-71.142	-0.241	-0.089
-240.917	143.898	0.136	-0.178
-239.903	-120.816	0.114	0.019
-238.888	800.000	0.048	-0.145
-237.873	42.152	-0.233	-0.208
-236.859	115.293	0.198	0.239
-235.844	-200.000	-0.016	0.248
-234.830	-200.000	-0.013	0.215
-233.815	-96.306	0.386	-0.101
-232.800	-175.255	-0.221	0.006
-231.786	11.637	-0.085	0.064
-230.771	284.849	-0.094	-0.167
-229.757	-200.000	0.019	0.263
-228.742	-150.294	0.233	0.018
-227.727	-200.000	0.004	0.170
-226.713	-90.638	0.086	0.025
-225.698	-200.000	-0.017	0.135
-224.684	122.381	-0.040	0.049
-223.669	113.017	0.099	0.118
-222.655	-60.035	0.155	-0.065
-221.640	315.240	0.048	0.089
-220.625	-99.618	0.310	0.077
-219.611	-57.843	-0.174	-0.075
-218.596	9.769	0.151	0.113
-217.582	-200.000	0.043	-0.230
-216.567	53.190	0.358	0.337
-215.552	-200.000	0.100	0.438
-214.538	800.000	-0.102	-0.302
-213.523	-44.082	-0.429	-0.212
-212.509	322.020	0.086	0.162
-211.494	-194.530	0.130	-0.001
-210.479	-97.873	-0.118	0.030
-209.465	97.235	0.205	-0.232
-208.450	24.903	-0.169	-0.138
-207.436	790.836	0.127	-0.344
-206.421	-200.000	0.036	0.289
-205.406	298.108	0.180	-0.326
-204.392	87.785	-0.172	0.187
-203.377	-12.970	0.506	0.324
-202.363	277.144	0.057	0.099
-201.348	26.759	0.217	0.179
-200.333	20.106	-0.379	0.301
-199.319	142.554	0.098	-0.128
-198.304	-53.437	-0.184	-0.083
-197.290	220.638	-0.146	0.230
-196.275	-119.883	-0.068	-0.012
-195.260	800.000	0.123	-0.500
-194.246	-200.000	-0.014	-0.359
-193.231	25.294	0.198	-0.162
-192.217	297.010	0.130	0.234
-191.202	58.273	0.063	-0.061
-190.187	-117.704	-0.345	-0.061
-189.173	76.388	0.199	0.207
-188.158	-138.094	0.283	0.031
-187.144	800.000	-0.075	0.234
-186.129	-86.519	-0.274	0.083
-185.114	-55.093	-0.233	-0.103
-184.100	53.565	-0.143	0.135
-183.085	246.319	-0.176	-0.292
-182.071	800.000	-0.026	-0.071
-181.056	-156.549	-0.044	0.003
-180.042	401.874	-0.087	0.181
-179.027	-80.141	-0.240	0.079
-178.012	-52.326	0.418	-0.190
-176.998	-106.584	-0.208	0.046
-175.983	-55.002	0.060	0.027
-174.969	109.266	-0.214	-0.252
-173.954	702.344	0.113	0.293
-172.939	159.630	0.189	0.259
-171.925	385.112	0.116	0.235
-170.910	-200.000	-0.017	0.212
-169.896	800.000	-0.097	-0.303
-168.881	67.235	-0.169	0.169
-167.866	398.446	0.091	0.186
-166.852	56.058	-0.141	-0.134
-165.837	-10.614	0.084	0.055
-164.823	728.579	0.056	0.148
-163.808	-81.247	-0.153	0.050
-162.793	-51.339	0.227	-0.104
-161.779	74.828	-0.016	-0.016
-160.764	-54.141	-0.354	0.158
-159.750	42.282	0.194	-0.173
-158.735	104.825	-0.146	-0.169
-157.720	-40.061	0.219	-0.112
-156.706	45.749	-0.075	0.068
-155.691	-118.016	0.453	0.080
-154.677	-50.082	0.089	0.042
-153.662	-200.000	-0.037	-0.574
-152.647	460.025	0.105	0.229
-151.633	-91.492	-0.437	0.122
-150.618	207.375	-0.114	0.174
-149.604	-49.110	-0.297	0.139
-148.589	111.849	0.215	0.255
-147.574	-55.677	0.148	0.065
-146.560	44.301	0.298	-0.268
-145.545	525.847	0.079	0.182
-144.531	120.611	0.037	0.045
-143.516	-98.801	0.246	0.062
-142.502	-200.000	-0.021	0.103
-141.487	-200.000	0.039	0.339
-140.472	-200.000	0.041	0.262
-139.458	-84.786	0.721	-0.222
-138.443	148.757	-0.128	-0.170
-137.429	-152.703	0.198	0.014
-136.414	38.381	0.142	0.124
-135.399	-111.820	0.196	0.039
-134.385	-200.000	0.027	-0.120
-133.370	758.438	0.048	0.129
-132.356	96.775	-0.095	0.107
-131.341	133.556	-0.174	0.221
-130.326	-134.768	-0.177	-0.021
-129.312	469.636	-0.131	-0.288
-128.297	190.758	0.129	-0.191
-127.283	-200.000	-0.014	-0.069
-126.268	-61.533	-0.200	0.083
-125.253	533.707	0.086	0.200
-124.239	61.451	-0.173	0.169
-123.224	-169.309	0.414	-0.015
-122.210	-121.035	0.350	-0.058
-121.195	800.000	-0.111	0.311
