DTS Sentinel unit serial number:	SN413079Multiplexer serial number:	ORYXHardware model number:	OX4-SRSoftware version number:	ORYX F/W v4.00 Oryx Data Collector v3.7.2.0data status	okinstallation	princeton_trtdifferential loss correction	single-endedforward channel	channel 2reverse channel	N/Adate	2019/09/15time	12:15:35forward acquisition time	60.00reverse acquisition time	0.00gamma	496.2192k internal	0.2314k external	0.2314temperature offset calibration	1.0009default loss term (dB/km)	0.3790temperature slope calibration	1.0000multiplexer offset coefficient	1.0000multiplexer slope coefficient	1.0000fibre end	0.00T internal ref (°C)	34.67T ext. ref 1 (°C)	5.04T ext. ref 2 (°C)	31.68length (m)	temperature (°C)	Stokes	anti-Stokes-747.200	-159.579	-0.058	0.003
-746.185	-138.191	0.066	0.007
-745.171	-64.273	-0.105	-0.043
-744.156	800.000	0.041	0.165
-743.142	-200.000	-0.002	0.117
-742.127	430.495	-0.108	0.237
-741.112	-130.789	-0.380	0.052
-740.098	233.522	-0.130	-0.217
-739.083	-112.375	0.132	0.027
-738.069	-64.511	-0.402	0.166
-737.054	62.352	0.203	-0.205
-736.039	-200.000	0.030	-0.306
-735.025	-66.034	0.382	0.154
-734.010	19.919	-0.351	-0.287
-732.996	81.694	0.240	-0.263
-731.981	800.000	0.024	0.098
-730.966	-41.803	-0.130	-0.068
-729.952	142.085	0.184	0.248
-728.937	-110.273	-0.385	0.081
-727.923	128.563	-0.264	-0.341
-726.908	37.482	-0.193	0.173
-725.894	-104.003	-0.079	-0.019
-724.879	-98.440	0.235	-0.061
-723.864	714.520	-0.034	-0.092
-722.850	558.829	-0.088	-0.216
-721.835	-200.000	0.016	-0.399
-720.821	-200.000	-0.021	-0.180
-719.806	7.018	-0.217	-0.164
-718.791	-40.791	-0.349	0.183
-717.777	-93.140	0.235	-0.066
-716.762	-78.809	-0.189	-0.065
-715.748	534.858	-0.020	0.049
-714.733	-200.000	0.032	-0.278
-713.718	148.242	-0.131	-0.179
-712.704	-35.949	0.220	-0.120
-711.689	18.060	0.173	0.140
-710.675	238.306	0.103	-0.173
-709.660	-23.283	-0.096	0.059
-708.645	800.000	0.103	-0.293
-707.631	-144.243	-0.223	-0.021
-706.616	124.071	0.220	-0.279
-705.602	-12.325	0.092	0.061
-704.587	-105.381	-0.425	-0.098
-703.572	220.471	0.076	0.123
-702.558	-200.000	0.019	-0.144
-701.543	-51.743	0.252	-0.119
-700.529	69.682	0.339	-0.354
-699.514	800.000	0.070	-0.254
-698.499	-136.439	-0.223	0.026
-697.485	13.069	-0.384	-0.301
-696.470	-200.000	0.018	0.157
-695.456	-92.228	0.148	0.042
-694.441	192.341	0.108	-0.165
-693.426	-18.135	0.116	-0.073
-692.412	-200.000	0.007	0.430
-691.397	-146.731	-0.175	0.015
-690.383	77.078	0.072	0.077
-689.368	142.198	0.154	-0.207
-688.354	-200.000	-0.032	0.221
-687.339	-200.000	0.002	-0.023
-686.324	-166.954	-0.101	-0.004
-685.310	-29.678	-0.339	-0.196
-684.295	-200.000	0.024	-0.209
-683.281	136.609	-0.089	-0.117
-682.266	-200.000	0.005	0.144
-681.251	-119.693	-0.349	0.061
-680.237	64.356	-0.204	-0.208
-679.222	800.000	-0.098	-0.429
-678.208	73.467	-0.102	0.108
-677.193	-103.376	-0.199	0.047
-676.178	-200.000	0.001	0.120
-675.164	-73.981	0.121	-0.044
-674.149	68.680	-0.061	0.063
-673.135	123.377	0.077	0.098
-672.120	800.000	0.014	0.049
-671.105	322.519	-0.137	0.263
-670.091	-23.178	0.149	-0.091
-669.076	79.193	0.118	0.128
-668.062	800.000	-0.101	-0.339
-667.047	-76.301	0.264	0.094
-666.032	276.509	-0.091	-0.163
-665.018	230.444	0.142	-0.236
-664.003	299.871	-0.065	0.121
-662.989	43.305	-0.071	0.065
-661.974	-200.000	-0.017	-0.252
-660.959	-87.420	0.388	-0.119
-659.945	-101.104	-0.207	-0.051
-658.930	306.089	-0.083	-0.156
-657.916	279.286	0.044	-0.079
-656.901	-34.303	-0.216	-0.120
-655.886	-127.143	-0.110	0.016
-654.872	208.525	0.077	-0.122
-653.857	-200.000	0.041	-0.189
-652.843	-200.000	0.036	-0.183
-651.828	332.809	0.103	0.201
-650.814	243.568	-0.086	-0.146
-649.799	202.941	0.045	0.070
-648.784	145.739	0.061	-0.083
-647.770	-200.000	-0.032	-0.462
-646.755	-30.887	-0.034	-0.019
-645.741	57.375	-0.229	-0.226
-644.726	-200.000	0.059	-0.304
-643.711	-13.117	0.609	0.400
-642.697	-37.853	-0.307	0.165
-641.682	-81.320	0.191	0.063
-640.668	75.860	0.144	-0.154
-639.653	-200.000	-0.002	-0.058
-638.638	29.505	0.202	-0.173
-637.624	-107.404	-0.173	0.038
-636.609	-43.853	-0.240	0.122
-635.595	-98.130	-0.218	-0.057
-634.580	-96.329	-0.245	0.065
-633.565	273.090	-0.186	-0.332
-632.551	-200.000	-0.060	-0.321
-631.536	37.375	-0.049	0.044
-630.522	800.000	0.097	0.308
-629.507	234.366	-0.074	0.123
-628.492	480.564	-0.154	-0.353
-627.478	466.684	-0.178	-0.402
-626.463	286.892	0.088	-0.161
-625.449	800.000	-0.119	-0.413
-624.434	243.150	-0.145	-0.245
-623.419	3.037	0.347	0.255
-622.405	-114.771	-0.174	0.034
-621.390	62.502	-0.208	0.210
-620.376	-133.563	-0.257	0.032
-619.361	-89.589	0.117	-0.035
-618.346	800.000	-0.032	-0.108
-617.332	800.000	-0.014	0.053
-616.317	-48.659	-0.251	-0.122
-615.303	8.551	0.208	-0.158
-614.288	-41.600	-0.078	-0.041
-613.273	-57.924	-0.098	-0.043
-612.259	-22.870	-0.217	-0.132
-611.244	-200.000	0.017	0.284
-610.230	182.797	-0.172	0.256
-609.215	253.468	-0.100	-0.172
-608.201	70.317	-0.329	-0.343
-607.186	-10.744	0.228	-0.152
-606.171	-85.504	-0.068	0.021
-605.157	800.000	0.108	-0.367
-604.142	-26.496	0.061	0.036
-603.128	797.794	0.133	0.369
-602.113	-122.823	0.239	-0.039
-601.098	53.794	0.055	0.054
-600.084	-200.000	0.056	-0.327
-599.069	-200.000	-0.010	-0.327
-598.055	224.245	0.114	-0.186
-597.040	-46.245	0.497	-0.246
-596.025	-200.000	0.007	0.069
-595.011	-3.734	-0.187	0.131
-593.996	386.383	-0.124	-0.257
-592.982	800.000	0.055	0.208
-591.967	800.000	0.062	0.223
-590.952	800.000	-0.058	0.175
-589.938	-157.211	0.257	0.016
-588.923	242.089	0.144	-0.243
-587.909	-200.000	0.128	-0.634
-586.894	230.663	-0.196	-0.323
-585.879	177.889	-0.099	0.146
-584.865	-75.915	0.260	0.093
-583.850	-200.000	0.041	-0.196
-582.836	-12.817	-0.073	0.048
-581.821	-60.578	0.168	-0.072
-580.806	-99.446	0.142	-0.036
-579.792	15.580	-0.160	0.127
-578.777	-148.883	-0.091	0.007
-577.763	163.569	-0.099	0.140
-576.748	-110.953	-0.351	0.073
-575.733	-200.000	0.013	-0.231
-574.719	52.871	-0.049	-0.048
-573.704	-99.773	0.191	0.048
-572.690	-200.000	-0.017	0.273
-571.675	-200.000	-0.016	-0.093
-570.661	63.794	0.094	-0.095
-569.646	317.996	0.121	-0.231
-568.631	153.194	-0.154	-0.212
-567.617	-138.358	-0.077	0.009
-566.602	-8.612	0.133	0.090
-565.588	800.000	0.083	0.307
-564.573	800.000	-0.062	-0.214
-563.558	37.617	-0.048	-0.043
-562.544	422.053	0.187	0.404
-561.529	-49.150	0.365	0.175
-560.515	127.296	-0.121	-0.154
-559.500	166.385	-0.062	-0.089
-558.485	40.620	-0.228	0.207
-557.471	-200.000	-0.009	0.086
-556.456	-8.844	-0.208	0.140
-555.442	165.082	-0.057	-0.081
-554.427	-103.491	-0.368	0.087
-553.412	-200.000	0.079	0.408
-552.398	162.888	0.197	0.278
-551.383	-200.000	0.077	0.610
-550.369	312.283	0.128	0.241
-549.354	620.563	0.080	-0.202
-548.339	-200.000	0.012	0.190
-547.325	504.320	-0.076	-0.176
-546.310	-200.000	-0.001	0.077
-545.296	-200.000	0.036	-0.227
-544.281	483.789	-0.014	0.033
-543.266	-24.368	-0.137	0.082
-542.252	613.270	0.021	-0.053
-541.237	800.000	0.088	-0.268
-540.223	800.000	-0.030	0.083
-539.208	-20.610	-0.256	-0.158
-538.193	-200.000	0.042	-0.390
-537.179	800.000	-0.033	0.095
-536.164	31.641	0.131	0.113
-535.150	-90.771	-0.418	0.121
-534.135	-200.000	0.031	0.164
-533.121	201.944	-0.183	-0.283
-532.106	800.000	0.103	-0.393
-531.091	800.000	0.068	0.246
-530.077	214.700	0.155	-0.248
-529.062	-108.400	-0.086	0.019
-528.048	32.640	-0.240	0.209
-527.033	356.730	0.123	0.246
-526.018	800.000	0.089	0.302
-525.004	-6.569	-0.084	0.058
-523.989	146.971	0.218	0.294
-522.975	-200.000	-0.130	-0.703
-521.960	-109.683	0.309	-0.065
-520.945	776.558	0.075	-0.205
-519.931	-200.000	-0.009	0.084
-518.916	21.785	0.151	-0.124
-517.902	-26.837	-0.111	-0.065
-516.887	-130.094	0.040	0.005
-515.872	3.657	-0.105	-0.077
-514.858	-200.000	0.005	0.134
-513.843	221.392	0.045	-0.073
-512.829	-200.000	0.028	0.297
-511.814	674.120	0.070	-0.182
-510.799	516.195	-0.109	-0.255
-509.785	275.754	-0.078	-0.139
-508.770	152.263	-0.158	0.216
-507.756	-146.770	-0.274	-0.024
-506.741	45.423	0.054	0.050
-505.726	-99.074	-0.050	0.013
-504.712	-146.823	-0.067	-0.006
-503.697	-200.000	0.005	0.221
-502.683	-23.633	-0.068	-0.041
-501.668	-90.870	-0.277	0.080
-500.653	-131.884	-0.307	0.040
-499.639	-200.000	0.002	-0.101
-498.624	-174.384	0.200	0.006
-497.610	800.000	-0.014	-0.042
-496.595	143.416	0.168	-0.224
-495.581	-32.871	-0.146	0.082
-494.566	407.976	0.106	-0.225
-493.551	-200.000	0.009	0.234
-492.537	-178.544	0.172	0.004
-491.522	77.915	0.244	-0.261
-490.508	-53.389	0.110	-0.051
-489.493	-83.643	-0.479	-0.154
-488.478	-27.402	0.143	-0.083
-487.464	-20.376	-0.085	-0.053
-486.449	-92.093	-0.115	0.033
-485.435	26.720	0.070	-0.059
-484.420	-68.751	-0.249	-0.097
-483.405	-200.000	0.001	-0.005
-482.391	-77.707	0.241	-0.084
-481.376	128.630	-0.110	0.140
-480.362	613.425	0.201	-0.504
-479.347	-102.341	0.184	-0.044
-478.332	-26.384	-0.429	-0.252
-477.318	800.000	-0.090	0.284
-476.303	-162.252	0.287	0.014
-475.289	705.575	0.052	-0.137
-474.274	72.434	0.028	-0.029
-473.259	-200.000	-0.081	-0.377
-472.245	339.675	-0.159	0.312
-471.230	-179.266	-0.312	0.007
-470.216	-57.184	0.164	0.072
-469.201	110.529	-0.201	0.242
-468.186	119.410	-0.062	0.077
-467.172	-200.000	0.020	-0.188
-466.157	-10.921	-0.177	0.117
-465.143	326.715	0.148	0.285
-464.128	-110.024	0.326	-0.068
-463.113	-5.118	-0.232	-0.160
-462.099	153.071	0.034	0.046
-461.084	-21.494	-0.242	0.148
-460.070	122.899	-0.024	-0.030
-459.055	-200.000	-0.022	-0.214
-458.040	49.844	-0.124	0.117
-457.026	-41.613	-0.065	0.033
-456.011	494.746	-0.122	0.281
-454.997	-144.246	0.323	0.030
-453.982	800.000	-0.089	-0.370
-452.968	-139.415	0.290	0.031
-451.953	-200.000	-0.022	0.130
-450.938	305.493	-0.180	-0.335
-449.924	-200.000	0.044	-0.296
-448.909	-54.305	-0.260	-0.118
-447.895	-52.023	0.044	-0.020
-446.880	438.724	0.079	-0.173
-445.865	101.660	0.132	0.154
-444.851	-122.261	0.186	0.031
-443.836	-200.000	0.010	0.143
-442.822	-43.421	0.183	-0.092
-441.807	149.640	0.078	-0.106
-440.792	576.639	-0.065	0.160
-439.778	-200.000	0.023	0.224
-438.763	-200.000	0.037	0.219
-437.749	-200.000	0.022	0.118
-436.734	423.430	-0.071	0.152
-435.719	226.945	0.013	-0.021
-434.705	-54.694	-0.181	-0.082
-433.690	-92.434	0.172	0.049
-432.676	-104.513	0.220	-0.051
-431.661	800.000	0.098	-0.330
-430.646	-95.296	-0.129	-0.035
-429.632	-24.038	0.198	0.119
-428.617	-92.563	-0.157	0.044
-427.603	-19.512	0.207	-0.128
-426.588	-47.901	0.053	0.026
-425.573	-133.609	0.056	-0.007
-424.559	166.575	-0.072	0.103
-423.544	-200.000	-0.032	0.210
-422.530	-117.777	-0.233	-0.042
-421.515	-200.000	-0.048	0.217
-420.500	-200.000	0.012	-0.075
-419.486	-200.000	0.010	0.422
-418.471	-25.810	0.160	-0.095
-417.457	32.648	0.333	0.288
-416.442	78.817	0.186	0.200
-415.428	526.633	-0.053	-0.126
-414.413	321.185	-0.172	-0.328
-413.398	-61.734	0.247	-0.104
-412.384	800.000	-0.134	-0.397
-411.369	321.367	0.075	-0.143
-410.355	105.937	0.171	0.202
-409.340	800.000	0.035	0.120
-408.325	-200.000	-0.015	0.238
-407.311	97.733	0.051	0.058
-406.296	-200.000	-0.026	0.135
-405.282	-200.000	-0.024	0.154
-404.267	276.357	-0.108	0.191
-403.252	257.773	-0.057	0.097
-402.238	800.000	0.042	0.163
-401.223	-2.429	0.270	0.189
-400.209	800.000	-0.072	0.251
-399.194	-200.000	0.005	0.032
-398.179	-57.241	0.179	0.079
-397.165	-200.000	0.015	0.110
-396.150	766.382	0.026	0.070
-395.136	61.988	-0.226	-0.225
-394.121	-200.000	-0.011	-0.134
-393.106	800.000	0.030	-0.113
-392.092	-132.555	-0.132	-0.017
-391.077	800.000	-0.063	-0.222
-390.063	-114.191	-0.148	0.029
-389.048	88.541	0.171	0.190
-388.033	-60.634	-0.160	0.068
-387.019	45.142	0.303	-0.280
-386.004	-82.242	-0.289	-0.094
-384.990	-200.000	0.036	0.216
-383.975	-11.818	0.305	0.200
-382.960	78.911	-0.086	-0.092
-381.946	55.044	0.081	0.079
-380.931	-151.205	-0.327	0.024
-379.917	60.049	-0.410	0.405
-378.902	41.664	-0.097	-0.088
-377.888	598.184	-0.114	-0.282
-376.873	800.000	-0.024	0.099
-375.858	271.791	-0.227	-0.400
-374.844	-36.745	-0.166	0.089
-373.829	-130.170	-0.246	0.034
-372.815	800.000	-0.109	0.314
-371.800	-158.317	0.120	-0.007
-370.785	-175.000	-0.074	0.002
-369.771	800.000	-0.046	0.178
-368.756	-200.000	0.010	-0.162
-367.742	519.008	-0.043	-0.100
-366.727	-25.926	0.198	0.116
-365.712	111.161	0.210	0.253
-364.698	102.109	-0.197	0.230
-363.683	726.489	-0.036	-0.095
-362.669	127.242	-0.265	-0.336
-361.654	-29.066	-0.206	-0.118
-360.639	-200.000	0.097	-0.509
-359.625	-200.000	-0.361	0.000
-358.610	-14.456	-0.090	0.058
-357.596	410.226	0.018	0.039
-356.581	510.793	-0.025	-0.058
-355.566	-200.000	0.048	-0.501
-354.552	-97.663	0.292	0.076
-353.537	-58.311	0.242	0.105
-352.523	264.570	0.086	0.150
-351.508	454.797	0.100	0.221
-350.493	-49.392	0.155	0.074
-349.479	-79.680	0.137	0.046
-348.464	274.761	0.114	-0.202
-347.450	-136.413	-0.069	-0.008
-346.435	291.084	0.202	0.367
-345.420	82.830	0.243	-0.264
-344.406	17.635	-0.044	-0.035
-343.391	-11.372	-0.482	-0.316
-342.377	90.782	-0.203	-0.227
-341.362	134.383	0.164	0.213
-340.348	102.382	0.350	0.409
-339.333	-89.739	-0.120	-0.035
-338.318	-41.541	-0.267	-0.137
-337.304	453.270	-0.029	0.063
-336.289	449.847	0.050	0.111
-335.275	-78.397	0.107	0.036
-334.260	65.504	0.082	0.082
-333.245	800.000	0.042	0.146
-332.231	309.365	-0.055	-0.103
-331.216	-126.095	0.256	-0.038
-330.202	-200.000	-0.014	0.076
-329.187	108.468	0.255	0.304
-328.172	236.170	-0.133	0.220
-327.158	241.343	-0.127	0.212
-326.143	2.894	0.057	0.041
-325.129	-16.469	-0.034	-0.021
-324.114	800.000	0.015	0.054
-323.099	41.899	-0.135	0.122
-322.085	-53.867	0.194	-0.088
-321.070	-147.019	-0.194	0.017
-320.056	-200.000	0.009	-0.165
-319.041	10.511	0.184	-0.140
-318.026	194.461	0.121	0.183
-317.012	236.330	-0.103	0.170
-315.997	173.129	0.090	0.130
-314.983	289.446	-0.122	0.220
-313.968	130.767	-0.125	0.159
-312.953	-200.000	0.006	0.047
-311.939	505.993	-0.237	-0.548
-310.924	14.823	0.200	-0.156
-309.910	6.144	0.205	0.151
-308.895	-200.000	-0.053	0.240
-307.880	-128.607	0.223	-0.031
-306.866	-174.889	0.303	-0.008
-305.851	7.306	0.182	0.135
-304.837	-71.742	-0.299	-0.111
-303.822	269.218	0.186	-0.326
-302.807	-51.874	-0.135	-0.063
-301.793	36.665	-0.139	0.123
-300.778	-200.000	0.025	-0.218
-299.764	-12.179	-0.123	-0.080
-298.749	-200.000	0.008	-0.059
-297.735	239.495	-0.065	-0.107
-296.720	109.454	0.245	-0.292
-295.705	70.015	0.198	0.203
-294.691	-116.001	-0.134	-0.025
-293.676	-110.411	-0.217	-0.045
-292.662	362.100	0.012	-0.024
-291.647	-200.000	-0.012	0.058
-290.632	413.453	-0.083	0.175
-289.618	-126.164	-0.181	0.027
-288.603	26.535	-0.109	-0.091
-287.589	-121.727	0.197	0.032
-286.574	800.000	0.151	-0.438
-285.559	295.348	-0.095	0.173
-284.545	195.213	-0.103	0.156
-283.530	416.037	-0.124	0.264
-282.516	-200.000	-0.003	-0.152
-281.501	-200.000	-0.048	0.254
-280.486	89.629	-0.087	0.097
-279.472	-37.460	-0.143	0.076
-278.457	-200.000	0.008	0.113
-277.443	-200.000	0.001	-0.023
-276.428	-120.330	0.144	-0.024
-275.413	800.000	-0.077	-0.240
-274.399	-1.345	0.219	-0.154
-273.384	-30.416	0.119	-0.067
-272.370	82.219	0.178	0.192
-271.355	-200.000	-0.007	0.349
-270.340	422.297	0.049	0.106
-269.326	-76.504	-0.164	0.057
-268.311	800.000	0.035	0.101
-267.297	-200.000	0.024	-0.219
-266.282	111.218	0.123	0.148
-265.267	-78.706	0.057	0.019
-264.253	-200.000	0.008	0.212
-263.238	261.522	0.139	-0.239
-262.224	-92.161	-0.049	0.014
-261.209	-18.180	0.256	0.159
-260.195	-77.204	0.226	-0.078
-259.180	800.000	-0.050	-0.143
-258.165	-134.912	-0.386	0.046
-257.151	159.297	0.044	-0.060
-256.136	-92.947	0.200	-0.056
-255.122	-200.000	-0.006	0.040
-254.107	-24.277	0.121	0.072
-253.092	114.595	0.154	-0.186
-252.078	-140.552	0.329	0.034
-251.063	216.250	0.046	0.073
-250.049	800.000	-0.034	0.125
-249.034	-38.496	0.182	0.096
-248.019	42.186	-0.100	-0.090
-247.005	33.102	-0.120	-0.103
-245.990	223.708	-0.157	0.251
-244.976	800.000	-0.088	-0.358
-243.961	-119.858	0.213	0.036
-242.946	-2.917	-0.195	0.135
-241.932	71.304	0.200	-0.206
-240.917	-78.446	0.227	0.077
-239.903	-47.260	-0.189	-0.091
-238.888	800.000	-0.073	0.242
-237.873	-200.000	0.003	0.173
-236.859	287.015	-0.106	-0.191
-235.844	-93.601	0.280	-0.077
-234.830	800.000	-0.025	0.109
-233.815	-192.150	-0.200	0.002
-232.800	-174.571	-0.099	0.003
-231.786	800.000	0.045	-0.175
-230.771	-200.000	0.011	-0.051
-229.757	512.209	0.037	0.086
-228.742	164.741	0.141	0.198
-227.727	-115.319	0.294	-0.055
-226.713	-176.239	-0.399	-0.010
-225.698	-32.927	-0.079	0.044
-224.684	-9.024	-0.132	-0.088
-223.669	501.871	-0.044	0.101
-222.655	-200.000	0.001	-0.069
-221.640	-106.460	0.099	0.022
-220.625	800.000	0.027	0.113
-219.611	800.000	-0.054	-0.162
-218.596	-200.000	0.084	-0.402
-217.582	76.280	0.130	-0.137
-216.567	168.170	-0.232	0.328
-215.552	162.636	0.085	0.119
-214.538	17.054	-0.081	-0.064
-213.523	-184.916	-0.275	-0.004
-212.509	-200.000	-0.039	0.177
-211.494	-74.577	0.198	0.071
-210.479	118.222	-0.061	0.075
-209.465	-87.049	-0.120	-0.036
-208.450	-163.506	0.057	0.003
-207.436	-38.594	0.294	0.154
-206.421	141.876	-0.121	0.160
-205.406	-69.455	-0.020	-0.008
-204.392	800.000	0.024	0.100
-203.377	323.496	-0.036	0.068
-202.363	-200.000	-0.015	0.279
-201.348	391.698	0.044	0.092
-200.333	-146.698	0.257	0.022
-199.319	146.939	-0.070	0.093
-198.304	-200.000	-0.030	0.412
-197.290	-200.000	0.007	-0.251
-196.275	-153.679	0.132	0.009
-195.260	6.617	-0.055	0.040
-194.246	324.540	-0.134	0.254
-193.231	-48.714	0.361	-0.172
-192.217	561.221	0.165	0.396
-191.202	183.801	-0.157	0.231
-190.187	21.217	-0.118	0.095
-189.173	107.544	0.022	0.026
-188.158	-115.720	-0.165	-0.031
-187.144	-25.131	0.425	0.250
-186.129	-197.349	0.142	0.001
-185.114	109.376	0.078	0.092
-184.100	221.776	0.117	-0.187
-183.085	-8.378	-0.087	0.058
-182.071	-200.000	0.020	0.219
-181.056	-49.628	-0.125	-0.059
-180.042	-76.404	-0.080	0.028
-179.027	-200.000	0.011	0.058
-178.012	-154.629	-0.189	-0.012
-176.998	719.595	-0.172	-0.453
-175.983	239.789	0.072	-0.119
-174.969	295.127	-0.116	0.210
-173.954	166.969	-0.137	0.193
-172.939	23.713	0.034	-0.028
-171.925	-200.000	0.006	0.108
-170.910	231.019	0.052	-0.085
-169.896	-103.864	0.090	-0.021
-168.881	-200.000	0.051	-0.292
-167.866	-68.472	0.154	0.059
-166.852	0.907	-0.256	0.182
-165.837	-200.000	-0.031	-0.484
-164.823	-150.197	0.310	-0.024
-163.808	17.035	-0.095	0.075
-162.793	-93.192	-0.044	0.012
-161.779	-91.898	-0.147	0.041
-160.764	800.000	0.027	0.118
-159.750	800.000	-0.033	0.123
-158.735	800.000	-0.042	-0.135
-157.720	139.694	0.089	-0.116
-156.706	800.000	-0.018	-0.077
-155.691	800.000	-0.008	0.025
-154.677	800.000	0.052	-0.208
-153.662	-124.413	0.304	-0.047
-152.647	38.016	0.271	-0.239
-151.633	-67.863	-0.126	-0.049
-150.618	412.309	0.134	0.282
-149.604	-94.165	-0.313	0.085
-148.589	-106.035	0.272	-0.061
-147.574	800.000	-0.054	0.220
-146.560	501.073	0.112	0.255
-145.545	800.000	-0.037	-0.111
-144.531	-100.679	0.237	0.058
-143.516	-88.398	-0.050	0.015
-142.502	148.834	-0.240	0.321
-141.487	-66.574	0.160	-0.063
-140.472	800.000	0.003	0.008
-139.458	800.000	0.027	-0.101
-138.443	-100.513	0.295	0.072
-137.429	-74.160	-0.334	-0.120
-136.414	-129.748	0.287	0.039
-135.399	800.000	0.085	-0.244
-134.385	-21.004	-0.194	-0.118
-133.370	-200.000	0.006	-0.123
-132.356	-200.000	0.014	0.076
-131.341	259.501	0.146	0.249
-130.326	754.641	0.023	0.061
-129.312	195.487	0.047	-0.070
-128.297	369.827	-0.067	0.135
-127.283	87.856	0.209	-0.229
-126.268	-13.205	0.143	0.092
-125.253	-24.301	-0.318	0.188
-124.239	-104.594	0.089	-0.020
-123.224	800.000	-0.083	-0.319
-122.210	-3.165	0.161	-0.111
-121.195	-42.336	0.022	0.011
