DTS Sentinel unit serial number:	SN413079Multiplexer serial number:	ORYXHardware model number:	OX4-SRSoftware version number:	ORYX F/W v4.00 Oryx Data Collector v3.7.2.0data status	okinstallation	princeton_trtdifferential loss correction	single-endedforward channel	channel 2reverse channel	N/Adate	2019/09/15time	00:31:35forward acquisition time	60.00reverse acquisition time	0.00gamma	496.2192k internal	0.2324k external	0.2324temperature offset calibration	1.0039default loss term (dB/km)	0.3790temperature slope calibration	1.0000multiplexer offset coefficient	1.0000multiplexer slope coefficient	1.0000fibre end	0.00T internal ref (°C)	32.12T ext. ref 1 (°C)	4.57T ext. ref 2 (°C)	27.17length (m)	temperature (°C)	Stokes	anti-Stokes-747.200	226.231	0.155	-0.254
-746.185	248.393	0.160	0.274
-745.171	115.872	0.082	-0.102
-744.156	800.000	-0.052	0.178
-743.142	149.022	-0.134	0.183
-742.127	-119.381	0.146	-0.026
-741.112	-200.000	-0.011	-0.159
-740.098	-10.197	-0.381	-0.255
-739.083	-200.000	-0.010	-0.071
-738.069	800.000	0.050	-0.152
-737.054	-143.516	-0.136	0.013
-736.039	126.563	-0.145	0.186
-735.025	-200.000	-0.016	0.184
-734.010	203.828	-0.061	0.095
-732.996	-99.241	-0.368	-0.094
-731.981	-124.963	-0.364	-0.057
-730.966	800.000	-0.043	-0.159
-729.952	-124.658	-0.257	-0.040
-728.937	2.956	-0.292	0.214
-727.923	-200.000	-0.015	-0.263
-726.908	-159.331	0.315	0.018
-725.894	-200.000	-0.121	-0.000
-724.879	94.821	-0.298	-0.341
-723.864	-56.209	0.267	-0.120
-722.850	39.702	-0.115	-0.104
-721.835	707.273	0.098	0.261
-720.821	50.546	-0.209	0.199
-719.806	156.241	-0.081	-0.112
-718.791	-46.094	0.083	0.041
-717.777	-136.575	-0.132	0.015
-716.762	-200.000	0.034	0.212
-715.748	-200.000	0.075	0.431
-714.733	-200.000	0.014	-0.061
-713.718	-40.686	0.232	-0.121
-712.704	-134.190	-0.186	-0.023
-711.689	-108.830	0.370	0.080
-710.675	-154.779	0.076	-0.005
-709.660	-118.287	0.166	0.030
-708.645	776.917	-0.058	-0.160
-707.631	-111.658	-0.230	-0.047
-706.616	-13.390	0.262	-0.172
-705.602	267.696	-0.054	-0.095
-704.587	170.527	-0.086	-0.124
-703.572	-38.682	0.189	-0.101
-702.558	19.634	-0.057	0.046
-701.543	800.000	-0.050	0.171
-700.529	-57.823	0.284	-0.125
-699.514	-140.851	0.151	0.016
-698.499	241.733	0.139	0.234
-697.485	-57.642	-0.220	0.097
-696.470	-71.134	-0.147	0.056
-695.456	-114.141	0.106	-0.021
-694.441	9.432	-0.073	-0.056
-693.426	1.829	0.370	-0.269
-692.412	-115.241	-0.203	-0.039
-691.397	800.000	0.016	-0.047
-690.383	95.915	0.251	-0.289
-689.368	2.639	0.173	-0.126
-688.354	-92.851	-0.508	0.143
-687.339	-200.000	-0.025	-0.446
-686.324	800.000	-0.113	0.327
-685.310	-63.287	-0.275	0.114
-684.295	-34.986	-0.129	-0.071
-683.281	335.925	0.153	-0.300
-682.266	228.506	-0.033	-0.055
-681.251	-177.690	-0.258	0.006
-680.237	-171.862	-0.167	0.005
-679.222	664.048	-0.116	0.302
-678.208	156.452	0.169	-0.235
-677.193	61.152	0.067	-0.067
-676.178	-108.633	-0.221	-0.048
-675.164	98.099	0.122	-0.142
-674.149	-123.621	0.173	0.028
-673.135	800.000	-0.123	-0.457
-672.120	-45.142	-0.263	-0.131
-671.105	307.477	-0.036	0.068
-670.091	-33.017	-0.227	-0.127
-669.076	-200.000	0.010	-0.207
-668.062	800.000	0.053	-0.205
-667.047	137.358	0.041	-0.054
-666.032	800.000	0.040	-0.125
-665.018	-186.320	-0.127	0.002
-664.003	-51.826	0.227	0.106
-662.989	800.000	-0.063	0.252
-661.974	-200.000	-0.032	-0.325
-660.959	-86.452	-0.156	-0.048
-659.945	-73.596	-0.276	0.101
-658.930	-61.139	-0.376	0.160
-657.916	800.000	0.126	-0.407
-656.901	-90.992	-0.281	0.081
-655.886	0.210	-0.350	-0.251
-654.872	-69.312	-0.350	0.135
-653.857	-116.626	0.238	0.044
-652.843	-74.457	-0.277	-0.101
-651.828	-103.669	-0.300	0.071
-650.814	-200.000	-0.008	-0.036
-649.799	127.281	0.051	0.066
-648.784	194.524	0.125	-0.190
-647.770	-200.000	-0.026	-0.302
-646.755	26.265	0.269	-0.226
-645.741	800.000	0.064	0.218
-644.726	800.000	-0.045	0.131
-643.711	-200.000	0.053	0.282
-642.697	800.000	-0.096	-0.374
-641.682	-95.401	0.119	0.032
-640.668	30.730	0.017	0.015
-639.653	-78.102	0.197	0.068
-638.638	-113.107	0.189	-0.038
-637.624	216.093	-0.045	-0.072
-636.609	102.525	0.263	-0.309
-635.595	374.542	0.141	-0.290
-634.580	62.030	0.260	0.261
-633.565	-117.411	0.262	0.048
-632.551	272.559	-0.151	-0.267
-631.536	153.659	0.128	0.177
-630.522	800.000	-0.045	0.161
-629.507	-88.135	0.244	0.073
-628.492	26.771	-0.308	-0.259
-627.478	-132.347	-0.227	0.029
-626.463	-50.216	0.258	-0.123
-625.449	177.668	-0.250	-0.366
-624.434	-200.000	-0.015	-0.103
-623.419	138.396	0.057	0.075
-622.405	51.315	-0.245	0.233
-621.390	-11.246	0.146	-0.097
-620.376	-30.959	-0.313	0.177
-619.361	450.703	0.009	0.020
-618.346	-200.000	0.005	0.179
-617.332	800.000	-0.064	-0.237
-616.317	176.450	-0.064	-0.094
-615.303	-120.932	-0.136	-0.023
-614.288	198.914	-0.377	-0.580
-613.273	-46.513	-0.312	-0.154
-612.259	170.965	0.027	0.039
-611.244	87.064	-0.174	-0.193
-610.230	392.135	-0.069	0.145
-609.215	-200.000	-0.021	-0.228
-608.201	731.820	0.045	0.121
-607.186	800.000	0.025	0.084
-606.171	-96.818	0.215	0.057
-605.157	36.523	0.136	0.121
-604.142	-200.000	-0.041	0.297
-603.128	-131.261	0.130	-0.017
-602.113	-42.182	-0.270	-0.138
-601.098	375.800	0.031	0.064
-600.084	-200.000	-0.004	-0.184
-599.069	11.410	0.143	0.110
-598.055	50.408	0.169	0.161
-597.040	-45.215	-0.352	0.175
-596.025	-118.331	0.255	-0.045
-595.011	-16.394	-0.077	0.049
-593.996	24.615	0.232	-0.192
-592.982	800.000	-0.148	0.492
-591.967	-200.000	-0.040	0.298
-590.952	-200.000	-0.036	0.232
-589.938	-31.672	0.231	-0.130
-588.923	-162.411	-0.164	0.008
-587.909	52.684	0.043	-0.042
-586.894	234.681	0.196	0.325
-585.879	-118.995	-0.063	-0.011
-584.865	-127.394	0.308	0.045
-583.850	392.383	0.098	-0.204
-582.836	-200.000	0.011	-0.433
-581.821	169.535	-0.116	-0.166
-580.806	-200.000	0.051	0.233
-579.792	800.000	-0.041	-0.125
-578.777	-109.012	-0.122	0.026
-577.763	-60.722	0.242	0.103
-576.748	197.345	0.261	-0.400
-575.733	-129.225	0.079	-0.011
-574.719	-121.976	-0.095	0.016
-573.704	-113.502	0.183	0.036
-572.690	-34.150	-0.208	0.114
-571.675	-98.198	0.432	-0.111
-570.661	-23.338	-0.246	-0.148
-569.646	183.685	-0.237	0.351
-568.631	241.173	-0.118	0.198
-567.617	113.085	0.145	-0.177
-566.602	99.360	-0.257	-0.298
-565.588	166.199	-0.161	-0.228
-564.573	-85.308	-0.232	0.072
-563.558	113.821	0.284	0.345
-562.544	-200.000	0.019	-0.216
-561.529	17.794	-0.311	-0.248
-560.515	47.652	-0.141	0.132
-559.500	-200.000	0.018	0.210
-558.485	-118.171	-0.290	-0.052
-557.471	-141.327	-0.253	-0.026
-556.456	62.630	0.127	0.127
-555.442	130.307	-0.188	-0.242
-554.427	-200.000	-0.005	0.042
-553.412	-112.121	0.209	0.042
-552.398	-168.258	0.242	0.009
-551.383	-200.000	-0.060	0.274
-550.369	173.917	-0.034	-0.049
-549.354	605.046	0.050	0.124
-548.339	-200.000	-0.007	0.265
-547.325	-151.870	0.246	0.018
-546.310	145.498	-0.133	-0.178
-545.296	-200.000	-0.065	-0.430
-544.281	215.800	-0.090	0.143
-543.266	641.519	0.093	-0.237
-542.252	-200.000	-0.018	0.213
-541.237	418.381	0.052	0.111
-540.223	-130.699	-0.176	0.024
-539.208	-131.847	-0.161	-0.021
-538.193	-73.642	-0.149	0.054
-537.179	279.390	0.082	0.146
-536.164	-139.126	0.360	-0.039
-535.150	8.263	-0.426	-0.320
-534.135	217.539	-0.105	-0.168
-533.121	21.286	-0.125	-0.101
-532.106	3.127	-0.105	-0.076
-531.091	35.512	0.112	-0.098
-530.077	-142.335	0.371	-0.037
-529.062	-154.035	-0.103	0.007
-528.048	-13.005	0.130	-0.085
-527.033	-142.081	-0.283	0.028
-526.018	16.258	-0.165	-0.130
-525.004	-37.806	-0.267	-0.142
-523.989	800.000	-0.034	-0.145
-522.975	288.491	0.127	-0.229
-521.960	-110.812	-0.036	-0.007
-520.945	7.581	-0.380	-0.285
-519.931	7.593	-0.267	-0.200
-518.916	-85.931	0.043	-0.013
-517.902	0.603	0.106	-0.076
-516.887	552.012	0.110	-0.264
-515.872	9.166	-0.257	0.194
-514.858	172.888	-0.089	0.128
-513.843	194.474	-0.090	-0.137
-512.829	800.000	-0.067	-0.192
-511.814	212.727	-0.137	-0.216
-510.799	-200.000	0.030	-0.392
-509.785	-150.214	-0.148	0.011
-508.770	6.429	0.263	-0.196
-507.756	312.686	0.082	-0.154
-506.741	-200.000	0.001	0.037
-505.726	-200.000	0.021	-0.194
-504.712	-200.000	0.004	0.069
-503.697	-98.946	0.170	-0.043
-502.683	800.000	0.092	-0.256
-501.668	-200.000	-0.002	0.129
-500.653	76.701	-0.183	0.195
-499.639	421.563	0.103	0.220
-498.624	208.391	0.071	0.112
-497.610	-200.000	0.024	0.204
-496.595	322.888	-0.040	0.076
-495.581	379.289	-0.091	0.186
-494.566	401.610	0.078	-0.164
-493.551	800.000	-0.238	-0.659
-492.537	29.010	-0.134	0.113
-491.522	-34.199	0.258	0.142
-490.508	-166.788	-0.341	-0.014
-489.493	8.375	0.085	0.064
-488.478	197.531	-0.056	0.086
-487.464	-200.000	-0.018	0.129
-486.449	-157.145	-0.356	-0.022
-485.435	800.000	-0.018	-0.078
-484.420	800.000	0.055	-0.173
-483.405	142.818	0.058	0.077
-482.391	-67.497	0.305	0.120
-481.376	-127.561	0.222	0.032
-480.362	301.374	-0.103	0.191
-479.347	61.378	0.121	0.120
-478.332	-23.891	-0.101	0.061
-477.318	-200.000	0.009	-0.101
-476.303	379.474	-0.067	-0.137
-475.289	65.654	0.082	-0.083
-474.274	793.772	-0.045	0.125
-473.259	800.000	0.041	0.177
-472.245	-54.530	0.222	0.100
-471.230	121.695	0.134	0.167
-470.216	18.818	0.076	-0.061
-469.201	388.452	-0.038	-0.078
-468.186	170.264	-0.107	0.153
-467.172	-128.494	-0.557	-0.079
-466.157	-107.524	0.116	0.025
-465.143	-200.000	0.040	0.178
-464.128	129.579	-0.153	-0.196
-463.113	-36.473	0.205	-0.110
-462.099	330.066	-0.082	-0.157
-461.084	800.000	-0.020	-0.066
-460.070	-173.192	-0.144	-0.004
-459.055	139.949	-0.125	0.164
-458.040	800.000	-0.030	0.115
-457.026	-23.595	-0.065	0.039
-456.011	-127.861	0.026	0.004
-454.997	124.508	-0.121	-0.152
-453.982	-22.999	0.243	-0.146
-452.968	3.473	0.144	0.104
-451.953	-100.686	-0.134	-0.033
-450.938	-30.833	0.032	-0.018
-449.924	120.948	-0.354	0.440
-448.909	308.779	-0.166	-0.309
-447.895	-41.528	-0.272	0.140
-446.880	2.258	0.076	-0.055
-445.865	112.555	0.074	-0.090
-444.851	24.113	-0.269	-0.221
-443.836	216.288	-0.138	-0.219
-442.822	265.651	-0.229	-0.399
-441.807	-84.688	0.068	0.021
-440.792	460.535	-0.115	-0.257
-439.778	-82.352	0.147	0.048
-438.763	351.977	-0.155	0.307
-437.749	-91.569	-0.123	-0.035
-436.734	-89.878	0.114	-0.033
-435.719	-108.587	0.190	0.041
-434.705	38.459	0.193	-0.172
-433.690	-76.967	0.169	-0.059
-432.676	60.230	-0.244	-0.241
-431.661	319.357	0.116	0.219
-430.646	-132.138	-0.351	0.045
-429.632	800.000	0.151	0.426
-428.617	-200.000	-0.002	0.071
-427.603	-22.924	0.311	0.187
-426.588	23.576	0.130	0.107
-425.573	-54.653	0.124	0.056
-424.559	-200.000	0.022	-0.107
-423.544	89.954	0.031	-0.035
-422.530	494.860	0.109	0.250
-421.515	-136.249	0.164	0.019
-420.500	-200.000	-0.048	0.296
-419.486	-101.654	-0.223	0.054
-418.471	-64.940	0.125	-0.050
-417.457	-142.925	-0.104	-0.010
-416.442	-200.000	0.037	0.175
-415.428	96.762	-0.078	0.089
-414.413	88.406	-0.099	-0.110
-413.398	800.000	0.033	-0.092
-412.384	297.107	0.043	0.079
-411.369	29.194	-0.197	-0.167
-410.355	-15.051	-0.270	-0.172
-409.340	-82.010	-0.179	0.058
-408.325	-38.999	-0.062	0.033
-407.311	-200.000	-0.028	0.220
-406.296	-47.243	0.140	0.068
-405.282	706.353	0.068	0.178
-404.267	-200.000	-0.037	0.227
-403.252	-177.173	-0.267	-0.007
-402.238	-18.926	-0.169	0.105
-401.223	252.861	-0.095	-0.161
-400.209	161.003	-0.238	-0.331
-399.194	-66.903	0.286	-0.113
-398.179	2.637	-0.231	0.167
-397.165	-140.150	0.302	0.032
-396.150	145.466	0.173	0.231
-395.136	269.543	-0.191	0.334
-394.121	47.505	-0.100	-0.093
-393.106	503.617	-0.060	-0.139
-392.092	-28.013	-0.132	-0.076
-391.077	1.369	-0.269	-0.192
-390.063	-142.556	0.488	-0.048
-389.048	171.277	0.300	0.429
-388.033	800.000	-0.065	0.187
-387.019	29.817	-0.222	0.188
-386.004	800.000	-0.010	0.028
-384.990	-174.644	0.354	0.010
-383.975	800.000	-0.141	0.445
-382.960	-200.000	-0.034	-0.240
-381.946	-34.300	-0.073	0.040
-380.931	-0.021	0.103	0.073
-379.917	-59.726	-0.277	0.118
-378.902	31.093	0.344	0.294
-377.888	-159.778	0.301	-0.016
-376.873	-99.879	0.268	0.067
-375.858	-31.210	-0.172	-0.096
-374.844	800.000	0.035	0.098
-373.829	800.000	-0.113	0.347
-372.815	286.665	0.107	0.192
-371.800	800.000	-0.018	0.055
-370.785	126.292	-0.051	0.064
-369.771	-47.419	-0.080	0.039
-368.756	199.529	0.068	-0.103
-367.742	-200.000	0.002	0.140
-366.727	-117.298	-0.194	0.035
-365.712	-135.490	0.073	-0.009
-364.698	76.085	-0.176	-0.185
-363.683	202.175	-0.105	0.161
-362.669	40.568	0.130	0.117
-361.654	55.520	-0.182	0.175
-360.639	477.126	0.011	0.024
-359.625	326.445	-0.033	-0.062
-358.610	-200.000	0.041	-0.301
-357.596	-3.009	0.190	-0.132
-356.581	-200.000	0.033	0.211
-355.566	247.019	-0.059	-0.098
-354.552	800.000	-0.061	-0.211
-353.537	-138.646	0.739	0.081
-352.523	317.080	0.055	0.104
-351.508	-51.506	-0.182	-0.084
-350.493	258.661	0.155	-0.265
-349.479	538.270	-0.026	-0.062
-348.464	-150.925	0.214	0.016
-347.450	-52.179	0.144	0.066
-346.435	-43.583	-0.327	0.164
-345.420	40.536	0.072	0.064
-344.406	-79.099	-0.277	0.094
-343.391	-200.000	0.045	-0.344
-342.377	436.834	-0.146	0.316
-341.362	-81.638	0.067	0.022
-340.348	452.964	-0.102	0.225
-339.333	-57.633	0.144	-0.063
-338.318	800.000	-0.049	0.183
-337.304	235.267	-0.154	0.252
-336.289	57.551	-0.030	0.029
-335.275	-121.889	0.095	-0.016
-334.260	-181.184	-0.394	0.008
-333.245	-156.304	0.124	0.008
-332.231	154.918	-0.143	0.195
-331.216	-2.354	0.430	-0.300
-330.202	-131.068	0.379	-0.050
-329.187	-200.000	-0.066	-0.433
-328.172	162.010	0.143	0.199
-327.158	-90.821	-0.134	-0.038
-326.143	-168.734	0.240	-0.009
-325.129	-156.367	0.402	-0.025
-324.114	-86.941	-0.138	0.042
-323.099	-200.000	-0.029	0.214
-322.085	-200.000	-0.052	-0.341
-321.070	48.098	0.237	0.220
-320.056	-200.000	0.019	-0.090
-319.041	800.000	-0.058	-0.165
-318.026	37.924	0.144	-0.127
-317.012	188.067	-0.042	0.063
-315.997	2.069	0.273	-0.196
-314.983	78.556	0.177	0.187
-313.968	65.731	0.045	0.045
-312.953	800.000	0.099	-0.283
-311.939	52.536	0.134	0.127
-310.924	-192.923	-0.149	0.001
-309.910	-134.906	0.237	-0.028
-308.895	437.409	0.207	0.447
-307.880	132.524	-0.179	-0.229
-306.866	107.911	0.333	-0.393
-305.851	-123.508	-0.147	-0.023
-304.837	-16.157	0.036	-0.022
-303.822	-12.616	0.129	-0.083
-302.807	58.933	-0.302	0.295
-301.793	280.293	0.185	0.328
-300.778	3.322	0.189	0.136
-299.764	-200.000	0.024	-0.120
-298.749	49.539	-0.071	-0.066
-297.735	-200.000	-0.058	0.384
-296.720	-147.833	-0.034	-0.003
-295.705	421.209	-0.098	0.208
-294.691	-55.043	0.296	0.132
-293.676	-116.527	-0.098	0.018
-292.662	6.868	0.303	-0.224
-291.647	25.731	-0.126	-0.104
-290.632	468.069	-0.132	-0.293
-289.618	-128.157	-0.316	0.045
-288.603	-41.700	0.069	-0.035
-287.589	58.061	-0.175	0.170
-286.574	-52.133	-0.154	-0.071
-285.559	-54.702	-0.224	-0.100
-284.545	-200.000	-0.010	0.401
-283.530	-65.202	-0.240	-0.096
-282.516	-200.000	0.039	-0.216
-281.501	128.387	0.163	-0.206
-280.486	177.018	0.145	-0.210
-279.472	-132.687	-0.314	0.040
-278.457	298.731	0.075	0.137
-277.443	-100.280	-0.267	0.066
-276.428	-64.380	0.147	0.059
-275.413	-63.758	-0.277	-0.112
-274.399	-79.060	-0.206	-0.069
-273.384	-200.000	0.011	0.136
-272.370	-97.326	-0.178	-0.046
-271.355	-200.000	-0.020	0.111
-270.340	540.313	-0.091	0.215
-269.326	-49.791	-0.194	-0.091
-268.311	-6.297	0.208	-0.141
-267.297	230.459	0.011	-0.018
-266.282	800.000	-0.129	-0.447
-265.267	-37.803	0.291	0.153
-264.253	359.733	-0.180	-0.356
-263.238	-88.190	-0.194	0.058
-262.224	357.048	-0.119	0.235
-261.209	760.097	0.117	-0.315
-260.195	-200.000	-0.026	0.142
-259.180	-114.520	-0.157	-0.030
-258.165	640.987	-0.039	-0.099
-257.151	111.787	0.110	0.131
-256.136	37.210	-0.248	-0.218
-255.122	-59.582	-0.155	0.066
-254.107	-69.364	-0.245	0.093
-253.092	-134.844	0.185	-0.022
-252.078	106.296	0.201	0.236
-251.063	486.075	0.052	-0.117
-250.049	-131.015	-0.338	-0.045
-249.034	-200.000	0.034	0.307
-248.019	64.520	0.320	-0.320
-247.005	116.091	0.147	-0.178
-245.990	-155.940	0.097	0.006
-244.976	-142.758	0.104	-0.010
-243.961	271.629	0.105	0.183
-242.946	800.000	-0.080	0.340
-241.932	-12.360	-0.185	-0.120
-240.917	111.480	0.160	0.191
-239.903	157.885	-0.258	0.354
-238.888	-21.257	-0.086	0.052
-237.873	-30.431	-0.141	-0.079
-236.859	-200.000	0.002	0.160
-235.844	538.281	0.014	0.033
-234.830	130.907	-0.182	0.231
-233.815	20.191	0.240	0.192
-232.800	800.000	0.038	-0.111
-231.786	144.024	-0.025	-0.033
-230.771	248.293	0.182	-0.305
-229.757	360.181	-0.150	-0.298
-228.742	-38.102	0.115	-0.060
-227.727	136.207	0.168	0.217
-226.713	284.850	-0.061	0.108
-225.698	-125.538	0.335	-0.050
-224.684	330.215	-0.028	0.054
-223.669	800.000	0.037	0.144
-222.655	-137.794	0.262	0.029
-221.640	-200.000	-0.018	0.166
-220.625	1.629	-0.118	0.084
-219.611	-70.580	-0.189	-0.071
-218.596	31.971	-0.139	-0.119
-217.582	328.386	0.060	0.115
-216.567	94.657	0.120	-0.134
-215.552	-200.000	0.002	-0.125
-214.538	112.922	0.167	0.200
-213.523	57.795	0.451	0.437
-212.509	46.377	-0.201	-0.184
-211.494	287.270	-0.063	-0.112
-210.479	-100.435	0.131	0.032
-209.465	-160.805	-0.367	-0.019
-208.450	-100.874	0.460	0.112
-207.436	44.754	-0.106	0.096
-206.421	226.946	0.046	-0.074
-205.406	54.200	0.160	0.152
-204.392	-200.000	-0.018	0.128
-203.377	-83.354	0.199	-0.063
-202.363	0.351	0.439	-0.310
-201.348	55.273	0.079	0.075
-200.333	-33.123	0.239	0.131
-199.319	-111.685	-0.390	-0.078
-198.304	184.255	-0.104	0.152
-197.290	800.000	0.083	0.315
-196.275	-31.504	0.296	-0.164
-195.260	-198.945	0.137	0.001
-194.246	146.302	-0.115	-0.153
-193.231	-153.257	0.170	0.012
-192.217	-7.380	-0.173	0.116
-191.202	492.900	0.071	0.161
-190.187	-73.751	0.106	0.038
-189.173	-63.340	-0.094	0.038
-188.158	-200.000	0.008	0.209
-187.144	-155.639	0.288	0.018
-186.129	-200.000	0.002	0.480
-185.114	-200.000	0.020	0.196
-184.100	-200.000	0.078	-0.458
-183.085	-78.975	-0.122	-0.041
-182.071	-12.623	-0.246	-0.159
-181.056	-200.000	0.015	0.190
-180.042	186.104	0.121	0.178
-179.027	-200.000	0.012	-0.104
-178.012	-33.169	-0.256	0.140
-176.998	-200.000	-0.006	-0.350
-175.983	204.110	0.096	-0.148
-174.969	-66.273	-0.249	-0.098
-173.954	-200.000	0.025	-0.117
-172.939	327.019	0.157	0.297
-171.925	126.831	0.217	0.272
-170.910	-153.231	-0.170	0.012
-169.896	-63.361	0.248	-0.101
-168.881	597.142	-0.045	-0.111
-167.866	-25.167	-0.211	-0.124
-166.852	800.000	0.029	-0.116
-165.837	-11.452	0.104	-0.067
-164.823	-200.000	0.038	-0.228
-163.808	-64.193	-0.042	0.017
-162.793	-120.245	0.384	-0.065
-161.779	221.476	-0.118	0.187
-160.764	-200.000	0.008	-0.185
-159.750	104.946	-0.133	0.155
-158.735	-74.068	0.249	-0.089
-157.720	-200.000	0.034	-0.462
-156.706	-200.000	-0.052	-0.255
-155.691	132.486	0.158	-0.201
-154.677	-200.000	0.013	-0.072
-153.662	448.732	-0.064	0.139
-152.647	-141.252	0.081	0.008
-151.633	104.965	-0.127	-0.147
-150.618	87.664	-0.131	-0.143
-149.604	-137.678	-0.423	-0.047
-148.589	-147.489	-0.091	-0.008
-147.574	-105.665	-0.089	-0.020
-146.560	85.977	-0.137	0.149
-145.545	-43.564	-0.191	-0.095
-144.531	-98.812	0.243	-0.061
-143.516	302.383	-0.105	0.192
-142.502	66.527	0.148	0.149
-141.487	263.182	-0.100	0.172
-140.472	-200.000	0.025	0.326
-139.458	-27.070	-0.093	-0.053
-138.443	-113.622	0.046	-0.009
-137.429	-200.000	-0.019	-0.227
-136.414	-200.000	-0.032	-0.265
-135.399	-200.000	0.016	0.339
-134.385	120.737	-0.242	0.296
-133.370	303.085	-0.099	0.181
-132.356	48.291	0.047	-0.043
-131.341	-37.198	-0.069	0.037
-130.326	-56.181	-0.088	0.038
-129.312	-174.457	0.459	0.013
-128.297	-48.490	0.175	0.083
-127.283	-44.713	0.127	0.062
-126.268	-79.325	0.055	0.018
-125.253	800.000	0.100	0.308
-124.239	-79.313	-0.188	-0.063
-123.224	18.590	0.268	0.211
-122.210	-200.000	-0.016	0.148
-121.195	-200.000	-0.003	0.144
