DTS Sentinel unit serial number:	SN413079Multiplexer serial number:	ORYXHardware model number:	OX4-SRSoftware version number:	ORYX F/W v4.00 Oryx Data Collector v3.7.2.0data status	okinstallation	princeton_trtdifferential loss correction	single-endedforward channel	channel 2reverse channel	N/Adate	2019/09/17time	18:47:35forward acquisition time	60.00reverse acquisition time	0.00gamma	496.2192k internal	0.2295k external	0.2295temperature offset calibration	0.9983default loss term (dB/km)	0.3790temperature slope calibration	1.0000multiplexer offset coefficient	1.0000multiplexer slope coefficient	1.0000fibre end	0.00T internal ref (°C)	42.05T ext. ref 1 (°C)	0.29T ext. ref 2 (°C)	32.08length (m)	temperature (°C)	Stokes	anti-Stokes-747.200	800.000	-0.015	-0.052
-746.185	-120.163	-0.313	-0.055
-745.171	171.046	-0.110	-0.161
-744.156	-200.000	0.016	0.187
-743.142	73.547	0.151	0.162
-742.127	246.354	0.241	0.416
-741.112	-88.371	-0.174	0.053
-740.098	800.000	-0.104	0.304
-739.083	-86.413	-0.114	0.036
-738.069	-88.054	-0.149	0.046
-737.054	-192.031	-0.219	0.002
-736.039	-200.000	0.022	0.212
-735.025	192.408	0.156	0.241
-734.010	50.410	0.104	0.101
-732.996	800.000	-0.057	0.215
-731.981	-28.150	-0.132	0.078
-730.966	-33.010	-0.163	0.093
-729.952	54.887	-0.096	-0.095
-728.937	-28.214	-0.137	0.081
-727.923	800.000	-0.155	-0.515
-726.908	-0.338	0.128	-0.093
-725.894	64.907	-0.162	-0.167
-724.879	-186.835	-0.109	-0.002
-723.864	29.999	-0.172	0.150
-722.850	113.232	0.188	0.233
-721.835	42.745	-0.172	0.160
-720.821	-200.000	0.034	0.205
-719.806	-0.638	0.283	0.205
-718.791	-200.000	0.055	0.282
-717.777	-19.324	-0.219	0.139
-716.762	-200.000	0.010	0.273
-715.748	103.050	0.207	0.247
-714.733	432.038	0.115	0.254
-713.718	-200.000	-0.055	-0.308
-712.704	-122.158	-0.031	-0.005
-711.689	23.912	0.201	-0.169
-710.675	-53.029	0.349	0.164
-709.660	698.528	0.163	-0.438
-708.645	-200.000	0.050	0.445
-707.631	-24.392	0.056	0.034
-706.616	393.211	0.138	0.292
-705.602	25.668	-0.097	-0.082
-704.587	-12.181	-0.330	0.221
-703.572	-104.390	0.180	-0.042
-702.558	70.333	0.124	-0.131
-701.543	-100.046	-0.183	0.046
-700.529	-104.951	0.173	0.040
-699.514	312.526	0.214	0.409
-698.499	60.145	0.095	0.096
-697.485	-162.325	-0.505	0.026
-696.470	783.813	-0.064	0.179
-695.456	379.303	0.092	0.192
-694.441	-138.315	-0.165	-0.019
-693.426	800.000	-0.047	-0.203
-692.412	-40.487	-0.238	0.126
-691.397	-200.000	0.024	-0.197
-690.383	165.554	-0.136	-0.196
-689.368	-200.000	0.028	-0.409
-688.354	-200.000	0.042	-0.232
-687.339	-129.519	0.303	-0.043
-686.324	-31.906	0.015	0.008
-685.310	-200.000	0.012	0.189
-684.295	75.645	0.020	0.022
-683.281	-73.448	0.248	0.092
-682.266	-93.682	0.238	-0.067
-681.251	200.208	-0.126	-0.197
-680.237	-38.005	0.154	0.083
-679.222	651.116	-0.079	-0.207
-678.208	606.722	-0.145	0.370
-677.193	-182.140	0.185	0.004
-676.178	16.831	0.125	0.101
-675.164	800.000	-0.062	-0.273
-674.149	-151.850	-0.122	0.009
-673.135	66.368	-0.138	-0.143
-672.120	-38.183	0.248	0.134
-671.105	186.866	0.079	-0.120
-670.091	-8.097	0.021	-0.014
-669.076	-200.000	-0.015	0.148
-668.062	85.238	0.094	0.105
-667.047	-104.651	-0.426	-0.100
-666.032	-167.452	0.446	0.018
-665.018	800.000	-0.117	0.393
-664.003	-70.686	-0.168	0.064
-662.989	393.186	0.079	0.168
-661.974	133.508	0.108	0.142
-660.959	393.570	-0.255	0.542
-659.945	-62.781	-0.081	0.034
-658.930	138.047	-0.199	-0.266
-657.916	265.504	-0.107	0.189
-656.901	-200.000	-0.025	-0.119
-655.886	-200.000	0.071	0.403
-654.872	36.279	0.097	0.087
-653.857	-200.000	0.000	-0.156
-652.843	-92.450	0.064	-0.018
-651.828	-45.844	0.075	-0.038
-650.814	219.081	0.187	-0.304
-649.799	-200.000	0.018	-0.163
-648.784	17.855	0.068	0.055
-647.770	-11.092	-0.126	0.085
-646.755	50.191	-0.189	-0.182
-645.741	-128.602	-0.103	0.015
-644.726	115.263	-0.062	-0.077
-643.711	90.943	-0.133	-0.151
-642.697	-162.847	-0.347	-0.017
-641.682	-78.662	0.204	0.071
-640.668	-200.000	0.001	-0.022
-639.653	113.451	-0.354	0.438
-638.638	-20.254	-0.292	-0.183
-637.624	-127.830	0.173	-0.025
-636.609	523.285	0.022	0.052
-635.595	-200.000	0.000	-0.124
-634.580	-120.152	-0.302	0.053
-633.565	-109.188	-0.233	-0.050
-632.551	332.153	-0.046	-0.091
-631.536	-163.995	0.416	-0.020
-630.522	-121.559	-0.129	-0.022
-629.507	283.340	0.056	0.101
-628.492	-98.479	0.151	0.039
-627.478	207.379	0.130	-0.206
-626.463	-153.674	0.202	-0.014
-625.449	46.112	-0.171	-0.161
-624.434	-43.010	0.168	-0.087
-623.419	213.389	-0.159	0.255
-622.405	-128.946	-0.500	-0.071
-621.390	800.000	-0.063	-0.254
-620.376	-101.716	0.210	-0.052
-619.361	800.000	0.087	-0.257
-618.346	-126.392	0.164	0.025
-617.332	-200.000	-0.024	-0.370
-616.317	184.555	-0.190	-0.287
-615.303	-115.111	0.260	0.050
-614.288	-200.000	-0.007	0.133
-613.273	-38.999	-0.165	0.088
-612.259	-200.000	-0.036	-0.266
-611.244	-44.942	-0.059	0.030
-610.230	-44.884	0.132	0.067
-609.215	688.727	-0.097	0.259
-608.201	800.000	-0.036	-0.102
-607.186	-159.073	-0.275	0.016
-606.171	21.588	0.076	0.063
-605.157	-151.378	-0.379	-0.029
-604.142	167.310	-0.095	-0.137
-603.128	414.613	-0.017	-0.036
-602.113	-30.396	0.287	-0.165
-601.098	-200.000	-0.008	-0.302
-600.084	477.386	0.047	0.107
-599.069	213.483	-0.022	0.036
-598.055	8.113	0.425	-0.324
-597.040	25.370	-0.070	0.059
-596.025	108.797	-0.193	0.234
-595.011	62.844	0.164	-0.167
-593.996	-200.000	0.004	-0.184
-592.982	-27.329	-0.140	-0.083
-591.967	-70.687	0.239	-0.092
-590.952	606.005	-0.083	0.209
-589.938	28.617	0.082	0.071
-588.923	800.000	0.041	0.144
-587.909	800.000	-0.055	-0.161
-586.894	800.000	0.041	0.148
-585.879	-72.916	0.327	0.122
-584.865	-200.000	0.046	-0.329
-583.850	800.000	-0.015	-0.067
-582.836	-158.969	-0.078	-0.005
-581.821	-188.152	0.276	-0.004
-580.806	-70.152	-0.251	0.097
-579.792	21.872	0.362	0.299
-578.777	-22.099	0.218	0.134
-577.763	-200.000	0.007	-0.237
-576.748	-34.832	0.174	-0.096
-575.733	-119.121	-0.292	-0.052
-574.719	31.778	0.346	-0.302
-573.704	68.652	-0.125	-0.130
-572.690	37.774	-0.173	-0.156
-571.675	-200.000	0.034	0.186
-570.661	-200.000	0.019	-0.085
-569.646	-143.547	0.321	-0.031
-568.631	-200.000	-0.003	0.053
-567.617	-200.000	-0.005	-0.246
-566.602	800.000	-0.022	-0.069
-565.588	800.000	-0.088	0.347
-564.573	-200.000	-0.027	-0.139
-563.558	-93.690	-0.421	0.118
-562.544	72.394	0.102	-0.107
-561.529	-63.231	-0.184	0.077
-560.515	-129.030	0.121	0.017
-559.500	800.000	-0.049	0.188
-558.485	-45.588	0.199	0.100
-557.471	800.000	0.009	-0.037
-556.456	-131.425	0.144	-0.019
-555.442	-135.494	-0.153	0.019
-554.427	-25.977	0.188	-0.112
-553.412	-51.327	0.192	-0.091
-552.398	800.000	-0.126	-0.479
-551.383	87.107	0.138	-0.154
-550.369	104.990	-0.261	-0.312
-549.354	20.903	-0.304	-0.250
-548.339	-51.613	0.309	0.146
-547.325	-167.589	-0.033	0.001
-546.310	390.643	0.055	0.116
-545.296	-39.004	0.310	0.165
-544.281	-51.649	0.115	-0.055
-543.266	-182.130	0.312	-0.006
-542.252	63.280	-0.076	-0.077
-541.237	-200.000	-0.019	0.138
-540.223	634.389	0.091	-0.235
-539.208	-88.824	0.068	0.020
-538.193	-43.513	0.068	-0.035
-537.179	-100.931	0.400	-0.100
-536.164	122.972	-0.039	0.049
-535.150	-33.814	-0.120	0.067
-534.135	187.029	0.076	0.114
-533.121	-184.683	-0.181	0.003
-532.106	-102.434	-0.382	0.093
-531.091	-0.396	-0.245	-0.177
-530.077	800.000	-0.027	-0.079
-529.062	140.495	-0.114	-0.153
-528.048	600.905	0.070	-0.175
-527.033	-200.000	-0.077	-0.601
-526.018	-65.020	0.440	0.180
-525.004	-13.109	0.124	0.082
-523.989	111.750	0.255	0.312
-522.975	-50.392	-0.287	-0.137
-521.960	390.788	0.033	0.069
-520.945	15.539	-0.049	-0.039
-519.931	245.121	0.145	-0.247
-518.916	247.310	-0.033	0.056
-517.902	58.390	-0.388	0.385
-516.887	-120.817	0.247	0.042
-515.872	-115.329	0.098	-0.019
-514.858	-200.000	0.027	0.192
-513.843	191.797	-0.193	-0.295
-512.829	800.000	0.027	-0.083
-511.814	-68.076	-0.114	0.045
-510.799	77.475	0.241	0.259
-509.785	89.453	-0.110	0.124
-508.770	800.000	-0.041	-0.158
-507.756	188.961	-0.083	0.126
-506.741	432.630	-0.025	0.054
-505.726	-32.115	-0.093	-0.053
-504.712	148.352	-0.149	0.203
-503.697	179.519	-0.190	-0.281
-502.683	337.152	-0.060	-0.118
-501.668	150.584	-0.245	0.336
-500.653	8.596	-0.273	-0.208
-499.639	-1.754	-0.170	-0.121
-498.624	193.068	-0.180	-0.275
-497.610	94.628	-0.300	0.345
-496.595	548.227	0.131	-0.318
-495.581	-61.821	-0.208	0.088
-494.566	-52.303	-0.133	-0.062
-493.551	-96.399	-0.136	-0.036
-492.537	287.597	0.262	0.480
-491.522	-36.206	0.317	-0.173
-490.508	-200.000	-0.032	-0.270
-489.493	-200.000	-0.061	0.306
-488.478	-190.336	0.039	0.000
-487.464	-139.736	-0.402	-0.043
-486.449	-118.702	0.073	-0.013
-485.435	800.000	0.015	0.058
-484.420	127.396	0.131	0.168
-483.405	-200.000	-0.060	0.398
-482.391	-92.854	0.043	-0.012
-481.376	51.960	0.103	0.099
-480.362	-200.000	-0.008	0.242
-479.347	-108.531	0.175	-0.038
-478.332	800.000	-0.066	0.200
-477.318	-38.109	0.138	0.074
-476.303	93.292	-0.031	-0.035
-475.289	308.508	-0.120	0.227
-474.274	-29.065	-0.167	-0.097
-473.259	-200.000	-0.002	-0.097
-472.245	-42.279	0.186	-0.096
-471.230	-200.000	-0.037	-0.235
-470.216	-200.000	0.061	-0.328
-469.201	800.000	-0.081	-0.333
-468.186	328.245	0.110	-0.214
-467.172	-200.000	0.022	0.155
-466.157	64.443	-0.308	0.314
-465.143	-14.085	-0.157	0.103
-464.128	-110.546	-0.228	-0.048
-463.113	410.214	0.010	0.021
-462.099	179.142	-0.087	-0.129
-461.084	-110.232	-0.030	0.006
-460.070	150.455	0.112	0.154
-459.055	24.548	0.165	-0.138
-458.040	13.710	-0.104	-0.082
-457.026	151.103	0.266	0.366
-456.011	18.894	-0.320	0.259
-454.997	-200.000	-0.008	-0.099
-453.982	-76.149	0.215	-0.077
-452.968	257.316	-0.110	-0.191
-451.953	-145.588	0.092	-0.008
-450.938	-63.109	0.018	-0.007
-449.924	75.998	0.261	0.279
-448.909	-154.209	0.273	0.019
-447.895	42.093	-0.070	-0.064
-446.880	-200.000	-0.029	0.162
-445.865	227.475	-0.033	0.054
-444.851	-75.422	0.064	-0.023
-443.836	-9.747	0.349	0.235
-442.822	-53.245	-0.156	0.072
-441.807	9.951	0.125	-0.096
-440.792	-200.000	-0.007	0.274
-439.778	-130.382	0.084	0.012
-438.763	-39.732	0.143	0.076
-437.749	-200.000	-0.003	-0.054
-436.734	-200.000	-0.022	0.216
-435.719	157.106	0.119	0.167
-434.705	13.117	0.160	-0.125
-433.690	-78.424	0.135	0.047
-432.676	-38.797	0.247	-0.132
-431.661	126.764	-0.103	0.132
-430.646	-1.265	-0.290	0.207
-429.632	75.038	-0.144	0.153
-428.617	5.302	-0.178	0.132
-427.603	-32.497	-0.108	-0.061
-426.588	-114.607	-0.181	0.035
-425.573	57.669	-0.125	-0.123
-424.559	632.803	-0.094	0.241
-423.544	-2.075	0.093	0.066
-422.530	800.000	-0.039	-0.136
-421.515	89.727	0.143	-0.161
-420.500	-200.000	0.010	-0.208
-419.486	-200.000	0.006	0.077
-418.471	-140.451	-0.208	0.022
-417.457	-200.000	0.014	-0.112
-416.442	-28.485	-0.144	-0.084
-415.428	405.415	-0.145	0.308
-414.413	-135.175	-0.297	-0.036
-413.398	648.850	-0.080	-0.208
-412.384	641.475	-0.026	0.066
-411.369	-148.536	0.213	-0.018
-410.355	74.494	-0.043	-0.045
-409.340	54.363	-0.271	0.264
-408.325	-121.037	-0.209	0.035
-407.311	-18.254	-0.090	-0.057
-406.296	800.000	-0.079	0.227
-405.282	-112.407	-0.323	0.065
-404.267	122.786	-0.257	-0.324
-403.252	272.663	0.059	-0.105
-402.238	-61.940	-0.199	-0.084
-401.223	800.000	0.057	0.211
-400.209	-128.376	0.256	-0.037
-399.194	31.730	-0.046	-0.040
-398.179	689.780	-0.098	-0.258
-397.165	-37.021	0.055	0.030
-396.150	-98.519	-0.232	0.060
-395.136	769.265	0.107	-0.294
-394.121	-200.000	0.019	0.305
-393.106	96.527	-0.259	-0.299
-392.092	575.209	0.095	-0.234
-391.077	29.426	-0.214	0.183
-390.063	-200.000	-0.026	0.320
-389.048	216.496	0.111	-0.178
-388.033	-200.000	-0.036	0.171
-387.019	35.276	-0.096	-0.085
-386.004	-146.568	0.245	0.021
-384.990	653.174	-0.086	-0.222
-383.975	431.391	0.102	-0.224
-382.960	-200.000	-0.039	0.468
-381.946	-134.056	0.129	0.016
-380.931	101.464	-0.094	-0.110
-379.917	-153.825	-0.111	0.008
-378.902	-200.000	-0.018	0.088
-377.888	-27.481	-0.159	-0.093
-376.873	800.000	-0.026	-0.073
-375.858	56.917	0.213	0.209
-374.844	-200.000	-0.011	-0.087
-373.829	-200.000	0.002	0.057
-372.815	228.945	0.205	0.336
-371.800	81.881	-0.089	-0.097
-370.785	222.929	-0.251	0.407
-369.771	800.000	0.026	0.073
-368.756	173.618	-0.232	-0.338
-367.742	36.725	0.219	-0.195
-366.727	-144.806	0.082	0.008
-365.712	250.624	-0.139	-0.238
-364.698	172.416	0.316	0.457
-363.683	800.000	-0.035	-0.140
-362.669	800.000	-0.038	-0.152
-361.654	133.342	0.035	-0.046
-360.639	-200.000	0.372	-0.001
-359.625	-84.773	-0.333	0.105
-358.610	166.574	0.104	-0.149
-357.596	229.700	-0.078	0.129
-356.581	15.174	-0.168	0.132
-355.566	-23.168	0.282	-0.171
-354.552	-176.623	0.344	0.009
-353.537	663.813	-0.053	0.137
-352.523	20.083	-0.191	0.155
-351.508	-164.550	0.154	-0.007
-350.493	191.503	-0.186	0.282
-349.479	239.616	0.093	-0.155
-348.464	-13.190	0.143	-0.094
-347.450	140.889	0.187	0.249
-346.435	147.104	-0.266	0.360
-345.420	-200.000	-0.059	0.754
-344.406	800.000	0.071	0.261
-343.391	8.633	0.289	0.219
-342.377	311.031	-0.139	-0.261
-341.362	-200.000	-0.018	0.215
-340.348	800.000	0.136	0.483
-339.333	310.681	0.156	0.293
-338.318	-132.131	-0.214	-0.028
-337.304	800.000	0.064	-0.268
-336.289	800.000	0.068	0.226
-335.275	-65.051	0.141	0.057
-334.260	87.231	-0.159	-0.177
-333.245	-200.000	0.011	-0.362
-332.231	-200.000	0.044	0.215
-331.216	-153.731	-0.147	0.010
-330.202	393.109	0.065	0.135
-329.187	800.000	-0.062	0.183
-328.172	800.000	-0.080	0.237
-327.158	-32.901	-0.072	0.040
-326.143	-135.573	-0.291	-0.035
-325.129	800.000	-0.019	0.065
-324.114	-59.497	0.118	-0.051
-323.099	7.099	0.202	0.151
-322.085	-200.000	0.062	-0.332
-321.070	800.000	0.043	0.151
-320.056	800.000	-0.051	-0.149
-319.041	-166.797	-0.005	-0.000
-318.026	130.812	-0.359	-0.464
-317.012	-142.648	-0.082	-0.008
-315.997	-200.000	-0.038	0.230
-314.983	93.782	-0.070	-0.080
-313.968	106.021	-0.257	-0.306
-312.953	266.341	0.195	0.342
-311.939	620.575	0.225	0.569
-310.924	800.000	0.033	0.114
-309.910	83.568	0.159	-0.174
-308.895	-33.073	0.164	-0.092
-307.880	-200.000	0.023	-0.182
-306.866	122.157	0.119	-0.149
-305.851	-14.885	0.075	-0.048
-304.837	82.119	-0.088	0.095
-303.822	800.000	0.040	0.119
-302.807	343.529	0.049	0.097
-301.793	-200.000	0.008	0.075
-300.778	243.476	-0.155	0.262
-299.764	48.090	-0.108	0.101
-298.749	22.601	-0.236	-0.194
-297.735	-120.275	-0.040	-0.007
-296.720	-79.708	-0.288	0.098
-295.705	-29.919	0.084	0.048
-294.691	-141.146	-0.283	0.029
-293.676	19.655	0.143	0.116
-292.662	135.980	0.084	0.109
-291.647	-110.936	0.318	0.066
-290.632	572.299	-0.106	0.260
-289.618	-111.776	0.227	0.046
-288.603	61.737	0.196	0.196
-287.589	-49.952	-0.193	-0.092
-286.574	314.097	0.076	0.143
-285.559	-200.000	-0.000	-0.088
-284.545	33.174	0.127	0.110
-283.530	-31.812	0.244	-0.137
-282.516	-102.495	0.387	0.093
-281.501	-15.098	0.365	-0.235
-280.486	800.000	-0.061	0.191
-279.472	-131.955	-0.270	-0.035
-278.457	-200.000	-0.027	-0.132
-277.443	-76.145	0.101	0.036
-276.428	11.121	0.181	0.139
-275.413	130.858	0.084	-0.109
-274.399	-14.282	0.196	-0.127
-273.384	357.283	-0.114	-0.228
-272.370	-90.712	0.434	-0.126
-271.355	281.026	-0.165	0.296
-270.340	553.776	0.082	-0.198
-269.326	-51.266	-0.266	-0.125
-268.311	137.119	-0.200	-0.263
-267.297	-13.164	0.303	0.197
-266.282	-139.176	-0.132	-0.014
-265.267	-11.154	-0.321	0.212
-264.253	-102.984	-0.139	-0.033
-263.238	140.173	0.295	0.390
-262.224	-50.245	0.278	0.132
-261.209	10.645	0.301	-0.230
-260.195	800.000	-0.032	-0.123
-259.180	79.045	-0.020	0.021
-258.165	-23.505	0.041	0.025
-257.151	-200.000	-0.006	0.179
-256.136	-123.578	0.262	0.042
-255.122	800.000	0.067	0.213
-254.107	499.622	0.142	0.328
-253.092	622.916	0.127	-0.321
-252.078	-200.000	0.032	0.219
-251.063	-9.001	0.204	0.137
-250.049	800.000	0.033	-0.098
-249.034	749.053	-0.102	-0.276
-248.019	-80.615	0.345	0.115
-247.005	-74.538	0.342	0.123
-245.990	800.000	0.070	-0.255
-244.976	-109.801	-0.342	-0.072
-243.961	-200.000	-0.003	0.239
-242.946	-151.327	0.248	0.019
-241.932	-200.000	0.313	-0.000
-240.917	124.495	-0.104	-0.131
-239.903	-200.000	0.071	0.388
-238.888	-93.016	-0.278	-0.078
-237.873	286.576	0.115	0.209
-236.859	-200.000	-0.012	-0.059
-235.844	423.577	-0.148	-0.319
-234.830	800.000	0.047	-0.163
-233.815	800.000	0.051	-0.179
-232.800	125.933	0.089	0.112
-231.786	-20.960	0.215	-0.132
-230.771	-147.452	-0.137	-0.012
-229.757	-30.416	0.092	-0.052
-228.742	-174.686	0.173	-0.005
-227.727	-200.000	-0.000	-0.343
-226.713	800.000	-0.036	0.140
-225.698	163.382	-0.049	-0.068
-224.684	114.880	-0.102	0.124
-223.669	-70.972	-0.253	0.096
-222.655	-200.000	0.027	-0.282
-221.640	-90.724	-0.160	0.046
-220.625	112.314	-0.005	-0.006
-219.611	-91.617	0.104	-0.030
-218.596	150.317	0.172	-0.234
-217.582	180.978	-0.072	-0.106
-216.567	-121.515	0.178	0.030
-215.552	279.857	-0.276	0.494
-214.538	551.420	-0.129	-0.310
-213.523	34.766	0.259	-0.227
-212.509	564.742	-0.091	-0.220
-211.494	527.612	-0.112	0.264
-210.479	-110.934	0.156	-0.032
-209.465	-98.638	-0.376	0.096
-208.450	-200.000	-0.003	0.161
-207.436	-26.047	0.347	-0.204
-206.421	296.381	0.086	-0.158
-205.406	638.475	0.087	-0.222
-204.392	517.854	-0.088	-0.205
-203.377	26.558	-0.155	-0.129
-202.363	37.798	0.069	0.062
-201.348	-200.000	0.035	-0.449
-200.333	369.877	0.214	0.434
-199.319	-200.000	0.040	0.195
-198.304	-200.000	-0.027	0.447
-197.290	-160.591	-0.230	0.012
-196.275	-12.321	0.158	-0.103
-195.260	-49.253	0.271	-0.130
-194.246	-200.000	0.061	-0.407
-193.231	-87.083	-0.251	0.076
-192.217	-58.269	0.160	-0.070
-191.202	402.726	-0.140	-0.295
-190.187	-94.707	-0.157	0.043
-189.173	196.212	0.103	0.157
-188.158	86.998	-0.178	0.197
-187.144	800.000	-0.054	-0.149
-186.129	-41.492	-0.396	-0.203
-185.114	-61.902	0.150	-0.063
-184.100	72.277	-0.110	0.114
-183.085	-11.799	0.139	-0.091
-182.071	657.925	0.173	0.444
-181.056	468.583	-0.036	0.080
-180.042	800.000	-0.052	-0.158
-179.027	-152.841	0.315	-0.022
-178.012	605.458	-0.066	0.164
-176.998	0.638	-0.138	-0.099
-175.983	-3.613	-0.275	-0.191
-174.969	-200.000	0.032	-0.231
-173.954	194.132	-0.188	0.285
-172.939	800.000	-0.034	-0.134
-171.925	24.483	-0.127	0.105
-170.910	11.503	0.109	0.083
-169.896	102.703	-0.040	0.047
-168.881	-109.784	0.120	-0.025
-167.866	21.157	-0.091	-0.074
-166.852	800.000	-0.170	-0.526
-165.837	-114.880	0.193	-0.037
-164.823	-151.764	-0.242	0.018
-163.808	260.487	0.115	-0.198
-162.793	35.291	0.255	-0.223
-161.779	-87.085	0.281	0.085
-160.764	413.420	0.097	-0.206
-159.750	45.411	0.127	-0.117
-158.735	-23.393	-0.174	-0.104
-157.720	-6.085	-0.246	0.168
-156.706	-200.000	-0.016	-0.131
-155.691	-44.094	0.045	0.022
-154.677	156.162	-0.045	0.063
-153.662	-92.097	-0.280	-0.079
-152.647	-151.594	-0.126	-0.009
-151.633	114.684	0.227	0.277
-150.618	-143.649	-0.076	0.007
-149.604	195.316	0.162	0.246
-148.589	492.275	0.061	-0.139
-147.574	-200.000	-0.009	0.093
-146.560	340.675	0.037	-0.071
-145.545	-66.362	-0.343	0.136
-144.531	103.345	-0.290	-0.339
-143.516	268.336	0.118	0.207
-142.502	-104.031	0.130	-0.030
-141.487	47.529	-0.106	0.098
-140.472	86.848	-0.123	-0.135
-139.458	-200.000	0.097	0.441
-138.443	-102.383	-0.139	-0.033
-137.429	65.426	0.090	0.091
-136.414	-111.537	-0.003	-0.001
-135.399	800.000	-0.028	0.098
-134.385	419.963	0.133	0.284
-133.370	-200.000	0.052	0.239
-132.356	-200.000	-0.017	0.508
-131.341	162.620	0.124	-0.173
-130.326	227.545	0.199	0.323
-129.312	85.597	-0.163	-0.179
-128.297	-51.592	0.086	0.040
-127.283	-99.045	0.269	-0.068
-126.268	-200.000	0.034	-0.195
-125.253	117.930	0.143	0.175
-124.239	269.504	0.096	0.169
-123.224	800.000	0.098	-0.287
-122.210	-200.000	0.040	0.230
-121.195	21.455	-0.073	-0.059
