DTS Sentinel unit serial number:	SN413079Multiplexer serial number:	ORYXHardware model number:	OX4-SRSoftware version number:	ORYX F/W v4.00 Oryx Data Collector v3.7.2.0data status	okinstallation	princeton_trtdifferential loss correction	single-endedforward channel	channel 2reverse channel	N/Adate	2019/09/12time	18:37:48forward acquisition time	15.00reverse acquisition time	0.00gamma	496.2192k internal	0.2324k external	0.2324temperature offset calibration	1.0139default loss term (dB/km)	0.3790temperature slope calibration	1.0000multiplexer offset coefficient	1.0000multiplexer slope coefficient	1.0000fibre end	0.00T internal ref (°C)	33.12T ext. ref 1 (°C)	2.99T ext. ref 2 (°C)	27.69length (m)	temperature (°C)	Stokes	anti-Stokes-747.200	-132.060	-0.172	0.023
-746.185	131.533	0.410	-0.533
-745.171	-55.792	-0.643	-0.290
-744.156	283.836	0.104	-0.189
-743.142	-149.262	0.663	-0.053
-742.127	-200.000	-0.005	0.321
-741.112	-28.768	0.320	-0.186
-740.098	223.326	-0.088	0.143
-739.083	-50.619	0.132	-0.063
-738.069	800.000	0.116	-0.467
-737.054	-134.448	-0.674	-0.083
-736.039	-200.000	0.056	-0.671
-735.025	30.659	0.546	0.472
-734.010	198.729	0.319	-0.492
-732.996	-200.000	0.134	-0.863
-731.981	-200.000	-0.158	-1.021
-730.966	-127.924	-0.676	-0.098
-729.952	-7.010	0.036	-0.025
-728.937	-9.341	-1.289	0.869
-727.923	4.921	0.719	-0.533
-726.908	-107.277	0.610	-0.135
-725.894	141.273	-0.371	0.496
-724.879	-123.461	-0.715	-0.115
-723.864	-200.000	-0.022	0.532
-722.850	505.411	-0.112	0.263
-721.835	20.141	0.380	-0.309
-720.821	265.572	-0.730	-1.284
-719.806	-200.000	0.081	0.409
-718.791	67.421	-0.059	-0.061
-717.777	37.029	-0.240	-0.214
-716.762	188.010	0.594	-0.895
-715.748	-81.445	-0.495	-0.164
-714.733	-125.074	0.509	0.079
-713.718	126.745	0.174	0.223
-712.704	-167.622	0.598	-0.024
-711.689	-63.105	-0.686	-0.285
-710.675	-200.000	-0.147	0.879
-709.660	547.417	-0.313	-0.754
-708.645	27.385	-0.453	0.384
-707.631	123.085	0.122	0.154
-706.616	-128.427	0.367	0.053
-705.602	-200.000	-0.004	0.370
-704.587	72.450	-0.388	-0.408
-703.572	800.000	-0.067	-0.214
-702.558	-77.791	-0.390	0.136
-701.543	-200.000	0.028	0.265
-700.529	358.436	-0.282	-0.568
-699.514	-152.879	-0.458	-0.033
-698.499	800.000	0.196	0.669
-697.485	189.250	-0.267	-0.404
-696.470	-193.491	-0.125	0.001
-695.456	184.814	0.302	0.451
-694.441	17.327	-0.466	-0.373
-693.426	-104.664	0.180	0.042
-692.412	-86.741	0.621	-0.191
-691.397	800.000	0.114	-0.430
-690.383	-128.803	-0.551	-0.078
-689.368	-200.000	0.065	0.294
-688.354	192.778	-0.304	-0.463
-687.339	708.694	-0.224	0.597
-686.324	-200.000	-0.030	-0.646
-685.310	-75.746	-0.702	-0.251
-684.295	-63.378	-0.582	-0.241
-683.281	32.593	0.515	-0.449
-682.266	611.653	0.082	-0.207
-681.251	88.181	-0.529	-0.591
-680.237	514.103	-0.256	-0.601
-679.222	139.193	0.677	-0.897
-678.208	22.598	-0.441	-0.364
-677.193	-28.936	0.178	0.103
-676.178	-200.000	0.025	0.160
-675.164	-68.301	-0.244	0.095
-674.149	-95.853	-0.988	0.265
-673.135	71.061	0.157	0.164
-672.120	-127.552	-0.657	-0.096
-671.105	-200.000	0.035	-0.177
-670.091	-86.733	0.288	0.089
-669.076	54.930	0.593	0.577
-668.062	-200.000	0.014	0.682
-667.047	-62.907	0.539	-0.225
-666.032	231.237	0.442	-0.730
-665.018	-200.000	0.099	-0.659
-664.003	800.000	-0.298	0.958
-662.989	77.244	0.225	-0.241
-661.974	520.414	-0.096	0.226
-660.959	275.574	-0.147	-0.262
-659.945	800.000	-0.189	-0.747
-658.930	-200.000	0.103	-0.909
-657.916	-132.549	0.546	-0.071
-656.901	-54.220	0.690	0.316
-655.886	-126.042	-0.424	0.064
-654.872	-90.632	-0.392	0.114
-653.857	-58.338	0.398	0.174
-652.843	-10.477	0.781	-0.521
-651.828	-91.267	0.521	0.150
-650.814	-200.000	0.060	-0.696
-649.799	140.019	0.650	0.863
-648.784	96.632	0.178	0.205
-647.770	-200.000	-0.110	0.552
-646.755	-65.368	0.667	0.270
-645.741	-57.872	0.222	0.098
-644.726	-200.000	0.014	0.281
-643.711	146.279	-0.594	0.802
-642.697	-65.191	0.504	-0.204
-641.682	-200.000	-0.107	-1.126
-640.668	-200.000	0.059	0.387
-639.653	-200.000	0.049	0.380
-638.638	165.023	-0.279	-0.397
-637.624	26.718	-0.532	-0.448
-636.609	-147.929	0.313	-0.026
-635.595	-200.000	0.050	-0.672
-634.580	800.000	0.118	-0.428
-633.565	-35.678	-0.293	-0.160
-632.551	-102.189	-0.677	-0.164
-631.536	-200.000	-0.057	-0.516
-630.522	165.260	0.430	-0.611
-629.507	-134.561	0.524	-0.064
-628.492	-200.000	0.015	-1.284
-627.478	3.021	-0.942	-0.688
-626.463	-167.344	-0.409	-0.017
-625.449	457.304	-0.424	0.947
-624.434	-200.000	0.064	0.475
-623.419	367.732	0.305	0.619
-622.405	-21.171	-0.444	-0.273
-621.390	-25.682	-0.311	0.184
-620.376	-200.000	-0.038	0.449
-619.361	-200.000	-0.044	0.583
-618.346	-166.160	-0.226	-0.010
-617.332	800.000	0.171	-0.511
-616.317	-83.738	0.418	-0.134
-615.303	-2.070	0.523	-0.369
-614.288	650.590	0.265	-0.680
-613.273	-115.853	0.522	-0.098
-612.259	800.000	0.156	-0.450
-611.244	771.309	0.112	0.307
-610.230	-65.421	0.737	0.298
-609.215	414.983	-0.082	-0.176
-608.201	-52.305	-0.618	-0.287
-607.186	116.520	0.563	0.694
-606.171	800.000	0.022	0.087
-605.157	-134.243	1.568	0.194
-604.142	48.741	-0.333	-0.314
-603.128	49.775	-0.607	-0.574
-602.113	-34.386	-0.155	-0.085
-601.098	800.000	-0.098	0.329
-600.084	-37.585	-0.515	0.276
-599.069	217.535	-0.457	0.731
-598.055	66.521	-0.374	0.381
-597.040	120.555	-0.061	-0.076
-596.025	13.905	0.291	0.227
-595.011	800.000	0.308	-0.924
-593.996	-200.000	-0.009	0.108
-592.982	-200.000	-0.044	0.868
-591.967	16.627	0.160	0.127
-590.952	-53.030	0.417	0.193
-589.938	-128.445	-0.252	0.036
-588.923	140.826	-0.705	-0.935
-587.909	174.866	0.230	-0.334
-586.894	198.931	0.248	-0.382
-585.879	515.404	0.250	-0.587
-584.865	800.000	0.191	-0.782
-583.850	-101.596	0.286	-0.070
-582.836	402.333	-0.523	-1.103
-581.821	800.000	-0.120	-0.369
-580.806	-200.000	-0.008	0.087
-579.792	-105.909	0.745	-0.169
-578.777	800.000	0.088	-0.295
-577.763	-117.640	-0.400	0.072
-576.748	-200.000	0.010	0.252
-575.733	-200.000	-0.006	0.434
-574.719	25.479	0.163	-0.136
-573.704	-72.343	0.442	-0.164
-572.690	92.528	0.387	0.438
-571.675	591.936	0.191	0.473
-570.661	176.439	-0.106	-0.154
-569.646	-142.380	-1.249	0.123
-568.631	481.801	0.138	0.314
-567.617	-200.000	-0.026	-0.311
-566.602	-74.705	-0.132	-0.047
-565.588	-14.412	-0.282	0.182
-564.573	-191.417	0.722	0.007
-563.558	-130.358	0.405	0.055
-562.544	-128.487	-0.356	-0.051
-561.529	440.245	-0.085	0.185
-560.515	-63.053	-0.876	0.362
-559.500	-30.039	0.199	0.114
-558.485	-89.841	0.297	-0.087
-557.471	-121.691	-0.716	-0.119
-556.456	196.733	0.331	0.506
-555.442	-0.708	-0.532	-0.378
-554.427	-136.040	-0.308	-0.036
-553.412	-58.543	1.347	-0.586
-552.398	51.260	-0.283	-0.269
-551.383	-200.000	0.088	1.259
-550.369	84.368	-0.448	0.490
-549.354	-36.568	-0.152	0.082
-548.339	98.793	0.420	0.486
-547.325	3.819	0.508	-0.372
-546.310	-143.488	0.857	0.082
-545.296	490.605	0.572	1.310
-544.281	182.941	0.363	0.537
-543.266	-6.443	-0.928	-0.634
-542.252	432.050	0.041	-0.088
-541.237	800.000	0.149	-0.531
-540.223	44.096	-0.479	-0.440
-539.208	94.238	-0.400	-0.455
-538.193	-41.468	-0.770	-0.397
-537.179	-200.000	-0.041	0.385
-536.164	-200.000	-0.047	0.657
-535.150	45.584	0.527	-0.487
-534.135	49.451	0.199	-0.188
-533.121	-200.000	-0.070	-0.600
-532.106	-200.000	-0.128	-0.880
-531.091	154.236	0.201	0.277
-530.077	223.696	0.084	0.135
-529.062	-21.723	0.181	0.110
-528.048	-62.082	0.654	-0.273
-527.033	350.096	-0.558	1.104
-526.018	-177.102	-0.361	-0.009
-525.004	-48.789	0.384	-0.184
-523.989	244.035	0.320	-0.537
-522.975	402.956	0.284	-0.599
-521.960	-77.832	-0.677	-0.234
-520.945	25.869	0.351	0.293
-519.931	800.000	0.315	-1.051
-518.916	-78.088	-0.305	-0.105
-517.902	800.000	0.099	-0.340
-516.887	800.000	-0.162	-0.477
-515.872	-200.000	0.117	0.638
-514.858	-200.000	0.119	-0.691
-513.843	36.772	0.359	0.317
-512.829	456.029	-0.195	-0.433
-511.814	-27.472	0.782	0.455
-510.799	-200.000	0.039	0.779
-509.785	-47.900	0.038	-0.019
-508.770	-200.000	0.070	0.502
-507.756	800.000	0.310	1.142
-506.741	-200.000	0.057	0.491
-505.726	33.451	-0.094	-0.081
-504.712	-154.845	-0.661	-0.044
-503.697	-64.243	-0.571	0.233
-502.683	-129.203	0.264	0.037
-501.668	-26.798	0.623	-0.364
-500.653	-74.952	0.373	-0.134
-499.639	-200.000	0.029	-0.719
-498.624	-142.002	0.309	-0.031
-497.610	-200.000	0.095	1.035
-496.595	-167.754	0.150	0.006
-495.581	-33.685	-0.280	0.155
-494.566	78.534	0.791	0.845
-493.551	-82.801	-0.513	-0.166
-492.537	-97.909	-0.835	0.216
-491.522	-31.176	-0.467	-0.263
-490.508	-7.425	0.285	-0.193
-489.493	-118.758	-0.168	-0.030
-488.478	-111.205	-0.666	0.136
-487.464	800.000	-0.177	0.632
-486.449	-200.000	-0.068	1.004
-485.435	800.000	0.102	0.416
-484.420	-127.553	-0.672	-0.097
-483.405	-127.414	-0.335	-0.049
-482.391	43.613	0.191	0.175
-481.376	182.235	-0.585	-0.861
-480.362	800.000	0.312	0.982
-479.347	-58.230	0.837	0.364
-478.332	233.130	0.231	0.380
-477.318	-68.190	-0.729	-0.283
-476.303	-83.573	0.315	0.101
-475.289	31.517	-0.077	-0.066
-474.274	132.040	0.843	1.084
-473.259	800.000	-0.372	-1.057
-472.245	75.842	0.281	0.297
-471.230	800.000	-0.097	-0.380
-470.216	-111.617	0.700	0.142
-469.201	-159.957	0.469	-0.026
-468.186	-35.518	-0.666	-0.361
-467.172	800.000	-0.130	0.408
-466.157	303.216	-0.228	0.421
-465.143	324.398	0.179	0.341
-464.128	-29.523	-0.239	0.136
-463.113	174.160	0.419	-0.604
-462.099	-28.641	0.311	-0.179
-461.084	6.142	-0.259	-0.192
-460.070	194.801	0.327	-0.495
-459.055	-200.000	-0.107	-0.730
-458.040	-200.000	-0.061	-0.477
-457.026	-200.000	-0.021	0.440
-456.011	48.884	-0.273	0.256
-454.997	-165.205	0.676	0.030
-453.982	-46.966	-0.231	0.112
-452.968	417.439	-0.173	-0.368
-451.953	-70.464	-1.141	-0.431
-450.938	436.777	0.151	-0.329
-449.924	0.466	-0.208	0.149
-448.909	-58.366	0.537	0.233
-447.895	-200.000	0.071	0.494
-446.880	-133.574	0.407	-0.051
-445.865	385.658	0.380	0.782
-444.851	-132.239	-0.654	0.084
-443.836	797.579	0.264	0.726
-442.822	75.923	-0.450	0.475
-441.807	-56.008	0.437	-0.194
-440.792	800.000	0.065	0.249
-439.778	89.335	-0.474	0.527
-438.763	19.603	-0.258	-0.207
-437.749	161.716	0.131	-0.183
-436.734	-5.686	0.261	0.178
-435.719	126.125	0.183	-0.230
-434.705	-97.478	0.490	-0.127
-433.690	-200.000	0.071	0.645
-432.676	691.878	-0.227	0.592
-431.661	-200.000	0.031	0.199
-430.646	221.070	-0.304	-0.487
-429.632	47.401	0.328	-0.305
-428.617	4.940	-0.675	-0.496
-427.603	-200.000	-0.018	0.366
-426.588	112.567	0.532	-0.642
-425.573	-57.650	-0.282	-0.123
-424.559	533.251	-0.262	0.620
-423.544	42.124	-0.774	-0.701
-422.530	-200.000	0.040	0.333
-421.515	-200.000	0.138	-0.748
-420.500	-126.664	-0.667	0.098
-419.486	60.417	-0.637	-0.628
-418.471	-37.122	0.219	-0.117
-417.457	-125.199	0.595	-0.091
-416.442	191.987	-0.227	0.341
-415.428	-71.485	-0.337	0.126
-414.413	582.075	0.129	0.315
-413.398	57.039	-0.584	0.567
-412.384	680.726	0.399	1.035
-411.369	-62.518	0.388	-0.161
-410.355	314.834	-0.229	-0.430
-409.340	-110.398	0.487	0.101
-408.325	-19.093	-0.447	0.277
-407.311	-200.000	0.024	-0.572
-406.296	-200.000	0.012	-0.125
-405.282	-115.190	-0.336	0.063
-404.267	748.764	0.257	0.690
-403.252	800.000	0.092	-0.280
-402.238	-200.000	-0.013	0.363
-401.223	228.527	-0.303	0.493
-400.209	48.738	-0.207	-0.193
-399.194	-200.000	0.019	-1.051
-398.179	-116.829	0.340	0.062
-397.165	154.672	0.227	0.311
-396.150	-200.000	-0.026	-0.512
-395.136	-102.623	-0.403	0.096
-394.121	-68.237	0.216	-0.084
-393.106	120.154	-0.138	0.171
-392.092	800.000	-0.126	0.550
-391.077	30.287	0.436	0.371
-390.063	-70.078	-0.383	0.145
-389.048	-69.157	1.054	-0.404
-388.033	-36.161	0.361	-0.194
-387.019	99.290	-0.112	-0.128
-386.004	137.327	-0.202	0.263
-384.990	386.721	-0.387	0.796
-383.975	-200.000	-0.019	0.546
-382.960	-109.331	0.056	0.012
-381.946	-105.916	-0.448	0.101
-380.931	-34.497	-0.220	-0.120
-379.917	-21.549	0.692	0.420
-378.902	800.000	0.167	0.634
-377.888	-30.293	-0.357	-0.202
-376.873	-72.989	-0.737	-0.270
-375.858	-200.000	-0.015	0.110
-374.844	-107.536	-0.557	-0.121
-373.829	616.483	0.220	0.549
-372.815	227.796	0.299	-0.484
-371.800	142.465	0.007	0.009
-370.785	15.353	0.098	0.077
-369.771	112.801	-0.412	-0.497
-368.756	-87.665	0.927	0.279
-367.742	-139.107	-0.540	0.058
-366.727	298.531	-0.039	0.072
-365.712	215.969	-0.476	-0.752
-364.698	-33.457	-0.633	-0.348
-363.683	-200.000	0.046	0.544
-362.669	74.270	-0.337	-0.352
-361.654	-85.068	-0.694	-0.216
-360.639	800.000	0.264	-0.986
-359.625	182.022	-0.131	-0.191
-358.610	59.628	-0.378	-0.371
-357.596	-200.000	0.116	-0.754
-356.581	-6.657	-0.134	0.090
-355.566	281.778	-0.697	-1.242
-354.552	624.163	-0.270	0.677
-353.537	-0.080	-0.176	0.125
-352.523	-97.468	0.804	0.208
-351.508	13.701	0.155	-0.120
-350.493	-11.507	-0.567	-0.371
-349.479	-82.111	0.509	0.165
-348.464	58.758	-0.113	-0.110
-347.450	57.864	-0.351	0.342
-346.435	-200.000	-0.059	0.687
-345.420	-63.544	0.210	-0.086
-344.406	-200.000	0.133	0.839
-343.391	75.224	0.844	0.884
-342.377	-75.700	-0.155	-0.055
-341.362	136.820	0.064	0.084
-340.348	676.264	0.201	-0.519
-339.333	2.199	0.339	-0.243
-338.318	102.462	-0.464	-0.539
-337.304	800.000	-0.059	-0.248
-336.289	605.617	-0.184	-0.456
-335.275	-200.000	-0.080	0.384
-334.260	729.432	-0.195	0.517
-333.245	-42.162	-0.383	-0.194
-332.231	800.000	0.135	0.391
-331.216	-114.004	0.543	0.105
-330.202	-46.016	0.960	0.470
-329.187	-137.142	0.793	0.090
-328.172	74.360	-0.093	-0.097
-327.158	-200.000	-0.001	0.289
-326.143	560.480	-0.168	-0.404
-325.129	-13.349	-0.736	0.474
-324.114	156.246	0.433	0.593
-323.099	94.973	-0.391	-0.442
-322.085	171.506	-0.103	-0.146
-321.070	-60.484	0.100	0.042
-320.056	-200.000	-0.104	-0.627
-319.041	-200.000	-0.208	1.224
-318.026	73.706	0.477	-0.497
-317.012	-74.559	0.433	0.155
-315.997	800.000	-0.159	-0.503
-314.983	-44.352	-0.577	0.287
-313.968	-200.000	0.000	-0.131
-312.953	77.253	0.291	-0.307
-311.939	374.371	-0.027	0.054
-310.924	800.000	0.200	-0.734
-309.910	-42.412	-0.263	-0.133
-308.895	-116.571	-0.258	0.047
-307.880	323.729	0.278	-0.526
-306.866	605.253	-0.043	-0.106
-305.851	-200.000	-0.007	0.122
-304.837	-40.532	0.715	0.368
-303.822	800.000	0.107	-0.407
-302.807	-76.153	0.659	0.231
-301.793	55.685	-0.244	-0.235
-300.778	-103.703	0.489	0.114
-299.764	-200.000	0.001	0.656
-298.749	-13.866	-0.228	0.146
-297.735	377.866	0.147	0.299
-296.720	800.000	-0.221	-0.768
-295.705	-88.303	-0.733	0.218
-294.691	-200.000	-0.019	0.424
-293.676	-97.214	0.596	0.154
-292.662	-76.479	-0.375	0.131
-291.647	51.953	0.304	-0.287
-290.632	244.020	-0.336	0.560
-289.618	324.419	-0.463	0.877
-288.603	-1.350	-0.369	0.259
-287.589	-3.334	0.360	-0.249
-286.574	169.668	0.804	1.139
-285.559	-110.769	0.810	0.166
-284.545	-186.338	-0.823	0.012
-283.530	-32.174	-0.327	-0.181
-282.516	-35.056	-0.494	-0.267
-281.501	-118.824	-1.080	-0.188
-280.486	-200.000	0.017	-0.227
-279.472	800.000	0.134	0.420
-278.457	-200.000	0.002	-0.511
-277.443	800.000	-0.100	0.326
-276.428	-95.035	0.322	-0.086
-275.413	91.573	0.208	-0.232
-274.399	800.000	-0.256	-0.889
-273.384	-200.000	0.035	1.239
-272.370	-87.117	0.492	0.148
-271.355	60.139	0.488	0.479
-270.340	106.862	0.587	-0.691
-269.326	800.000	0.237	-0.788
-268.311	800.000	0.073	-0.287
-267.297	-64.961	-0.680	0.272
-266.282	39.443	0.376	0.334
-265.267	89.024	0.244	-0.269
-264.253	546.547	0.085	0.201
-263.238	288.616	-0.147	-0.265
-262.224	800.000	0.027	-0.108
-261.209	6.437	0.451	-0.332
-260.195	156.168	-0.206	0.281
-259.180	-28.473	-0.453	0.259
-258.165	499.235	-0.115	0.263
-257.151	-107.644	-0.335	0.073
-256.136	-162.650	0.085	-0.004
-255.122	36.726	0.497	-0.435
-254.107	-94.173	0.288	0.078
-253.092	37.481	-0.920	0.808
-252.078	338.071	0.209	0.402
-251.063	-90.543	0.405	-0.116
-250.049	-200.000	0.022	0.175
-249.034	800.000	0.236	-0.671
-248.019	-149.666	-0.311	-0.024
-247.005	-165.462	-0.781	-0.034
-245.990	-39.733	0.790	0.409
-244.976	-200.000	-0.061	-0.536
-243.961	-174.968	0.441	0.012
-242.946	60.051	-0.256	0.251
-241.932	157.495	-0.208	-0.284
-240.917	-86.086	-0.562	0.172
-239.903	-200.000	-0.088	-0.558
-238.888	10.766	0.979	0.739
-237.873	800.000	0.158	-0.503
-236.859	-158.177	0.758	0.044
-235.844	-4.593	0.307	-0.210
-234.830	-27.441	-0.451	-0.260
-233.815	154.386	-0.229	0.312
-232.800	403.602	0.437	0.911
-231.786	-113.669	-0.436	0.084
-230.771	800.000	-0.169	-0.549
-229.757	-200.000	0.015	-0.520
-228.742	-73.412	-0.156	0.056
-227.727	-125.055	-0.758	0.115
-226.713	50.079	0.341	0.318
-225.698	-73.215	-0.870	-0.315
-224.684	-122.187	0.345	-0.056
-223.669	269.317	-0.509	-0.885
-222.655	-46.226	0.735	-0.358
-221.640	247.983	-0.452	0.756
-220.625	-200.000	-0.039	0.423
-219.611	-25.722	-0.718	0.419
-218.596	-68.961	-1.116	-0.426
-217.582	58.806	-0.101	-0.098
-216.567	-60.459	0.548	0.230
-215.552	257.285	0.568	0.966
-214.538	206.994	0.190	-0.292
-213.523	51.748	-0.148	0.139
-212.509	584.362	-0.116	-0.282
-211.494	507.464	0.270	-0.619
-210.479	484.444	-0.291	-0.654
-209.465	445.996	0.195	0.424
-208.450	-11.398	-0.244	0.159
-207.436	-146.659	0.434	-0.037
-206.421	-200.000	0.108	-0.566
-205.406	194.237	-0.284	-0.426
-204.392	-42.232	0.255	-0.129
-203.377	-90.672	-1.028	-0.293
-202.363	562.414	0.145	-0.346
-201.348	20.031	0.252	0.201
-200.333	-92.790	-0.427	0.118
-199.319	-200.000	0.023	-0.131
-198.304	35.283	-0.163	-0.141
-197.290	-140.853	0.134	0.014
-196.275	-55.657	-1.049	0.464
-195.260	594.669	-0.376	-0.919
-194.246	-200.000	-0.050	-0.593
-193.231	-131.925	0.641	0.083
-192.217	-19.201	0.364	0.224
-191.202	-120.213	-0.184	-0.031
-190.187	-107.789	0.176	0.038
-189.173	-152.051	0.200	-0.014
-188.158	-75.675	-0.172	0.060
-187.144	-81.002	-0.415	-0.136
-186.129	-200.000	0.057	-0.285
-185.114	95.260	0.482	-0.543
-184.100	315.409	-0.316	-0.588
-183.085	44.886	0.120	-0.109
-182.071	-56.246	-0.184	-0.081
-181.056	779.067	0.282	0.763
-180.042	-200.000	-0.045	-0.598
-179.027	49.680	-0.270	0.251
-178.012	83.291	-0.402	-0.432
-176.998	-119.862	0.455	-0.077
-175.983	-200.000	-0.014	0.667
-174.969	216.256	-0.399	-0.626
-173.954	95.446	0.389	0.438
-172.939	-20.468	-0.853	0.518
-171.925	800.000	0.031	-0.111
-170.910	-69.608	0.459	0.173
-169.896	800.000	-0.065	0.208
-168.881	-178.888	0.543	-0.012
-167.866	-40.907	0.132	0.067
-166.852	-47.517	0.567	0.272
-165.837	-159.966	0.818	0.044
-164.823	59.431	0.848	-0.825
-163.808	561.189	-0.084	-0.200
-162.793	-43.371	0.305	-0.152
-161.779	-173.908	0.823	0.024
-160.764	-42.291	-0.420	0.212
-159.750	-63.344	-0.660	0.268
-158.735	-28.738	0.409	-0.232
-157.720	-32.008	-0.367	-0.203
-156.706	-127.965	-0.612	0.087
-155.691	29.988	0.295	0.248
-154.677	130.186	0.506	-0.639
-153.662	487.120	-0.207	-0.465
-152.647	4.360	0.064	0.046
-151.633	-149.451	-0.308	-0.024
-150.618	189.035	-0.538	-0.794
-149.604	175.330	-0.041	0.058
-148.589	-200.000	-0.096	0.474
-147.574	-200.000	0.025	0.496
-146.560	-87.654	-0.300	-0.089
-145.545	-113.097	0.651	0.127
-144.531	-44.589	-0.914	0.450
-143.516	-5.852	-0.639	0.431
-142.502	97.913	0.224	-0.254
-141.487	56.138	-0.718	0.687
-140.472	-7.520	0.475	0.317
-139.458	800.000	-0.018	-0.073
-138.443	250.173	0.351	0.587
-137.429	9.698	0.285	-0.213
-136.414	-138.293	0.649	0.071
-135.399	-138.478	0.305	-0.033
-134.385	504.020	-0.317	-0.723
-133.370	-146.953	0.745	0.063
-132.356	-200.000	0.085	-0.462
-131.341	-104.290	-0.458	0.105
-130.326	313.018	-0.124	-0.229
-129.312	274.262	0.334	0.582
-128.297	-12.911	-0.202	-0.129
-127.283	-200.000	-0.134	-0.736
-126.268	-32.769	1.031	-0.565
-125.253	-200.000	-0.002	0.311
-124.239	-200.000	-0.001	-0.221
-123.224	45.281	-0.491	-0.447
-122.210	161.628	0.394	0.543
-121.195	-200.000	-0.028	-0.167
