DTS Sentinel unit serial number:	SN413079Multiplexer serial number:	ORYXHardware model number:	OX4-SRSoftware version number:	ORYX F/W v4.00 Oryx Data Collector v3.7.2.0data status	okinstallation	princeton_trtdifferential loss correction	single-endedforward channel	channel 2reverse channel	N/Adate	2019/09/12time	20:51:35forward acquisition time	60.00reverse acquisition time	0.00gamma	496.2192k internal	0.2327k external	0.2327temperature offset calibration	1.0167default loss term (dB/km)	0.3790temperature slope calibration	1.0000multiplexer offset coefficient	1.0000multiplexer slope coefficient	1.0000fibre end	0.00T internal ref (°C)	30.97T ext. ref 1 (°C)	3.56T ext. ref 2 (°C)	25.50length (m)	temperature (°C)	Stokes	anti-Stokes-747.200	-128.939	0.210	0.030
-746.185	37.265	-0.373	0.333
-745.171	-1.555	-0.155	0.111
-744.156	81.249	0.116	-0.127
-743.142	122.425	-0.081	-0.102
-742.127	-56.233	-0.357	0.160
-741.112	800.000	0.019	0.078
-740.098	258.863	-0.164	0.284
-739.083	-64.555	-0.358	0.146
-738.069	-200.000	-0.050	-0.234
-737.054	18.003	-0.379	-0.304
-736.039	-116.274	-0.144	-0.027
-735.025	84.182	0.057	0.062
-734.010	-26.579	-0.182	-0.107
-732.996	125.165	-0.058	-0.073
-731.981	-148.560	0.052	0.004
-730.966	131.057	-0.198	0.256
-729.952	72.565	0.065	0.068
-728.937	800.000	-0.094	-0.368
-727.923	800.000	0.107	-0.300
-726.908	204.948	0.228	-0.357
-725.894	-48.930	0.124	0.060
-724.879	-200.000	0.022	-0.117
-723.864	-102.654	-0.094	0.023
-722.850	236.834	-0.103	-0.172
-721.835	484.541	-0.166	0.381
-720.821	76.940	-0.283	0.303
-719.806	433.382	-0.055	0.121
-718.791	-200.000	0.057	-0.342
-717.777	80.397	0.089	0.096
-716.762	253.075	0.152	0.261
-715.748	361.310	-0.061	0.124
-714.733	800.000	0.069	-0.225
-713.718	-92.066	0.459	-0.131
-712.704	-200.000	0.098	-0.436
-711.689	-133.767	-0.225	0.028
-710.675	44.847	-0.232	-0.215
-709.660	2.889	-0.193	0.141
-708.645	-200.000	0.028	-0.373
-707.631	-200.000	0.023	-0.214
-706.616	-200.000	-0.007	0.248
-705.602	-200.000	-0.055	0.362
-704.587	-200.000	0.049	0.361
-703.572	179.974	-0.108	-0.160
-702.558	800.000	0.109	-0.415
-701.543	81.401	0.032	-0.035
-700.529	-59.303	0.049	-0.021
-699.514	-95.769	-0.078	0.021
-698.499	-143.751	-0.120	-0.011
-697.485	800.000	0.017	-0.061
-696.470	-26.863	0.403	0.237
-695.456	-200.000	0.498	-0.002
-694.441	295.788	0.091	-0.167
-693.426	-83.471	-0.146	-0.047
-692.412	-14.068	0.027	0.017
-691.397	-200.000	0.059	0.516
-690.383	9.877	-0.140	-0.107
-689.368	104.093	-0.158	-0.187
-688.354	171.045	0.097	0.141
-687.339	283.860	-0.066	0.119
-686.324	-200.000	0.028	-0.296
-685.310	800.000	-0.042	0.152
-684.295	-200.000	-0.060	-0.489
-683.281	468.267	0.122	-0.276
-682.266	-126.277	-0.339	-0.051
-681.251	-16.189	-0.173	-0.111
-680.237	-76.607	0.066	0.023
-679.222	64.167	-0.151	0.153
-678.208	-200.000	0.006	0.051
-677.193	800.000	-0.060	-0.263
-676.178	213.051	0.159	0.253
-675.164	-52.299	-0.119	0.056
-674.149	227.923	-0.129	0.211
-673.135	800.000	-0.105	-0.313
-672.120	-16.489	-0.385	0.245
-671.105	-131.784	-0.271	0.036
-670.091	26.083	0.156	-0.131
-669.076	263.756	-0.099	0.173
-668.062	-200.000	0.400	0.002
-667.047	800.000	-0.019	0.078
-666.032	756.764	-0.032	-0.086
-665.018	-171.988	-0.269	-0.009
-664.003	800.000	-0.044	0.144
-662.989	-17.077	-0.096	0.061
-661.974	257.557	0.207	0.358
-660.959	-71.295	-0.147	0.056
-659.945	-200.000	-0.078	0.383
-658.930	-200.000	-0.011	0.047
-657.916	-200.000	-0.044	0.232
-656.901	-83.254	-0.276	0.089
-655.886	109.404	-0.047	-0.056
-654.872	193.375	0.081	0.123
-653.857	-200.000	-0.022	-0.181
-652.843	-28.836	-0.274	-0.158
-651.828	507.604	0.139	-0.325
-650.814	800.000	-0.019	-0.055
-649.799	-200.000	0.016	0.121
-648.784	352.541	0.084	0.168
-647.770	-200.000	-0.042	-0.267
-646.755	-200.000	-0.017	0.368
-645.741	508.863	-0.125	-0.291
-644.726	800.000	0.025	-0.096
-643.711	773.388	0.146	-0.400
-642.697	583.573	0.091	0.224
-641.682	41.084	0.198	0.180
-640.668	418.269	-0.146	0.312
-639.653	-136.614	-0.233	0.027
-638.638	24.300	-0.139	-0.115
-637.624	88.872	0.231	-0.258
-636.609	533.100	0.011	0.025
-635.595	800.000	0.074	0.309
-634.580	-200.000	-0.037	0.309
-633.565	67.716	-0.106	-0.108
-632.551	-69.441	0.097	-0.037
-631.536	-50.832	0.140	0.066
-630.522	11.284	-0.019	-0.014
-629.507	332.820	0.134	-0.259
-628.492	86.951	-0.187	-0.207
-627.478	4.091	-0.162	0.119
-626.463	800.000	0.095	-0.282
-625.449	266.336	-0.088	0.154
-624.434	18.451	-0.157	0.126
-623.419	800.000	0.093	0.403
-622.405	-200.000	-0.021	0.136
-621.390	-49.676	0.259	-0.124
-620.376	630.469	0.018	-0.046
-619.361	116.182	-0.104	-0.128
-618.346	60.051	-0.091	-0.090
-617.332	-118.840	0.195	0.034
-616.317	-200.000	-0.006	-0.493
-615.303	800.000	-0.062	-0.222
-614.288	-136.586	-0.241	0.028
-613.273	72.771	0.075	0.078
-612.259	-200.000	0.017	0.176
-611.244	34.603	-0.083	0.073
-610.230	-32.007	-0.325	0.183
-609.215	181.284	-0.130	-0.192
-608.201	160.845	0.131	0.183
-607.186	-42.343	-0.376	0.192
-606.171	534.990	0.031	0.073
-605.157	181.554	-0.119	-0.176
-604.142	-200.000	-0.043	-0.238
-603.128	-134.103	0.076	-0.009
-602.113	-200.000	0.045	0.557
-601.098	-43.763	0.149	0.075
-600.084	-79.651	0.167	0.056
-599.069	61.401	-0.188	0.188
-598.055	18.068	-0.318	-0.255
-597.040	-28.501	-0.244	0.141
-596.025	-11.807	-0.208	0.137
-595.011	-22.288	-0.093	-0.057
-593.996	-186.896	-0.274	0.004
-592.982	-152.804	-0.346	-0.025
-591.967	-105.581	-0.100	0.023
-590.952	-74.215	0.336	0.122
-589.938	-200.000	0.027	0.453
-588.923	8.023	0.204	0.154
-587.909	-200.000	0.015	-0.155
-586.894	-200.000	-0.027	-0.128
-585.879	-91.689	-0.186	-0.053
-584.865	37.914	0.155	-0.138
-583.850	-24.135	0.265	0.158
-582.836	2.615	0.177	-0.129
-581.821	-59.620	0.128	-0.055
-580.806	-68.986	-0.189	-0.073
-579.792	-152.335	0.273	0.020
-578.777	-20.549	0.174	0.107
-577.763	-200.000	-0.030	0.345
-576.748	800.000	0.116	-0.339
-575.733	295.859	0.102	-0.187
-574.719	-39.588	0.403	0.211
-573.704	439.612	-0.116	-0.253
-572.690	-90.075	0.140	0.041
-571.675	-73.011	-0.261	-0.096
-570.661	-140.715	-0.165	-0.017
-569.646	41.111	-0.182	-0.165
-568.631	-200.000	0.017	0.193
-567.617	-109.393	-0.267	0.057
-566.602	-200.000	-0.078	-0.374
-565.588	150.924	0.117	-0.160
-564.573	330.257	-0.094	-0.182
-563.558	158.457	-0.188	-0.261
-562.544	618.705	0.106	-0.268
-561.529	4.116	0.281	0.206
-560.515	-68.585	0.150	0.058
-559.500	188.147	-0.088	-0.132
-558.485	36.499	-0.165	-0.145
-557.471	282.360	0.048	-0.086
-556.456	283.915	0.107	-0.193
-555.442	137.149	0.157	-0.206
-554.427	59.732	-0.123	0.121
-553.412	-200.000	-0.012	-0.481
-552.398	66.248	-0.206	-0.210
-551.383	-162.143	0.360	0.018
-550.369	-145.567	0.211	-0.019
-549.354	-82.102	-0.160	0.052
-548.339	800.000	0.006	0.020
-547.325	-200.000	-0.001	0.037
-546.310	800.000	-0.043	-0.186
-545.296	-167.181	-0.149	0.006
-544.281	519.631	-0.084	-0.198
-543.266	468.823	-0.088	-0.197
-542.252	621.758	-0.090	0.226
-541.237	-114.509	-0.308	-0.059
-540.223	-200.000	-0.010	-0.245
-539.208	-86.498	-0.179	0.055
-538.193	352.306	-0.092	-0.182
-537.179	66.554	0.321	0.327
-536.164	72.644	0.147	0.153
-535.150	458.659	-0.032	0.070
-534.135	800.000	0.106	0.336
-533.121	37.953	0.246	0.219
-532.106	670.354	-0.049	0.127
-531.091	96.707	-0.163	-0.187
-530.077	-3.670	-0.165	0.115
-529.062	129.106	0.116	-0.147
-528.048	148.328	-0.121	0.163
-527.033	14.354	-0.129	-0.101
-526.018	-200.000	0.007	0.146
-525.004	83.886	-0.215	-0.234
-523.989	608.511	0.117	0.291
-522.975	-9.423	0.356	0.238
-521.960	127.191	0.220	0.279
-520.945	-74.781	-0.241	0.087
-519.931	800.000	-0.034	0.135
-518.916	-200.000	0.009	0.308
-517.902	444.567	-0.147	0.322
-516.887	330.871	0.081	0.157
-515.872	424.841	-0.053	-0.114
-514.858	242.323	-0.107	-0.178
-513.843	-77.208	0.171	0.059
-512.829	-49.008	-0.223	-0.107
-511.814	-7.613	0.093	0.063
-510.799	-100.340	0.276	-0.068
-509.785	60.325	0.131	0.129
-508.770	-104.432	0.248	0.057
-507.756	-141.576	-0.056	-0.006
-506.741	-200.000	-0.009	0.269
-505.726	194.092	-0.148	-0.224
-504.712	415.369	-0.124	0.264
-503.697	639.404	0.120	0.304
-502.683	54.457	0.053	0.051
-501.668	66.784	-0.051	0.052
-500.653	-8.446	-0.301	-0.202
-499.639	-200.000	-0.028	-0.340
-498.624	-72.942	0.067	-0.025
-497.610	800.000	-0.038	-0.119
-496.595	-92.178	-0.089	0.025
-495.581	800.000	-0.022	-0.070
-494.566	800.000	-0.087	-0.321
-493.551	145.342	0.227	0.303
-492.537	-98.778	0.542	0.138
-491.522	56.546	-0.055	-0.053
-490.508	206.856	0.070	-0.109
-489.493	351.142	0.100	0.197
-488.478	-121.648	-0.314	0.052
-487.464	380.179	0.065	0.134
-486.449	153.353	-0.053	0.072
-485.435	-90.847	0.171	0.049
-484.420	-87.703	0.133	-0.040
-483.405	-200.000	-0.053	-0.398
-482.391	-63.083	-0.036	0.015
-481.376	97.089	-0.078	0.089
-480.362	53.327	-0.138	0.132
-479.347	135.664	-0.169	-0.219
-478.332	754.166	0.076	0.204
-477.318	-200.000	0.077	0.467
-476.303	54.021	-0.067	-0.064
-475.289	-109.938	0.292	-0.061
-474.274	204.162	-0.321	-0.497
-473.259	-200.000	0.020	-0.189
-472.245	-200.000	0.032	-0.232
-471.230	-0.828	0.115	0.081
-470.216	297.282	-0.093	0.171
-469.201	-79.584	0.228	-0.077
-468.186	72.124	0.126	0.130
-467.172	45.833	-0.112	-0.103
-466.157	-32.014	-0.273	0.152
-465.143	152.236	-0.197	0.268
-464.128	-200.000	0.014	-0.083
-463.113	129.493	0.207	0.264
-462.099	-200.000	0.009	0.150
-461.084	-187.125	-0.230	0.003
-460.070	-137.015	0.038	-0.004
-459.055	202.965	0.121	0.186
-458.040	308.703	-0.101	-0.187
-457.026	433.355	0.068	-0.147
-456.011	-62.345	0.077	-0.032
-454.997	362.617	0.190	0.381
-453.982	-45.120	0.066	-0.033
-452.968	-40.871	-0.242	-0.125
-451.953	-105.779	0.220	0.050
-450.938	31.085	-0.243	-0.207
-449.924	162.797	0.207	-0.289
-448.909	60.091	-0.096	-0.094
-447.895	-62.030	0.304	-0.127
-446.880	-73.627	-0.140	-0.051
-445.865	-83.895	0.283	0.090
-444.851	-124.352	-0.143	-0.022
-443.836	-114.196	-0.291	-0.056
-442.822	-36.616	0.201	0.108
-441.807	5.370	0.460	0.338
-440.792	-200.000	-0.041	0.203
-439.778	289.862	-0.091	0.165
-438.763	-20.954	-0.118	0.072
-437.749	-200.000	0.020	-0.212
-436.734	67.507	0.223	-0.226
-435.719	272.384	-0.060	-0.106
-434.705	-61.675	-0.155	-0.065
-433.690	42.501	-0.003	0.003
-432.676	-200.000	-0.016	0.163
-431.661	40.310	-0.110	-0.099
-430.646	42.558	-0.202	-0.183
-429.632	-8.270	-0.114	0.076
-428.617	-200.000	0.028	0.308
-427.603	-200.000	0.064	-0.685
-426.588	189.870	-0.112	0.167
-425.573	-63.426	0.145	0.059
-424.559	800.000	0.006	0.024
-423.544	-52.713	0.415	-0.190
-422.530	641.367	-0.126	0.318
-421.515	196.390	0.141	-0.214
-420.500	-18.732	0.249	-0.154
-419.486	-200.000	-0.003	0.090
-418.471	29.384	-0.159	-0.135
-417.457	-37.321	0.126	-0.067
-416.442	-53.770	-0.358	0.163
-415.428	384.233	-0.081	-0.165
-414.413	-21.279	-0.212	0.129
-413.398	-200.000	-0.015	-0.303
-412.384	-164.288	0.081	-0.004
-411.369	-95.720	0.228	0.061
-410.355	-16.930	-0.062	-0.039
-409.340	800.000	0.082	-0.312
-408.325	43.139	-0.316	0.287
-407.311	-123.852	-0.139	0.022
-406.296	-21.595	0.063	0.038
-405.282	10.847	-0.215	0.163
-404.267	-200.000	-0.014	-0.206
-403.252	-200.000	-0.008	0.143
-402.238	-179.026	-0.151	-0.003
-401.223	84.882	0.235	0.256
-400.209	-129.344	0.218	0.030
-399.194	594.710	0.038	-0.094
-398.179	-46.542	-0.190	0.093
-397.165	123.925	-0.280	0.349
-396.150	800.000	-0.038	-0.117
-395.136	-200.000	-0.050	-0.225
-394.121	-113.143	-0.260	0.051
-393.106	-120.721	-0.107	0.018
-392.092	-111.799	-0.068	-0.014
-391.077	-200.000	0.153	-0.001
-390.063	-200.000	-0.052	-0.342
-389.048	-8.958	-0.085	-0.057
-388.033	-144.750	0.260	0.024
-387.019	179.905	0.174	0.254
-386.004	-128.606	0.225	-0.032
-384.990	84.237	0.057	0.062
-383.975	723.517	-0.012	0.033
-382.960	-27.505	0.205	0.119
-381.946	279.501	-0.053	0.094
-380.931	70.015	0.118	0.121
-379.917	58.861	-0.144	0.140
-378.902	-166.282	0.360	0.015
-377.888	136.837	0.091	-0.118
-376.873	-200.000	0.045	0.228
-375.858	-138.827	-0.203	0.022
-374.844	-40.237	0.282	-0.146
-373.829	-200.000	-0.006	-0.118
-372.815	-162.506	-0.253	0.012
-371.800	-200.000	-0.045	-0.441
-370.785	-99.454	-0.184	0.046
-369.771	-200.000	-0.008	-0.125
-368.756	797.443	0.014	-0.039
-367.742	-155.654	-0.218	-0.014
-366.727	-104.265	0.248	-0.057
-365.712	-12.053	0.106	0.069
-364.698	-2.799	0.261	-0.181
-363.683	410.835	0.085	-0.179
-362.669	310.239	-0.108	0.200
-361.654	-82.205	-0.381	0.123
-360.639	-79.041	-0.037	-0.012
-359.625	-13.867	0.029	0.018
-358.610	-200.000	0.087	0.399
-357.596	-200.000	0.011	0.440
-356.581	-105.610	-0.273	0.061
-355.566	-165.435	0.369	0.016
-354.552	428.854	-0.073	-0.158
-353.537	-200.000	0.020	0.506
-352.523	800.000	0.062	0.195
-351.508	-66.995	0.156	0.061
-350.493	-97.367	0.325	-0.084
-349.479	641.855	-0.045	0.115
-348.464	-107.657	-0.220	0.048
-347.450	-200.000	-0.002	0.014
-346.435	48.210	-0.114	0.106
-345.420	9.790	0.294	0.221
-344.406	-23.113	0.308	0.184
-343.391	500.030	0.035	0.080
-342.377	-65.348	-0.228	-0.091
-341.362	320.171	-0.076	-0.143
-340.348	694.792	-0.253	0.659
-339.333	16.124	0.188	-0.147
-338.318	800.000	0.095	-0.396
-337.304	-55.173	0.127	0.057
-336.289	-138.184	-0.089	0.010
-335.275	22.464	0.161	0.130
-334.260	-200.000	0.013	0.345
-333.245	-200.000	-0.071	0.312
-332.231	800.000	-0.035	-0.140
-331.216	-117.100	-0.029	0.005
-330.202	-200.000	0.012	0.257
-329.187	-200.000	0.008	0.311
-328.172	-166.225	0.178	-0.007
-327.158	-200.000	0.018	0.105
-326.143	800.000	-0.038	0.108
-325.129	-200.000	-0.013	0.061
-324.114	109.251	-0.166	-0.197
-323.099	-200.000	-0.006	0.197
-322.085	714.357	-0.040	-0.105
-321.070	219.399	-0.120	-0.191
-320.056	-14.348	-0.274	0.175
-319.041	-132.858	-0.155	0.020
-318.026	-172.894	0.122	-0.004
-317.012	55.750	0.052	-0.050
-315.997	-124.200	0.357	0.055
-314.983	285.281	-0.094	-0.168
-313.968	394.349	-0.181	0.374
-312.953	602.569	-0.025	-0.062
-311.939	-200.000	-0.030	0.230
-310.924	-182.119	-0.150	-0.003
-309.910	-200.000	-0.021	-0.186
-308.895	-67.301	-0.233	0.091
-307.880	674.430	-0.119	0.306
-306.866	142.731	0.096	0.127
-305.851	-200.000	0.003	-0.046
-304.837	-200.000	-0.014	0.133
-303.822	-118.577	0.332	0.058
-302.807	-200.000	-0.001	-0.163
-301.793	61.527	-0.255	0.252
-300.778	-75.751	-0.161	0.057
-299.764	53.329	0.199	0.189
-298.749	-82.677	0.239	-0.077
-297.735	-154.230	0.198	-0.013
-296.720	-112.265	-0.295	0.059
-295.705	-78.438	0.153	0.052
-294.691	800.000	0.050	-0.157
-293.676	-200.000	-0.003	-0.412
-292.662	-117.963	-0.043	0.008
-291.647	84.506	-0.131	0.142
-290.632	800.000	-0.085	-0.280
-289.618	-200.000	0.038	-0.233
-288.603	-130.018	0.073	-0.010
-287.589	-90.784	0.119	-0.034
-286.574	252.379	-0.183	-0.309
-285.559	800.000	-0.063	-0.202
-284.545	-200.000	0.001	-0.365
-283.530	-200.000	0.065	-0.319
-282.516	-200.000	0.011	-0.097
-281.501	73.296	-0.400	0.414
-280.486	-21.047	0.049	-0.030
-279.472	-55.261	0.140	0.062
-278.457	-98.695	0.289	-0.073
-277.443	61.766	-0.024	-0.024
-276.428	36.048	-0.115	0.100
-275.413	117.481	0.280	0.341
-274.399	30.209	0.101	-0.085
-273.384	-15.718	-0.100	-0.063
-272.370	-79.660	0.150	0.050
-271.355	-9.035	-0.168	-0.111
-270.340	800.000	-0.030	-0.115
-269.326	86.295	0.136	-0.148
-268.311	800.000	-0.121	-0.437
-267.297	488.615	0.101	-0.227
-266.282	-63.237	0.270	-0.110
-265.267	-10.573	0.221	-0.145
-264.253	-151.957	-0.041	-0.003
-263.238	-200.000	-0.068	-0.391
-262.224	-200.000	-0.021	0.222
-261.209	-68.235	-0.146	-0.056
-260.195	800.000	-0.039	-0.116
-259.180	337.924	0.105	-0.201
-258.165	-200.000	-0.007	-0.392
-257.151	-42.350	0.357	-0.180
-256.136	-82.801	0.249	-0.080
-255.122	-17.387	0.101	-0.063
-254.107	-126.109	-0.110	-0.016
-253.092	-169.797	-0.095	0.003
-252.078	271.360	-0.097	-0.168
-251.063	-200.000	0.109	0.000
-250.049	-50.634	-0.219	-0.102
-249.034	15.320	0.134	-0.104
-248.019	-200.000	-0.001	-0.377
-247.005	590.965	0.068	-0.166
-245.990	-72.480	-0.153	0.056
-244.976	-200.000	-0.049	0.349
-243.961	76.634	-0.060	0.063
-242.946	-96.990	0.093	0.024
-241.932	-200.000	0.004	-0.063
-240.917	-62.536	0.196	-0.080
-239.903	-39.209	-0.377	0.196
-238.888	468.648	0.076	-0.168
-237.873	218.034	0.126	-0.198
-236.859	54.718	-0.472	0.450
-235.844	-120.591	0.397	0.066
-234.830	-200.000	-0.042	-0.195
-233.815	-87.064	0.190	-0.057
-232.800	-173.299	-0.137	0.004
-231.786	7.287	-0.344	0.254
-230.771	800.000	-0.083	0.227
-229.757	-200.000	0.006	-0.333
-228.742	800.000	0.053	-0.212
-227.727	16.151	0.133	0.104
-226.713	-43.434	0.075	-0.037
-225.698	167.620	0.063	0.089
-224.684	-76.670	-0.233	-0.081
-223.669	-200.000	0.002	0.028
-222.655	-56.552	0.224	0.098
-221.640	800.000	-0.094	0.353
-220.625	-113.815	-0.329	0.063
-219.611	-200.000	0.018	-0.220
-218.596	213.264	0.100	-0.156
-217.582	-195.026	0.200	0.002
-216.567	800.000	0.099	-0.346
-215.552	683.732	0.113	-0.290
-214.538	92.245	-0.271	-0.301
-213.523	44.520	0.031	-0.028
-212.509	-14.144	0.227	0.144
-211.494	130.426	-0.170	-0.215
-210.479	88.758	-0.065	0.072
-209.465	200.358	0.146	0.221
-208.450	3.011	0.274	0.197
-207.436	185.094	-0.132	-0.193
-206.421	123.268	0.176	-0.218
-205.406	228.306	0.204	0.329
-204.392	17.172	-0.215	0.168
-203.377	-13.279	-0.169	-0.108
-202.363	-200.000	-0.083	-0.387
-201.348	28.296	0.200	-0.167
-200.333	31.841	-0.139	-0.119
-199.319	-200.000	-0.017	0.299
-198.304	-154.475	-0.056	0.004
-197.290	6.135	0.162	-0.119
-196.275	-142.412	-0.542	0.053
-195.260	324.974	-0.132	0.250
-194.246	-95.842	-0.385	-0.101
-193.231	-102.737	-0.084	0.020
-192.217	800.000	0.028	0.095
-191.202	-110.303	0.114	0.023
-190.187	-43.449	0.614	-0.306
-189.173	-70.434	0.212	0.079
-188.158	-57.197	0.112	0.048
-187.144	11.839	0.363	-0.275
-186.129	73.773	0.299	0.310
-185.114	-127.871	-0.518	0.074
-184.100	-37.422	-0.056	0.029
-183.085	8.328	0.143	0.106
-182.071	-24.034	-0.174	-0.103
-181.056	-18.089	-0.186	-0.115
-180.042	-129.656	-0.174	-0.024
-179.027	411.825	-0.096	-0.201
-178.012	-119.589	0.354	-0.060
-176.998	78.177	0.048	0.050
-175.983	-50.833	0.163	-0.075
-174.969	-23.693	0.204	-0.121
-173.954	-41.338	-0.205	0.104
-172.939	-200.000	0.011	0.139
-171.925	14.813	-0.059	0.045
-170.910	166.470	0.061	0.085
-169.896	-170.519	-0.379	0.013
-168.881	118.606	-0.196	0.238
-167.866	533.212	-0.106	0.247
-166.852	800.000	0.058	0.196
-165.837	171.956	-0.136	-0.192
-164.823	109.907	0.192	-0.227
-163.808	-200.000	0.004	-0.043
-162.793	43.606	-0.147	-0.132
-161.779	-52.368	-0.284	0.130
-160.764	585.914	0.006	0.014
-159.750	-133.162	0.302	0.038
-158.735	-95.429	-0.122	0.032
-157.720	-26.028	-0.315	0.183
-156.706	-100.909	0.183	-0.044
-155.691	-55.269	-0.186	0.082
-154.677	15.653	0.140	-0.109
-153.662	-109.959	0.253	-0.052
-152.647	83.339	0.150	0.161
-151.633	506.553	0.110	-0.251
-150.618	-88.819	-0.064	0.019
-149.604	-200.000	0.002	-0.015
-148.589	529.244	-0.067	-0.157
-147.574	33.518	0.157	-0.135
-146.560	404.295	0.122	0.254
-145.545	-39.715	-0.138	0.071
-144.531	-200.000	-0.001	-0.076
-143.516	800.000	-0.006	-0.022
-142.502	138.016	0.304	0.392
-141.487	282.818	-0.106	0.187
-140.472	14.516	-0.163	-0.125
-139.458	-55.755	-0.133	-0.058
-138.443	531.838	0.029	0.066
-137.429	-63.665	0.275	-0.111
-136.414	16.855	0.247	-0.192
-135.399	-38.883	0.275	-0.143
-134.385	-86.550	0.159	0.048
-133.370	-200.000	-0.025	-0.164
-132.356	-0.062	0.104	0.073
-131.341	-179.805	-0.089	0.002
-130.326	800.000	0.088	0.321
-129.312	-194.025	-0.196	0.002
-128.297	115.433	-0.205	-0.246
-127.283	-200.000	-0.002	0.017
-126.268	-134.272	0.313	0.038
-125.253	-55.620	0.275	-0.121
-124.239	24.996	0.179	-0.146
-123.224	-73.751	0.112	0.040
-122.210	-63.343	0.313	-0.127
-121.195	-116.097	-0.118	0.022
