DTS Sentinel unit serial number:	SN413079Multiplexer serial number:	ORYXHardware model number:	OX4-SRSoftware version number:	ORYX F/W v4.00 Oryx Data Collector v3.7.2.0data status	okinstallation	princeton_trtdifferential loss correction	single-endedforward channel	channel 2reverse channel	N/Adate	2019/09/17time	14:23:35forward acquisition time	60.00reverse acquisition time	0.00gamma	496.2192k internal	0.2314k external	0.2314temperature offset calibration	0.9984default loss term (dB/km)	0.3790temperature slope calibration	1.0000multiplexer offset coefficient	1.0000multiplexer slope coefficient	1.0000fibre end	0.00T internal ref (°C)	36.27T ext. ref 1 (°C)	0.41T ext. ref 2 (°C)	33.29length (m)	temperature (°C)	Stokes	anti-Stokes-747.200	-200.000	0.008	0.180
-746.185	-176.971	0.330	-0.008
-745.171	158.292	0.059	0.083
-744.156	-200.000	0.038	0.352
-743.142	800.000	0.042	-0.166
-742.127	165.944	-0.109	-0.156
-741.112	15.074	0.106	-0.084
-740.098	-77.785	0.289	-0.101
-739.083	-109.663	0.293	-0.063
-738.069	-57.119	0.086	-0.038
-737.054	-200.000	0.043	-0.198
-736.039	-200.000	0.008	-0.253
-735.025	-1.154	-0.213	-0.153
-734.010	58.938	0.139	0.138
-732.996	14.826	-0.155	-0.123
-731.981	-157.129	0.127	-0.008
-730.966	800.000	0.108	-0.313
-729.952	-143.447	0.124	-0.012
-728.937	-110.758	-0.367	-0.077
-727.923	-200.000	0.053	-0.275
-726.908	163.553	0.186	0.266
-725.894	-107.702	-0.522	-0.115
-724.879	263.297	-0.159	0.281
-723.864	120.609	0.250	-0.314
-722.850	8.228	0.166	-0.126
-721.835	9.019	-0.152	0.116
-720.821	-132.721	0.080	-0.010
-719.806	135.781	-0.248	-0.327
-718.791	-181.989	-0.300	-0.006
-717.777	19.523	-0.132	0.107
-716.762	-89.752	-0.431	-0.128
-715.748	-82.634	-0.191	0.063
-714.733	-200.000	0.012	0.056
-713.718	-183.061	-0.007	-0.000
-712.704	191.143	-0.129	0.197
-711.689	290.748	0.131	0.240
-710.675	139.042	0.133	-0.178
-709.660	131.838	-0.282	-0.367
-708.645	-115.124	0.094	0.018
-707.631	-200.000	0.009	0.253
-706.616	-200.000	0.035	-0.272
-705.602	-44.674	0.367	-0.186
-704.587	100.330	-0.151	0.178
-703.572	-200.000	0.056	0.251
-702.558	-91.275	-0.459	-0.133
-701.543	-74.200	0.023	0.008
-700.529	175.133	0.055	0.080
-699.514	-116.491	-0.310	-0.058
-698.499	308.025	0.093	-0.176
-697.485	-22.354	-0.398	-0.244
-696.470	-162.943	-0.132	-0.007
-695.456	-200.000	0.011	-0.053
-694.441	-200.000	0.005	-0.207
-693.426	323.117	-0.199	0.384
-692.412	-4.411	0.050	0.035
-691.397	800.000	-0.056	0.231
-690.383	15.586	-0.249	-0.198
-689.368	669.412	0.100	0.262
-688.354	-74.373	-0.179	0.065
-687.339	200.651	-0.147	-0.229
-686.324	287.218	0.050	-0.091
-685.310	800.000	-0.111	-0.318
-684.295	800.000	0.058	-0.200
-683.281	60.852	0.118	-0.119
-682.266	-36.718	-0.136	0.074
-681.251	-150.676	-0.389	-0.030
-680.237	71.970	0.287	0.302
-679.222	800.000	-0.037	-0.130
-678.208	-9.371	-0.106	0.072
-677.193	-200.000	0.011	-0.161
-676.178	-48.871	-0.174	0.085
-675.164	-68.104	0.108	0.042
-674.149	328.133	-0.183	0.355
-673.135	-38.580	0.269	0.144
-672.120	196.729	0.030	-0.046
-671.105	176.142	0.015	0.023
-670.091	800.000	0.054	0.232
-669.076	774.769	0.034	0.095
-668.062	491.286	-0.023	-0.053
-667.047	800.000	-0.061	0.175
-666.032	27.173	0.122	0.103
-665.018	134.772	-0.087	0.114
-664.003	87.709	0.293	0.328
-662.989	33.011	-0.106	-0.093
-661.974	-115.350	0.053	0.010
-660.959	92.384	0.167	-0.190
-659.945	-133.780	0.146	-0.018
-658.930	-200.000	-0.015	-0.234
-657.916	87.386	-0.159	0.177
-656.901	68.468	0.198	0.205
-655.886	55.049	-0.137	-0.134
-654.872	800.000	-0.058	0.177
-653.857	-189.389	-0.437	-0.005
-652.843	-16.560	-0.301	0.192
-651.828	164.264	-0.022	0.031
-650.814	165.543	0.146	0.209
-649.799	-200.000	0.036	0.340
-648.784	258.826	0.146	0.254
-647.770	-89.648	-0.164	-0.049
-646.755	110.924	0.188	-0.229
-645.741	456.659	0.168	-0.377
-644.726	-127.642	-0.066	-0.010
-643.711	734.714	-0.112	0.304
-642.697	-75.455	0.140	-0.050
-641.682	-200.000	-0.013	-0.256
-640.668	-116.477	-0.306	-0.057
-639.653	-22.194	-0.014	0.009
-638.638	-200.000	-0.036	-0.351
-637.624	-60.857	0.133	-0.057
-636.609	50.670	0.198	0.189
-635.595	10.524	0.360	-0.277
-634.580	66.582	0.216	0.222
-633.565	-24.975	0.255	-0.152
-632.551	-200.000	0.026	-0.362
-631.536	106.988	-0.137	0.165
-630.522	-112.899	-0.211	-0.042
-629.507	-47.725	-0.103	0.050
-628.492	-200.000	0.008	0.057
-627.478	-6.010	0.175	0.121
-626.463	800.000	0.069	0.238
-625.449	-54.505	0.166	-0.076
-624.434	-96.383	-0.146	0.039
-623.419	800.000	-0.058	-0.198
-622.405	-200.000	-0.031	-0.261
-621.390	92.237	-0.206	-0.234
-620.376	-84.564	-0.243	-0.077
-619.361	224.060	-0.114	0.185
-618.346	315.085	0.100	0.191
-617.332	748.776	-0.121	0.330
-616.317	800.000	0.041	0.139
-615.303	25.576	0.303	-0.254
-614.288	19.806	0.105	-0.085
-613.273	-200.000	0.010	-0.181
-612.259	785.039	0.068	0.188
-611.244	-16.401	0.253	0.162
-610.230	10.828	-0.142	-0.109
-609.215	-95.172	0.203	-0.055
-608.201	2.457	0.227	-0.166
-607.186	-179.396	-0.527	-0.012
-606.171	-46.329	-0.273	-0.135
-605.157	156.977	-0.083	-0.116
-604.142	107.008	0.029	0.035
-603.128	-11.272	-0.207	-0.137
-602.113	71.035	0.045	-0.047
-601.098	25.971	0.104	-0.087
-600.084	48.736	0.197	0.186
-599.069	-89.453	-0.230	0.068
-598.055	11.656	-0.194	-0.150
-597.040	-186.963	-0.243	-0.003
-596.025	-64.604	-0.128	-0.052
-595.011	-74.466	0.138	0.050
-593.996	-14.353	0.419	0.272
-592.982	577.566	0.103	0.254
-591.967	800.000	-0.042	-0.151
-590.952	-44.889	0.072	0.036
-589.938	-32.513	-0.294	-0.165
-588.923	-33.896	-0.257	0.143
-587.909	800.000	0.085	0.287
-586.894	-200.000	-0.076	0.569
-585.879	-88.778	0.277	-0.083
-584.865	800.000	-0.130	0.422
-583.850	-48.637	-0.202	-0.098
-582.836	197.762	0.180	0.277
-581.821	-200.000	0.056	-0.372
-580.806	-19.980	-0.406	-0.252
-579.792	-200.000	-0.018	-0.278
-578.777	-200.000	0.010	-0.091
-577.763	-172.852	-0.137	-0.004
-576.748	109.170	0.128	0.154
-575.733	-200.000	-0.006	0.292
-574.719	18.554	-0.110	-0.088
-573.704	-62.936	-0.297	-0.124
-572.690	300.705	0.156	0.291
-571.675	262.688	-0.182	0.318
-570.661	-165.348	0.121	0.005
-569.646	-41.471	0.498	0.258
-568.631	-200.000	-0.011	-0.304
-567.617	328.380	0.055	-0.107
-566.602	-197.653	0.196	0.001
-565.588	126.405	-0.081	-0.104
-564.573	-155.607	-0.025	-0.002
-563.558	155.977	0.039	-0.054
-562.544	-31.306	-0.256	-0.145
-561.529	800.000	-0.060	0.231
-560.515	-200.000	0.034	-0.353
-559.500	-165.430	0.068	0.003
-558.485	10.901	-0.067	-0.051
-557.471	-109.811	-0.213	-0.045
-556.456	210.098	-0.194	0.306
-555.442	-177.347	0.144	0.004
-554.427	348.201	-0.121	-0.240
-553.412	-200.000	-0.001	-0.072
-552.398	26.816	0.132	-0.111
-551.383	180.323	-0.161	0.238
-550.369	-82.022	0.146	0.048
-549.354	-54.343	-0.119	-0.054
-548.339	-200.000	0.267	-0.000
-547.325	-200.000	0.001	-0.120
-546.310	-110.479	0.025	-0.005
-545.296	-200.000	0.008	-0.179
-544.281	764.220	-0.024	-0.065
-543.266	103.873	0.030	0.035
-542.252	-80.405	-0.109	0.037
-541.237	-155.983	-0.386	0.025
-540.223	-33.740	-0.043	0.024
-539.208	800.000	-0.105	0.347
-538.193	145.375	-0.030	-0.040
-537.179	-200.000	0.038	0.173
-536.164	18.786	-0.164	-0.132
-535.150	94.559	0.225	0.257
-534.135	4.183	0.223	0.164
-533.121	-72.857	-0.240	0.089
-532.106	102.651	0.120	-0.141
-531.091	-31.290	0.326	-0.185
-530.077	-58.975	-0.120	-0.052
-529.062	-7.875	0.136	0.092
-528.048	-46.410	0.236	0.116
-527.033	87.125	-0.145	0.161
-526.018	-73.621	-0.478	-0.175
-525.004	-37.910	0.193	-0.103
-523.989	-71.335	-0.288	-0.108
-522.975	53.047	-0.037	0.036
-521.960	192.292	0.117	0.177
-520.945	800.000	-0.095	0.301
-519.931	499.838	0.138	-0.320
-518.916	-12.762	-0.096	-0.063
-517.902	800.000	-0.077	0.296
-516.887	-200.000	-0.009	-0.236
-515.872	173.591	0.089	0.129
-514.858	7.238	0.165	0.123
-513.843	-72.356	-0.348	0.129
-512.829	93.009	0.229	0.260
-511.814	36.880	-0.210	0.186
-510.799	-200.000	-0.000	0.022
-509.785	54.218	0.143	0.138
-508.770	147.335	-0.160	-0.216
-507.756	31.126	0.053	0.045
-506.741	-128.153	0.071	-0.010
-505.726	-14.529	-0.261	0.168
-504.712	11.088	0.213	0.164
-503.697	361.437	-0.081	0.162
-502.683	10.767	0.037	-0.028
-501.668	-32.784	-0.213	0.119
-500.653	473.615	0.111	-0.252
-499.639	-75.458	0.113	-0.040
-498.624	-97.072	-0.290	-0.076
-497.610	-62.584	-0.124	-0.052
-496.595	339.463	0.175	0.343
-495.581	25.767	-0.233	-0.195
-494.566	120.768	-0.169	0.211
-493.551	-74.763	0.253	-0.091
-492.537	-36.675	0.216	0.116
-491.522	-122.044	0.067	-0.011
-490.508	-72.752	0.187	0.069
-489.493	800.000	-0.031	-0.103
-488.478	-19.478	-0.020	0.012
-487.464	-65.568	-0.322	-0.130
-486.449	35.884	-0.087	-0.077
-485.435	-22.095	0.090	0.055
-484.420	-16.694	-0.301	-0.191
-483.405	549.122	0.037	-0.088
-482.391	57.994	-0.218	0.215
-481.376	-89.041	0.351	0.104
-480.362	111.165	-0.070	-0.085
-479.347	613.257	0.104	0.261
-478.332	-77.839	0.117	-0.041
-477.318	-200.000	-0.017	0.143
-476.303	41.675	0.212	0.193
-475.289	313.787	-0.137	0.258
-474.274	-200.000	0.001	-0.187
-473.259	488.553	-0.039	0.089
-472.245	800.000	0.107	0.346
-471.230	-98.959	0.328	0.083
-470.216	-152.601	0.122	0.009
-469.201	189.465	-0.105	-0.158
-468.186	97.077	-0.091	0.105
-467.172	-138.877	-0.617	-0.067
-466.157	-2.390	-0.218	0.153
-465.143	6.142	-0.087	0.064
-464.128	336.643	0.129	-0.252
-463.113	-178.043	-0.194	0.005
-462.099	374.221	0.041	0.084
-461.084	-200.000	-0.006	0.103
-460.070	-200.000	0.014	-0.067
-459.055	567.318	0.064	0.155
-458.040	50.069	0.134	-0.127
-457.026	-102.716	0.271	-0.065
-456.011	-200.000	-0.001	-0.197
-454.997	-33.502	0.272	-0.151
-453.982	-141.791	-0.235	0.024
-452.968	-33.755	0.266	0.147
-451.953	-87.895	-0.193	0.058
-450.938	333.070	0.107	-0.207
-449.924	168.157	-0.298	-0.426
-448.909	580.578	0.087	-0.213
-447.895	800.000	0.060	-0.222
-446.880	-162.308	-0.131	0.007
-445.865	-119.585	0.187	0.033
-444.851	-117.087	-0.216	0.039
-443.836	217.093	-0.190	0.303
-442.822	-166.843	0.101	0.004
-441.807	129.198	0.161	0.206
-440.792	-80.555	-0.170	-0.057
-439.778	-36.886	0.293	0.158
-438.763	-60.871	0.146	-0.062
-437.749	260.618	-0.071	0.122
-436.734	800.000	-0.068	-0.222
-435.719	-135.563	0.086	0.010
-434.705	-200.000	0.015	0.143
-433.690	625.783	0.099	-0.250
-432.676	800.000	-0.120	-0.360
-431.661	-200.000	-0.025	-0.138
-430.646	783.893	-0.094	0.257
-429.632	-98.515	0.082	0.021
-428.617	74.456	0.062	0.065
-427.603	-56.798	-0.264	-0.117
-426.588	-77.868	-0.082	0.028
-425.573	-200.000	0.061	0.385
-424.559	-200.000	0.004	-0.150
-423.544	-63.236	0.278	0.115
-422.530	548.778	-0.102	-0.244
-421.515	-130.331	-0.349	-0.047
-420.500	-32.194	-0.311	-0.174
-419.486	335.993	0.058	0.112
-418.471	-31.282	0.281	0.158
-417.457	-51.281	0.275	-0.129
-416.442	213.953	0.129	0.204
-415.428	14.591	0.099	0.077
-414.413	232.126	0.180	-0.296
-413.398	138.572	-0.118	0.156
-412.384	800.000	-0.051	-0.155
-411.369	87.568	0.098	-0.109
-410.355	-13.055	0.096	0.062
-409.340	-149.446	0.150	0.012
-408.325	253.375	0.112	0.191
-407.311	-200.000	-0.054	-0.370
-406.296	209.984	0.015	0.023
-405.282	-65.324	-0.138	0.056
-404.267	800.000	-0.064	0.204
-403.252	199.990	-0.075	0.115
-402.238	343.574	0.069	-0.135
-401.223	-121.120	-0.083	0.014
-400.209	-92.688	-0.164	0.046
-399.194	-95.712	-0.116	-0.031
-398.179	-0.721	0.075	-0.053
-397.165	4.302	-0.148	0.108
-396.150	-200.000	-0.005	0.067
-395.136	18.446	0.182	-0.146
-394.121	-150.942	-0.077	0.006
-393.106	348.196	-0.034	-0.067
-392.092	150.309	0.103	-0.140
-391.077	-200.000	-0.024	-0.265
-390.063	710.323	0.061	-0.161
-389.048	-129.155	-0.215	0.030
-388.033	-27.207	-0.204	0.119
-387.019	-119.183	-0.083	-0.015
-386.004	-87.951	0.176	-0.053
-384.990	800.000	0.097	-0.272
-383.975	63.748	-0.174	-0.174
-382.960	-132.383	-0.136	-0.017
-381.946	-133.341	0.324	-0.041
-380.931	-61.220	0.055	-0.023
-379.917	114.527	0.132	0.161
-378.902	-127.612	-0.225	-0.033
-377.888	-54.290	0.216	0.098
-376.873	-200.000	-0.030	0.208
-375.858	-200.000	-0.023	0.169
-374.844	-143.776	-0.044	0.004
-373.829	-21.478	-0.315	0.192
-372.815	-200.000	0.019	0.183
-371.800	428.110	0.066	-0.143
-370.785	-171.295	-0.138	0.005
-369.771	-26.989	-0.318	0.185
-368.756	800.000	0.032	-0.136
-367.742	38.956	-0.152	0.136
-366.727	-81.328	0.568	0.187
-365.712	800.000	-0.003	-0.008
-364.698	-138.007	-0.250	-0.028
-363.683	-200.000	0.003	-0.148
-362.669	85.233	0.060	-0.065
-361.654	94.915	0.129	0.147
-360.639	-128.870	0.474	-0.067
-359.625	-83.353	-0.242	0.078
-358.610	-181.550	-0.329	0.006
-357.596	-9.264	-0.052	-0.035
-356.581	181.160	0.162	-0.238
-355.566	-200.000	-0.070	-0.330
-354.552	-80.715	-0.341	0.113
-353.537	800.000	-0.057	0.192
-352.523	291.064	0.115	-0.209
-351.508	28.958	-0.080	-0.068
-350.493	-146.312	-0.185	0.016
-349.479	-107.541	0.309	0.068
-348.464	-200.000	0.017	-0.186
-347.450	6.566	0.125	0.093
-346.435	-75.678	0.234	0.083
-345.420	-103.275	-0.443	0.104
-344.406	310.639	0.059	-0.110
-343.391	-99.166	-0.130	-0.033
-342.377	-200.000	0.011	0.158
-341.362	800.000	0.126	-0.437
-340.348	-200.000	0.045	0.238
-339.333	365.860	0.190	-0.383
-338.318	800.000	0.033	0.136
-337.304	-118.258	-0.300	-0.053
-336.289	-60.745	0.190	-0.080
-335.275	10.142	0.071	0.054
-334.260	116.649	0.180	-0.221
-333.245	-78.741	-0.122	-0.042
-332.231	-200.000	0.017	-0.107
-331.216	-126.770	-0.560	0.083
-330.202	-87.489	0.192	0.058
-329.187	-73.556	-0.162	-0.059
-328.172	-200.000	-0.002	-0.369
-327.158	-200.000	-0.081	0.447
-326.143	-200.000	-0.040	-0.227
-325.129	-15.074	0.140	-0.090
-324.114	800.000	0.093	0.305
-323.099	63.261	0.121	-0.121
-322.085	138.674	-0.032	-0.042
-321.070	51.504	0.137	-0.129
-320.056	-200.000	0.024	0.217
-319.041	124.419	-0.161	0.201
-318.026	800.000	-0.075	0.214
-317.012	24.393	0.320	0.264
-315.997	-200.000	0.017	-0.148
-314.983	165.094	0.037	0.052
-313.968	211.727	-0.048	-0.076
-312.953	17.876	0.153	-0.121
-311.939	-92.271	-0.323	0.091
-310.924	-200.000	0.014	0.372
-309.910	-170.757	-0.113	0.004
-308.895	-9.379	-0.254	0.169
-307.880	-73.217	0.273	0.100
-306.866	275.357	-0.120	-0.213
-305.851	-200.000	-0.011	-0.095
-304.837	55.590	-0.098	-0.095
-303.822	78.449	0.250	0.266
-302.807	-20.374	-0.070	0.043
-301.793	-50.270	-0.144	-0.068
-300.778	-66.538	0.141	-0.056
-299.764	-76.985	0.136	-0.047
-298.749	-48.249	-0.022	0.010
-297.735	-200.000	-0.037	-0.167
-296.720	262.971	-0.167	-0.289
-295.705	304.712	0.146	0.271
-294.691	-191.696	0.193	-0.002
-293.676	-167.584	-0.131	0.005
-292.662	-200.000	-0.044	-0.443
-291.647	-25.148	0.438	0.259
-290.632	-80.710	-0.127	0.042
-289.618	19.850	0.037	-0.030
-288.603	-180.924	-0.287	-0.006
-287.589	128.682	-0.127	-0.161
-286.574	365.201	-0.080	-0.161
-285.559	-119.570	-0.105	-0.018
-284.545	183.549	0.132	-0.194
-283.530	800.000	0.022	-0.080
-282.516	-111.767	-0.090	0.018
-281.501	-104.235	0.116	-0.027
-280.486	800.000	-0.041	-0.168
-279.472	611.073	-0.072	-0.179
-278.457	63.964	0.251	-0.252
-277.443	75.042	0.189	-0.199
-276.428	-200.000	0.138	-0.655
-275.413	800.000	-0.127	0.419
-274.399	-13.273	0.067	-0.043
-273.384	-158.688	-0.125	0.007
-272.370	-200.000	-0.003	0.141
-271.355	-175.620	-0.176	-0.005
-270.340	-108.931	-0.133	0.028
-269.326	409.547	0.098	0.207
-268.311	-35.075	-0.138	-0.075
-267.297	-97.182	0.154	0.040
-266.282	-68.660	0.087	0.034
-265.267	713.246	0.041	-0.108
-264.253	-200.000	-0.023	-0.122
-263.238	-87.007	0.031	-0.009
-262.224	77.721	-0.162	0.171
-261.209	-146.344	-0.477	-0.042
-260.195	71.679	-0.212	0.219
-259.180	-200.000	0.030	-0.198
-258.165	-34.182	0.335	-0.183
-257.151	-130.153	-0.163	-0.022
-256.136	725.310	0.064	0.168
-255.122	179.954	-0.102	0.148
-254.107	-200.000	0.029	-0.255
-253.092	-117.278	-0.483	0.087
-252.078	-26.765	0.218	0.127
-251.063	-200.000	-0.057	-0.386
-250.049	-200.000	-0.035	-0.179
-249.034	-200.000	-0.004	-0.109
-248.019	-200.000	-0.004	0.097
-247.005	800.000	0.047	0.140
-245.990	212.626	0.179	0.281
-244.976	-103.864	0.212	-0.049
-243.961	-133.453	0.156	0.019
-242.946	34.538	0.132	0.115
-241.932	49.864	0.140	0.131
-240.917	-34.838	0.035	-0.019
-239.903	-122.694	0.283	0.046
-238.888	14.564	0.121	0.094
-237.873	-127.831	-0.113	0.016
-236.859	-92.658	-0.291	-0.081
-235.844	187.239	-0.160	0.237
-234.830	-30.102	-0.169	-0.096
-233.815	84.226	0.052	0.056
-232.800	-50.732	-0.308	-0.144
-231.786	-9.011	0.172	-0.114
-230.771	69.569	0.220	0.225
-229.757	-12.115	0.288	-0.187
-228.742	-47.929	-0.225	-0.108
-227.727	10.895	-0.309	0.235
-226.713	-164.030	0.299	-0.014
-225.698	-78.741	0.108	-0.036
-224.684	800.000	-0.068	0.244
-223.669	25.241	-0.089	-0.074
-222.655	28.737	-0.108	0.091
-221.640	365.296	0.123	-0.245
-220.625	-200.000	0.009	0.288
-219.611	47.602	-0.240	0.222
-218.596	20.235	-0.159	-0.128
-217.582	-200.000	0.027	-0.203
-216.567	-65.988	-0.138	0.055
-215.552	-200.000	0.042	0.359
-214.538	473.914	0.073	-0.163
-213.523	27.720	0.226	-0.189
-212.509	183.050	0.254	0.373
-211.494	-6.252	-0.144	0.098
-210.479	-200.000	-0.002	0.045
-209.465	30.538	0.343	-0.291
-208.450	455.254	0.137	-0.302
-207.436	-23.190	0.403	0.241
-206.421	240.446	-0.140	0.232
-205.406	-160.594	0.210	-0.011
-204.392	490.717	-0.069	-0.157
-203.377	28.085	0.089	0.074
-202.363	-87.260	0.102	0.031
-201.348	130.622	0.076	0.096
-200.333	-200.000	-0.005	0.099
-199.319	-88.054	-0.202	0.060
-198.304	574.771	0.041	-0.099
-197.290	-200.000	0.021	-0.265
-196.275	302.295	-0.087	-0.160
-195.260	800.000	-0.085	-0.238
-194.246	-101.491	-0.005	-0.001
-193.231	183.157	-0.180	0.263
-192.217	193.273	0.058	0.087
-191.202	-22.626	0.154	-0.093
-190.187	199.254	-0.150	-0.228
-189.173	-76.485	0.179	-0.062
-188.158	342.138	-0.104	-0.201
-187.144	-17.710	-0.155	-0.097
-186.129	7.297	-0.143	0.106
-185.114	-75.768	0.359	0.126
-184.100	185.733	0.221	0.326
-183.085	259.511	0.173	0.296
-182.071	-107.294	-0.063	-0.014
-181.056	-200.000	0.010	0.237
-180.042	-85.658	0.213	-0.066
-179.027	88.655	0.230	0.254
-178.012	800.000	0.040	-0.122
-176.998	-101.133	0.341	0.083
-175.983	196.846	0.177	-0.267
-174.969	-41.803	0.185	-0.094
-173.954	-200.000	0.035	-0.157
-172.939	-110.119	-0.117	0.024
-171.925	-200.000	-0.005	-0.312
-170.910	800.000	-0.017	0.050
-169.896	228.522	-0.064	0.103
-168.881	40.159	-0.258	-0.230
-167.866	-200.000	-0.002	-0.128
-166.852	800.000	-0.087	0.268
-165.837	249.633	0.103	-0.173
-164.823	93.338	-0.032	-0.036
-163.808	485.520	-0.100	0.226
-162.793	800.000	-0.022	0.063
-161.779	-189.750	0.212	0.002
-160.764	-200.000	-0.031	-0.189
-159.750	-200.000	-0.029	0.206
-158.735	-200.000	-0.040	0.258
-157.720	-84.129	-0.417	0.131
-156.706	-89.866	-0.126	-0.036
-155.691	-175.130	0.285	-0.008
-154.677	-136.376	0.250	0.029
-153.662	95.677	0.160	-0.181
-152.647	-200.000	0.042	-0.234
-151.633	-69.062	-0.145	-0.055
-150.618	295.350	-0.090	-0.163
-149.604	5.257	0.132	0.096
-148.589	-136.934	0.106	0.012
-147.574	-7.062	0.252	-0.169
-146.560	87.395	-0.051	-0.056
-145.545	-200.000	0.013	0.164
-144.531	-41.911	-0.072	0.037
-143.516	40.319	-0.083	-0.074
-142.502	-57.869	0.122	-0.053
-141.487	-188.480	-0.086	0.001
-140.472	88.819	0.117	0.129
-139.458	-200.000	-0.070	0.305
-138.443	-85.649	-0.112	0.035
-137.429	-22.312	-0.470	0.282
-136.414	-102.657	0.227	0.054
-135.399	53.546	-0.227	-0.216
-134.385	-9.315	0.185	0.123
-133.370	-96.536	0.179	0.047
-132.356	-1.263	0.120	0.084
-131.341	70.225	0.236	-0.241
-130.326	-200.000	0.058	0.271
-129.312	800.000	-0.030	-0.124
-128.297	-118.797	-0.234	0.041
-127.283	-200.000	-0.009	-0.124
-126.268	-200.000	0.015	0.066
-125.253	-200.000	0.019	0.119
-124.239	248.168	-0.104	-0.174
-123.224	-52.128	0.267	-0.123
-122.210	-151.196	-0.182	-0.013
-121.195	160.728	0.101	-0.139
