DTS Sentinel unit serial number:	SN413079Multiplexer serial number:	ORYXHardware model number:	OX4-SRSoftware version number:	ORYX F/W v4.00 Oryx Data Collector v3.7.2.0data status	okinstallation	princeton_trtdifferential loss correction	single-endedforward channel	channel 2reverse channel	N/Adate	2019/09/17time	23:55:35forward acquisition time	60.00reverse acquisition time	0.00gamma	496.2192k internal	0.2349k external	0.2349temperature offset calibration	0.9985default loss term (dB/km)	0.3790temperature slope calibration	1.0000multiplexer offset coefficient	1.0000multiplexer slope coefficient	1.0000fibre end	0.00T internal ref (°C)	23.94T ext. ref 1 (°C)	0.16T ext. ref 2 (°C)	17.27length (m)	temperature (°C)	Stokes	anti-Stokes-747.200	-8.853	-0.024	0.016
-746.185	-200.000	-0.005	-0.097
-745.171	-117.133	-0.078	-0.014
-744.156	800.000	0.087	0.372
-743.142	-125.392	-0.257	-0.039
-742.127	69.014	-0.109	-0.111
-741.112	-124.408	-0.467	-0.073
-740.098	-60.614	-0.384	0.163
-739.083	-200.000	-0.041	0.217
-738.069	800.000	-0.043	0.157
-737.054	27.887	-0.043	0.036
-736.039	-200.000	-0.032	-0.206
-735.025	800.000	0.049	0.186
-734.010	416.859	-0.063	-0.134
-732.996	503.929	-0.116	-0.269
-731.981	275.802	-0.151	-0.267
-730.966	-200.000	-0.028	-0.275
-729.952	-5.206	0.101	0.069
-728.937	118.769	-0.225	-0.277
-727.923	-200.000	-0.250	-0.000
-726.908	-29.176	0.151	-0.086
-725.894	655.865	-0.043	-0.111
-724.879	166.115	0.224	-0.316
-723.864	-103.112	-0.119	-0.028
-722.850	-200.000	0.041	0.468
-721.835	615.648	-0.084	0.210
-720.821	-51.031	-0.343	0.160
-719.806	-143.027	-0.371	-0.036
-718.791	356.253	-0.090	-0.179
-717.777	260.618	-0.103	-0.178
-716.762	-27.216	0.173	0.100
-715.748	87.878	-0.072	-0.079
-714.733	800.000	-0.056	0.241
-713.718	106.015	-0.163	-0.193
-712.704	306.009	-0.222	-0.412
-711.689	570.159	-0.082	-0.198
-710.675	-6.345	0.156	0.106
-709.660	34.945	-0.196	-0.171
-708.645	-105.774	0.110	0.025
-707.631	143.691	0.232	-0.308
-706.616	-115.014	-0.332	-0.063
-705.602	-200.000	0.010	-0.382
-704.587	309.710	-0.063	0.117
-703.572	-26.643	-0.060	0.035
-702.558	155.216	0.141	0.193
-701.543	-18.363	0.313	-0.195
-700.529	-56.101	0.205	-0.091
-699.514	800.000	-0.071	0.205
-698.499	124.419	-0.121	-0.151
-697.485	-137.486	-0.134	-0.015
-696.470	-200.000	0.002	-0.312
-695.456	800.000	-0.088	-0.284
-694.441	800.000	-0.018	-0.066
-693.426	800.000	0.036	-0.102
-692.412	-200.000	-0.015	0.155
-691.397	-26.362	-0.068	0.040
-690.383	-51.947	-0.227	-0.105
-689.368	-53.378	0.158	0.072
-688.354	-132.864	0.171	0.022
-687.339	-200.000	-0.020	-0.177
-686.324	-82.502	0.411	-0.133
-685.310	189.269	0.017	-0.025
-684.295	188.359	-0.194	-0.289
-683.281	800.000	-0.023	-0.083
-682.266	34.604	-0.165	0.143
-681.251	370.772	-0.065	-0.131
-680.237	89.245	-0.182	0.203
-679.222	516.953	0.101	0.235
-678.208	-178.407	-0.065	-0.002
-677.193	109.957	0.088	-0.105
-676.178	575.460	-0.145	-0.353
-675.164	78.345	0.156	-0.166
-674.149	800.000	-0.037	-0.128
-673.135	-129.690	0.322	-0.044
-672.120	-200.000	0.022	0.132
-671.105	-103.607	-0.056	0.013
-670.091	121.218	0.067	-0.083
-669.076	69.829	0.244	-0.251
-668.062	726.429	-0.033	-0.088
-667.047	129.099	0.031	0.039
-666.032	800.000	0.044	-0.177
-665.018	103.337	0.151	0.177
-664.003	-133.783	0.150	0.019
-662.989	64.518	-0.221	0.222
-661.974	6.021	0.252	-0.186
-660.959	11.828	-0.290	-0.221
-659.945	114.616	-0.105	0.127
-658.930	382.454	0.091	0.187
-657.916	-200.000	-0.004	-0.254
-656.901	-17.561	0.169	0.106
-655.886	-75.057	-0.223	-0.080
-654.872	-200.000	0.026	-0.340
-653.857	91.908	-0.052	0.059
-652.843	-200.000	-0.041	-0.186
-651.828	3.990	0.153	-0.111
-650.814	-34.440	-0.477	0.260
-649.799	322.922	0.093	-0.176
-648.784	800.000	-0.056	-0.165
-647.770	-33.789	0.228	-0.125
-646.755	441.773	-0.154	-0.336
-645.741	234.261	0.223	0.365
-644.726	-26.286	0.106	0.062
-643.711	0.087	-0.216	-0.153
-642.697	-71.618	-0.229	-0.085
-641.682	155.989	-0.097	0.133
-640.668	224.977	0.108	-0.174
-639.653	309.011	-0.235	-0.437
-638.638	434.638	-0.054	0.116
-637.624	224.691	0.093	0.150
-636.609	-90.192	-0.083	-0.024
-635.595	149.231	0.120	0.162
-634.580	685.675	0.097	-0.251
-633.565	-200.000	0.043	0.000
-632.551	-200.000	-0.027	0.119
-631.536	16.044	-0.168	0.131
-630.522	-119.527	-0.302	-0.052
-629.507	-37.369	0.306	0.163
-628.492	-200.000	0.019	0.161
-627.478	800.000	-0.062	0.220
-626.463	4.761	-0.242	0.177
-625.449	389.580	0.090	-0.185
-624.434	-81.316	0.116	-0.038
-623.419	-54.238	0.407	-0.184
-622.405	-45.031	0.062	-0.030
-621.390	-200.000	0.037	-0.187
-620.376	217.443	-0.078	-0.123
-619.361	114.143	-0.271	-0.328
-618.346	225.357	0.018	0.030
-617.332	480.421	-0.109	-0.247
-616.317	-20.301	-0.134	0.082
-615.303	-200.000	-0.017	0.227
-614.288	-69.437	0.091	-0.035
-613.273	5.287	0.208	-0.152
-612.259	-200.000	0.005	-0.408
-611.244	52.414	-0.064	-0.060
-610.230	-88.972	-0.118	0.035
-609.215	-63.555	-0.303	0.124
-608.201	-200.000	-0.013	-0.259
-607.186	245.962	0.053	-0.089
-606.171	-6.683	-0.337	-0.228
-605.157	-14.293	0.104	-0.067
-604.142	33.681	-0.261	0.225
-603.128	-200.000	0.030	-0.434
-602.113	13.241	-0.189	-0.145
-601.098	45.039	0.119	-0.109
-600.084	-111.531	0.196	0.040
-599.069	57.193	0.215	-0.208
-598.055	-153.902	0.117	-0.008
-597.040	-25.242	0.223	-0.131
-596.025	566.061	0.073	-0.177
-595.011	-200.000	-0.034	-0.189
-593.996	-33.770	0.069	0.038
-592.982	-10.294	0.094	-0.062
-591.967	168.473	0.193	-0.273
-590.952	-157.933	-0.036	-0.002
-589.938	-19.587	0.240	0.148
-588.923	-77.231	-0.341	0.118
-587.909	83.644	-0.108	-0.117
-586.894	-200.000	-0.001	-0.253
-585.879	17.161	-0.060	-0.047
-584.865	-64.447	-0.235	-0.095
-583.850	179.282	0.100	0.146
-582.836	42.389	0.110	-0.099
-581.821	-27.420	0.069	-0.040
-580.806	-34.051	-0.031	0.017
-579.792	-47.363	0.154	0.074
-578.777	246.060	-0.117	-0.195
-577.763	151.593	-0.141	-0.190
-576.748	-200.000	0.008	0.039
-575.733	182.041	0.049	0.072
-574.719	-200.000	-0.034	0.148
-573.704	-102.025	0.216	0.052
-572.690	-46.654	-0.318	0.155
-571.675	800.000	-0.170	0.506
-570.661	-200.000	0.001	0.047
-569.646	800.000	0.117	-0.335
-568.631	-98.637	0.237	-0.060
-567.617	277.919	-0.147	-0.259
-566.602	-200.000	0.046	-0.327
-565.588	-143.651	0.280	-0.026
-564.573	754.503	0.065	-0.174
-563.558	22.378	0.327	0.265
-562.544	-25.208	-0.224	-0.131
-561.529	163.896	0.023	-0.032
-560.515	-47.672	-0.176	-0.085
-559.500	-200.000	-0.010	-0.190
-558.485	800.000	0.085	0.255
-557.471	-79.332	-0.232	-0.078
-556.456	-39.961	-0.146	0.076
-555.442	-46.405	-0.268	0.131
-554.427	-12.226	0.135	0.087
-553.412	-17.349	-0.138	-0.086
-552.398	800.000	0.119	0.372
-551.383	361.502	0.134	0.266
-550.369	230.953	0.055	-0.089
-549.354	48.440	-0.283	0.262
-548.339	-157.136	-0.437	0.026
-547.325	151.210	-0.148	0.200
-546.310	-19.207	-0.079	0.048
-545.296	20.603	0.076	-0.061
-544.281	800.000	0.049	-0.160
-543.266	43.253	0.126	-0.114
-542.252	-14.545	0.126	-0.081
-541.237	-28.798	-0.143	0.081
-540.223	-102.001	0.255	-0.061
-539.208	800.000	0.011	-0.034
-538.193	800.000	0.176	0.540
-537.179	26.660	-0.096	0.079
-536.164	281.610	0.243	0.431
-535.150	97.346	-0.271	-0.309
-534.135	-200.000	-0.011	-0.070
-533.121	-146.480	-0.210	0.018
-532.106	89.729	-0.236	0.261
-531.091	209.885	-0.161	0.249
-530.077	-83.523	-0.103	0.033
-529.062	59.193	-0.129	-0.126
-528.048	800.000	0.143	-0.412
-527.033	-26.435	0.163	-0.095
-526.018	-187.167	-0.134	-0.002
-525.004	-200.000	0.065	0.531
-523.989	408.705	0.080	-0.167
-522.975	239.971	-0.079	0.131
-521.960	376.028	0.144	-0.291
-520.945	20.260	-0.126	0.101
-519.931	356.083	0.104	0.206
-518.916	125.063	0.069	-0.086
-517.902	-200.000	-0.002	-0.017
-516.887	113.844	0.131	0.157
-515.872	800.000	0.081	0.244
-514.858	90.496	0.088	-0.097
-513.843	34.213	-0.136	0.117
-512.829	148.049	0.394	0.526
-511.814	-200.000	0.017	0.184
-510.799	-116.935	-0.153	0.028
-509.785	-200.000	-0.031	0.163
-508.770	-93.467	-0.106	-0.029
-507.756	-38.437	-0.041	0.022
-506.741	553.529	0.076	0.180
-505.726	-109.817	0.243	-0.050
-504.712	-200.000	0.021	-0.228
-503.697	-200.000	-0.026	-0.140
-502.683	-69.989	0.375	-0.141
-501.668	-59.056	-0.269	0.115
-500.653	-200.000	-0.001	-0.090
-499.639	-200.000	0.017	0.286
-498.624	380.757	-0.044	0.089
-497.610	2.391	-0.235	-0.168
-496.595	800.000	0.059	-0.180
-495.581	165.607	-0.052	0.072
-494.566	-67.645	-0.403	-0.156
-493.551	36.670	0.135	-0.118
-492.537	-113.027	0.285	0.056
-491.522	-75.432	0.233	0.082
-490.508	-200.000	0.041	0.203
-489.493	366.165	-0.075	0.149
-488.478	800.000	-0.043	-0.142
-487.464	-132.762	-0.242	0.031
-486.449	-89.766	0.184	0.053
-485.435	-115.357	-0.154	0.029
-484.420	-200.000	0.057	-0.337
-483.405	-149.602	0.089	0.007
-482.391	31.029	0.162	0.138
-481.376	234.077	0.128	-0.209
-480.362	-99.841	-0.204	-0.050
-479.347	-141.742	-0.177	-0.018
-478.332	-23.521	-0.044	0.026
-477.318	285.858	-0.117	0.209
-476.303	239.243	-0.262	0.430
-475.289	-200.000	0.081	0.406
-474.274	89.012	0.089	0.098
-473.259	92.051	0.068	0.075
-472.245	-92.399	-0.310	0.086
-471.230	-150.919	-0.494	0.037
-470.216	-200.000	-0.003	0.152
-469.201	-200.000	-0.009	-0.104
-468.186	160.563	-0.048	-0.066
-467.172	-58.571	0.270	0.116
-466.157	-69.310	-0.246	0.093
-465.143	-60.675	-0.102	-0.043
-464.128	14.651	-0.066	-0.051
-463.113	29.010	0.168	0.141
-462.099	-158.875	-0.399	-0.022
-461.084	48.839	-0.084	-0.077
-460.070	-200.000	-0.060	0.288
-459.055	-89.283	-0.107	0.031
-458.040	-114.477	0.228	0.043
-457.026	597.379	0.149	-0.366
-456.011	115.318	-0.252	-0.304
-454.997	-95.081	0.181	-0.048
-453.982	428.951	-0.040	-0.084
-452.968	-96.149	-0.310	0.081
-451.953	-183.827	0.218	-0.004
-450.938	-200.000	-0.029	0.161
-449.924	145.123	0.219	-0.289
-448.909	311.516	-0.057	0.106
-447.895	458.391	-0.100	-0.220
-446.880	239.808	-0.053	0.086
-445.865	-200.000	0.051	0.333
-444.851	272.220	-0.056	0.097
-443.836	-15.599	0.254	0.160
-442.822	-140.747	-0.241	0.025
-441.807	-24.393	0.206	0.121
-440.792	800.000	-0.070	-0.216
-439.778	-200.000	-0.010	-0.129
-438.763	139.237	-0.014	0.018
-437.749	38.288	-0.130	-0.114
-436.734	-188.524	-0.372	0.005
-435.719	-10.702	0.196	-0.128
-434.705	-119.493	-0.196	0.033
-433.690	-83.398	0.098	-0.031
-432.676	-75.318	-0.250	0.088
-431.661	-200.000	0.273	0.000
-430.646	705.883	-0.096	0.251
-429.632	-58.074	0.510	-0.219
-428.617	484.468	-0.089	-0.200
-427.603	-158.932	0.086	0.005
-426.588	-109.604	-0.166	-0.035
-425.573	456.475	-0.040	0.087
-424.559	41.072	-0.129	0.115
-423.544	29.506	0.030	-0.025
-422.530	121.211	0.209	-0.257
-421.515	40.872	0.026	-0.023
-420.500	84.638	0.332	-0.358
-419.486	129.079	0.123	-0.155
-418.471	-120.037	0.226	-0.038
-417.457	64.675	-0.186	0.185
-416.442	-0.946	0.253	-0.177
-415.428	290.705	0.176	-0.316
-414.413	518.863	-0.010	0.024
-413.398	-117.802	-0.330	0.058
-412.384	-104.389	0.169	0.039
-411.369	11.882	0.293	-0.222
-410.355	100.864	0.261	-0.299
-409.340	800.000	-0.034	0.125
-408.325	-34.372	-0.037	0.020
-407.311	67.204	0.116	0.117
-406.296	392.215	-0.163	-0.334
-405.282	31.069	-0.082	-0.069
-404.267	-28.593	-0.137	0.078
-403.252	-130.049	0.255	0.034
-402.238	542.638	-0.074	-0.174
-401.223	238.450	0.131	-0.214
-400.209	150.284	0.069	-0.093
-399.194	-200.000	-0.224	0.000
-398.179	83.131	0.060	0.064
-397.165	278.909	0.052	0.091
-396.150	730.714	0.019	-0.051
-395.136	-200.000	0.030	-0.145
-394.121	-200.000	0.006	-0.136
-393.106	-200.000	0.020	-0.103
-392.092	-200.000	0.036	0.184
-391.077	24.879	0.024	-0.020
-390.063	67.066	0.133	0.133
-389.048	-100.995	0.221	0.053
-388.033	-76.036	0.267	0.093
-387.019	4.625	-0.217	-0.157
-386.004	-36.748	-0.252	0.133
-384.990	-135.668	0.244	-0.029
-383.975	-15.929	-0.207	0.129
-382.960	744.607	0.107	0.284
-381.946	489.899	-0.038	0.086
-380.931	-4.660	-0.206	-0.140
-379.917	-53.896	0.101	0.045
-378.902	28.541	0.177	0.147
-377.888	800.000	-0.130	0.386
-376.873	-200.000	0.011	-0.438
-375.858	469.649	-0.139	0.307
-374.844	198.034	0.088	-0.133
-373.829	-140.893	-0.112	0.011
-372.815	275.121	-0.090	0.156
-371.800	-38.529	-0.150	0.078
-370.785	153.301	0.204	-0.275
-369.771	-59.316	-0.180	-0.076
-368.756	-200.000	0.023	-0.200
-367.742	800.000	-0.049	0.134
-366.727	-200.000	-0.066	0.351
-365.712	-137.778	-0.201	-0.022
-364.698	46.909	0.191	-0.175
-363.683	800.000	0.104	0.402
-362.669	70.379	-0.282	0.287
-361.654	188.248	-0.275	-0.404
-360.639	-9.367	-0.268	0.176
-359.625	-104.866	0.310	0.070
-358.610	88.974	-0.191	0.209
-357.596	-200.000	0.014	0.131
-356.581	-88.003	-0.166	0.049
-355.566	-200.000	0.011	-0.083
-354.552	161.705	-0.178	-0.244
-353.537	-33.705	0.298	-0.162
-352.523	800.000	-0.047	-0.199
-351.508	348.969	-0.033	0.064
-350.493	-97.879	0.058	0.015
-349.479	-93.461	-0.036	-0.010
-348.464	-11.441	-0.121	-0.078
-347.450	-200.000	-0.087	-0.412
-346.435	-0.868	-0.265	-0.184
-345.420	323.524	0.043	0.081
-344.406	-116.124	0.203	-0.037
-343.391	178.350	0.202	-0.289
-342.377	800.000	-0.009	-0.032
-341.362	86.707	-0.245	0.266
-340.348	-179.618	0.094	-0.002
-339.333	34.071	-0.172	0.148
-338.318	61.824	0.050	0.049
-337.304	132.199	0.095	-0.120
-336.289	-125.959	-0.367	-0.054
-335.275	800.000	-0.026	0.094
-334.260	-92.737	0.140	0.039
-333.245	-32.217	-0.080	-0.044
-332.231	439.381	-0.087	-0.187
-331.216	-38.388	-0.170	0.089
-330.202	-69.112	0.106	-0.040
-329.187	359.229	0.157	-0.308
-328.172	-170.867	0.231	0.008
-327.158	-34.043	-0.068	-0.037
-326.143	800.000	0.072	0.261
-325.129	491.239	0.126	0.284
-324.114	-200.000	0.001	0.330
-323.099	296.419	0.043	0.077
-322.085	-150.590	-0.361	-0.027
-321.070	261.923	-0.117	0.199
-320.056	227.393	-0.125	-0.200
-319.041	10.810	0.078	-0.059
-318.026	-142.971	0.043	-0.004
-317.012	-4.041	-0.240	0.163
-315.997	-95.155	0.430	-0.114
-314.983	800.000	-0.034	-0.123
-313.968	-200.000	0.065	0.441
-312.953	-144.176	-0.181	-0.017
-311.939	-200.000	0.027	0.158
-310.924	-73.238	0.368	0.132
-309.910	-22.257	0.178	0.106
-308.895	800.000	-0.065	0.263
-307.880	158.497	0.164	-0.224
-306.866	64.686	-0.253	0.250
-305.851	-166.476	0.189	0.008
-304.837	800.000	-0.105	-0.404
-303.822	-200.000	0.020	0.309
-302.807	435.951	-0.172	0.367
-301.793	279.714	-0.108	-0.189
-300.778	-71.392	0.291	0.107
-299.764	-120.855	0.149	0.025
-298.749	-88.484	-0.324	0.095
-297.735	242.198	0.174	-0.286
-296.720	800.000	0.119	-0.418
-295.705	-200.000	-0.023	-0.223
-294.691	-200.000	-0.023	0.276
-293.676	-153.219	-0.090	-0.006
-292.662	225.893	0.225	0.358
-291.647	-55.252	0.192	0.084
-290.632	-108.512	0.240	0.051
-289.618	-200.000	-0.005	0.179
-288.603	-118.151	0.197	0.035
-287.589	102.894	-0.183	-0.210
-286.574	-73.416	-0.249	-0.089
-285.559	-84.008	0.225	-0.070
-284.545	39.276	-0.286	-0.251
-283.530	-200.000	-0.018	-0.200
-282.516	24.418	0.146	0.119
-281.501	-54.130	-0.376	-0.168
-280.486	22.746	-0.163	0.131
-279.472	136.243	-0.150	-0.192
-278.457	-200.000	-0.046	-0.222
-277.443	26.450	-0.113	-0.092
-276.428	289.481	0.065	-0.116
-275.413	-134.758	0.263	0.031
-274.399	-200.000	-0.016	-0.152
-273.384	13.402	0.311	-0.237
-272.370	-5.999	-0.083	0.056
-271.355	800.000	-0.042	-0.120
-270.340	-88.369	-0.272	-0.080
-269.326	223.673	0.164	0.259
-268.311	243.174	0.029	-0.047
-267.297	6.521	0.099	0.072
-266.282	-75.844	-0.337	-0.117
-265.267	800.000	0.034	0.094
-264.253	13.194	0.443	-0.336
-263.238	-16.273	-0.257	-0.160
-262.224	145.790	0.089	0.117
-261.209	30.416	-0.161	0.135
-260.195	-200.000	-0.079	0.400
-259.180	-200.000	-0.072	0.330
-258.165	-7.222	0.099	0.066
-257.151	-131.057	-0.246	-0.032
-256.136	-134.723	0.380	-0.045
-255.122	-91.186	0.164	0.046
-254.107	-154.739	-0.139	0.009
-253.092	-200.000	-0.053	-0.499
-252.078	-193.448	0.101	0.001
-251.063	-31.049	-0.036	0.020
-250.049	28.663	0.429	-0.356
-249.034	790.277	0.100	-0.269
-248.019	337.242	-0.120	-0.228
-247.005	741.004	0.031	0.081
-245.990	-45.934	-0.159	0.077
-244.976	-79.743	-0.185	0.061
-243.961	-157.068	-0.362	0.022
-242.946	289.014	0.064	0.113
-241.932	103.561	0.054	-0.062
-240.917	-109.329	0.218	-0.045
-239.903	800.000	-0.081	-0.336
-238.888	-21.405	-0.181	-0.108
-237.873	-66.750	0.224	0.087
-236.859	-200.000	-0.032	0.276
-235.844	92.457	0.321	0.355
-234.830	-95.400	-0.324	-0.085
-233.815	399.605	-0.018	-0.037
-232.800	800.000	-0.078	-0.335
-231.786	800.000	0.026	-0.097
-230.771	-200.000	-0.013	0.373
-229.757	422.389	0.130	0.273
-228.742	-91.601	0.331	-0.092
-227.727	800.000	-0.069	0.204
-226.713	12.824	0.196	0.148
-225.698	-123.224	0.174	0.027
-224.684	-128.276	-0.291	-0.041
-223.669	800.000	0.212	-0.612
-222.655	-166.633	-0.100	0.004
-221.640	800.000	0.033	0.139
-220.625	73.295	-0.233	0.239
-219.611	-126.176	0.093	0.014
-218.596	800.000	0.058	0.181
-217.582	-200.000	-0.043	-0.460
-216.567	5.395	-0.232	0.167
-215.552	-52.559	0.243	-0.110
-214.538	-176.925	-0.123	0.003
-213.523	-117.195	-0.315	0.056
-212.509	-16.738	-0.233	-0.144
-211.494	-21.191	0.297	-0.178
-210.479	793.577	0.086	0.232
-209.465	245.357	-0.130	0.214
-208.450	-17.402	-0.142	-0.087
-207.436	-27.542	0.121	0.069
-206.421	-133.062	0.235	-0.029
-205.406	-95.081	0.130	-0.034
-204.392	177.580	-0.175	0.249
-203.377	-200.000	0.003	0.219
-202.363	-144.440	0.092	0.008
-201.348	404.602	-0.175	0.361
-200.333	-112.778	0.230	-0.045
-199.319	16.201	-0.191	0.147
-198.304	490.154	-0.050	0.112
-197.290	321.238	-0.199	-0.370
-196.275	-107.402	-0.288	-0.062
-195.260	132.577	0.167	0.211
-194.246	705.309	-0.135	0.348
-193.231	-74.353	-0.288	0.102
-192.217	76.855	0.238	-0.247
-191.202	6.707	-0.117	0.085
-190.187	272.476	-0.114	0.196
-189.173	195.928	0.110	0.164
-188.158	-15.104	0.151	0.095
-187.144	120.606	0.201	0.244
-186.129	-19.368	0.292	-0.177
-185.114	165.695	0.130	-0.180
-184.100	474.456	0.097	0.213
-183.085	-161.448	-0.271	-0.014
-182.071	-48.902	0.235	0.110
-181.056	-200.000	0.005	-0.322
-180.042	98.177	-0.040	0.045
-179.027	-62.831	0.278	-0.113
-178.012	-176.861	0.177	-0.004
-176.998	-23.704	0.188	0.110
-175.983	-77.450	0.068	0.023
-174.969	800.000	0.058	-0.208
-173.954	-141.770	-0.189	-0.018
-172.939	-200.000	0.110	0.000
-171.925	-123.134	0.277	0.043
-170.910	-142.523	0.137	-0.013
-169.896	-74.531	-0.262	0.092
-168.881	-200.000	-0.009	0.131
-167.866	-58.308	-0.023	0.010
-166.852	-178.371	0.415	0.009
-165.837	-59.504	0.178	-0.075
-164.823	-73.984	0.181	-0.064
-163.808	-171.256	0.088	-0.003
-162.793	800.000	0.025	0.090
-161.779	-137.488	0.095	-0.010
-160.764	-78.598	0.100	0.033
-159.750	12.921	-0.203	-0.153
-158.735	-120.238	0.139	-0.023
-157.720	65.134	0.153	0.151
-156.706	144.714	-0.275	-0.359
-155.691	800.000	-0.141	0.515
-154.677	-87.267	0.318	-0.094
-153.662	339.263	0.063	0.119
-152.647	19.336	-0.402	0.315
-151.633	-82.647	-0.157	0.050
-150.618	26.202	-0.092	0.075
-149.604	-140.290	-0.094	0.010
-148.589	-135.541	0.143	-0.017
-147.574	-47.760	-0.212	0.100
-146.560	153.839	-0.056	0.074
-145.545	-200.000	0.039	0.215
-144.531	42.590	-0.275	0.244
-143.516	327.985	-0.119	-0.222
-142.502	224.384	0.043	0.067
-141.487	-108.889	-0.276	0.057
-140.472	-102.669	-0.150	0.035
-139.458	800.000	-0.106	-0.309
-138.443	73.555	0.238	0.243
-137.429	-40.929	0.091	0.046
-136.414	315.183	0.039	-0.072
-135.399	800.000	0.046	-0.126
-134.385	30.672	-0.027	0.022
-133.370	800.000	0.030	0.114
-132.356	-42.528	0.021	0.011
-131.341	-200.000	-0.036	-0.199
-130.326	-10.773	0.241	0.155
-129.312	-74.676	-0.203	0.071
-128.297	175.318	-0.003	-0.005
-127.283	-200.000	-0.076	-0.418
-126.268	-55.834	-0.251	-0.109
-125.253	-200.000	0.023	0.133
-124.239	105.952	0.275	0.318
-123.224	-200.000	-0.011	0.314
-122.210	-200.000	0.012	0.251
-121.195	800.000	-0.009	0.038
