DTS Sentinel unit serial number:	SN413079Multiplexer serial number:	ORYXHardware model number:	OX4-SRSoftware version number:	ORYX F/W v4.00 Oryx Data Collector v3.7.2.0data status	okinstallation	princeton_trtdifferential loss correction	single-endedforward channel	channel 2reverse channel	N/Adate	2019/09/15time	08:11:35forward acquisition time	60.00reverse acquisition time	0.00gamma	496.2192k internal	0.2325k external	0.2325temperature offset calibration	1.0026default loss term (dB/km)	0.3790temperature slope calibration	1.0000multiplexer offset coefficient	1.0000multiplexer slope coefficient	1.0000fibre end	0.00T internal ref (°C)	30.98T ext. ref 1 (°C)	4.99T ext. ref 2 (°C)	27.82length (m)	temperature (°C)	Stokes	anti-Stokes-747.200	27.514	-0.051	0.043
-746.185	-142.826	-0.166	-0.016
-745.171	148.985	-0.237	0.323
-744.156	358.792	-0.087	-0.175
-743.142	800.000	-0.104	0.306
-742.127	350.384	-0.161	0.321
-741.112	92.388	0.128	0.145
-740.098	-200.000	-0.029	0.196
-739.083	20.398	-0.048	0.039
-738.069	27.703	0.198	-0.168
-737.054	-86.931	-0.109	0.034
-736.039	35.078	-0.187	-0.165
-735.025	-5.337	0.257	0.178
-734.010	-36.298	-0.293	-0.159
-732.996	-52.885	-0.210	0.098
-731.981	-7.005	-0.292	-0.200
-730.966	-158.759	-0.336	-0.019
-729.952	-37.988	-0.119	-0.064
-728.937	499.614	0.196	0.456
-727.923	166.144	-0.238	0.340
-726.908	129.639	-0.235	-0.303
-725.894	-200.000	0.010	-0.449
-724.879	771.820	-0.053	-0.146
-723.864	-200.000	-0.075	-0.442
-722.850	800.000	-0.050	-0.220
-721.835	-155.684	0.134	0.009
-720.821	800.000	0.036	-0.128
-719.806	-200.000	-0.004	-0.120
-718.791	800.000	0.040	-0.131
-717.777	-12.275	0.068	-0.045
-716.762	800.000	-0.072	-0.203
-715.748	19.423	-0.287	-0.233
-714.733	146.903	-0.220	-0.298
-713.718	-126.487	0.389	0.058
-712.704	-91.969	0.055	0.016
-711.689	612.761	0.167	-0.421
-710.675	127.080	0.083	0.107
-709.660	800.000	0.052	0.225
-708.645	481.968	0.009	-0.021
-707.631	58.622	0.061	-0.061
-706.616	-42.588	0.236	-0.121
-705.602	-115.481	-0.328	0.062
-704.587	34.345	-0.137	0.121
-703.572	800.000	0.220	0.671
-702.558	115.279	0.162	-0.199
-701.543	38.005	-0.177	-0.159
-700.529	282.004	-0.099	0.179
-699.514	-140.708	-0.267	-0.028
-698.499	465.593	-0.033	-0.073
-697.485	33.280	0.159	-0.139
-696.470	-200.000	0.019	0.090
-695.456	-200.000	-0.006	0.051
-694.441	15.964	0.205	0.163
-693.426	44.896	-0.074	-0.069
-692.412	-200.000	0.013	-0.165
-691.397	566.453	-0.088	0.216
-690.383	602.379	0.088	-0.222
-689.368	-7.517	0.087	-0.059
-688.354	109.750	-0.057	0.068
-687.339	34.566	0.049	0.043
-686.324	-200.000	-0.035	0.369
-685.310	306.429	-0.170	0.319
-684.295	33.824	0.238	0.208
-683.281	-163.877	0.342	0.016
-682.266	160.473	-0.032	-0.045
-681.251	-94.910	-0.196	-0.054
-680.237	-200.000	-0.023	0.111
-679.222	469.031	0.065	0.147
-678.208	27.799	-0.100	-0.085
-677.193	-161.441	-0.365	0.019
-676.178	422.055	-0.084	-0.182
-675.164	-11.334	0.174	-0.115
-674.149	-47.091	0.177	0.087
-673.135	341.442	0.068	-0.134
-672.120	-200.000	-0.018	0.214
-671.105	600.939	-0.026	0.065
-670.091	62.529	-0.201	0.202
-669.076	800.000	-0.046	0.166
-668.062	-109.882	-0.407	-0.086
-667.047	-170.751	-0.238	0.008
-666.032	249.543	0.105	-0.178
-665.018	-76.766	-0.059	-0.021
-664.003	-30.781	-0.132	0.075
-662.989	-94.596	0.234	-0.064
-661.974	-200.000	0.001	-0.314
-660.959	-15.901	0.212	0.135
-659.945	3.977	-0.288	-0.212
-658.930	5.962	-0.259	-0.193
-657.916	453.634	-0.048	-0.108
-656.901	-3.077	-0.220	-0.155
-655.886	-83.971	0.126	0.040
-654.872	-37.445	-0.124	-0.066
-653.857	-117.344	-0.212	0.039
-652.843	-6.818	-0.112	-0.077
-651.828	-28.721	-0.246	0.142
-650.814	-103.995	-0.123	-0.029
-649.799	-140.281	-0.309	-0.032
-648.784	-200.000	-0.018	-0.179
-647.770	153.978	0.115	-0.158
-646.755	-200.000	-0.001	0.101
-645.741	-200.000	0.001	-0.169
-644.726	121.850	0.038	0.047
-643.711	186.276	-0.105	-0.157
-642.697	800.000	-0.037	-0.153
-641.682	-137.063	0.135	0.015
-640.668	800.000	0.077	0.312
-639.653	-4.388	-0.106	0.074
-638.638	142.639	0.079	0.106
-637.624	-200.000	-0.048	-0.308
-636.609	-100.672	-0.304	0.075
-635.595	-200.000	-0.007	0.102
-634.580	135.496	0.100	-0.131
-633.565	370.278	0.037	-0.075
-632.551	-21.367	0.263	0.161
-631.536	336.058	-0.085	0.165
-630.522	-113.128	0.300	-0.059
-629.507	-200.000	-0.006	0.216
-628.492	618.426	-0.100	0.252
-627.478	-41.922	-0.281	-0.144
-626.463	83.693	0.332	-0.364
-625.449	-76.773	-0.123	0.043
-624.434	-43.709	0.084	0.043
-623.419	-200.000	-0.032	-0.166
-622.405	800.000	-0.010	-0.041
-621.390	-32.994	0.229	-0.128
-620.376	-200.000	0.004	0.224
-619.361	-23.630	0.229	0.138
-618.346	-200.000	-0.061	0.381
-617.332	-200.000	-0.013	0.198
-616.317	-69.419	-0.140	-0.054
-615.303	81.244	0.061	-0.066
-614.288	-21.711	0.240	0.147
-613.273	-19.701	0.138	-0.086
-612.259	-114.342	-0.315	0.061
-611.244	-200.000	-0.039	-0.486
-610.230	661.256	0.037	-0.097
-609.215	130.985	0.108	-0.139
-608.201	-200.000	-0.027	0.249
-607.186	800.000	-0.022	0.063
-606.171	189.758	-0.137	-0.206
-605.157	14.955	0.150	-0.118
-604.142	-42.446	0.260	-0.133
-603.128	-136.259	-0.099	-0.012
-602.113	39.456	-0.235	0.211
-601.098	154.495	-0.194	-0.267
-600.084	123.649	-0.175	-0.221
-599.069	29.355	-0.207	-0.176
-598.055	13.221	0.048	0.037
-597.040	207.398	0.053	0.083
-596.025	75.386	-0.110	-0.117
-595.011	39.018	-0.105	-0.094
-593.996	-124.409	-0.157	0.025
-592.982	-94.525	0.111	-0.030
-591.967	-72.879	-0.184	0.068
-590.952	-70.874	-0.137	-0.052
-589.938	-43.853	-0.189	-0.095
-588.923	-49.437	0.295	0.141
-587.909	30.945	-0.229	0.197
-586.894	-37.767	-0.335	0.179
-585.879	-200.000	0.025	0.348
-584.865	-177.023	-0.202	0.005
-583.850	-76.836	0.107	-0.038
-582.836	-200.000	-0.006	0.258
-581.821	148.431	-0.209	0.283
-580.806	245.426	-0.104	0.175
-579.792	159.630	-0.175	0.244
-578.777	-88.697	-0.268	-0.080
-577.763	123.840	0.113	0.142
-576.748	77.919	0.119	0.128
-575.733	-42.109	-0.243	0.125
-574.719	416.252	-0.102	-0.218
-573.704	800.000	-0.072	0.290
-572.690	-105.646	0.266	-0.060
-571.675	-112.478	-0.449	0.090
-570.661	-134.153	-0.226	0.028
-569.646	62.413	-0.069	0.070
-568.631	272.354	-0.164	-0.290
-567.617	123.948	0.074	0.094
-566.602	-63.832	-0.271	-0.111
-565.588	193.470	0.090	-0.136
-564.573	-180.227	-0.295	-0.006
-563.558	800.000	-0.103	0.327
-562.544	-80.334	-0.085	0.029
-561.529	-162.652	0.059	0.003
-560.515	10.171	-0.021	0.016
-559.500	-73.121	0.148	-0.054
-558.485	-11.547	0.051	0.034
-557.471	-200.000	0.007	0.034
-556.456	-200.000	-0.041	-0.276
-555.442	800.000	0.104	0.291
-554.427	-200.000	-0.015	0.171
-553.412	800.000	0.041	-0.170
-552.398	374.889	0.085	0.174
-551.383	-123.835	-0.265	-0.042
-550.369	-53.655	0.212	-0.097
-549.354	-200.000	-0.005	0.094
-548.339	65.777	0.133	0.135
-547.325	-102.520	-0.089	0.021
-546.310	19.442	-0.113	-0.091
-545.296	-46.138	-0.541	-0.267
-544.281	88.605	0.208	-0.231
-543.266	-200.000	0.020	-0.307
-542.252	-200.000	-0.059	0.308
-541.237	35.019	0.222	-0.194
-540.223	-16.588	0.306	-0.194
-539.208	-144.769	0.198	0.018
-538.193	-129.508	-0.203	0.028
-537.179	-197.145	-0.149	0.001
-536.164	269.822	0.084	0.148
-535.150	-126.877	-0.115	0.017
-534.135	-20.285	0.191	0.117
-533.121	800.000	0.025	0.100
-532.106	-200.000	0.032	-0.151
-531.091	-128.058	0.116	0.017
-530.077	-43.561	-0.204	-0.103
-529.062	133.354	-0.177	0.229
-528.048	87.777	0.239	0.266
-527.033	792.245	-0.040	-0.111
-526.018	-200.000	-0.009	0.212
-525.004	527.119	0.046	-0.109
-523.989	-107.689	0.290	0.063
-522.975	800.000	0.098	-0.285
-521.960	8.770	0.317	0.239
-520.945	27.612	-0.257	-0.216
-519.931	-62.490	-0.250	-0.104
-518.916	13.762	-0.262	-0.204
-517.902	274.276	0.127	0.224
-516.887	-200.000	0.036	-0.219
-515.872	800.000	0.047	-0.153
-514.858	230.497	-0.112	-0.183
-513.843	-91.547	0.173	-0.049
-512.829	-200.000	0.045	-0.331
-511.814	72.156	0.075	-0.078
-510.799	-88.737	-0.286	0.085
-509.785	-76.046	0.157	0.056
-508.770	52.643	-0.094	-0.090
-507.756	-200.000	-0.007	0.075
-506.741	512.207	0.014	0.033
-505.726	-200.000	-0.008	-0.184
-504.712	-62.418	-0.027	0.011
-503.697	102.026	0.099	-0.115
-502.683	205.332	0.167	-0.259
-501.668	-35.039	0.184	0.100
-500.653	-200.000	-0.022	0.189
-499.639	172.438	-0.163	-0.235
-498.624	-75.286	0.137	0.049
-497.610	-31.937	-0.273	-0.153
-496.595	-107.014	-0.188	0.041
-495.581	800.000	-0.038	0.132
-494.566	800.000	-0.030	-0.084
-493.551	50.388	-0.188	-0.177
-492.537	659.140	0.122	0.315
-491.522	500.685	0.070	-0.161
-490.508	800.000	0.060	-0.201
-489.493	298.192	-0.110	0.202
-488.478	-108.479	-0.085	0.018
-487.464	237.052	0.107	0.177
-486.449	-200.000	-0.020	-0.351
-485.435	-87.270	-0.155	0.047
-484.420	-134.576	-0.075	0.009
-483.405	-118.509	-0.278	0.049
-482.391	-126.608	-0.508	0.075
-481.376	-49.901	-0.184	-0.087
-480.362	-52.921	-0.229	-0.105
-479.347	362.562	-0.118	-0.238
-478.332	800.000	0.029	0.119
-477.318	-200.000	0.032	-0.165
-476.303	800.000	0.094	0.358
-475.289	-200.000	0.003	0.132
-474.274	-154.230	0.391	0.026
-473.259	800.000	-0.083	-0.255
-472.245	192.812	0.085	-0.128
-471.230	-120.800	-0.101	0.017
-470.216	33.996	0.212	-0.184
-469.201	-153.577	-0.385	-0.027
-468.186	800.000	0.117	-0.355
-467.172	4.405	0.057	0.042
-466.157	163.322	0.160	0.225
-465.143	-200.000	-0.064	-0.474
-464.128	-200.000	-0.012	0.202
-463.113	-200.000	0.038	0.273
-462.099	-133.680	-0.415	-0.052
-461.084	-97.348	0.184	-0.048
-460.070	-100.232	-0.292	-0.072
-459.055	152.125	0.067	0.091
-458.040	-85.295	-0.088	0.027
-457.026	-62.118	0.207	-0.086
-456.011	800.000	-0.029	-0.112
-454.997	188.260	0.199	-0.297
-453.982	-200.000	0.000	-0.167
-452.968	800.000	0.174	0.503
-451.953	82.946	0.062	0.067
-450.938	-200.000	0.085	-0.443
-449.924	-96.301	0.122	0.032
-448.909	633.031	0.048	-0.121
-447.895	423.991	-0.015	0.032
-446.880	-49.169	-0.299	-0.143
-445.865	-93.945	0.307	-0.084
-444.851	98.741	0.081	-0.093
-443.836	328.737	-0.172	-0.330
-442.822	119.125	-0.101	0.124
-441.807	13.816	-0.015	-0.012
-440.792	-105.688	0.178	-0.040
-439.778	-49.114	-0.026	0.013
-438.763	-5.453	0.186	0.127
-437.749	800.000	-0.084	-0.308
-436.734	125.839	-0.165	-0.207
-435.719	-143.048	0.392	-0.038
-434.705	-105.900	0.262	0.059
-433.690	-24.494	0.254	0.151
-432.676	562.626	0.004	-0.009
-431.661	-200.000	-0.047	0.229
-430.646	-85.830	-0.319	-0.098
-429.632	-200.000	0.052	-0.240
-428.617	1.513	-0.110	-0.079
-427.603	-123.997	0.305	-0.048
-426.588	73.632	-0.131	-0.137
-425.573	-42.281	-0.065	0.033
-424.559	220.442	0.129	0.207
-423.544	320.331	0.171	-0.324
-422.530	25.548	-0.088	0.073
-421.515	119.884	0.083	0.103
-420.500	67.829	0.137	0.140
-419.486	272.676	-0.087	0.152
-418.471	-200.000	-0.019	-0.278
-417.457	-76.523	0.157	-0.055
-416.442	163.949	0.071	-0.100
-415.428	-13.323	0.161	0.104
-414.413	-200.000	-0.008	0.053
-413.398	-100.798	-0.506	0.124
-412.384	113.305	-0.162	0.196
-411.369	-133.217	-0.120	-0.015
-410.355	2.879	-0.168	0.122
-409.340	-200.000	-0.014	-0.571
-408.325	-47.462	0.315	-0.152
-407.311	-34.300	-0.293	-0.160
-406.296	70.744	-0.160	0.165
-405.282	-47.770	-0.069	0.033
-404.267	395.169	0.103	0.215
-403.252	800.000	0.067	-0.237
-402.238	-78.612	0.461	0.157
-401.223	-200.000	-0.019	-0.124
-400.209	17.449	0.078	0.062
-399.194	-58.995	-0.170	-0.073
-398.179	-52.050	-0.200	0.093
-397.165	74.450	-0.210	-0.220
-396.150	20.025	0.166	-0.134
-395.136	71.727	0.097	-0.101
-394.121	-73.999	-0.203	0.073
-393.106	114.962	0.208	-0.253
-392.092	-200.000	0.005	0.260
-391.077	189.408	0.141	0.210
-390.063	254.117	-0.130	0.222
-389.048	49.117	0.158	-0.148
-388.033	-158.369	-0.156	-0.009
-387.019	-52.226	0.106	0.049
-386.004	66.243	0.189	0.191
-384.990	-27.889	-0.139	0.080
-383.975	-180.507	0.153	0.003
-382.960	2.569	0.115	-0.083
-381.946	-200.000	0.012	0.094
-380.931	-200.000	0.027	0.147
-379.917	119.225	0.157	0.194
-378.902	292.926	0.181	-0.328
-377.888	-58.286	0.235	0.102
-376.873	-200.000	-0.070	-0.368
-375.858	62.719	0.225	-0.223
-374.844	-52.385	0.116	0.054
-373.829	-30.326	0.220	0.124
-372.815	-72.612	-0.290	-0.106
-371.800	123.104	-0.070	0.087
-370.785	-200.000	-0.038	0.295
-369.771	800.000	0.050	-0.204
-368.756	167.203	0.135	0.190
-367.742	100.352	-0.258	0.297
-366.727	-123.353	0.364	-0.058
-365.712	31.804	-0.338	-0.290
-364.698	-70.143	0.059	0.022
-363.683	800.000	0.022	0.087
-362.669	-200.000	0.014	-0.167
-361.654	129.132	-0.362	0.459
-360.639	-200.000	-0.042	-0.188
-359.625	-200.000	-0.011	-0.066
-358.610	-49.873	-0.132	0.062
-357.596	-89.807	-0.095	-0.028
-356.581	-174.546	0.238	-0.007
-355.566	126.464	0.224	0.282
-354.552	-77.072	-0.049	0.017
-353.537	-18.796	-0.216	0.134
-352.523	-126.810	0.343	0.050
-351.508	-10.214	0.268	0.177
-350.493	-144.508	0.028	-0.003
-349.479	-56.531	-0.103	0.045
-348.464	-200.000	-0.089	0.398
-347.450	20.197	-0.164	-0.132
-346.435	-169.703	-0.196	0.007
-345.420	-200.000	-0.001	0.295
-344.406	-105.370	0.409	0.092
-343.391	-130.891	-0.265	-0.035
-342.377	-101.331	0.220	0.053
-341.362	-123.739	0.323	-0.051
-340.348	-200.000	-0.016	-0.351
-339.333	800.000	-0.078	-0.222
-338.318	-112.757	0.414	-0.082
-337.304	-200.000	0.024	0.143
-336.289	191.677	0.229	-0.343
-335.275	-35.796	0.207	0.111
-334.260	-200.000	-0.036	-0.280
-333.245	93.199	-0.237	0.266
-332.231	800.000	-0.034	-0.098
-331.216	-200.000	0.050	0.220
-330.202	501.565	-0.175	0.402
-329.187	-200.000	-0.015	-0.273
-328.172	-66.546	-0.151	0.059
-327.158	-200.000	0.022	-0.188
-326.143	-200.000	-0.009	0.232
-325.129	-165.402	-0.229	0.010
-324.114	36.845	0.151	-0.132
-323.099	90.875	-0.062	-0.069
-322.085	86.757	0.264	-0.289
-321.070	800.000	0.030	-0.122
-320.056	39.119	0.237	0.210
-319.041	-0.740	0.340	-0.239
-318.026	-200.000	-0.002	-0.295
-317.012	267.135	0.115	0.199
-315.997	-200.000	0.032	-0.183
-314.983	800.000	0.065	0.205
-313.968	302.898	-0.118	-0.217
-312.953	19.988	-0.084	0.068
-311.939	-200.000	-0.040	0.194
-310.924	800.000	0.054	-0.178
-309.910	800.000	0.085	-0.239
-308.895	82.315	0.354	-0.381
-307.880	164.284	0.148	0.206
-306.866	-200.000	0.008	0.158
-305.851	-11.030	0.119	-0.078
-304.837	698.452	0.013	0.033
-303.822	800.000	-0.106	0.354
-302.807	-200.000	0.000	0.041
-301.793	-106.408	0.238	-0.053
-300.778	233.424	-0.219	0.358
-299.764	-153.423	-0.312	-0.021
-298.749	227.662	0.109	-0.177
-297.735	45.548	0.061	-0.055
-296.720	-133.390	0.241	0.030
-295.705	66.581	0.063	0.063
-294.691	574.754	0.087	-0.211
-293.676	-58.842	0.159	-0.068
-292.662	4.688	-0.074	0.054
-291.647	499.454	0.168	0.384
-290.632	11.738	-0.238	0.181
-289.618	725.123	0.041	0.108
-288.603	-77.349	-0.175	-0.060
-287.589	-200.000	-0.015	0.130
-286.574	-171.141	0.187	0.006
-285.559	-125.664	0.134	0.020
-284.545	-47.002	0.211	0.102
-283.530	104.300	-0.153	-0.179
-282.516	800.000	-0.059	-0.192
-281.501	800.000	-0.028	0.099
-280.486	-29.955	0.196	0.110
-279.472	800.000	-0.092	-0.364
-278.457	583.662	0.131	-0.318
-277.443	-106.165	-0.485	-0.108
-276.428	800.000	-0.010	0.042
-275.413	-115.642	-0.363	0.067
-274.399	170.638	-0.196	0.278
-273.384	268.209	0.251	0.435
-272.370	79.309	0.185	0.197
-271.355	554.290	0.110	0.262
-270.340	800.000	-0.109	0.319
-269.326	-27.228	0.031	-0.018
-268.311	-145.305	-0.352	0.032
-267.297	33.313	-0.087	-0.075
-266.282	-2.898	0.219	-0.152
-265.267	-103.850	-0.271	0.063
-264.253	-99.882	-0.184	0.046
-263.238	-17.591	0.067	-0.042
-262.224	-200.000	-0.023	-0.154
-261.209	-87.562	0.250	0.075
-260.195	-81.394	0.059	-0.019
-259.180	-10.146	0.338	0.222
-258.165	-200.000	0.008	-0.078
-257.151	-11.746	0.095	-0.062
-256.136	-200.000	-0.017	0.142
-255.122	164.170	0.162	0.226
-254.107	261.612	-0.110	0.189
-253.092	-140.739	0.216	-0.022
-252.078	-116.909	0.055	-0.010
-251.063	800.000	-0.019	0.070
-250.049	800.000	0.031	0.089
-249.034	-65.310	0.191	0.076
-248.019	-137.055	0.038	0.004
-247.005	18.359	-0.209	0.165
-245.990	-200.000	-0.018	-0.211
-244.976	72.270	-0.027	-0.027
-243.961	-105.965	0.123	0.027
-242.946	325.620	-0.126	0.238
-241.932	16.108	-0.208	0.162
-240.917	-38.958	0.244	0.127
-239.903	239.758	0.127	-0.210
-238.888	-160.742	-0.106	-0.006
-237.873	-42.118	0.141	0.071
-236.859	189.835	-0.127	0.189
-235.844	-32.511	-0.263	0.145
-234.830	-126.191	0.131	0.019
-233.815	295.838	-0.170	0.307
-232.800	532.512	-0.049	-0.114
-231.786	800.000	-0.162	-0.446
-230.771	32.149	0.172	-0.147
-229.757	800.000	-0.071	-0.284
-228.742	-50.186	0.088	-0.041
-227.727	36.376	-0.104	0.091
-226.713	51.230	-0.105	0.099
-225.698	800.000	-0.066	0.256
-224.684	-152.657	0.146	0.010
-223.669	-183.306	-0.036	0.001
-222.655	800.000	-0.093	-0.266
-221.640	-32.050	-0.376	0.208
-220.625	800.000	0.022	0.061
-219.611	800.000	0.100	-0.357
-218.596	-125.317	-0.537	-0.081
-217.582	-59.952	-0.259	0.109
-216.567	208.128	-0.180	0.277
-215.552	-26.604	0.275	0.159
-214.538	46.739	0.039	-0.036
-213.523	-103.489	0.290	0.067
-212.509	48.428	-0.101	0.093
-211.494	69.386	-0.111	-0.113
-210.479	270.407	-0.255	0.443
-209.465	-49.268	-0.213	-0.100
-208.450	-86.075	0.347	0.106
-207.436	229.991	0.123	0.199
-206.421	-135.879	-0.376	0.044
-205.406	800.000	-0.038	-0.109
-204.392	-154.007	0.133	0.009
-203.377	-87.108	0.173	0.052
-202.363	22.050	-0.293	-0.236
-201.348	588.923	-0.177	-0.432
-200.333	-200.000	0.015	0.230
-199.319	-55.350	-0.029	-0.013
-198.304	80.747	-0.047	0.050
-197.290	-170.669	0.162	0.006
-196.275	-200.000	0.020	-0.148
-195.260	412.612	-0.090	-0.189
-194.246	-200.000	0.020	0.213
-193.231	-200.000	-0.038	-0.168
-192.217	-100.155	0.244	0.060
-191.202	-31.067	0.094	0.052
-190.187	-122.151	-0.196	-0.032
-189.173	-152.289	-0.032	0.002
-188.158	-200.000	-0.006	0.133
-187.144	-138.228	-0.125	0.014
-186.129	-125.239	0.161	-0.024
-185.114	220.861	0.048	-0.076
-184.100	-200.000	-0.014	0.271
-183.085	-62.279	-0.151	0.062
-182.071	-40.908	0.308	0.157
-181.056	420.484	0.092	-0.194
-180.042	-102.405	0.143	0.034
-179.027	417.486	0.134	-0.283
-178.012	-103.404	0.303	0.070
-176.998	800.000	0.038	-0.120
-175.983	-193.272	-0.076	0.001
-174.969	328.489	0.137	0.260
-173.954	-120.067	-0.180	0.031
-172.939	-159.198	0.275	-0.015
-171.925	-101.637	-0.028	-0.007
-170.910	-53.757	0.287	-0.129
-169.896	566.898	0.148	-0.356
-168.881	800.000	0.058	0.225
-167.866	-88.309	-0.214	0.063
-166.852	377.205	0.108	0.218
-165.837	-56.174	-0.052	-0.023
-164.823	-9.990	0.230	-0.151
-163.808	-67.416	-0.234	0.090
-162.793	514.385	-0.157	-0.361
-161.779	71.259	0.113	-0.116
-160.764	-75.829	-0.491	0.172
-159.750	-38.774	0.306	-0.159
-158.735	14.598	0.126	0.097
-157.720	-140.740	-0.236	-0.024
-156.706	-200.000	0.039	0.358
-155.691	800.000	-0.067	-0.207
-154.677	-128.169	0.350	-0.049
-153.662	-156.774	0.177	-0.011
-152.647	0.853	0.054	0.038
-151.633	143.303	-0.093	-0.121
-150.618	109.051	0.171	-0.202
-149.604	-200.000	0.029	-0.347
-148.589	-76.761	0.223	0.077
-147.574	11.801	0.203	-0.153
-146.560	-200.000	-0.008	-0.270
-145.545	-20.336	-0.355	-0.215
-144.531	161.024	-0.077	-0.106
-143.516	-26.213	0.312	-0.180
-142.502	-117.709	-0.471	0.084
-141.487	112.743	0.073	-0.088
-140.472	163.074	-0.061	0.085
-139.458	-50.028	-0.330	0.154
-138.443	490.850	-0.032	0.072
-137.429	10.604	-0.019	0.014
-136.414	-16.848	-0.153	-0.095
-135.399	511.412	0.129	0.295
-134.385	-93.310	0.076	-0.021
-133.370	-94.631	0.397	-0.106
-132.356	130.996	-0.110	-0.140
-131.341	-32.811	0.064	0.035
-130.326	-82.876	-0.073	-0.023
-129.312	-168.071	0.265	-0.010
-128.297	-14.571	-0.105	-0.066
-127.283	-1.419	0.235	0.163
-126.268	-84.531	0.346	-0.108
-125.253	-200.000	-0.004	-0.099
-124.239	-36.471	-0.168	0.089
-123.224	601.567	-0.079	0.193
-122.210	800.000	-0.021	-0.077
-121.195	-54.568	0.055	0.024
