DTS Sentinel unit serial number:	SN413079Multiplexer serial number:	ORYXHardware model number:	OX4-SRSoftware version number:	ORYX F/W v4.00 Oryx Data Collector v3.7.2.0data status	okinstallation	princeton_trtdifferential loss correction	single-endedforward channel	channel 2reverse channel	N/Adate	2019/09/16time	17:59:34forward acquisition time	60.00reverse acquisition time	0.00gamma	496.2192k internal	0.2315k external	0.2315temperature offset calibration	0.9946default loss term (dB/km)	0.3790temperature slope calibration	1.0000multiplexer offset coefficient	1.0000multiplexer slope coefficient	1.0000fibre end	0.00T internal ref (°C)	37.67T ext. ref 1 (°C)	15.65T ext. ref 2 (°C)	31.41length (m)	temperature (°C)	Stokes	anti-Stokes-747.200	-16.903	0.089	0.057
-746.185	173.879	-0.215	0.314
-745.171	-153.632	-0.264	-0.018
-744.156	241.981	0.270	0.458
-743.142	-134.776	0.480	-0.059
-742.127	-76.709	-0.219	0.078
-741.112	-59.544	0.163	-0.071
-740.098	-170.983	0.089	-0.003
-739.083	430.243	0.084	-0.185
-738.069	-17.148	-0.102	-0.065
-737.054	-200.000	0.022	-0.294
-736.039	50.427	0.103	-0.098
-735.025	-43.009	0.146	0.075
-734.010	800.000	0.137	-0.500
-732.996	23.734	-0.264	-0.221
-731.981	-60.976	0.088	-0.038
-730.966	800.000	0.077	-0.234
-729.952	42.816	-0.040	0.037
-728.937	165.986	-0.133	-0.190
-727.923	643.361	-0.100	-0.259
-726.908	33.337	-0.175	-0.153
-725.894	-200.000	-0.035	-0.374
-724.879	-110.241	-0.187	-0.040
-723.864	248.093	0.058	0.099
-722.850	237.543	0.155	-0.260
-721.835	-115.746	-0.245	-0.047
-720.821	-40.473	-0.132	-0.069
-719.806	-186.497	0.171	-0.002
-718.791	30.489	-0.320	0.277
-717.777	800.000	-0.063	-0.221
-716.762	-200.000	-0.066	-0.317
-715.748	484.261	0.032	-0.074
-714.733	-94.681	-0.176	-0.048
-713.718	-70.798	-0.261	-0.100
-712.704	22.961	0.294	-0.244
-711.689	800.000	0.032	0.129
-710.675	175.606	-0.180	0.264
-709.660	0.106	-0.223	-0.161
-708.645	800.000	0.039	0.130
-707.631	-185.435	0.169	-0.003
-706.616	78.552	0.211	0.228
-705.602	171.527	0.147	-0.214
-704.587	203.092	0.064	0.100
-703.572	-45.492	0.343	0.172
-702.558	800.000	0.034	-0.105
-701.543	800.000	0.127	-0.357
-700.529	36.087	-0.083	0.074
-699.514	259.809	-0.270	-0.471
-698.499	173.139	-0.143	-0.208
-697.485	19.873	-0.202	0.164
-696.470	-100.775	0.151	0.038
-695.456	-5.785	-0.295	-0.204
-694.441	800.000	0.098	-0.338
-693.426	-141.371	0.170	0.017
-692.412	92.654	-0.076	0.087
-691.397	-78.258	0.230	-0.080
-690.383	277.482	-0.102	-0.183
-689.368	594.423	-0.044	0.110
-688.354	124.874	-0.081	0.103
-687.339	215.019	-0.109	0.175
-686.324	-200.000	0.023	-0.262
-685.310	-200.000	0.031	-0.187
-684.295	-81.581	0.144	0.048
-683.281	-200.000	0.006	-0.076
-682.266	-190.610	0.498	-0.005
-681.251	-200.000	-0.270	0.000
-680.237	560.185	-0.028	0.068
-679.222	-200.000	0.004	-0.093
-678.208	686.787	0.086	-0.226
-677.193	10.769	-0.184	-0.142
-676.178	31.879	-0.082	0.071
-675.164	29.758	0.095	-0.082
-674.149	-154.398	-0.182	-0.012
-673.135	73.875	0.188	-0.200
-672.120	-17.602	-0.166	0.106
-671.105	-200.000	-0.036	-0.384
-670.091	112.553	-0.129	-0.157
-669.076	43.897	-0.096	-0.089
-668.062	167.626	-0.043	-0.062
-667.047	-93.177	-0.185	0.052
-666.032	-200.000	-0.080	0.398
-665.018	175.392	0.114	0.166
-664.003	-115.387	0.095	0.018
-662.989	-132.891	0.202	-0.026
-661.974	-25.199	0.128	-0.076
-660.959	8.557	0.176	-0.134
-659.945	395.914	-0.009	0.019
-658.930	180.461	0.125	-0.185
-657.916	-74.473	-0.296	-0.108
-656.901	-192.838	-0.329	0.003
-655.886	-200.000	-0.044	-0.218
-654.872	-87.788	-0.133	-0.040
-653.857	489.388	-0.086	0.199
-652.843	73.192	-0.203	0.214
-651.828	800.000	-0.078	-0.241
-650.814	70.104	-0.107	-0.112
-649.799	-137.441	-0.292	0.033
-648.784	-88.555	0.284	-0.086
-647.770	800.000	-0.033	-0.123
-646.755	207.807	-0.159	-0.251
-645.741	-200.000	0.057	-0.467
-644.726	800.000	-0.079	-0.316
-643.711	-99.176	0.122	0.031
-642.697	173.196	-0.203	0.295
-641.682	-7.885	0.155	-0.106
-640.668	156.531	0.047	0.066
-639.653	-58.212	-0.173	0.076
-638.638	800.000	-0.058	0.255
-637.624	-54.976	0.075	0.034
-636.609	61.137	0.256	0.256
-635.595	800.000	-0.025	-0.078
-634.580	-158.265	0.155	0.009
-633.565	-200.000	0.017	-0.403
-632.551	800.000	-0.027	0.100
-631.536	-164.731	0.198	0.009
-630.522	-14.054	-0.186	-0.121
-629.507	-97.489	0.118	-0.031
-628.492	-200.000	0.014	0.175
-627.478	-16.790	-0.183	-0.117
-626.463	-74.416	-0.242	-0.088
-625.449	-200.000	0.002	0.500
-624.434	-30.372	-0.162	-0.093
-623.419	26.410	-0.173	-0.146
-622.405	-0.358	-0.119	0.085
-621.390	-200.000	-0.024	0.115
-620.376	168.554	-0.043	-0.062
-619.361	-200.000	-0.015	0.213
-618.346	-116.671	0.073	0.014
-617.332	86.608	-0.105	-0.117
-616.317	459.782	0.117	-0.264
-615.303	-89.494	-0.180	-0.053
-614.288	-200.000	-0.013	0.196
-613.273	90.830	0.054	0.061
-612.259	-20.784	-0.178	0.110
-611.244	-50.017	0.191	-0.091
-610.230	800.000	0.012	0.039
-609.215	800.000	0.023	-0.069
-608.201	-200.000	-0.031	-0.158
-607.186	527.715	-0.067	0.160
-606.171	299.760	-0.149	0.277
-605.157	8.122	0.055	-0.042
-604.142	198.688	-0.035	-0.054
-603.128	-28.452	0.301	-0.175
-602.113	-8.696	-0.171	-0.115
-601.098	287.048	-0.101	-0.183
-600.084	-200.000	-0.009	-0.286
-599.069	800.000	0.022	-0.063
-598.055	-87.970	0.197	0.060
-597.040	172.990	0.173	0.251
-596.025	-77.665	-0.276	-0.096
-595.011	-168.086	0.334	-0.013
-593.996	-79.535	-0.165	0.056
-592.982	-49.546	0.341	-0.164
-591.967	243.573	-0.010	-0.017
-590.952	151.638	0.106	-0.145
-589.938	-84.212	0.155	-0.049
-588.923	20.774	0.145	0.118
-587.909	625.530	0.075	-0.189
-586.894	-97.023	0.145	-0.038
-585.879	800.000	-0.085	-0.265
-584.865	138.486	0.062	-0.083
-583.850	-200.000	-0.012	-0.333
-582.836	800.000	0.095	0.346
-581.821	276.786	-0.042	0.075
-580.806	209.790	0.147	-0.233
-579.792	-99.017	0.336	-0.086
-578.777	108.688	0.074	0.089
-577.763	-0.766	-0.324	-0.231
-576.748	166.060	-0.166	0.237
-575.733	800.000	0.087	0.282
-574.719	-149.488	0.031	-0.002
-573.704	-200.000	0.001	-0.071
-572.690	-200.000	-0.018	-0.134
-571.675	90.975	0.172	0.194
-570.661	297.636	-0.135	-0.249
-569.646	34.701	0.317	-0.279
-568.631	-158.251	0.193	0.011
-567.617	10.508	-0.262	0.201
-566.602	551.340	0.083	0.201
-565.588	251.803	0.107	0.183
-564.573	800.000	-0.116	-0.371
-563.558	155.948	-0.188	-0.260
-562.544	-141.691	-0.268	0.027
-561.529	-43.524	0.168	0.085
-560.515	-124.446	0.162	0.025
-559.500	-55.042	0.243	-0.110
-558.485	-52.141	0.038	-0.018
-557.471	412.927	-0.078	0.168
-556.456	-155.746	0.259	-0.017
-555.442	800.000	0.045	-0.127
-554.427	-200.000	-0.005	0.102
-553.412	7.963	0.059	-0.045
-552.398	103.302	-0.056	-0.066
-551.383	-5.910	-0.407	-0.280
-550.369	-171.311	0.037	-0.001
-549.354	82.313	-0.007	-0.008
-548.339	328.784	0.219	-0.424
-547.325	-164.151	-0.212	0.010
-546.310	3.452	-0.119	0.087
-545.296	95.427	0.131	0.150
-544.281	168.129	-0.028	0.040
-543.266	-129.582	-0.280	0.039
-542.252	-200.000	-0.003	0.096
-541.237	-143.210	-0.160	-0.016
-540.223	735.640	-0.081	0.219
-539.208	-53.445	0.206	-0.095
-538.193	-200.000	-0.005	0.139
-537.179	157.168	-0.326	0.452
-536.164	72.686	-0.296	-0.311
-535.150	216.560	-0.104	0.166
-534.135	379.281	-0.058	0.118
-533.121	198.057	-0.034	0.052
-532.106	-200.000	-0.008	-0.096
-531.091	-126.884	-0.157	-0.023
-530.077	-89.131	-0.176	-0.052
-529.062	76.964	0.021	-0.023
-528.048	25.109	0.061	-0.051
-527.033	-42.879	-0.095	-0.049
-526.018	671.415	0.085	-0.220
-525.004	6.833	-0.090	-0.067
-523.989	-200.000	0.038	-0.217
-522.975	-200.000	-0.009	0.119
-521.960	-86.614	-0.242	-0.074
-520.945	73.453	0.134	0.141
-519.931	-200.000	-0.008	0.140
-518.916	-200.000	0.024	0.183
-517.902	228.637	0.177	0.290
-516.887	-41.308	-0.191	-0.099
-515.872	-142.674	-0.098	0.010
-514.858	-97.100	0.113	-0.030
-513.843	-200.000	0.010	0.071
-512.829	664.297	-0.097	-0.252
-511.814	136.996	-0.047	0.062
-510.799	-111.269	0.274	0.056
-509.785	-200.000	-0.089	-0.522
-508.770	183.492	-0.146	0.217
-507.756	-200.000	-0.014	0.239
-506.741	76.851	-0.178	-0.189
-505.726	800.000	-0.076	0.240
-504.712	142.987	0.146	0.195
-503.697	311.000	-0.195	0.366
-502.683	-130.268	-0.128	-0.017
-501.668	-22.520	-0.113	0.069
-500.653	-2.870	-0.242	-0.170
-499.639	-148.020	0.079	-0.007
-498.624	41.738	-0.137	0.125
-497.610	800.000	0.028	-0.083
-496.595	-42.427	0.137	0.070
-495.581	-200.000	-0.001	-0.118
-494.566	-100.144	0.063	0.016
-493.551	-81.431	-0.298	-0.099
-492.537	209.112	-0.039	-0.061
-491.522	-200.000	0.023	-0.138
-490.508	196.907	0.090	0.138
-489.493	716.441	-0.083	0.221
-488.478	29.047	-0.208	0.177
-487.464	800.000	-0.137	0.403
-486.449	125.005	-0.261	-0.330
-485.435	303.194	0.144	-0.267
-484.420	-200.000	0.007	0.137
-483.405	-74.814	-0.244	0.088
-482.391	158.518	0.080	-0.111
-481.376	282.981	0.109	0.196
-480.362	-101.673	-0.152	-0.037
-479.347	298.708	-0.067	-0.123
-478.332	-200.000	-0.025	0.171
-477.318	-100.491	0.232	0.058
-476.303	69.842	-0.186	-0.192
-475.289	-148.527	0.278	0.023
-474.274	577.794	0.010	-0.024
-473.259	109.874	0.104	-0.125
-472.245	229.105	0.060	0.097
-471.230	-200.000	0.020	-0.151
-470.216	397.103	-0.149	-0.312
-469.201	-8.770	-0.103	0.069
-468.186	-73.727	0.275	0.100
-467.172	-171.239	0.200	0.007
-466.157	79.764	0.319	0.343
-465.143	-81.798	0.183	0.060
-464.128	-200.000	-0.029	-0.402
-463.113	84.856	-0.227	-0.250
-462.099	-38.297	-0.237	0.126
-461.084	514.680	0.065	-0.151
-460.070	191.048	0.146	0.220
-459.055	-21.415	0.169	0.103
-458.040	800.000	0.042	0.122
-457.026	141.747	0.123	0.164
-456.011	-35.660	-0.222	0.121
-454.997	445.808	-0.087	-0.192
-453.982	-58.200	0.103	0.045
-452.968	-29.012	0.199	-0.115
-451.953	800.000	-0.064	-0.229
-450.938	-70.235	-0.151	0.057
-449.924	99.102	0.235	0.272
-448.909	330.165	-0.102	-0.197
-447.895	-50.077	0.194	-0.092
-446.880	83.179	0.167	-0.182
-445.865	-44.428	-0.558	0.280
-444.851	89.000	-0.088	-0.099
-443.836	-82.022	-0.135	0.044
-442.822	337.629	0.057	0.112
-441.807	13.106	-0.177	0.137
-440.792	-51.016	-0.237	0.111
-439.778	7.336	0.184	-0.137
-438.763	48.362	-0.301	0.283
-437.749	-1.473	0.238	0.168
-436.734	157.229	0.207	-0.287
-435.719	-102.593	0.236	-0.056
-434.705	108.563	0.182	-0.217
-433.690	3.493	0.230	0.167
-432.676	-200.000	-0.049	-0.283
-431.661	800.000	0.077	-0.264
-430.646	242.169	0.028	-0.046
-429.632	-200.000	0.007	-0.379
-428.617	599.683	0.104	0.259
-427.603	-200.000	0.021	-0.200
-426.588	-200.000	-0.017	-0.090
-425.573	-66.468	0.319	-0.127
-424.559	-200.000	-0.015	-0.231
-423.544	348.001	-0.062	-0.122
-422.530	800.000	0.029	-0.091
-421.515	-127.691	-0.346	-0.050
-420.500	-18.223	0.135	0.084
-419.486	-145.268	0.362	-0.033
-418.471	58.752	0.378	0.371
-417.457	-99.421	0.123	0.031
-416.442	173.949	-0.181	0.261
-415.428	-123.194	0.255	0.041
-414.413	43.649	0.148	-0.135
-413.398	-57.955	-0.183	-0.080
-412.384	285.353	-0.180	0.324
-411.369	-143.061	0.344	0.033
-410.355	89.956	-0.190	-0.212
-409.340	-44.916	0.389	0.194
-408.325	-3.107	-0.253	-0.176
-407.311	777.620	0.056	0.154
-406.296	-86.850	-0.161	0.049
-405.282	27.881	0.211	0.178
-404.267	-200.000	-0.020	0.124
-403.252	-20.563	-0.020	0.012
-402.238	-185.473	0.093	0.001
-401.223	-26.221	-0.296	0.174
-400.209	93.302	-0.236	-0.267
-399.194	800.000	0.016	-0.051
-398.179	-19.288	0.370	0.229
-397.165	-200.000	0.015	0.260
-396.150	-161.667	-0.126	-0.006
-395.136	-135.336	-0.093	-0.011
-394.121	52.098	-0.211	-0.201
-393.106	-147.863	0.328	0.027
-392.092	-51.600	-0.256	-0.119
-391.077	-105.223	-0.031	0.007
-390.063	-17.989	-0.182	-0.114
-389.048	-200.000	-0.022	0.251
-388.033	-200.000	-0.004	0.211
-387.019	-200.000	0.033	-0.233
-386.004	800.000	0.029	0.092
-384.990	-151.894	0.404	0.030
-383.975	-149.440	0.220	-0.017
-382.960	-115.968	-0.308	0.057
-381.946	466.693	-0.067	-0.151
-380.931	-104.773	-0.085	0.020
-379.917	-200.000	-0.021	-0.142
-378.902	-135.135	0.225	0.027
-377.888	-113.730	-0.423	-0.082
-376.873	-49.703	-0.105	0.050
-375.858	200.126	-0.084	0.129
-374.844	85.150	-0.234	-0.256
-373.829	-99.758	0.185	-0.046
-372.815	-99.600	-0.159	0.040
-371.800	-104.020	0.179	-0.042
-370.785	5.267	0.081	0.060
-369.771	70.557	-0.129	-0.133
-368.756	-200.000	-0.023	-0.166
-367.742	593.484	0.124	0.306
-366.727	-200.000	0.001	0.162
-365.712	124.437	-0.112	0.140
-364.698	800.000	-0.054	-0.209
-363.683	-44.787	0.370	-0.184
-362.669	37.643	0.304	-0.269
-361.654	-76.989	-0.154	-0.054
-360.639	-110.821	-0.260	-0.053
-359.625	362.199	0.075	-0.151
-358.610	-72.423	-0.212	-0.078
-357.596	26.015	0.117	-0.097
-356.581	-127.957	0.066	0.009
-355.566	-157.369	-0.275	0.017
-354.552	-67.753	-0.097	0.038
-353.537	3.082	-0.159	-0.115
-352.523	-200.000	0.050	0.351
-351.508	-72.272	0.350	-0.129
-350.493	336.822	0.139	-0.270
-349.479	750.757	0.077	-0.206
-348.464	-200.000	0.028	0.179
-347.450	800.000	0.018	0.059
-346.435	-119.311	-0.358	-0.062
-345.420	435.073	-0.151	0.328
-344.406	800.000	-0.074	0.256
-343.391	-200.000	0.009	-0.335
-342.377	-200.000	-0.003	-0.026
-341.362	352.587	0.024	-0.047
-340.348	800.000	-0.090	-0.262
-339.333	-125.188	-0.255	-0.039
-338.318	550.876	-0.115	0.275
-337.304	-73.668	0.275	-0.100
-336.289	800.000	0.102	-0.352
-335.275	346.272	0.067	-0.131
-334.260	-200.000	-0.087	0.494
-333.245	-113.249	0.371	-0.073
-332.231	61.602	0.043	-0.043
-331.216	151.805	-0.114	-0.155
-330.202	2.966	-0.099	-0.071
-329.187	580.969	-0.061	0.150
-328.172	741.309	0.024	-0.063
-327.158	-172.216	0.156	0.005
-326.143	-72.968	-0.093	0.034
-325.129	222.029	0.051	0.082
-324.114	-117.219	-0.355	0.064
-323.099	106.115	0.193	0.228
-322.085	84.844	-0.102	0.111
-321.070	165.330	-0.246	0.347
-320.056	-87.776	-0.235	0.071
-319.041	-137.196	0.227	-0.026
-318.026	-8.029	0.211	-0.142
-317.012	-200.000	-0.000	0.101
-315.997	33.784	-0.150	0.130
-314.983	88.696	-0.148	0.164
-313.968	195.058	0.098	0.149
-312.953	-176.389	-0.375	-0.010
-311.939	-86.999	0.449	-0.136
-310.924	-60.804	-0.012	-0.005
-309.910	300.000	0.132	-0.242
-308.895	-200.000	-0.003	-0.146
-307.880	577.670	0.040	0.098
-306.866	-95.793	-0.221	0.059
-305.851	-178.911	-0.136	-0.003
-304.837	-200.000	0.003	0.221
-303.822	800.000	0.068	0.292
-302.807	-141.895	0.297	0.030
-301.793	49.265	-0.011	0.010
-300.778	-168.510	-0.232	-0.009
-299.764	-94.669	-0.053	0.014
-298.749	800.000	0.070	-0.218
-297.735	-131.846	-0.376	0.049
-296.720	628.398	-0.075	0.188
-295.705	-134.515	-0.034	-0.004
-294.691	-94.783	0.203	0.055
-293.676	-200.000	-0.071	0.516
-292.662	376.387	-0.133	0.270
-291.647	800.000	-0.041	0.164
-290.632	800.000	-0.071	0.209
-289.618	324.409	-0.085	0.162
-288.603	-92.086	-0.065	-0.018
-287.589	-141.354	-0.133	-0.013
-286.574	85.695	0.184	-0.201
-285.559	54.369	-0.042	0.040
-284.545	-200.000	-0.010	0.156
-283.530	-166.509	-0.109	-0.005
-282.516	20.213	-0.052	0.041
-281.501	-107.362	-0.283	-0.062
-280.486	396.585	0.052	0.108
-279.472	-118.749	0.094	-0.017
-278.457	213.523	-0.172	-0.271
-277.443	-2.011	-0.253	-0.177
-276.428	800.000	-0.109	-0.300
-275.413	642.584	0.035	-0.088
-274.399	323.091	-0.064	0.121
-273.384	23.744	0.074	-0.061
-272.370	219.238	0.023	-0.036
-271.355	-200.000	-0.019	0.133
-270.340	800.000	-0.055	-0.154
-269.326	-29.675	0.262	-0.149
-268.311	721.102	-0.081	-0.215
-267.297	136.182	0.096	-0.125
-266.282	125.530	0.218	0.273
-265.267	226.496	-0.071	-0.114
-264.253	90.545	-0.179	0.199
-263.238	-69.468	0.118	-0.045
-262.224	122.812	0.108	0.135
-261.209	18.740	-0.231	-0.184
-260.195	-38.875	0.136	-0.071
-259.180	-123.616	0.288	-0.045
-258.165	-16.485	-0.231	0.145
-257.151	19.937	0.141	0.113
-256.136	57.258	-0.082	0.079
-255.122	-146.238	0.455	-0.040
-254.107	338.353	0.074	-0.143
-253.092	-111.590	-0.168	0.034
-252.078	-170.728	0.253	-0.009
-251.063	-183.252	0.158	-0.003
-250.049	243.666	0.165	0.275
-249.034	800.000	-0.203	-0.621
-248.019	34.958	-0.144	0.125
-247.005	-8.811	0.219	0.146
-245.990	-2.833	0.128	-0.089
-244.976	81.762	0.203	-0.219
-243.961	530.993	0.040	0.094
-242.946	-109.008	0.130	0.028
-241.932	-200.000	-0.078	0.357
-240.917	617.310	0.083	-0.206
-239.903	49.246	0.096	-0.089
-238.888	800.000	0.078	0.215
-237.873	-200.000	-0.020	0.312
-236.859	800.000	-0.009	-0.034
-235.844	390.144	-0.058	-0.120
-234.830	309.685	-0.108	-0.200
-233.815	-200.000	0.005	0.248
-232.800	3.777	-0.182	-0.132
-231.786	-2.435	0.135	-0.094
-230.771	800.000	-0.046	0.169
-229.757	-66.108	-0.126	-0.050
-228.742	586.431	0.061	0.148
-227.727	2.987	-0.075	0.054
-226.713	-70.323	-0.177	-0.067
-225.698	-200.000	-0.015	0.246
-224.684	-200.000	-0.013	-0.093
-223.669	168.784	-0.098	0.139
-222.655	-200.000	0.013	0.367
-221.640	-200.000	-0.015	0.121
-220.625	-200.000	0.071	0.377
-219.611	-200.000	0.013	-0.127
-218.596	-59.629	-0.081	-0.034
-217.582	-200.000	-0.064	0.363
-216.567	183.635	0.171	-0.250
-215.552	-73.123	0.205	0.075
-214.538	-200.000	-0.019	-0.288
-213.523	28.471	-0.251	0.211
-212.509	-2.625	-0.076	0.053
-211.494	-137.485	0.093	-0.010
-210.479	2.513	-0.281	-0.202
-209.465	-200.000	-0.015	-0.313
-208.450	7.144	0.192	0.142
-207.436	-200.000	0.024	-0.137
-206.421	101.928	0.103	-0.119
-205.406	561.923	-0.008	0.019
-204.392	-200.000	0.020	0.105
-203.377	-23.921	0.124	-0.074
-202.363	-152.390	-0.217	0.015
-201.348	109.992	-0.102	0.121
-200.333	-200.000	-0.016	0.115
-199.319	-28.201	0.167	-0.096
-198.304	-155.517	0.337	0.022
-197.290	151.992	0.070	-0.095
-196.275	481.863	-0.175	0.395
-195.260	-200.000	0.027	0.529
-194.246	255.156	0.206	0.351
-193.231	-200.000	0.028	0.157
-192.217	-200.000	-0.025	0.192
-191.202	-188.904	-0.079	-0.001
-190.187	102.938	0.081	-0.094
-189.173	152.833	-0.102	-0.138
-188.158	-87.539	0.434	-0.130
-187.144	515.430	-0.098	-0.227
-186.129	-56.088	-0.062	-0.027
-185.114	108.076	0.062	0.074
-184.100	97.445	0.170	-0.193
-183.085	800.000	-0.061	0.217
-182.071	-10.842	0.059	-0.039
-181.056	145.454	0.060	0.080
-180.042	-200.000	0.006	0.079
-179.027	12.415	0.117	0.090
-178.012	-112.627	0.079	0.016
-176.998	174.599	-0.132	-0.189
-175.983	-57.314	0.141	0.061
-174.969	-17.474	-0.258	0.161
-173.954	87.886	0.135	0.148
-172.939	-200.000	0.017	-0.087
-171.925	125.317	0.366	-0.458
-170.910	195.145	-0.050	0.076
-169.896	-113.677	-0.161	0.031
-168.881	800.000	-0.016	0.062
-167.866	-8.546	0.162	-0.108
-166.852	-200.000	-0.004	-0.152
-165.837	-186.860	-0.068	0.001
-164.823	-120.835	-0.113	0.019
-163.808	3.429	0.247	-0.178
-162.793	-24.704	-0.067	-0.039
-161.779	-100.458	-0.190	-0.047
-160.764	-84.026	-0.166	0.052
-159.750	-29.313	0.311	-0.176
-158.735	800.000	-0.060	-0.217
-157.720	281.604	0.030	-0.053
-156.706	-200.000	0.029	-0.194
-155.691	188.845	-0.104	-0.154
-154.677	-10.946	0.118	-0.077
-153.662	-18.324	-0.075	0.046
-152.647	-162.808	0.167	0.008
-151.633	-111.895	0.035	0.007
-150.618	-200.000	-0.019	0.178
-149.604	-200.000	0.026	0.316
-148.589	-200.000	-0.028	0.211
-147.574	-200.000	-0.003	-0.241
-146.560	-200.000	0.012	0.078
-145.545	-117.161	0.209	0.038
-144.531	-63.780	-0.243	-0.099
-143.516	-200.000	-0.038	-0.330
-142.502	-56.019	-0.146	0.064
-141.487	82.425	-0.153	-0.165
-140.472	-118.495	-0.315	0.055
-139.458	-200.000	-0.005	0.109
-138.443	305.163	-0.082	-0.151
-137.429	16.647	0.184	-0.144
-136.414	-142.506	0.379	-0.037
-135.399	-170.583	0.210	-0.007
-134.385	-200.000	0.031	-0.320
-133.370	188.877	-0.144	-0.213
-132.356	126.377	0.064	0.080
-131.341	-28.791	-0.133	-0.075
-130.326	26.834	-0.156	0.130
-129.312	-129.327	-0.195	-0.027
-128.297	225.490	-0.134	0.215
-127.283	117.226	-0.277	-0.336
-126.268	-136.262	0.120	-0.014
-125.253	-4.608	-0.317	0.216
-124.239	-97.989	0.345	0.088
-123.224	27.257	0.125	0.104
-122.210	-200.000	-0.006	-0.259
