DTS Sentinel unit serial number:	SN413079Multiplexer serial number:	ORYXHardware model number:	OX4-SRSoftware version number:	ORYX F/W v4.00 Oryx Data Collector v3.7.2.0data status	okinstallation	princeton_trtdifferential loss correction	single-endedforward channel	channel 2reverse channel	N/Adate	2019/09/19time	09:31:35forward acquisition time	60.00reverse acquisition time	0.00gamma	496.2192k internal	0.2350k external	0.2350temperature offset calibration	1.0005default loss term (dB/km)	0.3790temperature slope calibration	1.0000multiplexer offset coefficient	1.0000multiplexer slope coefficient	1.0000fibre end	0.00T internal ref (°C)	22.81T ext. ref 1 (°C)	0.63T ext. ref 2 (°C)	19.32length (m)	temperature (°C)	Stokes	anti-Stokes-747.200	25.760	-0.102	-0.085
-746.185	-3.257	-0.257	0.179
-745.171	-11.938	0.186	0.122
-744.156	508.637	-0.061	0.141
-743.142	-39.557	-0.066	0.034
-742.127	-200.000	0.014	0.479
-741.112	201.327	-0.102	0.157
-740.098	-28.343	0.151	0.087
-739.083	3.457	0.151	0.110
-738.069	299.927	0.104	0.191
-737.054	239.629	-0.095	-0.159
-736.039	-2.385	-0.287	0.201
-735.025	-200.000	0.010	0.276
-734.010	9.684	-0.179	0.135
-732.996	-78.195	-0.125	0.043
-731.981	-126.877	-0.353	-0.052
-730.966	-200.000	0.020	-0.412
-729.952	153.231	-0.006	-0.008
-728.937	46.794	0.197	-0.183
-727.923	-200.000	-0.024	0.138
-726.908	69.927	0.143	-0.147
-725.894	269.573	-0.241	-0.421
-724.879	800.000	0.099	-0.322
-723.864	82.791	-0.064	0.069
-722.850	-200.000	-0.027	0.188
-721.835	-49.318	-0.228	-0.108
-720.821	800.000	-0.082	-0.229
-719.806	-200.000	-0.038	0.274
-718.791	-130.032	0.196	0.027
-717.777	-200.000	0.011	-0.072
-716.762	800.000	0.050	-0.141
-715.748	-117.988	-0.140	-0.025
-714.733	166.434	0.165	0.234
-713.718	83.215	0.123	0.134
-712.704	240.819	-0.048	-0.079
-711.689	-121.436	-0.114	-0.019
-710.675	-93.241	0.187	0.052
-709.660	108.301	-0.216	-0.257
-708.645	-15.470	0.211	0.135
-707.631	800.000	-0.122	0.348
-706.616	4.051	0.298	-0.217
-705.602	-200.000	-0.008	-0.153
-704.587	800.000	0.044	-0.136
-703.572	-200.000	0.088	-0.393
-702.558	219.461	0.054	-0.086
-701.543	72.738	-0.033	-0.034
-700.529	-200.000	0.032	0.402
-699.514	-129.001	-0.184	-0.026
-698.499	28.417	0.059	-0.050
-697.485	-200.000	-0.083	-0.423
-696.470	800.000	-0.153	-0.476
-695.456	-83.644	0.334	-0.106
-694.441	42.213	0.205	-0.185
-693.426	377.992	-0.162	-0.330
-692.412	-9.782	-0.207	0.137
-691.397	271.507	-0.078	0.137
-690.383	-82.171	-0.118	0.038
-689.368	-174.721	0.247	-0.007
-688.354	-94.289	0.030	-0.008
-687.339	-200.000	-0.058	-0.311
-686.324	-50.420	0.323	-0.152
-685.310	76.181	-0.098	-0.103
-684.295	-7.310	-0.390	-0.263
-683.281	-200.000	0.002	-0.250
-682.266	-181.322	0.353	-0.007
-681.251	-200.000	0.002	-0.059
-680.237	-106.961	0.317	0.070
-679.222	-50.913	0.162	-0.076
-678.208	271.535	-0.112	0.196
-677.193	-120.698	-0.213	0.036
-676.178	789.056	0.070	-0.192
-675.164	217.708	0.081	-0.128
-674.149	88.428	0.081	-0.090
-673.135	800.000	0.056	-0.192
-672.120	-146.512	0.142	-0.012
-671.105	-175.038	0.156	0.004
-670.091	13.937	0.268	0.208
-669.076	-200.000	-0.005	0.037
-668.062	-200.000	-0.031	-0.357
-667.047	208.828	-0.094	-0.146
-666.032	765.152	0.071	-0.193
-665.018	66.085	-0.090	0.091
-664.003	166.066	0.121	-0.171
-662.989	165.765	0.064	-0.091
-661.974	136.847	-0.110	-0.143
-660.959	-200.000	0.003	-0.069
-659.945	-51.800	-0.293	0.136
-658.930	-131.850	0.209	-0.027
-657.916	800.000	-0.016	0.064
-656.901	90.351	0.085	-0.095
-655.886	-18.714	0.107	-0.067
-654.872	-79.052	0.327	-0.111
-653.857	70.530	-0.261	-0.268
-652.843	-200.000	0.025	-0.143
-651.828	-95.458	0.210	-0.056
-650.814	554.494	0.055	-0.131
-649.799	427.114	-0.094	0.201
-648.784	34.769	0.150	-0.131
-647.770	336.195	-0.101	-0.196
-646.755	92.524	0.035	0.040
-645.741	375.044	-0.021	0.043
-644.726	385.899	0.040	-0.082
-643.711	722.441	0.170	-0.450
-642.697	183.376	0.024	-0.036
-641.682	-143.823	0.262	-0.025
-640.668	-66.192	0.202	-0.080
-639.653	-23.939	-0.031	0.019
-638.638	-200.000	-0.019	0.306
-637.624	84.490	0.143	0.155
-636.609	20.941	0.018	0.014
-635.595	604.846	-0.035	0.086
-634.580	175.664	0.090	0.130
-633.565	13.812	-0.281	-0.217
-632.551	43.200	-0.311	0.282
-631.536	-92.976	-0.264	-0.073
-630.522	452.731	0.035	-0.077
-629.507	-151.343	-0.110	-0.008
-628.492	92.280	0.256	-0.287
-627.478	59.389	-0.196	-0.192
-626.463	-200.000	-0.049	0.309
-625.449	-200.000	0.077	0.372
-624.434	-41.411	-0.184	-0.094
-623.419	-13.442	0.310	-0.199
-622.405	800.000	0.102	-0.313
-621.390	36.301	-0.490	0.429
-620.376	-109.405	-0.126	0.026
-619.361	-119.897	-0.108	0.018
-618.346	70.892	0.185	-0.190
-617.332	-126.735	-0.209	0.031
-616.317	-159.307	-0.424	-0.024
-615.303	-97.226	0.057	0.015
-614.288	-200.000	-0.001	0.020
-613.273	112.989	0.242	0.291
-612.259	142.008	0.168	0.221
-611.244	800.000	-0.009	-0.033
-610.230	41.067	-0.160	0.143
-609.215	-200.000	-0.001	-0.442
-608.201	188.661	-0.135	0.201
-607.186	184.795	-0.038	0.056
-606.171	-148.298	0.227	0.019
-605.157	-125.360	-0.176	0.027
-604.142	-18.989	0.122	-0.075
-603.128	312.065	0.169	-0.315
-602.113	56.852	0.130	0.126
-601.098	-155.248	-0.161	0.010
-600.084	433.052	-0.171	-0.369
-599.069	-153.136	0.183	-0.013
-598.055	-134.725	-0.170	-0.020
-597.040	396.630	-0.062	0.129
-596.025	-200.000	0.025	0.336
-595.011	145.107	-0.029	0.038
-593.996	20.193	0.231	-0.185
-592.982	21.140	-0.191	0.154
-591.967	250.857	0.194	-0.328
-590.952	152.791	-0.174	0.236
-589.938	-200.000	0.023	-0.151
-588.923	-200.000	0.011	0.302
-587.909	-200.000	-0.045	-0.270
-586.894	4.781	0.150	0.110
-585.879	-100.124	-0.084	0.021
-584.865	35.665	-0.337	-0.294
-583.850	-107.970	0.179	-0.039
-582.836	42.453	0.174	0.157
-581.821	800.000	0.007	-0.028
-580.806	357.816	-0.045	0.090
-579.792	-72.619	0.112	-0.041
-578.777	107.144	0.199	0.234
-577.763	161.838	0.134	0.186
-576.748	600.458	-0.090	-0.222
-575.733	-200.000	0.007	-0.134
-574.719	-121.645	-0.183	-0.030
-573.704	154.644	0.218	0.297
-572.690	13.099	0.187	-0.144
-571.675	18.519	0.017	-0.014
-570.661	800.000	-0.007	-0.027
-569.646	-200.000	0.014	-0.122
-568.631	-71.600	-0.436	0.161
-567.617	41.784	-0.110	0.099
-566.602	800.000	-0.132	0.476
-565.588	-200.000	0.091	-0.487
-564.573	46.538	0.228	-0.210
-563.558	243.601	0.069	0.115
-562.544	226.961	-0.069	-0.111
-561.529	-17.033	-0.165	-0.103
-560.515	23.596	-0.292	-0.238
-559.500	448.979	-0.109	0.237
-558.485	-26.130	0.145	-0.085
-557.471	-24.036	-0.237	-0.141
-556.456	800.000	0.048	0.146
-555.442	800.000	-0.067	0.235
-554.427	-37.955	-0.390	0.205
-553.412	-126.589	0.126	-0.019
-552.398	130.962	0.065	0.083
-551.383	404.342	0.068	0.143
-550.369	12.258	0.321	0.245
-549.354	4.290	0.117	-0.085
-548.339	-200.000	0.001	-0.029
-547.325	269.060	0.038	-0.066
-546.310	45.826	0.255	-0.233
-545.296	-200.000	0.029	0.171
-544.281	-60.285	0.328	0.138
-543.266	-162.776	-0.190	-0.009
-542.252	80.241	-0.163	0.173
-541.237	800.000	-0.054	-0.176
-540.223	-200.000	-0.034	0.281
-539.208	42.335	0.205	-0.185
-538.193	-200.000	0.045	-0.296
-537.179	-200.000	-0.037	-0.222
-536.164	16.318	-0.215	0.168
-535.150	93.501	-0.219	-0.246
-534.135	-8.654	0.221	-0.147
-533.121	-37.120	0.097	0.051
-532.106	159.714	-0.120	0.165
-531.091	266.222	-0.056	0.096
-530.077	-103.058	-0.193	-0.045
-529.062	-108.381	-0.182	-0.039
-528.048	46.866	0.265	-0.244
-527.033	800.000	-0.038	-0.109
-526.018	800.000	0.053	0.164
-525.004	72.420	-0.112	0.116
-523.989	198.450	0.084	0.127
-522.975	800.000	-0.027	-0.106
-521.960	-149.474	0.337	0.026
-520.945	-34.086	0.230	-0.125
-519.931	64.513	0.343	-0.342
-518.916	-85.916	-0.319	0.098
-517.902	-200.000	-0.055	-0.331
-516.887	72.440	0.203	-0.209
-515.872	65.537	0.217	0.217
-514.858	800.000	-0.034	-0.131
-513.843	-200.000	-0.020	-0.209
-512.829	-57.603	0.152	0.066
-511.814	79.399	0.113	0.120
-510.799	-23.068	-0.237	-0.141
-509.785	-35.785	-0.102	-0.055
-508.770	251.614	-0.021	0.035
-507.756	129.668	-0.154	0.194
-506.741	-122.392	-0.170	0.027
-505.726	-87.134	-0.160	-0.048
-504.712	-120.882	0.290	-0.048
-503.697	62.558	0.101	-0.100
-502.683	183.833	0.154	0.225
-501.668	504.722	-0.174	0.398
-500.653	-30.806	-0.251	0.140
-499.639	-36.813	0.241	-0.128
-498.624	-47.335	0.092	-0.044
-497.610	-33.094	-0.274	-0.150
-496.595	-200.000	-0.015	-0.232
-495.581	-76.834	0.152	-0.052
-494.566	800.000	0.178	0.547
-493.551	-118.160	0.105	-0.019
-492.537	-143.600	0.466	0.044
-491.522	57.123	-0.206	0.199
-490.508	-18.321	0.184	-0.114
-489.493	800.000	-0.116	-0.400
-488.478	-77.568	-0.114	0.039
-487.464	20.247	-0.057	0.045
-486.449	-200.000	0.021	0.427
-485.435	-117.270	0.185	-0.033
-484.420	800.000	0.037	0.119
-483.405	0.013	0.256	-0.180
-482.391	-61.254	0.104	0.043
-481.376	-131.420	-0.162	-0.021
-480.362	800.000	-0.042	-0.168
-479.347	136.774	0.025	-0.032
-478.332	-200.000	-0.007	-0.250
-477.318	60.831	0.114	0.111
-476.303	104.872	-0.051	0.060
-475.289	-150.427	0.302	0.023
-474.274	557.768	-0.109	-0.260
-473.259	-164.306	0.295	0.013
-472.245	-81.503	0.381	0.124
-471.230	800.000	0.041	0.134
-470.216	800.000	-0.051	0.170
-469.201	-79.581	-0.138	-0.046
-468.186	800.000	-0.133	0.378
-467.172	-71.395	0.168	0.062
-466.157	50.023	-0.168	0.156
-465.143	773.928	-0.124	0.335
-464.128	-89.244	0.253	-0.074
-463.113	296.400	-0.158	-0.286
-462.099	-136.918	0.352	0.040
-461.084	-103.428	-0.151	-0.035
-460.070	370.268	0.041	0.081
-459.055	60.303	0.150	0.147
-458.040	71.006	0.207	-0.211
-457.026	-9.192	-0.249	-0.164
-456.011	119.468	-0.118	0.145
-454.997	-164.221	0.251	-0.011
-453.982	800.000	-0.078	0.256
-452.968	149.618	0.231	-0.308
-451.953	800.000	-0.086	-0.300
-450.938	-11.071	-0.247	0.161
-449.924	-200.000	0.017	-0.278
-448.909	169.937	0.093	-0.131
-447.895	800.000	0.113	-0.409
-446.880	-53.380	-0.076	0.034
-445.865	404.006	0.243	0.504
-444.851	-130.441	-0.458	0.061
-443.836	-43.580	0.242	-0.120
-442.822	-200.000	0.012	-0.238
-441.807	232.398	-0.262	-0.424
-440.792	-88.138	0.150	0.044
-439.778	-200.000	0.019	0.153
-438.763	61.817	-0.251	-0.246
-437.749	291.280	0.183	0.329
-436.734	15.670	0.267	-0.207
-435.719	-157.767	0.069	0.004
-434.705	800.000	0.048	0.208
-433.690	425.052	0.018	0.039
-432.676	-13.739	-0.189	-0.120
-431.661	51.262	0.111	0.104
-430.646	-150.956	0.185	-0.014
-429.632	299.123	0.136	0.247
-428.617	6.195	-0.086	-0.063
-427.603	146.018	-0.146	0.193
-426.588	633.332	-0.051	0.127
-425.573	61.163	0.206	0.202
-424.559	800.000	0.061	-0.177
-423.544	-60.771	0.194	-0.081
-422.530	69.003	0.292	0.295
-421.515	-92.173	-0.377	-0.105
-420.500	21.921	-0.141	0.114
-419.486	-200.000	0.004	0.086
-418.471	-11.907	-0.230	0.149
-417.457	-181.821	0.213	0.004
-416.442	325.913	0.014	-0.027
-415.428	12.712	0.235	0.179
-414.413	202.353	0.061	-0.093
-413.398	21.561	-0.195	-0.156
-412.384	648.300	-0.157	0.397
-411.369	-200.000	-0.002	-0.093
-410.355	-200.000	-0.003	-0.229
-409.340	-200.000	0.003	-0.351
-408.325	800.000	-0.024	-0.071
-407.311	-76.115	-0.045	0.016
-406.296	142.633	-0.154	-0.202
-405.282	800.000	-0.068	0.211
-404.267	-200.000	-0.068	0.303
-403.252	-112.805	-0.239	-0.047
-402.238	18.302	0.112	0.088
-401.223	197.580	0.036	-0.054
-400.209	-166.560	-0.095	0.004
-399.194	-112.112	0.128	-0.025
-398.179	-69.869	0.244	-0.092
-397.165	143.956	-0.108	0.142
-396.150	800.000	-0.004	-0.015
-395.136	119.917	-0.080	-0.097
-394.121	-200.000	0.031	-0.169
-393.106	-108.147	-0.194	0.041
-392.092	186.571	0.087	0.128
-391.077	-46.295	-0.108	-0.052
-390.063	269.259	0.187	0.324
-389.048	-200.000	0.037	-0.234
-388.033	-74.237	0.199	0.071
-387.019	-200.000	-0.004	-0.136
-386.004	-33.632	0.249	0.136
-384.990	-155.499	-0.238	-0.015
-383.975	-10.350	-0.056	0.037
-382.960	-200.000	0.031	-0.306
-381.946	-108.027	-0.163	0.035
-380.931	-36.389	-0.289	0.153
-379.917	263.039	-0.151	0.258
-378.902	34.957	-0.114	-0.098
-377.888	-161.124	-0.214	0.011
-376.873	800.000	-0.049	-0.209
-375.858	89.382	0.203	0.222
-374.844	800.000	-0.115	0.331
-373.829	800.000	0.039	-0.127
-372.815	-200.000	0.028	-0.285
-371.800	337.965	0.087	0.166
-370.785	-127.233	-0.290	-0.042
-369.771	423.495	0.125	-0.264
-368.756	-200.000	0.002	0.018
-367.742	-100.650	0.240	0.058
-366.727	-118.567	0.131	-0.023
-365.712	4.127	0.227	0.163
-364.698	800.000	0.071	-0.256
-363.683	800.000	-0.096	-0.308
-362.669	443.250	-0.118	0.255
-361.654	456.578	-0.022	0.047
-360.639	103.003	-0.148	-0.171
-359.625	-200.000	-0.039	0.251
-358.610	311.806	-0.048	0.088
-357.596	43.848	0.120	0.108
-356.581	800.000	-0.053	0.212
-355.566	-138.233	-0.112	0.012
-354.552	-151.233	0.224	0.016
-353.537	800.000	0.050	-0.160
-352.523	-82.435	-0.493	-0.157
-351.508	-151.305	-0.213	0.016
-350.493	26.939	0.072	-0.059
-349.479	-116.195	-0.193	0.035
-348.464	-200.000	-0.033	-0.190
-347.450	-75.875	-0.299	0.104
-346.435	-200.000	0.007	-0.076
-345.420	-47.496	-0.334	0.160
-344.406	171.577	0.099	-0.140
-343.391	166.527	0.056	0.078
-342.377	29.394	-0.155	-0.129
-341.362	609.145	-0.025	-0.061
-340.348	83.131	-0.154	0.165
-339.333	178.188	0.210	-0.301
-338.318	-200.000	-0.023	0.254
-337.304	-175.856	-0.120	0.003
-336.289	800.000	0.158	-0.534
-335.275	-107.077	0.086	-0.019
-334.260	-185.085	-0.068	0.001
-333.245	160.427	0.121	-0.166
-332.231	-162.485	-0.303	0.015
-331.216	267.288	0.094	0.162
-330.202	119.233	0.146	0.177
-329.187	466.508	-0.055	0.120
-328.172	239.466	-0.107	-0.175
-327.158	186.618	-0.079	-0.116
-326.143	-91.810	-0.175	0.049
-325.129	-151.916	-0.347	-0.025
-324.114	322.187	-0.172	0.322
-323.099	58.018	0.356	-0.342
-322.085	0.901	-0.199	-0.140
-321.070	202.301	0.080	-0.120
-320.056	800.000	0.012	-0.047
-319.041	50.017	-0.069	0.064
-318.026	800.000	-0.146	-0.493
-317.012	16.603	-0.291	0.226
-315.997	-98.438	0.373	-0.094
-314.983	58.147	-0.302	-0.290
-313.968	-49.532	-0.294	-0.137
-312.953	454.712	0.086	-0.187
-311.939	678.833	0.071	0.181
-310.924	800.000	0.060	-0.206
-309.910	-29.417	0.118	-0.066
-308.895	-200.000	-0.094	-0.468
-307.880	84.802	-0.176	-0.189
-306.866	462.200	0.211	0.462
-305.851	-178.437	0.215	0.005
-304.837	-59.441	0.062	-0.026
-303.822	-7.725	0.243	-0.161
-302.807	-200.000	-0.042	-0.192
-301.793	148.277	-0.237	0.314
-300.778	107.112	-0.091	-0.106
-299.764	-146.250	0.234	0.020
-298.749	49.521	-0.275	-0.254
-297.735	-136.617	-0.135	-0.015
-296.720	86.897	0.115	0.124
-295.705	729.802	0.127	0.334
-294.691	56.786	-0.262	0.250
-293.676	91.052	-0.210	-0.231
-292.662	-54.453	-0.331	0.147
-291.647	197.850	0.104	-0.155
-290.632	-22.770	0.204	-0.121
-289.618	-200.000	-0.023	0.312
-288.603	372.131	0.031	-0.062
-287.589	-72.862	-0.186	0.067
-286.574	-0.709	0.288	0.200
-285.559	-93.444	-0.157	0.043
-284.545	-102.587	-0.160	-0.038
-283.530	217.979	-0.078	-0.123
-282.516	800.000	0.101	0.290
-281.501	-200.000	0.022	0.120
-280.486	-112.624	-0.137	0.027
-279.472	-149.906	0.308	-0.024
-278.457	665.790	-0.070	-0.178
-277.443	515.280	0.183	-0.418
-276.428	65.427	-0.227	-0.226
-275.413	-200.000	-0.013	0.115
-274.399	-118.002	0.088	-0.015
-273.384	181.421	-0.141	-0.203
-272.370	-90.214	0.206	0.059
-271.355	-153.564	-0.166	-0.011
-270.340	117.993	0.065	0.079
-269.326	166.025	-0.145	-0.201
-268.311	-200.000	0.006	0.190
-267.297	240.269	0.110	-0.179
-266.282	-118.203	0.253	-0.044
-265.267	-200.000	-0.027	0.137
-264.253	-66.651	0.262	-0.102
-263.238	-200.000	0.031	-0.164
-262.224	800.000	-0.059	-0.163
-261.209	11.789	0.095	-0.071
-260.195	39.345	0.270	-0.237
-259.180	-123.241	0.120	-0.019
-258.165	800.000	-0.118	0.349
-257.151	800.000	-0.148	-0.424
-256.136	-200.000	0.010	-0.186
-255.122	-150.907	0.196	0.015
-254.107	-125.676	-0.105	-0.016
-253.092	-200.000	-0.004	-0.021
-252.078	800.000	0.134	-0.530
-251.063	-107.220	0.109	-0.024
-250.049	-90.114	0.193	0.055
-249.034	94.702	0.225	0.251
-248.019	95.870	0.064	-0.072
-247.005	-69.075	0.068	0.026
-245.990	-52.342	0.279	0.126
-244.976	-36.824	-0.347	0.183
-243.961	-75.387	-0.294	0.103
-242.946	-200.000	-0.026	-0.181
-241.932	34.495	0.282	0.241
-240.917	800.000	0.069	0.274
-239.903	-200.000	-0.035	0.260
-238.888	715.720	-0.066	-0.171
-237.873	323.988	0.074	-0.138
-236.859	686.169	0.044	0.112
-235.844	-160.083	0.214	-0.011
-234.830	15.260	0.274	-0.211
-233.815	-200.000	0.002	-0.092
-232.800	131.586	0.126	-0.158
-231.786	-13.846	-0.188	0.119
-230.771	-9.068	0.331	-0.217
-229.757	800.000	-0.068	0.189
-228.742	-164.865	0.162	-0.007
-227.727	800.000	0.043	-0.126
-226.713	-43.490	-0.321	0.159
-225.698	800.000	0.055	-0.182
-224.684	-64.259	0.457	-0.182
-223.669	-121.630	-0.241	-0.039
-222.655	800.000	-0.042	0.120
-221.640	-7.542	0.367	0.243
-220.625	187.893	-0.127	0.185
-219.611	-11.474	0.120	0.077
-218.596	88.630	-0.209	-0.227
-217.582	205.451	0.085	0.129
-216.567	23.416	-0.039	0.031
-215.552	-121.928	0.307	0.049
-214.538	117.030	0.069	0.083
-213.523	-86.791	-0.172	-0.051
-212.509	800.000	-0.052	0.145
-211.494	-200.000	-0.031	0.379
-210.479	-37.867	-0.206	0.107
-209.465	757.104	0.114	-0.302
-208.450	61.818	-0.164	-0.160
-207.436	-133.918	0.236	-0.029
-206.421	152.105	-0.294	0.392
-205.406	167.130	-0.052	-0.073
-204.392	-200.000	0.025	0.367
-203.377	193.275	-0.082	-0.120
-202.363	-200.000	0.016	-0.182
-201.348	-200.000	0.040	0.228
-200.333	-7.583	-0.262	-0.173
-199.319	140.603	0.084	-0.109
-198.304	-200.000	0.036	0.439
-197.290	136.303	0.090	0.115
-196.275	188.791	-0.160	0.234
-195.260	145.498	0.060	-0.078
-194.246	-47.202	0.161	0.077
-193.231	365.161	0.081	-0.160
-192.217	-120.015	-0.173	0.029
-191.202	-14.551	-0.249	-0.156
-190.187	340.940	0.085	0.163
-189.173	-60.034	-0.138	-0.057
-188.158	-68.339	-0.346	-0.131
-187.144	65.698	0.150	0.148
-186.129	439.024	-0.085	-0.182
-185.114	512.594	0.071	-0.161
-184.100	-97.621	0.060	0.015
-183.085	-44.707	-0.349	-0.170
-182.071	-200.000	-0.022	0.406
-181.056	-114.121	-0.351	-0.066
-180.042	-88.347	-0.294	0.086
-179.027	-75.898	0.257	-0.089
-178.012	-1.137	0.122	0.084
-176.998	-150.489	0.144	-0.011
-175.983	-177.437	0.241	-0.006
-174.969	800.000	0.041	0.139
-173.954	-200.000	0.008	-0.108
-172.939	-123.268	-0.579	0.090
-171.925	-200.000	0.192	-0.000
-170.910	-134.685	-0.180	0.021
-169.896	-0.120	0.280	0.195
-168.881	-200.000	-0.007	0.121
-167.866	169.498	-0.221	0.308
-166.852	800.000	0.018	0.059
-165.837	-76.404	0.288	0.099
-164.823	-200.000	-0.040	0.233
-163.808	-81.471	-0.357	0.115
-162.793	118.599	0.143	-0.173
-161.779	150.543	0.099	0.131
-160.764	-41.123	-0.285	-0.143
-159.750	-124.742	-0.111	0.017
-158.735	-32.228	0.214	0.116
-157.720	-200.000	0.033	0.202
-156.706	-74.627	0.119	-0.042
-155.691	-22.646	0.269	0.159
-154.677	-75.480	-0.164	-0.057
-153.662	-147.635	0.186	-0.015
-152.647	300.127	-0.132	-0.237
-151.633	-200.000	-0.039	0.319
-150.618	800.000	-0.071	0.198
-149.604	-17.589	0.079	-0.048
-148.589	-200.000	0.014	-0.106
-147.574	-81.400	-0.218	-0.070
-146.560	8.791	-0.492	0.362
-145.545	-95.410	0.067	-0.018
-144.531	229.335	0.076	-0.120
-143.516	112.914	-0.123	0.145
-142.502	267.982	-0.085	0.145
-141.487	226.854	0.102	0.162
-140.472	800.000	0.104	-0.425
-139.458	226.124	-0.133	0.210
-138.443	-200.000	0.035	-0.267
-137.429	84.086	0.206	0.219
-136.414	73.942	0.306	0.313
-135.399	-135.746	0.203	0.023
-134.385	-38.055	-0.035	0.018
-133.370	-200.000	0.005	-0.190
-132.356	178.672	0.267	-0.380
-131.341	-179.859	-0.206	0.004
-130.326	-111.660	0.257	-0.051
-129.312	133.843	-0.122	-0.154
-128.297	800.000	0.099	-0.319
-127.283	21.777	0.078	-0.062
-126.268	-51.191	-0.069	-0.032
-125.253	160.877	-0.157	0.214
-124.239	-60.193	0.109	-0.045
-123.224	-139.613	0.391	-0.041
-122.210	266.712	0.109	0.186
-121.195	800.000	0.042	0.177
