DTS Sentinel unit serial number:	SN413079Multiplexer serial number:	ORYXHardware model number:	OX4-SRSoftware version number:	ORYX F/W v4.00 Oryx Data Collector v3.7.2.0data status	okinstallation	princeton_trtdifferential loss correction	single-endedforward channel	channel 2reverse channel	N/Adate	2019/09/14time	05:47:35forward acquisition time	60.00reverse acquisition time	0.00gamma	496.2192k internal	0.2336k external	0.2336temperature offset calibration	1.0127default loss term (dB/km)	0.3790temperature slope calibration	1.0000multiplexer offset coefficient	1.0000multiplexer slope coefficient	1.0000fibre end	0.00T internal ref (°C)	26.92T ext. ref 1 (°C)	3.38T ext. ref 2 (°C)	21.55length (m)	temperature (°C)	Stokes	anti-Stokes-747.200	152.754	-0.124	0.170
-746.185	265.215	-0.047	0.082
-745.171	200.006	0.060	0.093
-744.156	70.793	-0.055	0.057
-743.142	243.032	-0.045	0.076
-742.127	-59.148	-0.097	-0.042
-741.112	-122.715	-0.278	0.045
-740.098	-35.678	0.389	0.212
-739.083	396.624	-0.168	-0.352
-738.069	546.745	-0.121	0.290
-737.054	-152.355	0.044	-0.003
-736.039	-76.089	-0.471	-0.167
-735.025	-200.000	0.034	0.283
-734.010	-10.231	-0.385	0.257
-732.996	-3.298	-0.280	-0.196
-731.981	-200.000	-0.008	0.073
-730.966	-3.514	-0.185	-0.129
-729.952	494.673	-0.091	-0.210
-728.937	249.802	0.058	-0.098
-727.923	-77.345	-0.141	-0.049
-726.908	-160.896	-0.332	0.018
-725.894	-200.000	-0.038	-0.167
-724.879	-200.000	-0.004	-0.368
-723.864	-94.004	0.343	-0.095
-722.850	-38.127	-0.229	-0.122
-721.835	-200.000	0.064	0.520
-720.821	-111.317	-0.490	-0.100
-719.806	800.000	-0.089	0.384
-718.791	116.151	0.144	0.177
-717.777	360.844	-0.183	-0.367
-716.762	47.587	-0.211	-0.198
-715.748	-200.000	-0.041	0.283
-714.733	-141.807	-0.378	-0.038
-713.718	-109.335	-0.107	0.023
-712.704	-115.956	-0.196	-0.037
-711.689	-50.129	-0.242	-0.115
-710.675	-200.000	-0.026	-0.265
-709.660	800.000	-0.058	-0.176
-708.645	-200.000	0.008	-0.306
-707.631	800.000	0.070	0.207
-706.616	-110.408	-0.531	-0.111
-705.602	-64.087	-0.451	0.184
-704.587	302.818	-0.130	0.241
-703.572	11.652	0.083	0.064
-702.558	-141.053	0.437	-0.045
-701.543	-200.000	-0.009	0.350
-700.529	173.145	-0.139	0.200
-699.514	95.286	0.120	0.137
-698.499	70.188	-0.123	0.127
-697.485	132.398	0.194	0.251
-696.470	17.815	0.366	-0.292
-695.456	555.614	-0.045	0.109
-694.441	144.333	0.111	0.148
-693.426	631.137	-0.167	-0.424
-692.412	68.727	0.245	0.252
-691.397	307.347	-0.183	-0.342
-690.383	14.098	-0.298	-0.233
-689.368	-7.971	0.037	0.025
-688.354	128.567	-0.004	0.006
-687.339	62.142	-0.083	0.083
-686.324	-165.309	0.288	-0.013
-685.310	-55.930	0.123	-0.055
-684.295	800.000	0.033	-0.131
-683.281	-200.000	0.003	0.033
-682.266	160.288	-0.062	0.086
-681.251	108.365	-0.078	-0.094
-680.237	-4.904	0.375	-0.259
-679.222	295.191	-0.217	-0.398
-678.208	-39.366	0.149	-0.078
-677.193	-16.302	-0.222	0.141
-676.178	346.469	0.027	0.053
-675.164	-36.182	-0.206	0.111
-674.149	243.852	-0.063	-0.106
-673.135	800.000	-0.033	-0.090
-672.120	-85.067	-0.339	-0.106
-671.105	112.595	-0.171	-0.208
-670.091	-24.094	0.111	-0.066
-669.076	-200.000	0.024	-0.109
-668.062	32.437	0.200	0.173
-667.047	800.000	0.061	-0.194
-666.032	-28.027	-0.271	-0.157
-665.018	-97.639	-0.182	0.047
-664.003	47.990	0.105	-0.098
-662.989	38.975	0.246	-0.220
-661.974	-200.000	0.031	-0.181
-660.959	-42.163	-0.159	-0.081
-659.945	-55.665	0.162	0.073
-658.930	800.000	-0.034	0.113
-657.916	-73.066	0.282	-0.104
-656.901	800.000	0.082	0.347
-655.886	-200.000	0.002	-0.023
-654.872	37.785	0.274	-0.243
-653.857	-200.000	0.066	0.359
-652.843	522.114	0.072	-0.169
-651.828	105.467	-0.093	-0.110
-650.814	62.582	0.388	0.388
-649.799	-200.000	-0.004	-0.116
-648.784	57.565	-0.110	-0.108
-647.770	-114.606	-0.069	-0.013
-646.755	-19.892	-0.442	0.273
-645.741	-200.000	-0.042	-0.256
-644.726	148.769	0.101	-0.137
-643.711	247.099	-0.180	-0.304
-642.697	-44.449	-0.106	0.053
-641.682	-189.162	0.069	-0.001
-640.668	-48.693	0.093	0.045
-639.653	198.017	0.124	-0.190
-638.638	-200.000	-0.006	0.156
-637.624	88.326	0.096	-0.107
-636.609	-120.884	-0.183	-0.031
-635.595	55.827	-0.179	-0.173
-634.580	-64.965	-0.249	-0.101
-633.565	-200.000	-0.026	-0.141
-632.551	21.308	0.021	0.017
-631.536	-82.034	0.230	-0.075
-630.522	-132.011	0.206	0.027
-629.507	73.049	0.167	-0.174
-628.492	-200.000	-0.019	0.326
-627.478	-167.457	0.168	0.007
-626.463	-22.111	-0.088	-0.054
-625.449	-200.000	-0.007	-0.312
-624.434	323.602	0.138	-0.263
-623.419	-72.952	0.196	0.072
-622.405	-51.246	-0.057	-0.027
-621.390	40.538	-0.180	0.162
-620.376	-200.000	0.004	0.062
-619.361	263.993	-0.074	-0.129
-618.346	468.125	0.047	0.105
-617.332	548.159	-0.076	0.182
-616.317	-105.402	0.099	0.022
-615.303	-87.628	0.381	-0.115
-614.288	85.236	-0.182	-0.200
-613.273	-91.355	-0.071	0.020
-612.259	800.000	0.070	0.251
-611.244	-89.907	0.070	0.020
-610.230	-200.000	-0.039	-0.243
-609.215	-64.059	0.110	0.045
-608.201	607.306	-0.012	0.029
-607.186	64.048	-0.101	0.102
-606.171	800.000	0.052	-0.203
-605.157	800.000	-0.018	-0.069
-604.142	270.936	-0.095	0.168
-603.128	-48.131	-0.305	0.147
-602.113	269.947	0.026	-0.046
-601.098	-132.179	-0.316	0.041
-600.084	60.938	-0.072	-0.072
-599.069	-32.478	-0.074	-0.041
-598.055	800.000	-0.072	-0.306
-597.040	89.612	-0.083	0.093
-596.025	-200.000	0.081	0.375
-595.011	118.432	0.257	0.317
-593.996	418.387	0.040	-0.086
-592.982	23.520	-0.104	0.085
-591.967	-35.785	-0.175	-0.095
-590.952	-200.000	-0.082	-0.439
-589.938	-44.912	0.084	-0.042
-588.923	-84.567	0.360	0.113
-587.909	148.083	-0.292	-0.394
-586.894	-155.729	0.203	-0.013
-585.879	800.000	-0.078	0.258
-584.865	16.812	-0.293	-0.231
-583.850	207.927	0.077	0.120
-582.836	-173.057	-0.234	-0.007
-581.821	559.393	0.122	0.293
-580.806	-9.142	-0.244	-0.163
-579.792	25.451	-0.028	0.023
-578.777	54.091	-0.213	0.204
-577.763	-145.062	-0.188	0.017
-576.748	-125.667	0.260	0.039
-575.733	8.121	0.373	0.280
-574.719	-31.413	-0.067	0.038
-573.704	325.570	-0.033	0.063
-572.690	-27.178	0.103	0.060
-571.675	95.914	-0.054	0.062
-570.661	-126.497	-0.167	-0.025
-569.646	-75.183	0.077	-0.027
-568.631	50.109	0.123	-0.116
-567.617	81.305	0.205	0.220
-566.602	-8.990	0.181	0.121
-565.588	800.000	-0.020	0.072
-564.573	800.000	0.015	0.051
-563.558	-131.088	0.195	0.026
-562.544	-200.000	-0.006	0.412
-561.529	-85.491	0.100	0.031
-560.515	-52.151	0.395	-0.183
-559.500	-14.480	-0.262	-0.168
-558.485	-139.468	0.131	0.014
-557.471	-147.639	-0.356	0.030
-556.456	618.144	-0.149	0.373
-555.442	-5.539	0.065	0.045
-554.427	-27.358	0.197	-0.114
-553.412	800.000	0.066	-0.234
-552.398	-57.887	-0.354	0.154
-551.383	91.791	-0.255	-0.286
-550.369	800.000	0.043	0.133
-549.354	-5.012	0.217	-0.149
-548.339	-200.000	-0.015	-0.218
-547.325	-9.471	-0.160	-0.106
-546.310	-92.940	-0.288	-0.080
-545.296	-200.000	0.036	-0.218
-544.281	-128.537	-0.312	0.044
-543.266	8.710	-0.113	-0.085
-542.252	-103.987	-0.134	-0.031
-541.237	800.000	0.158	0.444
-540.223	164.828	-0.108	0.152
-539.208	-148.383	0.147	-0.012
-538.193	800.000	-0.059	-0.183
-537.179	800.000	0.011	0.044
-536.164	-90.139	-0.156	0.045
-535.150	110.576	0.008	0.009
-534.135	-32.554	-0.240	0.133
-533.121	-14.709	0.095	-0.061
-532.106	-200.000	0.011	-0.099
-531.091	241.566	0.145	-0.241
-530.077	-53.157	0.078	-0.036
-529.062	95.985	-0.189	0.215
-528.048	-70.747	0.442	0.166
-527.033	132.648	-0.074	-0.095
-526.018	276.928	0.092	0.163
-525.004	800.000	0.095	-0.294
-523.989	23.356	-0.295	0.242
-522.975	-200.000	-0.021	0.349
-521.960	48.554	0.176	0.164
-520.945	-63.421	0.041	0.017
-519.931	-19.032	-0.285	-0.176
-518.916	-114.961	-0.257	0.049
-517.902	-38.232	0.392	0.207
-516.887	-108.937	-0.238	0.051
-515.872	204.810	0.044	0.068
-514.858	51.929	0.030	0.028
-513.843	-200.000	-0.016	0.105
-512.829	748.285	-0.054	0.144
-511.814	-152.624	0.145	-0.010
-510.799	-124.779	0.155	-0.024
-509.785	-119.210	-0.274	-0.048
-508.770	-8.743	-0.111	-0.074
-507.756	586.975	0.082	0.201
-506.741	98.483	0.183	0.210
-505.726	-4.891	-0.123	-0.084
-504.712	-124.079	0.228	0.036
-503.697	148.961	0.073	-0.098
-502.683	-44.624	-0.242	-0.120
-501.668	-134.849	-0.216	-0.026
-500.653	249.906	-0.088	-0.148
-499.639	-52.279	0.211	-0.097
-498.624	224.020	-0.162	0.259
-497.610	-26.361	0.150	-0.088
-496.595	685.149	-0.033	0.087
-495.581	47.537	-0.167	-0.155
-494.566	800.000	0.031	0.105
-493.551	-94.279	0.203	0.055
-492.537	-45.261	-0.074	0.036
-491.522	251.792	0.087	0.148
-490.508	-98.328	-0.090	0.023
-489.493	-200.000	0.029	0.135
-488.478	800.000	0.033	0.111
-487.464	-127.046	0.098	0.014
-486.449	9.252	0.331	0.249
-485.435	271.051	-0.113	-0.197
-484.420	-69.712	0.446	-0.169
-483.405	344.401	0.034	-0.066
-482.391	-200.000	-0.009	-0.061
-481.376	-105.666	0.197	0.044
-480.362	-200.000	0.055	-0.313
-479.347	150.342	-0.331	-0.446
-478.332	8.752	0.110	-0.082
-477.318	51.610	-0.028	-0.027
-476.303	781.474	0.034	-0.093
-475.289	553.635	-0.113	-0.270
-474.274	-200.000	0.004	0.253
-473.259	109.160	-0.107	-0.127
-472.245	-86.512	0.039	0.012
-471.230	-200.000	0.011	-0.107
-470.216	-200.000	0.033	-0.239
-469.201	-151.804	0.412	0.030
-468.186	577.183	-0.099	-0.240
-467.172	198.693	-0.084	-0.128
-466.157	800.000	0.038	-0.129
-465.143	-200.000	0.012	0.106
-464.128	-60.658	0.308	0.130
-463.113	-200.000	-0.027	0.127
-462.099	-77.515	-0.075	0.026
-461.084	126.681	-0.159	0.200
-460.070	-200.000	0.032	0.153
-459.055	-23.772	-0.132	0.078
-458.040	175.122	0.150	0.215
-457.026	-200.000	0.020	0.143
-456.011	-200.000	0.018	0.188
-454.997	800.000	-0.028	-0.089
-453.982	-42.464	0.200	-0.101
-452.968	800.000	-0.014	-0.048
-451.953	-200.000	0.047	-0.276
-450.938	-1.652	-0.259	0.181
-449.924	1.976	-0.368	-0.264
-448.909	112.065	-0.235	-0.282
-447.895	-188.387	0.213	-0.003
-446.880	198.925	0.120	0.183
-445.865	-123.144	-0.184	-0.029
-444.851	-105.337	0.048	0.011
-443.836	-197.746	-0.096	-0.001
-442.822	-200.000	-0.018	-0.106
-441.807	37.287	-0.278	-0.245
-440.792	-41.742	-0.225	0.115
-439.778	-14.162	0.178	-0.114
-438.763	-200.000	-0.079	0.376
-437.749	-200.000	-0.026	-0.222
-436.734	-77.614	0.178	0.061
-435.719	222.046	0.049	-0.078
-434.705	135.105	0.208	0.268
-433.690	-200.000	-0.048	0.224
-432.676	800.000	0.055	-0.212
-431.661	29.895	0.122	-0.103
-430.646	22.087	-0.243	0.197
-429.632	-200.000	-0.027	-0.209
-428.617	-200.000	-0.012	-0.062
-427.603	184.666	0.080	0.117
-426.588	-56.260	-0.175	-0.077
-425.573	-130.626	0.321	0.043
-424.559	392.370	0.054	-0.112
-423.544	175.155	-0.146	0.210
-422.530	-39.570	0.058	0.030
-421.515	2.447	-0.105	0.075
-420.500	192.232	-0.144	0.215
-419.486	-200.000	0.107	0.639
-418.471	-59.297	0.292	0.125
-417.457	-200.000	-0.040	-0.292
-416.442	-200.000	0.028	0.279
-415.428	-158.403	-0.191	0.011
-414.413	374.461	-0.118	0.237
-413.398	3.236	0.170	0.122
-412.384	-109.166	0.308	0.065
-411.369	106.179	0.099	-0.116
-410.355	87.059	0.187	0.205
-409.340	-200.000	-0.037	0.281
-408.325	186.951	-0.079	-0.117
-407.311	-145.758	-0.289	0.026
-406.296	75.213	-0.136	0.142
-405.282	84.985	0.125	-0.136
-404.267	-47.506	-0.246	-0.119
-403.252	-81.654	-0.184	-0.060
-402.238	453.198	-0.089	0.196
-401.223	-200.000	0.011	-0.371
-400.209	15.164	-0.147	-0.114
-399.194	70.387	-0.114	-0.117
-398.179	20.160	-0.125	0.100
-397.165	-58.833	-0.069	-0.030
-396.150	-48.969	-0.106	0.050
-395.136	-22.840	-0.107	0.064
-394.121	150.390	0.120	0.162
-393.106	-200.000	-0.059	-0.540
-392.092	210.962	0.189	0.294
-391.077	140.515	0.083	0.108
-390.063	-111.262	0.065	0.013
-389.048	174.458	0.306	0.438
-388.033	-200.000	-0.011	-0.192
-387.019	-200.000	-0.016	-0.332
-386.004	-47.537	-0.115	0.055
-384.990	238.847	0.070	-0.116
-383.975	-157.368	0.182	0.011
-382.960	-200.000	0.025	0.308
-381.946	75.276	0.156	-0.163
-380.931	248.978	-0.096	0.161
-379.917	-78.146	0.235	0.080
-378.902	42.996	-0.161	0.145
-377.888	-37.665	0.116	0.061
-376.873	584.518	-0.148	-0.360
-375.858	663.305	-0.057	0.146
-374.844	-67.708	-0.145	0.056
-373.829	-200.000	0.020	-0.146
-372.815	-78.160	0.179	0.061
-371.800	4.587	0.199	-0.144
-370.785	-79.632	-0.184	0.062
-369.771	-29.308	-0.080	-0.045
-368.756	740.942	0.129	-0.342
-367.742	-87.750	-0.081	-0.024
-366.727	-94.078	-0.417	0.113
-365.712	-148.989	-0.165	-0.013
-364.698	127.955	0.185	-0.233
-363.683	-200.000	0.050	-0.290
-362.669	-200.000	0.008	-0.143
-361.654	90.538	0.291	-0.322
-360.639	40.333	-0.149	0.133
-359.625	-9.079	-0.150	0.100
-358.610	-200.000	0.005	-0.175
-357.596	-200.000	-0.013	-0.094
-356.581	-200.000	-0.023	-0.171
-355.566	177.819	0.052	-0.075
-354.552	111.789	-0.084	-0.101
-353.537	279.038	-0.046	0.081
-352.523	-20.331	-0.177	0.108
-351.508	54.413	-0.241	0.229
-350.493	26.515	0.150	-0.124
-349.479	87.072	0.137	0.149
-348.464	800.000	0.116	0.328
-347.450	-200.000	0.011	-0.340
-346.435	-131.394	-0.121	-0.016
-345.420	2.270	-0.046	0.033
-344.406	68.785	0.110	-0.112
-343.391	-200.000	0.027	0.140
-342.377	-200.000	-0.043	0.271
-341.362	-152.484	-0.277	-0.020
-340.348	-21.784	0.060	-0.036
-339.333	148.971	0.011	0.014
-338.318	-79.051	0.122	0.041
-337.304	129.319	-0.032	-0.040
-336.289	800.000	-0.058	-0.245
-335.275	115.603	0.116	-0.141
-334.260	88.960	-0.185	0.203
-333.245	190.471	0.112	-0.166
-332.231	-39.586	-0.172	-0.089
-331.216	608.837	-0.096	0.237
-330.202	800.000	0.092	-0.300
-329.187	77.570	-0.184	-0.193
-328.172	252.721	0.058	0.098
-327.158	-83.819	-0.176	-0.055
-326.143	-127.620	-0.170	-0.024
-325.129	72.716	0.231	0.238
-324.114	13.651	-0.101	0.078
-323.099	-31.096	-0.138	0.077
-322.085	-200.000	-0.010	0.308
-321.070	535.049	0.034	-0.080
-320.056	75.326	-0.080	0.084
-319.041	18.747	0.204	-0.162
-318.026	133.611	0.065	-0.083
-317.012	-36.877	-0.084	0.044
-315.997	501.354	-0.065	0.149
-314.983	269.655	-0.128	-0.222
-313.968	15.963	-0.102	-0.080
-312.953	257.850	0.028	0.048
-311.939	800.000	-0.050	-0.201
-310.924	-112.537	0.310	0.061
-309.910	56.442	-0.225	-0.216
-308.895	695.856	0.076	-0.198
-307.880	260.446	0.127	-0.217
-306.866	-112.869	-0.340	-0.067
-305.851	129.536	0.070	-0.089
-304.837	117.638	-0.135	-0.165
-303.822	160.772	0.222	-0.306
-302.807	-57.140	0.139	0.060
-301.793	124.202	0.084	0.104
-300.778	-99.871	-0.380	-0.094
-299.764	177.562	-0.110	0.159
-298.749	800.000	0.050	-0.160
-297.735	-86.508	0.158	0.048
-296.720	116.353	0.089	0.107
-295.705	13.373	0.252	-0.193
-294.691	-200.000	-0.033	-0.303
-293.676	57.190	0.138	0.133
-292.662	24.436	0.143	-0.117
-291.647	61.086	-0.111	0.109
-290.632	800.000	0.022	-0.091
-289.618	-107.116	-0.079	-0.017
-288.603	126.502	-0.262	0.327
-287.589	296.971	-0.220	0.399
-286.574	170.626	0.111	0.158
-285.559	186.667	-0.111	-0.163
-284.545	-200.000	-0.008	0.087
-283.530	-200.000	-0.015	-0.217
-282.516	-200.000	-0.008	-0.314
-281.501	54.935	0.248	0.236
-280.486	-200.000	0.003	0.032
-279.472	-200.000	0.031	-0.208
-278.457	-48.192	0.278	-0.132
-277.443	-200.000	-0.035	0.395
-276.428	76.496	0.273	0.286
-275.413	199.799	0.088	-0.133
-274.399	-200.000	0.005	0.290
-273.384	-82.503	0.493	-0.158
-272.370	-39.813	-0.225	-0.116
-271.355	-101.452	-0.194	0.047
-270.340	197.785	0.148	-0.224
-269.326	140.323	0.342	-0.446
-268.311	-106.933	-0.112	0.025
-267.297	-53.599	-0.118	-0.053
-266.282	110.253	-0.122	-0.144
-265.267	-200.000	-0.069	-0.342
-264.253	34.835	-0.164	-0.142
-263.238	-200.000	-0.023	-0.331
-262.224	-200.000	-0.042	0.340
-261.209	498.981	0.113	-0.256
-260.195	-104.867	-0.124	0.028
-259.180	800.000	0.003	0.010
-258.165	-87.601	-0.157	0.047
-257.151	286.764	-0.024	-0.043
-256.136	78.638	0.176	0.185
-255.122	-134.803	-0.209	0.025
-254.107	193.693	-0.082	0.122
-253.092	414.630	0.076	-0.160
-252.078	92.388	0.149	-0.166
-251.063	232.406	0.074	0.119
-250.049	364.239	-0.152	-0.301
-249.034	9.141	0.139	0.104
-248.019	-95.469	0.147	0.039
-247.005	-31.942	-0.108	0.059
-245.990	800.000	-0.053	0.180
-244.976	800.000	0.083	0.286
-243.961	10.513	0.092	0.069
-242.946	173.529	-0.155	-0.220
-241.932	7.567	0.070	0.051
-240.917	-172.193	-0.093	-0.003
-239.903	90.824	-0.192	-0.212
-238.888	196.789	0.011	0.017
-237.873	-132.487	-0.134	0.017
-236.859	89.989	-0.100	-0.110
-235.844	-200.000	-0.010	-0.416
-234.830	-158.290	0.202	0.012
-233.815	-200.000	0.017	0.155
-232.800	800.000	0.082	0.257
-231.786	-0.206	-0.134	0.094
-230.771	340.575	0.196	0.376
-229.757	-200.000	0.032	0.141
-228.742	532.913	0.088	-0.205
-227.727	645.638	0.020	0.049
-226.713	672.609	-0.057	-0.146
-225.698	-200.000	0.011	-0.241
-224.684	-90.388	-0.211	-0.060
-223.669	-143.874	0.323	0.030
-222.655	-5.564	0.148	0.100
-221.640	-126.920	-0.008	-0.001
-220.625	-145.930	-0.270	-0.024
-219.611	-59.552	0.091	0.038
-218.596	11.522	-0.208	0.157
-217.582	-65.721	0.008	0.003
-216.567	-118.917	-0.100	0.017
-215.552	-13.406	-0.025	-0.016
-214.538	-6.788	-0.240	0.160
-213.523	-200.000	0.045	0.324
-212.509	-200.000	-0.005	0.539
-211.494	-154.667	0.162	-0.011
-210.479	-200.000	-0.016	-0.090
-209.465	-16.520	-0.179	-0.111
-208.450	-56.844	0.129	-0.056
-207.436	-181.015	0.132	-0.003
-206.421	-91.739	-0.270	-0.075
-205.406	-200.000	0.025	0.167
-204.392	98.683	0.349	0.396
-203.377	-35.377	-0.034	-0.018
-202.363	324.572	-0.078	-0.146
-201.348	237.408	-0.054	0.089
-200.333	-200.000	-0.010	0.212
-199.319	-91.879	-0.426	0.119
-198.304	-52.956	0.348	0.158
-197.290	-12.920	0.204	0.131
-196.275	-45.758	0.149	0.073
-195.260	800.000	0.019	-0.067
-194.246	-160.476	0.302	0.016
-193.231	-200.000	0.002	-0.168
-192.217	12.779	0.297	0.226
-191.202	-200.000	0.010	-0.257
-190.187	-200.000	0.009	0.059
-189.173	-44.414	0.315	0.155
-188.158	-200.000	-0.003	-0.282
-187.144	-53.455	-0.122	0.055
-186.129	-200.000	-0.039	0.218
-185.114	800.000	0.066	-0.221
-184.100	800.000	-0.065	-0.209
-183.085	-143.206	-0.107	0.010
-182.071	-131.915	-0.105	0.014
-181.056	499.945	0.057	-0.129
-180.042	-200.000	-0.010	0.079
-179.027	-49.837	0.184	-0.086
-178.012	-200.000	-0.025	-0.336
-176.998	151.210	-0.196	0.263
-175.983	203.123	-0.117	0.178
-174.969	800.000	0.047	-0.129
-173.954	-147.664	0.200	0.016
-172.939	-200.000	-0.026	0.152
-171.925	-87.924	-0.220	0.065
-170.910	-18.502	0.134	-0.082
-169.896	-23.731	-0.481	0.283
-168.881	-200.000	0.019	0.146
-167.866	-67.946	0.289	0.111
-166.852	-95.098	0.405	0.107
-165.837	-60.705	0.112	0.047
-164.823	-8.205	0.253	-0.167
-163.808	78.322	0.387	0.406
-162.793	-74.220	0.133	-0.047
-161.779	-70.300	0.288	-0.107
-160.764	-200.000	-0.005	-0.283
-159.750	-200.000	-0.046	0.201
-158.735	800.000	0.167	0.510
-157.720	609.930	-0.009	-0.022
-156.706	-119.676	-0.124	0.021
-155.691	-78.497	0.235	-0.079
-154.677	-11.778	0.211	-0.136
-153.662	-30.951	-0.304	-0.168
-152.647	336.517	-0.100	-0.190
-151.633	202.468	-0.019	-0.029
-150.618	-200.000	0.017	0.203
-149.604	800.000	-0.101	-0.340
-148.589	-200.000	-0.029	0.125
-147.574	175.365	0.175	-0.249
-146.560	9.182	0.145	-0.108
-145.545	12.161	0.377	-0.284
-144.531	-200.000	-0.033	0.325
-143.516	-157.398	-0.343	-0.020
-142.502	-6.022	0.095	-0.064
-141.487	-73.786	-0.336	0.120
-140.472	-75.112	-0.191	-0.067
-139.458	-200.000	0.047	0.202
-138.443	192.243	-0.169	-0.251
-137.429	313.384	0.138	-0.254
-136.414	-200.000	0.009	0.400
-135.399	-49.212	0.143	0.067
-134.385	-140.324	0.187	-0.019
-133.370	800.000	-0.083	0.250
-132.356	552.188	0.015	-0.034
-131.341	-171.910	-0.278	-0.009
-130.326	-86.261	0.148	0.045
-129.312	-152.329	0.281	-0.020
-128.297	-60.541	0.310	-0.129
-127.283	-200.000	-0.056	-0.267
-126.268	-200.000	0.007	-0.138
-125.253	65.572	0.315	0.312
-124.239	162.628	0.213	-0.293
-123.224	800.000	-0.069	0.214
-122.210	-200.000	-0.054	0.345
-121.195	-200.000	-0.012	0.059
