DTS Sentinel unit serial number:	SN413079Multiplexer serial number:	ORYXHardware model number:	OX4-SRSoftware version number:	ORYX F/W v4.00 Oryx Data Collector v3.7.2.0data status	okinstallation	princeton_trtdifferential loss correction	single-endedforward channel	channel 2reverse channel	N/Adate	2019/09/18time	19:43:35forward acquisition time	60.00reverse acquisition time	0.00gamma	496.2192k internal	0.2331k external	0.2331temperature offset calibration	1.0036default loss term (dB/km)	0.3790temperature slope calibration	1.0000multiplexer offset coefficient	1.0000multiplexer slope coefficient	1.0000fibre end	0.00T internal ref (°C)	31.67T ext. ref 1 (°C)	1.05T ext. ref 2 (°C)	22.12length (m)	temperature (°C)	Stokes	anti-Stokes-747.200	-200.000	0.066	-0.320
-746.185	-200.000	-0.004	-0.148
-745.171	800.000	-0.094	-0.312
-744.156	-119.814	-0.253	0.044
-743.142	351.057	-0.066	-0.132
-742.127	-73.139	0.141	0.052
-741.112	-200.000	0.110	0.554
-740.098	800.000	-0.099	0.363
-739.083	-35.523	0.422	-0.231
-738.069	267.432	-0.195	0.343
-737.054	800.000	-0.035	0.117
-736.039	497.295	0.102	-0.236
-735.025	-103.877	0.092	0.022
-734.010	-74.317	-0.326	-0.118
-732.996	330.630	0.135	-0.261
-731.981	342.012	0.132	-0.260
-730.966	-200.000	0.005	-0.027
-729.952	-51.396	0.391	0.184
-728.937	-193.463	-0.477	-0.004
-727.923	-117.288	-0.329	-0.060
-726.908	-61.414	0.277	0.117
-725.894	3.538	-0.431	-0.316
-724.879	31.683	-0.267	0.231
-723.864	-108.294	0.055	0.012
-722.850	-59.854	-0.042	0.018
-721.835	-200.000	0.007	0.130
-720.821	-29.270	-0.197	-0.114
-719.806	-106.907	0.259	-0.058
-718.791	800.000	-0.031	0.118
-717.777	-90.334	-0.083	0.024
-716.762	-200.000	0.024	0.160
-715.748	-25.301	-0.116	0.069
-714.733	-79.144	0.061	0.021
-713.718	-98.781	-0.406	0.104
-712.704	391.027	-0.213	-0.444
-711.689	735.509	-0.100	-0.268
-710.675	-97.160	-0.156	0.041
-709.660	478.898	-0.145	0.331
-708.645	-200.000	-0.012	0.145
-707.631	-52.873	0.180	0.084
-706.616	-200.000	-0.078	-0.398
-705.602	-48.399	0.112	-0.054
-704.587	-141.594	0.224	-0.023
-703.572	51.170	-0.042	-0.040
-702.558	275.775	-0.135	0.240
-701.543	800.000	-0.017	0.057
-700.529	-21.645	-0.279	0.171
-699.514	800.000	-0.027	-0.117
-698.499	-200.000	0.002	-0.168
-697.485	-6.476	0.169	-0.116
-696.470	-200.000	-0.016	-0.111
-695.456	-99.604	-0.105	0.026
-694.441	79.371	-0.239	-0.257
-693.426	-149.706	-0.078	-0.006
-692.412	-55.455	-0.120	0.054
-691.397	-172.788	-0.219	-0.007
-690.383	800.000	-0.098	-0.364
-689.368	269.556	0.063	-0.111
-688.354	-49.195	0.286	-0.137
-687.339	-92.901	-0.052	-0.015
-686.324	-173.643	0.173	0.005
-685.310	-29.674	0.102	-0.059
-684.295	135.206	0.082	-0.107
-683.281	-15.072	0.466	-0.300
-682.266	-81.708	-0.262	0.086
-681.251	559.852	0.065	-0.159
-680.237	-200.000	-0.020	0.406
-679.222	-200.000	0.032	-0.446
-678.208	800.000	-0.009	-0.029
-677.193	104.660	-0.113	-0.133
-676.178	57.137	-0.184	-0.180
-675.164	-200.000	-0.025	0.301
-674.149	800.000	0.050	0.210
-673.135	-200.000	0.006	-0.177
-672.120	-159.569	0.325	-0.018
-671.105	-200.000	0.027	0.161
-670.091	-153.543	-0.289	-0.020
-669.076	-56.494	-0.067	-0.030
-668.062	-200.000	-0.017	-0.187
-667.047	413.317	-0.089	-0.190
-666.032	374.777	0.076	-0.156
-665.018	-200.000	0.028	-0.379
-664.003	152.748	0.280	0.384
-662.989	-40.198	-0.146	-0.076
-661.974	-53.007	0.274	-0.126
-660.959	-200.000	0.050	0.231
-659.945	14.853	0.108	0.085
-658.930	-200.000	0.008	-0.230
-657.916	-2.906	-0.281	0.197
-656.901	1.087	-0.090	-0.064
-655.886	137.883	-0.237	-0.311
-654.872	-79.913	0.071	-0.024
-653.857	-25.503	-0.122	-0.072
-652.843	42.426	-0.218	-0.199
-651.828	-98.564	0.192	-0.049
-650.814	108.834	-0.116	0.139
-649.799	-200.000	0.020	0.176
-648.784	800.000	-0.069	-0.208
-647.770	19.763	-0.418	0.338
-646.755	-50.969	-0.018	0.008
-645.741	430.404	-0.033	0.072
-644.726	34.030	0.053	-0.046
-643.711	-117.778	0.126	0.023
-642.697	234.761	-0.191	-0.316
-641.682	-138.027	0.336	0.038
-640.668	-22.655	0.367	-0.223
-639.653	800.000	0.062	-0.192
-638.638	-200.000	-0.016	-0.344
-637.624	-112.793	-0.506	-0.101
-636.609	-119.602	0.114	-0.020
-635.595	785.814	0.011	-0.030
-634.580	633.603	0.157	-0.398
-633.565	309.806	-0.051	0.095
-632.551	76.992	0.169	0.180
-631.536	249.928	0.171	0.290
-630.522	257.718	-0.217	0.375
-629.507	-73.985	-0.045	-0.016
-628.492	-190.650	0.259	0.003
-627.478	-15.325	-0.144	-0.092
-626.463	800.000	-0.178	0.526
-625.449	64.757	-0.262	-0.265
-624.434	318.925	0.072	0.137
-623.419	21.715	0.061	0.050
-622.405	-200.000	0.044	-0.205
-621.390	-171.531	0.263	0.009
-620.376	-200.000	-0.013	-0.100
-619.361	800.000	-0.070	0.294
-618.346	162.164	0.045	-0.063
-617.332	-111.523	0.538	-0.110
-616.317	-8.674	0.106	-0.072
-615.303	-135.206	0.175	0.021
-614.288	-43.939	-0.228	0.115
-613.273	-59.988	-0.072	0.031
-612.259	-95.126	0.211	-0.057
-611.244	-200.000	-0.027	-0.243
-610.230	-200.000	0.014	-0.135
-609.215	800.000	-0.034	0.145
-608.201	7.668	0.255	0.191
-607.186	521.933	0.059	-0.139
-606.171	22.498	0.067	-0.055
-605.157	32.460	-0.198	0.171
-604.142	61.509	0.182	-0.181
-603.128	62.991	0.194	-0.194
-602.113	800.000	-0.078	-0.296
-601.098	338.887	-0.223	0.434
-600.084	-133.603	0.090	0.011
-599.069	-124.907	0.457	0.070
-598.055	167.696	-0.093	-0.132
-597.040	384.195	-0.035	0.071
-596.025	302.836	0.148	-0.274
-595.011	800.000	-0.059	0.165
-593.996	51.193	-0.077	-0.073
-592.982	-70.207	0.213	-0.081
-591.967	62.346	-0.101	0.101
-590.952	172.611	-0.178	-0.256
-589.938	-153.428	0.177	0.012
-588.923	334.282	-0.107	0.207
-587.909	-200.000	0.032	0.254
-586.894	800.000	0.089	0.266
-585.879	-13.329	0.251	0.163
-584.865	523.193	0.041	0.096
-583.850	91.192	-0.185	0.208
-582.836	167.736	0.020	0.029
-581.821	-65.541	-0.211	-0.085
-580.806	318.787	0.058	-0.111
-579.792	178.055	-0.023	0.034
-578.777	800.000	-0.029	0.099
-577.763	-200.000	-0.017	-0.121
-576.748	-52.358	0.096	-0.045
-575.733	-37.961	0.176	-0.093
-574.719	695.385	-0.086	-0.226
-573.704	444.125	0.066	0.144
-572.690	134.115	-0.101	-0.131
-571.675	-45.845	0.305	-0.151
-570.661	800.000	0.057	0.159
-569.646	118.836	-0.211	0.261
-568.631	9.327	-0.319	-0.241
-567.617	135.592	-0.041	0.053
-566.602	-39.279	-0.258	0.135
-565.588	-16.564	-0.302	-0.191
-564.573	-22.827	-0.240	-0.145
-563.558	-200.000	0.003	-0.157
-562.544	91.706	0.184	0.207
-561.529	-125.747	0.121	0.018
-560.515	3.155	-0.130	0.095
-559.500	17.107	-0.238	0.189
-558.485	-200.000	0.039	-0.175
-557.471	118.220	0.224	0.276
-556.456	-7.283	0.107	0.073
-555.442	168.678	-0.090	0.128
-554.427	800.000	-0.063	-0.190
-553.412	800.000	0.043	0.132
-552.398	110.949	-0.098	0.118
-551.383	430.547	0.079	-0.170
-550.369	208.551	0.099	-0.155
-549.354	82.821	0.156	0.169
-548.339	-200.000	0.000	-0.068
-547.325	-200.000	-0.086	-0.398
-546.310	-124.207	-0.158	0.025
-545.296	95.790	-0.020	0.023
-544.281	-200.000	0.068	-0.381
-543.266	307.586	-0.050	-0.093
-542.252	-28.331	-0.087	0.050
-541.237	-200.000	-0.027	-0.125
-540.223	75.804	0.150	-0.158
-539.208	226.776	-0.149	-0.242
-538.193	16.252	0.171	-0.135
-537.179	242.837	-0.088	0.148
-536.164	-117.943	-0.157	-0.028
-535.150	-49.438	0.130	0.062
-534.135	419.103	-0.095	-0.203
-533.121	800.000	0.071	0.254
-532.106	60.967	0.174	0.172
-531.091	-150.955	0.109	-0.008
-530.077	38.631	-0.146	0.130
-529.062	-120.512	0.462	-0.078
-528.048	162.404	-0.240	0.336
-527.033	-31.023	0.138	-0.078
-526.018	800.000	0.060	-0.195
-525.004	267.632	-0.060	0.106
-523.989	-200.000	0.014	0.074
-522.975	29.723	0.329	-0.279
-521.960	18.526	-0.084	0.067
-520.945	-16.332	-0.306	-0.194
-519.931	139.020	-0.117	-0.154
-518.916	-200.000	0.029	0.162
-517.902	-200.000	-0.041	-0.212
-516.887	165.949	0.193	0.273
-515.872	787.270	0.040	0.109
-514.858	86.610	0.343	-0.377
-513.843	476.787	-0.158	0.356
-512.829	-107.411	-0.066	-0.014
-511.814	-1.575	0.186	-0.131
-510.799	259.906	-0.130	0.223
-509.785	60.255	0.122	0.121
-508.770	-84.946	0.232	-0.072
-507.756	-64.105	-0.223	0.091
-506.741	-144.732	0.249	0.023
-505.726	389.567	0.049	-0.100
-504.712	-200.000	0.015	0.191
-503.697	-123.300	0.158	0.025
-502.683	-104.794	0.566	0.130
-501.668	-43.561	-0.216	-0.108
-500.653	82.896	0.090	-0.097
-499.639	800.000	0.080	0.258
-498.624	352.707	-0.225	0.444
-497.610	-67.431	-0.232	0.091
-496.595	-58.383	-0.181	-0.079
-495.581	713.581	-0.069	0.181
-494.566	800.000	-0.098	-0.400
-493.551	-108.757	-0.287	-0.061
-492.537	141.803	-0.225	-0.297
-491.522	-200.000	0.032	-0.158
-490.508	-200.000	-0.030	0.218
-489.493	79.905	0.207	-0.222
-488.478	-127.266	-0.189	-0.028
-487.464	-49.135	-0.215	0.102
-486.449	57.561	-0.100	0.098
-485.435	183.974	0.056	0.083
-484.420	-122.741	-0.306	0.049
-483.405	346.884	-0.121	-0.237
-482.391	267.535	-0.088	0.154
-481.376	-21.156	-0.171	0.104
-480.362	-200.000	0.005	0.071
-479.347	800.000	0.073	-0.277
-478.332	362.108	0.082	-0.164
-477.318	647.629	0.049	0.124
-476.303	-152.081	-0.409	0.030
-475.289	-127.504	0.082	-0.012
-474.274	-112.734	-0.227	-0.045
-473.259	-68.497	0.173	-0.067
-472.245	-200.000	0.022	-0.188
-471.230	-76.386	0.382	0.134
-470.216	-200.000	-0.068	0.297
-469.201	335.365	-0.038	0.073
-468.186	-200.000	0.004	-0.159
-467.172	800.000	-0.011	0.033
-466.157	-200.000	-0.060	0.306
-465.143	82.088	-0.175	-0.188
-464.128	-11.934	-0.123	0.080
-463.113	201.632	0.133	-0.204
-462.099	472.299	-0.075	-0.168
-461.084	-169.897	-0.141	0.005
-460.070	-12.352	0.108	-0.071
-459.055	-200.000	-0.064	0.376
-458.040	-27.281	0.106	0.062
-457.026	528.745	-0.109	0.255
-456.011	736.519	-0.017	-0.045
-454.997	76.859	0.197	0.208
-453.982	-200.000	0.005	-0.094
-452.968	137.824	-0.205	-0.268
-451.953	97.672	-0.080	-0.092
-450.938	92.351	0.257	-0.289
-449.924	270.273	-0.082	0.143
-448.909	800.000	0.134	0.446
-447.895	-174.012	0.418	-0.012
-446.880	-200.000	0.040	0.451
-445.865	-200.000	-0.009	0.192
-444.851	-72.987	-0.074	0.027
-443.836	229.316	-0.232	0.376
-442.822	-200.000	0.059	0.392
-441.807	-60.588	-0.091	0.038
-440.792	-51.702	-0.198	-0.092
-439.778	-10.321	0.137	-0.090
-438.763	-200.000	0.017	0.216
-437.749	123.314	-0.163	0.203
-436.734	-200.000	-0.024	-0.158
-435.719	-200.000	-0.006	-0.071
-434.705	149.070	0.127	-0.171
-433.690	30.686	-0.088	-0.075
-432.676	800.000	-0.056	-0.182
-431.661	800.000	0.061	0.186
-430.646	57.326	0.011	0.010
-429.632	149.223	0.056	0.076
-428.617	-45.293	-0.319	0.158
-427.603	-46.723	0.084	-0.041
-426.588	780.786	-0.070	0.191
-425.573	-100.026	0.235	-0.058
-424.559	-32.869	0.103	-0.057
-423.544	-38.881	-0.360	-0.189
-422.530	-200.000	-0.006	-0.192
-421.515	352.928	0.111	0.219
-420.500	-136.523	0.307	0.035
-419.486	800.000	-0.124	-0.386
-418.471	-120.645	0.224	0.038
-417.457	230.022	0.167	-0.272
-416.442	-76.152	-0.282	0.099
-415.428	-200.000	0.025	-0.248
-414.413	163.542	0.265	0.370
-413.398	797.707	0.166	-0.454
-412.384	268.070	0.177	0.308
-411.369	624.040	0.089	0.223
-410.355	-181.454	0.183	0.004
-409.340	-31.962	-0.252	-0.140
-408.325	-200.000	-0.041	0.209
-407.311	-126.218	-0.253	-0.038
-406.296	-200.000	0.040	-0.307
-405.282	-51.889	-0.534	0.247
-404.267	-46.630	-0.134	-0.065
-403.252	-200.000	0.014	0.210
-402.238	-75.156	0.406	-0.144
-401.223	399.715	-0.087	0.181
-400.209	700.123	-0.077	-0.201
-399.194	-24.036	0.350	0.208
-398.179	75.816	-0.105	-0.110
-397.165	134.926	-0.081	-0.105
-396.150	-200.000	-0.006	-0.259
-395.136	-134.895	0.180	0.022
-394.121	-65.869	0.284	-0.113
-393.106	-200.000	0.017	-0.126
-392.092	-9.989	0.114	-0.075
-391.077	-26.865	-0.151	-0.088
-390.063	49.807	-0.118	-0.110
-389.048	130.689	-0.175	-0.223
-388.033	2.901	0.078	0.056
-387.019	216.526	-0.088	0.139
-386.004	-66.222	0.071	0.028
-384.990	93.561	-0.331	0.372
-383.975	-110.029	-0.262	-0.054
-382.960	800.000	0.033	0.142
-381.946	-200.000	0.030	-0.157
-380.931	63.061	-0.234	0.233
-379.917	-200.000	-0.012	0.284
-378.902	188.848	-0.196	0.290
-377.888	-200.000	0.000	-0.195
-376.873	14.027	0.282	-0.218
-375.858	800.000	0.038	0.145
-374.844	-200.000	-0.007	0.269
-373.829	-101.163	-0.056	-0.014
-372.815	114.726	-0.197	0.238
-371.800	753.434	-0.219	0.586
-370.785	-96.556	-0.183	-0.048
-369.771	9.743	-0.229	-0.172
-368.756	107.308	-0.088	0.104
-367.742	-200.000	0.016	-0.120
-366.727	800.000	-0.133	-0.398
-365.712	143.691	0.214	-0.282
-364.698	800.000	0.041	-0.127
-363.683	77.523	-0.190	-0.201
-362.669	-200.000	-0.099	0.496
-361.654	-200.000	0.010	-0.085
-360.639	800.000	0.058	-0.167
-359.625	800.000	0.026	-0.095
-358.610	-16.959	0.044	0.028
-357.596	73.806	-0.283	-0.294
-356.581	3.402	-0.194	0.140
-355.566	-68.761	-0.077	0.030
-354.552	601.410	0.246	-0.605
-353.537	-18.704	-0.084	-0.052
-352.523	-160.797	0.296	0.016
-351.508	-91.557	0.439	-0.124
-350.493	-140.514	-0.369	-0.038
-349.479	110.862	0.085	0.102
-348.464	800.000	0.064	0.179
-347.450	-200.000	-0.047	0.292
-346.435	800.000	-0.064	0.227
-345.420	-138.498	0.345	-0.038
-344.406	20.972	-0.101	0.081
-343.391	125.900	-0.123	0.153
-342.377	-200.000	0.049	0.211
-341.362	-78.040	0.261	0.089
-340.348	-40.933	-0.156	0.080
-339.333	800.000	0.107	-0.324
-338.318	-28.885	-0.223	0.127
-337.304	225.146	0.068	-0.109
-336.289	-183.050	0.031	0.001
-335.275	-166.203	-0.078	0.003
-334.260	616.195	-0.115	-0.287
-333.245	-135.478	0.308	0.036
-332.231	-7.783	0.039	-0.026
-331.216	239.865	-0.137	-0.226
-330.202	226.786	-0.121	-0.195
-329.187	-50.048	0.124	-0.058
-328.172	2.889	-0.241	0.173
-327.158	54.097	-0.318	0.303
-326.143	78.202	0.070	-0.074
-325.129	-40.684	0.089	-0.046
-324.114	-49.099	0.178	0.084
-323.099	-49.402	-0.091	-0.043
-322.085	-5.648	0.209	-0.142
-321.070	-33.949	0.428	-0.233
-320.056	38.904	-0.133	0.118
-319.041	-136.919	-0.240	-0.027
-318.026	-200.000	-0.038	-0.174
-317.012	523.335	0.089	-0.206
-315.997	77.148	-0.157	-0.165
-314.983	-95.917	-0.264	0.070
-313.968	800.000	0.070	-0.206
-312.953	-164.535	-0.284	-0.013
-311.939	800.000	0.025	-0.102
-310.924	18.592	0.338	-0.268
-309.910	-107.462	0.250	-0.054
-308.895	1.784	-0.086	0.062
-307.880	81.926	0.230	0.246
-306.866	213.769	-0.100	0.157
-305.851	732.696	0.066	0.176
-304.837	-28.488	-0.275	-0.157
-303.822	357.124	0.160	0.315
-302.807	47.263	-0.090	0.083
-301.793	-200.000	0.009	-0.127
-300.778	800.000	-0.060	0.174
-299.764	105.193	-0.130	0.152
-298.749	-111.164	0.268	0.054
-297.735	-45.382	0.252	-0.124
-296.720	800.000	-0.072	0.227
-295.705	-106.089	0.215	-0.048
-294.691	-118.314	-0.122	0.022
-293.676	94.285	0.106	-0.119
-292.662	53.122	-0.240	-0.227
-291.647	-151.267	0.126	0.009
-290.632	-45.760	0.263	-0.129
-289.618	62.844	0.276	0.273
-288.603	-200.000	-0.008	0.135
-287.589	19.228	0.185	0.147
-286.574	546.333	0.034	0.080
-285.559	0.180	0.188	0.133
-284.545	-7.856	0.134	-0.089
-283.530	33.371	-0.217	-0.186
-282.516	-200.000	-0.016	-0.180
-281.501	87.110	0.235	0.256
-280.486	-200.000	-0.048	-0.230
-279.472	-200.000	0.020	0.141
-278.457	-89.818	0.048	-0.014
-277.443	11.680	-0.206	-0.156
-276.428	-145.188	0.126	0.011
-275.413	171.228	-0.083	-0.118
-274.399	-200.000	0.020	0.090
-273.384	609.404	-0.084	0.208
-272.370	29.719	-0.191	-0.160
-271.355	-31.032	-0.123	-0.068
-270.340	6.908	-0.209	0.154
-269.326	-53.832	-0.188	-0.084
-268.311	800.000	0.058	-0.197
-267.297	33.299	-0.206	-0.177
-266.282	14.801	0.164	0.127
-265.267	113.494	-0.103	-0.123
-264.253	-34.937	-0.131	-0.071
-263.238	-200.000	0.109	-0.511
-262.224	-70.656	-0.542	-0.202
-261.209	-200.000	-0.024	-0.146
-260.195	-25.917	-0.192	0.112
-259.180	-106.001	0.125	-0.028
-258.165	396.716	0.096	-0.198
-257.151	-118.592	0.285	0.050
-256.136	261.882	-0.072	0.124
-255.122	-200.000	0.014	0.519
-254.107	290.195	-0.046	-0.083
-253.092	800.000	0.065	-0.233
-252.078	130.693	0.075	0.095
-251.063	-129.742	-0.265	0.036
-250.049	4.006	0.109	0.079
-249.034	356.070	0.099	-0.195
-248.019	-90.581	0.452	0.129
-247.005	208.108	0.429	0.662
-245.990	-200.000	-0.037	0.493
-244.976	-7.034	0.114	0.077
-243.961	-121.492	0.218	0.036
-242.946	-200.000	0.035	0.175
-241.932	-200.000	-0.045	0.325
-240.917	-197.950	-0.194	0.001
-239.903	-150.129	-0.260	0.020
-238.888	129.143	0.190	-0.239
-237.873	145.767	-0.016	-0.021
-236.859	-64.149	0.259	0.104
-235.844	800.000	-0.035	0.113
-234.830	-30.913	-0.111	-0.062
-233.815	45.275	0.285	-0.260
-232.800	800.000	-0.053	0.152
-231.786	-62.088	-0.159	0.065
-230.771	-134.263	0.134	-0.016
-229.757	85.882	-0.162	-0.176
-228.742	411.393	0.078	-0.163
-227.727	-100.995	-0.186	-0.045
-226.713	-1.689	0.120	0.083
-225.698	-107.148	0.158	0.034
-224.684	731.243	0.054	0.141
-223.669	-200.000	0.010	-0.410
-222.655	-200.000	-0.032	-0.234
-221.640	0.261	0.057	0.040
-220.625	-168.347	-0.326	-0.012
-219.611	304.819	-0.080	0.146
-218.596	-200.000	-0.016	0.220
-217.582	-57.342	0.492	0.213
-216.567	-200.000	0.131	-0.586
-215.552	-200.000	-0.036	-0.195
-214.538	-122.210	-0.335	0.054
-213.523	-96.019	-0.314	-0.082
-212.509	-17.224	0.170	0.106
-211.494	572.550	0.107	0.258
-210.479	-150.123	-0.237	-0.018
-209.465	-200.000	0.016	-0.209
-208.450	68.275	-0.121	-0.122
-207.436	20.955	0.179	-0.143
-206.421	46.006	0.149	0.135
-205.406	224.345	0.182	0.290
-204.392	198.247	-0.180	0.271
-203.377	-200.000	0.008	-0.055
-202.363	96.678	-0.224	-0.253
-201.348	-3.429	-0.256	-0.175
-200.333	-173.627	0.117	-0.003
-199.319	-200.000	-0.062	-0.335
-198.304	-4.758	0.192	0.130
-197.290	485.099	0.141	-0.317
-196.275	-116.520	-0.184	0.033
-195.260	158.648	-0.038	0.052
-194.246	-25.525	0.198	0.115
-193.231	21.770	0.106	-0.085
-192.217	59.448	0.179	-0.174
-191.202	419.814	-0.090	0.190
-190.187	-200.000	-0.011	-0.162
-189.173	393.875	-0.074	-0.151
-188.158	800.000	0.102	-0.315
-187.144	-66.122	-0.080	0.031
-186.129	798.217	-0.070	-0.191
-185.114	-200.000	-0.017	0.103
-184.100	305.296	0.143	0.262
-183.085	-200.000	-0.023	0.235
-182.071	-44.928	0.415	0.203
-181.056	-90.125	0.124	0.036
-180.042	-57.775	0.308	0.133
-179.027	-39.714	0.374	0.193
-178.012	-200.000	-0.020	-0.304
-176.998	-200.000	-0.072	-0.524
-175.983	-175.214	-0.438	-0.012
-174.969	-173.810	0.193	-0.006
-173.954	-31.418	-0.326	0.181
-172.939	-102.545	-0.254	-0.060
-171.925	145.935	-0.226	-0.299
-170.910	-200.000	0.009	0.288
-169.896	-200.000	-0.075	-0.332
-168.881	554.723	-0.007	-0.016
-167.866	-200.000	0.020	0.157
-166.852	800.000	0.043	-0.132
-165.837	-40.768	-0.340	-0.173
-164.823	-61.573	0.203	-0.084
-163.808	-45.219	0.225	-0.110
-162.793	-111.996	-0.312	-0.062
-161.779	800.000	-0.052	0.154
-160.764	800.000	-0.072	0.246
-159.750	228.066	0.074	0.118
-158.735	94.417	0.091	-0.102
-157.720	89.069	-0.155	0.169
-156.706	-89.140	0.228	0.066
-155.691	-200.000	0.048	0.230
-154.677	-200.000	-0.004	-0.061
-153.662	-135.344	-0.222	-0.026
-152.647	800.000	-0.079	0.231
-151.633	15.341	-0.196	-0.151
-150.618	715.588	0.104	-0.271
-149.604	207.261	0.215	-0.330
-148.589	800.000	0.067	-0.186
-147.574	800.000	-0.073	0.204
-146.560	-66.078	-0.202	0.079
-145.545	-54.851	-0.363	0.161
-144.531	-122.702	0.175	-0.028
-143.516	-200.000	-0.036	0.395
-142.502	33.588	0.262	-0.224
-141.487	214.458	0.168	0.261
-140.472	-166.338	-0.197	0.008
-139.458	239.709	-0.202	0.330
-138.443	-49.010	-0.144	-0.068
-137.429	15.753	0.270	-0.208
-136.414	-200.000	-0.026	0.205
-135.399	-11.160	0.318	-0.206
-134.385	800.000	-0.044	-0.172
-133.370	386.198	-0.131	-0.266
-132.356	625.689	-0.108	0.268
-131.341	-200.000	0.036	-0.168
-130.326	49.975	-0.036	0.034
-129.312	137.368	-0.163	0.209
-128.297	-98.044	0.154	-0.039
-127.283	171.498	0.134	0.189
-126.268	587.314	0.147	0.355
-125.253	-200.000	0.000	0.074
-124.239	401.787	-0.150	0.309
-123.224	195.961	0.264	0.394
-122.210	-99.690	-0.271	-0.067
