DTS Sentinel unit serial number:	SN413079Multiplexer serial number:	ORYXHardware model number:	OX4-SRSoftware version number:	ORYX F/W v4.00 Oryx Data Collector v3.7.2.0data status	okinstallation	princeton_trtdifferential loss correction	single-endedforward channel	channel 2reverse channel	N/Adate	2019/09/12time	14:01:10forward acquisition time	60.00reverse acquisition time	0.00gamma	496.2192k internal	0.2300k external	0.2300temperature offset calibration	1.0084default loss term (dB/km)	0.3790temperature slope calibration	1.0000multiplexer offset coefficient	1.0000multiplexer slope coefficient	1.0000fibre end	0.00T internal ref (°C)	40.56T ext. ref 1 (°C)	2.19T ext. ref 2 (°C)	34.17length (m)	temperature (°C)	Stokes	anti-Stokes-747.200	-200.000	0.064	0.321
-746.185	72.024	-0.203	0.216
-745.171	-200.000	0.031	-0.157
-744.156	-162.537	-0.336	0.017
-743.142	247.957	0.119	-0.205
-742.127	-200.000	-0.069	0.365
-741.112	-14.408	0.182	-0.120
-740.098	238.600	-0.087	0.147
-739.083	-53.301	-0.185	0.086
-738.069	-200.000	-0.066	0.424
-737.054	-200.000	-0.171	0.000
-736.039	545.193	-0.038	-0.093
-735.025	-63.789	0.190	0.079
-734.010	-21.504	0.203	0.126
-732.996	-200.000	0.005	0.269
-731.981	-74.941	0.093	0.034
-730.966	-200.000	-0.073	-0.326
-729.952	95.274	0.219	-0.254
-728.937	-200.000	0.057	-0.256
-727.923	-21.602	-0.248	-0.154
-726.908	99.395	-0.111	0.131
-725.894	11.213	-0.144	0.112
-724.879	221.094	-0.113	0.185
-723.864	-5.138	-0.038	-0.026
-722.850	-130.705	0.378	0.052
-721.835	-102.638	-0.225	-0.055
-720.821	25.620	0.060	-0.051
-719.806	-87.279	0.178	-0.055
-718.791	-175.904	0.210	-0.006
-717.777	190.315	-0.175	-0.268
-716.762	14.437	0.276	-0.220
-715.748	-135.667	-0.396	0.048
-714.733	35.989	0.140	-0.126
-713.718	105.142	-0.152	-0.183
-712.704	-200.000	0.040	0.420
-711.689	-77.904	-0.013	-0.005
-710.675	180.896	-0.168	0.251
-709.660	-7.829	-0.102	-0.070
-708.645	216.884	0.140	0.227
-707.631	-200.000	-0.002	-0.196
-706.616	-0.377	-0.052	-0.037
-705.602	-200.000	0.052	0.243
-704.587	-61.446	-0.180	-0.077
-703.572	34.209	0.061	-0.055
-702.558	251.439	-0.180	-0.312
-701.543	-200.000	-0.014	-0.271
-700.529	184.013	-0.037	-0.055
-699.514	72.266	-0.091	0.097
-698.499	-153.822	0.184	-0.013
-697.485	-83.179	0.063	-0.021
-696.470	-3.821	0.383	-0.271
-695.456	800.000	-0.045	-0.140
-694.441	338.677	0.167	-0.331
-693.426	-200.000	-0.034	0.182
-692.412	172.045	0.061	0.090
-691.397	-42.318	-0.326	0.169
-690.383	-29.372	0.111	-0.065
-689.368	-114.568	-0.190	0.037
-688.354	800.000	0.046	0.164
-687.339	800.000	0.021	0.065
-686.324	205.613	0.068	0.107
-685.310	86.522	0.077	0.087
-684.295	-15.816	-0.208	-0.135
-683.281	102.649	0.011	-0.013
-682.266	-200.000	-0.002	0.008
-681.251	-200.000	-0.005	-0.177
-680.237	800.000	-0.061	-0.249
-679.222	-45.917	-0.128	0.064
-678.208	-120.950	-0.133	-0.023
-677.193	-131.570	-0.421	0.056
-676.178	106.698	0.183	0.221
-675.164	-14.978	0.296	-0.193
-674.149	333.569	0.094	0.185
-673.135	-200.000	-0.048	-0.330
-672.120	60.881	0.104	-0.104
-671.105	-4.111	0.239	0.168
-670.091	-23.096	0.053	0.032
-669.076	-75.378	0.270	0.098
-668.062	329.779	-0.175	-0.343
-667.047	800.000	-0.038	-0.145
-666.032	557.124	-0.115	-0.283
-665.018	-200.000	0.012	-0.078
-664.003	-200.000	0.022	-0.484
-662.989	-72.923	-0.132	-0.049
-661.974	-200.000	-0.064	0.287
-660.959	-200.000	-0.015	-0.278
-659.945	228.592	-0.183	0.304
-658.930	168.418	-0.118	0.171
-657.916	-200.000	-0.047	-0.249
-656.901	-129.745	0.249	-0.035
-655.886	-21.616	0.141	-0.088
-654.872	-70.846	-0.133	-0.051
-653.857	-172.423	0.204	-0.007
-652.843	-126.113	0.232	-0.035
-651.828	-146.067	0.156	0.014
-650.814	-200.000	-0.028	0.398
-649.799	54.654	-0.113	0.110
-648.784	23.902	-0.015	-0.013
-647.770	252.363	-0.095	0.164
-646.755	-200.000	-0.017	0.295
-645.741	-200.000	0.011	0.095
-644.726	380.962	-0.054	0.112
-643.711	128.217	0.145	-0.188
-642.697	18.416	-0.113	-0.092
-641.682	217.843	0.019	0.032
-640.668	-157.664	-0.367	-0.022
-639.653	-20.840	0.103	0.064
-638.638	-46.382	0.080	0.040
-637.624	-172.440	0.150	0.005
-636.609	-7.421	-0.256	0.176
-635.595	-65.881	0.120	-0.049
-634.580	57.272	-0.115	-0.114
-633.565	8.141	-0.378	-0.288
-632.551	-99.848	0.382	0.097
-631.536	-38.437	0.380	-0.204
-630.522	484.072	0.083	-0.192
-629.507	163.059	-0.177	0.252
-628.492	-52.868	-0.080	-0.038
-627.478	-200.000	0.026	-0.168
-626.463	-62.280	-0.132	0.056
-625.449	800.000	-0.124	0.356
-624.434	20.207	-0.178	-0.146
-623.419	-62.013	-0.235	0.100
-622.405	-200.000	0.009	0.196
-621.390	800.000	-0.039	0.124
-620.376	17.029	-0.098	-0.079
-619.361	800.000	0.023	-0.077
-618.346	17.057	-0.123	-0.099
-617.332	117.745	-0.215	-0.268
-616.317	-160.700	-0.028	0.002
-615.303	-200.000	-0.010	-0.116
-614.288	90.540	0.127	0.144
-613.273	-200.000	-0.007	-0.072
-612.259	183.872	-0.157	-0.235
-611.244	46.319	0.124	-0.117
-610.230	-200.000	0.013	0.216
-609.215	-88.115	0.198	0.060
-608.201	-114.951	-0.155	-0.030
-607.186	266.331	-0.132	-0.234
-606.171	-64.579	0.340	-0.140
-605.157	-200.000	-0.047	0.217
-604.142	94.401	-0.195	0.225
-603.128	-72.261	-0.081	-0.030
-602.113	401.640	0.034	-0.073
-601.098	-200.000	0.016	-0.101
-600.084	509.561	-0.119	0.281
-599.069	-12.795	0.477	-0.315
-598.055	-86.260	0.285	0.089
-597.040	119.074	0.146	-0.182
-596.025	189.202	0.054	-0.081
-595.011	-200.000	0.003	0.015
-593.996	-149.652	-0.189	0.015
-592.982	-200.000	-0.012	-0.257
-591.967	35.063	0.328	-0.291
-590.952	-77.270	-0.401	-0.142
-589.938	333.374	-0.199	0.389
-588.923	-45.632	-0.047	-0.023
-587.909	42.088	0.302	-0.278
-586.894	159.995	-0.198	0.280
-585.879	-79.030	0.277	-0.095
-584.865	-30.029	0.236	0.136
-583.850	-200.000	-0.015	0.187
-582.836	628.165	-0.100	-0.255
-581.821	249.438	0.160	0.275
-580.806	55.223	-0.180	-0.176
-579.792	-200.000	-0.002	-0.254
-578.777	76.117	-0.147	0.157
-577.763	155.413	0.092	-0.128
-576.748	30.326	0.162	0.140
-575.733	-38.143	0.100	-0.054
-574.719	0.057	0.186	0.134
-573.704	91.092	0.151	-0.172
-572.690	160.373	0.031	-0.043
-571.675	34.671	0.198	0.176
-570.661	-76.636	0.254	-0.090
-569.646	36.380	-0.261	-0.233
-568.631	-24.819	0.071	0.043
-567.617	-9.240	-0.061	0.042
-566.602	-131.758	0.080	0.011
-565.588	800.000	0.101	-0.377
-564.573	384.512	0.145	-0.303
-563.558	-99.655	-0.052	0.013
-562.544	800.000	-0.094	0.344
-561.529	-113.040	0.155	0.031
-560.515	-50.657	0.210	0.100
-559.500	800.000	-0.113	-0.322
-558.485	-200.000	0.011	-0.241
-557.471	128.619	0.150	0.194
-556.456	-179.596	-0.111	0.002
-555.442	-27.276	-0.201	0.118
-554.427	6.639	0.214	-0.161
-553.412	-178.837	0.317	0.007
-552.398	60.026	0.087	-0.087
-551.383	800.000	0.034	-0.110
-550.369	-125.882	0.017	0.003
-549.354	-34.893	0.142	0.079
-548.339	-37.300	-0.268	-0.145
-547.325	786.576	0.086	-0.240
-546.310	193.884	0.078	-0.119
-545.296	-167.190	0.091	0.004
-544.281	-37.722	0.063	0.034
-543.266	-59.621	0.236	-0.102
-542.252	-88.986	-0.269	-0.081
-541.237	-74.565	0.124	0.045
-540.223	274.079	-0.168	-0.301
-539.208	800.000	-0.069	-0.289
-538.193	-11.741	0.209	-0.139
-537.179	236.215	0.088	-0.146
-536.164	-68.908	0.213	0.083
-535.150	167.104	0.223	-0.320
-534.135	360.587	-0.011	0.023
-533.121	-71.168	0.068	0.026
-532.106	142.298	-0.100	0.135
-531.091	-200.000	0.010	0.058
-530.077	-71.296	0.263	-0.100
-529.062	-85.067	-0.387	0.123
-528.048	-68.460	0.111	-0.043
-527.033	-120.553	-0.085	-0.015
-526.018	-66.973	0.230	0.092
-525.004	-26.160	0.302	0.179
-523.989	-130.560	0.357	0.049
-522.975	-124.432	-0.470	-0.074
-521.960	-140.240	-0.121	-0.013
-520.945	800.000	0.075	0.318
-519.931	800.000	-0.106	-0.301
-518.916	198.380	-0.075	0.116
-517.902	-170.005	-0.273	-0.010
-516.887	-200.000	-0.014	0.237
-515.872	339.363	-0.175	0.344
-514.858	-149.952	-0.310	0.024
-513.843	155.839	0.129	-0.180
-512.829	561.312	-0.054	0.133
-511.814	-64.943	-0.036	-0.015
-510.799	-111.651	-0.215	-0.044
-509.785	254.862	-0.156	-0.269
-508.770	-36.051	-0.241	-0.132
-507.756	-124.425	-0.358	-0.056
-506.741	154.935	0.118	-0.164
-505.726	-200.000	0.031	0.289
-504.712	197.565	0.055	-0.085
-503.697	-133.456	-0.357	-0.045
-502.683	-200.000	-0.025	-0.131
-501.668	141.533	0.069	-0.093
-500.653	-200.000	0.009	-0.177
-499.639	211.272	0.035	0.056
-498.624	-105.947	-0.482	-0.110
-497.610	-200.000	-0.005	0.331
-496.595	800.000	-0.051	0.155
-495.581	361.477	0.131	0.266
-494.566	800.000	0.046	0.130
-493.551	-100.775	0.204	0.051
-492.537	-111.322	0.168	-0.035
-491.522	-200.000	0.044	0.280
-490.508	-101.770	0.239	-0.058
-489.493	-200.000	0.058	-0.399
-488.478	-36.536	-0.175	0.095
-487.464	-68.757	0.267	0.104
-486.449	-150.667	-0.339	-0.026
-485.435	222.137	0.200	0.325
-484.420	248.781	0.197	-0.336
-483.405	-96.884	0.082	0.022
-482.391	261.634	-0.057	-0.100
-481.376	-200.000	-0.003	-0.224
-480.362	440.374	-0.025	-0.056
-479.347	589.454	-0.088	0.218
-478.332	-200.000	-0.045	-0.365
-477.318	-110.564	-0.195	-0.041
-476.303	-200.000	-0.011	0.229
-475.289	-138.872	0.414	0.045
-474.274	-137.272	0.222	-0.025
-473.259	291.026	-0.053	0.097
-472.245	-134.311	0.190	-0.024
-471.230	183.911	0.062	-0.093
-470.216	-27.615	-0.124	-0.073
-469.201	-84.054	-0.300	-0.096
-468.186	58.748	0.127	-0.126
-467.172	-116.955	-0.289	0.053
-466.157	57.949	-0.164	0.162
-465.143	-19.436	-0.143	-0.089
-464.128	307.115	-0.061	0.114
-463.113	106.388	0.247	-0.295
-462.099	639.279	-0.027	0.068
-461.084	-18.942	0.169	0.106
-460.070	158.612	-0.161	0.225
-459.055	-200.000	0.021	-0.321
-458.040	-153.192	0.090	-0.006
-457.026	309.693	-0.027	0.052
-456.011	800.000	-0.027	-0.082
-454.997	-143.646	-0.188	-0.018
-453.982	34.950	-0.074	-0.066
-452.968	31.810	0.158	-0.138
-451.953	310.716	-0.098	0.184
-450.938	-36.623	-0.070	-0.038
-449.924	352.389	0.076	-0.151
-448.909	-200.000	-0.079	-0.419
-447.895	314.065	0.121	0.229
-446.880	-151.994	0.523	-0.038
-445.865	130.161	-0.139	-0.180
-444.851	80.961	-0.226	0.246
-443.836	323.050	-0.198	-0.380
-442.822	-200.000	-0.028	0.239
-441.807	141.008	-0.189	-0.253
-440.792	799.828	-0.174	0.484
-439.778	90.684	0.189	0.214
-438.763	-7.904	0.119	0.081
-437.749	109.305	-0.205	0.247
-436.734	-4.594	0.084	-0.059
-435.719	-15.958	-0.048	-0.031
-434.705	-183.608	0.158	-0.003
-433.690	-187.964	0.308	0.004
-432.676	-86.647	-0.284	0.088
-431.661	-22.858	-0.142	0.087
-430.646	-200.000	0.021	0.251
-429.632	-200.000	-0.033	-0.265
-428.617	-91.490	0.203	0.058
-427.603	-200.000	-0.003	-0.336
-426.588	309.042	-0.034	-0.064
-425.573	-122.840	0.036	-0.006
-424.559	-144.869	0.229	-0.021
-423.544	42.701	0.194	0.178
-422.530	100.358	-0.075	-0.088
-421.515	-37.680	-0.019	0.010
-420.500	-26.589	0.269	0.159
-419.486	-93.153	0.542	-0.152
-418.471	99.333	-0.297	-0.346
-417.457	-200.000	0.046	-0.227
-416.442	-200.000	-0.033	0.177
-415.428	800.000	-0.027	-0.082
-414.413	60.328	-0.257	-0.256
-413.398	-199.137	-0.086	0.000
-412.384	162.447	0.085	-0.120
-411.369	-200.000	0.055	0.286
-410.355	-26.872	-0.016	0.010
-409.340	38.573	0.027	-0.024
-408.325	211.606	-0.137	-0.217
-407.311	240.652	-0.191	-0.321
-406.296	123.373	0.298	0.376
-405.282	-200.000	0.001	-0.308
-404.267	-121.891	-0.160	-0.027
-403.252	323.516	-0.127	-0.243
-402.238	235.027	0.153	-0.254
-401.223	-200.000	-0.016	0.098
-400.209	-97.913	0.205	0.053
-399.194	102.243	-0.227	0.266
-398.179	34.770	0.275	0.242
-397.165	13.801	-0.331	-0.259
-396.150	-103.757	-0.219	0.052
-395.136	550.978	0.187	0.452
-394.121	-65.394	0.179	0.072
-393.106	-200.000	0.053	-0.365
-392.092	310.835	0.032	0.060
-391.077	36.879	-0.100	0.089
-390.063	148.640	0.102	-0.139
-389.048	-200.000	-0.041	0.208
-388.033	-37.830	0.203	0.109
-387.019	-161.786	-0.069	-0.004
-386.004	-12.622	0.228	0.149
-384.990	-65.754	0.076	0.030
-383.975	271.019	-0.094	0.166
-382.960	151.788	0.088	-0.120
-381.946	-71.425	0.058	-0.022
-380.931	8.562	-0.183	-0.138
-379.917	39.226	-0.082	-0.074
-378.902	-60.164	0.152	-0.065
-377.888	258.958	-0.147	-0.254
-376.873	-82.784	0.530	0.172
-375.858	-200.000	-0.007	0.084
-374.844	254.915	0.111	-0.190
-373.829	362.042	0.071	-0.142
-372.815	80.924	-0.176	-0.190
-371.800	-71.975	-0.397	-0.149
-370.785	-60.712	-0.304	0.130
-369.771	159.771	-0.095	-0.133
-368.756	-150.082	0.327	0.026
-367.742	-95.610	-0.404	0.109
-366.727	574.851	-0.040	0.098
-365.712	800.000	-0.032	0.088
-364.698	-128.726	-0.175	0.025
-363.683	202.249	-0.032	0.050
-362.669	-23.789	0.323	0.194
-361.654	-185.924	-0.283	-0.004
-360.639	52.423	-0.259	0.248
-359.625	69.902	0.176	-0.183
-358.610	-50.045	0.086	-0.041
-357.596	150.670	0.224	0.305
-356.581	-76.682	0.370	0.130
-355.566	-200.000	0.016	-0.283
-354.552	796.056	-0.076	0.212
-353.537	-28.146	-0.027	0.016
-352.523	-49.920	0.198	-0.095
-351.508	-91.295	-0.241	0.069
-350.493	-121.674	-0.154	-0.026
-349.479	-35.475	-0.181	-0.099
-348.464	573.837	-0.074	0.181
-347.450	-200.000	-0.019	0.263
-346.435	-174.270	-0.183	-0.005
-345.420	-200.000	-0.049	0.436
-344.406	2.206	0.123	-0.089
-343.391	-200.000	0.008	0.067
-342.377	137.391	-0.041	0.054
-341.362	144.933	-0.169	0.227
-340.348	-111.654	0.162	-0.033
-339.333	190.049	0.194	-0.292
-338.318	-51.494	-0.383	0.179
-337.304	-200.000	-0.024	-0.125
-336.289	-80.313	0.343	-0.115
-335.275	6.496	0.181	0.135
-334.260	396.183	0.118	-0.248
-333.245	151.185	0.039	0.054
-332.231	369.499	0.026	0.052
-331.216	-200.000	0.000	0.032
-330.202	-16.749	-0.061	0.039
-329.187	-97.075	-0.211	0.055
-328.172	164.450	-0.043	0.061
-327.158	-200.000	0.070	-0.420
-326.143	558.160	0.084	0.204
-325.129	-71.846	0.338	0.126
-324.114	-200.000	-0.014	0.253
-323.099	314.064	-0.041	0.078
-322.085	11.273	-0.089	0.069
-321.070	166.280	0.066	-0.093
-320.056	194.951	-0.064	-0.097
-319.041	211.775	0.045	0.071
-318.026	278.415	0.123	0.219
-317.012	-72.054	-0.181	0.067
-315.997	-66.194	-0.157	-0.063
-314.983	-101.827	-0.041	-0.010
-313.968	646.332	0.111	-0.284
-312.953	-200.000	0.050	-0.277
-311.939	389.353	-0.112	0.233
-310.924	37.358	-0.083	0.074
-309.910	227.449	-0.039	0.063
-308.895	32.093	-0.236	0.204
-307.880	-200.000	0.023	0.355
-306.866	137.626	-0.079	-0.104
-305.851	-200.000	-0.037	-0.181
-304.837	-18.045	-0.347	-0.218
-303.822	226.370	-0.175	0.285
-302.807	56.079	0.241	0.234
-301.793	408.314	-0.048	0.101
-300.778	-143.434	-0.320	-0.031
-299.764	253.931	-0.148	-0.253
-298.749	-25.315	-0.297	-0.176
-297.735	800.000	0.068	-0.205
-296.720	120.831	0.044	-0.055
-295.705	-108.779	-0.142	0.031
-294.691	800.000	0.056	-0.202
-293.676	-200.000	0.008	0.133
-292.662	-200.000	0.003	-0.070
-291.647	-132.701	0.060	0.008
-290.632	-200.000	0.018	0.244
-289.618	800.000	-0.096	0.278
-288.603	800.000	-0.124	-0.381
-287.589	800.000	-0.076	-0.213
-286.574	439.123	0.227	0.496
-285.559	-200.000	-0.030	0.168
-284.545	-113.214	0.346	0.068
-283.530	67.225	-0.223	0.228
-282.516	438.455	0.086	0.189
-281.501	22.037	0.284	0.232
-280.486	25.100	0.195	0.162
-279.472	89.114	-0.049	0.055
-278.457	-10.187	0.120	-0.080
-277.443	167.099	-0.182	0.258
-276.428	110.725	0.117	0.141
-275.413	-131.252	0.227	0.030
-274.399	-41.318	0.063	-0.033
-273.384	-200.000	0.042	-0.339
-272.370	-29.898	0.211	-0.120
-271.355	166.711	-0.132	-0.187
-270.340	55.323	-0.288	0.279
-269.326	538.348	0.142	-0.338
-268.311	-61.783	-0.166	-0.070
-267.297	-71.366	0.036	-0.013
-266.282	-19.929	-0.106	0.065
-265.267	667.651	0.047	-0.122
-264.253	46.235	-0.117	-0.109
-263.238	800.000	0.099	0.363
-262.224	-16.580	-0.097	-0.062
-261.209	229.043	-0.106	-0.173
-260.195	167.228	-0.160	0.228
-259.180	313.316	-0.136	-0.256
-258.165	-200.000	0.032	0.207
-257.151	-144.379	-0.316	0.029
-256.136	-200.000	0.019	0.196
-255.122	800.000	0.013	0.045
-254.107	800.000	0.056	-0.196
-253.092	-72.199	0.278	-0.103
-252.078	-200.000	0.030	-0.140
-251.063	256.122	0.136	0.234
-250.049	334.017	0.176	-0.341
-249.034	64.548	0.080	-0.081
-248.019	-200.000	0.011	0.248
-247.005	-148.882	-0.104	-0.008
-245.990	516.116	-0.033	-0.077
-244.976	800.000	-0.071	-0.295
-243.961	95.532	-0.159	-0.181
-242.946	15.340	-0.338	0.265
-241.932	-200.000	0.007	-0.033
-240.917	-78.284	0.297	-0.102
-239.903	-18.332	-0.073	-0.046
-238.888	-52.961	-0.081	0.037
-237.873	-5.255	-0.228	-0.157
-236.859	-158.193	-0.267	0.016
-235.844	110.738	0.132	-0.159
-234.830	599.690	-0.029	0.072
-233.815	800.000	-0.046	0.137
-232.800	-143.464	-0.197	0.019
-231.786	57.915	0.158	-0.154
-230.771	-115.249	0.173	0.033
-229.757	-179.901	-0.191	0.004
-228.742	-70.927	0.135	-0.051
-227.727	-200.000	0.005	-0.063
-226.713	111.279	-0.137	0.164
-225.698	-133.427	-0.377	-0.047
-224.684	-200.000	-0.010	-0.114
-223.669	170.496	-0.291	-0.416
-222.655	148.137	0.011	-0.015
-221.640	215.827	-0.028	-0.045
-220.625	-149.916	-0.253	0.020
-219.611	-110.728	0.310	-0.064
-218.596	-55.334	-0.044	0.020
-217.582	79.967	0.307	-0.330
-216.567	-200.000	0.070	0.417
-215.552	-30.648	-0.259	0.146
-214.538	-65.622	0.211	-0.085
-213.523	207.562	0.113	0.177
-212.509	-83.243	0.222	-0.071
-211.494	-138.144	-0.199	0.022
-210.479	461.330	-0.076	-0.169
-209.465	197.990	-0.166	0.254
-208.450	544.074	0.054	-0.130
-207.436	-6.032	0.050	0.034
-206.421	239.053	0.189	-0.314
-205.406	-180.376	0.231	-0.005
-204.392	10.458	0.200	-0.152
-203.377	6.778	0.168	0.125
-202.363	800.000	0.082	0.233
-201.348	96.763	-0.066	-0.075
-200.333	-191.175	0.160	0.002
-199.319	800.000	-0.111	-0.339
-198.304	109.112	0.072	0.085
-197.290	-112.686	-0.102	0.020
-196.275	-200.000	0.005	0.167
-195.260	800.000	-0.057	0.214
-194.246	-171.398	0.177	-0.006
-193.231	-60.512	0.319	0.135
-192.217	-59.747	-0.294	-0.126
-191.202	215.687	-0.138	0.219
-190.187	-57.519	0.173	-0.076
-189.173	800.000	0.092	0.274
-188.158	-64.374	0.240	-0.098
-187.144	51.960	-0.162	0.154
-186.129	-152.108	-0.158	0.011
-185.114	800.000	-0.044	0.172
-184.100	315.419	-0.173	0.326
-183.085	-90.189	-0.415	0.120
-182.071	800.000	0.054	0.188
-181.056	19.040	0.187	-0.150
-180.042	-200.000	0.015	0.092
-179.027	19.342	0.134	-0.108
-178.012	-200.000	0.004	0.097
-176.998	-85.497	0.260	0.081
-175.983	8.394	-0.098	0.073
-174.969	273.048	0.114	0.201
-173.954	800.000	-0.066	-0.244
-172.939	-48.085	-0.070	-0.034
-171.925	163.404	-0.197	0.276
-170.910	800.000	-0.030	0.104
-169.896	-200.000	0.010	0.169
-168.881	-140.162	0.005	0.001
-167.866	-200.000	-0.017	-0.389
-166.852	1.146	0.144	-0.103
-165.837	484.012	-0.030	-0.068
-164.823	-132.735	0.245	0.031
-163.808	-179.653	0.282	0.006
-162.793	-151.354	0.147	-0.011
-161.779	-200.000	0.024	0.286
-160.764	800.000	-0.078	0.239
-159.750	-177.165	-0.251	0.006
-158.735	731.218	-0.085	0.226
-157.720	19.703	0.377	0.302
-156.706	313.370	-0.127	0.239
-155.691	800.000	0.076	0.277
-154.677	32.625	0.143	-0.123
-153.662	384.211	-0.069	-0.141
-152.647	0.175	-0.283	-0.201
-151.633	402.149	0.111	-0.231
-150.618	-90.810	0.187	-0.054
-149.604	-96.338	0.164	0.043
-148.589	222.725	-0.142	-0.228
-147.574	621.453	-0.013	-0.032
-146.560	21.919	0.148	-0.120
-145.545	386.866	-0.042	-0.086
-144.531	-169.734	-0.048	0.002
-143.516	84.457	-0.098	0.107
-142.502	128.283	0.305	0.387
-141.487	-200.000	0.007	0.410
-140.472	-29.757	0.132	0.075
-139.458	-200.000	-0.018	0.457
-138.443	626.886	0.046	0.115
-137.429	65.761	0.088	-0.089
-136.414	281.506	-0.179	0.320
-135.399	291.908	-0.027	-0.048
-134.385	-200.000	0.034	0.169
-133.370	-107.590	-0.016	0.004
-132.356	-200.000	-0.029	-0.309
-131.341	-101.869	0.176	-0.042
-130.326	288.992	-0.091	-0.165
-129.312	-108.819	0.117	0.025
-128.297	-62.714	0.167	-0.069
-127.283	-125.709	0.407	0.061
-126.268	15.687	-0.277	0.217
-125.253	-200.000	-0.088	0.424
-124.239	-153.098	-0.082	0.006
-123.224	72.818	-0.012	-0.012
-122.210	-167.256	0.315	0.013
