DTS Sentinel unit serial number:	SN413079Multiplexer serial number:	ORYXHardware model number:	OX4-SRSoftware version number:	ORYX F/W v4.00 Oryx Data Collector v3.7.2.0data status	okinstallation	princeton_trtdifferential loss correction	single-endedforward channel	channel 2reverse channel	N/Adate	2019/09/11time	04:41:11forward acquisition time	60.00reverse acquisition time	0.00gamma	496.2192k internal	0.2329k external	0.2329temperature offset calibration	0.9937default loss term (dB/km)	0.3790temperature slope calibration	1.0000multiplexer offset coefficient	1.0000multiplexer slope coefficient	1.0000fibre end	0.00T internal ref (°C)	29.50T ext. ref 1 (°C)	-0.29T ext. ref 2 (°C)	23.35length (m)	temperature (°C)	Stokes	anti-Stokes-747.200	557.390	-0.113	0.275
-746.185	415.794	-0.183	0.392
-745.171	-112.350	0.219	0.044
-744.156	-127.729	-0.221	0.032
-743.142	-111.324	-0.251	0.052
-742.127	444.488	0.031	-0.068
-741.112	-182.173	-0.232	0.004
-740.098	123.385	0.242	0.305
-739.083	800.000	-0.049	0.200
-738.069	-75.641	-0.209	-0.075
-737.054	23.860	-0.199	-0.165
-736.039	123.543	-0.177	-0.224
-735.025	-10.539	0.228	-0.152
-734.010	-99.367	-0.347	0.088
-732.996	226.785	0.094	-0.154
-731.981	224.024	-0.156	-0.254
-730.966	-123.803	-0.335	-0.053
-729.952	-200.000	0.018	0.180
-728.937	35.446	0.112	-0.099
-727.923	188.463	0.136	0.205
-726.908	-81.946	-0.382	-0.126
-725.894	122.185	-0.127	-0.160
-724.879	-151.795	-0.181	-0.013
-723.864	-138.175	0.275	-0.031
-722.850	-132.876	0.091	0.012
-721.835	7.809	0.190	-0.143
-720.821	76.208	0.081	-0.086
-719.806	338.199	-0.091	0.179
-718.791	-71.674	0.157	-0.059
-717.777	-172.682	0.238	-0.008
-716.762	94.202	-0.131	0.149
-715.748	-60.588	0.251	-0.107
-714.733	-13.502	0.174	-0.113
-713.718	343.887	-0.079	0.156
-712.704	800.000	-0.043	-0.160
-711.689	-119.699	-0.062	-0.011
-710.675	9.544	-0.213	-0.162
-709.660	-29.830	0.388	0.222
-708.645	800.000	0.032	-0.106
-707.631	2.945	0.016	-0.011
-706.616	-6.092	0.302	-0.208
-705.602	800.000	-0.048	-0.191
-704.587	11.419	0.186	-0.144
-703.572	202.507	-0.149	-0.232
-702.558	472.558	-0.052	-0.119
-701.543	349.973	-0.111	0.221
-700.529	592.741	-0.056	-0.139
-699.514	800.000	-0.136	0.547
-698.499	293.956	0.083	0.153
-697.485	800.000	0.113	-0.340
-696.470	184.515	-0.096	-0.143
-695.456	-73.349	-0.373	-0.137
-694.441	800.000	-0.071	-0.265
-693.426	-200.000	0.013	0.071
-692.412	-200.000	-0.017	-0.250
-691.397	355.567	-0.108	0.216
-690.383	800.000	-0.045	0.140
-689.368	492.889	0.164	0.378
-688.354	-200.000	-0.022	-0.234
-687.339	-3.684	-0.172	-0.120
-686.324	220.763	0.077	0.125
-685.310	663.628	-0.015	0.039
-684.295	-53.001	0.292	0.135
-683.281	-161.234	-0.330	0.017
-682.266	800.000	0.102	-0.326
-681.251	800.000	-0.080	0.321
-680.237	-200.000	0.025	-0.138
-679.222	374.798	0.043	-0.088
-678.208	800.000	0.091	-0.359
-677.193	-37.782	-0.166	0.089
-676.178	171.660	-0.064	-0.092
-675.164	22.806	-0.204	0.168
-674.149	-11.084	0.285	-0.189
-673.135	75.846	-0.032	0.034
-672.120	90.268	0.203	-0.228
-671.105	-114.945	-0.101	-0.019
-670.091	-200.000	-0.058	0.273
-669.076	-23.521	0.180	-0.109
-668.062	8.923	0.055	0.041
-667.047	15.938	-0.278	0.220
-666.032	800.000	0.065	0.230
-665.018	-52.359	-0.098	0.046
-664.003	-200.000	0.013	0.064
-662.989	-7.454	-0.183	-0.125
-661.974	41.254	-0.092	-0.083
-660.959	800.000	-0.021	0.083
-659.945	57.897	-0.237	0.233
-658.930	-200.000	0.046	0.239
-657.916	-93.030	0.138	0.038
-656.901	-64.186	0.204	0.084
-655.886	-78.142	-0.260	-0.090
-654.872	-42.087	-0.276	-0.142
-653.857	44.350	-0.094	0.087
-652.843	-68.257	-0.428	-0.167
-651.828	123.017	0.071	0.089
-650.814	-184.778	0.243	0.004
-649.799	-121.054	-0.346	-0.058
-648.784	-114.475	-0.139	0.027
-647.770	800.000	-0.038	-0.116
-646.755	-200.000	0.054	-0.304
-645.741	-113.520	0.342	-0.067
-644.726	-78.447	-0.234	-0.080
-643.711	110.413	-0.144	-0.174
-642.697	131.604	-0.091	-0.117
-641.682	97.804	-0.175	-0.201
-640.668	-123.383	0.448	0.072
-639.653	-85.015	0.200	-0.063
-638.638	-53.026	0.080	-0.037
-637.624	51.818	-0.215	0.205
-636.609	-200.000	0.007	-0.051
-635.595	-98.208	0.202	-0.052
-634.580	82.481	0.116	-0.127
-633.565	28.700	0.372	-0.316
-632.551	167.515	0.104	-0.148
-631.536	800.000	0.044	-0.142
-630.522	50.423	-0.214	0.202
-629.507	-200.000	0.032	-0.165
-628.492	488.100	0.011	0.026
-627.478	-90.707	0.095	0.027
-626.463	25.582	-0.260	-0.217
-625.449	-104.702	0.055	0.013
-624.434	-105.172	-0.224	-0.051
-623.419	800.000	-0.042	-0.162
-622.405	127.613	0.203	-0.258
-621.390	-155.715	0.366	0.024
-620.376	-48.010	0.037	-0.018
-619.361	-49.067	-0.181	-0.087
-618.346	-200.000	0.008	0.172
-617.332	-200.000	-0.074	-0.347
-616.317	-3.647	-0.181	0.126
-615.303	-105.972	0.265	0.060
-614.288	-85.576	-0.328	-0.102
-613.273	-162.592	-0.260	0.013
-612.259	800.000	0.034	0.098
-611.244	-86.732	0.081	0.025
-610.230	-89.129	-0.303	0.090
-609.215	320.604	0.172	-0.328
-608.201	29.262	0.218	-0.186
-607.186	113.504	-0.116	-0.142
-606.171	-30.404	0.347	0.197
-605.157	-63.092	0.310	0.128
-604.142	315.745	-0.074	-0.140
-603.128	-67.755	0.225	0.088
-602.113	800.000	0.017	-0.059
-601.098	800.000	-0.049	-0.165
-600.084	200.046	-0.074	0.113
-599.069	137.292	0.154	-0.202
-598.055	-78.619	-0.234	0.080
-597.040	765.134	0.047	-0.128
-596.025	-200.000	-0.064	0.285
-595.011	124.174	-0.227	0.285
-593.996	13.389	0.063	-0.049
-592.982	363.014	0.069	0.138
-591.967	383.616	-0.096	0.197
-590.952	-200.000	-0.002	0.207
-589.938	44.962	-0.118	-0.109
-588.923	-200.000	0.051	-0.249
-587.909	-200.000	0.139	-0.000
-586.894	458.881	0.078	-0.175
-585.879	-200.000	-0.039	0.246
-584.865	-47.703	0.259	0.126
-583.850	622.730	0.018	-0.046
-582.836	234.252	-0.076	-0.126
-581.821	-50.866	-0.101	-0.048
-580.806	641.472	-0.101	0.259
-579.792	120.934	-0.174	-0.217
-578.777	800.000	-0.080	0.296
-577.763	445.439	0.038	-0.083
-576.748	800.000	-0.038	0.126
-575.733	-59.094	0.224	-0.097
-574.719	-138.409	-0.342	0.038
-573.704	800.000	-0.080	0.263
-572.690	51.553	0.121	0.115
-571.675	-200.000	-0.082	0.365
-570.661	800.000	0.040	-0.157
-569.646	9.077	0.152	-0.115
-568.631	-0.835	-0.271	0.192
-567.617	-62.740	-0.214	-0.089
-566.602	-121.523	0.445	-0.074
-565.588	209.449	0.141	0.220
-564.573	800.000	0.078	0.288
-563.558	800.000	0.004	0.011
-562.544	67.426	-0.066	0.067
-561.529	24.962	-0.096	-0.079
-560.515	144.176	0.026	-0.035
-559.500	-200.000	-0.111	-0.560
-558.485	-122.685	-0.277	0.045
-557.471	-172.273	0.254	-0.008
-556.456	-1.858	-0.227	0.160
-555.442	291.821	-0.154	0.280
-554.427	-92.603	0.160	0.045
-553.412	290.403	0.148	0.270
-552.398	800.000	-0.014	-0.053
-551.383	-200.000	0.003	-0.159
-550.369	800.000	0.115	-0.417
-549.354	-120.471	-0.139	-0.024
-548.339	-21.494	-0.283	0.173
-547.325	133.406	0.132	-0.170
-546.310	336.507	0.077	-0.150
-545.296	-68.873	-0.163	0.063
-544.281	-123.148	0.304	-0.049
-543.266	-134.226	-0.289	0.036
-542.252	-159.189	0.122	-0.007
-541.237	36.561	0.180	-0.159
-540.223	-200.000	0.016	-0.109
-539.208	119.949	-0.152	0.189
-538.193	-49.060	-0.363	-0.173
-537.179	208.473	-0.198	0.309
-536.164	6.179	0.444	0.329
-535.150	264.365	0.122	0.213
-534.135	-87.991	0.103	-0.031
-533.121	119.320	0.180	-0.222
-532.106	-6.267	-0.290	-0.198
-531.091	-18.762	-0.059	-0.036
-530.077	-200.000	0.000	0.229
-529.062	561.024	-0.165	0.398
-528.048	-115.535	-0.365	-0.069
-527.033	84.500	0.201	0.220
-526.018	-71.828	-0.459	-0.171
-525.004	-1.311	-0.133	0.094
-523.989	-159.477	-0.377	-0.021
-522.975	-200.000	0.013	-0.180
-521.960	-117.165	0.159	0.029
-520.945	-102.018	-0.141	-0.034
-519.931	-174.765	0.270	-0.008
-518.916	-141.342	0.044	0.004
-517.902	-48.147	-0.225	0.108
-516.887	-200.000	-0.008	-0.071
-515.872	100.352	-0.172	0.200
-514.858	165.259	-0.084	-0.118
-513.843	-119.062	0.129	0.022
-512.829	159.550	-0.231	0.321
-511.814	-200.000	-0.007	-0.107
-510.799	800.000	-0.060	-0.191
-509.785	91.736	0.136	-0.153
-508.770	800.000	0.057	-0.201
-507.756	-150.640	0.437	-0.033
-506.741	-84.908	0.270	0.085
-505.726	-59.252	0.177	0.076
-504.712	-1.144	0.161	-0.113
-503.697	-87.442	-0.128	0.039
-502.683	95.056	0.161	0.183
-501.668	-200.000	-0.015	-0.180
-500.653	298.687	-0.119	-0.219
-499.639	-200.000	-0.047	0.221
-498.624	-200.000	0.015	-0.201
-497.610	-34.686	0.187	-0.102
-496.595	-200.000	0.056	0.456
-495.581	5.449	-0.302	0.223
-494.566	88.281	0.121	-0.134
-493.551	-200.000	0.033	-0.275
-492.537	-148.319	0.297	0.024
-491.522	114.557	-0.126	-0.153
-490.508	-200.000	-0.011	0.159
-489.493	-35.934	0.329	-0.177
-488.478	14.501	-0.207	-0.161
-487.464	-36.708	0.096	-0.051
-486.449	239.979	0.072	0.120
-485.435	-63.926	0.141	-0.057
-484.420	97.239	-0.226	-0.258
-483.405	78.206	-0.213	0.227
-482.391	-41.516	0.129	-0.066
-481.376	110.612	0.163	-0.196
-480.362	-200.000	0.009	0.109
-479.347	-6.190	0.055	-0.038
-478.332	-62.102	-0.258	-0.107
-477.318	42.340	-0.101	0.091
-476.303	115.887	0.177	0.216
-475.289	-36.507	-0.272	0.146
-474.274	-111.318	0.220	0.045
-473.259	-84.092	-0.217	-0.069
-472.245	-200.000	0.001	-0.241
-471.230	-95.706	-0.351	-0.094
-470.216	-53.932	-0.270	-0.123
-469.201	-200.000	0.024	-0.177
-468.186	179.744	0.121	-0.177
-467.172	-32.631	-0.238	0.132
-466.157	-200.000	-0.005	-0.239
-465.143	-91.984	0.391	0.110
-464.128	-38.688	0.147	0.077
-463.113	-58.685	0.231	0.100
-462.099	-128.585	0.309	-0.044
-461.084	-200.000	-0.055	0.405
-460.070	77.908	0.125	0.132
-459.055	-7.727	-0.299	-0.201
-458.040	-3.598	0.047	0.032
-457.026	12.849	0.142	0.110
-456.011	-155.696	0.265	0.017
-454.997	-165.938	-0.238	-0.010
-453.982	31.249	-0.076	-0.065
-452.968	-200.000	-0.025	-0.237
-451.953	800.000	0.047	-0.129
-450.938	-71.915	0.193	-0.072
-449.924	-200.000	-0.015	0.074
-448.909	-105.156	-0.187	-0.043
-447.895	-161.567	0.305	0.016
-446.880	-73.156	-0.074	0.027
-445.865	179.329	-0.087	-0.126
-444.851	19.140	0.112	-0.090
-443.836	-56.012	0.176	-0.078
-442.822	-200.000	-0.003	-0.062
-441.807	800.000	0.102	-0.343
-440.792	800.000	0.009	0.027
-439.778	-200.000	-0.036	0.276
-438.763	-106.179	0.050	-0.011
-437.749	545.017	0.062	0.147
-436.734	-200.000	-0.040	0.266
-435.719	-13.564	-0.140	0.090
-434.705	-43.429	0.325	0.164
-433.690	279.804	0.085	0.152
-432.676	-200.000	0.008	-0.207
-431.661	-34.239	0.253	0.138
-430.646	-48.618	-0.354	-0.169
-429.632	-36.056	-0.080	0.043
-428.617	255.837	-0.041	-0.069
-427.603	100.506	0.059	0.069
-426.588	-22.178	0.132	0.080
-425.573	-200.000	-0.001	0.155
-424.559	655.311	-0.074	0.190
-423.544	-115.095	-0.110	0.021
-422.530	102.422	0.218	-0.254
-421.515	-17.708	-0.021	-0.013
-420.500	588.031	-0.042	0.103
-419.486	164.618	0.095	-0.134
-418.471	-44.814	-0.121	-0.060
-417.457	273.469	-0.142	0.249
-416.442	158.066	-0.143	0.197
-415.428	-200.000	-0.003	0.019
-414.413	18.546	0.064	-0.051
-413.398	-63.569	0.279	-0.114
-412.384	-30.620	-0.241	0.135
-411.369	-167.703	0.202	-0.008
-410.355	-37.831	0.382	0.202
-409.340	84.001	0.093	-0.101
-408.325	-200.000	-0.030	-0.246
-407.311	21.376	-0.195	-0.157
-406.296	-200.000	0.018	0.138
-405.282	-50.208	-0.146	-0.069
-404.267	278.193	-0.106	-0.187
-403.252	434.341	-0.012	0.027
-402.238	94.308	0.225	-0.253
-401.223	151.514	-0.075	-0.101
-400.209	-157.817	0.024	-0.001
-399.194	152.466	-0.170	-0.230
-398.179	-200.000	0.004	-0.048
-397.165	11.984	-0.218	-0.166
-396.150	495.743	0.108	-0.246
-395.136	800.000	0.131	-0.361
-394.121	800.000	-0.109	-0.311
-393.106	27.998	-0.110	0.093
-392.092	65.656	-0.145	0.146
-391.077	123.237	-0.275	0.342
-390.063	800.000	-0.065	-0.263
-389.048	7.760	0.139	-0.103
-388.033	98.590	0.045	0.051
-387.019	202.659	-0.231	0.354
-386.004	800.000	0.081	0.304
-384.990	-15.333	-0.156	-0.099
-383.975	-200.000	-0.024	-0.195
-382.960	-16.726	0.026	-0.016
-381.946	-72.171	-0.090	-0.033
-380.931	-200.000	-0.008	-0.099
-379.917	-200.000	0.000	-0.105
-378.902	-101.482	-0.219	0.053
-377.888	-142.506	0.188	-0.018
-376.873	122.584	-0.229	-0.284
-375.858	36.548	-0.052	-0.045
-374.844	800.000	-0.070	0.303
-373.829	226.934	-0.047	0.075
-372.815	-120.656	-0.256	-0.043
-371.800	800.000	-0.109	-0.414
-370.785	52.482	0.245	-0.232
-369.771	15.811	-0.129	-0.100
-368.756	-0.589	0.162	-0.114
-367.742	-200.000	-0.012	0.077
-366.727	-72.981	0.117	-0.043
-365.712	-200.000	-0.057	0.250
-364.698	-65.550	-0.268	0.107
-363.683	294.552	-0.055	0.100
-362.669	-181.388	-0.184	0.004
-361.654	26.978	-0.405	0.337
-360.639	-93.564	-0.140	0.038
-359.625	-117.790	0.267	0.048
-358.610	314.114	0.079	-0.147
-357.596	-29.720	-0.285	-0.161
-356.581	-4.780	0.209	0.143
-355.566	-200.000	-0.000	-0.177
-354.552	800.000	-0.026	0.100
-353.537	-141.464	0.210	-0.021
-352.523	-53.914	0.119	0.054
-351.508	-131.732	-0.351	0.046
-350.493	215.847	0.127	-0.200
-349.479	2.615	-0.178	-0.128
-348.464	-200.000	0.022	-0.208
-347.450	-94.916	-0.283	-0.076
-346.435	800.000	0.090	-0.316
-345.420	-74.182	0.271	0.097
-344.406	3.060	0.167	0.120
-343.391	-65.740	0.202	-0.080
-342.377	-76.204	-0.144	0.050
-341.362	43.642	-0.049	0.045
-340.348	135.274	0.122	0.157
-339.333	218.912	-0.115	0.182
-338.318	-200.000	-0.001	-0.093
-337.304	224.220	0.141	0.227
-336.289	-200.000	-0.080	0.465
-335.275	-50.428	0.212	0.099
-334.260	-200.000	-0.002	-0.077
-333.245	98.094	0.187	0.213
-332.231	-154.903	0.271	0.018
-331.216	-152.992	-0.449	0.031
-330.202	800.000	-0.056	0.195
-329.187	-116.681	0.437	-0.080
-328.172	207.501	0.034	-0.052
-327.158	-70.198	0.206	0.077
-326.143	-105.387	-0.464	0.105
-325.129	-149.545	0.201	-0.016
-324.114	-8.400	0.122	-0.082
-323.099	112.778	-0.148	-0.178
-322.085	262.864	0.129	0.222
-321.070	39.590	0.120	-0.106
-320.056	-36.708	-0.169	-0.090
-319.041	11.263	0.241	0.183
-318.026	50.371	0.157	-0.147
-317.012	800.000	-0.087	0.351
-315.997	-112.217	-0.194	0.039
-314.983	-15.125	0.120	0.076
-313.968	-200.000	0.039	-0.206
-312.953	71.802	0.035	0.036
-311.939	-59.204	0.277	0.118
-310.924	-200.000	0.029	0.164
-309.910	27.842	-0.138	0.115
-308.895	-90.063	0.223	0.064
-307.880	-58.016	0.054	0.023
-306.866	-182.079	0.283	0.005
-305.851	-30.186	0.130	0.073
-304.837	-154.875	0.308	0.020
-303.822	-25.550	0.177	0.104
-302.807	-200.000	0.039	0.320
-301.793	129.770	0.094	-0.119
-300.778	506.616	0.052	0.120
-299.764	752.781	-0.046	-0.123
-298.749	758.353	0.123	-0.329
-297.735	414.516	-0.118	-0.249
-296.720	355.913	0.076	-0.149
-295.705	-90.605	-0.126	0.036
-294.691	800.000	0.073	0.256
-293.676	-200.000	0.026	-0.242
-292.662	237.144	0.176	-0.288
-291.647	-25.933	0.166	-0.097
-290.632	-121.571	-0.369	0.061
-289.618	-121.368	-0.460	0.076
-288.603	-68.908	-0.401	0.153
-287.589	-200.000	0.034	0.292
-286.574	41.434	-0.140	-0.126
-285.559	-81.562	-0.264	0.086
-284.545	800.000	0.015	0.056
-283.530	-131.888	0.147	0.019
-282.516	-200.000	0.011	0.176
-281.501	297.326	-0.142	0.257
-280.486	549.966	-0.182	-0.433
-279.472	67.712	0.078	-0.079
-278.457	800.000	-0.021	0.073
-277.443	167.758	0.080	-0.112
-276.428	800.000	0.062	-0.213
-275.413	-2.844	0.140	0.097
-274.399	129.173	-0.233	0.294
-273.384	-60.025	0.037	-0.016
-272.370	-145.092	-0.164	0.015
-271.355	84.461	-0.127	-0.137
-270.340	49.532	-0.171	0.159
-269.326	104.250	-0.118	-0.137
-268.311	16.545	0.101	0.079
-267.297	231.510	0.225	-0.364
-266.282	58.648	-0.199	-0.193
-265.267	-104.101	-0.158	-0.036
-264.253	-125.641	-0.232	0.035
-263.238	-200.000	-0.071	0.520
-262.224	-200.000	0.047	0.234
-261.209	-29.085	0.315	-0.178
-260.195	-200.000	-0.036	0.387
-259.180	-59.753	-0.321	-0.136
-258.165	-71.676	0.245	-0.091
-257.151	-115.376	0.253	-0.047
-256.136	362.828	-0.039	0.078
-255.122	275.289	-0.220	0.385
-254.107	130.980	-0.044	0.056
-253.092	37.820	-0.056	-0.049
-252.078	-200.000	-0.029	-0.222
-251.063	551.665	-0.205	0.486
-250.049	800.000	-0.054	0.169
-249.034	55.236	0.097	-0.093
-248.019	-200.000	0.005	0.254
-247.005	106.675	-0.108	0.127
-245.990	-29.525	-0.166	0.094
-244.976	401.506	0.127	-0.263
-243.961	46.107	0.091	0.083
-242.946	-195.746	0.067	0.000
-241.932	-108.313	0.146	-0.031
-240.917	-141.351	0.175	0.018
-239.903	-21.466	0.162	0.098
-238.888	-200.000	-0.003	0.255
-237.873	800.000	-0.062	-0.212
-236.859	153.489	0.216	-0.292
-235.844	-200.000	0.031	0.142
-234.830	-200.000	-0.027	-0.152
-233.815	18.817	0.235	-0.186
-232.800	-197.260	0.255	-0.002
-231.786	1.987	-0.296	0.211
-230.771	-37.212	-0.361	0.190
-229.757	-151.284	0.069	-0.005
-228.742	-200.000	-0.076	0.359
-227.727	109.038	-0.116	-0.137
-226.713	76.231	-0.162	0.169
-225.698	800.000	0.059	-0.214
-224.684	406.309	0.088	-0.183
-223.669	-95.161	0.135	-0.036
-222.655	319.337	-0.115	0.215
-221.640	800.000	-0.041	0.124
-220.625	114.456	-0.064	-0.077
-219.611	-55.751	-0.252	0.111
-218.596	-4.831	0.290	-0.197
-217.582	-200.000	0.070	-0.493
-216.567	800.000	-0.117	0.358
-215.552	-200.000	0.010	0.046
-214.538	290.296	0.030	-0.053
-213.523	-183.461	0.160	-0.003
-212.509	32.648	-0.225	0.192
-211.494	32.898	-0.267	0.228
-210.479	-181.207	0.279	-0.005
-209.465	466.404	0.070	0.154
-208.450	328.894	-0.053	-0.100
-207.436	-63.741	-0.228	0.092
-206.421	-83.335	0.424	-0.134
-205.406	292.616	0.040	-0.071
-204.392	-90.535	0.224	-0.064
-203.377	20.692	0.066	-0.053
-202.363	49.695	-0.114	0.106
-201.348	117.590	-0.081	0.098
-200.333	-36.053	-0.337	0.180
-199.319	-141.993	0.342	0.034
-198.304	113.172	0.274	-0.327
-197.290	140.784	-0.132	0.172
-196.275	318.800	0.097	-0.182
-195.260	151.009	-0.161	-0.216
-194.246	-44.854	0.388	0.191
-193.231	165.352	0.089	0.125
-192.217	-200.000	0.005	0.049
-191.202	173.962	-0.168	-0.240
-190.187	79.959	-0.341	-0.362
-189.173	-19.276	0.341	-0.208
-188.158	111.955	-0.115	0.136
-187.144	39.941	0.271	0.240
-186.129	312.514	-0.071	0.132
-185.114	800.000	-0.071	0.218
-184.100	94.769	-0.069	0.077
-183.085	21.855	0.243	0.195
-182.071	36.414	0.178	0.155
-181.056	800.000	0.070	-0.293
-180.042	502.320	0.066	0.151
-179.027	89.428	0.174	0.192
-178.012	86.134	-0.101	-0.110
-176.998	-112.473	-0.049	0.010
-175.983	-83.362	0.323	0.102
-174.969	-159.863	-0.246	0.013
-173.954	-200.000	-0.023	0.236
-172.939	-158.300	0.112	-0.006
-171.925	129.996	0.176	-0.222
-170.910	-14.675	0.078	-0.049
-169.896	-200.000	0.005	0.025
-168.881	800.000	0.082	-0.327
-167.866	-72.289	-0.287	0.105
-166.852	800.000	-0.032	0.110
-165.837	43.975	-0.103	0.093
-164.823	21.955	-0.226	-0.181
-163.808	-84.076	0.287	-0.090
-162.793	370.077	-0.008	-0.015
-161.779	256.925	-0.047	-0.079
-160.764	107.139	-0.211	0.247
-159.750	800.000	0.046	-0.144
-158.735	800.000	-0.112	0.370
-157.720	-21.919	-0.153	-0.092
-156.706	-55.225	-0.152	-0.067
-155.691	-200.000	0.039	-0.344
-154.677	800.000	-0.043	-0.167
-153.662	-89.870	0.068	0.019
-152.647	800.000	0.043	0.177
-151.633	-120.512	-0.173	-0.029
-150.618	-74.153	0.362	0.129
-149.604	100.632	-0.351	0.401
-148.589	231.511	-0.073	0.118
-147.574	-108.181	0.125	-0.027
-146.560	-13.939	0.236	0.150
-145.545	-56.862	-0.122	-0.053
-144.531	-145.520	-0.046	0.004
-143.516	-58.987	-0.113	-0.048
-142.502	36.453	0.106	0.092
-141.487	-122.604	0.231	0.037
-140.472	-200.000	0.009	0.079
-139.458	-79.116	-0.412	-0.138
-138.443	-155.373	-0.138	-0.009
-137.429	-115.346	0.264	0.049
-136.414	380.270	-0.042	-0.084
-135.399	431.189	-0.104	0.221
-134.385	159.182	-0.111	0.152
-133.370	89.446	-0.159	-0.175
-132.356	238.337	-0.152	-0.249
-131.341	-68.427	0.182	-0.070
-130.326	-200.000	-0.003	-0.035
-129.312	-200.000	0.017	0.236
-128.297	-12.136	-0.209	0.134
-127.283	77.992	0.118	-0.124
-126.268	141.811	-0.128	-0.166
-125.253	-68.443	0.236	0.090
-124.239	-108.602	-0.209	0.044
-123.224	87.298	-0.143	0.156
-122.210	-20.344	-0.170	-0.103
-121.195	87.312	0.139	-0.151
