DTS Sentinel unit serial number:	SN413079Multiplexer serial number:	ORYXHardware model number:	OX4-SRSoftware version number:	ORYX F/W v4.00 Oryx Data Collector v3.7.2.0data status	okinstallation	princeton_trtdifferential loss correction	single-endedforward channel	channel 2reverse channel	N/Adate	2019/09/12time	23:43:35forward acquisition time	60.00reverse acquisition time	0.00gamma	496.2192k internal	0.2332k external	0.2332temperature offset calibration	1.0177default loss term (dB/km)	0.3790temperature slope calibration	1.0000multiplexer offset coefficient	1.0000multiplexer slope coefficient	1.0000fibre end	0.00T internal ref (°C)	28.81T ext. ref 1 (°C)	3.78T ext. ref 2 (°C)	23.51length (m)	temperature (°C)	Stokes	anti-Stokes-747.200	800.000	0.037	-0.155
-746.185	-126.927	-0.168	-0.025
-745.171	-200.000	-0.012	-0.078
-744.156	800.000	0.138	0.512
-743.142	-41.982	-0.396	-0.204
-742.127	800.000	0.077	0.222
-741.112	-46.939	0.121	0.059
-740.098	-114.494	-0.190	0.037
-739.083	180.808	-0.092	-0.136
-738.069	-200.000	0.058	0.259
-737.054	415.591	-0.161	0.344
-736.039	52.032	-0.162	0.155
-735.025	118.075	0.117	-0.146
-734.010	-146.114	-0.414	0.037
-732.996	800.000	-0.126	-0.457
-731.981	-152.710	-0.132	-0.009
-730.966	-200.000	0.010	-0.173
-729.952	-200.000	0.027	-0.200
-728.937	107.340	0.051	0.061
-727.923	-58.070	-0.240	0.105
-726.908	-97.428	0.159	0.042
-725.894	-67.782	-0.139	0.055
-724.879	-200.000	0.006	0.041
-723.864	-160.067	-0.474	-0.026
-722.850	-118.896	0.225	0.040
-721.835	-70.233	-0.168	0.064
-720.821	733.983	-0.062	-0.165
-719.806	408.869	0.139	-0.296
-718.791	86.941	-0.140	0.155
-717.777	46.509	-0.037	0.035
-716.762	45.075	0.088	0.082
-715.748	-85.683	-0.468	-0.146
-714.733	-200.000	-0.007	0.169
-713.718	-200.000	0.021	-0.229
-712.704	-52.730	-0.310	-0.144
-711.689	-31.637	0.074	-0.042
-710.675	-83.403	-0.084	0.027
-709.660	41.555	0.052	0.047
-708.645	32.550	-0.146	-0.127
-707.631	-200.000	0.014	-0.285
-706.616	-200.000	0.010	-0.119
-705.602	-200.000	-0.002	-0.195
-704.587	35.053	-0.104	0.092
-703.572	800.000	0.052	0.214
-702.558	444.966	-0.082	0.180
-701.543	800.000	-0.060	-0.262
-700.529	-120.619	-0.316	-0.054
-699.514	-64.887	-0.147	-0.060
-698.499	-200.000	-0.063	-0.295
-697.485	99.105	0.096	-0.112
-696.470	57.063	0.101	-0.099
-695.456	-34.400	0.161	0.089
-694.441	-1.243	-0.195	0.138
-693.426	-85.781	-0.073	0.023
-692.412	375.665	0.040	0.081
-691.397	322.557	0.145	-0.277
-690.383	-34.589	-0.203	0.112
-689.368	800.000	0.044	-0.165
-688.354	800.000	-0.029	0.082
-687.339	-122.397	-0.414	0.068
-686.324	-123.710	-0.121	0.019
-685.310	-26.007	-0.326	-0.193
-684.295	-74.152	0.265	0.096
-683.281	-152.415	-0.072	0.005
-682.266	331.829	-0.192	-0.371
-681.251	-24.903	0.161	-0.096
-680.237	-153.334	0.314	-0.022
-679.222	-11.641	0.219	-0.145
-678.208	376.491	-0.189	-0.388
-677.193	-102.409	-0.182	0.044
-676.178	-120.876	-0.262	-0.044
-675.164	-200.000	0.058	-0.352
-674.149	-58.816	-0.061	-0.026
-673.135	-114.159	-0.491	-0.095
-672.120	-142.550	0.198	0.019
-671.105	-200.000	-0.028	-0.223
-670.091	49.072	-0.031	-0.029
-669.076	-113.662	-0.357	-0.070
-668.062	218.518	-0.064	0.103
-667.047	-200.000	0.016	0.182
-666.032	65.477	0.174	-0.177
-665.018	-41.802	-0.289	0.149
-664.003	67.937	-0.122	-0.125
-662.989	41.415	-0.368	-0.334
-661.974	-73.966	0.294	-0.107
-660.959	-96.636	-0.449	0.119
-659.945	-91.558	0.241	0.069
-658.930	100.636	0.026	0.030
-657.916	752.127	-0.074	-0.199
-656.901	-42.379	0.443	-0.227
-655.886	167.265	-0.048	0.069
-654.872	178.609	-0.085	-0.125
-653.857	67.807	-0.241	-0.247
-652.843	-84.115	-0.201	-0.064
-651.828	109.285	-0.199	-0.239
-650.814	-134.998	-0.066	0.008
-649.799	-184.925	-0.217	0.003
-648.784	46.853	-0.190	0.177
-647.770	-52.526	-0.273	0.126
-646.755	26.232	0.071	0.060
-645.741	-36.694	0.157	-0.085
-644.726	-200.000	0.006	-0.253
-643.711	-37.570	-0.255	0.136
-642.697	109.960	-0.189	-0.227
-641.682	-46.105	-0.285	-0.141
-640.668	-103.802	-0.071	-0.017
-639.653	-200.000	-0.031	0.225
-638.638	-200.000	-0.021	-0.193
-637.624	135.735	-0.153	-0.200
-636.609	43.982	0.258	-0.237
-635.595	248.275	-0.074	0.125
-634.580	-200.000	0.013	0.213
-633.565	800.000	0.030	0.106
-632.551	-198.706	-0.180	-0.001
-631.536	229.667	-0.058	-0.094
-630.522	154.018	0.170	0.234
-629.507	-130.525	0.250	-0.034
-628.492	364.433	0.022	-0.045
-627.478	-94.601	-0.155	0.042
-626.463	320.151	-0.099	0.188
-625.449	800.000	0.063	-0.266
-624.434	-200.000	-0.031	-0.165
-623.419	-200.000	-0.005	-0.222
-622.405	202.446	-0.082	0.126
-621.390	60.891	0.051	-0.050
-620.376	-85.474	0.177	0.055
-619.361	5.364	-0.336	-0.248
-618.346	-94.297	-0.213	-0.058
-617.332	-200.000	0.002	0.182
-616.317	50.838	0.110	0.104
-615.303	187.050	-0.036	0.054
-614.288	108.442	0.109	-0.130
-613.273	800.000	-0.067	-0.273
-612.259	85.528	-0.141	-0.155
-611.244	-176.810	0.141	0.004
-610.230	800.000	0.100	-0.280
-609.215	13.144	0.217	-0.168
-608.201	324.885	0.300	-0.574
-607.186	-200.000	0.017	0.229
-606.171	412.955	0.079	-0.167
-605.157	290.840	0.068	0.124
-604.142	-42.229	0.058	-0.030
-603.128	-48.143	-0.199	0.096
-602.113	-200.000	0.030	0.283
-601.098	24.449	0.235	0.195
-600.084	289.681	-0.106	0.192
-599.069	800.000	-0.056	0.191
-598.055	-33.727	-0.278	-0.153
-597.040	-78.204	-0.265	0.091
-596.025	-147.311	-0.085	-0.007
-595.011	258.071	-0.056	-0.097
-593.996	-200.000	0.025	-0.308
-592.982	-200.000	-0.003	0.158
-591.967	-200.000	-0.008	-0.113
-590.952	-200.000	0.046	0.218
-589.938	-94.952	-0.179	-0.048
-588.923	405.207	0.017	0.037
-587.909	-170.135	-0.108	-0.004
-586.894	-200.000	-0.051	-0.227
-585.879	-40.019	-0.394	0.205
-584.865	81.322	-0.342	-0.370
-583.850	-127.503	0.266	0.039
-582.836	397.686	0.144	0.301
-581.821	-124.916	-0.222	-0.034
-580.806	-67.287	-0.235	-0.093
-579.792	367.512	0.026	-0.052
-578.777	161.501	0.098	0.137
-577.763	-200.000	-0.005	0.041
-576.748	-135.706	0.285	-0.034
-575.733	-157.495	0.192	-0.012
-574.719	-68.369	-0.155	-0.060
-573.704	-200.000	0.011	-0.217
-572.690	226.248	0.143	0.232
-571.675	-86.324	0.045	-0.014
-570.661	274.092	-0.075	-0.133
-569.646	743.684	-0.125	-0.335
-568.631	-66.175	0.097	-0.039
-567.617	79.908	-0.106	-0.114
-566.602	-200.000	-0.020	-0.093
-565.588	257.556	-0.111	-0.191
-564.573	299.254	0.227	-0.417
-563.558	46.444	0.149	-0.138
-562.544	-200.000	-0.008	0.063
-561.529	774.640	-0.035	0.096
-560.515	-200.000	-0.040	-0.219
-559.500	-188.404	-0.482	-0.006
-558.485	146.448	0.100	-0.134
-557.471	-112.654	-0.447	0.089
-556.456	325.303	0.022	0.042
-555.442	197.601	-0.117	-0.178
-554.427	-180.090	0.146	-0.003
-553.412	49.280	-0.124	0.116
-552.398	241.517	0.117	0.195
-551.383	-200.000	0.045	-0.350
-550.369	48.359	-0.197	-0.184
-549.354	-200.000	0.017	-0.145
-548.339	-130.581	0.438	-0.059
-547.325	800.000	0.073	0.234
-546.310	11.324	-0.117	-0.089
-545.296	-105.574	0.169	0.038
-544.281	800.000	-0.057	-0.179
-543.266	800.000	-0.068	-0.216
-542.252	800.000	-0.018	0.060
-541.237	800.000	0.021	0.090
-540.223	70.412	-0.058	0.060
-539.208	-200.000	-0.021	0.218
-538.193	-8.753	-0.434	0.290
-537.179	-144.972	-0.186	0.017
-536.164	-36.763	-0.257	-0.138
-535.150	134.316	0.075	-0.097
-534.135	33.598	-0.235	0.204
-533.121	-39.133	-0.134	0.070
-532.106	-136.019	0.063	-0.007
-531.091	-8.253	0.187	0.125
-530.077	-200.000	0.039	-0.258
-529.062	61.566	-0.145	-0.144
-528.048	105.621	0.262	0.309
-527.033	205.368	0.092	-0.143
-526.018	-200.000	0.041	0.194
-525.004	75.140	0.119	-0.125
-523.989	-200.000	-0.079	-0.393
-522.975	-41.258	0.187	-0.096
-521.960	-47.924	0.093	0.045
-520.945	73.651	0.060	-0.062
-519.931	98.052	-0.132	-0.151
-518.916	-200.000	-0.011	-0.344
-517.902	242.842	-0.132	0.221
-516.887	-200.000	0.003	-0.334
-515.872	1.355	-0.199	-0.143
-514.858	-150.697	0.159	0.012
-513.843	456.633	-0.083	0.184
-512.829	800.000	-0.006	-0.015
-511.814	800.000	-0.023	-0.070
-510.799	69.411	-0.086	0.088
-509.785	-72.012	-0.111	0.041
-508.770	-127.989	0.167	0.024
-507.756	691.335	0.041	0.107
-506.741	51.202	0.154	0.146
-505.726	-180.893	0.163	0.003
-504.712	9.941	-0.097	0.073
-503.697	224.664	-0.051	0.083
-502.683	-200.000	0.017	-0.143
-501.668	-200.000	0.036	0.237
-500.653	-53.675	-0.102	-0.046
-499.639	-24.379	0.174	-0.103
-498.624	-118.337	-0.238	-0.042
-497.610	-54.193	-0.045	-0.021
-496.595	-53.634	0.108	-0.049
-495.581	800.000	-0.072	0.212
-494.566	400.609	0.051	0.106
-493.551	-47.751	-0.152	-0.073
-492.537	5.716	0.340	0.250
-491.522	126.660	0.143	0.181
-490.508	269.855	-0.120	-0.210
-489.493	-60.936	-0.086	-0.036
-488.478	-200.000	0.129	0.690
-487.464	83.781	0.044	0.048
-486.449	-200.000	-0.003	-0.045
-485.435	146.985	-0.197	0.264
-484.420	-200.000	0.038	-0.261
-483.405	326.112	-0.074	-0.140
-482.391	-29.190	0.180	0.103
-481.376	-151.879	0.266	-0.019
-480.362	-200.000	-0.029	-0.217
-479.347	219.676	-0.098	-0.156
-478.332	-51.399	-0.246	0.115
-477.318	-10.346	0.196	-0.129
-476.303	-200.000	-0.046	0.362
-475.289	800.000	-0.056	0.186
-474.274	6.178	0.134	-0.099
-473.259	-63.736	0.192	-0.078
-472.245	-200.000	-0.103	0.466
-471.230	4.199	-0.196	-0.143
-470.216	-200.000	0.025	0.175
-469.201	672.795	0.124	0.319
-468.186	-200.000	0.002	-0.144
-467.172	-200.000	-0.030	-0.421
-466.157	377.637	-0.199	-0.404
-465.143	108.787	0.135	0.160
-464.128	4.940	0.102	0.074
-463.113	365.536	-0.355	0.712
-462.099	129.938	-0.063	0.080
-461.084	-28.260	0.100	0.058
-460.070	72.611	-0.110	0.114
-459.055	516.095	0.073	0.169
-458.040	800.000	-0.098	-0.351
-457.026	-99.527	0.157	0.039
-456.011	0.393	0.190	-0.135
-454.997	-44.692	0.356	-0.177
-453.982	-24.455	0.312	-0.185
-452.968	-92.986	-0.044	0.012
-451.953	-69.449	-0.318	0.121
-450.938	-62.287	0.162	0.067
-449.924	800.000	-0.063	0.247
-448.909	452.602	0.059	0.131
-447.895	503.887	0.046	0.106
-446.880	7.359	-0.328	0.244
-445.865	-82.786	0.141	0.045
-444.851	800.000	-0.079	0.309
-443.836	-124.156	0.283	-0.044
-442.822	800.000	-0.026	0.102
-441.807	-200.000	0.042	0.210
-440.792	-86.946	-0.090	-0.027
-439.778	800.000	-0.039	0.111
-438.763	-46.343	-0.260	0.127
-437.749	-200.000	-0.104	0.499
-436.734	-200.000	-0.068	0.373
-435.719	660.368	0.083	0.214
-434.705	208.134	0.197	0.306
-433.690	-93.172	0.129	0.036
-432.676	94.001	0.126	-0.142
-431.661	779.700	0.036	-0.098
-430.646	249.177	0.099	0.167
-429.632	-73.431	-0.174	-0.063
-428.617	-200.000	0.026	-0.126
-427.603	-150.482	0.122	-0.009
-426.588	66.618	-0.232	0.235
-425.573	128.502	-0.069	0.088
-424.559	157.391	-0.096	-0.132
-423.544	224.033	0.142	-0.228
-422.530	-200.000	-0.022	-0.095
-421.515	-200.000	-0.044	0.197
-420.500	-200.000	-0.006	0.282
-419.486	145.381	0.107	-0.142
-418.471	-47.842	0.144	0.069
-417.457	-200.000	-0.070	-0.385
-416.442	-118.036	-0.346	0.061
-415.428	-51.253	0.149	-0.069
-414.413	141.164	0.258	0.339
-413.398	800.000	0.026	0.096
-412.384	28.243	-0.324	0.272
-411.369	59.170	-0.111	0.109
-410.355	800.000	-0.014	0.061
-409.340	-169.693	-0.111	-0.004
-408.325	55.620	-0.296	0.284
-407.311	-124.447	0.095	0.015
-406.296	45.489	0.057	0.052
-405.282	174.671	0.050	0.072
-404.267	-0.055	-0.158	-0.111
-403.252	-190.365	-0.236	0.003
-402.238	800.000	0.039	-0.136
-401.223	-88.478	-0.290	-0.086
-400.209	347.269	0.060	0.116
-399.194	-200.000	-0.012	-0.108
-398.179	-104.727	0.151	0.034
-397.165	114.014	0.278	0.335
-396.150	-2.875	0.089	0.062
-395.136	116.899	0.140	0.171
-394.121	-13.564	0.140	-0.090
-393.106	-114.864	-0.240	0.045
-392.092	-53.750	-0.336	0.152
-391.077	351.940	0.160	0.314
-390.063	-200.000	-0.001	0.204
-389.048	-200.000	0.017	0.358
-388.033	472.147	0.042	-0.094
-387.019	-38.938	0.095	-0.050
-386.004	-44.132	0.226	-0.113
-384.990	-60.481	-0.185	0.078
-383.975	201.022	-0.058	-0.089
-382.960	-60.925	-0.065	-0.027
-381.946	45.142	0.068	-0.062
-380.931	-200.000	0.006	0.060
-379.917	-80.883	-0.307	-0.101
-378.902	-60.283	-0.122	-0.051
-377.888	-140.460	0.253	0.026
-376.873	9.185	0.075	0.056
-375.858	87.212	0.052	-0.057
-374.844	-25.372	0.353	0.207
-373.829	-100.879	0.076	-0.019
-372.815	-114.271	-0.226	0.043
-371.800	139.780	0.150	0.195
-370.785	-200.000	0.008	-0.200
-369.771	-11.717	0.075	-0.049
-368.756	-177.025	0.023	-0.001
-367.742	-56.248	0.391	0.172
-366.727	-196.472	0.380	0.003
-365.712	44.947	-0.242	-0.221
-364.698	-36.096	-0.200	-0.107
-363.683	-60.974	-0.200	0.084
-362.669	-200.000	0.004	-0.131
-361.654	-200.000	0.010	-0.073
-360.639	-169.025	0.073	0.003
-359.625	-27.018	-0.334	0.193
-358.610	184.771	0.205	0.302
-357.596	330.387	0.107	-0.205
-356.581	800.000	-0.030	0.086
-355.566	-200.000	-0.009	0.190
-354.552	-128.889	-0.209	-0.029
-353.537	248.927	0.019	0.031
-352.523	64.493	0.264	-0.264
-351.508	-200.000	0.003	-0.019
-350.493	209.961	0.058	-0.090
-349.479	-35.784	-0.277	0.149
-348.464	-72.531	-0.227	-0.083
-347.450	43.029	-0.132	-0.119
-346.435	-109.031	0.342	-0.072
-345.420	-120.452	0.436	-0.073
-344.406	-155.068	0.198	-0.013
-343.391	-200.000	0.050	-0.384
-342.377	-200.000	-0.015	0.196
-341.362	548.935	0.122	-0.290
-340.348	5.047	-0.237	-0.172
-339.333	-21.116	-0.122	0.074
-338.318	404.938	-0.172	0.359
-337.304	-74.310	-0.255	0.091
-336.289	-61.675	-0.401	0.166
-335.275	-61.652	-0.104	0.043
-334.260	-38.486	0.214	-0.112
-333.245	-200.000	-0.029	-0.165
-332.231	800.000	-0.039	0.133
-331.216	-200.000	-0.034	-0.157
-330.202	-200.000	-0.023	0.198
-329.187	-125.906	0.243	-0.036
-328.172	19.870	0.318	-0.253
-327.158	324.495	0.044	-0.083
-326.143	-128.865	-0.158	0.022
-325.129	106.691	0.153	0.180
-324.114	-200.000	-0.039	0.233
-323.099	-200.000	0.016	0.129
-322.085	21.601	-0.283	-0.228
-321.070	-170.870	-0.141	0.005
-320.056	-200.000	-0.010	-0.050
-319.041	-104.403	0.077	0.018
-318.026	35.007	0.056	0.049
-317.012	300.607	-0.141	-0.258
-315.997	418.427	0.113	0.239
-314.983	-200.000	0.041	0.373
-313.968	-112.777	0.178	0.035
-312.953	624.717	-0.106	-0.265
-311.939	-151.170	0.106	0.008
-310.924	-64.273	-0.124	-0.050
-309.910	131.922	-0.110	0.140
-308.895	29.104	-0.131	-0.110
-307.880	513.081	-0.212	-0.488
-306.866	-106.536	0.352	-0.078
-305.851	-69.170	0.376	0.143
-304.837	-200.000	-0.005	0.269
-303.822	-101.435	0.536	-0.129
-302.807	-200.000	0.031	-0.144
-301.793	-200.000	0.016	0.084
-300.778	12.387	0.260	-0.198
-299.764	-200.000	-0.002	-0.269
-298.749	-80.511	0.087	-0.029
-297.735	-41.737	-0.113	0.057
-296.720	-200.000	0.051	0.238
-295.705	59.741	0.253	-0.247
-294.691	-153.587	0.131	0.009
-293.676	-156.663	-0.136	0.008
-292.662	0.117	-0.214	-0.151
-291.647	87.791	-0.104	-0.114
-290.632	68.114	0.342	-0.346
-289.618	-101.070	-0.162	0.039
-288.603	-200.000	-0.009	-0.091
-287.589	800.000	0.033	-0.108
-286.574	800.000	-0.056	-0.237
-285.559	136.211	-0.092	-0.119
-284.545	-28.649	-0.122	-0.069
-283.530	17.670	0.134	0.105
-282.516	-200.000	0.008	0.225
-281.501	14.570	-0.137	-0.106
-280.486	81.262	0.137	0.146
-279.472	-200.000	-0.059	-0.379
-278.457	514.114	0.111	-0.255
-277.443	114.467	0.031	-0.038
-276.428	-117.248	-0.165	-0.030
-275.413	198.657	-0.196	0.296
-274.399	113.711	-0.224	0.269
-273.384	217.711	0.149	-0.235
-272.370	-164.901	0.272	0.012
-271.355	-120.034	0.195	-0.033
-270.340	-70.005	0.093	0.035
-269.326	-41.029	-0.265	0.135
-268.311	800.000	0.117	-0.336
-267.297	-149.275	0.064	-0.005
-266.282	-98.965	-0.472	-0.118
-265.267	512.306	0.121	-0.278
-264.253	800.000	-0.010	0.027
-263.238	-41.777	-0.254	-0.129
-262.224	-200.000	-0.000	0.127
-261.209	800.000	-0.026	0.095
-260.195	128.837	-0.103	-0.129
-259.180	-200.000	-0.005	0.079
-258.165	-45.209	-0.215	-0.105
-257.151	252.730	0.086	-0.144
-256.136	-88.985	-0.269	0.078
-255.122	117.014	0.160	-0.194
-254.107	-200.000	-0.057	-0.295
-253.092	-46.675	0.064	0.031
-252.078	270.240	-0.143	-0.248
-251.063	-200.000	-0.010	0.115
-250.049	-86.237	0.190	0.058
-249.034	263.806	-0.217	0.372
-248.019	-42.846	-0.182	-0.091
-247.005	66.159	-0.058	-0.059
-245.990	-21.852	0.248	0.149
-244.976	-48.772	-0.334	-0.158
-243.961	800.000	0.084	0.285
-242.946	-57.900	0.218	-0.094
-241.932	800.000	0.068	-0.264
-240.917	160.993	0.114	0.156
-239.903	-93.563	-0.520	-0.142
-238.888	-200.000	0.003	0.118
-237.873	-200.000	0.020	-0.411
-236.859	-116.577	0.279	-0.051
-235.844	-89.298	0.234	0.068
-234.830	-72.037	0.235	-0.086
-233.815	37.265	-0.113	0.099
-232.800	-98.694	-0.252	-0.063
-231.786	-21.668	-0.136	0.082
-230.771	-200.000	0.007	-0.090
-229.757	18.780	0.146	-0.115
-228.742	-99.737	-0.202	0.050
-227.727	800.000	0.091	-0.308
-226.713	28.927	-0.172	-0.144
-225.698	-120.065	0.317	0.054
-224.684	-73.598	0.181	0.065
-223.669	-57.024	0.300	-0.131
-222.655	6.380	0.127	0.093
-221.640	-1.486	0.334	-0.232
-220.625	154.910	0.163	0.221
-219.611	444.050	0.124	-0.268
-218.596	78.960	-0.143	0.151
-217.582	800.000	-0.008	-0.023
-216.567	-67.005	0.405	-0.157
-215.552	162.511	0.060	-0.083
-214.538	-131.677	-0.110	-0.014
-213.523	227.581	0.185	-0.296
-212.509	-94.726	0.157	0.042
-211.494	-142.856	-0.130	-0.012
-210.479	-184.438	-0.344	0.006
-209.465	800.000	0.118	0.322
-208.450	239.179	-0.294	0.481
-207.436	-200.000	0.013	0.109
-206.421	680.671	0.072	-0.186
-205.406	-200.000	0.011	-0.054
-204.392	-82.282	-0.173	0.055
-203.377	46.185	0.188	-0.172
-202.363	-200.000	-0.012	-0.195
-201.348	81.192	0.207	-0.220
-200.333	-200.000	-0.041	-0.362
-199.319	-29.602	-0.064	0.036
-198.304	800.000	0.098	0.296
-197.290	160.893	-0.059	0.082
-196.275	-200.000	0.079	-0.415
-195.260	-171.235	0.241	-0.008
-194.246	218.259	0.114	0.180
-193.231	-113.235	0.369	-0.071
-192.217	134.695	-0.243	0.310
-191.202	-4.583	0.117	0.079
-190.187	-200.000	-0.037	-0.269
-189.173	-114.960	0.230	-0.043
-188.158	-116.821	-0.263	0.047
-187.144	33.130	-0.174	-0.148
-186.129	76.723	0.116	0.121
-185.114	47.913	-0.224	-0.206
-184.100	-41.533	-0.357	-0.181
-183.085	-100.404	0.396	0.097
-182.071	216.767	0.282	0.441
-181.056	-69.652	-0.134	0.050
-180.042	-190.217	0.085	0.001
-179.027	3.935	-0.275	0.198
-178.012	-200.000	0.003	0.329
-176.998	-47.124	0.195	0.093
-175.983	800.000	0.036	-0.136
-174.969	21.586	-0.180	0.144
-173.954	69.184	0.096	0.097
-172.939	-59.158	0.228	-0.097
-171.925	-83.710	-0.060	0.019
-170.910	322.848	0.104	0.195
-169.896	-49.148	-0.131	-0.062
-168.881	800.000	-0.099	-0.312
-167.866	800.000	-0.127	0.395
-166.852	285.868	-0.027	0.048
-165.837	128.734	-0.117	-0.146
-164.823	-127.221	0.235	-0.034
-163.808	156.064	0.255	0.346
-162.793	51.202	0.038	0.035
-161.779	152.210	0.155	-0.208
-160.764	-200.000	-0.039	-0.183
-159.750	-73.677	0.197	-0.071
-158.735	-200.000	0.038	0.284
-157.720	10.288	-0.107	0.080
-156.706	154.787	0.106	0.143
-155.691	-31.051	0.351	0.195
-154.677	-114.749	-0.433	-0.081
-153.662	2.122	-0.112	0.080
-152.647	-200.000	0.035	-0.174
-151.633	-200.000	0.032	0.359
-150.618	-200.000	0.035	0.165
-149.604	-70.911	0.115	0.043
-148.589	-200.000	-0.005	0.063
-147.574	-109.260	-0.303	0.063
-146.560	-22.363	-0.213	-0.127
-145.545	-124.160	-0.109	-0.017
-144.531	-200.000	0.015	0.243
-143.516	800.000	-0.091	0.287
-142.502	601.750	-0.094	0.230
-141.487	188.983	-0.208	0.306
-140.472	257.478	-0.135	-0.228
-139.458	-200.000	-0.060	0.273
-138.443	311.797	-0.038	0.070
-137.429	-65.548	0.190	-0.075
-136.414	-60.787	0.124	-0.052
-135.399	-36.626	-0.331	0.175
-134.385	-14.106	-0.269	0.170
-133.370	-23.544	0.177	0.104
-132.356	-133.130	0.031	0.004
-131.341	273.493	-0.194	0.338
-130.326	-200.000	-0.046	0.402
-129.312	54.269	-0.311	0.294
-128.297	257.104	-0.121	0.205
-127.283	312.222	0.051	-0.094
-126.268	-156.407	0.195	-0.012
-125.253	-64.451	-0.107	0.043
-124.239	-147.988	0.101	-0.008
-123.224	-24.890	-0.245	-0.143
-122.210	-75.883	-0.230	0.080
