DTS Sentinel unit serial number:	SN413079Multiplexer serial number:	ORYXHardware model number:	OX4-SRSoftware version number:	ORYX F/W v4.00 Oryx Data Collector v3.7.2.0data status	okinstallation	princeton_trtdifferential loss correction	single-endedforward channel	channel 2reverse channel	N/Adate	2019/09/16time	05:43:34forward acquisition time	60.00reverse acquisition time	0.00gamma	496.2192k internal	0.2334k external	0.2334temperature offset calibration	0.9976default loss term (dB/km)	0.3790temperature slope calibration	1.0000multiplexer offset coefficient	1.0000multiplexer slope coefficient	1.0000fibre end	0.00T internal ref (°C)	27.34T ext. ref 1 (°C)	11.19T ext. ref 2 (°C)	22.28length (m)	temperature (°C)	Stokes	anti-Stokes-747.200	-129.252	0.256	0.036
-746.185	-8.891	-0.371	-0.250
-745.171	484.396	0.138	0.315
-744.156	800.000	0.094	0.350
-743.142	100.854	-0.069	-0.081
-742.127	64.405	0.218	-0.220
-741.112	159.834	-0.111	-0.156
-740.098	-101.144	-0.156	-0.038
-739.083	-44.427	-0.409	-0.206
-738.069	-200.000	-0.041	-0.192
-737.054	-200.000	0.024	0.411
-736.039	30.737	0.130	-0.112
-735.025	117.050	-0.127	0.157
-734.010	800.000	0.017	-0.060
-732.996	-109.936	0.238	0.050
-731.981	61.435	-0.109	-0.108
-730.966	-45.073	-0.351	0.175
-729.952	-23.310	-0.092	0.056
-728.937	-2.329	-0.229	-0.162
-727.923	70.873	-0.063	-0.066
-726.908	-200.000	-0.025	-0.144
-725.894	-42.920	-0.236	-0.120
-724.879	-160.881	-0.127	0.007
-723.864	-200.000	-0.027	-0.142
-722.850	77.854	0.069	-0.073
-721.835	-200.000	0.019	-0.116
-720.821	-152.881	-0.212	-0.015
-719.806	247.341	0.240	-0.407
-718.791	-200.000	-0.002	-0.512
-717.777	-56.955	0.149	-0.066
-716.762	-200.000	-0.011	0.274
-715.748	-169.592	0.147	-0.005
-714.733	570.861	0.100	-0.245
-713.718	800.000	-0.072	0.273
-712.704	-118.694	-0.277	0.049
-711.689	565.878	0.044	0.106
-710.675	-152.725	-0.121	0.009
-709.660	141.150	0.120	0.160
-708.645	-105.842	0.311	-0.070
-707.631	-73.451	0.192	0.071
-706.616	65.999	0.094	-0.096
-705.602	32.738	-0.043	0.037
-704.587	133.360	0.201	-0.261
-703.572	6.837	-0.081	-0.060
-702.558	302.121	-0.147	-0.273
-701.543	11.279	-0.055	0.042
-700.529	-24.866	-0.215	-0.128
-699.514	235.576	0.096	0.160
-698.499	-59.393	0.232	-0.100
-697.485	-30.714	-0.253	-0.144
-696.470	22.311	0.203	-0.166
-695.456	378.664	0.124	-0.255
-694.441	-200.000	0.036	0.214
-693.426	-7.466	-0.145	0.098
-692.412	-200.000	-0.021	0.132
-691.397	800.000	-0.009	0.033
-690.383	233.647	0.106	0.175
-689.368	157.557	-0.085	0.118
-688.354	-121.788	-0.233	-0.039
-687.339	800.000	0.122	-0.524
-686.324	53.009	0.051	0.049
-685.310	283.204	-0.064	-0.115
-684.295	83.155	0.316	0.345
-683.281	143.953	0.133	-0.178
-682.266	-43.981	-0.182	0.092
-681.251	196.277	-0.191	-0.292
-680.237	163.910	-0.172	0.242
-679.222	276.365	0.059	-0.104
-678.208	-94.071	-0.350	-0.096
-677.193	-65.638	-0.426	-0.171
-676.178	-10.640	0.275	0.183
-675.164	-200.000	-0.005	-0.101
-674.149	-41.728	-0.109	-0.056
-673.135	800.000	-0.058	-0.187
-672.120	-113.695	0.229	-0.045
-671.105	-200.000	0.014	0.183
-670.091	-74.168	-0.142	0.051
-669.076	-25.268	0.298	-0.177
-668.062	714.835	-0.041	0.108
-667.047	-111.245	-0.270	-0.055
-666.032	24.170	0.273	-0.226
-665.018	2.076	-0.020	0.014
-664.003	-113.046	-0.276	-0.055
-662.989	-5.096	0.160	-0.111
-661.974	-200.000	-0.080	0.358
-660.959	-200.000	-0.023	0.143
-659.945	-200.000	0.023	-0.143
-658.930	-186.395	0.168	-0.002
-657.916	60.862	0.126	-0.125
-656.901	-144.170	-0.197	-0.018
-655.886	-5.450	-0.310	0.213
-654.872	247.989	0.125	0.212
-653.857	-200.000	-0.005	0.025
-652.843	-3.519	-0.054	0.038
-651.828	-150.243	-0.110	-0.009
-650.814	-52.051	-0.173	-0.081
-649.799	5.418	0.179	0.132
-648.784	-24.811	-0.265	0.158
-647.770	28.267	-0.157	-0.133
-646.755	-89.969	0.426	0.124
-645.741	800.000	-0.058	0.191
-644.726	-52.704	-0.408	0.189
-643.711	-200.000	-0.016	0.152
-642.697	249.153	-0.131	-0.222
-641.682	800.000	-0.023	0.089
-640.668	-2.488	-0.116	0.081
-639.653	64.099	-0.303	0.305
-638.638	800.000	0.133	-0.411
-637.624	121.724	-0.122	0.152
-636.609	399.291	-0.137	-0.287
-635.595	35.710	0.172	-0.151
-634.580	295.100	-0.073	0.134
-633.565	11.099	0.112	-0.086
-632.551	139.214	-0.073	0.095
-631.536	800.000	0.067	0.270
-630.522	78.039	0.287	-0.307
-629.507	276.772	-0.181	-0.322
-628.492	-130.319	0.387	0.053
-627.478	184.672	0.136	-0.202
-626.463	-200.000	0.058	0.333
-625.449	223.364	-0.045	-0.072
-624.434	65.039	0.270	-0.273
-623.419	-165.342	-0.191	-0.008
-622.405	800.000	-0.077	-0.260
-621.390	62.886	-0.212	0.212
-620.376	386.116	-0.141	0.292
-619.361	-19.748	-0.259	-0.160
-618.346	800.000	-0.212	0.603
-617.332	-53.378	0.242	0.111
-616.317	-82.566	0.092	0.030
-615.303	-200.000	0.024	-0.176
-614.288	-133.125	-0.143	0.018
-613.273	62.545	-0.224	-0.224
-612.259	188.748	-0.073	-0.110
-611.244	-146.379	-0.136	0.012
-610.230	800.000	-0.012	-0.035
-609.215	-185.512	-0.247	0.004
-608.201	53.641	-0.289	-0.277
-607.186	170.722	-0.196	0.280
-606.171	80.761	0.182	0.196
-605.157	-200.000	-0.019	0.394
-604.142	-52.834	-0.007	-0.003
-603.128	106.020	-0.330	-0.390
-602.113	288.340	0.139	-0.251
-601.098	48.100	0.147	0.137
-600.084	-28.926	-0.141	-0.081
-599.069	-3.114	0.150	0.105
-598.055	-29.156	-0.121	-0.070
-597.040	800.000	0.070	0.260
-596.025	756.838	0.058	-0.156
-595.011	294.449	-0.027	-0.048
-593.996	397.827	-0.076	-0.159
-592.982	-74.870	0.348	-0.125
-591.967	-36.579	0.070	0.038
-590.952	800.000	-0.063	0.239
-589.938	-109.149	0.226	-0.048
-588.923	388.987	0.214	-0.442
-587.909	-167.387	0.304	-0.012
-586.894	-103.222	-0.438	-0.103
-585.879	203.252	0.018	-0.027
-584.865	-200.000	0.051	-0.229
-583.850	607.156	-0.109	-0.271
-582.836	-200.000	0.013	-0.140
-581.821	433.913	0.070	-0.151
-580.806	602.409	0.100	0.248
-579.792	-200.000	0.025	-0.276
-578.777	253.324	-0.090	0.154
-577.763	800.000	-0.092	-0.325
-576.748	474.451	0.130	-0.292
-575.733	88.763	0.114	-0.127
-574.719	-56.939	0.130	0.057
-573.704	-3.551	0.296	-0.205
-572.690	-43.895	0.215	0.108
-571.675	662.597	-0.074	0.191
-570.661	-71.054	-0.168	0.063
-569.646	-17.399	0.235	-0.148
-568.631	-135.626	-0.185	-0.022
-567.617	-29.791	-0.431	-0.245
-566.602	-13.451	0.160	0.104
-565.588	-200.000	0.028	-0.375
-564.573	-11.633	-0.030	-0.020
-563.558	171.843	0.082	0.118
-562.544	800.000	0.043	0.143
-561.529	362.347	0.148	0.296
-560.515	800.000	0.023	-0.065
-559.500	110.556	-0.168	0.202
-558.485	295.575	0.127	-0.231
-557.471	453.079	0.181	-0.399
-556.456	-75.352	0.191	0.068
-555.442	226.508	0.055	0.089
-554.427	-73.686	0.324	-0.118
-553.412	3.546	-0.356	-0.259
-552.398	-200.000	0.007	0.075
-551.383	-112.718	0.096	-0.019
-550.369	800.000	-0.130	0.368
-549.354	-57.257	-0.129	0.057
-548.339	800.000	0.040	0.128
-547.325	-82.489	-0.125	-0.040
-546.310	14.507	0.236	0.183
-545.296	-34.371	0.085	-0.046
-544.281	800.000	0.103	-0.451
-543.266	-149.771	-0.251	0.020
-542.252	-200.000	0.035	0.382
-541.237	-70.404	0.152	-0.057
-540.223	-200.000	0.033	0.256
-539.208	116.577	-0.207	-0.253
-538.193	198.952	-0.047	0.072
-537.179	-200.000	0.001	0.114
-536.164	62.893	0.163	-0.163
-535.150	-56.048	0.229	-0.102
-534.135	-200.000	0.024	0.205
-533.121	199.087	0.029	-0.044
-532.106	16.958	-0.197	-0.155
-531.091	-91.975	-0.132	0.037
-530.077	-31.226	-0.273	-0.153
-529.062	681.363	-0.200	-0.518
-528.048	-141.751	-0.294	0.029
-527.033	-96.253	0.050	-0.013
-526.018	386.257	-0.120	0.248
-525.004	-200.000	0.009	-0.058
-523.989	178.796	-0.141	0.205
-522.975	-129.360	-0.077	-0.011
-521.960	-97.232	0.098	-0.025
-520.945	77.581	0.142	-0.151
-519.931	-92.145	0.390	0.110
-518.916	-6.581	0.095	-0.065
-517.902	-20.684	-0.097	-0.060
-516.887	1.853	0.193	-0.139
-515.872	-200.000	0.061	-0.328
-514.858	-154.299	-0.130	0.009
-513.843	207.698	0.082	-0.127
-512.829	72.382	0.099	-0.102
-511.814	800.000	0.111	-0.322
-510.799	-14.388	-0.158	-0.101
-509.785	-200.000	0.005	-0.302
-508.770	528.949	0.127	0.299
-507.756	-200.000	-0.020	-0.104
-506.741	189.627	0.081	-0.120
-505.726	264.586	-0.096	0.167
-504.712	7.699	0.130	-0.097
-503.697	120.275	-0.105	0.130
-502.683	-200.000	0.057	0.344
-501.668	-200.000	0.080	-0.468
-500.653	661.545	0.106	-0.273
-499.639	23.675	-0.378	0.310
-498.624	-57.900	-0.089	0.039
-497.610	592.338	0.066	0.163
-496.595	-161.033	-0.114	-0.006
-495.581	306.214	-0.047	-0.087
-494.566	58.236	0.175	-0.170
-493.551	-200.000	0.003	-0.049
-492.537	-149.515	-0.282	0.022
-491.522	-200.000	-0.009	-0.070
-490.508	-102.104	0.247	-0.059
-489.493	-171.890	0.040	-0.001
-488.478	-200.000	-0.006	0.058
-487.464	227.108	-0.105	0.169
-486.449	296.058	0.091	-0.166
-485.435	-200.000	0.002	0.141
-484.420	2.549	-0.026	0.018
-483.405	-98.909	-0.245	-0.062
-482.391	-91.738	0.145	0.041
-481.376	-36.299	-0.116	0.062
-480.362	-200.000	0.005	-0.049
-479.347	251.063	-0.203	-0.344
-478.332	800.000	-0.187	0.599
-477.318	-32.370	0.202	0.112
-476.303	18.534	-0.115	0.091
-475.289	-56.103	-0.163	0.072
-474.274	5.607	0.219	-0.161
-473.259	278.673	-0.064	-0.114
-472.245	163.585	0.062	-0.086
-471.230	800.000	-0.101	0.310
-470.216	282.330	0.036	0.064
-469.201	-39.485	0.206	0.107
-468.186	-173.966	-0.262	0.008
-467.172	89.081	-0.281	-0.311
-466.157	-94.423	-0.154	-0.042
-465.143	-27.556	-0.252	-0.145
-464.128	71.825	0.303	0.313
-463.113	-2.218	0.274	0.191
-462.099	-64.776	0.121	-0.049
-461.084	-200.000	-0.002	0.178
-460.070	-35.231	-0.227	-0.123
-459.055	15.897	-0.260	-0.203
-458.040	710.232	-0.231	0.606
-457.026	-200.000	0.006	0.238
-456.011	17.289	-0.171	0.135
-454.997	188.480	-0.093	-0.138
-453.982	-125.641	0.452	0.068
-452.968	758.838	0.035	-0.093
-451.953	-200.000	0.020	-0.276
-450.938	777.730	0.086	-0.234
-449.924	-23.013	-0.069	-0.041
-448.909	9.738	0.133	-0.100
-447.895	-64.517	-0.364	-0.147
-446.880	-53.592	0.179	-0.082
-445.865	-78.082	-0.081	0.028
-444.851	800.000	-0.007	-0.020
-443.836	800.000	0.053	-0.191
-442.822	-190.010	-0.058	0.001
-441.807	-49.500	-0.160	-0.076
-440.792	-181.789	0.114	-0.002
-439.778	381.787	0.057	-0.116
-438.763	152.175	0.107	0.146
-437.749	-194.415	-0.061	-0.000
-436.734	249.349	-0.159	-0.268
-435.719	704.873	0.080	0.209
-434.705	-37.669	0.055	0.029
-433.690	120.853	0.059	0.072
-432.676	-200.000	-0.028	-0.208
-431.661	-92.950	-0.216	-0.060
-430.646	-6.745	-0.379	-0.256
-429.632	-43.015	-0.338	0.170
-428.617	-116.819	0.294	-0.053
-427.603	-100.327	-0.093	0.023
-426.588	-105.499	0.229	0.052
-425.573	2.590	0.043	0.031
-424.559	-200.000	0.027	0.406
-423.544	-11.738	0.395	-0.258
-422.530	-141.528	-0.110	-0.011
-421.515	12.752	0.191	0.147
-420.500	-48.763	-0.400	-0.191
-419.486	-200.000	0.022	-0.395
-418.471	-45.220	-0.414	0.204
-417.457	-200.000	-0.009	0.207
-416.442	285.346	-0.239	-0.428
-415.428	-28.549	0.258	-0.147
-414.413	-33.113	-0.143	-0.079
-413.398	-200.000	0.030	-0.290
-412.384	-40.753	-0.125	-0.064
-411.369	88.330	0.068	-0.074
-410.355	-36.222	0.150	-0.080
-409.340	3.444	0.117	0.085
-408.325	-200.000	0.004	-0.101
-407.311	577.151	0.087	-0.211
-406.296	-200.000	-0.006	0.043
-405.282	-51.713	-0.160	0.074
-404.267	55.329	0.138	0.133
-403.252	-92.754	0.541	0.150
-402.238	800.000	-0.048	-0.192
-401.223	-5.223	0.108	0.074
-400.209	-71.891	0.153	-0.056
-399.194	448.314	-0.053	-0.115
-398.179	-200.000	-0.006	0.191
-397.165	-114.565	-0.242	-0.046
-396.150	-185.630	0.191	0.003
-395.136	-122.505	0.143	0.023
-394.121	-133.167	-0.110	-0.014
-393.106	-25.439	-0.279	0.163
-392.092	800.000	0.077	0.214
-391.077	800.000	0.081	-0.251
-390.063	-17.138	0.061	0.038
-389.048	53.002	-0.090	0.086
-388.033	-108.105	-0.137	-0.029
-387.019	-28.464	-0.162	-0.093
-386.004	800.000	-0.040	-0.137
-384.990	-52.579	-0.154	0.071
-383.975	158.719	0.160	-0.220
-382.960	-132.112	-0.269	-0.035
-381.946	800.000	0.100	0.327
-380.931	550.216	0.187	0.444
-379.917	283.149	-0.066	0.118
-378.902	106.630	0.054	-0.063
-377.888	171.498	0.121	0.172
-376.873	-200.000	-0.000	0.309
-375.858	-27.203	0.141	0.081
-374.844	-85.892	0.305	-0.093
-373.829	-34.378	0.241	0.131
-372.815	-200.000	-0.034	-0.356
-371.800	-34.735	0.170	-0.092
-370.785	90.130	-0.092	-0.101
-369.771	-71.272	-0.111	0.041
-368.756	-200.000	-0.050	-0.237
-367.742	116.909	0.128	-0.156
-366.727	-81.756	0.589	-0.191
-365.712	-114.872	-0.151	-0.029
-364.698	-200.000	-0.008	-0.257
-363.683	-98.434	-0.265	-0.067
-362.669	29.670	0.038	0.032
-361.654	577.846	0.018	-0.045
-360.639	-11.897	0.114	-0.074
-359.625	33.017	0.160	-0.137
-358.610	-122.339	-0.463	0.075
-357.596	226.794	-0.095	0.153
-356.581	565.314	0.152	-0.366
-355.566	-81.964	-0.325	-0.105
-354.552	-200.000	0.008	0.225
-353.537	-39.736	-0.223	0.116
-352.523	-112.342	-0.092	-0.018
-351.508	543.703	0.030	-0.072
-350.493	-200.000	-0.052	0.227
-349.479	85.925	-0.103	0.112
-348.464	372.072	-0.040	0.081
-347.450	-127.576	0.300	-0.043
-346.435	-200.000	-0.002	0.048
-345.420	1.641	0.236	-0.168
-344.406	800.000	0.070	0.291
-343.391	-200.000	-0.002	0.042
-342.377	-127.049	0.145	0.021
-341.362	-1.273	0.109	0.076
-340.348	-200.000	-0.028	0.245
-339.333	31.208	0.136	-0.115
-338.318	-27.728	0.247	-0.142
-337.304	48.245	-0.033	0.030
-336.289	54.771	0.020	0.019
-335.275	800.000	-0.047	-0.172
-334.260	-200.000	-0.012	-0.183
-333.245	117.230	-0.112	-0.136
-332.231	65.376	0.191	0.191
-331.216	-167.178	0.476	-0.019
-330.202	199.048	-0.075	0.114
-329.187	58.926	-0.062	0.060
-328.172	139.075	0.210	-0.273
-327.158	800.000	-0.049	-0.199
-326.143	-6.917	0.056	-0.038
-325.129	800.000	0.132	-0.443
-324.114	-128.809	-0.349	0.049
-323.099	800.000	0.013	-0.047
-322.085	-10.085	-0.221	0.145
-321.070	-29.459	0.153	-0.087
-320.056	463.892	0.278	0.613
-319.041	22.373	-0.161	0.130
-318.026	-142.333	0.168	0.016
-317.012	199.317	0.221	0.334
-315.997	-31.947	-0.157	-0.087
-314.983	417.997	0.098	0.206
-313.968	-106.887	-0.018	-0.004
-312.953	258.473	0.159	0.271
-311.939	128.652	-0.121	0.152
-310.924	-200.000	-0.067	-0.387
-309.910	-12.619	-0.113	-0.073
-308.895	-200.000	-0.062	0.358
-307.880	214.436	-0.104	-0.162
-306.866	800.000	0.057	0.212
-305.851	-112.069	0.062	0.012
-304.837	-200.000	0.062	-0.423
-303.822	36.791	-0.151	0.132
-302.807	294.625	0.090	0.163
-301.793	800.000	0.134	0.482
-300.778	800.000	0.088	0.242
-299.764	-200.000	0.013	0.184
-298.749	800.000	0.025	0.081
-297.735	117.475	-0.079	-0.097
-296.720	-95.495	-0.136	-0.036
-295.705	-147.368	-0.139	0.012
-294.691	-112.377	-0.413	-0.082
-293.676	800.000	0.162	0.478
-292.662	-69.589	0.044	0.017
-291.647	-53.316	-0.272	0.123
-290.632	800.000	0.098	0.295
-289.618	-28.520	-0.256	0.146
-288.603	-50.499	0.392	-0.183
-287.589	-56.941	0.047	0.020
-286.574	-97.469	0.356	0.091
-285.559	-200.000	0.004	0.020
-284.545	-84.375	0.269	0.084
-283.530	-200.000	0.015	-0.358
-282.516	12.059	-0.085	-0.064
-281.501	800.000	0.032	0.099
-280.486	-6.725	-0.265	-0.178
-279.472	432.686	0.089	0.191
-278.457	-35.317	-0.356	0.191
-277.443	13.185	-0.105	0.080
-276.428	-22.148	0.211	-0.126
-275.413	-49.901	-0.196	0.092
-274.399	23.337	0.084	0.068
-273.384	60.982	-0.205	-0.201
-272.370	-43.368	-0.097	-0.048
-271.355	174.871	-0.091	0.129
-270.340	46.744	0.188	0.172
-269.326	-121.642	0.271	-0.044
-268.311	-200.000	0.020	0.249
-267.297	162.368	0.185	0.256
-266.282	800.000	0.060	0.201
-265.267	-120.062	0.097	0.016
-264.253	200.625	-0.062	-0.094
-263.238	-33.210	0.076	-0.042
-262.224	585.169	-0.050	0.120
-261.209	-126.574	-0.297	-0.043
-260.195	42.623	0.137	-0.123
-259.180	93.762	0.248	0.277
-258.165	-22.285	0.042	-0.025
-257.151	157.628	-0.023	0.031
-256.136	161.780	-0.187	0.258
-255.122	30.487	0.292	0.246
-254.107	-200.000	-0.024	-0.208
-253.092	-19.498	-0.174	0.106
-252.078	147.519	0.201	-0.266
-251.063	-138.758	0.111	0.012
-250.049	800.000	-0.037	-0.111
-249.034	-76.401	0.085	0.029
-248.019	189.231	0.084	-0.124
-247.005	6.153	-0.149	0.109
-245.990	361.591	0.012	0.025
-244.976	118.451	-0.162	0.197
-243.961	654.344	0.017	0.044
-242.946	-114.587	-0.175	0.033
-241.932	207.443	0.078	-0.120
-240.917	-73.373	-0.099	-0.036
-239.903	6.185	-0.188	0.137
-238.888	96.141	0.034	-0.039
-237.873	388.585	0.061	-0.124
-236.859	189.593	-0.098	0.144
-235.844	-37.628	-0.106	0.056
-234.830	126.033	0.147	0.183
-233.815	171.203	-0.114	0.162
-232.800	-14.890	0.172	0.109
-231.786	72.519	-0.026	-0.027
-230.771	-5.283	-0.171	-0.116
-229.757	-122.853	-0.147	0.023
-228.742	-47.652	-0.271	0.130
-227.727	-140.150	-0.036	0.004
-226.713	309.300	-0.168	-0.309
-225.698	800.000	0.043	0.176
-224.684	612.772	-0.086	0.211
-223.669	-67.264	-0.191	-0.074
-222.655	-81.941	0.079	-0.026
-221.640	-18.220	-0.118	-0.073
-220.625	-200.000	-0.049	0.245
-219.611	-200.000	0.067	0.305
-218.596	11.864	0.109	0.082
-217.582	-200.000	0.057	-0.342
-216.567	-39.558	-0.059	0.030
-215.552	-200.000	-0.017	0.074
-214.538	340.050	-0.089	-0.171
-213.523	158.526	0.066	-0.090
-212.509	-96.349	0.211	-0.055
-211.494	-83.657	0.194	0.061
-210.479	43.095	0.227	-0.204
-209.465	20.311	0.036	0.029
-208.450	-200.000	0.030	0.134
-207.436	-88.919	0.187	0.054
-206.421	-65.852	0.213	-0.084
-205.406	86.329	-0.214	-0.232
-204.392	-70.516	0.094	-0.035
-203.377	99.564	0.179	0.203
-202.363	800.000	0.046	-0.159
-201.348	800.000	0.037	0.124
-200.333	-28.260	-0.145	0.082
-199.319	79.253	0.033	0.035
-198.304	-75.178	-0.274	0.096
-197.290	-54.072	0.223	-0.100
-196.275	-144.713	0.101	0.009
-195.260	-200.000	0.015	-0.310
-194.246	-153.890	-0.156	0.010
-193.231	-132.335	-0.237	-0.030
-192.217	-200.000	0.028	0.155
-191.202	651.735	0.091	0.229
-190.187	-65.910	0.171	-0.067
-189.173	504.323	0.111	0.253
-188.158	-1.243	-0.218	0.152
-187.144	134.297	-0.055	0.070
-186.129	214.577	0.052	-0.081
-185.114	-200.000	0.011	0.087
-184.100	-200.000	0.057	-0.343
-183.085	48.990	0.234	0.216
-182.071	-117.146	-0.189	0.034
-181.056	800.000	-0.053	-0.207
-180.042	800.000	-0.094	-0.315
-179.027	-200.000	0.030	-0.312
-178.012	-56.557	-0.164	-0.072
-176.998	210.186	-0.073	0.112
-175.983	-200.000	-0.032	0.209
-174.969	-106.346	-0.323	0.071
-173.954	63.366	0.252	0.249
-172.939	-200.000	-0.030	-0.303
-171.925	-92.933	0.231	0.063
-170.910	-115.996	-0.219	-0.040
-169.896	-114.784	-0.033	-0.006
-168.881	-200.000	0.015	-0.132
-167.866	-50.122	-0.421	0.196
-166.852	-106.829	0.332	0.072
-165.837	-107.253	0.220	0.048
-164.823	800.000	-0.061	0.218
-163.808	27.695	0.254	-0.210
-162.793	-200.000	0.076	-0.334
-161.779	-53.856	-0.203	0.091
-160.764	-200.000	-0.001	0.334
-159.750	-152.566	-0.310	0.022
-158.735	-1.042	-0.120	-0.083
-157.720	800.000	0.056	0.217
-156.706	11.089	0.303	0.228
-155.691	-46.993	0.214	0.102
-154.677	-200.000	-0.016	-0.241
-153.662	800.000	0.034	0.113
-152.647	-31.058	-0.025	-0.014
-151.633	700.456	0.071	-0.182
-150.618	51.938	0.022	-0.020
-149.604	800.000	0.090	0.300
-148.589	-200.000	-0.047	0.337
-147.574	-103.476	-0.234	-0.054
-146.560	310.903	0.088	-0.163
-145.545	54.489	-0.061	0.058
-144.531	2.881	-0.191	0.136
-143.516	-200.000	0.052	0.317
-142.502	-152.265	-0.222	0.016
-141.487	23.752	0.280	-0.226
-140.472	-132.344	-0.223	-0.028
-139.458	-33.153	0.075	0.041
-138.443	385.345	0.106	-0.214
-137.429	30.325	0.103	-0.087
-136.414	800.000	0.045	0.129
-135.399	800.000	-0.073	0.210
-134.385	-28.769	-0.439	0.248
-133.370	13.840	-0.076	0.058
-132.356	59.213	-0.062	-0.060
-131.341	800.000	-0.064	-0.188
-130.326	69.464	0.298	-0.301
-129.312	119.001	-0.071	-0.086
-128.297	261.153	-0.034	-0.058
-127.283	180.828	0.186	-0.269
-126.268	125.112	0.178	-0.220
-125.253	229.588	0.157	-0.251
-124.239	-12.969	0.307	-0.196
-123.224	83.566	-0.266	0.285
-122.210	800.000	0.068	0.198
-121.195	-200.000	0.022	-0.128
-120.180	-54.083	0.308	-0.138
