DTS Sentinel unit serial number:	SN413079Multiplexer serial number:	ORYXHardware model number:	OX4-SRSoftware version number:	ORYX F/W v4.00 Oryx Data Collector v3.7.2.0data status	okinstallation	princeton_trtdifferential loss correction	single-endedforward channel	channel 2reverse channel	N/Adate	2019/09/17time	20:23:35forward acquisition time	60.00reverse acquisition time	0.00gamma	496.2192k internal	0.2333k external	0.2333temperature offset calibration	0.9989default loss term (dB/km)	0.3790temperature slope calibration	1.0000multiplexer offset coefficient	1.0000multiplexer slope coefficient	1.0000fibre end	0.00T internal ref (°C)	31.17T ext. ref 1 (°C)	0.22T ext. ref 2 (°C)	21.67length (m)	temperature (°C)	Stokes	anti-Stokes-747.200	-200.000	0.018	0.168
-746.185	11.390	0.200	0.154
-745.171	293.425	0.110	-0.202
-744.156	-200.000	-0.005	0.388
-743.142	-103.436	-0.160	0.038
-742.127	-72.642	0.254	-0.094
-741.112	-200.000	0.049	0.362
-740.098	800.000	0.055	0.175
-739.083	-185.561	-0.399	-0.006
-738.069	-47.632	-0.082	0.040
-737.054	800.000	-0.112	-0.438
-736.039	-200.000	-0.027	-0.392
-735.025	-200.000	-0.006	-0.135
-734.010	-36.715	-0.406	-0.219
-732.996	-26.761	-0.238	-0.140
-731.981	-200.000	-0.039	0.298
-730.966	-200.000	-0.038	-0.276
-729.952	19.878	-0.109	0.088
-728.937	255.672	0.117	-0.202
-727.923	63.165	-0.148	-0.149
-726.908	-200.000	-0.044	-0.326
-725.894	800.000	0.017	-0.049
-724.879	-24.157	-0.286	-0.171
-723.864	-45.081	0.287	-0.143
-722.850	-19.952	0.064	0.040
-721.835	-109.913	-0.211	0.044
-720.821	69.948	0.201	0.208
-719.806	120.318	-0.251	-0.313
-718.791	-200.000	0.025	-0.342
-717.777	318.032	-0.121	0.230
-716.762	193.157	0.112	-0.170
-715.748	-104.687	-0.227	0.053
-714.733	1.510	-0.274	-0.198
-713.718	-200.000	0.013	-0.182
-712.704	66.955	0.041	0.042
-711.689	-73.145	0.112	-0.041
-710.675	130.631	-0.135	-0.174
-709.660	348.541	-0.134	0.265
-708.645	-65.909	-0.404	0.162
-707.631	-200.000	0.000	-0.102
-706.616	75.730	-0.191	-0.203
-705.602	-128.843	-0.049	-0.007
-704.587	233.781	0.128	0.211
-703.572	4.469	-0.166	0.123
-702.558	-37.340	-0.097	0.052
-701.543	-37.633	-0.069	-0.037
-700.529	800.000	0.045	0.127
-699.514	125.523	-0.149	-0.189
-698.499	800.000	-0.086	-0.363
-697.485	-11.619	-0.332	-0.219
-696.470	-200.000	-0.049	-0.444
-695.456	493.238	0.054	-0.124
-694.441	-79.331	0.243	0.083
-693.426	-200.000	-0.002	0.118
-692.412	566.435	0.124	0.301
-691.397	-44.624	-0.203	0.102
-690.383	-35.335	0.174	-0.095
-689.368	-117.163	0.108	0.020
-688.354	-158.653	-0.196	-0.011
-687.339	-142.738	-0.274	0.027
-686.324	55.103	0.344	0.334
-685.310	-22.378	0.259	0.158
-684.295	381.269	-0.153	-0.315
-683.281	58.885	0.044	-0.044
-682.266	-146.069	0.017	0.001
-681.251	72.746	-0.208	-0.218
-680.237	277.541	-0.206	-0.368
-679.222	-191.880	0.251	0.002
-678.208	800.000	-0.044	0.166
-677.193	800.000	-0.050	-0.179
-676.178	314.263	-0.062	-0.117
-675.164	-24.672	-0.205	-0.123
-674.149	-21.776	-0.120	0.073
-673.135	304.151	0.139	-0.258
-672.120	158.996	-0.132	-0.185
-671.105	503.128	-0.092	0.213
-670.091	313.649	0.063	-0.118
-669.076	20.263	0.257	-0.208
-668.062	338.886	-0.084	-0.164
-667.047	-23.707	0.275	-0.165
-666.032	800.000	-0.045	0.195
-665.018	-18.335	0.263	-0.165
-664.003	800.000	-0.088	-0.335
-662.989	800.000	-0.100	-0.390
-661.974	97.615	0.121	-0.140
-660.959	91.951	0.185	0.209
-659.945	-113.488	-0.163	0.032
-658.930	512.697	0.071	0.166
-657.916	-64.370	-0.078	-0.032
-656.901	179.315	0.106	-0.155
-655.886	800.000	0.026	0.073
-654.872	-200.000	0.013	-0.289
-653.857	167.457	-0.112	0.159
-652.843	-200.000	-0.058	-0.288
-651.828	800.000	0.028	0.119
-650.814	26.618	0.200	-0.167
-649.799	-122.948	0.234	-0.038
-648.784	-21.385	-0.083	-0.051
-647.770	19.902	0.204	0.164
-646.755	-106.109	0.190	-0.043
-645.741	191.762	-0.147	-0.222
-644.726	-153.265	0.378	-0.026
-643.711	383.069	0.048	0.100
-642.697	426.399	-0.095	-0.204
-641.682	169.096	-0.086	-0.122
-640.668	-200.000	0.013	0.168
-639.653	48.215	-0.280	-0.263
-638.638	-148.549	-0.083	0.007
-637.624	-200.000	-0.025	-0.136
-636.609	-200.000	0.038	-0.339
-635.595	-200.000	-0.012	0.125
-634.580	43.324	-0.216	-0.197
-633.565	-140.678	-0.170	0.018
-632.551	-12.665	-0.227	0.148
-631.536	569.441	0.077	-0.188
-630.522	-77.684	0.246	0.085
-629.507	800.000	0.113	-0.353
-628.492	-98.612	-0.183	-0.047
-627.478	-112.203	0.349	0.070
-626.463	404.535	0.040	-0.084
-625.449	507.613	0.059	-0.137
-624.434	-73.671	0.211	0.077
-623.419	53.236	-0.210	-0.201
-622.405	-127.119	-0.153	-0.022
-621.390	21.503	-0.071	0.058
-620.376	-167.639	0.215	0.009
-619.361	-200.000	-0.031	0.202
-618.346	235.645	0.117	-0.193
-617.332	-200.000	-0.019	0.189
-616.317	-130.075	0.163	-0.022
-615.303	-156.873	-0.270	0.017
-614.288	800.000	0.044	0.136
-613.273	55.977	-0.310	0.301
-612.259	207.312	0.109	-0.170
-611.244	800.000	-0.037	0.111
-610.230	783.633	-0.166	-0.456
-609.215	-89.640	0.420	-0.123
-608.201	656.772	0.099	-0.255
-607.186	5.685	-0.255	0.189
-606.171	-58.917	0.271	0.117
-605.157	-200.000	-0.002	-0.053
-604.142	459.085	-0.038	-0.086
-603.128	-200.000	-0.019	-0.199
-602.113	-158.276	-0.088	0.005
-601.098	-200.000	0.005	0.146
-600.084	50.610	-0.094	-0.089
-599.069	653.695	0.137	-0.351
-598.055	-32.947	0.238	-0.132
-597.040	49.021	-0.317	-0.297
-596.025	800.000	0.066	-0.208
-595.011	-90.965	0.117	-0.034
-593.996	-110.070	0.151	-0.031
-592.982	595.909	0.139	0.343
-591.967	-200.000	-0.054	0.301
-590.952	-28.787	-0.277	-0.159
-589.938	800.000	0.039	0.151
-588.923	-200.000	-0.006	0.315
-587.909	-5.922	0.031	0.021
-586.894	800.000	0.026	0.108
-585.879	623.680	0.076	0.191
-584.865	-22.330	0.240	0.145
-583.850	159.771	0.081	0.113
-582.836	-177.156	0.149	-0.004
-581.821	-86.310	0.160	0.049
-580.806	-71.746	0.068	-0.026
-579.792	-93.681	-0.131	0.036
-578.777	-1.159	-0.356	-0.251
-577.763	800.000	-0.045	-0.192
-576.748	-200.000	0.008	0.157
-575.733	-185.247	0.188	0.003
-574.719	800.000	0.037	0.147
-573.704	550.954	0.081	-0.195
-572.690	-200.000	-0.014	-0.259
-571.675	-95.423	0.209	0.056
-570.661	422.533	0.087	0.186
-569.646	-58.715	-0.051	0.022
-568.631	-108.211	-0.119	0.026
-567.617	-143.811	0.210	-0.020
-566.602	-200.000	0.022	0.252
-565.588	91.921	0.273	-0.307
-564.573	-200.000	0.025	0.343
-563.558	83.727	0.023	-0.025
-562.544	704.320	-0.071	-0.186
-561.529	-200.000	0.149	-0.000
-560.515	-131.588	-0.263	-0.035
-559.500	8.098	0.111	-0.083
-558.485	41.861	0.466	-0.422
-557.471	-26.354	-0.316	0.185
-556.456	-119.894	0.086	-0.015
-555.442	290.607	-0.152	-0.275
-554.427	-200.000	0.036	-0.344
-553.412	547.811	-0.014	0.032
-552.398	57.192	0.179	0.174
-551.383	-89.422	-0.197	-0.058
-550.369	800.000	0.045	-0.160
-549.354	800.000	-0.066	0.183
-548.339	512.847	-0.075	0.174
-547.325	-200.000	-0.008	0.317
-546.310	800.000	-0.021	0.068
-545.296	37.129	0.088	-0.078
-544.281	-44.779	-0.112	0.056
-543.266	134.191	-0.115	-0.149
-542.252	800.000	-0.079	0.226
-541.237	800.000	-0.049	-0.153
-540.223	661.117	-0.096	0.246
-539.208	-99.606	-0.144	0.036
-538.193	-200.000	-0.003	-0.222
-537.179	-19.056	-0.316	0.196
-536.164	47.317	0.288	0.268
-535.150	800.000	-0.080	-0.229
-534.135	94.945	0.149	0.169
-533.121	-73.568	0.190	-0.069
-532.106	161.328	0.103	0.143
-531.091	-200.000	-0.019	-0.220
-530.077	53.906	0.120	0.115
-529.062	520.003	0.058	-0.135
-528.048	-200.000	0.059	0.264
-527.033	615.361	0.047	0.118
-526.018	75.003	-0.231	-0.243
-525.004	103.704	0.022	-0.026
-523.989	-162.991	-0.166	-0.008
-522.975	301.659	-0.166	-0.306
-521.960	-96.508	0.265	-0.070
-520.945	-200.000	-0.037	-0.165
-519.931	52.190	-0.100	0.095
-518.916	80.771	-0.129	0.139
-517.902	-29.687	0.117	0.066
-516.887	-105.500	-0.146	0.033
-515.872	-56.094	0.127	0.056
-514.858	-169.305	0.046	-0.002
-513.843	-144.663	-0.357	-0.033
-512.829	8.163	0.176	0.132
-511.814	26.590	0.115	-0.096
-510.799	800.000	0.064	-0.249
-509.785	800.000	0.075	-0.234
-508.770	-200.000	0.012	-0.267
-507.756	-200.000	-0.002	-0.157
-506.741	11.757	0.243	0.186
-505.726	471.550	-0.079	-0.176
-504.712	-200.000	0.020	0.164
-503.697	106.856	0.129	0.152
-502.683	-19.658	-0.270	-0.166
-501.668	35.463	-0.132	-0.116
-500.653	-15.132	0.109	-0.070
-499.639	-61.165	-0.268	-0.113
-498.624	800.000	0.137	-0.496
-497.610	-200.000	0.001	0.033
-496.595	-130.269	-0.135	-0.018
-495.581	800.000	0.050	-0.172
-494.566	-135.071	-0.338	0.041
-493.551	153.883	0.129	-0.175
-492.537	-200.000	0.016	-0.084
-491.522	114.839	0.228	0.277
-490.508	-56.846	-0.468	-0.206
-489.493	-155.936	-0.218	-0.014
-488.478	-0.102	-0.093	-0.066
-487.464	-118.615	0.179	-0.031
-486.449	404.693	0.186	0.390
-485.435	-162.275	-0.170	0.008
-484.420	-200.000	-0.029	-0.447
-483.405	-200.000	-0.026	-0.207
-482.391	240.841	0.033	0.054
-481.376	-39.326	0.237	0.124
-480.362	-16.118	-0.126	-0.080
-479.347	-1.801	-0.011	0.007
-478.332	-59.632	0.033	-0.014
-477.318	136.378	0.234	-0.303
-476.303	-86.314	-0.355	0.109
-475.289	291.426	0.029	-0.053
-474.274	-156.951	-0.147	0.009
-473.259	-103.504	0.341	-0.080
-472.245	-200.000	-0.033	0.256
-471.230	-200.000	-0.042	0.284
-470.216	-200.000	0.036	0.320
-469.201	-32.169	0.167	-0.093
-468.186	-200.000	-0.008	-0.355
-467.172	120.783	0.127	0.157
-466.157	406.473	0.121	0.254
-465.143	300.615	0.097	-0.177
-464.128	176.540	0.117	-0.169
-463.113	114.367	0.150	0.182
-462.099	-200.000	0.011	-0.112
-461.084	800.000	0.059	-0.232
-460.070	736.387	0.079	-0.209
-459.055	-77.640	0.425	0.146
-458.040	-87.644	-0.153	-0.046
-457.026	-15.841	-0.203	-0.128
-456.011	550.640	-0.069	0.164
-454.997	-147.351	-0.114	0.010
-453.982	486.722	-0.282	-0.639
-452.968	800.000	-0.075	-0.270
-451.953	800.000	0.114	-0.351
-450.938	800.000	-0.006	-0.022
-449.924	-84.953	0.174	0.054
-448.909	1.874	-0.214	-0.153
-447.895	50.643	0.160	0.150
-446.880	-157.852	-0.224	0.013
-445.865	-200.000	-0.009	-0.155
-444.851	-106.778	0.104	-0.023
-443.836	-95.131	-0.333	0.089
-442.822	-200.000	0.040	-0.236
-441.807	-51.871	0.094	-0.044
-440.792	10.833	0.061	-0.046
-439.778	-200.000	0.044	0.292
-438.763	800.000	-0.041	-0.127
-437.749	42.518	-0.088	-0.080
-436.734	-40.389	-0.315	-0.163
-435.719	212.370	0.196	0.306
-434.705	-200.000	-0.019	-0.199
-433.690	-152.471	0.012	0.001
-432.676	-91.491	-0.275	-0.078
-431.661	-57.337	0.244	0.107
-430.646	148.721	-0.139	-0.186
-429.632	532.785	0.095	-0.223
-428.617	800.000	-0.073	0.214
-427.603	-135.999	0.130	0.015
-426.588	-94.577	0.079	0.021
-425.573	431.678	-0.073	-0.158
-424.559	-155.158	-0.210	0.014
-423.544	110.732	0.139	0.166
-422.530	65.930	-0.330	0.332
-421.515	-37.076	-0.218	-0.116
-420.500	-10.413	-0.091	-0.060
-419.486	-176.213	0.111	-0.003
-418.471	-200.000	0.004	0.046
-417.457	267.686	0.133	-0.231
-416.442	82.987	-0.157	0.170
-415.428	426.561	-0.136	0.291
-414.413	32.827	0.039	0.033
-413.398	80.616	-0.098	0.105
-412.384	658.328	-0.076	0.193
-411.369	-200.000	-0.032	0.215
-410.355	236.216	-0.150	-0.246
-409.340	-55.619	0.182	-0.081
-408.325	-32.780	-0.055	-0.031
-407.311	-77.802	0.112	-0.038
-406.296	-200.000	-0.028	-0.132
-405.282	233.002	-0.184	0.300
-404.267	-164.396	-0.212	0.010
-403.252	-200.000	-0.020	-0.174
-402.238	-95.616	-0.474	-0.126
-401.223	800.000	-0.041	0.116
-400.209	370.695	0.074	0.148
-399.194	59.642	-0.291	0.285
-398.179	-61.007	-0.186	0.078
-397.165	-200.000	0.044	0.254
-396.150	-200.000	0.187	0.001
-395.136	83.831	-0.142	0.154
-394.121	40.707	-0.131	0.117
-393.106	-88.045	-0.420	-0.125
-392.092	720.802	0.016	0.042
-391.077	93.766	-0.059	0.066
-390.063	75.131	-0.264	-0.276
-389.048	800.000	-0.032	0.112
-388.033	-16.535	-0.011	0.007
-387.019	-42.528	0.304	0.153
-386.004	-77.487	-0.331	0.114
-384.990	-32.568	0.071	-0.039
-383.975	-130.103	0.317	-0.043
-382.960	-99.016	-0.131	0.033
-381.946	-63.594	-0.086	0.035
-380.931	-200.000	0.008	0.187
-379.917	-200.000	0.022	0.312
-378.902	39.246	-0.301	-0.267
-377.888	-147.823	0.163	-0.013
-376.873	800.000	0.040	-0.130
-375.858	92.078	-0.159	0.178
-374.844	424.717	0.150	-0.320
-373.829	-24.803	0.138	-0.081
-372.815	-27.345	0.283	-0.163
-371.800	-122.389	-0.266	-0.043
-370.785	-200.000	-0.003	0.205
-369.771	-200.000	0.168	-0.001
-368.756	214.852	0.042	0.065
-367.742	106.850	-0.141	0.166
-366.727	54.243	-0.054	0.052
-365.712	6.819	-0.238	-0.176
-364.698	-85.192	-0.108	0.034
-363.683	800.000	-0.028	0.107
-362.669	-174.135	-0.490	0.014
-361.654	-94.979	0.102	0.027
-360.639	-172.002	0.233	-0.007
-359.625	-200.000	0.011	-0.049
-358.610	-200.000	-0.005	0.249
-357.596	800.000	0.021	0.073
-356.581	800.000	-0.031	0.085
-355.566	-104.631	-0.078	0.018
-354.552	800.000	-0.041	0.143
-353.537	19.061	0.147	0.117
-352.523	34.661	0.104	0.090
-351.508	41.957	-0.168	-0.151
-350.493	-149.605	0.172	-0.013
-349.479	598.904	0.011	0.026
-348.464	-21.719	-0.285	0.172
-347.450	-93.112	0.364	-0.100
-346.435	3.984	0.163	-0.118
-345.420	151.679	0.090	-0.121
-344.406	194.308	-0.048	-0.072
-343.391	103.194	-0.152	-0.177
-342.377	-200.000	0.004	0.231
-341.362	-10.425	-0.335	0.220
-340.348	-72.214	0.157	-0.057
-339.333	38.711	0.123	-0.109
-338.318	-95.410	0.165	0.044
-337.304	-148.678	0.193	-0.016
-336.289	155.482	0.119	-0.162
-335.275	45.111	0.104	0.095
-334.260	-161.877	0.116	-0.006
-333.245	-200.000	-0.001	0.298
-332.231	-200.000	0.011	0.135
-331.216	-24.595	0.099	0.058
-330.202	59.458	0.143	0.140
-329.187	800.000	0.069	0.194
-328.172	103.901	0.203	-0.236
-327.158	-103.012	-0.188	-0.044
-326.143	-79.498	0.066	0.022
-325.129	721.648	-0.069	0.180
-324.114	290.676	-0.131	0.235
-323.099	-200.000	-0.028	0.192
-322.085	800.000	-0.096	-0.348
-321.070	152.835	-0.052	-0.070
-320.056	-200.000	-0.046	-0.270
-319.041	-80.882	0.063	0.021
-318.026	579.714	0.108	0.263
-317.012	161.394	0.063	0.087
-315.997	55.792	-0.104	-0.100
-314.983	-116.150	0.267	0.049
-313.968	72.617	0.155	-0.159
-312.953	-130.873	0.133	-0.018
-311.939	48.983	0.132	0.123
-310.924	-111.646	0.121	-0.024
-309.910	38.609	-0.122	0.107
-308.895	48.744	-0.103	-0.095
-307.880	-200.000	-0.019	0.124
-306.866	34.575	0.196	0.170
-305.851	-200.000	-0.014	0.175
-304.837	39.576	-0.369	-0.327
-303.822	-200.000	-0.008	0.066
-302.807	800.000	-0.043	0.181
-301.793	-200.000	-0.036	0.213
-300.778	-200.000	-0.054	0.273
-299.764	281.313	-0.193	0.341
-298.749	-200.000	0.018	-0.155
-297.735	-97.824	0.115	0.029
-296.720	-7.116	-0.378	0.253
-295.705	90.595	0.177	-0.195
-294.691	-80.595	-0.281	0.092
-293.676	-82.878	-0.070	-0.022
-292.662	-200.000	0.038	-0.167
-291.647	-124.055	-0.231	0.036
-290.632	-152.947	-0.157	-0.011
-289.618	800.000	0.110	-0.343
-288.603	-56.046	0.105	0.046
-287.589	724.620	0.105	0.277
-286.574	344.849	0.103	0.199
-285.559	-32.150	-0.247	0.136
-284.545	-200.000	-0.005	-0.446
-283.530	-200.000	-0.013	0.185
-282.516	-12.370	0.152	-0.098
-281.501	208.993	-0.075	0.116
-280.486	-136.007	0.368	0.043
-279.472	723.632	-0.048	-0.127
-278.457	187.314	0.294	-0.433
-277.443	-200.000	-0.040	-0.738
-276.428	340.407	0.139	0.267
-275.413	54.994	0.306	0.292
-274.399	-8.272	0.050	-0.033
-273.384	205.513	-0.191	0.293
-272.370	103.406	0.172	0.199
-271.355	45.273	-0.220	-0.201
-270.340	-47.401	0.242	0.116
-269.326	-91.754	-0.191	0.053
-268.311	253.314	0.141	-0.238
-267.297	-110.762	-0.151	-0.031
-266.282	72.317	0.028	-0.029
-265.267	-200.000	-0.004	-0.032
-264.253	-99.407	-0.308	0.077
-263.238	-166.617	-0.422	0.017
-262.224	0.870	-0.113	0.080
-261.209	135.436	0.152	0.195
-260.195	332.687	0.190	-0.362
-259.180	-200.000	0.079	-0.376
-258.165	75.175	-0.106	-0.110
-257.151	800.000	-0.025	-0.073
-256.136	217.821	-0.119	0.187
-255.122	-6.568	0.137	0.092
-254.107	-40.960	0.165	0.084
-253.092	-150.770	0.195	0.015
-252.078	620.668	0.240	-0.597
-251.063	-37.354	-0.244	0.129
-250.049	49.231	-0.151	-0.140
-249.034	-1.119	0.377	0.263
-248.019	83.893	-0.054	-0.058
-247.005	67.402	0.272	-0.274
-245.990	-45.342	-0.308	-0.151
-244.976	-200.000	0.006	0.198
-243.961	325.265	0.144	0.272
-242.946	800.000	0.025	-0.088
-241.932	-78.639	-0.241	-0.081
-240.917	-200.000	0.015	-0.185
-239.903	-69.212	0.238	0.090
-238.888	-179.531	0.175	-0.004
-237.873	47.507	-0.179	0.164
-236.859	38.143	-0.228	0.200
-235.844	15.995	-0.114	-0.088
-234.830	-89.386	-0.241	-0.070
-233.815	87.572	0.121	0.132
-232.800	-3.941	-0.024	-0.016
-231.786	447.134	0.023	-0.049
-230.771	-7.927	0.430	-0.286
-229.757	376.458	0.084	0.169
-228.742	800.000	0.055	0.162
-227.727	-200.000	-0.021	0.165
-226.713	-14.294	0.040	-0.026
-225.698	128.253	-0.065	-0.081
-224.684	85.222	0.265	0.287
-223.669	-200.000	0.003	-0.021
-222.655	311.571	-0.084	-0.156
-221.640	135.261	-0.075	-0.096
-220.625	-77.669	-0.257	-0.088
-219.611	800.000	0.059	-0.179
-218.596	219.284	-0.097	0.152
-217.582	-115.837	0.209	0.039
-216.567	-200.000	0.259	-0.000
-215.552	557.862	-0.059	-0.141
-214.538	-104.436	-0.161	0.037
-213.523	25.444	0.106	0.087
-212.509	-87.154	-0.128	0.038
-211.494	711.139	-0.056	0.145
-210.479	28.459	-0.143	0.119
-209.465	-200.000	-0.004	0.087
-208.450	107.071	-0.068	-0.080
-207.436	36.976	-0.072	-0.062
-206.421	-200.000	-0.009	0.159
-205.406	-200.000	0.031	0.181
-204.392	-133.589	0.192	-0.024
-203.377	-153.240	0.392	0.027
-202.363	-154.013	-0.174	-0.012
-201.348	-200.000	-0.045	0.302
-200.333	-21.027	-0.175	0.105
-199.319	141.636	0.104	0.135
-198.304	13.155	-0.067	0.051
-197.290	800.000	-0.074	-0.229
-196.275	395.666	0.037	0.077
-195.260	-9.641	-0.059	0.039
-194.246	-200.000	-0.011	0.255
-193.231	207.219	0.017	0.026
-192.217	-52.666	-0.158	0.072
-191.202	-200.000	0.004	0.052
-190.187	-50.278	-0.321	0.149
-189.173	-32.675	-0.280	0.153
-188.158	-64.046	0.281	-0.113
-187.144	-48.281	0.168	-0.079
-186.129	241.235	-0.278	0.457
-185.114	-95.034	-0.216	0.058
-184.100	586.823	0.094	0.227
-183.085	-200.000	-0.000	-0.158
-182.071	800.000	-0.117	-0.324
-181.056	36.029	-0.327	-0.283
-180.042	-147.558	0.010	0.001
-179.027	-86.958	0.044	0.013
-178.012	800.000	-0.092	-0.318
-176.998	35.929	0.109	0.094
-175.983	172.474	-0.060	-0.085
-174.969	-45.465	-0.197	0.096
-173.954	28.204	0.207	-0.172
-172.939	800.000	0.047	-0.150
-171.925	319.987	-0.057	0.106
-170.910	800.000	0.057	0.228
-169.896	-115.275	-0.276	0.051
-168.881	800.000	0.063	-0.205
-167.866	-41.227	-0.144	0.073
-166.852	667.631	0.045	0.115
-165.837	-200.000	-0.020	0.104
-164.823	76.093	0.255	0.265
-163.808	-200.000	-0.010	-0.142
-162.793	159.648	-0.123	0.168
-161.779	800.000	0.137	0.384
-160.764	-200.000	-0.020	0.104
-159.750	-42.912	0.480	0.240
-158.735	-49.246	0.364	-0.171
-157.720	-132.874	0.339	-0.042
-156.706	800.000	0.054	0.199
-155.691	741.905	0.147	0.387
-154.677	-104.788	0.286	-0.065
-153.662	42.593	0.117	-0.104
-152.647	-15.401	0.291	-0.183
-151.633	-138.336	-0.153	0.017
-150.618	-200.000	-0.041	0.232
-149.604	-200.000	-0.047	-0.229
-148.589	175.509	-0.276	-0.394
-147.574	-49.118	0.164	-0.077
-146.560	-166.568	0.540	0.022
-145.545	3.476	0.074	0.053
-144.531	-200.000	0.003	0.053
-143.516	631.671	-0.058	0.145
-142.502	-21.956	0.309	0.184
-141.487	-172.452	-0.188	0.006
-140.472	395.934	0.047	-0.096
-139.458	81.704	-0.181	-0.193
-138.443	84.438	0.272	-0.293
-137.429	96.290	-0.138	-0.155
-136.414	800.000	-0.048	0.207
-135.399	-200.000	0.050	-0.216
-134.385	-118.379	-0.187	-0.033
-133.370	-126.112	-0.163	0.024
-132.356	-200.000	0.020	0.128
-131.341	-58.326	0.436	0.186
-130.326	800.000	0.019	0.059
-129.312	-200.000	-0.065	-0.351
-128.297	-60.934	-0.176	0.073
-127.283	-42.097	0.179	-0.090
-126.268	-67.604	-0.143	0.055
-125.253	-165.224	-0.159	0.007
-124.239	291.949	0.118	0.211
-123.224	-129.909	0.196	0.026
-122.210	85.859	-0.274	-0.295
-121.195	-200.000	-0.023	0.104
