DTS Sentinel unit serial number:	SN413079Multiplexer serial number:	ORYXHardware model number:	OX4-SRSoftware version number:	ORYX F/W v4.00 Oryx Data Collector v3.7.2.0data status	okinstallation	princeton_trtdifferential loss correction	single-endedforward channel	channel 2reverse channel	N/Adate	2019/09/16time	22:47:34forward acquisition time	60.00reverse acquisition time	0.00gamma	496.2192k internal	0.2328k external	0.2328temperature offset calibration	0.9974default loss term (dB/km)	0.3790temperature slope calibration	1.0000multiplexer offset coefficient	1.0000multiplexer slope coefficient	1.0000fibre end	0.00T internal ref (°C)	30.55T ext. ref 1 (°C)	0.09T ext. ref 2 (°C)	24.15length (m)	temperature (°C)	Stokes	anti-Stokes-747.200	74.338	0.132	0.139
-746.185	-200.000	-0.038	0.216
-745.171	-73.828	-0.419	0.153
-744.156	-107.993	0.088	0.019
-743.142	93.883	-0.309	-0.353
-742.127	800.000	-0.085	0.301
-741.112	8.757	-0.110	0.084
-740.098	234.121	-0.059	-0.097
-739.083	369.141	0.127	0.258
-738.069	-39.970	0.248	-0.130
-737.054	482.755	-0.082	-0.187
-736.039	-122.154	-0.355	0.059
-735.025	-200.000	0.019	-0.159
-734.010	-148.682	-0.284	-0.023
-732.996	-200.000	-0.016	0.316
-731.981	-200.000	-0.038	-0.294
-730.966	-150.889	-0.239	-0.018
-729.952	-72.630	0.140	0.052
-728.937	-200.000	0.018	-0.242
-727.923	-34.703	-0.564	-0.311
-726.908	-80.437	0.165	0.055
-725.894	-32.706	-0.295	-0.165
-724.879	-77.920	-0.244	-0.085
-723.864	-200.000	0.015	0.117
-722.850	-134.954	-0.047	0.006
-721.835	460.435	0.066	-0.148
-720.821	-24.398	0.047	-0.028
-719.806	-85.899	0.114	-0.036
-718.791	800.000	0.111	0.384
-717.777	-124.118	-0.174	0.027
-716.762	-175.252	-0.243	0.007
-715.748	-150.852	-0.341	0.026
-714.733	-129.155	-0.108	0.015
-713.718	-11.613	0.401	0.265
-712.704	28.873	0.063	0.054
-711.689	62.371	0.297	0.298
-710.675	111.300	-0.139	-0.169
-709.660	-200.000	-0.004	-0.117
-708.645	236.409	-0.069	-0.115
-707.631	-85.545	-0.154	-0.048
-706.616	232.381	-0.035	-0.058
-705.602	66.516	-0.172	0.175
-704.587	-125.272	0.259	0.040
-703.572	85.987	-0.188	-0.208
-702.558	276.105	0.067	0.119
-701.543	-31.048	-0.350	0.198
-700.529	800.000	-0.063	-0.181
-699.514	375.801	0.057	-0.117
-698.499	271.358	-0.177	-0.314
-697.485	-1.093	-0.047	-0.034
-696.470	-200.000	-0.002	0.501
-695.456	-117.576	-0.179	-0.033
-694.441	-112.077	0.235	-0.048
-693.426	-38.744	-0.379	0.201
-692.412	-200.000	-0.011	0.154
-691.397	-200.000	-0.005	0.071
-690.383	73.418	0.184	0.194
-689.368	-37.838	-0.231	-0.123
-688.354	-200.000	-0.058	-0.256
-687.339	84.083	0.231	-0.253
-686.324	-151.473	0.311	0.023
-685.310	82.200	-0.228	-0.249
-684.295	-200.000	0.040	0.177
-683.281	-200.000	0.029	0.230
-682.266	-60.014	-0.248	-0.106
-681.251	800.000	-0.040	-0.136
-680.237	-153.926	0.189	0.013
-679.222	5.271	0.209	0.155
-678.208	-137.686	0.259	-0.029
-677.193	170.676	-0.070	-0.100
-676.178	-200.000	-0.006	-0.031
-675.164	30.108	0.414	-0.355
-674.149	-101.340	0.119	0.029
-673.135	-49.256	0.167	0.080
-672.120	-108.040	-0.413	0.090
-671.105	-200.000	0.039	0.404
-670.091	-16.804	-0.151	0.096
-669.076	-93.192	-0.122	-0.034
-668.062	-112.795	0.110	0.022
-667.047	-200.000	0.010	-0.081
-666.032	78.567	-0.064	-0.069
-665.018	25.524	0.125	0.104
-664.003	-161.596	-0.361	0.019
-662.989	800.000	-0.106	-0.395
-661.974	-200.000	0.000	-0.071
-660.959	45.678	-0.230	-0.213
-659.945	-136.183	-0.276	0.032
-658.930	721.179	0.060	0.160
-657.916	-106.813	-0.215	-0.048
-656.901	-38.438	-0.241	-0.128
-655.886	158.351	-0.054	0.076
-654.872	208.193	-0.025	0.040
-653.857	42.559	-0.071	0.065
-652.843	-97.777	-0.158	0.041
-651.828	-110.980	-0.342	-0.071
-650.814	82.706	0.272	-0.297
-649.799	70.830	0.076	-0.079
-648.784	-82.278	0.369	-0.121
-647.770	-13.186	0.083	0.054
-646.755	127.607	0.084	0.108
-645.741	-164.859	-0.291	0.013
-644.726	-65.205	0.321	0.130
-643.711	351.259	-0.152	0.301
-642.697	35.358	0.081	-0.071
-641.682	714.895	0.068	-0.181
-640.668	-41.226	0.183	-0.095
-639.653	-155.372	-0.314	-0.020
-638.638	800.000	-0.041	0.114
-637.624	-168.380	-0.222	-0.009
-636.609	-55.596	-0.131	-0.059
-635.595	169.508	-0.173	0.247
-634.580	701.011	-0.088	0.232
-633.565	-61.612	-0.084	0.036
-632.551	101.872	-0.133	-0.155
-631.536	642.536	0.148	-0.378
-630.522	133.794	0.221	-0.286
-629.507	-134.969	-0.388	0.047
-628.492	-200.000	0.036	-0.190
-627.478	-200.000	-0.043	-0.308
-626.463	-200.000	-0.024	-0.129
-625.449	55.924	0.129	-0.126
-624.434	263.461	0.135	0.236
-623.419	700.126	-0.159	0.419
-622.405	800.000	0.098	0.319
-621.390	-128.045	-0.355	0.051
-620.376	800.000	-0.109	-0.464
-619.361	-12.565	0.115	-0.075
-618.346	90.245	-0.107	0.120
-617.332	800.000	0.119	0.392
-616.317	-140.962	0.220	0.023
-615.303	372.210	-0.137	-0.279
-614.288	-200.000	-0.007	0.239
-613.273	-200.000	-0.322	0.001
-612.259	-109.256	-0.171	-0.036
-611.244	134.363	-0.064	0.083
-610.230	-160.106	-0.200	-0.011
-609.215	-18.598	0.172	0.108
-608.201	-82.714	0.136	0.044
-607.186	-46.917	0.146	-0.071
-606.171	136.557	-0.109	0.142
-605.157	-104.417	0.127	-0.029
-604.142	-134.274	0.187	0.023
-603.128	800.000	-0.029	-0.099
-602.113	115.878	0.247	0.303
-601.098	464.771	0.051	-0.114
-600.084	-7.502	-0.189	0.128
-599.069	-200.000	0.021	-0.342
-598.055	7.570	-0.293	0.219
-597.040	225.985	0.172	-0.279
-596.025	175.713	0.189	-0.274
-595.011	-20.681	-0.154	0.095
-593.996	-134.520	-0.071	0.009
-592.982	800.000	0.054	-0.184
-591.967	-200.000	-0.047	-0.341
-590.952	-93.198	0.096	0.027
-589.938	152.967	0.092	-0.126
-588.923	-200.000	-0.019	0.187
-587.909	217.295	0.061	0.097
-586.894	212.654	-0.046	0.073
-585.879	-126.235	-0.178	0.027
-584.865	168.951	0.193	-0.276
-583.850	-200.000	-0.003	0.246
-582.836	-189.298	0.020	-0.000
-581.821	9.315	0.318	-0.241
-580.806	7.460	-0.241	0.180
-579.792	74.152	-0.213	0.224
-578.777	-160.098	-0.208	0.011
-577.763	346.424	0.069	0.137
-576.748	-200.000	0.002	0.146
-575.733	290.852	0.089	0.162
-574.719	540.730	-0.107	0.254
-573.704	-200.000	0.023	0.120
-572.690	800.000	0.106	-0.297
-571.675	164.733	0.073	-0.103
-570.661	629.983	-0.068	-0.173
-569.646	10.894	-0.220	0.168
-568.631	-200.000	-0.013	0.110
-567.617	-134.977	-0.026	0.003
-566.602	-32.849	-0.507	0.282
-565.588	-120.414	0.094	0.016
-564.573	-149.734	-0.229	0.018
-563.558	-26.897	-0.237	-0.139
-562.544	471.087	-0.036	-0.082
-561.529	-200.000	0.029	-0.163
-560.515	246.185	0.035	0.059
-559.500	33.506	-0.373	-0.324
-558.485	-94.867	-0.284	-0.077
-557.471	162.696	0.059	0.082
-556.456	-43.163	0.319	0.162
-555.442	53.498	0.202	-0.193
-554.427	-64.333	0.056	0.023
-553.412	-67.999	0.186	0.072
-552.398	112.441	0.324	0.392
-551.383	-80.239	-0.269	-0.090
-550.369	505.284	0.099	-0.229
-549.354	-75.939	0.139	-0.049
-548.339	-73.769	0.146	-0.053
-547.325	-30.139	-0.228	0.130
-546.310	14.071	-0.173	0.135
-545.296	-147.473	-0.368	-0.031
-544.281	-200.000	0.021	0.141
-543.266	-200.000	-0.007	-0.115
-542.252	117.842	-0.071	-0.087
-541.237	268.914	0.171	-0.300
-540.223	139.886	-0.174	0.229
-539.208	-200.000	-0.001	0.601
-538.193	-6.062	0.280	0.192
-537.179	-200.000	0.001	0.116
-536.164	308.836	-0.070	-0.130
-535.150	47.001	0.039	0.036
-534.135	-17.723	0.053	-0.033
-533.121	402.959	-0.053	0.111
-532.106	-87.977	0.468	0.140
-531.091	800.000	0.097	0.405
-530.077	800.000	-0.046	0.163
-529.062	-84.861	-0.282	-0.088
-528.048	-200.000	-0.015	0.129
-527.033	676.770	0.027	-0.069
-526.018	-2.153	0.254	-0.178
-525.004	620.806	-0.045	0.113
-523.989	-81.475	-0.380	0.125
-522.975	800.000	-0.026	-0.076
-521.960	-126.976	-0.173	-0.025
-520.945	-72.330	-0.439	0.162
-519.931	616.469	-0.078	0.194
-518.916	48.378	0.245	0.229
-517.902	-116.616	-0.268	-0.049
-516.887	800.000	0.041	-0.115
-515.872	-152.360	0.150	-0.011
-514.858	137.103	0.142	0.185
-513.843	525.852	0.089	0.209
-512.829	-83.889	-0.244	-0.078
-511.814	-200.000	-0.029	0.170
-510.799	-74.100	-0.138	-0.050
-509.785	30.021	-0.101	-0.086
-508.770	-200.000	-0.017	0.117
-507.756	-200.000	0.018	0.207
-506.741	-80.641	0.445	-0.148
-505.726	-24.836	-0.225	0.134
-504.712	12.453	-0.269	0.207
-503.697	114.086	-0.129	-0.157
-502.683	-133.370	-0.265	-0.033
-501.668	-200.000	-0.006	-0.097
-500.653	76.319	0.194	0.205
-499.639	-71.260	0.111	0.041
-498.624	83.357	-0.253	0.275
-497.610	-56.255	-0.236	-0.105
-496.595	24.910	-0.080	-0.066
-495.581	800.000	0.101	0.289
-494.566	12.554	0.369	-0.284
-493.551	-200.000	0.027	-0.212
-492.537	112.886	-0.174	-0.210
-491.522	189.653	0.154	0.230
-490.508	189.281	-0.145	0.217
-489.493	-60.427	0.175	-0.074
-488.478	74.474	-0.148	-0.155
-487.464	394.442	-0.106	-0.221
-486.449	48.280	-0.264	0.247
-485.435	6.704	-0.240	0.178
-484.420	-85.067	-0.151	0.047
-483.405	-200.000	0.035	0.288
-482.391	196.570	-0.167	0.254
-481.376	-200.000	-0.031	0.214
-480.362	103.644	0.114	-0.134
-479.347	28.777	-0.205	-0.173
-478.332	-69.536	0.110	-0.042
-477.318	408.879	0.075	-0.158
-476.303	-200.000	0.010	0.132
-475.289	-47.524	-0.221	-0.107
-474.274	-135.929	-0.353	0.041
-473.259	103.690	0.139	-0.163
-472.245	56.294	-0.073	-0.071
-471.230	-70.137	-0.217	-0.082
-470.216	-77.517	-0.043	-0.015
-469.201	269.660	0.073	0.128
-468.186	800.000	-0.091	-0.304
-467.172	-98.792	0.207	0.053
-466.157	133.711	-0.142	-0.183
-465.143	357.369	0.124	0.247
-464.128	-181.558	0.188	-0.004
-463.113	-152.338	-0.209	0.015
-462.099	800.000	0.101	-0.343
-461.084	800.000	-0.028	-0.088
-460.070	800.000	-0.036	-0.117
-459.055	259.357	0.109	0.188
-458.040	718.903	0.101	0.267
-457.026	53.047	0.153	0.146
-456.011	572.871	-0.025	-0.060
-454.997	-162.859	0.133	0.006
-453.982	224.897	0.230	0.371
-452.968	110.869	0.256	-0.307
-451.953	-105.916	0.282	-0.063
-450.938	118.416	-0.102	-0.126
-449.924	-200.000	-0.019	-0.176
-448.909	127.157	-0.167	0.211
-447.895	631.074	0.055	-0.139
-446.880	-121.035	-0.148	-0.025
-445.865	-200.000	0.062	0.306
-444.851	74.318	-0.025	-0.027
-443.836	-200.000	0.036	-0.292
-442.822	-92.650	-0.137	0.038
-441.807	70.016	-0.381	-0.391
-440.792	-30.092	-0.207	-0.117
-439.778	77.058	0.081	0.085
-438.763	633.497	0.048	0.121
-437.749	70.747	0.213	-0.219
-436.734	6.992	0.169	-0.126
-435.719	-90.500	0.066	0.019
-434.705	-139.311	0.329	0.035
-433.690	-111.762	0.100	-0.020
-432.676	-159.445	0.239	-0.013
-431.661	-97.787	0.287	0.074
-430.646	-114.616	0.140	0.027
-429.632	95.390	-0.088	0.099
-428.617	-200.000	0.013	0.158
-427.603	-3.702	-0.052	0.036
-426.588	800.000	0.140	-0.515
-425.573	800.000	-0.044	0.174
-424.559	-76.369	0.029	0.010
-423.544	-200.000	0.028	-0.338
-422.530	-129.517	-0.388	0.053
-421.515	-200.000	0.061	0.331
-420.500	-144.663	-0.143	-0.013
-419.486	243.805	-0.058	0.097
-418.471	-66.051	-0.239	-0.095
-417.457	-200.000	0.035	-0.376
-416.442	-200.000	-0.072	-0.324
-415.428	39.922	-0.134	-0.120
-414.413	95.714	0.199	-0.226
-413.398	-200.000	-0.010	-0.071
-412.384	-94.978	-0.142	-0.038
-411.369	-179.879	-0.192	-0.004
-410.355	800.000	0.051	-0.206
-409.340	125.628	0.176	0.221
-408.325	153.614	0.146	0.199
-407.311	800.000	0.043	0.138
-406.296	498.346	-0.005	0.012
-405.282	-80.031	0.232	0.077
-404.267	-200.000	0.015	0.162
-403.252	-74.833	0.196	0.070
-402.238	183.482	-0.030	0.044
-401.223	270.586	-0.085	-0.149
-400.209	-191.003	0.123	-0.001
-399.194	-73.254	0.223	-0.081
-398.179	-113.015	0.287	-0.056
-397.165	-200.000	-0.025	0.252
-396.150	-200.000	-0.001	-0.098
-395.136	8.713	0.078	-0.059
-394.121	200.203	-0.059	-0.091
-393.106	-43.540	0.178	0.089
-392.092	800.000	-0.064	0.213
-391.077	-34.144	0.175	0.096
-390.063	-83.199	0.366	0.117
-389.048	-50.302	-0.156	-0.073
-388.033	77.304	-0.141	-0.149
-387.019	27.841	0.144	0.120
-386.004	39.918	-0.308	0.275
-384.990	-200.000	0.011	-0.347
-383.975	418.244	-0.036	-0.077
-382.960	-88.618	0.414	0.122
-381.946	74.570	0.180	-0.188
-380.931	-200.000	0.044	0.196
-379.917	312.766	-0.215	0.400
-378.902	-117.305	0.134	0.024
-377.888	81.554	-0.099	0.107
-376.873	-137.125	0.167	-0.019
-375.858	251.237	0.233	-0.394
-374.844	124.847	0.090	-0.113
-373.829	300.998	-0.075	-0.137
-372.815	-3.821	0.072	-0.049
-371.800	61.571	-0.212	0.210
-370.785	99.067	-0.284	-0.326
-369.771	-62.130	-0.147	0.061
-368.756	311.346	0.137	-0.255
-367.742	304.449	-0.071	0.130
-366.727	8.744	-0.112	0.084
-365.712	800.000	0.033	0.109
-364.698	-90.205	-0.043	-0.013
-363.683	-200.000	0.004	0.144
-362.669	-134.979	0.137	0.016
-361.654	2.603	0.236	0.169
-360.639	132.258	-0.146	0.187
-359.625	-77.537	0.087	0.030
-358.610	519.097	-0.092	-0.214
-357.596	69.098	0.089	0.091
-356.581	-30.120	-0.150	-0.085
-355.566	14.742	0.261	-0.203
-354.552	-200.000	0.052	0.274
-353.537	-200.000	0.009	-0.268
-352.523	172.115	0.141	-0.201
-351.508	-22.086	0.365	-0.220
-350.493	93.656	-0.204	0.229
-349.479	800.000	-0.043	-0.161
-348.464	-200.000	-0.055	-0.267
-347.450	23.998	0.184	0.151
-346.435	162.957	0.222	0.309
-345.420	338.494	0.074	0.142
-344.406	800.000	-0.033	-0.139
-343.391	-15.937	0.317	0.200
-342.377	-83.242	-0.092	-0.029
-341.362	-6.163	-0.062	-0.042
-340.348	111.615	-0.098	0.117
-339.333	800.000	0.030	-0.111
-338.318	800.000	-0.050	0.176
-337.304	800.000	0.045	0.145
-336.289	-169.091	0.139	-0.005
-335.275	-74.054	-0.111	0.040
-334.260	243.318	-0.109	0.181
-333.245	-22.494	-0.106	0.064
-332.231	193.860	0.208	-0.312
-331.216	177.035	-0.107	-0.155
-330.202	276.149	-0.137	0.241
-329.187	270.466	0.168	0.294
-328.172	-97.974	-0.431	-0.110
-327.158	230.493	0.013	-0.021
-326.143	14.575	0.520	0.402
-325.129	-71.835	-0.299	-0.110
-324.114	534.049	0.131	-0.309
-323.099	393.996	0.023	0.047
-322.085	-90.240	-0.189	-0.055
-321.070	156.603	0.207	-0.284
-320.056	-119.221	0.246	0.042
-319.041	75.579	0.131	0.137
-318.026	63.324	-0.079	-0.078
-317.012	-200.000	-0.019	-0.291
-315.997	257.834	-0.093	-0.159
-314.983	39.282	-0.104	-0.092
-313.968	-17.940	0.142	-0.088
-312.953	-200.000	0.023	0.268
-311.939	-200.000	-0.054	-0.242
-310.924	-200.000	-0.009	-0.116
-309.910	-200.000	0.014	-0.220
-308.895	-14.167	-0.060	-0.038
-307.880	-1.910	0.145	-0.101
-306.866	48.172	-0.125	0.116
-305.851	140.279	-0.043	0.056
-304.837	355.494	-0.044	-0.087
-303.822	205.246	-0.081	0.125
-302.807	17.658	0.044	0.035
-301.793	-142.168	-0.075	0.007
-300.778	-64.915	0.363	-0.145
-299.764	-43.995	0.287	0.143
-298.749	800.000	-0.088	0.363
-297.735	800.000	-0.102	0.285
-296.720	-61.726	-0.095	-0.039
-295.705	195.112	0.120	-0.180
-294.691	-66.368	0.166	0.065
-293.676	-200.000	-0.071	0.458
-292.662	-136.922	0.049	0.006
-291.647	800.000	-0.077	0.259
-290.632	-153.698	-0.099	-0.007
-289.618	-132.332	-0.250	-0.032
-288.603	-114.678	0.123	-0.023
-287.589	-76.645	0.262	-0.091
-286.574	154.102	0.114	-0.154
-285.559	26.502	0.250	-0.207
-284.545	-85.874	-0.209	-0.064
-283.530	-151.065	0.226	-0.017
-282.516	171.837	0.259	-0.368
-281.501	410.026	0.019	-0.041
-280.486	-139.359	0.161	0.017
-279.472	16.097	0.226	-0.177
-278.457	169.571	0.026	-0.037
-277.443	49.080	0.085	0.079
-276.428	-200.000	0.033	0.169
-275.413	800.000	-0.023	0.087
-274.399	145.005	-0.064	0.085
-273.384	-98.495	-0.070	0.018
-272.370	146.555	-0.100	0.133
-271.355	-114.064	-0.312	0.060
-270.340	-111.881	0.040	0.008
-269.326	-75.851	0.062	0.022
-268.311	800.000	0.061	-0.211
-267.297	-54.072	-0.083	-0.037
-266.282	800.000	0.021	0.060
-265.267	40.224	-0.041	-0.036
-264.253	84.948	0.142	-0.154
-263.238	-110.393	0.384	-0.079
-262.224	776.447	0.155	0.417
-261.209	-59.173	-0.277	-0.118
-260.195	-10.087	-0.199	-0.131
-259.180	-62.142	0.227	0.094
-258.165	-55.973	0.235	0.104
-257.151	519.942	0.027	-0.061
-256.136	800.000	0.052	-0.212
-255.122	58.579	-0.268	-0.260
-254.107	-60.341	-0.360	0.152
-253.092	-101.461	-0.216	-0.052
-252.078	472.066	0.006	0.014
-251.063	-2.951	-0.250	-0.173
-250.049	490.884	0.084	-0.190
-249.034	-192.338	-0.312	-0.003
-248.019	800.000	0.015	0.050
-247.005	142.235	0.049	-0.064
-245.990	-200.000	0.037	0.170
-244.976	-118.735	0.039	-0.007
-243.961	59.028	-0.069	-0.067
-242.946	402.863	-0.194	-0.402
-241.932	34.277	0.098	-0.085
-240.917	324.011	-0.164	-0.309
-239.903	-107.552	-0.229	-0.049
-238.888	701.422	0.134	-0.349
-237.873	-50.414	0.192	-0.090
-236.859	38.883	-0.228	0.201
-235.844	179.137	-0.055	0.080
-234.830	-122.672	-0.288	0.046
-233.815	791.057	-0.053	0.145
-232.800	-149.256	0.184	-0.014
-231.786	-200.000	0.039	-0.204
-230.771	800.000	0.128	0.380
-229.757	98.167	-0.074	-0.084
-228.742	-42.811	-0.171	-0.086
-227.727	-200.000	-0.006	-0.048
-226.713	48.511	-0.147	-0.136
-225.698	388.269	0.083	-0.169
-224.684	-200.000	-0.000	-0.108
-223.669	423.923	-0.103	-0.219
-222.655	-161.127	0.272	0.014
-221.640	-182.523	-0.406	-0.007
-220.625	800.000	-0.027	-0.108
-219.611	173.640	-0.274	-0.390
-218.596	329.642	-0.122	0.233
-217.582	44.061	0.025	0.022
-216.567	-19.867	-0.138	0.084
-215.552	-111.262	0.064	0.013
-214.538	-200.000	-0.025	0.178
-213.523	-200.000	-0.044	0.221
-212.509	800.000	0.095	0.281
-211.494	-118.825	0.288	-0.050
-210.479	-200.000	0.011	0.050
-209.465	800.000	0.115	-0.336
-208.450	275.442	0.144	-0.251
-207.436	18.655	-0.329	-0.260
-206.421	-200.000	0.003	-0.042
-205.406	187.205	0.167	0.245
-204.392	-124.282	0.263	0.041
-203.377	10.880	-0.083	-0.063
-202.363	107.406	0.138	-0.162
-201.348	-84.513	0.065	0.020
-200.333	-46.186	-0.025	-0.012
-199.319	-0.190	0.159	0.112
-198.304	-200.000	-0.025	0.148
-197.290	27.118	-0.074	-0.061
-196.275	52.116	-0.063	0.059
-195.260	-104.699	-0.172	-0.039
-194.246	14.195	-0.203	-0.156
-193.231	800.000	-0.072	-0.300
-192.217	-158.504	0.426	-0.024
-191.202	-71.508	0.366	-0.135
-190.187	-144.769	0.266	-0.024
-189.173	-200.000	0.042	-0.205
-188.158	570.141	-0.043	0.104
-187.144	-149.853	0.208	0.016
-186.129	800.000	0.036	0.114
-185.114	-200.000	-0.046	0.285
-184.100	59.368	0.080	0.078
-183.085	-147.229	0.471	-0.040
-182.071	-126.256	-0.037	0.005
-181.056	-0.081	0.194	0.136
-180.042	-80.309	0.226	0.074
-179.027	-200.000	-0.029	-0.189
-178.012	-110.610	-0.266	0.054
-176.998	-99.813	-0.341	-0.084
-175.983	241.569	0.125	-0.205
-174.969	149.355	0.067	0.089
-173.954	-191.046	-0.411	0.004
-172.939	-105.377	0.304	0.068
-171.925	-200.000	0.008	0.043
-170.910	-81.845	0.125	0.040
-169.896	91.923	-0.132	-0.146
-168.881	103.406	-0.159	-0.184
-167.866	-135.947	-0.259	0.030
-166.852	26.888	-0.135	-0.112
-165.837	76.490	-0.096	-0.100
-164.823	42.559	0.187	-0.168
-163.808	-43.171	-0.016	0.008
-162.793	-141.906	-0.090	-0.009
-161.779	-200.000	0.013	0.097
-160.764	189.332	-0.233	0.344
-159.750	-200.000	-0.024	0.292
-158.735	800.000	0.100	0.314
-157.720	800.000	-0.054	0.147
-156.706	-161.564	0.160	-0.008
-155.691	426.835	0.095	-0.201
-154.677	-200.000	0.009	0.279
-153.662	-197.802	-0.234	0.001
-152.647	-87.836	-0.112	-0.033
-151.633	224.466	0.016	-0.025
-150.618	36.852	0.385	0.335
-149.604	91.836	0.201	0.222
-148.589	95.331	0.071	-0.080
-147.574	793.884	0.051	-0.137
-146.560	118.608	0.235	-0.285
-145.545	-120.549	-0.057	-0.010
-144.531	800.000	-0.067	-0.264
-143.516	-200.000	0.015	-0.301
-142.502	-200.000	0.056	-0.499
-141.487	178.987	0.259	-0.373
-140.472	108.583	-0.215	0.252
-139.458	-200.000	-0.023	0.177
-138.443	46.900	-0.065	0.059
-137.429	800.000	-0.078	0.301
-136.414	-200.000	0.020	0.154
-135.399	37.215	-0.102	0.089
-134.385	-167.171	0.276	0.011
-133.370	197.204	-0.057	0.085
-132.356	-55.617	0.327	-0.144
-131.341	543.210	0.060	0.141
-130.326	-139.852	0.052	-0.005
-129.312	-200.000	-0.005	-0.283
-128.297	-57.292	0.218	-0.094
-127.283	-43.199	0.043	0.022
-126.268	-200.000	0.052	0.296
-125.253	152.193	-0.058	0.078
-124.239	190.253	-0.082	-0.122
-123.224	800.000	0.070	0.274
-122.210	-200.000	0.023	0.322
-121.195	217.761	0.062	-0.096
