DTS Sentinel unit serial number:	SN413079Multiplexer serial number:	ORYXHardware model number:	OX4-SRSoftware version number:	ORYX F/W v4.00 Oryx Data Collector v3.7.2.0data status	okinstallation	princeton_trtdifferential loss correction	single-endedforward channel	channel 2reverse channel	N/Adate	2019/09/15time	18:31:34forward acquisition time	60.00reverse acquisition time	0.00gamma	496.2192k internal	0.2286k external	0.2286temperature offset calibration	0.9923default loss term (dB/km)	0.3790temperature slope calibration	1.0000multiplexer offset coefficient	1.0000multiplexer slope coefficient	1.0000fibre end	0.00T internal ref (°C)	44.02T ext. ref 1 (°C)	6.76T ext. ref 2 (°C)	37.54length (m)	temperature (°C)	Stokes	anti-Stokes-747.200	-146.413	-0.355	0.032
-746.185	-51.052	0.223	0.107
-745.171	-126.714	-0.164	0.025
-744.156	800.000	0.021	0.079
-743.142	148.919	0.133	-0.185
-742.127	225.811	-0.093	0.154
-741.112	-136.527	0.141	-0.017
-740.098	51.982	0.073	-0.071
-739.083	-200.000	0.011	-0.063
-738.069	117.427	0.251	0.316
-737.054	672.941	0.033	0.088
-736.039	427.355	-0.071	-0.158
-735.025	-200.000	-0.020	-0.109
-734.010	100.531	0.262	-0.312
-732.996	142.707	-0.180	-0.246
-731.981	252.715	-0.188	-0.330
-730.966	786.830	-0.121	0.340
-729.952	-46.059	0.275	-0.139
-728.937	163.918	-0.104	-0.150
-727.923	-25.858	0.088	-0.053
-726.908	409.533	-0.059	-0.127
-725.894	-94.991	-0.229	-0.063
-724.879	32.268	0.083	-0.073
-723.864	800.000	-0.042	0.129
-722.850	-169.335	-0.253	-0.010
-721.835	-116.881	-0.056	-0.010
-720.821	800.000	-0.102	0.332
-719.806	-9.992	0.074	0.050
-718.791	-200.000	0.000	-0.164
-717.777	-14.348	-0.136	-0.090
-716.762	-177.034	-0.327	0.008
-715.748	-3.304	-0.243	0.174
-714.733	-135.505	-0.244	-0.030
-713.718	33.456	0.200	0.178
-712.704	-171.621	-0.295	-0.010
-711.689	425.211	0.051	0.113
-710.675	-93.164	0.172	0.049
-709.660	-82.997	-0.113	0.037
-708.645	130.431	-0.051	-0.066
-707.631	-200.000	0.032	-0.201
-706.616	-23.803	0.464	-0.285
-705.602	-145.616	0.154	0.014
-704.587	-15.208	-0.306	-0.201
-703.572	780.074	-0.040	-0.113
-702.558	800.000	-0.128	0.510
-701.543	-116.146	0.053	-0.010
-700.529	437.689	-0.060	-0.133
-699.514	-26.818	-0.112	0.067
-698.499	-164.597	0.353	0.016
-697.485	-71.081	-0.087	-0.033
-696.470	-124.088	0.239	-0.038
-695.456	219.401	0.161	0.264
-694.441	-58.063	-0.303	0.135
-693.426	-200.000	0.006	-0.126
-692.412	-108.270	-0.146	0.032
-691.397	-31.288	-0.412	-0.238
-690.383	146.855	-0.172	-0.237
-689.368	79.890	0.341	-0.375
-688.354	-200.000	0.006	0.062
-687.339	488.144	-0.089	-0.209
-686.324	-85.019	-0.150	-0.048
-685.310	-167.671	-0.228	0.009
-684.295	-200.000	0.011	0.134
-683.281	722.149	-0.083	-0.227
-682.266	-200.000	-0.015	-0.216
-681.251	73.585	-0.166	0.178
-680.237	-56.725	-0.333	0.151
-679.222	114.552	0.180	-0.225
-678.208	8.793	0.216	-0.166
-677.193	800.000	-0.153	-0.469
-676.178	-200.000	0.011	-0.121
-675.164	-48.326	-0.082	0.040
-674.149	-118.043	0.271	0.050
-673.135	-165.285	-0.192	-0.009
-672.120	8.394	-0.357	-0.274
-671.105	14.527	-0.144	0.115
-670.091	51.853	-0.165	0.161
-669.076	53.196	0.173	-0.169
-668.062	-96.577	-0.180	-0.049
-667.047	263.977	0.219	0.390
-666.032	-12.722	0.420	0.280
-665.018	16.674	0.301	0.243
-664.003	-2.539	-0.215	-0.154
-662.989	418.657	-0.102	0.222
-661.974	-32.221	-0.049	0.028
-660.959	226.584	-0.077	-0.129
-659.945	203.412	-0.101	0.160
-658.930	-128.460	0.368	0.053
-657.916	262.031	-0.018	0.032
-656.901	-58.599	-0.246	0.109
-655.886	-91.761	-0.207	-0.060
-654.872	800.000	-0.092	-0.369
-653.857	-18.595	-0.188	0.120
-652.843	311.058	-0.095	-0.181
-651.828	-200.000	-0.007	0.491
-650.814	-200.000	0.007	-0.149
-649.799	-163.259	-0.335	0.016
-648.784	-2.637	0.085	-0.061
-647.770	232.984	0.120	-0.202
-646.755	-42.615	-0.377	-0.196
-645.741	-114.387	-0.181	-0.036
-644.726	-64.556	-0.056	-0.023
-643.711	218.119	-0.016	-0.026
-642.697	88.509	0.172	0.196
-641.682	21.258	-0.134	0.112
-640.668	590.133	-0.047	-0.117
-639.653	-89.659	-0.129	-0.039
-638.638	-200.000	0.006	-0.142
-637.624	158.932	0.117	-0.167
-636.609	800.000	0.069	0.240
-635.595	144.935	0.121	0.166
-634.580	-74.638	-0.252	0.093
-633.565	-82.056	0.261	0.087
-632.551	60.775	-0.069	-0.070
-631.536	-83.205	0.154	0.051
-630.522	73.006	0.061	-0.065
-629.507	-48.383	-0.127	0.062
-628.492	-100.422	0.174	0.044
-627.478	-57.146	-0.145	-0.065
-626.463	4.644	0.077	0.057
-625.449	-49.475	-0.301	0.147
-624.434	23.352	-0.144	0.121
-623.419	17.243	-0.204	-0.165
-622.405	-63.043	0.199	0.084
-621.390	286.239	-0.090	-0.166
-620.376	736.751	0.068	-0.185
-619.361	78.636	-0.092	0.100
-618.346	-170.158	-0.145	-0.005
-617.332	573.844	0.050	-0.124
-616.317	-71.488	-0.220	-0.084
-615.303	-200.000	0.002	0.110
-614.288	-164.324	-0.106	0.005
-613.273	107.974	-0.268	-0.327
-612.259	311.294	0.055	0.105
-611.244	800.000	0.037	-0.138
-610.230	128.102	-0.172	-0.224
-609.215	800.000	0.015	-0.045
-608.201	-138.012	-0.166	0.019
-607.186	-200.000	-0.063	0.284
-606.171	-200.000	0.020	0.407
-605.157	525.113	0.045	-0.108
-604.142	-127.484	0.005	0.001
-603.128	-200.000	0.036	-0.234
-602.113	800.000	0.019	0.055
-601.098	-24.697	0.161	0.098
-600.084	154.318	-0.096	0.134
-599.069	-88.666	0.094	0.028
-598.055	64.124	0.149	0.153
-597.040	143.768	0.229	-0.312
-596.025	53.922	0.246	0.241
-595.011	181.009	0.046	-0.069
-593.996	-82.680	-0.278	-0.092
-592.982	-88.265	-0.155	-0.047
-591.967	-50.106	0.126	0.061
-590.952	-144.453	-0.128	0.012
-589.938	800.000	-0.021	0.077
-588.923	-200.000	-0.020	0.282
-587.909	-58.789	0.523	0.231
-586.894	-59.168	-0.251	-0.110
-585.879	41.897	0.139	0.128
-584.865	130.103	-0.227	-0.296
-583.850	800.000	-0.005	0.016
-582.836	-200.000	-0.015	0.165
-581.821	-178.884	-0.247	-0.006
-580.806	800.000	-0.034	0.107
-579.792	-120.638	-0.313	-0.054
-578.777	800.000	-0.048	-0.195
-577.763	234.267	0.184	0.308
-576.748	-200.000	0.028	-0.153
-575.733	-200.000	0.017	0.318
-574.719	777.776	-0.036	-0.101
-573.704	-83.715	0.292	0.095
-572.690	456.407	0.072	0.162
-571.675	-134.563	-0.090	-0.011
-570.661	352.658	0.070	0.141
-569.646	-20.615	0.114	0.071
-568.631	353.128	0.066	0.134
-567.617	800.000	-0.059	-0.223
-566.602	-200.000	-0.015	0.277
-565.588	800.000	-0.081	-0.237
-564.573	283.999	0.132	0.242
-563.558	104.964	-0.111	0.133
-562.544	-149.957	0.284	-0.023
-561.529	132.412	-0.130	-0.171
-560.515	-125.098	0.150	-0.023
-559.500	-40.560	-0.105	0.056
-558.485	405.185	-0.055	-0.118
-557.471	-33.478	0.126	0.071
-556.456	476.638	-0.076	-0.175
-555.442	-200.000	0.006	-0.220
-554.427	101.087	-0.197	-0.233
-553.412	48.040	-0.235	-0.224
-552.398	-57.758	-0.093	0.042
-551.383	-200.000	0.012	-0.113
-550.369	-123.757	0.148	-0.024
-549.354	800.000	0.088	-0.330
-548.339	98.984	-0.139	-0.163
-547.325	800.000	-0.040	-0.164
-546.310	113.474	0.181	-0.224
-545.296	-200.000	-0.001	0.209
-544.281	-200.000	0.026	-0.201
-543.266	-200.000	-0.040	-0.195
-542.252	-92.456	-0.126	0.036
-541.237	266.657	-0.133	-0.237
-540.223	-44.271	0.152	-0.078
-539.208	59.722	-0.132	0.133
-538.193	359.827	-0.058	0.118
-537.179	800.000	-0.033	-0.103
-536.164	17.287	0.266	-0.215
-535.150	746.900	0.017	0.048
-534.135	90.756	0.045	-0.052
-533.121	-152.968	0.222	0.016
-532.106	166.723	-0.053	-0.076
-531.091	-66.314	0.223	-0.090
-530.077	246.917	-0.077	-0.132
-529.062	-19.085	-0.144	-0.091
-528.048	553.434	-0.087	0.212
-527.033	-155.787	0.405	-0.026
-526.018	800.000	-0.086	0.343
-525.004	-200.000	-0.003	-0.089
-523.989	-120.231	0.456	-0.079
-522.975	606.874	-0.023	0.057
-521.960	338.843	0.097	0.192
-520.945	-51.002	0.316	0.151
-519.931	-92.084	-0.334	-0.096
-518.916	14.481	-0.101	-0.080
-517.902	-80.347	0.352	-0.120
-516.887	142.841	-0.110	-0.149
-515.872	66.075	-0.272	0.281
-514.858	185.782	-0.177	-0.268
-513.843	-133.129	0.210	0.027
-512.829	800.000	0.025	0.108
-511.814	800.000	0.077	-0.276
-510.799	-110.325	-0.200	-0.042
-509.785	-200.000	0.038	-0.253
-508.770	-27.144	-0.072	0.042
-507.756	-99.044	-0.169	0.044
-506.741	-132.362	-0.373	-0.049
-505.726	-200.000	-0.002	0.230
-504.712	800.000	-0.105	0.375
-503.697	-200.000	0.020	-0.276
-502.683	800.000	-0.029	-0.122
-501.668	800.000	-0.032	0.093
-500.653	399.648	0.044	0.093
-499.639	-0.578	0.196	0.141
-498.624	-136.596	0.197	0.023
-497.610	-91.970	-0.201	-0.058
-496.595	-200.000	-0.020	-0.396
-495.581	-62.457	0.350	-0.148
-494.566	121.038	0.225	-0.284
-493.551	-58.732	0.043	0.019
-492.537	-200.000	0.033	0.299
-491.522	16.137	0.169	-0.136
-490.508	17.326	-0.090	0.072
-489.493	-109.880	-0.133	-0.028
-488.478	800.000	0.043	-0.154
-487.464	-14.656	0.114	0.074
-486.449	-200.000	0.033	0.253
-485.435	800.000	-0.014	0.043
-484.420	33.127	0.073	0.065
-483.405	-56.034	0.234	0.106
-482.391	92.628	-0.054	0.062
-481.376	-16.303	0.139	0.090
-480.362	-156.497	0.224	0.014
-479.347	-200.000	-0.299	-0.001
-478.332	-200.000	0.002	0.414
-477.318	-52.147	0.178	0.084
-476.303	-41.871	-0.049	0.026
-475.289	800.000	-0.077	-0.303
-474.274	800.000	0.061	-0.234
-473.259	-43.863	0.283	0.145
-472.245	-52.363	0.099	-0.046
-471.230	429.613	-0.010	-0.022
-470.216	-128.243	-0.237	-0.034
-469.201	-3.377	-0.182	-0.129
-468.186	800.000	0.043	0.165
-467.172	140.998	0.119	0.159
-466.157	196.601	-0.190	-0.294
-465.143	-73.274	0.238	0.088
-464.128	-105.456	-0.179	0.041
-463.113	299.808	-0.078	-0.146
-462.099	800.000	0.044	-0.195
-461.084	-142.739	-0.021	-0.002
-460.070	78.417	-0.139	-0.151
-459.055	-23.393	-0.288	0.176
-458.040	437.497	-0.059	-0.131
-457.026	-48.108	-0.177	0.087
-456.011	-43.996	0.033	0.017
-454.997	630.967	0.104	-0.267
-453.982	312.623	-0.049	-0.094
-452.968	-21.726	-0.238	0.147
-451.953	178.102	0.052	0.077
-450.938	250.812	0.035	-0.061
-449.924	3.777	0.080	0.059
-448.909	-20.944	0.280	-0.174
-447.895	-200.000	-0.021	-0.303
-446.880	800.000	0.037	-0.118
-445.865	800.000	0.027	-0.098
-444.851	-6.458	-0.167	-0.115
-443.836	195.241	0.120	-0.185
-442.822	157.323	-0.116	-0.163
-441.807	81.259	-0.079	0.087
-440.792	209.209	0.151	0.240
-439.778	-134.271	-0.119	-0.015
-438.763	190.052	-0.166	-0.253
-437.749	-147.575	-0.303	-0.026
-436.734	-200.000	0.059	0.350
-435.719	131.925	0.151	-0.197
-434.705	36.103	0.116	0.103
-433.690	154.408	-0.281	0.391
-432.676	739.423	-0.026	0.071
-431.661	-114.744	-0.046	0.009
-430.646	-200.000	-0.129	-0.000
-429.632	-9.749	-0.238	0.161
-428.617	-48.434	0.311	-0.152
-427.603	513.646	-0.056	-0.133
-426.588	-200.000	0.009	-0.188
-425.573	138.027	0.154	0.205
-424.559	-200.000	-0.037	0.229
-423.544	443.145	0.148	-0.329
-422.530	176.330	0.199	-0.293
-421.515	800.000	-0.029	0.105
-420.500	115.757	-0.084	0.104
-419.486	51.449	-0.389	-0.375
-418.471	800.000	0.108	-0.339
-417.457	-94.836	-0.390	-0.107
-416.442	61.792	-0.261	0.264
-415.428	-200.000	0.159	-0.731
-414.413	800.000	-0.145	0.435
-413.398	-103.829	-0.382	0.091
-412.384	293.083	-0.095	0.176
-411.369	139.120	0.123	-0.164
-410.355	-151.784	0.079	0.006
-409.340	-25.477	0.176	-0.105
-408.325	46.392	-0.144	0.135
-407.311	-144.962	0.288	-0.027
-406.296	-81.931	0.272	-0.090
-405.282	800.000	-0.057	0.168
-404.267	-15.805	0.276	0.178
-403.252	-123.782	0.213	-0.034
-402.238	306.084	0.073	0.137
-401.223	412.768	0.032	0.070
-400.209	-111.297	0.192	-0.040
-399.194	-200.000	0.017	0.228
-398.179	-51.572	0.311	0.147
-397.165	-159.502	-0.078	0.004
-396.150	448.903	-0.248	0.554
-395.136	800.000	0.052	0.166
-394.121	9.074	0.177	-0.135
-393.106	504.270	-0.078	0.182
-392.092	450.286	-0.100	0.224
-391.077	800.000	0.052	0.199
-390.063	281.582	-0.158	0.287
-389.048	206.751	-0.098	0.155
-388.033	-200.000	-0.004	-0.036
-387.019	138.183	0.400	0.531
-386.004	-49.743	-0.283	0.136
-384.990	-200.000	-0.006	-0.033
-383.975	377.317	0.046	0.095
-382.960	668.548	0.038	0.099
-381.946	-32.747	-0.217	0.122
-380.931	47.745	-0.080	-0.075
-379.917	132.900	0.274	-0.357
-378.902	52.182	0.146	0.141
-377.888	-94.695	-0.240	0.066
-376.873	-89.818	0.377	0.111
-375.858	800.000	0.031	0.127
-374.844	421.032	0.057	-0.124
-373.829	-200.000	-0.039	0.299
-372.815	-20.078	0.177	-0.111
-371.800	478.128	-0.119	-0.272
-370.785	-83.476	0.122	-0.039
-369.771	800.000	0.069	-0.196
-368.756	55.913	-0.294	0.288
-367.742	-43.890	0.271	0.138
-366.727	536.717	0.023	-0.056
-365.712	-31.369	0.409	0.233
-364.698	-55.512	-0.029	0.013
-363.683	-200.000	-0.000	0.073
-362.669	200.341	-0.050	0.077
-361.654	124.302	0.126	0.160
-360.639	-200.000	-0.017	-0.097
-359.625	-27.473	0.234	0.138
-358.610	-146.979	-0.076	0.007
-357.596	470.124	-0.041	-0.094
-356.581	-39.015	-0.138	0.074
-355.566	142.017	0.109	0.146
-354.552	6.243	0.222	-0.167
-353.537	800.000	0.072	-0.270
-352.523	24.937	-0.211	-0.177
-351.508	-19.969	-0.229	0.143
-350.493	-79.682	-0.142	-0.048
-349.479	800.000	-0.049	-0.207
-348.464	149.909	-0.142	-0.194
-347.450	-69.644	-0.306	-0.118
-346.435	236.908	-0.127	0.212
-345.420	84.846	-0.034	-0.038
-344.406	24.732	0.144	-0.120
-343.391	172.398	0.124	-0.180
-342.377	-147.681	0.165	0.014
-341.362	154.407	-0.201	0.279
-340.348	83.129	-0.128	0.141
-339.333	35.550	-0.116	-0.103
-338.318	126.436	-0.018	-0.023
-337.304	-130.159	-0.139	0.019
-336.289	157.831	0.137	0.192
-335.275	-200.000	0.013	-0.229
-334.260	-91.793	-0.120	-0.034
-333.245	126.595	-0.074	0.095
-332.231	-56.213	0.039	0.017
-331.216	-39.596	-0.082	0.043
-330.202	-130.762	-0.241	-0.033
-329.187	-139.871	-0.061	-0.007
-328.172	-80.641	0.438	0.147
-327.158	-49.121	-0.253	0.122
-326.143	-200.000	-0.017	0.246
-325.129	-5.526	-0.102	-0.071
-324.114	233.260	0.117	-0.194
-323.099	-17.132	-0.096	0.061
-322.085	166.466	-0.219	-0.314
-321.070	-172.141	0.170	-0.006
-320.056	800.000	-0.103	0.348
-319.041	-71.354	-0.015	0.006
-318.026	211.976	-0.132	-0.210
-317.012	-105.138	-0.109	0.025
-315.997	202.926	0.200	0.312
-314.983	-200.000	0.019	0.219
-313.968	-54.089	-0.124	-0.057
-312.953	120.516	-0.223	0.279
-311.939	-187.684	-0.139	-0.002
-310.924	142.819	-0.174	0.234
-309.910	14.610	0.101	-0.080
-308.895	28.690	0.428	-0.366
-307.880	158.329	0.117	-0.163
-306.866	338.642	-0.137	-0.270
-305.851	143.010	-0.155	-0.207
-304.837	-22.981	0.129	-0.078
-303.822	-17.504	0.209	0.132
-302.807	384.079	-0.097	0.201
-301.793	91.349	-0.045	0.051
-300.778	-74.489	0.213	-0.078
-299.764	800.000	-0.069	0.289
-298.749	757.965	0.182	-0.498
-297.735	166.014	0.121	0.172
-296.720	800.000	0.077	-0.272
-295.705	244.918	0.137	-0.233
-294.691	-156.879	0.102	0.006
-293.676	26.488	0.112	-0.094
-292.662	-200.000	0.009	-0.378
-291.647	-200.000	-0.033	0.214
-290.632	800.000	-0.104	-0.358
-289.618	800.000	-0.116	0.332
-288.603	-132.694	-0.240	-0.031
-287.589	-69.396	-0.293	-0.113
-286.574	45.845	0.155	0.144
-285.559	800.000	-0.040	0.152
-284.545	28.018	0.064	-0.055
-283.530	94.892	0.141	-0.162
-282.516	-200.000	-0.047	0.251
-281.501	-200.000	0.002	0.108
-280.486	144.499	-0.010	0.013
-279.472	329.208	-0.169	-0.328
-278.457	-111.969	0.295	0.060
-277.443	20.824	-0.156	0.127
-276.428	-81.815	-0.177	0.058
-275.413	237.554	-0.088	0.148
-274.399	-200.000	0.000	-0.009
-273.384	399.277	0.118	0.250
-272.370	-91.890	0.034	0.010
-271.355	-200.000	0.003	-0.134
-270.340	147.715	-0.084	0.114
-269.326	-18.538	0.118	-0.074
-268.311	-69.558	-0.247	0.095
-267.297	95.221	0.108	-0.124
-266.282	-150.629	0.084	-0.006
-265.267	23.119	-0.234	-0.193
-264.253	233.579	0.053	0.088
-263.238	653.838	0.080	-0.208
-262.224	420.924	0.092	-0.199
-261.209	-49.275	-0.056	-0.027
-260.195	800.000	-0.079	0.290
-259.180	89.538	0.174	0.196
-258.165	-75.896	0.114	0.041
-257.151	800.000	0.023	-0.091
-256.136	-34.588	0.216	0.119
-255.122	-46.564	0.149	0.073
-254.107	800.000	-0.055	0.154
-253.092	-92.759	-0.229	-0.065
-252.078	800.000	0.081	-0.237
-251.063	80.744	-0.155	-0.168
-250.049	-200.000	0.029	-0.255
-249.034	318.494	-0.096	-0.182
-248.019	603.110	0.059	-0.148
-247.005	326.084	0.072	0.139
-245.990	-200.000	-0.006	-0.116
-244.976	52.083	-0.191	0.183
-243.961	-152.292	0.121	-0.009
-242.946	-56.463	0.131	-0.059
-241.932	35.287	0.100	-0.088
-240.917	187.927	0.103	0.155
-239.903	-112.871	-0.424	0.085
-238.888	-51.713	-0.123	-0.058
-237.873	610.106	0.116	0.292
-236.859	169.954	0.314	0.451
-235.844	800.000	-0.019	-0.073
-234.830	15.850	-0.115	-0.091
-233.815	641.401	0.032	0.081
-232.800	101.391	0.133	-0.156
-231.786	57.976	-0.297	-0.293
-230.771	486.805	0.111	0.254
-229.757	-200.000	0.009	0.148
-228.742	-31.585	0.045	0.025
-227.727	-31.478	0.123	0.070
-226.713	-51.986	0.347	-0.162
-225.698	-42.952	0.292	0.149
-224.684	174.610	-0.120	0.174
-223.669	294.717	-0.136	-0.250
-222.655	-144.844	0.279	-0.026
-221.640	321.615	-0.082	-0.156
-220.625	577.162	-0.173	-0.425
-219.611	-41.041	-0.361	0.188
-218.596	171.583	-0.104	0.150
-217.582	800.000	-0.027	-0.084
-216.567	-122.801	0.257	0.042
-215.552	-200.000	-0.012	0.160
-214.538	800.000	0.027	-0.076
-213.523	-148.651	0.289	0.024
-212.509	-200.000	0.047	-0.451
-211.494	62.430	0.357	0.358
-210.479	800.000	0.022	-0.096
-209.465	383.727	0.040	-0.083
-208.450	-22.466	0.202	0.123
-207.436	138.210	-0.179	0.235
-206.421	-152.316	0.457	0.033
-205.406	-101.680	-0.177	0.043
-204.392	-37.397	-0.137	-0.073
-203.377	-7.300	-0.169	-0.115
-202.363	-200.000	0.027	0.250
-201.348	-175.231	0.071	-0.002
-200.333	-109.028	0.070	0.015
-199.319	-70.382	0.083	-0.031
-198.304	-200.000	-0.052	-0.269
-197.290	-114.577	0.203	-0.039
-196.275	42.136	0.147	0.134
-195.260	-200.000	-0.155	0.001
-194.246	27.446	-0.496	-0.419
-193.231	800.000	0.014	0.041
-192.217	66.625	-0.145	-0.148
-191.202	448.126	-0.042	-0.093
-190.187	231.112	-0.051	-0.084
-189.173	41.584	-0.174	-0.158
-188.158	-166.799	-0.370	-0.015
-187.144	70.589	-0.245	0.255
-186.129	-162.013	-0.125	0.006
-185.114	-33.350	0.119	-0.066
-184.100	9.327	0.426	0.323
-183.085	44.071	0.393	0.362
-182.071	-200.000	-0.006	0.189
-181.056	-17.844	0.201	-0.127
-180.042	608.340	0.141	0.353
-179.027	-200.000	0.058	0.291
-178.012	-131.748	-0.153	-0.020
-176.998	45.201	-0.066	-0.061
-175.983	446.353	-0.060	0.133
-174.969	-64.303	-0.183	-0.075
-173.954	-111.386	-0.213	0.044
-172.939	800.000	0.043	0.164
-171.925	63.296	0.093	-0.093
-170.910	-78.842	-0.269	0.092
-169.896	-28.578	0.125	0.072
-168.881	242.786	-0.203	-0.341
-167.866	131.980	0.258	-0.333
-166.852	-57.986	-0.145	0.064
-165.837	532.968	0.073	-0.173
-164.823	-68.453	0.147	-0.057
-163.808	-99.468	0.048	-0.012
-162.793	177.412	0.093	0.136
-161.779	-150.128	0.140	-0.011
-160.764	-88.814	-0.112	-0.033
-159.750	-58.352	-0.057	0.025
-158.735	-200.000	0.018	0.105
-157.720	-121.119	0.145	-0.024
-156.706	447.011	0.141	-0.312
-155.691	-47.776	0.109	0.053
-154.677	-200.000	-0.015	-0.202
-153.662	247.779	-0.090	-0.152
-152.647	-111.292	-0.208	-0.043
-151.633	800.000	0.117	0.486
-150.618	-21.241	-0.272	-0.167
-149.604	724.056	0.059	-0.158
-148.589	61.050	0.223	-0.222
-147.574	-200.000	-0.019	-0.144
-146.560	-112.287	0.127	0.025
-145.545	800.000	-0.034	0.107
-144.531	-61.490	-0.290	0.122
-143.516	179.915	-0.146	0.215
-142.502	-69.255	0.219	-0.085
-141.487	-1.837	0.231	-0.163
-140.472	-9.041	0.187	-0.126
-139.458	-166.335	-0.213	0.009
-138.443	383.436	-0.039	0.080
-137.429	121.853	-0.105	-0.132
-136.414	-200.000	-0.028	-0.312
-135.399	-179.719	-0.325	-0.007
-134.385	800.000	0.030	-0.121
-133.370	651.273	-0.042	0.109
-132.356	52.095	-0.090	-0.086
-131.341	795.653	-0.128	-0.354
-130.326	800.000	-0.063	0.215
-129.312	-70.215	0.101	-0.038
-128.297	196.396	-0.142	0.217
-127.283	-74.511	0.409	0.148
-126.268	34.018	0.188	0.164
-125.253	50.172	-0.139	0.132
-124.239	42.395	-0.200	-0.182
-123.224	759.361	-0.109	0.295
-122.210	-141.311	0.441	0.045
-121.195	1.757	0.204	-0.147
