DTS Sentinel unit serial number:	SN413079Multiplexer serial number:	ORYXHardware model number:	OX4-SRSoftware version number:	ORYX F/W v4.00 Oryx Data Collector v3.7.2.0data status	okinstallation	princeton_trtdifferential loss correction	single-endedforward channel	channel 2reverse channel	N/Adate	2019/09/14time	09:31:34forward acquisition time	60.00reverse acquisition time	0.00gamma	496.2192k internal	0.2324k external	0.2324temperature offset calibration	1.0130default loss term (dB/km)	0.3790temperature slope calibration	1.0000multiplexer offset coefficient	1.0000multiplexer slope coefficient	1.0000fibre end	0.00T internal ref (°C)	31.50T ext. ref 1 (°C)	3.86T ext. ref 2 (°C)	29.38length (m)	temperature (°C)	Stokes	anti-Stokes-747.200	-76.256	0.277	-0.099
-746.185	327.973	-0.180	-0.348
-745.171	-128.459	0.245	0.035
-744.156	-200.000	-0.005	0.313
-743.142	76.402	0.223	-0.239
-742.127	338.130	-0.099	0.195
-741.112	28.046	0.025	0.021
-740.098	7.124	0.187	0.141
-739.083	7.473	0.287	-0.217
-738.069	-200.000	0.032	0.179
-737.054	169.447	-0.080	0.115
-736.039	268.834	-0.114	0.202
-735.025	-9.040	-0.112	-0.076
-734.010	-28.156	-0.074	0.043
-732.996	-200.000	0.048	-0.287
-731.981	95.650	-0.211	0.242
-730.966	-120.269	-0.184	-0.032
-729.952	498.277	-0.081	0.189
-728.937	529.042	0.108	-0.258
-727.923	-200.000	0.020	-0.137
-726.908	-158.457	0.051	-0.003
-725.894	-42.575	-0.132	-0.068
-724.879	39.531	-0.193	-0.174
-723.864	171.516	-0.022	-0.032
-722.850	422.686	0.072	0.157
-721.835	800.000	0.051	0.183
-720.821	-142.032	0.209	0.021
-719.806	-154.620	-0.289	0.019
-718.791	-200.000	-0.055	-0.245
-717.777	-200.000	-0.028	0.139
-716.762	112.644	0.160	-0.196
-715.748	-124.896	-0.297	0.046
-714.733	-200.000	0.018	0.092
-713.718	-200.000	0.010	-0.128
-712.704	345.528	0.025	-0.050
-711.689	-200.000	0.057	-0.363
-710.675	-101.506	0.113	0.028
-709.660	800.000	-0.129	-0.379
-708.645	-200.000	-0.003	-0.266
-707.631	-200.000	0.031	-0.200
-706.616	-37.935	-0.144	0.077
-705.602	-200.000	-0.015	-0.092
-704.587	-200.000	-0.070	-0.370
-703.572	-200.000	-0.008	0.062
-702.558	-4.545	0.078	0.054
-701.543	-200.000	-0.005	-0.084
-700.529	-200.000	0.100	0.487
-699.514	800.000	-0.036	-0.119
-698.499	-23.752	0.152	-0.092
-697.485	517.706	-0.144	-0.340
-696.470	-200.000	-0.030	0.197
-695.456	717.002	0.055	-0.148
-694.441	79.806	0.144	-0.156
-693.426	-162.730	-0.412	0.020
-692.412	800.000	-0.042	-0.168
-691.397	-200.000	0.004	-0.365
-690.383	506.927	-0.075	-0.175
-689.368	-200.000	0.017	0.281
-688.354	-189.350	-0.229	-0.003
-687.339	-85.067	0.148	-0.047
-686.324	-200.000	-0.008	0.470
-685.310	-143.129	0.090	-0.009
-684.295	-200.000	0.011	0.130
-683.281	-73.870	-0.146	0.054
-682.266	-73.602	-0.154	0.057
-681.251	-54.780	0.459	0.209
-680.237	721.010	0.033	-0.087
-679.222	176.316	-0.121	-0.177
-678.208	135.318	0.161	0.211
-677.193	-178.512	-0.128	0.003
-676.178	203.724	0.145	0.226
-675.164	-105.446	-0.264	-0.060
-674.149	58.463	0.209	-0.207
-673.135	147.050	0.268	0.363
-672.120	72.989	-0.080	0.084
-671.105	701.182	-0.123	-0.327
-670.091	-11.951	0.048	-0.032
-669.076	164.825	0.083	-0.119
-668.062	222.980	0.122	0.197
-667.047	-24.037	-0.108	-0.065
-666.032	-147.664	-0.300	-0.025
-665.018	-120.016	-0.173	0.030
-664.003	56.154	-0.219	-0.214
-662.989	-188.723	-0.142	-0.002
-661.974	201.181	0.184	0.285
-660.959	-71.495	-0.445	0.168
-659.945	60.810	-0.215	0.215
-658.930	-200.000	-0.006	0.056
-657.916	-200.000	0.020	0.201
-656.901	343.766	-0.054	-0.107
-655.886	-104.501	0.278	-0.065
-654.872	64.459	0.012	0.012
-653.857	491.301	0.094	-0.216
-652.843	-134.286	-0.439	0.054
-651.828	800.000	0.063	-0.277
-650.814	-200.000	0.068	0.395
-649.799	-71.011	0.148	0.056
-648.784	11.261	0.248	-0.191
-647.770	203.731	-0.172	0.268
-646.755	800.000	-0.083	-0.242
-645.741	112.915	-0.135	-0.165
-644.726	-119.599	-0.113	0.020
-643.711	355.720	0.068	-0.137
-642.697	-90.712	0.254	-0.074
-641.682	219.827	-0.161	-0.259
-640.668	384.682	0.099	0.204
-639.653	67.731	0.196	0.201
-638.638	604.119	-0.054	-0.135
-637.624	-200.000	-0.008	-0.269
-636.609	188.504	0.132	-0.198
-635.595	168.860	-0.111	-0.160
-634.580	-117.138	-0.124	-0.023
-633.565	31.371	0.216	-0.187
-632.551	12.080	0.302	-0.234
-631.536	-5.220	0.298	-0.206
-630.522	-41.418	-0.438	0.226
-629.507	-79.852	-0.109	0.037
-628.492	-128.599	0.338	-0.048
-627.478	-200.000	0.033	-0.434
-626.463	477.710	-0.029	-0.065
-625.449	-140.219	0.199	0.021
-624.434	-200.000	-0.000	-0.054
-623.419	242.953	0.194	0.327
-622.405	40.961	-0.106	-0.096
-621.390	42.969	0.143	0.131
-620.376	9.198	-0.303	0.230
-619.361	-38.368	-0.111	0.059
-618.346	-200.000	0.021	-0.161
-617.332	-58.382	0.185	-0.081
-616.317	-200.000	0.014	0.230
-615.303	-29.444	0.102	-0.058
-614.288	-102.381	-0.147	-0.035
-613.273	-89.907	-0.196	-0.057
-612.259	-200.000	-0.022	0.202
-611.244	420.133	-0.240	0.517
-610.230	393.993	-0.153	-0.321
-609.215	317.971	0.162	-0.308
-608.201	231.527	-0.136	-0.224
-607.186	-110.392	0.172	-0.036
-606.171	73.300	-0.238	0.250
-605.157	-45.655	-0.395	-0.196
-604.142	-200.000	0.015	-0.266
-603.128	-34.633	-0.369	0.203
-602.113	471.771	0.157	0.356
-601.098	593.937	-0.157	0.389
-600.084	-200.000	-0.005	0.521
-599.069	-136.424	-0.196	-0.023
-598.055	345.598	0.102	0.202
-597.040	195.232	0.134	-0.205
-596.025	-31.576	-0.147	0.083
-595.011	-90.616	-0.164	-0.047
-593.996	-126.350	-0.043	-0.007
-592.982	-200.000	0.004	0.227
-591.967	-67.664	-0.322	0.127
-590.952	-103.936	0.170	0.040
-589.938	800.000	-0.110	0.352
-588.923	455.812	-0.025	0.056
-587.909	22.319	-0.035	0.029
-586.894	-96.825	-0.080	-0.021
-585.879	-200.000	-0.457	0.001
-584.865	800.000	-0.069	0.266
-583.850	-200.000	0.069	0.400
-582.836	54.382	0.053	-0.051
-581.821	-200.000	0.027	-0.120
-580.806	723.939	-0.119	0.319
-579.792	72.939	0.121	0.127
-578.777	-136.409	0.096	-0.011
-577.763	36.260	0.230	-0.204
-576.748	141.572	-0.184	-0.244
-575.733	340.437	0.064	-0.125
-574.719	267.556	-0.032	-0.057
-573.704	475.580	-0.087	-0.198
-572.690	57.202	0.114	0.111
-571.675	-150.101	0.342	-0.027
-570.661	-137.042	-0.219	0.025
-569.646	-200.000	-0.017	0.242
-568.631	-200.000	-0.001	-0.124
-567.617	-62.909	-0.152	-0.063
-566.602	-57.502	-0.199	0.088
-565.588	62.086	0.158	-0.158
-564.573	-58.717	-0.296	0.129
-563.558	-72.704	-0.185	0.068
-562.544	800.000	0.073	-0.301
-561.529	23.052	-0.448	-0.368
-560.515	406.945	-0.178	-0.376
-559.500	0.252	0.201	-0.144
-558.485	-47.399	-0.145	-0.070
-557.471	-48.747	0.271	0.130
-556.456	-139.384	0.271	0.029
-555.442	144.502	0.032	0.043
-554.427	-46.212	-0.056	-0.028
-553.412	-200.000	0.023	-0.154
-552.398	517.119	0.045	-0.106
-551.383	702.121	-0.043	-0.113
-550.369	-10.166	0.099	-0.066
-549.354	-53.629	-0.237	0.109
-548.339	800.000	0.022	0.071
-547.325	-200.000	0.005	0.171
-546.310	-30.710	0.180	-0.102
-545.296	800.000	0.040	-0.132
-544.281	-106.807	-0.376	-0.084
-543.266	-200.000	-0.042	-0.396
-542.252	-85.385	0.100	-0.031
-541.237	83.818	0.101	0.110
-540.223	746.791	-0.103	-0.278
-539.208	-163.425	-0.116	0.006
-538.193	-129.735	-0.450	0.062
-537.179	236.892	0.048	0.079
-536.164	-143.179	0.361	0.035
-535.150	21.038	0.245	0.199
-534.135	-106.032	-0.378	0.085
-533.121	-200.000	0.076	0.481
-532.106	149.506	0.072	0.097
-531.091	39.145	-0.181	-0.162
-530.077	-200.000	-0.008	-0.193
-529.062	-82.748	0.253	0.082
-528.048	583.837	-0.031	-0.076
-527.033	-49.880	-0.124	-0.059
-526.018	-148.405	0.420	0.035
-525.004	-103.091	0.265	-0.063
-523.989	800.000	0.057	-0.198
-522.975	213.772	-0.103	0.163
-521.960	224.423	-0.025	-0.041
-520.945	-142.550	-0.051	-0.005
-519.931	-200.000	-0.086	0.457
-518.916	-200.000	-0.007	0.256
-517.902	800.000	-0.041	0.170
-516.887	-163.282	-0.381	0.018
-515.872	-115.703	-0.359	-0.067
-514.858	-6.766	-0.045	-0.030
-513.843	381.306	-0.147	-0.303
-512.829	-67.118	0.220	-0.087
-511.814	559.955	0.096	-0.233
-510.799	-187.579	0.113	0.002
-509.785	461.167	0.119	0.265
-508.770	50.532	-0.240	0.227
-507.756	-129.511	0.420	-0.058
-506.741	169.883	-0.074	-0.106
-505.726	33.386	-0.226	-0.196
-504.712	373.430	-0.210	-0.428
-503.697	213.877	0.017	0.027
-502.683	446.601	0.041	-0.090
-501.668	-12.083	0.162	0.106
-500.653	142.661	-0.047	0.063
-499.639	-200.000	-0.054	-0.255
-498.624	280.432	0.122	0.217
-497.610	32.293	0.161	-0.139
-496.595	800.000	0.018	0.060
-495.581	800.000	-0.023	0.088
-494.566	-5.180	-0.327	-0.225
-493.551	800.000	0.110	0.340
-492.537	-14.418	0.301	-0.194
-491.522	-200.000	-0.012	0.056
-490.508	279.176	-0.062	0.111
-489.493	-64.626	0.285	-0.115
-488.478	-35.547	0.196	-0.106
-487.464	800.000	-0.033	0.104
-486.449	57.333	-0.305	0.298
-485.435	-200.000	-0.006	0.281
-484.420	67.821	-0.115	-0.117
-483.405	194.227	0.223	0.337
-482.391	800.000	0.095	-0.276
-481.376	800.000	-0.143	-0.444
-480.362	800.000	-0.087	0.279
-479.347	-24.808	-0.210	0.124
-478.332	383.826	-0.122	-0.250
-477.318	283.465	0.041	-0.073
-476.303	-135.559	-0.250	0.030
-475.289	13.141	0.188	-0.145
-474.274	-90.409	0.287	0.083
-473.259	-75.783	-0.429	0.152
-472.245	-16.700	-0.374	0.236
-471.230	-200.000	-0.068	0.330
-470.216	382.177	0.076	0.157
-469.201	-200.000	0.044	0.197
-468.186	229.330	-0.136	0.222
-467.172	-63.514	0.164	0.067
-466.157	-150.581	-0.157	-0.012
-465.143	186.902	0.113	-0.168
-464.128	-110.178	0.108	-0.023
-463.113	-78.119	0.272	-0.094
-462.099	185.811	0.172	0.255
-461.084	-200.000	0.003	-0.140
-460.070	-116.237	0.211	0.039
-459.055	386.129	0.051	-0.104
-458.040	-138.209	-0.149	-0.016
-457.026	-133.756	0.244	0.030
-456.011	-155.512	-0.202	-0.013
-454.997	-123.236	-0.308	0.049
-453.982	-192.926	-0.245	-0.002
-452.968	-177.736	-0.119	-0.003
-451.953	-47.769	-0.109	0.053
-450.938	-65.271	-0.383	-0.154
-449.924	-123.584	0.235	-0.037
-448.909	-84.286	0.158	-0.050
-447.895	-162.224	-0.116	-0.006
-446.880	-121.169	0.348	0.058
-445.865	71.842	0.114	0.119
-444.851	219.047	-0.169	-0.269
-443.836	-200.000	-0.020	-0.205
-442.822	336.590	0.187	0.362
-441.807	-32.060	0.026	0.014
-440.792	-59.059	-0.197	0.085
-439.778	125.489	-0.031	-0.039
-438.763	800.000	0.124	-0.368
-437.749	25.082	-0.178	-0.147
-436.734	50.779	-0.286	-0.270
-435.719	-93.140	0.237	0.066
-434.705	-109.432	0.098	0.021
-433.690	-200.000	-0.032	-0.194
-432.676	69.057	-0.124	0.127
-431.661	70.769	-0.192	0.199
-430.646	-200.000	-0.031	-0.255
-429.632	800.000	-0.026	-0.083
-428.617	-200.000	-0.027	-0.351
-427.603	-57.734	0.018	0.008
-426.588	-143.648	0.419	0.040
-425.573	-143.587	-0.090	-0.009
-424.559	266.985	-0.088	0.153
-423.544	307.198	-0.058	0.108
-422.530	46.642	-0.158	0.146
-421.515	-31.479	-0.340	-0.191
-420.500	-200.000	-0.030	-0.244
-419.486	-51.034	0.190	-0.089
-418.471	701.140	0.033	-0.086
-417.457	-42.541	0.153	0.078
-416.442	-123.173	-0.345	-0.055
-415.428	115.815	0.196	-0.240
-414.413	-136.386	0.274	-0.032
-413.398	260.707	0.169	0.291
-412.384	-136.097	0.140	0.016
-411.369	161.482	0.045	-0.063
-410.355	-118.490	0.174	0.031
-409.340	332.049	-0.039	-0.075
-408.325	-105.436	-0.122	0.028
-407.311	104.954	0.071	0.084
-406.296	-200.000	0.025	0.177
-405.282	445.951	0.116	0.254
-404.267	38.380	0.146	0.130
-403.252	800.000	-0.034	0.146
-402.238	-200.000	0.032	0.228
-401.223	-200.000	0.023	-0.178
-400.209	-146.440	-0.030	0.003
-399.194	-77.798	-0.038	0.013
-398.179	800.000	-0.090	-0.266
-397.165	-200.000	-0.009	-0.095
-396.150	-150.186	-0.230	0.018
-395.136	800.000	-0.068	-0.196
-394.121	-200.000	0.007	-0.270
-393.106	-34.495	0.159	-0.087
-392.092	180.434	0.144	0.210
-391.077	197.629	-0.139	-0.211
-390.063	800.000	0.029	0.106
-389.048	800.000	-0.054	0.182
-388.033	-66.630	-0.235	-0.093
-387.019	84.218	0.163	0.178
-386.004	800.000	0.032	-0.132
-384.990	198.236	0.070	0.107
-383.975	56.592	0.335	-0.324
-382.960	41.308	-0.221	0.199
-381.946	170.313	0.141	0.201
-380.931	-57.072	-0.093	0.041
-379.917	581.971	-0.065	0.158
-378.902	623.889	-0.169	-0.424
-377.888	-141.421	0.264	0.027
-376.873	7.635	0.285	-0.212
-375.858	-153.899	0.323	-0.022
-374.844	337.930	0.065	0.125
-373.829	86.912	0.204	-0.224
-372.815	800.000	-0.089	0.264
-371.800	-73.815	-0.239	-0.086
-370.785	-126.438	0.230	-0.034
-369.771	-200.000	-0.098	0.493
-368.756	-109.512	-0.122	0.026
-367.742	-200.000	-0.046	0.301
-366.727	-200.000	-0.030	-0.174
-365.712	-10.563	0.128	-0.084
-364.698	-166.192	-0.113	0.005
-363.683	-104.084	0.182	0.042
-362.669	-197.618	0.295	0.002
-361.654	-136.208	0.498	0.058
-360.639	49.451	0.095	-0.089
-359.625	73.142	-0.136	-0.141
-358.610	-200.000	-0.005	0.065
-357.596	800.000	0.057	0.207
-356.581	-112.225	0.089	0.018
-355.566	231.664	0.116	-0.190
-354.552	-19.070	0.331	-0.204
-353.537	19.531	-0.109	0.087
-352.523	387.673	0.058	0.120
-351.508	12.273	0.210	-0.161
-350.493	8.103	0.145	-0.108
-349.479	270.180	0.093	0.162
-348.464	265.013	0.130	0.225
-347.450	-19.564	0.206	0.127
-346.435	-153.146	0.104	-0.007
-345.420	-168.771	-0.283	0.011
-344.406	7.467	-0.137	0.102
-343.391	-42.961	-0.164	-0.083
-342.377	-78.071	-0.327	-0.112
-341.362	-200.000	0.005	-0.202
-340.348	-200.000	-0.048	-0.262
-339.333	-96.859	-0.134	-0.035
-338.318	-119.015	-0.184	-0.032
-337.304	-107.785	-0.203	-0.044
-336.289	155.300	-0.146	0.199
-335.275	-7.555	0.031	-0.021
-334.260	168.925	-0.036	0.051
-333.245	165.044	0.153	0.215
-332.231	98.913	0.134	0.154
-331.216	800.000	-0.058	-0.168
-330.202	45.755	-0.229	-0.210
-329.187	8.675	-0.203	-0.152
-328.172	-200.000	0.007	0.134
-327.158	-200.000	0.012	0.111
-326.143	-76.142	0.276	0.097
-325.129	-83.200	-0.204	-0.065
-324.114	-200.000	-0.082	0.451
-323.099	64.882	0.060	-0.060
-322.085	46.989	-0.206	-0.190
-321.070	324.474	0.089	0.168
-320.056	-24.312	-0.063	0.037
-319.041	566.413	-0.061	0.147
-318.026	226.707	-0.253	0.408
-317.012	800.000	0.052	-0.182
-315.997	159.039	-0.231	0.319
-314.983	800.000	0.070	0.209
-313.968	-200.000	0.022	0.215
-312.953	52.115	-0.303	0.286
-311.939	15.673	-0.231	-0.180
-310.924	-33.252	-0.184	0.101
-309.910	-136.009	-0.287	0.034
-308.895	50.411	-0.135	0.127
-307.880	-142.457	0.114	-0.011
-306.866	83.805	0.197	0.214
-305.851	63.836	0.065	-0.065
-304.837	-49.655	0.210	-0.099
-303.822	-200.000	0.018	-0.410
-302.807	-184.405	-0.043	0.001
-301.793	87.652	-0.172	0.190
-300.778	442.277	-0.057	-0.124
-299.764	32.211	-0.060	0.051
-298.749	-9.116	-0.146	0.097
-297.735	-200.000	0.015	-0.226
-296.720	-200.000	-0.038	-0.229
-295.705	-32.805	-0.131	-0.072
-294.691	800.000	0.174	0.534
-293.676	142.041	0.035	-0.046
-292.662	203.615	0.046	-0.071
-291.647	113.699	0.061	0.073
-290.632	-181.355	0.055	-0.001
-289.618	800.000	0.030	0.094
-288.603	-122.026	0.356	-0.058
-287.589	-200.000	0.007	-0.208
-286.574	-72.651	-0.164	0.060
-285.559	-85.662	0.210	-0.065
-284.545	68.703	0.118	-0.120
-283.530	-200.000	0.023	0.103
-282.516	-200.000	0.064	0.423
-281.501	-113.769	0.391	-0.075
-280.486	264.902	-0.080	0.138
-279.472	35.112	-0.261	-0.227
-278.457	10.961	0.050	0.038
-277.443	-200.000	0.038	0.223
-276.428	235.456	-0.118	0.193
-275.413	85.795	-0.055	0.059
-274.399	26.357	-0.106	0.087
-273.384	-200.000	-0.050	0.449
-272.370	-92.074	0.061	0.017
-271.355	5.286	0.239	-0.174
-270.340	-86.739	-0.121	0.037
-269.326	516.890	-0.051	0.117
-268.311	231.082	-0.119	0.193
-267.297	-139.143	-0.147	-0.016
-266.282	-176.589	0.386	-0.010
-265.267	-13.141	0.027	0.018
-264.253	108.114	-0.076	-0.089
-263.238	506.112	0.052	-0.119
-262.224	-134.442	0.288	-0.035
-261.209	-121.509	-0.110	0.018
-260.195	-200.000	-0.082	0.399
-259.180	-128.073	0.187	0.027
-258.165	-161.048	-0.119	0.006
-257.151	335.176	0.080	-0.153
-256.136	-132.448	-0.184	0.024
-255.122	303.208	-0.187	-0.343
-254.107	-200.000	0.002	0.117
-253.092	-113.679	-0.235	-0.046
-252.078	120.225	0.189	0.233
-251.063	-9.671	0.233	0.154
-250.049	-136.106	-0.226	-0.026
-249.034	-43.095	0.257	-0.129
-248.019	60.213	-0.287	0.281
-247.005	19.965	-0.164	-0.131
-245.990	299.361	-0.096	-0.175
-244.976	-200.000	0.062	0.388
-243.961	324.713	-0.159	0.300
-242.946	-37.867	0.320	0.169
-241.932	-118.724	-0.229	0.040
-240.917	-159.967	-0.179	0.010
-239.903	-137.285	-0.214	-0.024
-238.888	-120.132	0.272	0.046
-237.873	-101.956	0.165	-0.039
-236.859	647.729	0.113	0.286
-235.844	154.535	0.249	0.338
-234.830	800.000	0.031	0.091
-233.815	154.545	0.157	-0.213
-232.800	800.000	-0.049	-0.154
-231.786	-146.180	-0.062	-0.005
-230.771	-4.519	-0.196	0.134
-229.757	317.440	-0.062	0.116
-228.742	37.306	0.144	0.127
-227.727	-200.000	-0.021	0.181
-226.713	139.473	-0.210	-0.273
-225.698	800.000	-0.046	-0.126
-224.684	-8.134	0.146	-0.097
-223.669	91.808	0.404	0.449
-222.655	-200.000	-0.019	-0.171
-221.640	-47.982	-0.221	-0.106
-220.625	238.679	-0.087	-0.144
-219.611	-75.362	0.014	-0.005
-218.596	800.000	-0.027	-0.095
-217.582	113.380	-0.201	-0.241
-216.567	800.000	0.121	-0.343
-215.552	643.180	-0.099	-0.250
-214.538	62.889	0.103	-0.102
-213.523	-14.729	-0.323	-0.205
-212.509	800.000	-0.036	0.105
-211.494	343.902	-0.087	0.168
-210.479	-200.000	0.016	-0.125
-209.465	-12.426	0.320	-0.207
-208.450	-25.508	0.139	0.081
-207.436	288.209	-0.059	0.106
-206.421	800.000	-0.073	0.233
-205.406	-98.665	-0.055	0.014
-204.392	30.629	0.186	-0.157
-203.377	-45.506	0.092	0.045
-202.363	477.874	0.042	-0.094
-201.348	-200.000	-0.022	0.143
-200.333	83.674	0.217	0.234
-199.319	-72.745	0.126	-0.046
-198.304	41.197	0.036	-0.032
-197.290	800.000	-0.072	0.203
-196.275	-60.854	0.149	0.062
-195.260	-200.000	-0.019	-0.166
-194.246	-89.128	0.488	-0.143
-193.231	-73.062	0.265	-0.096
-192.217	133.518	0.172	-0.219
-191.202	800.000	-0.049	0.171
-190.187	-15.993	0.143	-0.090
-189.173	-23.970	-0.173	-0.102
-188.158	122.985	-0.186	-0.230
-187.144	800.000	0.106	-0.356
-186.129	-76.998	0.174	-0.060
-185.114	800.000	0.096	-0.337
-184.100	-167.165	-0.336	-0.013
-183.085	154.161	-0.084	0.114
-182.071	138.662	0.104	0.135
-181.056	104.386	0.093	0.108
-180.042	800.000	0.033	0.116
-179.027	-200.000	0.066	-0.300
-178.012	-139.639	-0.227	-0.024
-176.998	-200.000	0.057	0.249
-175.983	-114.629	0.010	-0.002
-174.969	-200.000	-0.037	-0.184
-173.954	-13.879	0.251	0.160
-172.939	27.543	-0.097	0.081
-171.925	21.210	0.095	-0.076
-170.910	-200.000	-0.003	0.030
-169.896	800.000	0.038	-0.140
-168.881	-16.290	0.212	-0.133
-167.866	-52.007	0.177	0.081
-166.852	800.000	-0.116	-0.372
-165.837	54.939	-0.250	-0.238
-164.823	800.000	0.071	-0.257
-163.808	800.000	-0.094	-0.268
-162.793	225.477	-0.059	-0.094
-161.779	-90.542	-0.194	0.055
-160.764	241.137	0.157	-0.258
-159.750	181.001	0.073	-0.106
-158.735	299.139	0.041	-0.075
-157.720	-139.837	0.237	-0.025
-156.706	-166.202	-0.068	-0.003
-155.691	229.415	-0.111	0.178
-154.677	161.255	0.068	0.094
-153.662	-200.000	0.073	-0.390
-152.647	800.000	-0.027	-0.077
-151.633	-108.474	0.448	0.095
-150.618	-120.606	-0.221	-0.037
-149.604	-119.346	-0.139	0.024
-148.589	92.991	0.034	0.038
-147.574	146.131	-0.246	0.326
-146.560	-21.358	-0.186	-0.112
-145.545	-126.115	-0.248	0.037
-144.531	16.057	0.118	-0.092
-143.516	-40.140	-0.231	-0.119
-142.502	-46.165	-0.144	-0.070
-141.487	-46.475	-0.124	0.060
-140.472	179.549	0.012	0.018
-139.458	4.085	-0.151	0.109
-138.443	766.270	-0.089	-0.239
-137.429	292.273	-0.199	0.357
-136.414	97.034	0.080	-0.090
-135.399	462.695	0.037	-0.081
-134.385	61.282	0.182	-0.178
-133.370	800.000	0.073	-0.307
-132.356	-145.433	-0.288	-0.026
-131.341	332.279	-0.058	-0.111
-130.326	-94.844	0.140	0.037
-129.312	254.871	-0.222	0.375
-128.297	800.000	0.041	0.149
-127.283	-51.534	0.222	-0.102
-126.268	-200.000	0.007	0.154
-125.253	800.000	-0.063	0.215
-124.239	101.125	0.232	-0.267
-123.224	-5.334	-0.352	-0.238
-122.210	174.760	0.140	0.200
