DTS Sentinel unit serial number:	SN413079Multiplexer serial number:	ORYXHardware model number:	OX4-SRSoftware version number:	ORYX F/W v4.00 Oryx Data Collector v3.7.2.0data status	okinstallation	princeton_trtdifferential loss correction	single-endedforward channel	channel 2reverse channel	N/Adate	2019/09/14time	23:07:35forward acquisition time	60.00reverse acquisition time	0.00gamma	496.2192k internal	0.2324k external	0.2324temperature offset calibration	1.0056default loss term (dB/km)	0.3790temperature slope calibration	1.0000multiplexer offset coefficient	1.0000multiplexer slope coefficient	1.0000fibre end	0.00T internal ref (°C)	32.44T ext. ref 1 (°C)	4.68T ext. ref 2 (°C)	27.40length (m)	temperature (°C)	Stokes	anti-Stokes-747.200	-26.632	-0.108	0.064
-746.185	800.000	-0.129	0.473
-745.171	7.977	0.189	-0.143
-744.156	-79.544	0.291	0.099
-743.142	-147.719	0.093	-0.008
-742.127	-200.000	0.035	0.309
-741.112	225.163	-0.171	-0.280
-740.098	-200.000	0.018	-0.152
-739.083	-23.165	0.218	0.132
-738.069	153.370	-0.254	0.351
-737.054	-104.176	0.209	-0.049
-736.039	-109.991	-0.125	0.026
-735.025	-200.000	0.027	0.324
-734.010	-200.000	0.073	-0.398
-732.996	-136.584	-0.372	-0.043
-731.981	48.623	-0.292	-0.277
-730.966	-123.833	0.347	0.055
-729.952	-154.471	-0.213	0.014
-728.937	-64.911	-0.282	-0.115
-727.923	-200.000	0.049	-0.247
-726.908	52.515	-0.144	0.139
-725.894	62.821	-0.071	-0.071
-724.879	-17.884	-0.173	-0.109
-723.864	292.891	0.019	0.034
-722.850	267.115	0.117	0.207
-721.835	-78.894	-0.256	0.088
-720.821	432.110	-0.105	-0.230
-719.806	-88.442	-0.182	-0.055
-718.791	800.000	-0.099	-0.390
-717.777	319.932	-0.183	-0.351
-716.762	-14.918	0.114	-0.073
-715.748	782.294	-0.109	0.300
-714.733	32.979	0.178	0.156
-713.718	127.133	0.287	0.367
-712.704	473.780	0.017	-0.038
-711.689	556.124	0.118	-0.288
-710.675	-145.421	0.138	-0.012
-709.660	-135.293	-0.347	0.042
-708.645	-29.842	-0.233	0.134
-707.631	18.928	-0.062	0.050
-706.616	-79.943	0.427	-0.145
-705.602	544.266	-0.090	-0.216
-704.587	-25.238	-0.371	-0.221
-703.572	1.713	-0.275	0.200
-702.558	-90.120	0.017	-0.005
-701.543	137.719	0.093	0.123
-700.529	552.431	0.073	0.176
-699.514	-24.253	0.359	0.216
-698.499	20.064	-0.275	0.224
-697.485	-86.573	-0.209	-0.065
-696.470	-37.273	0.241	-0.130
-695.456	790.555	-0.048	0.132
-694.441	-200.000	-0.020	0.618
-693.426	79.065	-0.184	-0.199
-692.412	509.763	0.052	-0.123
-691.397	156.286	0.044	-0.061
-690.383	7.302	-0.248	-0.187
-689.368	-200.000	-0.024	0.198
-688.354	5.593	0.029	0.022
-687.339	-28.997	-0.612	0.354
-686.324	-200.000	0.034	0.166
-685.310	-147.363	0.228	0.019
-684.295	-195.884	0.129	-0.001
-683.281	-112.482	-0.329	0.066
-682.266	-20.625	0.066	-0.041
-681.251	150.882	0.085	-0.116
-680.237	449.439	0.124	-0.276
-679.222	-200.000	0.031	0.148
-678.208	-5.021	-0.142	0.098
-677.193	-60.327	0.099	0.042
-676.178	800.000	0.032	0.126
-675.164	-77.761	-0.058	0.020
-674.149	-200.000	0.045	0.363
-673.135	-110.971	-0.418	0.087
-672.120	445.516	-0.119	0.263
-671.105	-154.595	-0.184	0.012
-670.091	-139.491	-0.331	-0.036
-669.076	-103.343	0.157	-0.037
-668.062	105.099	-0.225	0.268
-667.047	-57.703	0.046	-0.020
-666.032	209.421	0.167	0.263
-665.018	-200.000	-0.007	-0.127
-664.003	-46.225	-0.292	0.145
-662.989	-21.386	-0.276	0.169
-661.974	-48.978	-0.293	-0.141
-660.959	-166.654	-0.185	0.008
-659.945	-50.863	-0.157	-0.074
-658.930	231.957	-0.189	-0.312
-657.916	-78.854	-0.264	-0.091
-656.901	93.283	0.144	-0.164
-655.886	538.339	0.062	0.148
-654.872	451.565	-0.116	-0.259
-653.857	-24.786	-0.252	-0.150
-652.843	-42.922	0.163	0.083
-651.828	328.809	0.129	0.250
-650.814	-113.404	0.108	0.021
-649.799	-142.126	0.280	-0.028
-648.784	635.524	-0.041	-0.104
-647.770	18.622	-0.189	-0.152
-646.755	-200.000	-0.022	-0.215
-645.741	800.000	-0.031	-0.103
-644.726	380.231	0.083	0.172
-643.711	5.822	-0.239	0.178
-642.697	49.314	-0.160	-0.151
-641.682	-200.000	-0.027	0.161
-640.668	368.178	0.145	0.295
-639.653	-200.000	0.071	0.356
-638.638	-30.629	-0.301	-0.171
-637.624	800.000	0.077	-0.257
-636.609	287.953	0.099	0.181
-635.595	-185.418	-0.200	0.003
-634.580	-200.000	-0.039	-0.315
-633.565	508.602	0.023	-0.054
-632.551	81.646	-0.145	-0.157
-631.536	800.000	0.170	-0.516
-630.522	-147.865	0.330	-0.028
-629.507	-200.000	0.018	-0.346
-628.492	418.344	-0.117	0.252
-627.478	-81.417	0.068	0.023
-626.463	-183.702	-0.287	0.005
-625.449	-168.296	-0.275	0.011
-624.434	162.870	0.267	0.377
-623.419	-55.479	-0.291	0.131
-622.405	2.294	0.128	0.093
-621.390	115.344	0.053	-0.065
-620.376	-6.146	-0.155	0.106
-619.361	-49.981	-0.293	0.140
-618.346	800.000	0.098	-0.369
-617.332	285.791	-0.123	-0.224
-616.317	-47.719	-0.258	-0.126
-615.303	-200.000	-0.025	0.169
-614.288	18.925	0.253	0.204
-613.273	-93.841	-0.331	-0.091
-612.259	181.066	-0.111	0.164
-611.244	446.728	-0.118	0.262
-610.230	-187.752	0.306	0.004
-609.215	-8.519	0.381	-0.257
-608.201	-78.840	-0.193	-0.066
-607.186	187.761	0.168	-0.251
-606.171	25.409	-0.097	0.081
-605.157	800.000	-0.055	-0.204
-604.142	-200.000	-0.017	-0.078
-603.128	173.263	-0.127	-0.185
-602.113	1.007	-0.091	0.065
-601.098	800.000	0.033	-0.112
-600.084	-200.000	-0.043	-0.328
-599.069	-20.019	0.524	-0.325
-598.055	-63.346	-0.313	0.129
-597.040	-126.015	0.098	-0.015
-596.025	-7.981	-0.209	-0.142
-595.011	195.035	-0.081	-0.123
-593.996	107.343	-0.141	-0.168
-592.982	-147.615	-0.189	0.016
-591.967	82.319	0.172	-0.187
-590.952	-200.000	0.043	0.264
-589.938	-43.776	0.323	0.163
-588.923	-153.215	0.264	0.019
-587.909	-62.117	0.444	-0.186
-586.894	-33.078	-0.286	-0.159
-585.879	-98.661	0.176	0.045
-584.865	70.498	0.090	-0.093
-583.850	-200.000	0.014	0.231
-582.836	-200.000	-0.021	0.119
-581.821	65.869	0.117	0.119
-580.806	-29.902	0.149	-0.085
-579.792	-58.881	0.170	-0.074
-578.777	191.995	-0.237	-0.359
-577.763	161.777	-0.091	0.127
-576.748	-78.054	-0.204	0.070
-575.733	-200.000	-0.027	0.364
-574.719	77.506	0.254	-0.271
-573.704	800.000	-0.068	-0.196
-572.690	506.989	0.103	0.239
-571.675	-22.146	-0.038	0.023
-570.661	-200.000	0.029	0.263
-569.646	-22.931	0.461	-0.279
-568.631	-200.000	-0.002	-0.144
-567.617	-93.556	-0.340	-0.094
-566.602	-82.857	-0.172	0.056
-565.588	-101.059	0.052	0.013
-564.573	-116.041	-0.357	-0.067
-563.558	-82.757	0.142	0.046
-562.544	-124.427	-0.033	-0.005
-561.529	-154.723	-0.423	-0.028
-560.515	-157.885	-0.388	-0.023
-559.500	800.000	0.011	-0.043
-558.485	611.123	-0.143	0.359
-557.471	-200.000	-0.088	0.458
-556.456	800.000	-0.060	0.263
-555.442	-200.000	0.021	0.399
-554.427	734.949	0.073	0.195
-553.412	76.120	0.174	-0.185
-552.398	-200.000	-0.018	-0.116
-551.383	-56.977	0.555	0.245
-550.369	-97.178	0.412	-0.108
-549.354	-200.000	-0.063	-0.332
-548.339	-14.088	-0.139	0.090
-547.325	384.023	-0.073	-0.151
-546.310	800.000	0.079	0.332
-545.296	92.845	-0.119	0.135
-544.281	-109.401	0.119	0.025
-543.266	117.925	0.021	-0.026
-542.252	51.276	0.276	-0.262
-541.237	-200.000	-0.004	0.448
-540.223	-200.000	0.007	0.125
-539.208	-170.613	0.110	-0.004
-538.193	-23.642	0.250	0.150
-537.179	-20.485	0.119	-0.073
-536.164	1.204	-0.173	0.124
-535.150	-200.000	0.030	0.265
-534.135	-104.394	-0.130	-0.030
-533.121	444.911	-0.169	0.372
-532.106	-152.331	0.448	-0.032
-531.091	-47.601	0.087	0.042
-530.077	266.934	0.091	0.160
-529.062	46.016	0.196	-0.182
-528.048	-200.000	0.051	0.254
-527.033	800.000	-0.033	-0.112
-526.018	800.000	0.011	0.040
-525.004	35.944	0.146	0.129
-523.989	-15.766	-0.106	0.068
-522.975	187.195	0.133	-0.198
-521.960	-107.490	0.335	-0.073
-520.945	-200.000	0.022	-0.466
-519.931	800.000	-0.068	-0.228
-518.916	-200.000	0.003	-0.024
-517.902	-71.606	-0.188	-0.070
-516.887	-163.005	0.030	-0.001
-515.872	-68.373	-0.374	0.145
-514.858	110.070	0.081	0.097
-513.843	-61.359	-0.124	-0.052
-512.829	644.332	0.079	0.201
-511.814	180.786	0.051	-0.076
-510.799	167.533	-0.133	-0.189
-509.785	-74.672	-0.067	0.024
-508.770	343.126	-0.120	-0.236
-507.756	54.906	0.199	0.192
-506.741	-48.738	-0.421	0.202
-505.726	-111.010	-0.276	0.057
-504.712	491.515	-0.073	-0.166
-503.697	-109.065	0.047	0.010
-502.683	-24.775	0.147	-0.087
-501.668	342.681	0.119	-0.233
-500.653	285.590	-0.158	0.286
-499.639	-38.872	0.214	0.113
-498.624	800.000	0.154	0.469
-497.610	-85.517	-0.123	-0.038
-496.595	800.000	0.078	-0.234
-495.581	-200.000	0.025	-0.131
-494.566	-78.810	-0.092	0.031
-493.551	66.324	0.063	-0.064
-492.537	-41.399	0.080	-0.041
-491.522	-63.004	-0.302	0.125
-490.508	-200.000	-0.027	-0.153
-489.493	128.022	-0.124	0.158
-488.478	193.130	0.136	0.205
-487.464	800.000	0.072	-0.224
-486.449	-21.023	-0.112	-0.069
-485.435	-200.000	-0.007	0.105
-484.420	373.903	-0.129	0.262
-483.405	-23.719	0.050	0.030
-482.391	13.514	-0.168	0.130
-481.376	84.265	-0.106	-0.115
-480.362	-83.512	-0.392	0.125
-479.347	5.262	-0.185	-0.136
-478.332	800.000	-0.061	-0.205
-477.318	-139.954	-0.249	-0.026
-476.303	476.484	-0.094	-0.213
-475.289	-37.884	-0.185	-0.099
-474.274	800.000	0.053	-0.229
-473.259	33.305	-0.285	-0.247
-472.245	-165.209	-0.276	0.012
-471.230	-49.769	0.053	-0.025
-470.216	-54.762	-0.293	-0.132
-469.201	-200.000	-0.034	0.220
-468.186	-114.576	0.319	0.061
-467.172	70.181	-0.164	-0.169
-466.157	178.298	-0.190	0.277
-465.143	800.000	0.068	-0.199
-464.128	-86.709	0.159	-0.049
-463.113	-107.872	-0.186	-0.040
-462.099	800.000	-0.007	0.026
-461.084	80.162	0.183	-0.197
-460.070	-171.742	0.123	0.004
-459.055	248.891	0.032	-0.054
-458.040	-50.349	-0.062	-0.029
-457.026	-42.643	0.498	0.253
-456.011	141.115	0.108	-0.143
-454.997	800.000	-0.051	0.186
-453.982	800.000	-0.031	0.122
-452.968	67.543	0.101	0.103
-451.953	800.000	-0.063	0.189
-450.938	202.401	-0.121	-0.186
-449.924	514.938	0.092	0.215
-448.909	-200.000	-0.004	-0.032
-447.895	-200.000	0.004	-0.249
-446.880	800.000	-0.036	0.107
-445.865	-59.925	0.172	0.073
-444.851	261.823	-0.058	0.100
-443.836	146.893	-0.054	-0.072
-442.822	800.000	0.047	0.132
-441.807	-29.199	-0.019	-0.011
-440.792	-200.000	-0.001	0.152
-439.778	596.850	-0.040	0.098
-438.763	-141.905	0.207	-0.021
-437.749	-200.000	-0.000	0.107
-436.734	-58.251	-0.071	-0.031
-435.719	800.000	-0.061	-0.196
-434.705	-24.286	0.119	-0.071
-433.690	140.676	-0.091	-0.120
-432.676	19.957	0.160	-0.129
-431.661	-33.610	-0.261	-0.144
-430.646	315.314	-0.066	0.124
-429.632	262.960	-0.118	0.204
-428.617	-8.741	0.140	-0.093
-427.603	90.935	0.141	0.158
-426.588	503.533	0.096	-0.222
-425.573	-88.162	0.112	-0.033
-424.559	109.951	-0.030	0.036
-423.544	-200.000	0.042	0.251
-422.530	-33.035	0.033	-0.018
-421.515	800.000	0.138	-0.454
-420.500	-200.000	-0.031	-0.404
-419.486	-87.656	-0.212	0.064
-418.471	305.247	-0.066	-0.122
-417.457	-200.000	0.018	0.187
-416.442	-200.000	0.028	-0.178
-415.428	331.357	0.131	0.252
-414.413	800.000	-0.036	-0.105
-413.398	-32.715	0.182	-0.101
-412.384	-126.383	-0.325	-0.048
-411.369	65.439	0.166	0.167
-410.355	-200.000	-0.007	0.182
-409.340	645.078	0.122	-0.309
-408.325	226.119	-0.045	0.073
-407.311	51.405	0.300	0.284
-406.296	-105.213	-0.184	0.042
-405.282	-160.549	-0.250	-0.013
-404.267	1.889	-0.338	0.243
-403.252	800.000	-0.050	0.167
-402.238	-102.849	0.316	-0.075
-401.223	-1.675	-0.137	-0.096
-400.209	-200.000	-0.023	0.133
-399.194	-12.139	0.213	-0.139
-398.179	-200.000	0.004	0.120
-397.165	-200.000	-0.021	-0.105
-396.150	-115.722	0.227	-0.042
-395.136	-174.385	-0.063	0.002
-394.121	67.710	0.102	0.104
-393.106	800.000	0.122	0.491
-392.092	37.862	-0.220	0.195
-391.077	35.076	0.096	0.084
-390.063	-48.142	-0.054	-0.026
-389.048	800.000	0.101	-0.416
-388.033	-200.000	0.006	0.154
-387.019	800.000	-0.100	-0.344
-386.004	800.000	-0.062	-0.172
-384.990	-95.900	0.342	0.091
-383.975	-69.977	-0.259	-0.098
-382.960	261.737	0.174	-0.300
-381.946	-200.000	-0.044	-0.228
-380.931	-41.567	-0.126	0.065
-379.917	-35.839	0.286	0.154
-378.902	-200.000	-0.050	0.381
-377.888	-87.306	0.254	0.077
-376.873	318.638	0.067	-0.126
-375.858	-64.232	0.284	-0.115
-374.844	-15.728	-0.190	0.121
-373.829	-95.135	0.535	0.144
-372.815	-84.306	0.187	0.059
-371.800	800.000	-0.068	-0.247
-370.785	86.797	0.103	-0.113
-369.771	-67.342	0.289	0.113
-368.756	626.645	0.084	0.211
-367.742	-55.036	0.125	-0.056
-366.727	152.869	-0.147	0.199
-365.712	800.000	0.086	0.252
-364.698	170.519	0.152	-0.217
-363.683	-71.697	-0.185	0.069
-362.669	-117.692	0.180	-0.032
-361.654	217.517	-0.038	0.060
-360.639	-200.000	-0.008	-0.139
-359.625	-44.549	-0.135	-0.067
-358.610	800.000	-0.050	0.186
-357.596	-157.638	-0.157	0.009
-356.581	20.473	-0.064	-0.051
-355.566	9.909	0.217	0.163
-354.552	-146.346	0.047	-0.004
-353.537	-3.978	-0.234	0.162
-352.523	150.059	-0.173	-0.233
-351.508	-46.621	0.129	-0.063
-350.493	-162.653	-0.210	0.010
-349.479	-200.000	0.000	-0.068
-348.464	-133.892	-0.119	-0.015
-347.450	-24.224	0.277	0.164
-346.435	725.648	-0.149	0.394
-345.420	-55.734	-0.174	-0.077
-344.406	-61.496	0.142	-0.059
-343.391	-200.000	0.012	0.111
-342.377	18.741	-0.109	-0.087
-341.362	592.246	0.084	-0.205
-340.348	-51.943	0.157	-0.072
-339.333	-28.128	-0.215	0.123
-338.318	800.000	0.060	0.204
-337.304	-200.000	0.052	0.267
-336.289	-111.247	0.181	0.037
-335.275	416.566	0.090	0.190
-334.260	6.265	0.428	-0.315
-333.245	-119.155	0.092	-0.016
-332.231	-71.423	0.132	-0.049
-331.216	-85.070	0.183	-0.057
-330.202	-200.000	0.049	-0.232
-329.187	-130.045	0.243	-0.033
-328.172	69.631	0.136	0.139
-327.158	230.366	-0.062	0.101
-326.143	76.187	-0.016	-0.017
-325.129	420.298	-0.148	-0.315
-324.114	800.000	0.095	-0.354
-323.099	-200.000	-0.026	-0.299
-322.085	-86.806	0.156	0.047
-321.070	-111.829	0.392	-0.079
-320.056	-99.814	0.109	-0.027
-319.041	-120.217	-0.133	-0.023
-318.026	12.887	-0.265	-0.204
-317.012	88.880	-0.043	0.047
-315.997	-50.370	-0.234	-0.110
-314.983	424.790	0.121	0.259
-313.968	-128.300	0.208	0.029
-312.953	-16.987	0.164	-0.103
-311.939	111.501	0.179	0.214
-310.924	-34.188	0.155	-0.085
-309.910	-58.677	-0.296	0.127
-308.895	717.754	-0.156	-0.412
-307.880	-59.669	-0.141	-0.060
-306.866	-189.797	0.063	0.001
-305.851	800.000	-0.080	-0.247
-304.837	-164.868	0.157	-0.007
-303.822	202.725	0.026	0.039
-302.807	118.082	0.155	-0.189
-301.793	-200.000	-0.014	-0.412
-300.778	192.461	0.339	-0.508
-299.764	-200.000	0.010	0.192
-298.749	71.964	0.056	0.058
-297.735	-110.123	-0.144	-0.030
-296.720	-53.773	0.265	0.120
-295.705	800.000	-0.064	-0.182
-294.691	-200.000	0.067	0.360
-293.676	-61.762	-0.292	-0.121
-292.662	62.657	-0.173	0.172
-291.647	800.000	0.128	0.385
-290.632	-75.433	-0.218	-0.077
-289.618	-57.528	-0.167	-0.073
-288.603	81.739	-0.095	0.102
-287.589	184.369	-0.076	0.111
-286.574	800.000	0.061	-0.195
-285.559	-62.167	-0.267	-0.110
-284.545	-6.929	0.190	0.128
-283.530	-191.916	-0.181	-0.002
-282.516	-107.653	-0.127	0.028
-281.501	-131.806	-0.225	-0.029
-280.486	-200.000	-0.003	0.279
-279.472	23.917	-0.099	0.081
-278.457	-117.640	-0.118	0.021
-277.443	461.330	0.093	-0.206
-276.428	-101.548	-0.122	-0.029
-275.413	-13.948	-0.032	-0.021
-274.399	109.884	0.093	-0.111
-273.384	-93.411	-0.089	0.025
-272.370	14.214	0.052	0.040
-271.355	800.000	-0.034	-0.100
-270.340	88.428	-0.069	-0.076
-269.326	-200.000	0.026	-0.199
-268.311	57.287	-0.311	0.301
-267.297	366.862	0.136	0.272
-266.282	-102.381	-0.299	-0.071
-265.267	133.846	-0.140	0.180
-264.253	87.463	-0.119	0.130
-263.238	-200.000	-0.000	0.025
-262.224	-130.412	-0.226	-0.030
-261.209	-200.000	0.270	-0.000
-260.195	175.730	0.086	0.124
-259.180	36.250	0.233	0.204
-258.165	-200.000	-0.068	-0.406
-257.151	32.764	0.307	-0.263
-256.136	12.824	-0.274	-0.210
-255.122	-111.938	-0.268	-0.054
-254.107	-60.705	0.236	0.099
-253.092	-200.000	-0.007	-0.058
-252.078	-200.000	-0.091	-0.433
-251.063	800.000	0.081	0.264
-250.049	228.629	-0.133	-0.215
-249.034	144.836	-0.192	-0.254
-248.019	-200.000	0.015	-0.078
-247.005	461.561	0.021	-0.046
-245.990	-126.707	0.152	-0.022
-244.976	56.245	0.208	0.200
-243.961	-200.000	0.034	0.155
-242.946	43.678	0.132	0.119
-241.932	98.152	-0.051	0.058
-240.917	-76.327	-0.091	-0.032
-239.903	158.705	-0.173	-0.238
-238.888	800.000	-0.082	0.237
-237.873	169.077	0.214	0.302
-236.859	165.110	0.136	0.190
-235.844	47.452	0.252	0.233
-234.830	-200.000	0.060	-0.277
-233.815	-4.444	0.290	-0.199
-232.800	220.264	0.091	-0.144
-231.786	23.491	-0.287	-0.233
-230.771	800.000	-0.076	-0.285
-229.757	25.298	0.034	-0.028
-228.742	800.000	-0.118	-0.366
-227.727	800.000	0.034	0.105
-226.713	-130.065	0.136	0.018
-225.698	800.000	-0.043	-0.153
-224.684	800.000	-0.044	0.154
-223.669	85.215	0.030	0.032
-222.655	800.000	0.061	-0.173
-221.640	-200.000	-0.004	0.107
-220.625	409.773	0.049	-0.102
-219.611	17.616	0.255	0.201
-218.596	-67.571	0.331	-0.128
-217.582	-152.668	-0.358	-0.025
-216.567	-200.000	-0.016	-0.239
-215.552	-48.669	-0.337	0.160
-214.538	-42.592	-0.374	-0.189
-213.523	75.990	-0.283	-0.296
-212.509	-1.282	-0.233	-0.163
-211.494	-38.539	0.294	-0.154
-210.479	-25.137	0.084	0.049
-209.465	800.000	0.026	0.083
-208.450	231.378	0.074	0.120
-207.436	-10.671	0.121	0.079
-206.421	-106.666	0.161	0.035
-205.406	71.469	-0.103	0.106
-204.392	141.074	0.080	-0.105
-203.377	-13.101	0.369	0.237
-202.363	-77.135	-0.311	0.107
-201.348	-100.723	0.534	0.130
-200.333	-73.848	0.297	0.107
-199.319	-200.000	0.033	-0.278
-198.304	-55.810	0.116	-0.051
-197.290	-152.297	-0.172	0.012
-196.275	139.157	-0.072	0.093
-195.260	-200.000	0.010	-0.063
-194.246	-73.932	0.056	-0.020
-193.231	-134.283	0.343	-0.042
-192.217	324.403	-0.066	0.125
-191.202	-101.719	-0.161	-0.039
-190.187	800.000	-0.065	0.216
-189.173	-200.000	0.011	0.315
-188.158	-12.308	0.278	0.180
-187.144	-76.351	-0.065	0.023
-186.129	-7.945	0.149	0.099
-185.114	324.277	0.077	0.146
-184.100	129.480	-0.127	0.160
-183.085	-1.148	0.184	0.128
-182.071	-200.000	-0.035	0.193
-181.056	-153.432	-0.321	-0.022
-180.042	-200.000	0.012	0.332
-179.027	265.452	-0.035	-0.060
-178.012	-200.000	0.025	0.155
-176.998	-200.000	-0.015	0.156
-175.983	-200.000	-0.000	0.071
-174.969	-119.373	-0.228	0.039
-173.954	-77.243	-0.318	0.109
-172.939	48.280	-0.140	0.129
-171.925	-200.000	0.016	-0.116
-170.910	207.855	-0.053	-0.082
-169.896	-36.459	-0.381	-0.203
-168.881	-200.000	-0.034	0.307
-167.866	-57.242	-0.195	-0.085
-166.852	-31.298	0.183	-0.102
-165.837	800.000	-0.025	-0.089
-164.823	-101.808	0.259	0.062
-163.808	696.887	-0.136	-0.354
-162.793	87.679	-0.174	0.190
-161.779	-2.609	0.103	0.071
-160.764	-200.000	0.026	0.145
-159.750	800.000	-0.069	0.195
-158.735	-200.000	-0.067	0.364
-157.720	-200.000	0.009	-0.129
-156.706	-200.000	0.009	0.126
-155.691	56.571	-0.202	-0.194
-154.677	-5.035	-0.234	0.159
-153.662	-200.000	0.009	0.224
-152.647	23.258	-0.180	-0.146
-151.633	773.875	-0.076	-0.206
-150.618	-149.559	-0.196	-0.015
-149.604	30.038	0.171	-0.144
-148.589	-200.000	-0.029	0.274
-147.574	800.000	-0.078	-0.227
-146.560	-107.029	-0.244	-0.053
-145.545	109.215	0.044	-0.052
-144.531	-2.476	0.057	0.040
-143.516	-84.008	0.043	0.013
-142.502	-26.879	0.150	-0.086
-141.487	-4.704	-0.103	-0.070
-140.472	-200.000	-0.003	-0.108
-139.458	-200.000	0.036	-0.177
-138.443	-160.478	0.222	-0.012
-137.429	-73.005	0.242	-0.088
-136.414	212.155	-0.255	0.396
-135.399	-200.000	0.030	-0.371
-134.385	-18.441	-0.271	0.167
-133.370	151.479	-0.070	-0.094
-132.356	149.863	-0.087	0.116
-131.341	-93.297	0.207	0.057
-130.326	225.891	-0.077	-0.124
-129.312	355.065	0.114	-0.224
-128.297	-65.988	-0.111	0.044
-127.283	800.000	0.043	-0.170
-126.268	72.877	0.059	-0.061
-125.253	-200.000	0.007	-0.129
-124.239	-109.488	-0.338	0.070
-123.224	755.895	0.119	-0.316
-122.210	-197.945	-0.106	-0.001
