DTS Sentinel unit serial number:	SN413079Multiplexer serial number:	ORYXHardware model number:	OX4-SRSoftware version number:	ORYX F/W v4.00 Oryx Data Collector v3.7.2.0data status	okinstallation	princeton_trtdifferential loss correction	single-endedforward channel	channel 2reverse channel	N/Adate	2019/09/13time	12:23:35forward acquisition time	60.00reverse acquisition time	0.00gamma	496.2192k internal	0.2315k external	0.2315temperature offset calibration	1.0213default loss term (dB/km)	0.3790temperature slope calibration	1.0000multiplexer offset coefficient	1.0000multiplexer slope coefficient	1.0000fibre end	0.00T internal ref (°C)	34.19T ext. ref 1 (°C)	4.63T ext. ref 2 (°C)	31.58length (m)	temperature (°C)	Stokes	anti-Stokes-747.200	56.751	0.138	-0.136
-746.185	114.618	0.091	0.113
-745.171	73.608	0.271	-0.288
-744.156	-94.626	0.402	-0.111
-743.142	-154.826	-0.080	-0.005
-742.127	201.392	-0.138	0.215
-741.112	419.402	0.118	0.256
-740.098	-200.000	0.012	0.304
-739.083	-58.282	0.211	0.093
-738.069	800.000	0.078	0.273
-737.054	-8.540	-0.077	0.053
-736.039	56.977	-0.032	-0.031
-735.025	-71.015	0.213	0.081
-734.010	-105.260	-0.303	0.070
-732.996	-170.180	-0.469	-0.017
-731.981	800.000	-0.024	0.081
-730.966	-116.784	-0.230	0.043
-729.952	184.215	-0.047	0.070
-728.937	34.531	0.144	0.127
-727.923	-200.000	-0.006	0.344
-726.908	-200.000	-0.004	0.192
-725.894	-139.712	-0.050	-0.005
-724.879	268.516	0.038	0.067
-723.864	36.287	-0.081	0.072
-722.850	-200.000	0.071	-0.337
-721.835	-22.383	-0.232	0.142
-720.821	-65.525	-0.164	0.067
-719.806	-73.707	0.340	-0.125
-718.791	46.977	0.096	0.091
-717.777	-81.376	-0.176	-0.059
-716.762	-65.525	-0.256	0.104
-715.748	-1.755	0.162	-0.116
-714.733	77.017	0.011	-0.012
-713.718	220.314	0.096	-0.156
-712.704	-86.729	0.355	0.110
-711.689	40.176	-0.153	-0.139
-710.675	-47.405	0.163	-0.080
-709.660	68.869	-0.088	-0.091
-708.645	800.000	0.031	-0.109
-707.631	31.940	-0.091	0.079
-706.616	-200.000	-0.004	-0.198
-705.602	-125.264	-0.296	-0.046
-704.587	349.214	0.179	-0.357
-703.572	-65.300	0.110	-0.045
-702.558	-200.000	-0.010	0.096
-701.543	22.554	0.264	0.219
-700.529	-87.668	-0.102	-0.031
-699.514	-145.658	-0.249	0.022
-698.499	-29.708	0.172	0.099
-697.485	800.000	-0.094	0.284
-696.470	139.152	-0.068	0.091
-695.456	-52.463	0.166	0.078
-694.441	-85.816	-0.281	0.088
-693.426	-82.349	0.217	0.071
-692.412	-19.902	0.350	0.218
-691.397	-21.392	-0.261	0.161
-690.383	-21.710	0.410	-0.252
-689.368	-200.000	-0.070	-0.323
-688.354	-113.764	0.283	-0.056
-687.339	-200.000	-0.016	0.337
-686.324	-200.000	0.049	-0.350
-685.310	-200.000	0.036	-0.204
-684.295	800.000	0.052	0.182
-683.281	-200.000	0.003	-0.290
-682.266	-200.000	-0.044	-0.295
-681.251	-200.000	0.023	-0.417
-680.237	440.121	-0.112	-0.248
-679.222	-23.535	0.137	-0.083
-678.208	36.649	0.115	-0.103
-677.193	-63.661	-0.195	-0.081
-676.178	45.140	0.104	0.097
-675.164	-65.823	0.320	0.130
-674.149	-200.000	0.000	-0.032
-673.135	215.663	-0.158	0.253
-672.120	800.000	0.019	-0.082
-671.105	800.000	0.008	-0.030
-670.091	-200.000	0.018	-0.104
-669.076	-200.000	0.013	-0.441
-668.062	330.989	0.092	-0.180
-667.047	-138.984	-0.205	-0.022
-666.032	112.963	-0.104	0.127
-665.018	-22.178	0.099	0.060
-664.003	-178.337	0.349	0.008
-662.989	800.000	-0.146	0.478
-661.974	-104.055	-0.046	-0.011
-660.959	166.887	0.111	-0.159
-659.945	-59.758	0.015	-0.007
-658.930	-200.000	0.001	0.112
-657.916	-87.738	0.252	-0.077
-656.901	-133.970	-0.152	0.019
-655.886	92.754	-0.178	0.203
-654.872	654.604	0.150	-0.388
-653.857	96.310	-0.087	-0.100
-652.843	-84.001	0.071	-0.023
-651.828	-13.053	0.183	-0.120
-650.814	-200.000	-0.011	0.199
-649.799	170.421	0.089	0.129
-648.784	-81.606	0.280	0.093
-647.770	-14.517	-0.055	0.036
-646.755	-173.353	-0.332	0.010
-645.741	590.717	0.048	-0.118
-644.726	-114.230	-0.243	-0.047
-643.711	-200.000	-0.107	-0.569
-642.697	265.403	0.211	-0.372
-641.682	460.943	0.114	0.256
-640.668	-104.606	0.207	0.048
-639.653	201.884	-0.205	-0.319
-638.638	-113.958	0.430	0.084
-637.624	-200.000	-0.014	-0.120
-636.609	-61.850	-0.198	-0.084
-635.595	162.048	0.130	0.184
-634.580	19.538	0.306	0.248
-633.565	187.927	-0.059	0.089
-632.551	-200.000	0.025	-0.364
-631.536	-113.807	0.273	0.054
-630.522	-200.000	0.000	-0.190
-629.507	531.674	-0.055	-0.132
-628.492	-80.062	-0.114	0.039
-627.478	111.914	0.031	0.037
-626.463	-0.943	-0.259	-0.185
-625.449	-92.136	0.177	0.050
-624.434	703.763	0.044	-0.118
-623.419	355.141	0.129	0.258
-622.405	-139.459	0.261	-0.028
-621.390	11.097	0.306	0.236
-620.376	-85.975	0.159	-0.049
-619.361	-131.542	-0.281	0.037
-618.346	13.248	-0.189	0.148
-617.332	159.600	-0.139	-0.195
-616.317	800.000	0.083	-0.262
-615.303	276.347	-0.067	0.120
-614.288	342.580	-0.190	-0.376
-613.273	-25.386	-0.146	0.087
-612.259	525.343	0.090	-0.214
-611.244	-200.000	-0.019	-0.328
-610.230	187.250	0.167	-0.250
-609.215	-153.877	-0.091	-0.006
-608.201	-60.381	0.153	-0.066
-607.186	800.000	0.124	0.399
-606.171	121.415	-0.345	0.433
-605.157	800.000	0.032	-0.129
-604.142	-25.329	-0.254	-0.152
-603.128	13.610	0.075	0.059
-602.113	-10.505	-0.102	-0.068
-601.098	-200.000	-0.011	0.131
-600.084	64.961	-0.288	0.293
-599.069	120.250	-0.047	0.059
-598.055	45.415	0.045	0.042
-597.040	74.699	0.118	0.125
-596.025	-200.000	0.001	0.043
-595.011	242.566	0.190	-0.320
-593.996	23.065	0.216	0.179
-592.982	800.000	-0.045	0.157
-591.967	-55.540	-0.327	-0.148
-590.952	266.222	-0.072	-0.126
-589.938	-79.061	0.157	0.054
-588.923	800.000	-0.032	-0.096
-587.909	79.827	0.299	-0.323
-586.894	800.000	0.080	0.245
-585.879	-137.812	-0.196	-0.022
-584.865	-200.000	0.017	-0.300
-583.850	173.513	0.166	-0.241
-582.836	-43.993	0.105	0.053
-581.821	68.449	0.039	-0.040
-580.806	-200.000	0.050	-0.335
-579.792	800.000	-0.012	-0.039
-578.777	420.774	0.059	0.127
-577.763	795.346	-0.062	-0.172
-576.748	-51.798	-0.351	0.164
-575.733	72.995	-0.101	0.106
-574.719	-180.752	-0.214	0.004
-573.704	-9.334	0.231	-0.155
-572.690	-200.000	-0.003	0.158
-571.675	28.675	0.225	0.192
-570.661	216.902	-0.035	-0.056
-569.646	32.961	-0.267	-0.233
-568.631	-13.290	-0.149	-0.097
-567.617	55.053	0.083	-0.081
-566.602	-200.000	0.004	-0.064
-565.588	800.000	0.073	0.315
-564.573	388.739	0.058	0.120
-563.558	1.052	0.216	0.156
-562.544	-200.000	0.048	0.429
-561.529	-200.000	0.047	-0.351
-560.515	-80.191	-0.298	-0.100
-559.500	164.964	0.100	0.143
-558.485	-57.127	-0.278	-0.123
-557.471	208.285	-0.123	0.194
-556.456	-200.000	-0.017	0.101
-555.442	510.910	0.047	0.110
-554.427	-123.085	0.189	-0.030
-553.412	272.190	-0.148	-0.263
-552.398	-180.272	-0.180	0.004
-551.383	81.591	-0.157	0.171
-550.369	-3.176	0.128	0.090
-549.354	35.756	-0.161	-0.142
-548.339	-62.290	0.228	-0.096
-547.325	194.594	-0.121	-0.184
-546.310	-200.000	0.048	0.395
-545.296	800.000	0.142	-0.411
-544.281	-101.857	0.081	0.020
-543.266	7.655	-0.184	-0.138
-542.252	800.000	-0.106	-0.303
-541.237	-21.065	-0.080	0.049
-540.223	800.000	0.023	-0.071
-539.208	274.464	0.156	-0.278
-538.193	-119.148	0.026	-0.005
-537.179	222.588	-0.178	0.288
-536.164	-82.240	-0.062	-0.020
-535.150	800.000	0.112	0.345
-534.135	-200.000	0.017	-0.297
-533.121	5.591	0.313	0.232
-532.106	-11.961	0.108	0.071
-531.091	-117.939	0.186	0.033
-530.077	179.735	0.203	-0.299
-529.062	-86.490	-0.135	-0.042
-528.048	23.230	-0.146	0.121
-527.033	41.480	0.037	0.033
-526.018	-114.161	-0.191	0.037
-525.004	113.858	0.258	-0.315
-523.989	-200.000	-0.038	0.364
-522.975	249.531	0.095	-0.162
-521.960	-144.026	-0.281	0.026
-520.945	-10.018	0.057	-0.038
-519.931	-9.313	-0.119	0.080
-518.916	-76.057	-0.095	0.034
-517.902	139.948	0.125	-0.165
-516.887	-55.910	0.292	-0.131
-515.872	435.349	-0.071	0.155
-514.858	765.839	0.102	0.278
-513.843	-77.453	0.030	0.011
-512.829	-200.000	-0.024	0.273
-511.814	800.000	-0.071	-0.264
-510.799	396.463	-0.154	-0.323
-509.785	-77.330	0.217	0.076
-508.770	136.647	0.085	-0.112
-507.756	-76.800	-0.108	-0.038
-506.741	-200.000	-0.020	0.154
-505.726	-5.262	0.061	0.042
-504.712	-200.000	-0.018	0.092
-503.697	123.148	-0.171	-0.216
-502.683	-74.603	-0.484	0.175
-501.668	-88.295	0.191	0.057
-500.653	800.000	0.054	0.199
-499.639	-104.972	0.225	0.052
-498.624	-200.000	0.041	-0.305
-497.610	224.624	0.069	-0.112
-496.595	-80.402	0.272	0.091
-495.581	-165.936	0.094	-0.004
-494.566	28.769	0.028	0.024
-493.551	-22.851	0.208	0.126
-492.537	800.000	-0.071	-0.301
-491.522	98.161	0.026	-0.030
-490.508	541.600	-0.091	0.218
-489.493	-98.144	-0.069	0.018
-488.478	-180.714	-0.292	-0.006
-487.464	-200.000	-0.021	-0.201
-486.449	-164.131	-0.043	0.002
-485.435	-104.408	0.123	-0.029
-484.420	800.000	0.025	-0.090
-483.405	-90.419	-0.286	-0.083
-482.391	26.199	0.149	-0.125
-481.376	-17.188	0.136	-0.086
-480.362	118.768	-0.106	0.132
-479.347	800.000	-0.029	-0.121
-478.332	-94.921	0.183	0.050
-477.318	-86.634	0.236	0.073
-476.303	-200.000	-0.012	-0.060
-475.289	69.992	-0.195	-0.202
-474.274	800.000	0.024	0.073
-473.259	-68.546	0.050	-0.020
-472.245	-74.825	-0.226	0.081
-471.230	-200.000	0.034	0.241
-470.216	-116.023	0.155	0.029
-469.201	127.351	0.148	-0.189
-468.186	800.000	-0.070	-0.236
-467.172	353.121	0.224	0.446
-466.157	800.000	0.100	0.308
-465.143	45.031	-0.093	0.086
-464.128	-89.164	0.295	0.087
-463.113	497.105	-0.103	-0.238
-462.099	-63.366	-0.265	-0.110
-461.084	126.418	0.076	0.096
-460.070	229.471	0.214	0.350
-459.055	-177.867	0.082	-0.002
-458.040	-200.000	-0.027	-0.473
-457.026	-105.480	-0.106	-0.024
-456.011	-200.000	0.035	-0.180
-454.997	-55.672	0.130	-0.058
-453.982	-24.402	0.273	0.163
-452.968	-200.000	0.005	-0.182
-451.953	-72.053	-0.236	0.088
-450.938	-8.003	-0.082	0.056
-449.924	233.118	0.204	-0.336
-448.909	129.103	0.110	-0.141
-447.895	3.557	0.022	0.016
-446.880	736.132	0.073	-0.197
-445.865	101.700	-0.357	-0.418
-444.851	-81.734	0.170	0.056
-443.836	244.665	0.120	-0.201
-442.822	-24.768	-0.244	-0.145
-441.807	652.884	-0.049	0.125
-440.792	-200.000	-0.023	0.139
-439.778	28.801	0.198	-0.168
-438.763	181.472	-0.066	-0.097
-437.749	-200.000	-0.001	-0.181
-436.734	-38.361	0.076	0.040
-435.719	-0.807	0.039	-0.027
-434.705	-200.000	-0.341	-0.002
-433.690	62.849	-0.103	-0.103
-432.676	-50.209	0.251	-0.119
-431.661	651.097	-0.146	0.374
-430.646	-168.469	-0.137	-0.005
-429.632	800.000	0.106	-0.321
-428.617	750.973	-0.031	0.083
-427.603	800.000	-0.032	0.102
-426.588	-200.000	-0.011	0.093
-425.573	-200.000	0.015	0.141
-424.559	800.000	0.034	-0.107
-423.544	72.869	0.074	-0.077
-422.530	631.610	0.052	0.131
-421.515	8.009	-0.241	0.181
-420.500	-200.000	0.026	0.259
-419.486	-200.000	0.002	-0.023
-418.471	-6.831	-0.137	0.093
-417.457	-200.000	-0.036	0.267
-416.442	-108.867	-0.161	-0.034
-415.428	800.000	-0.062	-0.206
-414.413	-106.642	-0.340	0.076
-413.398	218.890	0.114	0.182
-412.384	277.837	-0.162	0.288
-411.369	28.949	0.070	-0.059
-410.355	47.744	0.219	0.205
-409.340	-92.980	0.219	-0.061
-408.325	129.485	-0.229	-0.292
-407.311	-200.000	-0.047	0.226
-406.296	-5.670	-0.139	-0.095
-405.282	-55.783	-0.019	0.009
-404.267	-81.840	-0.277	0.091
-403.252	58.668	-0.012	0.012
-402.238	-200.000	0.052	0.261
-401.223	127.491	0.110	0.139
-400.209	800.000	-0.056	-0.207
-399.194	-63.559	0.143	0.059
-398.179	-82.829	-0.181	0.058
-397.165	123.157	0.173	-0.217
-396.150	-196.910	0.264	0.002
-395.136	800.000	0.051	-0.209
-394.121	-111.895	0.208	-0.042
-393.106	-200.000	-0.000	-0.167
-392.092	9.548	-0.182	0.138
-391.077	172.048	-0.187	0.269
-390.063	-40.071	-0.329	-0.171
-389.048	-32.460	0.215	0.120
-388.033	438.960	0.041	0.090
-387.019	800.000	-0.062	0.217
-386.004	-200.000	-0.028	-0.285
-384.990	1.839	-0.203	-0.146
-383.975	23.079	-0.073	-0.060
-382.960	-94.097	-0.034	0.009
-381.946	120.459	-0.071	-0.088
-380.931	-53.630	0.260	0.119
-379.917	-87.559	-0.043	-0.013
-378.902	-37.438	-0.258	0.138
-377.888	-48.700	0.041	0.020
-376.873	491.180	0.107	-0.245
-375.858	-8.142	-0.273	-0.184
-374.844	-36.726	0.175	0.094
-373.829	800.000	-0.063	-0.227
-372.815	106.063	-0.186	0.220
-371.800	-200.000	0.441	0.002
-370.785	72.128	0.221	-0.230
-369.771	-72.396	0.252	0.093
-368.756	8.718	0.312	0.235
-367.742	-200.000	0.013	0.305
-366.727	-104.061	0.250	-0.058
-365.712	-200.000	-0.013	-0.064
-364.698	124.292	-0.184	-0.231
-363.683	-118.791	0.176	-0.031
-362.669	103.474	0.060	0.071
-361.654	-118.015	0.151	-0.027
-360.639	-29.095	-0.388	0.222
-359.625	162.227	0.104	-0.145
-358.610	-0.900	0.220	-0.156
-357.596	84.277	0.131	-0.143
-356.581	-200.000	-0.005	-0.102
-355.566	55.891	0.229	-0.221
-354.552	-56.668	-0.104	-0.046
-353.537	82.130	0.130	0.141
-352.523	800.000	0.081	0.271
-351.508	-169.960	-0.194	0.007
-350.493	800.000	-0.105	0.442
-349.479	526.573	0.040	0.093
-348.464	168.872	0.047	-0.067
-347.450	11.956	0.199	0.153
-346.435	-115.729	-0.168	-0.031
-345.420	-200.000	0.034	-0.236
-344.406	-140.511	-0.309	-0.032
-343.391	-200.000	-0.008	-0.094
-342.377	-200.000	0.092	0.405
-341.362	800.000	-0.072	-0.234
-340.348	-100.314	0.082	-0.020
-339.333	-82.844	0.074	0.024
-338.318	-76.216	0.255	-0.090
-337.304	64.439	0.033	0.033
-336.289	51.408	-0.154	0.146
-335.275	-78.766	-0.265	0.090
-334.260	-29.756	0.242	-0.138
-333.245	-79.579	-0.378	0.127
-332.231	-200.000	-0.021	0.114
-331.216	68.615	0.224	-0.229
-330.202	-200.000	-0.032	-0.145
-329.187	800.000	0.104	0.301
-328.172	500.552	-0.039	-0.089
-327.158	800.000	-0.056	0.189
-326.143	198.809	-0.060	-0.091
-325.129	-44.794	-0.255	0.127
-324.114	800.000	-0.034	0.135
-323.099	-129.616	-0.144	-0.020
-322.085	-200.000	-0.020	0.185
-321.070	-62.434	-0.071	-0.029
-320.056	187.523	0.170	0.253
-319.041	-87.742	0.079	-0.024
-318.026	800.000	0.097	-0.318
-317.012	-194.582	0.082	-0.001
-315.997	-3.879	-0.328	0.227
-314.983	-97.973	-0.147	-0.038
-313.968	-91.974	-0.130	0.037
-312.953	7.032	0.192	-0.142
-311.939	223.707	-0.215	0.346
-310.924	62.963	-0.114	0.113
-309.910	-51.415	-0.271	0.126
-308.895	800.000	-0.092	0.279
-307.880	571.591	0.055	-0.134
-306.866	167.383	-0.118	0.166
-305.851	-151.006	-0.222	0.017
-304.837	-107.638	0.502	0.109
-303.822	-78.552	-0.182	0.062
-302.807	468.353	-0.040	0.090
-301.793	-74.168	-0.138	0.050
-300.778	800.000	-0.105	0.362
-299.764	-137.338	-0.089	0.010
-298.749	-34.519	-0.297	-0.162
-297.735	-200.000	-0.001	-0.279
-296.720	-89.258	-0.291	-0.086
-295.705	-91.105	-0.403	-0.115
-294.691	-200.000	-0.013	0.076
-293.676	269.584	-0.163	-0.286
-292.662	221.763	-0.137	0.220
-291.647	-200.000	-0.003	-0.239
-290.632	573.104	-0.047	-0.113
-289.618	-52.113	0.126	-0.058
-288.603	138.447	0.167	-0.218
-287.589	-12.799	-0.186	-0.121
-286.574	130.182	0.207	0.264
-285.559	256.739	0.014	0.024
-284.545	-200.000	0.046	-0.343
-283.530	57.294	-0.164	0.160
-282.516	88.948	0.194	0.215
-281.501	17.419	0.094	0.074
-280.486	43.974	0.103	0.094
-279.472	477.930	-0.098	0.221
-278.457	131.789	-0.297	-0.380
-277.443	-33.487	0.122	0.067
-276.428	-200.000	-0.013	-0.226
-275.413	-200.000	-0.000	0.319
-274.399	-73.787	0.219	0.079
-273.384	-30.248	-0.294	0.166
-272.370	-52.789	0.070	-0.032
-271.355	-104.101	0.228	-0.053
-270.340	62.683	-0.061	-0.060
-269.326	-200.000	-0.010	0.053
-268.311	800.000	-0.084	-0.269
-267.297	-175.777	-0.048	0.001
-266.282	223.277	0.136	0.218
-265.267	-200.000	0.009	0.119
-264.253	296.475	0.141	0.257
-263.238	3.163	0.024	-0.017
-262.224	-200.000	-0.001	0.292
-261.209	800.000	0.050	0.183
-260.195	-137.740	-0.343	-0.038
-259.180	800.000	0.016	-0.061
-258.165	-80.072	-0.191	-0.064
-257.151	789.615	-0.088	0.241
-256.136	-190.424	0.064	0.001
-255.122	79.631	0.199	-0.213
-254.107	349.192	-0.046	-0.091
-253.092	-70.301	-0.102	-0.039
-252.078	-76.367	-0.350	-0.123
-251.063	-57.809	-0.162	0.070
-250.049	-12.147	-0.257	-0.167
-249.034	-200.000	0.027	0.235
-248.019	-6.307	0.131	-0.089
-247.005	-200.000	-0.036	-0.266
-245.990	-6.982	0.053	-0.036
-244.976	441.262	0.107	0.232
-243.961	-107.867	-0.236	0.051
-242.946	100.498	0.209	0.241
-241.932	-200.000	-0.015	-0.096
-240.917	53.139	-0.149	-0.142
-239.903	-122.447	0.240	-0.039
-238.888	-200.000	-0.005	-0.264
-237.873	-143.154	0.230	-0.022
-236.859	-110.320	-0.008	0.002
-235.844	-200.000	0.014	-0.124
-234.830	-200.000	-0.048	0.211
-233.815	99.804	0.122	-0.140
-232.800	-114.759	-0.325	0.062
-231.786	-144.071	0.171	0.016
-230.771	78.521	0.093	-0.098
-229.757	-200.000	0.015	0.264
-228.742	31.959	0.171	0.146
-227.727	800.000	-0.135	0.379
-226.713	-116.254	0.301	0.055
-225.698	-150.517	-0.205	-0.016
-224.684	-200.000	0.015	-0.314
-223.669	-10.359	0.352	-0.232
-222.655	462.285	-0.081	-0.180
-221.640	-200.000	0.026	-0.142
-220.625	383.156	-0.033	0.067
-219.611	705.827	-0.077	-0.203
-218.596	-200.000	0.047	0.343
-217.582	-148.501	-0.048	-0.004
-216.567	-177.494	0.144	0.003
-215.552	-40.418	-0.099	-0.051
-214.538	800.000	0.054	0.220
-213.523	245.862	0.049	0.083
-212.509	-11.824	-0.322	-0.210
-211.494	125.952	0.065	-0.082
-210.479	98.998	-0.177	0.203
-209.465	-32.948	0.311	-0.171
-208.450	-11.719	0.405	-0.264
-207.436	223.923	0.169	-0.271
-206.421	800.000	-0.033	0.101
-205.406	-143.926	-0.483	0.045
-204.392	628.009	-0.025	-0.062
-203.377	-200.000	0.397	-0.001
-202.363	-133.161	-0.122	0.015
-201.348	38.872	-0.481	0.426
-200.333	800.000	-0.147	0.412
-199.319	-8.395	0.099	-0.066
-198.304	800.000	-0.031	0.126
-197.290	186.131	-0.007	0.010
-196.275	-76.247	0.182	-0.064
-195.260	800.000	-0.073	-0.281
-194.246	158.523	0.200	0.275
-193.231	-134.817	-0.349	-0.042
-192.217	-38.484	-0.126	-0.066
-191.202	44.150	-0.217	-0.197
-190.187	-36.809	0.464	-0.247
-189.173	-130.051	-0.133	0.018
-188.158	-15.084	0.443	0.281
-187.144	-131.792	0.086	0.011
-186.129	-107.698	-0.248	0.054
-185.114	-35.060	0.180	-0.097
-184.100	1.372	-0.246	-0.175
-183.085	339.432	0.060	0.117
-182.071	-42.357	0.385	0.195
-181.056	-108.419	-0.190	-0.041
-180.042	800.000	-0.073	-0.200
-179.027	800.000	0.038	0.117
-178.012	-66.231	-0.081	-0.032
-176.998	-111.064	0.126	-0.026
-175.983	-148.225	0.425	0.035
-174.969	8.233	0.241	0.179
-173.954	-95.112	-0.137	-0.037
-172.939	-29.583	0.214	-0.121
-171.925	-200.000	0.001	0.337
-170.910	800.000	0.070	0.206
-169.896	162.925	-0.155	-0.216
-168.881	-88.748	-0.163	0.048
-167.866	-33.646	-0.283	-0.155
-166.852	286.907	0.058	0.104
-165.837	78.452	0.136	0.144
-164.823	-200.000	0.042	0.207
-163.808	107.529	0.112	-0.132
-162.793	-200.000	-0.044	0.246
-161.779	115.320	0.168	-0.204
-160.764	-132.514	0.405	0.052
-159.750	-116.052	-0.367	0.068
-158.735	332.633	0.035	-0.068
-157.720	-200.000	-0.011	-0.139
-156.706	34.496	0.158	0.137
-155.691	-200.000	-0.002	0.069
-154.677	-176.200	0.301	0.008
-153.662	-106.534	-0.322	-0.071
-152.647	800.000	-0.040	0.123
-151.633	-31.010	-0.062	0.034
-150.618	-164.751	-0.388	0.017
-149.604	-200.000	0.074	-0.417
-148.589	270.813	-0.150	-0.261
-147.574	42.770	0.185	0.167
-146.560	800.000	-0.047	-0.145
-145.545	420.089	-0.103	0.218
-144.531	-200.000	-0.050	0.277
-143.516	127.510	0.078	-0.097
-142.502	-95.696	0.246	-0.065
-141.487	277.375	-0.043	0.075
-140.472	167.316	0.136	-0.192
-139.458	127.600	0.221	0.278
-138.443	423.937	-0.092	-0.195
-137.429	-162.575	0.393	-0.019
-136.414	73.019	0.092	0.095
-135.399	-124.635	-0.205	0.032
-134.385	-200.000	0.011	0.282
-133.370	-200.000	0.056	0.243
-132.356	800.000	0.035	0.112
-131.341	-53.785	-0.266	0.120
-130.326	800.000	-0.114	0.365
-129.312	-96.071	0.280	-0.074
-128.297	16.718	-0.077	-0.060
-127.283	-200.000	-0.024	-0.169
-126.268	-200.000	0.040	-0.198
-125.253	-20.779	0.049	-0.030
-124.239	41.630	-0.247	-0.221
-123.224	-200.000	0.028	-0.170
-122.210	81.874	0.254	-0.272
-121.195	-172.340	-0.252	0.008
