DTS Sentinel unit serial number:	SN413079Multiplexer serial number:	ORYXHardware model number:	OX4-SRSoftware version number:	ORYX F/W v4.00 Oryx Data Collector v3.7.2.0data status	okinstallation	princeton_trtdifferential loss correction	single-endedforward channel	channel 2reverse channel	N/Adate	2019/09/16time	20:51:35forward acquisition time	60.00reverse acquisition time	0.00gamma	496.2192k internal	0.2330k external	0.2330temperature offset calibration	0.9966default loss term (dB/km)	0.3790temperature slope calibration	1.0000multiplexer offset coefficient	1.0000multiplexer slope coefficient	1.0000fibre end	0.00T internal ref (°C)	32.23T ext. ref 1 (°C)	0.08T ext. ref 2 (°C)	25.63length (m)	temperature (°C)	Stokes	anti-Stokes-747.200	99.350	-0.234	0.273
-746.185	-54.295	-0.210	0.096
-745.171	3.459	0.239	-0.175
-744.156	178.665	-0.075	0.110
-743.142	-200.000	0.018	-0.180
-742.127	-149.674	-0.189	0.015
-741.112	-29.899	-0.097	0.056
-740.098	46.521	-0.251	0.235
-739.083	-140.998	-0.191	0.020
-738.069	652.438	-0.096	0.249
-737.054	-200.000	-0.026	0.224
-736.039	52.151	-0.075	-0.072
-735.025	-63.571	0.404	0.167
-734.010	97.524	0.085	-0.098
-732.996	229.166	-0.126	-0.207
-731.981	-111.929	-0.124	0.025
-730.966	-86.695	-0.158	0.049
-729.952	152.106	0.076	-0.105
-728.937	165.264	0.186	-0.264
-727.923	-1.714	-0.297	0.210
-726.908	313.412	-0.188	-0.356
-725.894	-32.658	0.111	-0.062
-724.879	-113.136	-0.152	0.030
-723.864	46.598	-0.105	0.098
-722.850	73.842	0.117	-0.124
-721.835	91.734	-0.318	-0.359
-720.821	59.359	0.144	-0.143
-719.806	106.415	-0.025	0.030
-718.791	-200.000	0.017	0.087
-717.777	-200.000	0.033	-0.163
-716.762	800.000	-0.058	-0.161
-715.748	800.000	0.063	-0.186
-714.733	294.167	-0.110	0.202
-713.718	-200.000	-0.008	-0.376
-712.704	8.175	-0.178	-0.134
-711.689	453.003	0.100	0.223
-710.675	-57.988	0.159	-0.070
-709.660	800.000	-0.092	-0.260
-708.645	800.000	0.121	0.351
-707.631	-35.898	-0.290	0.158
-706.616	-69.141	-0.196	0.076
-705.602	-91.826	-0.116	-0.033
-704.587	-200.000	-0.025	-0.116
-703.572	800.000	0.025	0.095
-702.558	-78.860	-0.044	0.015
-701.543	500.671	0.043	-0.101
-700.529	-25.421	-0.164	-0.097
-699.514	-200.000	-0.058	-0.297
-698.499	-200.000	-0.030	-0.140
-697.485	-91.531	0.243	-0.070
-696.470	-200.000	-0.065	-0.308
-695.456	-82.179	-0.317	0.104
-694.441	-31.045	0.228	-0.129
-693.426	-132.212	-0.153	-0.020
-692.412	-27.255	0.036	0.021
-691.397	720.732	0.088	0.236
-690.383	-146.238	0.225	0.020
-689.368	-20.724	0.154	0.095
-688.354	-74.978	0.293	-0.106
-687.339	-9.732	-0.068	0.046
-686.324	219.058	0.095	-0.152
-685.310	130.697	0.236	-0.303
-684.295	-83.804	-0.073	-0.023
-683.281	42.390	0.138	0.126
-682.266	710.561	-0.124	-0.329
-681.251	-172.074	0.187	0.006
-680.237	800.000	-0.109	-0.379
-679.222	89.128	0.091	0.102
-678.208	-89.580	0.263	-0.078
-677.193	800.000	0.026	0.082
-676.178	95.114	0.083	0.095
-675.164	255.954	0.085	-0.146
-674.149	504.311	0.215	-0.500
-673.135	-139.008	0.110	0.012
-672.120	104.089	0.101	0.119
-671.105	-200.000	-0.058	0.277
-670.091	-61.440	-0.156	-0.066
-669.076	800.000	0.078	-0.235
-668.062	-200.000	-0.010	-0.196
-667.047	44.005	0.199	-0.183
-666.032	-200.000	0.019	0.240
-665.018	0.333	0.099	0.071
-664.003	-200.000	-0.042	-0.271
-662.989	-20.710	-0.302	-0.186
-661.974	96.402	0.218	-0.251
-660.959	-200.000	0.011	-0.127
-659.945	176.896	-0.066	0.096
-658.930	48.857	-0.053	0.050
-657.916	74.161	-0.142	-0.149
-656.901	497.299	0.088	0.204
-655.886	-35.009	-0.224	-0.122
-654.872	-85.656	0.206	-0.064
-653.857	0.272	-0.087	0.063
-652.843	270.872	-0.082	-0.144
-651.828	-137.505	-0.165	-0.019
-650.814	-69.809	0.374	0.143
-649.799	-52.141	-0.076	0.036
-648.784	-129.027	-0.434	-0.061
-647.770	-187.868	-0.275	-0.004
-646.755	-200.000	-0.004	-0.214
-645.741	800.000	-0.048	0.152
-644.726	-106.395	0.157	0.035
-643.711	-177.639	-0.300	-0.007
-642.697	-43.644	0.163	0.082
-641.682	-12.317	-0.169	0.111
-640.668	199.890	0.104	0.160
-639.653	800.000	-0.019	-0.070
-638.638	176.045	0.212	-0.309
-637.624	367.747	-0.157	-0.319
-636.609	-68.092	0.188	0.074
-635.595	140.137	-0.065	-0.086
-634.580	-140.586	0.306	0.032
-633.565	800.000	-0.033	-0.123
-632.551	-52.855	-0.048	-0.022
-631.536	-86.431	-0.391	-0.120
-630.522	32.930	0.251	-0.218
-629.507	-63.760	-0.366	-0.150
-628.492	286.304	0.057	-0.103
-627.478	138.445	-0.165	0.217
-626.463	161.154	-0.060	-0.085
-625.449	-129.048	-0.286	-0.040
-624.434	800.000	0.126	-0.384
-623.419	-110.461	-0.246	0.051
-622.405	221.195	0.086	-0.139
-621.390	55.432	0.089	0.086
-620.376	-124.076	-0.080	0.013
-619.361	-148.791	0.545	-0.044
-618.346	-17.437	0.318	-0.201
-617.332	784.620	-0.112	-0.308
-616.317	-175.795	0.139	-0.004
-615.303	800.000	0.081	-0.230
-614.288	-11.501	-0.284	-0.187
-613.273	-140.857	0.220	-0.023
-612.259	88.039	-0.190	0.211
-611.244	109.442	0.139	-0.167
-610.230	800.000	-0.096	-0.279
-609.215	-200.000	0.026	0.138
-608.201	800.000	0.084	-0.262
-607.186	-7.669	-0.242	0.164
-606.171	-61.191	0.401	-0.170
-605.157	-22.105	0.295	-0.179
-604.142	-84.562	0.162	-0.051
-603.128	-200.000	0.052	-0.342
-602.113	214.871	0.061	-0.096
-601.098	-122.654	-0.065	0.010
-600.084	-89.133	0.498	0.147
-599.069	109.015	-0.116	-0.139
-598.055	-102.497	-0.106	0.025
-597.040	-200.000	0.008	0.130
-596.025	-81.572	0.155	0.051
-595.011	268.036	0.160	-0.281
-593.996	-200.000	-0.003	-0.505
-592.982	-1.737	0.153	-0.108
-591.967	-150.147	-0.268	-0.021
-590.952	93.538	-0.157	-0.178
-589.938	28.033	0.206	0.174
-588.923	-200.000	0.056	0.285
-587.909	800.000	0.028	0.091
-586.894	-3.781	0.289	-0.201
-585.879	30.975	-0.227	0.195
-584.865	-40.783	0.182	0.094
-583.850	453.152	-0.107	-0.236
-582.836	29.367	-0.103	0.088
-581.821	-68.066	0.297	-0.116
-580.806	-200.000	0.027	0.158
-579.792	-15.683	-0.375	0.239
-578.777	-121.652	-0.345	-0.057
-577.763	-100.188	0.274	-0.068
-576.748	281.083	-0.104	0.185
-575.733	183.240	-0.138	-0.204
-574.719	-43.949	-0.216	0.109
-573.704	108.797	0.142	0.170
-572.690	73.178	0.087	0.091
-571.675	-200.000	-0.019	0.263
-570.661	-27.811	0.360	-0.209
-569.646	-200.000	-0.078	-0.429
-568.631	800.000	-0.062	-0.208
-567.617	122.353	-0.202	-0.252
-566.602	-107.652	0.246	-0.054
-565.588	-200.000	0.003	0.065
-564.573	-109.622	0.075	-0.016
-563.558	-83.547	-0.333	0.106
-562.544	-200.000	-0.024	0.232
-561.529	-6.761	-0.265	0.180
-560.515	-131.617	-0.318	0.042
-559.500	-129.094	-0.181	0.025
-558.485	561.048	0.114	-0.276
-557.471	294.426	0.142	-0.259
-556.456	-200.000	-0.045	-0.275
-555.442	-104.828	0.051	-0.012
-554.427	153.395	0.203	-0.277
-553.412	-22.386	-0.166	0.100
-552.398	42.526	0.296	0.269
-551.383	178.436	-0.086	0.125
-550.369	-90.257	0.184	-0.054
-549.354	-166.639	-0.133	-0.005
-548.339	532.069	-0.038	-0.089
-547.325	270.397	0.065	0.113
-546.310	6.426	-0.382	-0.284
-545.296	-1.625	0.103	-0.072
-544.281	800.000	0.027	-0.098
-543.266	60.792	-0.228	-0.226
-542.252	-40.423	-0.208	-0.108
-541.237	-200.000	-0.007	0.409
-540.223	-87.380	-0.120	-0.036
-539.208	365.755	0.118	0.237
-538.193	124.829	0.320	0.403
-537.179	-89.992	-0.061	-0.018
-536.164	221.100	-0.028	0.045
-535.150	231.309	-0.148	-0.242
-534.135	800.000	0.128	0.363
-533.121	-50.403	0.141	-0.067
-532.106	18.299	-0.261	0.208
-531.091	-200.000	0.006	0.059
-530.077	-18.872	0.132	-0.082
-529.062	-143.992	-0.213	0.020
-528.048	41.115	0.121	-0.109
-527.033	-67.312	-0.135	0.053
-526.018	483.190	0.097	-0.220
-525.004	-37.159	-0.092	-0.049
-523.989	87.383	-0.090	0.100
-522.975	-200.000	0.021	-0.143
-521.960	800.000	-0.024	-0.100
-520.945	-200.000	0.174	0.001
-519.931	-58.402	0.056	-0.025
-518.916	-26.874	0.355	-0.207
-517.902	333.269	-0.120	0.232
-516.887	-164.141	-0.299	-0.014
-515.872	152.037	-0.159	-0.217
-514.858	-72.514	0.290	-0.107
-513.843	29.720	0.180	0.153
-512.829	-200.000	0.027	0.183
-511.814	-200.000	0.064	-0.311
-510.799	-109.110	-0.502	0.107
-509.785	188.466	0.096	-0.143
-508.770	-200.000	0.022	0.212
-507.756	800.000	-0.052	0.182
-506.741	383.580	-0.041	-0.085
-505.726	-34.767	0.137	-0.075
-504.712	311.672	-0.034	0.063
-503.697	-91.553	-0.248	-0.071
-502.683	-16.820	0.210	0.132
-501.668	800.000	0.002	0.009
-500.653	-200.000	0.004	-0.236
-499.639	246.493	0.089	-0.150
-498.624	-50.998	0.527	0.247
-497.610	800.000	-0.030	-0.102
-496.595	-46.038	-0.225	0.110
-495.581	-32.525	0.033	0.018
-494.566	-90.160	0.089	-0.026
-493.551	44.166	-0.195	0.178
-492.537	-81.663	-0.121	0.040
-491.522	-46.301	-0.170	0.083
-490.508	-8.315	-0.175	0.117
-489.493	800.000	0.023	0.080
-488.478	19.356	-0.222	-0.177
-487.464	-200.000	-0.024	-0.456
-486.449	800.000	-0.113	-0.338
-485.435	-69.020	0.282	0.109
-484.420	-200.000	-0.025	-0.666
-483.405	7.939	-0.071	0.053
-482.391	55.917	0.055	0.053
-481.376	396.456	0.053	0.110
-480.362	-100.325	-0.100	-0.025
-479.347	-200.000	0.092	-0.401
-478.332	692.188	-0.095	0.248
-477.318	800.000	-0.058	0.163
-476.303	800.000	-0.080	0.342
-475.289	-200.000	0.030	-0.140
-474.274	800.000	0.021	0.089
-473.259	110.269	0.186	-0.222
-472.245	-147.256	-0.298	-0.025
-471.230	-7.971	0.207	-0.139
-470.216	-1.932	0.195	0.136
-469.201	-118.039	-0.075	0.013
-468.186	-34.429	0.131	0.072
-467.172	-27.285	0.111	0.064
-466.157	-7.559	-0.123	0.083
-465.143	-200.000	0.208	0.000
-464.128	109.765	-0.310	0.370
-463.113	-87.838	-0.073	-0.022
-462.099	-187.062	0.107	0.001
-461.084	-95.399	-0.158	0.042
-460.070	-200.000	-0.007	-0.071
-459.055	-9.391	0.070	0.047
-458.040	529.421	0.031	-0.072
-457.026	-200.000	-0.008	-0.122
-456.011	-20.535	-0.192	0.118
-454.997	800.000	0.060	-0.168
-453.982	-29.383	-0.230	0.131
-452.968	-12.582	0.238	0.155
-451.953	-131.450	0.314	-0.041
-450.938	-50.095	0.168	0.079
-449.924	150.548	-0.147	-0.199
-448.909	-105.367	-0.233	-0.053
-447.895	38.490	-0.138	-0.122
-446.880	-82.455	-0.094	-0.030
-445.865	199.044	-0.160	0.243
-444.851	90.081	-0.105	-0.116
-443.836	401.761	0.096	0.200
-442.822	-3.922	0.179	0.123
-441.807	-165.310	0.383	0.017
-440.792	156.211	-0.158	-0.217
-439.778	800.000	-0.122	-0.398
-438.763	140.693	-0.062	0.082
-437.749	647.146	-0.157	0.399
-436.734	-32.454	-0.216	0.120
-435.719	770.452	0.048	0.129
-434.705	115.909	0.185	-0.225
-433.690	-140.995	-0.115	0.012
-432.676	-59.897	-0.177	0.075
-431.661	800.000	-0.087	-0.285
-430.646	-103.330	0.475	0.111
-429.632	18.511	-0.126	-0.100
-428.617	136.195	0.272	0.353
-427.603	265.526	-0.181	0.314
-426.588	800.000	0.031	0.119
-425.573	-200.000	-0.009	0.110
-424.559	-151.882	0.246	0.018
-423.544	261.286	0.100	-0.173
-422.530	32.339	-0.197	0.169
-421.515	81.898	0.113	0.122
-420.500	-71.764	-0.211	0.078
-419.486	800.000	0.056	0.200
-418.471	-200.000	0.055	-0.240
-417.457	-200.000	0.007	0.066
-416.442	404.545	0.078	0.164
-415.428	-145.871	0.232	0.020
-414.413	44.239	0.134	-0.123
-413.398	-13.746	-0.273	0.175
-412.384	-1.289	-0.127	0.089
-411.369	626.632	0.089	-0.224
-410.355	-122.232	-0.111	0.018
-409.340	-44.910	-0.266	-0.132
-408.325	-89.441	-0.221	-0.065
-407.311	-200.000	-0.030	-0.223
-406.296	82.314	-0.098	0.106
-405.282	-122.744	0.182	0.029
-404.267	-69.504	-0.041	-0.016
-403.252	800.000	-0.012	-0.040
-402.238	-200.000	0.053	-0.261
-401.223	705.487	-0.069	0.180
-400.209	215.349	-0.071	-0.112
-399.194	106.902	-0.061	0.072
-398.179	800.000	-0.032	-0.092
-397.165	284.448	0.046	0.082
-396.150	-46.957	0.273	0.133
-395.136	-56.930	0.155	-0.068
-394.121	-38.438	0.145	0.076
-393.106	800.000	-0.052	0.186
-392.092	263.444	0.039	-0.068
-391.077	800.000	-0.095	-0.375
-390.063	-200.000	-0.006	-0.153
-389.048	258.910	-0.062	-0.106
-388.033	-46.786	-0.113	0.055
-387.019	24.446	0.214	0.176
-386.004	800.000	0.035	0.102
-384.990	307.403	0.041	-0.076
-383.975	-133.850	-0.143	-0.018
-382.960	-200.000	-0.014	-0.161
-381.946	-33.915	-0.209	-0.114
-380.931	31.524	-0.097	0.083
-379.917	-5.761	0.285	0.194
-378.902	-52.151	-0.044	-0.020
-377.888	-183.501	0.439	0.008
-376.873	800.000	0.072	-0.258
-375.858	-10.984	-0.315	-0.206
-374.844	-200.000	-0.037	-0.261
-373.829	-62.021	0.138	0.057
-372.815	176.839	0.192	0.276
-371.800	-200.000	0.035	-0.363
-370.785	-200.000	0.044	-0.230
-369.771	292.064	0.166	0.300
-368.756	-200.000	-0.039	-0.275
-367.742	-51.774	0.087	0.040
-366.727	800.000	0.104	-0.347
-365.712	153.682	-0.053	-0.071
-364.698	262.851	-0.028	0.048
-363.683	90.263	-0.102	0.114
-362.669	143.754	0.150	0.198
-361.654	-35.093	0.085	-0.046
-360.639	-20.644	-0.183	0.112
-359.625	-72.934	0.024	0.009
-358.610	-200.000	0.067	0.327
-357.596	158.720	0.237	-0.327
-356.581	85.290	0.167	0.182
-355.566	-29.593	0.391	0.222
-354.552	800.000	-0.048	0.198
-353.537	189.011	-0.028	0.041
-352.523	800.000	-0.132	0.398
-351.508	-120.975	0.331	0.055
-350.493	574.372	0.105	0.254
-349.479	-54.335	-0.211	0.095
-348.464	511.690	0.139	-0.320
-347.450	43.088	0.169	-0.153
-346.435	800.000	0.055	0.192
-345.420	-200.000	0.029	-0.273
-344.406	-93.697	-0.143	-0.039
-343.391	-200.000	0.003	0.385
-342.377	281.606	0.044	0.078
-341.362	-200.000	0.001	-0.117
-340.348	80.626	-0.181	0.194
-339.333	254.418	0.083	-0.141
-338.318	800.000	-0.060	-0.176
-337.304	800.000	0.074	-0.222
-336.289	-200.000	-0.024	-0.285
-335.275	75.151	0.164	-0.171
-334.260	67.917	-0.047	0.048
-333.245	357.454	-0.185	0.365
-332.231	-167.362	0.134	-0.005
-331.216	-44.081	-0.315	-0.157
-330.202	-200.000	0.083	-0.363
-329.187	6.175	-0.135	-0.099
-328.172	357.656	0.157	0.309
-327.158	120.142	0.100	0.123
-326.143	-200.000	-0.026	0.146
-325.129	37.491	0.130	0.114
-324.114	544.568	0.072	-0.170
-323.099	-44.818	0.248	-0.123
-322.085	-105.861	-0.317	0.071
-321.070	-35.018	-0.003	0.001
-320.056	408.101	0.239	0.501
-319.041	108.490	-0.245	0.289
-318.026	800.000	0.161	0.478
-317.012	6.988	-0.195	0.144
-315.997	173.108	-0.133	-0.190
-314.983	800.000	0.086	0.255
-313.968	-200.000	0.029	0.248
-312.953	45.891	-0.124	0.113
-311.939	-169.571	0.099	-0.004
-310.924	-200.000	-0.031	0.313
-309.910	567.489	0.110	0.264
-308.895	-200.000	-0.023	0.103
-307.880	-67.649	-0.106	0.041
-306.866	-114.760	0.133	0.025
-305.851	287.970	-0.031	-0.056
-304.837	-34.302	0.068	-0.037
-303.822	175.053	0.073	0.105
-302.807	-49.196	-0.254	0.120
-301.793	-50.784	0.395	0.184
-300.778	39.515	-0.230	-0.204
-299.764	-4.322	-0.113	-0.077
-298.749	-64.073	-0.092	-0.037
-297.735	4.623	-0.145	0.105
-296.720	356.946	-0.115	0.226
-295.705	34.033	-0.169	-0.146
-294.691	537.081	-0.056	-0.131
-293.676	-2.939	-0.079	-0.055
-292.662	-165.553	0.437	0.019
-291.647	-200.000	0.017	-0.306
-290.632	-40.195	0.141	-0.073
-289.618	469.480	-0.149	-0.331
-288.603	397.145	-0.086	-0.179
-287.589	-139.021	0.376	-0.040
-286.574	-118.909	-0.250	0.043
-285.559	800.000	0.010	-0.040
-284.545	-10.895	0.096	-0.063
-283.530	-105.375	-0.160	-0.036
-282.516	122.953	0.190	-0.235
-281.501	584.137	-0.064	0.155
-280.486	25.073	-0.081	-0.066
-279.472	-82.062	-0.021	-0.007
-278.457	529.920	0.119	0.278
-277.443	-123.906	0.390	-0.061
-276.428	-200.000	0.005	-0.031
-275.413	-17.744	0.272	0.169
-274.399	-58.813	0.089	0.038
-273.384	-35.511	-0.239	-0.128
-272.370	77.825	0.138	0.146
-271.355	-63.412	-0.138	0.056
-270.340	398.855	-0.134	0.277
-269.326	366.266	0.185	0.369
-268.311	-25.358	-0.259	-0.151
-267.297	541.627	0.068	-0.160
-266.282	-171.624	-0.276	0.009
-265.267	-107.517	0.274	-0.059
-264.253	-69.312	-0.193	0.073
-263.238	-200.000	0.009	-0.255
-262.224	-80.383	-0.173	0.057
-261.209	181.476	0.063	-0.092
-260.195	176.586	-0.087	-0.125
-259.180	-200.000	-0.050	-0.275
-258.165	220.483	-0.077	-0.122
-257.151	-146.964	-0.261	-0.022
-256.136	-150.614	0.160	-0.012
-255.122	-30.095	-0.138	0.078
-254.107	421.707	0.077	0.163
-253.092	-74.343	0.260	-0.093
-252.078	-51.162	0.083	-0.038
-251.063	70.997	-0.154	0.158
-250.049	-0.335	-0.249	-0.175
-249.034	162.464	0.067	0.093
-248.019	316.399	0.036	0.068
-247.005	-113.518	0.242	-0.047
-245.990	95.766	0.195	0.219
-244.976	-200.000	0.012	-0.131
-243.961	800.000	-0.038	-0.112
-242.946	50.857	-0.142	0.132
-241.932	-86.264	-0.250	-0.076
-240.917	234.585	0.119	-0.194
-239.903	152.253	-0.163	0.220
-238.888	-148.455	-0.259	-0.021
-237.873	-200.000	0.004	0.124
-236.859	568.976	-0.136	0.326
-235.844	-34.690	0.193	-0.104
-234.830	238.414	-0.049	-0.080
-233.815	800.000	-0.015	0.060
-232.800	-92.940	0.296	0.082
-231.786	-22.739	0.121	0.072
-230.771	-44.313	-0.262	-0.129
-229.757	241.402	0.089	-0.146
-228.742	5.890	-0.160	-0.117
-227.727	274.924	0.080	-0.140
-226.713	245.671	-0.184	-0.305
-225.698	113.341	-0.254	-0.304
-224.684	550.461	-0.072	-0.171
-223.669	374.944	-0.060	-0.120
-222.655	244.339	0.162	0.268
-221.640	-186.328	0.284	-0.004
-220.625	59.080	0.138	0.134
-219.611	174.882	-0.101	0.145
-218.596	253.338	-0.027	0.045
-217.582	-123.407	0.315	0.049
-216.567	-200.000	-0.016	-0.215
-215.552	549.159	-0.168	-0.396
-214.538	-176.661	0.205	0.005
-213.523	23.954	-0.207	0.168
-212.509	119.920	-0.037	0.046
-211.494	-102.147	0.195	0.046
-210.479	-200.000	-0.036	0.246
-209.465	-200.000	-0.086	0.468
-208.450	40.511	0.088	0.078
-207.436	-160.189	-0.260	0.014
-206.421	-200.000	0.022	-0.149
-205.406	-6.979	0.244	0.164
-204.392	77.617	-0.094	-0.098
-203.377	174.131	0.192	-0.274
-202.363	-141.540	-0.183	-0.018
-201.348	75.617	0.176	0.184
-200.333	331.063	0.075	0.143
-199.319	2.525	0.196	-0.140
-198.304	-98.681	-0.285	-0.071
-197.290	800.000	0.055	-0.153
-196.275	-47.155	0.249	0.120
-195.260	-56.546	0.080	0.035
-194.246	-200.000	-0.022	-0.206
-193.231	150.386	0.201	0.269
-192.217	-143.660	0.265	-0.025
-191.202	619.454	0.116	0.286
-190.187	360.243	0.131	-0.259
-189.173	-200.000	-0.013	-0.148
-188.158	-79.775	0.271	-0.090
-187.144	145.374	-0.247	0.326
-186.129	458.547	0.087	0.191
-185.114	-136.306	-0.352	0.040
-184.100	21.909	0.199	-0.160
-183.085	800.000	0.037	0.112
-182.071	63.466	-0.148	0.146
-181.056	160.300	-0.165	0.226
-180.042	-73.378	-0.189	0.068
-179.027	-200.000	-0.020	0.174
-178.012	-133.899	-0.321	-0.039
-176.998	-200.000	0.012	0.169
-175.983	-200.000	-0.030	0.305
-174.969	46.381	0.185	-0.169
-173.954	56.576	-0.151	0.144
-172.939	-200.000	-0.025	0.567
-171.925	747.405	-0.061	-0.162
-170.910	800.000	0.053	-0.191
-169.896	-40.177	-0.138	-0.071
-168.881	309.582	0.136	0.251
-167.866	-14.667	0.142	0.090
-166.852	-108.605	-0.120	-0.025
-165.837	-81.856	0.331	-0.107
-164.823	-88.594	-0.090	-0.026
-163.808	-154.821	0.132	-0.009
-162.793	105.669	0.075	0.087
-161.779	-107.009	-0.216	0.047
-160.764	82.775	0.101	-0.108
-159.750	-200.000	0.010	0.163
-158.735	158.411	-0.189	0.258
-157.720	800.000	-0.123	0.456
-156.706	-118.874	-0.304	0.053
-155.691	18.891	-0.152	-0.120
-154.677	154.368	-0.211	-0.285
-153.662	800.000	0.071	0.211
-152.647	800.000	-0.071	0.210
-151.633	-68.112	-0.129	0.049
-150.618	83.978	0.210	0.225
-149.604	73.925	-0.006	0.006
-148.589	-6.153	-0.249	-0.167
-147.574	-54.105	-0.129	0.058
-146.560	800.000	-0.047	0.199
-145.545	622.135	-0.031	-0.077
-144.531	132.499	0.230	0.292
-143.516	-200.000	-0.065	-0.502
-142.502	27.607	0.170	-0.141
-141.487	-127.326	0.208	-0.030
-140.472	124.098	0.196	0.243
-139.458	800.000	0.051	0.178
-138.443	800.000	-0.056	0.189
-137.429	131.279	-0.142	-0.179
-136.414	-200.000	0.002	0.457
-135.399	8.539	-0.145	0.108
-134.385	-16.219	0.084	0.052
-133.370	-200.000	0.018	-0.228
-132.356	68.891	0.090	0.091
-131.341	92.184	-0.279	-0.310
-130.326	785.046	-0.157	-0.423
-129.312	561.410	0.053	-0.125
-128.297	800.000	-0.075	-0.266
-127.283	99.345	0.094	-0.107
-126.268	477.987	0.160	-0.355
-125.253	508.517	-0.160	0.365
-124.239	17.979	-0.152	0.119
-123.224	-200.000	0.035	0.272
-122.210	475.125	-0.035	-0.077
-121.195	-27.645	0.193	0.110
