DTS Sentinel unit serial number:	SN413079Multiplexer serial number:	ORYXHardware model number:	OX4-SRSoftware version number:	ORYX F/W v4.00 Oryx Data Collector v3.7.2.0data status	okinstallation	princeton_trtdifferential loss correction	single-endedforward channel	channel 2reverse channel	N/Adate	2019/09/12time	01:41:10forward acquisition time	60.00reverse acquisition time	0.00gamma	496.2192k internal	0.2326k external	0.2326temperature offset calibration	1.0087default loss term (dB/km)	0.3790temperature slope calibration	1.0000multiplexer offset coefficient	1.0000multiplexer slope coefficient	1.0000fibre end	0.00T internal ref (°C)	32.87T ext. ref 1 (°C)	2.05T ext. ref 2 (°C)	27.56length (m)	temperature (°C)	Stokes	anti-Stokes-747.200	-200.000	0.000	-0.107
-746.185	225.822	0.201	-0.329
-745.171	457.693	0.112	0.250
-744.156	-47.366	-0.397	0.195
-743.142	43.674	-0.070	0.064
-742.127	-68.859	-0.081	-0.032
-741.112	800.000	0.113	-0.476
-740.098	-31.801	-0.136	-0.077
-739.083	46.909	-0.093	0.087
-738.069	800.000	0.071	0.219
-737.054	-187.456	0.146	-0.002
-736.039	-9.368	-0.206	-0.139
-735.025	-70.636	0.131	0.050
-734.010	85.202	-0.227	-0.251
-732.996	-72.020	-0.512	-0.192
-731.981	110.118	0.082	-0.099
-730.966	-200.000	-0.034	-0.278
-729.952	-55.511	0.058	0.026
-728.937	110.496	0.119	-0.144
-727.923	-26.499	-0.080	-0.047
-726.908	-63.140	0.040	-0.017
-725.894	-59.271	0.308	0.134
-724.879	-16.585	-0.362	0.231
-723.864	800.000	0.128	-0.356
-722.850	800.000	0.066	-0.197
-721.835	-58.343	-0.103	0.045
-720.821	-81.112	0.144	-0.048
-719.806	-200.000	0.046	-0.289
-718.791	564.882	-0.092	-0.225
-717.777	-46.281	0.314	-0.155
-716.762	-40.493	-0.231	0.121
-715.748	800.000	-0.048	0.171
-714.733	273.486	0.098	-0.175
-713.718	-172.100	0.239	-0.008
-712.704	99.574	-0.166	0.193
-711.689	-108.344	-0.032	0.007
-710.675	159.634	-0.116	0.163
-709.660	178.442	0.311	0.458
-708.645	234.775	0.214	0.355
-707.631	-87.347	-0.311	0.095
-706.616	666.388	-0.078	0.202
-705.602	-50.067	0.221	-0.106
-704.587	-32.263	0.218	-0.123
-703.572	-69.279	-0.081	-0.032
-702.558	14.115	0.141	0.111
-701.543	800.000	0.037	0.139
-700.529	-200.000	0.055	0.245
-699.514	588.803	0.058	-0.143
-698.499	800.000	-0.038	0.158
-697.485	800.000	-0.044	-0.166
-696.470	686.815	-0.047	0.123
-695.456	-200.000	0.007	-0.217
-694.441	-30.087	0.211	0.121
-693.426	128.935	-0.183	-0.236
-692.412	800.000	-0.046	-0.173
-691.397	-109.426	-0.217	0.046
-690.383	800.000	-0.011	-0.044
-689.368	-119.337	0.129	0.023
-688.354	-200.000	-0.010	-0.159
-687.339	-200.000	0.017	-0.078
-686.324	84.544	-0.180	-0.199
-685.310	-1.803	-0.145	-0.103
-684.295	-138.401	-0.420	-0.047
-683.281	-150.588	-0.186	-0.014
-682.266	-157.295	0.327	-0.020
-681.251	188.219	-0.221	0.332
-680.237	162.732	0.134	-0.189
-679.222	285.091	0.086	-0.155
-678.208	192.387	-0.079	0.119
-677.193	800.000	0.097	0.341
-676.178	-1.501	0.190	0.134
-675.164	-144.785	0.322	-0.030
-674.149	-48.988	-0.198	0.095
-673.135	26.980	0.143	0.120
-672.120	542.659	-0.099	-0.238
-671.105	-109.301	-0.213	-0.045
-670.091	-173.194	-0.264	0.008
-669.076	-164.665	-0.119	-0.005
-668.062	-59.525	-0.097	0.042
-667.047	-35.170	-0.256	-0.140
-666.032	-65.261	0.121	-0.049
-665.018	-87.852	0.052	0.016
-664.003	800.000	0.041	-0.129
-662.989	-40.925	0.230	0.120
-661.974	491.683	-0.125	-0.287
-660.959	150.401	0.010	-0.014
-659.945	0.558	-0.089	-0.064
-658.930	-183.010	-0.046	0.001
-657.916	70.052	0.206	-0.214
-656.901	484.452	-0.081	-0.185
-655.886	-200.000	0.038	-0.179
-654.872	-102.951	-0.391	0.093
-653.857	-108.088	0.330	-0.072
-652.843	-200.000	0.064	-0.369
-651.828	230.047	-0.168	-0.275
-650.814	144.837	0.077	0.104
-649.799	-28.319	0.113	0.066
-648.784	-115.636	0.176	-0.033
-647.770	133.638	-0.088	-0.115
-646.755	241.853	-0.123	-0.206
-645.741	157.385	0.146	0.203
-644.726	176.175	0.056	0.081
-643.711	-40.783	-0.210	-0.109
-642.697	-88.714	-0.203	0.061
-641.682	-22.407	-0.365	0.222
-640.668	-55.204	-0.125	-0.056
-639.653	-97.418	0.225	-0.059
-638.638	15.839	0.060	-0.048
-637.624	515.560	0.103	-0.241
-636.609	-200.000	0.007	-0.149
-635.595	-49.539	0.211	-0.101
-634.580	346.162	0.133	0.262
-633.565	799.869	-0.044	-0.122
-632.551	-200.000	-0.004	0.362
-631.536	454.654	0.048	0.108
-630.522	-94.146	-0.094	-0.026
-629.507	-121.520	0.228	0.038
-628.492	31.385	0.116	-0.100
-627.478	-200.000	0.052	-0.245
-626.463	16.153	-0.268	-0.212
-625.449	-80.880	-0.167	0.056
-624.434	-200.000	0.002	-0.313
-623.419	-91.568	0.264	-0.076
-622.405	508.036	0.034	0.080
-621.390	-200.000	0.011	-0.162
-620.376	-119.598	0.266	-0.046
-619.361	257.710	-0.132	0.227
-618.346	-29.340	0.120	0.069
-617.332	167.481	-0.167	0.239
-616.317	-30.236	-0.092	-0.052
-615.303	61.647	0.042	0.041
-614.288	-1.501	0.191	0.135
-613.273	-69.963	0.342	-0.131
-612.259	16.173	0.142	0.113
-611.244	124.840	-0.226	0.285
-610.230	-81.496	-0.192	0.064
-609.215	800.000	-0.082	-0.326
-608.201	-200.000	0.014	-0.093
-607.186	27.685	0.060	-0.051
-606.171	51.975	0.095	0.090
-605.157	-185.171	0.111	0.002
-604.142	20.217	0.170	0.138
-603.128	-52.773	-0.116	-0.053
-602.113	277.156	-0.154	-0.275
-601.098	-79.360	-0.181	-0.062
-600.084	-75.415	0.401	0.143
-599.069	-93.638	0.112	-0.031
-598.055	-200.000	-0.031	0.190
-597.040	185.317	-0.029	-0.043
-596.025	-117.741	-0.218	0.039
-595.011	5.767	0.309	0.229
-593.996	47.705	0.091	0.085
-592.982	800.000	-0.055	-0.163
-591.967	88.243	-0.078	0.087
-590.952	-77.354	-0.274	-0.096
-589.938	-200.000	-0.035	-0.182
-588.923	-145.302	0.052	0.005
-587.909	-200.000	-0.044	-0.329
-586.894	-167.136	-0.330	0.013
-585.879	-102.253	-0.102	-0.025
-584.865	-200.000	-0.017	0.247
-583.850	27.908	-0.078	0.066
-582.836	124.422	-0.042	-0.053
-581.821	511.388	0.064	-0.150
-580.806	-200.000	0.014	-0.193
-579.792	552.523	-0.090	-0.216
-578.777	215.024	0.059	0.093
-577.763	-48.090	0.093	0.045
-576.748	-88.231	-0.078	0.024
-575.733	168.548	-0.101	0.144
-574.719	24.311	-0.101	0.084
-573.704	463.213	0.071	0.160
-572.690	21.107	0.187	-0.152
-571.675	800.000	-0.102	0.408
-570.661	-101.642	-0.081	-0.020
-569.646	323.000	0.183	0.349
-568.631	-101.349	-0.205	0.050
-567.617	-200.000	-0.003	0.100
-566.602	-124.235	-0.017	0.003
-565.588	-88.549	0.164	0.049
-564.573	105.559	0.196	-0.232
-563.558	167.490	-0.057	-0.081
-562.544	-21.377	0.231	-0.141
-561.529	-106.282	-0.182	-0.041
-560.515	395.218	0.164	-0.343
-559.500	-4.756	0.299	-0.206
-558.485	156.505	0.105	0.145
-557.471	-74.020	-0.296	-0.108
-556.456	-200.000	0.024	0.268
-555.442	-200.000	0.007	0.045
-554.427	614.593	-0.116	0.292
-553.412	-108.956	-0.077	-0.016
-552.398	-60.957	-0.173	-0.073
-551.383	10.242	-0.102	-0.077
-550.369	278.210	0.132	0.235
-549.354	-148.891	0.463	-0.037
-548.339	-70.019	-0.141	-0.054
-547.325	-35.847	-0.310	0.168
-546.310	-69.097	-0.076	0.029
-545.296	-18.834	-0.063	0.039
-544.281	-70.125	0.174	-0.066
-543.266	-76.189	0.117	0.041
-542.252	-90.593	0.115	0.033
-541.237	-105.133	-0.113	0.026
-540.223	-119.428	0.091	0.016
-539.208	-113.511	-0.218	0.043
-538.193	-200.000	0.032	0.163
-537.179	-200.000	0.044	0.363
-536.164	-30.294	-0.229	-0.130
-535.150	-33.249	-0.170	0.094
-534.135	335.167	0.094	-0.183
-533.121	-6.585	0.161	0.110
-532.106	-75.051	-0.224	-0.080
-531.091	-200.000	-0.000	-0.206
-530.077	-95.126	-0.345	-0.093
-529.062	165.763	-0.094	-0.134
-528.048	41.794	-0.228	0.207
-527.033	-101.993	0.112	-0.027
-526.018	800.000	-0.040	-0.172
-525.004	-93.019	0.399	0.111
-523.989	473.404	0.041	0.093
-522.975	-92.628	0.077	0.022
-521.960	-158.078	0.284	-0.017
-520.945	800.000	-0.031	-0.106
-519.931	-8.889	0.090	0.060
-518.916	15.291	-0.202	0.159
-517.902	-144.105	-0.063	0.006
-516.887	470.842	-0.093	-0.208
-515.872	-54.134	0.184	0.083
-514.858	25.482	0.197	0.164
-513.843	-30.449	0.242	-0.137
-512.829	-200.000	-0.041	0.387
-511.814	-55.741	-0.083	0.037
-510.799	-123.299	-0.518	0.083
-509.785	-59.130	-0.305	-0.131
-508.770	800.000	0.076	-0.261
-507.756	-87.725	0.375	-0.113
-506.741	4.645	-0.214	-0.157
-505.726	-200.000	0.001	-0.057
-504.712	-7.681	0.101	0.068
-503.697	800.000	-0.026	0.102
-502.683	-200.000	-0.004	0.106
-501.668	-200.000	-0.016	0.318
-500.653	299.996	-0.112	-0.207
-499.639	-5.908	-0.035	-0.024
-498.624	290.645	-0.229	-0.415
-497.610	-71.669	0.048	0.018
-496.595	-22.601	-0.113	0.068
-495.581	71.728	-0.129	-0.134
-494.566	-82.229	0.196	-0.064
-493.551	800.000	0.067	0.199
-492.537	-200.000	-0.039	0.523
-491.522	-148.018	0.152	-0.013
-490.508	350.569	-0.129	-0.255
-489.493	12.558	-0.276	-0.213
-488.478	9.513	0.113	-0.086
-487.464	-48.601	-0.319	0.153
-486.449	-200.000	0.215	-0.001
-485.435	349.767	0.042	-0.083
-484.420	-200.000	-0.024	0.181
-483.405	553.587	0.016	-0.038
-482.391	800.000	-0.076	-0.290
-481.376	800.000	-0.050	-0.170
-480.362	254.225	-0.161	-0.275
-479.347	34.746	0.312	-0.273
-478.332	348.584	-0.056	0.110
-477.318	-59.525	0.379	0.162
-476.303	-127.718	0.153	0.022
-475.289	759.817	0.067	0.180
-474.274	-70.374	-0.181	0.069
-473.259	181.625	-0.240	-0.353
-472.245	-60.292	-0.182	-0.077
-471.230	800.000	0.088	0.259
-470.216	-151.721	0.092	0.007
-469.201	-200.000	-0.015	-0.185
-468.186	74.059	-0.061	0.064
-467.172	-119.349	-0.169	0.029
-466.157	95.837	-0.086	-0.097
-465.143	-200.000	-0.009	0.201
-464.128	-14.369	0.117	0.075
-463.113	63.327	-0.121	-0.121
-462.099	-51.191	0.086	-0.040
-461.084	-26.265	0.141	-0.082
-460.070	22.551	0.165	0.135
-459.055	-128.381	-0.395	0.056
-458.040	800.000	0.067	0.198
-457.026	-83.055	0.450	0.145
-456.011	800.000	0.155	-0.515
-454.997	-14.359	0.124	0.079
-453.982	-119.168	0.232	0.040
-452.968	-69.170	0.088	-0.034
-451.953	-126.352	-0.152	-0.023
-450.938	-106.220	-0.383	-0.086
-449.924	-76.404	0.308	0.108
-448.909	-200.000	-0.016	0.249
-447.895	-200.000	-0.004	0.101
-446.880	-141.049	0.063	-0.006
-445.865	36.206	0.122	0.108
-444.851	96.946	0.187	0.214
-443.836	-57.870	0.204	-0.089
-442.822	22.836	-0.129	-0.105
-441.807	800.000	0.028	-0.107
-440.792	-157.006	-0.379	0.023
-439.778	-118.145	0.224	-0.040
-438.763	-200.000	0.019	0.091
-437.749	-111.139	-0.380	0.078
-436.734	75.870	0.237	0.249
-435.719	118.910	0.141	0.173
-434.705	153.312	-0.071	0.097
-433.690	-23.412	-0.112	-0.067
-432.676	-200.000	0.027	-0.228
-431.661	238.197	-0.093	-0.154
-430.646	73.300	-0.223	0.232
-429.632	-200.000	0.043	0.452
-428.617	-42.577	-0.243	0.123
-427.603	800.000	-0.033	-0.095
-426.588	56.079	-0.078	0.075
-425.573	271.023	0.082	-0.144
-424.559	110.068	0.066	0.079
-423.544	-200.000	0.016	-0.159
-422.530	800.000	0.044	-0.150
-421.515	-76.822	0.217	0.076
-420.500	-190.431	0.065	0.001
-419.486	-123.736	0.174	0.027
-418.471	-89.436	-0.090	0.027
-417.457	245.676	-0.093	-0.155
-416.442	4.664	-0.145	0.106
-415.428	-200.000	-0.067	-0.300
-414.413	38.917	-0.056	-0.050
-413.398	53.521	-0.243	0.232
-412.384	43.603	0.085	0.078
-411.369	-200.000	-0.015	-0.148
-410.355	-200.000	-0.025	-0.156
-409.340	-19.867	-0.075	-0.046
-408.325	101.471	-0.120	0.140
-407.311	-25.185	-0.143	-0.084
-406.296	-18.612	-0.096	0.060
-405.282	25.097	-0.082	-0.067
-404.267	-200.000	-0.019	0.209
-403.252	-54.125	-0.111	-0.050
-402.238	-136.352	-0.016	-0.002
-401.223	-200.000	0.013	0.238
-400.209	-168.363	0.266	0.010
-399.194	-158.546	0.169	-0.010
-398.179	800.000	-0.032	0.133
-397.165	-13.939	0.106	0.068
-396.150	-97.846	0.073	-0.019
-395.136	-66.181	0.052	0.021
-394.121	30.873	0.265	0.226
-393.106	-84.767	0.120	-0.038
-392.092	107.786	0.133	-0.158
-391.077	-83.501	-0.225	-0.072
-390.063	-22.938	0.265	-0.159
-389.048	-95.736	0.159	-0.042
-388.033	331.117	0.085	0.163
-387.019	-78.323	-0.402	-0.137
-386.004	-200.000	0.019	0.107
-384.990	-66.830	0.145	-0.057
-383.975	-143.802	-0.092	-0.009
-382.960	-200.000	0.053	0.527
-381.946	49.854	0.148	0.139
-380.931	-14.516	0.074	0.047
-379.917	-89.575	-0.119	0.035
-378.902	-1.047	-0.201	-0.141
-377.888	800.000	-0.070	0.243
-376.873	2.468	0.250	0.180
-375.858	85.592	0.218	-0.239
-374.844	176.554	-0.088	0.127
-373.829	-200.000	-0.016	0.235
-372.815	-200.000	0.244	-0.001
-371.800	-175.942	0.467	-0.012
-370.785	319.002	0.035	0.066
-369.771	-200.000	0.020	-0.295
-368.756	603.114	-0.078	0.194
-367.742	32.505	0.047	-0.040
-366.727	-65.109	0.196	-0.079
-365.712	-200.000	-0.122	0.001
-364.698	800.000	0.098	-0.395
-363.683	-200.000	-0.045	-0.329
-362.669	119.617	0.129	0.159
-361.654	-50.122	-0.273	-0.129
-360.639	-33.971	0.226	-0.124
-359.625	-200.000	-0.022	-0.370
-358.610	112.037	-0.068	0.082
-357.596	650.897	-0.046	0.116
-356.581	-118.350	-0.414	0.073
-355.566	-200.000	0.042	-0.201
-354.552	-132.503	0.168	0.021
-353.537	24.967	-0.162	0.133
-352.523	481.411	0.065	0.146
-351.508	-40.743	-0.130	-0.067
-350.493	82.604	0.012	-0.013
-349.479	95.820	-0.146	-0.166
-348.464	269.262	-0.085	0.149
-347.450	-11.783	-0.270	-0.176
-346.435	-132.780	-0.500	-0.063
-345.420	-15.015	0.264	-0.168
-344.406	193.770	0.375	-0.564
-343.391	-171.868	0.116	-0.004
-342.377	-58.905	0.158	0.068
-341.362	17.274	0.041	0.032
-340.348	190.081	0.053	-0.080
-339.333	-85.360	-0.379	-0.117
-338.318	105.792	0.086	0.100
-337.304	-13.202	0.164	-0.105
-336.289	800.000	0.054	0.178
-335.275	60.225	0.133	0.130
-334.260	608.353	0.097	-0.240
-333.245	725.452	0.145	0.383
-332.231	376.860	-0.062	-0.126
-331.216	-163.900	0.246	0.011
-330.202	584.903	0.057	0.138
-329.187	204.693	-0.093	-0.144
-328.172	101.552	-0.166	0.192
-327.158	245.089	0.280	-0.468
-326.143	800.000	-0.012	0.046
-325.129	-33.450	-0.195	0.107
-324.114	341.702	-0.075	0.146
-323.099	-72.810	-0.206	-0.075
-322.085	1.824	0.285	0.204
-321.070	78.695	-0.021	0.022
-320.056	-166.357	-0.300	-0.013
-319.041	1.782	-0.251	-0.180
-318.026	-109.149	-0.175	0.037
-317.012	53.645	0.156	0.148
-315.997	-42.386	-0.289	-0.146
-314.983	223.653	-0.172	-0.275
-313.968	-200.000	0.012	0.082
-312.953	800.000	0.057	-0.159
-311.939	800.000	-0.137	-0.376
-310.924	-173.989	0.238	0.007
-309.910	95.603	0.198	-0.224
-308.895	5.111	-0.075	-0.055
-307.880	-34.090	-0.154	-0.084
-306.866	161.467	0.029	-0.041
-305.851	-52.202	0.177	-0.081
-304.837	-98.249	-0.284	0.072
-303.822	-89.596	0.110	-0.032
-302.807	800.000	0.042	-0.127
-301.793	-91.795	-0.094	0.026
-300.778	40.623	0.034	0.030
-299.764	35.466	-0.101	-0.088
-298.749	-102.586	0.280	-0.066
-297.735	60.645	-0.122	-0.120
-296.720	252.660	-0.144	-0.244
-295.705	-92.644	0.388	0.108
-294.691	-19.573	-0.145	-0.089
-293.676	53.495	0.191	-0.181
-292.662	179.668	-0.230	0.334
-291.647	-200.000	-0.018	0.195
-290.632	-152.520	-0.241	-0.017
-289.618	-200.000	-0.034	-0.160
-288.603	-159.348	0.070	-0.004
-287.589	-130.925	0.203	-0.027
-286.574	-72.769	0.315	-0.115
-285.559	800.000	0.032	-0.133
-284.545	-136.585	-0.153	0.018
-283.530	475.085	-0.060	-0.134
-282.516	-44.429	0.100	0.049
-281.501	800.000	0.037	0.156
-280.486	800.000	0.098	0.368
-279.472	102.308	0.099	-0.115
-278.457	67.734	0.160	-0.162
-277.443	-4.234	0.168	-0.115
-276.428	150.788	-0.066	0.089
-275.413	800.000	-0.028	-0.115
-274.399	57.413	0.373	-0.361
-273.384	243.403	0.160	-0.265
-272.370	134.527	0.099	0.128
-271.355	-37.842	0.147	-0.078
-270.340	-148.931	0.012	0.001
-269.326	99.802	-0.104	-0.120
-268.311	-190.675	-0.200	-0.002
-267.297	117.865	0.190	-0.232
-266.282	-72.735	0.122	-0.045
-265.267	-200.000	-0.015	0.103
-264.253	-13.490	-0.193	0.124
-263.238	-54.093	0.369	0.166
-262.224	-1.775	-0.077	0.054
-261.209	-48.842	0.044	0.021
-260.195	-200.000	-0.002	-0.132
-259.180	34.942	-0.266	0.230
-258.165	114.625	0.075	0.090
-257.151	105.300	-0.268	0.313
-256.136	-110.052	0.140	0.029
-255.122	-20.034	-0.102	-0.062
-254.107	-191.017	-0.062	-0.001
-253.092	-126.806	0.235	-0.034
-252.078	152.368	-0.097	0.131
-251.063	-200.000	-0.036	-0.287
-250.049	23.524	-0.162	-0.132
-249.034	-9.970	0.121	-0.079
-248.019	37.903	-0.139	-0.122
-247.005	-160.636	0.049	0.003
-245.990	47.896	-0.293	0.271
-244.976	-76.086	-0.271	-0.095
-243.961	-200.000	0.029	0.310
-242.946	-10.713	-0.272	0.178
-241.932	800.000	0.094	-0.269
-240.917	-101.757	-0.267	0.064
-239.903	-115.437	0.302	-0.056
-238.888	800.000	-0.080	0.236
-237.873	-107.954	0.353	0.076
-236.859	63.885	-0.236	-0.235
-235.844	-200.000	-0.019	0.243
-234.830	623.861	-0.049	-0.122
-233.815	222.507	0.110	0.175
-232.800	-90.298	-0.263	-0.076
-231.786	-5.218	0.377	0.256
-230.771	-99.328	0.492	-0.123
-229.757	-200.000	-0.003	-0.294
-228.742	-117.004	-0.106	0.019
-227.727	347.854	0.067	0.130
-226.713	235.912	0.087	-0.142
-225.698	-200.000	0.016	0.120
-224.684	-200.000	0.030	-0.149
-223.669	-33.316	-0.062	-0.034
-222.655	355.779	-0.167	0.328
-221.640	-116.931	-0.076	0.014
-220.625	18.744	-0.332	-0.263
-219.611	-200.000	0.038	-0.177
-218.596	-76.292	0.143	0.050
-217.582	-73.009	0.153	0.055
-216.567	-154.238	0.035	0.002
-215.552	115.456	0.093	-0.112
-214.538	40.972	-0.227	-0.203
-213.523	-95.851	-0.331	-0.087
-212.509	-200.000	0.000	0.131
-211.494	136.676	-0.178	-0.230
-210.479	-76.972	-0.201	0.069
-209.465	-7.836	0.181	-0.120
-208.450	118.448	0.072	0.088
-207.436	149.774	0.034	-0.046
-206.421	-49.451	0.201	-0.095
-205.406	5.714	-0.370	0.270
-204.392	-200.000	-0.013	0.222
-203.377	-200.000	-0.006	0.194
-202.363	649.712	-0.121	0.305
-201.348	-29.615	0.211	0.119
-200.333	800.000	0.124	0.341
-199.319	-56.533	0.160	0.070
-198.304	52.030	-0.279	-0.262
-197.290	-20.498	-0.250	-0.152
-196.275	278.528	-0.112	0.197
-195.260	-162.178	-0.283	-0.014
-194.246	-121.561	-0.090	-0.015
-193.231	16.213	-0.099	-0.077
-192.217	41.598	-0.320	0.286
-191.202	-35.219	0.086	-0.046
-190.187	-200.000	-0.071	0.420
-189.173	170.635	-0.090	0.127
-188.158	-161.179	0.125	-0.006
-187.144	19.540	0.210	-0.166
-186.129	0.426	0.341	-0.240
-185.114	-200.000	-0.030	-0.321
-184.100	-69.601	0.120	0.045
-183.085	70.092	-0.249	-0.254
-182.071	404.605	-0.143	-0.297
-181.056	8.065	0.147	-0.109
-180.042	-61.216	0.114	0.047
-179.027	800.000	-0.149	0.450
-178.012	121.031	-0.095	-0.117
-176.998	800.000	0.038	-0.129
-175.983	-50.229	0.314	-0.146
-174.969	33.654	-0.124	0.107
-173.954	-122.056	-0.149	-0.024
-172.939	-9.425	0.350	0.230
-171.925	-65.105	-0.229	-0.091
-170.910	-168.151	0.377	-0.014
-169.896	-146.106	-0.134	0.012
-168.881	-113.861	0.207	-0.040
-167.866	411.260	0.108	0.226
-166.852	-26.287	-0.144	-0.084
-165.837	-68.136	0.118	0.045
-164.823	-200.000	-0.019	0.297
-163.808	800.000	-0.036	0.107
-162.793	-200.000	-0.021	0.159
-161.779	-14.049	0.346	0.220
-160.764	73.398	-0.110	0.114
-159.750	-200.000	0.044	0.229
-158.735	-62.443	-0.056	0.023
-157.720	-0.681	-0.217	-0.152
-156.706	50.969	0.098	0.091
-155.691	94.518	-0.209	-0.234
-154.677	-67.594	-0.303	0.117
-153.662	-186.014	0.322	0.005
-152.647	-136.222	-0.280	-0.032
-151.633	495.593	-0.052	0.117
-150.618	434.320	-0.042	-0.091
-149.604	371.822	-0.071	-0.142
-148.589	800.000	-0.170	0.515
-147.574	-192.495	-0.202	0.002
-146.560	12.118	-0.161	0.122
-145.545	-113.235	-0.247	-0.048
-144.531	-79.920	0.107	0.036
-143.516	-120.443	0.373	0.063
-142.502	347.927	-0.121	-0.236
-141.487	-153.371	0.358	-0.025
-140.472	800.000	-0.021	0.086
-139.458	800.000	-0.074	0.316
-138.443	800.000	-0.036	-0.152
-137.429	-194.437	-0.066	0.001
-136.414	-140.714	0.316	-0.032
-135.399	-161.220	0.236	0.012
-134.385	143.661	0.173	0.227
-133.370	-4.109	0.077	-0.053
-132.356	-165.649	0.169	0.007
-131.341	-17.504	-0.099	-0.061
-130.326	800.000	-0.036	-0.107
-129.312	800.000	0.102	0.373
-128.297	-77.455	0.300	0.103
-127.283	800.000	0.019	0.058
-126.268	-62.511	0.286	0.117
-125.253	-14.919	-0.114	0.072
-124.239	120.606	0.077	-0.094
-123.224	125.214	0.302	-0.375
-122.210	-200.000	0.040	0.502
-121.195	-148.755	0.252	0.020
