DTS Sentinel unit serial number:	SN413079Multiplexer serial number:	ORYXHardware model number:	OX4-SRSoftware version number:	ORYX F/W v4.00 Oryx Data Collector v3.7.2.0data status	okinstallation	princeton_trtdifferential loss correction	single-endedforward channel	channel 2reverse channel	N/Adate	2019/09/11time	10:53:11forward acquisition time	60.00reverse acquisition time	0.00gamma	496.2192k internal	0.2309k external	0.2309temperature offset calibration	0.9967default loss term (dB/km)	0.3790temperature slope calibration	1.0000multiplexer offset coefficient	1.0000multiplexer slope coefficient	1.0000fibre end	0.00T internal ref (°C)	37.00T ext. ref 1 (°C)	0.16T ext. ref 2 (°C)	34.03length (m)	temperature (°C)	Stokes	anti-Stokes-747.200	-121.078	0.218	0.037
-746.185	800.000	0.114	0.486
-745.171	168.619	-0.130	0.188
-744.156	156.247	0.115	0.161
-743.142	31.043	-0.046	0.040
-742.127	-142.779	-0.076	0.008
-741.112	-33.544	0.154	0.087
-740.098	135.351	0.021	0.027
-739.083	-200.000	0.019	0.116
-738.069	139.094	-0.274	0.366
-737.054	-200.000	0.056	0.548
-736.039	-103.958	-0.260	0.062
-735.025	31.307	0.183	0.160
-734.010	56.193	0.091	0.089
-732.996	156.226	-0.233	0.327
-731.981	-86.282	0.208	-0.065
-730.966	-200.000	-0.017	-0.105
-729.952	-200.000	0.038	-0.237
-728.937	-45.115	-0.069	-0.035
-727.923	495.427	0.076	0.178
-726.908	800.000	-0.147	-0.482
-725.894	-6.681	-0.170	0.117
-724.879	-62.645	-0.303	0.128
-723.864	-98.715	-0.220	0.057
-722.850	-6.636	-0.051	0.035
-721.835	43.560	0.164	-0.152
-720.821	-48.825	0.109	-0.053
-719.806	21.945	0.140	-0.116
-718.791	-21.070	-0.241	0.150
-717.777	513.117	-0.100	-0.237
-716.762	168.663	0.154	-0.223
-715.748	-130.705	-0.200	-0.027
-714.733	800.000	0.130	-0.461
-713.718	-200.000	-0.020	-0.319
-712.704	-40.854	-0.399	-0.210
-711.689	-200.000	0.021	-0.199
-710.675	-1.080	-0.135	-0.097
-709.660	321.076	0.197	0.381
-708.645	293.091	0.060	0.112
-707.631	-200.000	0.055	0.277
-706.616	147.825	-0.116	-0.159
-705.602	-200.000	-0.012	0.240
-704.587	-149.872	0.241	-0.019
-703.572	460.936	0.090	0.204
-702.558	-1.809	0.149	-0.107
-701.543	225.537	-0.069	-0.114
-700.529	59.280	-0.140	0.139
-699.514	-127.713	-0.241	0.035
-698.499	8.550	-0.026	0.020
-697.485	-134.207	-0.403	0.050
-696.470	-94.471	-0.113	0.031
-695.456	-200.000	0.009	-0.100
-694.441	170.349	0.163	0.236
-693.426	384.197	-0.181	-0.379
-692.412	27.140	0.173	0.147
-691.397	-54.954	-0.244	0.111
-690.383	247.908	-0.038	0.066
-689.368	-200.000	0.042	-0.204
-688.354	-52.095	-0.154	0.072
-687.339	655.905	-0.057	-0.149
-686.324	-200.000	-0.011	0.237
-685.310	641.395	-0.113	-0.292
-684.295	-1.333	0.201	-0.144
-683.281	800.000	0.074	-0.326
-682.266	-160.551	-0.175	-0.009
-681.251	-178.768	-0.108	0.002
-680.237	278.093	-0.008	-0.014
-679.222	125.752	-0.077	-0.098
-678.208	-200.000	0.041	0.431
-677.193	-109.799	0.361	0.077
-676.178	362.935	0.097	-0.197
-675.164	-200.000	0.000	0.061
-674.149	-39.644	0.109	0.058
-673.135	447.518	0.067	0.150
-672.120	172.897	0.222	-0.324
-671.105	-32.831	0.180	-0.101
-670.091	-32.277	-0.192	0.109
-669.076	800.000	-0.017	-0.057
-668.062	-6.511	0.087	-0.060
-667.047	800.000	0.072	0.202
-666.032	-200.000	0.018	0.088
-665.018	63.657	-0.078	0.079
-664.003	558.633	-0.154	0.377
-662.989	248.977	-0.273	0.469
-661.974	-200.000	0.007	0.095
-660.959	-200.000	0.012	0.064
-659.945	-200.000	-0.006	-0.123
-658.930	192.321	-0.068	-0.104
-657.916	-200.000	-0.004	0.107
-656.901	204.965	-0.075	0.117
-655.886	341.101	-0.097	-0.192
-654.872	-128.199	0.270	-0.039
-653.857	423.556	-0.055	0.121
-652.843	-24.550	-0.115	0.070
-651.828	800.000	0.038	0.107
-650.814	-60.954	-0.397	-0.170
-649.799	680.879	0.084	-0.222
-648.784	-200.000	0.027	0.418
-647.770	-124.307	-0.026	-0.004
-646.755	-125.482	0.133	0.020
-645.741	43.946	0.139	-0.129
-644.726	-109.994	-0.120	-0.025
-643.711	800.000	-0.029	0.086
-642.697	-200.000	-0.075	-0.482
-641.682	-200.000	0.052	0.278
-640.668	142.534	0.148	-0.199
-639.653	-133.278	-0.193	-0.025
-638.638	-148.696	0.263	0.022
-637.624	-15.875	0.182	-0.117
-636.609	170.417	-0.084	-0.121
-635.595	-200.000	-0.078	0.417
-634.580	-14.740	-0.053	0.034
-633.565	-200.000	0.023	-0.332
-632.551	-200.000	-0.024	0.175
-631.536	81.634	-0.097	-0.106
-630.522	-8.613	0.261	0.177
-629.507	-68.220	0.367	-0.145
-628.492	34.494	-0.264	-0.233
-627.478	800.000	-0.057	-0.165
-626.463	582.264	-0.045	0.112
-625.449	761.716	-0.043	0.118
-624.434	-0.780	-0.131	-0.094
-623.419	-200.000	-0.000	0.419
-622.405	-82.848	0.093	0.030
-621.390	-16.567	0.052	0.033
-620.376	-200.000	-0.012	-0.074
-619.361	-7.956	-0.226	-0.154
-618.346	596.208	0.052	-0.130
-617.332	-38.599	-0.232	-0.124
-616.317	-137.091	-0.237	0.027
-615.303	-161.250	-0.084	-0.004
-614.288	-5.872	0.106	0.073
-613.273	220.896	-0.021	0.034
-612.259	73.990	-0.162	-0.172
-611.244	739.520	0.124	-0.337
-610.230	-20.612	0.150	0.093
-609.215	-9.718	-0.166	-0.112
-608.201	-91.305	0.084	-0.024
-607.186	-81.215	0.175	0.058
-606.171	-200.000	-0.061	-0.393
-605.157	738.220	0.034	0.091
-604.142	-200.000	-0.007	0.120
-603.128	184.574	0.189	0.284
-602.113	-122.910	-0.090	-0.015
-601.098	43.323	-0.239	0.220
-600.084	-11.579	0.286	0.190
-599.069	65.846	-0.115	-0.118
-598.055	-200.000	0.002	-0.146
-597.040	209.965	-0.071	0.112
-596.025	171.562	0.093	-0.135
-595.011	-139.236	-0.128	0.014
-593.996	63.523	0.256	0.259
-592.982	-139.327	0.298	-0.032
-591.967	195.122	-0.056	-0.087
-590.952	-78.865	-0.071	-0.024
-589.938	-82.811	0.189	0.062
-588.923	107.103	0.183	0.219
-587.909	-119.862	0.270	0.047
-586.894	800.000	-0.100	0.282
-585.879	-63.571	0.202	-0.084
-584.865	-74.400	-0.321	-0.117
-583.850	620.568	-0.042	-0.106
-582.836	-137.427	0.201	-0.023
-581.821	-22.610	0.206	0.126
-580.806	80.188	0.154	0.167
-579.792	250.001	-0.093	0.159
-578.777	341.729	0.094	0.186
-577.763	-68.645	-0.179	0.070
-576.748	-200.000	-0.025	-0.297
-575.733	64.911	-0.405	-0.413
-574.719	404.954	0.119	0.253
-573.704	800.000	0.040	0.144
-572.690	800.000	-0.054	-0.195
-571.675	-91.098	-0.029	0.008
-570.661	-200.000	0.002	-0.031
-569.646	800.000	-0.038	0.157
-568.631	-100.317	-0.195	-0.049
-567.617	-198.808	0.269	-0.002
-566.602	154.868	-0.050	0.069
-565.588	-115.254	-0.485	0.093
-564.573	-200.000	-0.004	-0.121
-563.558	-75.772	-0.215	-0.077
-562.544	-74.311	-0.324	0.118
-561.529	-59.208	0.241	0.105
-560.515	512.118	0.049	-0.115
-559.500	27.597	0.111	-0.094
-558.485	-109.220	-0.020	0.004
-557.471	5.645	-0.252	-0.188
-556.456	-64.437	-0.083	-0.034
-555.442	-12.614	0.124	0.081
-554.427	27.742	-0.101	-0.086
-553.412	-200.000	0.026	0.189
-552.398	355.473	-0.102	-0.205
-551.383	239.398	0.038	0.063
-550.369	-88.436	-0.149	-0.045
-549.354	-75.143	0.241	0.087
-548.339	-200.000	-0.024	0.265
-547.325	-200.000	0.002	0.143
-546.310	-14.899	-0.126	0.081
-545.296	161.858	0.058	0.082
-544.281	-200.000	0.063	0.283
-543.266	-32.802	-0.255	0.143
-542.252	-54.266	0.406	0.186
-541.237	69.552	0.073	0.075
-540.223	-129.567	-0.250	0.035
-539.208	-106.904	0.231	0.052
-538.193	-200.000	0.048	-0.000
-537.179	-181.456	0.315	0.006
-536.164	-100.141	0.065	-0.016
-535.150	-200.000	0.020	0.147
-534.135	-200.000	-0.025	-0.205
-533.121	800.000	-0.053	0.176
-532.106	-128.765	0.335	-0.048
-531.091	-200.000	-0.037	0.487
-530.077	307.724	0.149	0.280
-529.062	375.244	0.151	-0.310
-528.048	608.298	-0.020	0.050
-527.033	1.724	0.106	0.077
-526.018	-120.758	-0.115	-0.020
-525.004	-29.524	-0.201	0.116
-523.989	-200.000	0.045	0.536
-522.975	-26.027	-0.224	-0.133
-521.960	-163.175	-0.195	-0.009
-520.945	121.474	-0.140	0.175
-519.931	-117.176	-0.243	-0.044
-518.916	-200.000	-0.287	-0.001
-517.902	-80.180	-0.397	-0.134
-516.887	-200.000	0.033	-0.264
-515.872	-192.592	-0.480	0.004
-514.858	-7.144	0.141	0.097
-513.843	-56.835	0.110	-0.049
-512.829	-113.847	-0.178	-0.035
-511.814	28.813	0.192	-0.164
-510.799	-200.000	0.039	-0.231
-509.785	89.505	0.200	-0.225
-508.770	-200.000	0.049	-0.215
-507.756	408.742	0.126	0.269
-506.741	740.431	-0.008	-0.021
-505.726	800.000	-0.040	0.156
-504.712	153.862	-0.141	0.194
-503.697	5.457	-0.396	-0.294
-502.683	92.739	-0.289	-0.328
-501.668	-78.909	0.270	0.093
-500.653	164.899	0.100	-0.142
-499.639	-133.689	-0.250	-0.031
-498.624	-156.143	-0.037	0.002
-497.610	236.260	-0.099	-0.165
-496.595	800.000	-0.044	-0.168
-495.581	-134.739	0.073	0.009
-494.566	115.490	0.166	0.204
-493.551	22.266	0.055	-0.045
-492.537	-95.088	-0.226	-0.061
-491.522	85.345	-0.085	-0.094
-490.508	-200.000	-0.048	0.360
-489.493	140.530	-0.137	0.182
-488.478	-200.000	-0.016	0.289
-487.464	-174.122	-0.151	-0.004
-486.449	-118.946	-0.184	-0.032
-485.435	-200.000	0.015	-0.081
-484.420	-20.071	0.174	-0.108
-483.405	229.429	0.142	0.233
-482.391	-109.998	-0.158	-0.033
-481.376	207.662	-0.076	-0.119
-480.362	-71.092	-0.284	-0.107
-479.347	800.000	0.069	-0.238
-478.332	-200.000	-0.013	0.090
-477.318	-124.281	0.151	-0.024
-476.303	-75.058	0.200	0.072
-475.289	-4.056	0.089	0.062
-474.274	-200.000	-0.004	-0.028
-473.259	-12.138	-0.161	0.106
-472.245	800.000	-0.068	0.221
-471.230	-180.050	0.210	0.004
-470.216	-42.243	0.104	-0.054
-469.201	613.741	-0.047	0.118
-468.186	800.000	-0.059	0.178
-467.172	36.316	-0.139	0.123
-466.157	159.476	-0.239	0.335
-465.143	400.444	-0.103	0.217
-464.128	-2.843	-0.338	0.237
-463.113	-16.567	-0.271	-0.173
-462.099	209.615	-0.143	-0.226
-461.084	214.165	0.069	-0.109
-460.070	128.012	-0.162	-0.207
-459.055	338.165	0.125	0.244
-458.040	41.219	0.095	-0.087
-457.026	137.603	-0.162	-0.213
-456.011	138.183	-0.137	-0.181
-454.997	800.000	0.054	-0.159
-453.982	-66.209	0.154	0.062
-452.968	-170.393	0.279	0.010
-451.953	800.000	0.020	-0.087
-450.938	313.115	0.127	-0.240
-449.924	-146.534	-0.109	-0.010
-448.909	-200.000	0.008	0.134
-447.895	-200.000	0.008	-0.421
-446.880	-107.306	0.217	-0.048
-445.865	25.281	-0.175	-0.146
-444.851	-111.798	-0.156	0.032
-443.836	-103.833	0.143	-0.034
-442.822	53.216	-0.113	0.108
-441.807	-179.585	0.378	0.008
-440.792	9.883	-0.136	0.104
-439.778	408.823	0.095	0.203
-438.763	-104.812	0.358	-0.083
-437.749	140.813	-0.134	-0.178
-436.734	-136.586	0.130	0.015
-435.719	800.000	-0.061	-0.177
-434.705	602.591	-0.069	-0.172
-433.690	793.402	0.081	0.225
-432.676	468.812	0.137	0.309
-431.661	800.000	-0.016	0.067
-430.646	24.560	-0.110	-0.092
-429.632	-10.456	-0.100	-0.067
-428.617	193.010	-0.040	0.061
-427.603	-100.951	-0.055	-0.014
-426.588	41.039	0.248	0.225
-425.573	451.232	-0.073	-0.162
-424.559	800.000	-0.070	0.288
-423.544	-81.091	-0.221	0.073
-422.530	575.375	-0.069	-0.169
-421.515	-177.410	0.151	-0.004
-420.500	6.100	-0.214	-0.159
-419.486	288.731	-0.166	-0.302
-418.471	14.603	-0.117	0.092
-417.457	593.208	0.087	-0.215
-416.442	31.516	-0.227	-0.196
-415.428	-4.727	-0.161	-0.112
-414.413	-31.402	-0.106	-0.060
-413.398	73.486	0.118	-0.124
-412.384	-93.992	0.161	-0.044
-411.369	9.297	0.022	0.016
-410.355	20.604	0.341	0.277
-409.340	-200.000	-0.013	0.093
-408.325	194.315	0.028	0.043
-407.311	-82.074	-0.308	0.101
-406.296	800.000	0.156	0.451
-405.282	484.804	0.073	-0.167
-404.267	-61.815	-0.042	-0.018
-403.252	8.008	0.158	-0.119
-402.238	206.648	-0.219	0.341
-401.223	98.164	0.133	0.154
-400.209	315.216	0.014	0.027
-399.194	800.000	0.039	-0.133
-398.179	-93.878	-0.163	-0.045
-397.165	-200.000	-0.014	-0.202
-396.150	92.950	-0.152	-0.172
-395.136	-109.383	0.214	0.046
-394.121	-12.048	0.162	-0.107
-393.106	131.251	-0.195	-0.251
-392.092	-39.012	-0.175	-0.092
-391.077	-37.917	0.118	-0.063
-390.063	2.250	0.078	-0.056
-389.048	-108.788	0.084	0.018
-388.033	-90.494	0.209	-0.061
-387.019	-200.000	-0.022	0.173
-386.004	-147.663	-0.357	-0.030
-384.990	583.177	0.153	0.377
-383.975	183.069	-0.110	-0.163
-382.960	-41.227	-0.182	0.094
-381.946	-113.439	0.026	0.005
-380.931	67.701	-0.403	-0.413
-379.917	-120.670	-0.069	0.012
-378.902	27.098	-0.137	-0.116
-377.888	-79.641	-0.314	-0.106
-376.873	15.875	-0.258	-0.204
-375.858	-200.000	0.001	-0.047
-374.844	-109.468	0.112	0.024
-373.829	205.836	-0.281	-0.438
-372.815	-60.178	0.046	-0.019
-371.800	-200.000	0.003	0.239
-370.785	-120.094	0.081	-0.014
-369.771	-200.000	-0.038	0.227
-368.756	-29.585	-0.389	0.223
-367.742	-16.734	0.392	-0.248
-366.727	681.076	-0.141	0.368
-365.712	-200.000	0.028	0.158
-364.698	-116.384	-0.180	-0.033
-363.683	220.144	-0.161	-0.259
-362.669	-150.106	-0.339	0.026
-361.654	-120.303	0.111	0.019
-360.639	-160.077	0.119	0.007
-359.625	-87.038	0.265	-0.081
-358.610	-57.588	0.162	-0.071
-357.596	-200.000	0.010	-0.094
-356.581	-164.934	0.179	0.008
-355.566	800.000	-0.119	-0.444
-354.552	-96.291	0.099	-0.026
-353.537	-186.115	-0.153	0.002
-352.523	-99.898	0.271	-0.068
-351.508	-200.000	-0.012	0.360
-350.493	348.499	-0.081	-0.160
-349.479	-200.000	-0.014	0.166
-348.464	-200.000	0.005	0.036
-347.450	-77.500	-0.114	-0.039
-346.435	-48.019	-0.171	-0.083
-345.420	800.000	-0.090	-0.290
-344.406	800.000	0.067	-0.240
-343.391	442.478	0.024	0.052
-342.377	800.000	-0.143	0.519
-341.362	600.949	0.037	-0.091
-340.348	-63.522	0.252	0.103
-339.333	-200.000	0.016	-0.102
-338.318	214.186	0.092	0.146
-337.304	56.434	0.252	-0.245
-336.289	-84.305	0.167	-0.053
-335.275	88.821	-0.124	-0.138
-334.260	-40.730	0.226	-0.117
-333.245	349.979	0.055	-0.109
-332.231	-78.249	0.187	-0.064
-331.216	-42.455	0.200	0.102
-330.202	800.000	-0.056	0.238
-329.187	312.869	-0.180	0.339
-328.172	188.678	-0.296	0.443
-327.158	-11.454	0.232	-0.152
-326.143	-79.538	-0.241	0.081
-325.129	1.351	-0.213	0.153
-324.114	-200.000	-0.038	-0.585
-323.099	-47.485	-0.354	0.172
-322.085	-45.309	-0.124	-0.061
-321.070	77.582	0.142	0.151
-320.056	800.000	0.028	0.086
-319.041	-137.513	0.335	0.038
-318.026	43.401	0.308	0.281
-317.012	175.239	0.163	-0.236
-315.997	-41.170	0.276	-0.142
-314.983	620.601	0.215	-0.541
-313.968	-139.575	0.224	-0.024
-312.953	-65.578	0.098	0.039
-311.939	-200.000	-0.001	-0.124
-310.924	0.237	0.270	-0.192
-309.910	-63.471	0.339	0.139
-308.895	171.396	-0.171	-0.246
-307.880	-132.679	0.162	0.021
-306.866	-108.636	0.124	-0.027
-305.851	60.651	-0.231	0.229
-304.837	-82.165	0.054	0.018
-303.822	-28.035	-0.255	-0.148
-302.807	-138.220	0.195	0.022
-301.793	89.792	0.135	0.150
-300.778	-29.672	0.321	0.183
-299.764	-86.536	-0.241	-0.074
-298.749	-200.000	-0.012	0.327
-297.735	141.101	0.043	-0.057
-296.720	-200.000	0.309	-0.000
-295.705	-117.111	-0.111	0.020
-294.691	90.145	0.227	0.254
-293.676	623.668	0.038	0.095
-292.662	800.000	-0.041	-0.126
-291.647	40.876	0.172	0.155
-290.632	142.093	0.238	-0.316
-289.618	-200.000	0.020	-0.217
-288.603	-44.488	-0.194	0.097
-287.589	800.000	-0.089	0.328
-286.574	-39.796	0.277	0.144
-285.559	800.000	-0.116	0.354
-284.545	800.000	0.132	0.429
-283.530	417.295	-0.166	0.355
-282.516	-148.527	0.165	-0.013
-281.501	84.192	-0.198	0.216
-280.486	-170.554	-0.063	-0.002
-279.472	-150.277	0.148	-0.011
-278.457	-45.779	-0.333	-0.164
-277.443	-139.142	0.123	-0.013
-276.428	-95.945	0.152	-0.040
-275.413	-83.023	0.553	-0.178
-274.399	-97.906	0.229	-0.059
-273.384	298.258	0.042	0.078
-272.370	-157.813	0.246	0.015
-271.355	-46.418	-0.245	-0.120
-270.340	189.405	-0.278	0.416
-269.326	336.281	0.073	0.141
-268.311	800.000	-0.055	-0.153
-267.297	66.028	-0.167	-0.169
-266.282	800.000	0.078	-0.240
-265.267	17.152	-0.152	0.121
-264.253	34.235	0.050	-0.044
-263.238	144.602	0.089	-0.118
-262.224	296.981	0.131	-0.239
-261.209	272.134	0.027	0.048
-260.195	47.090	-0.148	-0.137
-259.180	430.825	0.041	0.088
-258.165	357.895	0.043	-0.086
-257.151	-200.000	0.000	0.134
-256.136	13.492	0.126	-0.097
-255.122	121.242	-0.057	-0.071
-254.107	94.584	-0.297	0.336
-253.092	184.739	0.104	-0.153
-252.078	-126.855	-0.119	0.018
-251.063	-12.246	-0.289	0.188
-250.049	-32.261	-0.454	-0.253
-249.034	-200.000	-0.022	-0.196
-248.019	800.000	0.080	-0.244
-247.005	486.907	0.091	-0.206
-245.990	-200.000	-0.005	-0.117
-244.976	4.845	0.414	-0.303
-243.961	63.176	-0.117	-0.117
-242.946	715.741	-0.089	0.235
-241.932	-79.765	-0.218	-0.073
-240.917	-177.318	0.170	-0.004
-239.903	297.044	-0.105	0.191
-238.888	-0.796	0.233	-0.165
-237.873	19.450	0.314	0.251
-236.859	93.288	0.045	0.051
-235.844	251.448	-0.226	0.383
-234.830	-153.282	0.294	0.020
-233.815	366.079	0.080	0.161
-232.800	-84.966	-0.341	-0.106
-231.786	-130.521	-0.133	-0.018
-230.771	-200.000	0.014	-0.277
-229.757	250.993	-0.028	0.047
-228.742	-60.042	0.315	-0.134
-227.727	236.283	0.118	0.194
-226.713	421.274	0.093	-0.199
-225.698	38.763	0.180	0.160
-224.684	-86.295	-0.109	-0.034
-223.669	-74.341	-0.338	0.122
-222.655	299.018	-0.147	-0.269
-221.640	-59.125	0.148	-0.064
-220.625	-200.000	-0.037	0.000
-219.611	445.707	0.033	0.072
-218.596	585.944	0.046	-0.113
-217.582	-174.051	-0.131	-0.004
-216.567	-181.884	-0.290	-0.006
-215.552	800.000	0.045	0.147
-214.538	455.274	-0.079	-0.173
-213.523	463.330	-0.092	0.205
-212.509	20.403	0.032	0.026
-211.494	166.538	0.248	0.350
-210.479	-15.193	0.206	0.131
-209.465	186.700	0.103	-0.153
-208.450	120.024	0.213	0.263
-207.436	-191.562	0.132	-0.001
-206.421	5.353	-0.380	-0.279
-205.406	-12.937	0.418	0.271
-204.392	623.911	-0.142	0.355
-203.377	800.000	-0.023	-0.089
-202.363	-18.182	-0.276	-0.172
-201.348	696.070	-0.153	-0.401
-200.333	-138.508	0.125	0.014
-199.319	800.000	0.026	-0.095
-198.304	500.293	0.157	-0.360
-197.290	115.964	-0.116	0.141
-196.275	-28.178	0.231	0.133
-195.260	800.000	-0.030	0.100
-194.246	545.987	0.064	-0.152
-193.231	-60.382	0.170	0.072
-192.217	-2.444	0.110	-0.077
-191.202	-94.468	-0.482	-0.131
-190.187	656.864	-0.095	0.242
-189.173	68.943	-0.213	-0.218
-188.158	72.264	0.090	0.093
-187.144	-200.000	-0.006	0.197
-186.129	540.758	-0.093	0.221
-185.114	800.000	0.023	-0.092
-184.100	-110.288	0.296	0.061
-183.085	-200.000	-0.018	0.151
-182.071	-30.328	-0.287	0.162
-181.056	-0.740	-0.127	-0.090
-180.042	195.442	0.016	0.024
-179.027	318.984	0.090	0.170
-178.012	-200.000	0.002	-0.158
-176.998	-33.502	-0.172	0.095
-175.983	800.000	-0.043	0.182
-174.969	-200.000	0.015	-0.156
-173.954	-200.000	0.001	0.014
-172.939	800.000	0.042	-0.157
-171.925	8.159	0.131	-0.098
-170.910	213.975	-0.209	-0.328
-169.896	-120.591	0.157	-0.026
-168.881	313.790	0.103	-0.193
-167.866	800.000	-0.133	0.409
-166.852	-143.675	0.120	0.011
-165.837	41.293	-0.143	0.128
-164.823	0.190	-0.038	-0.027
-163.808	-160.124	-0.341	-0.018
-162.793	301.359	-0.189	-0.346
-161.779	254.036	0.071	-0.120
-160.764	-200.000	-0.021	-0.180
-159.750	-59.098	0.063	-0.027
-158.735	48.115	0.143	0.133
-157.720	-169.330	0.146	0.005
-156.706	-57.484	0.105	-0.046
-155.691	-23.182	0.267	0.160
-154.677	-57.548	0.309	0.135
-153.662	-200.000	0.026	-0.131
-152.647	-40.674	0.383	-0.197
-151.633	84.856	0.171	-0.186
-150.618	-86.155	-0.041	-0.013
-149.604	800.000	-0.044	-0.159
-148.589	502.607	-0.080	0.184
-147.574	266.692	0.116	0.201
-146.560	-68.605	0.107	0.041
-145.545	-80.887	0.250	-0.082
-144.531	-10.516	0.039	0.026
-143.516	-127.446	-0.235	0.034
-142.502	-149.038	0.175	0.014
-141.487	597.622	0.047	-0.115
-140.472	51.440	0.168	-0.159
-139.458	4.169	-0.179	-0.130
-138.443	-200.000	0.060	-0.346
-137.429	193.687	-0.047	0.071
-136.414	-57.999	0.300	0.130
-135.399	363.017	0.108	-0.214
-134.385	-88.352	0.167	-0.050
-133.370	-21.728	0.186	-0.112
-132.356	-200.000	-0.041	-0.382
-131.341	235.376	-0.097	-0.159
-130.326	-42.359	0.040	0.020
-129.312	579.193	0.108	-0.262
-128.297	63.324	0.328	-0.327
-127.283	-33.291	-0.162	-0.089
-126.268	-200.000	-0.089	0.446
-125.253	-200.000	-0.040	0.190
-124.239	-129.483	0.256	0.035
-123.224	8.055	-0.184	0.137
-122.210	260.507	0.177	0.304
-121.195	-200.000	-0.048	0.218
