DTS Sentinel unit serial number:	SN413079Multiplexer serial number:	ORYXHardware model number:	OX4-SRSoftware version number:	ORYX F/W v4.00 Oryx Data Collector v3.7.2.0data status	okinstallation	princeton_trtdifferential loss correction	single-endedforward channel	channel 2reverse channel	N/Adate	2019/09/16time	20:47:34forward acquisition time	60.00reverse acquisition time	0.00gamma	496.2192k internal	0.2329k external	0.2329temperature offset calibration	0.9967default loss term (dB/km)	0.3790temperature slope calibration	1.0000multiplexer offset coefficient	1.0000multiplexer slope coefficient	1.0000fibre end	0.00T internal ref (°C)	32.31T ext. ref 1 (°C)	0.07T ext. ref 2 (°C)	25.94length (m)	temperature (°C)	Stokes	anti-Stokes-747.200	-5.084	0.160	0.111
-746.185	-22.320	0.162	0.099
-745.171	-200.000	-0.010	0.081
-744.156	641.142	0.196	0.503
-743.142	-73.860	-0.142	0.052
-742.127	-200.000	-0.023	0.288
-741.112	215.764	-0.136	-0.218
-740.098	-136.154	-0.157	0.019
-739.083	-161.791	0.246	-0.013
-738.069	237.040	-0.280	0.467
-737.054	-5.533	0.131	-0.091
-736.039	102.195	0.155	-0.183
-735.025	62.325	0.117	0.118
-734.010	-164.454	-0.462	-0.021
-732.996	335.219	-0.050	-0.097
-731.981	-200.000	0.015	-0.210
-730.966	800.000	0.123	-0.342
-729.952	635.925	-0.084	-0.215
-728.937	-200.000	0.039	-0.366
-727.923	-81.991	-0.216	0.071
-726.908	252.088	-0.068	0.117
-725.894	-1.010	0.219	-0.156
-724.879	-71.700	-0.092	-0.035
-723.864	800.000	0.045	0.139
-722.850	-130.573	0.123	0.017
-721.835	187.258	0.015	-0.022
-720.821	-125.198	0.249	-0.038
-719.806	32.187	-0.348	-0.302
-718.791	634.165	0.108	-0.277
-717.777	-76.977	-0.333	-0.117
-716.762	-200.000	0.044	-0.265
-715.748	-200.000	-0.005	-0.135
-714.733	-114.164	0.091	0.018
-713.718	-200.000	-0.094	-0.430
-712.704	-26.905	0.145	-0.085
-711.689	800.000	0.070	-0.207
-710.675	23.770	-0.062	-0.051
-709.660	-161.550	0.293	-0.015
-708.645	256.280	-0.059	-0.102
-707.631	-56.641	-0.210	-0.093
-706.616	90.151	0.081	0.091
-705.602	1.819	0.132	-0.096
-704.587	95.477	-0.188	-0.215
-703.572	31.998	-0.056	-0.049
-702.558	278.658	-0.099	-0.177
-701.543	420.473	-0.127	-0.275
-700.529	-200.000	-0.009	-0.177
-699.514	69.859	0.079	-0.082
-698.499	-122.713	-0.245	-0.040
-697.485	-139.132	-0.259	0.028
-696.470	127.190	0.110	0.140
-695.456	-60.650	-0.427	-0.182
-694.441	207.616	-0.137	-0.215
-693.426	137.911	0.129	0.170
-692.412	-200.000	-0.022	-0.147
-691.397	39.187	0.216	0.194
-690.383	800.000	-0.046	0.127
-689.368	505.222	-0.055	-0.128
-688.354	-99.000	0.198	-0.051
-687.339	-128.573	0.051	-0.007
-686.324	-200.000	0.009	-0.199
-685.310	91.841	-0.226	-0.256
-684.295	-200.000	0.305	-0.001
-683.281	73.620	-0.106	-0.111
-682.266	96.791	-0.156	-0.179
-681.251	800.000	-0.121	-0.522
-680.237	-200.000	-0.025	-0.134
-679.222	800.000	-0.114	-0.334
-678.208	-93.139	-0.225	0.063
-677.193	-200.000	-0.015	-0.129
-676.178	-200.000	0.065	-0.497
-675.164	-151.150	0.201	-0.015
-674.149	762.057	-0.065	-0.177
-673.135	800.000	-0.036	-0.128
-672.120	147.252	-0.137	-0.186
-671.105	-116.917	-0.350	-0.064
-670.091	-200.000	-0.003	-0.260
-669.076	584.653	-0.144	-0.355
-668.062	-137.325	0.180	-0.020
-667.047	591.640	-0.035	-0.086
-666.032	56.564	0.089	0.087
-665.018	-200.000	-0.069	-0.318
-664.003	119.559	0.140	-0.174
-662.989	0.280	0.123	-0.088
-661.974	-200.000	0.014	0.137
-660.959	-200.000	-0.015	0.069
-659.945	-89.549	-0.097	0.028
-658.930	216.113	-0.043	0.069
-657.916	238.804	0.037	0.062
-656.901	96.215	-0.034	0.039
-655.886	-11.627	-0.307	-0.202
-654.872	-8.175	0.068	0.046
-653.857	-94.810	-0.163	0.044
-652.843	-147.079	0.233	0.020
-651.828	200.080	-0.348	-0.536
-650.814	110.875	0.212	-0.257
-649.799	99.705	-0.021	0.024
-648.784	800.000	0.043	-0.149
-647.770	-154.114	-0.327	-0.022
-646.755	-200.000	-0.005	-0.238
-645.741	800.000	-0.049	-0.196
-644.726	-33.570	-0.163	0.090
-643.711	-75.248	-0.117	-0.042
-642.697	72.270	0.103	0.108
-641.682	-44.236	0.195	0.098
-640.668	41.794	-0.212	0.193
-639.653	800.000	-0.052	0.199
-638.638	454.233	0.091	0.202
-637.624	280.802	0.102	-0.182
-636.609	9.948	0.133	-0.101
-635.595	-26.619	-0.303	0.178
-634.580	-150.468	0.149	-0.011
-633.565	-39.330	0.265	-0.140
-632.551	422.168	0.040	0.086
-631.536	-200.000	0.026	-0.228
-630.522	-200.000	-0.018	0.083
-629.507	-200.000	0.016	-0.086
-628.492	-200.000	-0.009	-0.256
-627.478	35.336	-0.079	0.069
-626.463	-200.000	0.078	-0.443
-625.449	183.140	-0.324	0.480
-624.434	-200.000	-0.035	0.393
-623.419	-94.495	-0.374	-0.102
-622.405	122.994	-0.095	0.119
-621.390	183.369	0.027	0.039
-620.376	358.538	-0.059	-0.118
-619.361	-5.828	-0.053	-0.036
-618.346	429.997	0.176	0.382
-617.332	226.197	-0.137	-0.223
-616.317	800.000	-0.091	0.348
-615.303	57.526	-0.058	0.057
-614.288	-34.634	-0.143	0.078
-613.273	-56.262	-0.240	-0.107
-612.259	-200.000	0.014	0.210
-611.244	270.200	-0.154	-0.272
-610.230	-39.859	-0.301	-0.158
-609.215	800.000	-0.081	-0.255
-608.201	350.945	-0.093	-0.184
-607.186	-200.000	-0.020	-0.285
-606.171	102.849	0.108	0.126
-605.157	800.000	0.074	-0.219
-604.142	-7.607	-0.163	0.110
-603.128	-7.408	0.129	-0.087
-602.113	-134.074	-0.377	0.047
-601.098	125.751	0.137	-0.174
-600.084	-48.218	0.134	-0.065
-599.069	363.421	-0.079	-0.159
-598.055	-200.000	0.011	0.234
-597.040	-85.140	0.237	-0.074
-596.025	-200.000	0.003	-0.253
-595.011	-50.755	0.116	0.055
-593.996	21.463	0.127	0.103
-592.982	-200.000	-0.020	0.261
-591.967	130.427	0.127	0.162
-590.952	800.000	0.128	-0.409
-589.938	-200.000	0.024	-0.214
-588.923	-131.616	-0.375	-0.049
-587.909	-156.327	-0.293	0.018
-586.894	-56.880	-0.508	-0.225
-585.879	-200.000	0.004	-0.162
-584.865	-200.000	-0.012	-0.097
-583.850	75.179	0.083	-0.087
-582.836	757.807	-0.137	-0.372
-581.821	244.979	-0.025	0.043
-580.806	-82.642	-0.185	0.060
-579.792	0.304	0.058	-0.041
-578.777	-22.645	-0.131	-0.079
-577.763	-134.243	0.189	0.023
-576.748	-99.277	0.085	0.021
-575.733	-200.000	-0.027	0.311
-574.719	-200.000	0.044	0.226
-573.704	-200.000	0.030	-0.283
-572.690	604.398	0.058	-0.144
-571.675	105.180	0.165	0.195
-570.661	800.000	0.057	-0.185
-569.646	-83.828	0.380	0.121
-568.631	265.679	-0.060	-0.105
-567.617	-200.000	-0.046	-0.238
-566.602	-41.986	-0.065	0.034
-565.588	500.687	0.118	0.272
-564.573	13.513	0.062	-0.048
-563.558	192.015	0.194	-0.292
-562.544	-200.000	-0.028	0.126
-561.529	-93.878	-0.399	-0.110
-560.515	-135.113	0.080	0.010
-559.500	-200.000	0.105	0.596
-558.485	21.311	0.164	0.133
-557.471	-79.337	-0.365	0.124
-556.456	-98.935	0.250	0.063
-555.442	-72.763	0.412	0.152
-554.427	-200.000	0.067	0.392
-553.412	800.000	0.052	0.208
-552.398	27.751	-0.360	-0.303
-551.383	-95.951	-0.312	-0.083
-550.369	800.000	-0.081	-0.264
-549.354	-200.000	-0.003	0.045
-548.339	13.025	-0.384	0.297
-547.325	-74.097	0.170	-0.062
-546.310	-200.000	0.022	-0.162
-545.296	126.379	0.067	-0.085
-544.281	-94.121	-0.161	0.044
-543.266	-114.331	-0.249	-0.048
-542.252	-200.000	-0.032	0.335
-541.237	-129.533	0.270	-0.037
-540.223	-31.363	-0.172	0.097
-539.208	-200.000	-0.009	-0.338
-538.193	477.346	0.084	0.190
-537.179	93.673	-0.234	0.265
-536.164	-51.362	0.120	0.056
-535.150	800.000	0.016	0.063
-534.135	-118.703	0.061	-0.011
-533.121	800.000	0.061	-0.211
-532.106	-0.845	0.174	-0.123
-531.091	-200.000	-0.024	0.144
-530.077	-200.000	0.076	-0.381
-529.062	75.598	0.321	-0.339
-528.048	-72.385	-0.134	-0.049
-527.033	538.368	-0.137	0.324
-526.018	800.000	-0.041	0.164
-525.004	-127.775	-0.211	0.030
-523.989	147.446	0.092	0.124
-522.975	-80.011	-0.242	-0.081
-521.960	368.375	0.120	0.243
-520.945	-34.580	-0.382	0.209
-519.931	4.638	-0.034	0.025
-518.916	-25.728	-0.101	-0.059
-517.902	-84.121	-0.375	-0.119
-516.887	-127.100	0.314	-0.046
-515.872	800.000	0.064	-0.203
-514.858	-155.534	-0.149	0.010
-513.843	-167.536	0.324	0.013
-512.829	-200.000	-0.025	0.165
-511.814	-91.587	-0.143	-0.041
-510.799	800.000	0.076	-0.273
-509.785	800.000	0.105	-0.305
-508.770	12.872	0.183	0.141
-507.756	12.588	-0.108	0.083
-506.741	800.000	0.030	0.126
-505.726	-200.000	-0.002	0.142
-504.712	-200.000	-0.034	0.290
-503.697	800.000	-0.054	0.192
-502.683	800.000	-0.052	0.219
-501.668	-28.116	0.241	0.139
-500.653	-200.000	-0.003	0.037
-499.639	-71.018	0.106	0.040
-498.624	-200.000	-0.110	-0.497
-497.610	-87.436	0.245	0.074
-496.595	-64.107	0.130	-0.053
-495.581	627.090	-0.081	-0.204
-494.566	159.077	0.271	0.376
-493.551	-200.000	-0.004	-0.172
-492.537	586.724	-0.088	-0.217
-491.522	497.425	-0.203	-0.467
-490.508	-200.000	-0.014	-0.312
-489.493	-160.238	0.094	-0.005
-488.478	800.000	-0.009	0.028
-487.464	652.575	-0.030	-0.075
-486.449	-200.000	-0.002	-0.096
-485.435	-133.360	0.325	-0.041
-484.420	-34.286	0.537	-0.294
-483.405	-200.000	-0.011	0.169
-482.391	-83.750	0.501	-0.159
-481.376	-57.217	-0.268	-0.118
-480.362	-92.268	0.294	0.083
-479.347	115.691	-0.092	-0.112
-478.332	-25.065	0.232	-0.137
-477.318	-200.000	-0.046	0.298
-476.303	800.000	0.099	0.379
-475.289	259.297	-0.098	0.169
-474.274	-24.133	0.185	0.110
-473.259	20.596	-0.012	-0.010
-472.245	149.921	-0.044	-0.059
-471.230	800.000	0.115	0.382
-470.216	-106.204	0.202	-0.045
-469.201	-200.000	0.008	-0.317
-468.186	-200.000	0.024	-0.359
-467.172	309.042	-0.238	-0.444
-466.157	-22.749	-0.327	0.197
-465.143	98.103	0.118	-0.136
-464.128	31.452	0.025	-0.021
-463.113	-121.514	0.235	0.039
-462.099	-41.010	-0.020	0.011
-461.084	-99.858	0.371	0.093
-460.070	8.612	-0.233	0.175
-459.055	-82.807	-0.104	-0.034
-458.040	81.330	0.118	-0.127
-457.026	-91.317	-0.296	-0.084
-456.011	-25.917	-0.061	-0.036
-454.997	-200.000	-0.019	-0.213
-453.982	20.209	0.166	-0.133
-452.968	-184.279	-0.108	0.002
-451.953	-200.000	0.053	0.350
-450.938	-97.175	-0.208	0.054
-449.924	-200.000	0.062	-0.420
-448.909	-200.000	-0.053	0.254
-447.895	-177.352	0.162	0.004
-446.880	-141.617	0.115	-0.012
-445.865	-146.805	-0.502	0.043
-444.851	800.000	0.084	0.264
-443.836	-88.904	-0.440	-0.130
-442.822	-90.788	0.103	-0.030
-441.807	-142.481	0.209	-0.020
-440.792	117.829	-0.140	-0.172
-439.778	-200.000	0.028	0.364
-438.763	-180.203	-0.163	0.003
-437.749	-200.000	0.000	-0.142
-436.734	-99.981	0.067	0.017
-435.719	26.612	-0.213	-0.177
-434.705	-89.981	0.183	-0.053
-433.690	-52.128	-0.177	0.082
-432.676	152.305	0.186	-0.253
-431.661	-200.000	0.049	-0.218
-430.646	-60.372	0.043	0.018
-429.632	800.000	0.090	0.253
-428.617	302.073	-0.133	-0.244
-427.603	26.920	0.223	-0.186
-426.588	-200.000	-0.067	0.356
-425.573	-124.205	-0.371	-0.058
-424.559	-118.387	0.191	-0.034
-423.544	-162.218	-0.185	-0.009
-422.530	800.000	0.027	-0.088
-421.515	-23.852	-0.377	0.224
-420.500	92.435	0.187	0.210
-419.486	800.000	-0.027	-0.113
-418.471	98.619	-0.076	0.087
-417.457	557.155	0.039	-0.093
-416.442	535.918	-0.049	0.116
-415.428	-173.675	0.249	0.007
-414.413	-114.094	-0.307	0.059
-413.398	-125.546	0.293	0.044
-412.384	-84.055	0.277	-0.087
-411.369	207.456	-0.192	-0.299
-410.355	800.000	-0.091	-0.317
-409.340	18.931	0.251	0.200
-408.325	786.230	0.078	0.213
-407.311	243.148	0.030	-0.049
-406.296	-200.000	-0.022	0.157
-405.282	-44.091	0.057	0.028
-404.267	-200.000	0.040	0.476
-403.252	-200.000	0.063	-0.323
-402.238	238.968	-0.111	-0.183
-401.223	-200.000	0.002	0.161
-400.209	-200.000	-0.035	0.183
-399.194	-200.000	-0.031	-0.289
-398.179	-200.000	-0.011	-0.147
-397.165	178.396	0.034	-0.050
-396.150	115.456	-0.156	0.190
-395.136	-34.668	0.225	-0.122
-394.121	6.697	0.297	-0.219
-393.106	94.561	-0.158	0.178
-392.092	-200.000	0.070	-0.350
-391.077	-65.815	0.145	-0.058
-390.063	-200.000	0.011	-0.160
-389.048	767.558	-0.151	-0.407
-388.033	24.001	-0.218	0.178
-387.019	10.504	-0.189	0.143
-386.004	-164.162	-0.175	0.008
-384.990	-77.234	-0.331	-0.115
-383.975	183.206	0.148	0.217
-382.960	55.112	0.155	-0.149
-381.946	408.795	0.025	0.053
-380.931	800.000	0.052	0.200
-379.917	-149.416	-0.220	0.017
-378.902	226.933	-0.174	0.280
-377.888	184.737	-0.046	-0.067
-376.873	81.401	-0.191	0.205
-375.858	-21.554	0.059	-0.035
-374.844	98.906	0.069	-0.079
-373.829	134.050	0.251	0.323
-372.815	148.427	0.212	-0.284
-371.800	144.529	0.057	0.075
-370.785	-70.882	-0.097	-0.036
-369.771	-99.803	0.142	0.035
-368.756	153.882	0.226	-0.308
-367.742	-200.000	-0.026	0.326
-366.727	-16.608	-0.276	0.173
-365.712	43.524	0.447	0.406
-364.698	-200.000	-0.033	0.149
-363.683	-116.722	-0.316	-0.058
-362.669	-200.000	-0.011	-0.239
-361.654	532.052	-0.107	0.251
-360.639	247.164	-0.100	-0.167
-359.625	-85.250	0.173	-0.054
-358.610	-200.000	-0.024	0.262
-357.596	-200.000	-0.003	-0.056
-356.581	-200.000	-0.064	-0.335
-355.566	800.000	-0.069	0.237
-354.552	44.297	0.027	-0.024
-353.537	609.425	0.164	-0.407
-352.523	71.668	-0.030	0.031
-351.508	-200.000	0.003	-0.046
-350.493	-16.316	-0.127	-0.080
-349.479	-200.000	0.008	-0.376
-348.464	-149.178	0.235	0.019
-347.450	138.662	0.264	0.344
-346.435	-200.000	-0.012	-0.111
-345.420	181.679	0.292	0.426
-344.406	49.636	0.131	-0.122
-343.391	-200.000	-0.002	-0.182
-342.377	-4.497	-0.369	-0.253
-341.362	-200.000	-0.006	0.050
-340.348	-9.846	0.300	0.198
-339.333	-52.311	-0.182	-0.084
-338.318	43.376	0.204	0.185
-337.304	-59.950	0.217	0.092
-336.289	403.072	-0.148	-0.308
-335.275	800.000	0.046	0.188
-334.260	125.684	-0.101	-0.127
-333.245	345.059	-0.078	0.152
-332.231	-200.000	-0.072	-0.000
-331.216	-35.106	-0.148	0.080
-330.202	282.001	0.093	0.166
-329.187	180.451	0.147	0.214
-328.172	-130.474	0.234	0.031
-327.158	-200.000	0.026	-0.413
-326.143	-64.783	0.071	-0.028
-325.129	147.073	-0.080	0.107
-324.114	169.299	-0.266	-0.377
-323.099	-99.594	0.153	-0.038
-322.085	112.029	-0.222	-0.266
-321.070	-40.423	-0.125	-0.065
-320.056	607.944	-0.043	0.106
-319.041	14.070	0.143	-0.110
-318.026	215.439	-0.142	-0.224
-317.012	-106.817	0.225	0.050
-315.997	-168.749	0.092	-0.003
-314.983	-200.000	-0.002	-0.127
-313.968	44.708	-0.199	0.182
-312.953	30.184	-0.105	-0.088
-311.939	208.386	0.086	-0.133
-310.924	52.761	0.122	-0.115
-309.910	-200.000	-0.039	-0.180
-308.895	-137.200	0.326	0.037
-307.880	-36.551	0.175	0.093
-306.866	33.713	0.173	0.149
-305.851	-61.973	-0.381	0.158
-304.837	-200.000	-0.010	-0.122
-303.822	-147.221	0.042	-0.004
-302.807	662.342	0.102	0.259
-301.793	448.049	0.123	0.268
-300.778	-200.000	-0.461	-0.000
-299.764	-200.000	-0.013	0.377
-298.749	-69.915	-0.240	0.090
-297.735	512.227	-0.118	0.271
-296.720	427.905	0.104	0.223
-295.705	-0.511	-0.131	-0.092
-294.691	-200.000	0.072	-0.351
-293.676	227.162	0.112	-0.181
-292.662	1.096	0.239	0.170
-291.647	58.481	-0.074	-0.072
-290.632	-200.000	-0.009	-0.047
-289.618	37.360	-0.049	0.043
-288.603	635.356	-0.098	-0.246
-287.589	-36.828	-0.151	0.080
-286.574	-200.000	-0.005	-0.251
-285.559	-97.094	0.491	-0.127
-284.545	-56.763	-0.073	-0.032
-283.530	-99.735	0.206	-0.051
-282.516	257.436	0.072	-0.123
-281.501	78.156	0.175	0.184
-280.486	158.675	-0.040	-0.055
-279.472	-133.928	-0.208	-0.026
-278.457	-165.950	-0.165	-0.007
-277.443	12.419	0.136	-0.103
-276.428	50.745	-0.089	0.083
-275.413	-94.191	-0.195	-0.053
-274.399	-200.000	-0.018	0.079
-273.384	-138.144	0.149	-0.016
-272.370	435.737	-0.071	-0.153
-271.355	171.524	-0.123	0.175
-270.340	313.442	-0.131	0.243
-269.326	-200.000	0.014	-0.227
-268.311	-166.017	0.116	-0.005
-267.297	-161.382	0.217	0.011
-266.282	202.706	-0.032	-0.049
-265.267	67.333	0.048	-0.048
-264.253	800.000	-0.068	-0.237
-263.238	216.380	0.182	0.287
-262.224	-121.771	-0.340	0.055
-261.209	-100.239	0.302	-0.074
-260.195	-200.000	0.012	-0.107
-259.180	-200.000	0.015	-0.210
-258.165	76.170	-0.151	-0.158
-257.151	-13.551	0.214	-0.137
-256.136	-45.043	-0.118	0.058
-255.122	152.704	0.269	0.363
-254.107	-200.000	-0.033	-0.148
-253.092	232.851	-0.046	-0.074
-252.078	-200.000	0.026	0.322
-251.063	77.559	0.176	0.185
-250.049	332.819	0.113	0.217
-249.034	45.930	0.073	-0.067
-248.019	-149.104	-0.245	-0.019
-247.005	-16.170	-0.105	-0.066
-245.990	57.395	0.230	-0.222
-244.976	34.700	-0.297	-0.257
-243.961	-32.674	-0.167	-0.092
-242.946	-200.000	-0.090	0.496
-241.932	660.294	0.080	-0.204
-240.917	219.604	0.239	-0.377
-239.903	-40.604	-0.398	0.204
-238.888	-148.579	0.092	-0.007
-237.873	-200.000	-0.010	-0.112
-236.859	-58.046	0.318	0.137
-235.844	113.953	-0.188	-0.225
-234.830	800.000	-0.066	-0.185
-233.815	-200.000	0.021	-0.291
-232.800	-5.937	-0.490	-0.331
-231.786	-159.227	0.283	-0.016
-230.771	-103.421	-0.216	0.050
-229.757	-200.000	0.018	0.160
-228.742	-72.175	0.125	0.046
-227.727	123.811	0.145	0.180
-226.713	-126.690	0.215	-0.031
-225.698	800.000	0.039	0.139
-224.684	-200.000	0.021	-0.112
-223.669	-20.189	0.104	-0.063
-222.655	-51.261	0.037	-0.017
-221.640	-200.000	0.046	-0.533
-220.625	131.181	-0.181	-0.229
-219.611	-156.231	0.332	-0.021
-218.596	556.928	0.105	0.249
-217.582	-42.747	0.213	0.107
-216.567	-200.000	0.014	-0.101
-215.552	55.145	0.348	-0.332
-214.538	-200.000	-0.012	-0.125
-213.523	118.580	0.112	0.136
-212.509	170.511	-0.084	-0.118
-211.494	800.000	0.027	-0.110
-210.479	-190.450	0.206	0.002
-209.465	-163.486	0.355	0.017
-208.450	18.409	0.106	-0.083
-207.436	21.730	0.233	0.187
-206.421	-62.022	0.273	0.112
-205.406	212.390	0.160	0.249
-204.392	208.584	0.119	0.184
-203.377	-200.000	0.044	0.343
-202.363	73.683	-0.255	0.263
-201.348	-157.346	0.072	0.004
-200.333	-132.738	-0.144	-0.018
-199.319	-200.000	-0.045	0.309
-198.304	159.894	-0.087	-0.120
-197.290	-200.000	0.020	0.213
-196.275	-134.048	0.153	-0.019
-195.260	-89.020	0.175	0.051
-194.246	-163.896	-0.348	0.016
-193.231	-200.000	-0.032	0.203
-192.217	236.972	0.248	0.404
-191.202	-46.729	0.281	0.136
-190.187	39.979	0.134	0.119
-189.173	-200.000	-0.026	-0.142
-188.158	7.215	-0.138	-0.101
-187.144	-143.539	0.106	-0.010
-186.129	-200.000	-0.006	0.098
-185.114	-200.000	-0.026	0.274
-184.100	34.485	-0.236	0.203
-183.085	-200.000	0.004	0.132
-182.071	361.437	-0.085	-0.167
-181.056	195.162	-0.088	-0.132
-180.042	31.152	-0.285	0.241
-179.027	-22.216	-0.075	-0.045
-178.012	-86.075	-0.406	0.124
-176.998	-19.328	-0.301	0.184
-175.983	800.000	-0.114	0.368
-174.969	324.382	-0.148	0.278
-173.954	174.373	-0.144	0.205
-172.939	-43.656	-0.136	0.067
-171.925	-91.191	0.184	-0.052
-170.910	-149.311	-0.149	0.012
-169.896	682.438	-0.065	0.168
-168.881	160.530	-0.040	0.055
-167.866	43.354	-0.205	-0.184
-166.852	800.000	0.041	0.137
-165.837	336.458	-0.056	0.107
-164.823	138.066	-0.098	0.127
-163.808	800.000	-0.019	0.074
-162.793	59.074	-0.286	0.277
-161.779	-200.000	0.019	0.181
-160.764	-136.293	0.199	-0.023
-159.750	800.000	0.060	-0.203
-158.735	-22.913	-0.126	0.075
-157.720	-57.899	0.105	-0.045
-156.706	-5.646	0.160	-0.108
-155.691	800.000	-0.050	0.174
-154.677	-70.626	0.172	0.064
-153.662	-80.015	-0.083	0.027
-152.647	800.000	0.079	-0.273
-151.633	800.000	0.047	-0.144
-150.618	-59.198	-0.180	-0.076
-149.604	88.839	0.116	0.128
-148.589	-105.491	0.044	-0.010
-147.574	-186.510	-0.086	-0.001
-146.560	52.483	-0.169	-0.159
-145.545	237.676	0.120	0.197
-144.531	463.204	0.066	-0.146
-143.516	125.692	-0.041	-0.051
-142.502	407.037	0.131	0.272
-141.487	-93.457	0.347	0.095
-140.472	-87.332	0.168	-0.050
-139.458	-200.000	0.019	0.162
-138.443	85.341	0.104	0.113
-137.429	141.940	0.086	-0.112
-136.414	54.871	0.164	0.156
-135.399	112.856	0.294	0.351
-134.385	-8.569	0.119	-0.078
-133.370	800.000	-0.093	-0.341
-132.356	55.942	-0.155	-0.148
-131.341	-15.181	0.084	-0.053
-130.326	204.096	0.113	-0.171
-129.312	54.230	0.123	0.117
-128.297	0.786	0.053	0.037
-127.283	-75.837	0.158	-0.055
-126.268	-33.882	0.261	0.141
-125.253	77.535	-0.157	0.164
-124.239	724.009	0.090	-0.236
-123.224	152.132	-0.120	0.160
-122.210	-118.083	0.226	-0.040
