DTS Sentinel unit serial number:	SN413079Multiplexer serial number:	ORYXHardware model number:	OX4-SRSoftware version number:	ORYX F/W v4.00 Oryx Data Collector v3.7.2.0data status	okinstallation	princeton_trtdifferential loss correction	single-endedforward channel	channel 2reverse channel	N/Adate	2019/09/16time	16:31:35forward acquisition time	60.00reverse acquisition time	0.00gamma	496.2192k internal	0.2302k external	0.2302temperature offset calibration	0.9945default loss term (dB/km)	0.3790temperature slope calibration	1.0000multiplexer offset coefficient	1.0000multiplexer slope coefficient	1.0000fibre end	0.00T internal ref (°C)	40.16T ext. ref 1 (°C)	15.10T ext. ref 2 (°C)	33.86length (m)	temperature (°C)	Stokes	anti-Stokes-747.200	-200.000	-0.047	0.356
-746.185	127.357	-0.123	0.160
-745.171	-108.270	0.238	0.052
-744.156	-45.215	0.336	0.170
-743.142	175.828	0.108	0.160
-742.127	800.000	-0.093	0.390
-741.112	-87.843	-0.278	0.085
-740.098	-200.000	0.017	0.190
-739.083	-50.206	0.282	0.136
-738.069	800.000	0.074	-0.237
-737.054	130.009	-0.164	-0.214
-736.039	155.862	-0.105	0.147
-735.025	-82.405	0.236	-0.078
-734.010	800.000	0.048	-0.203
-732.996	-91.210	-0.328	-0.096
-731.981	26.654	-0.252	-0.215
-730.966	24.399	0.022	0.019
-729.952	-61.120	-0.264	-0.113
-728.937	49.885	-0.122	-0.117
-727.923	-34.976	-0.163	0.090
-726.908	54.904	-0.146	-0.143
-725.894	-22.703	-0.229	-0.141
-724.879	-64.827	-0.332	0.137
-723.864	-99.621	0.301	-0.077
-722.850	-46.987	-0.249	-0.124
-721.835	-126.076	0.176	-0.027
-720.821	449.582	0.156	-0.351
-719.806	26.538	-0.112	0.095
-718.791	37.564	0.145	0.131
-717.777	-14.831	-0.124	-0.081
-716.762	359.339	-0.208	-0.422
-715.748	47.246	0.123	0.116
-714.733	800.000	0.027	0.120
-713.718	800.000	0.017	0.051
-712.704	222.136	-0.093	0.152
-711.689	-167.321	-0.172	0.007
-710.675	-95.278	0.131	-0.036
-709.660	-45.862	0.119	-0.060
-708.645	438.151	-0.043	-0.095
-707.631	135.541	0.162	0.215
-706.616	-200.000	0.029	-0.254
-705.602	516.905	-0.120	-0.286
-704.587	-200.000	0.030	0.240
-703.572	-80.184	0.202	0.069
-702.558	1.216	-0.180	-0.131
-701.543	-200.000	0.062	-0.341
-700.529	-200.000	-0.023	0.287
-699.514	-55.660	0.182	-0.083
-698.499	284.200	-0.073	-0.133
-697.485	23.170	0.144	0.120
-696.470	-96.067	0.046	-0.013
-695.456	416.787	0.091	-0.197
-694.441	-35.589	-0.348	0.192
-693.426	98.771	-0.134	0.157
-692.412	-164.917	-0.057	-0.003
-691.397	178.155	-0.137	0.204
-690.383	800.000	0.074	0.240
-689.368	-8.078	0.364	-0.249
-688.354	-200.000	-0.045	-0.411
-687.339	800.000	0.024	-0.071
-686.324	-75.406	-0.180	-0.065
-685.310	-98.821	0.038	-0.010
-684.295	-29.930	-0.234	-0.136
-683.281	-30.574	0.123	-0.071
-682.266	-11.566	-0.046	-0.031
-681.251	138.004	-0.213	-0.284
-680.237	120.911	0.072	-0.091
-679.222	283.731	-0.142	-0.259
-678.208	77.185	-0.121	0.131
-677.193	-50.383	-0.024	-0.012
-676.178	-200.000	0.007	-0.400
-675.164	-103.769	0.105	-0.025
-674.149	190.840	0.083	0.127
-673.135	354.822	-0.114	-0.231
-672.120	29.067	0.120	-0.104
-671.105	-47.730	-0.143	0.070
-670.091	81.811	0.307	-0.338
-669.076	21.385	-0.060	-0.049
-668.062	-22.186	-0.446	0.275
-667.047	-2.483	-0.328	-0.234
-666.032	-33.947	-0.370	0.207
-665.018	-94.892	-0.381	-0.105
-664.003	-134.810	0.197	-0.024
-662.989	-7.321	-0.116	-0.080
-661.974	-97.063	-0.074	-0.020
-660.959	279.823	-0.074	-0.134
-659.945	800.000	-0.050	0.186
-658.930	-73.446	0.270	0.100
-657.916	139.535	0.118	0.158
-656.901	17.558	-0.407	-0.328
-655.886	64.879	-0.132	-0.136
-654.872	45.893	0.136	-0.128
-653.857	199.806	-0.266	-0.414
-652.843	-200.000	-0.020	-0.403
-651.828	-39.382	-0.330	-0.176
-650.814	-200.000	-0.011	0.269
-649.799	-77.927	-0.250	-0.087
-648.784	472.621	0.084	0.192
-647.770	29.232	-0.232	-0.200
-646.755	-200.000	-0.033	-0.196
-645.741	-200.000	-0.062	-0.395
-644.726	77.836	-0.056	-0.061
-643.711	232.482	0.077	-0.128
-642.697	800.000	-0.013	0.056
-641.682	-27.741	0.208	-0.122
-640.668	607.272	-0.106	-0.268
-639.653	507.518	0.087	-0.204
-638.638	-200.000	-0.003	0.065
-637.624	7.618	-0.173	-0.131
-636.609	96.979	-0.111	0.129
-635.595	117.135	-0.251	-0.313
-634.580	-30.997	0.008	-0.005
-633.565	-127.902	0.224	0.033
-632.551	-200.000	0.022	-0.188
-631.536	5.966	-0.074	0.056
-630.522	800.000	-0.013	0.055
-629.507	-200.000	-0.051	0.360
-628.492	-55.019	0.078	-0.036
-627.478	724.757	0.084	-0.226
-626.463	491.512	-0.075	0.174
-625.449	-100.707	0.178	-0.044
-624.434	-185.754	0.111	-0.002
-623.419	-200.000	-0.012	0.060
-622.405	-200.000	0.000	0.132
-621.390	-123.347	0.416	-0.067
-620.376	202.941	-0.188	0.295
-619.361	24.965	-0.217	0.182
-618.346	-11.709	0.229	-0.153
-617.332	-33.522	-0.223	-0.125
-616.317	73.763	0.299	0.318
-615.303	-200.000	0.089	-0.438
-614.288	555.982	0.096	-0.234
-613.273	-6.534	0.088	-0.061
-612.259	-119.963	-0.284	0.049
-611.244	504.051	-0.116	0.272
-610.230	-158.868	-0.148	0.009
-609.215	102.995	0.090	-0.106
-608.201	-73.936	0.263	-0.097
-607.186	-149.263	-0.188	0.015
-606.171	-122.108	0.205	-0.034
-605.157	15.895	-0.326	0.260
-604.142	106.038	-0.206	-0.247
-603.128	-106.214	-0.115	-0.026
-602.113	-7.462	0.556	-0.382
-601.098	800.000	-0.006	-0.022
-600.084	285.797	-0.337	-0.616
-599.069	314.276	-0.060	-0.115
-598.055	443.063	-0.183	0.406
-597.040	800.000	0.155	0.447
-596.025	294.841	-0.080	0.148
-595.011	119.301	-0.192	-0.241
-593.996	-52.274	0.134	-0.063
-592.982	800.000	0.054	-0.198
-591.967	-50.439	-0.218	0.104
-590.952	-24.136	-0.229	0.139
-589.938	-148.001	-0.496	0.042
-588.923	-3.341	-0.237	0.167
-587.909	31.379	0.125	-0.109
-586.894	294.358	-0.212	-0.392
-585.879	-142.448	-0.193	0.019
-584.865	-43.874	-0.100	-0.051
-583.850	92.202	-0.152	-0.173
-582.836	-55.993	0.232	-0.105
-581.821	-200.000	-0.009	0.353
-580.806	-53.987	0.084	-0.039
-579.792	85.903	0.376	-0.419
-578.777	-106.943	-0.228	-0.051
-577.763	-66.142	0.070	0.028
-576.748	28.710	-0.173	-0.148
-575.733	-200.000	-0.027	0.205
-574.719	585.517	-0.050	-0.125
-573.704	-200.000	0.000	0.225
-572.690	66.244	0.071	0.073
-571.675	231.201	-0.158	-0.263
-570.661	-200.000	-0.037	0.224
-569.646	-147.370	-0.315	-0.027
-568.631	-76.456	-0.117	-0.042
-567.617	336.384	0.113	0.222
-566.602	13.613	-0.383	0.301
-565.588	-200.000	0.042	0.289
-564.573	-56.591	-0.136	0.061
-563.558	-13.259	-0.197	-0.129
-562.544	138.206	0.057	-0.076
-561.529	-145.730	0.323	-0.029
-560.515	102.616	0.129	0.152
-559.500	183.849	0.093	0.139
-558.485	-116.602	-0.200	-0.037
-557.471	238.409	0.102	-0.171
-556.456	143.714	0.100	-0.135
-555.442	327.407	-0.216	-0.418
-554.427	4.256	-0.135	-0.100
-553.412	445.053	-0.092	-0.204
-552.398	-110.011	-0.080	-0.017
-551.383	-87.595	0.021	0.006
-550.369	-102.445	0.348	-0.084
-549.354	800.000	-0.112	-0.392
-548.339	596.416	0.059	0.148
-547.325	-200.000	0.007	0.260
-546.310	185.160	0.160	-0.241
-545.296	800.000	-0.038	0.113
-544.281	-80.127	-0.331	0.112
-543.266	433.522	-0.162	-0.357
-542.252	-82.704	0.416	0.136
-541.237	248.821	-0.155	0.266
-540.223	800.000	0.019	0.068
-539.208	-200.000	-0.060	-0.355
-538.193	74.056	-0.077	-0.082
-537.179	396.911	-0.075	-0.159
-536.164	296.036	-0.072	-0.133
-535.150	10.305	-0.317	0.244
-534.135	220.839	0.189	0.307
-533.121	-146.906	-0.432	-0.038
-532.106	140.835	-0.367	0.490
-531.091	97.406	-0.087	-0.101
-530.077	-47.896	-0.211	0.103
-529.062	-200.000	0.025	-0.296
-528.048	-2.256	-0.271	-0.192
-527.033	-38.825	0.357	0.190
-526.018	79.915	0.134	0.145
-525.004	-57.509	0.165	-0.073
-523.989	-200.000	0.006	0.122
-522.975	106.057	-0.059	-0.071
-521.960	51.345	0.138	-0.132
-520.945	-98.211	-0.110	0.029
-519.931	-200.000	-0.052	0.549
-518.916	435.993	0.156	-0.343
-517.902	148.177	-0.115	0.157
-516.887	-25.951	-0.409	0.243
-515.872	-84.961	-0.156	0.049
-514.858	151.844	-0.084	0.116
-513.843	270.792	0.196	0.349
-512.829	-45.314	0.148	0.074
-511.814	446.173	-0.077	0.171
-510.799	-200.000	-0.008	-0.177
-509.785	-156.473	-0.527	0.033
-508.770	-144.754	-0.135	0.013
-507.756	-200.000	0.006	0.274
-506.741	482.836	-0.082	0.188
-505.726	-200.000	0.086	-0.398
-504.712	182.649	-0.167	-0.248
-503.697	-105.885	-0.090	-0.021
-502.683	-86.538	-0.176	-0.055
-501.668	255.757	-0.018	-0.032
-500.653	21.350	0.155	0.127
-499.639	-200.000	0.022	0.219
-498.624	41.620	-0.152	0.139
-497.610	-106.727	0.158	-0.035
-496.595	51.028	-0.316	0.302
-495.581	800.000	-0.020	-0.071
-494.566	393.186	0.052	-0.109
-493.551	37.431	-0.040	0.036
-492.537	-81.996	0.233	0.077
-491.522	-159.474	0.411	0.023
-490.508	-121.710	-0.247	0.041
-489.493	236.121	-0.170	-0.283
-488.478	-200.000	-0.053	0.264
-487.464	197.191	0.269	-0.414
-486.449	43.663	-0.299	-0.276
-485.435	97.184	-0.053	-0.062
-484.420	-85.312	0.335	0.105
-483.405	275.914	0.031	-0.056
-482.391	-52.310	-0.128	-0.060
-481.376	-200.000	-0.010	0.049
-480.362	166.815	0.155	0.222
-479.347	-86.426	0.279	0.087
-478.332	75.757	0.162	0.173
-477.318	251.535	0.108	-0.186
-476.303	-104.700	-0.165	0.038
-475.289	45.671	-0.288	-0.269
-474.274	3.585	0.091	-0.067
-473.259	-22.836	0.251	0.153
-472.245	168.410	0.230	0.330
-471.230	638.403	0.119	0.305
-470.216	-200.000	-0.043	0.230
-469.201	-200.000	-0.043	0.328
-468.186	132.318	-0.164	0.213
-467.172	-68.052	0.295	0.116
-466.157	800.000	0.155	0.476
-465.143	800.000	0.095	0.304
-464.128	-70.645	-0.066	0.025
-463.113	-129.418	0.051	-0.007
-462.099	-122.316	0.129	0.021
-461.084	800.000	-0.058	0.162
-460.070	76.472	-0.181	0.194
-459.055	800.000	0.018	0.075
-458.040	-200.000	0.008	-0.182
-457.026	53.265	0.131	0.127
-456.011	-36.232	0.301	-0.163
-454.997	51.904	-0.081	0.078
-453.982	-200.000	0.057	-0.392
-452.968	97.890	0.183	-0.212
-451.953	649.679	-0.051	0.132
-450.938	12.291	0.097	-0.075
-449.924	288.952	-0.079	0.144
-448.909	-200.000	0.061	-0.310
-447.895	-73.924	-0.276	-0.101
-446.880	-61.017	-0.163	0.069
-445.865	130.698	0.080	0.103
-444.851	-200.000	-0.010	-0.106
-443.836	-200.000	-0.003	0.073
-442.822	-67.626	0.040	-0.016
-441.807	-34.733	0.191	-0.105
-440.792	201.952	-0.077	0.119
-439.778	-70.465	-0.260	0.099
-438.763	-200.000	0.008	0.142
-437.749	-157.809	-0.148	0.009
-436.734	800.000	-0.049	-0.173
-435.719	-80.998	-0.268	-0.089
-434.705	494.259	-0.115	0.267
-433.690	-7.248	0.301	0.205
-432.676	102.946	0.142	0.167
-431.661	253.382	-0.048	0.082
-430.646	655.205	-0.124	0.321
-429.632	704.703	-0.069	-0.184
-428.617	-115.942	0.256	0.048
-427.603	-197.361	-0.320	0.002
-426.588	-148.741	0.137	0.011
-425.573	7.970	0.370	0.279
-424.559	-200.000	0.037	0.191
-423.544	16.270	0.144	-0.114
-422.530	87.245	-0.164	-0.182
-421.515	800.000	-0.065	-0.232
-420.500	800.000	-0.034	-0.126
-419.486	-107.353	-0.102	-0.023
-418.471	28.491	0.098	-0.084
-417.457	40.808	0.232	-0.210
-416.442	32.020	-0.265	-0.230
-415.428	750.578	0.060	0.163
-414.413	-134.650	-0.257	0.032
-413.398	-10.708	-0.220	0.146
-412.384	-200.000	-0.057	-0.356
-411.369	-200.000	-0.009	0.487
-410.355	-200.000	0.015	-0.223
-409.340	-139.366	-0.292	0.032
-408.325	800.000	0.069	-0.246
-407.311	-200.000	0.022	0.242
-406.296	-200.000	0.026	0.158
-405.282	-135.535	-0.099	0.012
-404.267	-86.364	0.262	0.081
-403.252	102.578	0.143	0.168
-402.238	-49.299	0.277	-0.133
-401.223	511.175	-0.065	0.153
-400.209	39.882	0.193	-0.175
-399.194	7.138	-0.237	-0.178
-398.179	363.186	0.092	0.186
-397.165	-35.693	0.231	-0.126
-396.150	-200.000	-0.046	-0.283
-395.136	-133.519	0.181	-0.023
-394.121	800.000	-0.040	0.133
-393.106	-7.421	0.225	-0.153
-392.092	131.219	-0.097	0.125
-391.077	800.000	-0.047	0.197
-390.063	361.731	-0.054	-0.109
-389.048	-43.081	-0.285	-0.145
-388.033	-66.848	0.183	-0.073
-387.019	83.947	0.192	-0.210
-386.004	-138.762	-0.378	0.041
-384.990	169.534	-0.192	0.276
-383.975	-120.780	0.224	0.038
-382.960	-200.000	-0.028	-0.351
-381.946	-177.185	0.176	0.004
-380.931	-143.000	0.388	-0.038
-379.917	342.573	-0.085	0.166
-378.902	18.973	-0.295	0.237
-377.888	-83.699	0.072	0.023
-376.873	27.635	0.203	-0.172
-375.858	373.644	0.075	-0.154
-374.844	-200.000	0.001	-0.015
-373.829	-200.000	-0.063	-0.355
-372.815	-58.930	0.144	-0.063
-371.800	233.013	-0.099	-0.163
-370.785	-140.315	0.308	0.032
-369.771	800.000	-0.071	0.261
-368.756	24.595	-0.062	0.052
-367.742	75.001	0.145	0.153
-366.727	79.385	0.223	-0.240
-365.712	240.677	-0.026	0.044
-364.698	-200.000	0.022	0.194
-363.683	660.149	-0.061	0.157
-362.669	800.000	0.055	-0.218
-361.654	-118.348	-0.345	-0.061
-360.639	383.466	-0.188	-0.389
-359.625	-115.517	-0.114	-0.022
-358.610	-29.501	0.064	0.037
-357.596	300.668	-0.091	-0.168
-356.581	-200.000	0.048	-0.286
-355.566	20.541	0.087	-0.070
-354.552	246.329	0.065	-0.110
-353.537	160.387	0.151	-0.211
-352.523	-128.515	0.166	0.024
-351.508	-106.972	0.190	-0.042
-350.493	-73.592	-0.131	-0.048
-349.479	-93.631	0.092	-0.026
-348.464	-120.271	-0.262	-0.045
-347.450	-200.000	0.004	-0.081
-346.435	783.690	-0.046	0.125
-345.420	63.045	0.071	-0.071
-344.406	-171.640	-0.118	-0.004
-343.391	-77.257	0.217	-0.076
-342.377	-145.766	-0.479	-0.043
-341.362	596.812	-0.030	0.075
-340.348	41.383	0.232	-0.210
-339.333	58.787	-0.252	0.248
-338.318	-116.737	0.269	-0.050
-337.304	-39.697	0.280	-0.147
-336.289	-185.280	0.121	0.002
-335.275	631.859	0.054	-0.138
-334.260	131.362	-0.204	-0.262
-333.245	-130.346	0.148	-0.020
-332.231	-200.000	-0.034	0.203
-331.216	-91.519	-0.245	-0.070
-330.202	105.515	-0.123	0.146
-329.187	-200.000	0.002	-0.115
-328.172	-200.000	-0.035	-0.256
-327.158	121.452	0.096	-0.120
-326.143	-11.733	-0.180	0.118
-325.129	15.112	0.030	-0.023
-324.114	-112.276	-0.303	0.061
-323.099	307.677	0.140	0.262
-322.085	116.761	-0.140	0.172
-321.070	-200.000	-0.026	0.264
-320.056	48.573	0.039	0.037
-319.041	146.714	-0.173	-0.233
-318.026	800.000	-0.055	0.162
-317.012	113.209	-0.229	-0.278
-315.997	-46.882	0.096	-0.047
-314.983	-4.978	-0.409	-0.282
-313.968	-103.881	-0.221	0.052
-312.953	-185.081	0.165	-0.003
-311.939	78.349	0.137	0.147
-310.924	125.246	0.140	-0.177
-309.910	150.296	-0.100	0.136
-308.895	80.670	-0.365	-0.394
-307.880	181.889	0.117	0.172
-306.866	37.001	-0.255	0.226
-305.851	211.251	0.119	0.188
-304.837	-17.436	-0.363	0.229
-303.822	-59.612	-0.185	-0.080
-302.807	186.191	0.099	0.147
-301.793	25.348	0.089	0.074
-300.778	-200.000	-0.041	0.190
-299.764	-200.000	0.063	-0.366
-298.749	499.696	0.062	0.142
-297.735	-200.000	-0.006	0.141
-296.720	-200.000	-0.001	-0.114
-295.705	-93.860	-0.058	-0.016
-294.691	110.287	0.195	-0.234
-293.676	278.120	0.079	0.140
-292.662	-68.562	-0.098	-0.038
-291.647	-200.000	0.014	-0.221
-290.632	275.853	-0.080	-0.142
-289.618	-25.698	-0.234	0.138
-288.603	186.896	0.172	0.256
-287.589	-67.221	0.240	-0.094
-286.574	-60.940	-0.069	0.029
-285.559	139.045	-0.217	0.285
-284.545	99.282	-0.059	-0.068
-283.530	-97.134	-0.077	-0.020
-282.516	317.547	0.122	-0.231
-281.501	80.200	-0.033	-0.036
-280.486	-200.000	-0.063	0.297
-279.472	-21.481	0.331	0.202
-278.457	800.000	0.016	0.058
-277.443	702.099	-0.131	-0.344
-276.428	-89.778	-0.353	0.103
-275.413	-200.000	0.037	-0.372
-274.399	303.680	0.172	-0.320
-273.384	200.617	0.108	-0.166
-272.370	174.991	0.152	0.220
-271.355	-42.144	-0.042	-0.021
-270.340	286.746	0.069	0.124
-269.326	-147.401	-0.269	0.023
-268.311	-96.446	-0.200	0.053
-267.297	118.881	0.105	-0.129
-266.282	-200.000	0.049	0.237
-265.267	201.071	0.131	0.201
-264.253	169.769	0.150	0.215
-263.238	409.913	-0.046	-0.097
-262.224	800.000	0.079	-0.255
-261.209	-200.000	0.019	0.104
-260.195	-22.350	0.404	-0.245
-259.180	-72.937	-0.039	-0.014
-258.165	-52.286	-0.117	-0.054
-257.151	-178.643	0.243	0.006
-256.136	-200.000	0.003	0.045
-255.122	-140.335	0.189	-0.020
-254.107	-82.481	0.092	0.030
-253.092	-200.000	0.008	0.287
-252.078	313.966	-0.061	0.116
-251.063	800.000	-0.049	-0.198
-250.049	-42.459	-0.299	-0.152
-249.034	-186.954	0.296	0.004
-248.019	66.555	-0.306	0.311
-247.005	-100.044	-0.300	-0.075
-245.990	-200.000	-0.000	-0.191
-244.976	446.890	0.107	0.235
-243.961	44.871	-0.134	0.123
-242.946	16.863	0.208	-0.165
-241.932	350.755	-0.167	-0.330
-240.917	-200.000	-0.043	-0.237
-239.903	282.566	-0.205	0.368
-238.888	85.987	0.150	-0.165
-237.873	-200.000	0.016	0.127
-236.859	-77.516	0.369	0.128
-235.844	382.739	-0.005	-0.009
-234.830	800.000	-0.072	-0.260
-233.815	-200.000	-0.036	0.242
-232.800	-200.000	-0.014	0.070
-231.786	-200.000	-0.022	0.148
-230.771	-200.000	0.010	0.060
-229.757	215.636	0.071	0.112
-228.742	800.000	-0.040	-0.139
-227.727	-141.252	0.379	0.039
-226.713	762.711	0.092	0.248
-225.698	6.339	0.145	0.107
-224.684	-200.000	0.006	0.092
-223.669	-141.150	-0.296	0.030
-222.655	-18.866	-0.305	-0.190
-221.640	-184.126	0.318	0.005
-220.625	6.643	-0.046	0.034
-219.611	27.376	0.169	-0.141
-218.596	31.322	0.284	-0.244
-217.582	426.192	-0.121	-0.260
-216.567	800.000	0.093	0.284
-215.552	58.720	-0.042	-0.041
-214.538	-121.582	0.355	-0.059
-213.523	132.453	0.376	0.484
-212.509	-120.149	0.131	-0.022
-211.494	-48.764	0.081	0.039
-210.479	-155.816	0.280	-0.018
-209.465	-200.000	-0.035	-0.208
-208.450	-122.625	0.235	0.038
-207.436	267.097	-0.129	0.225
-206.421	-200.000	0.029	0.147
-205.406	-26.255	0.387	-0.226
-204.392	-200.000	-0.019	0.223
-203.377	-200.000	0.038	0.208
-202.363	-200.000	0.010	-0.064
-201.348	-200.000	0.021	0.247
-200.333	106.583	0.163	-0.193
-199.319	72.116	0.160	0.166
-198.304	-200.000	0.118	0.642
-197.290	200.983	-0.139	-0.214
-196.275	-81.520	-0.144	0.047
-195.260	-200.000	0.004	-0.042
-194.246	651.720	-0.163	0.416
-193.231	-155.700	0.145	0.009
-192.217	-200.000	-0.015	0.150
-191.202	237.696	0.125	-0.207
-190.187	284.498	-0.028	0.050
-189.173	54.136	0.173	0.166
-188.158	-200.000	-0.043	0.244
-187.144	-200.000	-0.041	0.198
-186.129	-200.000	0.028	-0.195
-185.114	-150.205	-0.245	-0.019
-184.100	-79.924	0.129	-0.043
-183.085	-67.404	0.082	-0.032
-182.071	-200.000	0.079	-0.371
-181.056	-200.000	0.038	0.218
-180.042	116.037	0.277	0.338
-179.027	177.814	0.111	-0.161
-178.012	-95.662	-0.123	-0.033
-176.998	231.076	0.190	-0.310
-175.983	-124.129	0.227	0.036
-174.969	-200.000	-0.006	-0.042
-173.954	128.854	0.076	-0.096
-172.939	-12.930	0.193	0.125
-171.925	-17.418	0.175	-0.110
-170.910	-106.875	0.129	0.029
-169.896	148.817	-0.134	-0.180
-168.881	-200.000	0.019	-0.375
-167.866	-129.076	0.228	-0.032
-166.852	-110.887	-0.147	-0.030
-165.837	-81.668	-0.050	0.016
-164.823	-200.000	-0.052	0.280
-163.808	330.141	-0.094	-0.180
-162.793	-200.000	0.030	-0.358
-161.779	545.157	-0.016	0.038
-160.764	-71.826	0.380	0.141
-159.750	-133.966	0.228	0.028
-158.735	410.296	-0.158	0.334
-157.720	43.526	0.139	-0.126
-156.706	177.899	0.048	-0.069
-155.691	147.415	-0.181	-0.242
-154.677	800.000	0.033	-0.134
-153.662	-55.446	0.040	-0.018
-152.647	-18.441	0.108	0.067
-151.633	-79.333	0.068	-0.023
-150.618	36.136	0.335	0.294
-149.604	84.655	0.294	-0.321
-148.589	97.054	-0.023	-0.026
-147.574	-24.641	0.021	-0.012
-146.560	-60.473	-0.453	-0.192
-145.545	-0.197	0.315	0.223
-144.531	-200.000	-0.003	0.020
-143.516	800.000	0.058	-0.244
-142.502	58.442	0.131	-0.128
-141.487	-118.904	0.267	-0.047
-140.472	-59.291	-0.128	-0.055
-139.458	583.879	-0.092	0.224
-138.443	800.000	-0.033	0.093
-137.429	-111.740	0.192	-0.039
-136.414	-200.000	-0.008	-0.120
-135.399	-200.000	0.049	0.241
-134.385	68.846	-0.154	-0.157
-133.370	364.836	-0.056	0.112
-132.356	-25.392	-0.093	-0.055
-131.341	-87.403	-0.056	0.017
-130.326	-89.441	-0.288	-0.084
-129.312	-138.392	0.017	-0.002
-128.297	800.000	-0.027	-0.099
-127.283	38.634	0.149	0.132
-126.268	-141.124	-0.307	0.031
-125.253	-44.895	-0.274	0.136
-124.239	298.170	0.136	0.248
-123.224	-99.973	-0.122	-0.030
-122.210	-200.000	-0.004	0.122
