DTS Sentinel unit serial number:	SN413079Multiplexer serial number:	ORYXHardware model number:	OX4-SRSoftware version number:	ORYX F/W v4.00 Oryx Data Collector v3.7.2.0data status	okinstallation	princeton_trtdifferential loss correction	single-endedforward channel	channel 2reverse channel	N/Adate	2019/09/13time	09:07:35forward acquisition time	60.00reverse acquisition time	0.00gamma	496.2192k internal	0.2330k external	0.2330temperature offset calibration	1.0196default loss term (dB/km)	0.3790temperature slope calibration	1.0000multiplexer offset coefficient	1.0000multiplexer slope coefficient	1.0000fibre end	0.00T internal ref (°C)	28.69T ext. ref 1 (°C)	4.36T ext. ref 2 (°C)	26.12length (m)	temperature (°C)	Stokes	anti-Stokes-747.200	34.600	0.148	-0.130
-746.185	-17.481	0.354	0.224
-745.171	-200.000	-0.006	0.157
-744.156	319.388	-0.120	0.229
-743.142	-83.236	-0.219	-0.071
-742.127	125.181	-0.099	0.126
-741.112	45.650	-0.251	0.233
-740.098	-200.000	-0.025	0.182
-739.083	50.693	0.063	-0.060
-738.069	393.898	0.138	0.289
-737.054	-200.000	0.065	0.431
-736.039	-91.571	-0.489	-0.140
-735.025	-114.749	-0.109	-0.021
-734.010	123.370	0.089	0.113
-732.996	-68.648	-0.319	0.124
-731.981	-140.456	0.300	-0.031
-730.966	-192.555	0.152	-0.001
-729.952	409.628	-0.128	-0.272
-728.937	217.995	-0.277	0.444
-727.923	405.719	0.039	-0.083
-726.908	26.631	0.006	0.005
-725.894	318.455	0.031	-0.059
-724.879	800.000	0.020	0.077
-723.864	-47.644	-0.134	-0.066
-722.850	97.293	-0.073	-0.084
-721.835	649.288	-0.019	-0.049
-720.821	30.870	-0.181	0.156
-719.806	-16.313	-0.087	0.056
-718.791	-111.183	-0.199	-0.041
-717.777	28.797	0.280	-0.239
-716.762	120.226	-0.118	0.147
-715.748	-30.748	0.166	-0.095
-714.733	263.784	-0.182	-0.318
-713.718	800.000	-0.062	0.224
-712.704	-8.264	-0.073	-0.049
-711.689	-89.820	-0.315	0.093
-710.675	800.000	0.041	0.122
-709.660	-20.225	-0.051	0.032
-708.645	800.000	-0.067	-0.197
-707.631	-92.318	-0.040	-0.011
-706.616	43.681	0.180	0.166
-705.602	-133.811	-0.099	-0.012
-704.587	-45.199	-0.089	0.045
-703.572	722.334	0.077	-0.207
-702.558	94.980	-0.110	-0.126
-701.543	-38.970	0.239	0.126
-700.529	-200.000	-0.008	-0.062
-699.514	800.000	-0.047	0.167
-698.499	-86.622	-0.295	-0.091
-697.485	-65.501	0.334	0.135
-696.470	246.883	0.134	-0.227
-695.456	800.000	-0.046	-0.145
-694.441	58.946	0.193	0.191
-693.426	-60.049	0.202	0.087
-692.412	102.838	-0.178	0.210
-691.397	360.421	0.119	0.239
-690.383	-151.905	0.255	0.019
-689.368	-48.001	0.167	0.081
-688.354	678.240	0.082	-0.214
-687.339	132.414	-0.167	-0.216
-686.324	142.408	-0.097	0.129
-685.310	88.844	0.099	-0.110
-684.295	-91.668	0.568	-0.162
-683.281	95.912	0.179	-0.206
-682.266	-200.000	-0.015	0.141
-681.251	-44.202	-0.168	-0.085
-680.237	44.641	0.087	-0.081
-679.222	-117.896	0.190	-0.034
-678.208	158.290	-0.103	-0.143
-677.193	-45.512	-0.307	-0.152
-676.178	-0.896	-0.363	-0.258
-675.164	221.197	0.164	0.265
-674.149	-63.550	0.155	-0.064
-673.135	669.026	0.158	0.411
-672.120	-62.897	-0.172	0.072
-671.105	-133.528	-0.229	-0.029
-670.091	113.135	0.034	0.041
-669.076	606.552	0.029	0.072
-668.062	800.000	-0.077	-0.255
-667.047	-160.833	-0.406	-0.022
-666.032	105.278	-0.107	-0.127
-665.018	-189.735	-0.409	0.005
-664.003	800.000	0.116	0.330
-662.989	204.950	0.074	-0.115
-661.974	-97.827	-0.051	-0.013
-660.959	-200.000	0.025	-0.166
-659.945	-200.000	0.053	-0.241
-658.930	-64.162	-0.437	-0.179
-657.916	134.302	0.130	-0.169
-656.901	-93.234	-0.213	0.059
-655.886	-143.369	0.256	-0.025
-654.872	-13.345	-0.092	-0.060
-653.857	-74.784	0.286	-0.103
-652.843	-200.000	-0.018	-0.113
-651.828	-78.893	-0.232	-0.079
-650.814	-200.000	0.038	-0.269
-649.799	563.392	-0.042	0.101
-648.784	-56.526	0.121	0.054
-647.770	800.000	0.040	0.116
-646.755	-200.000	0.003	-0.081
-645.741	-104.549	-0.171	-0.040
-644.726	-17.173	0.287	0.181
-643.711	186.868	-0.083	0.124
-642.697	-76.951	0.122	0.043
-641.682	800.000	-0.038	-0.113
-640.668	-200.000	0.080	-0.380
-639.653	484.686	-0.258	-0.589
-638.638	-133.973	-0.345	-0.043
-637.624	-164.441	-0.381	-0.017
-636.609	66.654	-0.079	0.081
-635.595	-22.683	0.096	0.058
-634.580	-200.000	-0.020	0.327
-633.565	89.193	0.290	-0.324
-632.551	-200.000	-0.005	-0.242
-631.536	-200.000	0.043	-0.227
-630.522	105.544	-0.166	-0.196
-629.507	-200.000	-0.018	-0.118
-628.492	-128.583	0.437	-0.062
-627.478	261.142	-0.154	-0.267
-626.463	274.390	-0.132	0.235
-625.449	-200.000	0.002	-0.033
-624.434	-139.249	-0.140	0.015
-623.419	-200.000	0.011	0.124
-622.405	-158.808	0.310	0.018
-621.390	282.138	-0.161	0.289
-620.376	-63.602	0.117	-0.048
-619.361	196.362	0.174	0.266
-618.346	800.000	-0.114	0.356
-617.332	800.000	-0.089	-0.358
-616.317	-129.289	0.027	0.004
-615.303	613.764	-0.109	0.275
-614.288	289.522	-0.101	0.183
-613.273	-72.011	-0.073	-0.027
-612.259	-154.359	0.426	-0.029
-611.244	94.854	0.129	0.147
-610.230	800.000	-0.055	0.164
-609.215	-103.601	0.147	0.035
-608.201	80.751	0.116	-0.125
-607.186	354.779	0.096	-0.192
-606.171	421.354	-0.088	0.189
-605.157	11.608	0.243	-0.187
-604.142	-29.061	-0.120	0.069
-603.128	248.465	0.191	-0.324
-602.113	311.329	-0.078	0.146
-601.098	575.334	0.147	0.359
-600.084	-61.051	-0.581	0.246
-599.069	-104.425	-0.174	0.040
-598.055	667.528	0.105	0.273
-597.040	-131.832	0.298	-0.039
-596.025	121.603	0.012	0.015
-595.011	-200.000	-0.049	-0.233
-593.996	-128.833	0.221	-0.031
-592.982	800.000	-0.023	0.081
-591.967	-110.452	-0.067	0.014
-590.952	-140.190	-0.129	-0.014
-589.938	383.131	-0.098	0.201
-588.923	2.570	-0.357	0.259
-587.909	-168.545	-0.188	-0.007
-586.894	-200.000	0.078	0.394
-585.879	-200.000	-0.024	0.173
-584.865	-79.004	-0.053	-0.018
-583.850	-94.637	0.136	-0.037
-582.836	-200.000	-0.000	0.169
-581.821	-200.000	0.043	-0.348
-580.806	-20.642	0.110	0.067
-579.792	-29.068	-0.176	-0.101
-578.777	438.029	0.067	0.146
-577.763	-200.000	0.001	0.038
-576.748	800.000	-0.050	-0.215
-575.733	400.480	-0.138	0.291
-574.719	316.444	-0.040	-0.076
-573.704	317.516	0.219	0.414
-572.690	800.000	0.064	-0.233
-571.675	434.067	-0.140	-0.303
-570.661	13.984	-0.151	-0.118
-569.646	303.292	-0.048	-0.089
-568.631	-200.000	0.059	0.311
-567.617	-60.081	0.362	0.155
-566.602	35.719	-0.110	0.097
-565.588	-151.053	-0.204	-0.015
-564.573	143.100	-0.138	0.184
-563.558	-200.000	-0.032	0.173
-562.544	176.079	-0.037	0.054
-561.529	-200.000	-0.022	0.463
-560.515	-73.735	-0.282	0.103
-559.500	-161.950	-0.206	-0.010
-558.485	-127.529	0.177	-0.026
-557.471	316.450	0.049	-0.092
-556.456	800.000	0.109	-0.330
-555.442	-200.000	-0.014	-0.460
-554.427	220.056	-0.119	-0.190
-553.412	-200.000	0.007	0.199
-552.398	-81.975	-0.205	-0.067
-551.383	252.220	-0.133	-0.226
-550.369	-106.826	-0.208	-0.046
-549.354	418.473	0.035	0.075
-548.339	-109.798	0.142	0.030
-547.325	190.716	0.039	0.059
-546.310	-200.000	-0.026	0.127
-545.296	-70.046	0.260	0.099
-544.281	95.030	-0.121	0.138
-543.266	800.000	0.045	-0.183
-542.252	-148.916	0.238	0.019
-541.237	29.931	0.034	-0.029
-540.223	-200.000	0.004	0.062
-539.208	-176.290	-0.235	-0.006
-538.193	-12.784	0.377	0.245
-537.179	-200.000	-0.017	0.108
-536.164	136.938	0.142	0.185
-535.150	95.435	-0.070	0.080
-534.135	36.362	0.235	0.207
-533.121	99.211	-0.089	-0.103
-532.106	-169.982	-0.018	0.001
-531.091	-200.000	-0.003	-0.033
-530.077	-200.000	-0.019	0.142
-529.062	128.181	0.212	-0.270
-528.048	-108.288	-0.501	-0.108
-527.033	12.559	-0.198	-0.152
-526.018	-78.659	-0.291	0.099
-525.004	-200.000	0.005	-0.079
-523.989	800.000	0.064	0.240
-522.975	-200.000	0.026	0.225
-521.960	800.000	-0.153	-0.558
-520.945	800.000	0.044	0.122
-519.931	-200.000	-0.007	-0.108
-518.916	-181.792	0.460	-0.009
-517.902	-62.087	-0.366	0.153
-516.887	800.000	-0.118	-0.351
-515.872	147.560	0.079	0.106
-514.858	-39.314	-0.036	0.019
-513.843	800.000	0.069	-0.262
-512.829	-44.746	0.207	0.103
-511.814	-200.000	-0.031	0.221
-510.799	-166.296	0.234	-0.010
-509.785	800.000	-0.105	-0.368
-508.770	-101.056	-0.165	0.040
-507.756	-43.801	0.209	-0.105
-506.741	345.163	-0.259	0.507
-505.726	15.609	-0.209	0.164
-504.712	-56.278	-0.305	-0.135
-503.697	-130.051	-0.391	0.053
-502.683	13.872	-0.342	-0.265
-501.668	800.000	0.018	0.053
-500.653	264.973	0.199	0.346
-499.639	800.000	-0.010	0.037
-498.624	302.683	0.050	0.091
-497.610	21.943	-0.031	-0.025
-496.595	167.265	0.103	-0.146
-495.581	-200.000	0.048	-0.300
-494.566	-52.645	-0.237	0.109
-493.551	800.000	0.018	-0.067
-492.537	785.046	-0.051	0.139
-491.522	55.858	-0.107	0.103
-490.508	-66.870	0.255	0.101
-489.493	123.286	-0.086	-0.108
-488.478	-200.000	-0.019	0.085
-487.464	-41.704	0.332	0.170
-486.449	95.744	0.163	0.186
-485.435	-134.122	0.149	0.018
-484.420	784.725	0.122	-0.333
-483.405	-62.338	0.274	-0.114
-482.391	67.017	-0.119	-0.121
-481.376	116.180	0.173	-0.211
-480.362	223.924	-0.122	0.196
-479.347	800.000	-0.056	-0.203
-478.332	111.111	0.210	-0.252
-477.318	-200.000	0.014	-0.150
-476.303	340.923	-0.043	-0.083
-475.289	292.029	0.035	-0.063
-474.274	-22.106	0.340	0.205
-473.259	426.293	-0.071	0.153
-472.245	-200.000	0.008	0.242
-471.230	496.179	-0.038	0.087
-470.216	30.748	0.088	-0.075
-469.201	-200.000	-0.002	-0.075
-468.186	-20.501	-0.094	-0.057
-467.172	718.873	0.045	-0.120
-466.157	-98.256	-0.146	-0.037
-465.143	40.685	0.160	0.144
-464.128	139.653	0.042	0.055
-463.113	-135.630	-0.176	0.021
-462.099	49.513	-0.212	-0.199
-461.084	-186.820	0.273	-0.004
-460.070	76.805	-0.265	-0.280
-459.055	604.625	-0.048	-0.119
-458.040	6.888	-0.105	-0.078
-457.026	-200.000	-0.181	-0.001
-456.011	-42.616	-0.101	0.051
-454.997	126.523	-0.020	-0.025
-453.982	-41.988	-0.056	0.028
-452.968	-125.371	-0.265	0.040
-451.953	-105.230	-0.047	0.011
-450.938	6.560	-0.175	0.130
-449.924	49.200	0.117	-0.109
-448.909	800.000	0.059	-0.182
-447.895	-200.000	0.037	0.389
-446.880	515.061	0.050	-0.116
-445.865	-38.317	-0.116	0.061
-444.851	-77.618	-0.100	0.034
-443.836	-200.000	0.009	-0.054
-442.822	-145.341	-0.356	-0.032
-441.807	57.772	0.049	-0.047
-440.792	577.067	0.103	-0.251
-439.778	-16.692	-0.375	0.236
-438.763	-200.000	0.035	0.162
-437.749	-86.347	-0.167	0.051
-436.734	-20.481	0.117	-0.072
-435.719	-86.174	0.231	0.071
-434.705	-148.555	-0.266	-0.022
-433.690	-161.259	0.187	-0.010
-432.676	152.759	0.162	0.220
-431.661	-36.053	0.204	0.110
-430.646	6.871	0.228	-0.169
-429.632	-142.388	-0.113	0.011
-428.617	-106.959	-0.192	0.042
-427.603	301.657	0.112	-0.207
-426.588	-200.000	-0.060	-0.664
-425.573	-149.303	-0.115	0.009
-424.559	183.724	-0.048	-0.070
-423.544	-200.000	-0.043	0.194
-422.530	322.919	-0.063	0.119
-421.515	-36.120	0.333	0.179
-420.500	-60.224	-0.142	-0.060
-419.486	-151.014	-0.244	-0.018
-418.471	-96.348	-0.257	-0.068
-417.457	411.746	-0.130	-0.275
-416.442	638.570	-0.049	0.123
-415.428	-17.153	0.203	-0.127
-414.413	77.188	-0.220	0.233
-413.398	226.748	-0.160	-0.259
-412.384	-45.303	-0.225	-0.111
-411.369	614.797	0.101	0.253
-410.355	-200.000	0.067	-0.428
-409.340	226.154	0.114	0.184
-408.325	800.000	-0.039	0.130
-407.311	578.735	0.065	-0.158
-406.296	67.175	0.076	0.077
-405.282	729.812	0.027	-0.072
-404.267	-66.791	-0.357	-0.141
-403.252	423.400	0.114	-0.244
-402.238	-200.000	0.121	0.000
-401.223	-102.754	-0.284	0.067
-400.209	-60.223	0.250	-0.106
-399.194	-128.717	0.114	0.016
-398.179	216.490	0.234	0.369
-397.165	66.767	-0.104	0.105
-396.150	47.591	0.111	-0.103
-395.136	-167.138	0.255	-0.010
-394.121	800.000	0.083	0.340
-393.106	800.000	0.091	0.282
-392.092	-34.853	0.226	0.123
-391.077	-200.000	-0.002	0.086
-390.063	-200.000	0.022	0.173
-389.048	-62.342	-0.137	-0.057
-388.033	-200.000	0.013	-0.152
-387.019	-96.874	-0.086	0.022
-386.004	-10.066	0.176	-0.116
-384.990	-200.000	0.002	-0.142
-383.975	59.445	-0.254	-0.248
-382.960	66.679	0.083	0.083
-381.946	-189.645	-0.369	0.004
-380.931	-200.000	-0.025	-0.229
-379.917	800.000	0.157	0.523
-378.902	2.128	-0.053	0.038
-377.888	-172.972	-0.132	0.004
-376.873	-59.984	0.444	0.188
-375.858	377.268	0.118	-0.240
-374.844	-122.558	-0.279	-0.045
-373.829	-200.000	0.016	0.271
-372.815	-200.000	0.065	0.336
-371.800	-101.129	0.249	-0.060
-370.785	-0.486	-0.258	-0.182
-369.771	-49.023	-0.201	0.095
-368.756	-172.700	0.278	-0.009
-367.742	41.868	-0.228	0.205
-366.727	416.963	-0.052	-0.110
-365.712	153.294	0.251	0.341
-364.698	-18.765	-0.318	-0.197
-363.683	-30.204	0.238	0.134
-362.669	800.000	-0.023	0.068
-361.654	-200.000	0.000	-0.158
-360.639	-63.893	-0.476	0.193
-359.625	180.522	0.149	-0.216
-358.610	800.000	0.047	0.156
-357.596	225.653	-0.287	-0.461
-356.581	15.283	-0.090	-0.070
-355.566	18.847	0.207	0.165
-354.552	-55.383	0.318	-0.141
-353.537	142.460	0.311	-0.409
-352.523	4.015	0.247	0.179
-351.508	-49.202	0.227	0.107
-350.493	523.812	-0.076	-0.177
-349.479	-81.318	-0.409	-0.134
-348.464	120.446	0.182	0.225
-347.450	74.944	0.157	0.164
-346.435	240.095	-0.090	0.148
-345.420	261.539	0.061	-0.105
-344.406	35.420	-0.188	0.164
-343.391	-113.334	0.065	-0.013
-342.377	-200.000	0.038	0.289
-341.362	-200.000	-0.007	0.184
-340.348	-200.000	-0.028	0.163
-339.333	-200.000	0.005	0.072
-338.318	-200.000	-0.361	0.000
-337.304	6.963	-0.034	-0.025
-336.289	-31.123	-0.347	0.194
-335.275	-15.671	-0.098	-0.062
-334.260	-200.000	-0.039	-0.357
-333.245	42.915	0.209	-0.188
-332.231	800.000	-0.086	-0.271
-331.216	52.014	-0.063	-0.059
-330.202	-200.000	-0.002	0.228
-329.187	-37.789	0.219	0.115
-328.172	55.451	-0.150	-0.144
-327.158	-200.000	-0.024	0.198
-326.143	-71.763	0.180	0.066
-325.129	-98.397	-0.093	0.023
-324.114	-17.304	0.290	-0.181
-323.099	250.123	0.189	0.318
-322.085	800.000	0.044	0.136
-321.070	-18.578	0.085	-0.052
-320.056	-28.656	0.168	-0.096
-319.041	800.000	0.016	0.054
-318.026	800.000	-0.114	0.368
-317.012	-69.975	0.162	0.061
-315.997	-20.464	0.236	-0.144
-314.983	30.785	0.156	-0.132
-313.968	-200.000	0.021	-0.157
-312.953	-108.912	-0.131	0.028
-311.939	800.000	0.022	-0.081
-310.924	-157.228	0.034	-0.002
-309.910	460.378	0.106	-0.233
-308.895	800.000	-0.048	-0.162
-307.880	57.671	-0.155	-0.150
-306.866	-35.082	0.179	-0.097
-305.851	-200.000	0.011	-0.146
-304.837	-200.000	0.001	-0.337
-303.822	-200.000	-0.015	-0.080
-302.807	800.000	0.056	0.180
-301.793	-200.000	0.028	-0.231
-300.778	-60.963	0.295	0.123
-299.764	183.867	0.180	-0.264
-298.749	-89.804	-0.123	0.036
-297.735	-177.423	-0.112	-0.003
-296.720	-200.000	0.328	-0.000
-295.705	30.151	0.119	-0.100
-294.691	-47.773	-0.114	0.055
-293.676	-70.198	-0.323	0.121
-292.662	15.019	0.123	0.095
-291.647	632.104	-0.121	-0.304
-290.632	-1.763	0.387	0.270
-289.618	378.071	-0.067	-0.136
-288.603	800.000	-0.056	-0.184
-287.589	-38.956	0.162	-0.085
-286.574	-200.000	-0.087	0.406
-285.559	-159.819	0.166	0.009
-284.545	-22.073	-0.297	-0.178
-283.530	164.333	-0.174	0.243
-282.516	103.108	0.222	-0.257
-281.501	-34.543	-0.229	0.124
-280.486	349.947	-0.071	-0.139
-279.472	-11.140	0.226	0.147
-278.457	-85.178	0.177	0.055
-277.443	-0.527	0.198	0.139
-276.428	-150.598	-0.468	-0.035
-275.413	800.000	0.071	-0.217
-274.399	-133.136	0.171	0.021
-273.384	130.314	0.090	0.114
-272.370	-14.634	0.172	0.109
-271.355	-6.542	-0.177	0.119
-270.340	-188.442	-0.223	-0.003
-269.326	-108.525	-0.063	-0.013
-268.311	275.543	0.289	-0.507
-267.297	46.500	0.139	-0.127
-266.282	-39.385	0.154	0.080
-265.267	800.000	-0.062	0.248
-264.253	82.538	-0.069	0.074
-263.238	5.197	0.255	-0.185
-262.224	-31.895	0.091	-0.050
-261.209	-113.121	-0.060	-0.012
-260.195	127.112	-0.160	-0.201
-259.180	-200.000	0.032	0.292
-258.165	35.751	-0.182	-0.158
-257.151	89.532	0.261	-0.287
-256.136	-97.767	0.157	-0.040
-255.122	-200.000	-0.012	-0.148
-254.107	85.985	-0.101	0.109
-253.092	362.117	0.093	0.185
-252.078	147.188	0.057	-0.076
-251.063	-101.935	-0.253	0.060
-250.049	-138.479	0.229	-0.025
-249.034	149.693	-0.042	-0.056
-248.019	-101.772	-0.030	0.007
-247.005	218.252	-0.036	0.057
-245.990	620.155	0.131	0.325
-244.976	-200.000	-0.009	-0.168
-243.961	-42.945	0.385	0.193
-242.946	800.000	-0.054	-0.171
-241.932	87.357	-0.042	0.046
-240.917	20.094	0.065	-0.052
-239.903	-111.915	0.152	-0.030
-238.888	125.639	0.103	-0.128
-237.873	800.000	-0.090	-0.318
-236.859	59.506	0.091	0.088
-235.844	366.387	-0.150	0.299
-234.830	-104.763	0.373	-0.085
-233.815	-36.755	-0.166	0.088
-232.800	-11.185	0.172	0.112
-231.786	-177.628	0.374	0.009
-230.771	-122.801	0.335	0.053
-229.757	-97.178	0.209	-0.054
-228.742	87.173	-0.135	0.147
-227.727	98.741	0.095	-0.108
-226.713	800.000	-0.024	-0.087
-225.698	69.863	-0.002	-0.002
-224.684	252.220	0.196	-0.330
-223.669	-200.000	-0.026	-0.144
-222.655	-45.709	-0.174	0.085
-221.640	147.073	0.124	0.164
-220.625	-200.000	0.047	-0.366
-219.611	-81.266	-0.230	0.075
-218.596	567.014	-0.037	0.088
-217.582	142.340	-0.091	0.119
-216.567	-105.359	-0.235	0.053
-215.552	23.221	-0.099	0.080
-214.538	-43.775	0.175	0.087
-213.523	-200.000	0.006	-0.068
-212.509	-0.318	-0.202	-0.141
-211.494	-125.727	0.009	-0.001
-210.479	-82.352	-0.371	-0.119
-209.465	49.602	-0.332	0.309
-208.450	-177.768	-0.622	0.015
-207.436	384.159	0.079	-0.160
-206.421	-200.000	-0.071	-0.357
-205.406	-41.255	-0.288	0.146
-204.392	366.110	-0.123	0.245
-203.377	127.928	-0.135	0.169
-202.363	800.000	0.028	-0.100
-201.348	255.219	0.123	0.208
-200.333	577.438	0.060	0.145
-199.319	-44.761	-0.218	-0.107
-198.304	76.593	0.214	-0.224
-197.290	-68.392	-0.087	0.033
-196.275	800.000	0.226	-0.700
-195.260	558.483	-0.047	-0.112
-194.246	-33.163	-0.175	-0.095
-193.231	800.000	0.117	-0.497
-192.217	-138.370	-0.055	-0.006
-191.202	51.512	0.029	0.027
-190.187	-139.972	0.353	-0.037
-189.173	150.672	0.127	-0.170
-188.158	-200.000	-0.029	0.145
-187.144	-39.275	0.105	-0.055
-186.129	47.576	-0.107	-0.098
-185.114	197.359	-0.233	-0.351
-184.100	-115.674	0.042	0.008
-183.085	135.058	-0.078	0.100
-182.071	13.657	-0.085	-0.065
-181.056	-76.999	-0.087	-0.030
-180.042	417.106	0.080	0.168
-179.027	292.537	0.149	0.267
-178.012	-56.984	-0.260	0.113
-176.998	-200.000	0.007	0.291
-175.983	800.000	0.019	0.056
-174.969	-21.160	-0.253	-0.152
-173.954	123.386	-0.161	-0.199
-172.939	127.740	0.291	0.364
-171.925	-200.000	0.024	0.110
-170.910	222.976	-0.114	0.181
-169.896	-197.231	-0.063	0.000
-168.881	-92.542	-0.157	-0.043
-167.866	-189.561	0.160	-0.002
-166.852	-67.797	0.418	0.161
-165.837	-8.556	0.119	0.079
-164.823	-200.000	-0.021	0.132
-163.808	337.927	-0.017	-0.032
-162.793	-42.546	-0.073	0.037
-161.779	-102.123	0.096	-0.023
-160.764	262.595	0.052	-0.089
-159.750	-66.861	0.116	0.045
-158.735	800.000	0.022	0.061
-157.720	241.445	0.020	-0.033
-156.706	292.966	0.155	0.279
-155.691	-200.000	-0.036	-0.212
-154.677	-172.867	-0.550	0.017
-153.662	204.894	0.196	0.300
-152.647	-58.760	0.178	-0.076
-151.633	334.874	0.186	-0.354
-150.618	-7.623	-0.350	0.233
-149.604	-100.244	-0.164	-0.040
-148.589	-75.640	0.218	-0.076
-147.574	-200.000	0.033	-0.162
-146.560	-73.065	0.084	-0.030
-145.545	422.288	0.082	0.173
-144.531	-200.000	-0.021	-0.164
-143.516	-45.431	0.124	0.060
-142.502	-76.460	-0.278	0.096
-141.487	9.185	0.136	-0.101
-140.472	-53.003	-0.180	0.081
-139.458	8.053	0.087	0.064
-138.443	-91.798	0.053	-0.015
-137.429	-200.000	-0.012	0.177
-136.414	800.000	0.055	-0.194
-135.399	-73.046	0.206	-0.074
-134.385	-99.791	0.154	0.038
-133.370	47.359	0.277	-0.253
-132.356	13.018	0.128	0.097
-131.341	800.000	-0.064	0.199
-130.326	-117.298	-0.093	0.017
-129.312	-2.510	0.169	-0.117
-128.297	800.000	0.082	-0.341
-127.283	275.317	0.147	0.257
-126.268	-128.786	0.094	-0.013
-125.253	288.797	0.118	-0.209
-124.239	-72.370	-0.196	-0.071
-123.224	-80.389	0.135	-0.044
-122.210	81.304	-0.237	0.252
-121.195	-16.082	-0.294	0.184
