DTS Sentinel unit serial number:	SN413079Multiplexer serial number:	ORYXHardware model number:	OX4-SRSoftware version number:	ORYX F/W v4.00 Oryx Data Collector v3.7.2.0data status	okinstallation	princeton_trtdifferential loss correction	single-endedforward channel	channel 2reverse channel	N/Adate	2019/09/19time	05:15:35forward acquisition time	60.00reverse acquisition time	0.00gamma	496.2192k internal	0.2351k external	0.2351temperature offset calibration	1.0016default loss term (dB/km)	0.3790temperature slope calibration	1.0000multiplexer offset coefficient	1.0000multiplexer slope coefficient	1.0000fibre end	0.00T internal ref (°C)	19.50T ext. ref 1 (°C)	0.60T ext. ref 2 (°C)	12.74length (m)	temperature (°C)	Stokes	anti-Stokes-747.200	96.701	0.278	0.318
-746.185	-108.939	0.252	-0.054
-745.171	800.000	-0.071	0.209
-744.156	332.135	0.108	0.209
-743.142	109.025	0.068	0.081
-742.127	-61.500	-0.406	0.170
-741.112	-154.444	0.195	0.013
-740.098	-22.124	-0.085	0.052
-739.083	398.780	0.042	-0.088
-738.069	-200.000	-0.003	-0.139
-737.054	770.409	0.032	0.086
-736.039	-57.451	-0.254	0.111
-735.025	28.917	0.273	0.231
-734.010	-143.949	0.093	0.009
-732.996	636.219	0.141	0.357
-731.981	-19.161	-0.324	-0.201
-730.966	800.000	-0.022	0.068
-729.952	-200.000	0.002	-0.170
-728.937	-200.000	0.028	-0.402
-727.923	56.488	-0.247	-0.240
-726.908	-200.000	0.040	-0.191
-725.894	-200.000	0.003	-0.191
-724.879	-124.764	0.149	-0.023
-723.864	43.898	-0.180	-0.165
-722.850	-200.000	0.032	-0.448
-721.835	5.590	-0.274	-0.202
-720.821	128.887	0.226	-0.287
-719.806	112.712	0.062	0.075
-718.791	-141.616	-0.518	-0.052
-717.777	420.928	0.096	-0.205
-716.762	60.294	-0.140	0.139
-715.748	-200.000	0.017	0.140
-714.733	-200.000	-0.045	0.260
-713.718	-200.000	0.022	-0.230
-712.704	799.876	-0.067	-0.184
-711.689	747.328	-0.099	0.266
-710.675	800.000	0.025	-0.096
-709.660	-24.362	0.178	-0.106
-708.645	-30.055	-0.228	0.129
-707.631	-200.000	-0.023	0.151
-706.616	-97.752	-0.050	-0.013
-705.602	55.932	0.171	0.166
-704.587	196.620	-0.170	-0.258
-703.572	216.656	-0.096	-0.153
-702.558	71.008	0.138	0.143
-701.543	38.990	0.347	0.309
-700.529	-200.000	0.013	0.065
-699.514	167.761	0.137	-0.194
-698.499	-132.574	-0.358	-0.046
-697.485	-98.361	0.276	0.070
-696.470	-103.953	-0.347	0.081
-695.456	-200.000	0.008	0.075
-694.441	-200.000	0.016	0.201
-693.426	59.336	0.217	0.213
-692.412	118.113	0.132	0.163
-691.397	308.859	-0.038	0.071
-690.383	130.632	-0.195	0.249
-689.368	-64.585	0.255	0.103
-688.354	-107.066	0.044	0.010
-687.339	355.628	0.113	0.224
-686.324	-200.000	-0.035	0.339
-685.310	-200.000	0.029	-0.233
-684.295	357.503	0.018	0.035
-683.281	-78.393	-0.112	0.038
-682.266	-200.000	0.014	-0.381
-681.251	800.000	0.103	-0.361
-680.237	73.331	0.108	0.112
-679.222	-200.000	-0.002	0.149
-678.208	800.000	-0.050	0.207
-677.193	-200.000	-0.274	0.001
-676.178	-56.633	0.230	0.101
-675.164	-43.950	-0.104	0.052
-674.149	800.000	0.127	-0.352
-673.135	-40.209	0.080	-0.041
-672.120	800.000	-0.074	0.266
-671.105	-200.000	-0.017	0.117
-670.091	457.004	-0.068	-0.151
-669.076	-141.950	-0.202	-0.020
-668.062	-112.238	0.042	0.008
-667.047	-173.766	-0.067	-0.002
-666.032	800.000	0.114	0.326
-665.018	232.456	-0.106	0.172
-664.003	325.466	-0.139	-0.265
-662.989	-200.000	-0.030	-0.138
-661.974	228.914	0.206	0.333
-660.959	-200.000	-0.008	-0.161
-659.945	-43.926	0.097	0.049
-658.930	-70.136	-0.334	-0.126
-657.916	4.970	0.172	0.126
-656.901	77.688	0.336	-0.356
-655.886	124.095	-0.204	-0.255
-654.872	-140.858	-0.259	0.026
-653.857	138.232	-0.209	0.273
-652.843	98.365	-0.129	0.148
-651.828	45.737	-0.216	0.199
-650.814	37.500	-0.087	-0.077
-649.799	-200.000	0.007	-0.062
-648.784	800.000	0.050	-0.148
-647.770	800.000	0.143	-0.430
-646.755	-200.000	-0.014	0.116
-645.741	800.000	-0.004	0.013
-644.726	-137.620	-0.056	0.006
-643.711	-95.645	0.317	-0.084
-642.697	-96.960	0.187	-0.049
-641.682	32.941	-0.146	0.126
-640.668	91.645	0.058	0.065
-639.653	-68.017	0.223	0.087
-638.638	-53.209	0.048	-0.022
-637.624	-155.048	0.107	0.007
-636.609	-17.014	-0.137	0.086
-635.595	224.509	-0.159	0.256
-634.580	190.958	-0.080	0.119
-633.565	404.438	-0.208	0.436
-632.551	-6.256	0.229	-0.155
-631.536	-200.000	0.039	-0.272
-630.522	176.412	0.191	0.276
-629.507	-158.114	0.371	-0.022
-628.492	-139.013	-0.294	0.032
-627.478	166.074	0.062	0.087
-626.463	18.580	0.311	0.247
-625.449	-200.000	0.014	-0.263
-624.434	-31.617	0.171	-0.096
-623.419	-68.780	-0.230	0.088
-622.405	360.647	0.205	-0.408
-621.390	-200.000	0.001	0.195
-620.376	-24.667	0.283	-0.167
-619.361	-54.487	-0.272	-0.122
-618.346	800.000	0.083	0.237
-617.332	-145.756	0.126	-0.011
-616.317	-132.008	-0.169	-0.022
-615.303	358.068	0.106	-0.210
-614.288	800.000	0.035	0.153
-613.273	131.727	0.057	0.073
-612.259	800.000	0.062	-0.240
-611.244	-90.889	-0.275	0.078
-610.230	400.335	0.179	0.373
-609.215	-6.929	-0.190	0.128
-608.201	-200.000	0.027	0.141
-607.186	-180.545	-0.137	-0.003
-606.171	-200.000	0.003	-0.055
-605.157	145.560	0.131	0.174
-604.142	-14.197	0.290	0.185
-603.128	-130.743	0.163	-0.022
-602.113	195.601	-0.032	-0.049
-601.098	800.000	-0.105	-0.409
-600.084	-80.671	-0.426	0.141
-599.069	-158.239	0.502	0.029
-598.055	43.976	-0.208	-0.189
-597.040	143.249	-0.128	-0.169
-596.025	510.617	-0.115	-0.264
-595.011	-84.811	-0.225	0.070
-593.996	-23.238	0.346	-0.206
-592.982	800.000	0.039	0.164
-591.967	20.780	0.144	-0.116
-590.952	-200.000	-0.020	-0.195
-589.938	95.504	-0.237	-0.268
-588.923	190.394	0.107	0.159
-587.909	-101.005	0.083	0.020
-586.894	-146.202	-0.452	-0.039
-585.879	-93.910	-0.282	0.077
-584.865	109.823	-0.231	-0.275
-583.850	-200.000	0.030	-0.273
-582.836	-80.812	0.109	-0.036
-581.821	800.000	0.079	-0.231
-580.806	117.141	-0.142	-0.173
-579.792	336.323	0.115	-0.220
-578.777	143.399	0.090	0.118
-577.763	357.624	-0.073	0.144
-576.748	122.989	-0.165	-0.205
-575.733	80.420	0.328	0.350
-574.719	206.779	0.187	-0.289
-573.704	800.000	-0.090	0.363
-572.690	-200.000	0.000	0.228
-571.675	-153.485	-0.178	0.012
-570.661	-158.219	-0.389	-0.023
-569.646	-9.884	0.174	-0.115
-568.631	800.000	0.010	-0.035
-567.617	800.000	0.033	-0.093
-566.602	133.036	0.130	0.167
-565.588	800.000	0.079	-0.264
-564.573	41.971	-0.138	0.124
-563.558	-137.752	-0.215	-0.024
-562.544	-44.587	0.092	-0.046
-561.529	-168.839	-0.209	0.008
-560.515	-114.714	-0.071	-0.013
-559.500	144.892	-0.246	-0.325
-558.485	179.413	0.051	0.074
-557.471	609.728	-0.067	0.166
-556.456	-200.000	-0.104	-0.603
-555.442	-200.000	-0.026	-0.393
-554.427	-200.000	0.032	-0.217
-553.412	0.779	-0.217	0.154
-552.398	-156.682	0.392	-0.024
-551.383	-28.790	0.141	-0.080
-550.369	50.749	0.154	0.145
-549.354	68.329	-0.202	0.205
-548.339	-5.333	0.211	0.144
-547.325	40.510	0.071	-0.064
-546.310	-47.405	-0.267	0.128
-545.296	210.819	0.083	-0.129
-544.281	-135.717	0.138	-0.016
-543.266	-200.000	-0.058	0.362
-542.252	-75.625	0.180	0.063
-541.237	-126.687	-0.209	-0.031
-540.223	800.000	-0.117	0.385
-539.208	678.499	0.070	-0.181
-538.193	671.360	-0.141	-0.361
-537.179	-110.149	0.314	0.065
-536.164	800.000	0.061	0.208
-535.150	41.179	-0.036	-0.032
-534.135	147.779	0.027	-0.036
-533.121	-142.200	0.229	0.022
-532.106	-200.000	0.017	-0.292
-531.091	-200.000	0.014	-0.159
-530.077	-129.450	0.077	0.011
-529.062	-102.011	-0.141	-0.034
-528.048	266.707	-0.174	-0.301
-527.033	-6.440	-0.310	0.209
-526.018	134.301	0.077	-0.098
-525.004	-103.718	0.181	0.042
-523.989	-175.206	-0.131	0.004
-522.975	78.429	0.144	-0.152
-521.960	21.075	-0.077	0.062
-520.945	123.091	-0.127	-0.157
-519.931	195.300	0.173	-0.260
-518.916	-200.000	0.002	-0.107
-517.902	800.000	0.140	-0.388
-516.887	-200.000	0.023	-0.308
-515.872	-94.565	0.288	0.078
-514.858	-200.000	0.039	0.186
-513.843	475.002	0.014	0.030
-512.829	-200.000	-0.008	0.040
-511.814	-200.000	0.070	-0.379
-510.799	-92.031	-0.238	0.067
-509.785	468.882	-0.084	-0.187
-508.770	-107.526	0.035	-0.008
-507.756	-135.158	-0.129	0.015
-506.741	-38.784	-0.244	0.127
-505.726	99.631	0.136	-0.155
-504.712	-99.820	-0.355	0.088
-503.697	-3.561	-0.144	-0.099
-502.683	487.872	0.140	-0.317
-501.668	-45.466	-0.367	0.180
-500.653	-200.000	0.046	-0.221
-499.639	800.000	0.012	0.032
-498.624	-200.000	0.093	0.417
-497.610	-19.193	-0.277	0.170
-496.595	800.000	0.025	-0.079
-495.581	56.262	-0.371	0.357
-494.566	-117.222	-0.211	-0.038
-493.551	-200.000	-0.028	0.185
-492.537	161.440	0.107	0.148
-491.522	84.124	0.200	0.216
-490.508	-179.468	-0.244	0.005
-489.493	-29.873	-0.509	0.287
-488.478	-47.656	-0.327	-0.157
-487.464	-44.736	-0.202	0.100
-486.449	-153.644	0.269	-0.018
-485.435	-41.882	0.465	-0.235
-484.420	-200.000	0.018	-0.180
-483.405	-43.797	0.301	0.150
-482.391	-162.839	0.427	0.021
-481.376	-200.000	0.009	-0.163
-480.362	-200.000	-0.021	0.454
-479.347	-200.000	0.040	0.194
-478.332	386.771	0.155	-0.315
-477.318	-75.583	-0.256	-0.090
-476.303	668.561	-0.074	0.190
-475.289	-52.186	0.471	0.216
-474.274	800.000	0.051	-0.218
-473.259	-102.524	-0.048	0.011
-472.245	-194.864	-0.163	-0.001
-471.230	212.836	0.100	-0.155
-470.216	-200.000	-0.042	0.261
-469.201	-140.373	-0.236	-0.024
-468.186	-200.000	0.021	-0.118
-467.172	62.971	0.262	0.259
-466.157	800.000	-0.033	-0.140
-465.143	-200.000	0.038	-0.170
-464.128	11.417	-0.157	0.119
-463.113	-81.634	0.209	-0.068
-462.099	-200.000	-0.019	-0.083
-461.084	177.700	-0.143	0.205
-460.070	-126.751	0.256	0.037
-459.055	269.980	0.045	-0.078
-458.040	27.892	-0.184	0.153
-457.026	-16.720	0.082	0.051
-456.011	-124.231	0.225	0.035
-454.997	13.076	0.181	0.138
-453.982	78.016	0.222	0.234
-452.968	-200.000	0.018	-0.152
-451.953	-200.000	0.024	-0.125
-450.938	247.801	-0.127	-0.212
-449.924	380.130	-0.147	-0.297
-448.909	800.000	-0.115	0.481
-447.895	85.245	0.089	0.096
-446.880	332.814	0.152	0.289
-445.865	-124.179	-0.075	0.012
-444.851	-185.427	-0.215	-0.003
-443.836	188.669	-0.079	0.116
-442.822	800.000	-0.067	0.196
-441.807	-200.000	-0.007	0.305
-440.792	280.447	-0.273	-0.482
-439.778	-159.812	-0.102	-0.006
-438.763	-124.905	-0.114	0.017
-437.749	-120.213	-0.108	-0.018
-436.734	-200.000	0.050	-0.418
-435.719	-200.000	0.020	-0.089
-434.705	45.506	0.081	0.073
-433.690	-109.197	0.223	0.047
-432.676	-81.891	0.530	-0.171
-431.661	19.314	0.236	0.187
-430.646	800.000	0.093	0.362
-429.632	-7.338	0.275	0.184
-428.617	687.521	0.083	0.214
-427.603	186.247	-0.100	-0.146
-426.588	397.132	-0.106	-0.218
-425.573	-17.351	0.439	-0.272
-424.559	-49.554	0.075	-0.035
-423.544	31.832	-0.171	0.145
-422.530	-158.356	-0.254	-0.015
-421.515	24.633	-0.131	-0.107
-420.500	32.550	0.064	-0.054
-419.486	-62.948	-0.228	0.093
-418.471	-200.000	-0.017	-0.175
-417.457	-200.000	0.015	0.175
-416.442	173.874	0.140	-0.200
-415.428	-200.000	0.005	-0.036
-414.413	239.480	0.064	0.105
-413.398	-200.000	0.046	-0.226
-412.384	40.207	0.223	-0.198
-411.369	331.232	0.104	0.198
-410.355	-57.048	-0.178	-0.077
-409.340	-108.678	0.216	0.046
-408.325	-80.745	-0.257	-0.084
-407.311	-69.174	-0.250	-0.095
-406.296	83.149	-0.125	-0.134
-405.282	450.574	-0.104	-0.227
-404.267	-79.955	-0.018	0.006
-403.252	-200.000	0.037	0.197
-402.238	-200.000	-0.016	0.351
-401.223	800.000	0.031	-0.125
-400.209	800.000	0.031	-0.113
-399.194	592.655	-0.114	-0.277
-398.179	-86.756	-0.267	0.080
-397.165	2.335	0.067	-0.048
-396.150	800.000	0.127	-0.388
-395.136	196.483	-0.099	0.148
-394.121	-165.999	0.247	0.010
-393.106	-69.088	0.208	-0.079
-392.092	29.757	-0.300	0.252
-391.077	-200.000	0.029	-0.143
-390.063	-64.372	-0.304	0.122
-389.048	-33.394	-0.225	0.123
-388.033	-200.000	0.039	0.203
-387.019	53.191	0.218	0.206
-386.004	-200.000	0.013	-0.075
-384.990	800.000	-0.079	-0.275
-383.975	-38.268	0.160	-0.083
-382.960	-70.154	0.158	-0.059
-381.946	-71.824	-0.208	0.076
-380.931	-63.565	-0.262	0.106
-379.917	-200.000	0.039	-0.233
-378.902	131.191	-0.213	0.270
-377.888	667.695	0.010	0.025
-376.873	463.400	-0.095	-0.208
-375.858	-200.000	0.053	0.318
-374.844	-7.871	-0.056	-0.037
-373.829	332.169	0.017	0.032
-372.815	32.736	-0.241	0.205
-371.800	-200.000	-0.054	0.451
-370.785	-200.000	-0.028	0.137
-369.771	800.000	0.080	0.272
-368.756	443.263	-0.087	-0.187
-367.742	83.158	-0.128	-0.137
-366.727	-177.505	-0.146	0.004
-365.712	413.792	0.128	0.267
-364.698	-200.000	0.002	0.364
-363.683	800.000	0.032	0.129
-362.669	296.957	-0.170	-0.307
-361.654	121.117	0.334	0.408
-360.639	-131.666	-0.164	-0.021
-359.625	246.550	0.095	0.157
-358.610	800.000	-0.054	-0.221
-357.596	-67.849	0.358	-0.138
-356.581	-117.674	0.105	-0.019
-355.566	800.000	-0.031	0.100
-354.552	747.691	-0.080	-0.211
-353.537	35.293	-0.121	0.105
-352.523	-200.000	0.044	-0.424
-351.508	161.162	0.168	0.231
-350.493	650.663	0.085	0.214
-349.479	143.662	0.212	-0.277
-348.464	82.401	0.025	0.027
-347.450	535.806	-0.004	-0.009
-346.435	800.000	-0.019	0.074
-345.420	112.291	0.252	-0.299
-344.406	3.102	-0.041	0.029
-343.391	41.791	-0.257	0.229
-342.377	-200.000	-0.016	-0.153
-341.362	-45.781	-0.016	-0.008
-340.348	-200.000	-0.038	-0.319
-339.333	-200.000	-0.047	0.235
-338.318	-61.836	0.022	-0.009
-337.304	220.726	0.152	-0.240
-336.289	13.004	0.123	0.094
-335.275	-3.568	0.128	-0.087
-334.260	-81.261	-0.305	0.099
-333.245	-63.177	0.316	0.128
-332.231	800.000	-0.043	-0.151
-331.216	54.899	0.219	0.207
-330.202	-106.401	0.207	0.045
-329.187	583.731	0.039	-0.095
-328.172	16.799	-0.248	-0.193
-327.158	295.845	-0.019	0.033
-326.143	-133.942	-0.068	0.008
-325.129	28.524	-0.164	-0.136
-324.114	101.342	-0.200	-0.228
-323.099	-200.000	0.078	-0.342
-322.085	-51.493	-0.189	-0.087
-321.070	131.551	-0.084	-0.106
-320.056	-200.000	-0.008	0.122
-319.041	54.610	0.137	0.130
-318.026	-125.727	0.420	-0.062
-317.012	778.557	-0.021	-0.056
-315.997	87.502	-0.134	-0.145
-314.983	-142.895	-0.230	0.022
-313.968	94.804	-0.045	0.050
-312.953	-8.487	0.187	0.123
-311.939	-133.804	0.391	0.048
-310.924	-23.821	0.032	0.019
-309.910	115.719	-0.065	-0.078
-308.895	-89.466	-0.218	-0.063
-307.880	-65.336	-0.030	0.012
-306.866	351.484	-0.057	0.111
-305.851	213.928	0.043	0.067
-304.837	226.145	-0.162	0.258
-303.822	800.000	-0.068	-0.193
-302.807	32.617	0.101	-0.086
-301.793	-200.000	-0.032	0.322
-300.778	-50.025	-0.077	-0.036
-299.764	-31.359	0.132	-0.073
-298.749	-68.823	0.203	-0.077
-297.735	-84.416	0.297	0.092
-296.720	81.475	-0.147	-0.156
-295.705	-44.070	0.256	0.126
-294.691	-27.948	-0.176	0.100
-293.676	-200.000	0.000	0.140
-292.662	333.265	-0.127	-0.240
-291.647	-142.435	0.232	0.022
-290.632	-4.020	0.143	0.097
-289.618	-200.000	0.070	0.309
-288.603	-101.835	-0.044	-0.011
-287.589	344.877	-0.125	-0.241
-286.574	217.639	-0.235	0.368
-285.559	-106.168	0.066	0.015
-284.545	24.518	0.028	-0.023
-283.530	193.343	-0.233	0.346
-282.516	-200.000	-0.028	-0.144
-281.501	-200.000	-0.050	0.245
-280.486	85.234	0.053	-0.057
-279.472	67.211	-0.055	-0.055
-278.457	-16.648	-0.105	0.065
-277.443	21.372	-0.206	0.164
-276.428	-38.639	-0.007	-0.004
-275.413	-19.400	0.196	-0.119
-274.399	-137.344	-0.196	0.022
-273.384	-62.149	0.344	0.140
-272.370	562.753	-0.190	0.451
-271.355	-71.761	-0.325	0.119
-270.340	-95.828	0.190	0.050
-269.326	-10.352	-0.175	0.114
-268.311	-200.000	0.040	-0.187
-267.297	-139.388	0.213	0.022
-266.282	296.985	-0.212	-0.380
-265.267	-129.402	-0.010	0.001
-264.253	-78.416	-0.213	0.071
-263.238	-128.217	0.176	0.025
-262.224	-8.619	0.268	-0.176
-261.209	-76.489	-0.259	-0.089
-260.195	-51.659	-0.229	-0.105
-259.180	800.000	0.050	0.177
-258.165	-200.000	0.619	-0.000
-257.151	800.000	-0.037	-0.106
-256.136	191.784	0.173	0.256
-255.122	-200.000	0.011	-0.341
-254.107	-13.272	-0.461	0.293
-253.092	223.573	0.167	0.264
-252.078	-24.207	0.298	0.174
-251.063	83.334	0.333	0.355
-250.049	-126.066	-0.132	-0.019
-249.034	217.218	-0.039	-0.060
-248.019	-200.000	0.009	-0.181
-247.005	167.843	-0.217	0.302
-245.990	355.981	0.054	-0.105
-244.976	-121.025	0.090	0.015
-243.961	800.000	-0.034	0.099
-242.946	291.059	-0.149	0.265
-241.932	174.313	-0.151	0.214
-240.917	-115.577	-0.317	0.058
-239.903	148.631	-0.097	0.128
-238.888	800.000	-0.051	-0.190
-237.873	800.000	0.070	-0.289
-236.859	800.000	0.072	0.266
-235.844	149.296	0.190	0.252
-234.830	32.364	0.399	-0.337
-233.815	-200.000	-0.018	-0.335
-232.800	-200.000	0.021	-0.216
-231.786	-200.000	-0.001	-0.092
-230.771	-158.336	-0.455	-0.026
-229.757	-20.052	-0.080	0.049
-228.742	-200.000	0.054	-0.232
-227.727	-200.000	0.037	0.300
-226.713	-200.000	0.023	-0.287
-225.698	-11.523	-0.213	0.137
-224.684	-47.750	-0.198	0.094
-223.669	-168.356	0.572	0.022
-222.655	-82.860	-0.148	-0.047
-221.640	-142.764	-0.307	0.029
-220.625	-120.789	0.217	-0.036
-219.611	-126.233	-0.212	-0.031
-218.596	-200.000	-0.042	0.214
-217.582	-48.292	0.280	-0.132
-216.567	314.122	0.147	0.271
-215.552	800.000	-0.112	-0.314
-214.538	-4.126	0.253	-0.172
-213.523	339.322	-0.117	-0.223
-212.509	135.277	-0.127	-0.162
-211.494	-112.565	0.158	0.031
-210.479	-200.000	0.022	0.314
-209.465	800.000	-0.047	0.162
-208.450	163.187	-0.258	0.355
-207.436	3.056	-0.299	-0.213
-206.421	-200.000	0.056	0.433
-205.406	180.663	0.100	0.144
-204.392	-10.829	-0.336	0.217
-203.377	458.283	-0.119	0.258
-202.363	-200.000	0.059	-0.268
-201.348	-141.996	0.221	-0.021
-200.333	12.074	0.062	0.047
-199.319	-79.413	-0.194	-0.064
-198.304	213.674	-0.144	0.222
-197.290	-200.000	-0.003	0.029
-196.275	-26.175	-0.232	-0.133
-195.260	-200.000	-0.011	-0.300
-194.246	-84.518	0.155	0.048
-193.231	-114.570	0.306	0.057
-192.217	201.406	0.005	0.008
-191.202	-5.954	-0.094	-0.063
-190.187	-149.607	-0.165	0.013
-189.173	-200.000	0.066	-0.293
-188.158	750.829	-0.052	-0.138
-187.144	-54.478	0.256	-0.113
-186.129	66.971	0.074	0.073
-185.114	800.000	0.043	0.148
-184.100	-88.758	0.277	0.080
-183.085	252.019	-0.121	0.201
-182.071	800.000	-0.129	-0.470
-181.056	-35.346	0.205	-0.109
-180.042	-150.028	-0.083	0.006
-179.027	-200.000	-0.038	-0.182
-178.012	255.194	0.081	-0.135
-176.998	436.839	0.097	0.206
-175.983	-36.412	0.204	0.107
-174.969	108.659	-0.157	0.183
-173.954	-70.375	0.195	0.072
-172.939	-200.000	0.017	-0.122
-171.925	-200.000	0.008	0.066
-170.910	-19.550	-0.154	0.093
-169.896	-64.758	-0.145	-0.057
-168.881	-159.321	-0.084	0.005
-167.866	141.183	0.097	0.125
-166.852	13.897	-0.234	0.178
-165.837	36.397	0.120	0.103
-164.823	-74.975	-0.242	0.085
-163.808	568.424	-0.069	-0.163
-162.793	-200.000	0.015	-0.120
-161.779	-46.994	0.472	-0.225
-160.764	800.000	-0.094	-0.265
-159.750	-42.361	0.168	0.084
-158.735	800.000	0.031	-0.113
-157.720	-52.144	-0.034	-0.015
-156.706	136.069	-0.047	0.060
-155.691	-200.000	0.015	0.357
-154.677	145.972	-0.080	0.105
-153.662	-200.000	-0.038	-0.330
-152.647	118.747	0.126	-0.151
-151.633	-59.849	-0.177	-0.074
-150.618	387.093	0.104	0.209
-149.604	-79.027	-0.157	0.052
-148.589	131.930	-0.176	-0.221
-147.574	-164.070	0.530	-0.024
-146.560	11.923	0.131	-0.098
-145.545	-200.000	0.030	-0.208
-144.531	800.000	-0.053	0.171
-143.516	-190.260	0.074	-0.001
-142.502	-200.000	-0.049	-0.345
-141.487	-73.725	0.203	-0.072
-140.472	-200.000	-0.046	0.251
-139.458	-136.495	-0.239	0.027
-138.443	111.565	-0.118	-0.139
-137.429	142.775	0.286	0.370
-136.414	-200.000	-0.032	-0.243
-135.399	800.000	-0.052	-0.170
-134.385	800.000	-0.024	-0.096
-133.370	58.439	0.097	-0.093
-132.356	-81.465	-0.172	0.055
-131.341	-70.310	0.098	-0.036
-130.326	192.706	0.151	-0.223
-129.312	-200.000	0.052	0.350
-128.297	268.923	0.166	0.284
-127.283	800.000	-0.070	-0.261
-126.268	34.888	-0.103	-0.087
-125.253	51.407	-0.260	-0.241
-124.239	-200.000	0.133	-0.623
-123.224	-200.000	0.073	0.348
-122.210	-200.000	0.004	0.246
