DTS Sentinel unit serial number:	SN413079Multiplexer serial number:	ORYXHardware model number:	OX4-SRSoftware version number:	ORYX F/W v4.00 Oryx Data Collector v3.7.2.0data status	okinstallation	princeton_trtdifferential loss correction	single-endedforward channel	channel 2reverse channel	N/Adate	2019/09/13time	06:39:35forward acquisition time	60.00reverse acquisition time	0.00gamma	496.2192k internal	0.2338k external	0.2338temperature offset calibration	1.0196default loss term (dB/km)	0.3790temperature slope calibration	1.0000multiplexer offset coefficient	1.0000multiplexer slope coefficient	1.0000fibre end	0.00T internal ref (°C)	26.03T ext. ref 1 (°C)	4.10T ext. ref 2 (°C)	20.63length (m)	temperature (°C)	Stokes	anti-Stokes-747.200	89.582	0.257	0.288
-746.185	-68.985	-0.175	0.068
-745.171	154.592	-0.132	0.183
-744.156	166.156	-0.077	0.110
-743.142	446.473	-0.047	0.103
-742.127	338.021	0.173	0.338
-741.112	-126.511	-0.236	0.035
-740.098	169.950	-0.214	0.307
-739.083	-200.000	0.087	-0.433
-738.069	-200.000	-0.018	0.423
-737.054	71.430	-0.200	0.208
-736.039	-2.471	-0.230	-0.162
-735.025	-98.934	0.308	-0.078
-734.010	-66.221	0.092	-0.037
-732.996	37.671	-0.142	-0.127
-731.981	-22.916	-0.388	-0.235
-730.966	327.261	-0.108	0.208
-729.952	4.413	-0.201	-0.148
-728.937	-85.980	-0.503	-0.156
-727.923	2.619	0.260	-0.189
-726.908	-87.671	0.227	-0.069
-725.894	405.689	-0.073	0.155
-724.879	-13.825	-0.316	0.205
-723.864	73.831	0.063	0.066
-722.850	-149.997	0.387	-0.030
-721.835	-3.143	-0.185	-0.130
-720.821	-200.000	-0.046	-0.326
-719.806	-64.852	0.188	-0.076
-718.791	800.000	0.062	-0.245
-717.777	-200.000	-0.033	-0.300
-716.762	-200.000	0.035	0.527
-715.748	-200.000	-0.004	-0.032
-714.733	-47.074	0.255	0.125
-713.718	800.000	-0.109	-0.361
-712.704	184.954	0.024	-0.036
-711.689	312.188	-0.171	-0.321
-710.675	-200.000	0.015	-0.152
-709.660	4.783	0.172	-0.127
-708.645	-67.908	-0.285	-0.112
-707.631	-120.785	-0.126	0.021
-706.616	120.533	0.045	-0.056
-705.602	-200.000	-0.026	0.120
-704.587	6.779	-0.348	-0.259
-703.572	468.017	-0.115	0.259
-702.558	-200.000	0.026	-0.177
-701.543	-88.977	0.180	-0.053
-700.529	-103.683	-0.605	-0.142
-699.514	-128.526	0.157	-0.022
-698.499	9.234	0.032	-0.024
-697.485	141.959	0.108	0.143
-696.470	-44.159	-0.200	0.100
-695.456	-25.909	-0.142	-0.084
-694.441	-143.818	-0.027	0.003
-693.426	198.127	-0.095	0.145
-692.412	800.000	0.039	0.148
-691.397	-75.207	0.286	-0.102
-690.383	-141.091	-0.392	-0.040
-689.368	327.253	0.136	-0.261
-688.354	-58.901	-0.145	0.063
-687.339	489.582	-0.153	-0.350
-686.324	130.482	-0.140	-0.180
-685.310	-200.000	0.028	0.188
-684.295	-200.000	0.015	-0.092
-683.281	-45.476	0.303	-0.150
-682.266	-62.839	-0.085	-0.035
-681.251	-66.281	-0.252	-0.100
-680.237	187.759	-0.075	-0.112
-679.222	-125.793	-0.070	0.011
-678.208	-51.579	-0.387	0.181
-677.193	800.000	0.070	-0.217
-676.178	21.672	-0.319	-0.260
-675.164	-156.480	-0.261	-0.016
-674.149	395.341	-0.075	0.156
-673.135	-127.642	-0.075	-0.011
-672.120	-146.078	0.322	-0.028
-671.105	232.839	0.242	-0.398
-670.091	-29.202	-0.254	-0.145
-669.076	160.557	-0.091	0.127
-668.062	-200.000	0.023	-0.301
-667.047	577.458	0.053	-0.131
-666.032	360.882	-0.125	-0.251
-665.018	255.669	0.073	-0.125
-664.003	89.355	0.017	0.019
-662.989	-134.032	0.328	0.041
-661.974	575.200	-0.191	0.465
-660.959	29.169	-0.261	0.222
-659.945	-10.971	0.064	-0.043
-658.930	322.951	0.040	-0.077
-657.916	582.509	0.119	0.292
-656.901	-200.000	-0.075	-0.463
-655.886	-89.026	0.188	0.056
-654.872	-200.000	0.036	0.416
-653.857	-200.000	0.259	0.000
-652.843	54.498	-0.290	-0.280
-651.828	-18.058	-0.172	-0.107
-650.814	19.499	0.322	0.259
-649.799	613.835	0.049	0.122
-648.784	-114.889	-0.183	0.035
-647.770	-200.000	-0.000	-0.209
-646.755	209.257	-0.108	-0.169
-645.741	220.647	-0.163	-0.262
-644.726	23.147	0.021	0.017
-643.711	143.788	-0.179	-0.238
-642.697	-200.000	0.040	-0.205
-641.682	-200.000	0.057	-0.298
-640.668	-108.653	-0.311	0.067
-639.653	-200.000	-0.052	-0.254
-638.638	800.000	-0.032	0.137
-637.624	-4.631	-0.123	-0.085
-636.609	748.237	0.090	0.242
-635.595	-200.000	-0.039	0.332
-634.580	-30.706	-0.119	-0.067
-633.565	800.000	0.008	0.027
-632.551	-52.059	-0.094	-0.044
-631.536	101.834	0.090	-0.105
-630.522	104.219	0.177	-0.208
-629.507	48.020	-0.241	-0.225
-628.492	183.313	-0.136	-0.200
-627.478	3.469	-0.330	-0.241
-626.463	54.065	0.300	-0.288
-625.449	305.889	-0.147	-0.274
-624.434	85.236	0.256	-0.280
-623.419	-66.519	0.122	-0.048
-622.405	94.237	-0.231	0.262
-621.390	-146.749	0.300	0.026
-620.376	-168.292	-0.088	-0.003
-619.361	800.000	-0.056	0.155
-618.346	714.519	-0.059	-0.155
-617.332	800.000	0.025	0.100
-616.317	294.136	0.075	-0.136
-615.303	-38.969	0.067	-0.035
-614.288	-101.741	-0.203	-0.049
-613.273	-18.751	-0.218	-0.136
-612.259	-200.000	-0.011	0.125
-611.244	-200.000	-0.029	-0.480
-610.230	-148.963	-0.429	-0.035
-609.215	800.000	0.065	0.221
-608.201	77.026	0.179	0.190
-607.186	169.917	-0.112	0.160
-606.171	-51.576	-0.268	0.125
-605.157	792.160	0.032	0.087
-604.142	-200.000	0.051	0.246
-603.128	-57.533	-0.284	-0.124
-602.113	-21.920	-0.083	0.050
-601.098	800.000	-0.121	0.370
-600.084	-200.000	-0.026	0.141
-599.069	-200.000	-0.012	0.228
-598.055	404.882	-0.106	0.224
-597.040	161.739	0.167	0.233
-596.025	425.532	0.119	0.255
-595.011	-113.692	0.152	0.030
-593.996	-200.000	-0.034	-0.181
-592.982	48.667	-0.056	0.052
-591.967	123.789	-0.103	-0.129
-590.952	-200.000	0.058	0.272
-589.938	60.457	-0.142	0.140
-588.923	93.170	-0.058	-0.066
-587.909	-102.871	0.257	0.061
-586.894	151.144	-0.188	0.255
-585.879	-31.059	-0.174	0.098
-584.865	-200.000	-0.040	0.302
-583.850	212.166	0.054	0.086
-582.836	67.025	0.103	0.105
-581.821	-38.779	-0.107	-0.056
-580.806	8.072	0.216	0.161
-579.792	49.774	0.113	-0.106
-578.777	5.812	-0.149	-0.110
-577.763	128.248	-0.161	0.205
-576.748	537.071	0.159	-0.376
-575.733	-70.189	0.175	0.066
-574.719	267.754	-0.059	0.103
-573.704	602.235	-0.089	0.221
-572.690	46.160	0.087	0.080
-571.675	-181.667	0.087	0.002
-570.661	589.382	0.115	-0.284
-569.646	98.355	0.233	0.267
-568.631	-117.111	0.174	0.032
-567.617	399.594	0.095	-0.198
-566.602	327.828	-0.101	-0.193
-565.588	-28.423	-0.032	-0.018
-564.573	-147.860	-0.407	0.034
-563.558	-92.254	-0.312	-0.088
-562.544	85.443	0.184	-0.201
-561.529	14.632	0.146	0.113
-560.515	539.733	-0.078	0.185
-559.500	800.000	-0.033	0.114
-558.485	-97.210	0.110	0.029
-557.471	-53.023	-0.341	-0.156
-556.456	301.838	-0.078	0.143
-555.442	-62.442	0.437	0.181
-554.427	749.454	0.130	-0.348
-553.412	106.934	0.052	-0.062
-552.398	-200.000	0.010	-0.104
-551.383	-92.457	0.423	-0.119
-550.369	118.879	0.461	-0.568
-549.354	-130.663	0.545	0.073
-548.339	48.608	0.142	0.133
-547.325	61.376	0.130	-0.128
-546.310	-110.883	-0.364	0.075
-545.296	337.042	0.095	0.184
-544.281	99.502	-0.066	-0.077
-543.266	231.353	-0.060	0.097
-542.252	-46.254	-0.167	-0.082
-541.237	-161.581	-0.348	-0.018
-540.223	-200.000	0.051	0.294
-539.208	46.077	-0.166	-0.153
-538.193	111.924	0.337	-0.405
-537.179	-91.490	0.297	0.084
-536.164	-61.867	-0.126	-0.053
-535.150	-200.000	0.022	0.124
-534.135	321.661	0.236	-0.447
-533.121	-200.000	0.052	-0.238
-532.106	-200.000	0.007	0.121
-531.091	28.187	-0.210	0.176
-530.077	274.905	-0.098	0.172
-529.062	800.000	-0.090	0.304
-528.048	164.651	-0.110	-0.154
-527.033	11.844	-0.117	-0.090
-526.018	-77.954	-0.028	-0.009
-525.004	-44.710	0.091	0.045
-523.989	119.926	0.030	-0.037
-522.975	-37.691	0.239	-0.127
-521.960	51.546	-0.147	-0.139
-520.945	-158.629	-0.145	-0.008
-519.931	-200.000	-0.005	0.229
-518.916	800.000	-0.063	0.189
-517.902	-1.745	0.182	-0.128
-516.887	-18.907	-0.053	-0.033
-515.872	-72.060	-0.128	-0.047
-514.858	-71.660	-0.226	-0.084
-513.843	-200.000	-0.009	0.211
-512.829	-169.680	-0.209	-0.008
-511.814	-83.139	-0.226	-0.072
-510.799	-92.935	-0.160	0.044
-509.785	800.000	-0.092	-0.279
-508.770	4.996	-0.202	0.148
-507.756	800.000	0.053	-0.166
-506.741	800.000	-0.085	0.237
-505.726	-14.925	-0.284	-0.181
-504.712	-200.000	-0.007	0.223
-503.697	-200.000	-0.011	-0.062
-502.683	-6.841	-0.105	0.071
-501.668	163.578	-0.220	0.308
-500.653	-103.399	0.258	-0.061
-499.639	800.000	-0.032	-0.103
-498.624	-188.553	-0.081	-0.001
-497.610	-74.291	-0.390	0.140
-496.595	388.016	0.010	0.021
-495.581	69.900	0.197	0.202
-494.566	-172.441	-0.319	-0.010
-493.551	11.530	-0.135	0.103
-492.537	5.551	0.213	-0.156
-491.522	562.590	0.017	-0.041
-490.508	79.627	0.068	0.073
-489.493	-200.000	-0.043	0.000
-488.478	800.000	0.007	-0.026
-487.464	-77.646	0.471	0.162
-486.449	-88.913	0.188	0.055
-485.435	62.724	-0.044	-0.044
-484.420	-200.000	-0.033	0.606
-483.405	451.713	0.057	-0.126
-482.391	800.000	-0.034	-0.141
-481.376	-200.000	0.009	0.073
-480.362	-28.398	0.274	-0.157
-479.347	-200.000	0.374	0.001
-478.332	-200.000	-0.011	-0.086
-477.318	-89.999	0.099	0.029
-476.303	93.995	0.100	-0.113
-475.289	314.356	0.061	-0.114
-474.274	-130.368	0.178	0.024
-473.259	800.000	-0.088	-0.280
-472.245	-200.000	0.015	0.082
-471.230	800.000	-0.032	0.119
-470.216	317.014	-0.086	0.160
-469.201	-12.604	0.325	-0.210
-468.186	-62.228	0.139	0.057
-467.172	800.000	-0.105	-0.351
-466.157	-200.000	0.013	-0.217
-465.143	-37.259	-0.276	-0.146
-464.128	-33.663	-0.119	0.065
-463.113	-116.495	0.124	0.023
-462.099	-42.988	-0.089	-0.045
-461.084	18.323	-0.304	-0.241
-460.070	8.359	-0.018	0.013
-459.055	-56.679	0.268	-0.118
-458.040	-200.000	0.074	-0.437
-457.026	566.495	-0.080	-0.191
-456.011	-76.053	-0.097	-0.034
-454.997	135.868	0.318	-0.411
-453.982	800.000	-0.098	-0.302
-452.968	-200.000	0.030	-0.271
-451.953	169.416	0.115	0.163
-450.938	-85.315	0.172	0.053
-449.924	358.562	0.172	-0.340
-448.909	-78.567	0.082	-0.028
-447.895	26.616	-0.139	0.115
-446.880	30.759	-0.171	-0.145
-445.865	83.317	0.245	-0.264
-444.851	409.550	-0.099	-0.208
-443.836	107.014	0.096	-0.113
-442.822	56.518	-0.050	-0.048
-441.807	222.924	-0.010	-0.016
-440.792	-179.891	0.152	-0.003
-439.778	4.371	0.263	-0.191
-438.763	-200.000	-0.012	-0.186
-437.749	169.393	-0.164	-0.232
-436.734	83.707	0.006	-0.007
-435.719	-140.518	-0.181	-0.019
-434.705	439.426	0.130	-0.281
-433.690	800.000	-0.019	0.061
-432.676	663.208	-0.047	-0.120
-431.661	-64.941	0.302	-0.121
-430.646	-139.606	-0.241	-0.025
-429.632	-133.755	0.323	-0.040
-428.617	330.807	-0.060	-0.115
-427.603	176.248	0.171	0.246
-426.588	-200.000	0.003	0.072
-425.573	-200.000	0.002	0.177
-424.559	97.738	-0.220	0.251
-423.544	253.152	0.189	0.319
-422.530	295.627	0.081	-0.146
-421.515	-18.754	0.306	0.189
-420.500	129.715	-0.125	-0.159
-419.486	243.807	-0.161	-0.267
-418.471	-20.593	-0.186	0.113
-417.457	800.000	-0.030	0.099
-416.442	-47.733	0.184	-0.088
-415.428	-98.542	-0.260	0.066
-414.413	17.034	0.246	0.193
-413.398	176.038	-0.053	-0.076
-412.384	187.970	-0.266	0.393
-411.369	-153.240	0.207	-0.014
-410.355	18.699	0.248	0.197
-409.340	-52.501	-0.202	0.092
-408.325	506.407	-0.045	-0.103
-407.311	-172.249	-0.333	0.011
-406.296	165.252	0.118	0.164
-405.282	0.319	0.119	-0.084
-404.267	44.623	-0.265	0.241
-403.252	800.000	-0.023	-0.097
-402.238	-135.437	0.134	-0.016
-401.223	-29.157	0.137	0.078
-400.209	275.398	0.082	-0.144
-399.194	-30.126	-0.255	-0.143
-398.179	773.604	0.034	0.091
-397.165	98.650	0.052	0.059
-396.150	290.243	-0.131	0.235
-395.136	-127.263	-0.240	-0.035
-394.121	-200.000	0.041	0.296
-393.106	-49.622	-0.432	-0.203
-392.092	-104.679	0.140	0.032
-391.077	-179.423	0.124	0.003
-390.063	276.834	-0.109	0.192
-389.048	-200.000	-0.018	0.337
-388.033	-94.203	-0.325	0.088
-387.019	-200.000	0.093	-0.432
-386.004	-200.000	-0.023	0.186
-384.990	-61.148	-0.258	0.108
-383.975	800.000	0.102	0.312
-382.960	-200.000	0.012	-0.344
-381.946	800.000	0.083	-0.288
-380.931	37.719	-0.213	-0.187
-379.917	-49.920	-0.090	-0.042
-378.902	46.052	-0.143	0.131
-377.888	143.543	0.065	0.086
-376.873	69.749	0.077	-0.078
-375.858	-100.337	-0.135	-0.033
-374.844	-16.677	0.416	0.261
-373.829	-41.288	-0.188	-0.096
-372.815	-115.865	0.031	-0.006
-371.800	-200.000	0.030	0.232
-370.785	-200.000	-0.006	0.160
-369.771	-7.805	-0.219	0.147
-368.756	-19.955	0.328	0.200
-367.742	105.500	0.142	-0.166
-366.727	45.110	0.041	0.037
-365.712	306.105	-0.207	0.380
-364.698	375.225	0.088	0.178
-363.683	717.706	-0.123	0.324
-362.669	67.918	0.149	-0.151
-361.654	-200.000	-0.003	-0.021
-360.639	-200.000	0.010	0.119
-359.625	-200.000	-0.010	0.068
-358.610	62.292	0.104	0.102
-357.596	222.892	-0.155	0.247
-356.581	-200.000	0.050	0.252
-355.566	448.663	-0.143	-0.312
-354.552	-48.565	0.019	0.009
-353.537	33.017	0.080	0.069
-352.523	-200.000	-0.013	-0.303
-351.508	-20.633	0.109	-0.066
-350.493	220.123	-0.044	0.070
-349.479	-172.326	-0.220	-0.007
-348.464	-200.000	0.028	-0.142
-347.450	-172.439	0.422	0.013
-346.435	-200.000	-0.011	0.092
-345.420	-200.000	0.028	0.163
-344.406	69.319	0.101	-0.102
-343.391	-161.818	0.140	0.007
-342.377	-4.847	-0.311	0.212
-341.362	26.821	-0.216	0.178
-340.348	-108.887	-0.198	-0.042
-339.333	-44.310	-0.279	-0.138
-338.318	-80.171	0.396	0.131
-337.304	-200.000	0.013	-0.123
-336.289	121.196	-0.082	-0.101
-335.275	-36.723	0.125	-0.066
-334.260	-140.447	-0.289	0.030
-333.245	116.507	0.132	0.160
-332.231	76.663	-0.105	-0.110
-331.216	-200.000	0.085	-0.465
-330.202	-200.000	0.021	-0.119
-329.187	-104.957	0.229	0.052
-328.172	-146.280	-0.266	0.023
-327.158	-56.598	-0.226	0.099
-326.143	51.733	0.193	0.181
-325.129	16.425	0.128	-0.099
-324.114	25.612	-0.195	-0.160
-323.099	117.856	0.326	-0.396
-322.085	-200.000	0.007	-0.042
-321.070	-77.932	0.083	-0.028
-320.056	83.107	0.231	-0.248
-319.041	800.000	0.107	0.459
-318.026	210.298	0.046	-0.071
-317.012	-122.385	0.221	-0.036
-315.997	-82.944	0.552	0.176
-314.983	74.853	0.103	0.107
-313.968	-200.000	-0.015	-0.181
-312.953	154.207	-0.056	0.076
-311.939	-200.000	-0.011	0.181
-310.924	-52.379	0.121	0.055
-309.910	-79.840	-0.506	0.168
-308.895	244.136	0.170	-0.281
-307.880	-200.000	0.005	0.084
-306.866	-200.000	-0.040	0.219
-305.851	314.411	-0.059	-0.110
-304.837	-143.570	0.271	-0.025
-303.822	544.524	-0.056	-0.133
-302.807	-152.402	-0.185	0.013
-301.793	557.419	0.176	0.419
-300.778	-36.611	-0.139	0.074
-299.764	-22.688	0.133	0.079
-298.749	81.423	-0.094	-0.101
-297.735	-200.000	-0.035	0.231
-296.720	800.000	0.161	-0.588
-295.705	223.903	-0.106	0.169
-294.691	-200.000	-0.002	0.137
-293.676	-200.000	-0.005	0.131
-292.662	201.222	-0.163	0.247
-291.647	4.390	0.214	0.155
-290.632	223.476	0.075	0.119
-289.618	187.506	-0.047	-0.069
-288.603	-54.186	0.185	-0.083
-287.589	-57.681	-0.343	-0.148
-286.574	95.316	-0.214	0.240
-285.559	-200.000	0.019	0.127
-284.545	-9.283	0.021	-0.014
-283.530	-47.406	-0.362	-0.173
-282.516	102.402	0.173	-0.200
-281.501	-37.360	0.152	-0.080
-280.486	-161.530	-0.185	0.009
-279.472	-124.037	-0.222	0.034
-278.457	-103.707	0.270	0.062
-277.443	41.419	-0.064	0.057
-276.428	-184.137	-0.456	0.007
-275.413	64.352	0.065	0.065
-274.399	-200.000	0.014	0.384
-273.384	48.565	0.239	-0.221
-272.370	16.761	-0.186	0.145
-271.355	26.998	0.203	-0.168
-270.340	103.974	0.018	-0.021
-269.326	-104.436	0.147	-0.033
-268.311	-70.311	-0.241	-0.090
-267.297	473.613	-0.157	0.348
-266.282	87.382	0.221	0.240
-265.267	14.680	0.243	0.187
-264.253	-100.863	0.224	-0.054
-263.238	-200.000	-0.041	-0.266
-262.224	-67.212	-0.115	-0.045
-261.209	-68.978	0.139	-0.053
-260.195	-18.526	-0.249	0.153
-259.180	49.711	0.048	0.045
-258.165	285.650	-0.116	-0.206
-257.151	800.000	0.128	-0.394
-256.136	27.171	0.241	-0.199
-255.122	-63.432	-0.329	0.133
-254.107	-200.000	-0.001	0.160
-253.092	-200.000	0.002	-0.011
-252.078	-85.162	-0.092	-0.028
-251.063	239.618	-0.092	0.152
-250.049	16.614	0.125	-0.097
-249.034	-200.000	-0.027	-0.220
-248.019	-58.823	0.314	0.134
-247.005	800.000	-0.056	-0.220
-245.990	-87.015	0.217	0.065
-244.976	-133.018	-0.489	-0.061
-243.961	-200.000	-0.023	0.251
-242.946	-200.000	-0.011	-0.073
-241.932	18.578	-0.093	0.073
-240.917	-64.415	0.246	-0.098
-239.903	96.714	0.110	0.124
-238.888	-154.777	0.095	-0.006
-237.873	332.227	-0.170	-0.323
-236.859	40.945	-0.209	-0.185
-235.844	260.424	-0.085	0.145
-234.830	-43.098	0.256	0.128
-233.815	800.000	-0.114	0.319
-232.800	97.820	0.086	0.097
-231.786	-30.540	0.068	0.038
-230.771	800.000	-0.080	0.239
-229.757	11.208	0.227	-0.171
-228.742	-100.775	0.141	-0.034
-227.727	80.121	0.079	-0.083
-226.713	-200.000	-0.035	0.248
-225.698	-179.326	-0.289	0.006
-224.684	-63.798	0.141	-0.057
-223.669	-6.873	-0.332	0.222
-222.655	53.463	-0.059	-0.055
-221.640	-200.000	-0.065	0.286
-220.625	-200.000	-0.025	0.150
-219.611	27.043	-0.248	0.205
-218.596	213.331	0.118	0.184
-217.582	-2.072	-0.157	-0.109
-216.567	34.754	-0.105	-0.090
-215.552	-16.218	0.280	-0.175
-214.538	-69.250	0.074	-0.028
-213.523	-200.000	0.044	-0.284
-212.509	87.006	0.075	-0.081
-211.494	-24.988	-0.276	-0.161
-210.479	156.825	0.097	0.132
-209.465	433.983	-0.135	-0.288
-208.450	-120.848	-0.201	-0.033
-207.436	14.038	0.286	0.219
-206.421	170.452	-0.201	0.283
-205.406	-143.217	0.377	0.036
-204.392	221.144	-0.074	-0.117
-203.377	-37.625	-0.192	0.101
-202.363	494.676	-0.043	0.098
-201.348	43.846	0.152	0.137
-200.333	-55.369	0.158	0.070
-199.319	403.377	-0.018	-0.038
-198.304	-200.000	-0.047	0.241
-197.290	89.255	0.178	0.195
-196.275	800.000	0.069	-0.244
-195.260	800.000	0.097	0.395
-194.246	-113.641	0.325	0.062
-193.231	326.825	-0.029	0.055
-192.217	-93.099	-0.266	-0.073
-191.202	197.016	0.205	0.307
-190.187	-42.288	-0.062	-0.031
-189.173	-200.000	0.046	0.436
-188.158	641.115	-0.052	-0.129
-187.144	-149.617	0.400	-0.031
-186.129	-200.000	-0.008	-0.129
-185.114	45.615	0.071	-0.064
-184.100	-14.922	0.145	-0.092
-183.085	-86.613	0.119	-0.036
-182.071	-92.340	0.050	0.014
-181.056	517.277	-0.118	0.271
-180.042	555.979	-0.098	-0.232
-179.027	541.519	-0.111	0.259
-178.012	-200.000	0.043	-0.225
-176.998	800.000	0.041	0.160
-175.983	-17.675	0.263	-0.162
-174.969	-37.493	0.291	-0.152
-173.954	800.000	0.046	0.172
-172.939	461.313	-0.116	-0.253
-171.925	800.000	0.187	-0.519
-170.910	471.230	-0.147	-0.325
-169.896	53.270	0.054	-0.051
-168.881	108.218	0.017	-0.020
-167.866	268.985	-0.007	0.011
-166.852	112.961	-0.071	-0.085
-165.837	287.488	0.071	0.126
-164.823	-108.924	-0.283	0.059
-163.808	800.000	0.083	-0.328
-162.793	-129.143	0.189	-0.026
-161.779	800.000	0.054	-0.197
-160.764	-29.383	0.077	0.043
-159.750	-175.319	-0.252	-0.007
-158.735	-64.552	0.271	0.108
-157.720	145.079	0.112	0.147
-156.706	-200.000	-0.002	0.229
-155.691	150.518	0.048	-0.064
-154.677	-172.374	-0.269	-0.008
-153.662	-145.977	-0.300	0.026
-152.647	-200.000	0.020	-0.237
-151.633	66.059	-0.100	-0.100
-150.618	93.089	-0.103	-0.114
-149.604	-146.383	-0.244	-0.021
-148.589	800.000	0.149	-0.588
-147.574	7.571	0.071	-0.052
-146.560	800.000	0.060	-0.235
-145.545	-200.000	-0.067	0.304
-144.531	-200.000	-0.051	0.303
-143.516	628.356	0.091	0.226
-142.502	-200.000	-0.048	0.456
-141.487	-101.769	-0.077	0.018
-140.472	-157.938	0.093	0.005
-139.458	111.245	0.157	-0.185
-138.443	-200.000	-0.001	-0.109
-137.429	-97.592	0.353	-0.090
-136.414	-45.688	0.258	-0.125
-135.399	101.474	-0.074	0.085
-134.385	-49.434	0.119	0.056
-133.370	-111.117	-0.308	0.062
-132.356	-79.794	0.207	-0.068
-131.341	-200.000	0.066	0.457
-130.326	-142.875	-0.290	-0.028
-129.312	-200.000	0.015	-0.178
-128.297	312.142	0.118	0.216
-127.283	345.357	-0.094	0.181
-126.268	49.578	0.320	0.296
-125.253	20.265	-0.054	-0.042
-124.239	196.439	-0.032	0.047
-123.224	-96.023	-0.207	-0.054
-122.210	104.320	0.073	0.084
-121.195	92.939	0.203	0.225
