DTS Sentinel unit serial number:	SN413079Multiplexer serial number:	ORYXHardware model number:	OX4-SRSoftware version number:	ORYX F/W v4.00 Oryx Data Collector v3.7.2.0data status	okinstallation	princeton_trtdifferential loss correction	single-endedforward channel	channel 2reverse channel	N/Adate	2019/09/16time	10:39:35forward acquisition time	60.00reverse acquisition time	0.00gamma	496.2192k internal	0.2318k external	0.2318temperature offset calibration	0.9958default loss term (dB/km)	0.3790temperature slope calibration	1.0000multiplexer offset coefficient	1.0000multiplexer slope coefficient	1.0000fibre end	0.00T internal ref (°C)	35.78T ext. ref 1 (°C)	12.63T ext. ref 2 (°C)	33.81length (m)	temperature (°C)	Stokes	anti-Stokes-747.200	-87.050	0.149	-0.046
-746.185	77.237	0.101	0.109
-745.171	-200.000	-0.062	0.300
-744.156	800.000	-0.036	0.102
-743.142	-84.606	-0.231	0.074
-742.127	-105.822	-0.111	-0.025
-741.112	-10.917	-0.289	0.193
-740.098	141.290	0.131	0.176
-739.083	-60.187	-0.165	0.071
-738.069	-15.682	0.090	-0.058
-737.054	-99.143	-0.422	0.108
-736.039	800.000	-0.056	-0.239
-735.025	-200.000	-0.018	0.294
-734.010	-51.081	-0.287	-0.136
-732.996	55.226	-0.228	-0.223
-731.981	-64.314	0.374	0.154
-730.966	35.614	-0.122	0.108
-729.952	-40.191	-0.431	-0.227
-728.937	334.744	-0.188	-0.369
-727.923	59.186	-0.037	-0.037
-726.908	10.887	-0.181	0.140
-725.894	291.666	0.056	0.104
-724.879	-200.000	0.016	0.207
-723.864	-109.507	0.179	0.038
-722.850	-150.323	-0.052	0.004
-721.835	-110.351	-0.455	-0.096
-720.821	323.825	0.190	-0.366
-719.806	800.000	-0.128	-0.429
-718.791	430.767	0.083	0.182
-717.777	-200.000	-0.038	-0.355
-716.762	65.105	-0.236	-0.241
-715.748	-138.545	-0.115	0.013
-714.733	800.000	0.105	0.369
-713.718	-200.000	-0.006	-0.223
-712.704	124.373	-0.062	-0.078
-711.689	-104.289	-0.151	-0.035
-710.675	-200.000	0.002	-0.016
-709.660	-111.103	0.139	-0.029
-708.645	148.497	-0.097	-0.133
-707.631	0.508	-0.099	-0.071
-706.616	-141.169	-0.484	-0.050
-705.602	800.000	-0.110	0.316
-704.587	67.478	-0.031	-0.032
-703.572	314.244	0.076	-0.145
-702.558	85.847	-0.248	-0.276
-701.543	-200.000	-0.004	0.209
-700.529	-49.453	-0.101	-0.049
-699.514	-87.168	-0.478	0.147
-698.499	97.846	-0.214	0.249
-697.485	107.504	-0.153	0.184
-696.470	-200.000	0.010	0.388
-695.456	25.690	0.066	-0.056
-694.441	415.931	0.064	-0.137
-693.426	7.050	-0.085	-0.064
-692.412	243.244	0.327	0.554
-691.397	-81.573	-0.397	-0.132
-690.383	493.556	0.049	0.113
-689.368	249.935	0.088	-0.151
-688.354	33.722	-0.042	-0.037
-687.339	220.493	-0.025	0.040
-686.324	15.028	-0.240	0.190
-685.310	-59.188	-0.030	0.013
-684.295	800.000	0.067	0.232
-683.281	597.632	-0.116	0.290
-682.266	43.022	-0.145	-0.134
-681.251	-104.947	0.462	0.107
-680.237	800.000	-0.034	-0.113
-679.222	-116.409	-0.171	-0.032
-678.208	35.419	-0.115	0.102
-677.193	-58.266	0.169	0.074
-676.178	172.399	-0.063	-0.092
-675.164	-15.575	-0.176	-0.113
-674.149	-136.745	-0.057	0.007
-673.135	-43.693	-0.208	-0.106
-672.120	417.458	0.071	-0.153
-671.105	185.222	0.063	-0.095
-670.091	414.717	-0.090	0.193
-669.076	-163.263	0.318	-0.015
-668.062	172.888	0.116	0.168
-667.047	419.106	0.098	-0.211
-666.032	6.639	-0.383	-0.287
-665.018	-200.000	-0.041	0.198
-664.003	-170.321	-0.073	0.003
-662.989	-20.896	-0.138	0.086
-661.974	-200.000	0.043	-0.213
-660.959	468.052	0.143	-0.324
-659.945	190.852	0.236	0.357
-658.930	-70.203	0.109	-0.042
-657.916	626.899	0.116	0.296
-656.901	-200.000	0.149	0.001
-655.886	800.000	-0.058	-0.224
-654.872	-161.549	-0.305	-0.016
-653.857	5.337	0.199	0.148
-652.843	12.477	-0.107	0.083
-651.828	-200.000	0.046	-0.208
-650.814	-47.942	0.272	-0.133
-649.799	208.390	-0.232	-0.365
-648.784	-11.199	0.191	-0.127
-647.770	800.000	-0.168	-0.467
-646.755	-200.000	-0.053	0.274
-645.741	-103.070	0.066	-0.016
-644.726	-43.631	-0.261	0.133
-643.711	252.093	-0.054	-0.093
-642.697	513.106	0.122	-0.287
-641.682	-41.532	-0.064	0.033
-640.668	-121.448	0.248	-0.042
-639.653	-200.000	0.003	-0.116
-638.638	-133.757	0.144	-0.018
-637.624	-11.738	0.242	0.160
-636.609	-66.580	0.137	0.055
-635.595	262.034	0.185	0.324
-634.580	99.440	-0.130	-0.151
-633.565	110.188	0.159	0.192
-632.551	-58.885	0.408	0.178
-631.536	132.432	-0.105	0.136
-630.522	-200.000	0.002	-0.066
-629.507	75.544	-0.117	0.124
-628.492	-10.980	-0.215	0.143
-627.478	-137.698	0.171	-0.019
-626.463	800.000	-0.014	-0.056
-625.449	239.058	-0.154	-0.258
-624.434	59.859	-0.317	-0.315
-623.419	-200.000	-0.008	0.398
-622.405	-200.000	0.013	-0.188
-621.390	-161.507	-0.208	-0.011
-620.376	-142.944	-0.077	-0.008
-619.361	-200.000	-0.016	0.157
-618.346	182.267	0.140	0.208
-617.332	164.200	0.139	-0.197
-616.317	-125.668	-0.226	0.034
-615.303	46.756	0.091	0.085
-614.288	800.000	0.063	-0.192
-613.273	19.260	-0.151	0.122
-612.259	601.850	0.116	0.290
-611.244	317.706	-0.047	-0.090
-610.230	-172.789	-0.266	0.008
-609.215	800.000	-0.081	-0.237
-608.201	800.000	-0.091	0.301
-607.186	-200.000	-0.015	0.187
-606.171	-126.563	-0.544	-0.081
-605.157	282.694	0.089	0.160
-604.142	80.570	-0.184	-0.199
-603.128	-51.943	-0.149	0.070
-602.113	76.598	0.066	0.070
-601.098	-83.340	0.175	0.056
-600.084	-130.150	-0.144	0.020
-599.069	225.624	-0.017	0.028
-598.055	-140.965	0.602	0.062
-597.040	-200.000	-0.044	0.214
-596.025	-106.401	-0.352	-0.079
-595.011	-200.000	0.001	0.036
-593.996	800.000	0.058	-0.176
-592.982	-200.000	0.010	0.255
-591.967	-92.840	0.015	-0.004
-590.952	49.822	0.152	0.144
-589.938	101.651	0.065	0.076
-588.923	-166.271	-0.061	0.003
-587.909	-97.442	0.111	0.029
-586.894	-109.242	0.245	-0.052
-585.879	739.651	0.101	-0.273
-584.865	-92.932	0.398	0.112
-583.850	-145.454	-0.186	0.017
-582.836	-24.237	0.176	0.106
-581.821	663.052	-0.116	0.301
-580.806	-200.000	0.008	-0.108
-579.792	637.935	0.186	-0.474
-578.777	110.060	0.181	-0.218
-577.763	-200.000	-0.002	0.181
-576.748	-200.000	-0.014	0.067
-575.733	369.384	-0.093	-0.189
-574.719	-122.783	-0.223	-0.036
-573.704	512.092	-0.012	-0.029
-572.690	302.636	0.102	0.190
-571.675	-36.637	0.376	0.203
-570.661	71.992	-0.111	0.116
-569.646	92.451	0.111	-0.126
-568.631	134.100	0.153	-0.200
-567.617	-200.000	-0.028	0.282
-566.602	3.856	0.186	0.137
-565.588	147.123	-0.138	-0.186
-564.573	-68.103	0.359	-0.141
-563.558	64.122	0.161	-0.163
-562.544	800.000	-0.029	0.114
-561.529	-128.661	-0.354	-0.050
-560.515	-36.488	-0.193	0.105
-559.500	-70.319	-0.428	-0.163
-558.485	304.790	0.148	-0.276
-557.471	228.213	0.191	0.313
-556.456	800.000	0.059	0.172
-555.442	84.656	0.186	-0.204
-554.427	76.382	-0.036	-0.038
-553.412	790.834	-0.045	0.123
-552.398	199.351	0.033	-0.051
-551.383	32.254	0.083	-0.072
-550.369	-21.970	0.254	-0.155
-549.354	94.534	0.330	-0.377
-548.339	-67.191	-0.304	-0.120
-547.325	-27.334	-0.170	-0.099
-546.310	-167.365	0.328	0.013
-545.296	-34.620	0.093	0.051
-544.281	-181.008	-0.100	-0.002
-543.266	-200.000	-0.047	-0.299
-542.252	53.312	0.366	0.352
-541.237	800.000	0.065	0.189
-540.223	-100.889	-0.202	0.050
-539.208	800.000	-0.041	-0.124
-538.193	-15.879	-0.171	-0.109
-537.179	-200.000	-0.034	-0.313
-536.164	-154.354	-0.146	-0.010
-535.150	46.630	-0.204	0.190
-534.135	32.832	-0.198	-0.172
-533.121	733.625	0.100	0.270
-532.106	-13.825	0.257	-0.167
-531.091	6.674	-0.345	-0.258
-530.077	-200.000	0.009	-0.096
-529.062	-91.782	-0.293	0.084
-528.048	-149.740	0.208	0.016
-527.033	-120.645	0.106	0.018
-526.018	454.861	-0.016	-0.036
-525.004	-114.531	-0.080	0.015
-523.989	242.367	0.012	0.020
-522.975	71.459	0.313	-0.326
-521.960	-113.521	0.043	-0.009
-520.945	217.076	-0.079	0.127
-519.931	-200.000	-0.001	-0.173
-518.916	-200.000	0.044	-0.230
-517.902	-200.000	-0.016	0.093
-516.887	38.702	0.050	0.044
-515.872	145.845	-0.113	0.152
-514.858	800.000	-0.075	-0.255
-513.843	-9.575	0.142	-0.095
-512.829	800.000	0.062	-0.224
-511.814	51.128	-0.148	-0.141
-510.799	-100.867	0.199	0.049
-509.785	-200.000	0.008	0.092
-508.770	36.881	-0.105	0.093
-507.756	-19.858	-0.175	0.108
-506.741	800.000	-0.099	0.344
-505.726	-115.804	-0.456	0.086
-504.712	-200.000	-0.030	-0.162
-503.697	800.000	0.074	0.300
-502.683	177.807	0.295	0.431
-501.668	-137.629	-0.131	-0.015
-500.653	-8.477	-0.204	-0.137
-499.639	66.231	0.250	-0.255
-498.624	402.321	-0.099	-0.208
-497.610	-90.778	-0.069	-0.020
-496.595	800.000	-0.134	-0.426
-495.581	90.105	0.236	-0.264
-494.566	-97.226	-0.159	-0.042
-493.551	75.863	-0.101	0.107
-492.537	800.000	-0.040	0.154
-491.522	143.676	-0.162	-0.216
-490.508	239.970	-0.140	-0.234
-489.493	-92.887	0.191	0.054
-488.478	-200.000	0.040	-0.201
-487.464	224.849	-0.236	-0.382
-486.449	56.815	0.084	-0.082
-485.435	-64.231	0.223	-0.091
-484.420	10.276	-0.082	0.062
-483.405	501.745	0.128	-0.297
-482.391	-102.729	-0.248	0.059
-481.376	-28.853	-0.207	0.119
-480.362	-200.000	-0.004	0.249
-479.347	-200.000	-0.025	0.151
-478.332	-24.475	0.203	0.121
-477.318	-132.481	-0.257	0.033
-476.303	178.984	-0.118	0.173
-475.289	41.041	0.245	0.222
-474.274	-26.885	-0.368	0.215
-473.259	81.117	0.167	-0.180
-472.245	168.827	0.088	-0.126
-471.230	800.000	-0.048	-0.185
-470.216	-200.000	-0.011	-0.136
-469.201	100.399	-0.209	-0.243
-468.186	-200.000	0.032	0.158
-467.172	-63.062	0.041	-0.017
-466.157	-87.647	-0.111	0.034
-465.143	760.272	-0.083	-0.226
-464.128	659.862	0.052	-0.135
-463.113	-200.000	-0.023	-0.266
-462.099	-200.000	-0.017	0.322
-461.084	-58.005	0.216	-0.095
-460.070	142.400	0.115	0.152
-459.055	-31.986	-0.103	-0.058
-458.040	-115.009	-0.126	-0.024
-457.026	283.904	-0.102	0.184
-456.011	-200.000	-0.015	0.101
-454.997	-26.324	0.242	0.142
-453.982	-36.313	0.365	-0.197
-452.968	759.847	-0.081	-0.220
-451.953	65.208	0.038	0.039
-450.938	-51.014	-0.296	0.139
-449.924	-200.000	-0.053	0.260
-448.909	-13.982	0.053	0.034
-447.895	-200.000	0.016	-0.152
-446.880	-149.682	0.221	-0.017
-445.865	-174.789	0.312	0.009
-444.851	-97.084	0.271	0.071
-443.836	-177.094	-0.277	-0.007
-442.822	-200.000	0.104	0.000
-441.807	249.136	-0.120	0.203
-440.792	-40.461	0.129	-0.067
-439.778	800.000	-0.043	0.129
-438.763	-157.030	-0.363	0.022
-437.749	-154.706	-0.073	-0.005
-436.734	-121.175	-0.132	0.022
-435.719	-122.891	0.078	0.013
-434.705	-114.139	-0.128	0.025
-433.690	-130.379	-0.248	-0.034
-432.676	800.000	-0.117	-0.346
-431.661	12.263	-0.098	0.076
-430.646	-79.127	-0.620	-0.210
-429.632	-59.095	0.533	0.230
-428.617	-120.709	0.162	-0.027
-427.603	-155.268	0.224	0.015
-426.588	284.755	-0.124	0.223
-425.573	-200.000	0.046	0.246
-424.559	-16.474	-0.299	0.190
-423.544	173.577	-0.196	0.283
-422.530	713.720	-0.040	0.106
-421.515	-94.764	-0.057	0.015
-420.500	130.861	-0.085	0.109
-419.486	435.007	0.049	-0.106
-418.471	295.909	0.142	-0.260
-417.457	117.842	-0.079	-0.097
-416.442	-89.017	0.376	-0.111
-415.428	-130.614	-0.149	0.020
-414.413	-111.315	0.487	0.099
-413.398	1.799	0.176	-0.127
-412.384	26.773	0.259	-0.217
-411.369	800.000	0.076	-0.297
-410.355	-10.787	-0.241	-0.159
-409.340	165.435	0.181	-0.256
-408.325	76.219	0.184	-0.194
-407.311	800.000	0.191	0.581
-406.296	107.034	0.166	-0.197
-405.282	-25.490	-0.063	-0.037
-404.267	-200.000	-0.012	0.052
-403.252	-85.823	0.113	0.035
-402.238	800.000	-0.056	0.232
-401.223	792.248	0.010	-0.026
-400.209	-34.707	0.053	0.029
-399.194	-20.412	-0.159	0.098
-398.179	-111.716	0.261	-0.053
-397.165	90.010	-0.162	-0.181
-396.150	220.325	-0.073	0.117
-395.136	-40.148	-0.024	-0.013
-394.121	-46.847	-0.056	-0.027
-393.106	-200.000	0.044	-0.368
-392.092	-200.000	0.032	0.178
-391.077	-137.108	-0.357	-0.041
-390.063	-96.396	0.399	-0.105
-389.048	126.074	0.267	0.336
-388.033	72.962	-0.106	-0.110
-387.019	-200.000	-0.002	-0.023
-386.004	359.661	0.024	-0.049
-384.990	-68.963	-0.212	0.082
-383.975	126.594	-0.087	-0.110
-382.960	-107.825	-0.309	0.067
-381.946	-200.000	-0.027	0.283
-380.931	21.652	0.210	0.171
-379.917	-99.688	-0.194	-0.049
-378.902	389.279	0.084	-0.173
-377.888	-104.440	0.357	0.082
-376.873	-172.109	-0.192	-0.006
-375.858	120.616	-0.146	0.181
-374.844	800.000	-0.133	-0.396
-373.829	51.377	0.092	-0.087
-372.815	800.000	0.008	0.025
-371.800	-55.780	0.151	0.067
-370.785	-148.199	0.071	-0.006
-369.771	800.000	-0.026	-0.096
-368.756	169.301	-0.087	-0.125
-367.742	-159.228	0.123	-0.007
-366.727	102.091	-0.096	0.112
-365.712	-200.000	-0.039	-0.189
-364.698	-24.456	-0.142	-0.084
-363.683	91.820	-0.080	0.089
-362.669	-53.392	0.177	-0.081
-361.654	341.351	0.175	0.341
-360.639	-51.028	-0.303	0.142
-359.625	-200.000	-0.064	0.287
-358.610	-9.127	-0.091	0.061
-357.596	-46.780	0.338	-0.165
-356.581	800.000	0.096	-0.278
-355.566	-27.142	0.275	-0.160
-354.552	308.594	0.080	0.148
-353.537	31.699	0.096	0.082
-352.523	643.344	-0.027	0.069
-351.508	-43.133	-0.131	0.066
-350.493	800.000	0.077	0.322
-349.479	14.510	-0.201	-0.156
-348.464	115.727	0.054	0.066
-347.450	62.891	-0.138	-0.138
-346.435	-200.000	0.021	-0.297
-345.420	-32.843	-0.272	-0.150
-344.406	-20.718	0.228	0.140
-343.391	800.000	0.032	-0.125
-342.377	768.947	-0.043	-0.117
-341.362	-84.378	0.148	0.047
-340.348	402.711	-0.197	-0.413
-339.333	800.000	0.121	0.367
-338.318	41.573	0.258	0.232
-337.304	800.000	0.013	-0.050
-336.289	-106.925	-0.162	0.036
-335.275	94.795	-0.217	0.245
-334.260	-200.000	-0.007	-0.102
-333.245	75.829	-0.038	0.040
-332.231	210.053	-0.008	0.012
-331.216	-95.904	0.207	0.055
-330.202	725.814	0.056	0.148
-329.187	310.468	0.156	-0.291
-328.172	121.863	-0.147	-0.183
-327.158	-65.209	-0.249	-0.100
-326.143	617.290	-0.108	-0.269
-325.129	167.638	-0.172	0.243
-324.114	-34.131	0.231	-0.126
-323.099	-63.755	-0.037	-0.015
-322.085	-89.262	0.178	0.052
-321.070	384.389	0.134	0.276
-320.056	462.267	0.036	0.080
-319.041	-93.141	-0.258	0.071
-318.026	32.608	0.399	0.344
-317.012	-142.692	0.147	0.014
-315.997	-107.470	-0.089	-0.019
-314.983	-200.000	-0.008	0.127
-313.968	-115.728	0.261	-0.049
-312.953	179.976	-0.252	-0.367
-311.939	800.000	0.113	-0.345
-310.924	-34.909	-0.084	0.046
-309.910	153.306	-0.057	0.078
-308.895	-40.395	0.353	0.183
-307.880	-200.000	-0.024	0.420
-306.866	-12.316	0.110	0.071
-305.851	-64.695	0.108	0.044
-304.837	172.405	0.242	-0.347
-303.822	800.000	0.133	-0.452
-302.807	-23.889	-0.082	0.049
-301.793	-200.000	-0.004	0.404
-300.778	-88.459	0.348	0.103
-299.764	800.000	0.041	-0.121
-298.749	289.179	0.053	-0.095
-297.735	-69.300	-0.302	0.116
-296.720	446.632	-0.134	0.294
-295.705	800.000	-0.102	0.355
-294.691	-200.000	-0.013	0.172
-293.676	-200.000	0.031	-0.138
-292.662	-37.647	0.039	0.021
-291.647	-28.207	0.073	0.042
-290.632	-106.219	-0.136	0.030
-289.618	128.467	0.119	0.150
-288.603	44.242	-0.338	-0.308
-287.589	-200.000	0.040	-0.372
-286.574	-26.789	0.162	-0.094
-285.559	347.885	-0.091	0.179
-284.545	-200.000	0.008	-0.091
-283.530	347.874	-0.062	0.121
-282.516	641.670	0.061	0.155
-281.501	603.421	-0.041	-0.103
-280.486	-200.000	-0.007	0.043
-279.472	-8.376	0.223	-0.149
-278.457	-200.000	0.012	0.202
-277.443	546.637	0.125	0.298
-276.428	-200.000	-0.044	-0.206
-275.413	-90.378	-0.066	0.019
-274.399	-140.596	-0.244	-0.025
-273.384	210.050	-0.194	-0.303
-272.370	800.000	0.108	0.311
-271.355	199.005	-0.161	-0.246
-270.340	-200.000	0.006	0.061
-269.326	378.591	0.169	-0.344
-268.311	-200.000	-0.035	0.224
-267.297	-93.767	-0.101	-0.028
-266.282	-81.726	-0.259	-0.084
-265.267	-113.254	-0.198	-0.039
-264.253	800.000	-0.052	-0.194
-263.238	-21.611	0.082	0.050
-262.224	716.779	-0.105	-0.277
-261.209	-89.011	-0.217	-0.064
-260.195	138.171	0.202	0.263
-259.180	-200.000	-0.020	0.156
-258.165	-4.049	0.324	-0.223
-257.151	-153.718	-0.194	0.013
-256.136	163.486	-0.021	0.029
-255.122	-26.110	0.199	-0.116
-254.107	-125.269	0.338	0.051
-253.092	209.325	-0.069	0.107
-252.078	-0.860	0.110	0.077
-251.063	-93.707	0.103	0.028
-250.049	202.715	-0.113	0.174
-249.034	800.000	0.105	0.302
-248.019	-161.572	-0.482	-0.025
-247.005	483.373	0.033	0.074
-245.990	-154.098	-0.488	-0.033
-244.976	-200.000	-0.025	0.409
-243.961	92.878	0.058	-0.065
-242.946	-50.000	-0.188	-0.088
-241.932	-95.717	0.278	-0.074
-240.917	800.000	0.079	0.279
-239.903	31.856	0.227	-0.194
-238.888	-19.245	0.149	-0.092
-237.873	112.279	0.321	-0.385
-236.859	-176.825	0.073	0.002
-235.844	-1.254	-0.108	-0.076
-234.830	165.190	-0.299	-0.419
-233.815	-44.571	0.201	-0.100
-232.800	113.890	-0.055	0.066
-231.786	1.634	-0.068	0.048
-230.771	29.989	0.260	0.220
-229.757	-200.000	0.070	0.659
-228.742	106.981	0.178	-0.210
-227.727	-1.258	-0.123	-0.086
-226.713	-200.000	-0.008	-0.211
-225.698	-200.000	-0.013	0.146
-224.684	-200.000	0.013	-0.150
-223.669	27.232	-0.152	0.127
-222.655	-95.414	0.404	0.108
-221.640	-125.426	-0.036	-0.005
-220.625	166.760	-0.102	-0.144
-219.611	-39.465	-0.364	0.189
-218.596	800.000	0.071	0.238
-217.582	-7.204	-0.050	-0.033
-216.567	-141.367	0.198	-0.020
-215.552	63.034	-0.155	-0.154
-214.538	126.540	0.041	0.051
-213.523	-75.633	-0.200	0.070
-212.509	-9.095	0.295	-0.196
-211.494	-89.710	0.424	-0.123
-210.479	-120.732	-0.409	0.068
-209.465	124.324	-0.225	0.281
-208.450	44.937	0.045	-0.041
-207.436	-53.741	-0.318	0.144
-206.421	-98.844	-0.141	0.036
-205.406	-112.841	-0.148	-0.029
-204.392	175.923	-0.094	0.136
-203.377	596.595	-0.110	0.271
-202.363	-4.354	0.140	-0.096
-201.348	-33.336	-0.192	-0.105
-200.333	-2.619	0.142	0.099
-199.319	-97.799	0.200	0.051
-198.304	139.047	0.108	-0.141
-197.290	-80.239	0.202	-0.067
-196.275	406.920	-0.045	-0.095
-195.260	-200.000	0.024	0.286
-194.246	287.229	0.091	-0.162
-193.231	-156.270	0.218	-0.014
-192.217	7.835	-0.301	-0.223
-191.202	245.574	-0.164	-0.274
-190.187	615.967	0.105	0.262
-189.173	-200.000	-0.039	0.199
-188.158	-99.986	-0.225	0.056
-187.144	714.136	-0.102	0.267
-186.129	-200.000	-0.041	0.241
-185.114	5.854	-0.221	0.162
-184.100	60.793	0.188	0.185
-183.085	225.737	0.064	-0.102
-182.071	-200.000	0.047	0.214
-181.056	31.601	-0.100	0.085
-180.042	-5.656	-0.290	0.197
-179.027	-67.797	0.258	0.100
-178.012	800.000	-0.027	-0.106
-176.998	164.695	-0.034	-0.048
-175.983	-182.301	0.078	-0.001
-174.969	59.819	0.109	0.106
-173.954	790.354	-0.026	0.072
-172.939	800.000	0.019	0.060
-171.925	-200.000	0.046	-0.329
-170.910	287.902	-0.078	-0.139
-169.896	378.917	-0.045	0.092
-168.881	-28.442	0.149	-0.085
-167.866	163.136	0.125	-0.174
-166.852	800.000	-0.122	-0.393
-165.837	-83.732	0.164	0.052
-164.823	118.067	-0.117	-0.142
-163.808	-200.000	-0.012	0.146
-162.793	-19.128	-0.298	-0.183
-161.779	10.486	0.083	0.063
-160.764	800.000	0.043	-0.124
-159.750	-98.184	0.122	0.031
-158.735	-36.448	-0.118	0.063
-157.720	800.000	-0.035	-0.149
-156.706	90.640	-0.008	0.008
-155.691	93.377	0.082	0.092
-154.677	-134.428	-0.467	0.057
-153.662	186.637	0.214	0.316
-152.647	285.296	-0.077	-0.136
-151.633	800.000	-0.113	0.311
-150.618	21.943	-0.111	-0.090
-149.604	-67.564	-0.314	0.122
-148.589	-157.856	0.216	0.013
-147.574	-200.000	0.002	-0.208
-146.560	-178.529	0.087	0.002
-145.545	800.000	0.050	-0.145
-144.531	-6.256	0.073	0.049
-143.516	112.147	0.122	0.145
-142.502	-162.982	-0.289	0.014
-141.487	-117.569	-0.215	0.038
-140.472	7.846	0.081	-0.060
-139.458	-74.671	0.345	0.123
-138.443	800.000	0.070	-0.251
-137.429	157.840	0.207	-0.283
-136.414	207.729	-0.045	0.069
-135.399	7.332	0.138	-0.102
-134.385	-73.543	-0.236	-0.085
-133.370	-92.322	-0.301	-0.084
-132.356	-8.296	0.269	0.179
-131.341	-200.000	0.003	0.209
-130.326	800.000	0.086	0.282
-129.312	800.000	0.030	-0.097
-128.297	-200.000	0.021	-0.221
-127.283	-172.838	0.513	0.016
-126.268	143.300	0.031	-0.041
-125.253	-89.440	-0.259	0.075
-124.239	49.354	-0.154	0.143
-123.224	65.508	0.084	0.084
-122.210	55.400	-0.116	0.111
-121.195	-200.000	-0.087	0.381
