DTS Sentinel unit serial number:	SN413079Multiplexer serial number:	ORYXHardware model number:	OX4-SRSoftware version number:	ORYX F/W v4.00 Oryx Data Collector v3.7.2.0data status	okinstallation	princeton_trtdifferential loss correction	single-endedforward channel	channel 2reverse channel	N/Adate	2019/09/12time	12:57:11forward acquisition time	60.00reverse acquisition time	0.00gamma	496.2192k internal	0.2297k external	0.2297temperature offset calibration	1.0077default loss term (dB/km)	0.3790temperature slope calibration	1.0000multiplexer offset coefficient	1.0000multiplexer slope coefficient	1.0000fibre end	0.00T internal ref (°C)	40.81T ext. ref 1 (°C)	2.06T ext. ref 2 (°C)	37.34length (m)	temperature (°C)	Stokes	anti-Stokes-747.200	5.480	-0.144	0.108
-746.185	546.047	-0.057	-0.140
-745.171	-68.956	0.098	-0.039
-744.156	115.459	-0.088	0.110
-743.142	27.802	-0.225	-0.193
-742.127	-15.626	-0.374	0.243
-741.112	800.000	0.100	-0.396
-740.098	164.601	-0.289	0.416
-739.083	-126.299	0.185	-0.028
-738.069	281.280	0.160	0.292
-737.054	800.000	-0.031	-0.112
-736.039	81.847	-0.292	-0.323
-735.025	-99.820	0.320	0.082
-734.010	-126.029	0.083	0.013
-732.996	280.797	-0.205	-0.374
-731.981	-200.000	0.061	-0.515
-730.966	-96.967	-0.253	-0.068
-729.952	-159.736	-0.195	-0.011
-728.937	-78.662	-0.156	-0.055
-727.923	800.000	0.108	0.403
-726.908	-35.984	-0.116	0.064
-725.894	316.213	0.205	-0.394
-724.879	301.808	0.054	0.102
-723.864	-149.631	-0.554	-0.045
-722.850	-200.000	0.015	0.119
-721.835	511.242	-0.261	0.619
-720.821	-200.000	0.029	0.233
-719.806	-200.000	-0.004	-0.026
-718.791	512.652	0.074	-0.176
-717.777	24.011	-0.231	-0.194
-716.762	-92.293	0.119	-0.034
-715.748	347.216	-0.079	0.158
-714.733	-83.588	0.257	0.084
-713.718	-200.000	0.004	0.109
-712.704	800.000	-0.062	0.185
-711.689	-200.000	-0.051	0.303
-710.675	-56.148	-0.332	-0.151
-709.660	136.200	-0.061	-0.081
-708.645	-66.351	-0.071	0.029
-707.631	59.462	-0.133	-0.133
-706.616	56.018	0.206	-0.204
-705.602	-200.000	-0.033	0.251
-704.587	412.007	-0.071	-0.154
-703.572	307.877	-0.126	0.240
-702.558	-13.613	0.143	-0.094
-701.543	-43.848	0.238	-0.122
-700.529	109.154	0.053	-0.064
-699.514	-117.777	-0.210	-0.039
-698.499	-58.944	0.182	-0.080
-697.485	800.000	-0.101	0.382
-696.470	358.377	0.248	0.506
-695.456	-18.490	-0.127	0.081
-694.441	-15.926	0.010	-0.006
-693.426	-55.208	-0.225	-0.103
-692.412	-93.518	-0.220	0.062
-691.397	224.599	-0.076	-0.125
-690.383	-159.433	-0.303	0.017
-689.368	-112.572	-0.213	0.043
-688.354	-34.053	-0.156	-0.087
-687.339	330.982	-0.079	0.156
-686.324	-134.987	-0.065	-0.008
-685.310	-173.943	-0.291	-0.009
-684.295	-26.951	-0.071	0.042
-683.281	-200.000	0.005	0.052
-682.266	-200.000	0.003	-0.161
-681.251	124.185	-0.054	-0.069
-680.237	-93.773	-0.149	-0.042
-679.222	684.378	-0.046	-0.122
-678.208	41.627	0.123	0.113
-677.193	800.000	-0.071	-0.236
-676.178	-10.957	-0.280	0.188
-675.164	301.033	-0.116	0.218
-674.149	800.000	-0.056	-0.213
-673.135	-114.837	-0.295	0.057
-672.120	-12.323	-0.208	-0.138
-671.105	800.000	0.090	0.295
-670.091	-9.866	-0.171	0.116
-669.076	-200.000	0.017	0.097
-668.062	-114.765	-0.156	0.030
-667.047	519.451	0.055	0.131
-666.032	55.563	-0.146	-0.144
-665.018	399.307	-0.084	0.180
-664.003	-200.000	-0.023	-0.327
-662.989	8.586	0.167	0.128
-661.974	800.000	-0.089	-0.366
-660.959	-69.892	-0.468	0.182
-659.945	800.000	0.102	-0.320
-658.930	244.562	0.051	-0.088
-657.916	-200.000	0.087	-0.453
-656.901	-200.000	0.042	-0.332
-655.886	-14.025	-0.256	-0.168
-654.872	-37.447	0.049	0.027
-653.857	106.986	0.142	-0.172
-652.843	-200.000	0.015	-0.225
-651.828	-36.200	0.337	-0.185
-650.814	-142.090	0.024	0.002
-649.799	725.539	-0.030	0.082
-648.784	66.657	-0.131	0.135
-647.770	-123.432	0.038	-0.006
-646.755	184.563	0.171	0.258
-645.741	59.458	-0.175	-0.176
-644.726	-184.058	-0.200	-0.003
-643.711	460.228	0.040	0.091
-642.697	800.000	-0.066	-0.293
-641.682	16.952	0.222	-0.179
-640.668	433.730	-0.160	0.354
-639.653	239.774	0.169	-0.287
-638.638	-200.000	-0.023	-0.501
-637.624	-200.000	0.010	0.402
-636.609	14.810	0.239	0.190
-635.595	800.000	0.018	0.056
-634.580	-55.563	-0.161	-0.073
-633.565	-115.302	-0.019	-0.004
-632.551	-125.331	0.265	-0.041
-631.536	85.909	-0.287	0.322
-630.522	94.046	-0.124	0.143
-629.507	800.000	0.055	-0.188
-628.492	233.522	0.139	-0.233
-627.478	165.800	0.089	0.128
-626.463	-200.000	0.039	0.435
-625.449	-123.892	-0.071	-0.011
-624.434	-67.549	-0.040	0.016
-623.419	-156.842	-0.203	-0.013
-622.405	-200.000	-0.027	0.181
-621.390	-12.415	0.317	-0.211
-620.376	137.568	-0.234	-0.312
-619.361	-6.449	-0.227	-0.157
-618.346	59.149	0.167	-0.167
-617.332	198.589	0.062	-0.097
-616.317	-91.138	-0.453	-0.132
-615.303	-200.000	-0.056	0.455
-614.288	39.167	0.343	-0.312
-613.273	-200.000	-0.031	-0.250
-612.259	-39.571	-0.281	0.149
-611.244	-47.069	-0.125	-0.062
-610.230	-200.000	0.003	-0.256
-609.215	-97.915	-0.323	-0.085
-608.201	-79.617	0.311	0.106
-607.186	800.000	-0.019	-0.066
-606.171	-20.720	-0.111	0.069
-605.157	-64.584	0.153	-0.063
-604.142	-168.273	0.124	-0.005
-603.128	-113.564	-0.106	-0.021
-602.113	464.825	-0.048	-0.108
-601.098	199.608	0.106	-0.165
-600.084	-200.000	-0.002	0.031
-599.069	800.000	-0.027	0.112
-598.055	-121.002	0.224	0.038
-597.040	364.331	0.052	-0.106
-596.025	480.785	0.082	0.188
-595.011	-64.972	-0.271	0.111
-593.996	28.140	0.225	-0.192
-592.982	8.773	0.214	-0.164
-591.967	-60.896	0.106	0.046
-590.952	-200.000	0.006	0.198
-589.938	160.453	-0.244	0.345
-588.923	78.944	0.085	-0.092
-587.909	-200.000	-0.000	-0.098
-586.894	104.086	0.224	0.267
-585.879	656.655	0.030	0.079
-584.865	-166.950	0.222	0.009
-583.850	-80.232	-0.207	0.070
-582.836	47.396	-0.072	0.068
-581.821	16.426	-0.119	-0.095
-580.806	-116.762	-0.086	0.016
-579.792	117.747	-0.185	0.231
-578.777	499.877	0.065	0.152
-577.763	-200.000	-0.024	0.177
-576.748	363.748	0.075	-0.153
-575.733	800.000	0.045	0.183
-574.719	-77.439	-0.334	0.118
-573.704	-182.054	-0.094	0.002
-572.690	73.483	0.104	-0.110
-571.675	107.073	0.118	-0.142
-570.661	-200.000	0.025	0.235
-569.646	-200.000	-0.005	0.134
-568.631	-157.054	-0.136	-0.008
-567.617	800.000	0.055	0.161
-566.602	109.816	0.043	-0.052
-565.588	148.046	0.027	0.037
-564.573	-200.000	0.069	0.447
-563.558	-147.658	-0.023	0.002
-562.544	144.979	0.152	0.206
-561.529	23.312	0.145	-0.121
-560.515	-140.960	0.126	-0.013
-559.500	-200.000	0.001	-0.063
-558.485	-140.394	-0.102	-0.011
-557.471	230.404	-0.183	-0.304
-556.456	5.167	-0.235	-0.175
-555.442	-23.608	-0.088	0.053
-554.427	800.000	0.063	0.180
-553.412	157.043	0.044	0.062
-552.398	115.087	-0.224	-0.277
-551.383	584.166	-0.069	-0.171
-550.369	73.242	-0.066	0.070
-549.354	60.382	-0.126	-0.126
-548.339	118.575	-0.247	-0.309
-547.325	206.822	0.124	0.196
-546.310	-200.000	-0.005	-0.110
-545.296	14.755	-0.269	-0.213
-544.281	-153.923	-0.031	0.002
-543.266	-138.990	0.127	0.014
-542.252	-20.705	0.208	-0.129
-541.237	468.873	-0.013	0.030
-540.223	34.173	-0.217	-0.192
-539.208	-117.187	0.045	0.008
-538.193	-200.000	-0.083	0.423
-537.179	120.577	0.101	0.127
-536.164	-129.911	-0.201	0.028
-535.150	216.607	0.144	0.231
-534.135	-71.342	-0.030	0.011
-533.121	-70.153	-0.193	-0.074
-532.106	-74.884	0.275	0.100
-531.091	-127.441	-0.071	0.010
-530.077	514.786	0.111	0.263
-529.062	-0.815	-0.180	-0.129
-528.048	791.086	0.056	-0.157
-527.033	-95.087	0.342	0.094
-526.018	-57.400	-0.099	0.044
-525.004	640.637	0.010	-0.025
-523.989	800.000	0.030	0.124
-522.975	-36.643	-0.158	-0.086
-521.960	-64.490	-0.245	-0.101
-520.945	-80.284	0.296	-0.100
-519.931	-90.975	-0.293	0.085
-518.916	27.019	-0.184	-0.156
-517.902	-200.000	0.038	-0.284
-516.887	-200.000	0.026	0.122
-515.872	38.217	0.055	-0.049
-514.858	-184.070	-0.166	-0.003
-513.843	-19.765	0.190	0.119
-512.829	-200.000	-0.018	0.223
-511.814	86.761	0.082	-0.091
-510.799	-24.200	0.077	0.047
-509.785	-200.000	0.024	0.116
-508.770	-56.692	0.348	-0.156
-507.756	659.667	-0.142	-0.369
-506.741	-10.467	-0.147	-0.098
-505.726	-91.307	0.143	-0.041
-504.712	484.912	0.038	-0.088
-503.697	-91.609	0.144	0.041
-502.683	-200.000	-0.346	0.000
-501.668	-50.269	-0.236	-0.113
-500.653	76.965	0.217	0.233
-499.639	-200.000	-0.026	0.223
-498.624	302.183	-0.151	0.282
-497.610	693.105	-0.134	-0.356
-496.595	-161.335	-0.254	-0.013
-495.581	800.000	-0.052	-0.164
-494.566	135.393	-0.171	-0.225
-493.551	-170.878	0.267	0.009
-492.537	-52.538	-0.107	0.050
-491.522	-128.509	0.266	0.038
-490.508	-30.955	0.175	0.100
-489.493	93.042	0.093	-0.106
-488.478	86.395	0.092	-0.103
-487.464	-200.000	-0.054	-0.452
-486.449	-98.347	-0.447	-0.116
-485.435	-200.000	-0.004	-0.304
-484.420	321.410	0.108	-0.208
-483.405	-200.000	-0.112	0.541
-482.391	226.752	0.031	0.051
-481.376	238.730	0.125	-0.210
-480.362	509.694	-0.068	0.160
-479.347	47.464	-0.225	-0.212
-478.332	62.955	0.184	0.186
-477.318	-76.541	0.187	0.066
-476.303	-48.411	0.061	-0.030
-475.289	226.466	0.089	0.146
-474.274	8.562	-0.425	0.323
-473.259	48.201	-0.094	-0.089
-472.245	-200.000	0.017	0.418
-471.230	22.503	-0.083	0.069
-470.216	-200.000	-0.014	-0.122
-469.201	-25.286	-0.074	-0.044
-468.186	53.048	0.143	-0.138
-467.172	-200.000	0.013	0.072
-466.157	25.464	-0.133	0.112
-465.143	-9.695	-0.203	-0.137
-464.128	-104.900	-0.077	0.018
-463.113	-200.000	-0.005	0.037
-462.099	-18.248	0.213	0.135
-461.084	72.585	-0.222	-0.234
-460.070	386.730	-0.124	-0.260
-459.055	-122.529	-0.119	-0.020
-458.040	189.000	-0.085	-0.128
-457.026	-108.784	-0.207	0.045
-456.011	129.493	-0.132	-0.171
-454.997	-108.094	-0.160	0.035
-453.982	141.083	0.154	-0.206
-452.968	-200.000	-0.043	-0.229
-451.953	8.075	-0.154	0.116
-450.938	-139.891	-0.378	0.040
-449.924	-79.563	-0.179	0.061
-448.909	216.707	-0.109	0.175
-447.895	76.105	0.103	-0.110
-446.880	169.859	-0.295	0.426
-445.865	-200.000	-0.039	-0.175
-444.851	307.493	-0.136	-0.255
-443.836	769.895	-0.095	-0.261
-442.822	-200.000	-0.027	0.318
-441.807	127.225	-0.162	-0.208
-440.792	125.737	-0.052	0.066
-439.778	800.000	-0.048	0.143
-438.763	800.000	0.061	-0.188
-437.749	-25.935	-0.310	-0.184
-436.734	294.875	-0.142	0.262
-435.719	25.557	-0.238	-0.200
-434.705	-16.615	-0.187	0.120
-433.690	800.000	-0.150	0.536
-432.676	-45.423	0.093	0.046
-431.661	-9.926	-0.400	-0.269
-430.646	698.006	0.085	0.227
-429.632	634.732	-0.058	0.148
-428.617	800.000	0.063	-0.231
-427.603	14.101	0.098	0.077
-426.588	354.789	-0.088	0.177
-425.573	116.579	0.117	-0.144
-424.559	89.058	-0.094	-0.106
-423.544	-123.819	0.123	0.020
-422.530	107.540	-0.273	-0.328
-421.515	401.780	-0.074	-0.157
-420.500	-200.000	0.028	0.267
-419.486	-125.293	-0.228	0.035
-418.471	-124.260	0.388	-0.061
-417.457	39.849	0.214	-0.193
-416.442	-37.959	0.167	-0.089
-415.428	-106.416	-0.206	0.046
-414.413	23.866	-0.106	0.088
-413.398	-42.147	0.247	0.128
-412.384	524.949	0.022	0.053
-411.369	800.000	-0.131	0.389
-410.355	192.563	0.197	0.299
-409.340	-128.071	-0.159	0.023
-408.325	-61.876	0.201	0.085
-407.311	87.931	0.166	0.186
-406.296	354.999	0.166	0.332
-405.282	114.759	-0.118	0.145
-404.267	-141.373	0.304	-0.031
-403.252	-200.000	-0.026	0.301
-402.238	-129.614	0.357	0.050
-401.223	46.991	-0.238	0.223
-400.209	-43.839	0.180	0.091
-399.194	-11.254	0.268	-0.178
-398.179	-132.366	0.591	0.077
-397.165	800.000	-0.033	0.139
-396.150	-113.733	0.306	-0.060
-395.136	3.203	-0.061	0.045
-394.121	140.784	0.028	-0.038
-393.106	269.956	-0.132	0.234
-392.092	800.000	0.027	0.100
-391.077	-156.490	-0.166	0.010
-390.063	92.911	0.215	-0.244
-389.048	-13.773	0.081	0.053
-388.033	191.824	-0.052	-0.080
-387.019	421.355	0.052	0.112
-386.004	-146.039	-0.267	0.024
-384.990	-14.505	0.308	-0.200
-383.975	800.000	0.075	0.262
-382.960	154.915	-0.115	-0.160
-381.946	351.540	-0.125	-0.248
-380.931	-21.559	0.157	0.096
-379.917	-200.000	0.008	0.506
-378.902	-200.000	-0.002	-0.171
-377.888	-200.000	0.040	0.215
-376.873	-181.090	0.193	0.004
-375.858	-42.716	-0.358	-0.183
-374.844	7.961	-0.135	-0.102
-373.829	800.000	0.094	-0.416
-372.815	160.675	0.090	0.126
-371.800	203.060	-0.207	0.322
-370.785	800.000	-0.039	-0.140
-369.771	152.886	0.132	0.182
-368.756	-23.436	0.290	-0.175
-367.742	36.151	0.181	0.161
-366.727	470.162	-0.095	-0.216
-365.712	28.583	-0.137	-0.116
-364.698	-63.664	-0.033	0.014
-363.683	131.619	0.057	0.074
-362.669	-200.000	0.032	0.168
-361.654	665.478	-0.052	-0.134
-360.639	197.614	0.286	0.439
-359.625	-200.000	0.014	0.095
-358.610	-116.991	0.214	-0.039
-357.596	17.656	0.075	-0.060
-356.581	-200.000	0.014	0.289
-355.566	-168.679	0.067	0.003
-354.552	77.229	-0.107	0.114
-353.537	767.385	0.131	-0.357
-352.523	-200.000	0.004	0.162
-351.508	-37.801	-0.224	0.120
-350.493	-200.000	0.056	-0.432
-349.479	800.000	0.098	-0.277
-348.464	-72.262	0.246	0.092
-347.450	13.982	-0.203	0.159
-346.435	-119.406	-0.687	-0.120
-345.420	-43.967	0.346	0.175
-344.406	-200.000	-0.019	-0.115
-343.391	-200.000	0.045	0.405
-342.377	-200.000	-0.043	-0.198
-341.362	800.000	-0.125	-0.414
-340.348	289.383	0.184	-0.335
-339.333	41.542	-0.143	-0.130
-338.318	17.545	0.160	0.128
-337.304	-55.351	0.015	0.007
-336.289	10.202	0.006	-0.005
-335.275	450.731	-0.091	-0.201
-334.260	-16.603	0.157	-0.100
-333.245	800.000	0.028	-0.101
-332.231	94.240	0.213	0.244
-331.216	-200.000	-0.005	-0.075
-330.202	-83.038	0.150	0.049
-329.187	800.000	-0.107	-0.328
-328.172	-200.000	-0.051	-0.424
-327.158	-96.496	0.178	-0.047
-326.143	58.736	0.176	0.174
-325.129	-200.000	0.019	0.151
-324.114	-93.522	0.234	-0.065
-323.099	299.201	0.110	-0.204
-322.085	-41.254	0.338	0.175
-321.070	-122.990	-0.235	-0.038
-320.056	-200.000	-0.031	0.151
-319.041	403.309	0.026	-0.055
-318.026	124.358	-0.072	0.091
-317.012	45.243	0.435	0.403
-315.997	405.570	-0.062	0.132
-314.983	370.756	-0.138	-0.282
-313.968	-52.948	-0.159	0.073
-312.953	800.000	-0.045	0.192
-311.939	243.356	-0.131	-0.220
-310.924	-87.014	0.231	-0.071
-309.910	-68.693	-0.088	-0.034
-308.895	-85.888	0.207	-0.064
-307.880	14.475	0.265	0.207
-306.866	111.007	-0.340	-0.411
-305.851	721.677	0.048	-0.129
-304.837	-69.197	-0.632	0.244
-303.822	-48.453	0.208	-0.100
-302.807	-200.000	0.008	-0.152
-301.793	-159.936	-0.227	0.012
-300.778	669.186	0.058	0.150
-299.764	287.667	0.115	0.209
-298.749	800.000	-0.017	-0.068
-297.735	-42.127	-0.036	-0.018
-296.720	-200.000	0.013	-0.168
-295.705	32.245	0.291	0.252
-294.691	-119.621	0.138	0.024
-293.676	-200.000	-0.090	-0.514
-292.662	210.150	-0.232	-0.366
-291.647	-200.000	-0.001	0.289
-290.632	576.183	0.050	-0.123
-289.618	-22.817	0.283	0.171
-288.603	308.598	0.097	0.183
-287.589	-40.273	-0.119	0.062
-286.574	-138.253	-0.187	0.021
-285.559	-179.282	0.374	0.008
-284.545	800.000	0.061	0.205
-283.530	52.170	-0.324	0.310
-282.516	60.703	0.347	0.345
-281.501	-74.454	0.304	0.110
-280.486	85.992	-0.158	0.175
-279.472	-54.504	-0.238	0.108
-278.457	-80.859	-0.040	-0.013
-277.443	-12.424	-0.293	0.192
-276.428	-200.000	0.074	-0.373
-275.413	241.666	0.022	0.038
-274.399	91.828	0.229	-0.258
-273.384	82.407	-0.104	-0.113
-272.370	-200.000	0.000	-0.119
-271.355	194.303	-0.079	-0.120
-270.340	168.480	-0.167	0.238
-269.326	800.000	0.013	0.041
-268.311	800.000	0.062	0.211
-267.297	-200.000	0.000	-0.392
-266.282	546.852	0.158	0.378
-265.267	-65.543	0.322	-0.129
-264.253	-78.160	-0.339	-0.117
-263.238	-45.125	0.316	0.158
-262.224	-37.394	-0.175	0.094
-261.209	800.000	0.063	-0.236
-260.195	800.000	0.056	-0.164
-259.180	255.723	0.121	-0.207
-258.165	-50.990	-0.071	-0.033
-257.151	800.000	0.175	-0.574
-256.136	50.687	-0.341	-0.324
-255.122	251.899	-0.114	0.195
-254.107	-92.310	0.216	0.061
-253.092	-200.000	0.052	-0.420
-252.078	800.000	0.054	-0.162
-251.063	-2.725	0.238	-0.167
-250.049	434.262	0.027	-0.059
-249.034	-200.000	-0.081	0.469
-248.019	-44.381	-0.432	-0.217
-247.005	-155.080	0.122	-0.008
-245.990	-166.588	-0.230	-0.010
-244.976	-83.012	-0.144	0.046
-243.961	9.649	0.024	-0.018
-242.946	-200.000	0.012	0.220
-241.932	-96.727	0.101	0.027
-240.917	-200.000	0.018	0.281
-239.903	17.599	0.136	-0.108
-238.888	782.980	0.038	-0.104
-237.873	-200.000	-0.020	-0.243
-236.859	-32.195	-0.089	0.050
-235.844	-161.674	0.195	0.010
-234.830	-44.561	0.195	-0.097
-233.815	-56.955	-0.131	0.058
-232.800	-94.508	-0.201	0.055
-231.786	-130.992	0.338	-0.045
-230.771	-42.810	0.477	0.243
-229.757	-144.727	-0.224	0.021
-228.742	-200.000	-0.036	-0.269
-227.727	-130.082	-0.289	-0.040
-226.713	-140.085	0.117	0.012
-225.698	-123.948	-0.061	-0.010
-224.684	-146.928	0.430	0.037
-223.669	-200.000	0.059	0.349
-222.655	800.000	-0.012	0.037
-221.640	-125.958	-0.070	-0.010
-220.625	325.623	-0.167	-0.319
-219.611	-158.147	-0.342	0.020
-218.596	-200.000	-0.053	-0.336
-217.582	-200.000	0.016	-0.181
-216.567	-103.122	-0.145	0.034
-215.552	692.172	0.076	0.200
-214.538	328.498	-0.005	-0.010
-213.523	-72.479	0.190	0.070
-212.509	379.767	0.062	0.128
-211.494	-200.000	-0.006	-0.050
-210.479	-65.310	-0.084	0.034
-209.465	52.605	-0.175	-0.167
-208.450	285.610	-0.137	0.247
-207.436	53.029	0.273	0.261
-206.421	-64.075	0.250	-0.102
-205.406	800.000	0.015	0.059
-204.392	112.489	0.097	-0.117
-203.377	10.645	0.075	0.057
-202.363	530.609	0.097	0.230
-201.348	-29.930	-0.176	0.100
-200.333	800.000	-0.086	-0.336
-199.319	-3.158	0.378	-0.263
-198.304	800.000	-0.063	-0.193
-197.290	-12.873	0.109	0.071
-196.275	36.443	-0.386	0.341
-195.260	-200.000	-0.047	0.244
-194.246	121.765	0.074	-0.092
-193.231	-113.969	0.097	0.019
-192.217	-180.029	0.064	0.001
-191.202	-12.527	-0.358	-0.234
-190.187	-64.227	-0.200	-0.082
-189.173	20.251	-0.078	-0.063
-188.158	186.154	0.056	-0.083
-187.144	-149.257	-0.291	-0.023
-186.129	69.757	-0.218	0.224
-185.114	-88.591	0.133	-0.040
-184.100	-200.000	0.065	-0.589
-183.085	-200.000	-0.042	0.349
-182.071	90.473	-0.055	-0.061
-181.056	328.513	0.199	0.382
-180.042	-61.891	-0.160	-0.067
-179.027	800.000	-0.074	0.275
-178.012	-0.193	-0.264	-0.187
-176.998	-85.294	0.318	0.099
-175.983	-200.000	0.016	-0.101
-174.969	-158.287	-0.035	-0.002
-173.954	-128.311	0.208	0.030
-172.939	-200.000	-0.046	0.377
-171.925	351.876	-0.064	0.126
-170.910	-158.872	0.212	0.012
-169.896	-28.517	0.085	0.049
-168.881	-139.178	0.274	-0.029
-167.866	800.000	0.113	-0.346
-166.852	260.653	0.136	-0.235
-165.837	332.473	0.087	-0.168
-164.823	-200.000	0.040	0.290
-163.808	-87.268	0.139	-0.042
-162.793	-115.698	-0.132	0.025
-161.779	-54.282	0.243	-0.110
-160.764	-119.030	-0.087	-0.015
-159.750	-174.936	-0.335	0.009
-158.735	114.373	0.319	-0.388
-157.720	-11.138	-0.155	-0.102
-156.706	-41.882	0.161	-0.082
-155.691	-114.432	0.198	-0.038
-154.677	-101.694	0.265	0.064
-153.662	-200.000	0.048	0.366
-152.647	94.571	0.247	-0.280
-151.633	-200.000	-0.072	0.442
-150.618	-30.696	0.202	0.114
-149.604	-57.123	0.167	0.074
-148.589	-22.771	0.153	-0.092
-147.574	-200.000	0.012	0.362
-146.560	-200.000	-0.023	0.188
-145.545	800.000	0.030	-0.111
-144.531	-36.482	0.026	-0.014
-143.516	-200.000	0.047	-0.440
-142.502	-89.778	-0.255	0.074
-141.487	-127.792	0.028	-0.004
-140.472	111.042	0.155	0.186
-139.458	800.000	0.032	0.107
-138.443	-200.000	0.004	0.426
-137.429	42.838	0.274	0.249
-136.414	-87.836	0.162	0.049
-135.399	-46.370	-0.291	-0.142
-134.385	-145.870	-0.279	-0.025
-133.370	-87.283	0.065	0.020
-132.356	800.000	0.044	-0.172
-131.341	-200.000	0.035	0.212
-130.326	36.121	0.085	0.075
-129.312	103.422	-0.086	-0.101
-128.297	15.407	0.253	-0.198
-127.283	148.821	0.142	0.191
-126.268	-48.527	0.119	0.057
-125.253	-46.959	0.096	-0.047
-124.239	16.445	0.241	-0.190
-123.224	-200.000	0.020	0.204
-122.210	780.579	-0.012	0.033
-121.195	-200.000	0.032	0.316
