DTS Sentinel unit serial number:	SN413079Multiplexer serial number:	ORYXHardware model number:	OX4-SRSoftware version number:	ORYX F/W v4.00 Oryx Data Collector v3.7.2.0data status	okinstallation	princeton_trtdifferential loss correction	single-endedforward channel	channel 2reverse channel	N/Adate	2019/09/16time	23:27:34forward acquisition time	60.00reverse acquisition time	0.00gamma	496.2192k internal	0.2330k external	0.2330temperature offset calibration	0.9974default loss term (dB/km)	0.3790temperature slope calibration	1.0000multiplexer offset coefficient	1.0000multiplexer slope coefficient	1.0000fibre end	0.00T internal ref (°C)	29.91T ext. ref 1 (°C)	0.09T ext. ref 2 (°C)	23.56length (m)	temperature (°C)	Stokes	anti-Stokes-747.200	360.416	0.146	0.295
-746.185	-61.875	0.310	0.131
-745.171	-31.874	-0.041	0.023
-744.156	19.242	-0.174	-0.141
-743.142	-11.715	0.193	-0.128
-742.127	414.735	-0.096	0.206
-741.112	-200.000	0.016	0.153
-740.098	800.000	-0.153	0.430
-739.083	-200.000	0.021	0.304
-738.069	-200.000	0.016	-0.148
-737.054	155.130	-0.153	-0.212
-736.039	64.708	-0.267	0.271
-735.025	800.000	-0.072	0.224
-734.010	7.200	-0.272	-0.204
-732.996	399.840	-0.117	-0.248
-731.981	-200.000	0.012	-0.150
-730.966	-200.000	0.003	-0.183
-729.952	-100.309	-0.274	0.068
-728.937	120.020	0.285	0.356
-727.923	-11.421	-0.128	0.085
-726.908	-74.610	-0.271	0.098
-725.894	184.279	0.104	0.156
-724.879	-200.000	0.023	-0.393
-723.864	13.643	-0.432	-0.338
-722.850	-82.730	-0.083	0.027
-721.835	7.062	0.138	0.103
-720.821	-98.404	-0.112	-0.029
-719.806	-45.640	-0.405	0.202
-718.791	-200.000	-0.032	0.186
-717.777	800.000	-0.066	0.256
-716.762	-200.000	0.105	0.486
-715.748	-173.427	-0.103	-0.003
-714.733	-28.391	-0.255	-0.148
-713.718	87.149	-0.178	0.197
-712.704	581.787	0.067	0.165
-711.689	54.659	-0.049	-0.048
-710.675	52.205	0.199	0.191
-709.660	-200.000	0.002	0.388
-708.645	277.395	0.038	0.068
-707.631	-99.374	-0.252	0.064
-706.616	-61.998	-0.227	-0.095
-705.602	-66.047	0.180	0.072
-704.587	-123.090	-0.179	-0.029
-703.572	17.362	-0.152	-0.121
-702.558	-133.177	0.142	0.018
-701.543	-200.000	0.024	0.199
-700.529	206.165	-0.165	-0.259
-699.514	70.260	-0.170	-0.177
-698.499	203.261	0.007	-0.011
-697.485	800.000	0.065	0.202
-696.470	-183.319	-0.195	0.003
-695.456	589.211	-0.176	0.437
-694.441	88.036	0.183	-0.204
-693.426	-200.000	-0.016	0.087
-692.412	-138.900	0.281	0.031
-691.397	100.598	0.137	0.160
-690.383	-200.000	0.042	-0.188
-689.368	301.348	0.181	-0.336
-688.354	-49.899	0.068	0.032
-687.339	-67.971	0.225	-0.088
-686.324	-52.523	0.216	-0.100
-685.310	-200.000	-0.006	-0.114
-684.295	43.909	-0.184	-0.169
-683.281	800.000	0.044	-0.182
-682.266	698.018	0.011	-0.028
-681.251	18.459	-0.087	0.070
-680.237	311.630	-0.036	0.067
-679.222	128.638	-0.339	0.434
-678.208	-200.000	0.036	-0.200
-677.193	22.959	-0.153	0.126
-676.178	-107.968	-0.359	0.078
-675.164	-57.846	-0.241	-0.106
-674.149	-68.107	0.154	0.060
-673.135	-200.000	-0.024	-0.274
-672.120	201.475	-0.171	-0.264
-671.105	-96.620	-0.097	0.026
-670.091	-25.667	-0.190	0.113
-669.076	-200.000	0.027	-0.155
-668.062	-1.529	-0.180	-0.127
-667.047	147.366	-0.179	0.242
-666.032	800.000	0.070	-0.237
-665.018	-200.000	-0.069	-0.309
-664.003	800.000	-0.030	-0.083
-662.989	-106.382	-0.233	-0.052
-661.974	-200.000	-0.012	-0.218
-660.959	220.104	-0.079	-0.127
-659.945	-120.599	0.262	-0.044
-658.930	117.352	0.212	-0.261
-657.916	-200.000	-0.043	-0.243
-656.901	-150.805	0.185	-0.014
-655.886	-200.000	-0.058	-0.404
-654.872	-33.847	-0.051	0.028
-653.857	-55.233	0.107	-0.048
-652.843	-65.715	-0.035	-0.014
-651.828	188.804	0.095	-0.143
-650.814	-161.086	0.195	-0.010
-649.799	6.764	-0.236	0.176
-648.784	174.051	-0.099	0.143
-647.770	154.404	-0.285	-0.393
-646.755	-200.000	-0.019	0.115
-645.741	-157.632	-0.169	0.010
-644.726	-70.424	0.229	-0.087
-643.711	-140.664	-0.264	-0.027
-642.697	-200.000	-0.064	0.339
-641.682	415.633	0.036	0.076
-640.668	137.957	0.141	-0.185
-639.653	-200.000	0.011	0.179
-638.638	-100.053	0.365	-0.091
-637.624	-70.311	-0.233	-0.089
-636.609	-63.662	0.224	-0.092
-635.595	-200.000	0.015	-0.196
-634.580	-40.365	-0.359	0.187
-633.565	-137.638	0.092	0.010
-632.551	125.101	0.090	-0.113
-631.536	-54.197	0.210	0.096
-630.522	22.223	-0.141	-0.116
-629.507	800.000	-0.074	-0.317
-628.492	800.000	-0.020	-0.079
-627.478	24.128	0.094	-0.078
-626.463	158.221	-0.136	-0.190
-625.449	-26.120	-0.083	-0.049
-624.434	-133.194	0.249	-0.032
-623.419	56.456	0.056	-0.055
-622.405	-145.963	0.357	0.032
-621.390	-57.848	0.248	0.109
-620.376	800.000	-0.068	-0.201
-619.361	15.717	-0.202	0.159
-618.346	321.673	0.055	0.105
-617.332	245.201	0.182	0.308
-616.317	161.249	-0.243	0.341
-615.303	8.079	0.232	0.175
-614.288	127.549	0.197	0.251
-613.273	-90.489	0.372	0.108
-612.259	-134.540	-0.077	0.009
-611.244	-115.537	0.126	-0.024
-610.230	-6.416	0.168	-0.115
-609.215	-200.000	0.016	-0.280
-608.201	6.115	-0.136	-0.101
-607.186	126.377	-0.064	0.081
-606.171	75.870	0.257	0.272
-605.157	209.322	-0.116	0.182
-604.142	-29.693	-0.101	0.058
-603.128	176.591	-0.147	-0.214
-602.113	-200.000	0.023	0.183
-601.098	-8.999	-0.175	0.117
-600.084	-24.891	-0.149	-0.089
-599.069	-145.111	-0.148	-0.013
-598.055	132.656	0.177	-0.228
-597.040	26.685	0.115	0.096
-596.025	163.993	-0.169	0.238
-595.011	174.272	-0.216	0.312
-593.996	9.895	0.245	0.186
-592.982	31.826	0.271	0.234
-591.967	-43.406	-0.216	-0.109
-590.952	800.000	0.054	-0.164
-589.938	-17.168	-0.160	-0.101
-588.923	-78.407	-0.202	0.069
-587.909	85.851	-0.125	0.137
-586.894	156.592	0.277	0.382
-585.879	-37.545	-0.170	-0.091
-584.865	-200.000	-0.022	0.121
-583.850	-66.106	-0.382	0.152
-582.836	-151.859	0.025	0.002
-581.821	152.714	0.122	-0.167
-580.806	-21.035	-0.202	-0.124
-579.792	800.000	0.043	0.160
-578.777	-24.183	0.093	-0.056
-577.763	149.609	0.076	0.103
-576.748	2.166	-0.239	-0.173
-575.733	11.147	0.227	-0.173
-574.719	186.087	0.065	-0.097
-573.704	225.100	0.351	-0.569
-572.690	800.000	0.088	-0.369
-571.675	199.307	-0.094	-0.144
-570.661	-200.000	-0.016	0.153
-569.646	-21.888	-0.161	0.098
-568.631	323.745	-0.207	-0.395
-567.617	-200.000	-0.008	-0.141
-566.602	114.020	-0.103	-0.125
-565.588	-56.343	-0.199	-0.089
-564.573	-70.272	-0.062	-0.024
-563.558	699.659	-0.161	-0.424
-562.544	180.363	-0.165	-0.242
-561.529	300.017	0.042	0.077
-560.515	-56.515	-0.137	-0.061
-559.500	33.383	0.189	0.164
-558.485	-109.394	-0.233	0.049
-557.471	-23.904	0.203	0.121
-556.456	-90.275	0.243	-0.071
-555.442	-89.819	-0.489	0.143
-554.427	800.000	0.071	0.276
-553.412	361.383	0.090	0.179
-552.398	-69.935	0.113	0.043
-551.383	-30.725	0.090	0.051
-550.369	41.734	0.148	0.134
-549.354	800.000	-0.088	0.272
-548.339	800.000	0.063	-0.192
-547.325	-69.260	-0.320	0.123
-546.310	-200.000	0.013	0.444
-545.296	-41.282	0.263	-0.135
-544.281	137.589	-0.186	0.243
-543.266	-158.613	0.178	-0.010
-542.252	-93.303	0.174	-0.048
-541.237	-54.753	-0.259	0.117
-540.223	-137.227	0.111	-0.013
-539.208	-101.239	0.254	0.062
-538.193	-200.000	0.079	0.412
-537.179	118.998	0.095	0.117
-536.164	16.886	0.181	-0.143
-535.150	42.439	0.159	0.144
-534.135	-200.000	0.009	-0.106
-533.121	800.000	-0.036	0.155
-532.106	356.872	0.050	-0.100
-531.091	800.000	0.052	-0.179
-530.077	-55.678	-0.275	0.123
-529.062	481.245	0.024	-0.053
-528.048	-93.568	0.417	-0.115
-527.033	-164.676	0.125	0.006
-526.018	800.000	-0.051	0.161
-525.004	-200.000	-0.046	-0.237
-523.989	-200.000	-0.006	-0.129
-522.975	7.317	-0.066	-0.050
-521.960	-93.018	-0.162	-0.045
-520.945	127.207	-0.052	-0.066
-519.931	-28.084	0.242	-0.140
-518.916	-200.000	0.002	-0.112
-517.902	-7.491	-0.312	0.211
-516.887	-79.407	-0.396	0.134
-515.872	800.000	-0.019	-0.056
-514.858	800.000	-0.047	-0.174
-513.843	-200.000	-0.017	0.126
-512.829	-200.000	-0.057	0.333
-511.814	-54.304	-0.200	0.091
-510.799	60.159	-0.121	-0.120
-509.785	-11.139	0.234	-0.154
-508.770	91.440	0.019	-0.021
-507.756	800.000	0.095	-0.383
-506.741	-118.888	-0.107	0.019
-505.726	-200.000	0.031	0.221
-504.712	91.474	0.112	0.125
-503.697	17.860	0.210	-0.167
-502.683	-115.595	-0.366	-0.069
-501.668	-200.000	-0.005	0.163
-500.653	800.000	0.028	0.116
-499.639	63.108	-0.056	0.056
-498.624	11.920	0.222	0.170
-497.610	-200.000	-0.003	-0.020
-496.595	-151.988	0.028	0.002
-495.581	-10.530	0.265	-0.175
-494.566	-200.000	-0.010	0.092
-493.551	800.000	-0.068	-0.188
-492.537	16.095	0.311	-0.245
-491.522	-130.295	0.042	0.006
-490.508	800.000	0.013	-0.051
-489.493	186.607	-0.094	-0.140
-488.478	-143.606	0.224	-0.021
-487.464	-63.003	0.104	0.043
-486.449	-21.653	-0.384	-0.233
-485.435	-64.324	0.091	0.037
-484.420	80.005	0.289	-0.309
-483.405	95.101	-0.081	0.092
-482.391	800.000	0.063	-0.226
-481.376	800.000	-0.005	-0.016
-480.362	-54.219	-0.215	-0.097
-479.347	-134.090	0.145	0.018
-478.332	-18.104	0.298	0.186
-477.318	-200.000	-0.041	-0.268
-476.303	422.578	0.074	0.159
-475.289	69.022	-0.128	0.131
-474.274	673.901	-0.121	0.313
-473.259	-91.876	0.192	-0.054
-472.245	299.223	0.060	-0.110
-471.230	388.546	0.065	0.133
-470.216	21.145	-0.128	0.103
-469.201	-66.167	0.391	0.155
-468.186	-69.471	-0.248	0.095
-467.172	-146.309	0.097	-0.008
-466.157	39.401	-0.230	0.205
-465.143	20.680	0.157	-0.127
-464.128	-26.757	-0.047	-0.027
-463.113	-80.612	-0.166	-0.055
-462.099	-77.021	-0.250	-0.087
-461.084	-200.000	-0.026	0.116
-460.070	68.997	-0.248	0.254
-459.055	800.000	0.068	0.206
-458.040	54.326	0.118	-0.113
-457.026	-200.000	0.025	0.155
-456.011	-200.000	0.001	0.020
-454.997	-97.086	0.138	0.036
-453.982	800.000	-0.047	-0.162
-452.968	-2.808	-0.245	-0.170
-451.953	-200.000	0.040	0.328
-450.938	39.951	0.111	0.099
-449.924	-65.982	0.199	0.079
-448.909	-75.866	-0.164	0.058
-447.895	-102.589	0.304	-0.072
-446.880	-200.000	-0.005	-0.081
-445.865	43.439	-0.102	-0.093
-444.851	800.000	-0.137	0.401
-443.836	47.907	0.107	0.100
-442.822	211.273	0.103	-0.161
-441.807	100.945	0.037	0.043
-440.792	-108.517	-0.239	0.051
-439.778	-99.313	0.264	-0.066
-438.763	26.112	-0.153	0.127
-437.749	-200.000	0.006	0.160
-436.734	274.908	-0.194	-0.342
-435.719	800.000	-0.023	0.086
-434.705	-87.188	-0.309	-0.094
-433.690	260.421	0.078	0.135
-432.676	-86.473	0.207	-0.063
-431.661	-200.000	-0.010	-0.096
-430.646	800.000	0.089	-0.347
-429.632	800.000	0.039	-0.163
-428.617	-200.000	0.020	0.135
-427.603	273.994	-0.124	0.217
-426.588	-185.397	0.050	0.001
-425.573	-45.226	0.261	0.129
-424.559	441.027	0.084	-0.182
-423.544	-200.000	0.384	-0.001
-422.530	-152.552	0.142	0.010
-421.515	800.000	-0.067	0.270
-420.500	-71.933	0.244	0.090
-419.486	362.660	0.188	0.375
-418.471	-84.988	-0.346	0.108
-417.457	78.703	-0.403	0.429
-416.442	-87.758	-0.035	-0.011
-415.428	709.269	-0.078	-0.206
-414.413	-200.000	0.002	-0.315
-413.398	800.000	-0.055	-0.183
-412.384	67.697	0.205	0.208
-411.369	-200.000	0.021	0.244
-410.355	-200.000	0.008	0.225
-409.340	-73.936	-0.180	0.065
-408.325	-196.325	0.068	0.000
-407.311	-200.000	-0.019	-0.315
-406.296	-83.464	0.253	0.081
-405.282	-200.000	-0.006	-0.159
-404.267	198.735	0.111	0.169
-403.252	359.945	0.021	-0.042
-402.238	309.280	-0.086	0.160
-401.223	-33.345	-0.183	0.101
-400.209	535.453	-0.136	-0.321
-399.194	81.427	-0.258	-0.278
-398.179	576.290	0.121	0.294
-397.165	-36.613	0.151	-0.080
-396.150	26.240	0.228	-0.189
-395.136	-200.000	-0.022	0.332
-394.121	-8.926	0.143	0.095
-393.106	800.000	0.068	0.239
-392.092	23.042	-0.222	-0.181
-391.077	184.662	-0.109	-0.160
-390.063	-93.041	0.017	-0.005
-389.048	-200.000	-0.038	-0.472
-388.033	-41.883	0.186	0.095
-387.019	114.395	-0.109	-0.132
-386.004	28.050	-0.019	0.016
-384.990	-187.409	0.243	0.003
-383.975	-200.000	-0.004	0.095
-382.960	-200.000	0.025	-0.293
-381.946	-200.000	-0.042	0.297
-380.931	94.097	-0.071	0.080
-379.917	-200.000	-0.031	-0.253
-378.902	6.664	0.157	-0.116
-377.888	-200.000	0.023	-0.120
-376.873	95.577	0.196	0.222
-375.858	-200.000	-0.040	0.308
-374.844	32.864	0.113	-0.097
-373.829	146.659	-0.142	-0.189
-372.815	362.334	0.101	-0.202
-371.800	-30.756	-0.185	-0.104
-370.785	72.407	-0.168	-0.174
-369.771	-135.387	0.192	0.023
-368.756	26.648	-0.282	0.234
-367.742	-41.648	0.177	-0.090
-366.727	100.302	0.176	0.203
-365.712	138.080	-0.032	-0.042
-364.698	-25.550	-0.210	-0.123
-363.683	-167.077	-0.333	-0.013
-362.669	-28.483	0.171	-0.098
-361.654	278.944	0.075	0.132
-360.639	196.944	-0.180	0.273
-359.625	-121.944	-0.154	-0.025
-358.610	525.898	-0.122	-0.286
-357.596	709.171	0.093	-0.245
-356.581	276.006	0.184	-0.324
-355.566	10.710	-0.028	-0.021
-354.552	696.748	-0.053	-0.137
-353.537	563.037	-0.042	-0.101
-352.523	800.000	-0.082	-0.245
-351.508	-200.000	-0.011	0.078
-350.493	-200.000	-0.085	-0.496
-349.479	-200.000	-0.056	-0.301
-348.464	49.811	0.242	-0.226
-347.450	-102.218	-0.244	0.058
-346.435	-11.669	0.133	-0.086
-345.420	-197.632	0.101	0.001
-344.406	479.614	0.042	-0.095
-343.391	-200.000	-0.019	0.236
-342.377	73.224	-0.064	0.066
-341.362	-200.000	-0.067	0.292
-340.348	-64.063	-0.199	0.080
-339.333	-169.692	-0.500	-0.018
-338.318	54.202	-0.304	-0.290
-337.304	189.530	-0.090	0.133
-336.289	-32.301	0.105	-0.058
-335.275	462.640	0.050	-0.111
-334.260	800.000	0.095	-0.365
-333.245	16.529	-0.328	-0.257
-332.231	-200.000	-0.049	-0.315
-331.216	-200.000	0.057	-0.292
-330.202	800.000	-0.104	-0.319
-329.187	-101.835	-0.406	-0.097
-328.172	-99.243	0.369	-0.092
-327.158	-200.000	-0.039	-0.484
-326.143	-29.217	-0.203	0.116
-325.129	14.941	0.138	0.107
-324.114	800.000	-0.076	0.218
-323.099	62.208	0.296	0.293
-322.085	-123.564	-0.194	-0.031
-321.070	-102.551	0.307	0.073
-320.056	111.874	0.199	0.238
-319.041	143.667	0.056	0.074
-318.026	-200.000	0.026	-0.143
-317.012	-131.316	-0.270	-0.035
-315.997	646.084	-0.062	0.157
-314.983	800.000	0.108	0.427
-313.968	43.180	-0.137	-0.124
-312.953	800.000	0.039	0.120
-311.939	-200.000	-0.082	0.480
-310.924	-200.000	-0.002	0.065
-309.910	101.339	-0.127	0.146
-308.895	0.317	0.102	0.072
-307.880	-200.000	-0.013	0.325
-306.866	-200.000	-0.011	-0.215
-305.851	71.811	0.108	-0.111
-304.837	263.943	-0.073	-0.126
-303.822	117.202	0.356	0.433
-302.807	800.000	-0.057	0.205
-301.793	800.000	0.030	-0.093
-300.778	-138.486	-0.186	-0.020
-299.764	-97.503	-0.059	-0.015
-298.749	-84.101	-0.049	0.015
-297.735	800.000	-0.027	0.086
-296.720	-200.000	-0.007	0.271
-295.705	98.789	-0.088	-0.100
-294.691	-200.000	0.081	-0.394
-293.676	-200.000	-0.007	0.261
-292.662	694.827	0.041	0.105
-291.647	87.039	-0.208	0.228
-290.632	-200.000	0.052	0.235
-289.618	-200.000	-0.005	0.074
-288.603	-200.000	-0.047	0.313
-287.589	-61.927	-0.131	-0.054
-286.574	-163.302	0.157	0.007
-285.559	-71.666	0.414	0.153
-284.545	23.332	-0.196	-0.159
-283.530	88.032	0.289	0.317
-282.516	448.437	0.093	-0.202
-281.501	-109.819	-0.369	0.077
-280.486	-200.000	-0.034	0.283
-279.472	-113.220	-0.147	-0.029
-278.457	46.326	-0.149	-0.136
-277.443	101.899	-0.135	0.156
-276.428	-83.019	0.168	-0.053
-275.413	-84.686	0.201	-0.063
-274.399	323.495	-0.033	-0.061
-273.384	-200.000	-0.051	-0.401
-272.370	800.000	-0.052	0.171
-271.355	2.890	-0.313	0.224
-270.340	-31.379	-0.111	-0.062
-269.326	-142.057	0.169	0.017
-268.311	800.000	0.021	-0.089
-267.297	800.000	-0.080	0.221
-266.282	50.260	-0.142	0.132
-265.267	-81.126	0.252	-0.082
-264.253	190.436	-0.095	-0.141
-263.238	-40.476	0.157	0.081
-262.224	-200.000	-0.006	-0.068
-261.209	-200.000	0.003	-0.107
-260.195	-52.888	-0.264	0.120
-259.180	-59.576	0.366	-0.155
-258.165	39.610	-0.205	-0.181
-257.151	139.412	-0.118	-0.154
-256.136	-200.000	-0.046	0.266
-255.122	-30.508	-0.292	-0.163
-254.107	-65.780	-0.263	0.104
-253.092	-103.940	-0.270	-0.062
-252.078	-200.000	0.013	-0.260
-251.063	-200.000	0.015	-0.142
-250.049	74.463	-0.189	0.196
-249.034	-30.548	-0.242	-0.136
-248.019	-19.033	-0.227	-0.139
-247.005	-200.000	0.023	-0.111
-245.990	-134.119	0.282	-0.034
-244.976	0.131	0.386	0.272
-243.961	-200.000	0.005	0.144
-242.946	13.161	0.134	0.103
-241.932	-3.906	0.313	0.215
-240.917	-200.000	-0.059	-0.474
-239.903	15.432	-0.185	0.144
-238.888	316.924	0.035	-0.065
-237.873	-75.535	-0.136	0.048
-236.859	-200.000	-0.001	-0.068
-235.844	-200.000	-0.022	0.105
-234.830	-200.000	0.005	0.142
-233.815	800.000	0.060	0.203
-232.800	307.359	-0.087	0.160
-231.786	-187.912	-0.268	0.003
-230.771	108.659	0.173	0.204
-229.757	7.540	-0.137	0.101
-228.742	58.169	-0.176	0.171
-227.727	800.000	0.098	0.380
-226.713	-200.000	-0.023	0.209
-225.698	-125.148	0.145	-0.022
-224.684	-67.334	-0.186	0.072
-223.669	-24.805	0.301	-0.177
-222.655	-39.883	-0.157	-0.081
-221.640	800.000	-0.077	-0.257
-220.625	-200.000	0.011	0.133
-219.611	-9.705	0.180	-0.118
-218.596	-15.677	0.115	-0.072
-217.582	26.577	0.268	-0.221
-216.567	259.021	-0.095	0.161
-215.552	32.510	0.072	0.061
-214.538	800.000	-0.068	0.191
-213.523	99.212	0.175	-0.200
-212.509	-200.000	-0.061	-0.269
-211.494	-20.446	0.114	-0.069
-210.479	104.257	-0.159	-0.185
-209.465	48.809	-0.072	0.067
-208.450	65.156	-0.054	0.054
-207.436	-108.351	0.065	-0.014
-206.421	-200.000	-0.001	-0.121
-205.406	-66.484	-0.124	-0.049
-204.392	-107.472	-0.155	0.033
-203.377	254.741	0.119	0.200
-202.363	-200.000	-0.099	0.443
-201.348	56.050	0.311	-0.297
-200.333	487.656	-0.110	-0.248
-199.319	338.896	0.047	-0.090
-198.304	109.379	-0.101	-0.119
-197.290	800.000	0.072	-0.230
-196.275	107.015	0.099	-0.116
-195.260	-200.000	0.029	-0.191
-194.246	800.000	0.057	-0.170
-193.231	722.658	-0.134	-0.352
-192.217	-39.596	0.093	0.048
-191.202	8.541	-0.076	-0.056
-190.187	-200.000	0.003	-0.314
-189.173	22.500	-0.109	0.088
-188.158	-106.205	0.089	-0.020
-187.144	5.692	-0.085	0.062
-186.129	-151.123	-0.305	-0.023
-185.114	211.745	0.138	0.214
-184.100	354.027	-0.110	-0.215
-183.085	-38.064	-0.360	-0.188
-182.071	-200.000	0.028	0.328
-181.056	800.000	-0.087	0.321
-180.042	-35.445	0.191	-0.102
-179.027	-25.914	0.278	-0.161
-178.012	-32.565	0.367	0.202
-176.998	-15.802	-0.071	-0.045
-175.983	-171.758	0.188	0.006
-174.969	-200.000	-0.011	-0.183
-173.954	17.185	-0.091	0.071
-172.939	-45.867	0.157	0.076
-171.925	-136.097	0.313	-0.036
-170.910	-200.000	0.005	-0.116
-169.896	47.385	0.214	0.196
-168.881	-200.000	-0.001	-0.099
-167.866	-200.000	0.050	-0.314
-166.852	-196.271	-0.178	0.001
-165.837	211.513	0.176	-0.273
-164.823	800.000	-0.050	-0.159
-163.808	-95.669	-0.259	-0.068
-162.793	-68.878	0.232	0.088
-161.779	135.277	0.191	-0.244
-160.764	-118.671	0.458	-0.080
-159.750	-200.000	-0.046	0.217
-158.735	800.000	0.042	0.175
-157.720	-200.000	0.018	0.340
-156.706	-31.631	0.156	0.086
-155.691	250.534	0.029	-0.048
-154.677	0.021	0.083	0.058
-153.662	237.699	0.126	0.205
-152.647	247.089	-0.093	-0.155
-151.633	-200.000	0.000	-0.115
-150.618	800.000	0.073	0.277
-149.604	-71.967	-0.235	0.086
-148.589	77.040	0.167	0.174
-147.574	8.148	-0.207	0.153
-146.560	-200.000	0.026	0.239
-145.545	-101.857	0.163	0.039
-144.531	-72.248	-0.212	-0.077
-143.516	217.296	0.121	-0.190
-142.502	-200.000	0.032	-0.228
-141.487	106.159	0.208	-0.242
-140.472	-41.188	0.163	-0.083
-139.458	-42.565	-0.171	-0.085
-138.443	-41.486	0.102	-0.052
-137.429	-15.365	-0.252	-0.158
-136.414	86.733	0.124	-0.135
-135.399	-200.000	0.063	-0.274
-134.385	-41.088	0.132	0.067
-133.370	76.435	-0.336	0.350
-132.356	-124.035	0.309	0.048
-131.341	800.000	0.112	0.444
-130.326	261.046	0.069	0.118
-129.312	-25.710	-0.306	0.178
-128.297	-36.250	0.220	0.117
-127.283	-171.331	0.154	-0.005
-126.268	5.967	0.143	-0.104
-125.253	22.562	0.232	0.186
-124.239	-200.000	-0.013	-0.154
-123.224	800.000	0.058	-0.168
-122.210	-200.000	-0.023	0.116
-121.195	54.957	0.253	0.240
