DTS Sentinel unit serial number:	SN413079Multiplexer serial number:	ORYXHardware model number:	OX4-SRSoftware version number:	ORYX F/W v4.00 Oryx Data Collector v3.7.2.0data status	okinstallation	princeton_trtdifferential loss correction	single-endedforward channel	channel 2reverse channel	N/Adate	2019/09/14time	17:19:35forward acquisition time	60.00reverse acquisition time	0.00gamma	496.2192k internal	0.2309k external	0.2309temperature offset calibration	1.0120default loss term (dB/km)	0.3790temperature slope calibration	1.0000multiplexer offset coefficient	1.0000multiplexer slope coefficient	1.0000fibre end	0.00T internal ref (°C)	37.87T ext. ref 1 (°C)	5.05T ext. ref 2 (°C)	32.78length (m)	temperature (°C)	Stokes	anti-Stokes-747.200	-200.000	0.020	-0.266
-746.185	228.866	-0.201	0.332
-745.171	75.283	0.027	0.029
-744.156	-200.000	0.048	0.276
-743.142	-16.376	-0.118	-0.076
-742.127	-200.000	-0.068	0.426
-741.112	12.459	0.150	0.117
-740.098	44.826	-0.325	0.304
-739.083	800.000	0.068	-0.224
-738.069	81.165	-0.317	0.348
-737.054	403.376	-0.136	0.290
-736.039	-200.000	-0.007	0.213
-735.025	-200.000	0.048	0.370
-734.010	-28.384	-0.249	-0.146
-732.996	-67.533	0.297	-0.118
-731.981	-200.000	-0.004	-0.160
-730.966	211.697	-0.169	-0.271
-729.952	-146.400	0.028	-0.003
-728.937	-31.167	-0.199	0.114
-727.923	-31.894	-0.290	-0.165
-726.908	101.255	-0.337	-0.399
-725.894	23.734	0.136	-0.114
-724.879	-147.241	-0.599	0.052
-723.864	249.548	-0.160	-0.276
-722.850	138.542	-0.070	-0.093
-721.835	-200.000	-0.052	-0.239
-720.821	-55.413	0.175	-0.080
-719.806	88.432	-0.186	-0.210
-718.791	-200.000	-0.062	0.371
-717.777	-92.767	0.149	-0.042
-716.762	94.507	0.076	0.087
-715.748	299.558	0.150	-0.281
-714.733	-155.819	-0.307	0.020
-713.718	-73.995	0.068	0.025
-712.704	41.951	-0.094	0.087
-711.689	800.000	0.064	-0.275
-710.675	440.014	-0.028	0.063
-709.660	-13.090	0.127	0.084
-708.645	-200.000	-0.014	0.078
-707.631	329.802	-0.099	-0.192
-706.616	63.838	-0.290	-0.295
-705.602	-200.000	-0.063	-0.284
-704.587	-111.147	-0.156	-0.032
-703.572	79.203	0.148	0.161
-702.558	398.045	-0.062	-0.131
-701.543	-128.656	0.029	0.004
-700.529	45.257	-0.163	-0.152
-699.514	-157.229	-0.014	0.001
-698.499	231.273	-0.070	-0.116
-697.485	642.248	0.104	-0.268
-696.470	800.000	0.042	0.166
-695.456	-71.346	-0.169	0.064
-694.441	40.376	-0.143	0.131
-693.426	800.000	0.047	-0.191
-692.412	-44.783	0.404	-0.205
-691.397	-56.601	-0.172	0.077
-690.383	85.520	0.123	-0.137
-689.368	-93.676	0.386	-0.108
-688.354	-64.232	0.051	0.021
-687.339	22.396	-0.289	-0.240
-686.324	17.508	-0.146	-0.117
-685.310	155.714	-0.145	-0.203
-684.295	-200.000	0.066	0.344
-683.281	-100.271	-0.391	-0.099
-682.266	107.882	-0.316	-0.382
-681.251	-58.765	-0.074	-0.032
-680.237	236.221	-0.116	0.194
-679.222	-0.629	-0.212	-0.152
-678.208	-61.208	0.047	-0.020
-677.193	39.173	-0.157	0.142
-676.178	105.044	-0.092	0.109
-675.164	118.392	0.155	0.193
-674.149	-26.089	-0.045	-0.027
-673.135	-147.316	0.212	0.018
-672.120	229.216	-0.086	0.142
-671.105	-88.142	0.005	-0.001
-670.091	-26.823	-0.201	-0.119
-669.076	-56.870	-0.191	0.085
-668.062	-32.699	-0.199	-0.112
-667.047	435.543	-0.112	0.246
-666.032	-200.000	0.002	0.196
-665.018	-200.000	-0.039	-0.414
-664.003	-200.000	-0.039	-0.266
-662.989	-200.000	-0.025	-0.118
-661.974	47.983	-0.246	-0.233
-660.959	124.955	-0.163	-0.208
-659.945	184.349	0.065	-0.098
-658.930	-200.000	-0.004	-0.075
-657.916	-200.000	0.058	0.293
-656.901	-200.000	-0.079	0.378
-655.886	-151.955	0.162	0.012
-654.872	-200.000	-0.003	-0.221
-653.857	-28.828	0.222	-0.129
-652.843	474.895	0.079	-0.181
-651.828	-59.434	-0.182	0.079
-650.814	-200.000	-0.074	0.477
-649.799	800.000	-0.044	-0.151
-648.784	-68.349	-0.022	0.009
-647.770	-39.551	0.207	0.109
-646.755	-101.170	0.066	0.016
-645.741	-4.136	-0.442	-0.310
-644.726	380.699	0.136	-0.283
-643.711	339.668	-0.050	-0.099
-642.697	-66.375	0.123	0.050
-641.682	-73.450	0.414	0.153
-640.668	64.739	-0.093	0.095
-639.653	-113.169	-0.103	0.021
-638.638	-119.595	-0.391	-0.068
-637.624	-53.116	-0.303	0.141
-636.609	800.000	0.047	0.143
-635.595	234.258	0.130	0.217
-634.580	-200.000	0.037	0.180
-633.565	800.000	0.052	-0.174
-632.551	-112.444	0.191	0.039
-631.536	-97.582	-0.227	-0.060
-630.522	-6.717	-0.253	-0.174
-629.507	800.000	0.068	-0.221
-628.492	573.035	-0.195	0.480
-627.478	800.000	-0.035	-0.142
-626.463	-200.000	0.016	-0.207
-625.449	-117.489	-0.038	-0.007
-624.434	-23.843	-0.403	0.244
-623.419	-8.548	-0.122	0.083
-622.405	-85.549	0.342	-0.108
-621.390	-118.761	-0.225	0.040
-620.376	574.343	-0.115	-0.285
-619.361	800.000	0.043	0.137
-618.346	167.101	-0.102	0.146
-617.332	19.258	0.348	-0.282
-616.317	-74.534	-0.337	-0.123
-615.303	80.210	-0.202	-0.219
-614.288	92.650	0.142	-0.162
-613.273	-155.519	-0.332	0.022
-612.259	800.000	-0.061	0.171
-611.244	66.730	0.218	0.225
-610.230	-200.000	0.082	-0.586
-609.215	-62.007	-0.208	0.088
-608.201	79.738	0.069	0.075
-607.186	248.853	-0.150	0.257
-606.171	564.799	0.057	-0.140
-605.157	-136.154	0.073	-0.009
-604.142	-129.320	-0.296	0.042
-603.128	-3.042	0.153	-0.108
-602.113	38.807	-0.049	0.044
-601.098	141.609	0.216	0.289
-600.084	800.000	-0.104	-0.305
-599.069	238.622	0.150	-0.252
-598.055	83.504	-0.187	-0.206
-597.040	-200.000	-0.010	-0.189
-596.025	-91.832	-0.081	0.023
-595.011	-135.457	0.308	-0.037
-593.996	800.000	0.046	-0.135
-592.982	14.551	0.132	0.104
-591.967	-89.554	-0.284	-0.084
-590.952	-28.770	-0.022	0.013
-589.938	-72.921	-0.315	-0.117
-588.923	-200.000	-0.026	-0.615
-587.909	457.903	-0.080	-0.180
-586.894	-31.108	0.186	-0.106
-585.879	189.593	-0.032	0.049
-584.865	86.215	-0.164	0.182
-583.850	23.334	0.065	0.054
-582.836	-178.740	-0.355	-0.008
-581.821	213.453	0.199	-0.317
-580.806	405.295	0.174	-0.370
-579.792	-108.568	-0.247	0.054
-578.777	-143.399	-0.104	0.010
-577.763	800.000	0.030	-0.088
-576.748	-186.771	-0.365	0.005
-575.733	-195.331	0.435	-0.003
-574.719	-200.000	0.031	-0.319
-573.704	-13.353	0.076	0.050
-572.690	540.899	0.087	-0.209
-571.675	545.176	-0.075	0.181
-570.661	-26.749	0.131	-0.077
-569.646	-8.004	0.180	-0.122
-568.631	23.427	-0.114	0.095
-567.617	-96.876	-0.238	-0.063
-566.602	-145.212	0.377	-0.034
-565.588	-151.784	-0.232	-0.017
-564.573	511.369	-0.120	-0.281
-563.558	-200.000	-0.005	0.145
-562.544	-200.000	0.006	0.078
-561.529	-200.000	-0.301	-0.001
-560.515	-59.600	-0.096	-0.041
-559.500	-118.279	0.049	-0.009
-558.485	4.661	-0.106	-0.079
-557.471	94.963	-0.195	-0.223
-556.456	570.759	-0.048	-0.118
-555.442	179.949	-0.132	0.195
-554.427	-200.000	0.038	0.270
-553.412	62.848	0.196	0.198
-552.398	-37.077	-0.190	-0.102
-551.383	68.532	-0.179	-0.185
-550.369	106.266	0.167	0.199
-549.354	-84.241	-0.217	-0.069
-548.339	109.829	-0.159	0.192
-547.325	-43.734	-0.356	-0.181
-546.310	233.799	-0.066	-0.110
-545.296	-39.102	0.083	0.044
-544.281	-48.842	-0.026	-0.012
-543.266	-106.459	0.171	-0.038
-542.252	-143.438	0.007	0.001
-541.237	-47.254	0.173	-0.085
-540.223	800.000	-0.017	0.057
-539.208	-70.796	0.349	0.133
-538.193	-86.724	-0.100	0.031
-537.179	554.744	0.049	0.118
-536.164	19.388	0.146	0.118
-535.150	200.262	0.035	0.054
-534.135	241.798	-0.155	-0.261
-533.121	90.397	-0.206	-0.232
-532.106	172.154	0.205	-0.298
-531.091	-74.083	0.195	-0.071
-530.077	190.924	0.165	0.250
-529.062	151.665	-0.292	-0.401
-528.048	72.771	-0.171	0.180
-527.033	245.105	0.122	0.207
-526.018	-200.000	-0.012	0.098
-525.004	450.573	-0.154	-0.343
-523.989	201.495	0.063	0.098
-522.975	-23.488	0.137	-0.083
-521.960	-19.676	-0.149	0.093
-520.945	782.649	-0.025	0.069
-519.931	-7.706	-0.115	-0.078
-518.916	27.741	0.142	-0.120
-517.902	800.000	-0.050	-0.155
-516.887	-200.000	-0.025	-0.360
-515.872	110.658	0.043	0.052
-514.858	-200.000	0.009	0.278
-513.843	274.834	-0.100	-0.178
-512.829	-107.473	-0.222	0.049
-511.814	42.866	0.098	-0.090
-510.799	-61.746	0.198	-0.084
-509.785	-62.779	0.154	-0.064
-508.770	242.450	-0.197	-0.332
-507.756	-134.003	-0.031	-0.004
-506.741	-141.362	0.154	-0.016
-505.726	108.091	-0.041	0.050
-504.712	-200.000	-0.010	0.166
-503.697	-123.680	0.311	-0.050
-502.683	-110.804	0.401	-0.083
-501.668	73.544	0.103	-0.108
-500.653	-39.928	-0.315	-0.165
-499.639	53.395	-0.244	-0.235
-498.624	-151.331	-0.336	0.025
-497.610	-22.366	0.095	0.058
-496.595	774.308	0.053	0.146
-495.581	38.361	-0.182	0.163
-494.566	168.747	0.097	-0.139
-493.551	277.261	-0.230	0.412
-492.537	113.589	0.173	0.212
-491.522	-200.000	0.067	-0.369
-490.508	102.443	0.152	-0.178
-489.493	-124.814	-0.292	0.045
-488.478	59.475	-0.226	0.224
-487.464	92.133	0.126	0.143
-486.449	672.200	-0.074	-0.192
-485.435	-200.000	0.040	-0.312
-484.420	142.551	-0.151	0.201
-483.405	-37.325	-0.149	-0.080
-482.391	-90.115	-0.171	0.050
-481.376	40.875	-0.114	-0.103
-480.362	-200.000	-0.011	-0.189
-479.347	-74.872	0.071	0.026
-478.332	-191.319	0.188	0.002
-477.318	157.531	-0.059	0.082
-476.303	-69.107	0.265	0.103
-475.289	-135.784	0.120	0.014
-474.274	-48.903	-0.213	0.103
-473.259	800.000	0.096	-0.289
-472.245	-147.003	-0.342	0.030
-471.230	-200.000	-0.020	-0.135
-470.216	9.502	0.224	-0.171
-469.201	-200.000	0.013	-0.056
-468.186	800.000	-0.047	0.137
-467.172	310.387	-0.088	0.166
-466.157	800.000	-0.090	-0.269
-465.143	-106.505	-0.100	0.023
-464.128	75.282	0.102	-0.108
-463.113	-19.379	-0.146	-0.091
-462.099	-200.000	-0.049	0.291
-461.084	-37.378	-0.065	-0.035
-460.070	-87.250	0.065	0.020
-459.055	-20.495	-0.154	0.095
-458.040	-77.347	0.266	-0.093
-457.026	-141.110	0.332	0.034
-456.011	1.115	0.184	0.133
-454.997	-44.387	0.261	-0.131
-453.982	-103.267	0.110	-0.026
-452.968	-111.700	0.216	-0.044
-451.953	267.848	0.052	0.092
-450.938	-143.985	-0.118	0.011
-449.924	179.699	-0.084	0.124
-448.909	-55.498	-0.251	-0.113
-447.895	-200.000	-0.028	0.273
-446.880	245.795	-0.102	-0.173
-445.865	-200.000	0.011	-0.074
-444.851	175.655	-0.100	0.146
-443.836	-124.477	0.067	0.011
-442.822	-144.263	0.181	-0.017
-441.807	55.147	0.206	0.200
-440.792	-107.824	-0.141	0.031
-439.778	96.331	-0.068	-0.078
-438.763	573.357	0.085	0.207
-437.749	31.696	0.160	-0.138
-436.734	100.429	-0.023	0.027
-435.719	111.066	-0.162	-0.196
-434.705	-24.149	-0.323	-0.194
-433.690	42.379	-0.074	-0.068
-432.676	-27.382	0.238	0.139
-431.661	-147.800	0.212	0.018
-430.646	130.009	-0.103	-0.132
-429.632	-116.436	-0.158	0.029
-428.617	-32.613	-0.087	-0.049
-427.603	33.218	-0.101	0.088
-426.588	10.363	-0.097	-0.074
-425.573	-135.708	-0.132	-0.016
-424.559	266.431	0.046	0.080
-423.544	99.954	0.149	0.173
-422.530	90.230	0.045	0.050
-421.515	198.958	0.129	0.198
-420.500	-169.453	-0.098	-0.004
-419.486	75.588	-0.075	-0.080
-418.471	194.672	0.065	0.099
-417.457	-87.289	0.212	-0.065
-416.442	-50.180	0.054	-0.026
-415.428	-200.000	0.012	0.147
-414.413	-12.035	0.063	0.042
-413.398	4.281	0.286	-0.210
-412.384	324.226	0.108	0.207
-411.369	-13.152	0.116	0.076
-410.355	-104.204	0.324	-0.076
-409.340	423.729	0.181	0.390
-408.325	800.000	-0.064	-0.262
-407.311	800.000	-0.012	-0.047
-406.296	58.267	0.140	0.137
-405.282	-200.000	0.023	0.220
-404.267	-200.000	0.028	0.341
-403.252	800.000	-0.069	-0.282
-402.238	-88.860	-0.430	-0.128
-401.223	-200.000	0.051	-0.432
-400.209	-17.888	-0.296	-0.186
-399.194	-200.000	0.020	-0.149
-398.179	-93.944	-0.320	0.088
-397.165	73.542	0.113	0.119
-396.150	178.574	0.132	0.193
-395.136	-110.911	-0.268	0.055
-394.121	-96.084	0.381	0.102
-393.106	-47.763	-0.082	-0.040
-392.092	-200.000	0.035	0.329
-391.077	800.000	0.070	0.253
-390.063	204.068	-0.064	-0.099
-389.048	-168.901	-0.241	0.009
-388.033	523.791	-0.041	0.097
-387.019	199.204	0.163	0.250
-386.004	56.478	-0.057	-0.056
-384.990	800.000	0.062	0.237
-383.975	710.484	-0.014	-0.037
-382.960	-200.000	0.035	-0.210
-381.946	-77.082	0.132	-0.046
-380.931	-65.702	0.192	0.077
-379.917	57.560	0.161	0.158
-378.902	-200.000	0.008	-0.051
-377.888	-200.000	-0.004	-0.023
-376.873	0.536	-0.156	0.111
-375.858	800.000	0.054	-0.216
-374.844	-149.463	-0.039	-0.003
-373.829	800.000	0.043	0.148
-372.815	-200.000	-0.024	-0.310
-371.800	800.000	0.019	-0.081
-370.785	69.031	-0.262	-0.270
-369.771	-153.616	0.075	0.005
-368.756	800.000	0.006	0.025
-367.742	233.538	0.138	0.228
-366.727	-88.643	0.256	-0.076
-365.712	365.577	0.039	-0.080
-364.698	139.188	-0.153	0.201
-363.683	352.280	-0.114	0.227
-362.669	-136.909	0.229	-0.026
-361.654	-184.994	-0.294	-0.005
-360.639	-126.869	0.170	-0.025
-359.625	6.541	0.466	0.346
-358.610	-110.265	-0.264	0.055
-357.596	749.229	-0.039	0.105
-356.581	98.478	-0.106	-0.123
-355.566	130.503	-0.005	0.006
-354.552	800.000	-0.095	0.306
-353.537	-4.453	-0.143	0.099
-352.523	-126.354	-0.095	-0.014
-351.508	-159.368	-0.026	0.001
-350.493	-72.456	-0.199	0.074
-349.479	563.419	0.069	0.168
-348.464	296.814	-0.114	-0.210
-347.450	-133.548	-0.357	-0.045
-346.435	-70.112	-0.106	-0.040
-345.420	-200.000	0.069	0.397
-344.406	-39.623	-0.395	0.207
-343.391	-200.000	-0.035	-0.199
-342.377	-105.858	0.302	0.068
-341.362	-69.111	-0.385	0.148
-340.348	27.000	0.209	0.175
-339.333	-71.643	0.092	-0.034
-338.318	-13.623	0.259	0.168
-337.304	-40.425	0.299	-0.155
-336.289	76.074	0.184	0.195
-335.275	630.133	0.186	0.470
-334.260	217.501	-0.049	0.077
-333.245	-89.502	0.277	0.081
-332.231	36.483	-0.172	0.152
-331.216	208.246	-0.039	-0.061
-330.202	800.000	-0.069	0.267
-329.187	-107.690	0.052	0.011
-328.172	-200.000	-0.006	-0.150
-327.158	15.454	0.152	0.120
-326.143	275.961	0.003	-0.005
-325.129	392.034	-0.095	0.198
-324.114	-65.904	0.143	0.057
-323.099	-71.879	-0.122	0.045
-322.085	-4.360	0.315	-0.218
-321.070	196.136	0.198	-0.301
-320.056	33.429	-0.104	0.091
-319.041	176.102	0.071	0.103
-318.026	-2.405	-0.216	0.151
-317.012	48.416	0.223	-0.208
-315.997	173.734	-0.222	-0.319
-314.983	-140.547	0.273	0.028
-313.968	-81.335	-0.437	-0.144
-312.953	-99.235	-0.437	0.110
-311.939	-64.871	0.341	-0.138
-310.924	12.392	-0.182	0.140
-309.910	-200.000	0.047	-0.498
-308.895	800.000	0.020	0.077
-307.880	362.747	-0.141	-0.282
-306.866	-39.306	0.214	0.112
-305.851	-200.000	0.041	0.215
-304.837	260.633	-0.217	0.375
-303.822	-76.520	0.288	0.101
-302.807	233.026	0.071	0.116
-301.793	-62.156	0.144	-0.060
-300.778	-124.142	-0.197	0.031
-299.764	-112.863	0.046	0.009
-298.749	-200.000	0.009	0.450
-297.735	-159.352	0.226	-0.013
-296.720	-118.963	-0.088	-0.015
-295.705	-200.000	0.495	0.002
-294.691	454.585	0.119	-0.264
-293.676	-200.000	-0.037	0.163
-292.662	59.804	-0.166	0.163
-291.647	-109.498	-0.214	-0.045
-290.632	-22.652	0.059	0.035
-289.618	-76.800	-0.105	0.037
-288.603	-200.000	-0.003	0.188
-287.589	-99.195	0.179	-0.045
-286.574	800.000	0.067	0.242
-285.559	800.000	-0.060	0.182
-284.545	67.901	-0.127	0.130
-283.530	157.873	-0.241	0.333
-282.516	489.788	-0.090	-0.206
-281.501	692.931	0.047	0.123
-280.486	-179.511	-0.198	-0.004
-279.472	327.308	0.219	0.418
-278.457	111.029	0.110	-0.132
-277.443	-14.723	-0.135	0.087
-276.428	-98.464	-0.311	-0.079
-275.413	232.505	-0.084	-0.138
-274.399	188.474	0.135	0.201
-273.384	31.291	-0.320	0.274
-272.370	31.240	0.250	0.214
-271.355	296.483	-0.134	0.246
-270.340	135.785	-0.194	-0.252
-269.326	-200.000	-0.030	0.189
-268.311	-56.971	0.154	-0.068
-267.297	277.049	-0.026	0.046
-266.282	-27.137	-0.102	-0.060
-265.267	6.433	0.269	0.200
-264.253	-79.623	0.405	-0.136
-263.238	-47.086	0.176	0.086
-262.224	-127.839	0.346	0.050
-261.209	-110.817	0.248	0.051
-260.195	-126.820	-0.167	-0.025
-259.180	207.382	0.092	-0.144
-258.165	-37.964	-0.414	-0.219
-257.151	60.590	-0.177	0.175
-256.136	-4.337	-0.171	0.118
-255.122	-56.778	-0.195	-0.086
-254.107	107.390	0.131	-0.155
-253.092	131.286	-0.155	-0.198
-252.078	800.000	-0.055	-0.198
-251.063	-193.820	-0.302	-0.003
-250.049	37.206	-0.094	0.083
-249.034	130.050	0.257	0.328
-248.019	-48.217	0.118	-0.057
-247.005	-60.028	0.199	-0.085
-245.990	800.000	-0.012	0.034
-244.976	189.253	0.105	0.157
-243.961	800.000	-0.061	0.264
-242.946	-12.729	-0.096	-0.063
-241.932	40.686	0.112	0.101
-240.917	141.244	-0.361	-0.475
-239.903	110.514	0.175	-0.209
-238.888	-32.262	0.228	0.127
-237.873	800.000	0.072	-0.246
-236.859	211.050	0.174	-0.272
-235.844	-200.000	0.022	-0.218
-234.830	187.316	0.133	-0.198
-233.815	800.000	0.038	0.127
-232.800	469.530	-0.129	-0.289
-231.786	-143.716	-0.246	-0.023
-230.771	800.000	-0.050	-0.147
-229.757	-103.945	0.151	-0.035
-228.742	-17.015	0.099	0.062
-227.727	275.613	-0.064	0.114
-226.713	-116.427	0.111	-0.020
-225.698	-41.204	0.260	-0.134
-224.684	-200.000	0.054	-0.241
-223.669	387.457	-0.148	-0.305
-222.655	-200.000	-0.014	0.326
-221.640	53.725	0.069	-0.066
-220.625	800.000	-0.030	-0.097
-219.611	66.485	0.206	-0.208
-218.596	-12.847	0.118	-0.076
-217.582	116.100	-0.224	0.273
-216.567	-79.333	0.122	-0.041
-215.552	142.533	-0.132	0.174
-214.538	-72.665	0.274	-0.100
-213.523	39.146	-0.266	-0.237
-212.509	745.308	0.119	0.318
-211.494	1.519	0.323	-0.231
-210.479	240.710	0.147	-0.243
-209.465	-112.252	0.121	-0.024
-208.450	-200.000	-0.024	-0.139
-207.436	-200.000	0.002	-0.263
-206.421	-44.591	-0.389	-0.193
-205.406	126.143	-0.061	-0.077
-204.392	-163.685	-0.244	0.011
-203.377	242.779	-0.070	-0.116
-202.363	-30.596	0.279	0.157
-201.348	-200.000	-0.003	0.264
-200.333	550.751	0.067	0.159
-199.319	46.087	0.071	0.066
-198.304	-36.931	-0.149	0.080
-197.290	136.714	-0.088	-0.114
-196.275	-117.161	0.289	0.052
-195.260	-146.564	-0.593	-0.051
-194.246	-10.345	0.416	-0.274
-193.231	178.229	0.128	0.185
-192.217	-19.102	0.132	-0.081
-191.202	-200.000	-0.011	0.139
-190.187	232.277	0.136	-0.222
-189.173	-200.000	-0.032	-0.230
-188.158	-39.504	-0.075	0.039
-187.144	-87.949	-0.146	0.044
-186.129	-200.000	-0.003	0.042
-185.114	-152.813	0.235	0.017
-184.100	39.232	-0.146	0.130
-183.085	135.567	0.185	-0.240
-182.071	0.348	-0.273	-0.194
-181.056	53.179	0.230	-0.219
-180.042	-26.715	-0.396	-0.230
-179.027	-165.587	-0.016	0.001
-178.012	800.000	-0.061	0.234
-176.998	202.423	-0.124	0.190
-175.983	44.351	0.042	0.039
-174.969	-200.000	-0.021	-0.117
-173.954	-42.482	0.170	0.086
-172.939	-40.731	-0.132	-0.068
-171.925	800.000	0.029	-0.109
-170.910	-22.298	0.202	0.121
-169.896	800.000	-0.073	0.222
-168.881	-56.335	0.353	0.156
-167.866	800.000	-0.048	0.144
-166.852	800.000	0.052	0.187
-165.837	126.671	-0.210	-0.264
-164.823	-200.000	-0.032	0.237
-163.808	9.162	0.502	0.377
-162.793	-106.844	0.207	0.046
-161.779	-200.000	-0.020	0.114
-160.764	-183.271	0.189	-0.003
-159.750	-84.382	0.080	0.025
-158.735	-200.000	-0.011	-0.190
-157.720	800.000	0.165	0.492
-156.706	800.000	0.056	0.202
-155.691	94.148	0.042	-0.047
-154.677	-101.800	0.141	0.034
-153.662	-200.000	0.012	0.193
-152.647	-27.379	0.070	0.040
-151.633	800.000	0.071	0.298
-150.618	645.076	-0.074	-0.188
-149.604	-46.003	-0.161	0.079
-148.589	51.005	0.097	-0.091
-147.574	699.628	0.076	0.200
-146.560	-89.107	-0.178	0.052
-145.545	314.212	0.064	0.120
-144.531	246.837	-0.213	-0.357
-143.516	-88.718	0.156	0.046
-142.502	545.485	-0.079	-0.188
-141.487	19.040	0.256	0.204
-140.472	46.274	-0.228	0.209
-139.458	-27.381	0.098	-0.057
-138.443	151.137	-0.110	-0.149
-137.429	800.000	0.038	0.141
-136.414	-51.917	0.224	-0.103
-135.399	-61.724	-0.089	-0.037
-134.385	-111.756	-0.202	-0.041
-133.370	-200.000	-0.017	-0.115
-132.356	541.485	0.104	-0.245
-131.341	-91.580	-0.128	-0.036
-130.326	-200.000	0.037	-0.310
-129.312	31.375	0.279	0.237
-128.297	-160.185	-0.453	-0.024
-127.283	-91.557	-0.134	0.038
-126.268	-129.014	-0.406	-0.056
-125.253	-98.837	0.407	0.103
-124.239	-111.015	0.272	-0.055
-123.224	-131.937	0.062	0.008
-122.210	86.434	0.124	0.136
-121.195	-181.586	0.154	0.003
