DTS Sentinel unit serial number:	SN413079Multiplexer serial number:	ORYXHardware model number:	OX4-SRSoftware version number:	ORYX F/W v4.00 Oryx Data Collector v3.7.2.0data status	okinstallation	princeton_trtdifferential loss correction	single-endedforward channel	channel 2reverse channel	N/Adate	2019/09/15time	21:11:35forward acquisition time	60.00reverse acquisition time	0.00gamma	496.2192k internal	0.2333k external	0.2333temperature offset calibration	0.9940default loss term (dB/km)	0.3790temperature slope calibration	1.0000multiplexer offset coefficient	1.0000multiplexer slope coefficient	1.0000fibre end	0.00T internal ref (°C)	31.37T ext. ref 1 (°C)	8.14T ext. ref 2 (°C)	24.23length (m)	temperature (°C)	Stokes	anti-Stokes-747.200	-58.141	-0.207	-0.091
-746.185	123.749	-0.201	0.253
-745.171	-72.092	0.102	-0.038
-744.156	-200.000	0.015	0.085
-743.142	-103.737	0.106	0.025
-742.127	390.127	-0.140	0.293
-741.112	270.929	0.062	0.110
-740.098	192.616	-0.243	0.369
-739.083	-3.671	0.149	0.104
-738.069	179.645	-0.292	0.429
-737.054	188.777	-0.052	-0.078
-736.039	-200.000	-0.000	0.141
-735.025	160.090	0.272	-0.382
-734.010	-33.719	0.064	-0.036
-732.996	-78.635	-0.288	0.099
-731.981	-125.131	0.287	-0.044
-730.966	397.278	-0.075	-0.157
-729.952	800.000	-0.060	0.176
-728.937	-200.000	-0.015	0.177
-727.923	37.023	0.163	-0.145
-726.908	79.202	0.124	-0.133
-725.894	169.524	-0.105	-0.151
-724.879	152.995	0.117	-0.161
-723.864	-168.601	0.353	0.014
-722.850	-42.248	0.258	-0.132
-721.835	190.328	0.210	0.317
-720.821	-124.344	0.435	0.068
-719.806	-134.817	-0.526	0.064
-718.791	-160.916	0.103	0.005
-717.777	74.232	-0.226	0.238
-716.762	-200.000	-0.026	0.250
-715.748	143.188	0.027	-0.035
-714.733	-126.219	-0.313	0.047
-713.718	-137.488	-0.201	-0.023
-712.704	-29.530	-0.258	-0.148
-711.689	-10.124	0.370	-0.247
-710.675	97.555	-0.481	-0.555
-709.660	208.875	-0.268	0.421
-708.645	70.203	0.172	-0.178
-707.631	-10.493	-0.194	-0.129
-706.616	-54.109	0.205	0.094
-705.602	-48.529	-0.102	-0.049
-704.587	-99.612	0.121	-0.031
-703.572	-47.674	0.050	0.024
-702.558	121.123	-0.075	-0.093
-701.543	119.956	-0.203	0.252
-700.529	-21.301	-0.095	0.058
-699.514	135.003	-0.086	0.112
-698.499	252.057	-0.094	-0.160
-697.485	-6.734	0.285	0.194
-696.470	89.008	-0.102	-0.114
-695.456	-85.877	-0.110	0.034
-694.441	245.817	0.199	0.336
-693.426	167.357	-0.083	0.119
-692.412	-146.033	0.299	0.027
-691.397	6.976	-0.240	0.180
-690.383	800.000	-0.039	-0.111
-689.368	-178.952	-0.327	-0.007
-688.354	-200.000	0.030	-0.160
-687.339	-137.383	0.234	0.027
-686.324	-200.000	-0.014	0.131
-685.310	-200.000	0.031	0.250
-684.295	12.056	-0.476	0.367
-683.281	-123.273	-0.228	0.036
-682.266	-116.680	-0.333	-0.061
-681.251	800.000	-0.069	0.259
-680.237	-101.678	0.190	-0.046
-679.222	800.000	0.078	-0.320
-678.208	-85.446	-0.296	0.092
-677.193	-101.320	0.358	0.088
-676.178	312.495	-0.110	-0.207
-675.164	184.519	-0.238	-0.353
-674.149	350.032	-0.219	0.434
-673.135	316.628	-0.017	0.033
-672.120	-92.976	-0.119	0.033
-671.105	-65.639	-0.461	-0.185
-670.091	-200.000	-0.002	0.099
-669.076	-116.265	0.120	-0.022
-668.062	-200.000	0.009	0.048
-667.047	10.717	0.043	-0.033
-666.032	-23.626	0.131	-0.079
-665.018	198.392	0.086	0.131
-664.003	147.135	-0.133	-0.180
-662.989	514.118	-0.072	0.168
-661.974	-19.326	-0.327	-0.203
-660.959	-93.704	-0.513	0.142
-659.945	253.297	0.113	-0.193
-658.930	-88.616	0.212	-0.063
-657.916	800.000	-0.154	0.489
-656.901	-2.598	-0.162	-0.114
-655.886	-9.280	0.242	0.162
-654.872	-200.000	-0.020	-0.449
-653.857	106.435	-0.363	-0.431
-652.843	-54.416	0.157	-0.071
-651.828	13.088	-0.333	0.258
-650.814	-149.397	0.322	-0.026
-649.799	157.913	-0.213	-0.296
-648.784	-5.229	0.075	0.052
-647.770	-54.672	-0.049	-0.022
-646.755	-200.000	0.008	0.177
-645.741	-200.000	0.002	0.044
-644.726	-133.905	-0.227	0.028
-643.711	-21.363	-0.198	0.121
-642.697	800.000	0.076	0.219
-641.682	5.204	0.152	0.112
-640.668	-89.544	-0.464	0.137
-639.653	120.143	-0.110	-0.136
-638.638	-42.258	-0.305	-0.156
-637.624	353.678	-0.073	0.145
-636.609	-43.360	-0.058	0.029
-635.595	-59.096	-0.191	-0.082
-634.580	-200.000	-0.014	0.141
-633.565	114.147	-0.207	-0.252
-632.551	-32.418	0.050	0.028
-631.536	26.009	-0.246	0.205
-630.522	-98.964	-0.142	-0.036
-629.507	-200.000	-0.001	0.231
-628.492	-17.196	0.408	0.258
-627.478	82.834	0.103	0.113
-626.463	-200.000	0.023	0.107
-625.449	149.821	-0.039	-0.053
-624.434	572.142	-0.162	0.396
-623.419	103.548	-0.044	-0.051
-622.405	-81.857	-0.367	0.120
-621.390	75.108	-0.120	-0.127
-620.376	-105.992	-0.070	-0.016
-619.361	-52.959	-0.057	0.026
-618.346	-200.000	0.001	0.116
-617.332	-183.207	-0.356	-0.006
-616.317	58.817	-0.395	-0.389
-615.303	19.510	0.124	0.100
-614.288	-147.196	0.243	-0.021
-613.273	-85.261	0.198	-0.062
-612.259	-144.901	0.416	-0.038
-611.244	-15.290	-0.309	-0.198
-610.230	-73.906	-0.304	0.110
-609.215	579.593	-0.065	0.159
-608.201	-68.821	-0.225	0.087
-607.186	-200.000	-0.074	0.418
-606.171	-29.382	0.212	0.122
-605.157	21.832	-0.197	-0.160
-604.142	619.500	0.110	-0.277
-603.128	66.470	0.229	0.232
-602.113	21.293	-0.059	0.048
-601.098	172.081	0.101	-0.145
-600.084	-110.132	-0.251	0.052
-599.069	89.093	0.216	0.241
-598.055	549.279	0.131	0.313
-597.040	324.806	-0.043	0.082
-596.025	-200.000	-0.014	0.080
-595.011	-15.472	-0.096	0.061
-593.996	251.135	-0.081	-0.137
-592.982	-111.141	-0.241	0.049
-591.967	667.813	-0.091	-0.236
-590.952	800.000	0.025	0.097
-589.938	-160.903	0.219	-0.012
-588.923	1.395	0.334	-0.240
-587.909	-95.354	0.186	-0.050
-586.894	-33.218	-0.113	0.063
-585.879	-108.568	-0.294	-0.063
-584.865	800.000	0.050	-0.166
-583.850	147.529	-0.108	-0.146
-582.836	800.000	0.023	-0.069
-581.821	14.805	0.139	0.109
-580.806	-125.188	0.126	-0.019
-579.792	-5.031	0.134	0.092
-578.777	-82.894	-0.096	-0.031
-577.763	-162.292	-0.247	-0.012
-576.748	-131.545	-0.137	0.018
-575.733	-200.000	-0.044	0.263
-574.719	34.595	-0.157	0.137
-573.704	-43.082	0.330	0.167
-572.690	800.000	-0.010	0.042
-571.675	244.714	0.054	0.091
-570.661	-194.342	-0.023	-0.000
-569.646	-200.000	-0.035	-0.384
-568.631	548.013	-0.019	0.046
-567.617	-159.042	-0.527	0.030
-566.602	79.097	-0.166	0.177
-565.588	523.233	0.069	-0.161
-564.573	-24.080	-0.163	-0.097
-563.558	-87.408	0.407	0.123
-562.544	142.860	0.169	0.224
-561.529	659.610	0.051	0.131
-560.515	23.912	0.140	-0.115
-559.500	-22.671	-0.095	0.057
-558.485	-4.712	0.015	0.010
-557.471	-85.005	-0.285	-0.089
-556.456	69.137	0.132	0.136
-555.442	444.207	-0.136	-0.298
-554.427	99.717	0.118	-0.136
-553.412	-200.000	0.049	-0.242
-552.398	-156.536	-0.358	0.022
-551.383	-2.612	-0.159	-0.111
-550.369	118.808	0.266	-0.328
-549.354	444.572	0.143	-0.313
-548.339	16.732	0.141	0.111
-547.325	-94.491	-0.103	0.028
-546.310	-200.000	-0.029	-0.224
-545.296	-111.653	-0.250	-0.051
-544.281	81.481	-0.039	-0.042
-543.266	152.361	0.145	0.197
-542.252	99.530	-0.089	0.103
-541.237	25.957	-0.219	0.182
-540.223	800.000	-0.026	-0.078
-539.208	258.556	0.091	-0.156
-538.193	486.075	-0.039	-0.090
-537.179	-1.230	-0.239	0.168
-536.164	-200.000	-0.053	-0.467
-535.150	234.003	-0.060	0.098
-534.135	-72.917	0.095	0.035
-533.121	589.224	0.152	-0.374
-532.106	-200.000	-0.050	-0.338
-531.091	-101.763	-0.119	0.029
-530.077	33.217	-0.131	0.113
-529.062	576.699	0.095	0.231
-528.048	-200.000	-0.060	0.275
-527.033	-68.299	0.084	0.033
-526.018	-200.000	0.064	0.445
-525.004	126.733	-0.100	0.126
-523.989	-200.000	0.045	-0.274
-522.975	-105.537	0.311	-0.070
-521.960	-152.384	-0.047	0.003
-520.945	-57.216	-0.139	-0.061
-519.931	23.335	0.157	0.129
-518.916	-164.807	-0.228	-0.010
-517.902	116.729	0.070	-0.086
-516.887	88.376	-0.195	-0.216
-515.872	68.371	0.052	0.053
-514.858	-200.000	-0.028	-0.260
-513.843	654.286	-0.098	-0.250
-512.829	-123.453	0.044	-0.007
-511.814	61.461	0.197	-0.195
-510.799	-200.000	-0.043	-0.281
-509.785	180.137	-0.186	0.272
-508.770	537.884	-0.101	-0.238
-507.756	-36.858	-0.203	-0.109
-506.741	-45.698	-0.378	-0.186
-505.726	-37.922	-0.542	0.287
-504.712	-200.000	-0.048	0.350
-503.697	-43.931	-0.135	-0.068
-502.683	162.371	0.123	0.172
-501.668	-17.320	-0.238	-0.149
-500.653	800.000	-0.114	0.353
-499.639	76.716	-0.095	-0.101
-498.624	161.142	0.037	-0.051
-497.610	131.457	-0.068	0.087
-496.595	-200.000	-0.013	0.326
-495.581	800.000	-0.049	-0.149
-494.566	104.183	-0.214	0.250
-493.551	-80.202	-0.108	-0.036
-492.537	-144.824	0.138	0.013
-491.522	-103.282	-0.218	0.051
-490.508	800.000	0.100	-0.312
-489.493	583.021	0.113	-0.275
-488.478	690.324	-0.066	0.172
-487.464	-113.452	-0.225	0.044
-486.449	-37.520	-0.148	0.079
-485.435	333.944	0.018	0.034
-484.420	263.721	0.059	-0.103
-483.405	-52.215	0.144	0.067
-482.391	457.275	-0.121	0.268
-481.376	209.329	0.088	0.138
-480.362	165.570	-0.220	0.309
-479.347	110.274	0.147	0.176
-478.332	75.292	0.197	-0.207
-477.318	-200.000	-0.002	-0.132
-476.303	414.479	-0.108	-0.229
-475.289	111.368	0.080	-0.096
-474.274	37.401	-0.137	0.121
-473.259	-24.768	-0.238	0.141
-472.245	-200.000	0.036	-0.231
-471.230	256.800	-0.142	-0.243
-470.216	13.709	-0.254	-0.196
-469.201	-103.217	-0.193	0.045
-468.186	-122.416	0.243	0.039
-467.172	186.312	0.102	0.151
-466.157	39.807	-0.156	0.140
-465.143	17.124	-0.165	-0.130
-464.128	54.210	-0.111	0.107
-463.113	-6.634	-0.125	0.085
-462.099	800.000	-0.077	-0.250
-461.084	-200.000	-0.042	-0.348
-460.070	-129.293	0.273	-0.038
-459.055	276.676	0.048	0.085
-458.040	-200.000	-0.028	0.223
-457.026	259.261	0.082	-0.142
-456.011	-130.243	-0.470	-0.064
-454.997	-98.377	0.108	-0.028
-453.982	-12.067	0.107	0.069
-452.968	-136.265	0.173	0.020
-451.953	-81.746	-0.218	-0.071
-450.938	-200.000	0.006	-0.095
-449.924	-160.989	0.236	-0.012
-448.909	-46.732	0.060	-0.029
-447.895	1.620	0.219	0.157
-446.880	-85.518	-0.338	-0.105
-445.865	129.846	-0.205	-0.260
-444.851	-24.498	0.225	0.133
-443.836	208.976	0.036	0.055
-442.822	-200.000	0.019	-0.273
-441.807	33.468	-0.304	0.262
-440.792	177.980	0.060	-0.088
-439.778	-200.000	0.014	0.250
-438.763	-200.000	0.056	0.282
-437.749	503.247	-0.093	0.215
-436.734	-40.187	0.176	0.091
-435.719	-40.159	0.146	0.075
-434.705	179.655	-0.176	-0.256
-433.690	84.240	-0.088	-0.095
-432.676	-200.000	-0.012	0.082
-431.661	90.531	-0.197	0.219
-430.646	69.604	0.198	-0.202
-429.632	-200.000	0.050	-0.244
-428.617	-200.000	0.052	0.383
-427.603	-120.136	-0.100	0.017
-426.588	-93.907	0.213	0.058
-425.573	731.302	-0.052	-0.138
-424.559	-200.000	-0.040	-0.199
-423.544	-85.021	-0.193	-0.060
-422.530	199.697	-0.127	0.193
-421.515	-200.000	-0.008	0.121
-420.500	800.000	0.130	-0.393
-419.486	209.769	-0.094	0.147
-418.471	-200.000	0.022	0.140
-417.457	800.000	0.079	-0.243
-416.442	-187.494	0.154	0.002
-415.428	76.328	-0.152	-0.159
-414.413	44.839	0.245	0.223
-413.398	-36.562	0.310	0.166
-412.384	99.712	-0.237	-0.272
-411.369	-70.476	0.223	0.084
-410.355	157.074	-0.127	0.174
-409.340	43.244	0.197	-0.179
-408.325	-200.000	0.037	0.180
-407.311	281.424	0.160	-0.284
-406.296	-200.000	0.029	-0.236
-405.282	114.879	0.188	-0.228
-404.267	800.000	-0.030	0.112
-403.252	-137.037	-0.374	-0.042
-402.238	98.503	0.313	-0.358
-401.223	-34.426	-0.194	0.106
-400.209	800.000	0.082	-0.279
-399.194	390.555	0.034	0.071
-398.179	-200.000	0.085	-0.406
-397.165	-98.450	0.398	0.101
-396.150	-41.237	-0.101	0.051
-395.136	131.428	0.109	-0.138
-394.121	440.187	0.082	-0.178
-393.106	-42.116	0.205	0.104
-392.092	-44.480	0.170	-0.084
-391.077	800.000	-0.064	-0.190
-390.063	5.172	0.165	0.121
-389.048	83.938	0.389	0.422
-388.033	800.000	0.064	0.204
-387.019	-126.547	-0.301	0.044
-386.004	-106.231	0.300	0.067
-384.990	190.962	0.065	-0.097
-383.975	-20.946	-0.049	0.030
-382.960	-61.573	-0.179	-0.075
-381.946	-180.011	-0.265	0.006
-380.931	-200.000	-0.018	-0.188
-379.917	-142.641	0.120	-0.012
-378.902	-200.000	-0.018	-0.226
-377.888	417.317	0.056	0.119
-376.873	-17.355	0.151	0.094
-375.858	-135.176	0.345	-0.041
-374.844	-196.051	0.190	-0.001
-373.829	-200.000	0.016	-0.253
-372.815	-200.000	0.008	0.103
-371.800	30.961	0.184	0.156
-370.785	-9.916	-0.101	0.067
-369.771	-126.948	0.136	-0.020
-368.756	800.000	-0.036	-0.143
-367.742	87.248	-0.111	-0.121
-366.727	11.430	-0.147	0.111
-365.712	-200.000	0.011	-0.108
-364.698	-200.000	-0.009	0.077
-363.683	-142.855	0.295	-0.028
-362.669	304.097	0.058	-0.107
-361.654	-200.000	0.144	0.001
-360.639	44.751	0.098	0.089
-359.625	800.000	0.073	0.315
-358.610	138.334	0.244	0.317
-357.596	71.098	0.199	-0.205
-356.581	-200.000	0.021	-0.109
-355.566	5.578	-0.148	-0.108
-354.552	-78.879	-0.080	-0.027
-353.537	239.075	0.015	0.025
-352.523	-8.081	-0.246	0.164
-351.508	-200.000	0.007	0.079
-350.493	598.631	0.015	-0.037
-349.479	-200.000	-0.021	-0.163
-348.464	-194.387	-0.280	0.002
-347.450	55.392	-0.302	-0.290
-346.435	-57.739	0.283	-0.122
-345.420	150.115	-0.169	-0.227
-344.406	8.053	0.058	0.043
-343.391	-1.208	0.056	-0.039
-342.377	175.962	0.064	0.091
-341.362	-12.127	0.290	0.188
-340.348	-36.614	-0.181	0.097
-339.333	60.865	-0.158	-0.155
-338.318	-65.500	0.153	-0.061
-337.304	-115.205	-0.304	-0.057
-336.289	319.947	-0.099	-0.187
-335.275	-65.656	0.138	-0.055
-334.260	-166.780	0.302	0.012
-333.245	-88.773	-0.267	0.078
-332.231	-19.605	0.336	-0.206
-331.216	-36.676	0.150	-0.080
-330.202	100.459	0.164	-0.188
-329.187	-133.597	0.220	-0.027
-328.172	629.401	0.044	-0.110
-327.158	-157.564	-0.406	-0.024
-326.143	-200.000	0.023	-0.109
-325.129	116.941	-0.162	-0.197
-324.114	292.367	-0.143	-0.258
-323.099	-113.610	-0.068	-0.013
-322.085	35.552	-0.294	0.255
-321.070	-34.198	-0.126	-0.069
-320.056	-65.098	0.091	-0.036
-319.041	115.609	0.271	0.328
-318.026	499.834	0.036	-0.082
-317.012	800.000	0.069	0.219
-315.997	554.165	0.030	0.072
-314.983	74.340	-0.116	-0.121
-313.968	-131.062	0.216	-0.028
-312.953	-117.080	-0.326	0.059
-311.939	-95.027	-0.020	-0.005
-310.924	-34.189	-0.203	0.110
-309.910	275.677	-0.127	0.223
-308.895	375.927	0.166	-0.336
-307.880	-200.000	-0.006	-0.082
-306.866	493.936	0.026	-0.060
-305.851	-32.535	0.074	0.040
-304.837	517.466	0.024	0.056
-303.822	-200.000	0.029	-0.192
-302.807	-143.613	0.273	-0.026
-301.793	426.171	0.159	0.339
-300.778	94.749	0.200	-0.225
-299.764	37.079	-0.062	0.054
-298.749	-151.366	-0.369	-0.027
-297.735	-200.000	-0.008	0.058
-296.720	-48.861	0.243	0.115
-295.705	-110.321	-0.120	-0.025
-294.691	-200.000	0.018	0.249
-293.676	15.890	0.249	0.193
-292.662	-200.000	0.010	0.135
-291.647	55.189	-0.245	0.234
-290.632	119.565	0.065	0.079
-289.618	-0.774	0.047	0.033
-288.603	-26.764	-0.034	0.020
-287.589	-105.501	-0.159	0.036
-286.574	-46.662	0.308	0.149
-285.559	185.992	0.060	-0.088
-284.545	-200.000	0.026	-0.113
-283.530	-200.000	0.024	0.258
-282.516	-86.512	-0.113	-0.034
-281.501	-83.759	0.159	-0.050
-280.486	800.000	-0.120	0.385
-279.472	800.000	-0.071	0.243
-278.457	62.699	0.264	0.261
-277.443	-5.489	0.168	-0.114
-276.428	626.999	-0.099	0.246
-275.413	248.681	0.110	-0.184
-274.399	800.000	0.070	0.259
-273.384	154.087	-0.035	-0.048
-272.370	334.479	-0.228	-0.437
-271.355	800.000	-0.035	0.101
-270.340	331.861	0.270	0.515
-269.326	-200.000	0.018	0.334
-268.311	-200.000	-0.009	0.139
-267.297	618.341	0.098	-0.242
-266.282	-27.487	-0.175	0.100
-265.267	45.935	0.066	0.060
-264.253	429.849	0.144	-0.307
-263.238	-56.913	-0.046	0.020
-262.224	138.762	0.090	0.117
-261.209	103.959	-0.257	-0.298
-260.195	72.494	0.355	-0.365
-259.180	-200.000	-0.017	-0.250
-258.165	12.438	0.101	0.077
-257.151	289.536	0.085	-0.152
-256.136	63.461	0.197	0.195
-255.122	800.000	0.012	-0.050
-254.107	-9.516	0.158	0.104
-253.092	777.092	0.067	0.180
-252.078	-38.492	0.255	0.133
-251.063	-200.000	-0.049	-0.222
-250.049	136.719	0.068	0.088
-249.034	-58.619	0.281	0.120
-248.019	-100.705	0.137	-0.033
-247.005	20.752	0.440	0.352
-245.990	800.000	0.068	0.216
-244.976	217.515	0.072	-0.113
-243.961	-8.739	0.064	-0.042
-242.946	166.451	0.253	0.354
-241.932	-167.746	0.147	0.006
-240.917	-0.623	0.427	-0.299
-239.903	-76.109	-0.300	-0.104
-238.888	-200.000	-0.013	-0.137
-237.873	356.937	-0.134	-0.263
-236.859	800.000	0.063	0.209
-235.844	-49.560	-0.229	0.107
-234.830	-52.322	0.250	0.114
-233.815	100.836	-0.081	-0.093
-232.800	800.000	0.087	-0.301
-231.786	-91.081	0.126	0.036
-230.771	-79.414	-0.362	-0.121
-229.757	134.893	0.088	0.112
-228.742	-30.950	0.236	0.132
-227.727	-200.000	-0.012	0.149
-226.713	-50.154	0.294	0.137
-225.698	277.359	-0.128	0.224
-224.684	-190.544	-0.154	0.002
-223.669	800.000	0.021	0.080
-222.655	19.545	-0.098	-0.078
-221.640	85.253	-0.082	0.089
-220.625	-49.595	0.344	-0.161
-219.611	369.893	-0.009	-0.017
-218.596	-105.533	0.255	0.057
-217.582	-49.341	-0.087	-0.041
-216.567	-41.515	-0.273	-0.138
-215.552	651.604	0.160	-0.405
-214.538	-135.204	0.119	-0.014
-213.523	-27.251	0.078	0.045
-212.509	196.151	0.120	-0.180
-211.494	800.000	0.054	0.166
-210.479	-154.940	-0.165	0.011
-209.465	19.249	0.150	-0.119
-208.450	-31.613	0.242	0.134
-207.436	-48.152	0.241	0.115
-206.421	100.859	-0.215	0.246
-205.406	82.074	-0.143	0.153
-204.392	734.990	0.039	0.102
-203.377	-200.000	-0.045	-0.223
-202.363	27.308	0.191	0.158
-201.348	-200.000	-0.109	0.492
-200.333	40.218	-0.324	0.287
-199.319	508.773	-0.147	-0.336
-198.304	-200.000	-0.043	-0.486
-197.290	-200.000	0.035	0.308
-196.275	-82.788	0.119	0.038
-195.260	-67.821	-0.216	0.083
-194.246	26.475	0.266	0.219
-193.231	-99.509	-0.204	-0.051
-192.217	415.777	0.062	-0.131
-191.202	65.103	-0.040	-0.039
-190.187	-123.412	-0.205	-0.032
-189.173	-200.000	-0.021	0.474
-188.158	800.000	0.080	-0.342
-187.144	800.000	0.029	0.092
-186.129	-165.501	0.304	-0.013
-185.114	346.141	-0.077	0.148
-184.100	82.041	-0.185	-0.198
-183.085	237.281	0.100	0.163
-182.071	55.856	-0.280	0.267
-181.056	-12.220	0.078	0.050
-180.042	2.712	0.116	-0.083
-179.027	-9.838	-0.088	0.058
-178.012	-145.720	-0.242	0.021
-176.998	248.401	0.082	0.137
-175.983	-176.989	-0.012	-0.000
-174.969	-200.000	-0.018	-0.228
-173.954	-58.285	0.409	0.175
-172.939	-77.002	-0.174	-0.060
-171.925	-200.000	0.034	-0.159
-170.910	-95.162	0.319	0.085
-169.896	-20.931	-0.058	0.035
-168.881	-35.111	-0.180	-0.096
-167.866	30.696	0.204	-0.171
-166.852	57.994	0.028	-0.027
-165.837	-85.348	-0.183	-0.056
-164.823	-56.071	0.254	-0.111
-163.808	495.762	-0.113	-0.255
-162.793	20.140	0.366	-0.291
-161.779	584.427	0.087	-0.210
-160.764	-157.497	-0.188	0.011
-159.750	-200.000	-0.036	0.244
-158.735	-200.000	-0.009	0.071
-157.720	-200.000	0.010	-0.391
-156.706	800.000	0.025	0.095
-155.691	-45.520	0.183	0.089
-154.677	144.257	-0.044	-0.057
-153.662	-42.903	-0.450	-0.225
-152.647	-200.000	-0.066	-0.389
-151.633	-114.409	0.355	-0.067
-150.618	-51.081	0.418	0.193
-149.604	54.058	-0.200	-0.189
-148.589	-78.205	0.331	0.112
-147.574	-67.915	-0.124	-0.048
-146.560	-200.000	0.025	0.250
-145.545	338.763	0.088	0.168
-144.531	-148.306	0.463	-0.037
-143.516	299.944	-0.066	-0.120
-142.502	165.142	-0.146	0.202
-141.487	800.000	0.072	-0.228
-140.472	-86.787	-0.301	-0.091
-139.458	474.116	-0.089	-0.196
-138.443	-29.708	0.254	0.142
-137.429	-60.391	0.229	0.096
-136.414	129.741	-0.080	0.101
-135.399	-200.000	0.003	0.074
-134.385	5.606	0.043	-0.031
-133.370	-31.510	0.212	0.117
-132.356	-200.000	0.027	-0.193
-131.341	272.162	-0.193	0.333
-130.326	165.960	0.285	0.397
-129.312	-115.821	0.219	-0.040
-128.297	-200.000	-0.010	0.457
-127.283	260.814	-0.183	0.312
-126.268	89.304	0.134	-0.147
-125.253	-200.000	-0.032	-0.153
-124.239	-50.990	-0.106	-0.049
-123.224	-51.453	-0.044	-0.020
-122.210	16.630	0.072	-0.056
-121.195	50.862	0.339	0.315
-120.180	78.214	0.180	0.188
