DTS Sentinel unit serial number:	SN413079Multiplexer serial number:	ORYXHardware model number:	OX4-SRSoftware version number:	ORYX F/W v4.00 Oryx Data Collector v3.7.2.0data status	okinstallation	princeton_trtdifferential loss correction	single-endedforward channel	channel 2reverse channel	N/Adate	2019/09/12time	04:49:10forward acquisition time	60.00reverse acquisition time	0.00gamma	496.2192k internal	0.2327k external	0.2327temperature offset calibration	1.0089default loss term (dB/km)	0.3790temperature slope calibration	1.0000multiplexer offset coefficient	1.0000multiplexer slope coefficient	1.0000fibre end	0.00T internal ref (°C)	31.67T ext. ref 1 (°C)	2.04T ext. ref 2 (°C)	27.28length (m)	temperature (°C)	Stokes	anti-Stokes-747.200	-180.184	0.314	0.007
-746.185	12.607	-0.254	0.197
-745.171	-200.000	0.056	0.333
-744.156	253.253	0.023	0.039
-743.142	551.686	0.118	-0.285
-742.127	-97.392	-0.157	0.041
-741.112	383.621	0.072	0.150
-740.098	-159.213	0.181	0.010
-739.083	-146.078	0.230	-0.020
-738.069	484.871	-0.148	0.341
-737.054	800.000	-0.068	0.237
-736.039	-82.766	-0.344	0.112
-735.025	-98.260	-0.187	-0.048
-734.010	-42.416	-0.306	-0.157
-732.996	56.967	-0.267	-0.263
-731.981	-98.715	0.212	-0.054
-730.966	-74.592	-0.052	0.019
-729.952	354.376	0.033	0.065
-728.937	132.644	-0.297	-0.386
-727.923	65.427	0.075	0.077
-726.908	361.018	-0.091	-0.184
-725.894	-23.937	-0.224	0.135
-724.879	-200.000	-0.005	0.134
-723.864	-60.421	-0.306	-0.131
-722.850	-200.000	-0.002	0.075
-721.835	-200.000	-0.017	-0.152
-720.821	15.190	0.144	-0.113
-719.806	-200.000	0.046	-0.299
-718.791	-97.380	0.316	0.083
-717.777	-200.000	-0.388	0.000
-716.762	55.992	0.069	-0.068
-715.748	277.446	-0.208	-0.372
-714.733	496.096	-0.075	-0.173
-713.718	-91.549	-0.329	0.094
-712.704	141.048	0.130	0.173
-711.689	145.386	-0.065	0.088
-710.675	-52.373	-0.064	-0.030
-709.660	14.964	0.229	-0.181
-708.645	800.000	-0.018	-0.068
-707.631	-200.000	-0.007	0.093
-706.616	283.120	-0.067	0.121
-705.602	-22.808	0.078	0.047
-704.587	-89.920	-0.136	0.040
-703.572	8.894	-0.129	-0.098
-702.558	277.614	-0.176	-0.315
-701.543	-24.572	0.318	0.191
-700.529	-113.502	0.186	-0.037
-699.514	800.000	-0.055	0.188
-698.499	-200.000	0.029	-0.233
-697.485	800.000	-0.081	-0.265
-696.470	-58.384	-0.320	0.140
-695.456	252.124	0.147	-0.252
-694.441	-133.902	-0.411	0.051
-693.426	-200.000	0.018	0.122
-692.412	458.478	0.158	-0.355
-691.397	185.748	-0.154	0.230
-690.383	-66.792	-0.222	0.088
-689.368	-33.878	-0.173	0.096
-688.354	800.000	0.051	-0.197
-687.339	-200.000	0.021	-0.201
-686.324	-11.804	-0.400	-0.264
-685.310	-93.389	-0.053	0.015
-684.295	-156.672	-0.091	0.006
-683.281	-200.000	0.036	-0.186
-682.266	378.668	0.017	-0.035
-681.251	328.238	0.152	-0.294
-680.237	-81.141	0.145	-0.048
-679.222	540.845	-0.083	0.199
-678.208	19.372	0.136	0.110
-677.193	671.423	-0.063	0.164
-676.178	-163.743	0.113	-0.005
-675.164	510.148	-0.155	-0.363
-674.149	-87.348	-0.282	-0.086
-673.135	800.000	-0.084	-0.326
-672.120	-65.513	0.125	0.050
-671.105	-200.000	-0.002	-0.183
-670.091	141.649	0.025	0.033
-669.076	-3.152	-0.032	-0.022
-668.062	550.537	-0.121	-0.291
-667.047	145.639	-0.199	-0.269
-666.032	-200.000	0.024	-0.118
-665.018	472.276	-0.027	0.061
-664.003	-200.000	-0.018	0.386
-662.989	510.139	0.088	-0.205
-661.974	562.663	-0.097	0.237
-660.959	202.439	-0.026	0.040
-659.945	-125.860	0.115	-0.018
-658.930	484.327	-0.074	-0.170
-657.916	1.586	0.308	0.223
-656.901	30.534	0.222	0.191
-655.886	-168.069	-0.239	0.009
-654.872	575.794	0.034	-0.084
-653.857	-179.370	-0.295	-0.007
-652.843	494.200	-0.149	-0.344
-651.828	-167.827	0.240	-0.009
-650.814	800.000	-0.091	-0.375
-649.799	240.584	0.310	-0.519
-648.784	536.861	0.040	-0.095
-647.770	-103.204	0.187	0.044
-646.755	-52.114	0.052	-0.024
-645.741	-73.730	0.103	0.038
-644.726	-33.525	-0.337	0.187
-643.711	4.462	-0.082	0.061
-642.697	682.348	-0.131	-0.344
-641.682	-26.372	-0.091	-0.054
-640.668	725.596	-0.108	-0.290
-639.653	-67.369	0.205	0.081
-638.638	800.000	0.033	0.095
-637.624	-44.837	0.047	-0.023
-636.609	37.317	-0.246	-0.219
-635.595	20.038	0.127	0.103
-634.580	800.000	0.033	0.097
-633.565	157.725	-0.135	-0.188
-632.551	-107.645	-0.350	0.077
-631.536	-200.000	0.018	0.111
-630.522	800.000	0.129	-0.454
-629.507	-5.156	-0.076	0.052
-628.492	-21.843	-0.050	0.030
-627.478	249.987	-0.071	0.121
-626.463	-98.281	0.097	-0.025
-625.449	-104.716	0.152	0.035
-624.434	555.604	0.206	-0.498
-623.419	-95.568	0.427	-0.115
-622.405	-99.860	-0.264	-0.066
-621.390	2.413	0.064	-0.046
-620.376	-97.438	0.046	0.012
-619.361	-98.243	-0.097	-0.025
-618.346	239.753	0.151	0.252
-617.332	-94.241	-0.215	-0.059
-616.317	183.404	0.218	-0.323
-615.303	-34.416	-0.310	0.171
-614.288	102.022	-0.146	0.171
-613.273	-59.014	0.185	-0.080
-612.259	800.000	0.060	-0.217
-611.244	-130.474	0.035	0.005
-610.230	-153.197	-0.209	-0.015
-609.215	-200.000	-0.014	-0.092
-608.201	771.405	-0.079	-0.217
-607.186	-200.000	0.011	0.185
-606.171	800.000	-0.071	-0.300
-605.157	-200.000	-0.002	-0.235
-604.142	-102.828	-0.199	0.047
-603.128	75.498	-0.243	-0.257
-602.113	-200.000	0.032	-0.329
-601.098	275.737	0.052	-0.092
-600.084	198.083	-0.148	0.226
-599.069	134.421	-0.193	0.251
-598.055	-10.379	0.190	0.126
-597.040	367.121	-0.206	-0.416
-596.025	-19.459	0.180	0.112
-595.011	157.635	-0.084	0.117
-593.996	-200.000	0.011	-0.150
-592.982	-200.000	0.001	-0.100
-591.967	116.405	0.138	-0.169
-590.952	-200.000	0.014	0.396
-589.938	259.791	0.060	0.104
-588.923	-20.292	-0.139	-0.086
-587.909	-81.902	0.209	-0.068
-586.894	800.000	-0.108	-0.413
-585.879	544.346	0.076	-0.181
-584.865	-123.150	-0.259	0.042
-583.850	800.000	-0.035	0.127
-582.836	-62.633	0.168	0.070
-581.821	-10.434	-0.304	-0.202
-580.806	-47.709	-0.054	0.026
-579.792	-56.905	0.095	-0.042
-578.777	-21.443	0.087	0.053
-577.763	-142.820	-0.122	0.012
-576.748	-6.528	0.257	-0.175
-575.733	-46.594	-0.256	0.126
-574.719	-170.455	0.089	0.003
-573.704	-115.313	0.154	0.029
-572.690	-200.000	0.001	-0.196
-571.675	-47.251	-0.231	0.113
-570.661	-113.411	-0.094	0.018
-569.646	-76.895	0.120	0.042
-568.631	-161.044	-0.127	0.007
-567.617	109.257	-0.138	0.165
-566.602	-137.141	0.329	-0.038
-565.588	45.183	0.133	0.123
-564.573	-29.759	0.114	0.065
-563.558	798.819	0.111	0.306
-562.544	77.686	0.086	0.091
-561.529	130.721	-0.163	0.209
-560.515	-200.000	0.003	-0.037
-559.500	-200.000	-0.076	0.354
-558.485	-200.000	-0.026	0.437
-557.471	29.092	0.062	0.053
-556.456	-57.020	0.322	0.142
-555.442	0.729	0.199	0.143
-554.427	-191.624	-0.297	0.003
-553.412	-48.326	0.151	0.073
-552.398	474.004	0.104	-0.235
-551.383	38.350	0.150	-0.133
-550.369	-200.000	0.002	-0.199
-549.354	800.000	-0.062	-0.211
-548.339	-113.215	0.193	0.038
-547.325	-152.031	-0.310	0.023
-546.310	630.564	0.063	-0.159
-545.296	-200.000	0.039	0.230
-544.281	-63.862	-0.056	-0.023
-543.266	174.744	-0.120	-0.174
-542.252	-64.048	0.139	0.057
-541.237	-21.999	0.387	-0.235
-540.223	800.000	-0.068	0.221
-539.208	639.733	0.089	0.227
-538.193	-60.745	0.126	-0.053
-537.179	-162.023	-0.239	0.012
-536.164	-200.000	0.008	0.252
-535.150	2.418	0.081	0.058
-534.135	17.435	-0.183	0.145
-533.121	494.218	0.069	0.159
-532.106	-200.000	0.060	0.290
-531.091	-125.127	0.413	0.063
-530.077	44.855	-0.090	-0.082
-529.062	50.593	-0.163	0.154
-528.048	-135.493	-0.136	-0.016
-527.033	80.146	0.085	-0.092
-526.018	-1.016	0.172	-0.121
-525.004	578.423	-0.125	0.304
-523.989	17.878	-0.231	-0.184
-522.975	-92.106	0.011	-0.003
-521.960	243.376	-0.103	-0.173
-520.945	3.981	0.279	-0.204
-519.931	1.762	0.152	0.109
-518.916	-22.280	0.069	-0.042
-517.902	-102.143	0.186	-0.045
-516.887	34.645	-0.089	-0.078
-515.872	-64.676	-0.265	-0.107
-514.858	625.365	-0.072	-0.181
-513.843	392.942	0.126	-0.262
-512.829	35.469	0.181	0.159
-511.814	-69.590	0.125	-0.048
-510.799	800.000	-0.147	-0.550
-509.785	-200.000	0.012	0.080
-508.770	-45.029	0.307	-0.153
-507.756	-121.831	0.485	-0.080
-506.741	-44.686	-0.237	-0.118
-505.726	23.831	-0.243	-0.200
-504.712	-108.230	0.292	-0.063
-503.697	657.292	0.127	-0.327
-502.683	-195.196	0.123	0.001
-501.668	265.262	0.070	0.121
-500.653	-200.000	0.030	-0.278
-499.639	167.686	-0.143	-0.203
-498.624	-200.000	0.027	-0.309
-497.610	-200.000	0.013	-0.295
-496.595	31.024	0.227	0.194
-495.581	18.514	0.357	0.285
-494.566	384.705	-0.235	0.483
-493.551	-152.653	-0.119	0.008
-492.537	731.271	0.104	0.277
-491.522	-114.775	-0.390	0.074
-490.508	-71.575	-0.242	0.090
-489.493	-175.268	0.297	-0.008
-488.478	30.534	-0.106	-0.091
-487.464	-6.926	0.270	-0.183
-486.449	696.153	-0.039	0.102
-485.435	-130.036	-0.411	0.056
-484.420	-114.305	0.232	0.045
-483.405	512.087	0.022	0.051
-482.391	-56.061	-0.359	-0.160
-481.376	-200.000	0.024	-0.160
-480.362	-3.840	-0.261	-0.181
-479.347	-101.565	0.241	0.058
-478.332	-200.000	-0.004	-0.021
-477.318	-141.005	-0.247	-0.025
-476.303	-200.000	-0.040	-0.368
-475.289	-65.019	-0.119	-0.048
-474.274	115.499	0.196	0.239
-473.259	7.029	-0.263	-0.195
-472.245	-17.992	0.225	0.140
-471.230	-109.619	0.351	0.074
-470.216	800.000	0.079	-0.264
-469.201	3.403	0.041	-0.030
-468.186	-105.444	-0.368	0.084
-467.172	507.552	0.023	-0.053
-466.157	-94.413	-0.272	-0.074
-465.143	-71.144	-0.230	-0.086
-464.128	800.000	0.033	-0.114
-463.113	-107.965	0.442	0.096
-462.099	-200.000	-0.005	-0.092
-461.084	754.608	-0.028	0.076
-460.070	800.000	0.094	-0.353
-459.055	-200.000	0.029	0.162
-458.040	112.005	0.236	0.284
-457.026	800.000	0.109	-0.366
-456.011	-198.871	0.088	0.000
-454.997	373.629	-0.130	-0.263
-453.982	367.140	-0.111	0.223
-452.968	117.750	0.101	-0.124
-451.953	93.743	0.226	0.255
-450.938	159.040	-0.151	-0.209
-449.924	-9.901	0.021	-0.014
-448.909	-5.862	-0.228	0.155
-447.895	587.593	0.072	-0.177
-446.880	-85.503	0.367	0.114
-445.865	800.000	0.096	0.284
-444.851	-200.000	0.006	0.176
-443.836	318.074	0.042	0.080
-442.822	-145.705	0.092	-0.008
-441.807	-152.072	-0.256	0.019
-440.792	800.000	0.060	-0.169
-439.778	320.768	-0.094	0.178
-438.763	-200.000	0.034	0.248
-437.749	-200.000	-0.043	-0.368
-436.734	321.345	0.153	0.291
-435.719	73.895	0.096	0.100
-434.705	-82.985	-0.098	-0.031
-433.690	-76.905	0.123	-0.043
-432.676	-66.461	0.229	-0.091
-431.661	-121.207	0.190	-0.032
-430.646	167.506	0.295	0.418
-429.632	26.321	-0.220	-0.183
-428.617	800.000	-0.080	0.300
-427.603	155.629	-0.039	0.054
-426.588	-135.304	0.243	-0.029
-425.573	89.131	-0.048	-0.053
-424.559	19.316	0.126	-0.100
-423.544	491.246	-0.052	0.117
-422.530	231.541	-0.059	0.096
-421.515	-200.000	-0.154	-0.000
-420.500	-152.662	-0.152	0.011
-419.486	-200.000	-0.026	-0.195
-418.471	-25.166	0.047	0.027
-417.457	124.510	0.285	-0.357
-416.442	-146.465	-0.319	0.028
-415.428	-55.370	-0.219	0.098
-414.413	-114.524	-0.370	0.071
-413.398	-40.650	-0.190	-0.098
-412.384	-40.343	0.240	-0.124
-411.369	800.000	-0.106	-0.307
-410.355	-180.331	0.114	0.002
-409.340	800.000	0.063	-0.270
-408.325	144.397	-0.183	0.243
-407.311	442.062	0.090	-0.196
-406.296	183.680	-0.085	0.125
-405.282	552.765	0.048	0.114
-404.267	210.064	-0.190	0.296
-403.252	34.212	-0.215	0.187
-402.238	-72.032	-0.466	0.172
-401.223	-41.265	-0.317	-0.163
-400.209	-138.940	-0.017	-0.002
-399.194	-9.602	-0.251	-0.166
-398.179	-10.468	-0.216	-0.142
-397.165	168.856	0.144	0.204
-396.150	262.569	0.088	-0.152
-395.136	77.015	0.085	-0.090
-394.121	-200.000	0.075	0.359
-393.106	42.035	0.160	0.144
-392.092	434.753	-0.010	0.021
-391.077	-35.277	0.224	-0.121
-390.063	124.657	0.118	-0.148
-389.048	56.129	-0.034	-0.032
-388.033	149.418	0.154	-0.208
-387.019	-111.757	-0.409	0.082
-386.004	-169.202	-0.093	0.003
-384.990	-26.334	-0.186	0.108
-383.975	-127.357	0.443	-0.064
-382.960	-101.966	0.082	0.020
-381.946	38.726	-0.165	-0.146
-380.931	207.434	0.126	0.195
-379.917	-91.494	-0.141	-0.040
-378.902	184.606	0.300	0.442
-377.888	572.820	-0.170	-0.411
-376.873	-115.471	0.104	0.019
-375.858	459.535	-0.134	-0.296
-374.844	800.000	-0.079	0.225
-373.829	-200.000	0.000	0.048
-372.815	-83.901	-0.232	0.073
-371.800	649.695	0.043	-0.108
-370.785	-139.868	0.322	0.034
-369.771	-200.000	-0.013	0.225
-368.756	-2.617	-0.284	0.197
-367.742	249.166	-0.132	0.222
-366.727	-200.000	-0.089	-0.000
-365.712	-69.804	-0.245	-0.093
-364.698	464.352	0.119	0.263
-363.683	-200.000	0.071	0.312
-362.669	800.000	-0.104	-0.333
-361.654	219.089	-0.255	-0.406
-360.639	98.501	0.190	0.218
-359.625	707.155	-0.040	0.105
-358.610	581.933	0.087	0.211
-357.596	656.456	0.121	-0.308
-356.581	80.640	-0.061	0.065
-355.566	-1.626	0.208	0.145
-354.552	-200.000	0.022	0.125
-353.537	122.282	-0.132	0.164
-352.523	-33.504	-0.497	0.273
-351.508	-25.965	-0.329	-0.192
-350.493	-199.908	0.321	-0.002
-349.479	800.000	0.098	0.409
-348.464	-200.000	-0.024	0.115
-347.450	-154.328	0.209	-0.014
-346.435	-128.649	0.046	0.006
-345.420	17.240	0.164	0.129
-344.406	243.798	0.134	-0.223
-343.391	-11.726	0.129	-0.084
-342.377	-30.256	0.142	-0.080
-341.362	800.000	0.176	0.505
-340.348	-114.074	-0.332	0.064
-339.333	-156.289	-0.072	-0.004
-338.318	112.409	-0.081	-0.097
-337.304	168.104	0.170	0.239
-336.289	-200.000	-0.009	0.226
-335.275	-200.000	-0.018	0.246
-334.260	-45.814	0.178	0.087
-333.245	422.779	0.091	0.195
-332.231	-11.419	0.242	0.158
-331.216	-115.648	-0.181	0.034
-330.202	-200.000	0.023	0.168
-329.187	-121.925	-0.395	0.065
-328.172	-100.014	-0.164	0.041
-327.158	495.538	0.133	-0.304
-326.143	412.512	-0.107	-0.226
-325.129	-158.966	-0.282	0.016
-324.114	-19.227	0.154	0.095
-323.099	-141.613	-0.275	0.027
-322.085	-36.308	0.313	-0.167
-321.070	-200.000	-0.000	-0.317
-320.056	16.842	0.220	-0.172
-319.041	289.907	-0.050	-0.090
-318.026	466.061	0.140	0.310
-317.012	-200.000	0.009	0.100
-315.997	32.545	-0.297	0.254
-314.983	77.286	0.151	0.160
-313.968	-128.539	0.432	0.061
-312.953	580.798	0.168	-0.408
-311.939	-15.888	-0.112	0.071
-310.924	4.796	0.114	-0.083
-309.910	-200.000	0.008	0.216
-308.895	-76.917	0.179	0.062
-307.880	143.849	0.092	0.122
-306.866	129.517	0.131	-0.166
-305.851	-44.011	0.215	0.107
-304.837	800.000	-0.052	0.169
-303.822	107.595	-0.223	-0.263
-302.807	-200.000	-0.002	0.046
-301.793	111.559	-0.087	-0.105
-300.778	-105.989	0.075	-0.017
-299.764	220.467	-0.025	0.039
-298.749	-200.000	-0.001	0.017
-297.735	-200.000	-0.013	-0.421
-296.720	-200.000	-0.001	-0.107
-295.705	56.127	-0.251	-0.242
-294.691	800.000	-0.058	0.194
-293.676	-150.130	-0.404	0.031
-292.662	191.922	-0.085	-0.127
-291.647	42.982	-0.228	-0.206
-290.632	-200.000	-0.015	-0.265
-289.618	-21.705	0.082	-0.049
-288.603	-200.000	-0.062	0.360
-287.589	-21.154	-0.129	0.078
-286.574	496.905	-0.134	-0.304
-285.559	197.064	0.096	-0.145
-284.545	176.171	-0.110	-0.158
-283.530	-5.152	-0.230	-0.156
-282.516	-7.362	-0.351	0.236
-281.501	178.207	0.201	-0.291
-280.486	95.123	-0.170	-0.191
-279.472	103.219	0.053	0.062
-278.457	-103.596	0.263	0.061
-277.443	-87.417	0.204	-0.061
-276.428	-6.114	-0.241	0.163
-275.413	450.022	0.182	0.397
-274.399	161.916	-0.164	0.228
-273.384	800.000	-0.058	0.163
-272.370	-86.373	-0.147	0.045
-271.355	540.837	0.044	0.103
-270.340	-74.107	-0.403	-0.145
-269.326	1.971	-0.166	0.119
-268.311	114.924	0.179	-0.215
-267.297	33.541	0.133	0.115
-266.282	450.294	0.104	0.227
-265.267	800.000	0.062	-0.195
-264.253	-66.701	0.048	-0.019
-263.238	-179.043	0.155	0.003
-262.224	-124.783	0.344	-0.053
-261.209	-200.000	-0.030	-0.209
-260.195	-27.955	-0.167	-0.096
-259.180	-67.520	-0.277	-0.107
-258.165	-200.000	0.004	0.066
-257.151	-65.320	-0.151	0.060
-256.136	-200.000	-0.029	-0.177
-255.122	-36.750	-0.050	0.026
-254.107	-200.000	0.064	-0.290
-253.092	67.485	0.214	0.216
-252.078	8.924	0.209	-0.156
-251.063	101.733	0.082	-0.094
-250.049	53.512	0.204	0.193
-249.034	-126.351	0.337	0.050
-248.019	800.000	-0.013	0.050
-247.005	800.000	-0.034	0.113
-245.990	60.883	0.113	0.111
-244.976	97.459	-0.213	0.242
-243.961	152.400	0.302	0.408
-242.946	-47.003	0.283	0.136
-241.932	157.412	0.103	-0.141
-240.917	-105.516	-0.275	-0.062
-239.903	-74.759	-0.281	0.100
-238.888	-66.769	-0.063	0.025
-237.873	-95.403	0.170	-0.045
-236.859	-38.163	-0.258	0.135
-235.844	-200.000	-0.022	0.119
-234.830	89.724	-0.122	-0.135
-233.815	-200.000	0.010	0.143
-232.800	-200.000	-0.020	0.355
-231.786	-200.000	-0.037	0.211
-230.771	149.950	0.139	-0.187
-229.757	-108.461	-0.128	-0.027
-228.742	193.706	-0.054	0.081
-227.727	800.000	0.203	0.561
-226.713	-8.758	0.196	0.130
-225.698	-200.000	-0.051	-0.441
-224.684	-72.663	0.481	-0.175
-223.669	-200.000	-0.015	-0.146
-222.655	710.126	0.069	0.181
-221.640	-35.255	0.149	0.080
-220.625	800.000	-0.025	0.070
-219.611	800.000	-0.014	0.058
-218.596	203.637	-0.164	0.250
-217.582	-54.992	-0.452	0.201
-216.567	-2.047	0.080	0.056
-215.552	261.668	-0.205	0.351
-214.538	106.184	-0.154	0.180
-213.523	528.084	0.033	-0.076
-212.509	-182.479	0.202	-0.004
-211.494	-120.426	-0.360	-0.061
-210.479	-200.000	0.018	0.367
-209.465	32.286	-0.401	0.342
-208.450	502.856	-0.053	0.120
-207.436	271.875	-0.100	-0.174
-206.421	-74.215	0.030	0.011
-205.406	316.049	0.112	0.209
-204.392	800.000	-0.043	0.170
-203.377	225.975	-0.146	0.233
-202.363	49.925	-0.083	-0.078
-201.348	-6.679	-0.180	-0.121
-200.333	-200.000	-0.043	0.244
-199.319	-200.000	-0.019	-0.192
-198.304	800.000	0.137	-0.449
-197.290	-200.000	0.010	-0.152
-196.275	-200.000	-0.034	-0.310
-195.260	169.230	-0.255	-0.359
-194.246	-12.317	-0.175	0.113
-193.231	14.765	-0.121	-0.094
-192.217	123.909	0.176	0.218
-191.202	417.414	-0.061	0.129
-190.187	800.000	-0.097	0.323
-189.173	-74.539	-0.165	0.059
-188.158	75.618	0.260	-0.271
-187.144	103.566	-0.081	-0.093
-186.129	-146.156	-0.234	-0.020
-185.114	-105.392	0.353	-0.079
-184.100	-200.000	-0.027	-0.321
-183.085	293.493	-0.046	0.082
-182.071	-24.419	0.079	-0.046
-181.056	-153.596	-0.126	-0.009
-180.042	-200.000	0.031	-0.337
-179.027	-177.989	0.208	0.005
-178.012	-200.000	-0.017	-0.375
-176.998	800.000	-0.067	-0.195
-175.983	800.000	-0.067	0.187
-174.969	216.759	-0.119	-0.186
-173.954	153.922	-0.129	-0.175
-172.939	346.132	0.179	0.348
-171.925	-48.186	0.159	-0.076
-170.910	486.355	0.090	0.203
-169.896	-200.000	-0.040	-0.179
-168.881	13.658	0.093	-0.071
-167.866	-200.000	0.037	0.176
-166.852	-200.000	-0.080	-0.512
-165.837	6.594	-0.447	-0.328
-164.823	234.890	0.177	0.288
-163.808	-89.010	-0.166	-0.048
-162.793	-129.780	0.165	0.022
-161.779	43.316	0.174	0.156
-160.764	-120.444	0.094	0.016
-159.750	-200.000	-0.042	0.203
-158.735	547.019	0.100	0.236
-157.720	723.328	0.033	0.086
-156.706	-38.082	0.250	0.131
-155.691	-61.220	0.233	-0.097
-154.677	800.000	0.044	-0.167
-153.662	-160.637	0.104	-0.005
-152.647	-134.569	0.294	-0.035
-151.633	0.021	0.123	-0.086
-150.618	519.848	0.020	-0.045
-149.604	800.000	-0.026	0.091
-148.589	-141.065	0.343	-0.035
-147.574	-78.119	-0.198	0.067
-146.560	800.000	-0.053	0.153
-145.545	614.936	-0.071	-0.174
-144.531	-200.000	-0.029	-0.206
-143.516	45.689	-0.057	0.051
-142.502	-79.705	0.220	0.073
-141.487	169.340	-0.146	0.206
-140.472	-120.499	-0.027	0.005
-139.458	153.600	0.136	0.184
-138.443	239.306	-0.122	0.200
-137.429	-50.159	0.310	0.144
-136.414	126.841	-0.247	-0.308
-135.399	95.266	-0.013	0.015
-134.385	-200.000	-0.010	0.196
-133.370	-15.423	-0.254	-0.160
-132.356	-23.026	0.238	-0.141
-131.341	-200.000	0.043	0.285
-130.326	-200.000	-0.069	0.335
-129.312	-94.306	-0.054	0.014
-128.297	97.538	0.039	-0.044
-127.283	800.000	0.046	-0.154
-126.268	270.965	0.031	0.054
-125.253	-14.080	0.353	-0.224
-124.239	-69.021	-0.265	-0.100
-123.224	203.325	-0.235	0.358
-122.210	800.000	-0.048	-0.166
-121.195	554.713	-0.137	-0.324
