DTS Sentinel unit serial number:	SN413079Multiplexer serial number:	ORYXHardware model number:	OX4-SRSoftware version number:	ORYX F/W v4.00 Oryx Data Collector v3.7.2.0data status	okinstallation	princeton_trtdifferential loss correction	single-endedforward channel	channel 2reverse channel	N/Adate	2019/09/14time	13:35:34forward acquisition time	60.00reverse acquisition time	0.00gamma	496.2192k internal	0.2307k external	0.2307temperature offset calibration	1.0153default loss term (dB/km)	0.3790temperature slope calibration	1.0000multiplexer offset coefficient	1.0000multiplexer slope coefficient	1.0000fibre end	0.00T internal ref (°C)	37.94T ext. ref 1 (°C)	4.92T ext. ref 2 (°C)	32.80length (m)	temperature (°C)	Stokes	anti-Stokes-747.200	-86.070	0.113	0.036
-746.185	643.336	0.081	0.210
-745.171	800.000	-0.035	0.116
-744.156	-34.575	-0.073	0.041
-743.142	78.276	-0.184	0.200
-742.127	327.217	0.043	0.084
-741.112	-126.376	-0.373	0.057
-740.098	-200.000	-0.030	0.289
-739.083	37.557	0.028	-0.026
-738.069	-200.000	0.038	-0.340
-737.054	176.957	-0.165	-0.244
-736.039	-116.905	-0.484	-0.090
-735.025	-123.538	0.295	0.048
-734.010	-200.000	0.019	-0.228
-732.996	-200.000	0.044	-0.380
-731.981	800.000	-0.041	-0.156
-730.966	-62.853	0.573	-0.241
-729.952	800.000	-0.053	-0.157
-728.937	800.000	0.064	0.233
-727.923	-170.222	-0.427	-0.015
-726.908	-85.998	0.285	-0.089
-725.894	-200.000	-0.022	0.116
-724.879	-14.130	0.205	-0.134
-723.864	-55.982	0.139	0.063
-722.850	-74.263	-0.327	-0.120
-721.835	-200.000	-0.020	-0.344
-720.821	161.947	-0.124	-0.177
-719.806	-41.642	-0.275	-0.144
-718.791	203.627	0.099	-0.156
-717.777	3.404	0.171	-0.127
-716.762	-39.962	0.532	-0.282
-715.748	-32.093	-0.365	-0.207
-714.733	398.165	-0.201	-0.426
-713.718	23.537	-0.225	0.188
-712.704	1.954	0.013	0.010
-711.689	360.847	-0.083	-0.168
-710.675	159.479	-0.093	0.132
-709.660	-200.000	-0.048	-0.231
-708.645	208.294	0.105	-0.166
-707.631	253.525	0.084	-0.145
-706.616	-12.147	-0.197	-0.131
-705.602	800.000	0.032	-0.131
-704.587	-59.594	-0.106	0.046
-703.572	-170.184	-0.031	-0.001
-702.558	84.938	0.196	0.219
-701.543	-200.000	-0.015	-0.095
-700.529	-7.949	-0.259	0.177
-699.514	332.176	0.113	0.221
-698.499	216.975	0.137	0.221
-697.485	-79.415	0.172	-0.059
-696.470	-111.086	0.241	-0.050
-695.456	-200.000	0.050	0.268
-694.441	-131.673	-0.389	0.052
-693.426	-200.000	-0.032	0.290
-692.412	-117.210	0.554	-0.102
-691.397	-200.000	0.045	-0.341
-690.383	108.382	-0.043	-0.052
-689.368	-200.000	0.012	-0.187
-688.354	177.411	0.110	0.163
-687.339	274.081	0.078	-0.140
-686.324	745.703	0.018	-0.050
-685.310	-53.765	-0.219	-0.102
-684.295	195.732	-0.133	0.205
-683.281	18.576	0.111	0.090
-682.266	165.289	0.132	-0.189
-681.251	-200.000	0.009	0.067
-680.237	-14.103	-0.306	0.200
-679.222	284.652	-0.070	-0.129
-678.208	-131.491	0.205	0.027
-677.193	131.917	0.051	0.066
-676.178	-72.900	-0.244	-0.091
-675.164	-21.516	-0.206	0.127
-674.149	-72.708	0.414	0.155
-673.135	-99.960	-0.156	0.039
-672.120	-52.496	-0.231	-0.108
-671.105	20.061	0.212	-0.173
-670.091	116.731	-0.074	-0.092
-669.076	-40.101	-0.417	0.221
-668.062	-44.189	-0.127	0.064
-667.047	-200.000	-0.004	0.347
-666.032	-14.220	0.300	-0.196
-665.018	100.565	0.219	-0.258
-664.003	65.304	0.171	-0.175
-662.989	-116.039	0.132	-0.025
-661.974	108.722	0.122	-0.148
-660.959	130.333	0.275	-0.357
-659.945	66.950	0.015	-0.015
-658.930	518.648	-0.100	-0.238
-657.916	-77.713	-0.109	-0.038
-656.901	-200.000	-0.006	0.112
-655.886	-55.069	0.341	-0.156
-654.872	-40.706	-0.324	0.170
-653.857	-64.685	-0.167	-0.069
-652.843	297.496	-0.117	0.217
-651.828	73.506	-0.105	-0.112
-650.814	96.283	-0.095	-0.110
-649.799	368.002	-0.040	-0.082
-648.784	392.044	-0.030	-0.063
-647.770	-99.257	-0.407	-0.104
-646.755	1.590	0.079	0.057
-645.741	-200.000	0.029	-0.337
-644.726	224.418	-0.112	-0.183
-643.711	-66.067	0.091	-0.037
-642.697	-200.000	0.075	-0.427
-641.682	-200.000	0.020	-0.146
-640.668	800.000	-0.110	0.360
-639.653	-200.000	-0.021	0.136
-638.638	-200.000	0.008	0.476
-637.624	-111.687	0.253	-0.052
-636.609	-157.283	0.028	-0.002
-635.595	-145.630	0.120	0.011
-634.580	49.830	0.222	-0.212
-633.565	131.492	0.021	0.028
-632.551	67.427	0.095	0.098
-631.536	216.549	-0.170	-0.274
-630.522	-88.038	-0.152	0.046
-629.507	-114.705	0.310	0.060
-628.492	-155.153	0.061	-0.004
-627.478	-96.328	0.036	-0.010
-626.463	402.451	-0.031	0.066
-625.449	25.303	0.201	0.169
-624.434	-5.058	-0.139	0.097
-623.419	-153.855	-0.175	-0.012
-622.405	-121.534	-0.232	-0.039
-621.390	-200.000	0.011	-0.128
-620.376	-9.083	0.260	-0.176
-619.361	-200.000	0.021	-0.335
-618.346	45.187	-0.252	-0.235
-617.332	-200.000	-0.034	0.232
-616.317	-200.000	0.005	0.260
-615.303	-135.966	-0.103	-0.012
-614.288	-200.000	-0.004	0.305
-613.273	212.777	-0.034	-0.054
-612.259	411.676	0.074	0.158
-611.244	694.223	-0.114	-0.302
-610.230	-94.447	0.262	-0.072
-609.215	360.267	-0.117	-0.237
-608.201	245.224	0.127	-0.217
-607.186	-50.723	0.066	0.031
-606.171	-23.780	-0.194	-0.117
-605.157	-194.363	0.203	0.002
-604.142	-65.002	-0.508	-0.208
-603.128	430.502	0.014	-0.030
-602.113	800.000	-0.056	0.211
-601.098	177.998	-0.141	-0.207
-600.084	194.360	-0.222	0.340
-599.069	800.000	-0.065	0.185
-598.055	40.493	0.111	-0.101
-597.040	-200.000	0.016	-0.189
-596.025	800.000	-0.026	0.083
-595.011	144.917	0.114	0.155
-593.996	47.393	-0.160	0.151
-592.982	-77.399	0.338	0.119
-591.967	5.692	0.165	-0.124
-590.952	-72.102	-0.187	0.070
-589.938	800.000	-0.021	-0.086
-588.923	-103.468	0.279	-0.066
-587.909	-27.780	-0.260	-0.153
-586.894	447.527	0.053	-0.117
-585.879	800.000	0.066	0.212
-584.865	-11.860	-0.372	-0.246
-583.850	-200.000	-0.043	-0.322
-582.836	-105.332	-0.053	-0.012
-581.821	-200.000	-0.002	-0.020
-580.806	-200.000	0.009	0.085
-579.792	-36.727	-0.294	-0.159
-578.777	125.483	0.115	-0.147
-577.763	499.785	0.067	0.157
-576.748	-32.212	0.162	-0.091
-575.733	-43.869	-0.134	0.068
-574.719	176.913	-0.096	0.141
-573.704	800.000	-0.026	0.091
-572.690	80.928	-0.219	0.238
-571.675	-103.862	0.188	0.044
-570.661	-200.000	-0.011	0.202
-569.646	800.000	0.040	-0.120
-568.631	-30.973	0.169	-0.096
-567.617	44.032	0.347	0.321
-566.602	51.043	-0.075	0.072
-565.588	-74.473	-0.207	0.075
-564.573	53.490	-0.044	0.043
-563.558	325.057	-0.219	0.422
-562.544	142.975	-0.149	-0.199
-561.529	-200.000	0.002	-0.134
-560.515	79.577	0.125	0.136
-559.500	68.165	0.194	-0.201
-558.485	-85.104	0.100	0.032
-557.471	124.815	0.187	0.237
-556.456	-200.000	-0.077	0.427
-555.442	-139.002	0.095	-0.010
-554.427	32.475	0.328	-0.286
-553.412	-200.000	0.006	-0.115
-552.398	215.869	-0.130	0.209
-551.383	-134.211	0.053	-0.007
-550.369	-66.140	-0.175	-0.070
-549.354	-101.507	-0.354	-0.087
-548.339	70.866	0.120	0.125
-547.325	197.153	-0.152	0.234
-546.310	31.707	0.114	0.099
-545.296	-98.029	-0.161	0.042
-544.281	-92.275	0.133	-0.038
-543.266	-7.802	0.161	-0.110
-542.252	88.501	0.031	-0.035
-541.237	-9.133	0.297	-0.201
-540.223	56.247	0.085	0.083
-539.208	-86.251	0.221	-0.069
-538.193	800.000	-0.124	-0.406
-537.179	240.183	0.111	-0.186
-536.164	140.016	-0.096	0.127
-535.150	589.943	-0.012	-0.030
-534.135	-200.000	-0.005	-0.109
-533.121	126.876	0.141	0.180
-532.106	-200.000	-0.034	0.232
-531.091	-178.846	0.274	-0.006
-530.077	123.914	-0.190	-0.241
-529.062	-155.513	-0.391	-0.025
-528.048	0.677	0.099	0.072
-527.033	-16.616	0.090	-0.057
-526.018	-77.187	-0.100	-0.035
-525.004	-200.000	-0.014	0.270
-523.989	-45.917	-0.250	0.124
-522.975	240.648	0.044	0.074
-521.960	336.545	-0.104	0.205
-520.945	222.708	0.165	-0.268
-519.931	-93.934	0.273	-0.076
-518.916	-92.735	0.265	0.075
-517.902	-54.870	0.266	0.121
-516.887	65.644	-0.081	-0.082
-515.872	-150.075	0.350	-0.027
-514.858	-104.518	-0.231	0.054
-513.843	-200.000	-0.003	0.034
-512.829	-52.815	-0.109	-0.051
-511.814	-154.690	-0.365	-0.024
-510.799	445.636	0.122	-0.270
-509.785	-15.206	-0.156	0.101
-508.770	124.249	0.139	0.176
-507.756	49.387	0.221	0.209
-506.741	-47.686	0.291	0.142
-505.726	255.183	-0.165	0.285
-504.712	-200.000	-0.024	-0.157
-503.697	91.628	0.171	-0.194
-502.683	800.000	0.075	-0.264
-501.668	-200.000	0.038	-0.229
-500.653	385.528	0.113	0.235
-499.639	-82.266	0.084	-0.028
-498.624	-56.868	-0.147	0.065
-497.610	8.242	0.028	0.021
-496.595	-42.087	0.278	-0.143
-495.581	-200.000	0.012	0.076
-494.566	-37.027	-0.139	0.075
-493.551	248.412	0.141	0.241
-492.537	151.095	0.035	-0.048
-491.522	64.335	-0.101	0.102
-490.508	-94.834	-0.299	0.082
-489.493	763.157	-0.042	-0.115
-488.478	60.674	0.246	0.245
-487.464	-60.377	0.042	0.018
-486.449	279.579	-0.089	-0.160
-485.435	-200.000	-0.027	0.213
-484.420	-200.000	0.001	0.235
-483.405	-200.000	0.008	0.216
-482.391	800.000	0.045	-0.196
-481.376	-200.000	-0.006	-0.075
-480.362	-40.046	-0.074	-0.039
-479.347	-200.000	0.024	0.238
-478.332	0.027	-0.159	0.114
-477.318	-60.809	0.021	0.009
-476.303	175.851	0.041	0.060
-475.289	67.335	0.134	-0.138
-474.274	14.594	-0.023	0.018
-473.259	-154.577	-0.175	0.012
-472.245	800.000	-0.020	0.057
-471.230	42.797	-0.100	0.092
-470.216	0.682	-0.108	0.078
-469.201	105.776	0.055	-0.065
-468.186	-88.186	-0.269	-0.081
-467.172	-47.667	-0.170	0.083
-466.157	-38.270	-0.096	-0.051
-465.143	9.787	0.150	0.114
-464.128	-92.797	-0.132	0.037
-463.113	204.001	0.051	-0.080
-462.099	-157.809	-0.192	-0.011
-461.084	-91.578	0.189	0.054
-460.070	26.747	-0.114	-0.096
-459.055	-148.764	0.238	-0.019
-458.040	-55.974	-0.186	-0.084
-457.026	-155.854	-0.269	0.017
-456.011	-7.349	0.254	-0.173
-454.997	-200.000	0.041	0.197
-453.982	-121.771	-0.296	0.049
-452.968	-177.274	0.180	0.004
-451.953	-3.764	-0.218	0.153
-450.938	74.077	-0.278	0.294
-449.924	268.434	-0.060	-0.105
-448.909	-200.000	-0.010	0.110
-447.895	26.599	0.084	0.070
-446.880	-115.888	0.270	-0.051
-445.865	614.790	0.070	0.177
-444.851	-200.000	-0.032	0.548
-443.836	37.510	-0.063	0.057
-442.822	-101.815	-0.216	-0.052
-441.807	-143.160	0.131	0.013
-440.792	48.769	0.239	0.226
-439.778	-63.261	0.109	0.045
-438.763	-97.458	-0.262	0.069
-437.749	104.040	0.267	-0.316
-436.734	800.000	-0.062	-0.225
-435.719	-74.305	-0.128	-0.047
-434.705	-176.160	-0.117	-0.003
-433.690	120.412	0.215	-0.268
-432.676	-45.215	0.284	0.142
-431.661	-25.804	0.053	0.032
-430.646	-58.176	-0.106	0.046
-429.632	212.366	0.062	-0.099
-428.617	614.212	-0.133	-0.334
-427.603	-23.912	-0.317	0.190
-426.588	-200.000	0.002	0.045
-425.573	115.790	-0.173	0.212
-424.559	55.624	-0.256	-0.249
-423.544	25.770	0.247	0.206
-422.530	237.104	-0.132	0.220
-421.515	-121.256	-0.387	-0.065
-420.500	-71.432	-0.115	0.043
-419.486	-25.965	-0.273	-0.161
-418.471	-47.136	0.211	0.103
-417.457	800.000	0.098	0.394
-416.442	-147.972	-0.215	-0.018
-415.428	-49.149	-0.074	0.035
-414.413	494.201	0.088	0.202
-413.398	-170.815	0.307	-0.011
-412.384	271.269	0.338	0.598
-411.369	-73.484	-0.203	-0.075
-410.355	275.704	0.028	-0.050
-409.340	-1.846	-0.246	0.173
-408.325	62.957	-0.143	0.144
-407.311	216.287	0.177	0.283
-406.296	348.847	-0.069	-0.137
-405.282	800.000	0.024	-0.097
-404.267	-50.239	-0.346	-0.164
-403.252	112.850	-0.181	-0.220
-402.238	712.899	0.097	-0.257
-401.223	33.079	-0.182	-0.158
-400.209	43.223	0.181	0.166
-399.194	98.711	-0.087	-0.101
-398.179	-150.514	0.260	-0.020
-397.165	-159.361	-0.189	-0.011
-396.150	-200.000	-0.050	-0.319
-395.136	-200.000	-0.018	0.227
-394.121	-68.524	0.139	-0.054
-393.106	-200.000	0.051	-0.274
-392.092	-172.426	0.089	0.003
-391.077	-129.762	0.138	-0.019
-390.063	341.295	-0.125	0.245
-389.048	800.000	-0.098	0.394
-388.033	412.984	0.023	-0.050
-387.019	-131.612	-0.183	-0.024
-386.004	-35.594	-0.219	-0.119
-384.990	49.533	0.164	-0.155
-383.975	800.000	0.023	-0.089
-382.960	-122.154	-0.163	-0.027
-381.946	-96.782	0.280	-0.074
-380.931	388.031	0.076	-0.158
-379.917	38.033	0.163	-0.145
-378.902	7.264	-0.172	-0.129
-377.888	800.000	-0.030	0.110
-376.873	494.069	-0.054	-0.124
-375.858	-56.401	-0.380	0.169
-374.844	-21.579	-0.169	0.103
-373.829	-56.898	0.192	0.085
-372.815	-53.358	0.156	-0.072
-371.800	-200.000	0.002	-0.025
-370.785	-200.000	-0.019	0.167
-369.771	-37.253	0.074	0.040
-368.756	-200.000	0.023	-0.351
-367.742	-91.809	-0.171	-0.049
-366.727	192.153	0.230	0.348
-365.712	800.000	0.040	-0.135
-364.698	-61.269	-0.206	0.087
-363.683	-55.737	-0.172	-0.077
-362.669	187.396	-0.096	0.143
-361.654	111.614	-0.217	-0.262
-360.639	280.214	0.127	-0.227
-359.625	267.361	-0.184	0.322
-358.610	-200.000	0.005	-0.033
-357.596	367.106	0.080	0.162
-356.581	-200.000	0.003	0.096
-355.566	11.110	-0.039	-0.030
-354.552	352.931	0.075	-0.150
-353.537	-106.323	0.053	-0.012
-352.523	75.166	-0.195	0.206
-351.508	147.276	0.221	-0.298
-350.493	373.324	-0.328	-0.668
-349.479	-106.819	0.165	-0.037
-348.464	11.582	-0.135	-0.103
-347.450	-58.427	0.249	-0.108
-346.435	-141.625	-0.052	0.005
-345.420	-135.290	0.128	-0.015
-344.406	-200.000	0.065	0.290
-343.391	289.535	0.051	-0.093
-342.377	9.373	-0.216	-0.163
-341.362	-52.910	0.059	0.027
-340.348	27.079	-0.330	-0.277
-339.333	800.000	-0.015	-0.058
-338.318	-73.776	0.278	-0.101
-337.304	-25.599	-0.201	0.119
-336.289	10.216	0.293	0.223
-335.275	19.099	0.120	0.096
-334.260	-178.679	0.171	-0.004
-333.245	143.230	0.256	0.341
-332.231	163.883	0.118	-0.167
-331.216	367.336	0.034	-0.068
-330.202	-169.736	-0.260	-0.009
-329.187	-164.045	0.183	0.008
-328.172	-117.881	0.370	0.066
-327.158	800.000	-0.058	-0.247
-326.143	800.000	-0.119	-0.366
-325.129	-57.603	0.053	-0.023
-324.114	269.680	-0.023	0.041
-323.099	219.072	0.047	0.075
-322.085	-200.000	-0.014	-0.263
-321.070	181.985	-0.244	-0.360
-320.056	-200.000	-0.039	0.275
-319.041	-42.795	0.071	-0.036
-318.026	50.596	0.209	0.198
-317.012	419.719	0.062	0.133
-315.997	-98.240	-0.035	0.009
-314.983	-200.000	-0.064	-0.349
-313.968	-200.000	0.026	-0.164
-312.953	-130.644	-0.132	-0.018
-311.939	-155.099	0.309	0.020
-310.924	-200.000	0.016	-0.134
-309.910	-38.769	-0.301	0.159
-308.895	21.524	-0.058	-0.048
-307.880	-63.924	-0.295	-0.120
-306.866	379.994	-0.049	0.100
-305.851	392.937	-0.060	-0.126
-304.837	-200.000	-0.010	-0.167
-303.822	141.236	0.188	0.248
-302.807	-200.000	-0.012	0.067
-301.793	-86.672	0.381	-0.116
-300.778	800.000	0.056	0.163
-299.764	-35.151	0.120	-0.065
-298.749	246.018	0.068	-0.114
-297.735	430.973	-0.045	0.097
-296.720	-200.000	0.005	0.280
-295.705	-90.485	0.185	-0.053
-294.691	800.000	0.050	-0.172
-293.676	-17.941	-0.123	0.077
-292.662	25.651	-0.131	-0.109
-291.647	62.998	-0.192	0.192
-290.632	800.000	-0.105	-0.443
-289.618	418.294	-0.052	-0.111
-288.603	-42.130	0.053	0.027
-287.589	111.983	-0.185	0.223
-286.574	90.460	-0.076	-0.085
-285.559	130.314	-0.149	-0.190
-284.545	-83.586	-0.305	0.097
-283.530	-118.838	-0.169	-0.030
-282.516	-126.086	-0.127	-0.019
-281.501	8.016	0.150	0.112
-280.486	800.000	0.042	-0.160
-279.472	-109.725	0.270	0.057
-278.457	-200.000	-0.066	-0.406
-277.443	-200.000	-0.036	-0.184
-276.428	-112.562	-0.441	-0.088
-275.413	-48.035	0.231	0.112
-274.399	-200.000	-0.035	0.524
-273.384	12.257	-0.188	0.145
-272.370	-200.000	-0.001	-0.157
-271.355	-114.982	0.138	-0.026
-270.340	73.245	0.215	-0.225
-269.326	-179.543	0.160	0.003
-268.311	-4.573	0.267	-0.184
-267.297	7.871	-0.115	0.086
-266.282	179.309	0.262	0.382
-265.267	-135.220	0.121	-0.014
-264.253	186.951	-0.095	0.141
-263.238	-58.682	0.237	0.103
-262.224	-200.000	0.002	0.056
-261.209	1.632	-0.094	0.068
-260.195	-200.000	0.002	0.117
-259.180	279.980	-0.085	0.151
-258.165	95.738	0.068	0.077
-257.151	-93.282	0.212	-0.059
-256.136	40.789	-0.091	-0.082
-255.122	-89.218	0.274	0.081
-254.107	-200.000	-0.053	0.430
-253.092	114.902	-0.093	-0.113
-252.078	-102.937	-0.203	0.048
-251.063	-200.000	0.048	0.223
-250.049	-200.000	0.010	0.068
-249.034	58.210	0.171	-0.167
-248.019	-25.807	0.111	-0.066
-247.005	11.268	0.029	-0.022
-245.990	-55.022	-0.360	-0.162
-244.976	63.726	0.125	0.125
-243.961	267.680	-0.160	0.280
-242.946	-106.904	-0.217	0.048
-241.932	-200.000	0.017	-0.117
-240.917	-136.159	-0.106	0.012
-239.903	-17.121	-0.164	0.103
-238.888	28.334	0.185	-0.156
-237.873	-35.939	-0.093	-0.050
-236.859	-9.127	0.233	0.155
-235.844	-180.887	0.300	-0.006
-234.830	-183.845	-0.216	0.004
-233.815	520.722	-0.076	0.177
-232.800	-142.536	-0.291	0.028
-231.786	787.222	-0.105	-0.288
-230.771	28.692	0.208	-0.175
-229.757	800.000	0.079	-0.316
-228.742	426.045	-0.020	0.042
-227.727	-150.500	0.285	-0.022
-226.713	310.710	0.109	0.203
-225.698	-163.911	0.133	-0.006
-224.684	-47.857	-0.082	-0.040
-223.669	-200.000	0.090	-0.455
-222.655	448.384	0.187	0.410
-221.640	-200.000	0.060	0.300
-220.625	321.164	0.097	-0.183
-219.611	106.752	0.050	0.059
-218.596	-54.015	0.107	-0.049
-217.582	782.542	-0.084	-0.229
-216.567	387.034	0.089	-0.183
-215.552	-135.283	-0.138	-0.016
-214.538	121.150	-0.195	-0.242
-213.523	131.346	-0.083	-0.106
-212.509	22.634	-0.123	-0.101
-211.494	-31.566	-0.402	0.225
-210.479	130.728	0.148	-0.189
-209.465	87.443	-0.134	-0.148
-208.450	-200.000	0.024	0.123
-207.436	13.441	-0.056	-0.043
-206.421	331.010	0.047	0.090
-205.406	-47.531	0.224	-0.108
-204.392	-56.711	0.325	0.143
-203.377	370.338	0.042	0.085
-202.363	-2.475	0.083	0.058
-201.348	800.000	0.014	0.039
-200.333	-193.840	0.082	0.001
-199.319	113.950	0.085	0.103
-198.304	-200.000	-0.043	0.316
-197.290	240.868	-0.136	0.227
-196.275	-200.000	-0.047	-0.240
-195.260	-82.217	-0.120	0.039
-194.246	-161.295	-0.374	-0.019
-193.231	156.476	-0.077	0.106
-192.217	-181.520	0.211	0.004
-191.202	-14.893	0.420	0.268
-190.187	251.830	0.158	0.268
-189.173	293.866	-0.101	0.183
-188.158	-85.129	0.201	-0.062
-187.144	-102.746	0.364	0.086
-186.129	-101.281	0.157	0.038
-185.114	-178.337	-0.063	-0.001
-184.100	-160.129	0.103	-0.006
-183.085	-134.581	0.093	-0.011
-182.071	-165.235	-0.400	-0.018
-181.056	169.727	0.211	-0.301
-180.042	11.035	0.076	-0.058
-179.027	-26.202	-0.033	0.019
-178.012	82.065	0.272	0.294
-176.998	47.081	-0.264	-0.245
-175.983	371.574	-0.177	-0.358
-174.969	73.984	0.059	-0.061
-173.954	800.000	0.058	0.189
-172.939	241.870	0.121	-0.201
-171.925	-152.538	0.165	-0.012
-170.910	256.320	0.099	-0.169
-169.896	260.314	-0.015	-0.025
-168.881	-77.660	-0.377	0.130
-167.866	9.452	0.099	0.075
-166.852	-82.708	-0.141	-0.046
-165.837	-49.895	0.241	-0.114
-164.823	525.924	0.029	-0.067
-163.808	-17.796	0.189	-0.118
-162.793	-66.361	-0.145	-0.057
-161.779	-57.741	0.090	0.039
-160.764	7.190	0.066	-0.049
-159.750	-151.696	-0.578	0.042
-158.735	-103.549	-0.200	0.047
-157.720	-200.000	0.079	-0.401
-156.706	800.000	0.049	0.149
-155.691	586.877	0.176	-0.430
-154.677	-132.256	0.173	-0.022
-153.662	13.636	-0.106	0.082
-152.647	-200.000	0.005	0.084
-151.633	62.775	-0.014	-0.014
-150.618	-200.000	-0.008	-0.093
-149.604	-200.000	-0.031	0.250
-148.589	-164.456	0.160	-0.007
-147.574	-108.848	-0.248	-0.053
-146.560	498.922	-0.060	-0.138
-145.545	79.410	0.130	-0.138
-144.531	528.162	0.138	-0.324
-143.516	217.443	-0.036	-0.058
-142.502	147.257	-0.113	-0.151
-141.487	121.730	0.108	-0.134
-140.472	-20.621	0.347	-0.212
-139.458	13.502	-0.377	0.291
-138.443	161.824	0.203	0.283
-137.429	800.000	0.055	0.179
-136.414	-10.845	-0.112	-0.073
-135.399	689.450	0.090	0.234
-134.385	-51.071	0.078	-0.036
-133.370	89.854	-0.058	0.064
-132.356	135.085	0.247	0.319
-131.341	-154.250	-0.264	-0.018
-130.326	-81.258	0.186	0.061
-129.312	6.125	0.397	0.293
-128.297	800.000	0.071	0.226
-127.283	357.186	0.114	0.225
-126.268	207.595	0.198	0.307
-125.253	800.000	-0.039	-0.145
-124.239	-65.122	-0.564	-0.226
-123.224	77.181	-0.042	-0.044
-122.210	-75.801	-0.133	-0.047
-121.195	-24.842	-0.193	-0.114
