DTS Sentinel unit serial number:	SN413079Multiplexer serial number:	ORYXHardware model number:	OX4-SRSoftware version number:	ORYX F/W v4.00 Oryx Data Collector v3.7.2.0data status	okinstallation	princeton_trtdifferential loss correction	single-endedforward channel	channel 2reverse channel	N/Adate	2019/09/17time	10:47:35forward acquisition time	60.00reverse acquisition time	0.00gamma	496.2192k internal	0.2324k external	0.2324temperature offset calibration	0.9977default loss term (dB/km)	0.3790temperature slope calibration	1.0000multiplexer offset coefficient	1.0000multiplexer slope coefficient	1.0000fibre end	0.00T internal ref (°C)	30.17T ext. ref 1 (°C)	0.19T ext. ref 2 (°C)	25.74length (m)	temperature (°C)	Stokes	anti-Stokes-747.200	-200.000	0.017	0.356
-746.185	-56.231	-0.153	0.069
-745.171	800.000	0.035	0.126
-744.156	143.256	-0.091	0.123
-743.142	-200.000	0.069	0.408
-742.127	520.519	-0.077	0.182
-741.112	95.351	-0.199	0.229
-740.098	96.223	-0.272	0.314
-739.083	-200.000	0.067	0.345
-738.069	67.794	-0.171	-0.177
-737.054	134.988	-0.052	0.069
-736.039	-30.153	-0.418	0.240
-735.025	52.349	-0.301	0.290
-734.010	800.000	0.043	-0.178
-732.996	-78.762	-0.270	0.093
-731.981	54.386	-0.222	-0.216
-730.966	-167.163	-0.086	0.004
-729.952	-72.300	-0.306	-0.114
-728.937	-65.640	0.081	0.033
-727.923	-200.000	0.044	0.274
-726.908	77.955	-0.190	-0.204
-725.894	-119.289	-0.131	0.023
-724.879	-94.438	0.053	-0.015
-723.864	-102.702	0.248	-0.060
-722.850	230.319	0.072	-0.118
-721.835	-187.152	-0.179	-0.002
-720.821	66.451	0.220	-0.226
-719.806	-91.924	0.138	0.039
-718.791	-93.821	-0.152	-0.042
-717.777	-152.544	-0.045	-0.003
-716.762	-128.223	-0.375	0.054
-715.748	-200.000	-0.036	0.184
-714.733	800.000	-0.043	-0.179
-713.718	-113.849	0.333	-0.065
-712.704	-116.604	-0.084	0.016
-711.689	28.239	0.212	0.180
-710.675	-200.000	-0.306	0.000
-709.660	-200.000	-0.061	0.272
-708.645	175.051	0.208	0.304
-707.631	19.181	-0.339	0.274
-706.616	-83.499	-0.305	-0.098
-705.602	-200.000	-0.035	0.256
-704.587	-36.108	-0.105	-0.057
-703.572	-200.000	-0.066	0.366
-702.558	404.126	-0.100	0.212
-701.543	-200.000	-0.026	0.127
-700.529	-200.000	-0.005	0.094
-699.514	800.000	-0.131	-0.434
-698.499	13.787	-0.261	0.205
-697.485	308.035	0.019	0.035
-696.470	-156.596	0.195	-0.012
-695.456	800.000	0.064	0.222
-694.441	-109.573	-0.149	0.032
-693.426	355.774	0.136	0.272
-692.412	-200.000	0.007	0.105
-691.397	94.492	0.044	-0.050
-690.383	-13.671	0.291	-0.190
-689.368	132.702	-0.234	0.304
-688.354	-200.000	-0.002	-0.253
-687.339	319.916	0.234	-0.447
-686.324	-50.468	-0.220	0.104
-685.310	-200.000	-0.020	0.215
-684.295	18.489	0.091	0.073
-683.281	-37.409	-0.174	-0.093
-682.266	-98.116	0.122	-0.032
-681.251	27.662	-0.090	-0.076
-680.237	-91.397	-0.202	0.058
-679.222	74.386	-0.147	-0.156
-678.208	200.664	-0.140	-0.216
-677.193	252.219	-0.082	0.141
-676.178	209.230	-0.237	0.373
-675.164	123.571	-0.133	0.168
-674.149	45.654	-0.183	-0.171
-673.135	800.000	0.140	-0.454
-672.120	131.039	-0.215	0.278
-671.105	-200.000	0.023	-0.183
-670.091	548.168	-0.089	0.215
-669.076	-77.907	-0.437	-0.152
-668.062	-200.000	0.025	0.179
-667.047	-117.521	-0.197	-0.036
-666.032	276.482	0.118	-0.211
-665.018	-200.000	0.056	-0.273
-664.003	521.265	0.017	-0.040
-662.989	-51.102	-0.209	0.099
-661.974	168.783	0.041	0.059
-660.959	-71.673	-0.145	0.054
-659.945	13.037	-0.174	-0.136
-658.930	476.519	0.091	-0.207
-657.916	544.802	0.103	0.247
-656.901	-200.000	0.035	-0.180
-655.886	-89.835	-0.141	-0.042
-654.872	-13.301	-0.330	-0.216
-653.857	-200.000	0.045	-0.234
-652.843	88.008	-0.128	-0.143
-651.828	-8.103	0.163	-0.111
-650.814	88.320	-0.054	-0.060
-649.799	-23.515	0.114	0.069
-648.784	-65.631	0.110	0.045
-647.770	-200.000	-0.018	-0.449
-646.755	-122.234	-0.303	0.050
-645.741	-95.168	0.259	-0.070
-644.726	-116.384	-0.191	-0.036
-643.711	-33.574	-0.291	-0.162
-642.697	-90.320	0.038	-0.011
-641.682	294.746	0.238	-0.437
-640.668	800.000	-0.041	-0.129
-639.653	-142.498	0.290	0.029
-638.638	11.173	0.061	-0.047
-637.624	-200.000	-0.041	0.244
-636.609	-200.000	-0.045	-0.306
-635.595	253.416	0.260	-0.447
-634.580	-111.895	-0.095	0.019
-633.565	-89.241	-0.420	-0.124
-632.551	69.962	0.155	0.161
-631.536	-84.495	-0.343	0.109
-630.522	-89.744	-0.104	0.031
-629.507	-51.734	-0.257	0.120
-628.492	-200.000	-0.015	0.214
-627.478	-200.000	0.026	-0.288
-626.463	-96.711	0.389	-0.103
-625.449	-86.947	-0.278	0.085
-624.434	-184.295	0.087	-0.001
-623.419	403.636	-0.152	0.321
-622.405	-61.815	-0.126	0.053
-621.390	-27.149	-0.043	-0.025
-620.376	800.000	0.065	0.218
-619.361	510.738	-0.052	0.122
-618.346	-114.501	-0.148	-0.029
-617.332	506.403	-0.068	-0.158
-616.317	-200.000	0.089	0.471
-615.303	86.648	-0.126	0.140
-614.288	83.795	0.103	0.113
-613.273	-74.697	0.307	0.111
-612.259	-95.755	0.182	-0.049
-611.244	-71.452	-0.156	-0.059
-610.230	-117.126	0.357	0.065
-609.215	4.674	-0.263	0.194
-608.201	703.427	0.104	-0.276
-607.186	26.501	0.178	0.150
-606.171	606.533	-0.052	0.131
-605.157	-59.550	-0.240	-0.103
-604.142	-71.331	-0.617	-0.232
-603.128	144.636	-0.180	0.241
-602.113	-171.349	-0.275	0.009
-601.098	34.237	-0.103	-0.090
-600.084	27.307	-0.117	-0.099
-599.069	-200.000	0.008	-0.218
-598.055	-111.609	-0.127	-0.026
-597.040	-200.000	0.085	-0.530
-596.025	355.775	-0.227	-0.453
-595.011	24.090	-0.146	0.121
-593.996	-184.654	-0.095	0.002
-592.982	19.989	0.196	-0.159
-591.967	-200.000	0.017	-0.123
-590.952	-70.521	-0.189	-0.072
-589.938	-120.824	-0.326	-0.055
-588.923	800.000	0.073	0.248
-587.909	-200.000	0.040	0.329
-586.894	-40.605	-0.221	0.115
-585.879	281.087	-0.093	-0.166
-584.865	-200.000	-0.024	0.250
-583.850	-54.941	-0.079	-0.036
-582.836	-8.039	0.096	-0.065
-581.821	139.493	-0.132	0.174
-580.806	236.105	0.123	-0.204
-579.792	-79.581	-0.123	-0.041
-578.777	-119.092	-0.305	0.053
-577.763	-107.324	0.179	-0.040
-576.748	39.482	0.093	0.083
-575.733	41.017	-0.076	-0.069
-574.719	-8.097	-0.086	0.058
-573.704	532.700	-0.124	-0.295
-572.690	144.085	-0.099	0.132
-571.675	-149.722	0.063	0.005
-570.661	-166.155	-0.280	-0.012
-569.646	152.754	0.214	0.294
-568.631	6.082	0.061	0.045
-567.617	266.113	0.179	-0.313
-566.602	800.000	0.021	0.089
-565.588	-38.381	0.274	0.146
-564.573	-200.000	0.022	-0.224
-563.558	377.984	-0.118	-0.241
-562.544	257.470	-0.078	-0.134
-561.529	111.283	0.170	-0.205
-560.515	36.564	0.253	-0.224
-559.500	390.970	0.035	-0.074
-558.485	145.285	-0.124	-0.166
-557.471	-70.332	0.073	0.028
-556.456	-37.786	0.211	0.112
-555.442	-76.987	-0.092	-0.032
-554.427	227.403	-0.154	-0.250
-553.412	-200.000	-0.007	0.195
-552.398	170.043	-0.062	-0.088
-551.383	116.619	0.200	-0.246
-550.369	-200.000	-0.031	-0.353
-549.354	-83.175	0.258	0.083
-548.339	-200.000	0.009	-0.424
-547.325	-44.724	0.104	0.052
-546.310	79.920	-0.136	0.146
-545.296	-139.726	0.038	0.004
-544.281	153.547	-0.145	0.199
-543.266	-98.594	0.148	0.038
-542.252	-200.000	0.061	-0.287
-541.237	-95.972	-0.206	-0.055
-540.223	-51.728	-0.174	0.081
-539.208	-91.783	-0.361	0.103
-538.193	800.000	-0.082	0.357
-537.179	-108.663	-0.174	0.037
-536.164	231.912	-0.025	-0.040
-535.150	-86.108	0.180	-0.056
-534.135	-139.924	-0.293	-0.031
-533.121	-200.000	-0.023	-0.144
-532.106	-200.000	-0.234	0.000
-531.091	-200.000	0.036	-0.351
-530.077	-98.301	0.202	-0.052
-529.062	-152.619	-0.421	-0.030
-528.048	-25.024	-0.058	0.035
-527.033	380.501	0.123	0.253
-526.018	-200.000	0.015	0.331
-525.004	-181.803	-0.338	-0.006
-523.989	-20.435	-0.105	0.064
-522.975	-11.351	-0.234	-0.154
-521.960	24.136	0.174	-0.144
-520.945	467.684	-0.069	0.154
-519.931	800.000	0.078	0.229
-518.916	152.399	-0.116	0.158
-517.902	136.747	-0.122	-0.159
-516.887	-39.466	0.085	0.045
-515.872	151.643	-0.131	-0.179
-514.858	86.977	0.100	0.110
-513.843	-49.020	0.252	-0.121
-512.829	-200.000	0.015	0.156
-511.814	-28.685	-0.164	0.095
-510.799	800.000	0.056	-0.210
-509.785	800.000	-0.110	-0.381
-508.770	-92.990	-0.274	-0.076
-507.756	412.586	0.064	-0.136
-506.741	-40.795	-0.369	0.191
-505.726	154.450	-0.111	0.153
-504.712	-200.000	0.002	0.158
-503.697	86.378	0.084	-0.093
-502.683	-91.567	-0.167	0.048
-501.668	-200.000	-0.061	0.328
-500.653	-81.727	-0.029	0.010
-499.639	112.840	0.263	-0.319
-498.624	-13.254	0.249	0.162
-497.610	394.396	0.100	-0.208
-496.595	-46.524	0.063	0.031
-495.581	800.000	0.053	0.192
-494.566	-99.347	-0.117	-0.029
-493.551	134.914	0.070	-0.091
-492.537	-178.132	0.186	-0.004
-491.522	-36.423	0.357	-0.192
-490.508	-107.810	-0.186	-0.040
-489.493	-200.000	-0.040	-0.282
-488.478	-31.301	-0.028	0.016
-487.464	-106.977	-0.167	-0.037
-486.449	-200.000	-0.023	0.129
-485.435	303.645	-0.108	0.200
-484.420	800.000	-0.042	-0.160
-483.405	-120.864	0.199	0.033
-482.391	-200.000	-0.056	0.332
-481.376	-159.033	0.147	-0.008
-480.362	800.000	-0.042	-0.150
-479.347	-200.000	0.037	0.171
-478.332	-200.000	0.009	-0.109
-477.318	-3.755	0.077	-0.054
-476.303	-144.279	-0.146	0.014
-475.289	-11.539	0.260	-0.171
-474.274	-200.000	0.031	-0.190
-473.259	-86.392	0.054	0.017
-472.245	-59.891	0.144	0.061
-471.230	-138.237	-0.383	-0.042
-470.216	4.143	0.140	0.102
-469.201	800.000	-0.031	-0.115
-468.186	-74.619	-0.255	-0.091
-467.172	-138.936	0.365	0.040
-466.157	-22.166	0.320	0.194
-465.143	133.217	-0.010	0.013
-464.128	-176.282	-0.025	0.001
-463.113	-49.214	0.238	0.114
-462.099	-31.717	0.464	0.260
-461.084	-13.155	0.165	0.107
-460.070	-51.674	0.349	0.163
-459.055	-37.512	0.085	-0.045
-458.040	440.836	-0.219	0.478
-457.026	-200.000	-0.191	0.000
-456.011	109.259	-0.054	-0.065
-454.997	-10.917	0.200	-0.132
-453.982	800.000	-0.038	0.135
-452.968	339.375	-0.063	-0.122
-451.953	800.000	-0.163	0.462
-450.938	-200.000	-0.082	0.421
-449.924	-100.827	0.324	-0.079
-448.909	-200.000	-0.080	-0.502
-447.895	-118.428	0.025	0.004
-446.880	-18.955	-0.262	0.163
-445.865	-59.993	0.195	0.083
-444.851	315.525	0.234	0.440
-443.836	11.442	-0.126	-0.096
-442.822	-48.046	0.194	0.094
-441.807	-20.803	-0.097	0.059
-440.792	25.857	0.242	-0.201
-439.778	-200.000	-0.007	0.092
-438.763	-98.061	-0.311	-0.080
-437.749	-97.224	-0.144	0.038
-436.734	192.769	0.140	-0.211
-435.719	313.079	0.154	-0.289
-434.705	-33.002	-0.283	0.157
-433.690	-77.568	-0.217	-0.075
-432.676	54.398	0.022	-0.021
-431.661	106.686	-0.152	-0.180
-430.646	-95.829	-0.204	-0.054
-429.632	-1.405	-0.123	-0.086
-428.617	-54.383	-0.104	-0.047
-427.603	-200.000	0.003	-0.149
-426.588	186.411	-0.149	0.222
-425.573	-200.000	-0.002	0.235
-424.559	-110.391	0.211	0.044
-423.544	343.434	0.069	-0.135
-422.530	-200.000	-0.021	-0.139
-421.515	-92.923	-0.361	0.100
-420.500	537.193	0.066	-0.157
-419.486	257.004	-0.111	-0.190
-418.471	-152.057	0.214	0.016
-417.457	17.038	-0.325	-0.257
-416.442	-131.983	-0.255	0.033
-415.428	800.000	-0.040	-0.163
-414.413	-200.000	0.032	-0.338
-413.398	-163.347	-0.205	-0.010
-412.384	-3.960	0.089	0.062
-411.369	-11.265	-0.136	-0.089
-410.355	-11.579	-0.128	-0.084
-409.340	-59.339	-0.034	-0.015
-408.325	-33.140	-0.308	-0.170
-407.311	-0.470	-0.164	0.116
-406.296	40.942	-0.205	-0.184
-405.282	-3.824	-0.067	-0.046
-404.267	-200.000	0.006	0.310
-403.252	181.498	0.144	0.211
-402.238	6.781	0.221	0.164
-401.223	235.420	0.183	0.300
-400.209	-113.115	-0.292	0.057
-399.194	-6.927	-0.148	0.100
-398.179	768.862	0.081	-0.220
-397.165	244.981	0.084	-0.140
-396.150	21.331	-0.129	-0.105
-395.136	-58.188	0.046	-0.020
-394.121	202.651	0.119	-0.182
-393.106	-200.000	-0.021	-0.149
-392.092	61.026	-0.019	-0.019
-391.077	-165.480	-0.250	0.011
-390.063	235.326	0.127	0.208
-389.048	122.301	0.106	-0.132
-388.033	198.442	-0.117	0.179
-387.019	-200.000	0.014	0.247
-386.004	-74.034	-0.186	0.067
-384.990	800.000	0.136	-0.408
-383.975	21.715	0.361	-0.293
-382.960	800.000	-0.062	-0.174
-381.946	-37.656	0.114	0.060
-380.931	-200.000	-0.029	0.227
-379.917	579.723	0.030	0.073
-378.902	87.749	0.147	0.162
-377.888	183.580	0.210	0.309
-376.873	37.871	0.172	0.152
-375.858	-142.853	0.202	0.020
-374.844	114.448	-0.212	0.256
-373.829	-158.085	-0.111	0.006
-372.815	32.448	-0.302	-0.260
-371.800	800.000	-0.154	-0.486
-370.785	773.698	-0.057	-0.154
-369.771	159.289	-0.141	0.195
-368.756	71.173	0.267	0.276
-367.742	-42.792	0.204	0.103
-366.727	31.552	0.264	-0.226
-365.712	-193.090	-0.414	0.004
-364.698	94.383	0.146	-0.165
-363.683	-129.108	0.107	-0.015
-362.669	105.391	0.211	-0.247
-361.654	38.931	-0.070	-0.062
-360.639	707.541	0.055	0.144
-359.625	-71.503	-0.116	0.043
-358.610	236.831	-0.144	-0.237
-357.596	-200.000	0.046	0.341
-356.581	800.000	-0.062	-0.264
-355.566	294.697	0.016	-0.028
-354.552	276.845	0.109	0.193
-353.537	-80.875	-0.397	0.131
-352.523	346.618	-0.171	0.334
-351.508	-50.826	0.188	0.088
-350.493	46.763	0.159	-0.147
-349.479	-169.154	-0.190	-0.007
-348.464	-114.825	0.049	0.009
-347.450	-53.383	0.277	0.126
-346.435	-85.312	0.089	-0.028
-345.420	-200.000	0.004	0.073
-344.406	-154.882	-0.092	-0.006
-343.391	330.736	0.106	-0.202
-342.377	-200.000	-0.011	0.092
-341.362	-51.075	-0.223	-0.104
-340.348	135.759	-0.166	0.215
-339.333	-119.357	0.183	-0.032
-338.318	195.581	-0.132	0.200
-337.304	47.659	-0.021	-0.020
-336.289	-79.315	-0.076	-0.025
-335.275	-0.749	0.217	0.153
-334.260	374.699	-0.104	-0.209
-333.245	99.868	-0.178	-0.204
-332.231	800.000	-0.052	-0.153
-331.216	-102.468	-0.262	0.062
-330.202	-68.012	-0.178	-0.069
-329.187	-56.598	0.142	0.062
-328.172	607.997	0.115	-0.284
-327.158	-78.881	-0.274	0.093
-326.143	-200.000	-0.027	0.320
-325.129	-86.027	0.174	-0.053
-324.114	-99.402	0.134	0.033
-323.099	-200.000	0.031	-0.156
-322.085	-200.000	0.028	-0.347
-321.070	12.633	0.119	-0.091
-320.056	-200.000	0.046	0.602
-319.041	-200.000	-0.008	0.258
-318.026	-200.000	-0.007	0.286
-317.012	-3.050	0.226	0.156
-315.997	-164.894	0.148	0.007
-314.983	426.719	0.163	-0.348
-313.968	-96.980	0.228	-0.059
-312.953	-200.000	0.034	0.258
-311.939	-129.903	0.073	-0.010
-310.924	-92.742	-0.248	0.069
-309.910	56.142	0.293	-0.282
-308.895	-34.703	0.168	-0.091
-307.880	288.296	0.200	-0.359
-306.866	123.671	-0.088	0.110
-305.851	800.000	-0.109	-0.317
-304.837	387.877	0.101	0.206
-303.822	89.276	-0.130	-0.144
-302.807	-55.654	-0.212	0.094
-301.793	-200.000	0.008	-0.096
-300.778	51.194	0.274	0.258
-299.764	36.071	0.337	0.294
-298.749	33.925	-0.010	-0.009
-297.735	-161.300	0.266	0.014
-296.720	-105.030	0.165	-0.038
-295.705	272.554	0.008	-0.014
-294.691	-200.000	-0.024	0.612
-293.676	245.164	0.201	0.336
-292.662	-60.402	0.325	-0.137
-291.647	-101.459	0.187	-0.045
-290.632	294.371	0.072	0.130
-289.618	-109.716	0.134	0.028
-288.603	584.370	-0.029	0.071
-287.589	278.712	-0.054	0.096
-286.574	-200.000	0.049	-0.397
-285.559	76.453	0.189	0.199
-284.545	362.499	0.069	0.137
-283.530	-26.115	-0.196	-0.114
-282.516	367.559	-0.124	-0.248
-281.501	53.075	0.219	0.208
-280.486	-200.000	-0.033	0.518
-279.472	708.907	-0.061	-0.161
-278.457	594.600	-0.065	-0.158
-277.443	-200.000	-0.015	0.094
-276.428	-200.000	-0.012	-0.250
-275.413	-200.000	0.020	0.091
-274.399	362.703	0.081	0.161
-273.384	-75.894	-0.307	0.108
-272.370	32.153	0.223	-0.191
-271.355	288.688	0.159	-0.286
-270.340	682.620	-0.025	0.066
-269.326	-140.786	-0.243	0.025
-268.311	-8.061	0.169	0.113
-267.297	800.000	-0.096	-0.264
-266.282	98.567	0.197	-0.225
-265.267	37.958	0.260	0.229
-264.253	106.841	-0.197	0.232
-263.238	-200.000	-0.166	-0.001
-262.224	800.000	-0.100	0.386
-261.209	-71.478	0.193	-0.071
-260.195	-200.000	0.024	0.217
-259.180	111.114	0.184	0.220
-258.165	-66.675	0.198	-0.078
-257.151	645.330	-0.078	-0.197
-256.136	-200.000	0.005	0.344
-255.122	-97.976	0.274	0.070
-254.107	800.000	0.086	-0.286
-253.092	84.610	-0.036	0.039
-252.078	-48.985	-0.078	0.037
-251.063	35.559	0.043	0.037
-250.049	326.616	-0.134	0.255
-249.034	-67.151	-0.176	-0.069
-248.019	-200.000	-0.012	0.158
-247.005	-40.193	0.046	-0.024
-245.990	496.649	0.028	0.064
-244.976	399.158	0.067	-0.139
-243.961	70.029	-0.180	0.184
-242.946	-200.000	0.010	0.118
-241.932	-127.772	-0.284	0.041
-240.917	236.243	-0.095	-0.156
-239.903	91.638	-0.176	0.196
-238.888	-59.143	0.156	0.066
-237.873	-189.792	-0.207	0.002
-236.859	43.050	0.109	0.098
-235.844	198.892	0.188	0.285
-234.830	28.154	-0.229	0.191
-233.815	176.160	0.104	0.150
-232.800	800.000	0.072	0.240
-231.786	41.395	-0.326	0.292
-230.771	-79.838	-0.368	0.122
-229.757	593.460	-0.136	0.333
-228.742	-96.652	0.196	-0.051
-227.727	174.427	-0.120	0.172
-226.713	-37.969	-0.140	-0.074
-225.698	284.059	0.003	0.006
-224.684	-200.000	-0.002	0.053
-223.669	129.971	0.048	0.060
-222.655	134.548	-0.156	-0.200
-221.640	248.709	0.238	-0.398
-220.625	-33.303	-0.124	0.068
-219.611	-75.729	0.362	-0.127
-218.596	258.404	-0.110	-0.188
-217.582	800.000	0.079	0.276
-216.567	295.057	0.093	-0.168
-215.552	-200.000	-0.006	-0.042
-214.538	-16.209	-0.321	-0.202
-213.523	-200.000	0.023	-0.241
-212.509	23.745	0.219	0.178
-211.494	800.000	-0.136	-0.397
-210.479	-95.312	0.085	0.023
-209.465	96.137	0.112	-0.127
-208.450	800.000	0.047	-0.176
-207.436	-121.539	0.439	-0.072
-206.421	-138.576	0.189	0.021
-205.406	-200.000	0.019	-0.184
-204.392	753.729	0.020	-0.053
-203.377	52.756	-0.137	0.129
-202.363	-95.457	-0.139	0.037
-201.348	-32.851	-0.225	-0.123
-200.333	-200.000	0.028	-0.199
-199.319	-200.000	0.046	0.246
-198.304	398.736	0.156	-0.323
-197.290	-123.668	0.315	-0.049
-196.275	579.845	0.116	-0.280
-195.260	-38.313	-0.185	-0.097
-194.246	-85.495	0.197	-0.061
-193.231	-178.970	-0.055	-0.001
-192.217	-56.422	0.094	0.041
-191.202	95.219	-0.080	-0.090
-190.187	800.000	0.093	0.365
-189.173	354.134	0.116	0.227
-188.158	540.325	0.142	0.333
-187.144	-200.000	-0.021	-0.148
-186.129	83.367	-0.187	-0.201
-185.114	-106.383	-0.461	0.102
-184.100	57.727	0.248	0.240
-183.085	729.745	0.060	-0.158
-182.071	-0.072	0.184	-0.130
-181.056	-200.000	-0.029	-0.162
-180.042	331.793	0.117	-0.222
-179.027	90.170	-0.091	0.101
-178.012	660.975	-0.137	0.349
-176.998	-126.994	0.490	0.071
-175.983	-173.510	-0.268	-0.008
-174.969	20.935	0.216	-0.173
-173.954	547.330	-0.076	-0.180
-172.939	252.872	-0.183	0.309
-171.925	-87.636	0.059	-0.017
-170.910	-31.114	0.241	-0.134
-169.896	-200.000	0.012	-0.100
-168.881	-200.000	0.028	0.300
-167.866	90.076	0.107	0.118
-166.852	33.107	0.117	-0.100
-165.837	174.543	0.055	0.078
-164.823	-34.121	0.044	-0.024
-163.808	-73.586	-0.022	-0.008
-162.793	-160.062	0.213	-0.011
-161.779	496.482	0.050	0.114
-160.764	-172.289	-0.161	-0.005
-159.750	800.000	0.090	0.296
-158.735	-92.553	0.277	-0.077
-157.720	125.135	0.132	-0.164
-156.706	-200.000	0.026	-0.322
-155.691	76.524	0.016	-0.017
-154.677	168.748	0.081	0.113
-153.662	-152.079	0.092	-0.007
-152.647	-97.604	0.265	-0.068
-151.633	-79.073	-0.106	-0.035
-150.618	-200.000	-0.283	0.001
-149.604	800.000	-0.131	-0.370
-148.589	-200.000	0.011	0.101
-147.574	800.000	0.096	-0.270
-146.560	385.710	-0.102	-0.208
-145.545	144.598	-0.060	0.080
-144.531	-200.000	0.010	-0.177
-143.516	40.290	-0.057	-0.051
-142.502	-102.860	0.205	-0.048
-141.487	102.870	0.065	0.075
-140.472	203.729	-0.075	0.114
-139.458	-84.333	-0.183	-0.057
-138.443	489.593	-0.021	0.046
-137.429	168.070	-0.091	-0.127
-136.414	232.202	-0.084	-0.136
-135.399	-26.592	0.190	0.110
-134.385	117.756	-0.154	-0.187
-133.370	-13.789	0.133	-0.084
-132.356	-35.083	0.283	-0.152
-131.341	-41.183	0.295	-0.150
-130.326	520.017	0.108	-0.249
-129.312	-69.855	-0.185	-0.070
-128.297	-103.191	0.105	-0.024
-127.283	-64.992	0.435	-0.173
-126.268	800.000	-0.043	-0.123
-125.253	23.388	0.214	-0.173
-124.239	-200.000	0.014	-0.151
-123.224	-65.622	-0.077	0.030
-122.210	-116.972	0.208	0.037
