DTS Sentinel unit serial number:	SN413079Multiplexer serial number:	ORYXHardware model number:	OX4-SRSoftware version number:	ORYX F/W v4.00 Oryx Data Collector v3.7.2.0data status	okinstallation	princeton_trtdifferential loss correction	single-endedforward channel	channel 2reverse channel	N/Adate	2019/09/16time	14:59:35forward acquisition time	60.00reverse acquisition time	0.00gamma	496.2192k internal	0.2299k external	0.2299temperature offset calibration	0.9944default loss term (dB/km)	0.3790temperature slope calibration	1.0000multiplexer offset coefficient	1.0000multiplexer slope coefficient	1.0000fibre end	0.00T internal ref (°C)	41.19T ext. ref 1 (°C)	14.46T ext. ref 2 (°C)	36.12length (m)	temperature (°C)	Stokes	anti-Stokes-747.200	8.127	-0.315	-0.241
-746.185	107.994	-0.135	0.164
-745.171	800.000	0.147	0.420
-744.156	19.784	0.192	0.158
-743.142	5.489	-0.149	-0.112
-742.127	-118.454	-0.379	-0.069
-741.112	91.333	-0.243	0.279
-740.098	-92.627	0.182	0.052
-739.083	-34.940	-0.284	0.158
-738.069	800.000	-0.095	0.292
-737.054	368.330	-0.111	-0.228
-736.039	11.774	-0.172	-0.135
-735.025	-200.000	-0.023	0.136
-734.010	-123.558	0.288	0.047
-732.996	71.446	-0.182	-0.192
-731.981	-44.135	-0.269	-0.138
-730.966	-200.000	-0.015	-0.182
-729.952	-7.114	-0.112	0.077
-728.937	-133.794	-0.146	-0.019
-727.923	800.000	0.039	-0.114
-726.908	-24.368	0.064	0.039
-725.894	-32.110	-0.252	-0.143
-724.879	61.355	-0.200	0.203
-723.864	27.649	0.162	0.139
-722.850	-74.082	-0.261	0.096
-721.835	148.325	0.036	0.050
-720.821	-200.000	0.332	-0.000
-719.806	-200.000	0.038	-0.351
-718.791	-200.000	-0.028	-0.138
-717.777	345.391	0.022	-0.045
-716.762	-200.000	0.015	-0.088
-715.748	800.000	0.025	-0.090
-714.733	800.000	0.152	0.511
-713.718	-37.673	-0.111	-0.060
-712.704	-75.634	-0.185	0.067
-711.689	-200.000	-0.033	-0.149
-710.675	-49.816	-0.278	0.135
-709.660	-42.418	0.282	0.147
-708.645	296.976	-0.054	-0.101
-707.631	67.964	0.096	0.100
-706.616	554.619	-0.126	0.310
-705.602	-200.000	-0.018	-0.209
-704.587	654.495	0.133	-0.347
-703.572	-167.156	-0.169	-0.007
-702.558	800.000	0.069	0.258
-701.543	-77.145	0.288	0.102
-700.529	-22.724	-0.020	0.012
-699.514	-92.565	0.152	0.043
-698.499	196.899	0.092	-0.142
-697.485	800.000	-0.055	-0.195
-696.470	-150.644	0.036	-0.003
-695.456	-200.000	-0.073	-0.373
-694.441	160.368	-0.184	0.262
-693.426	-200.000	0.014	0.153
-692.412	133.781	0.113	0.149
-691.397	-43.498	-0.043	0.022
-690.383	-82.039	0.178	-0.059
-689.368	-200.000	-0.068	-0.308
-688.354	94.556	0.008	0.010
-687.339	-200.000	-0.007	-0.239
-686.324	106.682	0.074	-0.089
-685.310	387.162	-0.101	-0.212
-684.295	-14.602	0.226	0.148
-683.281	-86.172	0.268	-0.084
-682.266	800.000	0.024	-0.083
-681.251	119.357	0.065	-0.083
-680.237	109.778	-0.236	-0.288
-679.222	800.000	0.032	-0.115
-678.208	646.921	-0.040	0.103
-677.193	47.813	0.019	-0.018
-676.178	12.593	-0.076	0.060
-675.164	33.022	0.252	-0.222
-674.149	-10.612	0.046	0.031
-673.135	-32.569	-0.259	-0.147
-672.120	315.553	0.106	0.204
-671.105	41.011	-0.223	-0.204
-670.091	-200.000	-0.019	-0.179
-669.076	27.127	0.058	0.050
-668.062	-200.000	0.037	0.176
-667.047	-162.015	0.275	-0.014
-666.032	13.771	0.358	0.283
-665.018	-35.260	0.321	-0.177
-664.003	800.000	-0.069	0.207
-662.989	-188.679	-0.190	-0.002
-661.974	116.046	-0.121	-0.151
-660.959	-49.228	0.299	0.146
-659.945	168.876	-0.142	-0.207
-658.930	800.000	-0.024	-0.092
-657.916	-200.000	0.091	0.431
-656.901	-24.817	0.188	0.114
-655.886	-39.161	0.179	-0.096
-654.872	-200.000	0.002	0.179
-653.857	-81.261	0.083	0.028
-652.843	-94.706	0.119	-0.033
-651.828	56.675	-0.167	0.165
-650.814	366.622	0.073	0.150
-649.799	235.564	-0.116	-0.194
-648.784	306.588	-0.053	-0.100
-647.770	-200.000	-0.031	-0.204
-646.755	-54.737	-0.202	0.093
-645.741	306.133	0.120	0.227
-644.726	-111.894	0.291	-0.060
-643.711	584.422	0.019	0.049
-642.697	800.000	-0.064	0.272
-641.682	73.529	-0.100	0.107
-640.668	800.000	0.056	0.166
-639.653	-200.000	0.001	0.104
-638.638	-200.000	-0.019	-0.160
-637.624	-38.957	0.095	0.051
-636.609	231.054	-0.173	-0.289
-635.595	318.650	-0.050	0.096
-634.580	473.668	0.146	0.334
-633.565	-23.973	-0.296	0.180
-632.551	405.102	0.155	0.332
-631.536	100.442	0.178	-0.210
-630.522	-200.000	-0.018	0.200
-629.507	-177.999	0.215	0.005
-628.492	64.800	-0.079	-0.081
-627.478	129.333	0.128	-0.165
-626.463	-126.229	0.215	-0.033
-625.449	-93.343	0.217	0.061
-624.434	42.108	0.180	0.166
-623.419	800.000	-0.043	-0.149
-622.405	83.098	-0.129	0.142
-621.390	10.476	0.052	0.040
-620.376	712.793	0.077	-0.206
-619.361	-94.709	-0.100	0.028
-618.346	179.959	-0.057	-0.085
-617.332	38.175	-0.125	-0.113
-616.317	7.393	-0.243	0.184
-615.303	-200.000	0.034	-0.282
-614.288	-131.717	0.204	0.027
-613.273	-30.614	-0.356	-0.205
-612.259	800.000	-0.022	0.076
-611.244	-42.631	-0.201	0.104
-610.230	-181.924	-0.115	0.002
-609.215	145.619	-0.105	0.143
-608.201	-200.000	-0.055	-0.261
-607.186	-34.385	0.136	0.076
-606.171	4.107	0.186	0.138
-605.157	707.379	0.057	-0.153
-604.142	-8.741	-0.368	0.250
-603.128	581.276	0.087	-0.217
-602.113	-90.016	0.325	-0.096
-601.098	-200.000	-0.016	0.304
-600.084	-94.568	-0.503	-0.139
-599.069	-65.462	0.111	-0.045
-598.055	52.084	-0.106	-0.102
-597.040	-37.348	-0.150	-0.081
-596.025	800.000	-0.063	-0.193
-595.011	294.943	-0.171	0.318
-593.996	-200.000	-0.012	-0.115
-592.982	-19.734	0.248	-0.155
-591.967	73.106	-0.187	0.198
-590.952	-20.713	0.224	-0.140
-589.938	215.241	-0.135	-0.218
-588.923	-165.742	-0.088	0.004
-587.909	-200.000	-0.036	-0.167
-586.894	-93.681	0.238	-0.067
-585.879	-166.535	0.147	0.006
-584.865	-61.360	-0.174	-0.074
-583.850	-155.404	-0.120	-0.008
-582.836	-53.773	-0.101	-0.047
-581.821	-96.312	-0.323	-0.087
-580.806	-200.000	-0.079	-0.403
-579.792	-104.919	-0.242	-0.056
-578.777	0.921	-0.094	-0.069
-577.763	-148.162	-0.163	0.014
-576.748	505.419	0.101	0.238
-575.733	-43.313	0.102	0.052
-574.719	-68.482	-0.038	-0.015
-573.704	257.359	0.132	-0.230
-572.690	153.612	-0.073	-0.101
-571.675	-62.156	-0.353	0.149
-570.661	-14.313	0.122	0.079
-569.646	172.470	0.086	0.125
-568.631	377.700	-0.187	-0.387
-567.617	800.000	0.033	-0.119
-566.602	800.000	0.015	0.053
-565.588	-62.839	0.196	-0.082
-564.573	-116.656	-0.118	0.022
-563.558	234.105	0.046	-0.077
-562.544	22.129	0.216	-0.178
-561.529	630.546	0.154	-0.394
-560.515	58.755	-0.190	-0.189
-559.500	-55.530	0.025	-0.011
-558.485	95.903	0.081	-0.093
-557.471	60.660	-0.310	0.311
-556.456	-23.182	0.096	-0.058
-555.442	-97.560	0.133	0.035
-554.427	775.617	0.065	0.180
-553.412	-94.427	0.357	0.099
-552.398	743.187	-0.050	-0.136
-551.383	-84.608	-0.559	-0.178
-550.369	-25.623	0.104	0.062
-549.354	-92.877	-0.061	-0.017
-548.339	270.029	0.170	-0.302
-547.325	53.597	-0.309	-0.300
-546.310	31.955	-0.302	-0.264
-545.296	-85.039	-0.181	-0.057
-544.281	-200.000	0.046	-0.388
-543.266	100.319	-0.115	-0.135
-542.252	218.560	0.039	0.062
-541.237	-67.304	0.105	-0.042
-540.223	-200.000	0.014	-0.201
-539.208	-40.383	0.082	-0.043
-538.193	-106.303	0.255	-0.058
-537.179	36.764	0.093	0.084
-536.164	-46.666	-0.179	-0.089
-535.150	-92.966	-0.212	-0.060
-534.135	-71.297	-0.138	0.052
-533.121	132.447	-0.054	0.070
-532.106	100.632	-0.038	0.045
-531.091	-150.959	0.204	0.016
-530.077	-73.818	0.234	-0.086
-529.062	-100.470	0.325	0.081
-528.048	95.110	0.269	-0.310
-527.033	-101.835	0.273	-0.067
-526.018	-200.000	0.200	0.001
-525.004	2.253	-0.243	-0.178
-523.989	470.232	0.068	-0.154
-522.975	-200.000	-0.016	0.119
-521.960	-119.208	0.231	0.041
-520.945	800.000	0.045	0.151
-519.931	64.994	0.058	-0.059
-518.916	-198.480	-0.362	-0.002
-517.902	-200.000	-0.028	-0.224
-516.887	800.000	0.084	-0.296
-515.872	264.292	0.148	0.261
-514.858	6.648	-0.144	0.108
-513.843	243.076	-0.109	0.185
-512.829	-109.872	-0.397	-0.084
-511.814	31.025	0.127	-0.110
-510.799	-134.591	0.213	0.026
-509.785	-54.945	-0.239	-0.109
-508.770	-200.000	-0.012	0.288
-507.756	-50.321	-0.137	-0.065
-506.741	-20.785	-0.314	-0.195
-505.726	170.992	0.093	-0.135
-504.712	164.867	0.089	-0.127
-503.697	-97.730	-0.171	-0.045
-502.683	232.589	0.169	0.280
-501.668	-52.230	0.285	0.133
-500.653	578.526	0.108	-0.266
-499.639	27.872	-0.274	0.234
-498.624	-121.571	-0.441	-0.074
-497.610	800.000	-0.053	-0.213
-496.595	-154.332	0.065	0.004
-495.581	-106.203	0.154	-0.035
-494.566	174.144	-0.125	0.183
-493.551	143.658	-0.141	-0.189
-492.537	455.275	-0.113	-0.254
-491.522	-200.000	0.035	0.397
-490.508	-138.578	-0.400	0.044
-489.493	20.339	-0.107	0.087
-488.478	52.901	-0.113	-0.110
-487.464	-200.000	-0.003	0.164
-486.449	-36.422	-0.293	-0.159
-485.435	-200.000	0.004	-0.146
-484.420	280.996	-0.168	0.304
-483.405	-2.062	-0.100	0.071
-482.391	-200.000	0.017	-0.249
-481.376	94.586	0.119	-0.136
-480.362	-184.327	0.090	-0.001
-479.347	-132.961	0.263	-0.034
-478.332	-159.260	-0.144	-0.008
-477.318	800.000	0.115	0.327
-476.303	152.368	-0.160	-0.220
-475.289	-40.987	0.141	0.074
-474.274	29.299	0.129	0.110
-473.259	-55.920	0.134	0.060
-472.245	-161.359	-0.156	-0.008
-471.230	3.797	-0.199	0.146
-470.216	157.028	0.130	-0.182
-469.201	373.494	0.338	0.694
-468.186	-74.919	-0.105	-0.038
-467.172	800.000	-0.023	0.088
-466.157	800.000	0.116	-0.467
-465.143	-200.000	0.023	0.248
-464.128	-31.646	0.147	0.084
-463.113	-128.575	0.074	0.011
-462.099	-200.000	-0.015	0.513
-461.084	-71.287	0.185	-0.070
-460.070	289.026	0.108	-0.198
-459.055	84.290	0.034	0.038
-458.040	15.916	0.162	-0.129
-457.026	-8.196	0.157	-0.107
-456.011	-88.279	-0.127	0.038
-454.997	-93.116	-0.012	0.003
-453.982	-200.000	0.017	0.305
-452.968	-54.830	-0.134	0.061
-451.953	-11.248	0.151	0.100
-450.938	-157.407	-0.506	0.031
-449.924	-83.900	0.242	0.078
-448.909	-83.729	-0.212	-0.068
-447.895	115.653	0.136	-0.168
-446.880	21.824	0.196	0.161
-445.865	800.000	-0.056	-0.182
-444.851	117.607	0.202	-0.251
-443.836	-72.128	-0.202	-0.076
-442.822	47.615	0.137	-0.128
-441.807	-92.016	0.023	-0.007
-440.792	-91.569	0.173	0.050
-439.778	186.869	-0.053	0.080
-438.763	-149.591	-0.317	0.025
-437.749	-83.022	-0.176	0.057
-436.734	-105.291	0.232	0.053
-435.719	-177.866	-0.245	0.006
-434.705	-57.018	0.280	0.124
-433.690	-66.556	0.231	0.092
-432.676	-200.000	-0.014	0.093
-431.661	-200.000	-0.058	0.337
-430.646	-102.468	-0.167	0.040
-429.632	-55.466	-0.392	-0.177
-428.617	-175.014	-0.216	-0.006
-427.603	120.811	0.145	0.182
-426.588	196.654	0.138	-0.212
-425.573	-56.834	0.294	-0.131
-424.559	-200.000	-0.004	0.067
-423.544	800.000	-0.042	0.157
-422.530	-116.244	0.145	0.027
-421.515	734.914	0.133	0.359
-420.500	-200.000	-0.010	0.232
-419.486	-114.603	0.510	-0.098
-418.471	193.425	0.131	-0.199
-417.457	716.211	-0.111	-0.298
-416.442	-118.631	0.134	0.024
-415.428	-120.880	-0.203	-0.034
-414.413	144.308	0.222	-0.298
-413.398	-0.558	-0.259	0.185
-412.384	-59.832	-0.273	0.118
-411.369	-200.000	0.012	0.258
-410.355	-200.000	-0.013	0.092
-409.340	-74.780	-0.117	0.042
-408.325	-26.626	-0.265	0.156
-407.311	175.481	0.117	-0.171
-406.296	-67.066	0.246	-0.098
-405.282	25.188	0.239	-0.200
-404.267	-69.564	-0.216	0.083
-403.252	-200.000	0.006	0.080
-402.238	325.417	0.031	0.060
-401.223	-200.000	-0.040	0.314
-400.209	159.979	0.029	-0.040
-399.194	69.772	-0.213	-0.221
-398.179	122.078	-0.072	-0.090
-397.165	21.894	0.200	-0.164
-396.150	78.661	-0.100	-0.107
-395.136	21.588	0.201	-0.165
-394.121	-160.016	-0.092	-0.005
-393.106	-53.008	0.151	0.070
-392.092	96.498	-0.127	0.147
-391.077	-200.000	0.003	0.092
-390.063	606.003	-0.062	-0.155
-389.048	-150.184	0.032	0.003
-388.033	-161.281	-0.085	-0.004
-387.019	-18.535	-0.085	0.054
-386.004	-128.045	-0.071	-0.010
-384.990	-171.870	0.298	0.010
-383.975	-126.392	-0.565	-0.085
-382.960	-200.000	-0.002	0.194
-381.946	800.000	0.031	0.091
-380.931	-17.893	0.080	-0.050
-379.917	-92.735	-0.057	-0.016
-378.902	41.442	-0.097	0.089
-377.888	-32.898	-0.201	0.112
-376.873	251.470	0.047	-0.080
-375.858	800.000	0.129	0.539
-374.844	-141.896	-0.077	0.008
-373.829	-200.000	0.060	0.429
-372.815	35.993	-0.163	0.144
-371.800	15.131	0.215	0.170
-370.785	-34.379	0.234	-0.129
-369.771	-60.389	0.126	-0.054
-368.756	-80.679	-0.090	0.030
-367.742	-122.841	-0.114	-0.019
-366.727	162.934	-0.195	0.276
-365.712	800.000	-0.100	-0.323
-364.698	-120.658	-0.313	0.053
-363.683	-90.707	-0.108	-0.031
-362.669	-200.000	0.010	-0.206
-361.654	-64.839	-0.195	0.080
-360.639	800.000	0.117	-0.435
-359.625	38.522	0.132	-0.119
-358.610	784.193	-0.025	0.069
-357.596	-72.499	0.274	-0.102
-356.581	214.997	-0.164	0.262
-355.566	63.862	-0.108	0.109
-354.552	257.490	0.122	-0.211
-353.537	-200.000	0.025	-0.309
-352.523	577.035	-0.090	0.221
-351.508	-4.154	0.225	-0.157
-350.493	-105.872	0.278	0.063
-349.479	-34.645	0.288	-0.158
-348.464	42.250	0.108	-0.099
-347.450	-54.192	0.214	0.098
-346.435	-200.000	-0.066	0.319
-345.420	-200.000	0.043	0.214
-344.406	-126.434	0.257	0.038
-343.391	-154.173	-0.303	-0.021
-342.377	-27.178	0.340	0.199
-341.362	-200.000	-0.019	-0.156
-340.348	-147.547	0.145	0.012
-339.333	-35.755	-0.145	0.079
-338.318	-30.237	-0.091	0.052
-337.304	114.627	-0.221	-0.271
-336.289	50.503	-0.130	0.123
-335.275	303.556	-0.051	-0.094
-334.260	115.697	0.201	0.247
-333.245	-91.827	0.174	0.050
-332.231	-127.443	-0.185	-0.027
-331.216	207.139	0.090	0.141
-330.202	800.000	-0.037	0.130
-329.187	-54.401	0.020	0.009
-328.172	114.353	-0.050	-0.061
-327.158	-46.570	0.157	0.077
-326.143	132.858	-0.082	0.106
-325.129	0.773	-0.179	-0.128
-324.114	-40.457	0.133	0.070
-323.099	41.547	0.134	0.122
-322.085	-58.572	0.140	0.061
-321.070	800.000	0.053	0.173
-320.056	36.455	0.217	0.192
-319.041	-29.366	0.238	-0.136
-318.026	133.777	0.196	0.254
-317.012	669.298	-0.068	0.176
-315.997	-184.135	0.222	0.004
-314.983	605.565	0.126	-0.315
-313.968	-200.000	-0.017	-0.388
-312.953	-200.000	-0.025	0.115
-311.939	-84.213	-0.058	0.018
-310.924	-63.325	-0.277	-0.115
-309.910	235.051	0.108	-0.179
-308.895	286.154	-0.068	-0.124
-307.880	198.880	-0.185	-0.285
-306.866	800.000	-0.079	-0.233
-305.851	292.942	-0.073	-0.133
-304.837	-23.883	0.233	0.140
-303.822	6.894	-0.272	0.203
-302.807	249.665	0.101	-0.172
-301.793	73.589	0.175	-0.184
-300.778	-48.739	-0.055	-0.027
-299.764	800.000	0.106	0.310
-298.749	7.734	-0.263	0.198
-297.735	408.613	-0.033	0.071
-296.720	64.218	-0.133	0.134
-295.705	598.620	0.055	0.137
-294.691	-123.900	-0.176	-0.028
-293.676	202.168	0.070	0.108
-292.662	800.000	0.144	0.459
-291.647	257.177	-0.129	0.222
-290.632	86.999	0.239	-0.265
-289.618	-39.566	0.213	-0.112
-288.603	-200.000	0.032	0.154
-287.589	800.000	-0.027	-0.077
-286.574	32.745	-0.276	0.239
-285.559	-200.000	-0.003	-0.108
-284.545	-200.000	0.079	-0.480
-283.530	176.426	-0.060	0.087
-282.516	800.000	-0.066	0.250
-281.501	458.560	-0.098	-0.219
-280.486	-40.211	-0.229	-0.120
-279.472	-0.818	-0.083	0.059
-278.457	224.370	-0.167	-0.271
-277.443	80.280	0.274	-0.295
-276.428	-25.323	0.260	-0.154
-275.413	263.329	0.205	0.357
-274.399	-71.684	-0.144	0.054
-273.384	-31.503	0.056	0.031
-272.370	-97.097	0.477	0.125
-271.355	-49.597	-0.217	-0.104
-270.340	-117.139	0.049	0.009
-269.326	-93.362	0.354	0.098
-268.311	20.133	0.235	0.190
-267.297	-66.288	0.162	-0.065
-266.282	415.523	0.053	-0.113
-265.267	424.090	0.094	-0.202
-264.253	-200.000	0.038	0.279
-263.238	512.262	0.070	0.162
-262.224	-101.237	-0.233	-0.057
-261.209	800.000	0.068	-0.224
-260.195	-181.397	0.135	-0.003
-259.180	208.525	-0.192	0.300
-258.165	800.000	0.050	0.150
-257.151	272.802	0.095	-0.168
-256.136	-114.889	-0.145	-0.028
-255.122	-7.517	0.287	-0.194
-254.107	-34.782	0.285	0.156
-253.092	471.936	0.083	-0.188
-252.078	-76.682	-0.430	-0.151
-251.063	33.302	-0.175	-0.152
-250.049	-6.596	0.207	-0.141
-249.034	10.138	-0.251	0.191
-248.019	116.184	-0.303	-0.372
-247.005	272.458	-0.072	-0.127
-245.990	-200.000	-0.040	0.312
-244.976	11.558	-0.124	-0.095
-243.961	-200.000	-0.011	-0.074
-242.946	-200.000	0.010	0.059
-241.932	-37.678	0.022	0.012
-240.917	-3.336	0.291	-0.203
-239.903	218.248	0.143	0.228
-238.888	-200.000	0.083	0.418
-237.873	-200.000	-0.030	0.467
-236.859	-40.784	0.159	-0.082
-235.844	-21.637	-0.191	0.117
-234.830	-127.280	0.142	0.021
-233.815	800.000	0.040	0.141
-232.800	292.890	0.097	0.177
-231.786	-200.000	0.003	0.057
-230.771	84.596	0.344	0.376
-229.757	-55.844	0.187	-0.084
-228.742	-200.000	-0.001	-0.279
-227.727	-59.420	0.239	-0.103
-226.713	366.642	0.071	-0.143
-225.698	17.487	0.294	0.234
-224.684	-200.000	-0.003	-0.281
-223.669	800.000	0.020	0.080
-222.655	-70.958	0.352	0.133
-221.640	709.101	-0.180	0.475
-220.625	18.828	-0.278	0.223
-219.611	-200.000	-0.068	-0.350
-218.596	61.413	-0.043	0.043
-217.582	6.847	-0.132	0.098
-216.567	501.163	-0.112	0.259
-215.552	181.555	0.052	-0.076
-214.538	240.200	0.033	-0.054
-213.523	54.018	0.154	0.148
-212.509	-108.049	0.212	0.046
-211.494	-44.118	-0.193	0.097
-210.479	-169.968	-0.266	-0.010
-209.465	86.808	0.129	0.142
-208.450	-5.552	0.045	0.031
-207.436	-200.000	0.017	0.335
-206.421	800.000	0.057	-0.224
-205.406	-134.489	-0.222	-0.027
-204.392	151.550	0.138	0.188
-203.377	-24.765	-0.103	0.061
-202.363	-94.972	0.085	0.023
-201.348	800.000	-0.013	0.047
-200.333	-124.735	-0.251	-0.039
-199.319	-8.127	-0.336	-0.226
-198.304	-94.589	0.099	0.027
-197.290	78.548	0.128	-0.137
-196.275	-200.000	0.022	0.176
-195.260	-135.796	0.136	0.016
-194.246	85.123	0.020	-0.022
-193.231	-6.286	-0.183	-0.125
-192.217	73.674	-0.123	-0.128
-191.202	387.091	-0.041	-0.085
-190.187	-116.927	0.296	-0.054
-189.173	54.545	-0.118	-0.113
-188.158	-200.000	-0.009	0.047
-187.144	-200.000	-0.064	0.291
-186.129	52.722	-0.129	-0.123
-185.114	-1.198	-0.138	-0.097
-184.100	22.360	-0.085	0.070
-183.085	-108.778	0.632	-0.135
-182.071	-100.287	-0.244	0.060
-181.056	334.482	-0.052	-0.100
-180.042	-200.000	-0.001	-0.026
-179.027	78.569	-0.072	0.077
-178.012	49.129	-0.152	0.143
-176.998	180.414	0.128	-0.188
-175.983	800.000	0.074	0.235
-174.969	53.193	-0.137	0.131
-173.954	114.800	-0.243	-0.296
-172.939	-120.285	-0.118	0.020
-171.925	168.591	0.119	-0.169
-170.910	-200.000	0.015	0.278
-169.896	-200.000	-0.071	-0.429
-168.881	98.427	-0.083	-0.096
-167.866	800.000	0.061	-0.245
-166.852	-200.000	-0.066	0.296
-165.837	508.671	0.095	0.219
-164.823	74.698	0.115	-0.121
-163.808	-146.855	-0.340	-0.029
-162.793	-103.199	-0.118	0.028
-161.779	-145.741	0.294	-0.026
-160.764	-85.636	-0.387	-0.120
-159.750	13.767	0.155	-0.120
-158.735	785.428	0.024	0.066
-157.720	-200.000	0.027	0.122
-156.706	100.313	-0.042	0.049
-155.691	-200.000	0.047	0.210
-154.677	81.275	-0.238	-0.256
-153.662	-200.000	-0.002	-0.167
-152.647	115.120	0.023	-0.028
-151.633	-48.968	0.130	-0.062
-150.618	-180.082	-0.013	-0.000
-149.604	-119.062	0.115	0.020
-148.589	-7.125	0.091	-0.061
-147.574	95.028	-0.154	0.175
-146.560	-106.640	-0.112	0.025
-145.545	41.708	0.171	0.154
-144.531	375.602	-0.048	-0.098
-143.516	-137.503	-0.208	-0.023
-142.502	-200.000	-0.002	0.177
-141.487	161.898	-0.180	-0.252
-140.472	67.940	-0.086	-0.087
-139.458	800.000	0.021	-0.073
-138.443	-200.000	-0.067	0.477
-137.429	-200.000	0.015	0.205
-136.414	-113.920	0.293	0.057
-135.399	800.000	0.032	0.091
-134.385	800.000	-0.160	-0.486
-133.370	800.000	0.068	-0.213
-132.356	172.668	0.147	0.211
-131.341	152.156	-0.089	0.121
-130.326	187.267	0.121	0.179
-129.312	800.000	-0.063	0.261
-128.297	-126.104	0.281	0.042
-127.283	-113.115	-0.224	-0.044
-126.268	-181.447	0.183	0.004
-125.253	2.003	0.111	-0.080
-124.239	-53.145	0.270	-0.123
-123.224	-200.000	0.009	-0.176
-122.210	393.513	0.037	0.077
-121.195	-91.640	-0.279	0.079
-120.180	-25.627	0.242	-0.142
