DTS Sentinel unit serial number:	SN413079Multiplexer serial number:	ORYXHardware model number:	OX4-SRSoftware version number:	ORYX F/W v4.00 Oryx Data Collector v3.7.2.0data status	okinstallation	princeton_trtdifferential loss correction	single-endedforward channel	channel 2reverse channel	N/Adate	2019/09/12time	16:05:11forward acquisition time	60.00reverse acquisition time	0.00gamma	496.2192k internal	0.2311k external	0.2311temperature offset calibration	1.0106default loss term (dB/km)	0.3790temperature slope calibration	1.0000multiplexer offset coefficient	1.0000multiplexer slope coefficient	1.0000fibre end	0.00T internal ref (°C)	38.75T ext. ref 1 (°C)	2.51T ext. ref 2 (°C)	31.69length (m)	temperature (°C)	Stokes	anti-Stokes-747.200	-34.552	0.308	-0.171
-746.185	-37.977	-0.119	0.064
-745.171	-107.337	-0.203	-0.045
-744.156	527.696	-0.015	-0.036
-743.142	-62.674	-0.261	0.110
-742.127	-170.303	-0.075	-0.003
-741.112	317.033	-0.078	-0.149
-740.098	-50.129	0.154	-0.074
-739.083	122.975	0.147	0.187
-738.069	-175.136	-0.069	-0.002
-737.054	382.207	0.067	0.139
-736.039	117.039	-0.215	-0.268
-735.025	-170.135	-0.190	-0.007
-734.010	318.148	0.051	0.099
-732.996	-73.675	-0.391	-0.144
-731.981	-138.735	0.256	-0.028
-730.966	-200.000	-0.019	0.170
-729.952	800.000	0.022	-0.095
-728.937	170.740	-0.175	-0.255
-727.923	-200.000	0.011	0.071
-726.908	283.960	-0.168	0.306
-725.894	-0.017	-0.438	-0.317
-724.879	-200.000	0.006	0.159
-723.864	470.035	0.103	-0.234
-722.850	800.000	-0.044	0.160
-721.835	800.000	-0.137	0.475
-720.821	-75.358	-0.120	0.043
-719.806	27.694	-0.050	0.043
-718.791	-3.763	0.293	0.207
-717.777	33.979	0.271	-0.239
-716.762	-200.000	0.016	-0.246
-715.748	-200.000	0.034	-0.228
-714.733	-200.000	-0.002	0.019
-713.718	-83.223	-0.210	0.068
-712.704	314.852	0.180	0.343
-711.689	-172.419	0.211	0.007
-710.675	-85.303	-0.204	0.065
-709.660	-136.721	0.194	-0.023
-708.645	36.879	0.237	-0.212
-707.631	-89.949	0.196	0.058
-706.616	-54.143	-0.287	0.132
-705.602	-30.195	0.336	0.194
-704.587	33.849	-0.223	0.197
-703.572	-73.635	0.089	-0.033
-702.558	29.083	-0.019	-0.017
-701.543	-2.662	-0.157	-0.111
-700.529	800.000	-0.105	0.341
-699.514	800.000	0.040	0.131
-698.499	114.036	-0.081	0.099
-697.485	-82.346	-0.157	-0.052
-696.470	127.720	-0.163	0.210
-695.456	-127.165	-0.395	0.059
-694.441	7.862	-0.122	0.092
-693.426	-75.725	-0.136	0.049
-692.412	-143.620	-0.216	0.021
-691.397	-200.000	-0.016	-0.197
-690.383	-200.000	-0.022	-0.114
-689.368	-150.805	0.153	-0.012
-688.354	-200.000	0.006	0.156
-687.339	-62.269	-0.306	-0.129
-686.324	-72.423	-0.310	-0.116
-685.310	-200.000	-0.008	-0.396
-684.295	461.557	0.093	0.209
-683.281	-37.729	-0.201	0.108
-682.266	-128.508	0.135	0.019
-681.251	550.635	0.069	-0.168
-680.237	-99.881	-0.301	0.076
-679.222	-39.227	-0.189	0.101
-678.208	26.928	-0.202	-0.171
-677.193	-78.005	-0.054	0.019
-676.178	-81.661	0.147	0.049
-675.164	145.383	-0.024	-0.033
-674.149	-120.526	0.125	0.021
-673.135	166.291	0.065	0.094
-672.120	-64.528	-0.316	-0.130
-671.105	59.166	-0.191	0.190
-670.091	-200.000	0.011	0.318
-669.076	413.187	0.185	-0.398
-668.062	-40.593	-0.283	-0.149
-667.047	-200.000	0.048	0.215
-666.032	108.001	-0.210	0.254
-665.018	-200.000	0.029	0.304
-664.003	-200.000	0.008	-0.196
-662.989	-200.000	-0.004	0.084
-661.974	236.482	0.169	0.284
-660.959	-89.310	0.077	0.023
-659.945	146.400	-0.219	-0.297
-658.930	-200.000	-0.039	-0.174
-657.916	-200.000	0.049	-0.261
-656.901	-45.799	0.114	-0.057
-655.886	-76.467	0.052	-0.019
-654.872	275.034	-0.127	0.227
-653.857	-118.578	-0.092	0.016
-652.843	-29.501	0.184	0.106
-651.828	48.977	0.315	0.299
-650.814	-165.142	0.189	-0.008
-649.799	18.500	-0.155	0.125
-648.784	-132.397	-0.305	-0.040
-647.770	800.000	-0.037	-0.131
-646.755	-51.147	-0.323	-0.153
-645.741	-200.000	-0.021	0.301
-644.726	-200.000	-0.026	0.513
-643.711	-57.033	-0.419	0.187
-642.697	-61.625	-0.173	-0.074
-641.682	-200.000	0.070	-0.369
-640.668	503.097	0.147	-0.345
-639.653	115.901	-0.095	-0.117
-638.638	104.962	-0.080	0.095
-637.624	172.448	0.090	0.131
-636.609	-128.634	0.130	-0.019
-635.595	-151.272	0.344	-0.026
-634.580	221.718	-0.104	-0.169
-633.565	21.115	0.242	-0.199
-632.551	800.000	0.051	0.169
-631.536	-42.368	0.307	-0.159
-630.522	-192.895	-0.338	0.003
-629.507	262.420	-0.128	0.225
-628.492	546.741	-0.058	0.140
-627.478	-28.240	-0.194	-0.113
-626.463	172.859	0.085	0.124
-625.449	-137.569	0.238	-0.027
-624.434	-81.304	0.186	-0.062
-623.419	56.218	0.124	-0.122
-622.405	800.000	-0.079	-0.313
-621.390	-24.289	-0.169	0.102
-620.376	11.123	0.295	0.228
-619.361	-150.686	0.041	-0.003
-618.346	192.062	-0.118	-0.179
-617.332	-72.415	0.117	0.044
-616.317	-200.000	0.008	-0.222
-615.303	-127.693	-0.489	0.071
-614.288	149.955	0.186	0.255
-613.273	-155.913	0.360	-0.023
-612.259	-130.210	0.057	-0.008
-611.244	-200.000	0.384	0.001
-610.230	189.615	-0.047	-0.071
-609.215	-7.268	0.124	-0.085
-608.201	-189.063	-0.488	0.006
-607.186	-200.000	0.023	0.141
-606.171	503.717	0.048	0.111
-605.157	-83.755	-0.242	-0.078
-604.142	-24.499	0.134	-0.080
-603.128	565.235	0.040	-0.098
-602.113	-8.380	0.170	0.116
-601.098	-123.009	0.241	-0.039
-600.084	-79.976	-0.097	-0.033
-599.069	-23.623	0.443	-0.268
-598.055	-200.000	-0.049	-0.435
-597.040	-200.000	0.034	-0.364
-596.025	112.940	0.099	-0.121
-595.011	282.658	-0.015	0.028
-593.996	19.604	0.350	-0.284
-592.982	447.136	0.080	-0.177
-591.967	-200.000	0.079	0.375
-590.952	486.414	-0.126	-0.290
-589.938	0.090	-0.112	-0.080
-588.923	-200.000	0.037	-0.198
-587.909	-117.162	-0.151	0.028
-586.894	65.322	0.240	0.245
-585.879	800.000	-0.048	0.203
-584.865	70.402	-0.107	-0.111
-583.850	-127.706	-0.227	0.033
-582.836	20.592	0.121	0.099
-581.821	12.769	-0.181	0.141
-580.806	-200.000	-0.042	0.287
-579.792	-118.473	-0.291	-0.052
-578.777	-200.000	-0.005	-0.110
-577.763	-200.000	-0.012	0.059
-576.748	393.929	0.053	0.110
-575.733	-200.000	-0.052	0.388
-574.719	-45.875	0.166	0.082
-573.704	42.363	0.187	0.171
-572.690	145.213	0.242	0.327
-571.675	192.466	0.113	-0.172
-570.661	237.832	-0.095	0.159
-569.646	80.538	-0.059	0.064
-568.631	800.000	-0.100	0.407
-567.617	-20.755	0.278	0.172
-566.602	-107.593	0.271	-0.060
-565.588	-108.245	-0.332	-0.072
-564.573	-200.000	-0.002	-0.108
-563.558	322.805	-0.176	-0.337
-562.544	-70.824	-0.491	-0.187
-561.529	-45.780	0.163	-0.081
-560.515	-200.000	0.030	-0.145
-559.500	-126.490	-0.193	-0.029
-558.485	-128.534	0.238	-0.034
-557.471	7.490	0.030	-0.022
-556.456	-5.113	-0.085	0.059
-555.442	28.349	0.135	0.115
-554.427	330.942	0.044	0.086
-553.412	-173.159	-0.206	0.006
-552.398	-108.136	-0.187	-0.041
-551.383	325.099	0.090	-0.174
-550.369	-144.355	0.207	0.019
-549.354	46.322	0.190	0.178
-548.339	-138.445	-0.437	0.048
-547.325	-140.931	0.173	0.018
-546.310	800.000	0.034	0.121
-545.296	-200.000	-0.015	0.293
-544.281	153.316	0.106	0.146
-543.266	164.063	-0.039	0.055
-542.252	232.092	-0.053	0.087
-541.237	68.746	0.121	-0.125
-540.223	1.047	0.097	0.070
-539.208	-61.742	0.131	-0.055
-538.193	-114.219	-0.249	-0.049
-537.179	-36.309	-0.227	0.123
-536.164	-132.815	0.083	0.011
-535.150	-67.120	-0.124	-0.049
-534.135	-124.674	-0.269	-0.042
-533.121	-116.367	-0.334	0.062
-532.106	76.816	0.163	-0.174
-531.091	-97.096	0.197	0.052
-530.077	278.492	0.095	0.171
-529.062	-133.089	-0.205	-0.026
-528.048	96.788	0.179	-0.207
-527.033	-200.000	-0.025	-0.170
-526.018	-37.676	0.142	-0.076
-525.004	-6.479	-0.094	0.064
-523.989	-184.755	-0.240	-0.004
-522.975	800.000	0.033	-0.142
-521.960	-200.000	0.008	-0.148
-520.945	-200.000	0.024	0.208
-519.931	420.771	0.081	0.175
-518.916	-37.414	0.238	-0.128
-517.902	12.072	-0.065	-0.050
-516.887	800.000	0.070	-0.262
-515.872	-22.537	-0.134	-0.082
-514.858	-200.000	-0.009	0.082
-513.843	800.000	-0.087	-0.298
-512.829	-75.434	0.417	0.149
-511.814	-94.170	0.126	0.035
-510.799	-86.330	0.349	-0.108
-509.785	-200.000	0.009	0.124
-508.770	105.095	-0.268	-0.318
-507.756	-200.000	-0.048	-0.352
-506.741	-130.414	0.139	-0.019
-505.726	-200.000	-0.052	0.421
-504.712	76.636	-0.080	-0.085
-503.697	101.710	0.177	-0.208
-502.683	36.851	-0.268	-0.238
-501.668	-136.883	-0.185	-0.021
-500.653	-90.110	-0.045	-0.013
-499.639	-8.168	-0.255	-0.172
-498.624	596.093	0.102	-0.255
-497.610	-128.254	-0.077	-0.011
-496.595	540.092	0.056	0.135
-495.581	-200.000	0.007	0.205
-494.566	61.421	-0.209	0.208
-493.551	-101.402	-0.189	0.046
-492.537	28.687	0.109	0.093
-491.522	122.561	-0.189	0.238
-490.508	43.449	-0.081	0.075
-489.493	-100.689	0.140	0.035
-488.478	800.000	-0.062	-0.187
-487.464	-71.672	-0.066	-0.025
-486.449	-200.000	0.017	0.076
-485.435	450.686	0.220	0.487
-484.420	157.811	0.059	-0.082
-483.405	-88.795	-0.280	-0.084
-482.391	-142.124	0.263	0.026
-481.376	26.038	0.192	-0.161
-480.362	-169.701	-0.266	-0.010
-479.347	28.699	0.239	0.203
-478.332	433.845	-0.109	0.238
-477.318	800.000	0.106	-0.413
-476.303	278.832	0.100	-0.178
-475.289	98.048	0.108	-0.124
-474.274	519.079	-0.106	0.249
-473.259	-25.161	0.137	-0.081
-472.245	800.000	-0.090	-0.375
-471.230	-99.420	-0.142	0.036
-470.216	27.746	-0.208	0.176
-469.201	-77.857	0.120	-0.042
-468.186	-200.000	-0.053	0.322
-467.172	52.278	0.122	0.117
-466.157	117.777	-0.207	-0.256
-465.143	307.825	-0.170	-0.318
-464.128	36.438	-0.042	-0.037
-463.113	2.892	0.228	0.166
-462.099	-136.354	0.477	0.056
-461.084	56.110	-0.231	0.225
-460.070	443.534	-0.151	-0.333
-459.055	5.859	0.314	-0.233
-458.040	12.372	0.206	0.160
-457.026	-96.538	-0.041	0.011
-456.011	149.658	0.072	0.098
-454.997	7.457	-0.325	-0.244
-453.982	-200.000	-0.016	0.083
-452.968	136.565	-0.250	-0.327
-451.953	-200.000	0.006	-0.096
-450.938	-91.960	-0.294	-0.084
-449.924	-142.180	0.058	-0.006
-448.909	-57.859	0.032	0.014
-447.895	-172.353	0.237	-0.008
-446.880	76.600	-0.103	0.110
-445.865	34.326	-0.116	0.102
-444.851	-71.427	0.013	0.005
-443.836	-52.856	-0.096	-0.045
-442.822	20.131	-0.220	-0.178
-441.807	-18.164	-0.254	0.160
-440.792	348.772	-0.163	0.323
-439.778	238.613	0.117	0.195
-438.763	-200.000	-0.009	-0.044
-437.749	-200.000	-0.003	0.084
-436.734	4.976	0.138	0.102
-435.719	394.482	-0.043	-0.091
-434.705	33.944	-0.108	0.094
-433.690	-85.791	0.086	-0.027
-432.676	-67.389	0.183	0.072
-431.661	800.000	-0.077	-0.238
-430.646	7.943	-0.157	-0.118
-429.632	-10.659	0.370	0.245
-428.617	12.669	0.037	-0.029
-427.603	51.920	-0.237	0.227
-426.588	-181.936	0.085	0.002
-425.573	-27.267	0.243	-0.142
-424.559	-200.000	0.019	-0.149
-423.544	-200.000	-0.029	0.290
-422.530	-200.000	0.024	0.167
-421.515	-200.000	0.015	-0.082
-420.500	-200.000	-0.014	0.100
-419.486	30.404	-0.186	0.159
-418.471	-200.000	-0.031	0.334
-417.457	74.894	0.209	0.221
-416.442	-66.713	0.115	-0.046
-415.428	-148.374	-0.173	0.014
-414.413	-18.376	-0.075	-0.047
-413.398	-62.922	-0.012	-0.005
-412.384	-200.000	0.004	0.029
-411.369	181.709	-0.164	0.242
-410.355	187.161	-0.134	-0.199
-409.340	-28.856	-0.140	-0.080
-408.325	-200.000	0.002	-0.169
-407.311	280.640	0.057	-0.102
-406.296	9.219	0.325	0.246
-405.282	800.000	-0.026	0.083
-404.267	-200.000	0.012	-0.161
-403.252	-105.582	0.428	-0.097
-402.238	-9.777	-0.227	-0.152
-401.223	121.420	0.290	-0.362
-400.209	-22.409	0.142	-0.086
-399.194	-200.000	0.070	0.408
-398.179	-200.000	0.004	0.180
-397.165	-68.775	0.312	-0.121
-396.150	-200.000	0.008	-0.180
-395.136	-200.000	0.026	-0.134
-394.121	-34.666	-0.043	0.023
-393.106	800.000	-0.018	-0.074
-392.092	63.253	0.097	-0.097
-391.077	-137.894	0.202	-0.023
-390.063	88.385	-0.178	0.198
-389.048	-39.071	0.177	-0.093
-388.033	-166.982	-0.467	0.019
-387.019	240.981	-0.133	0.223
-386.004	281.864	-0.119	0.214
-384.990	-200.000	0.072	0.545
-383.975	60.960	0.104	0.103
-382.960	624.354	0.030	-0.076
-381.946	114.087	0.072	0.087
-380.931	134.594	0.024	0.031
-379.917	-109.221	-0.149	-0.032
-378.902	456.431	0.076	-0.168
-377.888	-67.285	-0.192	0.076
-376.873	-200.000	0.014	-0.159
-375.858	-80.109	0.204	-0.068
-374.844	-87.170	0.158	0.048
-373.829	-14.737	-0.124	-0.080
-372.815	-118.659	-0.091	0.016
-371.800	95.048	0.051	-0.058
-370.785	-200.000	0.048	0.331
-369.771	-200.000	0.036	-0.186
-368.756	-184.006	-0.152	-0.003
-367.742	145.383	0.194	-0.260
-366.727	-200.000	-0.015	0.203
-365.712	-200.000	0.015	0.325
-364.698	-200.000	-0.011	0.086
-363.683	-23.307	-0.227	0.137
-362.669	553.570	-0.015	0.036
-361.654	116.194	-0.136	-0.167
-360.639	294.243	0.040	0.073
-359.625	443.815	0.038	0.083
-358.610	210.075	0.143	-0.225
-357.596	310.062	-0.060	0.111
-356.581	55.833	0.138	-0.134
-355.566	-200.000	-0.039	-0.264
-354.552	-91.714	-0.193	-0.055
-353.537	227.931	0.214	0.349
-352.523	154.646	-0.148	-0.203
-351.508	-200.000	0.002	-0.066
-350.493	-134.654	-0.539	0.066
-349.479	-200.000	-0.035	-0.418
-348.464	-30.657	-0.157	0.089
-347.450	55.537	-0.209	-0.202
-346.435	-200.000	-0.011	0.106
-345.420	5.843	0.195	-0.144
-344.406	-76.222	0.070	0.025
-343.391	-125.699	-0.178	-0.027
-342.377	-149.478	-0.242	-0.019
-341.362	-137.647	0.244	0.027
-340.348	45.775	-0.030	0.028
-339.333	20.971	-0.070	-0.057
-338.318	213.214	-0.041	0.065
-337.304	371.508	0.111	-0.226
-336.289	251.298	-0.085	-0.144
-335.275	-54.749	-0.113	-0.051
-334.260	710.132	0.087	0.230
-333.245	-200.000	-0.049	-0.255
-332.231	-200.000	0.014	0.093
-331.216	-200.000	-0.067	0.469
-330.202	-200.000	0.001	-0.266
-329.187	342.829	-0.182	-0.357
-328.172	-76.206	-0.076	-0.027
-327.158	-110.948	-0.194	-0.040
-326.143	30.771	0.178	-0.153
-325.129	-35.127	0.274	0.149
-324.114	-165.792	-0.238	-0.010
-323.099	592.127	-0.103	-0.255
-322.085	-118.204	-0.074	0.013
-321.070	-152.019	0.226	0.016
-320.056	-51.083	-0.159	-0.075
-319.041	-61.762	0.271	0.113
-318.026	-66.854	0.295	-0.117
-317.012	-62.125	0.165	0.069
-315.997	152.100	0.147	-0.201
-314.983	-115.954	-0.014	0.003
-313.968	-136.996	0.047	0.005
-312.953	323.633	0.131	0.249
-311.939	230.975	-0.081	-0.132
-310.924	-45.225	0.138	0.069
-309.910	800.000	0.073	-0.312
-308.895	-34.005	0.344	-0.189
-307.880	53.799	0.170	-0.163
-306.866	-200.000	-0.044	0.233
-305.851	639.280	0.050	0.126
-304.837	71.213	-0.228	0.235
-303.822	-25.814	-0.074	0.044
-302.807	-129.355	0.127	0.018
-301.793	-200.000	-0.001	0.302
-300.778	-132.809	-0.283	-0.036
-299.764	51.654	-0.210	0.199
-298.749	800.000	0.025	0.100
-297.735	-200.000	0.024	0.378
-296.720	99.651	-0.179	0.206
-295.705	273.602	-0.122	-0.214
-294.691	-200.000	0.006	-0.244
-293.676	219.983	-0.168	-0.269
-292.662	-83.197	0.501	0.161
-291.647	-200.000	-0.047	0.215
-290.632	277.573	-0.112	0.200
-289.618	96.787	0.069	-0.079
-288.603	-77.272	-0.210	-0.073
-287.589	-200.000	-0.060	-0.338
-286.574	783.171	0.115	0.315
-285.559	-89.572	-0.224	-0.066
-284.545	344.577	-0.105	0.206
-283.530	-200.000	-0.031	0.192
-282.516	-102.012	-0.117	-0.028
-281.501	729.056	0.039	-0.104
-280.486	8.131	0.207	-0.155
-279.472	159.149	-0.036	-0.050
-278.457	196.891	0.101	-0.154
-277.443	-200.000	0.064	0.629
-276.428	-46.778	-0.216	0.105
-275.413	-200.000	0.018	-0.276
-274.399	-18.044	-0.121	0.076
-273.384	287.361	-0.123	0.222
-272.370	800.000	0.075	0.241
-271.355	301.707	0.111	-0.204
-270.340	267.776	0.067	-0.117
-269.326	-200.000	0.070	0.352
-268.311	757.586	-0.073	0.197
-267.297	-140.548	0.106	0.011
-266.282	-200.000	-0.009	0.231
-265.267	36.192	0.186	-0.163
-264.253	-200.000	-0.009	0.175
-263.238	12.467	-0.229	-0.176
-262.224	-94.433	0.283	0.077
-261.209	-200.000	0.135	-0.001
-260.195	126.253	-0.072	-0.091
-259.180	111.085	-0.025	0.030
-258.165	-28.040	-0.403	-0.232
-257.151	35.502	-0.197	-0.173
-256.136	800.000	-0.061	-0.227
-255.122	173.674	-0.161	-0.231
-254.107	250.257	-0.044	-0.074
-253.092	-63.864	-0.199	0.081
-252.078	-200.000	0.006	-0.136
-251.063	37.456	0.283	-0.250
-250.049	-147.076	0.179	-0.015
-249.034	52.556	0.075	0.071
-248.019	-200.000	0.144	0.000
-247.005	-100.851	0.450	-0.110
-245.990	-200.000	0.021	-0.104
-244.976	-42.556	-0.289	-0.147
-243.961	70.856	-0.157	-0.162
-242.946	-200.000	-0.030	-0.256
-241.932	202.336	-0.105	-0.161
-240.917	-200.000	0.026	-0.218
-239.903	157.630	-0.089	-0.123
-238.888	-155.912	0.335	0.021
-237.873	-200.000	0.005	0.216
-236.859	-106.617	-0.206	0.046
-235.844	-155.753	0.130	0.008
-234.830	27.084	-0.293	0.245
-233.815	-72.655	-0.253	0.093
-232.800	-200.000	-0.056	-0.252
-231.786	-95.574	0.338	-0.090
-230.771	30.129	-0.239	-0.203
-229.757	602.185	-0.066	0.162
-228.742	-200.000	0.036	0.438
-227.727	-18.708	0.297	0.184
-226.713	-200.000	-0.030	-0.326
-225.698	-121.430	0.185	-0.031
-224.684	800.000	0.082	-0.284
-223.669	-200.000	0.025	-0.163
-222.655	78.090	-0.098	0.104
-221.640	-134.956	0.267	-0.032
-220.625	164.778	-0.020	0.029
-219.611	-200.000	0.023	-0.170
-218.596	-76.105	0.426	0.149
-217.582	-64.059	-0.328	-0.133
-216.567	7.793	0.186	-0.138
-215.552	800.000	-0.101	0.322
-214.538	-31.768	0.106	0.059
-213.523	255.793	-0.047	-0.080
-212.509	-200.000	-0.007	0.220
-211.494	-151.801	0.187	0.014
-210.479	-5.347	0.238	0.162
-209.465	-156.410	0.339	0.021
-208.450	-200.000	-0.009	0.092
-207.436	-14.622	0.210	0.134
-206.421	21.075	-0.060	-0.048
-205.406	232.999	0.057	0.093
-204.392	-139.295	0.354	-0.038
-203.377	-192.635	-0.177	0.002
-202.363	34.076	0.061	0.052
-201.348	-69.994	-0.199	-0.075
-200.333	181.425	-0.133	0.194
-199.319	800.000	0.019	-0.075
-198.304	-200.000	0.002	-0.360
-197.290	-153.642	0.067	0.005
-196.275	17.600	0.154	-0.122
-195.260	-5.454	-0.212	0.145
-194.246	488.655	0.159	0.360
-193.231	-8.660	0.120	0.080
-192.217	-200.000	0.115	0.503
-191.202	14.573	-0.154	0.120
-190.187	-200.000	-0.003	-0.128
-189.173	322.889	-0.230	-0.435
-188.158	800.000	0.074	-0.216
-187.144	-24.695	0.174	-0.103
-186.129	800.000	0.030	-0.091
-185.114	448.381	0.187	0.409
-184.100	-200.000	-0.006	0.253
-183.085	800.000	0.075	-0.252
-182.071	30.370	-0.048	0.040
-181.056	222.676	0.062	-0.099
-180.042	-200.000	-0.039	0.352
-179.027	-200.000	-0.030	0.216
-178.012	54.138	0.147	-0.141
-176.998	-200.000	-0.026	-0.212
-175.983	724.036	-0.179	0.474
-174.969	538.863	0.077	0.181
-173.954	-34.877	-0.092	0.050
-172.939	-23.100	-0.287	0.172
-171.925	-200.000	-0.018	0.199
-170.910	-200.000	0.041	0.405
-169.896	-120.727	-0.154	-0.026
-168.881	-126.586	-0.228	-0.034
-167.866	-39.749	-0.172	-0.089
-166.852	-120.293	0.208	-0.035
-165.837	-152.799	0.366	0.026
-164.823	129.702	-0.046	0.058
-163.808	426.346	0.084	-0.180
-162.793	-9.930	-0.280	-0.185
-161.779	414.767	0.195	-0.411
-160.764	441.642	-0.086	-0.187
-159.750	56.987	-0.299	-0.289
-158.735	-96.442	-0.282	-0.074
-157.720	-67.414	-0.251	-0.098
-156.706	-200.000	0.008	0.110
-155.691	338.023	0.134	-0.258
-154.677	-200.000	0.056	0.264
-153.662	800.000	-0.059	0.175
-152.647	67.332	-0.081	0.082
-151.633	-46.903	0.138	-0.067
-150.618	-73.809	0.106	-0.038
-149.604	92.412	-0.062	-0.070
-148.589	-87.560	-0.117	-0.035
-147.574	528.380	0.095	0.221
-146.560	543.060	-0.240	0.569
-145.545	336.508	-0.119	0.230
-144.531	3.120	-0.085	0.061
-143.516	-157.143	0.379	-0.023
-142.502	45.995	0.111	-0.102
-141.487	-95.038	-0.108	-0.029
-140.472	305.525	-0.107	-0.198
-139.458	594.990	0.187	-0.458
-138.443	-43.982	0.467	-0.233
-137.429	68.111	-0.118	-0.119
-136.414	-138.710	0.283	0.031
-135.399	-182.027	-0.500	-0.009
-134.385	800.000	-0.089	-0.255
-133.370	533.854	-0.052	0.121
-132.356	-200.000	0.006	0.057
-131.341	-200.000	0.015	-0.069
-130.326	-56.883	0.405	0.177
-129.312	71.291	-0.193	-0.199
-128.297	800.000	-0.057	0.170
-127.283	252.719	0.100	-0.170
-126.268	194.302	0.153	-0.230
-125.253	-200.000	0.033	-0.281
-124.239	-119.088	-0.224	0.039
-123.224	187.778	-0.003	-0.005
-122.210	17.930	0.151	-0.119
