DTS Sentinel unit serial number:	SN413079Multiplexer serial number:	ORYXHardware model number:	OX4-SRSoftware version number:	ORYX F/W v4.00 Oryx Data Collector v3.7.2.0data status	okinstallation	princeton_trtdifferential loss correction	single-endedforward channel	channel 2reverse channel	N/Adate	2019/09/17time	08:27:35forward acquisition time	60.00reverse acquisition time	0.00gamma	496.2192k internal	0.2332k external	0.2332temperature offset calibration	0.9978default loss term (dB/km)	0.3790temperature slope calibration	1.0000multiplexer offset coefficient	1.0000multiplexer slope coefficient	1.0000fibre end	0.00T internal ref (°C)	27.52T ext. ref 1 (°C)	0.13T ext. ref 2 (°C)	22.93length (m)	temperature (°C)	Stokes	anti-Stokes-747.200	43.218	0.295	0.271
-746.185	-200.000	-0.024	0.140
-745.171	-200.000	-0.014	0.116
-744.156	239.762	-0.120	0.200
-743.142	-110.382	0.425	-0.089
-742.127	800.000	-0.178	0.537
-741.112	-200.000	0.005	-0.147
-740.098	-200.000	-0.006	0.320
-739.083	-25.861	-0.130	-0.077
-738.069	-103.882	0.225	-0.053
-737.054	680.668	-0.095	-0.248
-736.039	-151.444	-0.090	0.007
-735.025	-132.832	0.242	-0.031
-734.010	85.521	-0.363	-0.401
-732.996	800.000	-0.046	-0.188
-731.981	-46.396	0.011	-0.005
-730.966	-4.788	-0.177	-0.123
-729.952	68.589	0.073	-0.076
-728.937	3.100	-0.386	-0.282
-727.923	-162.288	0.261	0.013
-726.908	204.195	0.156	-0.242
-725.894	-57.575	-0.147	-0.065
-724.879	29.523	-0.262	0.224
-723.864	-133.948	-0.272	0.034
-722.850	-103.009	-0.302	-0.072
-721.835	-200.000	-0.013	0.211
-720.821	410.135	-0.085	-0.181
-719.806	602.544	-0.100	0.250
-718.791	379.402	-0.170	-0.349
-717.777	-38.849	0.263	-0.139
-716.762	-129.624	-0.045	0.006
-715.748	113.051	0.124	-0.151
-714.733	-16.138	0.245	0.156
-713.718	-64.816	0.249	0.101
-712.704	-107.980	-0.225	-0.049
-711.689	-16.024	-0.028	0.018
-710.675	266.182	-0.249	-0.436
-709.660	-93.725	-0.271	0.075
-708.645	128.831	-0.183	-0.234
-707.631	-75.626	-0.131	0.047
-706.616	744.401	0.037	0.099
-705.602	-52.250	-0.035	-0.016
-704.587	-79.468	-0.302	0.103
-703.572	-21.655	0.173	-0.106
-702.558	-7.203	-0.318	-0.217
-701.543	-67.874	0.340	-0.133
-700.529	-200.000	-0.056	0.258
-699.514	-144.267	-0.433	0.041
-698.499	800.000	-0.078	0.238
-697.485	27.675	-0.186	0.158
-696.470	-116.689	0.197	-0.036
-695.456	-54.523	0.021	-0.010
-694.441	800.000	-0.020	-0.087
-693.426	-200.000	-0.001	-0.191
-692.412	-3.298	0.167	0.117
-691.397	23.128	-0.256	0.211
-690.383	-200.000	-0.041	-0.401
-689.368	-92.970	-0.360	-0.101
-688.354	-59.168	0.191	0.083
-687.339	-13.584	0.094	0.061
-686.324	-31.684	0.134	-0.075
-685.310	-37.693	0.269	-0.144
-684.295	-11.369	0.044	-0.029
-683.281	416.294	0.054	-0.115
-682.266	-101.049	-0.201	0.049
-681.251	-200.000	-0.045	-0.199
-680.237	-200.000	0.023	0.110
-679.222	800.000	-0.128	0.382
-678.208	262.990	-0.103	0.179
-677.193	-181.499	-0.442	0.009
-676.178	-112.348	0.212	-0.043
-675.164	-200.000	-0.027	-0.162
-674.149	-200.000	0.055	-0.290
-673.135	-28.692	-0.163	0.094
-672.120	0.629	-0.138	-0.099
-671.105	-200.000	0.004	0.078
-670.091	306.629	-0.146	0.273
-669.076	-122.660	0.210	-0.034
-668.062	-200.000	0.059	-0.335
-667.047	365.827	0.138	0.280
-666.032	710.949	-0.102	0.271
-665.018	93.887	-0.157	0.178
-664.003	-28.620	0.290	-0.167
-662.989	-0.663	-0.192	-0.137
-661.974	-86.178	-0.205	0.063
-660.959	80.315	-0.158	0.171
-659.945	34.917	0.113	-0.099
-658.930	-4.646	0.108	-0.075
-657.916	781.379	0.122	-0.335
-656.901	-51.466	0.229	-0.107
-655.886	237.606	-0.089	0.148
-654.872	-115.106	0.435	0.083
-653.857	800.000	-0.032	-0.089
-652.843	14.017	0.064	-0.050
-651.828	476.833	0.088	-0.200
-650.814	800.000	-0.015	-0.056
-649.799	330.396	0.141	0.272
-648.784	339.579	0.282	0.552
-647.770	218.747	-0.172	0.275
-646.755	57.593	-0.154	0.151
-645.741	-181.730	0.105	0.002
-644.726	-49.758	-0.235	-0.112
-643.711	-43.823	-0.159	-0.080
-642.697	-169.964	0.094	-0.003
-641.682	545.853	0.071	0.171
-640.668	800.000	0.025	0.096
-639.653	-200.000	-0.019	-0.256
-638.638	-26.616	-0.297	0.174
-637.624	-33.988	-0.175	0.097
-636.609	-120.246	-0.133	0.023
-635.595	-172.235	-0.071	-0.002
-634.580	-115.249	0.180	-0.034
-633.565	9.680	0.158	-0.120
-632.551	-68.122	0.081	0.031
-631.536	-40.115	0.170	-0.089
-630.522	-89.310	0.122	-0.036
-629.507	-200.000	-0.007	-0.037
-628.492	-200.000	0.052	-0.248
-627.478	52.857	-0.348	0.333
-626.463	-74.457	0.274	0.099
-625.449	412.718	-0.107	0.227
-624.434	-40.863	0.137	0.071
-623.419	228.886	-0.028	-0.046
-622.405	415.977	-0.206	-0.439
-621.390	-171.949	0.043	-0.001
-620.376	432.214	-0.067	0.145
-619.361	192.853	-0.059	-0.089
-618.346	4.070	0.112	0.082
-617.332	-100.047	-0.123	0.031
-616.317	-15.176	-0.029	0.019
-615.303	774.287	0.126	0.343
-614.288	-144.833	-0.277	0.025
-613.273	-146.708	-0.281	-0.024
-612.259	-0.334	-0.327	-0.232
-611.244	800.000	0.026	0.104
-610.230	711.177	0.079	0.208
-609.215	73.868	-0.214	-0.224
-608.201	91.958	0.076	-0.085
-607.186	-95.404	0.015	-0.004
-606.171	96.242	-0.087	-0.100
-605.157	-41.039	0.141	-0.073
-604.142	436.881	0.035	0.075
-603.128	-200.000	0.016	-0.545
-602.113	-200.000	-0.005	-0.137
-601.098	-39.913	-0.179	-0.093
-600.084	225.563	-0.197	-0.320
-599.069	-200.000	0.007	0.167
-598.055	119.408	-0.093	-0.115
-597.040	315.616	0.129	-0.244
-596.025	-87.998	0.244	-0.073
-595.011	70.190	0.066	-0.069
-593.996	671.219	0.132	0.341
-592.982	93.373	0.206	0.234
-591.967	95.576	-0.300	0.342
-590.952	395.965	-0.114	-0.237
-589.938	-56.799	0.089	-0.040
-588.923	-3.593	0.183	0.127
-587.909	800.000	-0.031	-0.088
-586.894	-0.227	0.144	-0.103
-585.879	788.281	0.082	-0.226
-584.865	71.275	0.063	-0.065
-583.850	800.000	-0.059	0.187
-582.836	-129.454	0.046	-0.006
-581.821	800.000	0.080	0.255
-580.806	-141.591	-0.212	-0.021
-579.792	800.000	0.040	0.132
-578.777	183.546	-0.264	0.391
-577.763	-75.890	0.211	-0.075
-576.748	393.609	-0.020	-0.041
-575.733	-200.000	0.051	0.261
-574.719	-200.000	-0.272	0.000
-573.704	-200.000	0.289	-0.000
-572.690	232.796	-0.174	0.286
-571.675	-78.914	0.372	-0.126
-570.661	189.482	-0.104	-0.156
-569.646	91.819	0.088	-0.099
-568.631	545.363	0.110	0.263
-567.617	8.425	-0.097	-0.073
-566.602	-42.491	-0.186	0.095
-565.588	800.000	0.058	0.161
-564.573	800.000	0.025	0.085
-563.558	8.488	0.071	-0.054
-562.544	80.169	0.221	-0.237
-561.529	495.562	-0.145	-0.333
-560.515	-102.173	0.319	0.077
-559.500	41.317	0.156	0.141
-558.485	800.000	-0.014	-0.052
-557.471	40.695	-0.073	-0.066
-556.456	-42.047	0.098	0.050
-555.442	659.472	-0.034	-0.086
-554.427	-200.000	0.065	-0.367
-553.412	-38.398	-0.310	-0.164
-552.398	-179.186	0.331	0.007
-551.383	6.906	0.156	0.116
-550.369	291.085	0.091	0.166
-549.354	-200.000	-0.018	-0.090
-548.339	27.155	0.183	-0.154
-547.325	-200.000	-0.039	-0.172
-546.310	32.607	0.209	0.180
-545.296	-42.588	0.173	0.088
-544.281	-97.687	-0.394	-0.102
-543.266	65.274	-0.160	-0.161
-542.252	-110.071	0.286	0.060
-541.237	-157.397	-0.248	-0.015
-540.223	-77.442	-0.309	-0.107
-539.208	323.646	-0.143	-0.272
-538.193	-35.392	0.037	-0.020
-537.179	-15.141	0.122	-0.078
-536.164	130.608	-0.173	0.222
-535.150	132.314	0.062	0.080
-534.135	49.203	-0.235	0.220
-533.121	-125.384	0.163	-0.025
-532.106	70.706	0.168	-0.173
-531.091	404.590	0.026	-0.056
-530.077	-200.000	0.111	0.000
-529.062	-200.000	-0.002	-0.193
-528.048	800.000	-0.061	0.204
-527.033	2.020	-0.069	0.050
-526.018	293.739	-0.156	-0.284
-525.004	-200.000	0.006	0.169
-523.989	15.229	0.205	-0.160
-522.975	-114.313	0.222	0.043
-521.960	-125.187	-0.245	0.037
-520.945	-120.256	0.189	-0.032
-519.931	-200.000	0.012	-0.177
-518.916	50.363	0.104	-0.098
-517.902	98.485	0.107	-0.123
-516.887	-200.000	0.008	-0.054
-515.872	-113.336	-0.217	-0.042
-514.858	185.853	0.115	0.170
-513.843	-40.693	0.205	-0.106
-512.829	177.260	-0.101	-0.146
-511.814	228.108	0.088	0.142
-510.799	617.894	0.183	-0.457
-509.785	-18.528	0.328	0.204
-508.770	655.314	0.061	0.155
-507.756	-103.053	-0.064	-0.015
-506.741	-91.661	0.310	-0.088
-505.726	-43.944	-0.093	-0.046
-504.712	17.843	0.156	0.124
-503.697	87.537	-0.272	-0.300
-502.683	-200.000	0.020	0.156
-501.668	-200.000	-0.033	0.188
-500.653	-18.812	-0.144	0.089
-499.639	-200.000	-0.023	-0.229
-498.624	-200.000	-0.057	-0.293
-497.610	-32.949	-0.105	0.058
-496.595	615.063	-0.088	0.221
-495.581	-200.000	-0.016	0.232
-494.566	-200.000	-0.032	0.319
-493.551	-82.707	0.336	0.108
-492.537	5.784	-0.102	-0.075
-491.522	800.000	0.068	0.285
-490.508	-200.000	0.003	-0.337
-489.493	-110.432	0.240	0.050
-488.478	-17.207	0.046	-0.029
-487.464	800.000	-0.103	0.369
-486.449	-35.049	0.090	-0.049
-485.435	800.000	-0.031	-0.101
-484.420	-2.892	-0.211	-0.147
-483.405	-121.638	0.344	-0.057
-482.391	800.000	0.039	0.121
-481.376	6.214	0.177	0.131
-480.362	339.658	-0.051	0.098
-479.347	663.886	-0.053	0.135
-478.332	-126.770	0.093	-0.014
-477.318	0.974	-0.167	0.119
-476.303	-86.643	0.148	-0.045
-475.289	202.102	-0.052	-0.080
-474.274	800.000	0.151	0.491
-473.259	-30.508	-0.322	-0.181
-472.245	-200.000	-0.012	-0.082
-471.230	5.276	-0.163	-0.120
-470.216	181.968	0.137	-0.200
-469.201	8.482	0.241	0.180
-468.186	-4.353	-0.086	0.059
-467.172	-89.682	0.269	0.078
-466.157	-63.617	0.304	-0.124
-465.143	-102.808	-0.151	-0.036
-464.128	29.815	-0.188	0.159
-463.113	-114.740	0.202	0.038
-462.099	278.105	-0.062	-0.109
-461.084	71.076	-0.157	-0.162
-460.070	66.825	-0.206	0.208
-459.055	119.699	0.160	0.197
-458.040	-6.645	-0.243	0.164
-457.026	-97.830	0.144	-0.037
-456.011	800.000	-0.068	-0.216
-454.997	162.184	0.162	-0.225
-453.982	-162.468	-0.088	0.004
-452.968	-38.994	0.385	-0.202
-451.953	-42.682	-0.366	-0.185
-450.938	354.561	0.055	0.108
-449.924	324.215	-0.111	0.211
-448.909	427.300	-0.042	0.090
-447.895	-37.829	0.098	-0.052
-446.880	19.005	-0.201	0.161
-445.865	-99.604	-0.262	0.065
-444.851	83.051	0.147	0.159
-443.836	-110.519	-0.234	-0.048
-442.822	800.000	-0.026	-0.101
-441.807	166.186	0.232	-0.326
-440.792	-200.000	-0.004	-0.420
-439.778	800.000	-0.055	0.151
-438.763	0.258	0.142	-0.101
-437.749	84.626	-0.159	0.173
-436.734	118.178	0.187	-0.229
-435.719	800.000	0.019	-0.058
-434.705	-31.588	0.252	-0.141
-433.690	1.489	-0.239	0.171
-432.676	-42.638	0.114	-0.058
-431.661	125.649	0.215	-0.269
-430.646	91.929	0.241	0.269
-429.632	-200.000	-0.024	-0.144
-428.617	103.822	-0.037	0.043
-427.603	-46.416	-0.223	-0.109
-426.588	-116.890	-0.247	-0.045
-425.573	-47.983	-0.331	0.159
-424.559	800.000	0.062	-0.218
-423.544	-129.365	0.022	0.003
-422.530	800.000	0.063	-0.208
-421.515	100.615	0.034	-0.039
-420.500	21.965	-0.118	-0.095
-419.486	-1.072	-0.286	-0.201
-418.471	-163.507	0.260	0.012
-417.457	-95.842	-0.087	-0.023
-416.442	-131.399	0.100	-0.013
-415.428	-44.263	-0.206	0.103
-414.413	-179.700	0.154	-0.003
-413.398	-138.753	-0.333	-0.036
-412.384	2.283	-0.092	0.066
-411.369	320.343	-0.272	0.513
-410.355	-200.000	0.080	0.359
-409.340	-93.189	0.226	0.062
-408.325	-200.000	0.059	-0.278
-407.311	-200.000	0.058	-0.386
-406.296	-91.982	-0.205	-0.058
-405.282	309.891	-0.158	0.293
-404.267	-131.091	0.168	0.022
-403.252	145.859	-0.037	0.049
-402.238	-200.000	0.015	0.197
-401.223	719.097	0.024	-0.063
-400.209	-75.913	0.319	0.112
-399.194	800.000	0.076	-0.256
-398.179	-42.180	-0.244	0.124
-397.165	614.697	0.098	-0.243
-396.150	434.078	-0.051	-0.110
-395.136	-200.000	-0.009	-0.125
-394.121	211.018	-0.194	-0.302
-393.106	210.238	0.156	-0.243
-392.092	-16.036	-0.234	0.148
-391.077	200.116	0.151	0.231
-390.063	31.424	-0.090	-0.077
-389.048	-74.493	-0.384	0.137
-388.033	151.173	-0.084	-0.113
-387.019	-84.198	0.276	0.087
-386.004	171.681	-0.116	-0.165
-384.990	-200.000	-0.029	0.172
-383.975	-33.323	-0.100	0.055
-382.960	-187.996	0.066	-0.001
-381.946	183.244	0.084	0.123
-380.931	193.848	-0.054	-0.081
-379.917	137.944	0.046	-0.060
-378.902	-70.299	-0.088	0.033
-377.888	800.000	-0.084	-0.309
-376.873	-124.116	-0.233	-0.036
-375.858	-27.110	-0.117	-0.068
-374.844	12.913	-0.041	-0.032
-373.829	56.598	0.198	-0.191
-372.815	-71.377	-0.332	-0.123
-371.800	-200.000	0.078	0.359
-370.785	800.000	-0.098	-0.324
-369.771	176.166	0.128	0.185
-368.756	-200.000	0.015	0.147
-367.742	-91.468	-0.187	0.053
-366.727	-200.000	0.054	0.265
-365.712	800.000	-0.114	0.366
-364.698	41.955	0.223	0.201
-363.683	-200.000	-0.008	0.082
-362.669	-111.331	0.210	-0.043
-361.654	24.583	0.201	-0.165
-360.639	-33.199	0.168	-0.092
-359.625	127.050	0.321	0.404
-358.610	148.763	-0.059	-0.080
-357.596	-168.553	-0.352	0.013
-356.581	609.290	-0.054	0.134
-355.566	101.471	-0.098	0.114
-354.552	68.598	-0.253	0.257
-353.537	687.292	0.067	-0.173
-352.523	54.793	-0.102	0.098
-351.508	-32.996	0.117	0.064
-350.493	-200.000	-0.055	-0.298
-349.479	800.000	0.031	0.086
-348.464	-25.321	-0.166	0.097
-347.450	-37.195	-0.446	-0.236
-346.435	-130.100	-0.275	0.037
-345.420	153.047	0.167	-0.226
-344.406	350.716	-0.089	-0.174
-343.391	282.992	-0.016	-0.029
-342.377	-0.551	0.180	0.127
-341.362	-200.000	0.040	-0.308
-340.348	-57.456	0.274	0.119
-339.333	-53.527	-0.160	-0.073
-338.318	-123.698	-0.427	-0.067
-337.304	246.177	0.187	-0.311
-336.289	79.985	0.070	-0.075
-335.275	800.000	-0.055	-0.198
-334.260	-56.402	0.107	-0.047
-333.245	-138.808	-0.192	0.021
-332.231	192.052	0.234	-0.349
-331.216	-103.527	-0.192	-0.045
-330.202	-32.229	0.355	-0.196
-329.187	606.772	-0.054	-0.134
-328.172	-140.289	-0.489	0.051
-327.158	-200.000	0.068	-0.366
-326.143	800.000	0.085	-0.321
-325.129	-172.708	0.250	-0.008
-324.114	260.266	0.128	0.219
-323.099	-96.011	-0.408	0.107
-322.085	604.139	-0.111	0.272
-321.070	450.065	-0.139	-0.304
-320.056	-53.142	-0.299	0.136
-319.041	-114.015	-0.104	0.020
-318.026	254.729	-0.088	-0.150
-317.012	704.093	0.030	-0.079
-315.997	800.000	0.017	0.050
-314.983	69.892	0.022	0.022
-313.968	-98.052	0.300	-0.076
-312.953	-52.851	0.324	-0.148
-311.939	163.978	-0.043	-0.060
-310.924	800.000	-0.100	-0.336
-309.910	-84.733	0.186	0.058
-308.895	6.555	0.279	-0.205
-307.880	26.099	0.263	-0.217
-306.866	-7.797	-0.201	-0.134
-305.851	624.811	0.129	-0.322
-304.837	58.871	0.095	0.093
-303.822	-200.000	-0.045	0.409
-302.807	800.000	0.086	0.255
-301.793	151.018	0.096	-0.129
-300.778	800.000	0.050	-0.193
-299.764	-157.589	0.353	-0.021
-298.749	282.742	0.082	0.145
-297.735	-96.763	0.438	0.114
-296.720	-72.002	-0.210	-0.077
-295.705	800.000	-0.048	-0.194
-294.691	260.355	0.040	-0.068
-293.676	-200.000	-0.045	0.224
-292.662	60.304	-0.140	-0.137
-291.647	-200.000	-0.025	0.457
-290.632	-70.987	-0.320	0.119
-289.618	47.033	-0.148	0.136
-288.603	-200.000	0.002	-0.013
-287.589	383.855	0.146	0.297
-286.574	-24.158	-0.260	-0.154
-285.559	171.710	0.161	0.229
-284.545	-14.677	-0.156	-0.099
-283.530	48.468	0.189	0.174
-282.516	-96.328	-0.293	0.077
-281.501	127.907	0.167	0.210
-280.486	-176.961	-0.342	-0.009
-279.472	-69.001	0.230	-0.088
-278.457	-73.279	0.254	-0.092
-277.443	-14.753	0.255	-0.162
-276.428	143.550	-0.111	0.146
-275.413	800.000	-0.027	-0.110
-274.399	104.925	0.341	0.398
-273.384	-65.627	-0.223	0.088
-272.370	-200.000	0.017	-0.146
-271.355	-74.940	-0.135	-0.048
-270.340	627.867	-0.134	0.334
-269.326	-78.028	-0.169	0.057
-268.311	463.096	0.107	0.237
-267.297	144.318	0.016	-0.021
-266.282	577.882	0.076	0.183
-265.267	355.940	0.104	0.205
-264.253	51.809	0.259	0.244
-263.238	800.000	-0.017	0.061
-262.224	141.804	-0.293	-0.383
-261.209	148.843	0.132	0.176
-260.195	-12.027	0.203	-0.131
-259.180	23.312	0.217	0.176
-258.165	-19.229	-0.259	0.158
-257.151	-62.880	0.339	0.138
-256.136	-200.000	0.053	0.237
-255.122	193.492	0.107	0.160
-254.107	52.527	-0.210	-0.198
-253.092	-82.606	-0.360	0.115
-252.078	800.000	0.016	0.053
-251.063	-200.000	-0.006	-0.180
-250.049	-166.478	0.329	0.014
-249.034	20.371	0.184	0.147
-248.019	27.728	0.073	0.060
-247.005	-142.342	0.183	0.018
-245.990	-87.056	0.127	-0.038
-244.976	-200.000	0.008	0.259
-243.961	-92.811	-0.325	0.090
-242.946	-149.405	0.442	0.035
-241.932	-113.759	0.185	-0.035
-240.917	-36.735	0.077	-0.041
-239.903	19.666	0.197	-0.157
-238.888	567.106	0.067	0.160
-237.873	-36.690	-0.085	-0.045
-236.859	6.419	0.168	-0.123
-235.844	231.094	0.058	-0.093
-234.830	131.962	0.064	-0.081
-233.815	171.968	0.095	0.135
-232.800	-149.945	-0.236	-0.018
-231.786	-23.587	-0.169	0.100
-230.771	-103.408	-0.204	-0.047
-229.757	-60.397	0.154	0.064
-228.742	-200.000	0.032	-0.184
-227.727	151.724	0.125	-0.167
-226.713	126.566	-0.175	-0.218
-225.698	-171.173	-0.360	0.012
-224.684	-20.271	0.178	-0.108
-223.669	166.004	-0.113	-0.157
-222.655	211.233	-0.164	-0.254
-221.640	-91.089	-0.359	0.102
-220.625	-134.876	-0.021	-0.002
-219.611	-79.479	-0.243	-0.081
-218.596	127.147	-0.257	0.322
-217.582	504.530	0.051	0.116
-216.567	-200.000	-0.025	0.170
-215.552	-18.923	0.157	0.096
-214.538	800.000	0.036	0.128
-213.523	282.183	-0.226	-0.399
-212.509	-154.448	-0.225	0.015
-211.494	402.326	0.219	0.454
-210.479	-118.602	-0.024	0.004
-209.465	-200.000	-0.421	0.000
-208.450	-191.666	-0.278	0.003
-207.436	-72.773	0.211	0.076
-206.421	47.363	-0.241	-0.222
-205.406	65.616	-0.153	0.152
-204.392	62.437	-0.245	-0.241
-203.377	-115.692	-0.272	-0.050
-202.363	90.985	0.309	-0.341
-201.348	191.839	-0.095	-0.141
-200.333	800.000	0.037	-0.150
-199.319	60.763	0.125	0.122
-198.304	-116.623	0.109	-0.020
-197.290	198.661	0.132	-0.200
-196.275	-124.030	-0.213	-0.033
-195.260	551.420	-0.058	0.136
-194.246	-200.000	-0.014	-0.133
-193.231	-93.004	-0.112	-0.031
-192.217	509.948	-0.102	-0.234
-191.202	-112.207	0.271	-0.054
-190.187	-112.386	-0.116	0.023
-189.173	279.130	0.024	0.041
-188.158	-200.000	-0.015	-0.084
-187.144	-200.000	-0.041	0.315
-186.129	390.023	0.118	-0.240
-185.114	239.866	-0.189	0.310
-184.100	-200.000	-0.034	0.193
-183.085	98.924	0.226	-0.257
-182.071	-200.000	0.072	-0.395
-181.056	32.317	0.196	0.166
-180.042	-22.709	-0.051	0.030
-179.027	292.999	0.045	-0.082
-178.012	18.187	-0.309	-0.243
-176.998	151.909	0.112	-0.151
-175.983	119.619	-0.027	-0.033
-174.969	-109.256	-0.052	-0.011
-173.954	92.020	0.158	-0.175
-172.939	-200.000	0.005	0.152
-171.925	764.906	0.062	0.166
-170.910	-4.057	-0.261	0.178
-169.896	-26.893	0.262	0.151
-168.881	-51.252	0.411	-0.189
-167.866	6.438	0.120	-0.087
-166.852	-200.000	-0.030	0.156
-165.837	83.919	-0.263	0.283
-164.823	29.300	0.124	0.104
-163.808	20.200	-0.278	-0.221
-162.793	-134.720	0.139	-0.017
-161.779	-120.389	0.407	-0.068
-160.764	110.193	-0.026	-0.031
-159.750	-93.375	-0.060	0.016
-158.735	-200.000	-0.011	-0.148
-157.720	-120.040	0.261	-0.044
-156.706	57.458	0.164	0.157
-155.691	-200.000	-0.007	0.504
-154.677	800.000	-0.074	0.301
-153.662	737.274	-0.094	0.247
-152.647	310.584	-0.067	0.123
-151.633	-200.000	0.011	0.148
-150.618	800.000	0.020	-0.079
-149.604	-194.833	-0.201	0.002
-148.589	132.406	0.167	0.211
-147.574	136.313	-0.266	0.341
-146.560	-199.887	-0.261	0.001
-145.545	91.251	0.178	0.197
-144.531	800.000	0.075	-0.212
-143.516	-150.879	0.148	0.011
-142.502	-200.000	-0.037	-0.285
-141.487	-200.000	0.053	0.355
-140.472	-100.439	0.238	0.058
-139.458	331.655	0.078	0.148
-138.443	39.325	0.120	-0.105
-137.429	304.987	-0.119	-0.217
-136.414	457.854	-0.141	-0.307
-135.399	-35.413	-0.278	-0.148
-134.385	90.146	-0.054	-0.060
-133.370	-95.210	0.153	-0.040
-132.356	60.536	-0.020	0.019
-131.341	-148.344	-0.337	0.027
-130.326	-77.089	-0.362	-0.124
-129.312	436.407	-0.034	0.073
-128.297	-200.000	-0.014	-0.089
-127.283	276.027	0.177	0.308
-126.268	610.942	0.117	0.287
-125.253	-200.000	0.039	0.171
-124.239	18.592	0.194	-0.152
-123.224	18.436	0.127	0.099
-122.210	800.000	0.070	0.235
-121.195	64.467	0.178	0.176
-120.180	96.802	0.065	0.074
