DTS Sentinel unit serial number:	SN413079Multiplexer serial number:	ORYXHardware model number:	OX4-SRSoftware version number:	ORYX F/W v4.00 Oryx Data Collector v3.7.2.0data status	okinstallation	princeton_trtdifferential loss correction	single-endedforward channel	channel 2reverse channel	N/Adate	2019/09/12time	10:17:11forward acquisition time	60.00reverse acquisition time	0.00gamma	496.2192k internal	0.2313k external	0.2313temperature offset calibration	1.0066default loss term (dB/km)	0.3790temperature slope calibration	1.0000multiplexer offset coefficient	1.0000multiplexer slope coefficient	1.0000fibre end	0.00T internal ref (°C)	36.59T ext. ref 1 (°C)	1.85T ext. ref 2 (°C)	34.35length (m)	temperature (°C)	Stokes	anti-Stokes-747.200	81.958	0.076	-0.084
-746.185	-200.000	0.073	0.397
-745.171	365.853	-0.160	0.328
-744.156	409.214	-0.070	0.151
-743.142	-200.000	0.037	-0.199
-742.127	124.523	-0.169	0.216
-741.112	686.678	0.056	0.148
-740.098	-200.000	-0.000	0.166
-739.083	-200.000	-0.012	0.422
-738.069	373.505	-0.106	0.219
-737.054	-84.954	0.155	-0.049
-736.039	-85.929	0.177	-0.056
-735.025	-200.000	-0.048	0.279
-734.010	2.371	-0.091	0.067
-732.996	-200.000	-0.044	-0.333
-731.981	89.144	-0.163	-0.184
-730.966	800.000	0.065	0.184
-729.952	-200.000	0.000	0.007
-728.937	-20.031	-0.310	-0.194
-727.923	106.550	-0.124	0.149
-726.908	-89.583	-0.196	0.058
-725.894	-192.526	-0.232	0.002
-724.879	97.088	0.246	-0.286
-723.864	-30.294	0.147	-0.085
-722.850	-51.291	-0.267	-0.127
-721.835	123.712	0.195	0.249
-720.821	-68.239	0.274	0.108
-719.806	-126.464	-0.337	0.051
-718.791	-153.689	-0.241	-0.017
-717.777	111.252	0.113	0.138
-716.762	-200.000	-0.000	-0.052
-715.748	537.821	0.131	-0.316
-714.733	783.151	-0.107	-0.297
-713.718	47.877	-0.122	-0.115
-712.704	367.796	0.129	-0.263
-711.689	-200.000	-0.019	-0.098
-710.675	277.826	0.021	0.038
-709.660	93.252	0.199	0.227
-708.645	723.299	0.042	0.114
-707.631	-21.680	-0.057	0.035
-706.616	100.691	-0.110	-0.130
-705.602	158.012	-0.212	-0.297
-704.587	446.492	-0.204	-0.454
-703.572	-158.163	-0.319	-0.019
-702.558	-190.400	-0.192	-0.002
-701.543	-58.332	-0.366	0.161
-700.529	-126.500	0.057	0.009
-699.514	30.222	-0.180	0.156
-698.499	-168.878	0.085	0.003
-697.485	-83.346	0.232	-0.075
-696.470	-200.000	-0.014	-0.157
-695.456	-64.505	0.118	-0.049
-694.441	-75.494	0.201	-0.072
-693.426	800.000	-0.051	0.203
-692.412	800.000	0.093	-0.273
-691.397	54.024	0.067	0.065
-690.383	-21.618	0.182	0.112
-689.368	42.575	-0.440	0.405
-688.354	191.168	-0.116	0.176
-687.339	-200.000	-0.006	-0.130
-686.324	196.122	-0.166	-0.256
-685.310	-200.000	0.011	0.151
-684.295	1.819	0.075	0.055
-683.281	-181.394	-0.147	0.003
-682.266	800.000	-0.089	0.309
-681.251	269.874	0.119	0.212
-680.237	-82.255	0.067	0.022
-679.222	4.970	-0.266	0.198
-678.208	-107.548	-0.118	0.026
-677.193	396.146	-0.109	0.229
-676.178	493.823	0.046	0.106
-675.164	-1.083	0.187	-0.134
-674.149	276.157	-0.084	0.150
-673.135	142.273	0.182	0.244
-672.120	-200.000	0.023	-0.229
-671.105	259.569	-0.071	0.124
-670.091	35.490	0.105	0.094
-669.076	166.555	0.078	-0.112
-668.062	176.824	-0.079	0.116
-667.047	800.000	-0.120	0.338
-666.032	365.023	-0.122	-0.249
-665.018	4.342	-0.197	-0.146
-664.003	298.948	-0.123	0.228
-662.989	38.113	-0.102	0.091
-661.974	-200.000	0.024	-0.230
-660.959	61.259	0.288	0.290
-659.945	-20.129	-0.097	0.061
-658.930	151.681	0.162	0.224
-657.916	-96.601	0.130	-0.035
-656.901	-69.501	0.339	-0.132
-655.886	121.422	-0.158	0.199
-654.872	226.327	-0.171	0.280
-653.857	117.147	0.120	-0.149
-652.843	-200.000	0.027	0.328
-651.828	240.723	0.168	0.283
-650.814	800.000	-0.070	0.215
-649.799	-130.940	-0.195	0.026
-648.784	6.651	-0.309	-0.232
-647.770	800.000	-0.105	-0.296
-646.755	79.704	-0.173	0.188
-645.741	-200.000	-0.078	-0.466
-644.726	48.763	-0.105	-0.100
-643.711	80.578	0.214	-0.233
-642.697	2.226	-0.174	-0.127
-641.682	-17.750	-0.165	-0.104
-640.668	-106.668	-0.005	-0.001
-639.653	-200.000	0.004	0.102
-638.638	-1.106	0.177	-0.126
-637.624	-123.301	0.247	-0.040
-636.609	407.773	0.055	-0.117
-635.595	70.569	-0.280	-0.293
-634.580	202.086	-0.128	0.199
-633.565	-172.761	-0.086	-0.003
-632.551	-25.413	-0.225	-0.134
-631.536	-200.000	0.053	-0.261
-630.522	-200.000	-0.039	0.180
-629.507	-200.000	-0.007	0.033
-628.492	19.221	0.255	0.206
-627.478	27.186	-0.287	0.243
-626.463	48.316	0.369	-0.349
-625.449	309.696	-0.109	-0.206
-624.434	60.271	0.052	-0.052
-623.419	-200.000	0.017	-0.186
-622.405	-200.000	0.007	-0.147
-621.390	101.287	0.164	0.193
-620.376	-200.000	0.007	-0.050
-619.361	431.297	-0.057	0.124
-618.346	800.000	0.046	-0.197
-617.332	-200.000	-0.002	-0.217
-616.317	-200.000	0.039	0.247
-615.303	-53.576	0.123	-0.057
-614.288	269.519	-0.163	-0.288
-613.273	-97.918	-0.212	0.055
-612.259	-93.015	0.098	0.028
-611.244	-39.071	0.178	0.095
-610.230	-16.845	0.156	-0.099
-609.215	-34.225	0.227	-0.126
-608.201	13.608	0.080	-0.063
-607.186	-200.000	-0.060	-0.362
-606.171	-200.000	0.006	-0.057
-605.157	-88.702	0.223	0.067
-604.142	-148.126	0.412	0.034
-603.128	-154.259	-0.270	0.018
-602.113	199.166	0.133	-0.206
-601.098	3.090	0.072	0.052
-600.084	31.694	-0.021	-0.019
-599.069	-160.721	-0.057	0.003
-598.055	-98.719	-0.099	-0.026
-597.040	-19.956	-0.187	-0.116
-596.025	163.081	-0.148	-0.209
-595.011	-111.578	-0.217	0.044
-593.996	-200.000	-0.009	-0.053
-592.982	-121.728	0.128	-0.021
-591.967	-107.034	-0.054	0.012
-590.952	284.990	-0.175	-0.318
-589.938	43.536	0.280	0.258
-588.923	29.287	-0.278	-0.238
-587.909	366.393	-0.087	-0.177
-586.894	-43.315	-0.296	0.151
-585.879	-200.000	0.009	0.101
-584.865	-200.000	-0.056	0.298
-583.850	-135.862	0.306	-0.036
-582.836	-28.192	0.197	0.115
-581.821	-200.000	0.059	-0.286
-580.806	689.661	-0.059	0.156
-579.792	374.733	-0.089	0.184
-578.777	141.744	-0.216	0.289
-577.763	-61.177	0.402	0.171
-576.748	57.925	-0.253	0.249
-575.733	-34.336	-0.055	0.030
-574.719	-25.280	-0.454	0.271
-573.704	150.173	0.118	-0.161
-572.690	70.329	-0.097	0.101
-571.675	800.000	0.030	0.116
-570.661	800.000	0.048	0.195
-569.646	-200.000	0.020	0.108
-568.631	-25.135	0.241	0.144
-567.617	27.001	-0.135	-0.114
-566.602	-96.300	0.118	0.031
-565.588	-63.930	0.309	-0.127
-564.573	-27.938	0.260	-0.152
-563.558	-140.985	0.498	0.051
-562.544	800.000	-0.101	-0.317
-561.529	-83.012	-0.165	0.054
-560.515	-70.087	0.321	0.123
-559.500	-200.000	0.030	0.165
-558.485	24.327	0.394	-0.328
-557.471	90.327	-0.133	0.150
-556.456	21.555	0.048	0.039
-555.442	229.488	-0.100	-0.165
-554.427	800.000	-0.049	0.138
-553.412	-65.967	-0.375	0.151
-552.398	10.262	-0.248	0.190
-551.383	-127.482	0.169	-0.025
-550.369	242.368	0.072	0.122
-549.354	-200.000	-0.067	-0.453
-548.339	-52.928	0.466	0.216
-547.325	-200.000	0.044	-0.402
-546.310	163.241	-0.191	-0.270
-545.296	800.000	-0.054	0.190
-544.281	800.000	-0.041	0.124
-543.266	-138.555	0.167	-0.018
-542.252	6.710	-0.233	0.174
-541.237	-9.134	0.365	-0.246
-540.223	147.205	0.122	0.165
-539.208	-43.956	0.036	-0.018
-538.193	-39.181	-0.281	-0.148
-537.179	-36.529	0.297	-0.161
-536.164	-140.275	0.348	-0.037
-535.150	374.889	-0.045	0.092
-534.135	50.360	0.292	0.278
-533.121	800.000	-0.040	0.130
-532.106	-42.323	-0.521	0.268
-531.091	324.921	0.103	0.198
-530.077	147.519	0.189	0.256
-529.062	72.049	0.065	-0.068
-528.048	42.469	0.164	-0.150
-527.033	59.148	-0.217	0.215
-526.018	-18.720	-0.235	0.147
-525.004	-40.204	0.069	-0.036
-523.989	166.534	-0.246	-0.350
-522.975	224.246	-0.053	-0.086
-521.960	-127.465	0.114	-0.017
-520.945	-200.000	-0.001	0.231
-519.931	382.645	-0.028	-0.059
-518.916	200.039	-0.192	-0.297
-517.902	-68.197	-0.229	-0.090
-516.887	-138.571	0.132	-0.015
-515.872	800.000	0.057	0.170
-514.858	-200.000	-0.051	-0.332
-513.843	-26.222	0.329	0.194
-512.829	596.376	0.048	0.120
-511.814	45.854	0.096	0.090
-510.799	-200.000	0.068	0.318
-509.785	-200.000	-0.013	0.256
-508.770	-153.278	0.103	0.007
-507.756	606.621	0.014	-0.034
-506.741	-71.789	0.191	-0.071
-505.726	8.984	0.140	-0.106
-504.712	38.829	-0.327	-0.294
-503.697	-200.000	-0.001	0.212
-502.683	432.873	-0.082	-0.179
-501.668	19.563	0.385	0.311
-500.653	-39.461	0.113	0.060
-499.639	-105.357	-0.141	0.032
-498.624	-200.000	0.002	-0.088
-497.610	-200.000	0.002	-0.109
-496.595	18.504	0.145	0.116
-495.581	494.483	0.075	-0.174
-494.566	-46.108	-0.055	0.027
-493.551	-142.429	0.212	-0.021
-492.537	-200.000	-0.048	-0.430
-491.522	50.514	0.157	-0.150
-490.508	-171.118	-0.206	-0.007
-489.493	-200.000	0.015	0.086
-488.478	-200.000	-0.215	0.000
-487.464	-200.000	-0.038	0.438
-486.449	386.750	-0.049	-0.102
-485.435	-15.633	-0.248	-0.159
-484.420	-200.000	-0.071	-0.411
-483.405	49.912	0.338	0.320
-482.391	-37.205	-0.348	-0.187
-481.376	29.177	-0.135	-0.115
-480.362	591.931	-0.106	-0.263
-479.347	-3.945	0.132	-0.092
-478.332	-200.000	-0.037	0.200
-477.318	93.480	0.113	-0.129
-476.303	55.334	-0.108	-0.105
-475.289	-35.095	-0.087	-0.047
-474.274	-200.000	0.003	-0.087
-473.259	-200.000	-0.001	0.108
-472.245	4.457	0.201	0.148
-471.230	-21.768	-0.135	0.082
-470.216	283.659	0.163	0.294
-469.201	182.064	0.073	-0.108
-468.186	-66.021	0.300	0.120
-467.172	-139.201	-0.234	-0.025
-466.157	36.799	-0.081	0.072
-465.143	-107.950	0.304	0.066
-464.128	-102.449	-0.370	-0.089
-463.113	-200.000	-0.023	-0.409
-462.099	-23.300	0.254	-0.153
-461.084	-200.000	-0.007	0.217
-460.070	-39.102	-0.251	-0.132
-459.055	182.758	0.099	-0.146
-458.040	-200.000	0.018	0.265
-457.026	3.908	-0.279	0.205
-456.011	-200.000	-0.015	0.297
-454.997	230.964	0.062	-0.102
-453.982	-200.000	0.016	-0.076
-452.968	177.666	-0.267	-0.390
-451.953	-200.000	-0.009	0.047
-450.938	-47.025	-0.158	-0.077
-449.924	341.208	0.130	0.254
-448.909	37.638	-0.066	0.059
-447.895	-169.093	0.212	-0.008
-446.880	59.943	0.094	-0.093
-445.865	-97.233	-0.282	-0.074
-444.851	-112.214	-0.236	0.047
-443.836	800.000	0.043	-0.173
-442.822	-66.553	0.308	-0.122
-441.807	464.073	0.105	-0.236
-440.792	23.194	-0.270	-0.222
-439.778	29.774	-0.078	0.066
-438.763	-105.408	0.037	-0.009
-437.749	-133.841	-0.077	0.010
-436.734	-106.282	-0.207	-0.046
-435.719	-200.000	0.001	0.019
-434.705	-200.000	-0.016	0.076
-433.690	-11.369	0.254	-0.167
-432.676	800.000	-0.055	-0.203
-431.661	800.000	0.045	0.156
-430.646	59.063	-0.099	-0.098
-429.632	-19.576	-0.290	-0.180
-428.617	-92.475	0.233	-0.066
-427.603	155.377	0.076	-0.105
-426.588	133.652	-0.299	0.388
-425.573	-200.000	-0.011	-0.497
-424.559	106.141	-0.164	-0.194
-423.544	-61.811	-0.201	-0.084
-422.530	800.000	0.016	-0.053
-421.515	-144.904	-0.319	0.029
-420.500	-200.000	0.030	-0.186
-419.486	167.387	-0.057	-0.081
-418.471	112.767	0.094	-0.114
-417.457	-53.072	0.180	-0.083
-416.442	800.000	0.034	-0.146
-415.428	118.241	0.110	0.136
-414.413	86.139	-0.085	0.094
-413.398	188.033	-0.028	-0.041
-412.384	-200.000	-0.004	-0.096
-411.369	-93.780	0.033	-0.009
-410.355	-131.874	0.048	0.006
-409.340	123.821	-0.239	-0.300
-408.325	-200.000	0.025	-0.366
-407.311	-57.004	-0.201	0.089
-406.296	182.294	-0.081	0.119
-405.282	630.501	-0.036	-0.091
-404.267	361.357	0.128	-0.258
-403.252	-200.000	-0.024	0.218
-402.238	70.078	-0.076	0.079
-401.223	-102.230	-0.150	-0.036
-400.209	59.283	-0.145	0.143
-399.194	-44.323	0.198	-0.099
-398.179	50.037	-0.088	0.083
-397.165	-19.019	0.286	0.178
-396.150	598.581	-0.048	-0.118
-395.136	235.897	-0.146	-0.242
-394.121	-89.122	0.118	-0.035
-393.106	342.972	-0.226	0.444
-392.092	800.000	0.093	0.316
-391.077	20.209	-0.413	0.334
-390.063	194.122	-0.176	-0.267
-389.048	437.389	-0.168	0.366
-388.033	-200.000	-0.008	-0.055
-387.019	-200.000	0.005	-0.056
-386.004	375.782	0.092	0.188
-384.990	-66.745	-0.113	-0.045
-383.975	74.732	-0.158	0.166
-382.960	-110.571	0.212	-0.044
-381.946	20.134	0.106	0.085
-380.931	800.000	-0.034	0.106
-379.917	-7.388	0.039	0.027
-378.902	-100.904	-0.292	0.072
-377.888	117.527	-0.132	-0.163
-376.873	-13.009	-0.085	-0.055
-375.858	800.000	-0.049	-0.164
-374.844	248.622	0.155	-0.262
-373.829	11.224	-0.101	-0.077
-372.815	208.000	0.163	0.255
-371.800	800.000	-0.050	-0.170
-370.785	142.583	-0.158	-0.210
-369.771	295.816	0.020	-0.036
-368.756	-10.747	-0.284	0.188
-367.742	184.142	-0.119	-0.176
-366.727	-76.722	0.383	0.134
-365.712	9.318	0.136	0.103
-364.698	65.876	-0.144	-0.146
-363.683	800.000	-0.041	0.115
-362.669	185.166	-0.121	0.179
-361.654	-62.425	-0.208	-0.086
-360.639	156.709	-0.382	-0.527
-359.625	-78.293	0.014	0.005
-358.610	-127.299	0.340	-0.050
-357.596	-146.613	0.338	0.029
-356.581	-9.117	0.150	-0.100
-355.566	446.538	0.146	0.321
-354.552	-200.000	0.002	0.028
-353.537	99.197	0.089	0.102
-352.523	-200.000	0.015	-0.073
-351.508	-200.000	-0.024	0.284
-350.493	56.551	0.042	0.040
-349.479	-200.000	-0.266	0.001
-348.464	800.000	0.155	0.499
-347.450	-71.896	0.344	0.128
-346.435	73.545	0.086	-0.090
-345.420	-162.198	0.100	0.005
-344.406	38.920	-0.101	-0.090
-343.391	-124.652	0.156	-0.024
-342.377	704.343	-0.115	0.302
-341.362	180.049	-0.133	0.194
-340.348	-200.000	-0.019	-0.354
-339.333	-200.000	0.010	-0.118
-338.318	247.665	0.207	-0.350
-337.304	482.590	-0.085	-0.193
-336.289	-100.568	-0.334	0.082
-335.275	670.704	-0.086	0.224
-334.260	-181.556	0.033	-0.001
-333.245	151.257	0.115	-0.156
-332.231	56.452	0.156	0.151
-331.216	30.174	0.209	0.178
-330.202	800.000	-0.091	0.384
-329.187	-200.000	0.049	-0.236
-328.172	-109.046	0.242	-0.051
-327.158	-36.117	0.407	0.219
-326.143	222.697	-0.080	0.128
-325.129	-76.641	-0.164	0.058
-324.114	97.985	0.061	0.070
-323.099	661.110	-0.168	-0.432
-322.085	277.379	0.054	-0.095
-321.070	146.813	0.148	0.199
-320.056	60.939	-0.089	-0.088
-319.041	-9.766	0.295	0.196
-318.026	154.302	-0.097	-0.133
-317.012	-54.379	0.139	0.063
-315.997	-86.926	-0.227	0.069
-314.983	201.372	-0.231	0.355
-313.968	800.000	0.091	0.250
-312.953	800.000	-0.066	0.237
-311.939	800.000	0.031	0.125
-310.924	-200.000	0.027	0.317
-309.910	-28.182	0.205	0.118
-308.895	-114.324	0.147	0.028
-307.880	-142.074	0.177	-0.018
-306.866	-29.948	0.331	-0.188
-305.851	40.049	0.179	-0.160
-304.837	800.000	0.074	0.236
-303.822	-200.000	-0.008	-0.160
-302.807	800.000	-0.043	0.148
-301.793	-200.000	-0.048	0.324
-300.778	3.738	0.228	0.166
-299.764	-200.000	0.039	-0.369
-298.749	-200.000	-0.012	-0.155
-297.735	-118.427	-0.184	0.032
-296.720	90.392	0.276	-0.308
-295.705	-20.972	0.172	0.105
-294.691	-200.000	0.036	0.224
-293.676	415.174	-0.007	-0.014
-292.662	-200.000	-0.031	-0.424
-291.647	570.264	-0.068	0.165
-290.632	-115.770	0.117	0.022
-289.618	-189.236	-0.148	0.002
-288.603	-31.907	0.208	0.116
-287.589	800.000	0.102	0.280
-286.574	48.004	0.108	-0.101
-285.559	-119.922	0.237	-0.041
-284.545	-200.000	-0.053	-0.242
-283.530	-8.780	0.029	0.019
-282.516	128.596	-0.338	-0.429
-281.501	800.000	-0.082	-0.299
-280.486	-174.187	0.311	0.009
-279.472	-200.000	0.003	-0.206
-278.457	-200.000	0.050	-0.318
-277.443	104.053	0.126	-0.148
-276.428	332.074	-0.121	-0.232
-275.413	-91.647	-0.334	-0.095
-274.399	422.211	-0.115	0.245
-273.384	38.742	-0.276	0.246
-272.370	800.000	0.041	0.135
-271.355	-30.662	-0.064	0.036
-270.340	741.892	-0.107	-0.287
-269.326	800.000	0.103	0.349
-268.311	-25.140	-0.040	0.024
-267.297	-80.261	-0.269	-0.090
-266.282	75.459	-0.171	-0.180
-265.267	-115.657	0.189	0.035
-264.253	153.580	0.112	0.153
-263.238	-200.000	-0.047	0.336
-262.224	532.891	-0.064	-0.150
-261.209	137.363	0.065	-0.085
-260.195	-13.928	0.304	-0.195
-259.180	295.517	-0.087	0.158
-258.165	800.000	0.006	0.022
-257.151	498.623	-0.014	-0.032
-256.136	187.224	0.063	0.094
-255.122	-83.261	-0.102	0.032
-254.107	-200.000	-0.035	-0.262
-253.092	-4.983	0.092	0.063
-252.078	155.248	0.095	0.130
-251.063	275.812	0.220	0.389
-250.049	26.399	-0.119	0.099
-249.034	800.000	0.115	-0.349
-248.019	655.744	0.086	-0.220
-247.005	-31.347	0.344	0.192
-245.990	406.977	-0.044	0.093
-244.976	72.950	0.085	-0.089
-243.961	-141.753	0.113	-0.011
-242.946	-200.000	0.089	0.000
-241.932	481.014	-0.108	-0.243
-240.917	159.231	-0.111	0.153
-239.903	-61.062	0.125	-0.052
-238.888	-200.000	0.010	0.057
-237.873	29.556	-0.072	0.061
-236.859	-74.490	-0.157	0.056
-235.844	-200.000	-0.069	0.365
-234.830	-81.394	0.241	-0.079
-233.815	54.304	0.204	0.195
-232.800	-8.478	-0.173	0.116
-231.786	-89.430	-0.345	-0.101
-230.771	-40.550	0.134	0.069
-229.757	515.599	0.041	0.094
-228.742	-71.306	0.348	0.130
-227.727	73.872	0.091	-0.095
-226.713	-200.000	0.007	-0.271
-225.698	9.119	-0.155	0.116
-224.684	70.266	-0.201	0.207
-223.669	-200.000	-0.002	0.087
-222.655	-127.523	0.308	0.044
-221.640	496.151	0.121	-0.276
-220.625	800.000	-0.095	0.303
-219.611	306.499	-0.112	0.208
-218.596	-71.526	0.104	-0.038
-217.582	75.212	0.023	0.024
-216.567	245.005	-0.130	0.218
-215.552	-114.274	-0.071	-0.014
-214.538	-63.606	-0.251	-0.102
-213.523	170.490	-0.216	0.308
-212.509	-55.418	-0.299	-0.133
-211.494	11.722	-0.159	-0.121
-210.479	-42.393	0.106	0.054
-209.465	-167.938	-0.334	0.013
-208.450	238.575	-0.021	-0.035
-207.436	-80.838	0.632	0.208
-206.421	800.000	-0.046	-0.143
-205.406	31.745	-0.020	0.017
-204.392	77.880	-0.229	0.242
-203.377	-200.000	-0.007	-0.038
-202.363	238.401	0.029	0.049
-201.348	-31.103	-0.251	0.141
-200.333	790.735	0.037	-0.100
-199.319	-93.218	0.333	0.092
-198.304	28.013	0.101	-0.084
-197.290	292.552	0.078	0.141
-196.275	-68.842	0.271	0.104
-195.260	800.000	0.049	0.169
-194.246	637.404	-0.085	-0.215
-193.231	-200.000	0.021	-0.157
-192.217	265.009	-0.219	-0.379
-191.202	-148.742	0.305	0.025
-190.187	178.772	0.078	-0.113
-189.173	800.000	-0.046	0.173
-188.158	437.085	0.089	0.192
-187.144	-11.331	-0.322	0.211
-186.129	-200.000	-0.021	0.113
-185.114	800.000	-0.070	-0.262
-184.100	800.000	0.046	-0.183
-183.085	98.511	0.022	0.025
-182.071	153.129	-0.418	0.568
-181.056	800.000	-0.043	0.160
-180.042	64.867	0.273	0.273
-179.027	-38.522	-0.268	0.141
-178.012	800.000	-0.055	0.186
-176.998	19.783	-0.215	-0.172
-175.983	353.383	-0.129	0.254
-174.969	-32.078	-0.352	0.195
-173.954	-133.294	0.260	-0.033
-172.939	-200.000	0.017	-0.440
-171.925	-64.270	-0.140	0.057
-170.910	8.492	-0.268	0.200
-169.896	-200.000	-0.048	0.278
-168.881	-200.000	0.000	-0.137
-167.866	-48.298	0.134	0.064
-166.852	333.657	0.095	-0.182
-165.837	-188.350	-0.139	0.002
-164.823	-155.795	0.127	-0.008
-163.808	-120.179	-0.235	0.040
-162.793	93.200	0.047	0.053
-161.779	244.873	0.172	-0.287
-160.764	-200.000	-0.046	0.214
-159.750	-156.231	-0.087	0.005
-158.735	-23.264	0.183	-0.109
-157.720	-81.687	0.098	-0.032
-156.706	800.000	0.007	0.030
-155.691	-46.480	-0.380	0.185
-154.677	-140.226	0.281	0.029
-153.662	78.980	0.126	0.134
-152.647	499.849	0.084	-0.193
-151.633	-58.517	0.190	0.082
-150.618	-200.000	-0.013	-0.241
-149.604	212.027	0.084	-0.131
-148.589	-121.936	0.261	0.043
-147.574	-119.559	0.124	-0.021
-146.560	-200.000	0.040	0.325
-145.545	27.396	-0.167	0.139
-144.531	-68.566	-0.342	-0.131
-143.516	-98.705	0.212	-0.054
-142.502	163.450	-0.169	0.236
-141.487	-95.786	-0.307	0.081
-140.472	-13.065	-0.080	-0.052
-139.458	-116.085	0.244	0.045
-138.443	95.363	0.149	0.168
-137.429	104.468	0.137	0.160
-136.414	18.322	-0.202	0.159
-135.399	-200.000	-0.013	0.235
-134.385	800.000	-0.029	0.112
-133.370	-200.000	0.031	0.261
-132.356	-200.000	-0.007	0.176
-131.341	-200.000	-0.017	0.151
-130.326	-108.768	-0.044	0.009
-129.312	219.005	-0.033	0.053
-128.297	327.533	-0.140	-0.267
-127.283	-146.616	-0.132	-0.011
-126.268	-60.266	0.143	0.060
-125.253	4.785	-0.103	0.075
-124.239	-200.000	-0.020	-0.171
-123.224	800.000	-0.160	0.575
-122.210	369.470	-0.174	-0.349
-121.195	-25.307	0.087	-0.051
-120.180	800.000	-0.082	-0.231
