DTS Sentinel unit serial number:	SN413079Multiplexer serial number:	ORYXHardware model number:	OX4-SRSoftware version number:	ORYX F/W v4.00 Oryx Data Collector v3.7.2.0data status	okinstallation	princeton_trtdifferential loss correction	single-endedforward channel	channel 2reverse channel	N/Adate	2019/09/15time	14:59:35forward acquisition time	60.00reverse acquisition time	0.00gamma	496.2192k internal	0.2299k external	0.2299temperature offset calibration	0.9968default loss term (dB/km)	0.3790temperature slope calibration	1.0000multiplexer offset coefficient	1.0000multiplexer slope coefficient	1.0000fibre end	0.00T internal ref (°C)	40.17T ext. ref 1 (°C)	4.91T ext. ref 2 (°C)	37.58length (m)	temperature (°C)	Stokes	anti-Stokes-747.200	123.352	-0.168	0.215
-746.185	-8.567	-0.310	0.212
-745.171	-111.724	-0.277	-0.057
-744.156	800.000	-0.099	0.352
-743.142	-21.201	0.200	-0.125
-742.127	-48.870	0.185	0.091
-741.112	0.083	0.153	0.111
-740.098	-133.043	-0.243	-0.031
-739.083	-33.275	-0.263	-0.149
-738.069	23.455	0.160	0.134
-737.054	800.000	-0.043	-0.153
-736.039	800.000	-0.032	0.091
-735.025	713.434	0.109	0.296
-734.010	60.011	-0.409	0.413
-732.996	96.759	-0.207	-0.242
-731.981	800.000	-0.043	0.152
-730.966	-139.178	0.356	0.039
-729.952	564.723	-0.062	-0.154
-728.937	-99.697	-0.153	0.039
-727.923	47.718	0.178	-0.169
-726.908	800.000	0.081	-0.237
-725.894	-113.681	0.249	0.050
-724.879	-187.894	-0.242	-0.003
-723.864	-200.000	-0.025	-0.256
-722.850	800.000	-0.136	-0.430
-721.835	-159.393	0.292	-0.017
-720.821	-200.000	0.013	-0.068
-719.806	800.000	0.016	-0.061
-718.791	-93.949	-0.346	-0.097
-717.777	28.516	-0.200	-0.173
-716.762	8.951	-0.297	-0.228
-715.748	800.000	0.014	0.050
-714.733	-106.621	-0.333	-0.076
-713.718	525.189	-0.095	-0.228
-712.704	690.824	-0.100	0.267
-711.689	-23.823	0.076	-0.046
-710.675	-20.953	-0.140	0.087
-709.660	-50.660	0.300	-0.144
-708.645	-200.000	0.027	-0.401
-707.631	66.578	0.123	-0.128
-706.616	30.466	-0.072	-0.062
-705.602	-81.618	-0.104	-0.035
-704.587	325.687	0.032	0.062
-703.572	165.872	0.072	0.104
-702.558	7.518	-0.111	0.085
-701.543	-26.185	0.177	-0.106
-700.529	-22.549	0.270	-0.166
-699.514	399.874	-0.038	0.081
-698.499	-49.680	-0.267	-0.129
-697.485	-200.000	0.006	-0.261
-696.470	-70.597	0.494	0.190
-695.456	800.000	0.025	-0.102
-694.441	-200.000	-0.061	-0.354
-693.426	392.660	-0.096	-0.204
-692.412	-156.712	-0.044	-0.003
-691.397	19.702	-0.076	0.062
-690.383	-200.000	0.000	-0.138
-689.368	-72.654	0.219	-0.082
-688.354	146.398	0.028	-0.039
-687.339	-24.206	-0.119	-0.072
-686.324	56.230	0.127	-0.126
-685.310	-95.848	0.057	-0.015
-684.295	-12.446	-0.312	0.207
-683.281	72.559	0.137	-0.146
-682.266	800.000	0.032	0.129
-681.251	800.000	0.043	0.182
-680.237	41.651	0.260	-0.240
-679.222	-6.464	0.310	0.215
-678.208	-111.952	0.105	0.022
-677.193	231.219	-0.016	0.027
-676.178	8.446	0.143	0.110
-675.164	800.000	0.027	0.080
-674.149	-102.492	-0.298	0.073
-673.135	-166.806	-0.187	-0.008
-672.120	-200.000	0.018	0.257
-671.105	18.444	0.187	0.152
-670.091	-4.174	0.176	0.124
-669.076	-100.829	0.319	-0.080
-668.062	-132.252	0.171	-0.022
-667.047	93.369	-0.149	0.171
-666.032	743.443	0.121	-0.332
-665.018	189.026	-0.059	-0.089
-664.003	-168.496	-0.066	0.003
-662.989	270.975	0.030	0.054
-661.974	800.000	-0.110	-0.480
-660.959	-161.894	-0.501	0.026
-659.945	-155.537	0.296	-0.019
-658.930	340.135	0.167	0.331
-657.916	-42.678	0.147	0.076
-656.901	215.733	0.189	0.306
-655.886	-84.387	-0.092	0.029
-654.872	585.270	0.042	0.106
-653.857	275.699	-0.136	-0.245
-652.843	-139.650	-0.077	0.008
-651.828	-38.831	-0.053	0.029
-650.814	-10.537	-0.145	-0.098
-649.799	580.717	-0.081	-0.203
-648.784	54.613	-0.091	-0.089
-647.770	-200.000	-0.060	0.291
-646.755	800.000	-0.021	-0.080
-645.741	-65.410	0.207	0.085
-644.726	800.000	0.088	0.317
-643.711	32.866	-0.123	-0.108
-642.697	-64.754	-0.057	-0.024
-641.682	-200.000	0.000	-0.171
-640.668	1.777	-0.315	0.231
-639.653	168.500	-0.213	-0.308
-638.638	152.455	0.179	-0.248
-637.624	49.345	-0.237	0.227
-636.609	147.899	-0.003	-0.004
-635.595	-51.858	-0.244	0.115
-634.580	-200.000	-0.006	-0.056
-633.565	-200.000	0.019	-0.179
-632.551	117.202	-0.142	-0.177
-631.536	38.110	-0.181	-0.164
-630.522	-200.000	-0.037	-0.552
-629.507	-102.974	0.347	0.084
-628.492	-83.164	0.222	0.073
-627.478	-100.105	0.452	-0.114
-626.463	-71.779	0.104	0.039
-625.449	40.322	0.220	0.201
-624.434	580.895	-0.110	-0.273
-623.419	51.887	0.136	-0.132
-622.405	309.124	0.063	-0.120
-621.390	37.477	0.355	0.320
-620.376	11.830	0.117	0.091
-619.361	-42.385	0.185	-0.096
-618.346	238.740	-0.057	-0.096
-617.332	-52.179	0.350	-0.165
-616.317	288.875	0.010	-0.018
-615.303	212.512	-0.171	0.274
-614.288	248.989	0.090	-0.155
-613.273	-44.032	0.163	-0.083
-612.259	395.983	0.179	-0.378
-611.244	-200.000	-0.026	-0.269
-610.230	800.000	-0.014	0.061
-609.215	499.366	0.111	0.259
-608.201	-200.000	0.010	-0.144
-607.186	-129.672	0.339	-0.047
-606.171	-83.357	-0.376	0.122
-605.157	-119.429	0.408	0.072
-604.142	800.000	0.016	0.064
-603.128	-200.000	-0.047	0.259
-602.113	-200.000	0.063	0.340
-601.098	-200.000	-0.095	0.423
-600.084	246.036	0.102	-0.174
-599.069	650.837	-0.085	-0.220
-598.055	-136.947	-0.163	-0.019
-597.040	-162.100	-0.095	-0.005
-596.025	35.705	0.044	-0.039
-595.011	17.749	-0.374	0.302
-593.996	-116.295	0.051	-0.010
-592.982	440.041	0.084	-0.186
-591.967	-5.510	0.174	-0.121
-590.952	-107.761	-0.136	-0.030
-589.938	-200.000	-0.068	0.348
-588.923	-200.000	-0.045	0.228
-587.909	551.724	0.079	0.193
-586.894	439.262	0.043	0.095
-585.879	800.000	-0.052	-0.225
-584.865	-112.347	-0.276	-0.056
-583.850	264.918	-0.149	-0.263
-582.836	-161.290	-0.416	0.022
-581.821	259.659	0.310	-0.543
-580.806	8.364	0.449	0.342
-579.792	136.084	0.043	0.057
-578.777	-123.826	-0.246	-0.039
-577.763	380.531	-0.091	0.189
-576.748	-200.000	0.080	-0.459
-575.733	-200.000	-0.021	-0.321
-574.719	206.641	-0.317	-0.500
-573.704	89.550	0.078	0.089
-572.690	-83.136	-0.151	-0.049
-571.675	-116.628	0.182	-0.034
-570.661	-29.802	0.296	0.171
-569.646	750.962	-0.089	-0.245
-568.631	292.806	0.084	-0.156
-567.617	7.594	0.092	0.070
-566.602	31.765	-0.208	-0.182
-565.588	-119.531	0.166	0.029
-564.573	436.618	-0.061	-0.134
-563.558	-113.238	-0.109	-0.022
-562.544	-200.000	-0.013	-0.297
-561.529	185.217	-0.069	0.104
-560.515	24.598	0.155	0.130
-559.500	-11.108	0.139	-0.093
-558.485	-56.869	-0.104	-0.047
-557.471	-0.593	-0.100	0.072
-556.456	800.000	-0.077	0.276
-555.442	-136.495	-0.232	-0.027
-554.427	-17.335	-0.310	0.198
-553.412	-97.274	-0.366	0.097
-552.398	4.197	0.166	0.123
-551.383	-133.299	0.110	-0.014
-550.369	-155.299	-0.152	-0.010
-549.354	439.130	-0.082	0.181
-548.339	182.383	-0.236	-0.352
-547.325	33.570	0.141	-0.124
-546.310	54.778	0.106	-0.104
-545.296	287.164	-0.198	0.363
-544.281	287.675	-0.057	-0.103
-543.266	173.726	0.118	0.173
-542.252	-200.000	0.022	-0.108
-541.237	-200.000	-0.022	-0.289
-540.223	33.645	0.288	-0.253
-539.208	217.393	-0.157	0.252
-538.193	323.007	-0.150	-0.289
-537.179	-200.000	-0.081	0.437
-536.164	-11.210	0.232	0.154
-535.150	338.364	-0.160	-0.316
-534.135	-96.885	0.260	0.069
-533.121	4.423	-0.124	0.092
-532.106	-30.636	-0.124	-0.071
-531.091	-200.000	0.057	-0.281
-530.077	-4.394	-0.098	0.068
-529.062	107.774	0.166	0.201
-528.048	-78.945	0.177	-0.061
-527.033	522.210	-0.046	-0.110
-526.018	-200.000	0.018	-0.092
-525.004	456.443	0.142	-0.319
-523.989	-54.261	-0.303	0.139
-522.975	-178.184	-0.311	0.007
-521.960	-53.286	0.251	-0.116
-520.945	10.981	0.159	-0.123
-519.931	-25.915	0.198	-0.118
-518.916	-200.000	0.004	0.311
-517.902	-52.677	0.012	0.006
-516.887	167.175	0.047	-0.067
-515.872	-97.631	-0.223	0.058
-514.858	-88.220	0.305	-0.092
-513.843	-118.945	0.213	-0.038
-512.829	-200.000	0.003	-0.017
-511.814	-122.561	-0.279	0.046
-510.799	-200.000	-0.030	-0.190
-509.785	-91.275	0.373	0.108
-508.770	-200.000	0.005	0.036
-507.756	-175.241	-0.051	-0.001
-506.741	-200.000	-0.208	-0.000
-505.726	43.730	-0.065	0.060
-504.712	800.000	-0.038	0.123
-503.697	-26.217	-0.214	0.127
-502.683	126.467	0.216	0.276
-501.668	800.000	-0.057	0.219
-500.653	-200.000	0.003	0.286
-499.639	62.824	-0.046	0.046
-498.624	80.027	0.098	0.106
-497.610	-200.000	-0.004	-0.338
-496.595	716.224	0.171	0.459
-495.581	60.801	0.110	-0.110
-494.566	-44.306	0.233	-0.118
-493.551	-62.216	0.253	0.106
-492.537	-200.000	-0.012	-0.320
-491.522	800.000	-0.047	-0.176
-490.508	-69.442	-0.065	-0.025
-489.493	-63.404	0.536	0.223
-488.478	1.188	0.224	0.162
-487.464	224.621	-0.104	0.170
-486.449	161.358	-0.057	-0.081
-485.435	-56.132	0.315	-0.141
-484.420	133.035	0.042	-0.055
-483.405	317.022	-0.087	0.167
-482.391	325.328	0.175	0.338
-481.376	800.000	-0.107	0.400
-480.362	-54.076	-0.511	0.235
-479.347	23.936	0.293	0.244
-478.332	3.825	0.089	0.065
-477.318	-200.000	0.018	0.192
-476.303	-36.335	0.097	0.053
-475.289	97.892	0.102	-0.119
-474.274	-38.035	-0.250	-0.134
-473.259	-52.976	0.138	-0.064
-472.245	-200.000	0.001	0.134
-471.230	383.238	0.062	0.129
-470.216	800.000	0.047	0.137
-469.201	61.821	0.041	-0.041
-468.186	1.449	-0.078	0.057
-467.172	11.352	0.082	0.064
-466.157	242.062	-0.133	0.225
-465.143	37.404	-0.193	0.172
-464.128	278.123	0.065	-0.117
-463.113	-97.173	0.082	-0.022
-462.099	77.094	-0.184	0.197
-461.084	-20.582	0.068	0.042
-460.070	-200.000	-0.003	0.112
-459.055	-50.976	-0.278	0.132
-458.040	-131.654	0.239	-0.032
-457.026	317.049	-0.154	0.295
-456.011	675.295	0.037	0.097
-454.997	800.000	0.067	-0.247
-453.982	800.000	-0.022	0.074
-452.968	602.861	0.094	0.236
-451.953	92.921	0.051	0.058
-450.938	-200.000	-0.011	-0.118
-449.924	-127.383	-0.178	0.026
-448.909	-200.000	0.010	0.222
-447.895	107.016	-0.032	0.038
-446.880	144.286	-0.134	-0.181
-445.865	-82.165	0.141	0.046
-444.851	-88.068	-0.250	0.076
-443.836	-127.170	0.529	0.078
-442.822	800.000	-0.057	0.201
-441.807	100.067	0.110	0.128
-440.792	541.108	-0.156	-0.375
-439.778	-87.503	-0.126	-0.039
-438.763	98.785	-0.098	-0.114
-437.749	800.000	-0.042	-0.165
-436.734	195.312	0.223	0.342
-435.719	-32.530	0.168	-0.094
-434.705	-33.907	0.074	-0.041
-433.690	-200.000	0.011	-0.317
-432.676	-200.000	0.011	0.240
-431.661	-113.254	-0.108	0.021
-430.646	-78.597	-0.149	0.051
-429.632	132.418	0.072	-0.093
-428.617	-120.095	-0.511	-0.088
-427.603	767.984	-0.092	-0.253
-426.588	-25.639	0.149	-0.089
-425.573	-0.676	-0.115	-0.082
-424.559	-200.000	-0.011	-0.239
-423.544	-200.000	0.013	-0.075
-422.530	-69.432	0.114	-0.044
-421.515	345.584	-0.084	0.166
-420.500	-200.000	0.026	-0.254
-419.486	-117.787	-0.306	0.055
-418.471	238.409	0.178	0.297
-417.457	-200.000	0.009	0.319
-416.442	136.363	-0.184	0.242
-415.428	634.417	-0.056	0.142
-414.413	112.488	0.312	0.381
-413.398	236.260	-0.138	0.229
-412.384	26.557	-0.146	-0.123
-411.369	800.000	-0.046	0.168
-410.355	-58.351	-0.121	0.053
-409.340	129.823	0.074	0.095
-408.325	129.986	0.067	-0.086
-407.311	-132.456	0.464	-0.060
-406.296	800.000	0.071	-0.258
-405.282	-200.000	0.005	0.299
-404.267	180.750	-0.099	-0.147
-403.252	-61.812	-0.282	0.119
-402.238	-142.802	-0.201	-0.020
-401.223	-85.569	0.142	0.044
-400.209	-50.538	-0.124	0.059
-399.194	757.591	0.080	-0.219
-398.179	-104.441	0.351	-0.082
-397.165	254.592	0.073	-0.126
-396.150	-200.000	0.030	0.221
-395.136	800.000	-0.034	0.128
-394.121	-40.997	-0.232	-0.121
-393.106	-23.823	0.448	-0.270
-392.092	800.000	-0.076	-0.233
-391.077	-128.145	0.234	0.034
-390.063	20.250	-0.258	-0.210
-389.048	800.000	-0.070	0.251
-388.033	-27.562	0.112	-0.066
-387.019	362.195	-0.044	0.089
-386.004	-200.000	-0.020	0.274
-384.990	264.614	0.035	0.062
-383.975	-42.742	0.265	0.135
-382.960	12.608	0.184	-0.143
-381.946	24.582	-0.085	0.071
-380.931	-200.000	0.014	0.264
-379.917	-31.125	0.129	-0.073
-378.902	-200.000	-0.013	-0.104
-377.888	74.505	-0.318	0.336
-376.873	-114.627	0.273	0.053
-375.858	55.363	-0.086	0.084
-374.844	75.405	0.150	-0.159
-373.829	800.000	-0.025	0.087
-372.815	-1.460	0.119	0.085
-371.800	219.296	-0.144	0.231
-370.785	-135.815	0.246	-0.029
-369.771	800.000	0.073	0.210
-368.756	-84.217	-0.210	0.067
-367.742	134.180	0.105	-0.137
-366.727	123.696	-0.268	-0.338
-365.712	26.252	0.016	-0.014
-364.698	-60.450	-0.149	0.064
-363.683	-143.279	0.137	0.013
-362.669	23.045	-0.110	0.091
-361.654	503.168	-0.088	-0.205
-360.639	144.587	-0.105	0.142
-359.625	-200.000	0.001	0.006
-358.610	-88.787	0.086	-0.026
-357.596	566.095	0.111	0.272
-356.581	246.938	-0.114	0.193
-355.566	86.839	-0.078	0.086
-354.552	-200.000	0.039	0.486
-353.537	33.418	-0.217	0.190
-352.523	197.168	-0.122	0.187
-351.508	5.899	-0.146	0.109
-350.493	540.907	-0.054	-0.130
-349.479	408.088	-0.046	0.097
-348.464	-1.765	-0.121	0.086
-347.450	-15.358	-0.183	-0.117
-346.435	-72.483	-0.088	-0.033
-345.420	14.887	-0.095	-0.075
-344.406	-200.000	-0.015	-0.209
-343.391	-200.000	0.001	-0.159
-342.377	-200.000	0.029	-0.141
-341.362	400.995	0.058	-0.123
-340.348	800.000	0.064	-0.252
-339.333	351.790	-0.034	0.068
-338.318	-92.152	0.273	0.077
-337.304	42.013	-0.066	-0.060
-336.289	-93.880	-0.138	0.038
-335.275	-200.000	-0.066	0.360
-334.260	-54.058	-0.267	0.122
-333.245	-123.405	-0.156	0.025
-332.231	-93.752	0.289	0.080
-331.216	-105.807	-0.226	0.051
-330.202	-138.893	-0.321	0.035
-329.187	64.764	-0.065	-0.066
-328.172	800.000	0.069	-0.211
-327.158	6.601	-0.139	0.104
-326.143	800.000	0.070	0.202
-325.129	-48.589	0.177	0.085
-324.114	-200.000	-0.033	0.181
-323.099	30.560	0.062	-0.053
-322.085	-82.825	0.202	-0.066
-321.070	122.834	-0.230	-0.289
-320.056	684.616	0.115	-0.302
-319.041	82.321	-0.106	-0.116
-318.026	-134.444	0.420	0.052
-317.012	64.513	0.110	-0.112
-315.997	446.053	-0.107	-0.237
-314.983	800.000	0.023	-0.078
-313.968	180.643	0.120	-0.177
-312.953	-200.000	0.181	-0.000
-311.939	14.515	-0.047	0.037
-310.924	-200.000	0.016	-0.199
-309.910	-64.040	-0.231	-0.095
-308.895	242.281	-0.084	-0.141
-307.880	-150.620	-0.356	0.027
-306.866	737.218	-0.078	-0.210
-305.851	74.566	0.146	-0.154
-304.837	-69.215	0.208	-0.080
-303.822	161.413	-0.108	-0.152
-302.807	439.213	0.094	0.206
-301.793	-200.000	-0.078	-0.344
-300.778	-38.046	0.066	0.035
-299.764	53.586	-0.060	0.057
-298.749	-13.377	0.004	-0.003
-297.735	-68.310	-0.169	-0.066
-296.720	-161.550	0.209	-0.011
-295.705	-67.194	-0.234	-0.092
-294.691	800.000	0.030	0.095
-293.676	-67.380	0.285	-0.112
-292.662	-53.283	0.151	-0.070
-291.647	-92.910	-0.208	-0.058
-290.632	-198.178	-0.294	-0.002
-289.618	59.891	-0.092	-0.091
-288.603	-119.597	0.031	-0.005
-287.589	-104.566	-0.116	-0.027
-286.574	51.374	0.150	-0.142
-285.559	-159.330	0.325	-0.018
-284.545	62.738	0.095	-0.096
-283.530	800.000	0.011	-0.032
-282.516	800.000	-0.104	-0.337
-281.501	800.000	-0.022	0.078
-280.486	-200.000	-0.068	0.357
-279.472	-200.000	0.013	-0.110
-278.457	-200.000	-0.029	-0.451
-277.443	-200.000	-0.012	0.193
-276.428	-22.019	-0.070	-0.043
-275.413	-200.000	0.036	0.248
-274.399	-200.000	-0.019	0.434
-273.384	-53.018	0.175	-0.081
-272.370	-56.342	0.111	-0.049
-271.355	330.455	0.056	0.108
-270.340	-178.288	0.382	0.009
-269.326	-139.782	-0.226	0.024
-268.311	513.931	0.147	-0.345
-267.297	31.388	0.247	-0.213
-266.282	61.722	-0.134	0.134
-265.267	-137.862	-0.176	0.020
-264.253	5.317	-0.212	-0.156
-263.238	-113.806	-0.193	-0.038
-262.224	-200.000	-0.014	-0.127
-261.209	209.304	0.129	-0.202
-260.195	427.078	0.070	0.151
-259.180	483.160	-0.079	-0.180
-258.165	158.529	0.106	-0.148
-257.151	-162.405	-0.101	-0.005
-256.136	-58.248	-0.262	0.114
-255.122	-98.250	-0.025	-0.007
-254.107	-200.000	-0.020	-0.121
-253.092	453.290	0.251	0.556
-252.078	113.970	-0.123	0.149
-251.063	-81.543	-0.294	0.097
-250.049	800.000	-0.038	0.109
-249.034	-88.385	0.358	0.107
-248.019	-126.515	-0.117	-0.017
-247.005	800.000	-0.051	0.144
-245.990	800.000	-0.096	-0.303
-244.976	800.000	0.021	0.090
-243.961	-118.941	-0.304	0.053
-242.946	90.887	0.370	-0.415
-241.932	800.000	0.005	0.014
-240.917	54.532	-0.284	-0.273
-239.903	-70.107	0.164	0.063
-238.888	-200.000	-0.006	0.093
-237.873	137.388	-0.145	-0.190
-236.859	-123.535	0.261	-0.042
-235.844	-200.000	0.003	-0.250
-234.830	312.818	-0.088	0.165
-233.815	800.000	-0.143	0.412
-232.800	-34.479	-0.146	0.080
-231.786	4.808	0.138	-0.101
-230.771	358.790	-0.127	0.255
-229.757	435.670	-0.052	-0.113
-228.742	800.000	0.092	-0.269
-227.727	32.105	0.306	0.264
-226.713	106.345	-0.218	0.258
-225.698	620.634	0.037	0.092
-224.684	263.877	-0.109	-0.190
-223.669	-131.513	-0.101	0.013
-222.655	142.455	-0.227	0.302
-221.640	-61.575	0.209	-0.088
-220.625	114.603	0.052	0.063
-219.611	8.112	-0.145	0.109
-218.596	-51.755	0.183	0.085
-217.582	-54.217	0.067	0.030
-216.567	-200.000	-0.042	-0.228
-215.552	-1.146	-0.345	-0.244
-214.538	-70.924	-0.326	0.123
-213.523	-107.345	-0.275	0.060
-212.509	-79.086	-0.166	0.056
-211.494	-75.179	-0.165	0.059
-210.479	-17.435	0.299	-0.188
-209.465	124.663	0.071	-0.089
-208.450	-170.711	0.400	-0.014
-207.436	43.525	0.135	-0.123
-206.421	800.000	-0.041	-0.155
-205.406	-200.000	0.031	-0.241
-204.392	86.809	-0.091	0.100
-203.377	-34.568	0.156	0.085
-202.363	88.487	0.066	-0.074
-201.348	-72.220	0.126	-0.047
-200.333	350.151	-0.176	0.348
-199.319	363.803	-0.010	0.019
-198.304	-91.644	0.227	0.065
-197.290	9.376	0.073	-0.055
-196.275	-200.000	-0.065	-0.382
-195.260	254.131	0.166	-0.283
-194.246	126.793	0.150	0.190
-193.231	-36.498	-0.122	0.066
-192.217	-77.853	-0.185	0.064
-191.202	-36.556	0.261	-0.140
-190.187	800.000	0.054	-0.230
-189.173	-200.000	-0.062	-0.308
-188.158	-200.000	-0.154	-0.696
-187.144	-200.000	-0.029	-0.185
-186.129	-160.971	-0.252	-0.013
-185.114	-43.256	0.171	-0.086
-184.100	-200.000	0.034	-0.356
-183.085	-200.000	-0.053	0.312
-182.071	539.772	0.028	0.067
-181.056	800.000	0.067	0.227
-180.042	-200.000	-0.020	0.134
-179.027	-35.821	-0.238	0.129
-178.012	-67.007	-0.167	0.066
-176.998	31.402	-0.063	-0.054
-175.983	80.554	0.067	-0.072
-174.969	291.037	0.161	-0.291
-173.954	66.389	0.139	0.141
-172.939	153.824	-0.067	0.091
-171.925	-120.764	-0.108	0.018
-170.910	-200.000	-0.014	0.331
-169.896	-64.064	0.275	0.112
-168.881	-69.252	0.295	-0.113
-167.866	-72.217	-0.371	0.137
-166.852	19.095	0.217	-0.174
-165.837	-15.496	0.112	-0.071
-164.823	-54.768	0.242	0.109
-163.808	-187.584	0.314	0.004
-162.793	-107.718	-0.312	-0.068
-161.779	21.449	-0.149	0.121
-160.764	-200.000	0.049	0.347
-159.750	-197.625	-0.339	0.002
-158.735	172.843	0.044	-0.064
-157.720	-57.968	0.424	-0.185
-156.706	228.117	0.095	0.154
-155.691	-68.741	-0.174	0.067
-154.677	-118.820	0.177	-0.031
-153.662	-92.088	-0.328	0.093
-152.647	-121.423	-0.309	0.051
-151.633	272.718	0.123	-0.216
-150.618	-81.565	-0.165	0.054
-149.604	-103.916	-0.117	-0.027
-148.589	85.675	-0.170	-0.186
-147.574	204.771	0.044	0.068
-146.560	-200.000	-0.013	0.227
-145.545	34.919	0.028	0.024
-144.531	238.712	-0.052	0.086
-143.516	116.695	-0.188	0.230
-142.502	-118.010	0.198	0.035
-141.487	127.518	0.179	-0.226
-140.472	173.556	-0.111	-0.159
-139.458	-200.000	0.007	0.103
-138.443	-170.935	0.067	0.002
-137.429	-140.507	0.251	-0.026
-136.414	-35.879	0.323	-0.174
-135.399	-115.074	-0.137	-0.026
-134.385	-170.562	-0.327	0.011
-133.370	114.498	0.106	0.128
-132.356	-89.294	0.291	0.085
-131.341	217.853	-0.033	0.052
-130.326	800.000	0.081	-0.299
-129.312	43.946	-0.213	0.194
-128.297	152.046	-0.223	0.303
-127.283	250.869	0.046	0.078
-126.268	-9.601	0.432	-0.287
-125.253	800.000	-0.028	0.081
-124.239	293.819	-0.102	-0.185
-123.224	-200.000	-0.036	0.180
-122.210	-113.100	-0.016	-0.003
-121.195	-102.360	0.006	-0.001
