DTS Sentinel unit serial number:	SN413079Multiplexer serial number:	ORYXHardware model number:	OX4-SRSoftware version number:	ORYX F/W v4.00 Oryx Data Collector v3.7.2.0data status	okinstallation	princeton_trtdifferential loss correction	single-endedforward channel	channel 2reverse channel	N/Adate	2019/09/18time	15:27:35forward acquisition time	60.00reverse acquisition time	0.00gamma	496.2192k internal	0.2314k external	0.2314temperature offset calibration	1.0002default loss term (dB/km)	0.3790temperature slope calibration	1.0000multiplexer offset coefficient	1.0000multiplexer slope coefficient	1.0000fibre end	0.00T internal ref (°C)	36.08T ext. ref 1 (°C)	0.77T ext. ref 2 (°C)	34.49length (m)	temperature (°C)	Stokes	anti-Stokes-747.200	175.094	0.163	-0.239
-746.185	160.281	-0.233	0.330
-745.171	-64.809	-0.167	0.069
-744.156	179.258	-0.071	0.105
-743.142	66.324	0.046	0.047
-742.127	12.426	-0.220	0.172
-741.112	-48.948	0.333	-0.162
-740.098	-200.000	-0.036	0.318
-739.083	-200.000	-0.077	-0.456
-738.069	-22.997	0.148	0.090
-737.054	-161.512	0.153	-0.008
-736.039	-93.173	-0.191	0.054
-735.025	-67.693	0.442	0.175
-734.010	324.611	-0.150	0.290
-732.996	-39.364	-0.364	-0.194
-731.981	-92.507	-0.286	-0.081
-730.966	-121.131	0.237	-0.040
-729.952	-90.454	0.120	0.035
-728.937	-200.000	0.032	-0.174
-727.923	800.000	-0.022	0.066
-726.908	-200.000	-0.033	-0.178
-725.894	-27.907	-0.219	-0.128
-724.879	58.113	0.059	-0.059
-723.864	-200.000	-0.028	0.145
-722.850	-81.846	0.066	-0.022
-721.835	-183.637	-0.157	0.003
-720.821	-200.000	-0.039	0.531
-719.806	800.000	-0.033	-0.116
-718.791	49.972	-0.017	0.016
-717.777	203.559	0.097	0.152
-716.762	-115.300	0.005	-0.001
-715.748	346.895	-0.182	-0.362
-714.733	800.000	-0.048	-0.175
-713.718	539.670	-0.041	-0.099
-712.704	145.963	0.180	-0.245
-711.689	192.923	-0.121	0.186
-710.675	-200.000	-0.004	0.226
-709.660	8.802	0.103	-0.078
-708.645	388.057	0.198	-0.414
-707.631	-62.298	-0.326	0.137
-706.616	-200.000	-0.020	-0.393
-705.602	-61.999	0.105	0.044
-704.587	-64.719	-0.362	0.149
-703.572	166.511	0.153	-0.220
-702.558	-45.656	-0.246	-0.123
-701.543	-200.000	0.002	0.111
-700.529	-138.975	0.296	-0.032
-699.514	62.505	-0.235	-0.238
-698.499	12.164	0.211	-0.164
-697.485	-138.439	0.465	0.052
-696.470	124.952	0.112	-0.142
-695.456	158.433	0.293	-0.411
-694.441	-154.346	-0.102	-0.007
-693.426	-200.000	-0.028	0.166
-692.412	265.387	0.033	-0.058
-691.397	-107.068	-0.112	-0.025
-690.383	-52.223	-0.238	0.112
-689.368	800.000	0.080	-0.245
-688.354	83.665	-0.276	-0.305
-687.339	28.012	0.243	-0.208
-686.324	-96.211	0.147	0.039
-685.310	-142.958	-0.137	-0.013
-684.295	-4.700	0.474	0.331
-683.281	-29.637	-0.196	-0.113
-682.266	-119.321	0.241	-0.042
-681.251	-200.000	0.047	-0.263
-680.237	136.852	-0.071	0.093
-679.222	370.137	0.078	0.161
-678.208	800.000	-0.054	0.166
-677.193	800.000	0.015	0.053
-676.178	-71.361	-0.167	0.063
-675.164	93.570	0.159	0.182
-674.149	-174.438	-0.367	-0.011
-673.135	-200.000	-0.048	0.239
-672.120	-50.738	0.169	-0.081
-671.105	24.248	-0.093	-0.078
-670.091	93.808	0.148	0.169
-669.076	-145.616	0.062	-0.006
-668.062	570.469	0.114	-0.279
-667.047	-200.000	-0.061	-0.337
-666.032	-200.000	-0.098	-0.496
-665.018	29.154	-0.160	-0.137
-664.003	104.472	0.243	-0.290
-662.989	45.430	-0.252	-0.235
-661.974	325.236	-0.115	0.222
-660.959	-79.969	0.211	0.072
-659.945	58.579	-0.324	0.322
-658.930	583.658	-0.157	0.389
-657.916	-200.000	-0.034	0.270
-656.901	800.000	0.058	-0.201
-655.886	-150.690	-0.231	0.018
-654.872	96.035	0.115	0.133
-653.857	-71.816	0.066	0.025
-652.843	178.921	-0.065	-0.096
-651.828	-200.000	0.011	-0.057
-650.814	75.854	-0.123	0.132
-649.799	655.746	0.193	0.501
-648.784	-127.047	-0.180	-0.027
-647.770	287.976	-0.085	-0.155
-646.755	-30.319	-0.320	-0.184
-645.741	-200.000	0.020	0.096
-644.726	553.709	-0.119	0.288
-643.711	-74.034	0.143	-0.052
-642.697	340.539	0.113	-0.223
-641.682	-16.113	0.061	0.039
-640.668	-5.808	-0.214	0.148
-639.653	129.321	-0.071	-0.092
-638.638	-63.822	-0.087	0.036
-637.624	-200.000	-0.008	-0.185
-636.609	-89.409	0.178	0.053
-635.595	-194.064	-0.123	-0.001
-634.580	765.242	-0.079	0.217
-633.565	99.196	0.243	0.284
-632.551	-88.414	0.264	0.080
-631.536	800.000	-0.136	-0.418
-630.522	610.653	0.024	-0.060
-629.507	-200.000	0.070	0.332
-628.492	-200.000	0.043	-0.232
-627.478	-114.233	-0.129	-0.025
-626.463	197.754	-0.183	0.283
-625.449	230.448	0.086	-0.142
-624.434	498.269	-0.079	-0.183
-623.419	437.339	-0.059	-0.130
-622.405	96.681	-0.202	-0.233
-621.390	-200.000	0.013	-0.461
-620.376	381.019	0.107	-0.222
-619.361	-180.177	0.056	0.001
-618.346	800.000	-0.025	0.069
-617.332	99.365	-0.261	0.305
-616.317	225.892	0.097	0.158
-615.303	95.085	-0.194	0.223
-614.288	111.117	-0.247	-0.301
-613.273	-200.000	0.025	0.222
-612.259	45.667	-0.115	0.107
-611.244	103.546	0.176	0.208
-610.230	-92.389	-0.164	-0.047
-609.215	-184.570	0.174	0.003
-608.201	-123.519	0.142	-0.023
-607.186	-200.000	-0.031	0.226
-606.171	614.514	-0.102	0.258
-605.157	-200.000	-0.023	-0.255
-604.142	38.860	-0.196	-0.176
-603.128	-183.637	-0.138	0.002
-602.113	69.604	0.307	0.319
-601.098	701.266	-0.030	0.079
-600.084	800.000	0.033	0.119
-599.069	-50.139	-0.200	0.095
-598.055	85.205	-0.122	0.135
-597.040	-104.425	0.502	-0.117
-596.025	31.484	-0.168	0.146
-595.011	-200.000	0.014	-0.067
-593.996	-56.551	0.124	-0.055
-592.982	-114.509	-0.231	-0.045
-591.967	118.439	0.118	0.146
-590.952	-200.000	-0.040	-0.194
-589.938	147.874	0.143	0.195
-588.923	2.688	-0.081	-0.059
-587.909	800.000	0.041	0.165
-586.894	-200.000	0.021	0.122
-585.879	49.443	0.066	0.062
-584.865	-125.222	0.080	0.012
-583.850	249.227	0.217	0.371
-582.836	562.059	-0.105	0.255
-581.821	800.000	-0.012	0.048
-580.806	778.368	-0.103	-0.285
-579.792	-147.448	-0.226	-0.019
-578.777	-200.000	-0.032	-0.341
-577.763	-38.129	0.341	-0.182
-576.748	-28.757	0.146	0.085
-575.733	104.326	-0.237	0.281
-574.719	-19.925	0.093	0.058
-573.704	-48.535	0.211	-0.102
-572.690	435.804	0.038	0.084
-571.675	319.715	0.137	0.261
-570.661	-60.387	0.357	-0.153
-569.646	-88.188	-0.201	0.061
-568.631	-12.240	-0.178	-0.117
-567.617	-182.983	0.316	0.006
-566.602	361.280	-0.216	-0.437
-565.588	-200.000	0.010	0.126
-564.573	-156.689	-0.102	-0.006
-563.558	800.000	0.006	0.025
-562.544	-200.000	-0.023	0.143
-561.529	-68.021	0.180	0.071
-560.515	-34.623	0.065	0.036
-559.500	178.325	-0.070	0.103
-558.485	5.414	0.134	-0.099
-557.471	-142.549	0.276	0.027
-556.456	361.236	-0.014	-0.027
-555.442	352.194	0.084	0.167
-554.427	-79.277	-0.405	-0.138
-553.412	217.488	-0.075	-0.120
-552.398	-136.312	-0.353	0.041
-551.383	148.171	0.042	-0.058
-550.369	-2.364	-0.195	-0.138
-549.354	239.901	-0.089	0.149
-548.339	-152.028	-0.241	-0.018
-547.325	-38.342	-0.162	-0.086
-546.310	224.133	0.191	-0.310
-545.296	164.962	-0.086	-0.122
-544.281	-171.396	0.207	-0.007
-543.266	129.213	-0.066	-0.084
-542.252	241.347	0.060	-0.101
-541.237	-6.511	0.091	0.062
-540.223	3.118	-0.442	-0.323
-539.208	104.253	-0.170	-0.201
-538.193	157.833	-0.281	-0.391
-537.179	-200.000	0.027	0.162
-536.164	-200.000	0.043	-0.215
-535.150	283.818	-0.146	-0.264
-534.135	-200.000	0.008	0.096
-533.121	-28.358	0.380	-0.221
-532.106	-147.365	-0.077	0.007
-531.091	538.239	0.085	0.203
-530.077	-200.000	-0.025	-0.116
-529.062	800.000	0.039	0.145
-528.048	-45.956	0.378	0.188
-527.033	93.652	0.127	0.145
-526.018	135.138	-0.133	-0.174
-525.004	-200.000	-0.056	0.284
-523.989	-124.633	0.127	-0.020
-522.975	-200.000	0.023	0.136
-521.960	310.408	0.041	0.077
-520.945	-155.258	-0.339	0.022
-519.931	-64.340	-0.151	-0.062
-518.916	-80.163	-0.153	0.052
-517.902	800.000	-0.063	-0.232
-516.887	-200.000	0.021	-0.215
-515.872	-182.048	-0.204	0.004
-514.858	800.000	0.065	-0.235
-513.843	543.166	0.231	0.553
-512.829	-200.000	-0.018	0.225
-511.814	-36.677	0.220	0.119
-510.799	-200.000	0.029	-0.265
-509.785	5.698	-0.190	0.141
-508.770	-108.080	-0.156	0.034
-507.756	331.650	-0.135	-0.261
-506.741	18.997	-0.056	-0.045
-505.726	-143.799	-0.239	0.023
-504.712	272.151	0.123	-0.218
-503.697	152.460	0.071	-0.098
-502.683	681.286	-0.108	0.284
-501.668	-34.182	-0.240	-0.133
-500.653	-28.725	-0.120	-0.069
-499.639	-200.000	-0.061	-0.375
-498.624	17.634	0.093	0.075
-497.610	-166.537	0.319	0.013
-496.595	-200.000	-0.016	-0.187
-495.581	-35.344	-0.138	-0.075
-494.566	-74.856	-0.516	-0.186
-493.551	-124.039	0.130	-0.020
-492.537	800.000	-0.120	-0.368
-491.522	-94.005	-0.099	0.027
-490.508	162.450	0.124	-0.175
-489.493	364.429	0.063	0.127
-488.478	-200.000	-0.048	0.271
-487.464	269.920	-0.028	-0.049
-486.449	-48.241	0.202	-0.098
-485.435	79.976	-0.077	-0.083
-484.420	-200.000	0.021	-0.356
-483.405	-200.000	-0.050	-0.344
-482.391	-200.000	0.088	0.732
-481.376	202.792	-0.026	0.041
-480.362	1.999	-0.222	-0.161
-479.347	800.000	0.028	0.109
-478.332	-200.000	0.038	0.252
-477.318	430.009	-0.025	-0.054
-476.303	-2.191	0.035	-0.025
-475.289	-60.822	-0.084	-0.036
-474.274	800.000	0.091	0.269
-473.259	-200.000	-0.013	-0.066
-472.245	2.778	0.309	-0.225
-471.230	-155.831	-0.276	-0.018
-470.216	-72.253	-0.116	-0.043
-469.201	155.573	0.056	0.078
-468.186	800.000	-0.114	-0.404
-467.172	11.480	-0.268	-0.206
-466.157	-58.524	0.277	0.121
-465.143	51.099	0.036	-0.035
-464.128	46.043	-0.123	0.114
-463.113	-67.629	0.357	0.140
-462.099	800.000	-0.034	0.116
-461.084	86.314	0.228	-0.252
-460.070	-105.315	-0.173	0.040
-459.055	-200.000	0.054	-0.269
-458.040	800.000	0.059	0.215
-457.026	-200.000	0.015	-0.505
-456.011	-125.728	0.258	-0.039
-454.997	250.508	0.132	0.225
-453.982	514.813	-0.127	-0.297
-452.968	800.000	0.073	0.317
-451.953	35.830	-0.126	0.111
-450.938	-200.000	-0.020	0.326
-449.924	800.000	-0.093	-0.268
-448.909	-35.027	-0.161	0.088
-447.895	268.666	0.165	-0.290
-446.880	-116.893	-0.039	-0.007
-445.865	144.597	-0.179	-0.239
-444.851	141.829	-0.071	0.094
-443.836	329.921	-0.270	-0.520
-442.822	55.815	0.234	-0.227
-441.807	-56.376	-0.223	-0.099
-440.792	-4.400	-0.363	0.251
-439.778	-26.504	0.390	0.229
-438.763	-110.568	-0.144	-0.030
-437.749	-91.080	-0.164	0.047
-436.734	-200.000	-0.012	0.142
-435.719	67.443	0.273	-0.279
-434.705	-43.842	0.148	0.074
-433.690	33.300	0.122	0.106
-432.676	-122.442	0.231	-0.038
-431.661	38.528	-0.107	-0.096
-430.646	-200.000	0.002	-0.295
-429.632	800.000	0.071	0.277
-428.617	266.000	-0.057	0.099
-427.603	-22.995	-0.088	-0.053
-426.588	70.302	-0.192	0.199
-425.573	-129.526	-0.142	0.020
-424.559	-200.000	-0.008	-0.064
-423.544	139.177	-0.190	-0.251
-422.530	104.318	0.023	0.027
-421.515	85.027	0.146	0.160
-420.500	-200.000	-0.020	0.090
-419.486	127.169	0.191	0.243
-418.471	-66.243	0.286	-0.114
-417.457	-200.000	0.008	0.077
-416.442	800.000	-0.105	0.362
-415.428	-19.940	0.200	0.123
-414.413	333.117	0.115	-0.223
-413.398	453.568	-0.052	-0.116
-412.384	-200.000	-0.022	-0.213
-411.369	-61.015	-0.208	-0.088
-410.355	800.000	0.076	0.235
-409.340	77.627	0.147	0.157
-408.325	79.048	-0.234	0.250
-407.311	-27.669	-0.106	0.062
-406.296	-57.546	-0.232	0.102
-405.282	-69.383	-0.224	0.086
-404.267	16.921	0.144	0.114
-403.252	-86.581	0.138	0.042
-402.238	50.586	0.030	-0.029
-401.223	800.000	-0.074	0.234
-400.209	-81.022	0.452	-0.150
-399.194	8.568	0.178	0.134
-398.179	59.511	0.287	0.284
-397.165	-132.351	-0.244	0.032
-396.150	-200.000	-0.025	-0.119
-395.136	-47.205	0.098	0.048
-394.121	-200.000	-0.022	-0.207
-393.106	-200.000	0.015	-0.162
-392.092	-61.696	0.343	0.144
-391.077	-66.984	0.050	0.020
-390.063	-87.660	-0.177	0.054
-389.048	-97.566	-0.095	0.025
-388.033	254.409	0.216	-0.370
-387.019	20.533	0.128	-0.103
-386.004	-119.417	-0.040	0.007
-384.990	116.820	-0.174	-0.213
-383.975	-200.000	-0.033	-0.323
-382.960	-200.000	-0.028	-0.221
-381.946	-74.929	0.098	0.035
-380.931	-200.000	0.034	-0.287
-379.917	170.676	0.114	-0.163
-378.902	204.995	-0.041	0.063
-377.888	-158.142	0.116	-0.007
-376.873	-5.977	0.226	0.155
-375.858	-128.039	0.085	0.012
-374.844	800.000	0.042	0.121
-373.829	-180.290	-0.121	0.003
-372.815	800.000	-0.080	0.233
-371.800	-200.000	0.006	0.135
-370.785	466.842	0.166	-0.371
-369.771	24.220	0.033	-0.027
-368.756	-105.585	-0.195	0.044
-367.742	399.980	-0.188	0.393
-366.727	-200.000	0.010	0.283
-365.712	800.000	0.120	-0.371
-364.698	-200.000	0.011	-0.057
-363.683	400.794	0.104	0.218
-362.669	2.449	-0.166	0.120
-361.654	-200.000	0.072	0.564
-360.639	800.000	-0.088	-0.304
-359.625	-133.197	0.269	-0.034
-358.610	800.000	-0.087	0.325
-357.596	-94.438	-0.319	-0.087
-356.581	31.121	0.249	-0.213
-355.566	-76.528	-0.114	0.040
-354.552	-200.000	0.024	0.399
-353.537	391.099	-0.107	0.222
-352.523	-183.707	0.255	0.004
-351.508	-129.983	0.239	-0.033
-350.493	-200.000	-0.028	0.433
-349.479	800.000	0.017	0.061
-348.464	280.837	-0.200	-0.357
-347.450	-200.000	0.016	-0.304
-346.435	-40.873	0.298	0.154
-345.420	-87.851	0.042	0.012
-344.406	-32.155	-0.249	-0.139
-343.391	383.967	-0.136	0.279
-342.377	205.854	0.058	-0.090
-341.362	-102.577	0.274	-0.065
-340.348	-111.540	0.245	-0.050
-339.333	800.000	0.061	0.178
-338.318	-200.000	-0.066	0.445
-337.304	708.248	-0.076	0.200
-336.289	110.677	0.129	-0.154
-335.275	158.767	0.190	0.263
-334.260	-200.000	0.007	-0.209
-333.245	-108.516	0.149	0.032
-332.231	-200.000	-0.000	-0.220
-331.216	800.000	-0.046	0.163
-330.202	-101.292	0.264	-0.064
-329.187	800.000	-0.045	0.150
-328.172	-117.800	0.244	-0.044
-327.158	155.007	0.278	-0.381
-326.143	-200.000	-0.012	-0.114
-325.129	-154.800	-0.085	-0.006
-324.114	636.989	-0.058	-0.147
-323.099	374.653	-0.163	0.332
-322.085	-7.002	-0.151	0.102
-321.070	136.510	0.064	0.083
-320.056	800.000	0.048	-0.154
-319.041	43.852	-0.129	-0.118
-318.026	-47.221	0.184	-0.089
-317.012	-54.436	0.094	0.042
-315.997	596.530	-0.129	0.319
-314.983	170.295	-0.290	0.415
-313.968	-12.233	0.070	0.046
-312.953	-59.086	0.133	-0.057
-311.939	-58.814	0.301	-0.130
-310.924	43.203	0.198	0.180
-309.910	-200.000	-0.022	-0.472
-308.895	-200.000	0.001	-0.376
-307.880	12.515	-0.081	0.062
-306.866	-200.000	0.050	-0.386
-305.851	69.348	-0.034	-0.035
-304.837	800.000	-0.096	0.407
-303.822	800.000	-0.025	-0.086
-302.807	-200.000	0.040	0.331
-301.793	-87.647	0.249	-0.075
-300.778	358.373	0.027	-0.053
-299.764	584.619	0.031	-0.076
-298.749	64.079	-0.057	0.057
-297.735	-50.916	0.208	0.098
-296.720	-105.230	-0.196	-0.044
-295.705	800.000	-0.092	0.257
-294.691	91.513	0.155	-0.174
-293.676	33.080	-0.098	0.085
-292.662	-200.000	-0.015	0.551
-291.647	409.433	-0.040	0.085
-290.632	-124.380	-0.175	-0.027
-289.618	24.891	-0.321	-0.265
-288.603	232.912	0.106	-0.174
-287.589	800.000	-0.086	0.247
-286.574	-13.297	0.164	-0.106
-285.559	-200.000	-0.038	0.190
-284.545	205.386	0.198	0.306
-283.530	-30.106	0.133	0.076
-282.516	-200.000	0.004	-0.142
-281.501	800.000	-0.131	0.459
-280.486	-200.000	-0.016	0.182
-279.472	72.925	-0.087	0.091
-278.457	52.102	-0.209	-0.199
-277.443	-163.791	-0.185	0.009
-276.428	-44.113	-0.136	-0.068
-275.413	-111.851	0.076	-0.015
-274.399	699.368	-0.042	-0.110
-273.384	78.232	0.143	-0.152
-272.370	-139.623	-0.211	0.022
-271.355	-118.100	0.152	-0.027
-270.340	88.746	0.096	-0.106
-269.326	122.633	0.055	0.068
-268.311	251.273	0.106	0.179
-267.297	131.709	-0.075	0.097
-266.282	270.676	0.221	0.386
-265.267	-148.229	-0.211	-0.017
-264.253	-200.000	0.001	0.124
-263.238	-37.091	-0.228	0.122
-262.224	-49.080	0.421	0.200
-261.209	434.850	0.122	0.264
-260.195	129.015	0.043	-0.055
-259.180	16.922	-0.199	-0.157
-258.165	435.154	0.050	-0.108
-257.151	-158.929	0.184	0.010
-256.136	145.808	0.115	-0.154
-255.122	-200.000	0.038	0.201
-254.107	425.288	-0.126	-0.270
-253.092	39.326	0.084	0.075
-252.078	800.000	0.050	-0.165
-251.063	196.506	0.117	-0.177
-250.049	-68.825	-0.110	-0.042
-249.034	-163.755	0.039	0.002
-248.019	350.005	0.135	-0.266
-247.005	284.182	0.143	0.255
-245.990	-78.207	0.246	-0.084
-244.976	-100.785	0.126	-0.031
-243.961	184.846	-0.149	0.219
-242.946	-200.000	-0.018	-0.292
-241.932	-200.000	0.036	0.215
-240.917	800.000	0.084	-0.270
-239.903	-104.695	-0.285	-0.065
-238.888	-200.000	-0.057	-0.306
-237.873	106.241	-0.088	0.104
-236.859	-200.000	0.007	-0.152
-235.844	800.000	0.051	-0.163
-234.830	-79.855	-0.169	0.056
-233.815	800.000	0.108	0.320
-232.800	-52.295	-0.259	0.119
-231.786	-115.939	0.058	0.011
-230.771	-62.281	-0.269	-0.112
-229.757	-132.963	0.364	0.046
-228.742	616.211	0.103	-0.256
-227.727	-81.919	-0.125	0.041
-226.713	-125.819	-0.162	0.024
-225.698	800.000	-0.108	-0.305
-224.684	-19.107	0.329	-0.203
-223.669	187.802	-0.249	0.370
-222.655	-30.159	-0.224	0.127
-221.640	800.000	-0.072	-0.220
-220.625	-48.857	0.344	0.164
-219.611	-104.231	0.275	-0.063
-218.596	-33.228	0.040	-0.022
-217.582	17.606	-0.333	-0.263
-216.567	800.000	0.051	-0.164
-215.552	48.584	-0.226	-0.210
-214.538	-200.000	0.053	-0.249
-213.523	-119.340	0.067	-0.012
-212.509	-151.460	-0.323	-0.024
-211.494	-65.278	0.031	-0.012
-210.479	-200.000	0.032	0.148
-209.465	-200.000	0.061	-0.321
-208.450	800.000	-0.017	-0.065
-207.436	-200.000	-0.063	0.568
-206.421	309.205	-0.078	0.145
-205.406	-140.095	-0.491	-0.051
-204.392	-200.000	-0.006	0.219
-203.377	61.611	-0.101	-0.100
-202.363	-48.444	-0.223	0.106
-201.348	-200.000	0.013	0.214
-200.333	-62.638	-0.196	0.081
-199.319	-127.904	-0.142	0.020
-198.304	-114.363	0.181	0.035
-197.290	-200.000	0.011	-0.088
-196.275	-58.705	-0.185	0.080
-195.260	-200.000	0.071	-0.321
-194.246	800.000	-0.044	-0.187
-193.231	91.602	0.140	0.157
-192.217	-200.000	-0.020	0.096
-191.202	-86.204	0.161	0.049
-190.187	-29.412	0.327	-0.186
-189.173	13.970	-0.079	0.061
-188.158	641.217	0.118	-0.298
-187.144	-196.242	0.279	-0.002
-186.129	20.955	-0.291	0.234
-185.114	54.590	0.043	0.041
-184.100	81.472	-0.150	0.161
-183.085	-37.469	0.107	0.057
-182.071	-54.209	-0.122	-0.055
-181.056	-55.876	-0.209	-0.093
-180.042	-192.137	0.286	0.003
-179.027	211.646	-0.078	-0.121
-178.012	800.000	0.052	0.163
-176.998	-200.000	-0.027	0.207
-175.983	-83.956	0.203	-0.064
-174.969	-200.000	-0.038	0.203
-173.954	-96.684	-0.281	-0.073
-172.939	-161.286	-0.040	-0.002
-171.925	-200.000	0.013	-0.096
-170.910	800.000	0.057	0.222
-169.896	315.418	0.091	0.170
-168.881	-200.000	0.017	-0.158
-167.866	-39.406	0.061	0.032
-166.852	-178.430	0.218	-0.005
-165.837	238.244	0.120	-0.197
-164.823	-144.246	0.122	-0.011
-163.808	-122.809	-0.229	-0.037
-162.793	52.624	0.042	-0.039
-161.779	109.880	-0.132	-0.157
-160.764	-71.655	-0.113	-0.042
-159.750	58.310	-0.263	-0.256
-158.735	-44.845	-0.324	0.160
-157.720	800.000	0.070	-0.196
-156.706	-200.000	-0.010	-0.042
-155.691	-82.606	0.248	0.080
-154.677	-200.000	0.041	0.197
-153.662	-49.331	0.345	-0.163
-152.647	-2.225	-0.070	-0.048
-151.633	2.529	0.300	-0.215
-150.618	7.964	-0.211	0.157
-149.604	-105.643	-0.238	-0.053
-148.589	-118.141	0.186	0.033
-147.574	-200.000	0.022	-0.283
-146.560	127.556	-0.284	0.357
-145.545	-84.629	0.173	0.054
-144.531	800.000	0.127	-0.409
-143.516	140.327	0.105	-0.137
-142.502	-81.476	-0.112	0.037
-141.487	-21.704	-0.217	0.131
-140.472	-200.000	0.033	0.254
-139.458	102.726	0.122	0.142
-138.443	-200.000	-0.040	0.176
-137.429	-123.024	0.146	0.023
-136.414	669.748	-0.104	-0.268
-135.399	-4.348	-0.175	-0.120
-134.385	-117.249	0.116	0.021
-133.370	53.356	0.130	0.124
-132.356	-16.952	-0.314	-0.196
-131.341	-171.792	-0.335	0.011
-130.326	334.764	-0.036	0.070
-129.312	16.663	0.251	0.197
-128.297	-116.926	-0.398	-0.072
-127.283	-200.000	0.037	-0.343
-126.268	60.744	0.047	-0.046
-125.253	242.164	-0.075	0.125
-124.239	-58.705	0.502	-0.215
-123.224	250.556	-0.123	-0.206
-122.210	274.160	-0.075	-0.131
