DTS Sentinel unit serial number:	SN413079Multiplexer serial number:	ORYXHardware model number:	OX4-SRSoftware version number:	ORYX F/W v4.00 Oryx Data Collector v3.7.2.0data status	okinstallation	princeton_trtdifferential loss correction	single-endedforward channel	channel 2reverse channel	N/Adate	2019/09/18time	19:39:34forward acquisition time	60.00reverse acquisition time	0.00gamma	496.2192k internal	0.2331k external	0.2331temperature offset calibration	1.0037default loss term (dB/km)	0.3790temperature slope calibration	1.0000multiplexer offset coefficient	1.0000multiplexer slope coefficient	1.0000fibre end	0.00T internal ref (°C)	32.03T ext. ref 1 (°C)	1.12T ext. ref 2 (°C)	22.32length (m)	temperature (°C)	Stokes	anti-Stokes-747.200	-92.758	0.285	0.080
-746.185	-200.000	-0.068	0.358
-745.171	-51.438	0.101	-0.047
-744.156	800.000	0.074	0.232
-743.142	-200.000	0.013	0.113
-742.127	191.068	-0.123	0.186
-741.112	-20.775	-0.228	0.141
-740.098	-200.000	0.035	0.229
-739.083	800.000	0.114	-0.333
-738.069	-200.000	0.013	0.237
-737.054	98.513	-0.141	0.163
-736.039	116.838	-0.091	0.112
-735.025	220.420	0.210	0.339
-734.010	-172.201	-0.329	-0.011
-732.996	800.000	-0.102	-0.294
-731.981	-132.738	-0.288	-0.037
-730.966	-200.000	0.010	-0.058
-729.952	800.000	-0.040	0.144
-728.937	416.207	0.055	0.118
-727.923	-115.582	-0.149	0.028
-726.908	84.508	0.159	0.175
-725.894	507.580	0.042	0.097
-724.879	-27.948	-0.280	-0.163
-723.864	-11.054	0.348	0.231
-722.850	242.243	-0.199	0.334
-721.835	-58.809	-0.231	-0.101
-720.821	6.920	-0.085	-0.064
-719.806	-100.913	-0.302	-0.075
-718.791	602.428	0.162	-0.404
-717.777	800.000	-0.066	-0.219
-716.762	-98.228	0.277	-0.072
-715.748	-200.000	-0.050	0.230
-714.733	175.160	0.313	-0.456
-713.718	39.165	-0.005	-0.004
-712.704	50.034	0.209	-0.199
-711.689	-21.300	-0.284	-0.174
-710.675	-27.424	-0.347	0.203
-709.660	-153.780	-0.380	-0.026
-708.645	-73.998	0.289	-0.105
-707.631	29.154	0.126	0.107
-706.616	-59.761	0.095	-0.041
-705.602	-200.000	0.018	-0.305
-704.587	59.341	0.186	-0.184
-703.572	1.587	-0.168	0.122
-702.558	-200.000	-0.040	-0.178
-701.543	-169.109	0.173	-0.006
-700.529	183.750	0.239	0.355
-699.514	-114.049	-0.375	-0.073
-698.499	720.295	-0.081	-0.216
-697.485	-140.921	0.101	0.010
-696.470	-150.977	-0.237	-0.018
-695.456	-200.000	-0.014	-0.283
-694.441	-93.404	-0.401	-0.112
-693.426	-130.450	0.119	0.016
-692.412	-124.985	0.289	0.045
-691.397	-200.000	-0.018	0.162
-690.383	-129.886	0.138	-0.019
-689.368	-200.000	-0.000	-0.163
-688.354	-60.880	0.237	-0.101
-687.339	-9.713	-0.140	0.093
-686.324	-28.490	0.239	-0.139
-685.310	-26.200	-0.215	0.127
-684.295	434.317	0.108	0.235
-683.281	90.919	0.035	-0.039
-682.266	-200.000	0.020	-0.557
-681.251	-21.430	0.040	0.024
-680.237	-200.000	-0.023	0.105
-679.222	292.121	-0.127	0.233
-678.208	800.000	0.006	-0.025
-677.193	136.406	0.165	-0.216
-676.178	60.685	0.272	-0.271
-675.164	78.349	-0.251	0.269
-674.149	-21.694	0.229	-0.140
-673.135	-35.567	-0.089	-0.048
-672.120	-12.615	-0.193	0.127
-671.105	-23.984	0.191	0.114
-670.091	-14.554	-0.118	0.076
-669.076	112.528	-0.113	-0.137
-668.062	105.875	-0.195	0.231
-667.047	800.000	-0.158	0.522
-666.032	-175.901	-0.348	0.009
-665.018	-118.227	0.063	0.011
-664.003	800.000	0.095	0.324
-662.989	-200.000	0.001	0.100
-661.974	19.479	0.169	-0.136
-660.959	60.311	-0.199	-0.198
-659.945	800.000	-0.009	0.040
-658.930	-200.000	0.032	-0.210
-657.916	-200.000	-0.017	0.102
-656.901	-77.632	0.222	0.077
-655.886	800.000	-0.059	0.218
-654.872	-101.685	0.104	0.025
-653.857	-200.000	0.003	0.059
-652.843	54.909	-0.319	0.309
-651.828	56.232	0.087	0.085
-650.814	-200.000	0.049	-0.428
-649.799	-178.398	-0.103	-0.002
-648.784	349.435	0.065	-0.128
-647.770	-107.171	-0.049	0.011
-646.755	696.100	0.093	0.245
-645.741	-10.237	0.265	-0.177
-644.726	-92.011	0.074	-0.021
-643.711	-42.534	0.259	-0.132
-642.697	-29.747	-0.124	-0.071
-641.682	-113.205	-0.164	0.032
-640.668	1.850	0.342	-0.247
-639.653	14.892	0.236	-0.185
-638.638	800.000	0.113	-0.413
-637.624	-13.020	-0.223	0.146
-636.609	-89.901	0.089	0.026
-635.595	775.381	-0.127	0.347
-634.580	144.989	-0.122	0.164
-633.565	-118.537	0.169	-0.030
-632.551	11.465	-0.257	-0.197
-631.536	800.000	-0.028	-0.080
-630.522	-77.050	-0.418	0.146
-629.507	-173.763	0.257	0.008
-628.492	172.140	0.060	-0.087
-627.478	31.949	-0.281	-0.243
-626.463	282.335	0.064	0.115
-625.449	-28.885	0.264	-0.152
-624.434	581.473	-0.126	0.311
-623.419	-58.959	0.286	-0.124
-622.405	-200.000	-0.014	-0.089
-621.390	3.142	-0.209	0.152
-620.376	-102.501	-0.148	0.035
-619.361	-200.000	0.040	0.246
-618.346	-200.000	0.043	0.256
-617.332	83.054	0.062	-0.067
-616.317	-20.525	0.307	-0.189
-615.303	222.469	0.054	0.087
-614.288	-13.582	-0.318	0.206
-613.273	621.270	0.174	0.438
-612.259	139.421	0.066	-0.087
-611.244	83.924	0.153	0.167
-610.230	-77.820	-0.128	0.044
-609.215	-150.997	-0.284	0.021
-608.201	42.543	0.024	-0.022
-607.186	-200.000	-0.018	0.233
-606.171	-145.844	0.298	-0.026
-605.157	78.310	0.048	-0.051
-604.142	-182.159	0.121	0.002
-603.128	-178.167	-0.337	0.008
-602.113	800.000	-0.102	0.286
-601.098	800.000	-0.100	-0.279
-600.084	-200.000	-0.003	0.057
-599.069	172.988	-0.131	-0.188
-598.055	-200.000	-0.045	-0.268
-597.040	-64.477	-0.124	0.050
-596.025	800.000	0.064	-0.224
-595.011	-200.000	0.021	-0.174
-593.996	800.000	-0.107	-0.295
-592.982	242.594	-0.118	-0.197
-591.967	-84.664	0.223	0.070
-590.952	365.285	0.034	-0.068
-589.938	-19.274	-0.041	-0.026
-588.923	83.131	0.056	0.062
-587.909	22.134	-0.073	0.060
-586.894	12.472	-0.221	-0.170
-585.879	-200.000	-0.027	0.317
-584.865	-126.106	-0.178	0.027
-583.850	-200.000	-0.032	-0.193
-582.836	-145.825	-0.089	-0.008
-581.821	-3.948	-0.331	-0.230
-580.806	84.588	-0.091	-0.100
-579.792	-104.730	-0.238	-0.055
-578.777	-114.433	0.066	0.013
-577.763	43.939	-0.188	0.172
-576.748	-200.000	0.022	0.231
-575.733	270.882	0.062	-0.109
-574.719	483.527	-0.156	-0.355
-573.704	-69.873	-0.099	-0.038
-572.690	-200.000	-0.021	-0.112
-571.675	-200.000	-0.020	-0.262
-570.661	-35.114	0.175	-0.096
-569.646	12.708	0.080	-0.061
-568.631	-62.314	0.254	0.106
-567.617	-200.000	0.007	0.035
-566.602	-150.186	-0.225	-0.017
-565.588	-27.881	-0.178	0.103
-564.573	-200.000	-0.016	-0.130
-563.558	-200.000	0.014	0.189
-562.544	-122.283	0.128	0.021
-561.529	-200.000	-0.018	-0.092
-560.515	628.674	-0.092	-0.231
-559.500	-179.552	-0.417	0.009
-558.485	66.658	-0.088	0.089
-557.471	63.516	0.121	0.121
-556.456	354.384	0.126	-0.251
-555.442	69.341	-0.111	-0.114
-554.427	-159.641	-0.337	0.019
-553.412	185.461	-0.137	0.203
-552.398	13.766	-0.122	-0.095
-551.383	440.752	-0.090	-0.196
-550.369	5.379	-0.203	-0.150
-549.354	-200.000	0.005	-0.135
-548.339	-200.000	0.023	0.130
-547.325	-155.153	-0.174	-0.011
-546.310	4.970	0.295	0.217
-545.296	-200.000	-0.027	-0.179
-544.281	418.516	0.009	0.018
-543.266	-49.567	0.069	-0.033
-542.252	-116.357	0.085	-0.016
-541.237	-27.316	0.136	-0.079
-540.223	-65.557	-0.315	0.126
-539.208	-142.387	-0.391	-0.039
-538.193	226.471	0.097	-0.157
-537.179	18.341	0.175	-0.140
-536.164	484.943	-0.082	-0.185
-535.150	73.407	-0.214	0.224
-534.135	-85.100	0.278	-0.087
-533.121	800.000	0.010	0.029
-532.106	88.683	-0.177	-0.197
-531.091	-200.000	-0.002	-0.332
-530.077	-66.274	0.231	-0.092
-529.062	-18.884	-0.184	0.114
-528.048	-129.304	-0.429	0.060
-527.033	102.806	-0.343	0.400
-526.018	67.123	0.168	-0.170
-525.004	-46.676	0.162	0.079
-523.989	800.000	0.054	0.172
-522.975	155.881	0.175	0.241
-521.960	-99.969	0.496	0.123
-520.945	-98.486	0.116	0.030
-519.931	682.610	-0.023	-0.060
-518.916	16.009	-0.170	-0.134
-517.902	136.656	0.278	0.362
-516.887	450.994	-0.124	0.274
-515.872	-170.941	0.080	-0.003
-514.858	200.581	0.172	0.264
-513.843	-200.000	0.006	-0.370
-512.829	43.446	0.242	-0.221
-511.814	800.000	-0.066	-0.229
-510.799	-200.000	0.016	-0.110
-509.785	85.521	-0.219	-0.240
-508.770	-150.145	-0.177	0.014
-507.756	19.363	0.052	0.042
-506.741	106.071	0.177	-0.209
-505.726	118.088	0.170	-0.209
-504.712	97.526	-0.126	0.144
-503.697	277.374	0.074	0.131
-502.683	-118.748	0.563	0.099
-501.668	-27.994	-0.217	0.125
-500.653	144.394	0.038	-0.050
-499.639	130.307	-0.266	-0.339
-498.624	739.970	0.157	-0.419
-497.610	-200.000	0.005	0.157
-496.595	65.187	0.180	0.181
-495.581	800.000	-0.087	-0.246
-494.566	471.897	-0.032	0.072
-493.551	-104.954	-0.069	0.016
-492.537	-200.000	-0.020	-0.232
-491.522	116.585	0.061	0.075
-490.508	-123.637	0.192	-0.030
-489.493	-148.823	0.276	-0.022
-488.478	-80.172	0.108	0.036
-487.464	305.194	-0.072	0.133
-486.449	37.762	-0.055	0.048
-485.435	42.042	-0.407	-0.368
-484.420	20.849	-0.113	0.092
-483.405	-76.480	0.322	0.113
-482.391	-68.536	0.073	-0.028
-481.376	268.247	0.030	0.052
-480.362	196.721	0.097	-0.148
-479.347	675.939	-0.066	0.170
-478.332	109.374	0.161	-0.192
-477.318	146.556	0.143	-0.192
-476.303	467.551	0.119	-0.266
-475.289	800.000	0.053	0.178
-474.274	16.241	-0.228	-0.179
-473.259	800.000	0.043	-0.185
-472.245	-10.055	-0.345	-0.228
-471.230	145.454	0.096	-0.128
-470.216	176.046	-0.084	-0.122
-469.201	-200.000	0.028	-0.130
-468.186	-1.989	-0.465	-0.325
-467.172	19.068	-0.086	0.068
-466.157	-200.000	-0.008	0.040
-465.143	596.257	-0.164	0.405
-464.128	-81.265	-0.059	-0.019
-463.113	-200.000	-0.050	-0.285
-462.099	265.822	-0.047	-0.082
-461.084	755.274	-0.015	0.041
-460.070	296.758	0.109	0.199
-459.055	510.164	0.109	-0.253
-458.040	-29.699	0.139	0.079
-457.026	-60.361	0.295	0.125
-456.011	800.000	0.047	0.146
-454.997	-122.807	0.101	-0.016
-453.982	800.000	-0.020	0.062
-452.968	9.166	-0.117	0.088
-451.953	-135.903	0.168	-0.020
-450.938	-167.311	-0.212	-0.008
-449.924	-92.627	-0.202	-0.056
-448.909	307.861	0.097	0.179
-447.895	319.621	0.017	-0.032
-446.880	800.000	0.042	0.168
-445.865	71.346	0.140	-0.145
-444.851	-40.431	0.277	-0.143
-443.836	800.000	-0.171	-0.504
-442.822	-153.836	0.117	0.008
-441.807	800.000	-0.080	-0.264
-440.792	181.114	0.068	-0.100
-439.778	-67.022	-0.230	0.090
-438.763	130.826	0.075	0.096
-437.749	800.000	-0.080	0.315
-436.734	19.919	-0.239	-0.191
-435.719	-55.891	0.414	0.184
-434.705	800.000	0.068	0.198
-433.690	137.676	-0.189	-0.246
-432.676	-119.433	0.210	-0.036
-431.661	-48.732	-0.096	-0.046
-430.646	154.449	0.173	0.236
-429.632	-113.689	0.076	0.015
-428.617	-106.742	-0.239	-0.053
-427.603	-102.335	-0.239	0.057
-426.588	104.663	0.144	-0.169
-425.573	-75.445	0.232	0.082
-424.559	-104.234	0.310	-0.072
-423.544	138.805	-0.090	0.117
-422.530	-93.486	-0.223	-0.061
-421.515	800.000	0.030	-0.130
-420.500	217.768	0.152	0.241
-419.486	285.219	-0.207	0.370
-418.471	-126.555	0.037	0.005
-417.457	-129.225	0.110	-0.015
-416.442	-66.984	0.342	-0.134
-415.428	-200.000	-0.002	0.275
-414.413	35.229	0.128	-0.112
-413.398	-103.400	0.289	-0.068
-412.384	321.957	0.013	-0.025
-411.369	9.786	0.160	-0.120
-410.355	-131.530	-0.137	0.018
-409.340	-81.524	-0.487	-0.159
-408.325	-2.121	0.056	0.039
-407.311	-200.000	0.007	0.212
-406.296	800.000	-0.121	0.356
-405.282	-51.328	-0.189	0.088
-404.267	29.129	-0.095	0.080
-403.252	291.642	-0.196	0.354
-402.238	689.774	0.133	-0.346
-401.223	-87.892	-0.197	-0.059
-400.209	-0.353	-0.067	-0.047
-399.194	-123.117	0.074	-0.012
-398.179	-88.272	0.140	0.042
-397.165	800.000	0.095	0.290
-396.150	-112.071	0.207	0.041
-395.136	156.786	-0.130	0.179
-394.121	-173.074	-0.319	0.010
-393.106	316.465	-0.155	-0.290
-392.092	-30.286	-0.331	0.187
-391.077	-200.000	0.054	0.263
-390.063	70.103	0.165	-0.169
-389.048	-18.797	0.078	-0.048
-388.033	-200.000	-0.001	0.198
-387.019	36.840	0.105	-0.092
-386.004	-200.000	0.005	0.022
-384.990	633.274	-0.142	0.356
-383.975	226.468	-0.157	0.252
-382.960	128.138	0.091	-0.114
-381.946	92.739	0.145	-0.162
-380.931	559.543	0.146	-0.350
-379.917	-12.373	0.353	0.229
-378.902	-32.847	-0.256	0.141
-377.888	-137.688	0.359	0.040
-376.873	106.063	-0.077	0.090
-375.858	-124.355	0.441	0.068
-374.844	-200.000	0.015	-0.109
-373.829	800.000	0.038	0.148
-372.815	-2.228	0.255	-0.177
-371.800	702.953	-0.044	0.116
-370.785	238.610	0.291	-0.480
-369.771	64.245	-0.166	-0.166
-368.756	-108.311	-0.249	-0.053
-367.742	530.002	-0.058	0.135
-366.727	296.909	-0.071	-0.128
-365.712	-200.000	0.035	-0.162
-364.698	26.799	-0.067	0.056
-363.683	-28.388	0.229	0.131
-362.669	145.136	0.130	0.172
-361.654	-172.464	-0.237	-0.007
-360.639	563.540	0.047	0.112
-359.625	-200.000	0.036	0.298
-358.610	194.457	0.263	0.396
-357.596	-200.000	0.070	0.338
-356.581	-80.487	-0.282	0.093
-355.566	-200.000	-0.003	0.108
-354.552	800.000	-0.030	0.099
-353.537	-52.020	-0.286	-0.132
-352.523	-200.000	0.036	-0.432
-351.508	-8.805	-0.135	0.090
-350.493	48.405	-0.176	0.163
-349.479	32.449	0.230	-0.197
-348.464	145.420	-0.100	0.133
-347.450	-14.843	0.208	0.132
-346.435	-100.871	-0.164	-0.040
-345.420	11.179	-0.286	-0.217
-344.406	29.478	0.098	-0.083
-343.391	-144.294	-0.194	0.018
-342.377	458.422	-0.120	-0.264
-341.362	381.635	-0.097	0.198
-340.348	-200.000	0.042	0.194
-339.333	179.526	0.181	-0.262
-338.318	404.979	0.098	-0.205
-337.304	-43.646	-0.082	0.041
-336.289	96.674	0.203	0.230
-335.275	-116.266	-0.122	0.022
-334.260	-200.000	-0.006	0.038
-333.245	-122.438	-0.079	-0.013
-332.231	593.252	0.120	-0.295
-331.216	-200.000	0.005	0.153
-330.202	-84.324	0.241	0.076
-329.187	209.782	-0.103	0.160
-328.172	181.247	0.176	0.256
-327.158	788.039	-0.063	-0.171
-326.143	-152.628	-0.253	0.018
-325.129	377.787	0.017	0.035
-324.114	463.102	0.134	0.297
-323.099	-75.230	-0.106	0.037
-322.085	474.790	-0.109	0.243
-321.070	-146.278	0.109	0.009
-320.056	58.536	0.123	-0.119
-319.041	-172.924	0.231	0.007
-318.026	-47.374	0.221	-0.106
-317.012	-126.375	-0.326	-0.048
-315.997	-66.598	0.150	-0.059
-314.983	113.114	-0.068	-0.082
-313.968	58.779	0.252	0.245
-312.953	800.000	0.052	-0.210
-311.939	619.192	0.037	-0.091
-310.924	155.389	-0.046	-0.063
-309.910	800.000	0.044	0.144
-308.895	800.000	0.093	0.306
-307.880	-114.773	-0.201	0.038
-306.866	-116.969	0.244	0.044
-305.851	-130.307	-0.160	-0.021
-304.837	-200.000	0.053	-0.273
-303.822	-138.198	0.353	0.039
-302.807	-125.663	-0.211	-0.032
-301.793	-128.373	-0.199	-0.028
-300.778	52.785	0.165	-0.156
-299.764	-200.000	0.027	-0.280
-298.749	-200.000	-0.022	0.129
-297.735	-161.744	-0.051	0.003
-296.720	609.281	-0.125	-0.309
-295.705	-200.000	-0.034	0.288
-294.691	-70.384	-0.331	0.124
-293.676	-200.000	-0.016	-0.132
-292.662	-200.000	-0.037	0.214
-291.647	-188.969	-0.195	-0.002
-290.632	467.792	0.138	-0.306
-289.618	-68.231	-0.164	-0.063
-288.603	-99.012	0.285	-0.071
-287.589	-75.214	0.370	0.131
-286.574	279.345	0.193	0.340
-285.559	101.503	-0.094	0.109
-284.545	-62.912	0.163	-0.067
-283.530	-200.000	0.005	0.047
-282.516	800.000	0.113	0.463
-281.501	36.933	-0.141	-0.124
-280.486	800.000	-0.055	-0.161
-279.472	-200.000	-0.002	-0.153
-278.457	16.620	-0.125	-0.097
-277.443	-80.410	0.189	-0.062
-276.428	43.540	-0.043	-0.039
-275.413	2.731	0.101	0.073
-274.399	-200.000	0.011	-0.097
-273.384	-200.000	-0.013	0.134
-272.370	20.493	0.245	0.196
-271.355	-80.404	-0.407	0.134
-270.340	-131.016	-0.330	-0.043
-269.326	800.000	-0.021	-0.085
-268.311	204.635	-0.107	-0.165
-267.297	105.657	0.171	0.200
-266.282	-34.719	-0.410	-0.221
-265.267	-13.213	-0.082	0.052
-264.253	-200.000	0.004	-0.019
-263.238	-161.674	-0.310	-0.016
-262.224	-75.322	0.223	0.078
-261.209	176.393	0.089	-0.128
-260.195	36.690	-0.082	-0.072
-259.180	359.589	0.046	-0.091
-258.165	-200.000	-0.006	0.108
-257.151	199.329	-0.024	0.036
-256.136	362.266	0.156	-0.308
-255.122	-78.965	0.145	0.049
-254.107	147.092	0.170	0.226
-253.092	800.000	0.060	0.197
-252.078	-68.980	-0.100	0.038
-251.063	-59.389	0.202	-0.086
-250.049	-200.000	-0.013	-0.249
-249.034	-73.948	0.200	-0.072
-248.019	2.352	-0.127	0.091
-247.005	74.053	0.114	-0.118
-245.990	-150.542	-0.198	0.015
-244.976	-138.220	0.196	-0.021
-243.961	67.629	-0.150	-0.151
-242.946	-149.326	0.322	-0.025
-241.932	-200.000	-0.051	0.417
-240.917	-37.769	0.098	-0.051
-239.903	-96.605	0.128	0.033
-238.888	-33.565	-0.080	-0.044
-237.873	-200.000	0.044	-0.193
-236.859	800.000	-0.045	0.170
-235.844	-100.424	0.191	-0.047
-234.830	130.464	0.105	0.133
-233.815	26.327	0.119	-0.098
-232.800	278.123	-0.080	-0.140
-231.786	-13.573	-0.080	0.051
-230.771	-82.806	0.334	0.106
-229.757	-90.264	0.095	-0.027
-228.742	-165.198	-0.104	-0.005
-227.727	-103.669	0.133	0.031
-226.713	377.820	-0.089	0.179
-225.698	-68.631	-0.205	0.078
-224.684	800.000	0.057	0.236
-223.669	800.000	-0.045	-0.129
-222.655	464.382	-0.051	0.113
-221.640	-54.023	-0.167	0.075
-220.625	-200.000	-0.051	-0.358
-219.611	76.165	-0.237	0.247
-218.596	295.258	-0.130	-0.235
-217.582	-150.134	-0.381	-0.029
-216.567	700.127	0.096	-0.249
-215.552	-57.496	-0.281	-0.122
-214.538	174.648	0.116	-0.165
-213.523	84.692	0.153	0.165
-212.509	766.637	-0.037	0.098
-211.494	800.000	0.054	-0.163
-210.479	63.109	0.139	0.137
-209.465	18.908	0.144	-0.114
-208.450	384.358	-0.156	0.317
-207.436	800.000	-0.058	0.170
-206.421	-200.000	0.060	0.371
-205.406	348.879	-0.078	0.153
-204.392	284.337	0.095	0.169
-203.377	-54.664	-0.221	-0.099
-202.363	-131.672	-0.318	-0.041
-201.348	-38.947	0.152	-0.079
-200.333	-122.401	0.122	0.020
-199.319	-200.000	-0.003	0.131
-198.304	47.338	0.173	0.159
-197.290	-100.961	-0.124	0.030
-196.275	-126.966	0.315	-0.046
-195.260	39.853	-0.252	0.222
-194.246	-48.472	0.068	-0.032
-193.231	316.163	-0.071	0.132
-192.217	800.000	-0.033	-0.125
-191.202	177.685	0.106	-0.152
-190.187	800.000	0.061	-0.215
-189.173	610.150	-0.119	0.294
-188.158	-58.577	0.128	0.055
-187.144	-89.533	-0.293	-0.085
-186.129	131.085	-0.164	-0.208
-185.114	-200.000	0.002	-0.151
-184.100	-154.195	0.128	0.009
-183.085	-200.000	0.021	0.143
-182.071	-200.000	-0.010	-0.219
-181.056	-101.616	0.268	0.064
-180.042	-107.814	0.105	0.023
-179.027	-200.000	-0.053	0.573
-178.012	-60.319	0.259	-0.109
-176.998	-123.900	0.177	-0.027
-175.983	143.305	-0.123	0.161
-174.969	-200.000	-0.046	-0.379
-173.954	106.141	-0.258	0.300
-172.939	800.000	0.075	0.295
-171.925	35.302	0.097	0.084
-170.910	32.275	0.313	0.266
-169.896	174.999	0.136	0.194
-168.881	800.000	0.031	0.129
-167.866	-5.124	-0.098	-0.067
-166.852	169.781	-0.072	-0.101
-165.837	198.218	-0.149	-0.225
-164.823	-102.640	-0.429	0.101
-163.808	125.244	0.136	0.169
-162.793	-128.365	0.427	-0.060
-161.779	166.652	-0.057	-0.080
-160.764	115.488	0.172	-0.207
-159.750	142.290	0.093	-0.122
-158.735	16.498	-0.280	-0.217
-157.720	-43.392	0.100	-0.050
-156.706	-88.501	0.048	0.014
-155.691	66.110	0.150	0.149
-154.677	774.254	-0.071	0.191
-153.662	-200.000	0.009	-0.099
-152.647	-142.852	-0.121	0.012
-151.633	-60.716	-0.294	0.123
-150.618	-0.104	0.302	0.211
-149.604	215.848	-0.143	-0.223
-148.589	403.194	0.131	-0.271
-147.574	-118.347	-0.314	0.055
-146.560	-65.294	-0.237	-0.094
-145.545	800.000	-0.037	0.158
-144.531	196.431	0.143	0.215
-143.516	-200.000	-0.042	0.308
-142.502	125.889	-0.200	-0.248
-141.487	800.000	-0.100	0.303
-140.472	53.229	0.212	-0.200
-139.458	5.689	0.100	-0.072
-138.443	-63.284	0.355	-0.144
-137.429	725.438	0.016	-0.041
-136.414	-200.000	0.006	-0.143
-135.399	-75.585	0.339	0.118
-134.385	101.336	-0.159	-0.182
-133.370	-80.078	0.144	-0.047
-132.356	-40.747	0.284	0.145
-131.341	-200.000	0.010	-0.092
-130.326	800.000	-0.067	-0.199
-129.312	800.000	-0.016	0.051
-128.297	-42.762	0.223	0.111
-127.283	-200.000	-0.028	-0.383
-126.268	-167.912	0.255	-0.010
-125.253	-200.000	-0.022	0.169
-124.239	244.396	0.082	-0.136
-123.224	55.077	-0.154	-0.147
-122.210	46.529	0.208	0.189
-121.195	18.960	-0.154	0.121
