DTS Sentinel unit serial number:	SN413079Multiplexer serial number:	ORYXHardware model number:	OX4-SRSoftware version number:	ORYX F/W v4.00 Oryx Data Collector v3.7.2.0data status	okinstallation	princeton_trtdifferential loss correction	single-endedforward channel	channel 2reverse channel	N/Adate	2019/09/12time	09:21:11forward acquisition time	60.00reverse acquisition time	0.00gamma	496.2192k internal	0.2316k external	0.2316temperature offset calibration	1.0060default loss term (dB/km)	0.3790temperature slope calibration	1.0000multiplexer offset coefficient	1.0000multiplexer slope coefficient	1.0000fibre end	0.00T internal ref (°C)	35.09T ext. ref 1 (°C)	1.80T ext. ref 2 (°C)	33.59length (m)	temperature (°C)	Stokes	anti-Stokes-747.200	5.150	-0.242	0.181
-746.185	-200.000	0.036	0.259
-745.171	134.753	0.119	0.157
-744.156	800.000	-0.069	0.267
-743.142	123.686	-0.147	0.187
-742.127	323.796	-0.159	0.306
-741.112	17.548	0.207	-0.167
-740.098	-200.000	-0.006	0.077
-739.083	-28.199	0.181	-0.106
-738.069	110.033	0.064	0.078
-737.054	511.965	0.140	0.330
-736.039	-101.085	-0.374	-0.093
-735.025	-109.210	0.117	-0.025
-734.010	155.431	-0.090	-0.126
-732.996	800.000	-0.162	-0.480
-731.981	59.576	0.164	-0.164
-730.966	-200.000	-0.017	0.191
-729.952	23.706	-0.214	0.178
-728.937	33.094	0.088	-0.077
-727.923	559.975	-0.082	-0.202
-726.908	52.856	0.101	-0.097
-725.894	800.000	0.031	-0.109
-724.879	-137.279	0.500	0.058
-723.864	-57.669	-0.047	0.021
-722.850	-9.485	-0.152	-0.102
-721.835	-83.800	-0.155	-0.050
-720.821	-200.000	0.036	-0.197
-719.806	800.000	0.083	-0.252
-718.791	-143.757	-0.242	0.023
-717.777	-83.053	-0.392	-0.128
-716.762	-64.335	0.342	-0.141
-715.748	-200.000	-0.001	-0.154
-714.733	280.129	-0.105	-0.190
-713.718	-22.906	-0.075	0.046
-712.704	169.598	0.054	-0.078
-711.689	67.465	-0.102	-0.105
-710.675	-183.997	0.290	0.005
-709.660	8.074	-0.239	0.181
-708.645	-99.296	-0.036	0.009
-707.631	800.000	0.038	-0.116
-706.616	-89.477	0.237	-0.070
-705.602	-142.163	-0.521	0.052
-704.587	-200.000	-0.049	0.253
-703.572	24.427	-0.263	0.220
-702.558	-200.000	0.029	0.238
-701.543	-200.000	-0.081	-0.363
-700.529	288.285	0.114	-0.209
-699.514	371.274	0.141	-0.290
-698.499	-200.000	0.017	-0.242
-697.485	187.325	0.097	-0.146
-696.470	40.851	-0.200	-0.182
-695.456	-182.255	0.138	-0.003
-694.441	-1.378	0.217	0.155
-693.426	1.002	0.320	0.232
-692.412	113.805	0.154	0.189
-691.397	-46.328	-0.069	-0.034
-690.383	29.397	-0.201	0.172
-689.368	-104.198	-0.320	-0.075
-688.354	-154.589	-0.255	-0.017
-687.339	-200.000	0.045	-0.246
-686.324	-44.054	0.021	-0.011
-685.310	-138.384	0.261	0.029
-684.295	279.903	-0.037	0.068
-683.281	-70.469	-0.309	-0.118
-682.266	-118.835	-0.400	-0.071
-681.251	800.000	-0.162	0.484
-680.237	-126.628	-0.076	-0.011
-679.222	735.046	0.074	0.200
-678.208	-17.445	-0.252	0.160
-677.193	-32.363	0.085	-0.048
-676.178	-200.000	-0.004	0.218
-675.164	13.321	-0.135	0.106
-674.149	-96.085	-0.315	-0.084
-673.135	122.840	-0.261	-0.330
-672.120	-0.176	0.153	-0.110
-671.105	800.000	-0.053	0.210
-670.091	800.000	-0.096	-0.271
-669.076	800.000	0.068	-0.200
-668.062	-105.498	-0.284	0.065
-667.047	-163.324	0.066	0.003
-666.032	61.578	-0.152	-0.153
-665.018	-10.326	0.162	-0.108
-664.003	558.656	-0.098	0.238
-662.989	-144.993	0.220	0.020
-661.974	6.536	-0.251	0.189
-660.959	800.000	0.010	0.032
-659.945	270.604	0.080	-0.141
-658.930	-30.113	-0.157	0.090
-657.916	31.866	-0.231	-0.201
-656.901	73.943	-0.132	0.139
-655.886	-6.079	-0.177	-0.122
-654.872	-35.207	0.163	-0.090
-653.857	259.825	-0.072	-0.126
-652.843	-9.289	-0.153	0.103
-651.828	-200.000	-0.010	0.117
-650.814	-10.268	-0.164	0.110
-649.799	800.000	0.044	0.123
-648.784	-59.902	0.185	-0.080
-647.770	-200.000	-0.013	0.116
-646.755	286.487	-0.055	0.099
-645.741	-40.566	0.307	-0.161
-644.726	-131.133	-0.097	0.013
-643.711	800.000	-0.015	-0.047
-642.697	-117.790	-0.274	0.050
-641.682	742.081	-0.049	-0.133
-640.668	185.926	-0.197	-0.295
-639.653	-68.609	-0.346	-0.135
-638.638	800.000	0.073	0.302
-637.624	196.215	-0.135	0.208
-636.609	-45.204	-0.305	-0.153
-635.595	-200.000	-0.052	-0.292
-634.580	421.628	-0.095	-0.205
-633.565	55.306	0.278	-0.271
-632.551	-200.000	0.023	-0.141
-631.536	406.134	0.113	-0.240
-630.522	-145.271	0.157	0.014
-629.507	-164.291	0.177	0.008
-628.492	800.000	0.157	0.457
-627.478	-84.075	-0.352	0.113
-626.463	-200.000	0.058	0.339
-625.449	-128.731	0.243	-0.035
-624.434	166.534	0.063	-0.090
-623.419	800.000	-0.012	-0.038
-622.405	-200.000	-0.016	-0.145
-621.390	-148.851	-0.320	0.026
-620.376	-63.812	0.402	-0.166
-619.361	20.716	-0.324	-0.265
-618.346	-26.422	-0.296	-0.175
-617.332	-23.807	-0.135	0.081
-616.317	290.029	-0.093	-0.170
-615.303	-126.393	0.424	-0.064
-614.288	-37.384	-0.242	0.130
-613.273	-121.893	-0.226	0.038
-612.259	-26.880	-0.016	-0.009
-611.244	800.000	-0.047	-0.166
-610.230	-32.399	0.113	0.064
-609.215	-141.233	-0.165	0.017
-608.201	-200.000	-0.004	0.216
-607.186	-200.000	0.035	-0.190
-606.171	-93.410	0.121	0.034
-605.157	-25.299	-0.129	-0.077
-604.142	-60.626	-0.130	0.056
-603.128	800.000	0.074	-0.219
-602.113	283.918	-0.099	-0.179
-601.098	52.761	0.167	-0.161
-600.084	-200.000	-0.051	0.388
-599.069	-200.000	-0.009	-0.115
-598.055	-41.156	-0.310	-0.161
-597.040	800.000	0.040	0.143
-596.025	-87.760	0.221	0.067
-595.011	-82.933	0.213	-0.069
-593.996	37.647	-0.192	0.172
-592.982	-6.616	-0.189	0.130
-591.967	103.743	-0.150	0.177
-590.952	-100.353	0.201	-0.050
-589.938	-59.092	0.198	0.086
-588.923	-103.311	-0.199	0.047
-587.909	247.485	0.167	0.283
-586.894	-17.898	0.066	0.042
-585.879	800.000	0.034	-0.150
-584.865	89.838	-0.198	-0.223
-583.850	55.104	0.189	-0.184
-582.836	-25.076	-0.104	-0.062
-581.821	409.959	0.164	-0.350
-580.806	9.465	0.083	-0.063
-579.792	-160.863	0.152	-0.008
-578.777	-200.000	-0.033	-0.424
-577.763	-160.934	-0.147	0.008
-576.748	-38.192	-0.258	-0.137
-575.733	800.000	-0.095	-0.332
-574.719	-123.199	0.144	0.023
-573.704	268.567	-0.313	-0.552
-572.690	-200.000	0.046	-0.230
-571.675	-91.157	0.177	-0.051
-570.661	51.596	0.278	0.265
-569.646	43.947	-0.043	-0.039
-568.631	800.000	0.037	-0.161
-567.617	-161.710	-0.137	0.007
-566.602	-121.215	0.259	-0.044
-565.588	313.670	-0.109	-0.207
-564.573	-140.105	-0.452	0.048
-563.558	-20.880	0.085	-0.053
-562.544	14.935	-0.173	-0.136
-561.529	-194.001	0.028	-0.000
-560.515	-164.742	0.276	0.012
-559.500	128.281	0.101	0.129
-558.485	-123.725	0.337	0.054
-557.471	46.275	0.102	-0.095
-556.456	800.000	0.142	0.413
-555.442	-145.463	-0.488	0.044
-554.427	-200.000	0.010	-0.300
-553.412	-69.057	-0.097	-0.037
-552.398	87.775	-0.109	0.121
-551.383	800.000	0.017	0.062
-550.369	133.817	-0.143	0.187
-549.354	297.909	-0.200	-0.369
-548.339	156.053	-0.084	0.116
-547.325	-163.729	-0.306	0.014
-546.310	-36.456	-0.093	-0.050
-545.296	800.000	-0.097	0.380
-544.281	52.780	-0.287	0.276
-543.266	102.712	-0.099	-0.116
-542.252	-200.000	0.035	0.205
-541.237	320.893	0.031	0.059
-540.223	-200.000	0.012	0.061
-539.208	-136.119	-0.318	-0.037
-538.193	485.778	0.058	-0.134
-537.179	-56.619	0.196	0.087
-536.164	-165.638	-0.142	-0.006
-535.150	48.353	0.176	-0.166
-534.135	800.000	0.072	0.230
-533.121	800.000	0.017	0.053
-532.106	-200.000	0.013	0.075
-531.091	91.266	0.214	-0.241
-530.077	611.301	-0.138	-0.346
-529.062	800.000	-0.037	0.108
-528.048	-126.357	-0.502	0.075
-527.033	-200.000	0.113	-0.691
-526.018	-65.337	0.477	0.193
-525.004	-153.683	0.198	0.014
-523.989	298.288	-0.106	0.195
-522.975	-47.970	0.253	0.123
-521.960	681.892	0.047	-0.122
-520.945	800.000	0.039	-0.165
-519.931	250.480	0.187	-0.320
-518.916	172.141	0.049	0.071
-517.902	-126.992	-0.035	0.005
-516.887	382.538	-0.075	0.155
-515.872	800.000	0.023	-0.083
-514.858	800.000	0.085	-0.248
-513.843	149.344	0.095	-0.129
-512.829	-19.729	-0.212	-0.131
-511.814	309.324	0.070	-0.131
-510.799	-200.000	0.002	0.111
-509.785	12.343	-0.282	0.218
-508.770	-80.268	-0.423	-0.142
-507.756	238.821	-0.151	-0.251
-506.741	-144.830	-0.194	0.018
-505.726	-200.000	-0.032	-0.259
-504.712	196.913	0.220	-0.337
-503.697	-58.677	0.305	0.133
-502.683	-45.293	-0.169	0.084
-501.668	-76.520	0.229	-0.081
-500.653	-200.000	-0.026	-0.313
-499.639	800.000	-0.049	-0.161
-498.624	545.529	-0.143	0.342
-497.610	56.322	-0.023	-0.023
-496.595	58.821	-0.175	-0.173
-495.581	-200.000	0.025	-0.166
-494.566	-200.000	0.078	0.374
-493.551	-45.801	0.149	-0.074
-492.537	8.863	0.101	-0.077
-491.522	-83.423	-0.093	-0.030
-490.508	-98.830	0.320	-0.082
-489.493	-23.779	-0.238	0.143
-488.478	-88.751	0.398	-0.119
-487.464	-62.451	0.255	0.107
-486.449	-200.000	-0.050	0.220
-485.435	86.357	0.055	0.061
-484.420	47.175	0.081	-0.076
-483.405	754.726	0.078	-0.211
-482.391	800.000	-0.118	-0.384
-481.376	800.000	-0.065	-0.199
-480.362	280.495	-0.096	-0.173
-479.347	-200.000	0.071	-0.430
-478.332	641.359	0.101	-0.258
-477.318	-200.000	0.021	-0.187
-476.303	-119.843	-0.190	0.033
-475.289	304.507	0.138	0.256
-474.274	-200.000	0.009	0.062
-473.259	-200.000	-0.046	0.329
-472.245	800.000	0.082	0.271
-471.230	166.148	0.115	-0.164
-470.216	46.673	0.211	0.197
-469.201	-118.089	0.015	-0.003
-468.186	-132.938	0.120	0.015
-467.172	-182.855	-0.204	-0.004
-466.157	-200.000	0.070	-0.357
-465.143	-79.965	-0.057	-0.019
-464.128	-200.000	-0.020	0.235
-463.113	-33.682	0.193	-0.106
-462.099	313.111	-0.083	-0.156
-461.084	-200.000	0.004	0.093
-460.070	-200.000	0.014	-0.189
-459.055	0.930	0.260	-0.187
-458.040	-200.000	0.018	0.207
-457.026	38.421	-0.087	-0.078
-456.011	177.831	0.185	-0.270
-454.997	-145.644	-0.215	-0.019
-453.982	-200.000	0.030	-0.426
-452.968	-62.735	0.354	-0.147
-451.953	82.093	-0.034	-0.037
-450.938	-200.000	0.070	-0.331
-449.924	-82.942	-0.209	-0.067
-448.909	155.228	0.210	0.289
-447.895	800.000	-0.059	-0.251
-446.880	-104.853	-0.467	-0.107
-445.865	-82.064	0.119	-0.039
-444.851	-55.724	0.028	-0.013
-443.836	800.000	0.024	-0.072
-442.822	-200.000	-0.019	0.211
-441.807	-8.748	0.096	-0.064
-440.792	-97.430	0.081	-0.021
-439.778	-11.567	0.218	0.143
-438.763	-86.642	0.214	0.066
-437.749	-28.995	-0.143	-0.082
-436.734	-100.362	-0.311	0.077
-435.719	299.487	0.126	-0.232
-434.705	800.000	-0.042	-0.165
-433.690	97.657	0.061	0.070
-432.676	137.023	-0.086	0.112
-431.661	-71.576	-0.138	0.052
-430.646	-57.611	-0.133	0.058
-429.632	137.225	0.162	0.212
-428.617	-113.575	0.295	-0.058
-427.603	-200.000	-0.025	0.143
-426.588	-200.000	-0.009	0.186
-425.573	-200.000	0.044	0.216
-424.559	36.114	0.187	-0.164
-423.544	-135.394	-0.086	0.010
-422.530	-200.000	-0.000	0.005
-421.515	-62.107	0.250	-0.104
-420.500	134.333	-0.121	0.157
-419.486	161.086	0.321	-0.449
-418.471	189.690	-0.171	-0.256
-417.457	800.000	-0.078	0.284
-416.442	-68.428	-0.094	0.036
-415.428	-25.976	-0.324	-0.191
-414.413	-44.601	-0.077	0.038
-413.398	245.935	-0.098	-0.166
-412.384	-3.807	0.148	-0.103
-411.369	266.597	0.144	-0.251
-410.355	-42.556	0.316	0.161
-409.340	-6.138	-0.116	-0.079
-408.325	800.000	-0.020	-0.061
-407.311	-35.706	-0.200	-0.108
-406.296	-117.527	0.227	-0.041
-405.282	-3.979	0.093	0.065
-404.267	135.664	-0.058	-0.075
-403.252	167.119	0.100	0.142
-402.238	-200.000	-0.032	0.370
-401.223	102.007	0.115	0.134
-400.209	246.253	-0.169	-0.284
-399.194	704.315	0.065	0.172
-398.179	-17.949	-0.414	0.259
-397.165	-200.000	0.044	-0.238
-396.150	141.341	-0.084	0.111
-395.136	-64.529	-0.027	0.011
-394.121	-38.334	0.049	0.026
-393.106	-162.996	0.345	-0.017
-392.092	800.000	-0.082	0.310
-391.077	719.082	-0.154	0.408
-390.063	-25.030	0.151	0.090
-389.048	195.888	-0.176	-0.268
-388.033	155.902	-0.151	0.208
-387.019	371.095	-0.166	-0.337
-386.004	-75.543	-0.231	0.082
-384.990	800.000	0.106	0.343
-383.975	-28.310	-0.158	0.091
-382.960	-200.000	0.030	-0.223
-381.946	207.509	0.112	-0.174
-380.931	728.568	0.051	-0.136
-379.917	-92.019	-0.231	0.065
-378.902	-98.734	-0.045	-0.011
-377.888	-61.128	0.087	0.037
-376.873	58.151	0.177	0.173
-375.858	-200.000	-0.029	0.137
-374.844	-81.010	-0.305	-0.101
-373.829	18.018	0.171	-0.136
-372.815	420.447	-0.204	0.436
-371.800	-200.000	0.025	0.306
-370.785	-34.954	-0.159	0.087
-369.771	97.552	0.029	-0.033
-368.756	-200.000	-0.029	-0.162
-367.742	-200.000	0.010	-0.177
-366.727	-200.000	-0.019	0.269
-365.712	-115.293	-0.164	0.031
-364.698	232.250	0.079	0.130
-363.683	800.000	0.106	-0.379
-362.669	-64.327	-0.242	0.098
-361.654	-43.337	0.064	0.032
-360.639	39.403	-0.316	-0.283
-359.625	-49.083	0.319	-0.152
-358.610	-200.000	0.011	-0.220
-357.596	-37.837	-0.123	-0.065
-356.581	357.720	0.062	0.124
-355.566	48.893	-0.111	0.104
-354.552	-126.738	0.127	-0.019
-353.537	-93.251	-0.208	-0.058
-352.523	298.792	-0.106	0.195
-351.508	606.887	-0.028	-0.070
-350.493	549.613	-0.103	0.247
-349.479	-200.000	-0.003	0.019
-348.464	189.236	-0.068	0.101
-347.450	800.000	-0.142	0.394
-346.435	-15.435	-0.018	0.011
-345.420	38.637	0.313	-0.279
-344.406	-154.763	0.098	-0.006
-343.391	-200.000	0.011	0.067
-342.377	203.438	0.120	-0.184
-341.362	44.848	0.280	0.257
-340.348	-144.368	0.084	-0.008
-339.333	3.192	-0.122	0.089
-338.318	125.746	0.239	0.301
-337.304	-200.000	0.047	-0.206
-336.289	-10.939	-0.141	0.093
-335.275	462.942	0.057	0.126
-334.260	-58.889	0.093	0.040
-333.245	-97.475	0.375	-0.097
-332.231	-200.000	0.025	-0.154
-331.216	537.112	0.036	-0.085
-330.202	-200.000	0.010	0.074
-329.187	-79.318	-0.092	0.031
-328.172	-57.418	-0.387	-0.170
-327.158	77.967	-0.125	-0.133
-326.143	643.711	0.171	0.434
-325.129	-190.710	-0.171	0.002
-324.114	-165.547	-0.296	-0.013
-323.099	-200.000	-0.003	-0.027
-322.085	-125.493	-0.270	-0.041
-321.070	800.000	-0.039	-0.147
-320.056	117.361	-0.062	0.075
-319.041	83.443	0.030	-0.033
-318.026	-59.106	0.189	-0.081
-317.012	341.314	-0.041	-0.079
-315.997	800.000	-0.054	0.159
-314.983	-200.000	0.023	0.515
-313.968	-26.424	-0.172	0.100
-312.953	-162.720	0.185	-0.009
-311.939	-13.358	0.152	-0.098
-310.924	-12.013	0.117	0.076
-309.910	223.860	0.217	0.349
-308.895	-52.613	-0.256	0.118
-307.880	-170.016	-0.223	0.008
-306.866	-153.295	-0.194	-0.013
-305.851	301.536	0.125	-0.230
-304.837	-200.000	0.004	-0.331
-303.822	71.900	-0.114	-0.119
-302.807	-200.000	-0.035	-0.444
-301.793	748.273	0.104	0.279
-300.778	-200.000	0.018	0.333
-299.764	-140.953	0.323	-0.033
-298.749	306.780	-0.162	0.300
-297.735	246.798	0.091	0.152
-296.720	800.000	0.054	0.157
-295.705	800.000	0.058	-0.229
-294.691	515.280	0.068	-0.157
-293.676	767.789	0.149	-0.404
-292.662	-200.000	-0.007	-0.222
-291.647	80.949	-0.035	-0.038
-290.632	-200.000	0.012	0.173
-289.618	-111.382	-0.320	-0.065
-288.603	-58.185	-0.274	0.119
-287.589	638.622	0.043	0.108
-286.574	496.143	0.117	-0.268
-285.559	-130.703	0.141	0.019
-284.545	438.118	-0.197	0.427
-283.530	-37.572	0.175	-0.093
-282.516	75.892	0.041	-0.043
-281.501	-144.310	-0.158	-0.015
-280.486	307.046	-0.141	-0.262
-279.472	-130.326	0.215	0.029
-278.457	-200.000	-0.018	0.108
-277.443	211.525	0.161	0.252
-276.428	-135.797	-0.166	-0.020
-275.413	-18.951	0.345	-0.213
-274.399	800.000	-0.108	-0.354
-273.384	-156.823	0.178	-0.011
-272.370	14.600	0.025	-0.019
-271.355	100.192	-0.311	0.359
-270.340	36.737	0.080	-0.070
-269.326	-74.780	-0.661	-0.236
-268.311	-29.423	0.098	0.056
-267.297	-79.787	0.163	-0.055
-266.282	-18.719	0.054	-0.033
-265.267	140.077	-0.241	-0.316
-264.253	578.898	0.115	-0.280
-263.238	-123.606	0.402	0.063
-262.224	506.331	0.050	0.115
-261.209	-48.341	-0.145	-0.070
-260.195	-8.318	-0.247	-0.165
-259.180	-25.817	0.226	-0.133
-258.165	-136.767	-0.171	-0.020
-257.151	-56.063	-0.245	-0.109
-256.136	105.318	0.079	0.093
-255.122	-56.967	-0.091	0.040
-254.107	64.564	0.217	0.217
-253.092	800.000	-0.062	0.181
-252.078	-200.000	0.012	0.068
-251.063	339.791	-0.080	0.155
-250.049	-92.201	0.119	-0.033
-249.034	565.816	-0.088	0.212
-248.019	-29.935	0.155	0.088
-247.005	-123.136	0.215	-0.034
-245.990	57.933	0.120	0.116
-244.976	-200.000	0.006	-0.030
-243.961	48.069	0.136	0.126
-242.946	136.886	0.289	0.376
-241.932	310.546	-0.115	-0.214
-240.917	-200.000	-0.028	0.140
-239.903	336.881	-0.111	-0.214
-238.888	8.611	-0.137	-0.103
-237.873	254.824	-0.113	-0.192
-236.859	-100.509	-0.144	-0.035
-235.844	602.893	-0.044	-0.108
-234.830	-200.000	0.007	-0.079
-233.815	-90.005	0.393	0.114
-232.800	643.712	-0.062	0.156
-231.786	321.192	-0.102	0.193
-230.771	179.124	0.071	0.103
-229.757	-81.795	0.159	0.052
-228.742	23.216	-0.289	0.236
-227.727	151.444	-0.169	-0.228
-226.713	-190.870	-0.036	-0.000
-225.698	334.627	0.227	0.437
-224.684	506.978	-0.233	0.536
-223.669	423.387	-0.169	0.360
-222.655	-45.919	-0.137	-0.067
-221.640	-200.000	0.005	-0.240
-220.625	800.000	-0.102	0.432
-219.611	176.135	0.290	0.417
-218.596	-200.000	-0.016	-0.204
-217.582	231.795	0.085	0.138
-216.567	242.981	0.156	-0.259
-215.552	636.500	0.014	-0.036
-214.538	-122.716	0.145	-0.023
-213.523	-200.000	-0.039	0.240
-212.509	-114.577	-0.191	-0.036
-211.494	-120.316	0.030	0.005
-210.479	-133.901	0.315	0.039
-209.465	582.210	0.126	0.306
-208.450	3.801	-0.157	0.114
-207.436	-70.087	-0.184	0.069
-206.421	50.003	-0.070	-0.066
-205.406	-111.651	-0.194	-0.039
-204.392	-16.930	-0.229	0.144
-203.377	-200.000	-0.001	0.039
-202.363	-72.748	0.333	-0.122
-201.348	800.000	-0.072	0.313
-200.333	-109.564	0.135	0.028
-199.319	-137.977	-0.312	-0.035
-198.304	38.817	0.289	0.256
-197.290	800.000	0.082	0.225
-196.275	379.536	0.006	0.013
-195.260	-23.245	-0.309	-0.184
-194.246	800.000	0.160	0.442
-193.231	800.000	0.072	0.304
-192.217	-200.000	-0.069	0.413
-191.202	300.373	0.060	-0.109
-190.187	800.000	0.035	-0.097
-189.173	44.687	0.152	-0.139
-188.158	6.515	-0.222	-0.163
-187.144	-10.701	0.104	0.068
-186.129	-93.787	-0.144	0.039
-185.114	-66.668	-0.161	-0.063
-184.100	-91.971	0.138	-0.039
-183.085	-200.000	0.053	0.314
-182.071	-18.376	-0.075	-0.047
-181.056	-79.589	-0.216	0.072
-180.042	143.863	-0.089	-0.118
-179.027	269.853	0.243	-0.424
-178.012	800.000	-0.013	0.053
-176.998	38.588	-0.070	0.061
-175.983	30.593	0.100	0.085
-174.969	-200.000	0.061	0.268
-173.954	-200.000	0.012	0.160
-172.939	-79.478	0.139	0.047
-171.925	-34.880	0.215	0.116
-170.910	27.079	0.397	0.330
-169.896	-59.510	0.486	-0.207
-168.881	429.738	0.120	-0.257
-167.866	-22.833	-0.165	-0.099
-166.852	466.613	0.084	0.187
-165.837	800.000	0.058	0.171
-164.823	-71.360	-0.123	-0.045
-163.808	-98.599	0.356	-0.090
-162.793	-118.780	0.071	0.012
-161.779	800.000	-0.079	0.272
-160.764	-200.000	-0.043	0.345
-159.750	-153.502	0.105	-0.007
-158.735	171.472	-0.171	0.243
-157.720	103.852	0.156	0.181
-156.706	-35.152	0.159	-0.086
-155.691	15.353	0.042	-0.032
-154.677	290.389	-0.052	0.094
-153.662	-200.000	-0.019	0.384
-152.647	-200.000	0.003	-0.094
-151.633	-7.171	0.099	-0.067
-150.618	89.433	0.287	-0.316
-149.604	-31.293	0.339	-0.189
-148.589	-53.287	0.230	-0.104
-147.574	-101.319	-0.339	0.082
-146.560	199.116	0.083	0.126
-145.545	-160.107	-0.580	0.031
-144.531	-39.728	-0.148	0.076
-143.516	-35.948	-0.153	0.082
-142.502	66.024	0.033	0.033
-141.487	-103.163	-0.350	-0.082
-140.472	17.078	0.247	0.194
-139.458	800.000	0.077	0.310
-138.443	189.496	-0.042	0.063
-137.429	174.331	-0.047	0.067
-136.414	7.842	-0.240	-0.178
-135.399	-88.618	-0.385	-0.113
-134.385	216.872	0.113	-0.178
-133.370	-61.714	-0.347	0.144
-132.356	156.146	-0.088	0.120
-131.341	-200.000	-0.001	0.301
-130.326	84.239	-0.097	-0.105
-129.312	-200.000	-0.078	0.461
-128.297	-70.703	0.093	0.035
-127.283	146.430	0.070	-0.093
-126.268	-200.000	0.036	-0.480
-125.253	115.803	0.057	0.069
-124.239	132.019	-0.035	0.044
-123.224	128.076	0.131	-0.165
-122.210	-101.035	0.124	-0.030
