DTS Sentinel unit serial number:	SN413079Multiplexer serial number:	ORYXHardware model number:	OX4-SRSoftware version number:	ORYX F/W v4.00 Oryx Data Collector v3.7.2.0data status	okinstallation	princeton_trtdifferential loss correction	single-endedforward channel	channel 2reverse channel	N/Adate	2019/09/18time	22:31:35forward acquisition time	60.00reverse acquisition time	0.00gamma	496.2192k internal	0.2350k external	0.2350temperature offset calibration	1.0015default loss term (dB/km)	0.3790temperature slope calibration	1.0000multiplexer offset coefficient	1.0000multiplexer slope coefficient	1.0000fibre end	0.00T internal ref (°C)	24.25T ext. ref 1 (°C)	0.79T ext. ref 2 (°C)	17.95length (m)	temperature (°C)	Stokes	anti-Stokes-747.200	240.866	0.156	0.259
-746.185	-71.809	0.106	0.039
-745.171	-82.264	-0.224	0.073
-744.156	178.273	-0.015	0.022
-743.142	-83.966	0.136	-0.043
-742.127	50.670	-0.179	0.169
-741.112	-106.564	0.169	-0.038
-740.098	154.409	-0.119	0.163
-739.083	-53.197	0.129	-0.059
-738.069	-62.722	-0.025	-0.010
-737.054	25.611	-0.444	-0.369
-736.039	73.596	-0.080	0.084
-735.025	73.676	0.171	0.179
-734.010	65.560	-0.359	-0.362
-732.996	-76.800	0.110	-0.038
-731.981	-132.629	-0.088	0.011
-730.966	-31.536	-0.230	0.129
-729.952	-200.000	-0.055	0.243
-728.937	88.466	-0.015	0.017
-727.923	12.292	0.134	-0.103
-726.908	-41.561	0.121	-0.062
-725.894	-200.000	-0.040	0.230
-724.879	363.796	0.152	-0.304
-723.864	-43.857	-0.263	-0.132
-722.850	-30.258	0.269	-0.153
-721.835	-134.795	-0.273	-0.033
-720.821	-200.000	-0.041	0.234
-719.806	1.769	-0.332	0.238
-718.791	-120.748	0.180	-0.030
-717.777	-112.693	-0.308	0.061
-716.762	-200.000	-0.020	-0.397
-715.748	-200.000	0.001	-0.138
-714.733	-144.006	-0.247	-0.023
-713.718	34.927	0.181	0.158
-712.704	71.811	0.132	0.137
-711.689	800.000	0.065	-0.216
-710.675	-155.005	0.255	0.017
-709.660	-200.000	-0.059	-0.466
-708.645	-181.209	0.186	0.004
-707.631	27.745	-0.337	0.283
-706.616	-54.386	-0.406	-0.184
-705.602	774.457	0.080	-0.217
-704.587	-61.049	-0.033	0.014
-703.572	26.926	0.134	0.112
-702.558	-57.553	-0.212	0.093
-701.543	171.358	0.062	-0.089
-700.529	159.042	0.118	0.163
-699.514	111.717	0.289	0.348
-698.499	-117.145	-0.441	-0.080
-697.485	-77.645	-0.195	-0.067
-696.470	-28.372	0.184	-0.106
-695.456	-7.860	0.086	0.058
-694.441	-200.000	-0.084	0.459
-693.426	126.313	-0.111	-0.139
-692.412	60.226	-0.252	-0.248
-691.397	800.000	0.128	-0.397
-690.383	0.714	0.321	-0.229
-689.368	-136.527	0.338	0.039
-688.354	-54.619	-0.262	0.118
-687.339	5.411	0.027	-0.020
-686.324	4.156	-0.092	-0.067
-685.310	-200.000	-0.002	0.023
-684.295	-75.173	-0.052	-0.018
-683.281	-200.000	-0.057	-0.276
-682.266	127.787	-0.036	-0.045
-681.251	-50.168	0.238	-0.112
-680.237	11.703	0.136	0.104
-679.222	-200.000	-0.017	-0.208
-678.208	-87.433	-0.141	-0.042
-677.193	126.042	-0.142	-0.179
-676.178	98.276	-0.107	-0.123
-675.164	302.592	-0.286	-0.527
-674.149	-34.152	-0.072	0.039
-673.135	-69.035	0.231	-0.089
-672.120	-13.020	0.082	-0.053
-671.105	-67.389	0.132	0.052
-670.091	-200.000	0.008	0.292
-669.076	128.905	-0.060	0.076
-668.062	-167.195	-0.431	-0.017
-667.047	-56.978	0.159	0.070
-666.032	-114.897	-0.059	0.011
-665.018	550.108	-0.069	0.164
-664.003	358.983	0.157	0.312
-662.989	800.000	0.031	-0.096
-661.974	-64.983	-0.374	-0.151
-660.959	800.000	0.151	0.433
-659.945	-200.000	0.148	-0.646
-658.930	177.296	-0.054	-0.078
-657.916	-151.369	0.432	0.032
-656.901	-51.516	0.156	0.072
-655.886	-200.000	0.036	0.290
-654.872	-49.112	-0.162	-0.077
-653.857	65.965	0.109	0.110
-652.843	163.659	-0.141	-0.198
-651.828	385.809	0.064	-0.132
-650.814	214.996	0.061	0.097
-649.799	-57.118	0.148	-0.065
-648.784	-200.000	0.024	0.180
-647.770	403.513	-0.090	-0.188
-646.755	-99.027	0.177	-0.045
-645.741	-200.000	0.022	-0.171
-644.726	188.386	-0.148	-0.221
-643.711	-200.000	0.007	0.128
-642.697	64.797	0.235	0.236
-641.682	81.718	-0.069	-0.074
-640.668	-141.955	-0.314	0.031
-639.653	800.000	-0.004	-0.012
-638.638	800.000	0.101	-0.295
-637.624	800.000	0.062	-0.186
-636.609	-68.681	0.096	0.037
-635.595	-200.000	-0.026	-0.224
-634.580	-89.829	0.178	-0.052
-633.565	-108.991	0.188	0.040
-632.551	-101.333	0.133	-0.032
-631.536	-120.624	0.206	0.035
-630.522	408.416	0.134	-0.282
-629.507	800.000	0.054	0.213
-628.492	-200.000	-0.002	0.138
-627.478	-200.000	-0.011	0.057
-626.463	-200.000	-0.052	-0.327
-625.449	463.837	-0.086	0.191
-624.434	-79.791	0.206	0.069
-623.419	-148.133	-0.087	-0.007
-622.405	-49.200	-0.302	0.144
-621.390	-95.281	0.206	0.055
-620.376	57.365	-0.251	-0.244
-619.361	57.738	-0.074	0.072
-618.346	-83.724	-0.186	0.059
-617.332	-8.142	-0.185	0.124
-616.317	-106.711	-0.257	0.057
-615.303	164.829	-0.031	0.043
-614.288	651.951	0.048	-0.122
-613.273	239.740	-0.062	-0.103
-612.259	-130.825	0.204	0.027
-611.244	63.138	0.059	-0.058
-610.230	-50.461	-0.227	-0.106
-609.215	-104.065	-0.085	-0.020
-608.201	-90.912	-0.245	-0.070
-607.186	-11.203	0.077	0.050
-606.171	187.678	0.283	0.419
-605.157	-52.766	-0.194	0.089
-604.142	-53.177	-0.100	-0.046
-603.128	243.846	0.303	-0.505
-602.113	194.073	0.140	0.210
-601.098	800.000	-0.080	0.227
-600.084	-43.968	0.133	-0.066
-599.069	-120.351	-0.074	-0.012
-598.055	158.582	-0.085	0.117
-597.040	-147.731	-0.364	-0.030
-596.025	-83.196	0.028	0.009
-595.011	-47.802	-0.219	0.105
-593.996	800.000	0.110	0.374
-592.982	800.000	0.018	-0.053
-591.967	404.830	-0.053	-0.111
-590.952	-200.000	0.029	0.298
-589.938	75.749	-0.102	-0.106
-588.923	-98.548	-0.030	-0.008
-587.909	800.000	-0.019	-0.070
-586.894	-98.584	-0.163	-0.041
-585.879	-82.214	0.269	-0.087
-584.865	39.261	0.124	-0.111
-583.850	-106.517	0.099	-0.022
-582.836	-70.214	-0.132	-0.050
-581.821	49.770	0.099	0.093
-580.806	-7.002	-0.224	-0.151
-579.792	-66.642	0.254	-0.100
-578.777	142.914	-0.191	0.251
-577.763	609.302	-0.087	-0.215
-576.748	71.987	0.068	0.070
-575.733	199.526	0.217	0.330
-574.719	-5.941	-0.215	0.146
-573.704	355.146	0.136	-0.268
-572.690	-51.882	0.207	-0.096
-571.675	83.399	0.123	0.133
-570.661	756.877	-0.070	0.187
-569.646	5.636	0.153	0.112
-568.631	-200.000	0.005	0.180
-567.617	800.000	-0.034	-0.095
-566.602	67.580	0.090	0.091
-565.588	338.564	0.063	0.122
-564.573	800.000	-0.137	0.407
-563.558	151.053	-0.024	-0.033
-562.544	-23.794	-0.126	0.075
-561.529	-20.282	-0.237	-0.144
-560.515	-99.679	0.130	0.032
-559.500	367.893	-0.158	0.316
-558.485	263.658	-0.162	0.279
-557.471	102.360	-0.212	0.246
-556.456	-77.278	0.321	0.111
-555.442	-200.000	-0.046	-0.313
-554.427	-50.359	0.388	0.182
-553.412	2.561	0.136	0.098
-552.398	-58.442	-0.143	0.062
-551.383	800.000	0.059	-0.195
-550.369	-133.775	0.126	-0.016
-549.354	-28.640	-0.391	-0.223
-548.339	-200.000	0.011	-0.089
-547.325	333.256	-0.103	0.198
-546.310	-11.292	0.227	0.148
-545.296	-69.903	0.221	0.084
-544.281	-79.868	-0.069	-0.023
-543.266	-200.000	-0.016	-0.140
-542.252	-200.000	0.017	0.175
-541.237	-117.554	-0.286	0.051
-540.223	31.820	0.105	-0.089
-539.208	13.265	-0.246	0.189
-538.193	-112.374	0.277	0.055
-537.179	-200.000	-0.028	-0.356
-536.164	33.392	-0.184	-0.158
-535.150	103.171	-0.286	0.331
-534.135	188.655	0.100	0.148
-533.121	215.729	-0.125	0.196
-532.106	-150.496	-0.388	0.029
-531.091	-200.000	-0.012	0.106
-530.077	-200.000	-0.023	-0.528
-529.062	800.000	-0.029	0.122
-528.048	800.000	-0.121	-0.484
-527.033	23.362	-0.156	0.127
-526.018	-64.313	0.154	-0.062
-525.004	522.376	-0.119	-0.276
-523.989	308.042	-0.161	0.297
-522.975	178.298	0.154	0.222
-521.960	192.767	-0.196	-0.293
-520.945	170.379	0.269	-0.381
-519.931	422.748	0.117	-0.248
-518.916	169.689	-0.045	0.064
-517.902	223.556	-0.184	-0.293
-516.887	29.491	-0.183	0.154
-515.872	87.293	0.197	0.216
-514.858	199.539	0.180	-0.272
-513.843	-200.000	0.015	0.172
-512.829	-200.000	-0.058	-0.393
-511.814	-107.208	0.061	0.013
-510.799	94.571	0.185	-0.208
-509.785	800.000	0.037	0.145
-508.770	283.270	-0.083	-0.147
-507.756	745.347	0.032	-0.086
-506.741	-44.698	0.425	0.210
-505.726	507.806	-0.285	0.654
-504.712	200.688	0.010	0.015
-503.697	2.832	0.209	-0.150
-502.683	-100.402	-0.317	-0.078
-501.668	-11.711	-0.141	0.092
-500.653	-99.039	-0.119	-0.030
-499.639	2.055	-0.144	0.103
-498.624	483.058	0.105	0.237
-497.610	403.389	-0.048	0.100
-496.595	-200.000	-0.057	0.298
-495.581	-200.000	-0.017	0.143
-494.566	-200.000	-0.004	0.242
-493.551	-200.000	-0.025	-0.230
-492.537	-200.000	-0.036	0.159
-491.522	-115.618	0.151	-0.028
-490.508	800.000	0.034	0.117
-489.493	-200.000	0.015	-0.140
-488.478	38.392	0.090	-0.079
-487.464	-2.603	0.322	-0.223
-486.449	-28.869	0.158	-0.090
-485.435	104.668	-0.214	0.249
-484.420	-200.000	0.046	0.440
-483.405	430.304	0.027	0.058
-482.391	-69.978	-0.049	0.018
-481.376	-36.586	-0.079	0.042
-480.362	21.588	0.195	-0.157
-479.347	-111.689	-0.203	0.041
-478.332	163.255	0.231	0.320
-477.318	-25.556	-0.098	-0.057
-476.303	-200.000	-0.024	-0.243
-475.289	113.133	-0.126	0.152
-474.274	91.602	-0.142	0.157
-473.259	118.561	-0.182	-0.222
-472.245	153.227	0.005	-0.007
-471.230	13.017	0.050	-0.038
-470.216	503.523	-0.114	-0.260
-469.201	41.519	0.310	0.277
-468.186	-50.999	-0.146	0.067
-467.172	-51.463	0.166	0.077
-466.157	-200.000	0.046	0.216
-465.143	31.191	-0.087	-0.074
-464.128	-200.000	0.032	0.375
-463.113	-200.000	0.021	0.162
-462.099	-38.806	-0.182	0.095
-461.084	-32.286	-0.144	-0.079
-460.070	-152.109	-0.360	-0.026
-459.055	-8.506	0.104	0.069
-458.040	800.000	-0.020	-0.079
-457.026	127.943	0.083	-0.104
-456.011	-69.850	0.252	0.095
-454.997	-50.395	0.036	0.017
-453.982	-106.854	0.344	-0.075
-452.968	800.000	0.050	-0.159
-451.953	-200.000	-0.008	-0.051
-450.938	800.000	-0.078	0.244
-449.924	-200.000	0.070	0.322
-448.909	-98.217	0.133	-0.034
-447.895	-90.082	-0.152	-0.044
-446.880	-167.100	-0.095	0.004
-445.865	68.267	-0.142	-0.143
-444.851	-107.922	-0.145	-0.031
-443.836	-200.000	0.025	-0.194
-442.822	-81.908	0.087	-0.028
-441.807	226.960	0.145	-0.232
-440.792	-127.417	-0.043	-0.006
-439.778	-78.953	0.167	-0.056
-438.763	434.342	-0.172	0.370
-437.749	-157.603	0.060	-0.004
-436.734	-66.614	-0.323	-0.126
-435.719	-101.172	0.261	0.063
-434.705	800.000	-0.153	-0.422
-433.690	-200.000	-0.047	-0.226
-432.676	118.796	0.111	0.135
-431.661	-77.576	0.351	0.120
-430.646	33.855	0.156	0.134
-429.632	83.412	-0.154	0.166
-428.617	-101.124	-0.168	0.040
-427.603	800.000	0.102	0.330
-426.588	-200.000	0.061	-0.276
-425.573	-45.172	0.248	0.122
-424.559	224.522	0.020	-0.033
-423.544	-175.547	0.360	-0.010
-422.530	238.836	-0.251	-0.412
-421.515	-200.000	0.006	0.326
-420.500	-40.604	0.049	0.025
-419.486	-87.397	-0.145	-0.043
-418.471	15.603	-0.133	-0.103
-417.457	-200.000	0.048	0.217
-416.442	-200.000	-0.001	0.035
-415.428	-200.000	0.041	-0.202
-414.413	-200.000	0.059	-0.276
-413.398	559.247	0.131	-0.312
-412.384	624.572	-0.024	-0.060
-411.369	-200.000	-0.001	0.054
-410.355	439.648	-0.083	0.178
-409.340	213.620	-0.101	-0.158
-408.325	-81.689	0.201	0.065
-407.311	119.525	-0.122	0.149
-406.296	-6.337	-0.319	-0.214
-405.282	3.784	0.315	-0.227
-404.267	800.000	-0.020	0.070
-403.252	-77.163	-0.194	0.066
-402.238	129.021	0.157	-0.197
-401.223	-200.000	0.019	0.409
-400.209	287.798	-0.048	0.085
-399.194	-8.762	-0.201	-0.133
-398.179	261.701	-0.052	0.089
-397.165	387.169	-0.100	0.203
-396.150	-200.000	-0.025	0.173
-395.136	-200.000	0.023	-0.166
-394.121	-200.000	0.077	-0.416
-393.106	273.948	-0.124	-0.216
-392.092	44.047	-0.169	0.153
-391.077	800.000	0.048	0.146
-390.063	-57.199	0.302	0.131
-389.048	-200.000	-0.056	-0.390
-388.033	-200.000	-0.065	0.298
-387.019	-10.331	0.169	0.110
-386.004	-72.491	0.111	0.040
-384.990	377.077	0.068	-0.136
-383.975	-20.386	0.133	-0.081
-382.960	-157.711	-0.210	-0.012
-381.946	177.142	0.194	0.278
-380.931	-111.351	0.216	-0.043
-379.917	-148.878	-0.067	-0.005
-378.902	-13.575	-0.282	0.180
-377.888	-18.027	-0.227	0.140
-376.873	154.634	0.229	-0.310
-375.858	28.168	-0.186	-0.155
-374.844	-131.219	-0.149	-0.019
-373.829	103.001	0.247	-0.284
-372.815	-200.000	-0.148	0.000
-371.800	9.228	0.221	0.165
-370.785	-121.902	-0.411	0.067
-369.771	-19.357	0.296	0.181
-368.756	-46.186	-0.295	-0.143
-367.742	225.123	-0.184	-0.292
-366.727	34.405	-0.179	-0.154
-365.712	800.000	0.028	0.095
-364.698	580.049	0.101	-0.243
-363.683	37.998	-0.182	-0.159
-362.669	-84.403	0.281	0.087
-361.654	-40.126	0.228	-0.117
-360.639	64.972	-0.276	0.274
-359.625	10.252	-0.219	-0.164
-358.610	-19.592	-0.259	0.158
-357.596	-96.071	0.357	0.093
-356.581	65.532	0.084	-0.084
-355.566	-90.804	0.259	0.074
-354.552	252.960	0.206	0.346
-353.537	-129.289	0.328	-0.045
-352.523	24.556	-0.306	-0.249
-351.508	-200.000	0.002	-0.153
-350.493	711.197	-0.018	-0.047
-349.479	-200.000	-0.044	-0.408
-348.464	207.273	0.173	0.265
-347.450	-99.156	0.179	-0.045
-346.435	-200.000	0.042	0.220
-345.420	671.540	0.035	0.088
-344.406	-200.000	-0.024	-0.206
-343.391	800.000	0.066	-0.205
-342.377	238.707	-0.055	-0.090
-341.362	-54.683	-0.334	0.149
-340.348	800.000	0.040	-0.123
-339.333	200.924	-0.076	0.114
-338.318	-81.010	-0.036	-0.012
-337.304	800.000	0.045	-0.133
-336.289	-200.000	-0.117	-0.520
-335.275	-147.359	-0.286	0.024
-334.260	800.000	0.163	0.512
-333.245	800.000	-0.057	0.184
-332.231	405.098	-0.238	0.492
-331.216	-110.100	-0.160	0.033
-330.202	-40.115	0.017	0.009
-329.187	-83.142	0.470	-0.148
-328.172	800.000	-0.027	0.089
-327.158	-152.555	-0.050	0.004
-326.143	800.000	-0.050	-0.181
-325.129	127.694	-0.029	-0.037
-324.114	200.622	0.164	0.248
-323.099	65.903	-0.131	-0.131
-322.085	112.889	0.154	0.184
-321.070	-60.266	0.295	0.124
-320.056	-49.271	-0.016	-0.008
-319.041	439.772	-0.187	0.401
-318.026	800.000	0.100	-0.373
-317.012	-80.200	-0.046	-0.015
-315.997	-99.895	0.033	0.008
-314.983	-200.000	0.000	-0.030
-313.968	47.095	0.011	0.010
-312.953	-47.651	-0.336	0.160
-311.939	-200.000	0.012	-0.151
-310.924	-151.837	0.126	-0.009
-309.910	-20.074	-0.093	-0.056
-308.895	7.523	-0.182	0.134
-307.880	50.128	-0.187	0.173
-306.866	179.290	0.070	-0.100
-305.851	-103.383	0.178	-0.041
-304.837	-200.000	-0.011	-0.179
-303.822	178.058	0.081	-0.116
-302.807	27.478	0.229	0.189
-301.793	107.378	-0.096	0.112
-300.778	-91.109	-0.273	-0.077
-299.764	111.480	-0.078	-0.092
-298.749	-52.247	-0.087	0.040
-297.735	-145.287	0.241	0.021
-296.720	110.304	0.134	-0.158
-295.705	-93.158	0.120	-0.033
-294.691	178.890	0.131	-0.187
-293.676	273.916	0.025	0.043
-292.662	-200.000	-0.027	-0.170
-291.647	-41.558	-0.158	-0.080
-290.632	97.903	-0.059	0.066
-289.618	800.000	0.056	-0.231
-288.603	-107.660	-0.177	-0.038
-287.589	-200.000	-0.023	-0.220
-286.574	-137.950	-0.052	-0.006
-285.559	15.997	0.200	0.155
-284.545	-53.604	-0.061	-0.027
-283.530	127.262	0.308	-0.383
-282.516	-95.794	0.305	0.080
-281.501	57.126	-0.121	-0.116
-280.486	-116.718	0.125	-0.023
-279.472	134.095	0.039	0.049
-278.457	-94.423	0.334	0.089
-277.443	628.574	0.050	0.123
-276.428	-159.423	-0.333	0.018
-275.413	282.224	0.041	-0.072
-274.399	-73.934	0.104	0.037
-273.384	-133.786	0.096	-0.012
-272.370	560.052	-0.064	-0.152
-271.355	-150.604	-0.099	-0.007
-270.340	116.909	-0.207	-0.249
-269.326	-8.116	-0.073	-0.048
-268.311	-140.522	0.368	0.037
-267.297	258.659	-0.182	-0.307
-266.282	-25.898	0.262	-0.151
-265.267	800.000	0.106	-0.315
-264.253	-93.030	0.194	0.053
-263.238	-1.697	-0.208	-0.144
-262.224	-96.148	-0.067	0.017
-261.209	-56.312	0.330	0.144
-260.195	-35.746	-0.172	-0.091
-259.180	34.537	-0.230	-0.197
-258.165	-67.190	0.019	0.007
-257.151	331.006	-0.075	0.142
-256.136	-136.399	-0.080	-0.009
-255.122	-27.133	0.062	0.036
-254.107	83.559	-0.088	-0.094
-253.092	-18.489	0.060	-0.037
-252.078	-200.000	-0.069	0.309
-251.063	-67.010	0.247	-0.095
-250.049	377.406	0.068	0.137
-249.034	-81.316	-0.328	-0.106
-248.019	-200.000	-0.030	-0.362
-247.005	324.484	0.107	-0.201
-245.990	-87.089	-0.275	-0.082
-244.976	800.000	0.112	-0.372
-243.961	-200.000	-0.018	0.290
-242.946	-100.255	-0.460	0.112
-241.932	-54.971	-0.052	0.023
-240.917	800.000	0.044	0.131
-239.903	-95.358	-0.052	0.014
-238.888	184.521	-0.101	0.146
-237.873	89.283	0.065	0.071
-236.859	173.185	0.124	-0.174
-235.844	800.000	0.030	0.097
-234.830	-200.000	0.014	-0.219
-233.815	29.572	0.196	-0.163
-232.800	-152.161	-0.422	0.030
-231.786	-92.651	0.204	0.056
-230.771	800.000	-0.026	-0.088
-229.757	-119.448	-0.023	0.004
-228.742	-7.971	0.285	0.188
-227.727	800.000	0.058	0.234
-226.713	-55.535	-0.196	-0.086
-225.698	37.638	0.131	-0.113
-224.684	708.735	-0.223	0.578
-223.669	146.095	-0.045	-0.059
-222.655	-151.651	-0.195	0.014
-221.640	-58.499	0.050	-0.021
-220.625	440.325	0.084	-0.179
-219.611	277.587	-0.154	-0.267
-218.596	-200.000	0.019	-0.171
-217.582	-53.376	-0.235	0.105
-216.567	-164.248	-0.066	0.003
-215.552	-200.000	-0.031	0.231
-214.538	-27.272	-0.192	0.109
-213.523	40.642	-0.132	-0.116
-212.509	800.000	0.040	0.161
-211.494	200.477	-0.181	-0.273
-210.479	497.792	0.059	0.133
-209.465	-81.710	-0.123	0.040
-208.450	318.523	0.138	0.256
-207.436	-200.000	-0.046	0.217
-206.421	-200.000	-0.024	0.200
-205.406	800.000	-0.065	0.178
-204.392	70.540	0.317	-0.320
-203.377	800.000	-0.192	-0.601
-202.363	139.670	-0.133	0.172
-201.348	800.000	-0.102	-0.323
-200.333	-200.000	-0.003	-0.046
-199.319	255.606	-0.018	-0.030
-198.304	-200.000	-0.007	-0.337
-197.290	-30.244	0.387	-0.215
-196.275	-20.539	0.063	0.038
-195.260	26.499	-0.100	0.082
-194.246	-84.967	0.132	-0.040
-193.231	800.000	-0.078	0.273
-192.217	-200.000	0.062	0.287
-191.202	-28.751	0.397	0.223
-190.187	-75.149	-0.139	0.049
-189.173	-114.838	-0.130	0.024
-188.158	120.328	0.166	0.201
-187.144	-198.010	0.098	0.001
-186.129	289.052	-0.189	0.334
-185.114	292.158	0.307	0.547
-184.100	402.535	-0.091	0.188
-183.085	-37.112	0.377	0.197
-182.071	762.968	0.103	-0.274
-181.056	19.113	-0.042	-0.033
-180.042	332.305	-0.071	0.134
-179.027	352.767	0.074	0.142
-178.012	-25.182	-0.110	0.064
-176.998	-124.128	0.383	0.059
-175.983	512.492	0.017	0.038
-174.969	-187.887	0.161	0.002
-173.954	-122.731	-0.176	-0.028
-172.939	-54.939	0.303	0.133
-171.925	-179.392	-0.123	-0.003
-170.910	800.000	0.068	-0.249
-169.896	-171.681	0.161	-0.005
-168.881	-67.286	0.113	0.044
-167.866	-99.560	-0.323	-0.079
-166.852	-95.398	-0.184	-0.048
-165.837	-200.000	0.050	-0.320
-164.823	110.939	0.188	-0.221
-163.808	-19.344	0.290	0.175
-162.793	306.509	-0.275	-0.499
-161.779	-102.067	-0.131	0.031
-160.764	-200.000	-0.019	0.173
-159.750	-200.000	-0.023	-0.235
-158.735	246.811	-0.088	0.144
-157.720	-3.058	0.353	-0.241
-156.706	-96.989	0.109	-0.028
-155.691	-128.406	0.316	-0.044
-154.677	-184.710	-0.485	-0.008
-153.662	-200.000	0.015	0.132
-152.647	-200.000	-0.009	-0.113
-151.633	-16.369	0.082	-0.051
-150.618	800.000	-0.070	-0.285
-149.604	513.280	0.047	0.106
-148.589	800.000	-0.061	0.194
-147.574	17.488	0.252	-0.195
-146.560	-34.212	-0.074	0.040
-145.545	109.557	-0.351	0.410
-144.531	139.340	0.094	-0.120
-143.516	-32.627	0.256	-0.139
-142.502	-13.207	-0.146	-0.092
-141.487	-42.552	-0.423	0.210
-140.472	195.540	0.074	0.109
-139.458	-50.713	-0.214	0.098
-138.443	800.000	-0.109	-0.402
-137.429	-127.881	0.219	-0.031
-136.414	-2.481	-0.090	-0.062
-135.399	-149.158	0.309	-0.024
-134.385	112.570	-0.091	-0.107
-133.370	-12.661	-0.226	-0.144
-132.356	-97.784	-0.076	0.019
-131.341	-108.070	-0.440	0.093
-130.326	-49.079	-0.264	-0.123
-129.312	-98.174	0.200	0.050
-128.297	64.764	-0.188	0.185
-127.283	315.145	-0.080	0.147
-126.268	45.671	0.054	0.049
-125.253	-105.531	0.398	0.088
-124.239	-200.000	0.029	0.137
-123.224	-200.000	-0.034	-0.176
-122.210	138.021	0.230	0.294
-121.195	-87.828	-0.355	-0.104
