DTS Sentinel unit serial number:	SN413079Multiplexer serial number:	ORYXHardware model number:	OX4-SRSoftware version number:	ORYX F/W v4.00 Oryx Data Collector v3.7.2.0data status	okinstallation	princeton_trtdifferential loss correction	single-endedforward channel	channel 2reverse channel	N/Adate	2019/09/12time	12:25:10forward acquisition time	60.00reverse acquisition time	0.00gamma	496.2192k internal	0.2299k external	0.2299temperature offset calibration	1.0072default loss term (dB/km)	0.3790temperature slope calibration	1.0000multiplexer offset coefficient	1.0000multiplexer slope coefficient	1.0000fibre end	0.00T internal ref (°C)	40.56T ext. ref 1 (°C)	1.99T ext. ref 2 (°C)	35.29length (m)	temperature (°C)	Stokes	anti-Stokes-747.200	156.642	-0.050	0.070
-746.185	66.648	-0.156	0.162
-745.171	-113.581	-0.278	-0.055
-744.156	-148.643	-0.245	-0.020
-743.142	29.936	-0.290	-0.252
-742.127	13.886	0.099	0.079
-741.112	463.313	-0.160	-0.366
-740.098	-77.211	-0.232	0.082
-739.083	-10.309	0.122	-0.083
-738.069	-150.722	-0.311	0.024
-737.054	206.290	-0.263	-0.417
-736.039	-163.305	-0.636	-0.031
-735.025	-24.515	0.236	0.143
-734.010	-92.608	-0.248	-0.071
-732.996	428.942	0.102	-0.225
-731.981	119.009	-0.111	-0.140
-730.966	266.245	0.161	0.287
-729.952	800.000	-0.067	-0.190
-728.937	-61.887	-0.193	-0.083
-727.923	309.115	0.086	-0.163
-726.908	214.936	-0.047	-0.076
-725.894	172.394	-0.153	-0.224
-724.879	132.285	0.187	-0.246
-723.864	23.865	0.218	-0.183
-722.850	-200.000	-0.007	-0.336
-721.835	137.408	-0.073	0.098
-720.821	-117.948	-0.380	-0.069
-719.806	-200.000	0.015	-0.177
-718.791	800.000	-0.067	-0.279
-717.777	-200.000	-0.015	-0.091
-716.762	-200.000	-0.009	-0.182
-715.748	-64.287	-0.144	0.060
-714.733	-200.000	0.010	0.204
-713.718	-106.750	0.164	0.037
-712.704	127.338	-0.006	-0.007
-711.689	20.971	-0.123	-0.102
-710.675	800.000	0.054	-0.155
-709.660	12.505	0.172	-0.135
-708.645	252.398	0.206	0.358
-707.631	96.418	-0.090	0.105
-706.616	322.729	-0.056	0.108
-705.602	-200.000	0.001	0.204
-704.587	27.273	-0.097	0.083
-703.572	150.935	-0.153	0.212
-702.558	69.877	-0.080	-0.084
-701.543	-83.552	0.222	-0.072
-700.529	-11.613	0.324	-0.217
-699.514	-103.887	-0.104	0.025
-698.499	317.779	0.057	-0.110
-697.485	104.224	0.162	0.195
-696.470	-80.290	-0.132	0.045
-695.456	800.000	0.096	0.301
-694.441	375.980	0.141	-0.293
-693.426	120.141	-0.235	0.297
-692.412	333.567	-0.117	-0.230
-691.397	408.639	-0.080	0.172
-690.383	-136.604	0.269	-0.032
-689.368	-4.128	-0.142	-0.100
-688.354	119.242	0.104	-0.131
-687.339	108.668	-0.055	0.067
-686.324	-83.140	0.037	-0.012
-685.310	158.620	0.112	0.159
-684.295	11.967	-0.375	-0.294
-683.281	118.034	0.147	-0.184
-682.266	-11.022	0.105	-0.071
-681.251	-200.000	0.056	-0.310
-680.237	74.617	0.207	0.222
-679.222	800.000	0.153	0.495
-678.208	-183.200	0.178	0.003
-677.193	166.006	-0.143	0.206
-676.178	-200.000	0.021	-0.105
-675.164	44.001	-0.300	-0.280
-674.149	-200.000	-0.031	-0.354
-673.135	-27.746	0.420	0.248
-672.120	111.210	0.077	-0.095
-671.105	47.417	0.167	-0.158
-670.091	6.321	0.148	-0.112
-669.076	25.343	0.149	0.126
-668.062	174.110	0.183	0.269
-667.047	-200.000	0.017	-0.174
-666.032	131.097	0.019	-0.025
-665.018	-129.931	-0.381	0.053
-664.003	-59.243	0.212	0.093
-662.989	93.872	0.139	0.160
-661.974	-200.000	-0.022	0.135
-660.959	-18.796	0.051	-0.032
-659.945	-200.000	-0.018	0.239
-658.930	-46.296	-0.185	-0.092
-657.916	155.279	0.195	-0.273
-656.901	800.000	0.030	-0.094
-655.886	-89.554	0.215	0.064
-654.872	-124.894	-0.194	0.030
-653.857	1.603	-0.315	-0.231
-652.843	-200.000	0.021	-0.124
-651.828	-200.000	0.046	-0.250
-650.814	-7.813	0.075	-0.051
-649.799	-110.843	-0.337	-0.071
-648.784	417.144	0.080	0.173
-647.770	800.000	-0.075	-0.249
-646.755	-48.376	-0.369	-0.181
-645.741	474.740	-0.078	0.179
-644.726	709.691	-0.150	-0.404
-643.711	776.425	-0.066	-0.184
-642.697	26.209	0.206	0.175
-641.682	46.656	0.290	0.274
-640.668	-27.353	0.089	-0.053
-639.653	-200.000	0.014	-0.391
-638.638	194.936	-0.118	0.182
-637.624	-99.078	0.358	0.092
-636.609	-126.638	-0.136	0.020
-635.595	287.676	0.063	-0.116
-634.580	5.610	0.149	-0.112
-633.565	-34.265	-0.168	-0.094
-632.551	-77.170	-0.099	-0.035
-631.536	8.965	0.124	0.095
-630.522	-200.000	0.006	-0.088
-629.507	53.270	0.101	0.099
-628.492	0.343	-0.272	-0.197
-627.478	262.276	-0.105	0.185
-626.463	161.035	0.109	0.155
-625.449	777.033	0.013	-0.036
-624.434	60.048	0.234	-0.234
-623.419	-42.782	0.038	0.020
-622.405	-36.146	-0.155	0.085
-621.390	487.549	-0.048	-0.111
-620.376	-200.000	0.007	-0.145
-619.361	-134.658	0.220	-0.027
-618.346	641.944	-0.103	-0.267
-617.332	782.523	-0.108	-0.301
-616.317	42.841	0.119	0.110
-615.303	800.000	-0.064	-0.190
-614.288	-176.180	0.087	0.002
-613.273	-200.000	-0.009	-0.086
-612.259	-189.572	0.223	0.003
-611.244	405.820	-0.007	-0.016
-610.230	-25.063	0.100	-0.060
-609.215	-112.051	-0.247	0.050
-608.201	174.927	-0.076	0.111
-607.186	-200.000	0.003	0.234
-606.171	220.227	0.110	0.179
-605.157	-17.123	0.267	0.171
-604.142	647.988	0.121	0.313
-603.128	-72.663	-0.413	0.154
-602.113	-200.000	-0.014	0.102
-601.098	-47.955	0.316	0.155
-600.084	-90.891	0.113	-0.033
-599.069	579.878	-0.085	-0.212
-598.055	-116.061	0.164	-0.031
-597.040	112.361	-0.178	-0.218
-596.025	177.880	-0.062	0.092
-595.011	-91.612	-0.358	0.103
-593.996	310.601	-0.069	-0.131
-592.982	-200.000	-0.027	-0.172
-591.967	427.183	0.129	0.282
-590.952	-180.025	0.210	0.005
-589.938	-5.970	0.423	-0.294
-588.923	-4.600	-0.178	-0.124
-587.909	-85.590	-0.057	-0.018
-586.894	83.894	-0.117	0.129
-585.879	53.171	-0.138	0.134
-584.865	-13.521	0.172	-0.113
-583.850	-16.265	0.134	0.086
-582.836	-92.934	0.126	0.036
-581.821	126.826	0.258	-0.332
-580.806	-13.848	-0.185	0.121
-579.792	-87.661	-0.182	-0.056
-578.777	800.000	-0.015	-0.066
-577.763	118.927	0.043	0.054
-576.748	-94.602	0.138	0.038
-575.733	-65.213	0.079	-0.032
-574.719	-96.344	0.345	0.092
-573.704	-50.546	0.067	-0.032
-572.690	288.566	0.053	-0.098
-571.675	-18.017	-0.261	-0.166
-570.661	49.653	-0.268	-0.256
-569.646	-200.000	0.007	-0.062
-568.631	800.000	0.018	0.072
-567.617	24.735	0.157	-0.132
-566.602	13.139	0.101	-0.080
-565.588	-200.000	-0.006	-0.087
-564.573	-47.391	-0.212	0.104
-563.558	-3.194	0.319	0.225
-562.544	546.846	0.198	0.479
-561.529	-70.146	-0.419	0.162
-560.515	67.628	-0.188	-0.194
-559.500	-102.853	-0.113	0.027
-558.485	-60.882	-0.261	0.112
-557.471	-47.883	-0.139	-0.068
-556.456	160.098	-0.161	-0.227
-555.442	181.183	0.101	0.150
-554.427	280.376	-0.031	0.057
-553.412	-117.817	0.100	-0.018
-552.398	249.908	0.142	-0.244
-551.383	571.438	0.060	-0.149
-550.369	18.295	-0.248	-0.201
-549.354	-27.476	-0.176	-0.104
-548.339	308.132	0.193	-0.365
-547.325	83.659	-0.220	-0.243
-546.310	-200.000	0.030	-0.388
-545.296	52.574	-0.163	-0.157
-544.281	0.749	0.165	0.120
-543.266	302.935	0.185	-0.347
-542.252	-57.544	0.148	0.066
-541.237	507.974	0.061	-0.144
-540.223	800.000	0.027	0.078
-539.208	-5.810	-0.284	0.197
-538.193	43.711	0.059	-0.055
-537.179	-81.039	0.242	-0.081
-536.164	254.939	-0.143	0.248
-535.150	-160.655	-0.131	0.007
-534.135	800.000	0.086	0.266
-533.121	152.552	0.149	-0.205
-532.106	800.000	-0.041	-0.142
-531.091	14.719	-0.147	-0.116
-530.077	-85.191	0.071	-0.022
-529.062	-31.335	-0.301	-0.171
-528.048	-7.047	-0.217	-0.149
-527.033	127.796	0.200	0.258
-526.018	800.000	-0.050	-0.157
-525.004	24.309	-0.399	-0.334
-523.989	74.497	-0.262	-0.278
-522.975	800.000	0.084	-0.238
-521.960	691.900	0.103	0.272
-520.945	-200.000	-0.002	-0.448
-519.931	-147.203	0.450	0.039
-518.916	-53.647	0.362	-0.167
-517.902	293.370	-0.167	-0.309
-516.887	140.812	0.050	0.067
-515.872	-14.892	0.020	-0.013
-514.858	-65.385	-0.374	0.152
-513.843	14.388	-0.381	0.300
-512.829	76.472	-0.138	-0.148
-511.814	-20.594	-0.115	0.071
-510.799	-79.268	-0.192	-0.066
-509.785	-77.184	-0.237	-0.083
-508.770	-200.000	0.012	-0.473
-507.756	-4.325	0.237	0.166
-506.741	-200.000	-0.013	0.270
-505.726	-200.000	-0.041	-0.222
-504.712	-128.245	0.298	-0.043
-503.697	-32.871	0.119	0.067
-502.683	-138.044	0.074	-0.008
-501.668	-200.000	-0.027	-0.137
-500.653	400.260	-0.075	0.159
-499.639	98.726	0.201	0.235
-498.624	-62.438	0.084	-0.035
-497.610	91.261	-0.030	-0.034
-496.595	33.363	-0.186	-0.163
-495.581	3.717	0.148	-0.109
-494.566	207.071	0.131	-0.206
-493.551	-109.453	0.141	-0.030
-492.537	-158.186	-0.192	0.011
-491.522	235.686	-0.125	0.209
-490.508	164.796	0.180	-0.257
-489.493	63.289	0.147	0.149
-488.478	-34.676	-0.033	-0.018
-487.464	-200.000	0.011	0.284
-486.449	69.296	-0.254	0.263
-485.435	201.857	-0.018	-0.029
-484.420	-4.105	0.034	0.024
-483.405	99.715	-0.158	0.184
-482.391	-200.000	-0.056	0.428
-481.376	99.082	0.148	0.173
-480.362	531.850	-0.060	-0.142
-479.347	52.988	-0.008	0.007
-478.332	-81.320	0.086	-0.029
-477.318	800.000	-0.128	-0.439
-476.303	-46.574	0.181	-0.089
-475.289	122.797	-0.070	-0.089
-474.274	463.802	0.044	0.100
-473.259	-102.247	-0.176	-0.043
-472.245	-200.000	0.002	-0.144
-471.230	2.560	0.124	0.091
-470.216	15.849	0.243	0.193
-469.201	-64.795	0.374	-0.153
-468.186	-36.992	-0.077	0.042
-467.172	437.687	0.150	-0.330
-466.157	-200.000	0.034	0.251
-465.143	-2.212	0.063	-0.044
-464.128	501.607	-0.036	-0.084
-463.113	-74.500	0.149	-0.054
-462.099	351.242	-0.163	-0.327
-461.084	57.402	-0.140	0.138
-460.070	-90.110	-0.238	-0.070
-459.055	243.099	0.180	-0.305
-458.040	800.000	-0.041	0.156
-457.026	-200.000	0.018	0.187
-456.011	-47.347	-0.167	0.082
-454.997	-10.989	0.069	0.046
-453.982	-88.255	-0.088	-0.026
-452.968	-131.078	0.371	0.050
-451.953	70.511	0.185	-0.193
-450.938	-104.918	-0.086	0.020
-449.924	-39.279	0.143	-0.076
-448.909	-200.000	-0.023	-0.416
-447.895	245.291	-0.048	0.081
-446.880	19.788	-0.074	0.060
-445.865	91.120	-0.194	-0.220
-444.851	-8.807	0.130	0.088
-443.836	209.563	0.179	-0.283
-442.822	-127.621	0.177	-0.026
-441.807	-78.418	0.079	0.027
-440.792	-200.000	0.017	-0.238
-439.778	-13.886	-0.205	-0.134
-438.763	-51.666	-0.095	-0.045
-437.749	231.424	0.053	-0.088
-436.734	99.764	0.126	0.147
-435.719	113.142	-0.232	-0.284
-434.705	144.837	0.136	0.184
-433.690	-88.182	-0.264	0.080
-432.676	-43.494	-0.227	-0.116
-431.661	-200.000	0.018	-0.116
-430.646	280.111	0.020	0.036
-429.632	444.113	-0.065	0.144
-428.617	-82.715	-0.232	0.076
-427.603	72.297	-0.158	0.165
-426.588	161.042	0.231	0.325
-425.573	-200.000	-0.007	-0.075
-424.559	-200.000	-0.070	-0.365
-423.544	-106.661	0.220	-0.049
-422.530	800.000	-0.072	0.213
-421.515	30.467	0.171	-0.147
-420.500	80.027	0.167	-0.181
-419.486	192.377	-0.046	0.070
-418.471	-200.000	-0.022	0.150
-417.457	-200.000	-0.037	0.220
-416.442	-200.000	-0.003	-0.076
-415.428	-52.928	-0.114	-0.053
-414.413	-200.000	0.049	-0.335
-413.398	575.207	-0.169	-0.415
-412.384	173.229	0.024	0.034
-411.369	107.780	-0.049	-0.059
-410.355	98.423	-0.214	0.249
-409.340	-94.857	-0.135	-0.037
-408.325	-21.770	0.095	0.058
-407.311	800.000	-0.011	0.039
-406.296	-200.000	-0.010	0.439
-405.282	-84.368	0.148	0.047
-404.267	-54.702	-0.108	0.049
-403.252	99.502	0.165	0.192
-402.238	800.000	0.049	0.216
-401.223	-200.000	0.038	0.317
-400.209	101.677	0.176	-0.207
-399.194	-200.000	0.125	-0.000
-398.179	-200.000	-0.053	-0.246
-397.165	-123.253	0.386	0.062
-396.150	224.458	0.095	-0.155
-395.136	31.897	0.194	-0.168
-394.121	505.583	-0.044	0.103
-393.106	-200.000	-0.059	0.372
-392.092	-141.542	-0.275	0.028
-391.077	-200.000	-0.011	0.121
-390.063	209.231	0.140	0.220
-389.048	-51.579	0.351	-0.165
-388.033	-50.686	-0.302	-0.143
-387.019	135.439	-0.286	-0.374
-386.004	17.353	-0.071	-0.057
-384.990	800.000	0.106	0.350
-383.975	-65.572	0.333	0.135
-382.960	797.073	-0.085	-0.236
-381.946	-200.000	-0.000	0.129
-380.931	-200.000	0.009	0.077
-379.917	141.259	-0.140	0.187
-378.902	60.397	-0.213	-0.212
-377.888	232.857	-0.182	-0.300
-376.873	-188.785	-0.105	0.001
-375.858	1.740	0.226	0.164
-374.844	-69.513	-0.372	0.143
-373.829	-188.743	0.367	-0.005
-372.815	-200.000	0.005	0.138
-371.800	-85.629	-0.237	0.074
-370.785	651.563	0.046	-0.118
-369.771	-200.000	0.030	-0.191
-368.756	-56.769	-0.157	-0.070
-367.742	-200.000	-0.056	0.284
-366.727	-47.582	-0.089	0.044
-365.712	310.496	0.076	0.143
-364.698	99.187	0.268	-0.312
-363.683	-200.000	-0.030	0.299
-362.669	-121.654	-0.100	-0.017
-361.654	493.468	0.033	0.077
-360.639	458.352	-0.130	0.290
-359.625	-163.844	-0.027	-0.001
-358.610	-152.022	0.082	-0.006
-357.596	-16.206	-0.149	0.095
-356.581	-200.000	0.021	0.322
-355.566	-200.000	-0.006	-0.225
-354.552	20.133	0.018	0.014
-353.537	-200.000	-0.004	-0.089
-352.523	-56.675	-0.263	0.117
-351.508	559.884	0.043	-0.105
-350.493	285.389	0.170	0.307
-349.479	164.111	0.066	-0.093
-348.464	-38.288	0.173	-0.092
-347.450	221.637	-0.153	0.247
-346.435	-200.000	-0.001	0.204
-345.420	-61.133	-0.118	-0.050
-344.406	43.796	-0.172	0.158
-343.391	177.466	-0.153	0.224
-342.377	164.531	0.074	-0.105
-341.362	-131.353	-0.181	0.024
-340.348	800.000	0.068	0.198
-339.333	374.787	0.026	0.053
-338.318	664.997	0.100	-0.259
-337.304	690.573	0.101	-0.265
-336.289	534.117	0.050	-0.118
-335.275	167.156	-0.131	0.187
-334.260	155.056	0.107	0.148
-333.245	10.380	0.215	0.164
-332.231	-200.000	-0.025	0.240
-331.216	59.826	0.106	0.105
-330.202	-101.604	0.134	-0.033
-329.187	369.937	-0.066	-0.135
-328.172	-200.000	0.015	0.197
-327.158	234.713	-0.107	0.178
-326.143	-143.019	-0.511	0.050
-325.129	440.383	0.086	-0.189
-324.114	-200.000	-0.046	-0.284
-323.099	8.108	-0.163	-0.123
-322.085	99.890	-0.177	-0.206
-321.070	87.284	-0.182	-0.202
-320.056	-124.950	0.407	0.063
-319.041	37.661	0.210	0.187
-318.026	-71.529	-0.219	-0.082
-317.012	-158.879	-0.017	-0.001
-315.997	-14.543	0.246	0.159
-314.983	412.534	0.179	-0.383
-313.968	-17.998	0.163	-0.103
-312.953	-161.398	0.184	-0.010
-311.939	-138.105	0.328	0.037
-310.924	-200.000	-0.163	-0.000
-309.910	-200.000	-0.043	0.226
-308.895	-78.929	0.047	0.016
-307.880	3.585	0.168	0.123
-306.866	44.309	0.124	0.114
-305.851	1.393	-0.116	-0.084
-304.837	-188.707	-0.270	-0.003
-303.822	-48.743	-0.105	0.051
-302.807	640.124	0.071	0.182
-301.793	-130.590	0.487	-0.066
-300.778	-90.134	-0.112	0.033
-299.764	-200.000	-0.038	0.244
-298.749	415.315	-0.070	0.150
-297.735	194.691	-0.104	0.158
-296.720	25.509	0.042	0.035
-295.705	-200.000	0.034	0.156
-294.691	-200.000	0.082	-0.466
-293.676	-1.699	0.238	-0.168
-292.662	-200.000	-0.041	0.246
-291.647	-26.433	-0.056	0.033
-290.632	220.389	-0.035	-0.056
-289.618	-19.619	0.173	0.107
-288.603	-58.970	-0.306	0.132
-287.589	22.521	0.276	0.226
-286.574	800.000	0.067	-0.232
-285.559	-45.533	-0.431	-0.214
-284.545	-200.000	0.034	-0.275
-283.530	63.148	-0.064	-0.064
-282.516	-56.057	-0.103	-0.046
-281.501	-31.854	-0.125	-0.070
-280.486	-50.001	0.121	0.058
-279.472	800.000	-0.013	0.056
-278.457	-103.367	-0.271	0.064
-277.443	800.000	0.030	-0.082
-276.428	-129.396	0.097	0.013
-275.413	242.652	0.141	-0.236
-274.399	-77.629	0.206	-0.072
-273.384	-22.572	0.147	-0.089
-272.370	143.819	0.014	0.019
-271.355	-105.654	0.430	-0.097
-270.340	-83.169	0.173	-0.056
-269.326	38.171	0.173	0.154
-268.311	800.000	-0.011	0.045
-267.297	282.124	-0.145	0.260
-266.282	73.753	-0.072	0.076
-265.267	87.183	-0.143	0.158
-264.253	-171.110	-0.155	-0.005
-263.238	350.303	-0.017	0.035
-262.224	-111.261	-0.224	-0.046
-261.209	800.000	-0.098	-0.276
-260.195	800.000	-0.083	0.258
-259.180	-78.947	-0.294	-0.100
-258.165	-163.036	-0.393	-0.019
-257.151	364.021	0.071	-0.143
-256.136	-45.253	-0.243	-0.121
-255.122	-200.000	-0.027	0.311
-254.107	800.000	-0.040	-0.156
-253.092	-200.000	-0.027	0.197
-252.078	-64.251	-0.102	-0.042
-251.063	-96.705	0.194	0.051
-250.049	800.000	-0.030	0.092
-249.034	-136.644	-0.118	0.014
-248.019	-170.044	0.331	0.012
-247.005	-163.716	-0.065	0.003
-245.990	-147.161	0.102	-0.009
-244.976	208.776	-0.045	-0.070
-243.961	-168.547	-0.173	-0.007
-242.946	-92.861	-0.025	0.007
-241.932	-88.394	-0.090	-0.027
-240.917	482.479	0.150	0.341
-239.903	308.433	0.086	0.161
-238.888	-6.106	0.082	0.056
-237.873	800.000	0.048	0.211
-236.859	755.425	-0.060	0.164
-235.844	40.087	0.213	0.192
-234.830	800.000	-0.105	0.418
-233.815	65.080	0.164	0.166
-232.800	45.125	0.364	-0.336
-231.786	-27.253	-0.143	0.083
-230.771	-200.000	0.017	-0.090
-229.757	-117.706	-0.225	-0.041
-228.742	8.744	-0.103	0.078
-227.727	-148.473	0.072	0.006
-226.713	566.240	0.144	-0.349
-225.698	-200.000	-0.019	-0.086
-224.684	-70.724	-0.122	0.046
-223.669	-29.456	0.149	0.085
-222.655	348.866	-0.064	-0.127
-221.640	251.254	-0.110	0.187
-220.625	-91.473	-0.227	0.065
-219.611	3.281	-0.086	-0.063
-218.596	-86.519	-0.339	0.104
-217.582	-24.686	0.235	-0.140
-216.567	-64.247	-0.481	-0.196
-215.552	-67.658	-0.104	0.041
-214.538	53.565	-0.231	0.221
-213.523	-119.436	-0.211	-0.037
-212.509	55.702	-0.175	-0.169
-211.494	-96.615	0.202	-0.053
-210.479	800.000	-0.037	0.113
-209.465	-200.000	0.025	-0.115
-208.450	-92.856	-0.105	-0.029
-207.436	127.183	0.156	-0.198
-206.421	-200.000	0.037	0.364
-205.406	-200.000	0.004	-0.105
-204.392	-75.388	0.212	0.076
-203.377	332.329	-0.194	0.374
-202.363	59.251	0.107	0.106
-201.348	-200.000	-0.043	-0.255
-200.333	-93.608	-0.203	0.056
-199.319	198.403	0.063	-0.096
-198.304	-88.568	0.408	0.122
-197.290	-128.409	0.509	0.072
-196.275	153.020	-0.126	0.172
-195.260	800.000	0.063	0.239
-194.246	-72.952	-0.148	0.054
-193.231	213.147	0.095	-0.149
-192.217	-124.812	-0.162	0.025
-191.202	64.104	0.310	0.312
-190.187	488.161	0.173	0.393
-189.173	-173.126	0.167	-0.005
-188.158	-102.912	0.174	-0.041
-187.144	234.448	0.067	0.110
-186.129	-75.742	0.086	-0.031
-185.114	800.000	-0.041	0.126
-184.100	211.877	-0.077	0.122
-183.085	68.406	-0.188	0.192
-182.071	40.664	0.435	0.391
-181.056	268.449	-0.063	0.111
-180.042	426.199	0.116	0.251
-179.027	-100.554	-0.250	0.062
-178.012	800.000	0.077	-0.224
-176.998	-132.189	-0.054	0.007
-175.983	531.205	0.092	0.217
-174.969	137.189	0.135	-0.176
-173.954	-175.992	-0.142	-0.004
-172.939	77.692	0.280	-0.298
-171.925	523.285	0.107	0.251
-170.910	40.274	0.025	-0.022
-169.896	62.718	0.208	-0.208
-168.881	7.273	-0.250	-0.186
-167.866	19.335	-0.227	0.182
-166.852	88.021	-0.179	0.198
-165.837	259.604	-0.029	-0.049
-164.823	800.000	-0.038	0.153
-163.808	-154.890	0.066	-0.004
-162.793	19.296	0.107	0.085
-161.779	-200.000	-0.011	-0.327
-160.764	-71.445	-0.217	0.081
-159.750	-100.435	0.102	-0.025
-158.735	-110.825	0.488	0.100
-157.720	103.620	-0.073	-0.085
-156.706	-14.516	-0.108	0.069
-155.691	7.191	-0.188	-0.140
-154.677	256.071	0.118	-0.203
-153.662	-192.666	0.140	0.001
-152.647	191.744	-0.155	-0.233
-151.633	-200.000	-0.002	0.253
-150.618	168.245	0.164	-0.233
-149.604	-200.000	0.002	-0.040
-148.589	-44.949	-0.111	0.055
-147.574	-51.666	-0.083	0.038
-146.560	-200.000	-0.003	0.328
-145.545	-24.326	0.150	-0.089
-144.531	83.255	0.139	0.150
-143.516	78.739	0.213	-0.227
-142.502	800.000	0.042	-0.167
-141.487	432.947	0.037	-0.080
-140.472	92.325	-0.093	-0.104
-139.458	262.876	0.141	-0.243
-138.443	-161.106	0.212	0.011
-137.429	167.848	-0.036	-0.051
-136.414	45.103	-0.112	-0.103
-135.399	-23.758	0.223	-0.133
-134.385	-200.000	-0.051	-0.332
-133.370	-29.215	0.156	-0.089
-132.356	-142.415	-0.271	0.027
-131.341	82.044	-0.090	0.097
-130.326	223.815	-0.233	0.375
-129.312	171.139	0.110	0.157
-128.297	518.454	0.095	0.221
-127.283	729.121	-0.094	0.251
-126.268	123.574	0.106	0.132
-125.253	-179.216	0.256	-0.006
-124.239	800.000	0.081	-0.275
-123.224	-46.243	0.249	-0.122
-122.210	800.000	-0.102	-0.317
-121.195	-122.610	0.383	0.062
-120.180	-104.086	0.087	-0.020
