DTS Sentinel unit serial number:	SN413079Multiplexer serial number:	ORYXHardware model number:	OX4-SRSoftware version number:	ORYX F/W v4.00 Oryx Data Collector v3.7.2.0data status	okinstallation	princeton_trtdifferential loss correction	single-endedforward channel	channel 2reverse channel	N/Adate	2019/09/18time	08:35:35forward acquisition time	60.00reverse acquisition time	0.00gamma	496.2192k internal	0.2341k external	0.2341temperature offset calibration	0.9978default loss term (dB/km)	0.3790temperature slope calibration	1.0000multiplexer offset coefficient	1.0000multiplexer slope coefficient	1.0000fibre end	0.00T internal ref (°C)	24.44T ext. ref 1 (°C)	0.22T ext. ref 2 (°C)	20.15length (m)	temperature (°C)	Stokes	anti-Stokes-747.200	283.261	0.048	0.086
-746.185	-143.074	-0.242	-0.023
-745.171	-62.748	0.269	0.112
-744.156	-72.462	-0.228	-0.084
-743.142	724.629	0.081	-0.217
-742.127	168.052	-0.118	0.168
-741.112	-154.210	0.261	0.018
-740.098	-93.473	-0.210	0.058
-739.083	584.425	0.095	0.235
-738.069	116.946	-0.082	0.101
-737.054	800.000	-0.118	0.330
-736.039	2.029	0.088	-0.064
-735.025	5.376	0.409	0.303
-734.010	-69.532	0.243	0.093
-732.996	-200.000	-0.140	-0.699
-731.981	-143.956	-0.047	0.004
-730.966	13.826	0.116	-0.090
-729.952	763.636	-0.115	-0.313
-728.937	-200.000	-0.030	-0.144
-727.923	-45.561	-0.126	0.062
-726.908	6.180	0.156	0.116
-725.894	-50.409	0.157	-0.074
-724.879	107.037	-0.180	-0.214
-723.864	-65.575	-0.088	0.035
-722.850	-32.118	-0.197	-0.110
-721.835	544.796	0.055	-0.132
-720.821	-200.000	0.006	0.181
-719.806	-140.952	-0.414	0.043
-718.791	-38.764	-0.283	-0.150
-717.777	203.794	0.185	-0.288
-716.762	-200.000	-0.016	0.163
-715.748	9.335	-0.364	-0.276
-714.733	115.878	0.123	0.150
-713.718	-200.000	-0.002	0.259
-712.704	-200.000	0.028	-0.329
-711.689	460.243	-0.072	-0.160
-710.675	-200.000	0.018	-0.128
-709.660	800.000	-0.057	0.167
-708.645	-200.000	0.006	0.037
-707.631	-56.590	-0.176	0.078
-706.616	-20.658	0.240	0.147
-705.602	15.094	0.123	-0.096
-704.587	-56.895	-0.306	-0.135
-703.572	67.055	-0.057	-0.058
-702.558	144.577	-0.173	0.231
-701.543	800.000	-0.125	-0.471
-700.529	-39.371	0.080	-0.042
-699.514	593.874	0.167	-0.412
-698.499	-200.000	-0.045	-0.320
-697.485	102.537	0.047	0.054
-696.470	159.714	-0.083	0.115
-695.456	18.529	-0.221	-0.177
-694.441	-100.398	-0.124	0.031
-693.426	-41.621	0.179	-0.092
-692.412	161.479	-0.065	-0.091
-691.397	-84.965	0.397	-0.125
-690.383	-95.030	-0.069	-0.019
-689.368	720.853	-0.167	-0.444
-688.354	-136.503	-0.300	-0.035
-687.339	800.000	0.076	-0.293
-686.324	610.439	-0.021	0.054
-685.310	433.648	-0.098	0.212
-684.295	351.157	-0.034	0.067
-683.281	245.185	0.143	0.240
-682.266	73.037	0.070	-0.073
-681.251	88.011	-0.125	0.139
-680.237	-200.000	0.007	-0.051
-679.222	-148.216	-0.174	-0.014
-678.208	-127.942	-0.110	0.016
-677.193	-60.415	-0.044	0.019
-676.178	-103.030	-0.257	-0.061
-675.164	106.689	-0.218	0.258
-674.149	-200.000	-0.026	-0.165
-673.135	-200.000	0.020	-0.205
-672.120	-107.885	-0.394	0.086
-671.105	243.907	0.095	-0.159
-670.091	-200.000	0.104	-0.485
-669.076	291.726	-0.165	-0.301
-668.062	-52.711	-0.138	-0.064
-667.047	-200.000	0.197	0.000
-666.032	14.957	-0.194	-0.152
-665.018	81.639	0.172	-0.186
-664.003	800.000	0.065	0.192
-662.989	-53.858	0.202	-0.092
-661.974	81.121	0.247	-0.266
-660.959	31.965	0.200	-0.172
-659.945	-8.108	-0.149	-0.100
-658.930	147.762	0.238	-0.320
-657.916	296.050	0.126	-0.231
-656.901	800.000	0.034	-0.123
-655.886	-48.022	0.175	-0.084
-654.872	57.028	-0.169	0.165
-653.857	-0.916	0.068	0.048
-652.843	-96.780	0.322	0.085
-651.828	-200.000	-0.040	-0.389
-650.814	-66.363	0.179	-0.071
-649.799	800.000	0.025	-0.102
-648.784	4.884	0.271	-0.199
-647.770	-200.000	-0.026	-0.260
-646.755	-68.176	-0.169	0.066
-645.741	800.000	-0.018	-0.065
-644.726	-73.837	-0.131	-0.048
-643.711	264.323	-0.011	0.019
-642.697	-19.962	0.109	-0.067
-641.682	-160.135	0.097	0.005
-640.668	327.299	-0.099	0.189
-639.653	-102.438	-0.180	-0.043
-638.638	-200.000	-0.018	-0.144
-637.624	-174.365	0.137	-0.004
-636.609	109.534	0.071	0.085
-635.595	209.720	0.176	-0.275
-634.580	-200.000	-0.052	-0.381
-633.565	534.861	-0.122	-0.290
-632.551	718.273	-0.053	0.140
-631.536	125.456	0.046	-0.059
-630.522	-28.020	0.160	0.093
-629.507	-59.335	-0.175	-0.075
-628.492	-200.000	-0.158	-0.000
-627.478	-108.123	0.122	0.026
-626.463	207.858	-0.068	-0.105
-625.449	-104.011	0.318	0.074
-624.434	-200.000	-0.031	-0.236
-623.419	327.669	-0.132	-0.252
-622.405	-200.000	0.064	-0.345
-621.390	-158.729	0.165	0.009
-620.376	158.295	0.123	-0.170
-619.361	-129.451	0.146	0.020
-618.346	800.000	0.050	-0.153
-617.332	-44.430	0.200	-0.100
-616.317	-164.550	-0.052	-0.002
-615.303	343.955	0.204	0.399
-614.288	82.528	0.145	-0.157
-613.273	-100.980	-0.235	-0.057
-612.259	-72.276	-0.281	0.104
-611.244	-89.122	-0.094	0.028
-610.230	-200.000	-0.007	0.157
-609.215	-200.000	0.009	0.155
-608.201	-29.725	-0.250	-0.142
-607.186	-200.000	-0.010	-0.120
-606.171	76.165	0.111	0.117
-605.157	93.368	-0.054	0.061
-604.142	76.883	-0.143	0.151
-603.128	-37.642	-0.136	0.072
-602.113	-157.211	0.262	-0.016
-601.098	232.859	0.014	-0.023
-600.084	5.391	0.219	0.161
-599.069	324.944	0.092	0.176
-598.055	-200.000	0.032	-0.148
-597.040	800.000	0.066	-0.273
-596.025	-75.720	0.214	0.076
-595.011	-200.000	-0.009	-0.148
-593.996	162.034	-0.136	0.190
-592.982	-200.000	-0.032	0.253
-591.967	-200.000	-0.008	0.160
-590.952	56.019	-0.010	0.010
-589.938	-200.000	-0.003	0.367
-588.923	463.522	-0.087	0.193
-587.909	-6.139	-0.245	-0.167
-586.894	800.000	-0.037	-0.130
-585.879	800.000	-0.088	0.381
-584.865	-54.411	-0.174	0.079
-583.850	41.696	0.053	-0.048
-582.836	68.555	0.201	0.205
-581.821	231.655	-0.100	-0.164
-580.806	-200.000	0.011	-0.138
-579.792	-111.347	0.132	-0.027
-578.777	110.228	-0.261	-0.312
-577.763	177.429	-0.151	-0.219
-576.748	-102.519	-0.282	-0.067
-575.733	800.000	0.112	-0.396
-574.719	-86.779	-0.304	-0.092
-573.704	145.066	0.088	0.117
-572.690	-200.000	0.026	0.148
-571.675	-200.000	0.018	-0.267
-570.661	147.451	0.069	-0.093
-569.646	604.913	0.146	0.361
-568.631	-200.000	-0.422	-0.002
-567.617	-45.253	0.123	0.061
-566.602	-200.000	-0.022	-0.272
-565.588	-97.729	0.419	0.108
-564.573	151.332	-0.138	-0.187
-563.558	-200.000	-0.024	0.306
-562.544	405.145	0.214	0.449
-561.529	-200.000	0.056	0.277
-560.515	-48.525	-0.163	0.078
-559.500	-79.612	0.281	-0.094
-558.485	2.783	0.189	0.137
-557.471	-134.953	-0.392	0.047
-556.456	-47.172	0.276	0.134
-555.442	-92.681	0.163	0.046
-554.427	214.790	0.056	-0.088
-553.412	24.885	-0.184	-0.152
-552.398	800.000	-0.082	0.283
-551.383	321.879	0.181	0.343
-550.369	-1.621	0.249	0.174
-549.354	-103.926	0.324	-0.075
-548.339	61.897	0.212	-0.210
-547.325	84.112	-0.070	0.076
-546.310	301.816	0.212	0.391
-545.296	-107.328	-0.336	-0.074
-544.281	167.720	0.069	0.098
-543.266	100.576	0.044	-0.051
-542.252	-120.071	0.301	0.051
-541.237	75.229	-0.198	0.208
-540.223	210.324	-0.088	-0.137
-539.208	69.657	0.208	0.213
-538.193	-71.227	-0.361	-0.135
-537.179	-22.751	0.110	-0.066
-536.164	16.280	0.065	0.051
-535.150	123.223	0.177	-0.220
-534.135	-200.000	-0.026	-0.220
-533.121	-200.000	-0.007	0.200
-532.106	-200.000	-0.047	-0.298
-531.091	-200.000	-0.028	-0.139
-530.077	695.517	0.032	-0.084
-529.062	-100.521	0.027	0.007
-528.048	285.691	-0.150	0.269
-527.033	-200.000	-0.047	0.330
-526.018	136.232	0.042	-0.054
-525.004	-49.197	0.270	-0.128
-523.989	97.151	-0.150	-0.171
-522.975	15.306	0.050	0.039
-521.960	-200.000	0.062	-0.603
-520.945	-76.551	0.161	-0.056
-519.931	338.823	-0.066	0.127
-518.916	-74.316	0.058	0.021
-517.902	240.090	-0.089	-0.148
-516.887	-200.000	0.007	0.165
-515.872	800.000	-0.071	-0.244
-514.858	69.304	0.020	-0.021
-513.843	475.883	-0.104	0.233
-512.829	476.531	0.061	-0.137
-511.814	-200.000	0.006	-0.052
-510.799	659.458	0.096	-0.245
-509.785	-200.000	0.014	-0.072
-508.770	350.527	0.216	-0.425
-507.756	-148.480	-0.094	-0.008
-506.741	162.760	0.154	0.214
-505.726	-16.525	-0.382	-0.241
-504.712	-45.902	-0.064	-0.031
-503.697	5.282	0.175	-0.128
-502.683	233.490	-0.190	-0.310
-501.668	800.000	0.088	0.311
-500.653	-31.291	-0.147	-0.082
-499.639	9.101	0.099	0.074
-498.624	-67.329	0.293	0.114
-497.610	-200.000	-0.059	-0.268
-496.595	27.384	0.164	-0.137
-495.581	-200.000	0.030	0.147
-494.566	363.777	-0.137	0.274
-493.551	88.371	0.277	-0.306
-492.537	-131.419	0.354	-0.046
-491.522	-88.006	0.272	0.081
-490.508	-31.446	-0.158	-0.088
-489.493	-200.000	0.037	0.208
-488.478	174.440	0.105	0.150
-487.464	-36.648	-0.313	0.167
-486.449	-200.000	-0.016	-0.298
-485.435	-89.451	0.151	-0.044
-484.420	201.611	0.088	0.134
-483.405	301.364	0.108	0.197
-482.391	261.322	0.123	0.212
-481.376	131.969	-0.235	0.300
-480.362	-142.022	0.036	0.004
-479.347	411.432	0.104	-0.219
-478.332	-12.091	-0.219	-0.142
-477.318	-161.398	-0.161	-0.008
-476.303	-50.266	-0.260	-0.122
-475.289	-122.189	0.103	-0.017
-474.274	-42.762	0.149	0.075
-473.259	-200.000	-0.036	0.163
-472.245	-159.581	0.107	-0.006
-471.230	205.060	-0.096	0.148
-470.216	73.214	-0.216	0.224
-469.201	-88.322	0.223	0.066
-468.186	-200.000	-0.021	0.489
-467.172	-125.218	0.127	0.019
-466.157	305.399	0.072	-0.133
-465.143	403.401	0.101	0.210
-464.128	2.990	0.052	-0.038
-463.113	-50.677	0.061	-0.028
-462.099	-93.598	0.155	0.042
-461.084	309.503	-0.091	0.168
-460.070	271.723	0.148	0.259
-459.055	22.335	-0.273	0.221
-458.040	-200.000	-0.001	0.043
-457.026	800.000	0.037	0.158
-456.011	800.000	-0.093	0.282
-454.997	-155.733	0.287	-0.018
-453.982	-87.922	0.027	0.008
-452.968	190.096	0.247	0.367
-451.953	-200.000	0.031	-0.159
-450.938	-200.000	0.074	0.331
-449.924	-123.974	0.124	-0.019
-448.909	196.814	-0.103	-0.155
-447.895	-200.000	-0.001	0.283
-446.880	800.000	-0.065	0.196
-445.865	-200.000	0.027	-0.446
-444.851	23.629	-0.085	-0.069
-443.836	-200.000	-0.007	-0.043
-442.822	-200.000	0.012	0.105
-441.807	-107.394	0.224	0.049
-440.792	-98.494	0.079	-0.020
-439.778	-113.757	-0.232	0.045
-438.763	-178.440	-0.112	0.003
-437.749	-44.139	-0.373	0.186
-436.734	800.000	0.023	0.072
-435.719	46.251	-0.134	-0.123
-434.705	-132.228	-0.180	0.023
-433.690	-56.510	-0.224	0.098
-432.676	-200.000	-0.011	-0.166
-431.661	568.537	-0.093	0.223
-430.646	-78.599	-0.258	-0.087
-429.632	91.938	-0.146	-0.163
-428.617	-24.802	0.146	0.086
-427.603	-140.020	-0.299	0.031
-426.588	-200.000	-0.340	0.001
-425.573	-153.408	0.261	0.018
-424.559	529.169	0.119	-0.279
-423.544	24.353	0.052	-0.043
-422.530	621.020	0.058	0.145
-421.515	-200.000	0.008	-0.201
-420.500	800.000	0.118	-0.340
-419.486	-200.000	-0.000	0.058
-418.471	800.000	0.018	-0.058
-417.457	74.732	-0.110	-0.114
-416.442	149.315	0.086	0.115
-415.428	-200.000	0.016	0.079
-414.413	626.291	0.052	0.130
-413.398	-108.687	-0.075	-0.016
-412.384	-16.337	0.253	-0.159
-411.369	-200.000	-0.004	0.199
-410.355	800.000	-0.067	0.196
-409.340	242.568	-0.216	0.358
-408.325	-70.434	0.277	-0.104
-407.311	-34.945	-0.349	0.188
-406.296	800.000	-0.020	0.067
-405.282	-191.572	0.162	-0.002
-404.267	30.182	0.210	-0.177
-403.252	-200.000	-0.006	0.105
-402.238	-158.673	-0.045	0.003
-401.223	-188.604	0.046	-0.001
-400.209	475.626	0.049	-0.110
-399.194	119.459	-0.208	0.254
-398.179	-200.000	0.261	0.000
-397.165	16.165	0.308	-0.240
-396.150	-85.552	-0.092	-0.028
-395.136	43.931	0.162	-0.147
-394.121	-200.000	-0.003	0.380
-393.106	800.000	-0.090	-0.285
-392.092	797.402	-0.156	-0.425
-391.077	6.393	-0.206	0.151
-390.063	-200.000	-0.037	-0.169
-389.048	-48.902	-0.198	0.094
-388.033	-130.461	0.242	-0.032
-387.019	791.493	-0.042	-0.114
-386.004	-52.279	0.175	-0.080
-384.990	83.897	-0.177	0.191
-383.975	-109.964	-0.159	0.033
-382.960	-147.574	-0.055	-0.005
-381.946	55.661	0.372	0.356
-380.931	4.222	-0.323	0.234
-379.917	403.732	0.046	-0.096
-378.902	-144.037	-0.372	-0.035
-377.888	402.138	-0.057	-0.118
-376.873	-16.886	-0.163	0.102
-375.858	89.853	-0.089	-0.098
-374.844	-57.157	-0.377	0.164
-373.829	54.292	-0.206	-0.196
-372.815	108.415	0.115	0.135
-371.800	181.196	0.096	-0.139
-370.785	-115.502	-0.322	-0.060
-369.771	118.430	0.088	0.107
-368.756	-60.314	0.273	-0.115
-367.742	45.882	0.033	0.030
-366.727	-115.779	-0.372	-0.069
-365.712	800.000	-0.064	0.182
-364.698	28.851	-0.173	-0.145
-363.683	-200.000	0.041	-0.217
-362.669	800.000	0.025	-0.080
-361.654	250.586	0.157	0.263
-360.639	422.401	-0.063	0.133
-359.625	-161.649	0.151	-0.008
-358.610	311.118	0.114	-0.210
-357.596	380.021	-0.196	0.396
-356.581	331.890	0.208	0.396
-355.566	-14.112	-0.148	0.094
-354.552	-200.000	-0.004	-0.258
-353.537	-38.344	-0.244	-0.128
-352.523	-86.534	-0.080	0.024
-351.508	-200.000	-0.013	0.534
-350.493	-124.746	-0.108	0.016
-349.479	10.685	0.181	0.136
-348.464	21.500	-0.373	0.299
-347.450	-66.875	0.277	0.108
-346.435	-133.995	-0.233	-0.028
-345.420	-121.680	-0.403	0.066
-344.406	-127.990	-0.150	-0.021
-343.391	289.061	-0.100	0.179
-342.377	-77.957	-0.168	0.057
-341.362	800.000	0.011	-0.044
-340.348	339.991	-0.170	-0.327
-339.333	800.000	-0.102	0.346
-338.318	-113.035	0.411	-0.080
-337.304	-65.979	0.108	-0.042
-336.289	32.747	-0.096	-0.082
-335.275	800.000	-0.071	0.204
-334.260	800.000	-0.124	-0.409
-333.245	-200.000	-0.012	-0.326
-332.231	-47.736	-0.248	0.118
-331.216	-194.596	0.049	-0.000
-330.202	301.278	-0.153	-0.279
-329.187	112.720	0.233	0.278
-328.172	-200.000	0.006	0.040
-327.158	-191.131	-0.268	0.003
-326.143	-84.607	-0.100	0.031
-325.129	-200.000	0.053	0.391
-324.114	95.455	-0.216	-0.242
-323.099	53.534	0.085	0.080
-322.085	800.000	-0.012	0.048
-321.070	-64.168	-0.204	0.082
-320.056	-67.383	0.206	0.080
-319.041	65.060	0.035	0.035
-318.026	-46.445	0.154	0.075
-317.012	-136.432	-0.029	0.003
-315.997	-76.412	0.265	-0.092
-314.983	-200.000	0.029	0.150
-313.968	288.370	-0.172	-0.308
-312.953	800.000	-0.135	-0.454
-311.939	-112.472	0.249	-0.049
-310.924	50.105	0.125	0.117
-309.910	-200.000	-0.016	-0.158
-308.895	-59.827	-0.201	0.085
-307.880	800.000	-0.077	0.300
-306.866	-85.169	-0.485	-0.149
-305.851	-3.601	0.439	-0.301
-304.837	333.607	-0.131	0.251
-303.822	42.509	-0.078	-0.070
-302.807	-22.963	-0.117	0.069
-301.793	121.227	0.151	-0.185
-300.778	783.329	-0.027	0.072
-299.764	-14.124	-0.295	0.187
-298.749	229.438	-0.138	0.222
-297.735	-41.815	-0.092	-0.046
-296.720	175.522	0.299	-0.428
-295.705	-200.000	0.010	-0.221
-294.691	247.947	0.083	0.137
-293.676	800.000	-0.035	-0.113
-292.662	160.454	-0.172	-0.236
-291.647	50.940	-0.250	-0.233
-290.632	141.008	-0.067	-0.088
-289.618	800.000	-0.041	0.120
-288.603	-200.000	-0.005	0.243
-287.589	800.000	0.026	0.091
-286.574	-200.000	-0.023	0.260
-285.559	561.237	-0.067	0.160
-284.545	-37.599	0.043	0.023
-283.530	-55.695	0.284	-0.125
-282.516	-74.222	0.221	-0.079
-281.501	-200.000	-0.027	0.203
-280.486	88.342	-0.079	0.087
-279.472	-200.000	0.022	-0.318
-278.457	-200.000	0.022	-0.127
-277.443	188.328	0.087	-0.129
-276.428	223.610	0.057	-0.091
-275.413	-19.226	0.064	0.039
-274.399	800.000	0.018	-0.055
-273.384	416.544	0.139	0.292
-272.370	-134.684	-0.416	-0.050
-271.355	800.000	0.080	-0.244
-270.340	45.160	-0.231	0.210
-269.326	67.189	0.065	0.065
-268.311	-181.917	0.320	0.006
-267.297	565.787	0.126	0.300
-266.282	800.000	0.152	-0.462
-265.267	-71.948	0.057	-0.021
-264.253	167.758	0.099	0.138
-263.238	800.000	-0.053	-0.191
-262.224	800.000	-0.043	-0.141
-261.209	800.000	-0.022	0.071
-260.195	-2.147	0.241	0.166
-259.180	800.000	0.130	-0.404
-258.165	140.382	-0.106	0.138
-257.151	-75.938	-0.324	0.113
-256.136	-24.206	-0.082	-0.048
-255.122	269.502	-0.033	0.056
-254.107	220.205	-0.260	-0.409
-253.092	-48.494	0.322	0.152
-252.078	-186.683	0.199	-0.003
-251.063	736.680	-0.093	0.246
-250.049	-200.000	0.005	-0.325
-249.034	-87.028	-0.151	-0.045
-248.019	33.492	0.324	0.276
-247.005	-200.000	-0.047	-0.305
-245.990	62.604	-0.127	-0.125
-244.976	19.167	0.048	0.038
-243.961	-111.924	0.226	-0.045
-242.946	-176.298	0.273	0.007
-241.932	-92.185	-0.186	0.052
-240.917	800.000	0.019	-0.068
-239.903	189.147	-0.145	-0.213
-238.888	-200.000	-0.005	-0.156
-237.873	185.381	-0.060	0.087
-236.859	-90.057	-0.162	-0.046
-235.844	-9.871	0.114	0.074
-234.830	-200.000	0.051	0.589
-233.815	-76.708	-0.192	0.066
-232.800	-155.415	0.144	-0.009
-231.786	800.000	0.049	0.191
-230.771	-152.274	0.100	-0.007
-229.757	-200.000	0.008	-0.208
-228.742	212.466	-0.158	-0.245
-227.727	44.413	-0.118	0.107
-226.713	800.000	0.086	-0.239
-225.698	393.071	0.085	-0.173
-224.684	-200.000	0.013	-0.166
-223.669	-90.144	0.278	-0.079
-222.655	800.000	-0.021	0.074
-221.640	-39.597	0.088	-0.045
-220.625	14.761	0.099	0.076
-219.611	800.000	-0.141	-0.387
-218.596	11.076	0.116	0.087
-217.582	41.686	0.125	-0.111
-216.567	627.805	-0.072	-0.179
-215.552	800.000	0.034	-0.112
-214.538	800.000	-0.056	0.186
-213.523	59.696	0.090	0.087
-212.509	-115.369	0.340	0.063
-211.494	-2.054	0.138	-0.095
-210.479	-92.148	0.108	-0.030
-209.465	-83.662	-0.225	0.071
-208.450	38.097	0.257	0.224
-207.436	-200.000	-0.013	0.255
-206.421	-200.000	-0.009	-0.221
-205.406	11.504	-0.119	-0.090
-204.392	-108.559	-0.073	0.015
-203.377	328.137	0.030	-0.056
-202.363	143.267	-0.055	-0.071
-201.348	-100.171	-0.088	0.021
-200.333	32.183	-0.136	0.115
-199.319	-200.000	0.035	0.233
-198.304	-69.842	0.223	-0.084
-197.290	-200.000	0.007	-0.160
-196.275	-200.000	-0.043	-0.464
-195.260	172.244	-0.114	-0.161
-194.246	291.677	0.027	0.049
-193.231	-75.598	0.214	-0.075
-192.217	-9.611	0.341	0.223
-191.202	46.239	-0.107	-0.098
-190.187	3.467	-0.155	0.111
-189.173	-123.059	0.178	0.028
-188.158	30.917	0.251	0.211
-187.144	-95.342	0.235	-0.062
-186.129	-85.780	0.242	-0.074
-185.114	90.815	0.162	0.178
-184.100	-36.624	-0.453	0.239
-183.085	-5.486	0.367	0.247
-182.071	-39.915	0.261	0.134
-181.056	153.652	-0.142	-0.190
-180.042	-200.000	0.005	-0.066
-179.027	-200.000	0.006	0.170
-178.012	-46.390	-0.252	-0.121
-176.998	-110.555	-0.355	0.072
-175.983	-200.000	-0.012	-0.092
-174.969	-200.000	-0.061	-0.367
-173.954	-94.856	0.419	-0.111
-172.939	110.358	-0.034	-0.040
-171.925	62.391	-0.153	0.150
-170.910	-113.275	0.205	0.040
-169.896	93.357	-0.031	0.035
-168.881	-125.402	-0.249	-0.037
-167.866	-11.447	0.063	-0.041
-166.852	88.128	-0.117	-0.127
-165.837	404.417	0.121	0.251
-164.823	-200.000	-0.006	-0.044
-163.808	467.221	0.032	0.071
-162.793	14.321	0.110	0.084
-161.779	588.082	-0.081	-0.195
-160.764	19.468	-0.258	-0.203
-159.750	136.049	-0.210	0.268
-158.735	387.669	0.034	-0.068
-157.720	-200.000	0.014	-0.160
-156.706	-171.146	-0.177	-0.006
-155.691	-200.000	-0.037	0.163
-154.677	-70.128	-0.128	-0.048
-153.662	28.323	0.237	-0.196
-152.647	-200.000	-0.039	-0.203
-151.633	636.533	-0.059	-0.146
-150.618	800.000	0.068	-0.272
-149.604	-75.662	-0.364	-0.126
-148.589	-24.460	-0.155	-0.091
-147.574	-40.840	-0.059	-0.030
-146.560	-30.641	0.225	-0.125
-145.545	281.778	0.094	0.166
-144.531	-200.000	-0.025	0.129
-143.516	800.000	0.094	0.282
-142.502	-162.212	0.086	0.004
-141.487	-200.000	-0.005	0.092
-140.472	-131.011	-0.198	0.026
-139.458	242.780	0.158	-0.259
-138.443	265.448	-0.096	-0.165
-137.429	-116.694	0.141	0.025
-136.414	800.000	-0.079	-0.265
-135.399	-79.681	-0.241	-0.080
-134.385	343.838	-0.054	0.104
-133.370	-200.000	-0.023	-0.351
-132.356	800.000	-0.079	-0.225
-131.341	-23.056	-0.092	-0.054
-130.326	404.839	-0.081	0.168
-129.312	-178.132	0.287	-0.007
-128.297	4.375	-0.223	0.160
-127.283	-200.000	-0.017	0.121
-126.268	-164.710	0.119	0.005
-125.253	800.000	-0.065	-0.187
-124.239	527.045	0.157	-0.361
-123.224	-200.000	0.061	-0.294
-122.210	-11.994	0.191	-0.122
