DTS Sentinel unit serial number:	SN413079Multiplexer serial number:	ORYXHardware model number:	OX4-SRSoftware version number:	ORYX F/W v4.00 Oryx Data Collector v3.7.2.0data status	okinstallation	princeton_trtdifferential loss correction	single-endedforward channel	channel 2reverse channel	N/Adate	2019/09/17time	10:27:35forward acquisition time	60.00reverse acquisition time	0.00gamma	496.2192k internal	0.2324k external	0.2324temperature offset calibration	0.9975default loss term (dB/km)	0.3790temperature slope calibration	1.0000multiplexer offset coefficient	1.0000multiplexer slope coefficient	1.0000fibre end	0.00T internal ref (°C)	29.94T ext. ref 1 (°C)	0.16T ext. ref 2 (°C)	25.50length (m)	temperature (°C)	Stokes	anti-Stokes-747.200	800.000	0.125	-0.356
-746.185	800.000	-0.042	0.150
-745.171	-160.566	0.229	-0.012
-744.156	20.421	-0.115	0.094
-743.142	-164.229	-0.243	-0.011
-742.127	37.981	0.140	0.126
-741.112	-24.906	-0.325	-0.195
-740.098	-48.101	0.112	-0.054
-739.083	-200.000	0.032	0.479
-738.069	800.000	-0.080	0.274
-737.054	85.776	0.286	-0.318
-736.039	-128.763	-0.211	0.030
-735.025	-111.148	0.072	0.015
-734.010	123.599	-0.236	0.298
-732.996	-96.187	0.164	0.044
-731.981	534.898	0.133	0.319
-730.966	800.000	0.079	-0.227
-729.952	11.669	-0.021	-0.016
-728.937	29.789	-0.227	0.195
-727.923	46.551	0.027	-0.026
-726.908	-26.437	-0.371	-0.220
-725.894	44.416	0.112	-0.104
-724.879	-200.000	-0.003	-0.014
-723.864	-171.143	-0.200	-0.007
-722.850	-60.862	-0.256	0.109
-721.835	100.188	-0.128	-0.150
-720.821	-7.732	-0.191	0.130
-719.806	-200.000	0.005	0.181
-718.791	599.414	0.072	-0.179
-717.777	243.055	0.187	-0.316
-716.762	57.723	-0.336	-0.332
-715.748	43.565	-0.141	-0.130
-714.733	-56.673	-0.164	-0.073
-713.718	122.529	0.157	-0.198
-712.704	-69.429	0.051	-0.020
-711.689	-192.949	0.228	0.002
-710.675	204.004	-0.150	0.234
-709.660	-69.349	0.233	0.090
-708.645	521.116	0.135	-0.320
-707.631	127.107	-0.165	-0.210
-706.616	-68.344	0.364	0.142
-705.602	730.341	-0.121	0.327
-704.587	116.555	-0.095	0.117
-703.572	579.474	0.127	-0.314
-702.558	-194.133	-0.140	0.001
-701.543	-122.155	-0.129	0.021
-700.529	11.907	-0.081	0.063
-699.514	-200.000	0.008	0.286
-698.499	-125.485	-0.408	0.063
-697.485	-142.268	0.384	0.038
-696.470	92.967	-0.108	0.123
-695.456	-200.000	-0.031	0.173
-694.441	800.000	-0.026	-0.090
-693.426	-95.682	0.132	-0.036
-692.412	-200.000	0.018	0.213
-691.397	-200.000	0.006	0.217
-690.383	192.452	-0.086	-0.130
-689.368	-31.070	0.115	0.066
-688.354	85.535	-0.259	0.287
-687.339	-37.463	-0.081	0.043
-686.324	-83.894	-0.045	0.015
-685.310	176.429	-0.073	-0.107
-684.295	-200.000	-0.073	0.451
-683.281	800.000	-0.030	0.130
-682.266	-90.028	-0.234	-0.069
-681.251	7.008	-0.106	0.080
-680.237	-18.125	-0.092	0.058
-679.222	140.666	-0.120	0.159
-678.208	532.503	-0.050	0.120
-677.193	-99.934	0.139	-0.035
-676.178	-57.987	-0.123	-0.054
-675.164	61.769	0.074	-0.074
-674.149	56.524	-0.093	0.091
-673.135	55.350	-0.136	-0.132
-672.120	75.848	-0.248	-0.264
-671.105	-18.801	-0.160	-0.100
-670.091	45.783	-0.132	-0.123
-669.076	13.321	0.083	-0.065
-668.062	800.000	0.153	-0.601
-667.047	127.734	-0.155	0.199
-666.032	23.385	0.170	-0.140
-665.018	-107.045	-0.276	-0.061
-664.003	105.367	0.121	-0.144
-662.989	-200.000	-0.089	0.519
-661.974	108.972	-0.191	-0.230
-660.959	800.000	-0.066	0.212
-659.945	-99.788	-0.063	0.016
-658.930	-82.553	-0.285	-0.093
-657.916	-77.007	0.304	0.107
-656.901	-200.000	0.046	-0.341
-655.886	-200.000	0.018	-0.143
-654.872	13.004	0.152	0.118
-653.857	-5.645	-0.131	-0.090
-652.843	300.948	-0.104	-0.192
-651.828	105.599	-0.140	0.167
-650.814	-116.302	0.230	-0.043
-649.799	-77.439	0.338	0.118
-648.784	147.342	0.149	0.202
-647.770	27.615	0.150	0.127
-646.755	-106.184	-0.084	-0.019
-645.741	-200.000	0.058	-0.302
-644.726	490.318	0.094	-0.217
-643.711	-200.000	-0.049	-0.396
-642.697	-152.183	-0.136	-0.010
-641.682	-16.468	0.209	0.133
-640.668	459.307	-0.081	0.182
-639.653	-101.284	0.087	0.021
-638.638	12.733	0.092	0.071
-637.624	56.090	-0.011	-0.011
-636.609	34.993	-0.147	-0.129
-635.595	-200.000	0.013	-0.325
-634.580	-81.342	0.166	-0.055
-633.565	-100.396	-0.207	-0.051
-632.551	5.998	0.100	-0.075
-631.536	312.859	-0.070	-0.132
-630.522	189.470	0.102	-0.153
-629.507	83.772	-0.157	0.172
-628.492	-69.982	-0.271	-0.104
-627.478	-119.267	0.332	0.058
-626.463	-184.187	-0.357	-0.006
-625.449	-200.000	-0.045	-0.409
-624.434	-200.000	0.006	-0.175
-623.419	135.444	0.197	0.258
-622.405	112.049	-0.071	0.087
-621.390	289.080	-0.099	-0.181
-620.376	-119.549	-0.235	0.041
-619.361	46.228	0.044	-0.041
-618.346	117.429	0.071	0.088
-617.332	64.310	-0.067	-0.068
-616.317	-51.947	-0.220	-0.103
-615.303	53.243	-0.246	-0.236
-614.288	89.488	-0.018	-0.021
-613.273	-14.969	0.197	0.127
-612.259	120.786	0.050	-0.062
-611.244	-200.000	0.007	-0.135
-610.230	131.585	-0.173	-0.224
-609.215	-87.927	0.087	-0.026
-608.201	399.196	-0.027	-0.057
-607.186	267.415	-0.122	-0.214
-606.171	342.462	0.140	-0.276
-605.157	348.589	-0.111	-0.219
-604.142	-15.122	0.165	0.106
-603.128	-65.782	0.133	-0.054
-602.113	800.000	0.035	-0.114
-601.098	20.716	0.154	0.125
-600.084	-200.000	-0.031	0.167
-599.069	-200.000	-0.065	0.371
-598.055	-115.946	0.219	-0.041
-597.040	44.806	-0.249	-0.230
-596.025	33.998	0.166	0.145
-595.011	-200.000	0.016	0.083
-593.996	-200.000	0.061	-0.451
-592.982	189.970	-0.239	0.360
-591.967	-26.509	0.026	0.015
-590.952	-200.000	0.042	-0.275
-589.938	-13.724	-0.164	0.107
-588.923	-26.088	0.017	0.010
-587.909	524.570	0.079	0.186
-586.894	-53.248	0.296	-0.136
-585.879	-65.715	0.035	0.014
-584.865	-35.064	0.151	-0.083
-583.850	-147.466	-0.268	-0.023
-582.836	309.717	0.084	-0.158
-581.821	738.412	-0.051	-0.139
-580.806	-51.211	-0.259	-0.122
-579.792	172.007	-0.182	0.263
-578.777	-50.254	0.131	-0.062
-577.763	-68.292	-0.094	0.037
-576.748	-200.000	0.012	0.193
-575.733	-94.995	0.290	0.079
-574.719	-4.595	-0.132	-0.091
-573.704	-200.000	0.035	-0.198
-572.690	800.000	-0.034	0.137
-571.675	24.285	-0.115	-0.095
-570.661	163.315	-0.171	-0.241
-569.646	-200.000	-0.044	-0.245
-568.631	55.703	0.277	-0.269
-567.617	764.731	0.072	-0.197
-566.602	121.071	0.144	0.180
-565.588	81.230	-0.122	-0.132
-564.573	800.000	-0.114	0.468
-563.558	109.049	-0.188	0.225
-562.544	800.000	0.071	0.234
-561.529	241.864	0.159	-0.266
-560.515	-12.941	-0.043	0.028
-559.500	-22.080	0.162	-0.098
-558.485	73.551	-0.195	0.204
-557.471	503.901	-0.117	-0.271
-556.456	-53.671	0.187	-0.085
-555.442	223.914	0.104	0.169
-554.427	-114.465	0.110	0.021
-553.412	800.000	0.155	-0.459
-552.398	-70.980	0.094	0.036
-551.383	800.000	0.129	-0.366
-550.369	-200.000	0.092	0.404
-549.354	-31.446	0.138	-0.078
-548.339	-78.150	-0.152	0.052
-547.325	4.409	-0.121	-0.089
-546.310	-119.821	0.479	0.083
-545.296	-99.474	-0.308	0.078
-544.281	732.710	-0.040	-0.108
-543.266	351.283	-0.250	-0.495
-542.252	-115.759	0.038	0.007
-541.237	-200.000	-0.045	0.318
-540.223	-200.000	0.008	0.118
-539.208	33.918	-0.171	-0.149
-538.193	-119.027	0.343	-0.060
-537.179	124.190	0.052	0.066
-536.164	-83.043	-0.330	-0.107
-535.150	35.106	0.073	0.064
-534.135	-95.380	0.247	-0.066
-533.121	-130.710	-0.339	-0.046
-532.106	133.775	-0.089	0.115
-531.091	54.749	0.275	0.266
-530.077	159.832	0.093	0.130
-529.062	-200.000	-0.010	-0.152
-528.048	-105.451	-0.085	0.019
-527.033	128.630	-0.170	-0.216
-526.018	113.893	0.176	0.214
-525.004	-200.000	0.003	0.209
-523.989	-200.000	0.018	-0.428
-522.975	-200.000	0.077	0.344
-521.960	-116.367	0.063	-0.012
-520.945	237.249	-0.102	-0.170
-519.931	800.000	0.028	0.087
-518.916	-200.000	0.002	-0.146
-517.902	800.000	0.012	-0.046
-516.887	-200.000	0.041	0.293
-515.872	800.000	0.085	0.301
-514.858	191.458	0.242	-0.364
-513.843	-48.609	-0.149	0.071
-512.829	-147.157	-0.125	0.011
-511.814	5.662	0.148	-0.109
-510.799	-176.927	-0.388	0.010
-509.785	-200.000	-0.030	0.138
-508.770	-61.484	0.207	-0.087
-507.756	-152.416	-0.255	0.018
-506.741	-200.000	-0.017	0.090
-505.726	-194.064	-0.219	-0.002
-504.712	-71.855	0.062	0.023
-503.697	-56.500	0.281	-0.125
-502.683	252.124	-0.052	0.088
-501.668	-200.000	-0.019	0.155
-500.653	38.887	0.220	-0.197
-499.639	-26.594	0.067	0.039
-498.624	-34.030	-0.098	0.054
-497.610	560.612	-0.097	-0.235
-496.595	74.683	0.109	0.115
-495.581	190.253	0.133	0.200
-494.566	8.607	-0.064	0.048
-493.551	800.000	0.117	-0.464
-492.537	-132.338	-0.184	0.024
-491.522	-99.476	-0.305	0.077
-490.508	-200.000	-0.010	0.096
-489.493	253.396	-0.095	-0.163
-488.478	578.689	-0.077	0.188
-487.464	-200.000	-0.009	-0.062
-486.449	30.602	-0.111	0.095
-485.435	-49.564	-0.204	-0.097
-484.420	-200.000	-0.014	0.199
-483.405	42.892	0.173	0.157
-482.391	-131.780	0.104	0.014
-481.376	-109.756	-0.175	-0.037
-480.362	-0.078	0.343	0.244
-479.347	53.064	-0.217	0.208
-478.332	296.122	0.211	-0.385
-477.318	-96.887	-0.048	-0.013
-476.303	-61.927	0.217	0.091
-475.289	69.355	-0.009	0.010
-474.274	730.038	-0.081	0.217
-473.259	-35.112	0.213	0.116
-472.245	-200.000	-0.001	0.139
-471.230	-200.000	-0.015	-0.206
-470.216	-81.671	0.529	0.173
-469.201	-200.000	-0.041	-0.231
-468.186	334.809	0.121	-0.234
-467.172	-200.000	-0.005	-0.030
-466.157	800.000	-0.095	-0.309
-465.143	-200.000	-0.029	-0.239
-464.128	115.830	-0.129	-0.158
-463.113	63.150	-0.159	-0.159
-462.099	16.676	-0.389	-0.307
-461.084	-200.000	0.025	0.195
-460.070	-23.166	-0.062	-0.037
-459.055	-3.228	-0.207	0.144
-458.040	-200.000	-0.015	0.169
-457.026	-184.773	-0.566	0.009
-456.011	47.923	0.136	0.126
-454.997	800.000	-0.058	0.180
-453.982	146.471	0.078	-0.104
-452.968	-5.265	-0.176	-0.121
-451.953	176.434	0.164	-0.237
-450.938	17.148	-0.248	-0.196
-449.924	43.709	-0.270	0.246
-448.909	8.661	-0.016	-0.012
-447.895	-10.131	0.081	-0.054
-446.880	96.754	-0.256	0.293
-445.865	376.626	0.046	-0.093
-444.851	172.690	-0.014	-0.020
-443.836	168.465	-0.215	-0.305
-442.822	-200.000	-0.487	0.002
-441.807	272.739	-0.102	-0.180
-440.792	800.000	-0.056	0.201
-439.778	-200.000	-0.005	0.067
-438.763	302.349	-0.084	-0.155
-437.749	169.736	-0.053	0.075
-436.734	85.520	0.137	-0.150
-435.719	-200.000	0.025	-0.184
-434.705	165.989	0.207	0.292
-433.690	495.435	0.127	0.290
-432.676	71.580	0.004	0.004
-431.661	-47.321	-0.052	0.025
-430.646	-200.000	-0.028	-0.286
-429.632	664.483	-0.064	0.165
-428.617	4.595	-0.377	-0.276
-427.603	119.420	-0.282	0.348
-426.588	107.557	-0.059	-0.070
-425.573	800.000	-0.045	0.175
-424.559	-80.743	0.299	0.099
-423.544	644.699	-0.035	0.088
-422.530	-157.839	-0.133	0.008
-421.515	102.911	-0.221	0.258
-420.500	800.000	0.089	0.352
-419.486	-106.426	-0.295	-0.066
-418.471	387.152	0.096	-0.197
-417.457	36.633	-0.109	0.096
-416.442	800.000	-0.105	-0.338
-415.428	86.826	-0.311	0.342
-414.413	178.907	-0.110	-0.161
-413.398	582.274	0.109	0.266
-412.384	-51.867	-0.164	-0.076
-411.369	371.468	0.140	0.282
-410.355	48.646	0.221	-0.207
-409.340	-200.000	0.024	0.287
-408.325	800.000	-0.081	-0.253
-407.311	149.805	0.195	0.263
-406.296	13.755	0.251	-0.194
-405.282	77.355	-0.207	0.219
-404.267	-200.000	-0.068	-0.394
-403.252	-108.153	0.194	-0.042
-402.238	-103.045	0.203	0.048
-401.223	97.992	0.119	-0.136
-400.209	-200.000	-0.066	0.318
-399.194	-80.555	0.371	-0.123
-398.179	101.461	0.171	-0.198
-397.165	-130.006	-0.268	-0.036
-396.150	800.000	-0.057	-0.175
-395.136	240.240	-0.018	-0.030
-394.121	-18.693	-0.299	-0.185
-393.106	-157.169	-0.356	-0.022
-392.092	-117.535	0.326	-0.059
-391.077	-200.000	-0.012	-0.167
-390.063	-200.000	-0.012	0.134
-389.048	149.577	-0.044	0.059
-388.033	104.187	0.031	0.036
-387.019	-191.731	0.393	-0.004
-386.004	-200.000	0.030	-0.191
-384.990	-39.467	0.395	0.206
-383.975	172.861	0.246	0.353
-382.960	-78.760	0.255	0.087
-381.946	-174.464	0.318	-0.009
-380.931	-101.973	0.233	-0.056
-379.917	-165.302	-0.247	0.011
-378.902	-114.467	-0.530	0.101
-377.888	195.460	-0.207	0.313
-376.873	-11.339	-0.282	-0.184
-375.858	669.901	0.044	0.113
-374.844	-15.195	-0.392	0.249
-373.829	-82.085	-0.317	0.103
-372.815	-111.370	0.257	0.052
-371.800	-200.000	0.028	-0.342
-370.785	15.738	0.027	-0.021
-369.771	-200.000	0.311	-0.001
-368.756	174.636	0.177	-0.255
-367.742	-119.109	-0.285	-0.050
-366.727	-200.000	-0.000	-0.035
-365.712	714.619	-0.077	0.204
-364.698	-200.000	-0.012	-0.204
-363.683	-88.993	-0.242	-0.071
-362.669	308.473	-0.065	-0.121
-361.654	-164.231	-0.119	0.005
-360.639	-10.566	-0.131	-0.086
-359.625	62.753	-0.374	0.372
-358.610	-200.000	0.002	0.370
-357.596	-200.000	0.012	0.128
-356.581	800.000	0.124	-0.360
-355.566	-153.342	0.162	0.011
-354.552	-136.282	0.315	-0.036
-353.537	80.810	0.075	-0.080
-352.523	118.021	0.155	0.190
-351.508	-166.609	0.130	-0.005
-350.493	-132.610	-0.244	-0.031
-349.479	800.000	-0.022	0.087
-348.464	-200.000	0.007	0.153
-347.450	-200.000	-0.040	-0.187
-346.435	222.204	-0.037	0.059
-345.420	54.799	-0.163	0.156
-344.406	63.744	0.146	0.146
-343.391	-40.129	0.125	0.065
-342.377	-200.000	-0.014	0.142
-341.362	-73.791	-0.240	0.087
-340.348	54.288	0.108	0.104
-339.333	-55.176	0.264	0.118
-338.318	800.000	0.124	-0.466
-337.304	151.151	0.205	0.278
-336.289	-200.000	-0.008	0.179
-335.275	-166.781	0.180	0.007
-334.260	-151.947	0.223	-0.016
-333.245	-200.000	-0.030	0.372
-332.231	-5.382	-0.121	-0.083
-331.216	-111.447	0.171	0.035
-330.202	-37.227	-0.143	0.076
-329.187	-6.651	0.178	0.120
-328.172	-200.000	0.019	-0.164
-327.158	800.000	-0.032	-0.129
-326.143	-64.414	0.162	-0.065
-325.129	-117.529	-0.062	0.011
-324.114	90.308	0.173	0.192
-323.099	800.000	0.038	0.157
-322.085	360.977	-0.045	0.089
-321.070	-76.725	-0.156	-0.054
-320.056	-200.000	-0.008	0.091
-319.041	374.498	-0.049	-0.099
-318.026	51.182	0.348	-0.328
-317.012	169.199	0.042	-0.060
-315.997	-17.359	0.039	-0.024
-314.983	38.382	0.186	-0.164
-313.968	7.585	0.082	0.061
-312.953	-60.248	0.129	-0.055
-311.939	-3.256	0.035	-0.024
-310.924	800.000	0.035	-0.102
-309.910	800.000	-0.089	-0.339
-308.895	277.423	0.207	0.365
-307.880	207.158	0.085	0.132
-306.866	800.000	0.092	0.254
-305.851	-134.048	-0.248	0.030
-304.837	143.491	0.235	-0.311
-303.822	-59.720	0.167	0.071
-302.807	-31.662	-0.139	0.077
-301.793	211.566	-0.143	-0.223
-300.778	245.161	0.157	-0.263
-299.764	102.521	0.188	0.218
-298.749	-28.684	-0.139	0.079
-297.735	-200.000	0.048	0.238
-296.720	6.777	0.159	0.118
-295.705	800.000	-0.086	0.366
-294.691	-64.793	-0.409	-0.164
-293.676	-10.277	-0.206	0.136
-292.662	58.878	-0.058	-0.057
-291.647	-200.000	0.085	-0.450
-290.632	-64.467	0.363	-0.146
-289.618	-200.000	0.007	0.134
-288.603	60.860	-0.082	0.081
-287.589	-200.000	-0.001	-0.255
-286.574	8.870	-0.311	-0.232
-285.559	800.000	-0.080	-0.263
-284.545	-101.740	0.181	0.043
-283.530	-106.597	0.202	0.044
-282.516	591.224	-0.078	0.191
-281.501	-172.719	-0.096	-0.003
-280.486	-156.139	0.422	0.026
-279.472	-200.000	0.051	-0.336
-278.457	36.079	-0.037	-0.032
-277.443	-151.778	0.037	0.003
-276.428	267.719	-0.110	0.191
-275.413	-176.636	0.386	-0.010
-274.399	-63.605	0.152	-0.062
-273.384	365.269	-0.077	-0.154
-272.370	-24.324	0.075	0.044
-271.355	-83.760	-0.186	0.059
-270.340	438.936	-0.029	0.063
-269.326	-137.620	-0.116	-0.013
-268.311	294.759	0.090	0.163
-267.297	-125.800	-0.175	-0.026
-266.282	-200.000	0.029	-0.240
-265.267	-200.000	0.039	0.183
-264.253	-200.000	-0.001	-0.079
-263.238	-143.974	0.051	-0.005
-262.224	78.143	-0.049	0.052
-261.209	-200.000	-0.002	0.090
-260.195	-200.000	0.003	-0.051
-259.180	-170.615	-0.129	0.004
-258.165	-43.698	0.125	-0.062
-257.151	45.648	0.134	-0.122
-256.136	-200.000	-0.032	-0.339
-255.122	-42.283	-0.298	0.151
-254.107	236.663	-0.021	-0.034
-253.092	-77.834	0.271	0.093
-252.078	72.393	-0.052	-0.054
-251.063	-200.000	0.043	0.203
-250.049	-100.156	0.355	-0.087
-249.034	-152.579	0.249	-0.018
-248.019	-90.163	-0.202	0.058
-247.005	-200.000	0.031	0.343
-245.990	-200.000	0.045	0.589
-244.976	4.305	-0.083	-0.060
-243.961	-200.000	-0.021	0.108
-242.946	109.433	-0.099	0.117
-241.932	2.405	-0.070	0.050
-240.917	800.000	-0.036	0.112
-239.903	-142.499	-0.448	0.044
-238.888	800.000	0.081	-0.303
-237.873	172.442	0.176	0.251
-236.859	-99.830	0.131	-0.032
-235.844	-22.343	0.046	0.028
-234.830	-38.769	0.031	-0.016
-233.815	-200.000	0.004	-0.066
-232.800	-98.664	-0.126	0.032
-231.786	538.071	0.105	0.246
-230.771	-104.234	-0.300	0.069
-229.757	0.532	-0.244	-0.172
-228.742	645.751	0.048	0.122
-227.727	-99.338	0.256	0.064
-226.713	-6.503	-0.127	-0.086
-225.698	-200.000	0.298	0.001
-224.684	-200.000	0.017	-0.183
-223.669	-57.503	-0.111	-0.048
-222.655	-134.851	0.140	0.017
-221.640	-92.673	-0.135	-0.037
-220.625	277.259	-0.135	-0.238
-219.611	87.522	0.201	-0.220
-218.596	-200.000	-0.034	0.400
-217.582	590.006	-0.035	0.086
-216.567	-122.360	0.309	-0.050
-215.552	51.920	0.139	0.131
-214.538	-200.000	-0.011	0.399
-213.523	800.000	-0.044	0.152
-212.509	187.938	-0.169	0.249
-211.494	800.000	-0.066	0.240
-210.479	134.811	0.145	-0.186
-209.465	-58.887	-0.061	0.026
-208.450	-37.746	0.264	0.139
-207.436	-21.114	0.207	0.125
-206.421	-10.282	0.102	0.067
-205.406	-200.000	-0.074	-0.357
-204.392	800.000	-0.065	0.235
-203.377	10.854	-0.146	-0.110
-202.363	800.000	-0.049	0.137
-201.348	177.159	-0.150	-0.216
-200.333	-16.106	-0.027	-0.017
-199.319	712.590	-0.172	-0.451
-198.304	-104.182	0.272	-0.062
-197.290	-200.000	0.001	0.225
-196.275	147.539	-0.176	-0.234
-195.260	32.111	0.370	0.316
-194.246	-34.384	-0.098	-0.053
-193.231	208.819	0.045	-0.069
-192.217	16.508	0.249	-0.194
-191.202	-118.240	-0.160	-0.028
-190.187	800.000	0.114	-0.412
-189.173	800.000	-0.107	0.351
-188.158	-71.180	-0.306	0.113
-187.144	116.354	0.205	0.248
-186.129	-33.209	0.079	-0.043
-185.114	-10.979	-0.162	0.106
-184.100	122.900	-0.144	-0.178
-183.085	-178.981	0.155	-0.003
-182.071	-118.094	-0.297	0.052
-181.056	-46.323	-0.028	-0.014
-180.042	800.000	-0.041	0.126
-179.027	86.344	0.162	0.176
-178.012	-162.957	-0.461	0.022
-176.998	-78.205	-0.355	-0.120
-175.983	-6.294	-0.226	-0.152
-174.969	37.515	-0.270	0.236
-173.954	-161.165	0.372	0.019
-172.939	-200.000	0.015	-0.126
-171.925	800.000	-0.070	-0.214
-170.910	-88.070	-0.155	-0.046
-169.896	35.087	-0.072	0.063
-168.881	151.786	-0.094	0.126
-167.866	83.572	-0.054	0.059
-166.852	-128.494	0.085	-0.012
-165.837	-19.388	0.374	0.229
-164.823	329.358	0.016	0.030
-163.808	-185.046	0.144	-0.002
-162.793	-200.000	0.003	-0.038
-161.779	162.216	-0.125	-0.174
-160.764	-31.362	-0.241	-0.134
-159.750	77.433	0.162	0.170
-158.735	-65.801	0.182	-0.072
-157.720	55.764	-0.281	0.268
-156.706	-76.053	0.177	0.062
-155.691	-18.855	-0.107	-0.066
-154.677	800.000	-0.074	0.279
-153.662	-189.559	0.468	-0.005
-152.647	800.000	0.064	-0.275
-151.633	-74.704	0.199	0.070
-150.618	-97.720	0.284	-0.072
-149.604	58.134	-0.092	-0.089
-148.589	49.722	0.159	0.148
-147.574	-74.363	-0.316	0.113
-146.560	-173.486	-0.154	0.005
-145.545	-175.710	0.162	0.004
-144.531	-108.639	-0.049	-0.010
-143.516	-21.870	-0.144	-0.086
-142.502	242.299	0.066	-0.109
-141.487	-150.655	-0.174	0.013
-140.472	-200.000	0.004	-0.155
-139.458	-56.117	-0.344	0.151
-138.443	-39.514	0.288	-0.148
-137.429	-200.000	-0.021	0.141
-136.414	-81.720	-0.249	0.080
-135.399	-73.913	0.162	-0.058
-134.385	800.000	0.053	0.163
-133.370	-8.240	0.087	0.058
-132.356	-166.251	0.220	0.009
-131.341	-160.689	-0.218	0.011
-130.326	-72.048	-0.195	0.071
-129.312	-65.234	0.149	-0.059
-128.297	-128.073	0.042	0.006
-127.283	-9.225	0.169	-0.112
-126.268	-42.472	-0.150	0.075
-125.253	55.719	0.192	0.184
-124.239	-57.047	-0.081	-0.035
-123.224	523.779	0.176	-0.407
-122.210	-199.436	0.455	0.002
-121.195	227.949	0.239	0.384
