DTS Sentinel unit serial number:	SN413079Multiplexer serial number:	ORYXHardware model number:	OX4-SRSoftware version number:	ORYX F/W v4.00 Oryx Data Collector v3.7.2.0data status	okinstallation	princeton_trtdifferential loss correction	single-endedforward channel	channel 2reverse channel	N/Adate	2019/09/19time	10:15:34forward acquisition time	60.00reverse acquisition time	0.00gamma	496.2192k internal	0.2343k external	0.2343temperature offset calibration	1.0007default loss term (dB/km)	0.3790temperature slope calibration	1.0000multiplexer offset coefficient	1.0000multiplexer slope coefficient	1.0000fibre end	0.00T internal ref (°C)	24.06T ext. ref 1 (°C)	0.69T ext. ref 2 (°C)	19.80length (m)	temperature (°C)	Stokes	anti-Stokes-747.200	-174.122	-0.386	0.011
-746.185	-151.233	0.050	0.004
-745.171	208.331	-0.117	0.183
-744.156	-110.747	-0.132	0.027
-743.142	-119.265	0.133	-0.023
-742.127	-73.184	-0.281	-0.103
-741.112	16.899	0.261	-0.207
-740.098	800.000	-0.150	0.447
-739.083	365.599	-0.080	0.160
-738.069	747.838	-0.188	0.507
-737.054	-7.581	0.211	-0.143
-736.039	75.447	-0.202	-0.214
-735.025	-92.032	0.251	0.071
-734.010	-117.668	-0.450	-0.081
-732.996	421.904	0.071	-0.153
-731.981	-76.583	-0.142	-0.050
-730.966	-179.582	0.340	0.007
-729.952	-147.160	-0.138	-0.012
-728.937	336.554	0.078	-0.151
-727.923	-200.000	0.001	0.033
-726.908	-157.001	-0.136	-0.008
-725.894	-58.050	-0.102	0.045
-724.879	58.671	-0.277	-0.272
-723.864	600.635	0.093	0.231
-722.850	69.660	0.051	0.053
-721.835	800.000	-0.043	-0.167
-720.821	29.270	0.040	0.034
-719.806	-105.929	-0.203	0.046
-718.791	-200.000	-0.045	0.283
-717.777	-196.802	-0.321	0.002
-716.762	800.000	-0.013	-0.042
-715.748	-107.641	0.248	0.054
-714.733	-140.595	-0.174	-0.018
-713.718	-180.244	0.154	-0.003
-712.704	-29.437	-0.387	-0.221
-711.689	-23.314	-0.250	-0.150
-710.675	-200.000	0.029	-0.237
-709.660	545.424	0.115	0.274
-708.645	21.657	0.038	-0.031
-707.631	19.730	0.051	-0.041
-706.616	26.625	-0.214	-0.179
-705.602	-200.000	0.017	-0.282
-704.587	-99.010	-0.205	-0.052
-703.572	-117.643	0.089	-0.016
-702.558	800.000	0.046	-0.176
-701.543	-200.000	0.007	0.119
-700.529	-93.265	0.241	-0.067
-699.514	-19.624	-0.096	-0.059
-698.499	800.000	0.054	-0.201
-697.485	-13.883	-0.247	0.160
-696.470	-200.000	-0.031	0.275
-695.456	-119.182	-0.307	0.054
-694.441	-79.261	-0.080	0.027
-693.426	-176.226	0.041	0.001
-692.412	37.611	0.242	-0.214
-691.397	-74.614	-0.039	0.014
-690.383	-104.825	0.216	-0.050
-689.368	-67.598	-0.102	-0.040
-688.354	800.000	0.095	-0.326
-687.339	800.000	0.027	-0.114
-686.324	800.000	0.091	-0.299
-685.310	-64.371	0.172	0.070
-684.295	-75.883	-0.331	0.117
-683.281	58.171	-0.367	0.360
-682.266	10.076	-0.258	-0.196
-681.251	-44.560	-0.239	-0.119
-680.237	220.947	0.090	-0.144
-679.222	-167.943	0.204	-0.008
-678.208	60.161	0.077	-0.076
-677.193	-200.000	0.024	-0.181
-676.178	-61.362	-0.121	-0.051
-675.164	800.000	0.043	-0.181
-674.149	-200.000	0.038	0.224
-673.135	-200.000	-0.030	-0.383
-672.120	-200.000	-0.006	-0.249
-671.105	-126.007	-0.312	-0.047
-670.091	87.512	-0.275	-0.303
-669.076	-97.822	-0.295	0.076
-668.062	4.748	-0.039	0.028
-667.047	-200.000	0.050	-0.401
-666.032	-122.869	-0.222	-0.036
-665.018	20.443	-0.200	-0.162
-664.003	800.000	0.068	0.291
-662.989	-31.701	0.210	-0.118
-661.974	-90.452	0.131	0.038
-660.959	54.222	-0.100	0.096
-659.945	800.000	-0.056	-0.188
-658.930	-154.470	0.146	-0.010
-657.916	-200.000	0.004	-0.283
-656.901	-200.000	-0.001	0.209
-655.886	800.000	-0.024	-0.084
-654.872	800.000	0.058	0.179
-653.857	-21.721	0.145	-0.088
-652.843	-155.800	-0.216	-0.014
-651.828	800.000	-0.107	-0.375
-650.814	800.000	0.065	0.207
-649.799	333.221	0.031	-0.060
-648.784	-63.244	-0.134	-0.055
-647.770	-200.000	0.022	0.157
-646.755	-75.359	-0.311	0.111
-645.741	-63.666	0.225	0.092
-644.726	741.254	0.108	-0.289
-643.711	-200.000	-0.079	0.410
-642.697	121.711	-0.015	-0.018
-641.682	228.435	-0.109	0.176
-640.668	-55.711	0.223	-0.099
-639.653	272.138	0.096	-0.170
-638.638	87.350	-0.123	0.136
-637.624	-200.000	-0.013	-0.321
-636.609	-200.000	0.010	-0.202
-635.595	800.000	-0.028	-0.109
-634.580	-146.189	0.162	-0.014
-633.565	-56.243	-0.258	0.114
-632.551	800.000	0.065	0.222
-631.536	800.000	0.021	-0.057
-630.522	189.106	-0.095	0.143
-629.507	-120.195	0.047	0.008
-628.492	-28.998	-0.237	0.136
-627.478	57.544	0.077	-0.075
-626.463	47.141	0.153	0.142
-625.449	-200.000	-0.059	-0.350
-624.434	-200.000	0.007	0.138
-623.419	29.025	-0.182	-0.154
-622.405	98.292	-0.118	-0.136
-621.390	-73.957	-0.234	0.085
-620.376	367.398	-0.149	-0.299
-619.361	-200.000	-0.006	0.168
-618.346	800.000	-0.051	0.217
-617.332	800.000	-0.120	-0.431
-616.317	-57.902	-0.165	-0.072
-615.303	69.138	-0.262	0.268
-614.288	-88.017	0.482	0.144
-613.273	7.229	0.236	0.176
-612.259	-67.003	-0.256	0.101
-611.244	558.097	-0.053	0.128
-610.230	-77.968	0.297	-0.102
-609.215	48.864	-0.119	0.111
-608.201	-200.000	0.021	0.440
-607.186	77.424	-0.046	-0.049
-606.171	800.000	0.077	-0.221
-605.157	86.435	0.140	-0.154
-604.142	-200.000	0.007	-0.141
-603.128	-36.367	-0.147	-0.079
-602.113	800.000	-0.087	0.265
-601.098	-74.466	-0.217	0.078
-600.084	423.416	-0.130	-0.277
-599.069	83.472	0.139	0.151
-598.055	760.605	0.115	0.310
-597.040	-200.000	0.067	0.395
-596.025	-101.391	0.403	-0.098
-595.011	800.000	0.062	-0.250
-593.996	402.322	0.040	-0.083
-592.982	215.581	-0.067	-0.106
-591.967	-5.823	-0.239	-0.163
-590.952	800.000	0.087	0.328
-589.938	-155.906	0.195	0.012
-588.923	-37.377	-0.413	-0.220
-587.909	473.116	0.087	-0.196
-586.894	91.986	-0.328	0.367
-585.879	220.958	0.303	0.484
-584.865	206.057	-0.070	-0.109
-583.850	22.707	-0.179	-0.146
-582.836	326.690	0.153	0.292
-581.821	-141.044	-0.257	-0.026
-580.806	-170.012	-0.339	0.012
-579.792	-64.591	-0.164	0.066
-578.777	-200.000	-0.001	-0.135
-577.763	85.980	0.179	0.196
-576.748	-86.315	-0.193	0.059
-575.733	-200.000	-0.036	0.199
-574.719	800.000	-0.074	0.297
-573.704	68.060	0.051	0.052
-572.690	-89.547	0.028	-0.008
-571.675	800.000	0.036	-0.129
-570.661	96.162	0.123	-0.140
-569.646	45.135	-0.156	0.143
-568.631	3.669	0.109	0.079
-567.617	577.692	-0.117	-0.284
-566.602	-200.000	0.044	-0.202
-565.588	-200.000	0.046	-0.536
-564.573	36.124	0.072	0.063
-563.558	226.778	-0.106	-0.171
-562.544	800.000	-0.053	-0.184
-561.529	-200.000	0.011	0.166
-560.515	800.000	0.035	-0.133
-559.500	309.078	0.105	0.195
-558.485	-200.000	-0.062	-0.358
-557.471	201.176	-0.114	-0.174
-556.456	47.107	-0.198	0.183
-555.442	-124.127	-0.072	-0.011
-554.427	-93.879	-0.364	0.100
-553.412	-6.360	-0.031	0.021
-552.398	118.512	-0.255	-0.313
-551.383	-99.960	0.059	-0.015
-550.369	110.972	0.129	-0.154
-549.354	-100.530	0.165	-0.040
-548.339	-200.000	0.011	-0.136
-547.325	-200.000	0.009	-0.155
-546.310	-72.722	-0.309	0.113
-545.296	59.399	0.080	-0.078
-544.281	-82.335	-0.180	0.058
-543.266	172.404	-0.260	-0.371
-542.252	137.494	-0.079	-0.102
-541.237	127.502	-0.054	0.068
-540.223	-200.000	-0.046	-0.241
-539.208	91.462	-0.181	0.202
-538.193	-9.059	-0.106	-0.071
-537.179	-124.768	-0.238	-0.037
-536.164	-1.463	0.252	0.176
-535.150	379.025	0.162	0.329
-534.135	-119.138	-0.105	-0.018
-533.121	147.956	0.266	-0.356
-532.106	-6.522	0.024	-0.016
-531.091	43.255	-0.238	-0.216
-530.077	-54.075	-0.300	-0.136
-529.062	275.038	-0.109	0.191
-528.048	-29.602	0.046	-0.026
-527.033	533.966	0.106	0.249
-526.018	-200.000	0.011	0.171
-525.004	800.000	-0.042	-0.134
-523.989	-192.231	-0.158	0.001
-522.975	-200.000	-0.043	0.300
-521.960	17.723	-0.112	0.088
-520.945	578.941	0.049	0.119
-519.931	-3.853	0.212	-0.146
-518.916	44.929	-0.257	0.235
-517.902	208.242	0.030	0.047
-516.887	115.637	0.068	0.083
-515.872	-89.703	-0.170	-0.050
-514.858	52.709	-0.254	0.241
-513.843	-44.474	0.178	-0.088
-512.829	-58.013	-0.424	0.184
-511.814	-100.992	0.231	-0.056
-510.799	254.660	-0.227	-0.385
-509.785	211.465	-0.056	0.088
-508.770	-62.346	0.254	-0.105
-507.756	289.895	0.082	-0.147
-506.741	-67.789	-0.347	0.135
-505.726	-49.320	0.169	-0.080
-504.712	44.287	0.103	-0.094
-503.697	13.924	-0.058	0.045
-502.683	-99.582	0.346	-0.086
-501.668	800.000	-0.094	0.272
-500.653	371.038	-0.012	-0.025
-499.639	-133.114	-0.057	-0.007
-498.624	-1.845	-0.151	0.106
-497.610	157.124	-0.192	-0.263
-496.595	-31.370	-0.179	-0.100
-495.581	800.000	-0.077	0.308
-494.566	-37.642	0.072	0.038
-493.551	-126.353	0.356	0.053
-492.537	729.119	-0.149	0.395
-491.522	-80.561	-0.189	-0.062
-490.508	-49.212	-0.120	-0.057
-489.493	-85.965	-0.243	-0.075
-488.478	161.246	0.058	-0.081
-487.464	-63.986	-0.345	0.140
-486.449	100.334	0.241	0.277
-485.435	-53.846	0.354	0.160
-484.420	249.537	-0.046	-0.076
-483.405	-100.543	0.385	-0.094
-482.391	-163.640	-0.216	0.010
-481.376	32.029	0.256	0.218
-480.362	-7.226	0.178	0.119
-479.347	-15.291	-0.191	-0.121
-478.332	-87.101	0.091	0.027
-477.318	-146.976	0.157	-0.013
-476.303	-15.771	0.205	0.130
-475.289	-200.000	-0.006	0.226
-474.274	283.121	-0.041	0.072
-473.259	-46.631	-0.038	0.018
-472.245	-200.000	-0.015	0.064
-471.230	51.874	0.149	0.141
-470.216	800.000	0.102	0.284
-469.201	-200.000	-0.088	-0.505
-468.186	-22.147	0.043	-0.026
-467.172	30.988	-0.043	0.036
-466.157	-19.345	-0.274	0.169
-465.143	-200.000	0.001	-0.024
-464.128	800.000	0.042	0.169
-463.113	105.808	0.111	-0.130
-462.099	-33.006	-0.387	-0.213
-461.084	-92.359	-0.183	-0.051
-460.070	-90.560	-0.184	-0.053
-459.055	-97.945	0.424	-0.108
-458.040	-200.000	0.014	-0.195
-457.026	-55.523	-0.149	0.066
-456.011	620.243	0.162	0.403
-454.997	-90.779	0.206	0.059
-453.982	-1.129	-0.300	-0.210
-452.968	-200.000	-0.005	0.163
-451.953	194.191	-0.117	0.176
-450.938	-1.364	0.389	-0.272
-449.924	-69.013	0.062	0.024
-448.909	482.099	0.103	-0.231
-447.895	362.281	-0.111	0.221
-446.880	-11.807	0.174	0.113
-445.865	-135.001	-0.136	-0.016
-444.851	-24.862	0.201	-0.118
-443.836	779.686	-0.094	-0.254
-442.822	353.394	0.025	-0.048
-441.807	800.000	0.031	-0.115
-440.792	47.064	0.314	0.289
-439.778	163.477	-0.153	0.213
-438.763	-157.772	-0.200	0.012
-437.749	-200.000	0.012	0.093
-436.734	273.954	0.067	0.117
-435.719	-50.215	-0.156	-0.073
-434.705	330.733	0.061	-0.117
-433.690	-179.301	-0.222	-0.005
-432.676	-172.702	-0.167	-0.005
-431.661	-180.533	0.187	-0.004
-430.646	-6.172	-0.139	-0.094
-429.632	346.821	0.116	0.225
-428.617	-137.959	-0.251	0.028
-427.603	335.246	-0.139	-0.266
-426.588	-200.000	-0.012	-0.398
-425.573	-200.000	-0.024	-0.120
-424.559	-33.854	-0.366	0.199
-423.544	105.186	0.187	-0.218
-422.530	800.000	-0.045	0.142
-421.515	-71.906	0.082	0.030
-420.500	-73.983	-0.279	0.100
-419.486	-22.835	0.149	0.089
-418.471	-112.535	0.254	0.050
-417.457	-200.000	0.043	-0.383
-416.442	131.816	0.015	0.019
-415.428	800.000	0.032	0.139
-414.413	103.577	0.203	0.236
-413.398	-200.000	0.070	0.318
-412.384	-200.000	0.033	-0.281
-411.369	800.000	0.078	0.307
-410.355	8.097	-0.050	0.037
-409.340	-122.959	0.249	0.040
-408.325	-100.440	-0.268	0.066
-407.311	800.000	-0.030	0.107
-406.296	128.160	0.084	-0.105
-405.282	-2.651	0.190	-0.132
-404.267	800.000	-0.028	0.082
-403.252	-132.585	0.039	-0.005
-402.238	-158.572	0.380	-0.022
-401.223	34.215	-0.203	0.175
-400.209	16.381	-0.344	0.269
-399.194	-60.902	0.219	0.091
-398.179	-28.120	-0.126	-0.072
-397.165	30.151	0.233	0.196
-396.150	-200.000	0.005	0.084
-395.136	26.052	0.024	-0.020
-394.121	284.445	0.154	-0.273
-393.106	800.000	0.030	-0.096
-392.092	-175.045	0.447	-0.012
-391.077	278.245	-0.095	-0.168
-390.063	-116.785	-0.135	0.024
-389.048	27.506	0.312	-0.259
-388.033	-113.145	-0.143	-0.028
-387.019	-46.802	-0.203	-0.098
-386.004	-70.730	0.173	-0.065
-384.990	800.000	0.065	0.204
-383.975	709.817	0.044	-0.116
-382.960	-200.000	0.019	-0.095
-381.946	-91.715	0.170	0.048
-380.931	-200.000	-0.022	0.177
-379.917	-131.207	0.184	-0.024
-378.902	339.683	-0.068	0.130
-377.888	142.344	0.172	-0.225
-376.873	-158.131	0.369	-0.021
-375.858	252.384	0.154	0.260
-374.844	-200.000	-0.005	-0.150
-373.829	121.025	0.157	0.193
-372.815	-200.000	0.064	-0.430
-371.800	403.782	-0.067	-0.139
-370.785	-74.326	0.041	-0.015
-369.771	97.146	-0.237	0.268
-368.756	800.000	-0.077	-0.225
-367.742	-38.861	-0.031	-0.016
-366.727	-36.732	-0.227	-0.120
-365.712	800.000	0.079	-0.302
-364.698	800.000	0.030	0.111
-363.683	-21.051	-0.421	0.254
-362.669	800.000	-0.039	-0.127
-361.654	-90.186	0.043	-0.012
-360.639	110.025	-0.060	0.071
-359.625	-98.848	-0.290	0.073
-358.610	97.082	0.170	0.192
-357.596	-200.000	0.000	0.129
-356.581	800.000	-0.061	0.222
-355.566	-56.666	0.349	-0.152
-354.552	80.387	-0.045	-0.048
-353.537	800.000	0.030	0.115
-352.523	-63.846	-0.227	-0.092
-351.508	-120.179	-0.172	0.029
-350.493	800.000	-0.039	-0.126
-349.479	-26.168	-0.215	-0.124
-348.464	800.000	0.034	-0.102
-347.450	-39.965	0.133	0.068
-346.435	98.944	-0.109	-0.124
-345.420	-135.265	0.178	0.021
-344.406	478.456	0.064	-0.144
-343.391	695.808	-0.034	-0.088
-342.377	-108.070	-0.233	-0.050
-341.362	-92.624	-0.133	0.037
-340.348	498.929	-0.166	0.377
-339.333	-138.541	-0.136	0.015
-338.318	-200.000	0.001	-0.171
-337.304	135.773	-0.141	0.181
-336.289	50.074	0.151	-0.141
-335.275	-90.112	0.111	0.032
-334.260	-48.621	0.100	-0.047
-333.245	-200.000	-0.070	-0.401
-332.231	-101.929	0.062	0.015
-331.216	-1.473	-0.204	0.142
-330.202	-200.000	0.054	-0.334
-329.187	138.684	0.155	0.201
-328.172	273.141	0.078	-0.136
-327.158	360.104	0.056	0.111
-326.143	-101.433	0.371	-0.089
-325.129	-60.952	-0.137	0.057
-324.114	-200.000	-0.094	-0.582
-323.099	118.682	0.026	0.032
-322.085	278.612	0.185	-0.324
-321.070	516.403	-0.133	-0.307
-320.056	-74.505	0.348	0.124
-319.041	593.384	-0.107	0.261
-318.026	273.856	0.051	0.089
-317.012	800.000	-0.091	-0.267
-315.997	800.000	0.073	-0.210
-314.983	46.975	0.152	-0.139
-313.968	132.883	0.085	-0.108
-312.953	504.245	0.157	0.358
-311.939	800.000	0.119	0.456
-310.924	44.540	0.161	0.145
-309.910	61.573	0.063	0.062
-308.895	157.537	0.108	-0.147
-307.880	800.000	0.031	0.121
-306.866	-105.733	-0.355	0.079
-305.851	-200.000	0.002	-0.391
-304.837	-73.702	0.508	0.182
-303.822	-200.000	0.080	0.397
-302.807	11.524	0.044	-0.033
-301.793	357.179	-0.230	0.450
-300.778	35.124	0.235	0.202
-299.764	800.000	0.048	-0.198
-298.749	244.336	0.333	-0.550
-297.735	-39.032	0.341	-0.177
-296.720	-54.060	0.118	0.053
-295.705	-76.756	0.193	0.066
-294.691	478.276	-0.125	-0.279
-293.676	-193.310	-0.288	-0.002
-292.662	-140.256	-0.053	-0.005
-291.647	20.669	-0.307	-0.245
-290.632	-200.000	0.010	0.196
-289.618	-18.022	0.111	-0.068
-288.603	322.250	-0.089	-0.166
-287.589	-65.142	-0.166	-0.066
-286.574	581.995	-0.138	0.332
-285.559	76.517	0.097	-0.101
-284.545	-200.000	0.003	-0.126
-283.530	800.000	0.008	0.023
-282.516	-200.000	-0.031	-0.191
-281.501	-136.651	-0.248	-0.028
-280.486	-84.705	0.302	-0.094
-279.472	408.214	-0.161	0.335
-278.457	800.000	-0.084	0.234
-277.443	-17.873	0.061	0.037
-276.428	89.590	-0.266	0.292
-275.413	-200.000	-0.042	0.405
-274.399	-200.000	-0.026	-0.121
-273.384	-200.000	0.074	-0.402
-272.370	-200.000	-0.134	0.637
-271.355	-113.421	-0.404	-0.078
-270.340	-124.841	0.213	-0.032
-269.326	73.308	-0.107	0.110
-268.311	-109.912	0.258	-0.053
-267.297	800.000	0.064	0.240
-266.282	-200.000	0.004	-0.199
-265.267	-200.000	0.006	-0.247
-264.253	84.383	-0.267	-0.287
-263.238	23.815	-0.309	-0.250
-262.224	435.511	-0.035	0.074
-261.209	800.000	0.045	0.142
-260.195	-200.000	-0.038	-0.234
-259.180	73.552	0.073	0.075
-258.165	299.715	-0.202	0.366
-257.151	539.202	0.024	-0.056
-256.136	183.139	0.172	0.249
-255.122	-53.022	-0.294	-0.133
-254.107	-138.882	0.155	-0.017
-253.092	-200.000	0.033	0.202
-252.078	-67.126	0.214	-0.083
-251.063	-9.702	-0.349	-0.228
-250.049	-101.751	0.231	0.055
-249.034	-8.158	0.028	-0.018
-248.019	800.000	0.130	-0.360
-247.005	-28.135	-0.145	-0.082
-245.990	-28.697	0.115	0.065
-244.976	-40.000	-0.274	-0.140
-243.961	15.580	0.103	-0.079
-242.946	143.669	0.140	0.183
-241.932	-200.000	-0.001	0.095
-240.917	168.074	0.129	0.180
-239.903	-39.172	0.410	0.211
-238.888	-83.498	-0.293	0.092
-237.873	202.648	-0.041	0.062
-236.859	26.694	0.192	-0.158
-235.844	-15.136	-0.215	-0.135
-234.830	106.403	-0.221	-0.258
-233.815	347.478	0.128	0.248
-232.800	230.355	-0.179	-0.287
-231.786	-200.000	-0.056	-0.289
-230.771	-5.411	-0.274	-0.185
-229.757	115.829	0.148	-0.178
-228.742	-150.216	0.107	-0.008
-227.727	-200.000	-0.195	-0.001
-226.713	-56.574	0.336	-0.146
-225.698	-30.141	-0.171	-0.095
-224.684	81.194	-0.084	-0.089
-223.669	-193.452	-0.281	0.002
-222.655	-140.269	0.417	-0.043
-221.640	134.621	-0.082	0.105
-220.625	130.353	-0.071	-0.089
-219.611	131.232	-0.144	-0.182
-218.596	-200.000	-0.014	-0.467
-217.582	-153.901	0.381	-0.025
-216.567	194.433	0.038	0.057
-215.552	305.445	-0.201	0.367
-214.538	-97.628	-0.328	0.084
-213.523	-180.408	0.181	-0.004
-212.509	-33.929	0.202	-0.109
-211.494	583.884	-0.140	0.336
-210.479	25.198	0.267	0.217
-209.465	-200.000	0.129	0.000
-208.450	168.262	-0.188	-0.262
-207.436	800.000	0.064	0.184
-206.421	-200.000	0.018	0.428
-205.406	-19.396	0.340	0.207
-204.392	-46.950	0.276	0.132
-203.377	-60.839	0.368	0.153
-202.363	154.248	0.235	0.316
-201.348	-200.000	0.019	-0.277
-200.333	83.198	-0.010	0.010
-199.319	-138.199	-0.172	0.019
-198.304	432.151	0.055	0.116
-197.290	80.118	0.087	0.092
-196.275	800.000	-0.110	0.423
-195.260	-190.260	0.468	0.005
-194.246	6.902	0.281	-0.205
-193.231	-104.789	-0.287	0.065
-192.217	-84.408	-0.422	-0.131
-191.202	-112.001	-0.173	-0.034
-190.187	196.559	0.286	0.427
-189.173	259.613	-0.111	-0.188
-188.158	291.885	0.039	0.070
-187.144	532.101	0.086	0.199
-186.129	-200.000	0.022	0.234
-185.114	-56.244	-0.213	0.093
-184.100	-14.580	0.337	0.212
-183.085	270.292	-0.194	-0.334
-182.071	-200.000	-0.413	-0.001
-181.056	-22.693	0.236	-0.140
-180.042	800.000	-0.081	0.344
-179.027	800.000	-0.031	-0.104
-178.012	49.469	0.248	-0.229
-176.998	116.495	0.150	0.181
-175.983	-10.180	0.333	0.216
-174.969	-67.473	-0.330	0.127
-173.954	-33.855	0.302	0.163
-172.939	-200.000	-0.026	-0.141
-171.925	129.722	0.274	-0.343
-170.910	34.992	0.229	0.196
-169.896	-137.262	0.104	0.012
-168.881	55.386	0.209	-0.198
-167.866	-68.187	0.160	-0.061
-166.852	48.418	-0.191	-0.175
-165.837	182.410	-0.130	0.188
-164.823	800.000	-0.123	0.453
-163.808	-124.354	0.305	-0.047
-162.793	158.811	-0.266	-0.362
-161.779	-49.121	0.229	0.107
-160.764	254.449	0.123	-0.206
-159.750	131.693	-0.118	-0.149
-158.735	-200.000	-0.022	-0.163
-157.720	-145.779	0.139	-0.012
-156.706	-122.289	0.318	0.051
-155.691	258.806	-0.116	-0.195
-154.677	697.760	0.129	-0.332
-153.662	34.134	-0.167	-0.143
-152.647	-200.000	-0.029	-0.147
-151.633	-200.000	0.007	-0.308
-150.618	-144.726	0.102	-0.009
-149.604	136.263	-0.200	-0.255
-148.589	-146.238	-0.283	-0.024
-147.574	52.091	0.281	0.262
-146.560	-140.555	-0.174	0.018
-145.545	-2.851	-0.134	-0.092
-144.531	800.000	-0.097	-0.300
-143.516	-87.343	0.201	-0.060
-142.502	-200.000	0.045	-0.214
-141.487	-200.000	0.016	-0.374
-140.472	0.750	-0.194	-0.136
-139.458	121.775	0.174	0.213
-138.443	-81.815	0.196	-0.063
-137.429	-164.083	0.300	-0.014
-136.414	800.000	0.051	0.149
-135.399	61.400	0.076	-0.074
-134.385	-200.000	0.006	0.070
-133.370	-94.337	0.130	-0.035
-132.356	-107.997	-0.097	-0.021
-131.341	266.742	-0.039	0.067
-130.326	125.586	-0.105	-0.129
-129.312	800.000	0.107	-0.293
-128.297	-49.848	-0.094	0.043
-127.283	3.910	0.231	0.165
-126.268	462.882	0.087	0.190
-125.253	157.487	0.096	0.129
-124.239	-80.732	-0.245	0.080
-123.224	-96.739	0.268	0.069
-122.210	-19.541	0.396	0.239
-121.195	-44.323	0.174	-0.085
