DTS Sentinel unit serial number:	SN413079Multiplexer serial number:	ORYXHardware model number:	OX4-SRSoftware version number:	ORYX F/W v4.00 Oryx Data Collector v3.7.2.0data status	okinstallation	princeton_trtdifferential loss correction	single-endedforward channel	channel 2reverse channel	N/Adate	2019/09/12time	11:33:10forward acquisition time	60.00reverse acquisition time	0.00gamma	496.2192k internal	0.2303k external	0.2303temperature offset calibration	1.0072default loss term (dB/km)	0.3790temperature slope calibration	1.0000multiplexer offset coefficient	1.0000multiplexer slope coefficient	1.0000fibre end	0.00T internal ref (°C)	39.44T ext. ref 1 (°C)	1.98T ext. ref 2 (°C)	36.55length (m)	temperature (°C)	Stokes	anti-Stokes-747.200	-53.526	0.185	-0.086
-746.185	25.547	0.178	0.151
-745.171	-77.558	-0.101	0.036
-744.156	68.665	-0.084	0.088
-743.142	-86.671	-0.168	0.052
-742.127	-200.000	-0.023	0.145
-741.112	10.244	0.144	-0.112
-740.098	-200.000	0.030	0.148
-739.083	-200.000	-0.011	0.140
-738.069	202.718	0.316	0.497
-737.054	496.380	0.138	0.323
-736.039	-200.000	0.010	-0.046
-735.025	-200.000	-0.011	0.207
-734.010	124.068	-0.166	-0.212
-732.996	-200.000	-0.005	-0.106
-731.981	111.881	0.132	-0.162
-730.966	-90.373	0.427	-0.126
-729.952	-60.809	-0.364	-0.157
-728.937	-73.342	0.280	0.104
-727.923	222.486	-0.115	0.189
-726.908	289.558	-0.065	-0.120
-725.894	17.154	-0.193	-0.156
-724.879	-58.324	0.069	-0.031
-723.864	-200.000	-0.014	-0.168
-722.850	65.794	0.250	0.258
-721.835	800.000	0.030	0.107
-720.821	-94.742	-0.524	-0.145
-719.806	-200.000	0.014	-0.116
-718.791	-160.934	0.291	0.016
-717.777	800.000	-0.050	0.192
-716.762	225.059	-0.170	-0.280
-715.748	-189.021	-0.104	-0.001
-714.733	-126.236	-0.296	0.045
-713.718	-55.958	-0.130	-0.059
-712.704	-37.925	0.275	-0.149
-711.689	-200.000	-0.042	-0.323
-710.675	-39.855	-0.348	-0.185
-709.660	221.671	0.069	0.113
-708.645	-103.666	0.167	0.040
-707.631	23.566	-0.232	0.195
-706.616	800.000	0.108	-0.346
-705.602	71.069	0.153	-0.161
-704.587	377.770	-0.132	-0.274
-703.572	-200.000	-0.052	-0.247
-702.558	-131.866	-0.352	-0.047
-701.543	6.500	-0.016	-0.012
-700.529	-200.000	-0.038	0.196
-699.514	186.046	-0.061	-0.093
-698.499	227.645	-0.053	-0.087
-697.485	800.000	0.036	0.154
-696.470	-163.289	0.052	0.003
-695.456	-73.105	0.005	-0.002
-694.441	26.287	-0.100	-0.085
-693.426	26.057	-0.136	-0.115
-692.412	-72.430	-0.113	0.042
-691.397	-200.000	0.051	-0.520
-690.383	800.000	0.120	0.416
-689.368	30.794	-0.266	-0.231
-688.354	-127.030	-0.071	-0.011
-687.339	-200.000	0.062	-0.343
-686.324	-44.452	0.184	-0.094
-685.310	-200.000	-0.014	0.210
-684.295	83.995	-0.106	0.117
-683.281	223.908	-0.096	-0.157
-682.266	-200.000	-0.009	-0.209
-681.251	188.663	-0.143	0.218
-680.237	-167.822	0.159	-0.006
-679.222	515.505	-0.063	-0.150
-678.208	-117.237	0.063	0.012
-677.193	136.810	0.100	0.132
-676.178	-28.833	-0.088	0.051
-675.164	38.082	-0.258	-0.233
-674.149	-200.000	0.052	-0.402
-673.135	246.926	-0.096	-0.165
-672.120	39.386	-0.113	-0.103
-671.105	41.296	0.126	-0.115
-670.091	-65.606	0.230	-0.094
-669.076	-101.883	-0.497	-0.122
-668.062	-63.209	-0.237	0.099
-667.047	-44.544	-0.059	0.030
-666.032	127.088	0.047	0.060
-665.018	41.263	-0.211	-0.193
-664.003	-200.000	0.040	0.190
-662.989	-200.000	0.006	-0.047
-661.974	40.266	0.131	-0.120
-660.959	800.000	0.044	0.152
-659.945	15.344	0.253	-0.201
-658.930	-168.428	0.219	-0.009
-657.916	800.000	0.092	-0.316
-656.901	22.633	-0.233	0.194
-655.886	-53.378	-0.153	0.071
-654.872	800.000	0.067	-0.259
-653.857	537.778	0.064	-0.155
-652.843	800.000	0.015	0.061
-651.828	-51.051	-0.268	0.128
-650.814	154.372	0.084	0.118
-649.799	-200.000	0.034	0.161
-648.784	-55.457	0.163	0.074
-647.770	-76.391	-0.221	0.079
-646.755	-50.082	0.396	-0.190
-645.741	-21.625	0.418	-0.258
-644.726	37.021	0.147	-0.132
-643.711	57.290	0.116	-0.115
-642.697	-74.341	0.204	0.075
-641.682	101.063	-0.091	0.108
-640.668	-32.436	-0.315	-0.178
-639.653	-63.786	0.225	0.094
-638.638	-19.158	0.137	-0.086
-637.624	57.225	-0.098	-0.097
-636.609	-200.000	-0.000	-0.065
-635.595	21.853	-0.162	0.134
-634.580	76.391	0.151	0.162
-633.565	187.262	-0.047	-0.071
-632.551	159.296	-0.177	-0.250
-631.536	84.829	-0.146	-0.162
-630.522	55.386	-0.128	-0.126
-629.507	800.000	0.023	0.086
-628.492	270.505	0.110	0.196
-627.478	800.000	-0.040	0.154
-626.463	-40.271	0.082	0.043
-625.449	-120.905	0.145	0.025
-624.434	-104.299	0.367	0.086
-623.419	232.666	0.066	-0.109
-622.405	-16.636	-0.174	0.112
-621.390	152.449	-0.204	0.283
-620.376	-200.000	0.014	-0.158
-619.361	43.352	-0.180	-0.167
-618.346	56.891	-0.061	-0.060
-617.332	-66.467	0.182	-0.073
-616.317	-90.649	0.451	-0.132
-615.303	-64.340	0.055	-0.023
-614.288	-63.043	-0.173	-0.072
-613.273	-126.983	0.171	-0.026
-612.259	41.901	0.044	-0.040
-611.244	-19.553	-0.098	-0.061
-610.230	229.760	-0.082	-0.136
-609.215	-200.000	0.065	0.417
-608.201	-148.274	-0.256	0.021
-607.186	123.244	-0.307	-0.390
-606.171	130.857	-0.134	0.175
-605.157	-81.598	-0.192	0.064
-604.142	-200.000	-0.002	-0.198
-603.128	800.000	0.068	0.205
-602.113	112.122	0.108	0.133
-601.098	-62.863	-0.009	-0.004
-600.084	6.301	0.289	0.217
-599.069	-200.000	-0.005	-0.039
-598.055	-54.498	-0.344	0.158
-597.040	47.670	-0.313	0.296
-596.025	800.000	0.063	-0.238
-595.011	231.839	-0.141	-0.234
-593.996	198.914	-0.126	0.195
-592.982	-200.000	-0.176	-0.000
-591.967	-87.843	-0.273	-0.083
-590.952	-63.421	0.151	-0.063
-589.938	-200.000	0.262	-0.000
-588.923	41.986	-0.107	0.098
-587.909	-115.735	0.408	-0.077
-586.894	170.406	0.058	-0.083
-585.879	60.315	0.412	-0.413
-584.865	800.000	0.040	-0.159
-583.850	-60.581	-0.200	-0.086
-582.836	-3.574	0.236	-0.166
-581.821	-200.000	0.052	0.300
-580.806	61.119	-0.180	-0.181
-579.792	-154.657	0.177	0.012
-578.777	423.747	0.108	0.235
-577.763	453.360	-0.096	-0.215
-576.748	-122.639	0.349	0.057
-575.733	174.688	0.263	-0.385
-574.719	-200.000	-0.010	-0.057
-573.704	105.762	-0.129	-0.154
-572.690	281.126	0.143	0.259
-571.675	-105.230	-0.299	0.069
-570.661	60.774	-0.107	0.108
-569.646	345.388	-0.142	-0.282
-568.631	-200.000	-0.032	-0.297
-567.617	98.523	0.152	0.178
-566.602	800.000	-0.051	0.144
-565.588	392.340	-0.095	-0.200
-564.573	-200.000	-0.047	0.212
-563.558	61.779	-0.154	0.155
-562.544	115.286	0.087	0.108
-561.529	800.000	-0.072	-0.248
-560.515	800.000	-0.028	-0.111
-559.500	-200.000	-0.074	-0.434
-558.485	-200.000	-0.040	0.315
-557.471	-94.910	-0.270	-0.074
-556.456	-103.204	0.147	-0.035
-555.442	-78.613	0.208	-0.072
-554.427	-68.153	-0.116	0.046
-553.412	-53.915	-0.414	0.191
-552.398	800.000	0.027	-0.114
-551.383	34.258	-0.265	-0.234
-550.369	-53.519	0.150	-0.069
-549.354	-111.507	0.150	0.031
-548.339	800.000	0.118	-0.421
-547.325	15.133	-0.129	-0.102
-546.310	72.972	0.126	0.133
-545.296	6.995	0.131	0.098
-544.281	266.762	-0.146	0.259
-543.266	2.760	-0.053	0.039
-542.252	-200.000	-0.014	-0.183
-541.237	-115.460	0.240	-0.046
-540.223	95.031	-0.106	0.122
-539.208	213.253	-0.205	-0.327
-538.193	-93.260	-0.115	0.032
-537.179	-146.697	0.194	-0.017
-536.164	-200.000	-0.050	-0.255
-535.150	-200.000	0.006	-0.149
-534.135	101.494	0.101	-0.119
-533.121	800.000	0.065	0.257
-532.106	-31.628	-0.217	-0.123
-531.091	-76.034	0.029	0.010
-530.077	-22.217	-0.267	-0.164
-529.062	157.787	0.053	0.074
-528.048	-6.895	-0.220	-0.151
-527.033	66.396	-0.117	-0.120
-526.018	2.268	0.285	0.208
-525.004	-200.000	-0.050	-0.276
-523.989	-200.000	-0.031	-0.588
-522.975	-200.000	-0.024	0.235
-521.960	-200.000	-0.039	-0.179
-520.945	-200.000	0.047	0.337
-519.931	70.688	-0.064	0.067
-518.916	-138.857	0.277	0.030
-517.902	-117.733	-0.307	-0.056
-516.887	800.000	-0.071	-0.263
-515.872	86.076	-0.063	0.070
-514.858	800.000	-0.028	0.117
-513.843	50.868	-0.053	0.051
-512.829	-112.554	0.210	-0.042
-511.814	-143.533	-0.388	0.037
-510.799	2.349	-0.162	-0.118
-509.785	-163.857	0.258	0.012
-508.770	346.168	0.103	0.205
-507.756	-46.239	-0.100	0.050
-506.741	-53.483	0.235	-0.108
-505.726	80.259	-0.061	0.066
-504.712	767.532	0.086	0.236
-503.697	213.245	0.038	-0.061
-502.683	-122.217	0.272	0.045
-501.668	522.066	0.100	0.238
-500.653	-94.793	-0.105	0.029
-499.639	465.471	-0.132	-0.298
-498.624	544.154	-0.100	-0.240
-497.610	104.617	0.231	0.274
-496.595	-28.946	0.129	-0.075
-495.581	-76.098	0.214	0.076
-494.566	55.035	0.105	0.103
-493.551	-151.026	0.193	-0.015
-492.537	-200.000	-0.062	-0.293
-491.522	115.171	0.085	0.105
-490.508	-200.000	-0.057	-0.288
-489.493	234.879	0.125	-0.209
-488.478	-35.358	0.238	-0.131
-487.464	-90.075	-0.200	-0.059
-486.449	-155.992	-0.242	0.015
-485.435	-56.694	-0.345	0.154
-484.420	-36.973	-0.317	-0.171
-483.405	-200.000	0.001	-0.026
-482.391	-94.469	-0.444	-0.122
-481.376	93.914	0.156	-0.178
-480.362	444.410	-0.128	-0.283
-479.347	-6.212	0.308	0.212
-478.332	800.000	-0.030	-0.100
-477.318	139.542	0.123	0.163
-476.303	-43.317	-0.121	0.062
-475.289	-63.762	-0.150	-0.062
-474.274	-200.000	-0.026	0.148
-473.259	-200.000	-0.025	-0.246
-472.245	-65.361	0.205	-0.083
-471.230	-0.837	-0.181	0.129
-470.216	485.531	-0.042	-0.097
-469.201	-200.000	0.034	0.154
-468.186	-200.000	-0.016	0.147
-467.172	-200.000	0.051	-0.325
-466.157	439.558	0.143	0.316
-465.143	-53.730	-0.325	-0.149
-464.128	29.418	0.258	0.221
-463.113	-200.000	0.036	0.242
-462.099	-85.979	0.243	-0.076
-461.084	-157.401	-0.269	0.016
-460.070	-46.078	0.136	0.068
-459.055	92.524	0.174	-0.198
-458.040	-200.000	-0.023	-0.113
-457.026	800.000	0.045	-0.159
-456.011	-5.950	0.262	0.181
-454.997	780.218	0.112	0.308
-453.982	-9.273	-0.064	-0.043
-452.968	-189.906	0.130	-0.001
-451.953	-64.137	-0.266	-0.109
-450.938	-86.273	0.312	0.097
-449.924	254.664	0.131	0.226
-448.909	37.569	-0.170	-0.152
-447.895	59.561	-0.087	-0.086
-446.880	-175.401	-0.393	0.011
-445.865	-200.000	-0.002	0.183
-444.851	739.693	0.104	-0.280
-443.836	800.000	0.088	0.248
-442.822	50.960	0.300	0.287
-441.807	80.118	-0.220	0.238
-440.792	-200.000	0.012	0.191
-439.778	-117.500	0.399	0.073
-438.763	450.736	0.094	0.209
-437.749	-117.644	0.109	0.020
-436.734	-149.491	-0.383	-0.031
-435.719	6.342	0.146	-0.109
-434.705	18.396	-0.263	-0.212
-433.690	728.183	-0.057	0.153
-432.676	347.672	-0.160	-0.316
-431.661	-42.352	0.296	-0.152
-430.646	-200.000	0.049	-0.386
-429.632	-101.091	0.323	-0.080
-428.617	-158.918	0.018	0.001
-427.603	-124.747	0.029	-0.005
-426.588	27.044	0.206	0.174
-425.573	-115.542	0.326	-0.062
-424.559	9.063	0.260	-0.198
-423.544	-115.055	-0.128	0.024
-422.530	-72.375	-0.054	0.020
-421.515	527.737	0.057	-0.135
-420.500	111.846	0.025	-0.031
-419.486	-153.096	-0.270	-0.019
-418.471	800.000	-0.028	-0.121
-417.457	467.708	0.055	-0.124
-416.442	212.942	-0.113	0.180
-415.428	-200.000	0.090	-0.416
-414.413	-200.000	-0.018	-0.117
-413.398	-62.239	-0.024	-0.010
-412.384	334.437	-0.054	-0.105
-411.369	-61.432	0.127	-0.054
-410.355	123.762	0.079	-0.100
-409.340	8.793	-0.025	-0.019
-408.325	19.860	-0.192	0.155
-407.311	7.379	0.284	-0.214
-406.296	492.026	-0.143	-0.328
-405.282	800.000	-0.029	-0.106
-404.267	-9.782	0.058	0.039
-403.252	779.670	-0.091	0.251
-402.238	0.713	-0.130	0.093
-401.223	211.693	0.070	-0.110
-400.209	-78.491	0.034	-0.012
-399.194	43.592	0.035	0.032
-398.179	-178.923	0.241	0.005
-397.165	-200.000	-0.023	-0.177
-396.150	-200.000	0.057	-0.286
-395.136	33.771	0.060	-0.052
-394.121	347.200	-0.051	-0.100
-393.106	-122.886	0.037	-0.006
-392.092	-49.084	0.152	-0.073
-391.077	-200.000	0.012	-0.188
-390.063	-65.938	-0.152	0.061
-389.048	182.599	-0.244	0.361
-388.033	-95.572	-0.130	0.035
-387.019	-172.450	0.189	-0.006
-386.004	-200.000	-0.020	-0.243
-384.990	25.445	-0.040	-0.033
-383.975	465.272	0.083	0.186
-382.960	-146.270	-0.181	-0.016
-381.946	91.761	0.188	0.212
-380.931	38.733	-0.224	0.201
-379.917	-63.201	-0.235	0.097
-378.902	-200.000	-0.024	-0.237
-377.888	-163.018	0.046	-0.002
-376.873	800.000	0.031	0.117
-375.858	-163.955	0.203	-0.009
-374.844	-47.833	-0.092	0.045
-373.829	-98.032	-0.261	-0.067
-372.815	-142.030	0.338	-0.034
-371.800	-138.692	0.347	0.038
-370.785	-200.000	0.078	-0.448
-369.771	-70.139	0.407	-0.156
-368.756	-200.000	-0.007	0.229
-367.742	-200.000	0.012	0.116
-366.727	-200.000	-0.028	0.235
-365.712	352.238	0.151	0.301
-364.698	-94.153	-0.424	0.117
-363.683	-157.851	-0.224	-0.013
-362.669	106.921	-0.080	-0.096
-361.654	-29.078	0.377	0.217
-360.639	177.236	0.225	0.329
-359.625	16.059	0.324	0.256
-358.610	-200.000	0.053	0.300
-357.596	299.937	0.050	-0.093
-356.581	102.721	0.066	0.078
-355.566	-200.000	0.024	-0.120
-354.552	-164.094	0.270	0.013
-353.537	-14.207	0.177	0.115
-352.523	800.000	0.076	-0.232
-351.508	-200.000	0.000	0.074
-350.493	-42.414	-0.104	-0.053
-349.479	3.557	0.089	0.065
-348.464	-200.000	0.031	0.178
-347.450	-1.640	0.313	0.221
-346.435	-152.623	-0.022	0.002
-345.420	-200.000	0.012	0.085
-344.406	-51.664	0.113	-0.053
-343.391	433.408	-0.063	0.136
-342.377	-53.448	-0.238	0.109
-341.362	785.102	-0.065	-0.179
-340.348	85.909	0.049	0.054
-339.333	81.429	0.278	0.301
-338.318	-32.699	-0.097	-0.054
-337.304	34.274	0.209	-0.183
-336.289	-200.000	-0.053	0.404
-335.275	37.896	-0.123	0.110
-334.260	-163.681	0.168	0.008
-333.245	324.455	-0.136	0.261
-332.231	-200.000	0.008	-0.176
-331.216	85.843	0.111	0.122
-330.202	-27.702	0.398	-0.232
-329.187	-23.521	-0.396	-0.238
-328.172	300.306	-0.147	-0.271
-327.158	800.000	0.052	-0.211
-326.143	-16.455	0.163	-0.104
-325.129	184.209	0.080	-0.118
-324.114	-154.535	-0.234	0.016
-323.099	-5.795	-0.188	0.129
-322.085	151.600	0.065	0.088
-321.070	-200.000	-0.009	0.246
-320.056	800.000	-0.057	0.172
-319.041	-200.000	0.360	-0.000
-318.026	800.000	-0.054	0.189
-317.012	-53.281	0.234	-0.107
-315.997	5.998	0.178	-0.132
-314.983	206.995	0.146	0.228
-313.968	-157.838	-0.251	0.015
-312.953	-10.921	-0.179	-0.118
-311.939	737.491	0.076	-0.205
-310.924	-102.639	0.188	-0.045
-309.910	-92.277	-0.291	-0.082
-308.895	-91.208	-0.242	-0.069
-307.880	-200.000	-0.030	-0.140
-306.866	800.000	-0.118	-0.484
-305.851	174.748	0.075	-0.108
-304.837	80.994	-0.080	-0.086
-303.822	-95.428	-0.272	0.073
-302.807	-200.000	0.019	-0.152
-301.793	-92.720	0.268	0.075
-300.778	-200.000	-0.017	-0.260
-299.764	-29.296	-0.146	0.084
-298.749	800.000	0.126	0.474
-297.735	-103.247	-0.069	-0.016
-296.720	610.942	0.030	0.074
-295.705	241.476	-0.031	-0.052
-294.691	184.890	0.184	0.274
-293.676	26.838	-0.254	0.213
-292.662	177.162	0.106	0.154
-291.647	619.636	-0.122	-0.308
-290.632	-70.947	-0.030	-0.011
-289.618	435.727	0.300	0.653
-288.603	-182.807	0.189	-0.003
-287.589	-83.575	0.183	0.058
-286.574	74.366	-0.093	-0.098
-285.559	-141.270	0.181	-0.018
-284.545	-37.092	-0.036	-0.019
-283.530	800.000	-0.069	-0.238
-282.516	-17.455	0.280	0.176
-281.501	800.000	-0.060	0.217
-280.486	248.667	0.089	0.151
-279.472	-114.547	-0.156	0.030
-278.457	-69.205	-0.105	0.040
-277.443	-200.000	-0.032	-0.251
-276.428	207.546	-0.070	0.110
-275.413	-200.000	-0.005	0.045
-274.399	-66.533	0.174	-0.069
-273.384	83.027	-0.291	0.316
-272.370	-27.425	0.507	0.295
-271.355	-20.281	-0.304	0.187
-270.340	5.313	-0.178	-0.132
-269.326	-73.081	0.146	0.053
-268.311	-200.000	-0.049	-0.499
-267.297	800.000	-0.032	-0.102
-266.282	-200.000	-0.043	0.259
-265.267	174.085	0.062	0.090
-264.253	180.559	-0.355	-0.521
-263.238	472.470	-0.016	-0.036
-262.224	24.452	-0.256	-0.211
-261.209	800.000	-0.050	-0.175
-260.195	154.639	0.092	-0.126
-259.180	-93.379	-0.172	-0.048
-258.165	-181.883	0.638	0.012
-257.151	-200.000	-0.036	-0.184
-256.136	96.381	0.025	0.029
-255.122	-21.443	-0.120	-0.073
-254.107	-200.000	0.014	-0.261
-253.092	-200.000	0.021	-0.126
-252.078	-200.000	-0.025	-0.185
-251.063	-200.000	0.135	0.000
-250.049	-58.776	0.073	0.032
-249.034	-200.000	-0.041	0.230
-248.019	-62.049	-0.212	0.089
-247.005	-200.000	0.014	0.341
-245.990	-200.000	-0.063	-0.408
-244.976	-132.865	0.291	-0.037
-243.961	567.518	-0.037	-0.090
-242.946	-184.153	-0.308	0.005
-241.932	-78.967	-0.227	-0.077
-240.917	-82.598	-0.152	0.049
-239.903	226.954	0.110	0.179
-238.888	398.984	-0.254	0.531
-237.873	-37.506	0.211	0.113
-236.859	512.192	0.188	0.437
-235.844	800.000	0.062	-0.225
-234.830	-125.086	-0.124	0.019
-233.815	-104.598	-0.153	0.035
-232.800	109.546	-0.126	0.151
-231.786	-200.000	0.003	0.203
-230.771	-123.861	-0.096	-0.015
-229.757	-90.378	-0.143	0.042
-228.742	300.607	-0.062	-0.114
-227.727	646.505	-0.073	0.187
-226.713	224.960	-0.053	-0.086
-225.698	33.413	-0.081	-0.070
-224.684	-200.000	-0.047	0.272
-223.669	-63.600	-0.216	-0.088
-222.655	35.630	0.159	0.139
-221.640	-125.831	0.140	-0.021
-220.625	-200.000	-0.058	0.355
-219.611	800.000	0.023	0.069
-218.596	-125.775	-0.322	0.049
-217.582	-89.163	-0.076	-0.023
-216.567	202.939	0.214	0.330
-215.552	57.027	-0.113	0.110
-214.538	800.000	0.101	-0.315
-213.523	-31.513	0.206	-0.116
-212.509	-3.643	-0.216	-0.150
-211.494	-62.429	-0.137	0.057
-210.479	-100.755	0.312	-0.077
-209.465	-16.021	-0.121	0.077
-208.450	539.101	0.094	0.222
-207.436	-200.000	0.005	-0.028
-206.421	800.000	0.032	0.098
-205.406	102.626	-0.213	-0.249
-204.392	-82.360	0.131	-0.042
-203.377	-20.731	-0.123	0.075
-202.363	-131.800	-0.136	-0.018
-201.348	87.799	0.170	0.188
-200.333	-93.944	0.236	0.065
-199.319	248.213	-0.056	0.094
-198.304	599.194	0.048	-0.120
-197.290	800.000	0.074	0.272
-196.275	174.223	-0.219	-0.316
-195.260	-65.254	-0.088	0.035
-194.246	8.280	-0.297	-0.223
-193.231	-200.000	0.026	0.121
-192.217	-92.321	-0.072	0.020
-191.202	800.000	-0.070	-0.265
-190.187	616.762	0.064	-0.159
-189.173	-48.033	0.220	-0.106
-188.158	-38.668	-0.120	-0.063
-187.144	651.903	0.193	0.493
-186.129	-48.106	-0.038	-0.018
-185.114	-167.422	0.119	0.005
-184.100	32.257	-0.106	-0.091
-183.085	-200.000	-0.158	-0.001
-182.071	-52.461	-0.085	0.039
-181.056	280.248	0.022	0.038
-180.042	3.989	0.107	0.078
-179.027	-37.799	-0.258	0.137
-178.012	376.532	-0.045	-0.091
-176.998	-200.000	-0.031	0.266
-175.983	134.298	-0.142	0.183
-174.969	170.876	-0.119	0.170
-173.954	508.682	0.092	0.214
-172.939	-200.000	-0.031	-0.242
-171.925	51.833	0.017	-0.016
-170.910	95.934	-0.224	-0.255
-169.896	-35.540	-0.388	-0.210
-168.881	-112.464	0.274	0.054
-167.866	143.108	0.179	-0.237
-166.852	-200.000	0.030	-0.139
-165.837	-200.000	-0.048	0.356
-164.823	-5.824	-0.190	0.130
-163.808	396.966	-0.231	0.480
-162.793	-36.342	-0.212	-0.114
-161.779	64.666	-0.228	0.229
-160.764	-94.076	-0.073	0.020
-159.750	800.000	0.093	0.398
-158.735	-75.862	-0.525	0.185
-157.720	-32.317	0.122	-0.068
-156.706	4.498	0.245	-0.179
-155.691	-18.715	-0.268	0.166
-154.677	800.000	-0.070	0.295
-153.662	-57.068	0.133	-0.058
-152.647	589.999	-0.108	0.266
-151.633	113.295	0.009	-0.011
-150.618	800.000	-0.085	-0.347
-149.604	800.000	0.022	0.071
-148.589	275.139	0.091	0.161
-147.574	-80.948	0.433	0.143
-146.560	-10.572	-0.098	0.064
-145.545	800.000	0.008	-0.026
-144.531	-10.592	0.238	0.157
-143.516	-50.616	-0.161	-0.076
-142.502	800.000	0.063	-0.264
-141.487	-100.262	-0.196	0.048
-140.472	248.444	0.086	-0.144
-139.458	-89.165	0.169	0.050
-138.443	-58.818	0.380	0.164
-137.429	-109.246	-0.302	0.064
-136.414	-119.962	-0.327	0.056
-135.399	-200.000	-0.089	0.418
-134.385	-200.000	-0.003	-0.071
-133.370	-95.409	-0.481	-0.129
-132.356	-113.625	0.012	0.002
-131.341	461.548	-0.093	0.207
-130.326	-200.000	-0.005	-0.138
-129.312	-200.000	-0.011	-0.361
-128.297	-200.000	-0.013	0.097
-127.283	-151.530	-0.271	0.020
-126.268	29.470	0.134	-0.113
-125.253	74.443	0.079	0.082
-124.239	800.000	0.123	0.352
-123.224	119.915	0.118	0.145
-122.210	-119.014	0.311	0.054
-121.195	11.736	0.078	-0.060
