DTS Sentinel unit serial number:	SN413079Multiplexer serial number:	ORYXHardware model number:	OX4-SRSoftware version number:	ORYX F/W v4.00 Oryx Data Collector v3.7.2.0data status	okinstallation	princeton_trtdifferential loss correction	single-endedforward channel	channel 2reverse channel	N/Adate	2019/09/15time	07:35:35forward acquisition time	60.00reverse acquisition time	0.00gamma	496.2192k internal	0.2326k external	0.2326temperature offset calibration	1.0037default loss term (dB/km)	0.3790temperature slope calibration	1.0000multiplexer offset coefficient	1.0000multiplexer slope coefficient	1.0000fibre end	0.00T internal ref (°C)	30.61T ext. ref 1 (°C)	4.97T ext. ref 2 (°C)	25.41length (m)	temperature (°C)	Stokes	anti-Stokes-747.200	280.286	0.078	-0.140
-746.185	113.690	0.101	0.123
-745.171	5.320	-0.425	-0.316
-744.156	290.004	0.091	0.167
-743.142	-84.522	-0.074	0.024
-742.127	521.257	0.058	0.138
-741.112	304.239	0.127	-0.237
-740.098	-39.929	-0.401	-0.211
-739.083	552.336	0.053	0.128
-738.069	153.991	-0.272	0.376
-737.054	-200.000	0.043	0.189
-736.039	33.373	-0.118	0.103
-735.025	-181.217	0.335	-0.007
-734.010	-45.711	-0.225	-0.112
-732.996	-200.000	0.012	-0.073
-731.981	309.405	0.120	-0.226
-730.966	646.117	0.011	-0.029
-729.952	800.000	0.034	-0.101
-728.937	13.203	0.259	-0.203
-727.923	370.239	0.123	0.251
-726.908	-124.126	-0.243	0.038
-725.894	-200.000	0.008	0.160
-724.879	-93.808	0.186	0.052
-723.864	-40.276	-0.331	0.174
-722.850	16.979	0.161	-0.129
-721.835	-18.867	0.163	0.103
-720.821	-66.482	0.283	-0.113
-719.806	-166.303	-0.341	0.014
-718.791	-104.173	-0.232	-0.054
-717.777	-107.190	-0.360	0.080
-716.762	-137.672	0.005	0.001
-715.748	264.557	-0.078	-0.137
-714.733	-176.821	-0.123	-0.003
-713.718	-44.766	-0.406	-0.204
-712.704	2.093	0.094	-0.068
-711.689	800.000	0.015	-0.047
-710.675	80.207	-0.123	-0.133
-709.660	-2.731	-0.136	-0.096
-708.645	542.351	0.115	0.275
-707.631	87.905	0.046	0.051
-706.616	800.000	-0.022	-0.088
-705.602	-171.458	0.188	0.006
-704.587	-200.000	-0.004	0.169
-703.572	-200.000	0.004	0.205
-702.558	325.894	-0.073	-0.141
-701.543	-5.982	-0.147	-0.102
-700.529	137.889	0.069	0.091
-699.514	-200.000	-0.009	-0.148
-698.499	99.011	0.134	0.156
-697.485	-94.312	-0.175	0.048
-696.470	-32.923	0.255	-0.143
-695.456	-200.000	0.060	0.372
-694.441	-42.267	0.106	-0.054
-693.426	-200.000	0.004	0.118
-692.412	-127.480	0.225	-0.033
-691.397	-181.593	-0.346	0.007
-690.383	-111.469	-0.360	-0.074
-689.368	-93.331	-0.182	-0.051
-688.354	-200.000	-0.003	-0.248
-687.339	224.164	0.110	-0.179
-686.324	-76.615	0.239	0.084
-685.310	800.000	0.055	-0.181
-684.295	-200.000	-0.013	-0.130
-683.281	-200.000	-0.076	-0.500
-682.266	-106.801	-0.223	-0.050
-681.251	-10.236	-0.249	0.167
-680.237	-41.718	-0.281	0.145
-679.222	-86.159	-0.312	-0.097
-678.208	-42.866	0.419	-0.214
-677.193	-200.000	0.044	0.239
-676.178	800.000	0.132	0.551
-675.164	37.298	0.077	0.068
-674.149	-10.511	-0.076	-0.051
-673.135	112.025	-0.124	-0.151
-672.120	-200.000	0.077	-0.385
-671.105	-200.000	-0.006	0.201
-670.091	-200.000	0.003	-0.282
-669.076	800.000	0.082	0.246
-668.062	185.493	-0.194	-0.290
-667.047	-4.668	-0.220	0.153
-666.032	281.670	0.151	0.273
-665.018	-161.742	-0.190	0.010
-664.003	800.000	-0.040	-0.114
-662.989	-200.000	-0.017	0.102
-661.974	-181.138	0.335	-0.007
-660.959	18.709	-0.306	-0.246
-659.945	549.773	0.101	-0.243
-658.930	-171.864	0.355	0.012
-657.916	-86.108	0.079	-0.024
-656.901	-34.882	0.093	-0.051
-655.886	625.937	0.024	0.060
-654.872	800.000	-0.061	-0.203
-653.857	-123.644	0.207	0.033
-652.843	-40.494	-0.199	0.104
-651.828	339.330	0.126	-0.246
-650.814	-89.047	-0.190	0.056
-649.799	16.134	-0.176	-0.140
-648.784	800.000	-0.016	-0.048
-647.770	-130.156	0.289	0.040
-646.755	455.460	-0.112	0.249
-645.741	-200.000	-0.005	0.027
-644.726	95.257	0.098	-0.113
-643.711	800.000	0.042	-0.130
-642.697	-40.177	0.113	-0.059
-641.682	-46.727	-0.190	-0.093
-640.668	274.404	0.128	-0.228
-639.653	49.165	0.210	0.199
-638.638	-13.096	-0.088	0.057
-637.624	-181.021	-0.347	-0.007
-636.609	-40.976	0.121	0.063
-635.595	-200.000	0.061	-0.279
-634.580	-28.357	0.300	-0.174
-633.565	800.000	-0.139	-0.405
-632.551	-99.250	-0.239	-0.061
-631.536	41.662	0.201	-0.183
-630.522	47.366	-0.254	-0.237
-629.507	287.192	-0.101	-0.183
-628.492	162.767	0.031	-0.044
-627.478	-149.378	-0.132	-0.011
-626.463	11.016	0.224	0.172
-625.449	-200.000	0.025	0.228
-624.434	243.957	0.111	0.187
-623.419	138.350	0.125	-0.164
-622.405	577.376	-0.143	-0.352
-621.390	-125.024	0.163	-0.025
-620.376	-200.000	0.059	0.385
-619.361	-20.239	0.121	-0.075
-618.346	800.000	-0.056	-0.172
-617.332	170.768	-0.100	-0.144
-616.317	646.053	-0.104	0.265
-615.303	29.520	-0.250	-0.214
-614.288	5.263	0.106	0.078
-613.273	450.607	-0.113	-0.249
-612.259	-177.517	0.427	0.010
-611.244	-200.000	0.097	-0.465
-610.230	-6.006	-0.515	0.353
-609.215	368.006	0.117	0.238
-608.201	4.568	-0.251	0.185
-607.186	32.085	0.120	0.104
-606.171	685.725	0.088	0.230
-605.157	-60.868	-0.099	0.042
-604.142	87.377	0.054	-0.060
-603.128	-72.482	0.218	-0.081
-602.113	74.086	-0.287	-0.302
-601.098	-11.859	-0.241	0.159
-600.084	-0.796	0.260	-0.185
-599.069	55.838	-0.248	-0.241
-598.055	-96.898	0.478	-0.126
-597.040	-200.000	-0.063	0.324
-596.025	800.000	-0.010	0.042
-595.011	80.956	0.181	-0.196
-593.996	-54.332	-0.077	-0.035
-592.982	-82.241	-0.232	-0.076
-591.967	-129.751	0.317	0.044
-590.952	20.655	0.133	-0.108
-589.938	-100.359	-0.314	-0.078
-588.923	-93.294	-0.250	-0.070
-587.909	800.000	0.048	-0.183
-586.894	-13.699	0.276	-0.179
-585.879	-36.832	-0.122	0.066
-584.865	-200.000	-0.001	-0.110
-583.850	800.000	0.064	0.256
-582.836	-85.102	0.310	0.097
-581.821	-82.766	-0.063	0.021
-580.806	78.778	0.133	0.143
-579.792	110.291	0.143	0.173
-578.777	-46.061	0.379	0.187
-577.763	-58.227	0.265	-0.115
-576.748	99.394	-0.110	-0.128
-575.733	203.880	-0.157	0.243
-574.719	-25.715	0.059	0.035
-573.704	-200.000	-0.005	-0.269
-572.690	62.470	-0.027	-0.027
-571.675	-44.490	-0.227	0.114
-570.661	-24.392	0.094	0.056
-569.646	-26.206	-0.175	-0.103
-568.631	-48.186	0.499	0.241
-567.617	800.000	0.090	0.277
-566.602	-9.620	-0.161	0.107
-565.588	-97.075	0.358	0.094
-564.573	131.645	-0.087	-0.112
-563.558	-121.232	0.142	-0.024
-562.544	118.521	-0.136	0.169
-561.529	29.369	-0.055	-0.047
-560.515	-61.267	-0.285	0.120
-559.500	-200.000	-0.016	-0.192
-558.485	279.168	-0.082	0.147
-557.471	-87.094	0.291	0.089
-556.456	214.970	-0.087	0.138
-555.442	-125.097	-0.165	-0.025
-554.427	-120.211	-0.142	0.024
-553.412	-116.730	0.147	-0.027
-552.398	-38.956	0.034	-0.018
-551.383	-32.060	-0.323	0.181
-550.369	105.390	0.158	0.187
-549.354	-57.654	-0.386	-0.169
-548.339	-70.571	-0.050	0.019
-547.325	-32.435	-0.209	-0.117
-546.310	74.614	-0.213	0.225
-545.296	228.177	-0.058	0.095
-544.281	126.633	-0.201	-0.254
-543.266	-134.575	-0.164	0.020
-542.252	2.200	-0.052	-0.038
-541.237	-200.000	0.017	-0.387
-540.223	-108.416	-0.327	0.071
-539.208	-153.891	0.236	-0.016
-538.193	10.765	-0.151	0.116
-537.179	-200.000	0.009	0.099
-536.164	-200.000	-0.004	-0.445
-535.150	595.628	-0.128	0.316
-534.135	277.813	-0.122	0.218
-533.121	-200.000	0.041	-0.283
-532.106	48.929	0.186	0.174
-531.091	-59.268	0.273	0.118
-530.077	306.448	-0.099	0.184
-529.062	-172.284	0.295	-0.009
-528.048	-200.000	0.024	-0.220
-527.033	234.138	0.018	-0.029
-526.018	5.610	0.167	0.123
-525.004	19.402	0.305	0.245
-523.989	-26.088	0.068	-0.040
-522.975	-59.896	-0.155	-0.066
-521.960	68.506	-0.040	0.041
-520.945	-173.652	0.276	0.008
-519.931	-103.955	-0.137	0.032
-518.916	-156.962	-0.115	0.007
-517.902	-25.100	-0.053	-0.032
-516.887	-200.000	0.005	-0.043
-515.872	209.654	-0.203	0.318
-514.858	800.000	-0.108	0.416
-513.843	231.461	-0.057	0.093
-512.829	-200.000	0.016	-0.389
-511.814	-7.203	0.219	-0.148
-510.799	-41.688	-0.360	-0.185
-509.785	-7.003	-0.068	0.046
-508.770	-82.894	-0.037	-0.012
-507.756	-200.000	-0.012	0.202
-506.741	185.132	0.200	-0.297
-505.726	57.704	-0.227	-0.222
-504.712	-81.398	0.182	-0.060
-503.697	3.836	0.255	0.186
-502.683	-97.066	0.121	-0.032
-501.668	-153.621	0.084	-0.006
-500.653	330.872	0.097	-0.187
-499.639	-200.000	-0.015	-0.306
-498.624	56.366	0.026	0.025
-497.610	800.000	0.007	0.028
-496.595	94.763	-0.177	-0.201
-495.581	79.630	0.197	0.211
-494.566	4.693	-0.057	-0.042
-493.551	-166.490	0.334	0.014
-492.537	800.000	0.042	0.144
-491.522	68.029	0.089	-0.090
-490.508	679.182	0.084	-0.218
-489.493	-102.444	0.101	0.024
-488.478	-200.000	-0.004	0.254
-487.464	-107.591	-0.120	0.026
-486.449	-159.043	-0.461	-0.026
-485.435	-200.000	-0.004	-0.040
-484.420	54.439	-0.050	-0.048
-483.405	-94.143	0.275	0.075
-482.391	-57.282	-0.311	-0.136
-481.376	219.476	0.200	0.319
-480.362	-25.974	-0.293	-0.172
-479.347	162.201	0.229	0.320
-478.332	123.344	0.079	-0.098
-477.318	-62.621	0.250	-0.104
-476.303	-159.068	-0.396	0.022
-475.289	30.410	0.121	-0.103
-474.274	-195.526	-0.355	-0.003
-473.259	-15.680	-0.073	-0.047
-472.245	483.421	0.054	-0.122
-471.230	171.272	0.113	0.162
-470.216	99.976	0.104	0.121
-469.201	-36.321	-0.073	-0.039
-468.186	-144.070	0.091	0.009
-467.172	-129.124	-0.491	-0.068
-466.157	299.171	-0.045	-0.083
-465.143	151.641	-0.157	-0.213
-464.128	-200.000	-0.000	-0.394
-463.113	-119.508	0.189	0.033
-462.099	-200.000	-0.025	-0.164
-461.084	268.715	-0.204	-0.358
-460.070	-200.000	-0.025	0.255
-459.055	-8.455	0.123	0.083
-458.040	28.436	0.126	-0.106
-457.026	-200.000	0.008	-0.295
-456.011	85.079	-0.155	-0.170
-454.997	385.248	-0.013	0.026
-453.982	-152.591	0.059	-0.004
-452.968	-19.157	-0.114	0.070
-451.953	-47.013	0.145	0.071
-450.938	39.731	0.320	0.286
-449.924	-200.000	0.031	0.156
-448.909	630.434	0.035	0.087
-447.895	82.736	-0.230	-0.249
-446.880	13.668	0.157	-0.122
-445.865	6.860	0.352	-0.261
-444.851	-200.000	0.058	-0.311
-443.836	800.000	-0.069	-0.247
-442.822	-61.361	0.010	0.004
-441.807	-30.883	0.188	-0.106
-440.792	800.000	-0.045	-0.132
-439.778	90.383	0.154	-0.172
-438.763	102.040	0.183	-0.213
-437.749	-200.000	0.013	-0.274
-436.734	6.773	0.194	0.144
-435.719	-56.331	-0.184	-0.081
-434.705	54.168	-0.057	-0.055
-433.690	-200.000	-0.074	0.400
-432.676	35.326	0.169	0.147
-431.661	40.046	-0.214	-0.192
-430.646	-200.000	0.010	-0.310
-429.632	-41.863	-0.182	0.093
-428.617	800.000	0.044	0.142
-427.603	-138.043	0.347	-0.039
-426.588	363.010	-0.127	0.255
-425.573	716.254	0.061	0.161
-424.559	357.344	-0.123	-0.244
-423.544	120.289	0.166	-0.206
-422.530	114.285	-0.153	-0.186
-421.515	96.171	0.121	-0.138
-420.500	277.501	-0.089	-0.158
-419.486	-200.000	0.010	-0.176
-418.471	436.191	0.123	-0.267
-417.457	299.083	0.064	0.117
-416.442	484.731	-0.062	0.140
-415.428	-127.024	-0.044	-0.006
-414.413	430.808	-0.082	-0.177
-413.398	58.788	-0.351	0.343
-412.384	-94.857	0.031	0.008
-411.369	467.751	0.082	-0.184
-410.355	-166.517	-0.278	0.012
-409.340	-146.400	-0.073	-0.006
-408.325	307.130	-0.140	0.260
-407.311	-90.546	-0.116	0.033
-406.296	-170.354	-0.162	-0.006
-405.282	-140.320	-0.280	-0.029
-404.267	2.978	-0.210	0.152
-403.252	-19.984	-0.253	0.155
-402.238	208.128	0.203	-0.316
-401.223	181.910	-0.052	-0.076
-400.209	184.884	-0.096	0.142
-399.194	96.050	0.119	-0.135
-398.179	316.422	0.043	-0.081
-397.165	242.557	0.042	-0.070
-396.150	105.842	0.093	-0.110
-395.136	118.280	-0.154	0.189
-394.121	59.293	-0.172	0.168
-393.106	800.000	-0.058	-0.167
-392.092	800.000	-0.121	0.373
-391.077	-85.757	-0.504	-0.156
-390.063	-123.372	0.021	0.003
-389.048	65.386	-0.142	0.143
-388.033	-200.000	0.040	0.191
-387.019	250.770	-0.101	0.171
-386.004	72.923	-0.194	0.201
-384.990	-0.414	0.067	0.048
-383.975	-20.961	0.306	-0.187
-382.960	388.981	0.068	0.140
-381.946	-50.678	0.178	-0.083
-380.931	767.746	0.062	-0.168
-379.917	-52.447	-0.150	-0.069
-378.902	-91.149	-0.123	0.035
-377.888	405.804	0.109	0.229
-376.873	361.395	0.038	0.076
-375.858	-46.641	0.089	0.043
-374.844	-200.000	-0.005	0.182
-373.829	-26.379	-0.240	0.140
-372.815	279.089	0.081	0.144
-371.800	-200.000	-0.064	-0.351
-370.785	295.076	-0.104	0.190
-369.771	-64.796	-0.118	-0.047
-368.756	111.648	-0.256	-0.307
-367.742	276.932	-0.056	-0.099
-366.727	-109.897	-0.043	0.009
-365.712	-28.329	0.137	0.078
-364.698	82.631	0.104	0.113
-363.683	45.588	0.121	-0.111
-362.669	800.000	0.076	-0.284
-361.654	507.488	-0.160	-0.369
-360.639	152.063	0.300	0.407
-359.625	703.851	0.072	0.188
-358.610	-32.461	-0.130	-0.072
-357.596	-19.961	0.219	0.135
-356.581	800.000	0.054	0.228
-355.566	-37.607	0.119	-0.063
-354.552	92.869	0.074	-0.083
-353.537	-200.000	0.061	0.269
-352.523	103.753	-0.189	0.220
-351.508	-22.144	0.231	-0.139
-350.493	683.950	-0.095	0.246
-349.479	-6.591	0.185	0.125
-348.464	-3.358	0.090	0.062
-347.450	-143.471	0.227	-0.022
-346.435	301.035	-0.075	0.138
-345.420	311.637	-0.122	-0.227
-344.406	489.568	-0.053	-0.119
-343.391	-49.378	-0.187	0.089
-342.377	-126.627	-0.164	0.024
-341.362	-140.664	-0.338	-0.035
-340.348	65.993	0.183	-0.185
-339.333	-183.649	0.392	0.007
-338.318	-126.782	0.141	0.021
-337.304	104.836	0.175	-0.205
-336.289	-200.000	0.036	-0.194
-335.275	-200.000	0.023	0.222
-334.260	800.000	0.041	-0.122
-333.245	-200.000	0.028	0.401
-332.231	-50.380	0.385	0.181
-331.216	-180.441	0.345	0.007
-330.202	-119.023	-0.475	0.083
-329.187	-173.537	-0.220	-0.007
-328.172	800.000	0.081	-0.271
-327.158	800.000	0.095	0.306
-326.143	579.343	-0.081	0.196
-325.129	-124.928	0.332	-0.051
-324.114	221.819	0.089	-0.142
-323.099	3.710	-0.077	0.056
-322.085	-19.769	-0.314	-0.193
-321.070	110.221	0.146	0.174
-320.056	120.063	0.194	-0.239
-319.041	-14.708	-0.085	-0.054
-318.026	-176.279	0.158	-0.004
-317.012	-128.425	0.100	-0.014
-315.997	-182.820	0.519	-0.009
-314.983	-200.000	0.012	-0.243
-313.968	24.343	0.093	0.076
-312.953	800.000	-0.016	-0.061
-311.939	484.400	-0.065	0.147
-310.924	505.086	-0.100	0.229
-309.910	49.471	0.194	-0.181
-308.895	540.525	-0.100	-0.236
-307.880	334.464	0.111	0.213
-306.866	100.458	0.183	0.210
-305.851	-153.259	-0.181	0.013
-304.837	-110.359	0.035	0.007
-303.822	-53.014	0.359	0.164
-302.807	-96.531	0.062	0.016
-301.793	800.000	0.044	0.178
-300.778	110.313	0.063	-0.075
-299.764	11.830	-0.110	0.084
-298.749	-200.000	0.013	0.451
-297.735	-83.695	0.121	-0.038
-296.720	-83.185	0.151	-0.048
-295.705	209.704	0.236	0.367
-294.691	-49.750	0.231	-0.109
-293.676	-157.291	0.170	-0.010
-292.662	-41.772	-0.223	0.114
-291.647	176.525	-0.163	-0.235
-290.632	-200.000	0.033	-0.172
-289.618	612.876	-0.048	0.118
-288.603	8.550	-0.246	0.184
-287.589	-104.201	0.228	-0.053
-286.574	64.073	0.188	0.188
-285.559	-166.349	-0.223	0.009
-284.545	-200.000	0.062	-0.340
-283.530	510.762	-0.175	0.403
-282.516	-162.224	-0.216	0.011
-281.501	-78.208	0.111	0.038
-280.486	-13.514	0.165	0.106
-279.472	-67.083	-0.304	-0.119
-278.457	-52.839	0.168	-0.077
-277.443	-148.400	-0.383	-0.031
-276.428	-43.064	0.287	-0.144
-275.413	176.496	-0.127	-0.183
-274.399	-200.000	0.024	0.205
-273.384	-200.000	-0.006	-0.059
-272.370	-32.360	-0.015	-0.008
-271.355	579.027	-0.082	0.198
-270.340	34.638	-0.207	0.180
-269.326	-81.212	-0.289	-0.094
-268.311	-125.353	-0.289	-0.044
-267.297	-112.112	-0.191	0.038
-266.282	-51.069	-0.231	-0.107
-265.267	-92.771	-0.061	0.017
-264.253	-200.000	-0.042	-0.386
-263.238	69.925	0.196	-0.200
-262.224	0.529	0.089	0.063
-261.209	-200.000	0.021	0.274
-260.195	-126.777	-0.262	-0.038
-259.180	-200.000	0.012	-0.097
-258.165	175.067	0.044	-0.063
-257.151	291.612	0.181	0.325
-256.136	72.649	-0.118	0.122
-255.122	-88.640	0.430	0.127
-254.107	13.499	-0.261	0.200
-253.092	-145.581	0.282	0.025
-252.078	-40.636	0.112	0.057
-251.063	9.106	0.153	-0.114
-250.049	-86.438	0.104	0.031
-249.034	25.109	0.121	0.099
-248.019	148.767	0.070	0.094
-247.005	-200.000	-0.007	0.107
-245.990	-183.053	-0.193	0.003
-244.976	-70.400	-0.284	-0.107
-243.961	263.697	0.026	-0.045
-242.946	-129.385	0.086	-0.012
-241.932	-132.099	-0.178	0.023
-240.917	-80.162	0.100	-0.033
-239.903	-198.521	-0.136	-0.001
-238.888	779.328	-0.020	-0.055
-237.873	-200.000	0.005	0.130
-236.859	800.000	-0.021	0.076
-235.844	-86.570	-0.517	0.157
-234.830	140.179	0.131	-0.171
-233.815	41.491	-0.081	0.072
-232.800	230.145	-0.207	0.334
-231.786	800.000	-0.038	-0.124
-230.771	-200.000	-0.006	-0.252
-229.757	-200.000	-0.020	-0.133
-228.742	-200.000	0.032	0.221
-227.727	23.172	-0.221	-0.180
-226.713	47.050	-0.221	-0.204
-225.698	-200.000	-0.076	-0.408
-224.684	115.573	-0.019	-0.022
-223.669	-4.229	0.089	0.061
-222.655	-200.000	0.008	-0.038
-221.640	304.835	-0.191	-0.350
-220.625	-200.000	0.004	-0.221
-219.611	-178.184	0.356	0.008
-218.596	45.632	0.319	0.291
-217.582	-39.095	0.116	0.060
-216.567	-200.000	-0.022	-0.220
-215.552	-200.000	0.001	-0.047
-214.538	471.974	0.086	-0.192
-213.523	-70.626	-0.121	-0.045
-212.509	37.026	-0.229	0.200
-211.494	107.178	-0.099	-0.116
-210.479	-140.386	0.146	-0.015
-209.465	137.563	-0.099	0.128
-208.450	-190.732	-0.035	-0.000
-207.436	-45.368	-0.168	-0.082
-206.421	-33.124	0.229	-0.125
-205.406	800.000	0.052	-0.206
-204.392	244.225	0.119	-0.197
-203.377	105.455	-0.031	0.036
-202.363	-43.376	-0.230	-0.115
-201.348	-122.836	0.313	0.050
-200.333	296.861	0.086	0.155
-199.319	-124.654	-0.131	0.020
-198.304	10.767	-0.211	0.159
-197.290	288.845	0.030	0.053
-196.275	-32.871	-0.094	0.052
-195.260	-200.000	-0.026	0.256
-194.246	248.016	0.114	-0.191
-193.231	-158.401	-0.342	0.020
-192.217	28.234	0.242	0.202
-191.202	-200.000	-0.037	0.245
-190.187	-26.758	-0.110	0.064
-189.173	-17.903	0.206	-0.128
-188.158	-167.729	-0.287	0.011
-187.144	-68.693	0.419	0.160
-186.129	572.870	-0.154	0.370
-185.114	-61.433	0.268	0.111
-184.100	37.565	-0.169	0.148
-183.085	47.269	-0.075	-0.069
-182.071	-143.994	-0.091	0.008
-181.056	-47.826	-0.240	0.115
-180.042	-159.178	-0.097	-0.005
-179.027	-77.418	-0.141	-0.048
-178.012	-53.815	-0.006	0.003
-176.998	-115.399	-0.164	0.030
-175.983	76.309	0.205	0.214
-174.969	230.250	-0.105	-0.169
-173.954	424.154	-0.017	0.036
-172.939	18.707	0.128	0.101
-171.925	-23.292	0.028	-0.017
-170.910	-79.140	-0.273	-0.091
-169.896	-113.956	0.235	0.045
-168.881	-29.181	0.028	0.016
-167.866	132.564	0.210	-0.267
-166.852	-120.931	-0.157	0.026
-165.837	-85.942	0.181	-0.055
-164.823	258.498	0.138	-0.235
-163.808	99.024	0.051	0.058
-162.793	8.542	-0.130	0.097
-161.779	226.934	0.080	0.129
-160.764	130.017	0.109	0.137
-159.750	-200.000	0.024	-0.130
-158.735	-200.000	0.076	0.370
-157.720	-113.202	-0.039	0.008
-156.706	109.593	-0.061	-0.072
-155.691	189.936	0.075	0.110
-154.677	83.256	-0.114	-0.122
-153.662	680.969	0.117	0.299
-152.647	-5.202	0.342	0.232
-151.633	-92.291	0.096	-0.027
-150.618	-93.326	0.246	0.067
-149.604	-59.654	-0.348	-0.147
-148.589	-200.000	0.032	0.226
-147.574	-61.828	-0.125	0.052
-146.560	89.008	-0.173	0.190
-145.545	-81.352	0.070	0.023
-144.531	-77.149	0.027	-0.009
-143.516	-96.334	0.193	-0.050
-142.502	-159.418	0.168	-0.009
-141.487	46.371	0.129	-0.118
-140.472	-107.693	0.231	-0.050
-139.458	-132.865	-0.080	-0.010
-138.443	-107.769	-0.168	-0.036
-137.429	-200.000	-0.041	0.227
-136.414	70.429	-0.170	0.173
-135.399	91.858	0.214	0.237
-134.385	-110.016	-0.212	0.044
-133.370	-60.382	0.144	-0.061
-132.356	800.000	-0.037	0.104
-131.341	-13.111	-0.235	0.151
-130.326	-116.053	-0.097	-0.018
-129.312	317.412	-0.135	-0.252
-128.297	314.474	-0.029	-0.055
-127.283	800.000	0.134	-0.376
-126.268	83.736	0.066	0.071
-125.253	-161.081	-0.368	0.019
-124.239	211.719	-0.038	0.059
-123.224	9.488	0.200	0.149
-122.210	-62.949	0.111	0.045
-121.195	215.199	-0.122	0.190
-120.180	314.385	-0.189	0.350
