DTS Sentinel unit serial number:	SN413079Multiplexer serial number:	ORYXHardware model number:	OX4-SRSoftware version number:	ORYX F/W v4.00 Oryx Data Collector v3.7.2.0data status	okinstallation	princeton_trtdifferential loss correction	single-endedforward channel	channel 2reverse channel	N/Adate	2019/09/19time	12:47:35forward acquisition time	60.00reverse acquisition time	0.00gamma	496.2192k internal	0.2333k external	0.2333temperature offset calibration	1.0016default loss term (dB/km)	0.3790temperature slope calibration	1.0000multiplexer offset coefficient	1.0000multiplexer slope coefficient	1.0000fibre end	0.00T internal ref (°C)	27.92T ext. ref 1 (°C)	0.90T ext. ref 2 (°C)	26.16length (m)	temperature (°C)	Stokes	anti-Stokes-747.200	-79.732	-0.257	-0.087
-746.185	-200.000	0.067	0.509
-745.171	-41.103	0.401	0.208
-744.156	285.555	-0.016	-0.029
-743.142	-108.923	-0.149	0.032
-742.127	-142.398	-0.132	-0.013
-741.112	-11.463	0.232	0.154
-740.098	-166.335	-0.329	0.014
-739.083	-10.969	-0.237	-0.157
-738.069	-200.000	-0.039	0.432
-737.054	-84.898	-0.307	-0.097
-736.039	57.554	0.240	-0.236
-735.025	220.801	0.106	-0.172
-734.010	107.254	0.058	0.069
-732.996	-200.000	-0.030	-0.143
-731.981	-70.781	0.211	-0.080
-730.966	-108.973	-0.179	0.038
-729.952	-135.045	-0.348	0.042
-728.937	259.228	-0.234	0.405
-727.923	800.000	0.097	-0.358
-726.908	197.347	-0.162	0.249
-725.894	-20.187	-0.239	-0.148
-724.879	-61.349	0.444	-0.188
-723.864	800.000	-0.054	-0.183
-722.850	526.727	-0.127	-0.301
-721.835	-200.000	0.041	-0.292
-720.821	-24.287	-0.143	0.086
-719.806	-69.831	0.205	-0.079
-718.791	-96.958	-0.439	0.116
-717.777	-14.467	0.315	-0.204
-716.762	-3.397	-0.047	-0.033
-715.748	-69.696	-0.262	0.101
-714.733	-21.791	-0.247	-0.151
-713.718	800.000	0.050	-0.161
-712.704	295.583	0.083	0.153
-711.689	147.567	0.379	0.513
-710.675	-200.000	0.002	-0.494
-709.660	477.971	-0.197	0.449
-708.645	-200.000	0.021	0.226
-707.631	-200.000	-0.032	-0.164
-706.616	-106.218	-0.090	-0.020
-705.602	100.502	-0.138	0.161
-704.587	135.054	-0.041	0.053
-703.572	-83.807	0.129	0.041
-702.558	800.000	-0.077	0.223
-701.543	-14.792	0.055	0.035
-700.529	-200.000	-0.024	-0.197
-699.514	66.659	-0.089	0.091
-698.499	-200.000	-0.010	0.049
-697.485	4.004	-0.334	-0.245
-696.470	68.908	0.181	0.186
-695.456	299.477	0.092	0.171
-694.441	-25.364	0.327	0.194
-693.426	-144.253	0.112	0.011
-692.412	104.891	-0.188	-0.223
-691.397	217.525	-0.073	0.118
-690.383	343.585	0.076	0.149
-689.368	105.498	0.184	0.218
-688.354	189.468	0.082	0.123
-687.339	-106.149	0.090	-0.020
-686.324	313.468	0.011	0.020
-685.310	-143.640	-0.398	0.038
-684.295	-200.000	-0.024	0.160
-683.281	-62.993	0.281	-0.116
-682.266	800.000	0.119	-0.386
-681.251	576.946	-0.064	-0.157
-680.237	-200.000	-0.046	0.351
-679.222	442.061	-0.090	-0.197
-678.208	30.531	-0.057	0.049
-677.193	-200.000	0.060	0.286
-676.178	716.655	-0.140	0.373
-675.164	-61.806	-0.447	-0.188
-674.149	-200.000	-0.006	0.406
-673.135	88.079	-0.152	0.169
-672.120	-92.840	-0.080	0.022
-671.105	151.189	-0.139	0.189
-670.091	95.066	0.115	0.131
-669.076	645.571	0.119	-0.305
-668.062	18.754	-0.220	-0.176
-667.047	-200.000	-0.017	0.276
-666.032	31.685	0.175	-0.151
-665.018	-11.316	0.186	0.123
-664.003	72.874	0.246	0.257
-662.989	96.612	-0.166	0.190
-661.974	-200.000	-0.044	-0.215
-660.959	-13.502	0.158	0.103
-659.945	127.567	0.146	-0.186
-658.930	255.798	0.140	0.240
-657.916	-90.363	-0.190	0.055
-656.901	800.000	0.153	0.635
-655.886	-54.004	0.178	0.081
-654.872	-149.752	0.279	0.022
-653.857	-200.000	-0.019	-0.104
-652.843	201.067	-0.198	-0.305
-651.828	-194.432	-0.108	-0.001
-650.814	-75.409	0.334	0.119
-649.799	269.842	0.147	0.259
-648.784	-118.988	0.343	-0.060
-647.770	-200.000	-0.136	-0.000
-646.755	232.198	0.043	0.070
-645.741	-200.000	-0.040	-0.359
-644.726	-69.894	-0.383	0.146
-643.711	51.303	0.317	-0.301
-642.697	73.977	-0.188	-0.197
-641.682	-200.000	0.009	-0.137
-640.668	-200.000	-0.027	-0.177
-639.653	800.000	0.070	0.264
-638.638	-200.000	0.009	0.133
-637.624	800.000	0.067	0.209
-636.609	778.938	-0.077	0.210
-635.595	-1.494	-0.101	-0.072
-634.580	-200.000	-0.007	-0.172
-633.565	-1.686	-0.195	-0.138
-632.551	363.683	0.070	0.141
-631.536	-200.000	0.001	0.065
-630.522	800.000	0.106	-0.351
-629.507	313.362	-0.079	0.148
-628.492	-200.000	-0.018	0.090
-627.478	18.669	0.225	-0.180
-626.463	568.015	0.074	0.179
-625.449	33.131	0.057	0.049
-624.434	800.000	0.086	0.238
-623.419	-59.848	-0.219	0.094
-622.405	-200.000	0.054	0.363
-621.390	-109.338	0.105	-0.022
-620.376	-32.469	0.247	-0.138
-619.361	-121.066	0.388	0.065
-618.346	315.389	-0.041	0.078
-617.332	232.486	-0.064	-0.104
-616.317	15.149	-0.437	0.342
-615.303	800.000	-0.157	0.450
-614.288	-166.412	0.066	0.003
-613.273	-200.000	-0.023	-0.329
-612.259	195.820	0.137	-0.209
-611.244	-200.000	0.031	-0.227
-610.230	-200.000	0.031	0.161
-609.215	-15.918	-0.093	0.059
-608.201	57.646	-0.199	-0.195
-607.186	800.000	-0.128	0.376
-606.171	99.080	-0.114	-0.132
-605.157	-6.537	0.105	-0.072
-604.142	-103.013	0.107	-0.025
-603.128	9.881	-0.210	0.159
-602.113	-200.000	-0.386	0.000
-601.098	31.940	0.134	0.116
-600.084	-120.475	0.487	0.083
-599.069	314.494	0.093	0.175
-598.055	-200.000	-0.050	0.244
-597.040	17.362	-0.204	0.162
-596.025	-51.277	-0.147	-0.069
-595.011	-174.651	-0.124	-0.004
-593.996	-48.317	0.482	-0.232
-592.982	-155.368	-0.348	0.023
-591.967	52.372	0.281	-0.268
-590.952	162.706	-0.188	0.263
-589.938	707.202	-0.131	-0.345
-588.923	-79.529	0.091	-0.031
-587.909	386.548	-0.095	-0.197
-586.894	-128.749	0.092	0.013
-585.879	-110.346	-0.151	0.031
-584.865	-200.000	0.000	0.152
-583.850	-24.721	-0.430	-0.255
-582.836	-97.465	-0.276	-0.072
-581.821	-143.158	0.224	-0.022
-580.806	-15.353	-0.152	0.097
-579.792	-29.530	0.075	0.043
-578.777	-200.000	0.037	-0.393
-577.763	172.509	-0.163	-0.234
-576.748	557.457	0.061	-0.148
-575.733	-200.000	-0.071	0.311
-574.719	-162.941	0.040	0.002
-573.704	-23.094	-0.290	0.175
-572.690	-103.931	-0.251	-0.058
-571.675	-55.809	-0.042	0.019
-570.661	800.000	0.086	-0.334
-569.646	-200.000	-0.022	0.307
-568.631	525.906	0.158	0.371
-567.617	-200.000	0.025	-0.250
-566.602	-109.256	-0.166	0.035
-565.588	-64.224	-0.155	-0.063
-564.573	-60.112	0.075	-0.032
-563.558	-164.051	0.456	-0.021
-562.544	222.754	-0.169	-0.272
-561.529	-0.029	-0.263	-0.187
-560.515	-75.298	-0.247	-0.088
-559.500	-200.000	-0.008	0.068
-558.485	-200.000	-0.072	-0.339
-557.471	-117.885	0.248	0.044
-556.456	-200.000	-0.037	-0.370
-555.442	46.961	0.178	0.165
-554.427	-39.505	0.023	-0.012
-553.412	-142.665	-0.112	0.011
-552.398	-200.000	0.048	-0.460
-551.383	79.477	0.482	-0.516
-550.369	260.573	-0.022	-0.037
-549.354	77.509	-0.022	-0.023
-548.339	-200.000	0.009	-0.043
-547.325	28.550	0.313	-0.264
-546.310	-200.000	0.008	-0.062
-545.296	-101.688	0.189	0.046
-544.281	-98.528	-0.345	0.088
-543.266	800.000	0.064	-0.187
-542.252	-103.969	0.129	-0.030
-541.237	800.000	0.032	-0.105
-540.223	329.003	-0.132	-0.254
-539.208	167.492	0.038	0.054
-538.193	-44.115	-0.306	0.153
-537.179	120.572	-0.032	0.040
-536.164	-167.507	-0.074	-0.003
-535.150	-51.269	-0.284	-0.132
-534.135	800.000	0.069	-0.301
-533.121	194.083	-0.195	-0.294
-532.106	-135.777	-0.278	-0.033
-531.091	212.861	0.096	-0.151
-530.077	-28.085	-0.146	0.084
-529.062	-109.746	-0.199	0.042
-528.048	-112.912	-0.037	-0.007
-527.033	211.422	0.145	0.228
-526.018	800.000	0.108	-0.426
-525.004	75.192	-0.099	-0.104
-523.989	51.540	0.318	0.301
-522.975	-82.233	-0.048	-0.015
-521.960	-19.671	-0.255	-0.157
-520.945	-115.999	0.352	0.065
-519.931	44.594	-0.045	0.041
-518.916	-49.587	0.246	0.117
-517.902	-35.420	0.021	0.011
-516.887	154.283	-0.019	-0.027
-515.872	482.712	-0.104	0.235
-514.858	-200.000	0.002	0.124
-513.843	800.000	-0.084	-0.237
-512.829	79.769	0.124	0.133
-511.814	-38.771	0.160	-0.084
-510.799	-142.286	-0.372	0.037
-509.785	24.277	0.095	0.078
-508.770	-4.913	0.181	0.124
-507.756	-200.000	-0.003	0.131
-506.741	-200.000	-0.016	0.277
-505.726	-80.047	-0.307	0.103
-504.712	-200.000	0.006	0.366
-503.697	-28.032	0.471	-0.271
-502.683	7.446	-0.097	0.072
-501.668	-200.000	0.015	0.232
-500.653	20.747	-0.107	0.086
-499.639	22.107	-0.226	0.184
-498.624	800.000	0.083	-0.262
-497.610	143.814	-0.315	-0.418
-496.595	-116.310	-0.160	-0.029
-495.581	-47.528	0.110	-0.053
-494.566	401.029	0.067	-0.139
-493.551	253.111	0.120	-0.204
-492.537	-155.591	0.268	0.017
-491.522	-114.790	0.172	-0.033
-490.508	465.773	-0.069	0.154
-489.493	-119.394	-0.256	0.044
-488.478	-95.633	-0.254	-0.068
-487.464	-46.635	-0.159	0.077
-486.449	-200.000	-0.065	-0.329
-485.435	-149.883	0.291	-0.023
-484.420	-200.000	0.005	-0.144
-483.405	-35.309	-0.074	0.040
-482.391	-181.720	-0.095	-0.002
-481.376	-200.000	-0.026	0.153
-480.362	-200.000	0.014	0.146
-479.347	314.955	0.042	-0.079
-478.332	800.000	-0.041	0.143
-477.318	-121.900	-0.275	-0.045
-476.303	800.000	0.064	-0.183
-475.289	152.842	-0.096	0.131
-474.274	71.177	-0.057	-0.059
-473.259	-94.905	0.421	0.113
-472.245	449.237	0.081	0.178
-471.230	374.367	-0.113	0.228
-470.216	800.000	0.015	0.057
-469.201	11.929	-0.307	-0.234
-468.186	-78.307	0.335	-0.114
-467.172	-200.000	-0.018	0.418
-466.157	-87.641	-0.282	0.085
-465.143	78.771	-0.066	-0.070
-464.128	-145.053	-0.164	-0.015
-463.113	-200.000	0.018	-0.096
-462.099	-35.730	-0.188	-0.101
-461.084	-100.668	0.226	-0.055
-460.070	-82.614	-0.097	0.031
-459.055	-180.030	-0.034	-0.001
-458.040	-3.148	-0.332	-0.230
-457.026	-3.123	-0.156	-0.108
-456.011	225.129	0.188	-0.302
-454.997	-13.215	0.151	0.097
-453.982	57.734	-0.061	0.059
-452.968	-42.766	0.078	0.039
-451.953	-46.993	-0.370	0.180
-450.938	611.553	0.086	-0.215
-449.924	-200.000	0.012	0.212
-448.909	86.220	0.101	0.111
-447.895	-24.907	0.204	-0.120
-446.880	-80.585	0.216	0.071
-445.865	33.554	0.214	-0.185
-444.851	-20.892	-0.256	0.156
-443.836	-92.319	-0.189	0.053
-442.822	53.716	0.121	0.116
-441.807	593.075	-0.038	-0.093
-440.792	174.321	0.096	-0.138
-439.778	79.589	0.043	-0.046
-438.763	800.000	0.029	-0.122
-437.749	-34.342	0.191	0.104
-436.734	17.621	0.130	0.103
-435.719	179.981	0.066	-0.097
-434.705	-150.785	-0.059	-0.004
-433.690	800.000	-0.063	-0.183
-432.676	-108.330	0.059	-0.013
-431.661	-28.264	0.325	-0.186
-430.646	634.501	0.112	0.283
-429.632	800.000	0.022	0.069
-428.617	800.000	-0.035	-0.113
-427.603	-61.055	-0.156	0.065
-426.588	-73.346	0.327	-0.119
-425.573	-200.000	-0.069	0.317
-424.559	800.000	-0.124	-0.346
-423.544	800.000	-0.046	-0.140
-422.530	11.327	-0.273	-0.208
-421.515	105.096	-0.095	0.111
-420.500	-135.457	-0.140	-0.017
-419.486	-115.228	0.176	-0.033
-418.471	392.487	-0.047	0.098
-417.457	-18.456	0.240	-0.149
-416.442	347.601	-0.042	0.082
-415.428	-23.639	0.076	0.045
-414.413	152.691	-0.026	-0.035
-413.398	33.203	-0.273	-0.235
-412.384	184.255	-0.173	0.255
-411.369	-118.530	-0.332	-0.058
-410.355	-130.913	-0.442	-0.059
-409.340	419.533	-0.029	-0.061
-408.325	-92.616	0.225	0.063
-407.311	-200.000	0.018	0.085
-406.296	-21.273	0.127	0.077
-405.282	-167.670	-0.122	-0.005
-404.267	-17.687	0.314	-0.196
-403.252	196.623	-0.103	-0.155
-402.238	-4.023	-0.138	-0.095
-401.223	-137.011	0.201	0.023
-400.209	-200.000	0.015	-0.080
-399.194	284.710	0.169	-0.302
-398.179	-110.016	-0.172	-0.036
-397.165	126.982	-0.091	-0.115
-396.150	17.146	0.090	-0.070
-395.136	2.031	-0.124	-0.089
-394.121	-200.000	0.049	-0.322
-393.106	-80.530	-0.166	-0.055
-392.092	522.097	-0.029	0.068
-391.077	136.771	0.129	-0.168
-390.063	-31.538	-0.122	-0.068
-389.048	-200.000	-0.021	0.137
-388.033	10.130	-0.171	-0.129
-387.019	100.931	-0.208	-0.239
-386.004	686.523	0.138	-0.358
-384.990	265.395	0.080	0.138
-383.975	-200.000	0.037	0.210
-382.960	-172.613	0.113	0.004
-381.946	364.107	-0.021	-0.042
-380.931	677.194	0.109	-0.281
-379.917	57.243	0.202	0.195
-378.902	110.457	-0.096	-0.115
-377.888	-67.930	-0.225	0.087
-376.873	-109.241	-0.102	0.021
-375.858	233.204	0.136	0.221
-374.844	322.034	-0.069	-0.131
-373.829	800.000	-0.042	0.164
-372.815	12.894	0.214	0.164
-371.800	-60.101	0.366	-0.155
-370.785	-179.487	-0.073	0.002
-369.771	690.800	-0.156	-0.404
-368.756	537.086	-0.078	-0.183
-367.742	-62.347	-0.388	0.160
-366.727	26.869	-0.195	0.162
-365.712	336.578	-0.134	-0.258
-364.698	-41.431	0.302	0.154
-363.683	296.045	0.159	0.289
-362.669	360.992	0.079	0.157
-361.654	-200.000	-0.017	0.205
-360.639	-63.185	0.267	0.109
-359.625	-85.107	0.196	0.061
-358.610	147.551	-0.171	0.229
-357.596	-25.737	0.210	0.123
-356.581	-8.651	-0.206	0.137
-355.566	-200.000	-0.052	0.398
-354.552	221.229	-0.179	-0.285
-353.537	624.355	0.128	-0.319
-352.523	80.098	0.160	0.170
-351.508	-151.786	0.089	-0.007
-350.493	-200.000	-0.025	0.159
-349.479	800.000	-0.068	-0.201
-348.464	587.541	-0.020	0.049
-347.450	164.865	0.073	0.102
-346.435	30.482	-0.205	0.173
-345.420	454.194	0.126	0.275
-344.406	-42.727	0.162	-0.081
-343.391	-148.341	-0.193	-0.016
-342.377	-200.000	-0.000	-0.004
-341.362	-200.000	-0.002	0.080
-340.348	-151.172	-0.358	0.027
-339.333	-93.724	0.319	0.087
-338.318	-110.505	-0.228	0.047
-337.304	800.000	-0.023	0.090
-336.289	-14.473	0.120	0.077
-335.275	83.478	-0.219	-0.236
-334.260	201.740	-0.176	0.269
-333.245	122.027	0.079	0.097
-332.231	-27.758	-0.156	0.090
-331.216	438.578	0.039	0.084
-330.202	375.629	0.041	0.083
-329.187	-121.736	0.165	-0.027
-328.172	-200.000	-0.029	-0.226
-327.158	98.721	-0.199	-0.227
-326.143	-70.066	0.126	0.048
-325.129	120.433	0.146	-0.180
-324.114	-110.587	0.108	-0.022
-323.099	17.602	-0.154	-0.121
-322.085	106.460	0.141	-0.166
-321.070	800.000	-0.074	0.264
-320.056	133.210	0.079	0.101
-319.041	384.137	-0.095	0.193
-318.026	-200.000	0.008	0.183
-317.012	61.598	0.190	0.187
-315.997	-200.000	0.042	0.529
-314.983	-75.940	-0.263	-0.092
-313.968	83.928	0.181	0.195
-312.953	-121.431	0.438	0.072
-311.939	-200.000	0.024	-0.144
-310.924	123.818	0.156	0.193
-309.910	57.783	-0.170	-0.165
-308.895	32.270	0.149	-0.127
-307.880	-43.164	-0.259	-0.129
-306.866	102.037	-0.120	-0.138
-305.851	12.364	-0.060	-0.045
-304.837	-200.000	-0.015	0.125
-303.822	69.238	-0.051	0.052
-302.807	-24.583	0.232	0.136
-301.793	-65.860	0.048	-0.019
-300.778	-32.510	0.115	0.063
-299.764	295.035	0.184	0.333
-298.749	765.755	-0.036	-0.097
-297.735	-7.576	-0.049	-0.033
-296.720	165.413	0.250	0.349
-295.705	800.000	-0.027	-0.105
-294.691	-200.000	0.009	0.176
-293.676	222.128	-0.125	-0.198
-292.662	11.104	0.107	0.081
-291.647	345.901	-0.094	-0.183
-290.632	-27.201	-0.142	0.082
-289.618	-200.000	0.053	0.263
-288.603	-200.000	0.001	-0.397
-287.589	-155.993	0.140	-0.009
-286.574	800.000	0.042	-0.127
-285.559	-200.000	-0.014	0.214
-284.545	800.000	-0.007	0.030
-283.530	411.848	-0.043	-0.090
-282.516	-200.000	0.025	0.296
-281.501	-200.000	0.011	0.056
-280.486	426.029	0.077	0.163
-279.472	800.000	-0.061	0.201
-278.457	98.808	0.192	0.219
-277.443	-163.543	0.142	0.007
-276.428	800.000	-0.102	0.306
-275.413	-63.594	0.156	-0.063
-274.399	25.855	0.099	0.082
-273.384	16.909	0.122	0.095
-272.370	-98.922	-0.053	-0.013
-271.355	-200.000	-0.020	0.167
-270.340	-130.995	0.196	-0.026
-269.326	184.736	0.178	0.261
-268.311	-143.670	-0.136	-0.013
-267.297	-117.752	-0.324	-0.057
-266.282	64.845	0.108	-0.107
-265.267	177.820	0.112	-0.161
-264.253	425.168	0.098	-0.209
-263.238	719.796	-0.062	0.162
-262.224	-53.646	0.346	0.156
-261.209	-22.053	0.351	-0.211
-260.195	800.000	-0.047	-0.174
-259.180	-121.391	0.100	0.016
-258.165	69.357	0.177	-0.180
-257.151	-167.328	-0.376	0.015
-256.136	-200.000	-0.001	-0.010
-255.122	-166.491	0.168	0.007
-254.107	-200.000	-0.106	0.463
-253.092	-200.000	-0.003	-0.082
-252.078	-79.693	0.225	0.075
-251.063	787.965	0.066	0.180
-250.049	99.286	-0.101	0.116
-249.034	-200.000	-0.022	-0.258
-248.019	-104.010	-0.181	-0.042
-247.005	46.113	0.141	0.128
-245.990	77.705	-0.047	0.049
-244.976	254.928	0.159	0.269
-243.961	42.534	-0.205	0.184
-242.946	456.439	0.082	-0.180
-241.932	-55.395	0.033	0.014
-240.917	84.339	-0.295	-0.318
-239.903	22.034	-0.087	0.070
-238.888	285.396	0.019	0.033
-237.873	-200.000	-0.066	0.303
-236.859	136.451	-0.041	0.053
-235.844	-30.433	0.205	-0.114
-234.830	-84.309	0.145	0.045
-233.815	-27.009	-0.205	-0.118
-232.800	82.727	0.286	0.306
-231.786	-110.889	0.231	0.047
-230.771	-200.000	-0.042	-0.335
-229.757	800.000	0.057	0.172
-228.742	782.732	0.095	0.257
-227.727	-36.315	-0.197	0.105
-226.713	353.984	-0.038	-0.074
-225.698	-63.351	-0.244	-0.099
-224.684	103.139	-0.164	0.189
-223.669	-39.938	-0.115	0.059
-222.655	-93.055	0.285	0.078
-221.640	603.694	-0.130	0.318
-220.625	800.000	0.028	-0.093
-219.611	538.037	-0.075	-0.176
-218.596	-52.206	0.293	0.134
-217.582	728.833	0.048	0.128
-216.567	3.458	-0.224	-0.161
-215.552	493.299	0.146	-0.330
-214.538	-200.000	-0.056	-0.306
-213.523	-131.481	-0.042	-0.005
-212.509	800.000	0.068	0.255
-211.494	89.254	0.040	0.044
-210.479	-200.000	-0.013	-0.150
-209.465	486.404	0.142	0.318
-208.450	-25.577	0.016	0.009
-207.436	-78.622	-0.049	0.016
-206.421	-200.000	-0.029	-0.213
-205.406	-200.000	-0.002	-0.319
-204.392	-132.314	-0.115	-0.015
-203.377	-200.000	0.006	-0.110
-202.363	-200.000	0.039	-0.207
-201.348	252.627	0.034	-0.058
-200.333	800.000	0.051	-0.206
-199.319	63.040	-0.047	-0.046
-198.304	-200.000	-0.040	0.253
-197.290	228.130	0.148	-0.237
-196.275	640.308	-0.018	0.045
-195.260	241.845	0.011	0.018
-194.246	-147.677	-0.318	0.026
-193.231	800.000	0.035	-0.142
-192.217	-106.723	0.077	-0.017
-191.202	111.962	-0.102	0.121
-190.187	12.003	-0.140	0.106
-189.173	-26.349	-0.186	-0.107
-188.158	-200.000	0.003	0.278
-187.144	201.681	0.082	-0.124
-186.129	-84.427	0.016	-0.005
-185.114	-200.000	-0.020	0.091
-184.100	-19.406	0.089	-0.054
-183.085	-200.000	-0.007	-0.225
-182.071	274.283	-0.089	-0.155
-181.056	-200.000	0.049	0.231
-180.042	-88.335	0.316	-0.093
-179.027	-67.973	0.246	0.094
-178.012	-132.857	0.141	-0.018
-176.998	-62.545	0.130	-0.053
-175.983	248.169	-0.203	-0.337
-174.969	-79.085	0.186	0.062
-173.954	-82.440	-0.280	0.089
-172.939	145.785	0.032	0.043
-171.925	-17.156	-0.134	0.083
-170.910	-200.000	0.046	0.368
-169.896	-40.933	-0.259	-0.132
-168.881	-200.000	-0.016	-0.253
-167.866	-145.432	-0.091	-0.008
-166.852	-200.000	-0.042	-0.435
-165.837	-46.160	0.432	0.209
-164.823	277.788	-0.072	-0.127
-163.808	-200.000	0.046	0.215
-162.793	613.959	0.100	0.247
-161.779	-60.097	-0.121	-0.051
-160.764	288.566	-0.103	-0.184
-159.750	800.000	-0.040	0.141
-158.735	36.878	0.294	-0.256
-157.720	800.000	0.074	0.307
-156.706	-104.064	0.180	0.041
-155.691	20.949	0.362	0.289
-154.677	17.149	-0.186	0.145
-153.662	800.000	-0.038	-0.128
-152.647	-177.419	-0.106	0.003
-151.633	455.360	0.011	-0.024
-150.618	171.451	-0.266	-0.375
-149.604	-5.757	0.117	-0.079
-148.589	162.148	0.161	-0.221
-147.574	-72.110	0.279	-0.102
-146.560	-126.969	-0.412	-0.059
-145.545	-200.000	0.065	0.300
-144.531	-200.000	0.083	0.568
-143.516	74.295	-0.139	0.143
-142.502	-24.047	-0.085	-0.050
-141.487	-95.327	0.178	-0.047
-140.472	30.570	-0.137	0.115
-139.458	-86.058	-0.172	-0.052
-138.443	-200.000	-0.032	-0.229
-137.429	-168.136	-0.326	0.012
-136.414	-197.476	-0.296	0.002
-135.399	358.750	0.049	-0.096
-134.385	-200.000	0.001	-0.080
-133.370	111.269	0.145	-0.172
-132.356	23.892	0.062	-0.050
-131.341	425.723	0.103	-0.217
-130.326	-17.833	-0.041	-0.025
-129.312	800.000	0.093	-0.301
-128.297	18.396	0.057	-0.045
-127.283	653.215	-0.031	0.078
-126.268	800.000	-0.032	0.119
-125.253	129.242	-0.071	0.089
-124.239	272.607	-0.079	0.137
-123.224	-114.096	0.070	-0.013
-122.210	-200.000	0.053	0.425
