DTS Sentinel unit serial number:	SN413079Multiplexer serial number:	ORYXHardware model number:	OX4-SRSoftware version number:	ORYX F/W v4.00 Oryx Data Collector v3.7.2.0data status	okinstallation	princeton_trtdifferential loss correction	single-endedforward channel	channel 2reverse channel	N/Adate	2019/09/13time	09:35:35forward acquisition time	60.00reverse acquisition time	0.00gamma	496.2192k internal	0.2325k external	0.2325temperature offset calibration	1.0199default loss term (dB/km)	0.3790temperature slope calibration	1.0000multiplexer offset coefficient	1.0000multiplexer slope coefficient	1.0000fibre end	0.00T internal ref (°C)	29.56T ext. ref 1 (°C)	4.42T ext. ref 2 (°C)	25.87length (m)	temperature (°C)	Stokes	anti-Stokes-747.200	-32.122	0.212	0.120
-746.185	-26.109	0.084	-0.050
-745.171	290.254	-0.101	-0.185
-744.156	-200.000	0.017	-0.414
-743.142	-154.404	-0.278	0.019
-742.127	-200.000	0.033	0.239
-741.112	-0.369	0.270	-0.193
-740.098	-200.000	0.013	0.173
-739.083	45.858	0.142	0.132
-738.069	-8.345	-0.211	0.143
-737.054	-30.572	0.158	-0.090
-736.039	75.028	-0.265	-0.282
-735.025	-27.390	0.088	0.052
-734.010	-180.543	-0.298	-0.006
-732.996	-136.824	-0.080	0.009
-731.981	274.731	0.109	0.194
-730.966	-200.000	0.024	-0.282
-729.952	-77.063	-0.350	0.123
-728.937	-200.000	-0.031	-0.164
-727.923	-37.906	-0.210	-0.113
-726.908	-77.883	-0.085	-0.030
-725.894	-26.852	-0.207	-0.122
-724.879	-84.206	-0.294	-0.094
-723.864	-88.201	-0.349	-0.105
-722.850	-119.935	0.168	0.029
-721.835	397.708	0.093	0.195
-720.821	191.475	-0.246	0.373
-719.806	-51.097	0.312	-0.147
-718.791	797.073	0.022	-0.061
-717.777	800.000	0.090	0.272
-716.762	143.640	-0.177	0.238
-715.748	-200.000	-0.012	-0.099
-714.733	-200.000	0.009	0.195
-713.718	243.372	0.029	-0.048
-712.704	-135.205	-0.115	0.014
-711.689	-167.907	0.318	-0.013
-710.675	-200.000	0.001	-0.027
-709.660	-10.961	0.272	0.181
-708.645	217.565	-0.151	-0.242
-707.631	78.759	-0.180	-0.194
-706.616	-128.555	0.243	0.035
-705.602	218.771	0.060	-0.096
-704.587	-110.911	0.407	0.084
-703.572	-200.000	0.018	0.104
-702.558	-200.000	0.014	0.231
-701.543	-28.002	0.309	0.180
-700.529	-200.000	0.000	0.093
-699.514	-200.000	-0.006	-0.105
-698.499	322.291	-0.103	0.198
-697.485	-109.433	0.309	-0.066
-696.470	-101.637	-0.030	0.007
-695.456	-44.120	-0.242	0.122
-694.441	166.236	0.066	-0.094
-693.426	90.053	-0.038	-0.043
-692.412	389.379	0.064	-0.134
-691.397	-82.167	0.210	0.069
-690.383	208.206	-0.116	0.182
-689.368	215.195	0.173	-0.277
-688.354	-66.915	0.189	0.075
-687.339	-34.830	-0.241	-0.132
-686.324	-146.136	0.239	-0.021
-685.310	-196.561	-0.389	-0.003
-684.295	89.070	0.320	0.359
-683.281	74.258	0.192	0.203
-682.266	-122.740	0.253	0.041
-681.251	-12.387	-0.278	-0.183
-680.237	26.863	-0.152	-0.128
-679.222	-81.366	-0.128	-0.043
-678.208	347.204	0.157	-0.312
-677.193	-200.000	-0.018	-0.131
-676.178	-161.701	-0.156	0.008
-675.164	134.886	0.112	-0.146
-674.149	59.628	-0.141	0.140
-673.135	-200.000	0.026	0.170
-672.120	188.456	0.203	-0.306
-671.105	-200.000	-0.008	-0.059
-670.091	-88.156	-0.186	-0.056
-669.076	-97.500	0.034	-0.009
-668.062	17.613	0.062	0.050
-667.047	462.592	0.052	0.117
-666.032	-200.000	-0.019	-0.121
-665.018	-29.043	-0.123	0.071
-664.003	-183.002	-0.057	0.001
-662.989	107.836	0.099	-0.119
-661.974	-16.877	-0.160	-0.102
-660.959	-40.126	-0.270	0.141
-659.945	-131.849	0.369	0.048
-658.930	179.677	-0.074	0.109
-657.916	436.591	-0.116	0.255
-656.901	404.879	0.038	0.080
-655.886	-28.027	0.118	-0.069
-654.872	800.000	0.055	-0.155
-653.857	-200.000	0.071	-0.336
-652.843	-26.905	0.242	-0.142
-651.828	700.858	-0.034	0.090
-650.814	-200.000	0.005	0.313
-649.799	-200.000	0.038	-0.473
-648.784	29.792	0.118	-0.101
-647.770	84.571	-0.098	-0.108
-646.755	-105.929	0.234	-0.053
-645.741	267.271	-0.041	0.072
-644.726	-200.000	0.000	-0.010
-643.711	800.000	0.046	0.192
-642.697	-200.000	0.041	-0.388
-641.682	-10.728	0.152	-0.101
-640.668	800.000	0.121	-0.369
-639.653	-200.000	-0.019	0.103
-638.638	-200.000	-0.008	0.136
-637.624	-44.152	-0.313	0.158
-636.609	-90.940	0.275	0.080
-635.595	-91.008	0.381	-0.110
-634.580	-200.000	0.004	-0.059
-633.565	162.287	0.144	-0.202
-632.551	-48.575	-0.333	0.161
-631.536	36.427	-0.049	-0.044
-630.522	11.029	0.365	0.280
-629.507	242.886	-0.057	-0.095
-628.492	-16.570	0.150	-0.096
-627.478	800.000	-0.114	-0.409
-626.463	-200.000	0.014	-0.245
-625.449	-200.000	0.036	0.254
-624.434	420.115	-0.117	0.252
-623.419	141.434	-0.155	0.206
-622.405	-49.427	-0.098	0.047
-621.390	303.008	-0.059	0.110
-620.376	-4.207	0.127	0.088
-619.361	-73.685	-0.126	-0.046
-618.346	-200.000	0.030	0.337
-617.332	80.419	-0.077	-0.083
-616.317	554.562	-0.170	0.411
-615.303	-84.918	-0.234	0.074
-614.288	91.853	0.102	0.115
-613.273	800.000	0.093	0.311
-612.259	-200.000	0.046	-0.208
-611.244	-21.976	-0.371	-0.226
-610.230	-45.983	-0.045	0.022
-609.215	71.181	0.176	-0.183
-608.201	-127.780	0.059	0.008
-607.186	-200.000	0.039	-0.190
-606.171	217.585	-0.033	0.052
-605.157	106.601	0.200	-0.239
-604.142	75.286	0.122	0.129
-603.128	-7.239	0.094	0.064
-602.113	281.502	0.096	-0.172
-601.098	-200.000	0.135	0.000
-600.084	-127.288	-0.219	-0.032
-599.069	238.909	0.290	0.483
-598.055	1.049	0.393	0.283
-597.040	-99.302	-0.230	0.058
-596.025	-166.278	-0.090	-0.004
-595.011	-171.940	-0.209	0.007
-593.996	-200.000	0.029	-0.275
-592.982	35.732	-0.073	0.064
-591.967	-47.398	0.201	-0.098
-590.952	-200.000	-0.007	-0.045
-589.938	0.231	0.124	0.088
-588.923	-129.576	0.211	-0.029
-587.909	-133.231	-0.251	0.032
-586.894	13.203	0.139	-0.108
-585.879	22.290	-0.427	0.350
-584.865	-200.000	-0.006	0.052
-583.850	525.632	-0.096	0.227
-582.836	-16.010	-0.223	0.142
-581.821	-185.546	-0.114	-0.002
-580.806	-110.652	-0.574	0.119
-579.792	-200.000	0.035	0.178
-578.777	-48.563	0.249	0.120
-577.763	-101.267	-0.105	-0.026
-576.748	-53.968	0.081	-0.037
-575.733	433.704	-0.043	-0.092
-574.719	-79.611	-0.331	-0.112
-573.704	800.000	-0.077	0.317
-572.690	-200.000	0.062	0.000
-571.675	189.810	-0.060	0.090
-570.661	-100.261	0.084	-0.021
-569.646	134.520	0.182	-0.237
-568.631	-200.000	-0.014	-0.260
-567.617	132.863	0.186	-0.240
-566.602	-138.653	-0.256	-0.028
-565.588	272.011	0.176	0.312
-564.573	-10.495	0.151	0.100
-563.558	143.617	0.191	-0.255
-562.544	-44.382	0.060	-0.030
-561.529	-200.000	0.004	0.202
-560.515	-74.698	0.046	0.016
-559.500	-200.000	0.053	0.242
-558.485	-200.000	0.063	0.576
-557.471	474.714	-0.042	0.095
-556.456	374.407	-0.221	0.451
-555.442	-14.062	0.075	-0.048
-554.427	140.649	-0.082	0.109
-553.412	800.000	0.040	0.111
-552.398	29.230	-0.033	-0.028
-551.383	-173.021	-0.299	0.009
-550.369	32.268	-0.320	0.277
-549.354	-123.016	0.247	0.040
-548.339	241.234	0.112	-0.186
-547.325	119.733	-0.145	0.180
-546.310	-56.273	-0.042	0.019
-545.296	-33.927	0.135	-0.074
-544.281	-72.697	0.320	-0.118
-543.266	-200.000	-0.021	-0.426
-542.252	77.219	-0.111	0.118
-541.237	-42.925	0.128	0.065
-540.223	-66.055	0.063	-0.025
-539.208	-200.000	0.006	-0.082
-538.193	486.664	-0.057	-0.131
-537.179	-161.575	0.368	0.019
-536.164	334.336	-0.031	-0.060
-535.150	168.930	-0.133	0.189
-534.135	-132.905	-0.197	-0.025
-533.121	-166.941	-0.108	-0.004
-532.106	-106.627	-0.267	-0.059
-531.091	97.920	0.165	-0.190
-530.077	103.532	0.108	0.127
-529.062	-200.000	-0.020	0.195
-528.048	-76.968	0.198	-0.069
-527.033	-79.528	0.362	0.122
-526.018	800.000	0.097	-0.304
-525.004	800.000	0.046	-0.134
-523.989	-104.148	-0.178	0.041
-522.975	-42.696	0.193	-0.098
-521.960	-20.940	0.343	0.210
-520.945	114.760	-0.051	-0.062
-519.931	-5.161	-0.047	-0.032
-518.916	-86.091	0.133	-0.041
-517.902	311.437	-0.068	0.127
-516.887	-111.456	-0.308	0.063
-515.872	-119.685	-0.247	-0.043
-514.858	12.924	0.072	-0.055
-513.843	-200.000	0.026	0.192
-512.829	-86.140	-0.224	0.069
-511.814	124.209	0.151	-0.190
-510.799	106.795	0.127	0.151
-509.785	-42.513	0.109	0.055
-508.770	-61.714	0.272	0.114
-507.756	84.208	-0.148	-0.161
-506.741	-175.536	-0.318	0.009
-505.726	61.829	-0.100	-0.100
-504.712	-151.944	-0.160	-0.012
-503.697	-37.778	0.194	-0.103
-502.683	-74.062	-0.214	-0.077
-501.668	746.390	0.024	0.066
-500.653	-197.014	-0.109	-0.001
-499.639	-35.537	-0.299	-0.162
-498.624	-109.311	0.025	0.005
-497.610	115.704	0.112	-0.136
-496.595	-126.297	-0.111	0.016
-495.581	-160.583	0.176	-0.009
-494.566	-200.000	-0.006	-0.083
-493.551	-113.297	-0.152	0.030
-492.537	-52.595	0.071	-0.033
-491.522	-200.000	-0.020	-0.130
-490.508	81.613	-0.212	-0.229
-489.493	36.519	-0.160	0.141
-488.478	15.152	-0.145	0.113
-487.464	33.353	0.070	0.061
-486.449	-91.641	0.388	-0.110
-485.435	372.283	0.062	0.127
-484.420	-67.802	-0.064	-0.025
-483.405	-200.000	0.007	-0.088
-482.391	11.237	-0.221	-0.169
-481.376	-195.214	0.397	-0.003
-480.362	-23.559	-0.333	-0.199
-479.347	-108.718	0.366	0.078
-478.332	-57.479	-0.433	0.190
-477.318	-200.000	-0.013	0.134
-476.303	-22.022	0.307	-0.186
-475.289	410.414	0.091	-0.192
-474.274	476.111	-0.030	-0.069
-473.259	41.699	0.115	-0.104
-472.245	800.000	-0.042	0.179
-471.230	-200.000	-0.004	0.271
-470.216	51.288	-0.031	-0.029
-469.201	207.177	0.089	-0.138
-468.186	88.036	0.232	-0.257
-467.172	127.805	-0.102	-0.130
-466.157	320.811	0.022	-0.041
-465.143	222.310	0.044	-0.071
-464.128	-75.691	-0.356	-0.126
-463.113	-34.581	-0.073	0.040
-462.099	-200.000	0.016	-0.180
-461.084	-58.974	0.284	0.122
-460.070	-200.000	0.005	-0.203
-459.055	800.000	-0.056	0.155
-458.040	140.730	0.059	-0.078
-457.026	57.855	0.231	0.225
-456.011	45.914	-0.130	0.120
-454.997	-139.120	0.300	0.032
-453.982	-131.978	-0.256	-0.033
-452.968	705.004	-0.119	-0.313
-451.953	800.000	0.095	-0.327
-450.938	199.214	-0.081	-0.123
-449.924	157.603	-0.144	-0.199
-448.909	766.793	-0.055	-0.148
-447.895	-92.049	-0.163	0.046
-446.880	8.958	-0.342	0.257
-445.865	260.133	-0.116	-0.200
-444.851	283.955	0.113	0.203
-443.836	636.755	-0.058	-0.148
-442.822	-200.000	-0.001	-0.080
-441.807	41.950	0.166	0.151
-440.792	76.307	-0.199	-0.210
-439.778	-1.295	0.201	0.142
-438.763	107.238	0.161	-0.191
-437.749	272.414	0.087	0.153
-436.734	184.990	0.111	0.164
-435.719	416.880	-0.158	0.336
-434.705	42.058	0.170	0.154
-433.690	-66.072	-0.272	-0.108
-432.676	-29.889	-0.249	0.141
-431.661	44.365	-0.089	-0.081
-430.646	-136.096	0.260	0.030
-429.632	-58.062	-0.247	-0.107
-428.617	800.000	-0.081	-0.244
-427.603	-200.000	-0.041	0.267
-426.588	-177.378	-0.109	-0.003
-425.573	-200.000	0.040	0.272
-424.559	173.290	0.021	0.030
-423.544	131.009	0.063	-0.080
-422.530	-109.303	-0.197	0.042
-421.515	121.515	0.075	-0.092
-420.500	166.569	0.166	-0.234
-419.486	-200.000	-0.028	-0.196
-418.471	-118.286	0.218	0.039
-417.457	-200.000	-0.069	0.339
-416.442	491.158	-0.095	0.216
-415.428	-107.932	-0.088	-0.019
-414.413	-7.265	-0.101	-0.068
-413.398	-99.345	0.147	0.037
-412.384	329.744	0.128	-0.246
-411.369	-68.194	-0.263	0.102
-410.355	-200.000	0.010	0.050
-409.340	-200.000	0.355	-0.001
-408.325	-124.436	-0.048	-0.007
-407.311	800.000	-0.101	-0.369
-406.296	-92.414	-0.114	0.032
-405.282	800.000	-0.011	-0.042
-404.267	-200.000	0.034	-0.296
-403.252	237.647	-0.060	-0.099
-402.238	-137.325	-0.298	-0.034
-401.223	-138.498	-0.191	0.021
-400.209	-82.447	-0.317	0.102
-399.194	60.089	-0.159	0.157
-398.179	-200.000	-0.019	0.247
-397.165	-33.073	0.217	0.120
-396.150	-200.000	-0.003	0.016
-395.136	-165.350	-0.092	0.004
-394.121	154.650	0.138	0.188
-393.106	732.758	-0.111	-0.296
-392.092	-63.159	0.212	0.087
-391.077	-88.485	0.366	0.109
-390.063	154.968	0.285	-0.389
-389.048	263.278	0.146	0.252
-388.033	169.432	0.225	-0.320
-387.019	-44.548	0.197	-0.098
-386.004	-199.927	0.123	-0.001
-384.990	-200.000	0.031	-0.180
-383.975	-165.372	-0.176	0.008
-382.960	-50.642	0.179	-0.084
-381.946	314.793	0.015	0.029
-380.931	-76.458	-0.255	0.089
-379.917	254.553	0.083	0.141
-378.902	173.551	0.045	0.065
-377.888	-200.000	0.036	0.197
-376.873	-29.640	0.101	0.057
-375.858	345.228	-0.051	-0.099
-374.844	-14.314	-0.348	0.223
-373.829	-18.925	0.096	0.059
-372.815	-166.592	-0.248	0.010
-371.800	-200.000	0.029	0.141
-370.785	552.116	-0.079	-0.189
-369.771	-130.119	0.220	0.030
-368.756	-200.000	-0.020	0.262
-367.742	-33.015	-0.158	0.087
-366.727	-200.000	0.056	0.480
-365.712	-78.772	-0.048	0.016
-364.698	-200.000	-0.043	-0.230
-363.683	800.000	0.121	-0.514
-362.669	59.776	0.256	-0.251
-361.654	800.000	0.025	-0.089
-360.639	-129.311	0.220	0.030
-359.625	301.689	0.210	0.385
-358.610	597.863	-0.106	0.261
-357.596	51.143	-0.158	0.149
-356.581	-119.259	-0.193	0.033
-355.566	800.000	0.031	-0.087
-354.552	-78.847	-0.108	-0.037
-353.537	800.000	-0.038	0.123
-352.523	429.641	0.135	0.290
-351.508	436.060	0.060	-0.131
-350.493	-110.311	0.119	0.025
-349.479	-4.149	0.089	-0.061
-348.464	30.989	0.080	-0.068
-347.450	451.552	-0.131	0.287
-346.435	-200.000	-0.033	0.325
-345.420	-94.218	0.122	0.033
-344.406	-139.133	0.089	-0.010
-343.391	-169.205	-0.480	-0.018
-342.377	-200.000	0.159	-0.001
-341.362	540.068	0.163	0.386
-340.348	502.532	-0.070	-0.160
-339.333	800.000	0.076	-0.251
-338.318	2.149	0.143	-0.102
-337.304	-121.574	-0.241	0.040
-336.289	-200.000	-0.020	-0.119
-335.275	59.425	-0.249	0.244
-334.260	-162.710	0.080	0.004
-333.245	-173.572	-0.089	0.003
-332.231	145.852	0.142	0.188
-331.216	800.000	0.072	-0.272
-330.202	800.000	0.035	0.103
-329.187	-24.466	0.187	0.110
-328.172	17.930	0.205	-0.162
-327.158	-39.398	-0.197	0.103
-326.143	-55.174	0.098	0.044
-325.129	120.970	-0.114	-0.140
-324.114	176.203	-0.176	0.254
-323.099	166.969	0.065	0.091
-322.085	524.597	0.067	-0.156
-321.070	-112.529	-0.330	0.065
-320.056	666.513	-0.143	-0.366
-319.041	-200.000	0.011	0.170
-318.026	-200.000	-0.056	0.302
-317.012	800.000	-0.037	-0.154
-315.997	473.029	-0.045	0.100
-314.983	-200.000	-0.032	-0.190
-313.968	289.631	-0.156	-0.281
-312.953	78.468	-0.217	0.230
-311.939	-30.142	0.193	-0.109
-310.924	-140.199	-0.326	0.034
-309.910	372.792	-0.047	0.095
-308.895	162.411	-0.204	0.283
-307.880	2.699	-0.160	0.115
-306.866	800.000	0.007	0.024
-305.851	52.930	-0.182	-0.172
-304.837	-91.414	-0.341	-0.097
-303.822	-173.374	-0.053	-0.002
-302.807	-64.943	-0.089	-0.036
-301.793	56.684	-0.314	-0.303
-300.778	-200.000	0.015	0.101
-299.764	-200.000	0.043	0.628
-298.749	220.726	-0.092	-0.146
-297.735	-200.000	0.003	0.219
-296.720	142.354	-0.232	-0.306
-295.705	82.595	0.302	-0.326
-294.691	-152.291	0.112	0.008
-293.676	-200.000	0.030	0.195
-292.662	-81.570	0.207	-0.067
-291.647	-15.649	0.228	-0.144
-290.632	384.972	0.111	-0.226
-289.618	-75.323	0.212	0.075
-288.603	6.652	0.176	-0.130
-287.589	415.858	0.042	0.090
-286.574	-200.000	-0.065	-0.300
-285.559	-200.000	0.006	-0.179
-284.545	394.504	-0.073	0.150
-283.530	800.000	-0.070	0.237
-282.516	749.238	0.039	0.104
-281.501	-74.580	0.142	0.051
-280.486	-76.973	-0.100	0.035
-279.472	-25.549	-0.056	-0.033
-278.457	-200.000	-0.008	0.087
-277.443	-54.701	-0.274	0.123
-276.428	53.840	0.028	0.026
-275.413	800.000	-0.022	-0.060
-274.399	-24.107	0.149	-0.088
-273.384	-29.791	-0.062	-0.035
-272.370	134.544	-0.118	0.152
-271.355	-200.000	-0.006	-0.176
-270.340	-32.267	0.064	0.035
-269.326	-200.000	0.035	-0.175
-268.311	-175.936	0.248	-0.007
-267.297	-200.000	0.011	0.231
-266.282	43.659	0.155	0.140
-265.267	47.347	0.145	-0.133
-264.253	-200.000	-0.023	0.133
-263.238	-106.939	0.038	-0.008
-262.224	-101.558	0.061	0.015
-261.209	133.092	-0.073	-0.094
-260.195	800.000	0.039	-0.151
-259.180	-136.536	0.241	-0.028
-258.165	109.657	0.283	-0.336
-257.151	179.913	0.102	0.147
-256.136	-184.726	0.076	-0.001
-255.122	-157.787	0.028	0.002
-254.107	-159.235	0.118	-0.007
-253.092	254.948	0.127	0.215
-252.078	63.373	-0.340	0.338
-251.063	135.470	-0.126	-0.162
-250.049	-88.086	-0.225	-0.067
-249.034	-200.000	-0.020	0.142
-248.019	189.585	0.021	-0.031
-247.005	-200.000	0.004	-0.265
-245.990	-126.803	0.046	-0.007
-244.976	-200.000	-0.014	-0.100
-243.961	-76.360	0.313	-0.109
-242.946	-110.583	0.191	0.039
-241.932	-200.000	-0.060	-0.467
-240.917	121.645	0.080	0.099
-239.903	-158.797	0.168	0.009
-238.888	-200.000	0.036	0.183
-237.873	43.866	-0.091	-0.083
-236.859	24.804	0.202	-0.165
-235.844	-73.974	0.380	0.136
-234.830	-30.565	0.499	0.280
-233.815	-200.000	-0.023	-0.105
-232.800	35.502	0.129	-0.112
-231.786	608.010	0.056	0.139
-230.771	-79.440	0.181	-0.060
-229.757	-36.002	-0.197	0.105
-228.742	148.956	-0.284	-0.379
-227.727	800.000	0.044	-0.148
-226.713	705.807	0.044	0.114
-225.698	-200.000	-0.002	0.158
-224.684	-31.061	0.127	0.071
-223.669	-181.292	0.214	-0.004
-222.655	800.000	-0.039	-0.146
-221.640	800.000	-0.073	-0.263
-220.625	-200.000	0.041	-0.239
-219.611	83.261	-0.148	-0.159
-218.596	110.549	-0.148	-0.176
-217.582	-112.025	-0.086	0.017
-216.567	-74.512	0.037	-0.013
-215.552	-8.140	-0.346	0.230
-214.538	-50.035	-0.061	0.029
-213.523	168.597	0.170	-0.239
-212.509	-200.000	0.002	-0.348
-211.494	-10.732	0.176	0.115
-210.479	-166.460	0.126	0.005
-209.465	-39.410	0.116	-0.060
-208.450	356.354	-0.125	0.246
-207.436	-90.130	0.070	0.020
-206.421	-34.440	-0.161	0.087
-205.406	-48.414	0.095	0.045
-204.392	27.711	0.089	0.074
-203.377	-162.539	0.179	0.009
-202.363	800.000	0.100	-0.344
-201.348	-26.605	-0.313	-0.181
-200.333	338.647	-0.049	-0.094
-199.319	63.358	-0.157	0.156
-198.304	-183.632	-0.042	-0.001
-197.290	21.851	-0.276	-0.222
-196.275	800.000	-0.059	-0.246
-195.260	468.876	0.172	-0.381
-194.246	44.174	-0.372	0.337
-193.231	-120.583	0.236	0.039
-192.217	-55.173	0.037	-0.016
-191.202	373.631	0.052	0.105
-190.187	-200.000	-0.009	-0.177
-189.173	100.396	-0.180	0.206
-188.158	77.715	-0.094	0.099
-187.144	410.589	0.169	-0.354
-186.129	-70.344	-0.325	0.122
-185.114	442.207	-0.199	0.430
-184.100	-60.641	0.278	-0.116
-183.085	-57.358	0.180	0.078
-182.071	-0.589	-0.295	0.207
-181.056	-200.000	0.028	-0.165
-180.042	-200.000	0.005	-0.031
-179.027	545.625	-0.113	0.267
-178.012	134.574	0.210	0.269
-176.998	800.000	0.029	0.083
-175.983	29.755	-0.082	-0.068
-174.969	135.538	-0.133	-0.170
-173.954	27.658	-0.147	-0.122
-172.939	-53.519	0.235	0.106
-171.925	800.000	-0.070	-0.269
-170.910	-53.484	0.354	-0.160
-169.896	-200.000	0.001	0.111
-168.881	-168.917	-0.277	-0.010
-167.866	509.242	-0.127	-0.292
-166.852	800.000	-0.045	0.163
-165.837	217.581	-0.255	0.402
-164.823	29.335	-0.056	-0.047
-163.808	800.000	-0.042	0.128
-162.793	56.999	0.138	0.133
-161.779	-112.405	0.161	0.032
-160.764	33.239	-0.230	0.197
-159.750	-200.000	-0.037	-0.208
-158.735	92.469	0.142	0.157
-157.720	800.000	-0.035	-0.142
-156.706	-22.098	0.169	0.101
-155.691	347.984	0.178	-0.346
-154.677	235.974	0.167	-0.273
-153.662	86.700	-0.298	0.324
-152.647	-155.752	-0.068	0.004
-151.633	800.000	-0.050	-0.173
-150.618	94.690	-0.034	-0.039
-149.604	-183.312	0.200	0.003
-148.589	4.756	0.160	0.116
-147.574	207.925	0.089	0.137
-146.560	-4.009	0.234	0.160
-145.545	-103.861	0.198	0.046
-144.531	-187.796	-0.070	-0.001
-143.516	-162.668	-0.094	-0.005
-142.502	-4.656	-0.235	-0.160
-141.487	-130.625	-0.027	0.004
-140.472	800.000	-0.054	0.229
-139.458	-112.488	0.304	-0.060
-138.443	-50.266	-0.301	0.140
-137.429	-200.000	0.080	0.540
-136.414	-190.797	0.126	0.001
-135.399	-66.493	0.014	-0.005
-134.385	-23.696	0.250	-0.148
-133.370	16.911	-0.162	-0.126
-132.356	-200.000	0.025	0.240
-131.341	138.482	0.226	-0.292
-130.326	-117.039	-0.179	-0.032
-129.312	-36.335	-0.314	0.167
-128.297	278.479	-0.098	-0.171
-127.283	800.000	0.066	-0.246
-126.268	735.276	-0.073	-0.193
-125.253	58.609	-0.046	0.045
-124.239	110.630	-0.199	0.235
-123.224	-136.321	-0.275	0.032
-122.210	90.462	0.055	-0.061
