DTS Sentinel unit serial number:	SN413079Multiplexer serial number:	ORYXHardware model number:	OX4-SRSoftware version number:	ORYX F/W v4.00 Oryx Data Collector v3.7.2.0data status	okinstallation	princeton_trtdifferential loss correction	single-endedforward channel	channel 2reverse channel	N/Adate	2019/09/13time	23:03:35forward acquisition time	60.00reverse acquisition time	0.00gamma	496.2192k internal	0.2336k external	0.2336temperature offset calibration	1.0132default loss term (dB/km)	0.3790temperature slope calibration	1.0000multiplexer offset coefficient	1.0000multiplexer slope coefficient	1.0000fibre end	0.00T internal ref (°C)	27.28T ext. ref 1 (°C)	3.19T ext. ref 2 (°C)	21.26length (m)	temperature (°C)	Stokes	anti-Stokes-747.200	800.000	0.037	-0.138
-746.185	190.859	-0.195	0.294
-745.171	9.283	0.032	-0.024
-744.156	800.000	-0.060	0.231
-743.142	-52.365	-0.149	0.069
-742.127	800.000	-0.051	0.146
-741.112	9.513	-0.154	0.117
-740.098	-200.000	0.042	0.236
-739.083	-98.784	-0.257	0.066
-738.069	241.617	-0.100	0.167
-737.054	171.278	-0.211	0.304
-736.039	2.116	-0.379	0.275
-735.025	-33.463	0.342	-0.190
-734.010	800.000	0.024	0.067
-732.996	75.724	-0.206	-0.219
-731.981	22.503	0.045	-0.037
-730.966	86.863	0.196	-0.217
-729.952	-74.263	0.299	-0.108
-728.937	49.305	0.185	-0.175
-727.923	-9.054	0.043	0.029
-726.908	528.068	-0.027	0.065
-725.894	129.762	0.100	-0.128
-724.879	250.221	0.075	-0.127
-723.864	-116.829	-0.185	-0.034
-722.850	46.951	0.177	-0.166
-721.835	140.301	0.073	-0.097
-720.821	-26.679	-0.202	-0.118
-719.806	-27.436	0.209	-0.122
-718.791	-33.209	-0.179	-0.100
-717.777	29.476	0.114	0.097
-716.762	0.303	0.085	0.061
-715.748	161.262	0.083	0.117
-714.733	49.581	0.177	-0.167
-713.718	-58.374	-0.232	-0.101
-712.704	294.586	-0.112	-0.206
-711.689	-200.000	0.011	0.114
-710.675	-58.649	0.064	0.028
-709.660	-101.751	0.247	0.060
-708.645	-136.219	0.223	0.026
-707.631	-88.753	-0.462	0.138
-706.616	-106.791	-0.096	-0.021
-705.602	56.483	-0.156	0.152
-704.587	0.517	-0.027	-0.019
-703.572	-150.566	0.152	0.012
-702.558	-35.494	-0.258	0.140
-701.543	-96.294	-0.337	-0.090
-700.529	521.584	0.142	0.334
-699.514	142.336	-0.063	-0.084
-698.499	-200.000	-0.001	-0.098
-697.485	-86.077	0.030	-0.009
-696.470	-126.578	-0.271	-0.040
-695.456	-200.000	-0.022	0.117
-694.441	62.493	-0.157	-0.157
-693.426	690.549	0.074	-0.194
-692.412	-3.980	-0.132	-0.091
-691.397	-200.000	-0.001	-0.072
-690.383	490.804	0.170	-0.391
-689.368	529.328	-0.028	0.065
-688.354	-26.949	0.124	0.072
-687.339	-100.234	0.153	-0.038
-686.324	82.755	0.200	0.217
-685.310	-200.000	0.019	0.214
-684.295	-49.887	-0.109	-0.052
-683.281	800.000	0.103	0.327
-682.266	398.916	-0.146	-0.306
-681.251	-200.000	-0.007	0.191
-680.237	99.730	-0.144	0.167
-679.222	298.760	0.022	0.041
-678.208	111.775	0.298	-0.360
-677.193	27.736	0.279	-0.236
-676.178	-200.000	-0.068	0.495
-675.164	-112.870	0.106	0.021
-674.149	-60.993	0.177	-0.075
-673.135	318.961	0.107	0.203
-672.120	270.594	-0.032	0.057
-671.105	-79.087	0.265	0.090
-670.091	-133.219	0.146	-0.018
-669.076	291.894	0.121	0.221
-668.062	-27.953	-0.114	0.066
-667.047	-62.207	0.152	-0.063
-666.032	800.000	0.063	0.270
-665.018	3.237	-0.146	0.107
-664.003	164.896	0.126	-0.178
-662.989	-1.516	-0.282	-0.199
-661.974	-200.000	0.017	0.126
-660.959	800.000	0.062	-0.208
-659.945	-200.000	0.048	-0.403
-658.930	-166.732	-0.242	0.010
-657.916	-200.000	-0.020	0.143
-656.901	518.041	0.158	0.371
-655.886	-200.000	0.017	0.142
-654.872	159.132	-0.240	-0.334
-653.857	-144.290	-0.211	-0.020
-652.843	-129.057	0.216	0.030
-651.828	-198.557	-0.273	0.002
-650.814	188.381	0.210	-0.315
-649.799	319.692	0.016	0.031
-648.784	-118.909	0.110	-0.019
-647.770	-82.044	0.120	-0.039
-646.755	102.495	-0.198	-0.232
-645.741	112.674	0.130	0.157
-644.726	800.000	-0.033	0.128
-643.711	350.514	0.114	-0.226
-642.697	328.304	0.147	0.282
-641.682	-46.575	-0.042	0.021
-640.668	-84.291	0.220	0.070
-639.653	-94.685	0.216	0.059
-638.638	-200.000	-0.004	-0.320
-637.624	-54.103	-0.122	0.056
-636.609	800.000	-0.157	0.543
-635.595	-86.076	-0.071	-0.022
-634.580	98.558	0.057	0.066
-633.565	200.645	0.087	-0.134
-632.551	-200.000	-0.035	0.169
-631.536	118.360	-0.040	-0.049
-630.522	-0.461	-0.330	0.234
-629.507	-200.000	0.023	-0.244
-628.492	-54.330	-0.286	0.130
-627.478	-124.953	0.107	0.017
-626.463	-33.401	-0.201	0.111
-625.449	139.029	0.190	0.249
-624.434	173.594	0.075	0.108
-623.419	60.008	-0.201	0.198
-622.405	-88.353	-0.200	0.060
-621.390	191.365	0.258	0.389
-620.376	-169.566	0.333	-0.012
-619.361	-121.682	-0.389	-0.064
-618.346	584.763	0.110	-0.270
-617.332	-124.061	-0.310	-0.049
-616.317	92.750	0.157	-0.177
-615.303	-93.472	0.111	0.031
-614.288	-200.000	0.015	-0.298
-613.273	-83.877	0.298	0.095
-612.259	-149.787	-0.232	-0.018
-611.244	-200.000	-0.000	0.086
-610.230	61.702	-0.054	-0.054
-609.215	-44.704	0.261	-0.130
-608.201	148.134	-0.063	-0.085
-607.186	229.673	0.157	0.255
-606.171	-26.905	-0.171	0.100
-605.157	800.000	0.043	-0.170
-604.142	45.314	-0.200	-0.184
-603.128	-200.000	-0.010	-0.246
-602.113	800.000	-0.013	0.046
-601.098	48.634	-0.150	0.141
-600.084	-200.000	0.037	0.190
-599.069	-200.000	-0.003	0.139
-598.055	-200.000	0.069	0.336
-597.040	69.924	0.108	-0.111
-596.025	-0.575	0.395	-0.280
-595.011	-200.000	0.044	-0.323
-593.996	-98.579	0.197	0.050
-592.982	206.672	0.096	0.149
-591.967	-112.810	-0.301	0.060
-590.952	-200.000	0.036	-0.254
-589.938	-19.725	0.348	0.215
-588.923	315.116	-0.107	-0.202
-587.909	-200.000	0.013	-0.377
-586.894	-88.610	-0.208	-0.062
-585.879	-80.137	-0.218	0.073
-584.865	-86.480	0.194	0.059
-583.850	32.936	-0.334	-0.289
-582.836	184.857	0.127	0.188
-581.821	-59.959	0.114	0.048
-580.806	3.251	-0.109	0.079
-579.792	150.696	-0.049	-0.067
-578.777	-30.541	-0.197	-0.111
-577.763	724.026	0.068	0.182
-576.748	-200.000	0.016	0.217
-575.733	800.000	-0.070	0.251
-574.719	57.398	-0.142	0.139
-573.704	29.292	0.057	0.049
-572.690	5.532	-0.073	-0.054
-571.675	92.481	-0.271	-0.304
-570.661	9.739	0.200	0.151
-569.646	-73.395	0.208	0.076
-568.631	-6.884	-0.187	-0.127
-567.617	381.892	-0.071	0.145
-566.602	422.305	-0.074	-0.158
-565.588	-200.000	-0.040	0.279
-564.573	-200.000	0.009	-0.121
-563.558	186.782	-0.033	-0.049
-562.544	-80.101	0.132	0.044
-561.529	-178.338	0.251	0.006
-560.515	429.823	0.014	-0.031
-559.500	728.664	-0.020	-0.053
-558.485	-139.325	0.349	0.037
-557.471	23.108	0.166	0.136
-556.456	-107.235	-0.199	-0.044
-555.442	39.687	-0.109	-0.098
-554.427	-117.274	-0.200	-0.036
-553.412	-13.032	0.411	-0.266
-552.398	217.602	0.163	-0.260
-551.383	201.813	-0.193	-0.297
-550.369	-115.794	-0.165	0.031
-549.354	211.284	-0.192	0.302
-548.339	182.863	-0.165	0.242
-547.325	28.422	-0.195	0.164
-546.310	462.223	0.042	-0.093
-545.296	800.000	0.037	-0.108
-544.281	-58.272	0.211	-0.091
-543.266	-107.264	-0.199	-0.044
-542.252	-147.021	-0.136	0.012
-541.237	800.000	0.084	0.234
-540.223	-200.000	-0.037	-0.242
-539.208	-200.000	-0.020	0.089
-538.193	349.774	0.065	-0.127
-537.179	137.947	0.178	0.232
-536.164	800.000	0.076	0.240
-535.150	-36.924	0.023	0.012
-534.135	715.539	-0.084	-0.222
-533.121	-2.919	-0.422	-0.294
-532.106	236.074	0.127	0.209
-531.091	38.074	-0.100	0.089
-530.077	37.875	0.207	0.183
-529.062	-94.607	0.028	-0.008
-528.048	-200.000	-0.049	0.259
-527.033	49.693	0.384	0.360
-526.018	800.000	-0.023	0.070
-525.004	-43.074	0.121	-0.061
-523.989	-200.000	0.070	0.357
-522.975	-200.000	-0.004	-0.173
-521.960	-50.024	-0.161	-0.076
-520.945	-62.321	-0.350	0.145
-519.931	328.034	-0.074	-0.142
-518.916	215.173	0.348	-0.549
-517.902	169.165	-0.018	-0.026
-516.887	190.161	0.055	-0.082
-515.872	150.300	-0.124	0.167
-514.858	-42.736	0.113	0.057
-513.843	-200.000	-0.007	0.154
-512.829	-200.000	0.029	-0.231
-511.814	-44.975	0.347	0.172
-510.799	-14.464	0.139	-0.089
-509.785	-109.425	0.207	-0.044
-508.770	-186.235	0.221	-0.003
-507.756	131.605	-0.175	-0.224
-506.741	-126.335	-0.217	0.032
-505.726	86.604	0.401	0.440
-504.712	-200.000	-0.021	0.110
-503.697	360.703	0.138	-0.275
-502.683	220.362	0.144	0.229
-501.668	74.218	0.025	0.026
-500.653	-200.000	-0.002	-0.225
-499.639	592.484	-0.041	-0.101
-498.624	124.282	0.131	0.164
-497.610	550.082	-0.049	-0.117
-496.595	-200.000	0.009	-0.282
-495.581	-103.376	-0.083	-0.019
-494.566	-200.000	-0.047	0.272
-493.551	403.946	0.066	-0.139
-492.537	-35.374	-0.265	0.143
-491.522	-24.720	0.069	-0.041
-490.508	-39.620	-0.070	0.036
-489.493	-26.091	0.168	0.098
-488.478	-200.000	0.130	0.000
-487.464	-110.446	-0.363	-0.075
-486.449	800.000	0.046	0.185
-485.435	-23.753	-0.235	0.140
-484.420	30.996	0.260	-0.221
-483.405	-13.839	-0.086	-0.055
-482.391	-36.495	-0.136	0.073
-481.376	609.330	0.062	0.155
-480.362	-19.668	-0.169	-0.104
-479.347	223.993	-0.172	0.277
-478.332	-131.828	0.204	-0.026
-477.318	-200.000	0.001	0.040
-476.303	170.447	0.084	-0.119
-475.289	624.364	-0.057	0.142
-474.274	93.639	0.018	0.020
-473.259	221.878	-0.203	-0.324
-472.245	800.000	0.012	0.036
-471.230	-164.415	0.073	0.003
-470.216	108.656	-0.062	-0.073
-469.201	-200.000	-0.032	0.248
-468.186	4.404	0.274	-0.200
-467.172	-200.000	-0.002	0.055
-466.157	-94.526	0.148	0.040
-465.143	-164.688	-0.362	-0.016
-464.128	-93.278	0.258	-0.071
-463.113	-200.000	0.029	-0.198
-462.099	-167.773	0.237	-0.009
-461.084	94.873	-0.191	-0.216
-460.070	800.000	-0.068	-0.279
-459.055	-200.000	0.012	-0.080
-458.040	88.120	0.054	0.059
-457.026	-69.190	0.223	-0.085
-456.011	-11.417	0.103	0.067
-454.997	800.000	0.057	0.161
-453.982	641.701	0.093	0.236
-452.968	18.659	-0.151	0.120
-451.953	-155.368	0.188	0.012
-450.938	-103.581	-0.189	-0.044
-449.924	-153.317	-0.350	0.024
-448.909	800.000	0.090	0.289
-447.895	-31.970	0.506	0.281
-446.880	-40.058	-0.041	0.021
-445.865	-200.000	-0.004	0.024
-444.851	-163.330	-0.245	0.012
-443.836	400.219	0.034	-0.071
-442.822	264.651	-0.055	0.094
-441.807	-200.000	-0.053	0.348
-440.792	-69.658	0.065	0.025
-439.778	141.309	-0.146	-0.192
-438.763	-40.954	0.099	-0.051
-437.749	-32.457	0.085	-0.047
-436.734	260.627	0.079	0.136
-435.719	280.060	0.105	0.186
-434.705	248.322	0.132	-0.221
-433.690	224.993	-0.080	0.128
-432.676	-158.840	0.137	0.008
-431.661	-200.000	-0.037	-0.374
-430.646	-200.000	-0.054	-0.246
-429.632	-200.000	0.001	-0.041
-428.617	-41.453	0.257	-0.131
-427.603	-96.199	0.048	-0.013
-426.588	39.794	0.122	-0.108
-425.573	-62.009	-0.107	0.044
-424.559	-101.394	0.141	-0.034
-423.544	231.890	-0.030	0.050
-422.530	228.351	0.234	-0.378
-421.515	-141.423	-0.340	0.034
-420.500	160.109	-0.144	0.199
-419.486	-135.692	-0.410	-0.048
-418.471	414.796	-0.025	-0.054
-417.457	5.934	0.248	0.182
-416.442	190.595	-0.041	-0.061
-415.428	246.483	-0.136	-0.227
-414.413	-0.705	-0.169	0.119
-413.398	110.029	0.022	-0.026
-412.384	-94.325	-0.151	-0.041
-411.369	47.271	-0.184	0.169
-410.355	-2.548	0.074	-0.052
-409.340	-86.391	-0.083	-0.025
-408.325	190.719	-0.167	-0.248
-407.311	800.000	-0.127	-0.423
-406.296	120.120	0.161	-0.198
-405.282	800.000	0.022	0.085
-404.267	101.858	0.212	-0.246
-403.252	-103.570	-0.328	0.076
-402.238	800.000	-0.082	-0.279
-401.223	460.352	0.042	-0.093
-400.209	-110.432	-0.291	0.060
-399.194	-189.330	-0.425	0.005
-398.179	569.211	0.050	0.121
-397.165	-57.205	-0.295	-0.129
-396.150	-103.200	0.232	0.054
-395.136	220.787	-0.055	0.087
-394.121	474.426	0.151	0.337
-393.106	-39.699	0.154	0.080
-392.092	-4.240	-0.187	0.128
-391.077	116.314	-0.143	0.174
-390.063	-50.805	-0.137	-0.064
-389.048	800.000	-0.066	0.189
-388.033	-200.000	-0.001	0.146
-387.019	-159.083	-0.149	0.008
-386.004	-200.000	-0.012	-0.084
-384.990	-105.414	0.278	-0.063
-383.975	800.000	0.059	0.192
-382.960	-200.000	0.003	-0.018
-381.946	269.229	0.070	-0.122
-380.931	800.000	0.015	-0.044
-379.917	101.540	0.119	0.138
-378.902	-200.000	-0.013	0.225
-377.888	92.266	-0.046	0.052
-376.873	-115.912	-0.442	-0.082
-375.858	-200.000	0.027	-0.123
-374.844	-115.898	0.075	0.014
-373.829	203.681	0.096	0.148
-372.815	800.000	-0.016	0.059
-371.800	-71.551	0.273	0.101
-370.785	-200.000	0.008	-0.170
-369.771	399.527	-0.057	-0.118
-368.756	59.040	0.184	-0.179
-367.742	201.930	0.074	0.112
-366.727	678.638	-0.204	0.525
-365.712	-51.093	-0.194	-0.090
-364.698	21.879	-0.095	-0.077
-363.683	-26.814	-0.176	-0.102
-362.669	-96.211	0.131	-0.034
-361.654	198.011	0.137	0.208
-360.639	-68.742	0.058	-0.022
-359.625	195.924	-0.144	-0.216
-358.610	-30.611	0.109	-0.061
-357.596	319.904	0.225	0.422
-356.581	-200.000	0.013	-0.080
-355.566	-200.000	0.021	0.278
-354.552	382.232	0.057	0.116
-353.537	800.000	-0.059	-0.205
-352.523	128.747	-0.005	-0.006
-351.508	-89.220	-0.176	-0.051
-350.493	-37.260	0.351	-0.185
-349.479	-46.435	-0.492	-0.239
-348.464	15.018	0.321	-0.248
-347.450	123.678	0.161	0.199
-346.435	64.291	-0.067	-0.066
-345.420	-200.000	0.016	-0.223
-344.406	-47.297	0.109	-0.052
-343.391	-200.000	-0.020	-0.120
-342.377	-21.479	-0.109	-0.066
-341.362	-18.039	0.004	-0.002
-340.348	-1.020	-0.322	-0.225
-339.333	-0.242	0.157	-0.110
-338.318	-74.939	-0.201	-0.071
-337.304	99.632	0.048	-0.055
-336.289	-148.371	0.083	0.007
-335.275	-84.445	0.281	-0.088
-334.260	-130.058	-0.253	-0.034
-333.245	800.000	-0.042	-0.140
-332.231	253.110	-0.148	0.250
-331.216	-181.853	-0.264	-0.005
-330.202	800.000	0.054	0.186
-329.187	-200.000	0.010	0.269
-328.172	413.315	-0.062	0.130
-327.158	-200.000	0.012	-0.090
-326.143	-87.632	0.325	0.097
-325.129	-200.000	-0.011	0.317
-324.114	-200.000	0.006	0.116
-323.099	545.743	0.064	-0.151
-322.085	-32.376	0.375	-0.207
-321.070	-47.110	0.313	-0.151
-320.056	-73.160	0.115	0.042
-319.041	70.398	-0.151	0.154
-318.026	-200.000	-0.031	0.186
-317.012	77.577	0.262	-0.275
-315.997	800.000	0.045	0.142
-314.983	97.577	-0.118	-0.134
-313.968	-69.650	0.218	0.082
-312.953	248.737	0.140	-0.234
-311.939	-16.841	0.066	0.041
-310.924	800.000	0.106	0.319
-309.910	-200.000	-0.012	-0.322
-308.895	-60.589	0.153	-0.064
-307.880	-40.771	0.344	0.176
-306.866	-22.110	-0.331	0.199
-305.851	72.080	0.012	-0.012
-304.837	321.651	-0.158	-0.296
-303.822	189.433	-0.092	-0.137
-302.807	58.298	0.153	-0.148
-301.793	-91.758	0.117	0.033
-300.778	226.399	-0.102	0.164
-299.764	153.167	0.117	-0.158
-298.749	-200.000	-0.018	-0.306
-297.735	-69.438	-0.167	-0.063
-296.720	103.449	-0.189	-0.219
-295.705	-200.000	-0.032	0.397
-294.691	-151.880	0.196	0.014
-293.676	-63.322	0.148	-0.060
-292.662	42.987	0.188	-0.169
-291.647	-55.112	0.133	-0.059
-290.632	-41.713	-0.159	-0.080
-289.618	800.000	-0.014	0.041
-288.603	297.419	0.111	0.201
-287.589	116.188	0.094	0.114
-286.574	-200.000	-0.006	-0.292
-285.559	796.850	-0.060	0.163
-284.545	-27.520	0.191	-0.109
-283.530	-64.275	-0.103	0.041
-282.516	-200.000	-0.020	-0.104
-281.501	800.000	-0.077	0.247
-280.486	800.000	-0.111	0.381
-279.472	18.894	-0.030	0.024
-278.457	-143.543	0.097	0.009
-277.443	-125.360	0.186	0.028
-276.428	-95.723	-0.124	0.033
-275.413	158.146	-0.044	-0.061
-274.399	383.859	0.153	0.310
-273.384	15.772	-0.280	-0.217
-272.370	490.527	-0.150	0.339
-271.355	4.353	0.270	-0.195
-270.340	178.864	0.169	0.244
-269.326	453.897	0.109	-0.239
-268.311	118.735	0.199	0.242
-267.297	-103.083	0.108	-0.025
-266.282	105.983	-0.020	0.023
-265.267	534.249	-0.066	0.155
-264.253	800.000	0.067	0.202
-263.238	-183.720	0.374	0.006
-262.224	-94.383	-0.233	0.063
-261.209	134.261	0.136	-0.174
-260.195	12.206	-0.060	0.046
-259.180	78.723	-0.123	0.130
-258.165	129.444	0.037	0.047
-257.151	37.072	-0.132	-0.115
-256.136	-200.000	0.060	0.298
-255.122	186.170	-0.066	-0.096
-254.107	800.000	-0.126	0.406
-253.092	-200.000	-0.051	0.258
-252.078	-122.669	-0.233	-0.037
-251.063	638.455	0.097	0.243
-250.049	-200.000	0.054	-0.337
-249.034	-200.000	0.029	0.216
-248.019	-200.000	-0.057	-0.345
-247.005	-200.000	0.010	0.135
-245.990	158.474	-0.136	-0.185
-244.976	467.997	-0.044	-0.098
-243.961	-200.000	-0.018	-0.138
-242.946	-81.070	-0.266	0.087
-241.932	488.000	0.053	-0.118
-240.917	592.323	0.204	0.495
-239.903	-20.837	0.103	0.062
-238.888	250.099	0.094	-0.157
-237.873	-200.000	-0.005	-0.037
-236.859	-22.845	0.346	-0.205
-235.844	-200.000	-0.010	-0.145
-234.830	108.086	0.076	-0.089
-233.815	-41.223	-0.198	0.101
-232.800	-9.731	-0.244	-0.160
-231.786	-48.865	-0.185	-0.087
-230.771	-122.927	0.222	-0.035
-229.757	800.000	0.065	-0.232
-228.742	-37.157	-0.026	0.014
-227.727	70.289	0.236	0.240
-226.713	-95.899	-0.207	-0.054
-225.698	-102.442	0.226	-0.053
-224.684	322.355	-0.070	-0.131
-223.669	-200.000	0.002	0.048
-222.655	452.645	0.023	-0.051
-221.640	15.612	-0.078	0.061
-220.625	57.362	0.112	-0.108
-219.611	350.183	0.155	-0.302
-218.596	-151.772	-0.015	0.001
-217.582	-200.000	-0.033	-0.244
-216.567	-82.732	0.094	-0.030
-215.552	800.000	0.045	-0.137
-214.538	800.000	0.068	-0.204
-213.523	-39.317	-0.201	-0.104
-212.509	-150.753	-0.261	0.019
-211.494	54.362	0.175	-0.165
-210.479	-29.111	0.163	-0.092
-209.465	-200.000	-0.006	-0.044
-208.450	112.759	0.204	0.243
-207.436	247.271	0.079	0.131
-206.421	19.192	0.089	0.071
-205.406	69.927	-0.137	0.139
-204.392	800.000	-0.071	-0.206
-203.377	54.729	-0.526	0.499
-202.363	341.729	-0.142	-0.273
-201.348	-0.141	0.017	0.012
-200.333	800.000	0.050	-0.158
-199.319	70.439	-0.212	0.215
-198.304	77.530	-0.083	-0.087
-197.290	-200.000	0.008	-0.451
-196.275	172.188	0.064	-0.091
-195.260	-92.576	-0.167	0.046
-194.246	-200.000	-0.002	0.098
-193.231	-200.000	0.004	-0.094
-192.217	-58.258	-0.353	0.151
-191.202	-200.000	-0.041	0.247
-190.187	86.201	0.153	0.166
-189.173	-1.324	0.172	-0.119
-188.158	-200.000	-0.051	-0.422
-187.144	103.460	0.160	0.184
-186.129	-171.171	-0.244	-0.008
-185.114	-117.334	-0.290	0.052
-184.100	-200.000	0.036	-0.167
-183.085	588.770	0.061	-0.149
-182.071	641.763	0.021	0.051
-181.056	-200.000	-0.007	0.050
-180.042	-31.867	-0.469	0.258
-179.027	-113.503	0.407	0.078
-178.012	49.048	-0.138	-0.127
-176.998	-139.904	-0.405	-0.042
-175.983	-103.414	0.370	0.086
-174.969	174.452	0.048	0.068
-173.954	-177.559	-0.170	0.004
-172.939	608.697	-0.058	0.143
-171.925	800.000	0.019	-0.076
-170.910	282.911	-0.106	0.186
-169.896	546.172	0.023	-0.054
-168.881	-200.000	-0.027	-0.283
-167.866	332.022	0.050	-0.094
-166.852	130.958	0.110	0.138
-165.837	-87.222	-0.320	-0.095
-164.823	79.752	0.056	0.059
-163.808	28.698	0.140	-0.117
-162.793	-118.032	0.366	-0.064
-161.779	-30.486	-0.274	-0.152
-160.764	-33.076	-0.247	0.134
-159.750	-200.000	-0.038	0.184
-158.735	-200.000	-0.017	0.195
-157.720	-200.000	0.026	-0.209
-156.706	-200.000	-0.043	-0.249
-155.691	-58.741	-0.045	-0.019
-154.677	-54.281	-0.157	0.070
-153.662	-200.000	-0.011	0.081
-152.647	130.260	-0.152	-0.191
-151.633	21.819	-0.068	0.054
-150.618	-200.000	0.018	0.090
-149.604	-12.870	0.356	-0.227
-148.589	274.145	0.078	-0.136
-147.574	650.408	-0.075	0.188
-146.560	39.663	-0.159	-0.140
-145.545	800.000	0.113	-0.344
-144.531	800.000	-0.088	0.335
-143.516	92.554	-0.131	0.145
-142.502	217.929	-0.044	-0.069
-141.487	372.080	0.080	0.159
-140.472	800.000	-0.076	0.220
-139.458	-134.868	-0.099	0.012
-138.443	4.727	0.215	-0.155
-137.429	627.518	0.128	-0.316
-136.414	50.188	-0.172	-0.159
-135.399	307.746	0.204	-0.372
-134.385	-14.887	0.167	0.105
-133.370	-4.936	-0.102	0.069
-132.356	-110.516	-0.043	-0.009
-131.341	-200.000	0.002	-0.041
-130.326	265.594	0.206	-0.352
-129.312	800.000	-0.040	-0.109
-128.297	388.959	-0.075	-0.151
-127.283	-64.344	-0.230	-0.092
-126.268	377.263	-0.052	0.105
-125.253	800.000	0.110	0.419
-124.239	-155.327	-0.320	-0.020
-123.224	-128.798	-0.354	-0.049
-122.210	751.449	0.049	-0.129
-121.195	-14.864	-0.192	0.121
