DTS Sentinel unit serial number:	SN413079Multiplexer serial number:	ORYXHardware model number:	OX4-SRSoftware version number:	ORYX F/W v4.00 Oryx Data Collector v3.7.2.0data status	okinstallation	princeton_trtdifferential loss correction	single-endedforward channel	channel 2reverse channel	N/Adate	2019/09/15time	16:47:35forward acquisition time	60.00reverse acquisition time	0.00gamma	496.2192k internal	0.2285k external	0.2285temperature offset calibration	0.9934default loss term (dB/km)	0.3790temperature slope calibration	1.0000multiplexer offset coefficient	1.0000multiplexer slope coefficient	1.0000fibre end	0.00T internal ref (°C)	44.30T ext. ref 1 (°C)	5.74T ext. ref 2 (°C)	40.27length (m)	temperature (°C)	Stokes	anti-Stokes-747.200	-44.974	-0.132	0.067
-746.185	38.115	0.015	0.013
-745.171	558.817	-0.139	-0.344
-744.156	345.358	0.048	0.096
-743.142	800.000	-0.069	0.280
-742.127	20.905	-0.327	0.272
-741.112	-175.863	-0.260	0.007
-740.098	-200.000	-0.020	0.173
-739.083	112.038	-0.212	0.263
-738.069	-200.000	-0.068	0.454
-737.054	-177.289	-0.064	-0.002
-736.039	-117.839	-0.267	0.049
-735.025	-106.654	0.117	0.027
-734.010	-63.575	0.210	0.088
-732.996	161.976	0.089	-0.128
-731.981	-82.044	-0.242	-0.081
-730.966	131.509	-0.051	0.067
-729.952	243.586	0.158	0.272
-728.937	76.218	-0.159	-0.173
-727.923	-5.409	-0.169	0.119
-726.908	-31.183	-0.358	-0.207
-725.894	15.465	-0.114	-0.092
-724.879	-16.373	0.094	0.061
-723.864	578.234	-0.052	-0.131
-722.850	-155.321	-0.096	-0.006
-721.835	337.734	0.050	-0.099
-720.821	157.423	-0.247	0.351
-719.806	-89.624	-0.137	0.041
-718.791	147.605	-0.151	0.208
-717.777	-173.476	-0.477	0.015
-716.762	529.522	-0.113	-0.275
-715.748	-1.900	0.038	0.027
-714.733	800.000	-0.087	0.288
-713.718	37.694	0.137	-0.124
-712.704	-122.640	0.232	0.039
-711.689	-139.387	-0.176	0.019
-710.675	-106.437	0.091	0.021
-709.660	-200.000	0.001	-0.344
-708.645	-129.650	0.155	0.022
-707.631	646.361	-0.083	0.218
-706.616	1.465	-0.192	-0.142
-705.602	-10.499	-0.348	-0.236
-704.587	800.000	-0.050	-0.169
-703.572	-99.796	0.174	-0.045
-702.558	-42.452	-0.186	-0.097
-701.543	26.808	0.206	0.177
-700.529	12.773	-0.077	0.061
-699.514	-200.000	0.021	0.511
-698.499	-24.651	-0.086	0.052
-697.485	-200.000	0.054	-0.407
-696.470	-200.000	-0.001	-0.118
-695.456	463.168	-0.151	-0.346
-694.441	800.000	0.144	-0.522
-693.426	-53.773	0.126	-0.059
-692.412	105.941	-0.148	0.179
-691.397	-82.691	0.164	-0.054
-690.383	-60.203	0.212	-0.092
-689.368	800.000	-0.065	-0.280
-688.354	-118.044	0.141	0.026
-687.339	70.780	-0.277	0.294
-686.324	-149.547	-0.282	-0.023
-685.310	108.931	0.061	-0.075
-684.295	-46.687	0.095	-0.048
-683.281	-149.686	0.378	-0.030
-682.266	26.509	-0.203	-0.174
-681.251	39.598	0.099	0.091
-680.237	-146.796	0.248	-0.022
-679.222	-186.847	-0.285	-0.004
-678.208	60.376	-0.132	0.133
-677.193	-123.692	-0.446	-0.072
-676.178	-32.477	-0.164	0.094
-675.164	8.410	-0.189	0.146
-674.149	-200.000	-0.022	-0.176
-673.135	-101.402	0.136	0.034
-672.120	-76.811	-0.183	0.065
-671.105	800.000	0.033	0.096
-670.091	-200.000	-0.066	-0.332
-669.076	-200.000	0.023	-0.383
-668.062	-200.000	0.009	-0.263
-667.047	374.464	0.004	-0.008
-666.032	-150.751	0.196	0.015
-665.018	56.878	-0.016	0.016
-664.003	-93.393	-0.215	-0.061
-662.989	-110.887	0.071	0.015
-661.974	722.672	0.083	0.226
-660.959	183.177	-0.095	0.144
-659.945	-200.000	0.020	0.195
-658.930	-200.000	-0.010	0.111
-657.916	39.362	-0.080	-0.073
-656.901	-134.406	0.070	-0.009
-655.886	800.000	0.032	-0.130
-654.872	-200.000	0.054	-0.374
-653.857	156.480	-0.198	-0.280
-652.843	-200.000	-0.041	-0.193
-651.828	-200.000	-0.010	-0.114
-650.814	269.353	0.078	-0.140
-649.799	-84.992	0.500	-0.160
-648.784	-117.435	-0.153	-0.028
-647.770	-199.261	0.189	-0.001
-646.755	-200.000	-0.013	-0.176
-645.741	88.749	-0.202	-0.229
-644.726	-107.322	0.437	-0.098
-643.711	253.056	0.033	-0.058
-642.697	691.595	0.160	0.429
-641.682	137.915	0.118	0.157
-640.668	-31.340	0.243	-0.140
-639.653	-200.000	0.021	-0.115
-638.638	40.395	-0.090	0.083
-637.624	-200.000	0.047	-0.302
-636.609	-122.013	0.197	-0.033
-635.595	-200.000	-0.063	0.323
-634.580	-137.482	0.138	-0.016
-633.565	59.874	0.196	0.198
-632.551	152.850	0.058	-0.081
-631.536	-141.749	-0.331	0.034
-630.522	-64.642	-0.534	0.221
-629.507	-101.113	-0.148	0.037
-628.492	-146.769	0.236	0.021
-627.478	-142.296	0.304	-0.031
-626.463	-200.000	0.014	-0.190
-625.449	800.000	-0.052	-0.204
-624.434	800.000	0.060	-0.214
-623.419	-50.097	0.267	-0.129
-622.405	449.229	-0.164	-0.369
-621.390	161.415	-0.122	0.174
-620.376	21.105	-0.354	-0.293
-619.361	-147.429	0.124	0.011
-618.346	93.790	0.130	0.151
-617.332	800.000	0.013	0.045
-616.317	497.072	-0.060	-0.142
-615.303	7.217	0.246	0.187
-614.288	-11.623	-0.166	0.112
-613.273	800.000	-0.072	0.260
-612.259	-200.000	-0.027	-0.428
-611.244	800.000	-0.099	-0.324
-610.230	-137.028	0.256	0.030
-609.215	37.713	0.022	0.020
-608.201	-200.000	-0.006	-0.238
-607.186	-108.023	0.105	0.023
-606.171	800.000	0.076	-0.226
-605.157	800.000	-0.102	-0.292
-604.142	800.000	0.056	-0.164
-603.128	47.087	0.212	-0.202
-602.113	-140.860	-0.188	-0.020
-601.098	-200.000	-0.040	-0.209
-600.084	407.147	-0.136	0.294
-599.069	145.309	-0.173	0.236
-598.055	-146.687	0.355	-0.031
-597.040	104.319	0.263	-0.316
-596.025	82.907	0.314	-0.348
-595.011	656.083	-0.041	-0.107
-593.996	800.000	0.081	0.320
-592.982	253.721	-0.167	0.291
-591.967	64.390	-0.163	0.167
-590.952	471.379	0.079	0.182
-589.938	148.706	0.028	0.039
-588.923	-55.641	0.153	0.070
-587.909	3.399	-0.080	-0.060
-586.894	97.062	0.109	-0.128
-585.879	-172.334	-0.284	-0.009
-584.865	51.167	-0.288	-0.278
-583.850	-160.628	0.130	0.007
-582.836	-140.641	0.212	0.022
-581.821	-76.034	-0.085	0.031
-580.806	-59.044	-0.052	0.023
-579.792	74.402	0.168	-0.180
-578.777	800.000	-0.050	-0.159
-577.763	800.000	-0.030	0.118
-576.748	52.350	-0.040	-0.039
-575.733	800.000	-0.067	-0.261
-574.719	800.000	0.028	-0.121
-573.704	-6.023	-0.221	-0.154
-572.690	-182.018	0.307	-0.006
-571.675	800.000	0.085	0.288
-570.661	800.000	0.062	-0.268
-569.646	800.000	-0.050	-0.152
-568.631	-200.000	-0.041	-0.574
-567.617	127.485	-0.191	-0.247
-566.602	-200.000	0.029	-0.223
-565.588	230.262	0.005	0.009
-564.573	0.537	-0.117	-0.085
-563.558	-69.259	0.265	-0.104
-562.544	-170.298	0.190	0.007
-561.529	19.591	-0.145	0.119
-560.515	-52.265	0.061	0.029
-559.500	519.114	-0.075	0.179
-558.485	784.956	-0.080	0.224
-557.471	62.767	0.249	0.254
-556.456	147.830	0.074	-0.102
-555.442	-81.177	-0.306	0.103
-554.427	696.297	0.109	-0.292
-553.412	128.295	-0.134	-0.173
-552.398	-200.000	-0.024	-0.135
-551.383	-175.064	0.065	-0.002
-550.369	-200.000	0.046	0.285
-549.354	-52.161	0.144	-0.068
-548.339	-76.038	-0.076	0.027
-547.325	-56.482	-0.047	0.021
-546.310	-91.082	-0.212	-0.062
-545.296	192.278	-0.029	0.045
-544.281	126.046	0.099	0.128
-543.266	-149.305	-0.118	-0.010
-542.252	123.668	-0.148	-0.189
-541.237	-80.205	-0.227	0.077
-540.223	116.682	-0.106	-0.132
-539.208	-200.000	0.045	-0.299
-538.193	800.000	0.089	0.279
-537.179	-0.012	0.201	0.146
-536.164	800.000	0.062	0.189
-535.150	-200.000	0.040	0.257
-534.135	-55.989	0.304	0.138
-533.121	-200.000	0.020	0.357
-532.106	-86.099	0.295	-0.093
-531.091	-159.149	-0.306	0.018
-530.077	683.280	0.060	-0.160
-529.062	-98.694	-0.335	0.087
-528.048	581.818	-0.084	-0.210
-527.033	-49.135	0.096	-0.047
-526.018	189.153	-0.083	0.126
-525.004	115.311	0.280	-0.348
-523.989	-18.866	-0.298	-0.189
-522.975	-7.484	-0.337	-0.232
-521.960	202.599	-0.162	-0.255
-520.945	-149.300	0.195	-0.016
-519.931	800.000	0.094	0.281
-518.916	61.246	0.045	-0.046
-517.902	800.000	0.039	0.140
-516.887	800.000	-0.031	-0.117
-515.872	61.836	0.101	-0.102
-514.858	-11.147	-0.151	-0.101
-513.843	389.325	0.096	-0.201
-512.829	13.738	-0.356	-0.282
-511.814	-76.621	-0.044	0.016
-510.799	-112.351	0.169	0.034
-509.785	-19.529	-0.214	-0.135
-508.770	800.000	-0.046	-0.132
-507.756	120.548	-0.156	0.197
-506.741	162.351	0.255	0.363
-505.726	-114.472	-0.093	-0.018
-504.712	-200.000	0.021	-0.126
-503.697	79.970	-0.183	0.200
-502.683	177.340	-0.123	-0.182
-501.668	-146.881	0.154	-0.013
-500.653	-200.000	-0.021	-0.172
-499.639	-200.000	0.031	-0.412
-498.624	-200.000	0.058	-0.317
-497.610	-200.000	0.024	0.205
-496.595	800.000	-0.033	0.107
-495.581	-24.760	-0.365	0.220
-494.566	9.914	0.156	-0.121
-493.551	-39.412	0.108	-0.058
-492.537	5.028	0.158	-0.118
-491.522	800.000	-0.067	0.281
-490.508	-110.790	-0.066	-0.014
-489.493	-70.220	0.139	-0.054
-488.478	508.653	-0.139	0.328
-487.464	32.102	-0.140	0.123
-486.449	-90.348	0.135	0.040
-485.435	-90.443	0.219	-0.064
-484.420	-145.128	-0.415	0.038
-483.405	-52.872	0.168	0.079
-482.391	800.000	0.118	0.490
-481.376	148.405	0.186	0.255
-480.362	-200.000	-0.042	0.188
-479.347	800.000	-0.049	-0.145
-478.332	334.498	0.030	0.060
-477.318	-200.000	-0.040	0.276
-476.303	-78.098	-0.199	-0.069
-475.289	-3.723	0.170	0.120
-474.274	-200.000	-0.043	-0.259
-473.259	-101.261	-0.078	0.019
-472.245	-190.142	0.203	-0.002
-471.230	-20.668	-0.107	-0.067
-470.216	-115.613	-0.266	0.051
-469.201	-200.000	0.003	0.132
-468.186	-21.403	0.219	-0.136
-467.172	-60.598	-0.132	-0.057
-466.157	-171.357	-0.020	0.001
-465.143	-128.886	-0.105	-0.015
-464.128	30.950	0.123	-0.107
-463.113	-171.860	-0.376	0.012
-462.099	90.480	0.039	-0.045
-461.084	-125.606	-0.162	0.025
-460.070	-88.749	0.226	-0.068
-459.055	800.000	-0.090	0.311
-458.040	-200.000	-0.062	0.434
-457.026	-80.272	0.233	-0.079
-456.011	-36.079	0.176	-0.096
-454.997	249.910	-0.165	0.284
-453.982	-128.173	0.239	-0.035
-452.968	679.279	0.070	-0.186
-451.953	-157.281	0.255	0.016
-450.938	30.490	-0.204	0.177
-449.924	800.000	0.030	0.096
-448.909	158.744	-0.082	-0.116
-447.895	444.648	0.012	-0.026
-446.880	40.601	0.190	-0.174
-445.865	21.198	-0.274	0.225
-444.851	800.000	-0.072	0.278
-443.836	214.447	-0.068	-0.109
-442.822	-129.688	-0.352	0.049
-441.807	75.830	0.275	-0.295
-440.792	-113.090	-0.323	0.065
-439.778	36.576	-0.093	0.083
-438.763	-57.621	0.183	-0.081
-437.749	-115.409	-0.292	0.056
-436.734	439.076	-0.105	-0.232
-435.719	65.724	0.115	0.118
-434.705	-61.142	-0.174	0.074
-433.690	66.701	-0.189	0.195
-432.676	-15.729	-0.272	0.176
-431.661	-80.573	0.147	-0.050
-430.646	-200.000	-0.054	-0.257
-429.632	121.411	-0.085	-0.108
-428.617	19.091	0.077	0.062
-427.603	-111.216	0.195	0.040
-426.588	-154.031	0.075	0.005
-425.573	-120.792	-0.219	-0.037
-424.559	-29.827	0.231	0.134
-423.544	264.813	0.079	-0.140
-422.530	61.354	-0.114	0.115
-421.515	-23.997	-0.182	-0.110
-420.500	-70.515	0.211	0.081
-419.486	800.000	-0.080	0.322
-418.471	-96.555	0.042	0.011
-417.457	-157.273	0.042	0.003
-416.442	127.252	-0.128	-0.165
-415.428	-175.073	0.066	0.002
-414.413	-200.000	0.040	0.183
-413.398	-200.000	0.018	-0.128
-412.384	-38.898	-0.164	0.088
-411.369	-200.000	0.006	-0.042
-410.355	26.599	-0.108	0.092
-409.340	-44.575	0.150	0.076
-408.325	-84.572	0.329	-0.105
-407.311	129.926	-0.037	-0.048
-406.296	156.384	-0.096	-0.134
-405.282	-79.483	-0.157	0.054
-404.267	-89.438	0.055	0.016
-403.252	80.857	0.084	-0.092
-402.238	-200.000	-0.025	0.316
-401.223	85.628	-0.086	0.096
-400.209	-71.583	0.285	-0.108
-399.194	-55.821	-0.230	0.104
-398.179	16.976	-0.229	-0.184
-397.165	-9.555	0.053	0.036
-396.150	242.359	0.158	0.269
-395.136	319.233	0.070	-0.134
-394.121	-136.413	-0.097	-0.011
-393.106	-58.745	-0.138	-0.061
-392.092	-45.724	0.188	0.094
-391.077	-18.218	0.311	0.197
-390.063	-70.264	-0.120	-0.046
-389.048	-85.605	0.245	0.077
-388.033	-49.084	0.161	-0.078
-387.019	-200.000	0.059	-0.285
-386.004	-47.899	-0.195	-0.096
-384.990	42.815	0.089	0.082
-383.975	-159.874	0.294	0.016
-382.960	-133.747	-0.293	0.037
-381.946	-200.000	0.024	-0.198
-380.931	800.000	0.098	-0.288
-379.917	7.463	0.082	-0.062
-378.902	57.696	0.093	0.092
-377.888	15.576	-0.157	-0.125
-376.873	124.979	0.157	0.200
-375.858	258.856	-0.070	0.122
-374.844	800.000	0.039	0.165
-373.829	-200.000	0.030	0.443
-372.815	-200.000	-0.029	0.314
-371.800	-38.748	-0.165	0.088
-370.785	184.969	-0.063	0.095
-369.771	-161.580	-0.186	-0.010
-368.756	52.688	-0.126	-0.122
-367.742	67.402	-0.100	0.104
-366.727	51.227	0.291	0.279
-365.712	-79.483	-0.259	-0.089
-364.698	-130.054	0.280	0.039
-363.683	-176.438	-0.176	0.005
-362.669	-68.478	-0.177	0.069
-361.654	-56.856	-0.236	-0.106
-360.639	389.262	-0.078	0.163
-359.625	-200.000	0.069	-0.314
-358.610	91.356	0.102	-0.116
-357.596	-52.084	-0.097	0.046
-356.581	29.778	-0.112	0.097
-355.566	204.630	0.074	0.116
-354.552	-102.208	0.165	0.040
-353.537	800.000	0.040	-0.120
-352.523	-137.030	-0.247	0.029
-351.508	46.099	0.085	0.080
-350.493	120.997	-0.057	0.072
-349.479	-29.796	0.223	0.128
-348.464	-119.042	-0.160	-0.028
-347.450	-200.000	-0.029	-0.139
-346.435	-83.117	-0.191	0.062
-345.420	184.992	0.100	0.150
-344.406	800.000	-0.081	0.276
-343.391	56.165	-0.065	0.063
-342.377	539.018	-0.058	-0.139
-341.362	-200.000	0.014	-0.172
-340.348	-121.400	0.055	-0.009
-339.333	-200.000	0.044	-0.422
-338.318	-143.829	0.378	0.036
-337.304	800.000	0.036	-0.109
-336.289	-200.000	0.006	-0.086
-335.275	159.109	-0.160	-0.224
-334.260	755.484	-0.119	0.324
-333.245	800.000	-0.041	-0.144
-332.231	38.307	-0.197	-0.177
-331.216	-200.000	-0.060	-0.274
-330.202	111.633	0.266	0.324
-329.187	-88.194	0.067	0.020
-328.172	-200.000	-0.020	-0.140
-327.158	-45.919	-0.272	0.136
-326.143	-94.306	-0.289	-0.080
-325.129	319.859	0.146	-0.281
-324.114	576.536	0.099	0.244
-323.099	66.695	-0.113	0.116
-322.085	61.874	0.184	0.185
-321.070	-129.272	-0.148	0.021
-320.056	285.447	-0.065	-0.119
-319.041	800.000	0.009	0.040
-318.026	-200.000	-0.034	-0.381
-317.012	-200.000	0.001	0.098
-315.997	-129.927	-0.249	-0.034
-314.983	509.959	-0.128	0.300
-313.968	173.424	0.111	0.162
-312.953	493.010	-0.038	-0.089
-311.939	800.000	-0.076	0.305
-310.924	112.149	-0.092	0.113
-309.910	182.290	-0.176	-0.262
-308.895	800.000	0.069	0.303
-307.880	-156.789	-0.113	0.007
-306.866	-200.000	-0.008	0.054
-305.851	-11.226	0.169	-0.112
-304.837	-26.291	0.347	0.206
-303.822	-36.958	0.150	-0.081
-302.807	800.000	0.055	-0.160
-301.793	-25.907	-0.444	-0.264
-300.778	21.475	-0.074	-0.060
-299.764	27.025	-0.192	0.163
-298.749	-200.000	-0.049	-0.272
-297.735	651.037	0.023	0.061
-296.720	-200.000	0.012	0.397
-295.705	-73.718	0.293	-0.108
-294.691	396.002	-0.032	-0.067
-293.676	478.873	-0.054	0.124
-292.662	-166.208	0.156	-0.007
-291.647	-100.369	0.399	-0.100
-290.632	-116.685	0.152	-0.028
-289.618	800.000	-0.075	0.274
-288.603	-39.921	-0.014	0.007
-287.589	39.552	0.126	0.114
-286.574	491.833	0.175	0.403
-285.559	-63.090	-0.208	-0.087
-284.545	-61.046	0.074	-0.031
-283.530	196.251	0.101	-0.155
-282.516	-23.113	0.201	-0.122
-281.501	47.989	-0.267	0.252
-280.486	800.000	0.057	0.206
-279.472	-138.960	0.335	0.037
-278.457	-200.000	0.013	-0.112
-277.443	-43.110	-0.214	0.109
-276.428	-200.000	-0.004	-0.169
-275.413	552.372	-0.087	0.210
-274.399	-52.002	0.278	-0.130
-273.384	-200.000	0.046	-0.313
-272.370	48.057	0.061	0.057
-271.355	-98.515	-0.092	-0.024
-270.340	724.424	-0.071	0.192
-269.326	-56.929	-0.132	-0.059
-268.311	-40.251	0.029	0.015
-267.297	176.040	-0.196	-0.287
-266.282	235.889	-0.057	-0.095
-265.267	573.807	0.103	0.253
-264.253	204.009	0.082	-0.128
-263.238	399.644	-0.089	0.188
-262.224	554.713	-0.083	-0.201
-261.209	566.147	-0.127	0.309
-260.195	800.000	-0.057	-0.168
-259.180	-131.701	0.143	-0.019
-258.165	72.063	-0.076	-0.079
-257.151	168.250	-0.057	0.081
-256.136	-141.053	-0.160	0.016
-255.122	-47.137	-0.142	-0.070
-254.107	-48.706	-0.240	0.116
-253.092	-126.995	0.235	0.035
-252.078	428.045	0.022	-0.047
-251.063	398.187	-0.048	0.102
-250.049	45.894	-0.197	-0.184
-249.034	-152.295	0.280	-0.020
-248.019	-24.919	-0.447	-0.267
-247.005	632.646	0.019	-0.050
-245.990	29.282	-0.237	0.203
-244.976	99.667	0.150	0.175
-243.961	498.662	-0.111	0.258
-242.946	800.000	-0.043	0.147
-241.932	153.587	0.130	-0.180
-240.917	391.941	-0.081	-0.169
-239.903	-8.965	-0.165	0.111
-238.888	104.724	-0.201	0.239
-237.873	157.390	0.134	0.187
-236.859	41.395	0.127	0.115
-235.844	-200.000	0.002	0.117
-234.830	268.870	-0.036	-0.064
-233.815	-25.116	-0.065	-0.039
-232.800	417.533	-0.117	0.251
-231.786	246.303	0.145	-0.245
-230.771	218.650	0.280	0.451
-229.757	800.000	0.039	0.142
-228.742	297.815	0.134	0.247
-227.727	-11.413	-0.141	0.093
-226.713	207.682	-0.075	-0.118
-225.698	-38.502	0.186	-0.099
-224.684	48.927	0.074	-0.069
-223.669	186.297	-0.150	-0.225
-222.655	-200.000	-0.020	0.242
-221.640	231.820	0.140	0.231
-220.625	-112.724	-0.293	0.059
-219.611	-151.861	0.294	-0.022
-218.596	72.989	0.130	-0.136
-217.582	184.699	-0.052	0.077
-216.567	-200.000	0.001	-0.034
-215.552	-119.258	-0.182	0.032
-214.538	-94.995	-0.246	-0.067
-213.523	73.706	-0.069	0.072
-212.509	-200.000	0.012	-0.095
-211.494	800.000	-0.122	0.410
-210.479	-98.672	-0.193	-0.049
-209.465	800.000	0.054	-0.200
-208.450	-200.000	0.059	-0.379
-207.436	-76.398	0.272	-0.096
-206.421	-156.351	0.303	0.019
-205.406	27.959	0.088	0.075
-204.392	462.753	0.068	-0.153
-203.377	-77.402	0.156	0.054
-202.363	-81.990	-0.133	0.044
-201.348	74.092	0.074	-0.078
-200.333	-69.595	0.091	-0.035
-199.319	-200.000	0.044	0.232
-198.304	143.652	0.145	-0.195
-197.290	-16.608	-0.289	0.184
-196.275	501.339	0.129	-0.300
-195.260	16.711	-0.188	0.149
-194.246	-6.540	-0.288	-0.197
-193.231	-156.133	0.433	0.027
-192.217	588.856	0.134	0.331
-191.202	-28.920	0.066	-0.038
-190.187	453.963	0.050	-0.111
-189.173	800.000	-0.065	0.281
-188.158	-2.770	-0.184	-0.129
-187.144	350.388	-0.047	-0.094
-186.129	-152.245	0.099	-0.007
-185.114	87.509	0.293	0.325
-184.100	-80.760	-0.107	0.036
-183.085	-64.042	-0.091	0.037
-182.071	-200.000	0.023	-0.137
-181.056	14.866	0.216	0.169
-180.042	90.764	0.127	-0.143
-179.027	-200.000	0.067	-0.401
-178.012	663.324	0.068	-0.176
-176.998	-45.161	0.124	0.062
-175.983	-133.161	-0.233	0.030
-174.969	-121.378	0.404	-0.068
-173.954	28.126	0.380	-0.322
-172.939	58.906	0.087	0.086
-171.925	50.619	-0.167	-0.159
-170.910	86.835	-0.089	0.098
-169.896	-82.606	0.205	0.067
-168.881	310.365	-0.061	-0.114
-167.866	-133.898	-0.064	-0.008
-166.852	-78.202	-0.368	-0.127
-165.837	-10.048	0.071	0.047
-164.823	352.031	-0.170	-0.338
-163.808	667.983	-0.089	0.232
-162.793	687.040	-0.065	0.172
-161.779	-200.000	-0.033	0.217
-160.764	-52.711	-0.410	0.190
-159.750	-3.735	0.155	-0.108
-158.735	-14.096	0.152	0.098
-157.720	-34.908	0.207	0.113
-156.706	-188.000	0.379	0.005
-155.691	189.768	0.117	-0.176
-154.677	319.890	0.075	-0.142
-153.662	-89.567	-0.270	0.080
-152.647	800.000	-0.016	-0.057
-151.633	80.237	-0.014	0.016
-150.618	-200.000	-0.001	0.076
-149.604	-200.000	0.046	-0.225
-148.589	-87.798	-0.115	-0.035
-147.574	381.551	-0.129	-0.267
-146.560	-30.672	0.189	0.107
-145.545	-200.000	0.046	-0.363
-144.531	800.000	-0.039	0.125
-143.516	-41.747	0.071	0.036
-142.502	-200.000	-0.021	-0.131
-141.487	121.757	-0.038	-0.048
-140.472	-132.563	0.225	0.029
-139.458	286.610	0.105	-0.189
-138.443	301.721	0.081	0.150
-137.429	347.864	0.125	0.248
-136.414	494.815	0.060	0.137
-135.399	-97.467	0.430	0.112
-134.385	252.908	0.204	-0.349
-133.370	72.452	0.348	0.364
-132.356	-107.622	0.267	-0.058
-131.341	15.532	-0.170	-0.134
-130.326	277.731	-0.088	0.157
-129.312	388.779	-0.208	0.431
-128.297	800.000	0.075	0.231
-127.283	-91.045	0.160	-0.046
-126.268	637.001	0.038	0.097
-125.253	-109.724	0.033	-0.007
-124.239	140.652	-0.031	-0.040
-123.224	80.133	-0.236	-0.255
-122.210	-200.000	0.059	-0.458
-121.195	-26.573	-0.257	0.151
