DTS Sentinel unit serial number:	SN413079Multiplexer serial number:	ORYXHardware model number:	OX4-SRSoftware version number:	ORYX F/W v4.00 Oryx Data Collector v3.7.2.0data status	okinstallation	princeton_trtdifferential loss correction	single-endedforward channel	channel 2reverse channel	N/Adate	2019/09/17time	13:39:35forward acquisition time	60.00reverse acquisition time	0.00gamma	496.2192k internal	0.2317k external	0.2317temperature offset calibration	0.9985default loss term (dB/km)	0.3790temperature slope calibration	1.0000multiplexer offset coefficient	1.0000multiplexer slope coefficient	1.0000fibre end	0.00T internal ref (°C)	34.87T ext. ref 1 (°C)	0.42T ext. ref 2 (°C)	31.99length (m)	temperature (°C)	Stokes	anti-Stokes-747.200	360.351	-0.165	0.335
-746.185	400.127	0.192	0.407
-745.171	-200.000	-0.073	-0.332
-744.156	395.041	0.043	0.091
-743.142	-83.733	0.266	-0.086
-742.127	59.904	-0.380	0.380
-741.112	-83.639	0.083	0.027
-740.098	2.519	-0.407	0.298
-739.083	-200.000	0.006	-0.208
-738.069	198.261	-0.106	-0.165
-737.054	48.169	-0.141	-0.134
-736.039	-62.446	-0.345	0.145
-735.025	-62.213	0.088	0.037
-734.010	-28.860	-0.289	-0.168
-732.996	-200.000	0.012	-0.202
-731.981	64.666	0.168	0.171
-730.966	755.270	-0.050	-0.136
-729.952	25.822	-0.123	-0.103
-728.937	-56.214	-0.332	-0.149
-727.923	89.981	-0.175	0.198
-726.908	685.695	-0.081	-0.213
-725.894	354.348	-0.107	-0.216
-724.879	-114.842	-0.177	0.034
-723.864	-161.825	-0.444	0.023
-722.850	172.088	-0.125	-0.182
-721.835	-2.834	-0.208	-0.147
-720.821	32.400	0.142	-0.124
-719.806	296.900	-0.054	0.099
-718.791	414.700	0.072	0.156
-717.777	-200.000	-0.013	-0.464
-716.762	-200.000	-0.026	0.315
-715.748	138.398	0.127	0.169
-714.733	96.648	-0.151	-0.175
-713.718	-22.761	0.107	0.066
-712.704	109.724	-0.134	-0.162
-711.689	157.612	0.096	0.135
-710.675	-69.057	0.143	-0.056
-709.660	483.789	-0.032	0.074
-708.645	-131.724	-0.332	-0.044
-707.631	800.000	0.026	0.080
-706.616	-200.000	0.033	-0.220
-705.602	-125.961	0.152	-0.023
-704.587	-28.582	-0.196	0.114
-703.572	-200.000	0.009	-0.365
-702.558	-34.320	-0.221	0.123
-701.543	-8.118	-0.207	0.141
-700.529	581.863	0.081	0.200
-699.514	427.964	-0.098	0.215
-698.499	-200.000	-0.034	-0.167
-697.485	-17.928	0.295	0.187
-696.470	-200.000	-0.005	0.268
-695.456	-33.344	-0.358	-0.200
-694.441	8.101	0.118	-0.090
-693.426	-125.366	-0.349	0.054
-692.412	-70.789	0.087	0.033
-691.397	-22.449	0.222	-0.136
-690.383	-163.654	-0.190	-0.009
-689.368	-101.448	0.192	0.047
-688.354	-72.341	0.127	-0.048
-687.339	800.000	-0.073	-0.257
-686.324	-200.000	0.004	0.360
-685.310	92.299	-0.247	0.281
-684.295	157.335	-0.163	0.228
-683.281	-44.648	0.169	-0.085
-682.266	800.000	0.049	-0.197
-681.251	800.000	-0.161	-0.545
-680.237	-34.055	0.216	0.120
-679.222	-105.978	-0.366	0.083
-678.208	-104.280	-0.274	0.064
-677.193	-69.250	-0.193	0.075
-676.178	19.086	0.131	-0.106
-675.164	-200.000	0.004	-0.340
-674.149	115.240	-0.143	-0.177
-673.135	319.669	-0.082	-0.156
-672.120	256.089	0.114	-0.197
-671.105	-103.040	-0.236	0.056
-670.091	800.000	-0.021	0.061
-669.076	-200.000	0.035	-0.154
-668.062	77.374	0.196	0.210
-667.047	800.000	0.029	0.113
-666.032	-200.000	0.004	0.099
-665.018	-200.000	-0.002	-0.076
-664.003	-200.000	-0.067	-0.357
-662.989	-61.857	-0.260	-0.110
-661.974	207.351	0.112	0.177
-660.959	92.570	-0.124	0.141
-659.945	-101.478	0.056	0.014
-658.930	-22.585	0.072	-0.044
-657.916	85.061	0.153	-0.169
-656.901	-200.000	-0.037	0.212
-655.886	-136.256	0.236	-0.028
-654.872	-96.153	0.449	-0.120
-653.857	-200.000	-0.001	-0.017
-652.843	199.860	-0.086	-0.133
-651.828	76.491	0.194	0.207
-650.814	-136.736	-0.037	-0.004
-649.799	439.821	0.199	-0.438
-648.784	800.000	-0.037	-0.152
-647.770	0.670	0.195	0.141
-646.755	-117.616	-0.260	-0.047
-645.741	-162.685	0.111	0.005
-644.726	287.867	0.084	-0.153
-643.711	-21.428	-0.062	0.038
-642.697	-71.149	0.316	0.120
-641.682	800.000	0.043	-0.155
-640.668	-200.000	-0.032	-0.316
-639.653	195.467	0.167	-0.255
-638.638	-200.000	-0.017	0.535
-637.624	-72.720	-0.220	0.082
-636.609	150.977	0.185	-0.254
-635.595	-111.785	-0.122	-0.025
-634.580	-200.000	-0.045	-0.398
-633.565	-112.609	-0.179	0.036
-632.551	-200.000	0.001	-0.124
-631.536	800.000	0.053	0.205
-630.522	81.219	-0.033	0.036
-629.507	94.045	0.032	0.036
-628.492	-122.469	-0.258	0.042
-627.478	-200.000	-0.032	0.276
-626.463	-200.000	-0.007	0.119
-625.449	-88.359	-0.318	-0.096
-624.434	-58.153	-0.216	-0.095
-623.419	54.094	0.084	0.082
-622.405	545.864	0.045	0.109
-621.390	-53.068	0.101	-0.047
-620.376	800.000	0.111	-0.448
-619.361	800.000	-0.063	0.187
-618.346	-44.284	0.153	-0.077
-617.332	66.552	0.150	-0.153
-616.317	-200.000	0.030	-0.243
-615.303	-107.437	0.096	-0.021
-614.288	-115.918	0.116	0.022
-613.273	-53.238	0.156	-0.072
-612.259	800.000	0.030	-0.116
-611.244	161.098	-0.055	-0.078
-610.230	-200.000	-0.002	0.011
-609.215	-200.000	0.057	0.419
-608.201	800.000	0.090	0.281
-607.186	-200.000	-0.089	0.416
-606.171	182.910	-0.039	0.058
-605.157	41.319	0.184	0.167
-604.142	-152.165	-0.082	-0.006
-603.128	349.224	0.071	0.140
-602.113	-108.809	-0.263	-0.057
-601.098	413.074	-0.084	-0.180
-600.084	-78.301	0.092	0.032
-599.069	120.450	-0.171	0.214
-598.055	-0.318	-0.047	-0.033
-597.040	199.852	-0.073	-0.112
-596.025	1.458	-0.284	-0.205
-595.011	-49.197	-0.203	-0.097
-593.996	226.271	0.099	0.161
-592.982	800.000	-0.058	-0.166
-591.967	91.125	-0.070	-0.080
-590.952	344.772	0.077	-0.152
-589.938	248.431	0.158	0.270
-588.923	78.529	0.270	0.290
-587.909	-12.251	0.190	0.125
-586.894	-136.107	0.087	-0.010
-585.879	90.125	-0.182	-0.205
-584.865	51.036	-0.109	0.104
-583.850	800.000	0.088	-0.288
-582.836	625.620	-0.061	-0.156
-581.821	800.000	0.048	0.206
-580.806	-200.000	-0.039	0.231
-579.792	732.286	-0.191	0.514
-578.777	-32.249	-0.132	-0.074
-577.763	-161.260	0.101	0.005
-576.748	-7.289	0.331	0.226
-575.733	149.204	0.140	-0.190
-574.719	800.000	0.053	-0.154
-573.704	-99.633	-0.257	0.065
-572.690	-35.601	-0.195	-0.107
-571.675	800.000	-0.031	-0.123
-570.661	-62.485	-0.253	0.106
-569.646	13.841	-0.219	0.171
-568.631	800.000	0.110	0.358
-567.617	164.948	0.102	0.144
-566.602	100.013	-0.281	0.327
-565.588	-6.708	-0.029	-0.020
-564.573	5.265	0.207	-0.154
-563.558	519.002	-0.079	-0.186
-562.544	357.222	0.126	0.254
-561.529	-94.553	-0.429	-0.117
-560.515	800.000	0.044	-0.186
-559.500	201.680	-0.130	0.201
-558.485	-162.255	0.157	-0.008
-557.471	117.661	0.082	0.102
-556.456	150.542	-0.219	0.300
-555.442	-66.159	0.098	-0.039
-554.427	-112.534	0.238	-0.048
-553.412	800.000	-0.034	0.114
-552.398	254.668	-0.109	-0.188
-551.383	134.960	0.130	0.170
-550.369	-200.000	0.032	-0.145
-549.354	-200.000	-0.037	0.201
-548.339	257.218	0.128	0.221
-547.325	794.194	-0.176	0.487
-546.310	52.701	0.385	0.370
-545.296	-84.465	-0.132	0.042
-544.281	9.417	-0.309	-0.235
-543.266	800.000	-0.131	-0.409
-542.252	27.781	0.200	-0.169
-541.237	74.718	0.203	-0.214
-540.223	-145.771	-0.222	0.020
-539.208	288.683	0.210	0.382
-538.193	486.397	0.167	-0.382
-537.179	33.974	-0.085	-0.074
-536.164	-191.058	-0.257	-0.003
-535.150	720.755	0.080	-0.215
-534.135	98.997	0.109	-0.127
-533.121	243.025	0.161	-0.271
-532.106	-52.153	-0.319	-0.149
-531.091	-54.692	0.144	-0.065
-530.077	-31.951	-0.095	0.054
-529.062	-109.557	-0.169	-0.036
-528.048	-83.747	-0.220	0.070
-527.033	-200.000	0.018	-0.139
-526.018	366.480	-0.063	0.127
-525.004	18.855	-0.303	-0.243
-523.989	-45.160	-0.207	0.103
-522.975	309.303	0.099	-0.185
-521.960	601.299	-0.184	0.459
-520.945	800.000	0.072	0.307
-519.931	-43.386	-0.223	0.113
-518.916	-179.301	-0.011	0.000
-517.902	306.311	0.106	0.199
-516.887	-113.838	-0.250	-0.049
-515.872	-139.349	-0.200	0.022
-514.858	695.506	0.015	0.038
-513.843	-17.130	0.203	-0.129
-512.829	-134.142	-0.113	0.014
-511.814	-156.395	-0.104	-0.007
-510.799	-44.378	-0.019	0.009
-509.785	-54.969	-0.207	-0.094
-508.770	-165.669	0.235	0.010
-507.756	-34.674	0.083	0.046
-506.741	-151.104	-0.456	0.034
-505.726	-200.000	0.020	0.162
-504.712	497.138	-0.196	0.453
-503.697	-107.405	0.113	-0.025
-502.683	491.997	-0.079	-0.182
-501.668	800.000	0.032	0.125
-500.653	427.905	-0.149	-0.322
-499.639	269.788	0.076	0.134
-498.624	-141.634	-0.079	0.008
-497.610	-62.071	0.158	-0.066
-496.595	-51.406	0.254	0.119
-495.581	-117.331	-0.069	-0.013
-494.566	-129.139	-0.036	-0.005
-493.551	174.183	-0.130	0.188
-492.537	270.789	-0.228	-0.402
-491.522	-60.058	-0.133	0.057
-490.508	-152.949	0.441	-0.031
-489.493	-120.764	0.375	0.063
-488.478	-40.317	-0.113	0.059
-487.464	-200.000	-0.003	0.186
-486.449	-169.960	0.544	-0.019
-485.435	499.284	-0.087	-0.202
-484.420	-78.865	0.253	0.086
-483.405	-50.938	-0.325	0.153
-482.391	-21.249	-0.112	0.069
-481.376	-200.000	-0.089	-0.393
-480.362	566.975	0.123	0.299
-479.347	-200.000	0.021	-0.239
-478.332	578.711	0.100	0.246
-477.318	-200.000	-0.103	0.487
-476.303	768.666	-0.080	0.219
-475.289	-200.000	-0.045	0.319
-474.274	86.685	-0.266	-0.294
-473.259	-200.000	0.023	-0.257
-472.245	-69.803	0.477	-0.183
-471.230	-200.000	0.011	0.173
-470.216	110.913	-0.277	0.334
-469.201	-139.863	-0.210	0.022
-468.186	-136.951	0.076	0.009
-467.172	-6.694	-0.288	0.196
-466.157	-10.728	0.143	0.095
-465.143	203.624	-0.101	0.156
-464.128	-14.467	0.213	-0.137
-463.113	-103.696	-0.223	0.052
-462.099	-20.033	0.289	-0.179
-461.084	84.587	0.251	-0.275
-460.070	-200.000	-0.009	0.043
-459.055	0.801	-0.174	-0.125
-458.040	-72.105	0.207	0.077
-457.026	15.652	-0.094	0.074
-456.011	149.196	-0.155	-0.210
-454.997	-101.808	0.121	-0.029
-453.982	-48.111	-0.232	-0.112
-452.968	14.001	-0.174	0.135
-451.953	61.408	0.250	-0.249
-450.938	-200.000	-0.072	-0.362
-449.924	-3.597	-0.146	-0.101
-448.909	-9.117	0.075	-0.050
-447.895	-200.000	0.022	-0.148
-446.880	283.344	0.122	-0.220
-445.865	-12.789	-0.311	-0.203
-444.851	-200.000	0.023	-0.269
-443.836	69.902	-0.202	0.209
-442.822	-57.105	0.163	0.072
-441.807	800.000	-0.055	-0.205
-440.792	-27.717	-0.146	0.085
-439.778	722.161	-0.114	0.303
-438.763	800.000	-0.039	-0.167
-437.749	-20.321	-0.125	-0.077
-436.734	-79.986	-0.204	-0.068
-435.719	-9.267	-0.270	0.180
-434.705	-40.741	0.157	0.081
-433.690	151.423	0.052	-0.070
-432.676	21.319	0.163	-0.133
-431.661	-30.458	-0.306	-0.174
-430.646	44.302	0.261	-0.240
-429.632	-76.237	-0.160	0.056
-428.617	37.549	-0.246	-0.218
-427.603	138.413	-0.225	-0.296
-426.588	-200.000	-0.081	-0.387
-425.573	-46.361	0.246	-0.121
-424.559	-200.000	0.036	-0.251
-423.544	73.524	0.090	0.094
-422.530	72.660	0.180	0.188
-421.515	800.000	-0.071	0.250
-420.500	-90.478	0.151	-0.044
-419.486	-41.319	-0.149	0.077
-418.471	-19.722	-0.422	0.261
-417.457	-122.977	0.115	0.019
-416.442	-40.350	-0.148	-0.077
-415.428	800.000	-0.046	0.182
-414.413	95.595	0.120	-0.137
-413.398	-9.365	-0.142	0.094
-412.384	800.000	-0.062	0.199
-411.369	-45.949	0.211	0.104
-410.355	800.000	0.034	0.099
-409.340	-185.898	0.173	-0.003
-408.325	-134.938	0.039	0.005
-407.311	-52.083	0.347	-0.161
-406.296	-80.603	-0.321	0.107
-405.282	800.000	0.043	0.131
-404.267	-175.102	0.123	0.003
-403.252	800.000	0.015	0.050
-402.238	55.354	0.170	-0.164
-401.223	-200.000	-0.014	0.195
-400.209	13.872	0.340	0.264
-399.194	232.174	0.133	0.219
-398.179	198.725	0.031	-0.047
-397.165	-200.000	0.008	-0.214
-396.150	614.998	0.050	0.126
-395.136	-107.218	-0.213	-0.047
-394.121	9.249	0.187	0.142
-393.106	-84.952	0.218	-0.068
-392.092	-200.000	0.015	-0.106
-391.077	241.767	0.057	0.096
-390.063	-200.000	0.003	0.136
-389.048	51.975	-0.089	-0.085
-388.033	-200.000	0.004	-0.258
-387.019	-174.561	0.074	-0.002
-386.004	-170.051	0.196	-0.007
-384.990	301.419	-0.197	0.363
-383.975	690.359	0.139	-0.364
-382.960	-91.534	0.434	0.124
-381.946	-45.107	-0.328	-0.163
-380.931	-45.679	0.245	-0.121
-379.917	16.271	-0.263	-0.207
-378.902	533.525	0.176	0.417
-377.888	-200.000	0.082	0.449
-376.873	-61.240	0.259	-0.109
-375.858	488.193	0.120	-0.274
-374.844	-55.759	0.374	0.167
-373.829	105.217	0.110	-0.129
-372.815	-200.000	0.046	-0.258
-371.800	-78.044	-0.265	-0.091
-370.785	-39.200	-0.079	-0.041
-369.771	-134.951	0.466	-0.056
-368.756	-12.798	-0.237	0.154
-367.742	33.724	0.252	0.219
-366.727	-167.498	-0.083	-0.003
-365.712	134.570	0.242	-0.313
-364.698	-200.000	-0.040	-0.208
-363.683	293.945	-0.135	-0.247
-362.669	127.807	-0.031	-0.040
-361.654	55.111	0.244	-0.235
-360.639	143.669	0.111	0.148
-359.625	-108.437	-0.398	-0.086
-358.610	-174.386	-0.174	0.005
-357.596	145.925	0.042	0.057
-356.581	121.109	-0.244	0.303
-355.566	-170.149	-0.231	0.008
-354.552	-200.000	-0.002	0.023
-353.537	-200.000	0.021	0.232
-352.523	162.280	0.202	0.282
-351.508	84.867	0.147	0.160
-350.493	-200.000	0.027	0.166
-349.479	800.000	-0.057	0.179
-348.464	-200.000	-0.014	0.387
-347.450	96.555	0.086	0.098
-346.435	-95.469	0.478	0.128
-345.420	151.883	0.073	-0.099
-344.406	198.975	-0.166	-0.253
-343.391	186.408	-0.253	-0.376
-342.377	-110.748	-0.347	0.071
-341.362	-200.000	0.025	0.138
-340.348	-173.969	-0.047	-0.001
-339.333	800.000	0.044	0.182
-338.318	-141.040	0.120	-0.012
-337.304	59.666	0.180	0.177
-336.289	-22.433	-0.036	0.022
-335.275	-83.892	0.342	-0.109
-334.260	28.044	-0.192	-0.162
-333.245	-132.058	-0.076	-0.010
-332.231	-200.000	-0.010	0.046
-331.216	800.000	-0.073	0.274
-330.202	-153.777	0.107	-0.007
-329.187	48.400	-0.072	-0.067
-328.172	-28.168	-0.194	0.112
-327.158	-55.756	0.283	0.126
-326.143	33.415	-0.187	-0.162
-325.129	-200.000	0.017	-0.321
-324.114	32.203	-0.136	-0.117
-323.099	-200.000	-0.039	-0.195
-322.085	-24.896	-0.034	-0.020
-321.070	-200.000	-0.252	-0.001
-320.056	-185.809	0.422	-0.006
-319.041	-200.000	-0.040	0.321
-318.026	-0.079	0.024	0.017
-317.012	250.025	0.052	-0.088
-315.997	-200.000	0.024	0.241
-314.983	-58.611	0.194	-0.084
-313.968	338.949	-0.049	0.095
-312.953	800.000	0.025	-0.088
-311.939	-79.469	0.072	-0.024
-310.924	-12.439	0.309	-0.201
-309.910	-200.000	0.047	-0.290
-308.895	72.271	-0.046	-0.047
-307.880	-74.408	0.177	-0.064
-306.866	6.630	-0.075	-0.056
-305.851	144.531	-0.182	-0.242
-304.837	761.019	-0.066	0.178
-303.822	283.201	-0.104	-0.185
-302.807	175.167	-0.067	-0.097
-301.793	205.862	0.121	0.188
-300.778	182.458	0.114	0.167
-299.764	325.609	0.021	0.040
-298.749	57.967	-0.338	0.330
-297.735	-200.000	-0.009	-0.170
-296.720	414.780	0.043	-0.091
-295.705	-13.080	0.358	-0.232
-294.691	55.349	-0.137	0.132
-293.676	-200.000	-0.031	-0.165
-292.662	-87.782	-0.310	-0.093
-291.647	-200.000	-0.039	-0.304
-290.632	-1.006	0.212	0.149
-289.618	-200.000	-0.023	0.122
-288.603	-200.000	0.006	-0.192
-287.589	110.322	-0.101	-0.121
-286.574	-156.601	0.269	0.017
-285.559	-85.035	0.135	-0.042
-284.545	-73.108	0.302	-0.110
-283.530	-40.082	0.253	-0.131
-282.516	-108.461	-0.128	0.027
-281.501	-200.000	-0.009	0.454
-280.486	383.462	0.174	0.355
-279.472	-45.743	0.495	0.243
-278.457	215.963	0.279	-0.440
-277.443	-200.000	-0.025	-0.213
-276.428	-104.872	0.152	-0.035
-275.413	110.112	0.185	0.221
-274.399	-110.838	-0.183	-0.037
-273.384	-200.000	0.046	0.371
-272.370	800.000	-0.093	-0.258
-271.355	-200.000	0.038	0.297
-270.340	-84.917	0.246	-0.077
-269.326	-112.921	-0.114	0.022
-268.311	153.259	0.090	-0.123
-267.297	149.161	-0.116	0.156
-266.282	62.374	0.257	-0.255
-265.267	-53.580	-0.121	0.055
-264.253	-4.026	-0.057	0.039
-263.238	27.820	0.300	-0.251
-262.224	25.280	-0.079	0.065
-261.209	-200.000	-0.022	0.115
-260.195	130.393	0.066	-0.084
-259.180	170.717	0.126	-0.179
-258.165	-34.874	0.132	-0.072
-257.151	800.000	-0.034	0.115
-256.136	-200.000	-0.023	0.132
-255.122	-200.000	-0.003	-0.079
-254.107	-64.176	0.145	-0.059
-253.092	-165.822	-0.388	0.017
-252.078	800.000	0.069	-0.223
-251.063	56.656	0.104	0.101
-250.049	65.413	0.232	-0.233
-249.034	38.866	0.073	-0.065
-248.019	722.417	-0.119	0.314
-247.005	675.646	-0.119	-0.306
-245.990	190.882	-0.180	-0.269
-244.976	-14.126	-0.129	-0.082
-243.961	-200.000	-0.014	0.520
-242.946	92.944	0.200	0.225
-241.932	-46.762	-0.121	0.059
-240.917	-200.000	0.001	0.024
-239.903	800.000	0.095	-0.380
-238.888	-148.181	0.074	0.006
-237.873	-200.000	-0.070	-0.339
-236.859	47.330	-0.259	-0.240
-235.844	-200.000	0.033	-0.214
-234.830	800.000	0.035	0.152
-233.815	-126.119	0.366	-0.054
-232.800	97.673	0.122	-0.140
-231.786	-58.831	-0.358	0.154
-230.771	-200.000	0.008	0.108
-229.757	32.202	-0.193	-0.165
-228.742	-131.065	0.123	0.016
-227.727	550.700	-0.086	-0.205
-226.713	64.637	-0.333	-0.333
-225.698	-15.461	-0.156	0.099
-224.684	748.022	-0.042	-0.112
-223.669	-47.358	-0.129	0.062
-222.655	522.385	-0.164	-0.382
-221.640	11.581	0.096	-0.073
-220.625	-170.278	0.330	0.012
-219.611	185.471	0.144	-0.211
-218.596	-200.000	0.009	0.253
-217.582	45.062	0.090	0.082
-216.567	583.790	-0.031	0.075
-215.552	-158.717	0.060	0.003
-214.538	800.000	-0.110	-0.332
-213.523	347.907	-0.175	0.341
-212.509	552.442	-0.069	0.165
-211.494	493.313	0.055	-0.126
-210.479	92.976	-0.232	-0.260
-209.465	56.784	-0.089	-0.086
-208.450	-27.606	0.178	0.103
-207.436	14.294	0.192	0.149
-206.421	143.590	-0.302	0.400
-205.406	800.000	-0.023	-0.084
-204.392	327.798	0.071	0.135
-203.377	234.031	-0.174	0.284
-202.363	82.710	0.070	0.076
-201.348	-58.602	0.009	0.004
-200.333	455.958	0.095	0.209
-199.319	-200.000	0.062	-0.289
-198.304	-200.000	0.022	-0.192
-197.290	-195.893	-0.335	0.002
-196.275	-5.271	0.192	-0.131
-195.260	228.065	0.080	-0.130
-194.246	6.267	0.112	-0.082
-193.231	271.179	-0.153	-0.266
-192.217	-200.000	-0.004	-0.079
-191.202	120.408	0.216	-0.266
-190.187	25.795	0.249	0.205
-189.173	-200.000	0.052	0.309
-188.158	5.288	-0.249	0.182
-187.144	-200.000	-0.026	0.138
-186.129	584.603	-0.108	0.262
-185.114	-200.000	-0.005	0.096
-184.100	-200.000	-0.040	-0.218
-183.085	800.000	-0.054	0.231
-182.071	800.000	0.034	0.115
-181.056	-200.000	-0.074	0.437
-180.042	-41.581	-0.298	-0.152
-179.027	245.533	0.207	0.345
-178.012	-103.286	0.209	0.049
-176.998	-73.672	0.077	0.028
-175.983	-200.000	0.002	0.145
-174.969	-9.067	-0.259	0.172
-173.954	-15.351	-0.132	-0.084
-172.939	-32.392	-0.146	0.081
-171.925	-81.872	-0.175	0.057
-170.910	65.158	-0.251	0.252
-169.896	-200.000	0.026	-0.376
-168.881	358.710	-0.103	-0.204
-167.866	-49.884	0.411	-0.193
-166.852	800.000	0.016	0.052
-165.837	-200.000	0.018	-0.120
-164.823	-200.000	-0.021	0.292
-163.808	-94.881	0.303	-0.081
-162.793	-163.589	0.238	0.011
-161.779	-129.240	-0.464	0.064
-160.764	-147.152	-0.232	0.020
-159.750	684.198	-0.062	0.161
-158.735	461.336	0.166	-0.367
-157.720	12.387	0.171	-0.130
-156.706	-200.000	0.014	-0.237
-155.691	-73.005	-0.211	0.077
-154.677	800.000	-0.037	-0.157
-153.662	-184.143	-0.282	-0.005
-152.647	179.913	0.186	0.269
-151.633	-6.920	-0.135	-0.091
-150.618	77.524	-0.219	0.231
-149.604	-159.560	0.025	-0.001
-148.589	-51.491	0.110	0.051
-147.574	-150.237	0.090	-0.007
-146.560	-200.000	-0.039	-0.182
-145.545	-30.123	0.154	0.087
-144.531	-74.427	0.300	0.107
-143.516	-66.598	0.060	0.024
-142.502	70.896	-0.008	0.008
-141.487	142.383	-0.070	0.092
-140.472	-200.000	0.029	-0.234
-139.458	-59.889	-0.220	0.093
-138.443	90.329	-0.228	-0.252
-137.429	723.034	-0.116	-0.307
-136.414	-200.000	0.004	-0.076
-135.399	-49.255	-0.194	0.091
-134.385	800.000	-0.047	-0.145
-133.370	-28.468	0.500	-0.285
-132.356	800.000	0.059	0.224
-131.341	800.000	-0.062	0.221
-130.326	77.353	0.166	0.175
-129.312	-200.000	0.039	0.184
-128.297	-10.494	-0.130	-0.085
-127.283	-200.000	0.020	0.113
-126.268	152.974	-0.087	0.118
-125.253	14.070	0.146	0.113
-124.239	800.000	0.038	0.143
-123.224	70.361	-0.101	-0.103
-122.210	107.608	0.176	0.207
-121.195	-24.253	0.295	0.174
