DTS Sentinel unit serial number:	SN413079Multiplexer serial number:	ORYXHardware model number:	OX4-SRSoftware version number:	ORYX F/W v4.00 Oryx Data Collector v3.7.2.0data status	okinstallation	princeton_trtdifferential loss correction	single-endedforward channel	channel 2reverse channel	N/Adate	2019/09/19time	04:03:35forward acquisition time	60.00reverse acquisition time	0.00gamma	496.2192k internal	0.2352k external	0.2352temperature offset calibration	1.0012default loss term (dB/km)	0.3790temperature slope calibration	1.0000multiplexer offset coefficient	1.0000multiplexer slope coefficient	1.0000fibre end	0.00T internal ref (°C)	20.41T ext. ref 1 (°C)	0.63T ext. ref 2 (°C)	14.00length (m)	temperature (°C)	Stokes	anti-Stokes-747.200	-69.230	0.143	-0.055
-746.185	-47.489	-0.203	-0.098
-745.171	177.695	0.196	0.285
-744.156	122.845	0.144	0.180
-743.142	-109.946	0.196	0.041
-742.127	-33.688	0.209	0.115
-741.112	-66.812	0.197	-0.078
-740.098	233.478	-0.121	0.198
-739.083	76.203	0.186	-0.196
-738.069	-87.671	0.376	0.113
-737.054	4.328	-0.343	0.251
-736.039	99.380	0.036	0.042
-735.025	41.781	0.157	0.142
-734.010	-91.073	-0.219	0.063
-732.996	-96.430	-0.431	-0.114
-731.981	294.359	-0.117	-0.214
-730.966	-200.000	0.005	0.081
-729.952	99.715	-0.227	-0.262
-728.937	16.507	-0.313	-0.246
-727.923	148.877	0.199	0.268
-726.908	-92.059	0.182	-0.051
-725.894	32.636	-0.152	-0.131
-724.879	-2.727	-0.287	-0.200
-723.864	-132.496	-0.149	0.019
-722.850	-87.839	-0.201	0.060
-721.835	669.924	0.129	-0.333
-720.821	317.343	0.069	-0.130
-719.806	-38.423	-0.273	-0.144
-718.791	-200.000	-0.020	0.275
-717.777	-74.130	-0.326	0.118
-716.762	41.801	0.157	-0.142
-715.748	-132.482	-0.361	0.046
-714.733	-200.000	-0.008	0.108
-713.718	-18.618	0.313	-0.194
-712.704	22.452	-0.081	0.066
-711.689	-81.995	-0.094	-0.031
-710.675	800.000	-0.138	-0.562
-709.660	31.110	0.155	-0.132
-708.645	-11.653	0.383	0.251
-707.631	324.905	0.185	0.352
-706.616	-200.000	-0.042	-0.313
-705.602	800.000	-0.118	-0.326
-704.587	564.519	0.004	0.010
-703.572	13.342	-0.099	-0.076
-702.558	351.420	-0.071	-0.140
-701.543	-131.535	0.399	-0.052
-700.529	800.000	-0.018	-0.059
-699.514	335.293	0.071	-0.137
-698.499	-93.901	0.152	-0.042
-697.485	-57.136	-0.118	-0.052
-696.470	-200.000	0.013	0.279
-695.456	800.000	0.059	-0.210
-694.441	800.000	0.042	-0.158
-693.426	9.898	0.164	0.124
-692.412	107.725	-0.041	0.049
-691.397	-200.000	-0.003	0.275
-690.383	30.842	0.217	0.185
-689.368	347.120	-0.219	-0.429
-688.354	409.323	-0.064	-0.134
-687.339	136.353	0.177	0.230
-686.324	104.053	-0.211	-0.247
-685.310	30.277	0.091	0.078
-684.295	-200.000	0.005	-0.098
-683.281	800.000	-0.103	-0.321
-682.266	-200.000	-0.030	0.225
-681.251	96.090	-0.137	0.156
-680.237	-100.433	0.213	0.052
-679.222	-200.000	-0.026	-0.122
-678.208	800.000	0.062	-0.214
-677.193	800.000	-0.067	0.197
-676.178	-107.905	-0.390	0.084
-675.164	-200.000	-0.059	-0.447
-674.149	800.000	0.011	0.045
-673.135	-103.069	0.261	0.061
-672.120	793.085	-0.105	0.288
-671.105	800.000	0.032	-0.112
-670.091	-200.000	-0.007	0.303
-669.076	-88.944	0.219	-0.064
-668.062	105.157	0.246	-0.288
-667.047	300.891	0.229	-0.420
-666.032	81.184	-0.242	-0.260
-665.018	275.353	0.058	-0.102
-664.003	212.617	-0.138	0.217
-662.989	-200.000	0.055	0.295
-661.974	800.000	-0.035	-0.116
-660.959	-165.589	-0.195	-0.008
-659.945	-119.783	-0.200	0.034
-658.930	-200.000	-0.011	-0.070
-657.916	72.486	0.237	0.246
-656.901	-87.421	0.313	-0.094
-655.886	800.000	-0.049	-0.177
-654.872	152.949	-0.166	-0.225
-653.857	-200.000	0.006	0.043
-652.843	17.083	-0.315	-0.248
-651.828	-200.000	0.030	-0.349
-650.814	-73.763	-0.208	-0.075
-649.799	-52.887	-0.311	-0.143
-648.784	396.645	-0.047	-0.099
-647.770	66.551	0.125	-0.127
-646.755	-200.000	0.017	-0.129
-645.741	121.031	-0.042	0.052
-644.726	-76.025	-0.244	0.086
-643.711	-63.803	-0.125	0.051
-642.697	-31.928	-0.075	-0.042
-641.682	41.630	-0.173	0.156
-640.668	-116.403	0.041	0.008
-639.653	372.807	-0.100	0.201
-638.638	800.000	0.045	-0.141
-637.624	-200.000	0.006	0.113
-636.609	60.856	-0.094	-0.093
-635.595	-33.983	-0.212	-0.116
-634.580	20.021	0.281	-0.225
-633.565	-129.728	0.163	-0.022
-632.551	-200.000	0.033	0.165
-631.536	-200.000	0.014	0.087
-630.522	222.141	0.080	-0.128
-629.507	800.000	0.050	-0.189
-628.492	-80.686	0.275	0.091
-627.478	-200.000	0.026	-0.143
-626.463	800.000	0.055	-0.193
-625.449	46.595	-0.077	0.071
-624.434	-1.398	-0.234	-0.164
-623.419	461.250	-0.101	0.224
-622.405	154.906	-0.149	0.204
-621.390	-108.603	-0.114	-0.024
-620.376	154.732	-0.174	0.237
-619.361	205.471	-0.262	-0.404
-618.346	212.507	0.225	0.352
-617.332	-69.033	0.258	-0.099
-616.317	-83.485	-0.206	-0.065
-615.303	-136.077	-0.315	0.037
-614.288	-71.548	-0.159	0.059
-613.273	-200.000	-0.007	0.290
-612.259	-64.590	0.115	0.046
-611.244	159.949	0.038	0.053
-610.230	-200.000	0.076	0.460
-609.215	-200.000	-0.007	-0.179
-608.201	-13.244	-0.214	0.138
-607.186	128.760	-0.100	-0.126
-606.171	15.420	-0.114	-0.089
-605.157	-200.000	-0.021	-0.442
-604.142	194.738	0.210	0.317
-603.128	586.801	0.049	0.119
-602.113	381.546	0.103	-0.209
-601.098	165.669	0.063	-0.089
-600.084	-139.203	-0.130	-0.014
-599.069	13.671	-0.185	-0.142
-598.055	29.349	-0.143	-0.120
-597.040	52.710	0.079	0.075
-596.025	-48.082	0.260	-0.125
-595.011	800.000	0.053	-0.216
-593.996	-129.202	-0.238	0.033
-592.982	-61.645	-0.215	0.090
-591.967	109.750	0.079	-0.094
-590.952	16.361	0.224	0.175
-589.938	-149.732	0.107	0.008
-588.923	800.000	0.071	-0.269
-587.909	-47.762	-0.288	-0.138
-586.894	-6.192	-0.152	-0.103
-585.879	800.000	-0.099	0.299
-584.865	33.237	0.018	0.015
-583.850	336.067	-0.078	0.150
-582.836	-200.000	0.020	0.134
-581.821	-154.808	0.192	-0.013
-580.806	-200.000	-0.024	-0.133
-579.792	-140.901	0.083	-0.008
-578.777	-200.000	0.004	-0.121
-577.763	-52.954	-0.440	0.201
-576.748	83.939	-0.048	0.051
-575.733	-103.018	0.264	-0.062
-574.719	182.056	0.190	0.278
-573.704	272.383	-0.170	0.298
-572.690	-118.054	-0.221	-0.039
-571.675	800.000	0.113	-0.473
-570.661	324.371	0.065	-0.124
-569.646	-87.281	0.123	0.037
-568.631	699.275	0.157	-0.410
-567.617	-151.341	-0.124	-0.009
-566.602	-111.730	0.356	-0.072
-565.588	-30.310	-0.224	-0.126
-564.573	-200.000	0.004	0.097
-563.558	-112.530	0.203	-0.040
-562.544	-109.312	0.289	-0.061
-561.529	-85.594	0.026	0.008
-560.515	-13.085	-0.125	0.080
-559.500	-155.874	0.050	0.003
-558.485	-200.000	0.044	0.225
-557.471	672.461	0.062	-0.159
-556.456	-200.000	-0.056	-0.420
-555.442	-200.000	-0.032	-0.163
-554.427	362.357	-0.071	0.142
-553.412	-128.362	0.177	0.025
-552.398	105.928	0.193	0.226
-551.383	14.411	0.180	0.139
-550.369	658.628	0.029	-0.073
-549.354	209.640	0.066	0.103
-548.339	-55.045	0.383	0.171
-547.325	-200.000	0.022	-0.137
-546.310	-78.726	-0.052	0.017
-545.296	102.508	-0.133	0.154
-544.281	-200.000	0.036	0.201
-543.266	-12.630	-0.273	-0.176
-542.252	800.000	-0.068	-0.196
-541.237	236.470	-0.019	-0.031
-540.223	122.995	-0.183	0.226
-539.208	-175.062	-0.338	-0.009
-538.193	-23.267	0.150	0.089
-537.179	-87.220	0.070	0.021
-536.164	-93.128	0.172	-0.047
-535.150	119.617	0.103	-0.126
-534.135	-27.495	-0.128	-0.074
-533.121	800.000	-0.030	-0.114
-532.106	1.337	-0.340	-0.241
-531.091	4.509	-0.374	-0.272
-530.077	48.811	0.081	-0.075
-529.062	-79.770	-0.271	-0.090
-528.048	-170.135	0.149	-0.005
-527.033	60.516	0.191	0.187
-526.018	-28.189	-0.202	0.115
-525.004	102.003	0.170	0.197
-523.989	-120.363	-0.203	-0.034
-522.975	6.691	0.103	-0.075
-521.960	-127.009	0.051	0.007
-520.945	800.000	0.165	-0.537
-519.931	-65.307	0.149	0.059
-518.916	-35.141	-0.119	0.064
-517.902	348.988	-0.193	-0.377
-516.887	-27.180	0.169	0.097
-515.872	88.152	-0.025	0.027
-514.858	-169.289	0.159	0.006
-513.843	-133.417	0.189	0.024
-512.829	472.370	-0.139	0.309
-511.814	-200.000	-0.052	-0.373
-510.799	-57.815	0.239	-0.103
-509.785	563.992	-0.072	-0.172
-508.770	80.810	0.235	-0.250
-507.756	-200.000	0.007	0.177
-506.741	-109.860	0.325	-0.067
-505.726	12.681	0.165	-0.126
-504.712	395.686	0.151	0.311
-503.697	-60.966	-0.122	0.051
-502.683	221.738	0.024	-0.038
-501.668	47.416	-0.245	0.225
-500.653	800.000	0.037	-0.107
-499.639	-200.000	0.027	-0.146
-498.624	792.829	-0.046	-0.124
-497.610	499.775	0.130	-0.297
-496.595	787.230	-0.099	-0.268
-495.581	-151.541	-0.272	-0.020
-494.566	-43.029	-0.580	-0.290
-493.551	-135.194	-0.213	0.025
-492.537	800.000	0.048	0.164
-491.522	-200.000	0.046	-0.224
-490.508	334.122	0.113	-0.216
-489.493	21.775	0.126	0.102
-488.478	-48.174	0.179	-0.085
-487.464	-187.155	-0.058	-0.001
-486.449	736.994	0.087	-0.230
-485.435	-200.000	-0.004	-0.107
-484.420	-200.000	-0.031	-0.366
-483.405	113.249	-0.200	0.239
-482.391	458.550	-0.121	-0.265
-481.376	295.435	-0.082	0.148
-480.362	-200.000	0.022	-0.151
-479.347	-77.400	-0.350	-0.120
-478.332	308.669	-0.182	-0.336
-477.318	145.830	-0.228	0.302
-476.303	566.431	0.101	0.242
-475.289	165.354	0.051	-0.072
-474.274	-50.417	0.240	-0.112
-473.259	499.694	-0.040	-0.091
-472.245	-154.611	0.067	-0.004
-471.230	-200.000	-0.026	0.224
-470.216	158.408	-0.126	-0.172
-469.201	-91.520	0.114	-0.032
-468.186	-200.000	0.014	0.193
-467.172	130.920	0.020	0.025
-466.157	-200.000	-0.015	0.245
-465.143	-58.297	-0.141	0.060
-464.128	473.805	0.039	-0.087
-463.113	-131.747	-0.259	-0.034
-462.099	-20.491	-0.032	0.019
-461.084	13.740	-0.192	0.147
-460.070	-94.112	0.272	-0.074
-459.055	-92.892	-0.294	0.081
-458.040	-134.626	0.179	0.022
-457.026	502.283	-0.020	-0.045
-456.011	-200.000	-0.028	0.317
-454.997	5.946	0.128	-0.094
-453.982	-200.000	-0.008	0.366
-452.968	-67.332	-0.125	-0.048
-451.953	-21.488	-0.045	-0.027
-450.938	800.000	-0.046	0.153
-449.924	-195.275	0.077	-0.001
-448.909	356.950	-0.186	0.366
-447.895	-160.844	0.311	0.016
-446.880	34.977	-0.262	-0.226
-445.865	159.169	-0.160	-0.220
-444.851	-141.692	-0.398	0.039
-443.836	800.000	0.143	-0.452
-442.822	50.947	-0.129	-0.121
-441.807	335.498	-0.088	-0.168
-440.792	800.000	-0.046	-0.187
-439.778	127.108	0.169	0.212
-438.763	-103.548	0.285	-0.066
-437.749	-104.633	-0.230	-0.052
-436.734	-200.000	0.011	-0.072
-435.719	-57.332	0.158	-0.068
-434.705	-200.000	-0.048	-0.228
-433.690	-90.430	0.313	0.089
-432.676	-64.977	0.207	0.083
-431.661	800.000	-0.048	0.177
-430.646	-172.234	0.062	-0.002
-429.632	-75.861	-0.035	0.012
-428.617	-178.712	0.321	0.007
-427.603	-200.000	-0.016	0.210
-426.588	474.638	-0.094	-0.209
-425.573	800.000	-0.045	-0.132
-424.559	239.724	-0.080	-0.131
-423.544	800.000	0.082	0.318
-422.530	-149.736	0.158	-0.012
-421.515	-113.856	-0.182	-0.035
-420.500	33.704	0.035	-0.030
-419.486	-71.572	-0.345	-0.127
-418.471	47.588	0.039	-0.035
-417.457	-10.893	0.116	0.075
-416.442	-99.248	-0.218	0.054
-415.428	162.934	-0.053	-0.074
-414.413	-146.632	0.192	0.016
-413.398	800.000	0.054	-0.207
-412.384	405.711	0.091	-0.189
-411.369	-64.863	0.091	-0.036
-410.355	4.683	0.042	-0.030
-409.340	-200.000	0.009	0.051
-408.325	-75.622	-0.225	0.079
-407.311	362.778	-0.176	-0.347
-406.296	68.216	-0.078	0.079
-405.282	566.909	-0.053	-0.126
-404.267	-161.531	-0.071	-0.004
-403.252	182.414	-0.094	-0.137
-402.238	-71.556	0.446	0.164
-401.223	800.000	-0.059	0.187
-400.209	-149.712	0.074	0.006
-399.194	-64.098	0.232	0.093
-398.179	-200.000	-0.096	-0.485
-397.165	286.226	-0.150	0.266
-396.150	-22.778	0.091	-0.054
-395.136	800.000	0.111	0.346
-394.121	-31.597	0.295	-0.163
-393.106	-115.800	0.191	-0.035
-392.092	116.071	0.176	-0.212
-391.077	5.944	-0.279	-0.203
-390.063	-75.705	0.377	0.132
-389.048	-149.992	-0.372	0.028
-388.033	-133.198	0.295	0.037
-387.019	-73.402	-0.279	-0.100
-386.004	92.197	0.039	0.043
-384.990	28.569	0.202	0.168
-383.975	-200.000	-0.002	0.138
-382.960	405.147	0.088	-0.182
-381.946	-200.000	-0.008	-0.048
-380.931	101.122	-0.210	-0.241
-379.917	570.930	0.095	0.226
-378.902	-99.417	-0.206	-0.051
-377.888	119.475	-0.139	-0.169
-376.873	-200.000	0.042	0.211
-375.858	-46.837	0.248	-0.119
-374.844	-200.000	-0.014	-0.355
-373.829	-113.371	0.144	-0.028
-372.815	800.000	-0.034	-0.113
-371.800	-200.000	-0.003	0.248
-370.785	800.000	0.161	0.529
-369.771	118.607	0.153	0.186
-368.756	800.000	-0.083	-0.232
-367.742	340.363	0.072	-0.138
-366.727	126.326	-0.165	-0.206
-365.712	180.142	0.234	-0.337
-364.698	-54.654	0.079	-0.035
-363.683	63.690	-0.189	0.187
-362.669	487.471	0.174	-0.390
-361.654	-29.300	-0.303	-0.170
-360.639	-82.998	-0.080	0.025
-359.625	-57.792	0.400	0.172
-358.610	800.000	-0.153	0.517
-357.596	16.836	0.230	0.179
-356.581	165.878	-0.147	-0.205
-355.566	-80.754	-0.088	0.029
-354.552	-166.450	0.320	-0.013
-353.537	800.000	0.117	-0.370
-352.523	466.710	0.093	-0.206
-351.508	424.861	-0.132	0.280
-350.493	-43.250	0.230	-0.114
-349.479	-67.199	0.263	-0.102
-348.464	-13.911	-0.290	0.184
-347.450	111.053	0.094	0.112
-346.435	-21.603	-0.246	-0.147
-345.420	-48.636	0.174	-0.082
-344.406	-200.000	0.031	0.135
-343.391	-200.000	-0.034	-0.191
-342.377	-200.000	-0.006	0.083
-341.362	-93.290	0.375	0.102
-340.348	81.442	-0.165	-0.176
-339.333	-56.986	-0.345	-0.150
-338.318	-158.387	-0.182	-0.010
-337.304	-125.763	-0.307	-0.046
-336.289	39.072	-0.159	0.140
-335.275	-200.000	-0.065	-0.308
-334.260	243.268	0.090	-0.148
-333.245	-200.000	-0.011	0.082
-332.231	-122.172	-0.397	-0.064
-331.216	211.015	0.165	0.255
-330.202	-200.000	0.005	0.313
-329.187	284.113	0.086	-0.151
-328.172	673.615	0.058	0.148
-327.158	-76.268	-0.070	0.024
-326.143	-115.332	0.235	-0.044
-325.129	-200.000	0.041	0.179
-324.114	-59.678	0.188	0.079
-323.099	-200.000	0.007	0.125
-322.085	185.815	0.214	0.312
-321.070	-200.000	0.003	0.112
-320.056	800.000	-0.056	-0.184
-319.041	-54.272	0.014	0.006
-318.026	-200.000	-0.025	-0.144
-317.012	-136.621	-0.051	0.006
-315.997	-200.000	0.002	-0.113
-314.983	-7.367	-0.111	-0.074
-313.968	-89.168	0.182	0.053
-312.953	-36.972	-0.222	-0.117
-311.939	-125.448	0.225	0.034
-310.924	68.512	-0.020	-0.020
-309.910	-16.336	0.191	0.119
-308.895	-115.635	-0.101	-0.019
-307.880	800.000	-0.063	-0.185
-306.866	-113.741	0.271	0.052
-305.851	485.605	0.059	-0.132
-304.837	-200.000	-0.005	0.165
-303.822	413.498	-0.015	0.031
-302.807	800.000	0.025	0.070
-301.793	107.209	-0.140	-0.164
-300.778	650.005	-0.112	0.282
-299.764	-200.000	-0.028	0.153
-298.749	-200.000	0.019	-0.188
-297.735	-20.707	0.060	-0.036
-296.720	-200.000	0.033	0.202
-295.705	-200.000	-0.012	-0.124
-294.691	769.331	0.082	-0.219
-293.676	-188.625	0.059	-0.001
-292.662	270.487	0.132	-0.228
-291.647	-54.565	-0.120	-0.053
-290.632	-35.593	0.040	0.021
-289.618	456.483	-0.039	0.086
-288.603	-47.833	-0.312	-0.148
-287.589	-77.542	0.593	-0.201
-286.574	-125.111	0.416	-0.062
-285.559	800.000	-0.034	0.135
-284.545	-200.000	0.033	0.192
-283.530	-134.435	-0.450	0.054
-282.516	-119.197	0.052	-0.009
-281.501	-200.000	-0.011	-0.287
-280.486	184.838	0.111	0.161
-279.472	529.999	0.096	-0.223
-278.457	-17.245	0.209	-0.129
-277.443	-57.116	-0.216	0.093
-276.428	-46.261	0.335	-0.162
-275.413	32.229	0.209	0.177
-274.399	-168.283	-0.105	0.004
-273.384	-121.335	-0.193	-0.032
-272.370	256.672	-0.221	-0.372
-271.355	-130.908	-0.212	0.028
-270.340	-46.431	0.154	-0.074
-269.326	92.456	-0.256	0.283
-268.311	-56.551	0.265	0.115
-267.297	3.690	-0.330	-0.236
-266.282	-32.749	-0.132	0.072
-265.267	380.592	-0.049	0.097
-264.253	-23.540	0.106	0.062
-263.238	-78.900	-0.315	-0.105
-262.224	-87.250	0.229	0.068
-261.209	-106.461	-0.049	0.011
-260.195	302.531	-0.117	-0.212
-259.180	109.851	-0.186	-0.219
-258.165	-51.416	0.030	-0.014
-257.151	-107.309	0.224	-0.048
-256.136	-1.392	-0.013	0.009
-255.122	-19.201	-0.142	-0.086
-254.107	-23.713	0.325	0.191
-253.092	47.935	0.157	-0.143
-252.078	-200.000	-0.061	0.341
-251.063	299.690	0.235	0.424
-250.049	330.551	-0.073	-0.137
-249.034	-135.720	0.342	0.040
-248.019	89.135	-0.013	-0.014
-247.005	-42.326	0.243	-0.121
-245.990	-87.198	-0.091	-0.027
-244.976	-129.137	0.170	-0.023
-243.961	-105.557	0.063	0.014
-242.946	234.893	0.068	0.110
-241.932	241.888	-0.273	0.447
-240.917	36.508	0.075	-0.064
-239.903	146.232	-0.254	-0.333
-238.888	-53.056	-0.234	0.105
-237.873	5.318	0.067	0.049
-236.859	147.261	0.204	0.269
-235.844	-30.034	0.105	-0.058
-234.830	31.372	-0.166	-0.140
-233.815	74.139	-0.055	-0.056
-232.800	367.615	0.072	0.141
-231.786	5.030	0.273	0.196
-230.771	158.437	-0.168	0.228
-229.757	285.162	0.133	-0.234
-228.742	17.958	-0.416	0.324
-227.727	-43.991	-0.196	0.096
-226.713	-155.892	-0.255	-0.016
-225.698	-76.525	0.058	0.020
-224.684	800.000	0.025	0.091
-223.669	-200.000	0.028	0.291
-222.655	-44.604	0.299	-0.146
-221.640	800.000	0.084	0.275
-220.625	405.024	-0.125	0.258
-219.611	-200.000	0.071	0.556
-218.596	318.464	-0.052	-0.097
-217.582	-87.141	0.083	-0.025
-216.567	-119.732	-0.316	-0.053
-215.552	-187.682	0.164	-0.002
-214.538	361.905	-0.024	0.046
-213.523	-86.037	-0.080	0.024
-212.509	-52.093	0.426	0.193
-211.494	-77.440	0.144	0.049
-210.479	191.826	0.127	0.187
-209.465	-200.000	0.011	-0.106
-208.450	31.775	0.122	-0.102
-207.436	83.420	-0.242	-0.258
-206.421	-92.079	0.133	-0.037
-205.406	461.845	0.046	0.101
-204.392	417.698	-0.054	0.113
-203.377	-58.895	0.168	-0.071
-202.363	110.088	0.195	0.229
-201.348	-200.000	0.016	0.245
-200.333	-83.217	-0.020	-0.006
-199.319	-14.053	0.062	0.039
-198.304	-90.745	0.370	0.104
-197.290	66.051	-0.067	-0.066
-196.275	188.698	-0.091	-0.133
-195.260	800.000	-0.028	-0.087
-194.246	-103.708	0.069	-0.016
-193.231	-200.000	-0.080	0.413
-192.217	28.855	0.069	0.057
-191.202	647.015	-0.026	0.065
-190.187	27.158	0.167	-0.137
-189.173	-95.698	-0.396	0.103
-188.158	-156.247	-0.138	0.008
-187.144	319.779	-0.175	0.325
-186.129	800.000	0.086	0.246
-185.114	-113.664	-0.134	-0.026
-184.100	-67.214	-0.086	0.033
-183.085	75.769	-0.091	0.094
-182.071	46.009	0.146	0.132
-181.056	-200.000	0.003	-0.053
-180.042	93.900	-0.239	0.264
-179.027	-60.614	0.025	0.010
-178.012	-35.617	0.305	-0.161
-176.998	800.000	-0.033	-0.120
-175.983	203.161	-0.155	-0.233
-174.969	-127.386	-0.044	-0.006
-173.954	196.622	-0.245	0.364
-172.939	419.263	0.137	-0.285
-171.925	135.568	-0.121	-0.154
-170.910	71.714	0.177	0.180
-169.896	333.305	0.077	0.144
-168.881	329.507	-0.098	0.184
-167.866	110.237	0.305	0.357
-166.852	800.000	-0.037	0.131
-165.837	-55.759	0.231	-0.101
-164.823	78.252	-0.208	0.216
-163.808	293.776	-0.060	0.108
-162.793	-200.000	-0.007	-0.076
-161.779	-200.000	-0.052	-0.432
-160.764	-6.207	-0.325	-0.217
-159.750	377.969	0.231	0.461
-158.735	-31.497	-0.102	0.056
-157.720	-24.925	-0.193	0.111
-156.706	330.186	0.110	0.205
-155.691	268.760	-0.105	0.180
-154.677	-200.000	0.033	0.381
-153.662	-200.000	0.037	0.272
-152.647	-200.000	-0.001	0.046
-151.633	419.199	-0.070	0.147
-150.618	-163.616	-0.204	-0.009
-149.604	-107.443	0.344	0.073
-148.589	800.000	-0.057	-0.204
-147.574	800.000	-0.015	0.048
-146.560	-200.000	0.011	-0.102
-145.545	37.313	-0.116	-0.100
-144.531	-72.619	-0.077	0.028
-143.516	78.757	-0.105	0.110
-142.502	-200.000	0.007	-0.068
-141.487	-4.068	0.065	0.044
-140.472	622.911	0.162	0.397
-139.458	-42.129	-0.163	0.081
-138.443	220.951	-0.256	0.401
-137.429	420.029	0.021	-0.045
-136.414	-98.409	-0.095	0.024
-135.399	-43.517	0.199	0.098
-134.385	44.521	-0.188	-0.168
-133.370	-2.816	0.184	0.125
-132.356	-54.915	-0.327	-0.143
-131.341	-142.352	0.229	0.022
-130.326	-138.147	0.086	0.009
-129.312	93.013	0.031	-0.034
-128.297	-121.862	-0.238	0.038
-127.283	-21.068	0.220	-0.131
-126.268	357.861	0.058	0.113
-125.253	800.000	-0.049	-0.192
-124.239	21.549	-0.114	-0.090
-123.224	121.882	0.142	-0.173
-122.210	-30.995	-0.060	0.033
