DTS Sentinel unit serial number:	SN413079Multiplexer serial number:	ORYXHardware model number:	OX4-SRSoftware version number:	ORYX F/W v4.00 Oryx Data Collector v3.7.2.0data status	okinstallation	princeton_trtdifferential loss correction	single-endedforward channel	channel 2reverse channel	N/Adate	2019/09/14time	05:15:34forward acquisition time	60.00reverse acquisition time	0.00gamma	496.2192k internal	0.2335k external	0.2335temperature offset calibration	1.0129default loss term (dB/km)	0.3790temperature slope calibration	1.0000multiplexer offset coefficient	1.0000multiplexer slope coefficient	1.0000fibre end	0.00T internal ref (°C)	26.92T ext. ref 1 (°C)	3.38T ext. ref 2 (°C)	22.00length (m)	temperature (°C)	Stokes	anti-Stokes-747.200	-200.000	0.042	0.199
-746.185	312.070	-0.099	0.186
-745.171	30.156	0.380	-0.326
-744.156	-173.753	-0.126	0.004
-743.142	52.288	-0.073	-0.070
-742.127	-200.000	0.006	0.112
-741.112	69.144	0.231	-0.239
-740.098	-115.056	0.127	-0.024
-739.083	-200.000	0.040	-0.205
-738.069	-52.906	-0.149	0.069
-737.054	-111.201	0.127	-0.026
-736.039	58.590	-0.092	-0.091
-735.025	72.932	-0.198	0.208
-734.010	-183.060	-0.138	-0.002
-732.996	130.252	-0.112	0.144
-731.981	800.000	-0.057	0.226
-730.966	-84.379	0.191	-0.061
-729.952	116.947	0.172	0.212
-728.937	-63.657	-0.185	0.076
-727.923	-83.711	-0.233	-0.075
-726.908	-3.858	0.381	-0.265
-725.894	-37.362	-0.146	0.078
-724.879	-200.000	-0.021	-0.151
-723.864	-200.000	-0.010	-0.085
-722.850	800.000	-0.089	-0.273
-721.835	-11.162	0.125	0.083
-720.821	-17.551	0.129	-0.081
-719.806	-200.000	-0.282	0.001
-718.791	333.286	-0.075	-0.145
-717.777	800.000	-0.046	-0.176
-716.762	-10.655	-0.046	0.031
-715.748	-71.846	0.145	-0.054
-714.733	94.479	0.196	-0.223
-713.718	124.629	-0.138	0.174
-712.704	-182.933	0.354	-0.006
-711.689	-200.000	-0.000	-0.055
-710.675	386.739	0.089	-0.185
-709.660	800.000	0.089	-0.262
-708.645	-200.000	0.020	-0.148
-707.631	-74.672	-0.295	0.106
-706.616	66.694	0.076	0.077
-705.602	-57.342	-0.237	0.104
-704.587	765.687	-0.075	0.206
-703.572	486.924	-0.027	-0.063
-702.558	-97.883	-0.291	0.076
-701.543	-200.000	-0.006	-0.135
-700.529	6.717	0.141	0.105
-699.514	124.137	0.085	-0.108
-698.499	-84.829	0.131	0.041
-697.485	800.000	0.053	-0.154
-696.470	6.869	-0.228	-0.170
-695.456	800.000	0.056	-0.160
-694.441	104.859	-0.009	-0.011
-693.426	-96.125	-0.182	-0.048
-692.412	-50.657	0.089	0.042
-691.397	-200.000	-0.053	-0.305
-690.383	-200.000	-0.013	-0.122
-689.368	111.137	-0.005	0.006
-688.354	90.477	-0.290	-0.326
-687.339	169.499	0.103	0.147
-686.324	26.637	-0.220	0.184
-685.310	-200.000	-0.003	0.088
-684.295	148.091	-0.320	0.432
-683.281	-200.000	0.046	0.317
-682.266	160.645	0.033	0.047
-681.251	-129.046	-0.314	0.044
-680.237	-200.000	0.003	-0.023
-679.222	-70.703	-0.133	0.050
-678.208	-46.994	0.092	0.045
-677.193	-149.972	0.306	0.024
-676.178	-200.000	0.005	0.080
-675.164	-32.007	-0.107	0.060
-674.149	1.037	-0.053	0.038
-673.135	40.638	0.144	0.130
-672.120	464.113	0.161	-0.362
-671.105	-98.124	-0.174	-0.045
-670.091	-108.572	-0.117	0.025
-669.076	-99.161	0.237	-0.060
-668.062	-88.496	-0.333	-0.099
-667.047	-128.887	0.561	0.079
-666.032	-18.164	0.221	0.138
-665.018	155.084	-0.235	-0.323
-664.003	56.472	-0.112	-0.109
-662.989	67.771	0.174	-0.178
-661.974	800.000	-0.055	-0.169
-660.959	-200.000	-0.049	0.403
-659.945	18.350	0.291	0.232
-658.930	-60.478	0.323	0.137
-657.916	-40.615	0.191	0.099
-656.901	116.361	-0.186	-0.228
-655.886	-102.204	0.389	-0.094
-654.872	190.221	-0.074	-0.111
-653.857	-134.869	-0.439	-0.053
-652.843	-129.147	0.154	0.022
-651.828	-7.842	0.250	0.169
-650.814	-200.000	-0.064	-0.351
-649.799	-2.189	0.115	-0.081
-648.784	-83.917	0.288	-0.092
-647.770	-127.239	-0.471	-0.069
-646.755	-45.993	0.235	-0.116
-645.741	207.859	-0.173	-0.271
-644.726	720.140	-0.123	-0.328
-643.711	118.443	-0.043	0.054
-642.697	-49.263	0.153	-0.073
-641.682	-200.000	0.001	0.054
-640.668	800.000	-0.067	0.281
-639.653	-200.000	-0.046	-0.272
-638.638	-200.000	-0.027	0.283
-637.624	-136.192	0.216	-0.025
-636.609	38.097	0.152	0.135
-635.595	-200.000	0.029	0.248
-634.580	32.200	0.254	0.219
-633.565	-200.000	0.053	0.281
-632.551	-79.657	-0.322	0.109
-631.536	-0.100	-0.211	0.150
-630.522	258.462	-0.034	0.058
-629.507	462.129	-0.094	0.210
-628.492	-200.000	-0.035	-0.224
-627.478	800.000	-0.113	0.337
-626.463	-200.000	0.037	-0.219
-625.449	19.899	-0.037	-0.030
-624.434	-200.000	-0.028	0.311
-623.419	-200.000	0.025	-0.130
-622.405	171.107	-0.060	0.085
-621.390	8.142	-0.171	0.129
-620.376	211.056	-0.090	-0.141
-619.361	456.335	0.047	-0.105
-618.346	-200.000	-0.021	-0.293
-617.332	324.105	-0.007	-0.013
-616.317	60.917	-0.102	-0.101
-615.303	25.671	-0.285	-0.238
-614.288	-200.000	-0.020	-0.205
-613.273	16.958	-0.061	0.049
-612.259	-82.572	0.088	0.029
-611.244	-158.554	0.178	0.010
-610.230	-200.000	-0.062	-0.280
-609.215	213.024	0.154	0.242
-608.201	110.259	0.246	-0.295
-607.186	28.710	0.053	-0.045
-606.171	-25.474	0.188	-0.111
-605.157	-194.588	0.409	-0.003
-604.142	-200.000	0.095	0.423
-603.128	-172.820	-0.028	-0.001
-602.113	-0.534	-0.244	0.173
-601.098	-37.108	-0.427	0.228
-600.084	-134.557	0.336	-0.041
-599.069	-23.055	0.158	0.095
-598.055	97.688	0.189	0.217
-597.040	-150.795	0.101	-0.008
-596.025	-156.503	-0.247	-0.015
-595.011	-120.510	0.089	0.015
-593.996	-139.915	-0.089	0.009
-592.982	57.781	0.256	-0.250
-591.967	-141.409	0.309	-0.031
-590.952	-168.621	-0.383	0.015
-589.938	69.518	-0.320	-0.329
-588.923	-91.556	0.138	0.039
-587.909	800.000	-0.041	-0.163
-586.894	615.708	0.081	-0.204
-585.879	-200.000	-0.019	0.199
-584.865	-37.421	0.029	-0.016
-583.850	-200.000	-0.078	0.408
-582.836	-121.426	0.227	-0.038
-581.821	102.289	-0.175	0.204
-580.806	800.000	-0.087	0.272
-579.792	-9.157	0.182	0.121
-578.777	-55.134	-0.478	0.215
-577.763	-200.000	0.020	0.189
-576.748	-74.131	-0.370	0.134
-575.733	-102.004	0.098	-0.024
-574.719	-73.845	0.126	-0.046
-573.704	-200.000	-0.030	-0.204
-572.690	23.631	0.044	0.036
-571.675	-200.000	0.002	0.161
-570.661	-156.122	0.191	0.012
-569.646	150.988	-0.230	-0.312
-568.631	-55.480	-0.117	0.052
-567.617	-200.000	-0.030	-0.153
-566.602	100.447	-0.113	0.131
-565.588	-101.322	-0.050	0.012
-564.573	456.687	0.150	-0.331
-563.558	-200.000	-0.014	0.240
-562.544	-200.000	-0.002	0.091
-561.529	43.416	-0.085	-0.078
-560.515	-70.334	0.329	-0.124
-559.500	333.364	0.060	-0.115
-558.485	368.371	0.114	-0.231
-557.471	733.533	0.091	0.243
-556.456	41.405	-0.215	-0.194
-555.442	-83.690	-0.157	-0.050
-554.427	-109.733	0.244	0.051
-553.412	-200.000	0.038	0.173
-552.398	620.449	0.054	0.136
-551.383	800.000	0.034	-0.124
-550.369	-97.706	0.216	0.056
-549.354	800.000	0.044	0.122
-548.339	14.393	-0.116	-0.090
-547.325	-200.000	0.008	-0.221
-546.310	-59.714	0.301	0.128
-545.296	-200.000	-0.004	-0.142
-544.281	-124.907	0.136	-0.021
-543.266	186.010	0.129	-0.192
-542.252	324.617	-0.210	0.401
-541.237	-124.601	0.273	-0.042
-540.223	-139.125	-0.029	-0.003
-539.208	205.957	-0.013	0.021
-538.193	647.073	0.074	0.188
-537.179	-20.293	0.179	-0.110
-536.164	-200.000	0.018	-0.291
-535.150	-101.266	-0.168	-0.041
-534.135	-200.000	0.069	0.327
-533.121	20.085	-0.369	0.296
-532.106	44.725	0.067	-0.061
-531.091	-200.000	-0.069	-0.432
-530.077	-200.000	0.010	-0.285
-529.062	-200.000	0.016	-0.193
-528.048	-147.459	0.229	-0.019
-527.033	-200.000	-0.038	-0.198
-526.018	-104.911	-0.121	0.028
-525.004	-200.000	0.001	-0.137
-523.989	104.581	-0.152	-0.178
-522.975	509.728	-0.036	-0.084
-521.960	93.109	-0.064	0.073
-520.945	-121.485	-0.125	-0.021
-519.931	800.000	0.050	0.144
-518.916	-131.243	-0.360	-0.048
-517.902	-65.307	0.530	-0.212
-516.887	470.088	0.066	-0.147
-515.872	509.310	0.104	-0.240
-514.858	331.956	0.053	0.102
-513.843	-89.745	0.249	-0.072
-512.829	-200.000	0.041	0.306
-511.814	108.919	-0.228	0.271
-510.799	-174.515	0.309	0.009
-509.785	381.876	-0.027	0.056
-508.770	800.000	0.038	0.119
-507.756	-47.819	0.231	0.111
-506.741	-200.000	-0.045	-0.229
-505.726	51.683	0.121	0.114
-504.712	-200.000	0.013	-0.336
-503.697	-62.488	-0.342	-0.142
-502.683	-72.009	-0.180	-0.067
-501.668	398.702	-0.041	0.086
-500.653	-114.903	-0.489	-0.093
-499.639	-62.017	0.357	0.149
-498.624	200.356	0.046	-0.071
-497.610	-38.575	0.218	0.115
-496.595	-104.260	0.280	0.065
-495.581	800.000	0.043	-0.145
-494.566	800.000	-0.041	-0.159
-493.551	-137.985	-0.270	0.030
-492.537	800.000	-0.043	0.130
-491.522	-200.000	-0.017	-0.429
-490.508	-109.837	0.145	0.030
-489.493	-200.000	0.099	-0.458
-488.478	347.528	0.047	-0.092
-487.464	800.000	-0.060	0.232
-486.449	800.000	-0.029	0.113
-485.435	-140.915	-0.399	-0.041
-484.420	-134.545	0.324	-0.039
-483.405	17.345	0.048	-0.038
-482.391	185.466	0.035	-0.052
-481.376	82.555	0.118	-0.127
-480.362	-7.292	0.139	-0.094
-479.347	57.463	0.133	-0.129
-478.332	800.000	0.056	-0.231
-477.318	-200.000	0.016	-0.135
-476.303	494.387	0.133	0.305
-475.289	-90.037	0.258	-0.075
-474.274	-109.573	0.187	-0.039
-473.259	-123.741	0.341	0.054
-472.245	-107.423	0.161	0.035
-471.230	190.141	-0.241	-0.359
-470.216	11.310	-0.364	0.277
-469.201	114.484	-0.215	0.260
-468.186	74.068	-0.276	0.287
-467.172	688.626	-0.079	0.205
-466.157	-200.000	-0.006	0.314
-465.143	-4.570	0.111	-0.076
-464.128	-82.007	-0.121	0.039
-463.113	26.943	-0.093	0.077
-462.099	467.214	-0.082	0.183
-461.084	-67.725	0.392	0.153
-460.070	-130.814	-0.301	-0.040
-459.055	-25.990	0.185	0.108
-458.040	-48.371	-0.169	0.081
-457.026	212.825	0.070	-0.109
-456.011	-53.093	-0.047	0.021
-454.997	6.378	-0.122	-0.090
-453.982	17.912	-0.185	0.146
-452.968	800.000	-0.116	0.365
-451.953	40.008	-0.110	0.098
-450.938	519.014	0.058	-0.135
-449.924	334.490	-0.118	-0.226
-448.909	309.449	-0.349	0.647
-447.895	5.133	0.090	0.066
-446.880	-100.641	0.258	0.063
-445.865	0.715	-0.261	0.185
-444.851	800.000	-0.076	-0.238
-443.836	800.000	0.133	-0.372
-442.822	-3.109	0.138	0.095
-441.807	-92.200	0.071	-0.020
-440.792	-50.429	-0.159	0.075
-439.778	81.757	-0.092	-0.099
-438.763	774.672	0.125	-0.338
-437.749	-200.000	0.016	0.223
-436.734	-6.026	0.530	0.360
-435.719	-120.600	-0.187	-0.032
-434.705	-95.902	0.300	0.079
-433.690	71.429	0.170	-0.176
-432.676	-106.054	0.294	0.066
-431.661	800.000	-0.056	-0.157
-430.646	780.033	-0.025	0.067
-429.632	-200.000	-0.005	0.082
-428.617	-145.340	-0.144	-0.013
-427.603	204.613	0.096	0.148
-426.588	-200.000	-0.003	-0.107
-425.573	-14.765	0.091	0.058
-424.559	-14.938	0.162	0.103
-423.544	-97.587	0.208	0.053
-422.530	-45.706	-0.182	0.089
-421.515	-200.000	0.014	0.076
-420.500	109.926	0.155	-0.184
-419.486	107.127	-0.117	-0.138
-418.471	800.000	-0.045	-0.194
-417.457	-103.941	-0.098	-0.023
-416.442	-42.054	0.143	0.073
-415.428	63.668	0.079	-0.079
-414.413	-98.613	-0.058	-0.015
-413.398	-200.000	0.073	-0.324
-412.384	109.268	-0.117	-0.139
-411.369	113.087	0.141	-0.170
-410.355	-28.374	-0.307	-0.176
-409.340	-30.834	-0.201	-0.112
-408.325	137.023	-0.103	-0.134
-407.311	800.000	-0.034	0.118
-406.296	119.309	0.155	-0.190
-405.282	-98.877	0.262	0.066
-404.267	370.806	-0.105	0.211
-403.252	92.901	-0.271	0.304
-402.238	-56.754	0.341	-0.150
-401.223	-77.991	-0.259	-0.088
-400.209	-11.712	-0.199	-0.130
-399.194	-96.557	-0.271	-0.071
-398.179	-200.000	-0.009	0.063
-397.165	252.185	-0.044	0.075
-396.150	252.162	-0.197	0.332
-395.136	39.043	0.315	-0.279
-394.121	146.029	-0.126	0.168
-393.106	-56.081	-0.182	0.080
-392.092	800.000	0.084	0.247
-391.077	-162.089	-0.038	-0.002
-390.063	-200.000	-0.026	-0.185
-389.048	-137.334	0.582	-0.065
-388.033	294.627	-0.124	0.225
-387.019	750.959	0.115	0.306
-386.004	-39.922	-0.387	-0.200
-384.990	-45.668	0.282	0.138
-383.975	151.171	0.214	0.288
-382.960	3.247	-0.045	-0.032
-381.946	45.393	-0.154	0.141
-380.931	115.111	-0.090	-0.108
-379.917	152.653	-0.136	-0.184
-378.902	-12.954	0.146	0.094
-377.888	-113.118	-0.266	0.052
-376.873	103.390	0.248	-0.289
-375.858	800.000	-0.042	-0.163
-374.844	-43.764	-0.030	0.015
-373.829	93.723	-0.212	0.238
-372.815	-200.000	0.026	-0.374
-371.800	559.287	0.035	-0.084
-370.785	-113.906	0.099	-0.019
-369.771	-200.000	-0.070	0.384
-368.756	28.714	-0.145	0.121
-367.742	40.140	0.015	0.014
-366.727	-200.000	-0.060	-0.289
-365.712	-131.414	0.118	-0.015
-364.698	-21.868	-0.209	-0.126
-363.683	308.097	-0.245	-0.453
-362.669	97.944	0.176	0.200
-361.654	-200.000	-0.065	-0.303
-360.639	-200.000	-0.022	0.211
-359.625	-200.000	-0.015	0.476
-358.610	-155.061	0.109	-0.007
-357.596	71.018	0.166	0.170
-356.581	297.839	0.146	0.266
-355.566	300.716	0.218	0.399
-354.552	107.125	0.044	0.051
-353.537	468.704	-0.062	0.137
-352.523	103.320	-0.382	0.443
-351.508	268.713	-0.135	-0.235
-350.493	-17.648	0.163	0.101
-349.479	-76.867	-0.379	0.131
-348.464	299.609	-0.145	0.264
-347.450	95.098	-0.228	0.257
-346.435	-43.687	0.262	0.131
-345.420	655.366	-0.122	-0.309
-344.406	800.000	-0.033	0.094
-343.391	34.886	0.207	-0.179
-342.377	48.864	0.244	-0.226
-341.362	-175.097	-0.049	0.001
-340.348	-200.000	0.040	-0.231
-339.333	24.348	0.068	0.055
-338.318	115.232	-0.104	-0.125
-337.304	144.423	-0.111	-0.147
-336.289	103.677	0.008	0.009
-335.275	316.733	0.070	0.130
-334.260	139.797	0.051	0.067
-333.245	-66.662	0.115	-0.045
-332.231	77.160	0.365	-0.383
-331.216	-184.611	-0.253	0.004
-330.202	94.008	-0.272	0.305
-329.187	38.166	0.129	0.113
-328.172	8.463	0.133	-0.099
-327.158	144.829	0.139	-0.183
-326.143	-73.037	-0.165	-0.060
-325.129	12.610	0.185	0.141
-324.114	-65.808	-0.308	-0.122
-323.099	90.849	0.176	-0.195
-322.085	-25.877	0.143	0.083
-321.070	165.350	0.068	0.094
-320.056	-17.197	-0.416	-0.259
-319.041	183.253	-0.176	-0.257
-318.026	-63.108	0.253	0.103
-317.012	73.092	-0.229	0.237
-315.997	111.228	-0.134	0.159
-314.983	-26.259	-0.046	-0.027
-313.968	800.000	0.084	-0.293
-312.953	154.028	-0.170	-0.230
-311.939	-33.433	-0.169	-0.092
-310.924	227.144	0.138	-0.222
-309.910	-200.000	0.069	-0.340
-308.895	62.089	-0.204	-0.201
-307.880	378.369	0.086	0.173
-306.866	194.471	-0.145	-0.217
-305.851	-200.000	0.022	0.123
-304.837	-92.821	-0.275	-0.076
-303.822	-109.851	-0.146	-0.030
-302.807	-73.639	-0.125	0.045
-301.793	-41.443	-0.193	0.098
-300.778	-200.000	0.006	0.146
-299.764	-76.782	0.129	-0.044
-298.749	72.920	-0.196	-0.202
-297.735	-55.522	0.118	0.052
-296.720	23.075	-0.197	-0.159
-295.705	13.894	0.196	0.150
-294.691	-200.000	-0.005	0.456
-293.676	142.339	-0.065	-0.085
-292.662	-41.508	-0.174	-0.088
-291.647	-200.000	-0.021	-0.146
-290.632	-14.703	-0.084	0.053
-289.618	-19.456	-0.271	-0.166
-288.603	-182.180	-0.127	-0.002
-287.589	-200.000	-0.017	-0.194
-286.574	154.640	-0.210	-0.285
-285.559	-134.333	-0.054	0.007
-284.545	-200.000	0.038	0.241
-283.530	-18.542	0.172	0.106
-282.516	267.482	0.029	-0.051
-281.501	-200.000	-0.014	0.136
-280.486	11.194	-0.078	0.059
-279.472	-20.077	0.146	0.089
-278.457	-9.143	-0.193	-0.127
-277.443	-200.000	0.017	0.340
-276.428	-170.742	-0.313	-0.011
-275.413	-200.000	-0.022	-0.301
-274.399	-65.560	0.223	-0.088
-273.384	2.281	-0.180	0.128
-272.370	800.000	0.029	0.079
-271.355	-149.531	-0.556	-0.043
-270.340	30.491	-0.249	-0.210
-269.326	310.355	-0.091	0.168
-268.311	230.108	-0.025	0.041
-267.297	624.092	0.040	0.099
-266.282	-191.525	0.402	-0.004
-265.267	20.404	-0.193	-0.154
-264.253	-28.736	0.313	0.177
-263.238	54.060	0.461	-0.437
-262.224	-170.534	-0.384	-0.013
-261.209	-154.080	-0.152	-0.010
-260.195	-53.160	-0.164	-0.074
-259.180	61.351	0.156	-0.153
-258.165	-200.000	0.013	-0.107
-257.151	-200.000	-0.032	0.211
-256.136	-78.047	0.249	-0.085
-255.122	-68.809	0.105	0.040
-254.107	187.809	-0.007	-0.010
-253.092	648.659	-0.124	-0.312
-252.078	800.000	0.084	-0.278
-251.063	-200.000	0.045	0.234
-250.049	-12.557	0.199	0.128
-249.034	-102.332	0.254	-0.060
-248.019	-78.475	-0.334	0.113
-247.005	69.318	0.074	-0.075
-245.990	800.000	0.073	-0.238
-244.976	800.000	-0.024	0.066
-243.961	-200.000	0.003	0.093
-242.946	-6.466	0.176	-0.118
-241.932	10.261	0.158	-0.119
-240.917	113.710	0.177	-0.212
-239.903	539.215	-0.120	-0.282
-238.888	32.251	-0.021	0.018
-237.873	326.427	0.081	0.153
-236.859	-111.634	0.180	-0.036
-235.844	419.987	-0.162	0.341
-234.830	-118.218	-0.176	-0.031
-233.815	128.581	0.183	-0.230
-232.800	78.265	0.068	0.072
-231.786	-200.000	-0.003	-0.033
-230.771	800.000	-0.062	0.264
-229.757	-152.565	0.365	0.026
-228.742	150.775	0.206	-0.276
-227.727	-114.306	-0.238	-0.045
-226.713	800.000	0.130	0.403
-225.698	406.258	0.040	0.083
-224.684	-69.974	-0.167	-0.063
-223.669	3.975	0.148	0.107
-222.655	-200.000	-0.026	-0.178
-221.640	-112.863	0.178	-0.035
-220.625	16.349	-0.066	0.051
-219.611	-42.903	-0.046	0.023
-218.596	70.204	-0.172	0.175
-217.582	-44.101	0.100	-0.049
-216.567	-29.704	0.174	0.098
-215.552	-102.268	0.070	0.017
-214.538	237.693	0.094	0.154
-213.523	-5.632	0.206	-0.139
-212.509	-144.935	0.285	-0.026
-211.494	-200.000	-0.005	-0.045
-210.479	61.943	-0.114	0.112
-209.465	-147.222	0.248	0.021
-208.450	-7.580	0.263	-0.175
-207.436	-109.682	0.315	-0.065
-206.421	800.000	-0.078	-0.283
-205.406	-64.087	-0.258	-0.104
-204.392	246.647	0.130	0.216
-203.377	800.000	0.027	0.108
-202.363	-74.509	-0.154	0.055
-201.348	-157.470	-0.108	0.006
-200.333	15.614	-0.236	-0.182
-199.319	193.315	-0.159	0.237
-198.304	-17.217	0.120	0.074
-197.290	-124.841	0.387	0.059
-196.275	-42.312	0.088	-0.044
-195.260	-200.000	-0.028	0.295
-194.246	101.312	0.209	0.240
-193.231	251.804	-0.239	0.400
-192.217	246.083	0.097	0.161
-191.202	-200.000	-0.019	-0.184
-190.187	64.322	-0.043	0.043
-189.173	800.000	-0.071	-0.200
-188.158	190.880	-0.176	0.260
-187.144	-75.333	-0.284	-0.099
-186.129	-108.508	-0.232	0.049
-185.114	-194.869	0.250	-0.002
-184.100	16.049	-0.229	0.177
-183.085	268.751	0.061	-0.106
-182.071	-200.000	-0.044	-0.202
-181.056	77.579	-0.094	-0.098
-180.042	-155.646	-0.283	-0.018
-179.027	800.000	-0.109	-0.301
-178.012	106.837	-0.077	-0.090
-176.998	800.000	-0.021	0.079
-175.983	89.651	0.219	0.240
-174.969	757.083	0.063	0.167
-173.954	119.112	0.121	0.147
-172.939	-16.014	0.328	-0.205
-171.925	22.956	0.225	0.181
-170.910	-40.964	-0.168	0.085
-169.896	-5.170	-0.013	-0.009
-168.881	141.820	-0.084	0.109
-167.866	-140.238	0.033	-0.003
-166.852	-51.348	-0.092	0.042
-165.837	-87.555	0.181	-0.054
-164.823	-200.000	-0.005	0.076
-163.808	320.649	-0.137	-0.256
-162.793	-200.000	0.001	-0.142
-161.779	42.970	0.203	0.182
-160.764	13.289	0.175	0.133
-159.750	-74.051	-0.240	-0.085
-158.735	-90.059	0.158	-0.045
-157.720	86.799	-0.246	0.266
-156.706	-200.000	-0.010	-0.050
-155.691	5.826	-0.191	0.139
-154.677	7.358	-0.089	0.065
-153.662	-200.000	0.031	0.204
-152.647	85.083	0.270	-0.290
-151.633	-200.000	-0.030	-0.153
-150.618	-90.197	0.275	-0.079
-149.604	-101.255	0.292	-0.070
-148.589	-69.220	0.232	-0.088
-147.574	-115.929	-0.073	-0.013
-146.560	-179.556	-0.165	-0.004
-145.545	-71.867	-0.068	0.025
-144.531	-70.280	0.224	0.084
-143.516	-52.527	-0.208	-0.094
-142.502	22.403	-0.160	0.128
-141.487	-200.000	0.007	0.283
-140.472	-200.000	0.022	0.115
-139.458	50.687	-0.252	0.234
-138.443	800.000	0.076	-0.250
-137.429	-91.299	-0.116	-0.033
-136.414	800.000	0.049	0.205
-135.399	-200.000	-0.001	0.313
-134.385	-96.334	0.172	0.045
-133.370	-57.682	0.223	0.096
-132.356	-78.029	-0.302	-0.102
-131.341	-141.807	0.059	0.006
-130.326	-109.213	-0.389	-0.081
-129.312	492.336	0.136	0.306
-128.297	-24.103	0.293	-0.172
-127.283	305.123	0.179	0.326
-126.268	4.088	-0.114	-0.082
-125.253	-157.449	-0.331	-0.020
-124.239	158.237	0.096	-0.131
-123.224	639.472	-0.049	0.121
-122.210	681.084	0.068	0.173
-121.195	800.000	-0.060	0.238
