DTS Sentinel unit serial number:	SN413079Multiplexer serial number:	ORYXHardware model number:	OX4-SRSoftware version number:	ORYX F/W v4.00 Oryx Data Collector v3.7.2.0data status	okinstallation	princeton_trtdifferential loss correction	single-endedforward channel	channel 2reverse channel	N/Adate	2019/09/18time	21:23:35forward acquisition time	60.00reverse acquisition time	0.00gamma	496.2192k internal	0.2344k external	0.2344temperature offset calibration	1.0020default loss term (dB/km)	0.3790temperature slope calibration	1.0000multiplexer offset coefficient	1.0000multiplexer slope coefficient	1.0000fibre end	0.00T internal ref (°C)	25.50T ext. ref 1 (°C)	0.84T ext. ref 2 (°C)	18.22length (m)	temperature (°C)	Stokes	anti-Stokes-747.200	-128.817	0.194	-0.027
-746.185	-25.805	0.053	-0.031
-745.171	133.488	-0.182	0.235
-744.156	-200.000	0.038	-0.237
-743.142	-28.313	0.073	0.042
-742.127	113.135	-0.111	0.134
-741.112	486.153	-0.020	0.046
-740.098	-99.351	-0.164	-0.041
-739.083	-200.000	-0.037	0.221
-738.069	-200.000	-0.046	0.225
-737.054	-53.095	0.195	-0.090
-736.039	34.059	0.186	0.162
-735.025	-200.000	-0.005	0.058
-734.010	174.789	0.088	-0.127
-732.996	-19.641	0.129	0.080
-731.981	20.179	-0.231	-0.187
-730.966	227.397	0.117	-0.190
-729.952	64.042	0.067	-0.067
-728.937	93.320	-0.266	-0.301
-727.923	-200.000	-0.013	0.111
-726.908	-118.459	0.101	-0.018
-725.894	-23.971	0.194	0.116
-724.879	707.281	-0.026	0.069
-723.864	143.582	-0.098	-0.131
-722.850	-125.582	-0.194	-0.029
-721.835	36.661	-0.059	0.052
-720.821	-200.000	0.032	-0.222
-719.806	44.730	0.157	0.144
-718.791	-200.000	-0.062	-0.339
-717.777	-36.265	-0.122	0.066
-716.762	93.802	-0.241	0.273
-715.748	-200.000	0.033	-0.349
-714.733	-200.000	-0.004	-0.216
-713.718	-200.000	-0.030	0.456
-712.704	-17.782	-0.125	0.079
-711.689	142.383	-0.035	0.046
-710.675	-108.813	0.278	-0.059
-709.660	-79.287	0.195	0.066
-708.645	-200.000	0.019	-0.249
-707.631	46.271	-0.138	-0.128
-706.616	7.189	0.301	0.224
-705.602	-200.000	-0.020	0.246
-704.587	-29.812	0.102	0.058
-703.572	-123.671	0.465	0.074
-702.558	249.904	0.031	0.053
-701.543	108.628	-0.237	0.282
-700.529	-134.697	-0.143	0.017
-699.514	-200.000	-0.042	0.226
-698.499	6.271	-0.170	0.126
-697.485	-10.985	0.145	0.095
-696.470	88.066	-0.204	-0.226
-695.456	-87.262	0.242	0.073
-694.441	349.663	-0.073	-0.144
-693.426	-31.626	-0.281	-0.157
-692.412	583.105	0.035	0.086
-691.397	427.391	-0.165	-0.356
-690.383	-122.801	-0.171	0.028
-689.368	-116.364	0.499	-0.092
-688.354	-10.363	-0.266	-0.176
-687.339	-110.474	0.281	-0.058
-686.324	-44.060	0.293	-0.147
-685.310	-111.361	0.182	-0.037
-684.295	800.000	0.058	-0.173
-683.281	84.402	0.156	-0.170
-682.266	-103.192	-0.415	-0.098
-681.251	-200.000	-0.010	0.490
-680.237	-37.440	-0.080	-0.043
-679.222	800.000	-0.008	-0.022
-678.208	-60.190	-0.323	-0.137
-677.193	42.147	-0.101	-0.091
-676.178	-88.558	-0.140	0.042
-675.164	-200.000	0.026	0.290
-674.149	-200.000	0.003	-0.103
-673.135	-63.094	0.059	0.024
-672.120	-42.090	0.344	-0.175
-671.105	278.401	0.047	-0.084
-670.091	40.993	-0.264	-0.238
-669.076	-64.025	-0.232	0.095
-668.062	303.733	-0.061	-0.112
-667.047	532.908	-0.031	-0.073
-666.032	-4.041	0.179	0.124
-665.018	-200.000	0.042	-0.191
-664.003	543.095	-0.054	0.128
-662.989	-29.321	0.095	-0.054
-661.974	-50.439	-0.273	-0.129
-660.959	-24.380	0.229	0.136
-659.945	335.074	-0.067	-0.130
-658.930	-21.149	0.174	0.106
-657.916	-128.616	-0.106	0.015
-656.901	800.000	0.034	-0.095
-655.886	-127.218	-0.136	-0.020
-654.872	87.657	-0.080	0.088
-653.857	-56.897	-0.114	0.050
-652.843	-74.039	-0.094	0.034
-651.828	126.825	-0.079	-0.100
-650.814	-135.731	-0.185	-0.022
-649.799	-200.000	-0.026	0.325
-648.784	479.349	-0.170	-0.385
-647.770	-68.706	-0.205	0.079
-646.755	293.477	-0.119	-0.217
-645.741	-200.000	0.057	0.424
-644.726	800.000	0.052	-0.148
-643.711	317.934	0.048	-0.091
-642.697	62.891	-0.161	-0.161
-641.682	20.962	0.295	0.238
-640.668	138.944	-0.114	-0.149
-639.653	350.958	0.113	0.223
-638.638	-54.992	0.230	-0.104
-637.624	-0.743	-0.166	0.117
-636.609	-114.131	0.346	0.067
-635.595	-163.658	-0.095	0.004
-634.580	-49.773	0.096	-0.046
-633.565	-200.000	-0.002	-0.052
-632.551	-200.000	-0.039	-0.209
-631.536	-18.080	0.080	-0.050
-630.522	237.031	0.028	0.047
-629.507	-200.000	0.040	-0.355
-628.492	-122.631	-0.571	-0.092
-627.478	33.743	-0.119	-0.103
-626.463	-200.000	-0.040	0.185
-625.449	-200.000	0.018	0.176
-624.434	-165.592	-0.123	-0.005
-623.419	800.000	-0.004	-0.013
-622.405	-2.545	0.173	0.121
-621.390	-200.000	0.005	-0.388
-620.376	-200.000	-0.021	-0.266
-619.361	-200.000	0.022	-0.269
-618.346	356.334	-0.129	0.256
-617.332	591.453	0.094	-0.231
-616.317	-200.000	0.005	0.376
-615.303	37.586	-0.160	0.142
-614.288	-0.280	0.178	0.126
-613.273	21.253	0.265	0.215
-612.259	-200.000	0.200	0.001
-611.244	-146.972	0.182	-0.016
-610.230	-200.000	-0.064	-0.280
-609.215	544.005	0.084	-0.200
-608.201	-80.972	-0.189	0.062
-607.186	-119.692	0.076	0.013
-606.171	800.000	0.110	0.448
-605.157	476.451	0.079	0.178
-604.142	-200.000	0.012	-0.173
-603.128	800.000	0.115	-0.328
-602.113	-148.492	-0.636	-0.052
-601.098	112.183	0.242	0.291
-600.084	240.922	-0.077	0.127
-599.069	156.451	-0.255	0.350
-598.055	277.922	0.095	0.167
-597.040	-138.934	0.247	0.027
-596.025	-101.492	0.169	0.041
-595.011	461.079	0.124	-0.275
-593.996	56.810	0.144	-0.140
-592.982	162.660	0.145	-0.203
-591.967	-112.689	0.281	-0.056
-590.952	59.226	-0.210	-0.206
-589.938	-75.653	0.208	0.073
-588.923	52.636	-0.117	-0.111
-587.909	-108.773	-0.244	0.052
-586.894	-200.000	-0.003	-0.778
-585.879	34.694	0.109	-0.095
-584.865	336.167	0.144	-0.277
-583.850	19.197	0.076	0.061
-582.836	501.121	0.063	-0.145
-581.821	800.000	0.093	0.375
-580.806	-77.188	0.136	-0.047
-579.792	146.701	-0.143	-0.191
-578.777	-200.000	-0.009	0.047
-577.763	-200.000	0.029	0.191
-576.748	-139.163	0.267	0.029
-575.733	-200.000	0.004	-0.168
-574.719	17.616	-0.150	-0.119
-573.704	11.121	0.210	-0.160
-572.690	58.982	-0.081	-0.079
-571.675	-200.000	-0.005	-0.223
-570.661	-145.236	-0.196	0.018
-569.646	-77.850	0.234	-0.080
-568.631	-145.877	0.338	-0.030
-567.617	260.484	0.066	-0.113
-566.602	227.880	0.288	0.466
-565.588	-200.000	0.040	0.289
-564.573	21.838	0.204	-0.165
-563.558	752.914	-0.102	0.275
-562.544	-54.727	0.227	-0.102
-561.529	364.404	-0.053	0.106
-560.515	-59.839	0.077	0.033
-559.500	433.233	-0.073	-0.157
-558.485	87.050	0.117	-0.128
-557.471	180.791	-0.276	-0.403
-556.456	411.634	0.015	-0.032
-555.442	-122.878	-0.255	-0.041
-554.427	800.000	-0.046	-0.177
-553.412	-90.578	-0.234	-0.067
-552.398	30.644	-0.193	0.164
-551.383	-48.344	0.210	-0.100
-550.369	-46.395	0.214	-0.104
-549.354	12.531	-0.289	0.221
-548.339	-200.000	-0.064	-0.361
-547.325	-26.394	0.139	0.081
-546.310	-150.916	0.042	0.003
-545.296	424.487	-0.092	-0.197
-544.281	800.000	-0.084	0.317
-543.266	-200.000	0.001	0.046
-542.252	800.000	-0.032	0.137
-541.237	12.630	-0.072	-0.055
-540.223	582.857	-0.064	-0.155
-539.208	35.926	-0.049	-0.043
-538.193	-28.880	-0.111	0.063
-537.179	195.689	-0.006	-0.009
-536.164	-30.676	0.102	0.058
-535.150	-200.000	0.031	0.185
-534.135	-20.624	0.004	0.002
-533.121	-200.000	0.019	0.153
-532.106	800.000	-0.099	0.292
-531.091	-27.687	-0.274	-0.158
-530.077	-200.000	0.011	-0.256
-529.062	359.539	-0.051	0.102
-528.048	-200.000	0.066	-0.332
-527.033	-197.814	-0.197	-0.001
-526.018	82.069	-0.240	-0.258
-525.004	84.486	-0.238	-0.258
-523.989	9.193	-0.142	-0.107
-522.975	-146.754	0.362	0.031
-521.960	-42.910	-0.145	0.073
-520.945	15.645	-0.065	0.051
-519.931	-50.493	-0.064	0.030
-518.916	132.267	0.155	0.198
-517.902	262.952	-0.142	-0.245
-516.887	-91.179	-0.222	-0.063
-515.872	-200.000	0.021	-0.117
-514.858	148.530	0.053	-0.071
-513.843	-28.261	-0.150	0.086
-512.829	-148.889	-0.124	-0.010
-511.814	-200.000	-0.009	0.202
-510.799	-35.999	-0.243	-0.130
-509.785	326.168	0.112	0.212
-508.770	-200.000	0.029	0.187
-507.756	39.751	0.060	0.053
-506.741	-127.487	-0.249	0.036
-505.726	441.020	0.131	0.284
-504.712	180.483	-0.203	0.296
-503.697	-80.898	0.188	0.062
-502.683	-200.000	-0.016	-0.091
-501.668	8.912	0.183	0.137
-500.653	730.156	-0.089	-0.236
-499.639	-200.000	-0.020	0.443
-498.624	800.000	-0.054	-0.172
-497.610	-23.971	-0.299	-0.177
-496.595	-200.000	0.037	-0.213
-495.581	10.807	0.150	0.114
-494.566	308.979	0.069	-0.129
-493.551	787.109	0.046	-0.125
-492.537	302.211	0.213	-0.391
-491.522	124.540	-0.146	-0.182
-490.508	88.813	-0.095	0.105
-489.493	800.000	-0.120	0.350
-488.478	-192.408	0.033	0.000
-487.464	-119.060	-0.202	0.035
-486.449	-188.692	-0.401	-0.005
-485.435	-200.000	-0.042	-0.296
-484.420	-15.212	0.309	-0.196
-483.405	-30.748	0.273	-0.153
-482.391	-124.637	-0.313	0.048
-481.376	53.527	-0.179	-0.170
-480.362	800.000	0.116	0.378
-479.347	-72.212	-0.200	0.074
-478.332	6.002	0.307	0.225
-477.318	-200.000	-0.024	-0.234
-476.303	36.390	0.289	0.253
-475.289	64.963	0.127	-0.127
-474.274	-123.877	-0.211	0.033
-473.259	164.613	0.121	0.168
-472.245	-2.052	0.080	0.055
-471.230	-200.000	-0.007	-0.324
-470.216	329.230	0.022	-0.043
-469.201	-200.000	-0.099	0.541
-468.186	71.526	-0.192	0.198
-467.172	-158.674	-0.248	0.014
-466.157	148.012	-0.311	-0.416
-465.143	800.000	0.033	-0.092
-464.128	-115.207	-0.102	0.019
-463.113	601.740	0.144	-0.353
-462.099	316.340	-0.146	0.273
-461.084	-78.213	-0.237	-0.081
-460.070	73.893	-0.217	-0.225
-459.055	699.221	-0.069	-0.178
-458.040	88.642	0.222	-0.244
-457.026	-200.000	0.008	-0.163
-456.011	75.811	-0.237	-0.248
-454.997	-200.000	0.021	0.223
-453.982	-200.000	-0.019	0.401
-452.968	800.000	-0.034	-0.120
-451.953	55.093	0.213	0.203
-450.938	-157.727	-0.136	0.008
-449.924	69.499	-0.242	-0.246
-448.909	296.112	0.073	-0.132
-447.895	42.399	0.118	-0.106
-446.880	223.805	-0.028	0.045
-445.865	100.916	0.158	0.182
-444.851	-200.000	0.007	0.259
-443.836	-16.546	-0.292	-0.183
-442.822	92.600	-0.057	-0.064
-441.807	246.278	0.191	0.318
-440.792	-74.593	0.196	-0.070
-439.778	348.617	0.197	-0.384
-438.763	800.000	-0.048	0.168
-437.749	800.000	0.111	-0.313
-436.734	-75.096	-0.188	-0.067
-435.719	-66.086	0.376	0.148
-434.705	279.562	-0.112	-0.198
-433.690	-36.683	0.459	-0.244
-432.676	-200.000	-0.006	0.300
-431.661	23.054	-0.187	-0.152
-430.646	-200.000	-0.045	0.268
-429.632	44.167	0.172	0.156
-428.617	-13.321	0.191	0.122
-427.603	88.638	0.042	-0.046
-426.588	423.834	0.030	-0.063
-425.573	-50.299	-0.243	-0.114
-424.559	357.766	0.122	-0.240
-423.544	735.508	0.106	-0.282
-422.530	-200.000	0.030	-0.232
-421.515	-58.845	-0.123	0.053
-420.500	222.537	0.191	0.304
-419.486	-200.000	-0.038	-0.291
-418.471	186.650	-0.141	-0.208
-417.457	800.000	0.086	0.234
-416.442	21.563	-0.037	-0.030
-415.428	-3.243	-0.056	0.039
-414.413	-200.000	0.020	-0.179
-413.398	189.155	0.153	-0.226
-412.384	-42.178	0.162	-0.082
-411.369	800.000	-0.075	-0.211
-410.355	-77.254	0.118	-0.040
-409.340	800.000	0.144	0.450
-408.325	800.000	-0.071	-0.194
-407.311	-200.000	0.005	-0.073
-406.296	207.258	0.129	-0.199
-405.282	721.583	-0.202	-0.531
-404.267	-200.000	0.038	0.287
-403.252	800.000	-0.084	-0.321
-402.238	300.155	0.046	0.084
-401.223	208.247	-0.125	-0.193
-400.209	-111.410	0.252	-0.051
-399.194	-86.384	0.281	-0.085
-398.179	800.000	0.079	-0.298
-397.165	-25.878	-0.145	0.084
-396.150	-110.386	0.110	0.023
-395.136	-111.456	-0.238	-0.048
-394.121	-72.377	-0.148	-0.054
-393.106	265.416	-0.149	-0.257
-392.092	-200.000	0.011	0.217
-391.077	279.935	-0.050	-0.089
-390.063	-200.000	0.046	0.304
-389.048	-146.070	0.400	0.035
-388.033	-200.000	-0.051	-0.283
-387.019	-89.283	-0.160	-0.046
-386.004	-200.000	0.021	0.318
-384.990	-41.673	-0.111	-0.056
-383.975	-22.013	0.084	0.050
-382.960	189.830	-0.210	0.310
-381.946	770.990	0.039	-0.104
-380.931	-54.938	-0.082	-0.036
-379.917	-200.000	0.010	0.093
-378.902	-58.176	0.184	0.079
-377.888	140.603	-0.066	0.086
-376.873	42.847	0.119	-0.107
-375.858	-200.000	-0.022	-0.376
-374.844	800.000	0.102	-0.288
-373.829	-200.000	0.001	0.156
-372.815	279.688	0.119	-0.210
-371.800	-80.255	0.149	-0.049
-370.785	266.413	-0.274	0.472
-369.771	800.000	-0.039	0.140
-368.756	-200.000	-0.092	-0.406
-367.742	-54.210	0.439	-0.197
-366.727	115.950	0.184	0.222
-365.712	-74.905	-0.184	-0.065
-364.698	-106.968	0.264	-0.058
-363.683	-45.004	-0.480	0.235
-362.669	-38.154	0.068	0.035
-361.654	-28.950	-0.400	-0.226
-360.639	395.981	-0.066	0.136
-359.625	150.361	0.040	0.054
-358.610	-161.234	0.110	0.006
-357.596	-24.530	-0.283	-0.166
-356.581	800.000	0.121	0.452
-355.566	148.861	0.173	0.231
-354.552	-30.800	0.115	0.064
-353.537	-200.000	-0.027	0.449
-352.523	-122.656	0.374	-0.060
-351.508	-38.157	-0.058	-0.030
-350.493	-86.612	-0.162	-0.049
-349.479	240.996	-0.090	-0.148
-348.464	142.500	0.241	0.316
-347.450	-200.000	-0.068	0.358
-346.435	138.340	0.086	0.111
-345.420	-200.000	-0.019	0.208
-344.406	-130.490	-0.426	0.057
-343.391	-76.996	-0.361	-0.124
-342.377	741.377	-0.144	-0.382
-341.362	290.684	-0.092	-0.165
-340.348	404.448	0.078	0.162
-339.333	-200.000	-0.036	0.266
-338.318	-200.000	0.028	-0.124
-337.304	-88.686	-0.450	-0.132
-336.289	-110.689	0.055	-0.011
-335.275	-98.042	0.227	-0.058
-334.260	-21.438	0.178	0.107
-333.245	-105.464	-0.293	-0.066
-332.231	-200.000	0.041	0.222
-331.216	-200.000	-0.013	0.245
-330.202	167.064	0.138	0.193
-329.187	800.000	-0.092	0.312
-328.172	-47.604	-0.133	0.064
-327.158	135.463	0.091	0.117
-326.143	-135.613	0.167	0.020
-325.129	-145.248	0.050	-0.004
-324.114	152.111	0.071	-0.096
-323.099	800.000	-0.046	-0.190
-322.085	-26.605	0.115	-0.066
-321.070	-65.947	0.285	0.112
-320.056	-62.767	-0.032	-0.013
-319.041	-32.758	-0.281	-0.154
-318.026	-67.530	0.284	-0.110
-317.012	-110.077	0.316	-0.065
-315.997	529.130	-0.108	0.251
-314.983	145.097	0.055	-0.073
-313.968	-126.509	0.139	0.020
-312.953	-24.391	-0.156	-0.092
-311.939	329.513	0.075	0.142
-310.924	800.000	0.060	-0.226
-309.910	-200.000	-0.008	-0.186
-308.895	261.832	-0.105	0.178
-307.880	-200.000	0.006	0.033
-306.866	-76.065	0.079	0.027
-305.851	364.129	0.134	0.265
-304.837	800.000	-0.072	0.278
-303.822	-103.416	0.114	-0.026
-302.807	69.902	0.188	0.191
-301.793	215.056	0.094	0.146
-300.778	293.469	0.042	0.075
-299.764	434.028	-0.074	0.157
-298.749	7.062	0.268	0.197
-297.735	337.645	0.065	0.124
-296.720	28.603	0.178	-0.148
-295.705	674.095	-0.068	-0.174
-294.691	60.298	-0.105	-0.102
-293.676	800.000	0.055	0.155
-292.662	-200.000	-0.065	-0.362
-291.647	-47.291	0.185	0.089
-290.632	142.829	-0.105	0.138
-289.618	185.033	0.085	-0.124
-288.603	-156.157	0.161	0.010
-287.589	-66.401	-0.107	-0.042
-286.574	-22.450	-0.210	-0.125
-285.559	-63.872	0.231	0.093
-284.545	365.565	0.079	0.157
-283.530	-132.008	0.292	-0.037
-282.516	-162.801	-0.331	0.016
-281.501	-200.000	0.032	0.234
-280.486	36.764	0.060	0.053
-279.472	800.000	-0.072	-0.204
-278.457	800.000	-0.042	-0.134
-277.443	-200.000	-0.018	-0.117
-276.428	-200.000	-0.037	-0.227
-275.413	-200.000	-0.067	0.497
-274.399	89.450	-0.190	0.208
-273.384	768.368	-0.055	-0.148
-272.370	-200.000	-0.038	-0.208
-271.355	-116.446	0.099	0.018
-270.340	244.584	-0.178	-0.294
-269.326	32.417	0.114	-0.097
-268.311	-158.886	-0.103	-0.006
-267.297	-200.000	0.016	-0.108
-266.282	505.270	0.180	-0.409
-265.267	91.843	0.130	-0.143
-264.253	761.074	-0.105	0.279
-263.238	-54.882	-0.382	0.169
-262.224	50.308	-0.218	-0.203
-261.209	-58.875	-0.082	-0.035
-260.195	589.715	-0.222	-0.536
-259.180	6.502	0.237	0.173
-258.165	541.178	-0.111	0.260
-257.151	-104.156	-0.181	-0.041
-256.136	-200.000	0.031	0.204
-255.122	-93.902	-0.032	0.009
-254.107	800.000	-0.049	0.205
-253.092	800.000	-0.039	-0.143
-252.078	-156.061	-0.107	-0.007
-251.063	-182.349	-0.195	-0.004
-250.049	-200.000	0.021	0.259
-249.034	-112.870	-0.219	0.043
-248.019	-200.000	0.008	0.311
-247.005	-200.000	-0.061	0.264
-245.990	11.768	0.106	0.080
-244.976	-200.000	-0.043	0.300
-243.961	47.970	0.021	-0.020
-242.946	-146.655	0.131	0.011
-241.932	800.000	-0.085	0.342
-240.917	-55.195	-0.078	0.034
-239.903	260.218	0.141	0.238
-238.888	-200.000	0.035	0.156
-237.873	-98.871	0.029	-0.007
-236.859	-200.000	0.012	-0.134
-235.844	800.000	0.076	-0.218
-234.830	341.938	0.133	0.256
-233.815	-50.410	-0.334	0.155
-232.800	-83.538	-0.103	-0.032
-231.786	747.112	0.162	-0.427
-230.771	47.915	0.269	-0.247
-229.757	384.944	0.165	-0.333
-228.742	800.000	-0.062	0.264
-227.727	-130.322	0.161	-0.021
-226.713	-162.297	0.094	0.005
-225.698	189.999	0.084	-0.123
-224.684	124.798	-0.266	-0.328
-223.669	46.226	-0.181	0.165
-222.655	245.964	-0.074	0.122
-221.640	270.617	-0.141	0.244
-220.625	-2.497	-0.120	0.082
-219.611	-135.848	0.652	-0.075
-218.596	-179.557	0.409	0.009
-217.582	-69.175	-0.242	-0.091
-216.567	-200.000	0.003	-0.098
-215.552	-200.000	0.019	0.082
-214.538	-110.497	0.385	0.078
-213.523	-81.392	-0.117	-0.038
-212.509	441.588	0.182	0.390
-211.494	-119.217	-0.161	0.027
-210.479	480.508	-0.086	0.192
-209.465	-9.218	-0.311	0.204
-208.450	-154.880	0.094	-0.006
-207.436	-200.000	0.016	0.282
-206.421	17.440	0.129	0.100
-205.406	475.798	-0.040	-0.089
-204.392	-98.468	0.227	0.057
-203.377	-200.000	-0.303	0.000
-202.363	-200.000	0.001	-0.316
-201.348	6.970	0.097	-0.071
-200.333	165.282	-0.178	0.246
-199.319	-200.000	-0.027	0.169
-198.304	186.698	-0.054	0.079
-197.290	-49.442	0.298	0.139
-196.275	-200.000	-0.048	0.613
-195.260	-0.291	-0.129	0.090
-194.246	-77.858	-0.273	0.092
-193.231	32.619	0.102	0.087
-192.217	-56.168	-0.352	0.153
-191.202	-93.405	0.304	-0.083
-190.187	-39.915	-0.148	-0.076
-189.173	222.554	0.077	-0.122
-188.158	800.000	-0.054	-0.213
-187.144	85.937	-0.044	-0.047
-186.129	473.626	-0.158	-0.350
-185.114	-200.000	-0.045	-0.225
-184.100	-105.603	-0.096	-0.021
-183.085	-200.000	-0.092	0.414
-182.071	-145.754	0.073	-0.006
-181.056	-64.135	0.210	0.084
-180.042	74.468	-0.324	-0.334
-179.027	11.604	-0.254	0.191
-178.012	-87.717	0.091	0.027
-176.998	-154.921	0.138	0.009
-175.983	169.462	-0.198	-0.276
-174.969	-123.138	0.124	0.019
-173.954	514.489	0.101	-0.230
-172.939	-87.860	-0.095	-0.028
-171.925	-13.599	0.064	0.040
-170.910	112.052	0.187	0.221
-169.896	52.562	0.245	0.229
-168.881	-158.087	0.136	-0.008
-167.866	75.588	0.164	-0.169
-166.852	69.683	0.078	0.079
-165.837	209.816	-0.056	-0.086
-164.823	-94.462	0.217	0.058
-163.808	-200.000	-0.127	0.641
-162.793	243.049	-0.088	0.143
-161.779	32.757	0.089	0.075
-160.764	-100.945	0.263	-0.063
-159.750	261.688	0.118	0.200
-158.735	-200.000	-0.016	0.126
-157.720	381.228	0.088	-0.177
-156.706	-51.091	-0.077	0.035
-155.691	210.993	-0.285	-0.438
-154.677	800.000	0.026	-0.099
-153.662	-71.818	0.086	0.031
-152.647	-99.619	-0.227	-0.056
-151.633	-200.000	0.045	0.248
-150.618	338.633	0.090	0.172
-149.604	-117.625	0.112	-0.020
-148.589	-11.731	-0.256	-0.165
-147.574	-200.000	0.043	-0.276
-146.560	-151.244	-0.215	0.016
-145.545	-200.000	-0.023	-0.199
-144.531	-32.558	-0.064	-0.035
-143.516	733.586	0.107	-0.280
-142.502	298.515	-0.154	-0.277
-141.487	268.354	-0.112	-0.191
-140.472	18.074	0.163	-0.127
-139.458	-200.000	-0.013	-0.090
-138.443	-200.000	-0.016	0.326
-137.429	135.083	-0.110	0.140
-136.414	358.258	-0.092	-0.180
-135.399	-166.593	-0.073	-0.003
-134.385	537.427	-0.038	0.088
-133.370	1.468	-0.030	0.021
-132.356	-173.397	0.310	-0.009
-131.341	-200.000	0.027	-0.225
-130.326	279.934	0.145	-0.254
-129.312	339.572	0.257	-0.489
-128.297	-65.543	-0.391	-0.153
-127.283	-47.507	-0.256	0.122
-126.268	-83.875	0.218	-0.068
-125.253	-200.000	-0.002	-0.069
-124.239	-35.517	0.416	-0.220
-123.224	20.874	-0.037	0.029
-122.210	425.988	0.034	-0.072
