DTS Sentinel unit serial number:	SN413079Multiplexer serial number:	ORYXHardware model number:	OX4-SRSoftware version number:	ORYX F/W v4.00 Oryx Data Collector v3.7.2.0data status	okinstallation	princeton_trtdifferential loss correction	single-endedforward channel	channel 2reverse channel	N/Adate	2019/09/18time	14:19:35forward acquisition time	60.00reverse acquisition time	0.00gamma	496.2192k internal	0.2319k external	0.2319temperature offset calibration	0.9999default loss term (dB/km)	0.3790temperature slope calibration	1.0000multiplexer offset coefficient	1.0000multiplexer slope coefficient	1.0000fibre end	0.00T internal ref (°C)	34.31T ext. ref 1 (°C)	0.69T ext. ref 2 (°C)	29.76length (m)	temperature (°C)	Stokes	anti-Stokes-747.200	707.591	-0.105	-0.281
-746.185	-108.137	-0.275	0.060
-745.171	102.165	-0.141	0.166
-744.156	-75.579	-0.132	0.047
-743.142	81.254	0.222	-0.242
-742.127	800.000	0.014	0.057
-741.112	-200.000	0.043	-0.205
-740.098	285.562	-0.063	0.115
-739.083	-200.000	0.009	0.180
-738.069	-200.000	-0.034	0.433
-737.054	-25.152	0.268	0.161
-736.039	-200.000	-0.013	0.341
-735.025	-46.763	0.342	0.169
-734.010	-116.532	-0.039	0.007
-732.996	-148.480	0.116	-0.010
-731.981	77.218	0.308	0.331
-730.966	664.140	-0.045	-0.117
-729.952	-103.679	-0.331	0.078
-728.937	299.956	0.135	-0.252
-727.923	-140.590	0.266	0.028
-726.908	-200.000	0.020	-0.203
-725.894	-76.903	-0.134	0.047
-724.879	35.219	-0.185	0.164
-723.864	800.000	-0.117	-0.333
-722.850	605.889	0.057	0.143
-721.835	67.818	0.118	-0.122
-720.821	146.730	-0.062	-0.084
-719.806	-107.229	-0.379	0.084
-718.791	-48.208	-0.130	-0.063
-717.777	-77.247	-0.164	-0.058
-716.762	-139.852	0.300	-0.032
-715.748	-45.337	-0.279	-0.140
-714.733	-36.770	0.267	0.145
-713.718	184.519	0.035	0.053
-712.704	-123.493	-0.486	-0.078
-711.689	505.361	0.054	0.128
-710.675	-100.900	0.102	0.025
-709.660	-85.907	0.369	0.115
-708.645	3.336	0.130	-0.096
-707.631	69.681	0.215	-0.224
-706.616	-56.296	-0.053	-0.024
-705.602	800.000	0.051	0.212
-704.587	72.245	0.111	0.117
-703.572	800.000	-0.041	0.132
-702.558	235.715	0.086	0.144
-701.543	-42.457	0.203	-0.105
-700.529	366.078	-0.126	-0.256
-699.514	127.578	0.064	-0.083
-698.499	-82.331	-0.221	-0.073
-697.485	181.822	-0.248	0.368
-696.470	-17.140	0.192	-0.123
-695.456	673.641	-0.072	-0.188
-694.441	-12.823	-0.144	0.094
-693.426	437.101	0.202	0.444
-692.412	-54.290	-0.369	0.169
-691.397	-177.965	-0.200	-0.005
-690.383	52.491	-0.079	-0.076
-689.368	800.000	-0.030	0.109
-688.354	-200.000	-0.007	-0.121
-687.339	-104.405	-0.303	0.071
-686.324	8.482	-0.114	0.086
-685.310	533.772	0.166	0.397
-684.295	-200.000	0.033	0.314
-683.281	-200.000	0.029	-0.134
-682.266	221.481	-0.087	0.141
-681.251	42.298	0.140	0.129
-680.237	148.417	-0.049	0.066
-679.222	-200.000	-0.004	-0.119
-678.208	-5.273	-0.248	0.172
-677.193	-76.065	-0.035	0.012
-676.178	260.956	-0.195	-0.341
-675.164	800.000	0.020	0.085
-674.149	18.913	0.027	0.022
-673.135	-1.121	0.073	0.052
-672.120	-101.694	-0.339	-0.083
-671.105	-200.000	-0.037	-0.165
-670.091	16.851	-0.306	0.244
-669.076	-12.370	-0.276	-0.182
-668.062	79.708	-0.089	-0.096
-667.047	-28.279	-0.313	-0.182
-666.032	4.366	-0.359	-0.265
-665.018	-200.000	0.008	0.063
-664.003	-200.000	0.029	-0.139
-662.989	23.234	0.154	0.128
-661.974	-28.116	-0.239	-0.139
-660.959	29.726	-0.113	-0.097
-659.945	-29.935	-0.134	-0.077
-658.930	16.588	-0.148	-0.118
-657.916	331.360	-0.168	0.327
-656.901	-200.000	0.038	0.186
-655.886	-14.595	0.065	-0.042
-654.872	800.000	-0.102	0.307
-653.857	48.170	0.162	-0.153
-652.843	-200.000	-0.002	-0.109
-651.828	317.714	0.104	-0.199
-650.814	210.724	-0.130	-0.206
-649.799	-135.982	-0.331	0.039
-648.784	-76.393	0.138	-0.049
-647.770	-87.429	0.012	0.004
-646.755	-4.011	-0.347	0.242
-645.741	-118.424	-0.318	-0.057
-644.726	-30.704	0.302	-0.172
-643.711	48.235	-0.187	0.177
-642.697	-200.000	-0.003	0.182
-641.682	-182.738	0.162	-0.003
-640.668	403.778	-0.005	0.010
-639.653	-200.000	0.041	-0.191
-638.638	372.590	0.163	-0.333
-637.624	800.000	0.052	0.199
-636.609	38.506	-0.163	-0.147
-635.595	-144.140	-0.239	-0.023
-634.580	696.076	0.051	0.134
-633.565	545.543	-0.101	-0.244
-632.551	-200.000	-0.009	0.042
-631.536	-200.000	-0.053	-0.428
-630.522	127.709	0.098	-0.125
-629.507	-107.545	-0.186	-0.041
-628.492	18.064	0.294	-0.236
-627.478	-2.796	0.236	-0.166
-626.463	-100.123	0.116	0.029
-625.449	800.000	-0.145	0.463
-624.434	-109.998	-0.472	-0.099
-623.419	101.454	0.146	0.171
-622.405	-200.000	-0.001	0.112
-621.390	-80.705	-0.285	-0.095
-620.376	-200.000	-0.009	0.361
-619.361	600.742	0.080	0.199
-618.346	-190.323	-0.289	-0.003
-617.332	-156.484	0.157	0.010
-616.317	145.823	-0.187	-0.252
-615.303	-131.461	0.246	0.033
-614.288	50.614	-0.197	0.187
-613.273	-23.335	-0.250	0.151
-612.259	800.000	-0.053	-0.180
-611.244	-200.000	0.007	0.334
-610.230	-7.310	-0.055	-0.037
-609.215	-200.000	0.028	-0.301
-608.201	-157.403	0.109	-0.007
-607.186	800.000	-0.138	-0.505
-606.171	-5.268	0.277	-0.191
-605.157	508.961	0.161	-0.377
-604.142	-40.477	-0.124	0.065
-603.128	313.199	-0.226	0.427
-602.113	-145.779	0.021	0.002
-601.098	-148.401	-0.505	-0.042
-600.084	800.000	0.029	-0.126
-599.069	199.612	0.018	0.027
-598.055	-200.000	-0.010	0.307
-597.040	-14.352	0.119	-0.077
-596.025	-40.674	-0.023	-0.012
-595.011	-66.812	0.048	-0.019
-593.996	213.741	-0.110	-0.175
-592.982	-186.580	-0.113	-0.002
-591.967	-21.785	0.219	0.134
-590.952	-54.454	-0.096	-0.044
-589.938	159.310	-0.170	0.238
-588.923	-95.529	0.267	0.072
-587.909	-1.618	0.032	-0.022
-586.894	-31.849	-0.262	0.148
-585.879	-5.887	0.204	-0.141
-584.865	-42.351	0.117	-0.060
-583.850	31.696	-0.197	0.170
-582.836	-31.087	-0.254	-0.144
-581.821	800.000	0.040	-0.139
-580.806	329.505	0.103	-0.199
-579.792	-89.545	0.360	0.106
-578.777	-200.000	-0.033	0.253
-577.763	12.388	-0.287	0.222
-576.748	356.588	0.060	0.120
-575.733	800.000	0.012	0.053
-574.719	650.042	-0.173	-0.444
-573.704	-122.915	-0.253	0.041
-572.690	-199.090	0.189	-0.001
-571.675	-79.253	0.119	-0.040
-570.661	33.205	-0.079	-0.069
-569.646	36.679	-0.220	0.196
-568.631	-114.761	0.201	0.038
-567.617	-200.000	-0.009	0.042
-566.602	-12.599	-0.211	-0.139
-565.588	-131.413	0.127	0.017
-564.573	200.872	0.090	0.140
-563.558	60.051	0.048	-0.047
-562.544	529.282	-0.178	-0.421
-561.529	325.688	-0.055	-0.106
-560.515	-200.000	0.008	-0.136
-559.500	163.272	-0.077	-0.108
-558.485	-129.786	-0.107	-0.015
-557.471	-53.869	0.160	0.073
-556.456	-89.123	0.112	-0.033
-555.442	-150.623	-0.115	0.009
-554.427	169.138	0.105	0.150
-553.412	12.643	-0.186	-0.144
-552.398	568.392	-0.103	0.251
-551.383	-98.010	0.068	-0.018
-550.369	800.000	-0.032	-0.133
-549.354	-173.694	-0.047	-0.001
-548.339	152.884	-0.036	-0.049
-547.325	-97.892	0.257	-0.067
-546.310	-200.000	0.003	0.181
-545.296	-35.440	0.466	-0.254
-544.281	169.873	0.109	-0.156
-543.266	800.000	-0.048	0.147
-542.252	-200.000	-0.041	-0.460
-541.237	-47.785	-0.117	-0.057
-540.223	-87.508	0.259	-0.079
-539.208	48.029	0.294	0.275
-538.193	365.882	0.111	0.224
-537.179	-43.124	-0.197	-0.100
-536.164	-132.731	-0.329	0.042
-535.150	65.976	0.122	-0.124
-534.135	-90.677	-0.122	0.035
-533.121	-89.590	0.327	-0.096
-532.106	800.000	0.057	0.177
-531.091	-78.081	0.130	-0.045
-530.077	-200.000	0.046	0.239
-529.062	-200.000	-0.153	0.000
-528.048	-81.173	0.280	-0.093
-527.033	149.849	-0.119	0.162
-526.018	-121.847	0.254	0.042
-525.004	-16.273	-0.151	0.096
-523.989	262.397	0.251	0.437
-522.975	-29.109	0.199	0.115
-521.960	-64.671	-0.184	0.075
-520.945	-142.000	0.402	0.040
-519.931	-200.000	0.027	-0.121
-518.916	-200.000	-0.004	0.208
-517.902	-94.763	0.183	0.050
-516.887	-127.289	0.246	-0.036
-515.872	477.998	-0.117	-0.266
-514.858	-126.414	0.178	-0.027
-513.843	-26.270	0.059	0.035
-512.829	264.311	0.219	-0.383
-511.814	535.678	0.124	-0.296
-510.799	-31.021	-0.351	-0.199
-509.785	-200.000	-0.017	0.287
-508.770	-200.000	0.005	0.061
-507.756	-108.695	-0.102	0.022
-506.741	-27.998	-0.241	0.140
-505.726	244.165	0.175	-0.294
-504.712	304.001	0.101	0.188
-503.697	-79.829	-0.080	0.027
-502.683	179.983	-0.252	-0.370
-501.668	50.653	-0.148	-0.140
-500.653	68.887	0.049	-0.051
-499.639	-87.010	0.291	-0.089
-498.624	-111.663	-0.410	-0.083
-497.610	11.304	-0.048	0.037
-496.595	800.000	0.045	0.188
-495.581	-200.000	-0.001	-0.022
-494.566	33.011	-0.143	0.124
-493.551	43.259	0.115	0.105
-492.537	242.849	-0.278	-0.466
-491.522	360.217	0.034	0.067
-490.508	162.302	-0.176	0.248
-489.493	-8.524	0.050	0.034
-488.478	4.272	0.017	-0.012
-487.464	800.000	0.122	0.365
-486.449	-77.106	-0.125	-0.044
-485.435	-126.789	0.115	-0.017
-484.420	332.174	0.083	-0.160
-483.405	-95.736	-0.150	0.040
-482.391	-68.655	-0.142	-0.055
-481.376	731.372	-0.104	0.278
-480.362	-200.000	-0.005	-0.086
-479.347	774.618	-0.083	-0.226
-478.332	-200.000	-0.036	-0.299
-477.318	-32.137	0.214	0.120
-476.303	800.000	-0.019	-0.058
-475.289	-168.398	-0.316	-0.012
-474.274	344.179	0.049	0.096
-473.259	-124.019	0.394	0.062
-472.245	-28.242	0.336	-0.194
-471.230	146.105	-0.069	-0.092
-470.216	-200.000	0.020	-0.268
-469.201	190.823	0.048	0.073
-468.186	-200.000	0.005	-0.078
-467.172	105.731	0.150	0.177
-466.157	21.437	0.112	0.091
-465.143	-200.000	0.012	0.143
-464.128	5.328	0.256	0.189
-463.113	-200.000	0.062	0.304
-462.099	-9.868	0.192	0.128
-461.084	-54.101	-0.165	0.075
-460.070	39.173	-0.106	-0.095
-459.055	-200.000	-0.000	0.120
-458.040	16.470	0.169	0.134
-457.026	-200.000	0.054	-0.276
-456.011	-93.030	0.195	0.054
-454.997	-79.670	0.147	-0.050
-453.982	-74.599	0.305	-0.110
-452.968	-200.000	0.023	-0.265
-451.953	95.856	0.188	0.214
-450.938	507.498	-0.106	0.246
-449.924	-200.000	-0.033	0.207
-448.909	-62.342	-0.152	0.063
-447.895	-200.000	0.044	0.000
-446.880	180.193	0.066	0.097
-445.865	-80.262	-0.181	0.061
-444.851	-200.000	0.019	0.094
-443.836	800.000	-0.075	-0.237
-442.822	-73.534	-0.067	-0.024
-441.807	-200.000	-0.026	-0.224
-440.792	77.179	0.047	-0.050
-439.778	-164.298	-0.219	0.010
-438.763	301.681	-0.114	-0.211
-437.749	800.000	-0.054	0.215
-436.734	52.022	0.184	-0.175
-435.719	-200.000	0.004	0.108
-434.705	388.364	0.087	0.180
-433.690	-5.528	-0.106	0.073
-432.676	8.013	-0.138	-0.103
-431.661	-200.000	0.017	-0.293
-430.646	600.166	0.122	-0.302
-429.632	119.350	-0.194	-0.240
-428.617	496.559	-0.138	0.318
-427.603	52.730	-0.261	-0.249
-426.588	800.000	-0.119	-0.346
-425.573	-200.000	0.020	0.174
-424.559	-137.312	0.247	-0.028
-423.544	510.483	0.103	-0.239
-422.530	800.000	-0.124	-0.387
-421.515	-200.000	0.026	-0.130
-420.500	-13.197	0.139	0.090
-419.486	-92.758	0.240	0.067
-418.471	211.701	0.187	-0.294
-417.457	782.588	0.022	-0.060
-416.442	-134.945	-0.171	0.021
-415.428	800.000	-0.006	-0.026
-414.413	-34.726	-0.265	-0.145
-413.398	-200.000	-0.012	-0.300
-412.384	-0.400	-0.054	-0.038
-411.369	800.000	0.034	-0.100
-410.355	-53.283	-0.215	-0.098
-409.340	-68.336	0.027	0.010
-408.325	95.668	-0.033	-0.037
-407.311	354.253	0.047	-0.092
-406.296	178.306	0.056	-0.082
-405.282	-200.000	0.003	0.234
-404.267	-101.393	0.445	0.108
-403.252	800.000	0.061	-0.241
-402.238	4.280	-0.163	-0.119
-401.223	52.518	-0.053	-0.051
-400.209	-185.857	-0.359	-0.005
-399.194	68.965	-0.100	-0.103
-398.179	168.868	-0.195	0.277
-397.165	185.975	0.146	-0.217
-396.150	54.603	-0.193	0.186
-395.136	107.619	0.087	-0.104
-394.121	800.000	0.066	-0.186
-393.106	108.852	0.105	0.126
-392.092	6.771	0.105	-0.078
-391.077	0.358	-0.315	-0.224
-390.063	800.000	0.061	-0.235
-389.048	656.568	-0.182	-0.467
-388.033	-200.000	-0.005	0.128
-387.019	19.132	0.159	0.128
-386.004	163.752	0.021	-0.029
-384.990	395.804	-0.083	0.174
-383.975	394.016	-0.169	-0.352
-382.960	287.122	0.144	0.259
-381.946	160.434	0.169	0.235
-380.931	196.823	0.176	0.267
-379.917	-3.336	-0.069	0.048
-378.902	421.280	-0.071	0.151
-377.888	-166.349	0.301	-0.013
-376.873	432.059	-0.107	0.232
-375.858	249.074	-0.095	-0.161
-374.844	-60.507	0.120	-0.051
-373.829	-15.835	-0.377	-0.240
-372.815	-64.046	0.181	-0.074
-371.800	59.348	-0.311	0.306
-370.785	-45.770	-0.341	-0.168
-369.771	-30.833	0.086	-0.049
-368.756	-200.000	0.003	0.309
-367.742	170.212	-0.194	0.277
-366.727	-2.935	-0.251	0.175
-365.712	484.883	0.062	-0.140
-364.698	281.023	-0.175	0.312
-363.683	3.279	-0.129	0.093
-362.669	493.816	-0.060	0.137
-361.654	-200.000	-0.010	0.177
-360.639	-200.000	0.004	0.391
-359.625	-70.918	-0.319	-0.120
-358.610	-66.648	-0.475	-0.188
-357.596	-30.352	0.326	0.184
-356.581	-154.237	0.083	0.006
-355.566	-32.764	0.259	0.144
-354.552	205.348	-0.280	0.433
-353.537	79.991	0.175	-0.188
-352.523	800.000	-0.090	-0.296
-351.508	-36.286	0.171	-0.092
-350.493	-140.243	0.127	0.013
-349.479	-200.000	-0.027	0.184
-348.464	800.000	0.065	0.236
-347.450	800.000	-0.026	0.103
-346.435	83.329	-0.226	0.245
-345.420	-107.443	-0.094	0.021
-344.406	-130.931	-0.180	0.024
-343.391	-55.613	-0.229	0.102
-342.377	-146.462	-0.110	-0.010
-341.362	507.990	-0.093	-0.214
-340.348	-52.757	0.109	0.050
-339.333	-20.582	0.211	0.129
-338.318	44.548	0.076	0.069
-337.304	62.362	-0.212	-0.211
-336.289	-135.511	0.235	-0.028
-335.275	653.743	-0.179	0.456
-334.260	38.705	0.163	0.145
-333.245	800.000	0.051	0.143
-332.231	163.394	-0.062	-0.087
-331.216	-26.157	-0.212	0.124
-330.202	-58.489	-0.203	-0.088
-329.187	-200.000	0.004	-0.073
-328.172	-87.705	0.141	0.042
-327.158	-63.723	-0.098	0.040
-326.143	-200.000	-0.004	-0.179
-325.129	-9.148	0.196	0.130
-324.114	457.061	-0.102	0.226
-323.099	57.181	0.189	-0.184
-322.085	800.000	-0.008	0.031
-321.070	-10.627	0.263	0.173
-320.056	800.000	0.009	-0.038
-319.041	800.000	-0.050	0.182
-318.026	2.081	0.205	0.147
-317.012	-200.000	0.307	0.001
-315.997	800.000	-0.074	-0.269
-314.983	-66.779	-0.400	0.158
-313.968	-200.000	-0.006	0.128
-312.953	-200.000	0.020	0.115
-311.939	64.589	0.133	-0.134
-310.924	-166.871	0.204	0.008
-309.910	2.582	0.177	0.127
-308.895	595.408	-0.051	0.124
-307.880	800.000	-0.041	0.174
-306.866	-200.000	-0.021	-0.262
-305.851	-200.000	0.005	-0.033
-304.837	-45.737	-0.105	0.052
-303.822	228.565	0.145	-0.235
-302.807	204.459	-0.074	-0.114
-301.793	-89.569	0.169	-0.049
-300.778	83.853	0.153	-0.166
-299.764	110.935	0.289	0.345
-298.749	-200.000	0.039	-0.192
-297.735	-200.000	-0.017	0.124
-296.720	120.635	0.179	0.221
-295.705	-107.648	0.189	0.041
-294.691	-160.254	-0.141	0.008
-293.676	-200.000	0.000	-0.143
-292.662	800.000	-0.071	0.230
-291.647	-43.228	0.420	-0.212
-290.632	-49.048	-0.179	-0.085
-289.618	-200.000	0.058	-0.343
-288.603	-89.488	-0.315	0.092
-287.589	42.192	0.155	-0.140
-286.574	-20.207	0.301	-0.184
-285.559	275.176	-0.122	-0.214
-284.545	179.133	0.248	-0.361
-283.530	-200.000	0.032	-0.195
-282.516	174.753	0.205	-0.295
-281.501	-200.000	0.044	-0.288
-280.486	429.024	0.088	0.188
-279.472	-54.711	-0.143	0.064
-278.457	-70.453	-0.343	0.129
-277.443	-200.000	-0.001	0.183
-276.428	-185.596	0.238	0.004
-275.413	224.025	0.387	0.622
-274.399	11.509	-0.040	-0.030
-273.384	800.000	0.101	0.316
-272.370	8.907	0.292	-0.219
-271.355	-200.000	0.022	-0.162
-270.340	329.806	-0.089	0.169
-269.326	89.650	0.100	0.111
-268.311	-200.000	0.024	0.259
-267.297	308.488	0.127	-0.236
-266.282	-88.205	0.195	0.058
-265.267	395.096	-0.107	0.222
-264.253	-200.000	-0.027	-0.213
-263.238	157.985	-0.145	-0.199
-262.224	115.964	-0.052	0.064
-261.209	-41.116	-0.152	-0.078
-260.195	189.717	-0.068	0.101
-259.180	102.511	-0.186	0.216
-258.165	462.779	0.031	0.069
-257.151	-103.143	-0.337	0.079
-256.136	-14.784	-0.341	-0.217
-255.122	-68.579	-0.308	-0.119
-254.107	-200.000	-0.038	0.247
-253.092	-124.912	-0.332	-0.051
-252.078	-93.705	-0.236	-0.065
-251.063	263.049	0.248	0.428
-250.049	800.000	0.075	0.214
-249.034	-200.000	-0.010	-0.273
-248.019	800.000	0.029	0.111
-247.005	568.455	0.164	0.395
-245.990	800.000	-0.109	0.379
-244.976	-200.000	0.040	-0.291
-243.961	800.000	-0.065	0.218
-242.946	120.211	-0.281	-0.346
-241.932	645.611	-0.062	-0.157
-240.917	-99.517	0.204	-0.051
-239.903	-200.000	0.003	0.249
-238.888	-105.343	-0.342	0.077
-237.873	68.915	0.080	0.081
-236.859	-200.000	-0.002	-0.072
-235.844	-200.000	0.006	0.066
-234.830	697.555	0.116	0.302
-233.815	227.855	0.074	0.119
-232.800	87.141	0.172	-0.189
-231.786	-33.822	0.161	-0.088
-230.771	800.000	0.017	-0.058
-229.757	733.953	0.071	0.189
-228.742	800.000	0.060	0.197
-227.727	249.927	-0.070	-0.117
-226.713	399.476	0.132	0.275
-225.698	399.136	0.093	-0.193
-224.684	-200.000	-0.012	0.102
-223.669	32.923	0.044	0.038
-222.655	53.356	0.117	-0.111
-221.640	-81.950	-0.247	0.080
-220.625	-200.000	-0.053	0.267
-219.611	-200.000	-0.027	0.185
-218.596	8.474	-0.171	0.128
-217.582	-200.000	0.031	-0.350
-216.567	197.300	0.218	-0.330
-215.552	-31.428	-0.162	-0.091
-214.538	555.033	0.034	-0.080
-213.523	-200.000	-0.020	0.295
-212.509	235.761	0.159	0.261
-211.494	-39.607	-0.143	0.074
-210.479	757.263	0.099	-0.264
-209.465	120.743	-0.138	0.171
-208.450	45.701	-0.237	0.217
-207.436	800.000	0.122	0.344
-206.421	-108.137	-0.137	-0.029
-205.406	-167.920	0.260	0.010
-204.392	238.224	-0.143	0.235
-203.377	-54.602	-0.184	-0.082
-202.363	-149.833	-0.108	0.008
-201.348	66.433	0.043	-0.044
-200.333	33.603	0.223	-0.192
-199.319	138.269	-0.123	0.160
-198.304	-200.000	0.020	-0.148
-197.290	-200.000	-0.008	-0.106
-196.275	563.040	0.029	-0.069
-195.260	198.032	0.114	-0.172
-194.246	-200.000	0.070	-0.375
-193.231	-200.000	-0.009	0.326
-192.217	-71.144	-0.259	-0.096
-191.202	186.574	0.118	-0.175
-190.187	53.053	-0.082	-0.077
-189.173	341.916	0.132	0.256
-188.158	-71.700	0.153	0.057
-187.144	-200.000	-0.090	-0.729
-186.129	38.432	-0.074	-0.065
-185.114	-61.340	0.206	-0.086
-184.100	-200.000	0.046	0.230
-183.085	40.375	0.271	-0.241
-182.071	-200.000	0.035	-0.207
-181.056	123.522	0.220	0.273
-180.042	-117.219	0.570	0.103
-179.027	92.280	0.124	-0.138
-178.012	-73.557	-0.390	-0.141
-176.998	-200.000	-0.014	-0.121
-175.983	-200.000	-0.028	0.165
-174.969	800.000	-0.083	0.273
-173.954	344.652	-0.071	0.139
-172.939	44.003	0.255	0.231
-171.925	800.000	-0.036	-0.120
-170.910	800.000	-0.038	0.111
-169.896	-172.997	0.085	-0.003
-168.881	256.023	0.161	-0.273
-167.866	-200.000	0.014	0.107
-166.852	-200.000	-0.026	-0.283
-165.837	-127.966	0.122	-0.017
-164.823	109.848	0.181	0.215
-163.808	538.396	-0.074	0.173
-162.793	370.637	0.119	-0.239
-161.779	11.746	-0.133	-0.101
-160.764	-134.442	-0.276	-0.033
-159.750	138.322	-0.034	0.044
-158.735	-49.149	0.134	-0.064
-157.720	258.391	-0.062	-0.106
-156.706	154.178	0.296	-0.401
-155.691	-200.000	0.008	0.155
-154.677	-200.000	0.035	-0.233
-153.662	338.830	-0.168	0.323
-152.647	-50.605	-0.120	-0.056
-151.633	-123.048	-0.377	-0.060
-150.618	800.000	0.086	0.242
-149.604	-36.025	-0.051	-0.027
-148.589	-200.000	-0.015	0.259
-147.574	-19.026	-0.128	0.079
-146.560	800.000	0.057	0.174
-145.545	214.453	-0.227	-0.355
-144.531	-23.625	-0.348	-0.206
-143.516	-34.821	-0.266	0.144
-142.502	64.266	0.203	0.202
-141.487	-200.000	-0.044	-0.196
-140.472	54.895	-0.365	0.348
-139.458	-196.529	0.101	0.001
-138.443	-81.474	0.119	0.039
-137.429	-200.000	-0.028	0.210
-136.414	-200.000	0.011	-0.093
-135.399	-16.458	0.365	0.229
-134.385	52.670	0.140	0.132
-133.370	800.000	0.043	-0.158
-132.356	-200.000	-0.002	0.321
-131.341	498.198	0.197	0.448
-130.326	18.925	0.061	-0.048
-129.312	194.467	0.138	0.207
-128.297	-125.941	-0.197	-0.029
-127.283	800.000	0.078	0.306
-126.268	-101.885	-0.160	-0.038
-125.253	-68.979	0.249	0.095
-124.239	125.118	0.108	-0.134
-123.224	4.454	-0.083	-0.060
-122.210	-26.430	-0.383	-0.222
-121.195	-200.000	0.055	0.276
