DTS Sentinel unit serial number:	SN413079Multiplexer serial number:	ORYXHardware model number:	OX4-SRSoftware version number:	ORYX F/W v4.00 Oryx Data Collector v3.7.2.0data status	okinstallation	princeton_trtdifferential loss correction	single-endedforward channel	channel 2reverse channel	N/Adate	2019/09/11time	10:33:11forward acquisition time	60.00reverse acquisition time	0.00gamma	496.2192k internal	0.2311k external	0.2311temperature offset calibration	0.9970default loss term (dB/km)	0.3790temperature slope calibration	1.0000multiplexer offset coefficient	1.0000multiplexer slope coefficient	1.0000fibre end	0.00T internal ref (°C)	36.44T ext. ref 1 (°C)	0.17T ext. ref 2 (°C)	33.44length (m)	temperature (°C)	Stokes	anti-Stokes-747.200	-200.000	-0.007	-0.044
-746.185	-200.000	0.101	0.452
-745.171	-170.787	0.211	0.007
-744.156	-89.133	-0.342	0.103
-743.142	108.446	-0.309	-0.375
-742.127	-200.000	-0.009	0.149
-741.112	800.000	0.090	-0.340
-740.098	128.620	0.075	0.097
-739.083	-200.000	0.080	0.365
-738.069	3.022	0.165	0.122
-737.054	166.835	0.180	0.259
-736.039	76.902	-0.306	-0.330
-735.025	97.938	0.119	0.139
-734.010	721.816	-0.043	-0.116
-732.996	22.447	-0.257	-0.213
-731.981	51.265	-0.233	-0.225
-730.966	-152.088	-0.049	-0.004
-729.952	-200.000	-0.047	-0.348
-728.937	-93.985	-0.255	-0.071
-727.923	230.900	-0.153	-0.255
-726.908	-200.000	-0.040	-0.264
-725.894	-142.282	-0.175	-0.018
-724.879	-45.369	-0.225	-0.113
-723.864	206.758	-0.152	-0.240
-722.850	-113.205	0.342	-0.068
-721.835	164.265	0.251	-0.358
-720.821	-200.000	-0.120	-0.569
-719.806	-111.447	-0.510	-0.105
-718.791	-200.000	0.005	-0.080
-717.777	-200.000	-0.005	-0.056
-716.762	-200.000	0.043	0.193
-715.748	66.075	0.163	0.168
-714.733	449.983	-0.102	0.227
-713.718	17.294	-0.109	-0.088
-712.704	-13.577	0.325	-0.213
-711.689	-149.521	0.117	-0.009
-710.675	-113.427	-0.134	-0.027
-709.660	-193.459	-0.043	0.000
-708.645	-80.990	-0.160	-0.054
-707.631	-92.901	-0.196	0.055
-706.616	487.739	0.061	-0.142
-705.602	-28.214	0.099	-0.058
-704.587	-200.000	-0.019	0.277
-703.572	410.794	0.129	0.277
-702.558	-32.409	0.194	0.110
-701.543	-26.451	0.207	-0.123
-700.529	-8.458	0.358	-0.244
-699.514	60.061	-0.101	-0.101
-698.499	259.367	0.087	0.152
-697.485	183.051	-0.104	-0.156
-696.470	275.191	0.192	-0.346
-695.456	-47.381	-0.163	-0.081
-694.441	-36.924	0.206	0.112
-693.426	79.673	-0.254	0.276
-692.412	203.384	-0.119	0.186
-691.397	36.619	-0.312	-0.279
-690.383	84.750	-0.255	0.282
-689.368	214.651	0.064	0.103
-688.354	-65.768	0.251	0.102
-687.339	214.268	0.102	-0.164
-686.324	800.000	0.056	-0.208
-685.310	159.517	0.135	-0.191
-684.295	-28.337	0.407	-0.238
-683.281	-122.993	-0.139	0.023
-682.266	-78.409	-0.229	-0.080
-681.251	377.467	-0.046	-0.096
-680.237	-25.344	0.142	-0.085
-679.222	-146.344	-0.115	0.010
-678.208	-200.000	0.022	0.122
-677.193	-118.927	0.070	-0.012
-676.178	570.973	0.096	-0.237
-675.164	-40.002	0.255	0.135
-674.149	-18.740	-0.195	0.123
-673.135	-200.000	0.043	-0.258
-672.120	-130.216	0.073	-0.010
-671.105	546.121	0.108	-0.262
-670.091	800.000	0.019	0.080
-669.076	-200.000	-0.012	0.135
-668.062	-200.000	-0.047	-0.256
-667.047	-1.798	-0.241	0.172
-666.032	-30.343	-0.129	-0.074
-665.018	8.477	-0.130	0.099
-664.003	-100.800	-0.160	-0.040
-662.989	800.000	0.041	0.145
-661.974	800.000	0.073	0.207
-660.959	-200.000	-0.026	-0.172
-659.945	-200.000	0.050	0.258
-658.930	5.483	0.069	0.052
-657.916	148.167	0.050	0.068
-656.901	32.671	-0.273	0.239
-655.886	-200.000	0.015	-0.126
-654.872	271.897	-0.031	-0.055
-653.857	-200.000	-0.026	0.133
-652.843	-145.849	0.276	-0.025
-651.828	-47.259	-0.287	0.142
-650.814	-185.023	-0.612	0.010
-649.799	-116.292	-0.513	-0.096
-648.784	-7.871	0.167	-0.114
-647.770	566.847	0.100	-0.245
-646.755	-186.382	-0.331	-0.005
-645.741	-126.546	-0.234	0.035
-644.726	800.000	-0.021	0.071
-643.711	564.743	0.013	-0.033
-642.697	13.762	0.067	0.052
-641.682	-200.000	0.014	0.164
-640.668	15.963	0.205	-0.163
-639.653	114.936	0.225	0.277
-638.638	-2.774	-0.177	-0.125
-637.624	-3.374	0.275	0.194
-636.609	159.838	-0.093	-0.131
-635.595	180.713	-0.102	0.152
-634.580	10.783	-0.057	0.044
-633.565	800.000	0.077	-0.277
-632.551	119.739	-0.122	0.153
-631.536	-142.773	0.192	0.019
-630.522	118.649	0.117	-0.146
-629.507	104.461	-0.324	0.386
-628.492	-140.480	-0.256	0.027
-627.478	-200.000	0.012	0.098
-626.463	290.953	-0.102	0.188
-625.449	569.541	0.047	-0.115
-624.434	-4.454	-0.227	-0.158
-623.419	800.000	0.077	-0.247
-622.405	4.010	-0.185	-0.136
-621.390	-200.000	-0.046	-0.381
-620.376	-200.000	-0.008	-0.223
-619.361	319.054	-0.255	-0.488
-618.346	422.599	-0.060	0.131
-617.332	800.000	0.036	-0.101
-616.317	-175.534	0.246	-0.007
-615.303	-200.000	0.004	0.033
-614.288	-118.018	0.037	-0.007
-613.273	-162.501	0.320	0.016
-612.259	800.000	0.022	-0.096
-611.244	-56.865	0.244	-0.109
-610.230	701.649	-0.077	-0.204
-609.215	-84.931	0.292	0.092
-608.201	-110.106	-0.294	0.062
-607.186	-200.000	-0.010	0.066
-606.171	-53.565	0.205	-0.095
-605.157	8.417	-0.158	0.120
-604.142	138.579	0.185	-0.245
-603.128	73.301	-0.145	0.153
-602.113	426.589	0.076	-0.165
-601.098	-35.465	0.146	0.080
-600.084	-200.000	-0.039	0.243
-599.069	800.000	-0.008	-0.030
-598.055	294.775	0.079	0.145
-597.040	-119.744	-0.284	-0.049
-596.025	-200.000	0.019	-0.195
-595.011	352.293	-0.162	0.324
-593.996	-120.434	-0.197	-0.034
-592.982	-60.571	-0.054	-0.023
-591.967	-102.090	0.133	-0.032
-590.952	-77.759	-0.162	-0.057
-589.938	-27.429	0.012	0.007
-588.923	-39.612	-0.207	0.110
-587.909	16.087	-0.088	-0.070
-586.894	430.466	0.051	-0.112
-585.879	-171.384	-0.363	-0.012
-584.865	800.000	0.055	0.200
-583.850	800.000	-0.128	0.360
-582.836	13.186	0.085	-0.067
-581.821	-110.001	0.278	0.059
-580.806	101.713	0.078	-0.092
-579.792	800.000	-0.011	-0.041
-578.777	524.222	-0.115	-0.272
-577.763	-54.150	-0.151	-0.069
-576.748	149.725	0.050	0.069
-575.733	441.308	0.071	-0.157
-574.719	9.383	0.128	-0.098
-573.704	54.273	-0.106	0.103
-572.690	-157.972	0.178	-0.011
-571.675	60.982	-0.036	0.036
-570.661	71.513	0.083	0.087
-569.646	-156.980	-0.126	-0.008
-568.631	-200.000	-0.042	-0.188
-567.617	-33.548	-0.125	0.069
-566.602	418.777	-0.170	-0.366
-565.588	56.547	-0.183	-0.180
-564.573	-93.155	0.275	0.077
-563.558	-124.215	-0.153	-0.024
-562.544	25.731	0.139	-0.116
-561.529	10.007	-0.161	-0.123
-560.515	83.423	0.030	-0.033
-559.500	-54.604	-0.195	-0.089
-558.485	-13.482	-0.141	0.092
-557.471	-84.713	0.059	-0.019
-556.456	-111.272	-0.218	-0.045
-555.442	640.748	0.068	-0.174
-554.427	74.455	-0.163	0.172
-553.412	268.226	0.137	-0.242
-552.398	137.297	0.136	-0.179
-551.383	-34.266	-0.033	0.018
-550.369	-200.000	0.019	-0.090
-549.354	382.731	0.214	-0.443
-548.339	-200.000	0.022	0.172
-547.325	-128.203	0.113	-0.016
-546.310	-31.409	-0.283	-0.160
-545.296	-200.000	-0.022	-0.147
-544.281	430.188	0.100	-0.219
-543.266	-200.000	-0.027	0.187
-542.252	-200.000	-0.008	0.058
-541.237	459.892	0.087	0.195
-540.223	590.678	-0.048	0.120
-539.208	800.000	0.073	0.226
-538.193	-101.207	0.199	0.049
-537.179	273.992	-0.113	-0.201
-536.164	151.369	-0.081	-0.112
-535.150	-200.000	0.000	0.005
-534.135	-108.545	0.246	0.053
-533.121	17.491	-0.100	0.080
-532.106	-7.379	-0.056	-0.038
-531.091	13.637	0.201	-0.157
-530.077	95.143	-0.134	0.153
-529.062	-155.246	-0.214	-0.014
-528.048	120.127	0.120	0.150
-527.033	19.091	-0.162	0.130
-526.018	98.860	-0.201	0.234
-525.004	-200.000	-0.030	-0.323
-523.989	-200.000	0.029	0.127
-522.975	467.661	-0.044	-0.100
-521.960	-110.707	0.343	-0.071
-520.945	-107.054	0.203	-0.045
-519.931	-67.179	0.068	-0.027
-518.916	-125.383	0.145	0.022
-517.902	179.554	0.129	0.190
-516.887	390.652	0.034	0.072
-515.872	-200.000	-0.164	-0.001
-514.858	-200.000	0.071	0.311
-513.843	372.068	-0.199	-0.407
-512.829	103.703	-0.135	0.159
-511.814	800.000	-0.033	0.094
-510.799	82.670	0.142	-0.155
-509.785	222.230	0.132	0.214
-508.770	-200.000	0.036	0.318
-507.756	-130.688	-0.370	-0.050
-506.741	-40.262	-0.151	-0.079
-505.726	17.167	-0.168	0.134
-504.712	-103.559	-0.155	-0.037
-503.697	800.000	-0.048	0.171
-502.683	-33.736	-0.330	-0.183
-501.668	15.340	0.122	0.096
-500.653	83.522	-0.056	0.061
-499.639	800.000	0.078	0.281
-498.624	-200.000	0.047	0.333
-497.610	400.618	-0.032	-0.068
-496.595	196.473	0.041	0.062
-495.581	-200.000	-0.034	-0.536
-494.566	463.892	-0.095	0.213
-493.551	708.081	0.111	0.296
-492.537	-200.000	-0.006	-0.173
-491.522	126.002	0.236	-0.299
-490.508	-133.450	0.292	0.037
-489.493	-86.223	-0.193	-0.060
-488.478	-167.436	-0.138	-0.006
-487.464	-100.478	0.127	0.032
-486.449	674.713	0.143	0.373
-485.435	800.000	0.026	-0.082
-484.420	240.274	0.039	0.065
-483.405	-146.300	0.229	0.020
-482.391	-200.000	0.009	0.041
-481.376	-73.971	0.186	-0.068
-480.362	800.000	-0.074	-0.310
-479.347	-200.000	0.029	0.186
-478.332	-99.932	-0.177	-0.044
-477.318	298.180	0.050	-0.092
-476.303	-200.000	0.010	-0.139
-475.289	-6.745	-0.075	-0.051
-474.274	-1.151	-0.054	-0.038
-473.259	800.000	-0.075	-0.291
-472.245	-42.896	0.282	-0.144
-471.230	-110.127	0.209	0.044
-470.216	-106.362	0.122	0.027
-469.201	-70.523	-0.262	-0.100
-468.186	-200.000	-0.031	0.437
-467.172	181.943	0.121	-0.179
-466.157	-123.648	-0.150	0.024
-465.143	-2.416	0.119	0.084
-464.128	-59.245	0.185	0.080
-463.113	-172.092	-0.241	0.008
-462.099	476.884	-0.074	-0.168
-461.084	-129.926	0.174	0.024
-460.070	43.515	-0.282	-0.259
-459.055	800.000	-0.087	-0.298
-458.040	90.767	-0.099	0.111
-457.026	-57.565	-0.356	0.157
-456.011	421.722	0.172	-0.371
-454.997	205.534	-0.186	-0.291
-453.982	-158.131	0.064	-0.004
-452.968	267.782	-0.193	0.339
-451.953	247.940	0.163	0.276
-450.938	509.955	-0.054	0.126
-449.924	-43.685	0.067	-0.034
-448.909	66.635	0.153	0.156
-447.895	-67.718	-0.084	-0.033
-446.880	-198.723	0.046	0.000
-445.865	800.000	0.012	0.036
-444.851	-200.000	-0.023	-0.136
-443.836	314.911	-0.280	-0.529
-442.822	296.978	-0.184	0.338
-441.807	-106.344	-0.142	0.032
-440.792	29.533	-0.113	0.097
-439.778	800.000	0.022	0.071
-438.763	-200.000	-0.014	0.211
-437.749	415.384	0.083	0.178
-436.734	800.000	0.013	0.051
-435.719	93.828	0.063	-0.071
-434.705	421.320	0.118	-0.253
-433.690	44.227	-0.154	0.142
-432.676	800.000	0.093	0.300
-431.661	-8.318	0.178	-0.120
-430.646	153.530	0.137	0.188
-429.632	800.000	0.146	0.460
-428.617	800.000	0.064	0.196
-427.603	-135.645	0.009	-0.001
-426.588	249.656	-0.146	-0.249
-425.573	-22.247	0.153	0.093
-424.559	-124.708	-0.316	0.049
-423.544	89.624	0.070	-0.078
-422.530	706.994	-0.109	-0.288
-421.515	-57.240	0.202	0.089
-420.500	-82.956	-0.162	-0.053
-419.486	-47.765	0.170	0.083
-418.471	-200.000	-0.001	-0.094
-417.457	-190.592	0.035	0.000
-416.442	-101.843	0.124	0.030
-415.428	-200.000	0.025	0.236
-414.413	86.885	0.063	0.070
-413.398	-200.000	0.036	-0.234
-412.384	59.629	-0.083	-0.082
-411.369	408.484	-0.070	0.149
-410.355	-200.000	0.004	-0.384
-409.340	-47.398	0.269	-0.131
-408.325	-125.691	0.261	0.040
-407.311	-70.207	0.116	0.044
-406.296	-80.596	0.340	0.113
-405.282	-38.201	-0.108	-0.058
-404.267	79.305	0.201	-0.215
-403.252	460.093	-0.042	-0.094
-402.238	21.104	-0.183	-0.149
-401.223	-95.582	-0.399	-0.107
-400.209	-108.904	-0.165	-0.035
-399.194	-8.915	0.276	0.185
-398.179	-45.346	-0.102	-0.051
-397.165	-103.673	-0.087	-0.020
-396.150	-119.207	0.430	-0.075
-395.136	63.004	-0.174	0.175
-394.121	210.790	-0.091	-0.143
-393.106	207.176	0.204	0.318
-392.092	-171.274	0.358	-0.012
-391.077	184.310	-0.079	-0.117
-390.063	44.420	-0.156	-0.143
-389.048	244.868	0.055	-0.092
-388.033	-161.272	-0.061	-0.003
-387.019	228.942	0.206	-0.337
-386.004	800.000	0.057	0.168
-384.990	28.887	0.250	0.212
-383.975	603.621	-0.102	-0.253
-382.960	144.163	0.250	-0.334
-381.946	-54.887	0.076	0.034
-380.931	-108.644	-0.117	0.025
-379.917	455.673	-0.045	0.099
-378.902	-111.516	0.059	0.012
-377.888	153.300	-0.230	-0.315
-376.873	454.671	-0.127	0.281
-375.858	258.462	-0.069	0.118
-374.844	-160.588	-0.326	-0.017
-373.829	-179.500	-0.404	0.009
-372.815	800.000	-0.030	0.115
-371.800	138.431	-0.249	0.327
-370.785	-98.533	-0.286	0.073
-369.771	-45.768	-0.280	0.138
-368.756	-130.904	-0.069	-0.009
-367.742	-106.999	0.092	0.020
-366.727	48.160	0.306	0.286
-365.712	-29.326	0.088	0.050
-364.698	-64.369	-0.218	0.089
-363.683	-90.174	0.146	0.043
-362.669	-63.761	0.248	0.102
-361.654	409.142	0.029	0.062
-360.639	-90.803	0.197	-0.057
-359.625	-31.419	0.134	-0.076
-358.610	220.517	-0.116	-0.187
-357.596	-200.000	0.018	0.156
-356.581	83.672	-0.248	0.270
-355.566	341.787	0.075	0.147
-354.552	-55.024	-0.146	-0.066
-353.537	-96.331	0.309	-0.082
-352.523	-97.633	0.037	-0.010
-351.508	-151.904	-0.298	0.022
-350.493	800.000	-0.091	-0.322
-349.479	-159.891	0.170	0.009
-348.464	403.536	0.113	-0.238
-347.450	-72.025	0.411	-0.153
-346.435	407.208	-0.114	0.240
-345.420	-4.137	0.456	0.316
-344.406	353.483	0.125	0.248
-343.391	37.265	-0.059	-0.052
-342.377	114.330	0.197	0.240
-341.362	-200.000	-0.041	0.217
-340.348	-119.765	-0.218	0.038
-339.333	-137.447	-0.499	-0.056
-338.318	-76.296	0.373	-0.131
-337.304	99.837	-0.135	-0.156
-336.289	-156.549	0.178	0.011
-335.275	706.289	-0.069	0.182
-334.260	-127.339	0.437	0.064
-333.245	-120.090	0.080	0.014
-332.231	-95.222	-0.102	0.028
-331.216	72.187	0.168	0.174
-330.202	247.565	0.112	0.189
-329.187	-200.000	-0.003	0.257
-328.172	395.470	0.066	0.138
-327.158	-200.000	0.025	0.122
-326.143	569.573	-0.103	0.249
-325.129	-115.294	-0.402	-0.076
-324.114	33.316	0.307	0.266
-323.099	-12.523	0.232	0.151
-322.085	42.976	-0.121	0.110
-321.070	139.636	-0.174	0.229
-320.056	142.824	-0.145	-0.192
-319.041	89.743	0.154	-0.172
-318.026	-200.000	0.040	-0.420
-317.012	-43.724	-0.481	-0.242
-315.997	-200.000	-0.036	0.180
-314.983	-32.632	-0.248	0.138
-313.968	-16.835	0.126	-0.080
-312.953	381.856	0.090	-0.185
-311.939	31.890	0.176	-0.151
-310.924	218.970	0.030	0.048
-309.910	-200.000	0.004	0.284
-308.895	-200.000	-0.015	0.315
-307.880	167.249	-0.114	0.161
-306.866	660.318	-0.123	0.317
-305.851	-79.413	-0.081	-0.027
-304.837	332.752	-0.037	-0.072
-303.822	-200.000	0.024	0.169
-302.807	111.660	0.207	-0.249
-301.793	-13.157	0.237	-0.153
-300.778	-66.119	-0.445	-0.177
-299.764	-200.000	-0.067	-0.419
-298.749	689.220	0.046	0.121
-297.735	89.215	-0.112	-0.124
-296.720	19.518	-0.187	-0.150
-295.705	-21.542	-0.024	0.014
-294.691	-88.625	-0.134	0.040
-293.676	359.807	0.192	-0.383
-292.662	-200.000	-0.010	0.298
-291.647	244.989	-0.079	0.132
-290.632	195.878	-0.093	0.141
-289.618	658.831	0.096	0.246
-288.603	-101.070	-0.309	-0.076
-287.589	51.369	-0.249	-0.236
-286.574	-200.000	0.050	-0.331
-285.559	-132.156	0.164	-0.021
-284.545	-55.814	0.263	-0.117
-283.530	-56.135	0.178	0.079
-282.516	95.708	0.212	0.242
-281.501	-200.000	-0.124	-0.000
-280.486	242.712	0.016	0.026
-279.472	-146.412	0.227	-0.020
-278.457	-57.919	-0.252	-0.110
-277.443	-167.915	0.283	0.011
-276.428	-200.000	0.064	0.482
-275.413	-155.943	-0.291	-0.018
-274.399	-71.846	0.518	0.192
-273.384	70.124	0.030	-0.031
-272.370	15.059	0.366	0.286
-271.355	401.488	0.132	0.275
-270.340	-61.340	0.135	-0.057
-269.326	-93.416	0.100	0.028
-268.311	-34.672	0.377	0.206
-267.297	95.036	0.173	0.196
-266.282	142.188	0.105	-0.139
-265.267	331.194	-0.036	0.069
-264.253	-200.000	0.018	-0.233
-263.238	413.277	0.073	-0.154
-262.224	-90.996	0.369	-0.106
-261.209	-69.388	-0.144	0.055
-260.195	38.350	-0.265	-0.236
-259.180	343.425	0.168	0.328
-258.165	-24.030	0.053	0.032
-257.151	-200.000	-0.000	-0.325
-256.136	-200.000	-0.106	0.548
-255.122	282.251	-0.054	0.097
-254.107	-34.259	0.194	-0.106
-253.092	-8.721	-0.063	0.042
-252.078	567.876	-0.133	0.322
-251.063	7.938	-0.360	-0.269
-250.049	207.090	-0.158	-0.246
-249.034	-114.432	0.337	-0.064
-248.019	-55.046	-0.072	-0.032
-247.005	613.005	0.074	0.184
-245.990	-44.590	0.054	0.027
-244.976	49.124	0.055	0.052
-243.961	-88.571	-0.332	-0.099
-242.946	-33.523	0.171	0.094
-241.932	32.701	0.100	0.086
-240.917	-200.000	-0.001	0.242
-239.903	11.603	0.283	-0.216
-238.888	-187.930	0.212	-0.003
-237.873	134.367	-0.076	-0.099
-236.859	-200.000	-0.009	-0.238
-235.844	13.874	-0.170	0.131
-234.830	-58.978	0.333	0.143
-233.815	-53.199	-0.201	0.092
-232.800	-108.013	-0.321	0.069
-231.786	-200.000	0.013	0.100
-230.771	-200.000	-0.029	0.237
-229.757	77.095	-0.202	0.214
-228.742	-166.521	0.020	0.001
-227.727	-131.315	0.113	0.015
-226.713	-69.912	-0.253	-0.096
-225.698	103.645	-0.122	0.142
-224.684	800.000	0.034	0.120
-223.669	-187.292	0.399	-0.005
-222.655	-200.000	-0.007	0.098
-221.640	35.345	-0.153	-0.133
-220.625	-66.138	-0.154	0.061
-219.611	-62.769	-0.198	0.082
-218.596	-200.000	0.003	0.034
-217.582	-168.285	0.277	0.011
-216.567	-59.648	-0.299	0.127
-215.552	-108.438	-0.349	0.075
-214.538	-4.200	-0.167	-0.115
-213.523	-24.649	-0.254	-0.150
-212.509	-200.000	0.046	-0.227
-211.494	91.257	0.132	0.147
-210.479	367.842	-0.116	0.232
-209.465	-137.920	-0.113	-0.012
-208.450	299.045	-0.089	0.163
-207.436	382.556	-0.018	0.037
-206.421	-54.312	-0.070	-0.032
-205.406	7.598	-0.119	-0.089
-204.392	-151.768	-0.334	-0.024
-203.377	-86.173	0.390	-0.119
-202.363	-64.980	0.382	-0.153
-201.348	51.637	0.214	0.203
-200.333	96.581	0.159	-0.181
-199.319	-7.926	-0.198	-0.133
-198.304	796.708	-0.067	0.182
-197.290	93.086	0.193	-0.216
-196.275	800.000	0.069	0.263
-195.260	768.892	0.080	-0.215
-194.246	147.302	0.058	-0.078
-193.231	-14.928	0.097	-0.062
-192.217	-136.552	0.248	0.029
-191.202	800.000	0.065	-0.177
-190.187	800.000	-0.106	0.294
-189.173	-68.263	0.107	-0.041
-188.158	-167.917	0.227	0.009
-187.144	-119.101	-0.238	-0.041
-186.129	293.495	0.081	0.146
-185.114	-148.491	-0.226	0.018
-184.100	-57.752	-0.225	-0.098
-183.085	-88.023	-0.241	-0.072
-182.071	800.000	-0.038	-0.153
-181.056	-200.000	-0.079	-0.365
-180.042	-47.083	-0.161	-0.078
-179.027	43.245	-0.171	-0.155
-178.012	348.553	-0.083	-0.163
-176.998	-200.000	-0.021	0.189
-175.983	262.987	0.132	0.228
-174.969	-64.010	0.261	0.106
-173.954	800.000	0.127	-0.348
-172.939	-0.688	0.225	0.158
-171.925	20.584	-0.144	0.115
-170.910	-137.040	0.078	0.009
-169.896	-119.387	-0.370	0.064
-168.881	563.340	0.187	-0.449
-167.866	800.000	-0.096	-0.346
-166.852	459.686	-0.094	-0.208
-165.837	188.543	0.129	-0.192
-164.823	162.486	0.033	-0.045
-163.808	-200.000	0.000	0.046
-162.793	58.120	0.198	-0.192
-161.779	-200.000	0.034	0.184
-160.764	142.752	-0.093	0.122
-159.750	-66.321	-0.265	0.105
-158.735	87.975	0.163	-0.179
-157.720	-200.000	-0.005	-0.248
-156.706	-12.042	0.308	0.200
-155.691	-200.000	-0.036	-0.227
-154.677	72.685	0.074	0.076
-153.662	75.414	0.177	-0.185
-152.647	-122.887	-0.063	-0.010
-151.633	-200.000	0.037	-0.337
-150.618	427.351	-0.089	-0.190
-149.604	16.835	0.224	0.176
-148.589	352.152	0.040	-0.078
-147.574	447.383	0.044	0.096
-146.560	454.652	0.164	-0.361
-145.545	800.000	0.069	-0.274
-144.531	13.531	0.148	0.114
-143.516	-200.000	-0.002	0.096
-142.502	-137.952	-0.197	-0.022
-141.487	340.627	0.078	0.150
-140.472	-99.888	0.275	-0.068
-139.458	-146.209	0.289	0.025
-138.443	800.000	-0.021	-0.071
-137.429	-13.518	0.287	-0.185
-136.414	-40.624	-0.114	0.059
-135.399	800.000	-0.111	0.365
-134.385	51.316	-0.177	-0.167
-133.370	-200.000	0.007	0.087
-132.356	-26.319	-0.137	0.080
-131.341	457.112	0.143	0.315
-130.326	-95.560	-0.392	0.104
-129.312	24.180	0.035	-0.029
-128.297	32.878	0.242	0.208
-127.283	-200.000	-0.031	-0.216
-126.268	-200.000	0.002	-0.049
-125.253	344.834	0.053	0.103
-124.239	1.584	0.125	0.089
-123.224	108.173	0.077	-0.091
-122.210	-158.903	0.197	0.011
-121.195	371.365	-0.172	0.345
