DTS Sentinel unit serial number:	SN413079Multiplexer serial number:	ORYXHardware model number:	OX4-SRSoftware version number:	ORYX F/W v4.00 Oryx Data Collector v3.7.2.0data status	okinstallation	princeton_trtdifferential loss correction	single-endedforward channel	channel 2reverse channel	N/Adate	2019/09/13time	04:43:35forward acquisition time	60.00reverse acquisition time	0.00gamma	496.2192k internal	0.2337k external	0.2337temperature offset calibration	1.0191default loss term (dB/km)	0.3790temperature slope calibration	1.0000multiplexer offset coefficient	1.0000multiplexer slope coefficient	1.0000fibre end	0.00T internal ref (°C)	26.62T ext. ref 1 (°C)	4.05T ext. ref 2 (°C)	21.21length (m)	temperature (°C)	Stokes	anti-Stokes-747.200	-200.000	0.001	0.043
-746.185	122.938	-0.024	0.030
-745.171	-200.000	0.022	-0.187
-744.156	-200.000	-0.009	0.181
-743.142	-41.329	0.543	0.281
-742.127	12.874	-0.246	0.191
-741.112	-200.000	-0.022	-0.146
-740.098	-102.050	0.190	0.046
-739.083	262.135	-0.151	0.263
-738.069	-40.965	-0.220	0.114
-737.054	-200.000	0.002	-0.217
-736.039	-128.664	-0.307	-0.044
-735.025	408.934	-0.101	0.216
-734.010	191.303	0.124	0.188
-732.996	800.000	-0.100	-0.367
-731.981	-54.593	-0.329	-0.149
-730.966	-33.396	0.234	-0.130
-729.952	-66.194	0.160	-0.064
-728.937	-113.704	0.126	0.025
-727.923	486.136	-0.176	-0.402
-726.908	-69.385	0.293	-0.113
-725.894	-23.941	-0.316	0.190
-724.879	87.541	0.045	0.050
-723.864	301.605	0.107	-0.199
-722.850	-27.684	-0.111	-0.064
-721.835	800.000	-0.098	-0.381
-720.821	-93.034	0.491	-0.137
-719.806	-49.545	-0.271	-0.130
-718.791	-2.706	-0.108	0.076
-717.777	800.000	-0.083	-0.295
-716.762	370.086	0.028	0.056
-715.748	82.062	-0.179	-0.194
-714.733	642.921	-0.045	-0.114
-713.718	56.052	0.066	-0.064
-712.704	-147.632	-0.215	0.018
-711.689	29.788	0.287	-0.245
-710.675	500.908	0.031	0.071
-709.660	19.469	-0.311	-0.251
-708.645	-200.000	0.005	0.214
-707.631	800.000	0.019	-0.061
-706.616	-92.896	-0.128	0.036
-705.602	711.014	0.042	-0.110
-704.587	148.350	-0.082	-0.111
-703.572	-98.599	-0.330	0.084
-702.558	-39.870	0.163	-0.085
-701.543	-46.948	-0.306	-0.150
-700.529	800.000	-0.034	0.132
-699.514	-128.976	-0.186	0.026
-698.499	-200.000	-0.044	-0.343
-697.485	-200.000	0.004	0.042
-696.470	36.579	-0.188	-0.167
-695.456	-57.264	0.196	0.086
-694.441	-47.700	-0.087	-0.042
-693.426	-20.698	-0.289	-0.177
-692.412	-106.968	0.188	-0.042
-691.397	3.585	0.239	-0.175
-690.383	800.000	0.040	-0.148
-689.368	-12.000	-0.146	0.096
-688.354	-200.000	-0.015	0.099
-687.339	-72.473	0.217	-0.080
-686.324	-63.803	-0.138	0.057
-685.310	-60.129	0.377	-0.161
-684.295	-8.566	-0.247	0.166
-683.281	-55.978	0.292	-0.130
-682.266	395.348	0.158	-0.330
-681.251	97.852	0.131	-0.151
-680.237	217.196	-0.111	-0.178
-679.222	-4.761	-0.228	-0.158
-678.208	187.469	-0.105	-0.156
-677.193	109.454	-0.152	-0.183
-676.178	93.537	-0.092	-0.104
-675.164	800.000	0.051	-0.216
-674.149	-76.074	0.236	-0.083
-673.135	-67.946	-0.271	-0.106
-672.120	-142.933	0.251	0.024
-671.105	-200.000	0.019	-0.383
-670.091	-80.781	-0.279	-0.093
-669.076	-140.756	0.463	-0.048
-668.062	-164.796	-0.537	0.024
-667.047	-123.124	0.188	-0.030
-666.032	-90.818	0.201	0.058
-665.018	-140.998	-0.250	-0.026
-664.003	-64.799	-0.217	-0.088
-662.989	800.000	-0.047	0.163
-661.974	10.625	0.124	0.094
-660.959	800.000	-0.041	0.170
-659.945	161.414	0.100	-0.139
-658.930	96.548	0.218	0.249
-657.916	799.469	0.073	-0.201
-656.901	67.754	-0.170	0.174
-655.886	356.920	-0.104	-0.207
-654.872	-55.632	-0.146	-0.065
-653.857	-133.419	0.297	-0.037
-652.843	190.122	0.097	-0.146
-651.828	57.906	-0.159	-0.156
-650.814	69.516	0.089	-0.092
-649.799	-56.159	0.165	0.073
-648.784	800.000	-0.038	-0.150
-647.770	800.000	-0.055	0.161
-646.755	248.649	-0.066	-0.112
-645.741	800.000	0.040	-0.132
-644.726	522.385	-0.065	-0.153
-643.711	-134.241	0.125	-0.015
-642.697	-62.326	0.288	0.120
-641.682	118.043	-0.057	-0.070
-640.668	199.054	-0.144	-0.221
-639.653	800.000	0.031	0.102
-638.638	-200.000	-0.019	0.262
-637.624	-80.285	0.066	-0.022
-636.609	-135.506	0.218	0.026
-635.595	-200.000	0.052	0.393
-634.580	-58.122	-0.438	-0.191
-633.565	-200.000	-0.033	0.362
-632.551	194.987	0.078	-0.119
-631.536	-85.954	0.094	-0.029
-630.522	800.000	-0.027	0.101
-629.507	79.917	-0.093	0.100
-628.492	-117.750	0.110	-0.020
-627.478	-82.918	-0.280	0.090
-626.463	-200.000	-0.009	0.193
-625.449	88.777	-0.155	-0.172
-624.434	-162.895	0.244	-0.012
-623.419	-74.459	0.206	-0.074
-622.405	-41.967	-0.139	0.071
-621.390	4.695	0.209	-0.154
-620.376	451.485	0.012	-0.026
-619.361	45.239	-0.296	0.273
-618.346	18.235	-0.030	-0.024
-617.332	800.000	0.087	0.251
-616.317	-162.296	0.170	0.008
-615.303	199.465	-0.088	-0.135
-614.288	51.737	-0.179	0.170
-613.273	121.174	0.235	0.292
-612.259	115.216	0.132	0.161
-611.244	226.619	-0.204	-0.331
-610.230	32.079	-0.311	-0.268
-609.215	-166.321	0.427	-0.018
-608.201	-200.000	0.005	-0.049
-607.186	-104.341	-0.282	0.065
-606.171	41.899	0.012	0.011
-605.157	192.513	-0.221	0.333
-604.142	273.742	0.048	0.084
-603.128	-82.396	0.205	-0.067
-602.113	55.286	0.293	-0.282
-601.098	-115.123	0.457	0.086
-600.084	-5.760	-0.182	-0.124
-599.069	800.000	0.058	-0.220
-598.055	-159.393	0.210	-0.012
-597.040	-97.399	-0.169	0.044
-596.025	-200.000	-0.026	-0.153
-595.011	-200.000	0.053	0.259
-593.996	800.000	-0.157	0.567
-592.982	-99.586	0.122	-0.031
-591.967	-200.000	-0.020	0.222
-590.952	-200.000	-0.003	0.094
-589.938	-200.000	0.020	-0.098
-588.923	-135.729	0.287	-0.034
-587.909	-200.000	-0.003	-0.099
-586.894	-71.188	0.130	0.049
-585.879	-55.129	-0.315	0.141
-584.865	356.559	-0.147	-0.292
-583.850	-200.000	0.005	-0.192
-582.836	-200.000	-0.023	-0.101
-581.821	45.912	-0.201	-0.185
-580.806	51.809	-0.156	-0.148
-579.792	-107.621	0.097	0.021
-578.777	77.979	-0.099	-0.105
-577.763	-158.525	0.252	-0.015
-576.748	-101.708	0.103	-0.025
-575.733	-200.000	0.016	0.194
-574.719	800.000	0.065	0.244
-573.704	-13.255	-0.165	0.107
-572.690	146.050	0.052	-0.070
-571.675	328.486	0.143	-0.274
-570.661	-64.328	-0.233	0.095
-569.646	10.632	-0.043	0.032
-568.631	-46.747	-0.209	-0.102
-567.617	158.749	0.086	-0.119
-566.602	-32.089	-0.447	-0.249
-565.588	-159.364	0.309	0.017
-564.573	-80.681	0.213	0.071
-563.558	-181.286	0.225	-0.004
-562.544	248.673	0.165	-0.278
-561.529	-47.790	-0.208	-0.100
-560.515	-33.686	-0.230	0.126
-559.500	89.732	0.149	0.166
-558.485	-106.241	-0.239	-0.053
-557.471	-200.000	-0.103	0.482
-556.456	-5.988	0.112	0.077
-555.442	73.789	0.140	-0.146
-554.427	-90.266	0.077	0.022
-553.412	-113.649	0.203	-0.040
-552.398	279.066	-0.126	-0.224
-551.383	123.769	-0.080	0.101
-550.369	-32.288	0.206	-0.114
-549.354	-100.019	-0.411	-0.102
-548.339	162.387	0.104	-0.146
-547.325	800.000	0.073	0.208
-546.310	195.181	-0.096	0.145
-545.296	-32.284	-0.204	-0.113
-544.281	622.918	-0.067	0.169
-543.266	-108.481	-0.032	0.007
-542.252	-200.000	-0.393	0.002
-541.237	800.000	0.042	-0.165
-540.223	-31.761	-0.223	-0.125
-539.208	-51.643	0.327	0.152
-538.193	81.078	0.036	0.039
-537.179	41.654	-0.149	-0.134
-536.164	-140.910	-0.025	0.003
-535.150	-182.258	0.440	0.008
-534.135	331.176	-0.048	-0.091
-533.121	-50.552	0.061	-0.029
-532.106	41.143	-0.185	0.167
-531.091	470.707	0.087	0.195
-530.077	-137.710	-0.188	-0.021
-529.062	-160.257	-0.281	-0.015
-528.048	-200.000	0.015	-0.160
-527.033	0.565	-0.295	-0.210
-526.018	154.786	-0.102	-0.139
-525.004	-164.619	0.036	-0.002
-523.989	-20.346	0.069	0.043
-522.975	-9.300	-0.150	0.100
-521.960	-60.645	0.265	0.112
-520.945	-141.473	0.037	0.004
-519.931	471.059	0.228	-0.510
-518.916	-58.832	-0.145	-0.062
-517.902	-116.214	0.217	0.040
-516.887	-200.000	0.016	-0.095
-515.872	-190.996	0.229	0.002
-514.858	112.782	-0.068	-0.082
-513.843	-79.765	-0.168	0.056
-512.829	-200.000	-0.014	-0.275
-511.814	31.537	-0.037	0.032
-510.799	609.082	0.028	-0.070
-509.785	229.711	0.103	-0.167
-508.770	800.000	-0.020	-0.079
-507.756	-99.261	0.133	-0.033
-506.741	520.379	0.075	0.176
-505.726	-200.000	0.020	0.264
-504.712	-11.265	-0.082	0.054
-503.697	-86.157	0.228	-0.070
-502.683	41.958	-0.321	-0.289
-501.668	500.082	-0.059	-0.134
-500.653	39.147	0.094	-0.083
-499.639	-132.644	0.507	0.065
-498.624	800.000	0.127	-0.379
-497.610	800.000	0.034	-0.117
-496.595	219.149	0.074	-0.117
-495.581	-200.000	0.014	0.234
-494.566	800.000	-0.035	0.126
-493.551	-114.926	-0.396	0.075
-492.537	-2.661	0.168	-0.117
-491.522	-200.000	0.057	-0.331
-490.508	800.000	-0.075	0.226
-489.493	129.082	-0.192	0.243
-488.478	-200.000	0.039	0.184
-487.464	-54.626	-0.151	-0.068
-486.449	319.458	0.059	0.110
-485.435	573.475	-0.099	-0.239
-484.420	-102.610	-0.064	-0.015
-483.405	-97.246	0.313	0.081
-482.391	-200.000	-0.007	-0.163
-481.376	-37.622	0.079	-0.042
-480.362	-48.480	0.339	0.162
-479.347	16.317	0.025	-0.020
-478.332	225.817	0.103	-0.166
-477.318	-112.423	-0.261	0.052
-476.303	195.187	0.145	-0.219
-475.289	-131.803	-0.155	-0.020
-474.274	437.281	0.119	-0.258
-473.259	-48.224	-0.178	-0.085
-472.245	800.000	-0.168	0.563
-471.230	-40.692	-0.358	-0.184
-470.216	-200.000	-0.002	0.171
-469.201	421.571	0.066	0.140
-468.186	-175.200	0.168	0.005
-467.172	-99.601	-0.079	0.020
-466.157	-157.064	0.345	-0.021
-465.143	378.707	-0.161	-0.327
-464.128	161.775	0.075	0.104
-463.113	-71.559	-0.082	0.030
-462.099	365.928	-0.038	-0.077
-461.084	-200.000	0.019	0.173
-460.070	85.815	-0.066	0.072
-459.055	400.762	-0.011	0.023
-458.040	-200.000	-0.050	0.253
-457.026	-62.083	-0.136	-0.056
-456.011	37.314	0.188	-0.166
-454.997	-44.585	0.124	0.062
-453.982	-53.725	-0.248	-0.112
-452.968	-114.930	0.107	-0.020
-451.953	-93.042	0.066	-0.018
-450.938	403.041	0.209	0.437
-449.924	-200.000	-0.041	0.419
-448.909	800.000	-0.075	0.256
-447.895	-49.080	-0.377	0.179
-446.880	-154.376	0.127	0.008
-445.865	-47.472	-0.208	-0.100
-444.851	-184.480	-0.221	0.004
-443.836	-40.082	0.181	-0.094
-442.822	648.916	-0.120	-0.305
-441.807	-65.209	0.329	-0.131
-440.792	-100.339	0.102	-0.025
-439.778	270.968	-0.103	-0.179
-438.763	-112.612	0.145	-0.029
-437.749	-91.796	-0.284	0.080
-436.734	611.447	0.124	0.307
-435.719	2.991	-0.191	0.137
-434.705	800.000	0.030	0.102
-433.690	11.708	0.047	0.036
-432.676	800.000	-0.024	0.093
-431.661	800.000	0.075	-0.221
-430.646	40.574	0.278	-0.248
-429.632	182.336	-0.121	0.177
-428.617	-41.920	0.303	-0.154
-427.603	-57.186	-0.370	0.161
-426.588	145.973	0.183	0.244
-425.573	-106.109	0.194	-0.043
-424.559	380.539	0.123	-0.250
-423.544	41.153	0.159	-0.143
-422.530	-94.054	-0.221	-0.060
-421.515	-69.368	0.248	-0.094
-420.500	82.779	-0.175	0.189
-419.486	-142.823	-0.232	0.022
-418.471	368.752	0.148	0.297
-417.457	-200.000	0.012	0.072
-416.442	108.226	-0.095	-0.112
-415.428	418.825	-0.115	-0.245
-414.413	-101.294	0.345	-0.083
-413.398	293.527	0.187	0.339
-412.384	54.119	-0.246	0.234
-411.369	-22.376	0.226	-0.136
-410.355	310.555	0.133	-0.246
-409.340	65.240	-0.072	0.072
-408.325	206.926	-0.106	-0.164
-407.311	-200.000	0.013	-0.179
-406.296	-200.000	0.033	-0.373
-405.282	-161.981	0.107	0.005
-404.267	-18.163	0.238	0.147
-403.252	-200.000	-0.015	0.132
-402.238	-18.684	-0.145	-0.089
-401.223	-81.589	0.197	0.064
-400.209	-48.833	0.085	0.040
-399.194	800.000	-0.076	-0.288
-398.179	213.159	-0.125	-0.196
-397.165	55.714	-0.101	-0.097
-396.150	800.000	-0.023	-0.091
-395.136	-194.622	-0.098	0.001
-394.121	451.819	0.153	0.334
-393.106	800.000	-0.083	0.315
-392.092	-51.155	0.205	0.095
-391.077	-58.195	0.368	-0.159
-390.063	186.475	-0.055	-0.081
-389.048	-129.283	-0.432	0.059
-388.033	37.265	-0.103	-0.090
-387.019	-200.000	-0.124	-0.000
-386.004	-83.294	0.259	0.082
-384.990	407.866	-0.025	0.052
-383.975	-83.367	-0.366	-0.116
-382.960	-129.025	0.216	-0.030
-381.946	-200.000	0.030	-0.129
-380.931	218.891	-0.075	-0.119
-379.917	-114.778	0.161	-0.030
-378.902	58.175	0.123	-0.119
-377.888	-37.855	0.066	0.035
-376.873	-66.406	0.252	0.099
-375.858	-91.973	-0.102	-0.029
-374.844	-200.000	-0.032	0.203
-373.829	-126.713	0.283	0.041
-372.815	-130.979	-0.273	0.036
-371.800	-145.343	-0.149	-0.013
-370.785	-103.976	0.124	-0.029
-369.771	571.073	0.100	0.241
-368.756	-132.017	0.131	-0.017
-367.742	-165.494	-0.213	-0.009
-366.727	36.338	0.241	-0.210
-365.712	-200.000	0.018	-0.124
-364.698	564.695	-0.042	0.102
-363.683	624.244	-0.097	0.243
-362.669	127.998	0.135	0.170
-361.654	525.163	-0.061	-0.141
-360.639	112.212	-0.169	0.202
-359.625	113.637	-0.029	-0.035
-358.610	210.617	0.144	0.224
-357.596	800.000	-0.065	-0.221
-356.581	18.018	0.225	-0.178
-355.566	-200.000	0.012	0.209
-354.552	49.103	0.315	-0.293
-353.537	85.045	0.064	-0.070
-352.523	76.259	0.095	-0.099
-351.508	800.000	0.018	-0.063
-350.493	-139.141	-0.099	0.011
-349.479	-78.116	-0.054	-0.018
-348.464	-135.202	-0.285	0.034
-347.450	97.369	-0.105	0.119
-346.435	-76.446	-0.029	-0.010
-345.420	24.746	0.145	0.119
-344.406	-42.509	-0.109	-0.055
-343.391	800.000	-0.011	0.038
-342.377	22.022	-0.191	0.154
-341.362	800.000	0.064	0.193
-340.348	-13.400	0.133	0.085
-339.333	27.427	-0.225	0.187
-338.318	126.381	0.134	-0.168
-337.304	800.000	0.045	0.162
-336.289	280.235	-0.097	-0.171
-335.275	-200.000	0.022	-0.271
-334.260	80.765	-0.224	-0.239
-333.245	-200.000	-0.004	-0.154
-332.231	-30.951	-0.113	0.063
-331.216	-200.000	0.035	0.345
-330.202	610.875	-0.050	0.124
-329.187	17.919	-0.107	0.085
-328.172	617.357	0.117	-0.290
-327.158	143.985	0.148	-0.195
-326.143	159.039	-0.106	0.145
-325.129	340.470	-0.209	0.402
-324.114	-101.645	-0.158	-0.038
-323.099	800.000	-0.043	-0.171
-322.085	70.857	-0.128	-0.131
-321.070	-103.131	-0.353	-0.083
-320.056	-84.976	-0.306	-0.095
-319.041	-103.720	0.166	-0.038
-318.026	128.296	0.090	-0.113
-317.012	-72.986	0.079	0.028
-315.997	-1.045	0.081	0.057
-314.983	-148.887	0.277	-0.022
-313.968	-58.553	-0.177	-0.076
-312.953	515.656	0.095	-0.220
-311.939	800.000	-0.064	-0.191
-310.924	-108.974	0.162	0.034
-309.910	333.152	-0.110	-0.211
-308.895	-171.468	0.212	-0.007
-307.880	640.269	-0.032	0.080
-306.866	-46.790	-0.063	-0.030
-305.851	-58.958	0.252	-0.107
-304.837	338.093	-0.115	0.220
-303.822	-150.791	-0.236	0.018
-302.807	148.525	0.254	-0.338
-301.793	-115.955	-0.048	-0.009
-300.778	-2.569	0.029	0.020
-299.764	-178.143	-0.234	-0.005
-298.749	341.952	0.024	-0.045
-297.735	300.074	0.110	-0.201
-296.720	-189.756	0.210	-0.002
-295.705	139.005	0.098	-0.127
-294.691	-13.860	0.056	0.036
-293.676	-120.601	-0.092	0.015
-292.662	800.000	-0.167	-0.462
-291.647	222.708	0.152	-0.242
-290.632	-166.122	0.237	-0.010
-289.618	172.962	-0.139	-0.197
-288.603	241.037	0.188	0.310
-287.589	-48.380	0.266	-0.126
-286.574	800.000	-0.075	-0.241
-285.559	58.087	0.052	-0.050
-284.545	421.023	-0.033	-0.069
-283.530	5.672	0.169	-0.124
-282.516	-132.427	-0.186	0.024
-281.501	287.118	0.104	0.186
-280.486	-200.000	0.057	0.296
-279.472	-23.474	-0.172	-0.102
-278.457	24.408	0.267	-0.217
-277.443	-164.235	-0.196	-0.009
-276.428	97.917	-0.223	-0.253
-275.413	-68.713	0.126	0.048
-274.399	-0.753	-0.260	0.182
-273.384	447.237	0.072	0.156
-272.370	-79.338	-0.206	0.069
-271.355	-104.655	-0.194	-0.044
-270.340	-3.463	-0.398	-0.273
-269.326	800.000	0.078	0.253
-268.311	-140.908	-0.294	0.030
-267.297	-60.306	0.291	0.122
-266.282	353.527	0.071	-0.139
-265.267	-4.463	0.138	-0.094
-264.253	623.205	0.020	0.049
-263.238	-200.000	0.001	0.194
-262.224	42.432	0.203	-0.182
-261.209	-63.194	0.150	0.061
-260.195	12.316	-0.123	-0.093
-259.180	151.215	0.119	0.160
-258.165	-0.013	-0.071	-0.050
-257.151	93.888	-0.236	0.264
-256.136	290.844	0.063	-0.113
-255.122	312.275	0.101	-0.186
-254.107	-86.861	-0.207	-0.062
-253.092	128.503	-0.093	-0.117
-252.078	348.752	-0.036	-0.070
-251.063	-161.350	0.123	0.006
-250.049	-13.785	-0.217	0.138
-249.034	800.000	0.037	-0.140
-248.019	-200.000	0.002	0.373
-247.005	-200.000	0.047	0.380
-245.990	-17.605	-0.219	0.135
-244.976	15.230	0.124	0.096
-243.961	-119.101	-0.299	-0.051
-242.946	-133.976	0.346	-0.042
-241.932	-113.103	0.146	0.028
-240.917	-56.987	-0.181	0.078
-239.903	-82.933	-0.130	-0.041
-238.888	-100.350	0.021	-0.005
-237.873	-171.085	0.204	-0.007
-236.859	-134.416	-0.094	-0.011
-235.844	-200.000	0.016	-0.191
-234.830	-26.979	0.195	0.112
-233.815	195.939	-0.110	0.164
-232.800	-16.198	-0.097	-0.061
-231.786	12.649	0.240	0.183
-230.771	-36.067	-0.256	-0.136
-229.757	459.815	0.143	-0.313
-228.742	-156.076	0.414	-0.026
-227.727	337.357	-0.091	0.174
-226.713	39.545	-0.145	-0.128
-225.698	-153.429	0.228	-0.016
-224.684	-29.270	0.176	0.099
-223.669	591.289	-0.092	-0.222
-222.655	92.019	-0.085	-0.094
-221.640	193.927	-0.123	0.183
-220.625	546.240	-0.050	0.117
-219.611	-200.000	0.026	0.488
-218.596	90.343	-0.032	0.036
-217.582	46.215	0.101	-0.092
-216.567	13.711	0.172	0.131
-215.552	172.849	-0.276	0.391
-214.538	-59.553	0.060	-0.025
-213.523	-200.000	-0.013	-0.088
-212.509	-138.954	-0.246	0.026
-211.494	-200.000	0.026	0.273
-210.479	-200.000	-0.023	0.182
-209.465	-71.766	-0.221	-0.081
-208.450	-85.080	-0.122	0.038
-207.436	59.890	0.115	-0.112
-206.421	-200.000	-0.026	0.147
-205.406	85.867	0.227	-0.245
-204.392	354.812	0.086	0.167
-203.377	-134.136	-0.220	-0.027
-202.363	210.405	-0.042	0.065
-201.348	-85.327	0.268	0.082
-200.333	109.735	-0.257	-0.303
-199.319	-200.000	0.028	-0.164
-198.304	224.165	-0.053	0.084
-197.290	-167.618	-0.281	0.011
-196.275	-82.372	-0.231	-0.074
-195.260	-57.761	-0.220	0.094
-194.246	133.601	-0.209	-0.266
-193.231	183.109	-0.152	-0.220
-192.217	-200.000	0.040	-0.217
-191.202	260.036	0.203	-0.344
-190.187	-2.131	-0.241	0.166
-189.173	-10.788	0.161	0.104
-188.158	189.295	0.124	0.183
-187.144	-50.404	0.387	0.179
-186.129	64.232	0.194	0.192
-185.114	238.199	-0.102	-0.167
-184.100	-42.940	0.259	-0.129
-183.085	-79.760	-0.200	-0.066
-182.071	198.394	-0.143	0.214
-181.056	-35.815	0.353	0.188
-180.042	-157.722	0.144	-0.008
-179.027	81.212	-0.138	0.147
-178.012	23.242	-0.110	-0.089
-176.998	-200.000	0.063	-0.323
-175.983	7.944	-0.163	-0.120
-174.969	-40.236	0.184	-0.094
-173.954	-159.999	0.345	-0.019
-172.939	-5.397	-0.073	-0.049
-171.925	39.669	0.107	-0.094
-170.910	300.736	-0.092	0.167
-169.896	-6.380	-0.173	0.116
-168.881	75.184	0.163	0.169
-167.866	46.115	-0.124	-0.113
-166.852	-200.000	-0.047	-0.205
-165.837	-3.844	-0.180	0.122
-164.823	196.567	-0.268	0.401
-163.808	45.972	0.245	0.222
-162.793	351.674	-0.034	0.065
-161.779	-200.000	-0.057	0.397
-160.764	-118.173	0.264	-0.046
-159.750	19.582	-0.158	0.125
-158.735	314.744	-0.144	0.266
-157.720	-200.000	-0.008	0.064
-156.706	449.379	0.060	0.129
-155.691	800.000	-0.022	0.068
-154.677	146.988	-0.131	-0.173
-153.662	-165.860	-0.356	0.015
-152.647	-86.232	0.222	0.067
-151.633	547.769	0.119	0.279
-150.618	108.007	0.151	0.177
-149.604	3.573	-0.425	0.304
-148.589	-115.427	-0.127	-0.023
-147.574	-95.331	-0.092	0.024
-146.560	82.609	-0.233	-0.248
-145.545	-9.848	-0.088	-0.058
-144.531	24.484	0.082	0.067
-143.516	111.214	-0.322	0.380
-142.502	-103.144	0.275	0.064
-141.487	-33.697	0.265	-0.143
-140.472	277.009	-0.062	-0.108
-139.458	-200.000	0.262	0.000
-138.443	84.176	0.080	0.086
-137.429	-84.485	-0.120	0.037
-136.414	27.249	-0.117	0.096
-135.399	-90.834	-0.212	0.060
-134.385	-137.423	-0.243	0.027
-133.370	800.000	-0.072	0.258
-132.356	800.000	0.073	-0.286
-131.341	-200.000	0.046	0.323
-130.326	491.645	-0.039	0.087
-129.312	-20.334	-0.248	0.150
-128.297	-51.906	-0.118	-0.054
-127.283	46.191	0.325	-0.295
-126.268	-144.416	-0.308	0.028
-125.253	-79.190	-0.096	-0.032
-124.239	-95.554	0.476	-0.125
-123.224	584.139	-0.119	0.287
-122.210	-59.113	-0.197	-0.083
