DTS Sentinel unit serial number:	SN413079Multiplexer serial number:	ORYXHardware model number:	OX4-SRSoftware version number:	ORYX F/W v4.00 Oryx Data Collector v3.7.2.0data status	okinstallation	princeton_trtdifferential loss correction	single-endedforward channel	channel 2reverse channel	N/Adate	2019/09/18time	08:27:34forward acquisition time	60.00reverse acquisition time	0.00gamma	496.2192k internal	0.2341k external	0.2341temperature offset calibration	0.9978default loss term (dB/km)	0.3790temperature slope calibration	1.0000multiplexer offset coefficient	1.0000multiplexer slope coefficient	1.0000fibre end	0.00T internal ref (°C)	24.25T ext. ref 1 (°C)	0.22T ext. ref 2 (°C)	19.97length (m)	temperature (°C)	Stokes	anti-Stokes-747.200	60.683	0.288	-0.286
-746.185	2.939	-0.382	0.278
-745.171	-123.801	-0.321	0.051
-744.156	-200.000	0.017	0.239
-743.142	-200.000	-0.012	0.092
-742.127	68.367	0.161	0.165
-741.112	-118.658	-0.046	0.008
-740.098	-51.425	0.074	0.034
-739.083	-33.805	-0.149	0.082
-738.069	-200.000	0.049	-0.358
-737.054	-121.344	-0.193	0.032
-736.039	-180.607	-0.263	0.005
-735.025	-18.588	0.069	0.043
-734.010	-74.361	-0.285	0.103
-732.996	118.148	-0.319	0.394
-731.981	452.216	0.121	-0.268
-730.966	629.614	-0.047	-0.118
-729.952	193.367	-0.164	-0.249
-728.937	-81.262	-0.114	-0.038
-727.923	-71.254	-0.061	0.023
-726.908	-200.000	-0.005	-0.175
-725.894	-101.181	-0.238	0.058
-724.879	-82.914	-0.153	0.049
-723.864	800.000	0.097	-0.330
-722.850	67.915	-0.046	-0.047
-721.835	-128.886	0.316	0.044
-720.821	-71.264	0.264	-0.099
-719.806	-200.000	-0.006	0.061
-718.791	-200.000	0.007	0.115
-717.777	-144.783	-0.259	0.024
-716.762	394.693	0.043	0.089
-715.748	-60.201	0.172	0.073
-714.733	-200.000	-0.015	-0.138
-713.718	-137.059	-0.511	-0.059
-712.704	-103.788	0.404	-0.095
-711.689	-119.254	0.301	-0.053
-710.675	127.929	-0.075	-0.096
-709.660	110.232	-0.043	-0.051
-708.645	-200.000	0.065	0.326
-707.631	73.761	0.155	-0.163
-706.616	-0.428	0.209	-0.148
-705.602	-200.000	0.035	0.300
-704.587	800.000	0.059	-0.242
-703.572	-200.000	0.016	0.081
-702.558	117.617	0.054	-0.066
-701.543	-32.915	0.091	0.051
-700.529	-200.000	0.043	-0.203
-699.514	330.363	-0.049	-0.095
-698.499	-200.000	0.024	-0.254
-697.485	134.707	-0.261	-0.338
-696.470	800.000	-0.096	-0.311
-695.456	475.996	0.167	0.378
-694.441	800.000	0.085	-0.238
-693.426	-35.400	-0.113	-0.062
-692.412	-123.343	-0.130	-0.021
-691.397	-200.000	0.054	0.341
-690.383	-87.666	0.354	0.107
-689.368	229.079	-0.233	-0.381
-688.354	310.660	0.162	-0.303
-687.339	-200.000	0.009	-0.141
-686.324	-70.055	-0.053	-0.020
-685.310	38.809	0.229	0.205
-684.295	-166.237	-0.293	0.012
-683.281	365.052	0.030	-0.060
-682.266	36.603	0.153	-0.135
-681.251	800.000	0.072	0.245
-680.237	422.403	-0.167	-0.359
-679.222	360.814	-0.105	0.211
-678.208	-39.294	-0.033	0.017
-677.193	330.330	0.103	0.198
-676.178	18.270	-0.154	-0.123
-675.164	800.000	-0.032	-0.093
-674.149	800.000	0.123	-0.505
-673.135	-200.000	0.020	0.187
-672.120	17.785	-0.107	-0.085
-671.105	-200.000	-0.020	0.111
-670.091	163.853	-0.055	-0.077
-669.076	-165.516	-0.305	-0.013
-668.062	800.000	0.058	0.249
-667.047	-156.519	-0.130	0.008
-666.032	109.594	-0.124	0.149
-665.018	-159.316	-0.213	-0.012
-664.003	-200.000	0.011	-0.124
-662.989	232.474	-0.064	-0.104
-661.974	-200.000	-0.068	0.374
-660.959	131.635	-0.102	0.131
-659.945	-200.000	0.024	-0.299
-658.930	-60.816	0.073	0.031
-657.916	-200.000	0.022	-0.180
-656.901	170.026	0.123	-0.176
-655.886	800.000	-0.077	0.229
-654.872	-103.735	-0.338	-0.079
-653.857	800.000	-0.069	-0.266
-652.843	49.808	0.297	-0.280
-651.828	-117.583	0.255	0.046
-650.814	39.811	0.104	-0.093
-649.799	-40.163	0.161	-0.084
-648.784	36.761	-0.211	-0.186
-647.770	-20.196	0.043	-0.027
-646.755	-68.161	0.257	-0.100
-645.741	-119.122	-0.361	0.063
-644.726	-191.146	0.208	0.002
-643.711	-93.893	-0.175	-0.048
-642.697	40.779	-0.192	-0.172
-641.682	-40.432	-0.176	-0.091
-640.668	-70.505	0.222	-0.084
-639.653	6.766	-0.159	-0.118
-638.638	-187.284	-0.126	-0.002
-637.624	162.218	0.055	-0.076
-636.609	-200.000	-0.003	-0.030
-635.595	-200.000	0.036	-0.163
-634.580	-99.003	-0.499	-0.126
-633.565	237.623	-0.054	0.089
-632.551	800.000	0.023	0.093
-631.536	-149.448	-0.288	0.023
-630.522	195.061	-0.089	-0.134
-629.507	128.417	0.186	0.236
-628.492	-117.633	-0.430	-0.077
-627.478	800.000	0.092	-0.254
-626.463	118.757	0.095	-0.117
-625.449	22.625	-0.178	-0.145
-624.434	800.000	-0.074	-0.314
-623.419	194.820	0.224	0.339
-622.405	-51.020	0.071	-0.033
-621.390	52.076	0.049	0.046
-620.376	-33.847	0.187	-0.103
-619.361	-172.070	-0.278	0.009
-618.346	480.574	-0.064	-0.145
-617.332	127.265	-0.146	-0.184
-616.317	35.124	-0.084	0.074
-615.303	60.811	0.070	0.069
-614.288	-200.000	0.018	-0.168
-613.273	-81.107	-0.104	0.034
-612.259	-83.857	-0.260	0.083
-611.244	-200.000	-0.003	-0.165
-610.230	-200.000	-0.030	-0.378
-609.215	-114.712	-0.221	-0.042
-608.201	436.986	0.100	0.217
-607.186	30.331	-0.376	0.320
-606.171	-71.292	-0.272	0.102
-605.157	121.774	0.076	0.095
-604.142	-50.290	-0.148	0.070
-603.128	-106.304	-0.066	-0.015
-602.113	256.309	-0.019	-0.033
-601.098	-128.124	0.437	0.062
-600.084	-200.000	-0.005	0.246
-599.069	106.062	-0.157	-0.185
-598.055	-115.710	0.201	0.038
-597.040	-106.668	-0.307	0.068
-596.025	800.000	-0.016	0.067
-595.011	-159.325	0.049	-0.003
-593.996	245.462	-0.090	-0.151
-592.982	-184.371	-0.159	-0.003
-591.967	-27.427	-0.145	-0.084
-590.952	38.944	0.145	-0.129
-589.938	-83.559	0.040	-0.013
-588.923	-200.000	0.036	-0.224
-587.909	85.820	-0.059	0.065
-586.894	171.811	0.127	-0.181
-585.879	18.274	-0.197	0.156
-584.865	-200.000	0.018	0.396
-583.850	441.292	-0.043	-0.093
-582.836	-102.702	0.370	0.088
-581.821	85.822	0.125	0.137
-580.806	-6.733	-0.029	-0.020
-579.792	800.000	0.024	-0.086
-578.777	43.395	0.137	-0.124
-577.763	-40.948	-0.123	-0.064
-576.748	-200.000	0.017	-0.289
-575.733	-53.023	-0.173	-0.079
-574.719	-141.040	0.124	-0.013
-573.704	-200.000	-0.034	0.149
-572.690	800.000	0.057	0.184
-571.675	3.848	-0.211	-0.153
-570.661	557.325	0.136	-0.327
-569.646	800.000	0.067	0.240
-568.631	-165.575	0.279	-0.012
-567.617	310.532	0.115	-0.215
-566.602	-5.086	0.321	-0.220
-565.588	25.193	0.341	0.282
-564.573	-200.000	-0.039	-0.316
-563.558	363.224	0.186	-0.372
-562.544	28.888	0.341	0.287
-561.529	-106.321	0.167	0.037
-560.515	91.075	-0.337	-0.376
-559.500	-200.000	-0.065	-0.345
-558.485	63.463	-0.118	-0.118
-557.471	163.286	-0.158	-0.221
-556.456	-200.000	-0.033	-0.410
-555.442	89.310	-0.213	0.236
-554.427	-90.314	0.279	0.081
-553.412	-107.308	-0.173	-0.038
-552.398	-15.473	0.114	0.072
-551.383	631.232	0.041	0.104
-550.369	-200.000	0.037	0.233
-549.354	107.183	-0.122	0.145
-548.339	-36.006	0.162	0.087
-547.325	-5.184	0.022	-0.015
-546.310	-200.000	0.014	-0.094
-545.296	-110.828	-0.159	-0.033
-544.281	-127.059	0.266	-0.039
-543.266	-200.000	0.071	-0.389
-542.252	214.411	0.045	-0.071
-541.237	35.873	0.206	0.181
-540.223	28.703	-0.176	-0.148
-539.208	-200.000	-0.045	-0.225
-538.193	99.475	-0.020	-0.023
-537.179	83.134	0.163	0.177
-536.164	800.000	-0.069	-0.263
-535.150	488.365	-0.067	-0.152
-534.135	5.425	0.292	0.214
-533.121	-75.405	-0.176	0.062
-532.106	-97.694	-0.080	-0.021
-531.091	-46.827	-0.481	-0.234
-530.077	-138.792	0.436	0.047
-529.062	-152.869	-0.128	-0.009
-528.048	3.760	-0.217	-0.158
-527.033	-200.000	-0.005	-0.032
-526.018	134.123	0.123	-0.159
-525.004	-25.709	0.158	-0.092
-523.989	406.159	0.095	0.199
-522.975	800.000	0.015	0.059
-521.960	-104.624	0.113	-0.026
-520.945	-200.000	-0.007	0.240
-519.931	-26.641	0.335	-0.194
-518.916	800.000	-0.072	-0.204
-517.902	-96.358	0.173	0.046
-516.887	531.265	0.044	0.103
-515.872	800.000	0.077	0.306
-514.858	211.073	-0.243	0.379
-513.843	-126.785	-0.103	0.015
-512.829	1.375	0.110	-0.078
-511.814	-200.000	-0.007	0.201
-510.799	260.036	-0.087	-0.150
-509.785	493.500	0.079	-0.180
-508.770	19.363	0.212	0.169
-507.756	-200.000	0.007	-0.320
-506.741	49.284	0.290	0.270
-505.726	-26.112	-0.103	0.060
-504.712	-112.714	-0.124	0.024
-503.697	40.899	0.195	-0.175
-502.683	86.161	-0.048	-0.052
-501.668	800.000	-0.045	0.143
-500.653	399.658	0.077	0.160
-499.639	-200.000	-0.017	0.078
-498.624	800.000	-0.143	-0.408
-497.610	-200.000	0.044	0.250
-496.595	210.721	0.175	-0.272
-495.581	800.000	0.054	0.151
-494.566	-49.798	-0.126	-0.059
-493.551	79.970	-0.139	0.148
-492.537	63.653	-0.040	-0.040
-491.522	-200.000	0.018	-0.110
-490.508	-91.985	0.366	-0.103
-489.493	17.956	-0.201	-0.159
-488.478	-200.000	-0.047	0.295
-487.464	-32.558	-0.258	0.142
-486.449	-200.000	0.034	0.349
-485.435	181.561	-0.086	-0.126
-484.420	-200.000	0.024	0.210
-483.405	-61.098	-0.320	-0.134
-482.391	7.877	-0.181	-0.135
-481.376	-200.000	0.060	0.290
-480.362	6.805	-0.309	0.228
-479.347	-175.264	0.242	-0.007
-478.332	103.263	0.088	-0.102
-477.318	800.000	-0.115	-0.389
-476.303	-39.026	-0.206	-0.108
-475.289	-108.540	0.319	-0.068
-474.274	-145.027	-0.328	-0.030
-473.259	497.428	-0.028	0.064
-472.245	34.874	-0.345	-0.299
-471.230	-29.386	0.096	-0.055
-470.216	9.075	0.352	-0.264
-469.201	-35.981	-0.233	-0.125
-468.186	-200.000	-0.029	-0.136
-467.172	800.000	0.086	-0.258
-466.157	800.000	-0.086	0.349
-465.143	560.572	-0.108	-0.258
-464.128	-38.187	0.359	0.189
-463.113	69.076	-0.298	0.303
-462.099	-15.579	0.320	0.202
-461.084	-84.688	0.159	-0.049
-460.070	80.112	0.054	0.058
-459.055	-200.000	0.047	-0.228
-458.040	-199.180	0.155	-0.001
-457.026	-200.000	-0.069	0.633
-456.011	219.111	-0.135	0.214
-454.997	-34.673	-0.164	0.089
-453.982	-125.585	0.183	0.028
-452.968	7.958	0.129	0.096
-451.953	-22.411	-0.211	-0.127
-450.938	-195.830	0.367	-0.003
-449.924	334.372	-0.127	-0.244
-448.909	-200.000	-0.019	-0.148
-447.895	-92.810	0.113	0.031
-446.880	800.000	0.109	0.352
-445.865	-200.000	-0.014	-0.266
-444.851	-9.948	-0.102	-0.067
-443.836	33.165	-0.248	-0.213
-442.822	298.586	-0.016	0.028
-441.807	418.377	0.097	-0.205
-440.792	-100.780	-0.133	0.033
-439.778	-200.000	0.041	-0.216
-438.763	-102.082	-0.184	-0.044
-437.749	-111.309	0.163	0.033
-436.734	-31.292	-0.075	0.042
-435.719	-180.793	-0.188	0.004
-434.705	-47.467	0.090	-0.043
-433.690	-108.812	0.270	-0.057
-432.676	518.336	0.151	0.349
-431.661	-200.000	0.038	-0.347
-430.646	-140.128	-0.113	0.012
-429.632	800.000	0.093	-0.270
-428.617	800.000	-0.039	-0.114
-427.603	-108.792	0.050	0.011
-426.588	-200.000	-0.067	-0.476
-425.573	-97.665	-0.353	-0.091
-424.559	154.225	-0.063	0.085
-423.544	-200.000	0.013	-0.067
-422.530	18.046	0.289	0.228
-421.515	-53.970	-0.298	0.134
-420.500	55.917	0.332	0.319
-419.486	236.641	0.046	0.075
-418.471	132.675	-0.077	-0.098
-417.457	800.000	0.106	0.290
-416.442	-126.054	0.103	-0.015
-415.428	121.967	-0.164	0.203
-414.413	410.539	0.013	-0.028
-413.398	109.029	0.102	0.121
-412.384	-60.273	-0.280	0.118
-411.369	-101.129	0.351	-0.085
-410.355	-200.000	-0.041	-0.346
-409.340	-73.014	-0.206	-0.075
-408.325	-48.238	0.048	0.023
-407.311	83.873	-0.155	0.167
-406.296	11.965	0.162	0.123
-405.282	-200.000	0.034	-0.158
-404.267	-174.923	0.254	0.007
-403.252	104.133	-0.120	0.140
-402.238	-200.000	-0.014	0.164
-401.223	119.502	0.140	0.171
-400.209	230.818	0.229	0.370
-399.194	800.000	0.102	-0.320
-398.179	-43.594	-0.174	-0.087
-397.165	-52.824	0.041	0.019
-396.150	-74.539	0.539	-0.192
-395.136	156.029	-0.027	0.037
-394.121	-79.510	-0.113	0.038
-393.106	300.340	0.087	-0.159
-392.092	-183.319	0.202	0.003
-391.077	-50.827	-0.253	0.118
-390.063	50.913	0.211	0.197
-389.048	-46.025	-0.457	-0.223
-388.033	242.258	-0.073	-0.121
-387.019	501.506	0.185	0.422
-386.004	-200.000	0.056	-0.337
-384.990	-82.580	0.390	-0.125
-383.975	-120.344	-0.381	-0.064
-382.960	86.351	-0.256	0.278
-381.946	-166.068	-0.309	-0.013
-380.931	589.449	0.058	-0.142
-379.917	46.840	-0.131	-0.120
-378.902	-139.628	0.232	0.024
-377.888	-154.731	-0.216	0.014
-376.873	-49.098	-0.117	-0.055
-375.858	33.062	0.066	-0.057
-374.844	-35.159	-0.194	0.105
-373.829	-111.810	0.033	-0.007
-372.815	65.430	-0.218	0.218
-371.800	-60.941	0.361	-0.151
-370.785	221.516	0.157	0.249
-369.771	-135.335	0.024	0.003
-368.756	-68.014	0.341	-0.131
-367.742	498.604	-0.023	-0.052
-366.727	-200.000	0.049	0.237
-365.712	-99.124	-0.057	0.014
-364.698	-107.264	0.136	-0.030
-363.683	-193.310	-0.112	-0.001
-362.669	-200.000	-0.000	0.236
-361.654	81.064	0.151	-0.161
-360.639	-106.888	-0.118	-0.026
-359.625	-178.498	-0.341	-0.008
-358.610	-38.314	-0.295	0.154
-357.596	-14.633	0.175	-0.111
-356.581	36.042	0.362	-0.314
-355.566	158.250	-0.139	0.191
-354.552	-51.730	0.270	0.124
-353.537	797.809	0.045	-0.121
-352.523	-25.157	0.262	0.153
-351.508	-105.392	-0.206	-0.046
-350.493	508.690	0.042	-0.097
-349.479	-130.407	0.447	0.060
-348.464	-52.705	-0.140	0.064
-347.450	800.000	0.036	0.122
-346.435	-116.057	-0.024	0.004
-345.420	49.606	0.118	-0.109
-344.406	404.904	-0.162	0.337
-343.391	304.036	-0.249	0.456
-342.377	625.530	-0.166	0.414
-341.362	29.519	-0.179	0.150
-340.348	-200.000	-0.009	-0.149
-339.333	-100.204	-0.225	-0.055
-338.318	-38.869	-0.397	-0.207
-337.304	27.804	0.064	0.053
-336.289	-69.932	0.168	0.063
-335.275	26.713	0.017	-0.014
-334.260	-54.999	0.268	0.119
-333.245	37.695	-0.170	0.149
-332.231	-200.000	-0.022	0.205
-331.216	18.887	0.181	-0.143
-330.202	421.052	-0.048	0.100
-329.187	-83.414	0.226	0.071
-328.172	-55.283	-0.321	0.142
-327.158	-104.916	0.146	-0.033
-326.143	800.000	0.095	-0.265
-325.129	-96.575	-0.111	0.029
-324.114	-200.000	-0.001	0.190
-323.099	-200.000	0.047	-0.325
-322.085	66.805	0.184	0.184
-321.070	95.066	-0.156	0.175
-320.056	-179.034	-0.157	0.003
-319.041	-23.000	0.079	-0.047
-318.026	-8.801	-0.121	-0.080
-317.012	98.679	0.175	0.199
-315.997	-114.913	0.293	0.055
-314.983	-200.000	-0.006	0.130
-313.968	-200.000	-0.011	-0.102
-312.953	-79.702	-0.361	0.120
-311.939	443.040	-0.118	-0.255
-310.924	-57.802	0.348	0.150
-309.910	-82.592	-0.071	0.023
-308.895	91.814	-0.129	0.143
-307.880	47.205	0.111	-0.102
-306.866	-30.729	-0.189	-0.105
-305.851	54.134	0.138	-0.131
-304.837	546.559	-0.092	0.216
-303.822	-35.677	-0.409	-0.219
-302.807	-176.518	-0.155	-0.004
-301.793	-79.105	-0.166	0.056
-300.778	-200.000	-0.007	-0.398
-299.764	-15.943	-0.145	-0.091
-298.749	-117.793	-0.265	-0.047
-297.735	800.000	-0.037	-0.159
-296.720	-127.697	-0.257	-0.037
-295.705	9.668	0.053	-0.039
-294.691	30.713	0.206	0.173
-293.676	435.101	0.158	0.337
-292.662	-118.084	-0.388	0.068
-291.647	111.199	-0.144	0.171
-290.632	-75.943	0.150	0.052
-289.618	36.317	0.091	0.079
-288.603	111.714	-0.208	0.247
-287.589	-111.623	-0.263	-0.053
-286.574	194.767	0.096	-0.143
-285.559	-79.307	0.089	-0.030
-284.545	-200.000	-0.016	0.309
-283.530	498.676	-0.033	0.075
-282.516	66.278	-0.161	0.161
-281.501	46.597	0.198	-0.181
-280.486	786.976	-0.032	0.087
-279.472	377.887	-0.081	0.162
-278.457	-96.020	-0.151	-0.040
-277.443	-94.367	-0.261	0.070
-276.428	89.313	0.073	-0.080
-275.413	-79.345	0.009	0.003
-274.399	800.000	0.056	-0.161
-273.384	800.000	-0.024	-0.098
-272.370	-200.000	-0.023	0.254
-271.355	321.485	-0.163	0.304
-270.340	2.454	0.397	0.283
-269.326	-55.512	-0.053	0.024
-268.311	-157.486	-0.376	-0.022
-267.297	250.715	0.090	-0.151
-266.282	-72.329	0.348	0.127
-265.267	-145.346	-0.270	0.024
-264.253	-12.104	-0.164	0.106
-263.238	-38.656	0.347	-0.180
-262.224	-55.318	-0.109	0.048
-261.209	-41.893	0.196	0.099
-260.195	559.475	0.103	-0.245
-259.180	39.029	-0.146	-0.128
-258.165	386.194	-0.072	-0.146
-257.151	-96.186	0.203	0.053
-256.136	-68.277	0.101	0.038
-255.122	-69.722	0.213	-0.080
-254.107	800.000	0.088	-0.257
-253.092	800.000	0.137	0.405
-252.078	-84.475	0.163	0.050
-251.063	-175.222	0.036	-0.001
-250.049	-93.031	-0.111	0.030
-249.034	23.138	0.200	0.162
-248.019	-200.000	-0.001	-0.150
-247.005	101.597	0.056	-0.064
-245.990	-200.000	-0.005	-0.132
-244.976	184.010	-0.079	0.114
-243.961	-33.654	-0.420	-0.228
-242.946	800.000	0.095	0.277
-241.932	50.997	0.228	0.212
-240.917	-53.037	-0.222	0.100
-239.903	-98.705	0.321	0.080
-238.888	408.713	-0.081	0.169
-237.873	-200.000	-0.009	-0.151
-236.859	-150.895	-0.091	-0.007
-235.844	-200.000	-0.029	-0.158
-234.830	-85.491	-0.257	-0.079
-233.815	-200.000	0.033	0.405
-232.800	120.561	-0.062	0.076
-231.786	203.853	-0.179	0.272
-230.771	-75.353	0.112	-0.039
-229.757	45.479	-0.299	0.271
-228.742	-154.261	0.174	-0.011
-227.727	727.053	0.065	-0.170
-226.713	-53.642	0.303	-0.136
-225.698	195.959	0.199	-0.297
-224.684	407.075	-0.175	-0.363
-223.669	-165.566	-0.127	-0.005
-222.655	-200.000	0.002	-0.155
-221.640	131.704	-0.050	0.064
-220.625	800.000	-0.089	0.278
-219.611	194.958	0.154	-0.229
-218.596	21.454	0.226	0.181
-217.582	44.345	-0.281	-0.254
-216.567	800.000	-0.052	0.165
-215.552	763.566	-0.083	-0.221
-214.538	-106.499	0.334	-0.073
-213.523	-129.377	0.312	-0.042
-212.509	152.326	-0.028	-0.037
-211.494	-25.965	-0.059	-0.034
-210.479	800.000	0.028	0.088
-209.465	49.296	-0.176	-0.162
-208.450	-63.827	0.187	0.075
-207.436	-200.000	0.073	0.338
-206.421	-91.092	0.151	-0.042
-205.406	177.064	-0.243	0.347
-204.392	31.971	0.209	0.177
-203.377	25.985	0.320	0.262
-202.363	178.952	-0.109	0.156
-201.348	-37.749	0.245	0.128
-200.333	-87.301	-0.209	-0.062
-199.319	-69.553	0.215	0.081
-198.304	-200.000	-0.076	-0.330
-197.290	800.000	-0.024	0.101
-196.275	529.678	-0.126	-0.293
-195.260	112.201	-0.017	0.020
-194.246	146.493	-0.017	-0.022
-193.231	36.748	0.387	-0.335
-192.217	-37.260	-0.133	-0.070
-191.202	688.186	-0.039	-0.099
-190.187	-72.933	0.083	-0.030
-189.173	800.000	-0.091	0.286
-188.158	-118.881	0.336	-0.058
-187.144	-14.541	-0.256	0.161
-186.129	71.051	0.222	0.225
-185.114	800.000	0.034	-0.134
-184.100	67.895	0.060	0.060
-183.085	-114.276	0.163	-0.031
-182.071	-200.000	0.009	-0.178
-181.056	60.972	0.213	-0.207
-180.042	-43.476	0.095	-0.047
-179.027	800.000	0.065	0.188
-178.012	35.272	-0.153	-0.131
-176.998	-200.000	-0.038	-0.325
-175.983	800.000	0.045	-0.188
-174.969	-140.122	-0.342	-0.035
-173.954	-105.743	0.354	-0.078
-172.939	800.000	-0.039	-0.128
-171.925	-200.000	-0.003	0.082
-170.910	366.997	0.199	0.394
-169.896	800.000	-0.103	0.385
-168.881	-43.413	-0.318	0.158
-167.866	-147.980	0.383	0.031
-166.852	800.000	-0.088	0.257
-165.837	-200.000	-0.051	0.398
-164.823	-200.000	0.055	0.241
-163.808	515.131	0.091	-0.209
-162.793	800.000	0.060	-0.177
-161.779	-135.168	0.356	-0.042
-160.764	-154.774	-0.079	-0.005
-159.750	-134.905	0.104	0.012
-158.735	-126.006	-0.168	-0.025
-157.720	-200.000	0.015	-0.133
-156.706	-76.403	-0.183	0.063
-155.691	-153.841	0.298	0.020
-154.677	78.268	-0.289	-0.303
-153.662	-0.699	-0.033	0.023
-152.647	-153.959	-0.281	0.019
-151.633	1.050	0.135	0.095
-150.618	492.220	-0.043	0.098
-149.604	800.000	-0.090	0.298
-148.589	-200.000	-0.010	0.317
-147.574	-200.000	0.054	0.275
-146.560	22.560	0.063	0.050
-145.545	-200.000	0.028	0.224
-144.531	-178.044	0.099	0.002
-143.516	571.323	0.159	-0.379
-142.502	573.352	-0.108	-0.259
-141.487	-46.056	-0.161	0.078
-140.472	-58.583	0.384	-0.163
-139.458	-170.074	-0.219	0.008
-138.443	170.838	-0.250	-0.351
-137.429	-200.000	0.022	0.145
-136.414	-200.000	-0.055	0.334
-135.399	78.988	0.094	0.098
-134.385	800.000	0.081	-0.237
-133.370	101.667	-0.073	-0.083
-132.356	800.000	-0.033	-0.121
-131.341	-152.067	0.395	0.028
-130.326	-46.135	-0.122	-0.059
-129.312	-200.000	0.015	0.118
-128.297	-200.000	0.020	0.102
-127.283	-70.336	0.242	0.090
-126.268	259.183	-0.106	0.178
-125.253	-200.000	-0.016	-0.184
-124.239	48.443	-0.144	-0.132
-123.224	-17.970	0.145	-0.089
-122.210	179.794	0.197	-0.282
