DTS Sentinel unit serial number:	SN413079Multiplexer serial number:	ORYXHardware model number:	OX4-SRSoftware version number:	ORYX F/W v4.00 Oryx Data Collector v3.7.2.0data status	okinstallation	princeton_trtdifferential loss correction	single-endedforward channel	channel 2reverse channel	N/Adate	2019/09/18time	03:15:35forward acquisition time	60.00reverse acquisition time	0.00gamma	496.2192k internal	0.2349k external	0.2349temperature offset calibration	0.9978default loss term (dB/km)	0.3790temperature slope calibration	1.0000multiplexer offset coefficient	1.0000multiplexer slope coefficient	1.0000fibre end	0.00T internal ref (°C)	22.75T ext. ref 1 (°C)	0.17T ext. ref 2 (°C)	16.93length (m)	temperature (°C)	Stokes	anti-Stokes-747.200	413.791	-0.036	-0.077
-746.185	4.552	-0.338	0.248
-745.171	-176.089	0.464	-0.012
-744.156	-171.547	-0.336	0.011
-743.142	146.062	0.048	-0.064
-742.127	-79.595	-0.299	0.101
-741.112	-128.980	-0.233	0.033
-740.098	549.628	-0.095	0.226
-739.083	-83.380	-0.511	0.164
-738.069	-132.306	0.237	-0.031
-737.054	-102.918	0.181	-0.043
-736.039	-94.680	-0.347	0.094
-735.025	15.600	0.401	0.315
-734.010	218.604	0.137	-0.218
-732.996	699.160	-0.128	-0.337
-731.981	43.973	-0.094	0.086
-730.966	250.658	0.055	-0.093
-729.952	800.000	-0.061	-0.231
-728.937	-120.560	-0.378	-0.064
-727.923	250.821	0.032	-0.054
-726.908	202.715	0.067	-0.103
-725.894	-160.379	-0.229	0.012
-724.879	-124.086	0.217	0.034
-723.864	19.917	-0.217	-0.174
-722.850	-165.811	-0.106	0.005
-721.835	-200.000	-0.028	-0.254
-720.821	179.567	-0.083	0.122
-719.806	-147.913	-0.166	-0.014
-718.791	-30.043	0.183	0.104
-717.777	-47.407	-0.301	0.146
-716.762	-27.530	-0.338	-0.196
-715.748	-200.000	0.011	-0.201
-714.733	-18.338	-0.086	0.053
-713.718	314.654	0.027	-0.050
-712.704	240.635	-0.069	0.115
-711.689	406.091	-0.141	0.297
-710.675	-27.340	0.115	-0.067
-709.660	14.727	-0.052	-0.040
-708.645	-200.000	0.006	0.152
-707.631	-66.995	0.159	0.063
-706.616	-111.513	-0.237	0.048
-705.602	189.582	0.097	-0.144
-704.587	-73.920	-0.058	-0.021
-703.572	-94.710	0.116	-0.031
-702.558	-16.895	-0.149	-0.094
-701.543	-22.165	-0.065	0.039
-700.529	800.000	-0.051	-0.164
-699.514	-62.202	0.281	0.117
-698.499	-172.799	0.112	-0.003
-697.485	267.312	0.033	0.058
-696.470	78.667	0.022	-0.024
-695.456	-120.996	-0.476	-0.080
-694.441	448.149	-0.204	-0.447
-693.426	-109.568	0.273	0.057
-692.412	-129.626	0.412	0.057
-691.397	800.000	0.097	-0.285
-690.383	-200.000	-0.001	-0.230
-689.368	71.871	0.119	-0.124
-688.354	-200.000	-0.036	-0.445
-687.339	-124.062	0.226	0.035
-686.324	-200.000	-0.013	-0.263
-685.310	36.883	-0.370	0.326
-684.295	191.016	0.085	0.128
-683.281	-200.000	0.024	-0.228
-682.266	-200.000	-0.011	-0.154
-681.251	27.359	0.082	-0.069
-680.237	346.063	-0.059	-0.115
-679.222	18.482	-0.391	-0.311
-678.208	241.499	-0.239	-0.398
-677.193	-68.862	0.155	0.059
-676.178	-200.000	0.003	-0.087
-675.164	-17.282	-0.157	-0.098
-674.149	159.255	-0.049	-0.068
-673.135	201.518	-0.097	0.150
-672.120	-141.296	0.029	0.003
-671.105	-63.082	0.063	0.026
-670.091	-68.563	0.297	-0.115
-669.076	13.710	-0.206	0.159
-668.062	-121.150	-0.135	0.022
-667.047	-163.601	-0.158	-0.007
-666.032	-24.553	-0.090	-0.053
-665.018	372.145	-0.025	-0.050
-664.003	-200.000	0.017	0.143
-662.989	105.921	0.172	0.202
-661.974	-200.000	0.013	0.062
-660.959	800.000	0.088	-0.291
-659.945	46.701	-0.233	-0.216
-658.930	800.000	0.044	-0.188
-657.916	-98.846	-0.137	-0.035
-656.901	167.462	-0.074	-0.104
-655.886	427.413	0.054	-0.115
-654.872	105.297	0.109	-0.129
-653.857	107.334	-0.120	-0.142
-652.843	678.898	-0.131	-0.340
-651.828	-90.003	-0.149	-0.043
-650.814	-200.000	0.001	0.127
-649.799	800.000	-0.034	-0.125
-648.784	800.000	-0.033	-0.135
-647.770	-12.859	-0.049	-0.032
-646.755	800.000	-0.144	-0.429
-645.741	291.632	-0.009	-0.016
-644.726	-43.835	0.139	0.070
-643.711	800.000	-0.063	0.205
-642.697	-106.928	0.149	0.033
-641.682	-200.000	-0.007	0.035
-640.668	158.360	-0.095	-0.131
-639.653	-150.334	-0.262	-0.020
-638.638	-9.400	0.432	-0.287
-637.624	-67.026	-0.236	0.093
-636.609	-142.527	-0.193	-0.019
-635.595	-200.000	0.021	-0.106
-634.580	63.973	-0.094	0.094
-633.565	-149.815	-0.298	-0.023
-632.551	43.334	0.164	0.149
-631.536	-127.243	0.201	0.029
-630.522	272.069	-0.137	-0.241
-629.507	214.895	-0.056	0.088
-628.492	-46.920	-0.147	-0.072
-627.478	800.000	0.165	-0.462
-626.463	38.969	0.271	-0.240
-625.449	800.000	0.073	0.275
-624.434	57.187	-0.186	0.181
-623.419	247.006	-0.255	0.428
-622.405	-71.073	-0.241	0.090
-621.390	26.139	-0.216	0.179
-620.376	71.758	-0.103	-0.106
-619.361	-200.000	0.018	0.158
-618.346	800.000	-0.154	0.528
-617.332	-200.000	-0.010	-0.096
-616.317	61.672	0.092	0.091
-615.303	-159.697	-0.074	-0.004
-614.288	290.496	-0.092	-0.165
-613.273	-20.614	0.206	0.126
-612.259	47.112	-0.198	0.183
-611.244	-65.423	-0.122	-0.049
-610.230	800.000	-0.057	-0.187
-609.215	213.489	0.104	-0.163
-608.201	-109.197	-0.232	0.049
-607.186	-139.566	0.259	-0.028
-606.171	-137.132	-0.503	0.057
-605.157	-94.660	-0.076	0.021
-604.142	-200.000	0.023	0.116
-603.128	800.000	-0.007	0.020
-602.113	-38.096	0.212	-0.112
-601.098	-97.768	0.235	0.060
-600.084	-192.201	0.063	0.001
-599.069	800.000	-0.028	0.115
-598.055	77.622	0.130	0.138
-597.040	139.633	-0.164	-0.214
-596.025	-190.122	-0.256	0.003
-595.011	-101.314	0.203	0.049
-593.996	-72.806	-0.233	0.085
-592.982	-200.000	0.016	0.068
-591.967	673.710	0.060	-0.154
-590.952	-164.767	-0.177	-0.008
-589.938	-40.247	0.046	0.024
-588.923	800.000	0.063	0.207
-587.909	85.621	0.126	0.138
-586.894	800.000	0.062	0.252
-585.879	-96.236	0.330	-0.087
-584.865	95.445	0.056	0.064
-583.850	800.000	-0.087	0.310
-582.836	132.089	-0.051	-0.065
-581.821	9.602	-0.118	0.089
-580.806	-195.595	0.320	0.002
-579.792	41.771	0.079	-0.071
-578.777	-136.096	-0.330	0.038
-577.763	-26.120	0.424	0.247
-576.748	-200.000	-0.059	-0.417
-575.733	43.178	0.168	0.152
-574.719	117.075	-0.037	-0.045
-573.704	-21.752	-0.161	0.097
-572.690	-200.000	-0.032	0.224
-571.675	599.626	-0.046	-0.113
-570.661	-19.001	-0.297	-0.183
-569.646	-105.040	0.055	-0.012
-568.631	-86.449	0.428	0.130
-567.617	800.000	0.041	0.138
-566.602	-62.936	0.076	-0.031
-565.588	193.312	-0.112	-0.168
-564.573	800.000	-0.070	0.204
-563.558	594.516	0.081	-0.199
-562.544	52.374	0.160	-0.151
-561.529	-128.543	-0.241	0.034
-560.515	-115.758	0.255	-0.047
-559.500	273.480	0.110	-0.193
-558.485	-85.438	0.163	-0.050
-557.471	-200.000	-0.011	-0.080
-556.456	57.469	-0.112	-0.109
-555.442	71.373	-0.061	0.063
-554.427	302.564	-0.098	-0.180
-553.412	349.236	0.077	0.151
-552.398	-142.240	0.151	0.015
-551.383	120.900	0.154	-0.190
-550.369	193.389	0.138	-0.208
-549.354	137.607	-0.230	-0.299
-548.339	-27.548	0.135	-0.078
-547.325	-92.626	0.086	-0.024
-546.310	232.565	0.104	-0.170
-545.296	-44.306	0.355	0.176
-544.281	49.754	-0.176	0.165
-543.266	-33.072	-0.189	0.104
-542.252	270.065	0.078	-0.135
-541.237	-94.618	0.189	0.051
-540.223	-58.874	-0.212	0.091
-539.208	529.016	0.157	0.367
-538.193	-145.273	-0.448	0.040
-537.179	-23.069	-0.138	0.082
-536.164	152.369	-0.163	0.221
-535.150	800.000	-0.041	0.145
-534.135	1.678	0.248	-0.177
-533.121	-200.000	0.072	0.541
-532.106	-164.076	-0.264	0.012
-531.091	-164.419	0.092	0.004
-530.077	-88.751	-0.479	0.141
-529.062	-200.000	0.007	-0.066
-528.048	72.478	0.201	-0.208
-527.033	-200.000	0.001	0.075
-526.018	52.068	-0.147	-0.138
-525.004	-143.812	-0.225	0.021
-523.989	136.347	-0.304	-0.392
-522.975	-200.000	-0.027	-0.251
-521.960	-155.266	0.153	0.010
-520.945	-200.000	0.012	0.325
-519.931	211.608	-0.187	-0.291
-518.916	-17.273	0.146	-0.091
-517.902	95.580	0.145	0.164
-516.887	38.164	-0.117	0.103
-515.872	-9.663	-0.032	-0.021
-514.858	304.894	0.089	0.164
-513.843	-115.441	0.238	-0.044
-512.829	117.666	-0.120	0.147
-511.814	-158.828	0.151	0.009
-510.799	-126.038	-0.094	-0.014
-509.785	-4.162	0.157	-0.108
-508.770	-200.000	-0.015	0.149
-507.756	-116.242	-0.252	0.046
-506.741	-75.228	-0.037	0.013
-505.726	68.013	-0.145	-0.147
-504.712	-76.006	0.217	0.076
-503.697	-38.287	0.242	-0.127
-502.683	55.369	-0.097	-0.093
-501.668	-200.000	0.004	-0.046
-500.653	800.000	0.163	0.496
-499.639	179.037	-0.044	-0.063
-498.624	800.000	-0.046	-0.197
-497.610	-4.809	0.138	0.094
-496.595	-110.894	0.437	-0.089
-495.581	130.554	-0.197	0.250
-494.566	-200.000	-0.068	-0.367
-493.551	-53.141	-0.318	-0.145
-492.537	276.688	-0.066	-0.116
-491.522	781.502	0.091	-0.245
-490.508	-76.306	0.196	0.068
-489.493	-200.000	0.029	0.212
-488.478	-200.000	0.013	-0.347
-487.464	-200.000	0.020	-0.104
-486.449	387.615	0.099	-0.202
-485.435	-200.000	0.046	0.392
-484.420	699.080	-0.060	-0.155
-483.405	-151.348	-0.307	0.023
-482.391	-58.968	-0.162	0.069
-481.376	116.215	-0.202	-0.245
-480.362	-95.910	0.288	-0.076
-479.347	290.177	0.006	0.011
-478.332	-8.327	-0.121	-0.080
-477.318	59.516	-0.097	0.094
-476.303	77.511	-0.051	-0.054
-475.289	506.244	-0.083	-0.190
-474.274	4.519	0.169	0.123
-473.259	182.447	-0.191	-0.279
-472.245	-90.556	0.320	-0.091
-471.230	-200.000	0.045	0.206
-470.216	307.973	-0.106	0.195
-469.201	156.414	0.096	0.131
-468.186	-62.665	-0.194	-0.079
-467.172	-148.836	-0.170	-0.014
-466.157	-13.250	0.120	0.077
-465.143	-200.000	-0.079	0.406
-464.128	37.485	-0.170	0.149
-463.113	-9.165	-0.254	-0.168
-462.099	40.849	-0.187	-0.166
-461.084	265.410	-0.139	0.239
-460.070	800.000	0.137	0.489
-459.055	-136.934	0.167	0.019
-458.040	800.000	0.131	-0.444
-457.026	-81.706	0.088	0.029
-456.011	-200.000	-0.011	0.176
-454.997	-64.324	0.342	0.137
-453.982	-15.488	-0.181	-0.114
-452.968	345.981	-0.084	-0.163
-451.953	-52.877	0.142	0.065
-450.938	13.416	0.404	-0.309
-449.924	-200.000	-0.003	-0.241
-448.909	710.078	-0.055	0.143
-447.895	-95.096	0.089	0.024
-446.880	397.820	0.137	0.283
-445.865	392.253	0.136	-0.280
-444.851	21.870	0.175	-0.141
-443.836	800.000	0.117	0.365
-442.822	-144.643	0.223	0.020
-441.807	-21.809	-0.238	-0.143
-440.792	45.410	0.075	-0.068
-439.778	-93.230	0.045	0.012
-438.763	-20.472	-0.342	-0.208
-437.749	40.309	-0.084	-0.074
-436.734	-86.927	-0.191	-0.058
-435.719	-86.921	-0.145	0.044
-434.705	16.225	-0.181	0.141
-433.690	-150.293	0.064	0.005
-432.676	308.191	0.063	-0.116
-431.661	-200.000	0.002	-0.082
-430.646	-2.919	0.216	0.149
-429.632	481.648	-0.072	0.162
-428.617	99.153	-0.179	0.203
-427.603	223.387	0.198	0.315
-426.588	-83.575	0.263	-0.083
-425.573	665.322	-0.075	0.191
-424.559	-9.911	0.252	0.165
-423.544	170.890	0.061	0.086
-422.530	800.000	0.052	-0.179
-421.515	-75.031	-0.236	0.083
-420.500	-178.575	0.154	0.004
-419.486	-12.082	-0.078	0.051
-418.471	175.186	0.117	-0.167
-417.457	107.805	-0.217	-0.255
-416.442	-152.536	0.087	-0.006
-415.428	-200.000	-0.026	0.195
-414.413	208.634	0.020	0.031
-413.398	527.549	-0.018	-0.041
-412.384	339.651	-0.092	-0.177
-411.369	-5.571	-0.088	0.060
-410.355	800.000	-0.015	-0.044
-409.340	362.408	-0.090	0.178
-408.325	-200.000	-0.004	0.088
-407.311	-200.000	0.015	-0.288
-406.296	-200.000	0.021	-0.096
-405.282	153.941	0.198	0.267
-404.267	41.119	0.062	-0.056
-403.252	605.228	-0.058	0.142
-402.238	-18.171	-0.082	-0.050
-401.223	500.154	0.114	-0.260
-400.209	-8.443	0.416	-0.276
-399.194	-81.207	0.259	0.084
-398.179	270.727	-0.175	0.304
-397.165	-200.000	0.007	0.262
-396.150	-152.156	0.042	-0.003
-395.136	-200.000	-0.011	0.048
-394.121	800.000	0.059	-0.165
-393.106	-92.019	0.127	0.035
-392.092	754.938	0.069	0.183
-391.077	92.617	0.141	-0.157
-390.063	-39.323	-0.072	-0.037
-389.048	-200.000	0.003	-0.144
-388.033	800.000	-0.024	-0.089
-387.019	-88.459	-0.166	-0.049
-386.004	81.560	0.087	0.092
-384.990	-200.000	0.020	-0.199
-383.975	-200.000	0.020	-0.338
-382.960	-83.454	0.043	0.014
-381.946	-2.814	0.305	0.210
-380.931	-97.712	0.175	0.045
-379.917	800.000	-0.090	0.293
-378.902	-92.565	-0.247	-0.068
-377.888	-4.090	0.302	-0.206
-376.873	-63.512	-0.193	-0.078
-375.858	156.617	-0.135	0.184
-374.844	-200.000	-0.004	-0.079
-373.829	91.136	0.126	0.140
-372.815	-26.292	-0.230	-0.133
-371.800	126.140	0.068	-0.084
-370.785	147.654	0.122	0.162
-369.771	-200.000	-0.002	0.193
-368.756	-117.953	-0.375	0.066
-367.742	-111.387	-0.311	0.062
-366.727	-200.000	0.014	0.178
-365.712	302.933	-0.146	-0.266
-364.698	207.876	-0.127	0.195
-363.683	-193.433	-0.254	0.002
-362.669	800.000	-0.007	-0.022
-361.654	-29.557	-0.104	-0.059
-360.639	800.000	0.052	-0.198
-359.625	-164.052	0.177	-0.008
-358.610	35.836	-0.144	0.125
-357.596	155.237	-0.062	0.084
-356.581	515.885	-0.031	0.071
-355.566	-59.634	0.158	0.067
-354.552	-154.499	-0.320	0.021
-353.537	54.595	-0.294	-0.279
-352.523	371.446	-0.042	0.085
-351.508	-112.212	-0.208	0.041
-350.493	-200.000	0.037	0.294
-349.479	47.342	0.223	-0.204
-348.464	353.605	-0.189	0.369
-347.450	-62.756	-0.069	0.028
-346.435	-200.000	-0.019	-0.363
-345.420	-200.000	-0.011	0.170
-344.406	-4.101	0.069	-0.047
-343.391	33.920	-0.249	0.213
-342.377	274.987	0.076	0.133
-341.362	-150.126	-0.244	0.019
-340.348	-164.297	0.273	-0.012
-339.333	-11.071	0.104	0.067
-338.318	-3.143	-0.096	-0.066
-337.304	-96.618	-0.177	0.046
-336.289	15.875	0.113	0.088
-335.275	87.652	0.139	-0.151
-334.260	467.565	0.070	0.153
-333.245	427.338	0.139	0.294
-332.231	-115.999	-0.084	0.015
-331.216	184.983	0.178	-0.259
-330.202	800.000	-0.070	-0.267
-329.187	76.174	0.063	0.066
-328.172	-175.702	0.056	-0.001
-327.158	747.771	-0.035	0.093
-326.143	-17.388	-0.078	0.048
-325.129	-200.000	0.004	0.223
-324.114	-200.000	0.027	-0.162
-323.099	36.932	-0.061	-0.053
-322.085	-94.618	-0.454	0.121
-321.070	205.511	0.052	0.080
-320.056	-135.003	-0.523	-0.062
-319.041	-95.435	0.192	-0.051
-318.026	-48.175	0.171	-0.081
-317.012	-200.000	-0.055	-0.350
-315.997	1.668	0.094	-0.067
-314.983	800.000	-0.086	0.289
-313.968	318.253	-0.135	-0.251
-312.953	758.598	0.037	-0.099
-311.939	-200.000	-0.002	-0.129
-310.924	280.982	-0.131	0.231
-309.910	-74.591	0.249	-0.088
-308.895	800.000	-0.048	0.184
-307.880	-200.000	-0.046	0.273
-306.866	65.644	0.179	0.178
-305.851	-116.925	-0.415	-0.074
-304.837	-72.977	-0.144	0.052
-303.822	-86.391	0.234	-0.071
-302.807	181.750	0.090	-0.130
-301.793	-200.000	-0.015	0.071
-300.778	-35.770	0.156	0.083
-299.764	101.842	0.204	0.233
-298.749	-102.265	-0.324	0.076
-297.735	182.153	-0.203	-0.294
-296.720	800.000	-0.093	-0.335
-295.705	800.000	0.038	-0.105
-294.691	-200.000	-0.049	0.333
-293.676	-200.000	0.004	0.106
-292.662	-35.071	-0.095	-0.051
-291.647	800.000	-0.005	-0.017
-290.632	-112.312	0.201	-0.040
-289.618	-200.000	-0.084	0.369
-288.603	81.147	-0.060	-0.064
-287.589	-102.225	0.319	0.075
-286.574	-110.786	-0.073	-0.015
-285.559	-200.000	-0.033	0.175
-284.545	-200.000	0.006	0.060
-283.530	-21.479	-0.164	-0.098
-282.516	800.000	0.063	-0.209
-281.501	-200.000	-0.020	-0.277
-280.486	140.296	0.117	0.152
-279.472	405.840	-0.051	-0.105
-278.457	8.649	0.055	-0.041
-277.443	419.968	-0.117	0.246
-276.428	36.698	-0.265	-0.229
-275.413	608.187	0.180	0.440
-274.399	360.295	0.054	-0.107
-273.384	-150.144	0.183	-0.014
-272.370	-200.000	-0.024	0.221
-271.355	-53.155	0.305	0.137
-270.340	800.000	-0.068	-0.193
-269.326	-200.000	-0.024	-0.385
-268.311	-26.250	0.075	-0.043
-267.297	469.842	-0.039	-0.087
-266.282	476.028	-0.094	0.208
-265.267	-130.360	-0.021	0.003
-264.253	-128.782	-0.286	-0.040
-263.238	638.356	-0.092	-0.230
-262.224	-18.464	0.141	-0.086
-261.209	-131.525	0.207	0.027
-260.195	-200.000	0.044	0.302
-259.180	800.000	0.062	0.247
-258.165	364.763	-0.141	-0.277
-257.151	-38.431	0.118	-0.061
-256.136	-200.000	0.060	-0.528
-255.122	-200.000	-0.031	0.242
-254.107	214.224	0.266	0.412
-253.092	502.063	0.139	-0.314
-252.078	-52.502	0.091	-0.041
-251.063	-200.000	0.014	-0.095
-250.049	-106.624	0.081	0.018
-249.034	-122.643	-0.107	-0.017
-248.019	800.000	0.066	0.235
-247.005	-70.811	0.125	-0.046
-245.990	-4.307	0.273	-0.185
-244.976	28.028	0.081	0.067
-243.961	89.700	0.111	-0.122
-242.946	-76.844	0.174	0.059
-241.932	800.000	-0.085	0.342
-240.917	-36.453	-0.040	-0.021
-239.903	-200.000	0.042	0.243
-238.888	24.683	-0.060	0.048
-237.873	-200.000	0.037	-0.223
-236.859	-158.064	0.103	-0.006
-235.844	-1.121	-0.309	0.214
-234.830	75.699	-0.203	0.210
-233.815	-62.242	-0.241	-0.098
-232.800	-200.000	0.111	-0.488
-231.786	-97.591	0.120	0.030
-230.771	-80.185	0.166	-0.054
-229.757	321.768	-0.208	0.387
-228.742	-200.000	-0.044	0.275
-227.727	658.942	-0.036	-0.091
-226.713	148.736	-0.094	0.125
-225.698	-51.399	0.100	0.046
-224.684	800.000	0.102	-0.325
-223.669	21.207	-0.152	-0.121
-222.655	800.000	-0.002	-0.005
-221.640	800.000	-0.018	0.076
-220.625	-50.164	0.026	0.012
-219.611	-200.000	-0.028	-0.289
-218.596	-200.000	-0.031	0.339
-217.582	-140.019	-0.184	0.019
-216.567	638.104	-0.086	-0.214
-215.552	-24.611	0.039	-0.023
-214.538	-200.000	-0.033	0.282
-213.523	-0.134	0.390	-0.272
-212.509	-12.071	-0.073	-0.047
-211.494	-45.267	-0.044	-0.022
-210.479	-41.849	-0.039	-0.019
-209.465	800.000	-0.031	-0.087
-208.450	-200.000	0.001	-0.203
-207.436	-53.708	0.043	-0.019
-206.421	800.000	0.035	-0.129
-205.406	-44.657	0.151	-0.074
-204.392	404.066	0.198	-0.407
-203.377	800.000	0.052	-0.195
-202.363	800.000	0.054	-0.224
-201.348	-200.000	-0.040	0.394
-200.333	72.039	-0.119	0.121
-199.319	116.442	-0.066	0.079
-198.304	127.624	-0.214	-0.266
-197.290	141.862	0.167	0.216
-196.275	-104.862	0.222	-0.050
-195.260	-145.579	-0.077	-0.007
-194.246	-96.269	-0.367	0.095
-193.231	103.765	0.239	-0.274
-192.217	654.454	0.055	-0.137
-191.202	4.534	-0.163	0.117
-190.187	86.137	0.137	-0.147
-189.173	800.000	-0.091	-0.303
-188.158	10.564	0.263	-0.195
-187.144	-199.324	-0.155	-0.001
-186.129	31.543	-0.069	0.058
-185.114	222.961	0.146	-0.229
-184.100	295.221	-0.175	-0.313
-183.085	-200.000	0.042	0.327
-182.071	494.579	-0.052	0.117
-181.056	-15.132	0.172	-0.107
-180.042	-163.075	-0.132	0.006
-179.027	-116.079	0.447	0.081
-178.012	-200.000	0.004	-0.348
-176.998	-200.000	-0.024	-0.119
-175.983	382.129	0.162	-0.326
-174.969	-19.319	-0.152	0.092
-173.954	45.690	-0.254	0.229
-172.939	-17.421	0.179	-0.110
-171.925	800.000	0.044	-0.167
-170.910	-61.331	0.175	0.072
-169.896	800.000	0.117	0.393
-168.881	74.789	-0.140	0.144
-167.866	14.292	0.450	-0.342
-166.852	75.035	-0.167	0.171
-165.837	59.040	0.126	0.121
-164.823	4.852	0.043	-0.031
-163.808	800.000	-0.154	-0.415
-162.793	800.000	0.068	-0.250
-161.779	800.000	0.011	0.038
-160.764	150.477	0.139	-0.185
-159.750	182.388	0.118	0.170
-158.735	-88.539	-0.365	-0.106
-157.720	-35.293	-0.146	0.078
-156.706	267.603	0.128	0.218
-155.691	-67.556	0.196	0.075
-154.677	800.000	0.091	0.266
-153.662	32.538	0.131	0.111
-152.647	-80.344	0.160	0.052
-151.633	-200.000	-0.000	0.113
-150.618	283.897	0.176	0.308
-149.604	274.184	-0.106	0.183
-148.589	-34.406	0.245	-0.131
-147.574	421.412	-0.210	-0.440
-146.560	-52.278	-0.435	-0.197
-145.545	160.947	0.028	0.039
-144.531	257.808	-0.137	-0.230
-143.516	800.000	0.070	-0.266
-142.502	308.986	0.106	0.192
-141.487	755.519	-0.011	0.029
-140.472	-42.552	0.134	-0.067
-139.458	-106.123	-0.282	-0.062
-138.443	-200.000	-0.018	-0.104
-137.429	327.868	0.154	0.288
-136.414	-200.000	-0.005	-0.085
-135.399	174.790	0.124	0.175
-134.385	-96.248	-0.232	0.060
-133.370	-99.459	0.234	-0.057
-132.356	-200.000	0.029	0.130
-131.341	-74.585	0.042	-0.015
-130.326	-164.287	-0.072	0.003
-129.312	-36.323	0.137	-0.072
-128.297	800.000	-0.069	-0.252
-127.283	-62.703	-0.344	-0.139
-126.268	-119.749	0.065	-0.011
-125.253	329.011	0.099	0.186
-124.239	-75.966	-0.153	0.053
-123.224	-47.500	0.104	-0.049
-122.210	-159.477	-0.272	-0.015
