DTS Sentinel unit serial number:	SN413079Multiplexer serial number:	ORYXHardware model number:	OX4-SRSoftware version number:	ORYX F/W v4.00 Oryx Data Collector v3.7.2.0data status	okinstallation	princeton_trtdifferential loss correction	single-endedforward channel	channel 2reverse channel	N/Adate	2019/09/16time	22:27:35forward acquisition time	60.00reverse acquisition time	0.00gamma	496.2192k internal	0.2327k external	0.2327temperature offset calibration	0.9970default loss term (dB/km)	0.3790temperature slope calibration	1.0000multiplexer offset coefficient	1.0000multiplexer slope coefficient	1.0000fibre end	0.00T internal ref (°C)	30.83T ext. ref 1 (°C)	0.09T ext. ref 2 (°C)	24.65length (m)	temperature (°C)	Stokes	anti-Stokes-747.200	197.816	-0.059	0.091
-746.185	336.180	-0.166	0.325
-745.171	577.035	0.040	-0.099
-744.156	800.000	-0.159	0.597
-743.142	-16.991	-0.301	0.192
-742.127	-27.240	-0.204	-0.120
-741.112	58.330	0.099	-0.098
-740.098	-32.217	-0.492	0.277
-739.083	9.880	0.207	-0.159
-738.069	-165.265	-0.275	0.012
-737.054	153.376	-0.136	-0.187
-736.039	-200.000	-0.023	-0.486
-735.025	25.238	-0.189	-0.158
-734.010	618.079	-0.086	0.218
-732.996	186.861	-0.202	-0.304
-731.981	-5.318	-0.098	0.068
-730.966	800.000	0.033	-0.144
-729.952	-200.000	0.030	-0.165
-728.937	-150.575	-0.133	-0.010
-727.923	800.000	0.039	-0.142
-726.908	531.995	-0.016	-0.038
-725.894	-171.744	0.073	0.002
-724.879	-151.654	-0.155	-0.012
-723.864	-96.877	0.080	-0.021
-722.850	-166.967	0.119	0.005
-721.835	-44.390	-0.381	0.192
-720.821	489.762	-0.008	-0.018
-719.806	10.684	-0.261	-0.200
-718.791	-200.000	-0.094	-0.595
-717.777	175.745	-0.093	-0.136
-716.762	-45.338	0.202	-0.101
-715.748	-98.541	0.274	-0.071
-714.733	-200.000	0.212	-0.001
-713.718	315.138	0.122	0.231
-712.704	-200.000	0.228	-0.001
-711.689	-172.511	-0.328	0.010
-710.675	167.637	-0.125	0.179
-709.660	800.000	0.077	-0.224
-708.645	800.000	0.085	0.295
-707.631	-42.985	0.336	-0.172
-706.616	635.358	-0.037	-0.094
-705.602	-43.046	-0.186	0.095
-704.587	-162.933	-0.048	-0.002
-703.572	800.000	0.011	0.038
-702.558	455.308	0.101	0.226
-701.543	438.664	-0.044	0.097
-700.529	-61.235	-0.103	-0.044
-699.514	-200.000	-0.038	-0.189
-698.499	320.699	-0.025	0.047
-697.485	-138.337	0.333	-0.037
-696.470	121.831	-0.314	0.394
-695.456	-200.000	0.002	-0.073
-694.441	-200.000	0.005	0.082
-693.426	17.215	0.144	-0.115
-692.412	368.591	-0.104	-0.211
-691.397	-107.582	-0.439	-0.097
-690.383	-110.550	-0.333	-0.069
-689.368	-88.130	-0.194	0.058
-688.354	25.754	0.243	0.204
-687.339	447.665	0.243	0.539
-686.324	-28.730	-0.149	0.086
-685.310	-200.000	-0.000	-0.024
-684.295	-99.664	-0.096	0.024
-683.281	296.507	0.169	-0.311
-682.266	-200.000	0.022	0.221
-681.251	132.939	0.154	0.200
-680.237	-7.048	-0.290	-0.198
-679.222	145.659	-0.091	-0.123
-678.208	800.000	-0.135	-0.581
-677.193	-36.074	-0.085	-0.046
-676.178	-76.224	-0.309	-0.109
-675.164	-103.170	0.127	0.030
-674.149	193.387	0.030	0.045
-673.135	312.096	-0.182	-0.344
-672.120	359.453	0.052	-0.105
-671.105	-44.774	-0.209	0.105
-670.091	-108.019	0.153	0.033
-669.076	685.036	-0.047	0.124
-668.062	165.358	0.103	-0.147
-667.047	-197.970	-0.140	-0.001
-666.032	-0.875	0.149	-0.106
-665.018	28.259	-0.329	-0.280
-664.003	-187.008	-0.279	0.004
-662.989	-57.232	-0.104	0.046
-661.974	470.543	-0.081	-0.182
-660.959	800.000	-0.072	0.245
-659.945	-59.492	-0.289	-0.125
-658.930	-70.974	-0.317	-0.120
-657.916	-200.000	0.018	0.101
-656.901	102.553	0.151	-0.177
-655.886	-18.944	0.099	-0.062
-654.872	-114.925	0.538	0.103
-653.857	220.087	0.114	-0.183
-652.843	275.332	-0.051	0.091
-651.828	-149.687	-0.216	0.017
-650.814	-200.000	-0.003	0.080
-649.799	-200.000	-0.138	-0.001
-648.784	-200.000	-0.018	-0.150
-647.770	-167.010	-0.235	0.010
-646.755	13.253	-0.161	-0.125
-645.741	36.374	0.159	-0.141
-644.726	-93.712	0.084	0.023
-643.711	-74.810	-0.144	0.052
-642.697	192.090	-0.069	0.104
-641.682	-95.931	0.264	-0.071
-640.668	800.000	0.053	-0.212
-639.653	-136.642	-0.435	0.050
-638.638	401.047	-0.056	0.118
-637.624	-200.000	-0.065	0.419
-636.609	383.975	0.180	0.371
-635.595	-5.395	0.127	-0.088
-634.580	128.187	-0.351	0.448
-633.565	-111.156	-0.161	-0.033
-632.551	47.816	0.130	-0.121
-631.536	-49.694	-0.082	0.039
-630.522	-0.933	0.072	0.051
-629.507	477.550	0.023	-0.053
-628.492	42.601	-0.056	-0.051
-627.478	800.000	0.062	-0.196
-626.463	-200.000	-0.130	0.000
-625.449	326.925	0.174	0.334
-624.434	57.238	-0.136	0.133
-623.419	800.000	-0.099	0.307
-622.405	-156.385	-0.233	-0.015
-621.390	-81.807	0.106	-0.035
-620.376	434.706	0.136	-0.296
-619.361	294.946	0.139	-0.255
-618.346	-200.000	-0.018	-0.115
-617.332	-132.130	0.318	0.041
-616.317	-200.000	0.103	0.493
-615.303	5.998	0.500	-0.371
-614.288	-200.000	-0.009	-0.295
-613.273	-148.610	-0.247	-0.020
-612.259	-66.723	0.205	-0.081
-611.244	150.032	0.108	0.146
-610.230	-6.591	0.219	0.149
-609.215	128.605	0.075	-0.096
-608.201	-196.849	-0.352	-0.002
-607.186	45.507	-0.101	-0.093
-606.171	-84.718	0.158	-0.050
-605.157	-200.000	0.018	-0.242
-604.142	70.644	-0.170	0.177
-603.128	76.344	-0.229	0.243
-602.113	274.603	0.128	-0.228
-601.098	800.000	0.053	-0.176
-600.084	61.352	0.130	0.130
-599.069	-99.809	-0.086	0.022
-598.055	344.617	-0.102	0.201
-597.040	23.285	0.100	-0.082
-596.025	-200.000	0.111	0.581
-595.011	-79.836	0.216	0.073
-593.996	-200.000	-0.014	0.316
-592.982	-200.000	-0.005	-0.116
-591.967	-200.000	0.525	0.002
-590.952	598.590	0.054	0.135
-589.938	-38.107	-0.308	-0.164
-588.923	70.444	-0.206	0.213
-587.909	-57.817	-0.325	0.142
-586.894	-100.994	0.358	-0.088
-585.879	-106.135	0.247	0.056
-584.865	199.545	-0.255	-0.392
-583.850	800.000	0.055	-0.187
-582.836	-1.644	0.081	0.057
-581.821	-200.000	-0.056	-0.269
-580.806	-99.319	-0.113	-0.028
-579.792	595.578	-0.081	0.200
-578.777	-26.592	0.188	-0.110
-577.763	-136.414	0.104	0.012
-576.748	-48.386	-0.306	0.148
-575.733	-20.306	0.170	-0.105
-574.719	292.255	-0.140	-0.255
-573.704	16.703	-0.146	0.116
-572.690	-7.556	-0.069	-0.047
-571.675	15.027	-0.233	-0.183
-570.661	-51.929	-0.212	0.099
-569.646	-200.000	0.012	0.207
-568.631	141.463	-0.090	0.119
-567.617	120.842	-0.141	-0.175
-566.602	177.158	0.164	-0.238
-565.588	411.920	0.094	-0.199
-564.573	-32.486	-0.123	-0.069
-563.558	287.678	-0.105	0.189
-562.544	-200.000	0.026	-0.159
-561.529	462.911	0.032	-0.071
-560.515	33.001	-0.319	-0.276
-559.500	800.000	0.096	0.287
-558.485	59.178	0.136	0.134
-557.471	-200.000	-0.016	-0.086
-556.456	80.761	0.070	-0.075
-555.442	-200.000	0.060	-0.433
-554.427	501.717	0.062	0.144
-553.412	-200.000	-0.060	0.287
-552.398	457.103	-0.132	-0.292
-551.383	-41.691	0.230	-0.118
-550.369	79.057	-0.217	-0.232
-549.354	-141.741	0.243	0.024
-548.339	-160.996	0.237	-0.012
-547.325	-200.000	0.035	-0.186
-546.310	-200.000	0.020	-0.372
-545.296	344.596	0.031	0.060
-544.281	-30.533	-0.055	0.031
-543.266	-47.374	0.121	0.059
-542.252	149.159	0.099	-0.134
-541.237	-86.167	-0.334	0.103
-540.223	-1.773	0.336	0.237
-539.208	-72.446	0.143	-0.053
-538.193	-136.061	-0.390	-0.046
-537.179	234.440	0.128	0.212
-536.164	-135.137	-0.126	-0.015
-535.150	37.981	-0.104	0.093
-534.135	-200.000	-0.060	-0.301
-533.121	800.000	0.050	-0.198
-532.106	-133.614	0.039	0.005
-531.091	-167.878	0.259	-0.010
-530.077	-200.000	0.011	0.160
-529.062	-30.321	0.146	-0.083
-528.048	-134.701	0.252	-0.031
-527.033	-160.153	-0.256	-0.014
-526.018	800.000	0.094	0.286
-525.004	114.937	-0.041	0.050
-523.989	-43.340	0.126	-0.063
-522.975	145.705	-0.224	0.300
-521.960	3.345	0.031	0.022
-520.945	800.000	0.032	0.112
-519.931	19.391	-0.204	-0.163
-518.916	-21.381	-0.107	0.065
-517.902	-84.558	-0.310	-0.098
-516.887	-200.000	0.060	-0.344
-515.872	36.760	-0.240	-0.212
-514.858	117.996	-0.296	0.365
-513.843	-93.601	-0.162	0.045
-512.829	-112.295	-0.480	0.096
-511.814	-64.315	-0.066	-0.027
-510.799	-111.423	-0.173	-0.035
-509.785	-76.948	-0.284	0.099
-508.770	302.649	-0.096	0.177
-507.756	88.825	-0.058	0.065
-506.741	800.000	0.020	0.073
-505.726	800.000	0.054	0.167
-504.712	-182.582	-0.184	-0.003
-503.697	-73.689	-0.171	0.062
-502.683	-200.000	-0.003	0.247
-501.668	800.000	-0.087	-0.248
-500.653	-58.987	-0.197	-0.085
-499.639	-97.975	-0.168	0.043
-498.624	789.530	0.071	-0.196
-497.610	-71.621	0.197	0.073
-496.595	-200.000	0.011	0.095
-495.581	-58.230	0.303	0.132
-494.566	-108.548	-0.273	-0.059
-493.551	250.240	-0.062	0.105
-492.537	555.147	0.068	-0.163
-491.522	-200.000	-0.019	-0.199
-490.508	247.741	-0.123	0.208
-489.493	-11.714	-0.250	-0.164
-488.478	-128.051	-0.189	-0.027
-487.464	800.000	-0.058	0.195
-486.449	-88.333	0.358	0.107
-485.435	86.580	-0.102	-0.113
-484.420	167.354	-0.138	0.196
-483.405	-27.886	-0.123	0.071
-482.391	800.000	0.063	0.176
-481.376	482.962	-0.121	0.274
-480.362	-12.076	-0.341	-0.223
-479.347	61.666	0.227	0.225
-478.332	-40.981	-0.093	-0.048
-477.318	-200.000	-0.016	-0.142
-476.303	-75.718	0.125	-0.044
-475.289	-42.079	0.281	0.143
-474.274	224.596	0.083	-0.134
-473.259	-200.000	0.015	-0.200
-472.245	-47.286	0.251	-0.122
-471.230	87.481	0.095	0.105
-470.216	221.537	-0.188	-0.302
-469.201	-200.000	0.006	-0.120
-468.186	-200.000	0.050	0.249
-467.172	138.117	0.144	0.188
-466.157	351.939	0.153	-0.303
-465.143	211.435	-0.123	-0.193
-464.128	21.137	0.314	-0.254
-463.113	34.384	-0.226	-0.196
-462.099	49.171	0.282	-0.265
-461.084	699.127	-0.042	0.110
-460.070	-57.405	0.176	-0.077
-459.055	126.086	-0.119	0.151
-458.040	-200.000	-0.033	-0.144
-457.026	156.994	-0.172	-0.237
-456.011	182.896	0.299	0.440
-454.997	-30.242	0.053	0.030
-453.982	800.000	-0.084	-0.333
-452.968	181.141	-0.114	0.167
-451.953	54.842	-0.223	0.214
-450.938	-63.596	0.224	0.092
-449.924	91.692	0.044	-0.050
-448.909	16.582	-0.101	0.079
-447.895	-200.000	0.023	-0.131
-446.880	212.874	-0.140	0.221
-445.865	432.038	0.075	-0.161
-444.851	289.080	0.110	0.198
-443.836	-191.575	0.378	0.004
-442.822	8.548	0.207	0.155
-441.807	232.611	0.109	-0.178
-440.792	800.000	-0.139	0.532
-439.778	-98.037	-0.223	0.057
-438.763	-15.719	0.297	-0.188
-437.749	-200.000	0.021	-0.216
-436.734	66.059	0.073	-0.074
-435.719	-23.542	-0.217	-0.130
-434.705	301.601	-0.133	0.244
-433.690	526.154	0.066	-0.155
-432.676	-97.758	-0.168	0.043
-431.661	-102.502	0.526	0.125
-430.646	296.045	-0.077	-0.140
-429.632	-62.710	0.387	0.160
-428.617	-102.222	-0.219	0.052
-427.603	-85.072	-0.457	-0.142
-426.588	122.060	0.052	0.064
-425.573	-81.821	0.285	-0.093
-424.559	-160.713	-0.496	-0.026
-423.544	1.733	0.091	0.065
-422.530	-200.000	-0.074	0.389
-421.515	189.822	-0.054	0.080
-420.500	-16.252	-0.191	0.121
-419.486	-32.042	-0.298	-0.166
-418.471	-37.087	0.201	-0.107
-417.457	329.072	0.031	-0.060
-416.442	-73.680	0.431	0.156
-415.428	753.584	-0.067	0.181
-414.413	-42.055	0.176	-0.090
-413.398	-85.108	0.092	0.029
-412.384	-62.585	-0.203	0.084
-411.369	183.822	0.129	0.190
-410.355	800.000	0.041	0.165
-409.340	-21.371	-0.102	-0.062
-408.325	793.763	0.070	-0.191
-407.311	92.730	0.055	0.062
-406.296	167.251	0.142	-0.201
-405.282	-200.000	-0.061	0.404
-404.267	-143.660	-0.251	0.024
-403.252	-200.000	-0.004	-0.120
-402.238	800.000	-0.071	0.228
-401.223	246.045	0.094	0.158
-400.209	-10.429	0.225	0.148
-399.194	-200.000	0.036	-0.202
-398.179	800.000	-0.113	-0.335
-397.165	-116.517	-0.351	-0.064
-396.150	190.611	0.107	0.160
-395.136	-104.256	-0.291	-0.067
-394.121	-200.000	0.032	-0.168
-393.106	-200.000	-0.079	0.382
-392.092	100.591	0.296	0.342
-391.077	800.000	-0.070	-0.207
-390.063	-200.000	-0.011	0.133
-389.048	281.011	-0.107	0.190
-388.033	-161.218	-0.132	-0.007
-387.019	72.221	-0.318	0.329
-386.004	-135.406	-0.062	-0.007
-384.990	-69.618	-0.106	-0.040
-383.975	-173.933	0.576	-0.017
-382.960	43.070	-0.070	0.064
-381.946	-200.000	0.015	0.158
-380.931	-44.643	0.163	0.081
-379.917	544.284	0.022	0.053
-378.902	-200.000	0.009	-0.094
-377.888	175.294	-0.044	0.064
-376.873	800.000	0.026	0.080
-375.858	300.337	-0.023	0.042
-374.844	-121.774	0.229	0.038
-373.829	-200.000	0.036	0.504
-372.815	-141.656	0.121	-0.012
-371.800	312.847	0.036	-0.067
-370.785	-200.000	-0.046	-0.266
-369.771	434.726	0.185	-0.399
-368.756	186.959	0.232	-0.344
-367.742	800.000	0.072	0.215
-366.727	603.599	-0.091	-0.225
-365.712	0.407	0.465	-0.330
-364.698	266.845	-0.113	0.197
-363.683	-200.000	0.040	-0.219
-362.669	-1.621	-0.356	-0.249
-361.654	15.276	-0.173	-0.134
-360.639	32.578	-0.180	0.155
-359.625	-113.473	0.353	-0.069
-358.610	89.963	0.220	-0.244
-357.596	-200.000	-0.013	-0.220
-356.581	793.902	-0.030	-0.082
-355.566	-138.823	0.310	0.034
-354.552	747.684	0.071	-0.191
-353.537	-200.000	0.029	-0.176
-352.523	800.000	0.046	0.146
-351.508	-100.261	-0.316	0.078
-350.493	4.057	0.185	0.135
-349.479	112.198	-0.201	0.241
-348.464	113.402	-0.135	0.162
-347.450	800.000	0.138	0.391
-346.435	-170.796	0.275	0.009
-345.420	-200.000	0.008	0.074
-344.406	402.258	0.113	-0.236
-343.391	-71.812	-0.226	0.084
-342.377	-164.659	-0.282	0.013
-341.362	-54.249	0.300	-0.135
-340.348	491.993	-0.138	-0.313
-339.333	-200.000	-0.001	0.017
-338.318	800.000	0.097	-0.345
-337.304	175.071	0.096	-0.139
-336.289	800.000	-0.042	0.127
-335.275	-28.370	0.189	-0.108
-334.260	-3.622	-0.093	0.064
-333.245	-170.995	0.377	-0.013
-332.231	-200.000	-0.004	0.172
-331.216	157.351	-0.252	-0.346
-330.202	-133.077	0.229	-0.029
-329.187	117.967	-0.217	-0.265
-328.172	9.140	-0.373	-0.280
-327.158	800.000	0.117	-0.335
-326.143	144.717	-0.062	-0.082
-325.129	35.751	-0.101	0.088
-324.114	-53.223	-0.155	0.070
-323.099	416.855	-0.134	0.283
-322.085	230.972	-0.144	0.234
-321.070	-109.966	0.031	-0.006
-320.056	247.189	-0.129	-0.217
-319.041	253.846	-0.061	-0.103
-318.026	-200.000	-0.006	-0.097
-317.012	517.281	-0.065	0.151
-315.997	-104.916	-0.021	-0.005
-314.983	-114.712	0.167	-0.032
-313.968	-136.819	0.119	-0.014
-312.953	-200.000	0.030	-0.203
-311.939	87.143	0.245	-0.269
-310.924	-86.507	0.273	-0.083
-309.910	221.390	0.157	0.250
-308.895	80.916	0.202	-0.216
-307.880	4.227	-0.161	0.117
-306.866	800.000	0.022	0.093
-305.851	-138.689	-0.122	0.013
-304.837	-107.212	0.079	-0.017
-303.822	-22.501	0.103	-0.062
-302.807	-66.269	-0.251	-0.099
-301.793	-68.178	0.505	-0.195
-300.778	-91.818	-0.288	0.081
-299.764	-27.964	-0.138	-0.079
-298.749	-200.000	0.001	-0.185
-297.735	-79.729	-0.180	-0.060
-296.720	-200.000	-0.106	0.593
-295.705	71.426	-0.214	0.220
-294.691	334.876	0.077	0.148
-293.676	219.864	-0.144	-0.229
-292.662	559.760	0.059	-0.140
-291.647	466.078	-0.076	-0.169
-290.632	65.173	0.039	-0.039
-289.618	-200.000	-0.014	0.176
-288.603	-43.474	-0.211	-0.106
-287.589	-3.122	-0.246	-0.170
-286.574	-37.098	0.274	0.145
-285.559	-105.184	0.276	0.062
-284.545	800.000	-0.139	-0.498
-283.530	-18.444	0.151	-0.094
-282.516	62.745	0.056	-0.056
-281.501	-73.399	0.244	-0.088
-280.486	-39.298	-0.150	0.078
-279.472	394.312	-0.079	0.163
-278.457	55.119	-0.101	-0.096
-277.443	119.720	-0.149	0.182
-276.428	-200.000	0.037	0.174
-275.413	213.919	0.266	0.417
-274.399	-200.000	-0.057	0.311
-273.384	-200.000	0.030	-0.393
-272.370	-94.475	0.315	-0.085
-271.355	800.000	0.044	0.146
-270.340	-21.243	-0.114	0.069
-269.326	-93.477	-0.296	-0.081
-268.311	-95.107	-0.192	-0.051
-267.297	132.078	0.147	0.187
-266.282	-28.830	0.153	0.087
-265.267	-200.000	-0.039	0.357
-264.253	174.099	0.140	0.201
-263.238	-24.209	0.034	0.020
-262.224	228.158	0.126	-0.203
-261.209	247.604	0.138	0.231
-260.195	-57.747	-0.480	0.208
-259.180	7.310	0.264	-0.195
-258.165	-55.233	0.304	-0.135
-257.151	800.000	-0.097	-0.290
-256.136	236.501	-0.093	-0.152
-255.122	-98.491	0.330	0.083
-254.107	-44.621	-0.203	0.100
-253.092	800.000	0.076	0.265
-252.078	19.474	-0.216	0.172
-251.063	579.869	0.087	-0.212
-250.049	800.000	-0.107	0.343
-249.034	-102.463	0.284	0.067
-248.019	-85.486	0.149	-0.046
-247.005	50.592	0.196	0.183
-245.990	-114.621	-0.167	-0.032
-244.976	-196.827	0.311	-0.002
-243.961	28.536	-0.066	0.055
-242.946	-6.232	-0.162	0.110
-241.932	-200.000	0.008	0.050
-240.917	130.440	0.107	0.136
-239.903	800.000	0.086	-0.346
-238.888	116.132	-0.099	-0.120
-237.873	136.674	0.091	-0.117
-236.859	-200.000	-0.039	-0.196
-235.844	-200.000	-0.033	-0.228
-234.830	262.263	0.030	0.051
-233.815	-52.073	0.128	-0.059
-232.800	-200.000	0.010	0.113
-231.786	-41.337	0.274	0.139
-230.771	-128.959	-0.070	0.010
-229.757	-132.044	-0.160	-0.021
-228.742	-25.312	0.228	-0.133
-227.727	-200.000	0.052	-0.286
-226.713	-5.305	-0.207	-0.140
-225.698	-122.899	-0.202	0.032
-224.684	-36.305	0.162	0.086
-223.669	-105.013	0.322	0.073
-222.655	-102.371	-0.186	0.044
-221.640	-200.000	-0.013	0.253
-220.625	354.147	0.124	0.243
-219.611	-200.000	0.005	0.110
-218.596	-124.267	0.520	0.080
-217.582	478.562	0.100	0.224
-216.567	800.000	-0.053	0.203
-215.552	60.222	0.258	-0.252
-214.538	241.823	-0.119	-0.197
-213.523	81.686	-0.088	-0.094
-212.509	184.345	-0.031	0.045
-211.494	-126.603	0.066	0.010
-210.479	-59.659	0.257	0.109
-209.465	531.327	0.085	0.198
-208.450	-31.919	0.093	-0.052
-207.436	233.232	0.042	0.069
-206.421	93.832	0.053	-0.059
-205.406	-142.676	-0.206	0.020
-204.392	-3.724	0.185	0.127
-203.377	-200.000	0.067	-0.332
-202.363	-77.812	-0.179	0.061
-201.348	510.850	-0.092	-0.212
-200.333	-76.983	0.410	0.141
-199.319	-20.020	-0.108	0.066
-198.304	299.031	-0.207	0.377
-197.290	-200.000	0.009	0.318
-196.275	-108.618	-0.272	-0.058
-195.260	42.869	0.111	-0.100
-194.246	-50.953	-0.083	-0.039
-193.231	740.319	0.124	-0.328
-192.217	230.967	0.150	0.242
-191.202	-188.984	0.113	0.001
-190.187	800.000	-0.061	-0.258
-189.173	-69.702	-0.218	0.082
-188.158	-200.000	0.037	-0.291
-187.144	361.024	-0.237	-0.469
-186.129	48.256	-0.044	-0.041
-185.114	-26.243	-0.115	0.067
-184.100	151.481	-0.021	0.028
-183.085	124.947	0.027	-0.034
-182.071	800.000	-0.117	0.456
-181.056	185.671	0.095	0.139
-180.042	500.511	0.091	-0.208
-179.027	490.435	-0.057	0.129
-178.012	-96.610	-0.577	-0.150
-176.998	-200.000	-0.026	0.258
-175.983	321.641	-0.117	-0.220
-174.969	80.106	-0.070	-0.074
-173.954	800.000	-0.062	0.269
-172.939	-126.495	-0.230	-0.034
-171.925	-133.795	-0.077	-0.009
-170.910	365.607	-0.125	0.249
-169.896	-71.072	-0.185	0.069
-168.881	735.394	0.041	0.109
-167.866	84.261	-0.184	-0.198
-166.852	-143.921	0.156	-0.015
-165.837	173.105	0.154	-0.219
-164.823	-131.023	0.426	0.056
-163.808	276.957	-0.057	-0.100
-162.793	-60.466	-0.169	-0.071
-161.779	-200.000	0.028	-0.193
-160.764	-200.000	-0.019	0.185
-159.750	-27.733	-0.064	0.037
-158.735	800.000	0.097	-0.389
-157.720	800.000	-0.051	-0.152
-156.706	-78.275	-0.238	0.081
-155.691	-26.255	0.206	-0.119
-154.677	356.657	0.061	0.120
-153.662	4.287	0.106	-0.076
-152.647	1.466	0.266	0.188
-151.633	-131.067	-0.242	-0.032
-150.618	-200.000	-0.000	-0.152
-149.604	226.181	-0.245	0.391
-148.589	59.649	0.118	0.114
-147.574	67.454	0.116	-0.116
-146.560	-160.116	0.316	-0.017
-145.545	266.387	0.020	-0.034
-144.531	32.020	-0.133	0.113
-143.516	81.622	-0.282	-0.300
-142.502	94.419	-0.144	0.161
-141.487	-78.179	0.091	0.031
-140.472	-147.389	-0.105	0.009
-139.458	264.194	0.050	0.087
-138.443	108.544	-0.175	0.205
-137.429	155.753	0.148	-0.200
-136.414	-21.510	-0.189	0.113
-135.399	800.000	-0.071	-0.260
-134.385	0.022	0.159	-0.112
-133.370	40.078	-0.184	0.163
-132.356	-140.342	-0.319	0.033
-131.341	-88.511	-0.116	-0.034
-130.326	-38.977	0.158	0.082
-129.312	163.140	-0.109	-0.151
-128.297	143.301	0.187	0.245
-127.283	464.510	0.101	-0.222
-126.268	-136.715	-0.155	-0.018
-125.253	800.000	-0.013	0.054
-124.239	118.773	0.032	0.039
-123.224	-89.297	-0.244	0.071
-122.210	-33.208	-0.104	-0.057
