DTS Sentinel unit serial number:	SN413079Multiplexer serial number:	ORYXHardware model number:	OX4-SRSoftware version number:	ORYX F/W v4.00 Oryx Data Collector v3.7.2.0data status	okinstallation	princeton_trtdifferential loss correction	single-endedforward channel	channel 2reverse channel	N/Adate	2019/09/15time	05:47:34forward acquisition time	60.00reverse acquisition time	0.00gamma	496.2192k internal	0.2326k external	0.2326temperature offset calibration	1.0038default loss term (dB/km)	0.3790temperature slope calibration	1.0000multiplexer offset coefficient	1.0000multiplexer slope coefficient	1.0000fibre end	0.00T internal ref (°C)	30.62T ext. ref 1 (°C)	4.85T ext. ref 2 (°C)	25.67length (m)	temperature (°C)	Stokes	anti-Stokes-747.200	199.357	-0.185	-0.287
-746.185	17.691	-0.115	0.092
-745.171	800.000	0.054	-0.177
-744.156	-111.093	-0.329	-0.068
-743.142	-135.385	-0.207	-0.025
-742.127	-38.323	0.168	0.090
-741.112	800.000	0.045	-0.156
-740.098	37.720	-0.216	0.193
-739.083	-200.000	-0.037	0.175
-738.069	269.456	0.039	-0.069
-737.054	55.081	0.125	-0.122
-736.039	-48.373	-0.288	0.140
-735.025	-76.279	0.324	0.115
-734.010	-32.860	-0.190	0.106
-732.996	-43.800	-0.238	0.121
-731.981	-107.349	-0.344	-0.076
-730.966	82.109	-0.024	-0.026
-729.952	230.613	-0.178	-0.294
-728.937	143.793	-0.087	-0.117
-727.923	-1.993	0.169	-0.120
-726.908	-37.997	0.166	0.089
-725.894	68.461	-0.195	0.202
-724.879	-103.852	-0.237	-0.056
-723.864	800.000	-0.026	-0.077
-722.850	-136.477	-0.171	0.020
-721.835	-92.149	0.276	-0.078
-720.821	-144.949	0.329	0.030
-719.806	-78.549	-0.447	-0.154
-718.791	-16.616	-0.074	0.047
-717.777	800.000	-0.097	-0.311
-716.762	16.506	0.245	-0.195
-715.748	87.716	0.064	-0.071
-714.733	-150.485	0.150	0.012
-713.718	455.124	0.032	-0.071
-712.704	93.385	0.146	-0.167
-711.689	-136.905	0.159	-0.018
-710.675	-53.565	0.079	-0.036
-709.660	-200.000	-0.007	-0.125
-708.645	800.000	-0.057	-0.208
-707.631	90.379	-0.120	-0.135
-706.616	-36.716	-0.223	-0.121
-705.602	800.000	0.068	0.276
-704.587	-28.887	0.074	-0.043
-703.572	-35.966	0.231	-0.126
-702.558	-6.490	-0.080	-0.055
-701.543	13.440	-0.177	-0.138
-700.529	-111.107	-0.180	-0.037
-699.514	-200.000	0.005	-0.063
-698.499	-4.644	-0.154	0.107
-697.485	800.000	-0.079	0.305
-696.470	102.289	0.088	-0.104
-695.456	-200.000	0.005	-0.034
-694.441	-200.000	0.013	-0.296
-693.426	-180.185	0.154	0.003
-692.412	13.532	0.233	0.182
-691.397	100.136	0.078	0.091
-690.383	426.667	0.044	-0.096
-689.368	169.285	-0.374	-0.538
-688.354	170.181	0.110	0.159
-687.339	228.099	-0.032	0.053
-686.324	-38.226	0.287	-0.153
-685.310	470.289	0.066	-0.150
-684.295	-200.000	-0.060	0.314
-683.281	-92.556	-0.209	-0.059
-682.266	-200.000	0.013	-0.143
-681.251	10.750	-0.370	-0.284
-680.237	-75.672	0.139	-0.050
-679.222	539.889	-0.127	0.304
-678.208	-125.030	-0.297	0.046
-677.193	42.851	0.200	-0.183
-676.178	124.350	-0.205	-0.259
-675.164	273.614	-0.135	-0.240
-674.149	-200.000	-0.037	0.225
-673.135	-117.793	0.115	0.021
-672.120	-17.258	-0.186	-0.118
-671.105	564.608	0.073	0.177
-670.091	-200.000	0.041	-0.191
-669.076	-200.000	-0.057	-0.271
-668.062	-79.181	-0.149	-0.051
-667.047	800.000	0.133	0.413
-666.032	800.000	-0.072	-0.264
-665.018	77.965	-0.184	-0.198
-664.003	477.417	-0.084	-0.191
-662.989	-165.509	-0.450	-0.020
-661.974	-73.208	0.217	-0.080
-660.959	-37.860	-0.126	0.067
-659.945	622.495	0.019	0.049
-658.930	92.367	0.048	-0.054
-657.916	57.773	-0.083	0.082
-656.901	-61.277	-0.379	0.160
-655.886	-73.281	0.427	-0.157
-654.872	39.750	-0.123	-0.111
-653.857	54.178	0.022	0.021
-652.843	-200.000	-0.026	0.207
-651.828	-200.000	-0.072	-0.597
-650.814	88.933	0.312	-0.349
-649.799	26.744	0.111	0.094
-648.784	-68.404	0.012	-0.005
-647.770	-200.000	-0.009	-0.062
-646.755	481.992	0.104	0.237
-645.741	-200.000	-0.056	0.331
-644.726	272.318	-0.133	0.236
-643.711	-61.096	-0.310	0.131
-642.697	385.513	0.048	0.099
-641.682	21.688	0.192	-0.157
-640.668	800.000	0.076	-0.332
-639.653	800.000	-0.108	-0.402
-638.638	177.419	0.052	0.075
-637.624	372.863	0.091	-0.186
-636.609	268.178	0.071	0.126
-635.595	-151.322	-0.141	-0.011
-634.580	-26.311	-0.234	0.138
-633.565	120.315	-0.154	-0.192
-632.551	-89.816	-0.140	-0.041
-631.536	127.360	-0.053	0.068
-630.522	-200.000	-0.038	-0.383
-629.507	-91.992	-0.205	-0.058
-628.492	-62.166	-0.284	0.119
-627.478	-35.435	0.124	0.068
-626.463	80.460	0.161	0.174
-625.449	-200.000	0.036	0.304
-624.434	205.766	-0.123	0.191
-623.419	152.068	0.224	0.307
-622.405	-77.282	0.216	0.075
-621.390	-92.136	-0.308	-0.088
-620.376	505.448	-0.048	0.111
-619.361	37.163	-0.119	-0.106
-618.346	-200.000	-0.010	0.110
-617.332	-61.663	-0.089	0.038
-616.317	-96.507	0.114	-0.030
-615.303	-37.788	0.116	0.062
-614.288	-33.067	-0.198	0.110
-613.273	-2.231	0.386	-0.272
-612.259	-54.225	-0.106	-0.048
-611.244	-200.000	0.010	0.137
-610.230	424.340	0.184	-0.398
-609.215	190.186	-0.046	0.070
-608.201	-94.408	-0.370	-0.101
-607.186	-200.000	-0.009	0.081
-606.171	-29.860	-0.158	0.090
-605.157	-64.201	-0.148	-0.061
-604.142	99.706	-0.126	-0.146
-603.128	100.517	0.212	0.246
-602.113	3.123	0.196	-0.143
-601.098	-172.390	-0.330	0.011
-600.084	0.204	0.186	-0.133
-599.069	-38.382	0.097	-0.051
-598.055	5.501	-0.201	-0.149
-597.040	-200.000	-0.022	0.263
-596.025	-149.750	-0.105	-0.008
-595.011	-28.918	-0.229	-0.132
-593.996	-37.889	0.132	-0.070
-592.982	-200.000	0.031	-0.142
-591.967	-154.898	0.150	0.010
-590.952	-200.000	0.007	-0.070
-589.938	-45.640	-0.151	0.075
-588.923	140.233	0.170	-0.225
-587.909	57.542	0.109	-0.107
-586.894	60.623	-0.139	0.138
-585.879	336.437	-0.020	0.038
-584.865	139.862	0.164	-0.216
-583.850	-110.770	0.078	-0.016
-582.836	12.374	-0.259	0.200
-581.821	-177.765	0.214	-0.005
-580.806	-95.399	-0.134	-0.036
-579.792	765.679	-0.123	-0.335
-578.777	-200.000	-0.012	-0.167
-577.763	108.397	-0.169	0.202
-576.748	-39.459	0.106	0.056
-575.733	123.957	0.063	-0.079
-574.719	142.264	-0.093	-0.124
-573.704	170.646	0.070	-0.100
-572.690	-200.000	-0.027	0.133
-571.675	-200.000	0.007	-0.071
-570.661	136.117	0.264	-0.345
-569.646	557.610	0.053	-0.129
-568.631	-94.147	0.226	0.062
-567.617	-171.746	0.288	-0.009
-566.602	-81.256	0.254	0.084
-565.588	800.000	-0.134	0.504
-564.573	-110.805	0.274	0.057
-563.558	-200.000	0.007	0.170
-562.544	1.703	0.216	-0.156
-561.529	-200.000	-0.016	0.231
-560.515	206.495	-0.117	0.183
-559.500	446.453	0.047	-0.104
-558.485	33.192	0.395	-0.343
-557.471	68.738	-0.111	-0.114
-556.456	-106.479	-0.411	0.092
-555.442	-85.644	-0.226	0.070
-554.427	734.168	-0.116	0.311
-553.412	-90.780	0.239	-0.069
-552.398	-109.824	-0.328	-0.069
-551.383	-86.718	-0.075	-0.023
-550.369	-29.852	-0.122	-0.069
-549.354	-72.783	0.125	0.046
-548.339	299.300	0.050	-0.092
-547.325	800.000	0.101	-0.370
-546.310	-47.579	-0.165	-0.080
-545.296	-105.607	0.514	-0.117
-544.281	129.539	-0.220	0.281
-543.266	16.236	-0.044	-0.035
-542.252	-200.000	-0.005	0.487
-541.237	81.815	-0.217	0.235
-540.223	-66.047	-0.082	0.033
-539.208	-136.895	-0.146	-0.017
-538.193	-139.154	0.173	0.019
-537.179	-66.264	-0.245	0.098
-536.164	-44.025	-0.160	-0.081
-535.150	-165.536	0.463	0.020
-534.135	219.528	-0.046	0.073
-533.121	-96.965	-0.151	-0.040
-532.106	261.218	0.013	0.023
-531.091	-46.559	0.055	-0.027
-530.077	-200.000	0.069	-0.428
-529.062	-9.036	-0.370	-0.248
-528.048	-22.206	0.080	-0.049
-527.033	800.000	-0.030	0.107
-526.018	-120.915	0.226	0.038
-525.004	713.984	0.152	0.402
-523.989	-66.947	-0.240	0.095
-522.975	-15.597	0.271	0.173
-521.960	296.630	-0.127	-0.233
-520.945	-100.357	0.233	0.058
-519.931	476.554	0.121	0.274
-518.916	-52.164	0.412	0.191
-517.902	-200.000	-0.001	-0.075
-516.887	-139.647	0.294	0.031
-515.872	163.498	-0.104	0.146
-514.858	-200.000	-0.020	0.350
-513.843	146.903	0.033	-0.044
-512.829	104.360	-0.079	0.093
-511.814	-33.394	0.214	-0.118
-510.799	-29.959	0.057	-0.032
-509.785	-200.000	-0.005	-0.044
-508.770	-7.071	-0.071	0.048
-507.756	301.114	0.058	0.107
-506.741	-45.853	0.077	0.038
-505.726	-124.623	-0.192	0.030
-504.712	-115.219	-0.124	-0.023
-503.697	-43.300	-0.133	-0.067
-502.683	800.000	0.094	-0.294
-501.668	-106.293	0.174	-0.039
-500.653	-155.252	0.223	0.015
-499.639	647.132	-0.044	-0.113
-498.624	800.000	0.097	0.316
-497.610	193.726	-0.226	-0.342
-496.595	136.790	0.108	-0.141
-495.581	75.100	0.096	0.101
-494.566	-200.000	-0.016	-0.120
-493.551	-38.200	0.229	0.121
-492.537	-200.000	-0.042	-0.299
-491.522	50.376	-0.109	0.103
-490.508	-160.921	-0.172	-0.009
-489.493	800.000	0.072	0.261
-488.478	226.413	0.147	-0.237
-487.464	726.720	-0.103	-0.275
-486.449	-126.927	0.400	0.059
-485.435	-132.018	0.128	-0.017
-484.420	-78.513	-0.244	-0.083
-483.405	800.000	-0.013	-0.054
-482.391	29.091	-0.149	-0.127
-481.376	19.767	-0.217	0.175
-480.362	-173.276	-0.166	-0.005
-479.347	70.040	-0.195	-0.201
-478.332	-134.731	0.330	-0.040
-477.318	-146.249	0.129	0.011
-476.303	800.000	0.052	-0.173
-475.289	3.278	0.314	0.228
-474.274	15.627	-0.211	-0.165
-473.259	-46.212	-0.086	0.042
-472.245	142.357	0.243	0.323
-471.230	-98.002	-0.510	0.131
-470.216	51.438	0.171	-0.162
-469.201	-200.000	0.033	-0.162
-468.186	-38.307	0.167	0.088
-467.172	-109.303	-0.221	-0.047
-466.157	19.475	-0.104	-0.084
-465.143	25.777	-0.249	-0.207
-464.128	181.427	-0.290	-0.426
-463.113	30.167	-0.163	-0.139
-462.099	122.872	-0.144	0.179
-461.084	253.825	-0.111	0.190
-460.070	45.893	0.119	0.110
-459.055	800.000	0.046	-0.129
-458.040	-43.604	-0.187	0.094
-457.026	14.434	0.164	0.128
-456.011	800.000	-0.063	0.232
-454.997	-200.000	0.028	-0.169
-453.982	46.969	0.090	0.083
-452.968	272.786	-0.175	0.308
-451.953	-200.000	-0.016	0.296
-450.938	179.997	0.136	0.199
-449.924	-115.808	-0.442	0.082
-448.909	270.257	-0.209	-0.367
-447.895	1.560	-0.218	-0.156
-446.880	155.089	-0.115	0.157
-445.865	-139.818	0.171	-0.018
-444.851	800.000	-0.125	-0.397
-443.836	-96.354	-0.289	0.076
-442.822	44.170	-0.122	-0.111
-441.807	432.432	0.093	-0.200
-440.792	-62.212	-0.299	-0.124
-439.778	-60.846	-0.279	-0.118
-438.763	-82.122	0.034	-0.011
-437.749	197.614	-0.029	-0.044
-436.734	800.000	-0.069	0.254
-435.719	-81.209	0.048	-0.016
-434.705	-52.537	-0.269	-0.124
-433.690	141.633	-0.212	0.280
-432.676	800.000	-0.112	-0.336
-431.661	66.382	0.191	-0.194
-430.646	800.000	-0.018	0.066
-429.632	-139.975	0.128	-0.013
-428.617	-117.163	0.277	-0.050
-427.603	695.398	0.184	0.480
-426.588	254.557	-0.139	0.237
-425.573	-92.785	0.182	-0.051
-424.559	-200.000	-0.007	0.038
-423.544	-200.000	-0.047	0.230
-422.530	-88.544	0.424	0.126
-421.515	91.872	-0.169	-0.190
-420.500	93.199	0.187	0.211
-419.486	-76.865	0.080	0.028
-418.471	-139.348	-0.122	0.013
-417.457	-133.002	0.497	-0.063
-416.442	800.000	0.051	-0.146
-415.428	-12.404	-0.216	0.140
-414.413	280.977	0.134	0.239
-413.398	-178.435	0.244	0.006
-412.384	706.891	0.063	0.164
-411.369	-105.696	-0.070	0.016
-410.355	-2.039	-0.011	-0.008
-409.340	751.714	0.076	0.205
-408.325	-139.013	0.445	-0.048
-407.311	74.088	-0.254	0.266
-406.296	-54.950	0.296	-0.133
-405.282	-97.325	-0.038	-0.010
-404.267	203.758	-0.133	0.205
-403.252	267.657	-0.163	-0.284
-402.238	414.858	-0.052	0.111
-401.223	-78.975	0.168	-0.057
-400.209	-8.391	-0.165	-0.110
-399.194	27.683	-0.070	0.058
-398.179	800.000	-0.049	-0.160
-397.165	-30.381	-0.148	0.083
-396.150	325.351	0.167	-0.318
-395.136	-131.436	0.384	0.050
-394.121	590.452	-0.135	-0.331
-393.106	391.325	0.032	-0.066
-392.092	114.522	-0.245	-0.297
-391.077	800.000	-0.066	0.225
-390.063	-200.000	0.057	0.314
-389.048	104.131	-0.262	0.306
-388.033	172.146	0.079	-0.113
-387.019	332.393	0.093	-0.179
-386.004	800.000	0.100	0.351
-384.990	-142.705	0.452	0.044
-383.975	234.022	-0.191	-0.313
-382.960	-114.647	-0.501	-0.095
-381.946	15.648	0.280	-0.219
-380.931	-196.530	0.043	-0.000
-379.917	146.971	0.113	-0.151
-378.902	75.545	-0.223	0.234
-377.888	159.658	-0.108	0.150
-376.873	141.699	-0.090	0.119
-375.858	-200.000	0.045	-0.442
-374.844	427.167	0.031	0.066
-373.829	199.891	0.188	-0.288
-372.815	110.355	-0.220	0.262
-371.800	336.878	0.119	0.231
-370.785	69.887	-0.011	-0.011
-369.771	-200.000	0.024	0.173
-368.756	3.213	-0.175	-0.126
-367.742	41.583	-0.224	-0.202
-366.727	87.444	-0.086	0.095
-365.712	23.907	0.130	-0.107
-364.698	800.000	0.060	-0.205
-363.683	-200.000	-0.057	0.274
-362.669	79.929	-0.198	0.212
-361.654	-51.400	-0.112	0.052
-360.639	-75.825	-0.110	0.039
-359.625	-115.496	0.246	-0.046
-358.610	-200.000	-0.049	0.342
-357.596	87.929	0.179	-0.197
-356.581	-7.864	0.126	-0.085
-355.566	78.664	0.253	-0.269
-354.552	-97.048	0.088	-0.023
-353.537	-122.298	-0.352	-0.057
-352.523	446.454	-0.101	-0.221
-351.508	-126.208	0.594	0.088
-350.493	-5.904	-0.177	-0.120
-349.479	-145.724	0.318	0.028
-348.464	697.018	-0.067	-0.176
-347.450	-11.642	-0.169	-0.110
-346.435	-65.661	0.252	-0.100
-345.420	-65.898	0.314	0.125
-344.406	-200.000	0.000	-0.122
-343.391	298.742	-0.097	-0.178
-342.377	-99.293	-0.401	-0.101
-341.362	-200.000	0.036	0.228
-340.348	-200.000	-0.057	0.395
-339.333	115.643	0.172	0.209
-338.318	48.366	0.073	0.068
-337.304	-200.000	0.045	0.355
-336.289	62.525	0.125	0.124
-335.275	271.162	0.144	-0.252
-334.260	-117.385	-0.107	0.019
-333.245	-74.616	-0.140	0.050
-332.231	-128.791	0.364	-0.051
-331.216	-79.511	0.110	-0.037
-330.202	-19.515	-0.165	0.101
-329.187	78.587	-0.075	0.079
-328.172	-17.249	0.207	0.129
-327.158	-33.240	-0.267	-0.147
-326.143	-200.000	0.059	-0.558
-325.129	135.776	-0.195	0.252
-324.114	340.287	0.064	0.125
-323.099	18.418	0.099	0.078
-322.085	-101.550	-0.092	0.022
-321.070	3.852	-0.123	-0.089
-320.056	10.985	0.103	0.078
-319.041	800.000	-0.111	0.475
-318.026	-67.490	-0.206	-0.080
-317.012	800.000	0.036	-0.101
-315.997	-30.596	0.315	0.177
-314.983	-200.000	-0.048	0.267
-313.968	28.993	-0.291	-0.245
-312.953	-200.000	-0.021	0.206
-311.939	-200.000	-0.035	-0.167
-310.924	-15.123	0.207	-0.132
-309.910	-153.306	-0.176	-0.012
-308.895	91.447	0.165	-0.184
-307.880	-66.697	0.211	0.083
-306.866	-200.000	-0.009	-0.144
-305.851	-200.000	0.001	-0.058
-304.837	-142.274	-0.372	-0.036
-303.822	4.943	0.185	0.135
-302.807	192.665	0.060	0.089
-301.793	192.031	-0.093	-0.139
-300.778	10.183	-0.049	0.037
-299.764	-200.000	0.025	-0.182
-298.749	19.315	0.139	0.110
-297.735	103.448	-0.067	-0.078
-296.720	-200.000	-0.018	-0.196
-295.705	800.000	-0.119	-0.466
-294.691	-136.195	0.166	-0.019
-293.676	44.018	-0.225	0.205
-292.662	200.953	0.111	-0.169
-291.647	-200.000	-0.019	-0.307
-290.632	-48.706	-0.234	-0.112
-289.618	-118.276	0.156	-0.028
-288.603	103.251	0.050	-0.058
-287.589	684.575	-0.180	0.465
-286.574	-66.794	0.392	0.154
-285.559	-200.000	-0.038	0.298
-284.545	800.000	0.047	0.133
-283.530	698.720	-0.066	-0.172
-282.516	252.815	-0.094	-0.159
-281.501	233.246	0.074	0.121
-280.486	-200.000	-0.033	-0.241
-279.472	-79.547	-0.389	0.130
-278.457	-64.321	-0.188	0.076
-277.443	-24.547	-0.342	0.201
-276.428	459.252	0.146	0.323
-275.413	-120.318	0.202	0.034
-274.399	35.767	0.267	-0.232
-273.384	233.358	0.054	0.088
-272.370	21.046	-0.143	0.115
-271.355	-94.353	-0.193	0.052
-270.340	-36.664	0.114	-0.061
-269.326	-68.102	-0.021	0.008
-268.311	-200.000	0.033	0.335
-267.297	65.125	0.044	0.044
-266.282	-200.000	0.005	-0.245
-265.267	-124.761	0.154	0.024
-264.253	-153.479	-0.248	0.017
-263.238	-200.000	0.013	-0.192
-262.224	-200.000	-0.033	0.270
-261.209	-68.030	0.116	-0.045
-260.195	-200.000	0.002	-0.183
-259.180	683.398	-0.096	0.248
-258.165	165.521	0.105	-0.147
-257.151	423.156	0.034	-0.073
-256.136	-21.362	0.242	0.146
-255.122	80.113	-0.221	0.236
-254.107	203.134	0.064	0.098
-253.092	-26.838	-0.071	0.041
-252.078	-38.209	-0.150	0.079
-251.063	-6.141	0.192	-0.130
-250.049	155.826	-0.212	-0.289
-249.034	800.000	-0.110	0.403
-248.019	-21.359	-0.062	-0.037
-247.005	800.000	-0.053	-0.163
-245.990	173.794	0.167	0.239
-244.976	92.214	-0.133	0.149
-243.961	24.106	-0.037	0.031
-242.946	103.525	-0.158	0.183
-241.932	193.335	-0.191	-0.285
-240.917	215.409	0.133	0.209
-239.903	162.177	0.156	0.217
-238.888	271.264	0.067	0.117
-237.873	-200.000	0.031	-0.200
-236.859	-18.298	0.211	-0.131
-235.844	-72.753	0.082	-0.030
-234.830	-68.877	0.316	0.121
-233.815	-200.000	-0.017	0.626
-232.800	-45.642	0.151	-0.074
-231.786	-62.656	-0.240	-0.098
-230.771	-200.000	-0.023	-0.122
-229.757	-36.600	0.139	0.074
-228.742	22.799	-0.104	0.084
-227.727	-200.000	0.028	0.256
-226.713	800.000	0.072	-0.294
-225.698	6.468	-0.076	0.055
-224.684	-161.817	0.372	-0.019
-223.669	115.122	0.054	-0.065
-222.655	107.439	0.079	0.093
-221.640	93.614	-0.222	0.249
-220.625	-178.060	-0.158	0.004
-219.611	-200.000	0.026	0.206
-218.596	145.872	0.101	0.134
-217.582	-200.000	0.016	0.198
-216.567	-10.159	0.247	0.162
-215.552	-200.000	-0.008	0.153
-214.538	-200.000	0.051	0.282
-213.523	-102.968	0.164	0.039
-212.509	11.392	-0.242	-0.183
-211.494	39.496	-0.115	-0.102
-210.479	-100.580	-0.287	0.070
-209.465	63.979	-0.162	0.160
-208.450	-163.988	0.200	0.009
-207.436	-5.128	0.083	-0.057
-206.421	-57.980	-0.290	-0.125
-205.406	311.635	-0.074	0.137
-204.392	800.000	0.041	0.157
-203.377	-155.918	0.172	0.011
-202.363	99.664	0.296	-0.339
-201.348	24.254	-0.441	-0.360
-200.333	226.748	-0.068	-0.109
-199.319	-37.095	-0.325	0.172
-198.304	-200.000	0.010	0.059
-197.290	-89.004	0.209	-0.061
-196.275	800.000	0.111	-0.390
-195.260	706.245	0.155	0.404
-194.246	-9.809	-0.054	-0.036
-193.231	-49.682	0.274	-0.129
-192.217	300.306	0.097	-0.177
-191.202	-129.050	0.265	-0.037
-190.187	86.387	0.257	-0.279
-189.173	47.982	0.280	-0.258
-188.158	85.336	0.116	-0.125
-187.144	-60.423	0.204	-0.085
-186.129	-97.021	0.146	0.038
-185.114	-200.000	-0.006	0.174
-184.100	-40.016	-0.176	-0.091
-183.085	800.000	-0.107	-0.309
-182.071	189.805	-0.087	0.129
-181.056	-28.922	0.139	0.079
-180.042	122.336	-0.033	0.041
-179.027	66.135	0.022	0.022
-178.012	201.901	-0.119	0.181
-176.998	435.609	-0.051	-0.110
-175.983	-57.393	-0.290	-0.126
-174.969	7.583	-0.115	0.085
-173.954	-117.656	-0.158	-0.028
-172.939	192.948	-0.046	0.068
-171.925	124.613	0.438	-0.544
-170.910	-175.455	0.270	0.007
-169.896	-200.000	0.043	-0.449
-168.881	-77.215	-0.333	0.114
-167.866	-31.788	0.239	-0.132
-166.852	800.000	-0.068	-0.211
-165.837	-175.709	-0.156	-0.004
-164.823	-37.343	-0.184	0.097
-163.808	-36.827	0.249	-0.132
-162.793	80.356	0.208	-0.221
-161.779	747.096	-0.086	-0.227
-160.764	69.355	-0.241	0.245
-159.750	166.550	-0.236	-0.330
-158.735	800.000	0.016	-0.057
-157.720	29.794	0.128	-0.107
-156.706	68.018	0.055	0.055
-155.691	-58.050	-0.249	-0.107
-154.677	800.000	0.059	-0.228
-153.662	-21.415	-0.207	0.124
-152.647	800.000	-0.052	-0.209
-151.633	-104.418	0.291	0.066
-150.618	420.875	-0.173	0.366
-149.604	336.655	0.168	-0.322
-148.589	274.392	-0.082	0.143
-147.574	319.138	0.213	0.399
-146.560	486.693	-0.015	-0.033
-145.545	-90.512	-0.270	-0.077
-144.531	-200.000	-0.226	-0.001
-143.516	-200.000	0.001	-0.055
-142.502	-200.000	-0.004	-0.109
-141.487	141.069	0.130	0.170
-140.472	54.843	-0.082	0.078
-139.458	-55.964	-0.059	0.026
-138.443	800.000	-0.052	0.199
-137.429	-200.000	0.003	-0.366
-136.414	-198.972	0.275	0.001
-135.399	19.639	0.289	-0.229
-134.385	257.552	-0.120	0.203
-133.370	-15.064	-0.080	0.051
-132.356	-99.094	0.116	0.029
-131.341	100.947	-0.138	-0.158
-130.326	-10.921	-0.120	0.078
-129.312	-200.000	0.014	0.216
-128.297	-171.391	0.599	0.020
-127.283	-200.000	-0.055	-0.329
-126.268	-200.000	-0.035	-0.164
-125.253	-200.000	0.017	-0.214
-124.239	-19.325	-0.203	-0.124
-123.224	63.136	-0.315	-0.311
-122.210	-123.866	-0.369	0.057
-121.195	-165.649	0.230	0.010
