DTS Sentinel unit serial number:	SN413079Multiplexer serial number:	ORYXHardware model number:	OX4-SRSoftware version number:	ORYX F/W v4.00 Oryx Data Collector v3.7.2.0data status	okinstallation	princeton_trtdifferential loss correction	single-endedforward channel	channel 2reverse channel	N/Adate	2019/09/13time	04:15:34forward acquisition time	60.00reverse acquisition time	0.00gamma	496.2192k internal	0.2337k external	0.2337temperature offset calibration	1.0188default loss term (dB/km)	0.3790temperature slope calibration	1.0000multiplexer offset coefficient	1.0000multiplexer slope coefficient	1.0000fibre end	0.00T internal ref (°C)	26.87T ext. ref 1 (°C)	4.05T ext. ref 2 (°C)	21.25length (m)	temperature (°C)	Stokes	anti-Stokes-747.200	-200.000	0.009	0.076
-746.185	-200.000	0.026	0.417
-745.171	-52.414	0.171	-0.079
-744.156	-122.236	-0.114	-0.019
-743.142	-200.000	0.025	-0.183
-742.127	205.511	0.128	0.200
-741.112	-94.341	0.059	-0.016
-740.098	65.363	0.181	0.184
-739.083	-104.265	0.234	-0.054
-738.069	203.176	0.166	0.257
-737.054	800.000	-0.031	0.109
-736.039	606.662	0.181	-0.453
-735.025	-4.677	-0.042	-0.029
-734.010	-56.767	-0.180	0.080
-732.996	129.389	-0.042	0.053
-731.981	-0.615	-0.387	-0.276
-730.966	-138.652	-0.138	-0.015
-729.952	-109.718	-0.370	0.078
-728.937	-200.000	-0.065	-0.334
-727.923	115.262	0.085	-0.104
-726.908	-5.661	-0.175	0.120
-725.894	-200.000	0.027	0.151
-724.879	-150.965	0.083	-0.006
-723.864	-66.406	-0.367	0.146
-722.850	-200.000	0.005	0.048
-721.835	-113.650	-0.272	0.053
-720.821	111.187	0.076	0.092
-719.806	196.288	-0.094	-0.144
-718.791	13.643	-0.191	-0.149
-717.777	74.375	-0.154	-0.163
-716.762	621.112	0.070	0.176
-715.748	-40.604	-0.156	0.081
-714.733	-200.000	0.013	-0.081
-713.718	800.000	-0.088	-0.377
-712.704	-44.451	-0.306	-0.153
-711.689	773.232	-0.108	0.295
-710.675	-162.740	-0.207	-0.010
-709.660	565.541	0.018	0.044
-708.645	-101.008	0.452	0.111
-707.631	800.000	-0.038	0.136
-706.616	264.755	0.103	-0.180
-705.602	-200.000	-0.031	-0.229
-704.587	800.000	-0.061	-0.245
-703.572	9.358	-0.326	0.247
-702.558	-64.595	-0.098	-0.040
-701.543	800.000	0.032	-0.131
-700.529	800.000	-0.047	-0.171
-699.514	-41.762	0.388	0.199
-698.499	-57.904	-0.368	0.161
-697.485	-43.245	-0.062	-0.031
-696.470	339.512	0.069	-0.134
-695.456	800.000	0.068	-0.267
-694.441	-200.000	-0.005	0.150
-693.426	-200.000	0.036	-0.240
-692.412	101.683	-0.108	-0.127
-691.397	185.018	-0.034	0.050
-690.383	-200.000	0.010	-0.115
-689.368	158.850	0.061	0.085
-688.354	-200.000	-0.044	0.276
-687.339	-125.167	0.120	-0.018
-686.324	-51.221	0.100	-0.047
-685.310	-200.000	0.019	-0.120
-684.295	-113.163	-0.026	-0.005
-683.281	554.701	0.018	-0.044
-682.266	800.000	0.068	0.294
-681.251	-200.000	0.032	-0.358
-680.237	-9.573	-0.313	-0.209
-679.222	-142.566	-0.240	-0.024
-678.208	800.000	-0.090	-0.355
-677.193	-95.966	0.177	-0.047
-676.178	-83.978	-0.090	-0.029
-675.164	-82.117	-0.285	0.093
-674.149	-200.000	0.028	0.274
-673.135	-200.000	0.068	-0.335
-672.120	89.206	-0.152	-0.169
-671.105	-200.000	-0.051	-0.286
-670.091	-200.000	0.037	0.347
-669.076	-145.961	-0.328	0.029
-668.062	-141.435	0.324	-0.033
-667.047	268.933	-0.118	0.206
-666.032	-200.000	0.004	-0.048
-665.018	-15.668	-0.235	-0.150
-664.003	-146.787	-0.145	0.013
-662.989	284.084	-0.188	0.338
-661.974	118.063	0.178	-0.219
-660.959	-200.000	-0.003	-0.058
-659.945	40.740	0.216	-0.195
-658.930	-200.000	-0.026	-0.197
-657.916	29.901	0.085	0.073
-656.901	-129.790	0.285	0.039
-655.886	-7.968	-0.149	0.101
-654.872	-200.000	-0.001	-0.048
-653.857	-133.035	-0.223	0.028
-652.843	38.829	-0.320	0.285
-651.828	-200.000	0.030	0.161
-650.814	800.000	-0.122	0.386
-649.799	800.000	0.020	0.061
-648.784	-133.744	-0.095	-0.012
-647.770	30.184	-0.398	-0.340
-646.755	95.424	0.215	-0.246
-645.741	218.243	-0.150	0.239
-644.726	-200.000	-0.292	0.000
-643.711	800.000	-0.046	-0.184
-642.697	-20.249	-0.187	-0.115
-641.682	800.000	-0.124	-0.347
-640.668	356.609	0.327	-0.652
-639.653	127.822	0.114	-0.145
-638.638	-30.931	-0.129	0.073
-637.624	-91.022	-0.233	-0.067
-636.609	-200.000	0.050	-0.340
-635.595	119.142	0.124	0.153
-634.580	141.817	0.257	-0.341
-633.565	-200.000	-0.027	0.137
-632.551	-75.020	-0.170	0.061
-631.536	686.460	0.056	0.145
-630.522	-111.672	0.091	0.018
-629.507	-3.954	-0.293	-0.203
-628.492	-131.103	0.236	0.031
-627.478	605.099	0.070	-0.175
-626.463	124.779	-0.154	-0.194
-625.449	-13.628	0.135	-0.088
-624.434	-55.956	-0.246	0.109
-623.419	-150.960	0.229	-0.017
-622.405	-200.000	0.007	-0.255
-621.390	-110.590	0.245	0.051
-620.376	792.874	-0.056	-0.153
-619.361	-200.000	-0.036	-0.220
-618.346	-89.283	-0.194	0.057
-617.332	-200.000	-0.025	0.178
-616.317	349.299	-0.047	-0.092
-615.303	-51.449	0.150	0.070
-614.288	-200.000	0.056	0.274
-613.273	-41.293	0.113	0.058
-612.259	-200.000	0.006	-0.043
-611.244	-170.556	0.010	-0.000
-610.230	800.000	-0.109	0.343
-609.215	113.034	0.061	0.073
-608.201	-200.000	-0.020	-0.229
-607.186	-132.342	-0.233	-0.030
-606.171	-200.000	0.080	-0.465
-605.157	-93.356	0.024	0.007
-604.142	-31.619	-0.278	-0.156
-603.128	-127.204	-0.125	-0.018
-602.113	800.000	0.089	-0.311
-601.098	800.000	0.087	-0.319
-600.084	800.000	-0.051	0.166
-599.069	-53.247	-0.257	0.118
-598.055	7.284	-0.169	-0.126
-597.040	30.765	-0.242	-0.207
-596.025	-112.112	-0.313	-0.063
-595.011	800.000	-0.092	-0.263
-593.996	-50.439	0.119	-0.056
-592.982	-108.388	0.344	0.074
-591.967	255.639	0.188	0.322
-590.952	-184.024	-0.254	0.004
-589.938	-80.485	-0.196	-0.065
-588.923	655.128	0.149	-0.382
-587.909	-200.000	-0.008	-0.073
-586.894	-184.561	0.316	-0.005
-585.879	354.468	0.187	-0.370
-584.865	-85.563	0.211	-0.065
-583.850	50.028	0.181	-0.170
-582.836	-200.000	0.007	0.119
-581.821	11.625	0.053	-0.041
-580.806	-200.000	0.007	0.304
-579.792	800.000	0.029	0.080
-578.777	722.750	-0.164	-0.436
-577.763	391.828	0.046	-0.096
-576.748	-162.189	-0.165	-0.008
-575.733	-200.000	0.047	0.299
-574.719	-154.937	-0.159	-0.010
-573.704	-21.751	-0.097	-0.059
-572.690	29.472	0.324	-0.274
-571.675	800.000	-0.073	0.217
-570.661	-200.000	-0.047	-0.238
-569.646	800.000	-0.038	-0.121
-568.631	-179.734	0.052	0.001
-567.617	-41.593	0.134	-0.069
-566.602	-200.000	-0.004	0.282
-565.588	-10.717	-0.237	-0.156
-564.573	38.335	0.281	0.249
-563.558	-79.524	-0.071	-0.024
-562.544	277.100	-0.017	-0.030
-561.529	-150.613	-0.101	-0.008
-560.515	-200.000	-0.070	-0.435
-559.500	-200.000	-0.019	0.151
-558.485	140.309	-0.042	0.055
-557.471	800.000	-0.005	-0.021
-556.456	-14.311	0.397	-0.255
-555.442	-97.104	-0.104	-0.027
-554.427	54.177	0.166	-0.159
-553.412	-44.055	0.135	0.068
-552.398	-200.000	-0.025	-0.279
-551.383	248.913	-0.091	-0.154
-550.369	135.980	0.152	0.198
-549.354	-77.799	0.227	0.078
-548.339	362.395	0.211	-0.422
-547.325	761.488	-0.107	-0.290
-546.310	284.317	-0.106	-0.190
-545.296	86.014	-0.114	-0.125
-544.281	-105.566	0.292	0.066
-543.266	800.000	0.047	0.188
-542.252	13.424	0.247	-0.191
-541.237	-200.000	0.014	-0.142
-540.223	203.287	-0.198	0.306
-539.208	-83.438	0.085	-0.027
-538.193	-173.306	0.336	0.010
-537.179	-56.231	0.229	-0.102
-536.164	-62.029	0.228	0.095
-535.150	-200.000	0.002	-0.094
-534.135	-24.364	-0.277	0.164
-533.121	44.816	-0.269	-0.246
-532.106	68.161	0.122	-0.124
-531.091	-46.182	0.204	-0.100
-530.077	-200.000	-0.058	0.438
-529.062	685.985	0.090	0.233
-528.048	184.797	-0.116	0.171
-527.033	78.212	0.165	-0.176
-526.018	-120.306	-0.267	0.045
-525.004	15.008	0.119	-0.092
-523.989	-200.000	-0.025	-0.119
-522.975	-200.000	-0.046	0.256
-521.960	-200.000	0.022	-0.173
-520.945	-71.721	0.113	0.042
-519.931	-200.000	0.010	-0.137
-518.916	70.781	-0.108	-0.112
-517.902	-66.639	0.155	0.061
-516.887	-33.135	0.096	0.053
-515.872	-52.973	-0.244	-0.112
-514.858	8.712	0.154	0.116
-513.843	549.616	0.113	-0.270
-512.829	65.131	0.127	-0.128
-511.814	199.123	0.142	0.216
-510.799	-118.252	-0.047	0.008
-509.785	121.814	-0.167	-0.207
-508.770	-200.000	-0.017	-0.121
-507.756	800.000	-0.059	-0.208
-506.741	76.911	0.148	0.156
-505.726	800.000	0.102	0.338
-504.712	94.724	0.237	-0.268
-503.697	800.000	-0.041	0.127
-502.683	-17.633	-0.347	-0.217
-501.668	-51.632	0.060	0.028
-500.653	-200.000	0.030	0.184
-499.639	-11.345	-0.201	-0.132
-498.624	-200.000	-0.023	0.257
-497.610	6.696	0.066	0.049
-496.595	-125.731	-0.114	0.017
-495.581	-101.259	0.202	-0.049
-494.566	-75.490	-0.166	-0.059
-493.551	-200.000	-0.025	0.170
-492.537	-200.000	0.020	-0.300
-491.522	-200.000	-0.044	-0.229
-490.508	-91.648	-0.400	-0.113
-489.493	367.194	-0.097	-0.195
-488.478	-38.633	0.312	0.164
-487.464	63.181	-0.072	0.072
-486.449	123.927	0.229	0.286
-485.435	-200.000	0.069	0.330
-484.420	177.037	-0.133	-0.193
-483.405	-43.221	0.105	-0.053
-482.391	212.843	0.112	0.176
-481.376	42.616	-0.424	0.383
-480.362	-200.000	-0.008	0.074
-479.347	-63.493	-0.114	0.046
-478.332	-200.000	-0.027	-0.180
-477.318	800.000	-0.024	-0.084
-476.303	-200.000	-0.064	0.314
-475.289	-200.000	-0.001	0.329
-474.274	280.125	0.040	-0.071
-473.259	229.184	-0.181	0.294
-472.245	-61.441	-0.128	0.053
-471.230	-84.326	-0.341	0.107
-470.216	-200.000	-0.024	0.304
-469.201	300.591	0.108	0.199
-468.186	9.144	0.081	0.061
-467.172	750.993	0.031	0.083
-466.157	83.284	0.025	-0.027
-465.143	308.780	0.110	-0.204
-464.128	800.000	0.025	0.107
-463.113	-81.414	0.274	0.090
-462.099	-3.698	0.269	-0.186
-461.084	-200.000	0.030	-0.411
-460.070	-78.230	-0.177	-0.060
-459.055	-200.000	0.050	-0.233
-458.040	800.000	-0.070	-0.222
-457.026	253.695	-0.079	0.134
-456.011	-45.385	0.383	-0.188
-454.997	164.832	0.158	-0.222
-453.982	208.957	-0.154	0.239
-452.968	-200.000	0.001	0.415
-451.953	800.000	-0.088	0.346
-450.938	-40.724	0.066	0.034
-449.924	172.560	0.087	-0.124
-448.909	-136.403	0.097	-0.011
-447.895	-80.943	-0.208	0.069
-446.880	22.705	-0.240	-0.195
-445.865	19.756	-0.020	-0.016
-444.851	800.000	-0.110	0.348
-443.836	-200.000	-0.014	-0.183
-442.822	-117.098	0.367	-0.066
-441.807	-71.784	0.231	-0.085
-440.792	-168.822	0.105	0.004
-439.778	-73.629	-0.182	0.066
-438.763	25.413	-0.303	0.250
-437.749	-83.149	0.269	-0.086
-436.734	-22.653	-0.184	0.111
-435.719	-200.000	0.019	-0.215
-434.705	-200.000	0.015	-0.275
-433.690	42.029	-0.147	-0.132
-432.676	-57.565	-0.351	-0.153
-431.661	582.549	-0.067	0.162
-430.646	442.417	0.052	-0.113
-429.632	53.285	0.319	0.303
-428.617	800.000	-0.077	-0.222
-427.603	444.965	-0.194	-0.422
-426.588	369.726	-0.066	0.133
-425.573	138.971	-0.261	0.341
-424.559	15.995	-0.133	0.104
-423.544	-200.000	-0.009	0.378
-422.530	187.170	0.202	0.298
-421.515	-77.604	0.179	-0.062
-420.500	800.000	0.053	0.155
-419.486	-200.000	0.009	-0.215
-418.471	-200.000	-0.023	-0.233
-417.457	-111.547	-0.232	-0.047
-416.442	3.619	-0.191	-0.138
-415.428	-200.000	0.022	-0.173
-414.413	800.000	0.040	-0.168
-413.398	127.744	-0.123	0.155
-412.384	800.000	0.052	0.222
-411.369	270.417	-0.145	0.253
-410.355	61.469	0.143	0.141
-409.340	-200.000	0.002	-0.176
-408.325	199.466	0.136	0.207
-407.311	-158.695	-0.152	0.009
-406.296	-83.429	0.386	0.123
-405.282	-200.000	-0.074	0.397
-404.267	609.937	-0.016	0.040
-403.252	16.253	0.207	0.162
-402.238	234.176	0.189	0.308
-401.223	70.107	-0.264	0.270
-400.209	-89.625	0.052	0.015
-399.194	141.886	0.026	0.034
-398.179	-10.835	0.348	0.228
-397.165	622.439	-0.056	0.140
-396.150	-127.895	-0.142	-0.020
-395.136	-3.520	0.113	0.078
-394.121	-96.811	-0.335	-0.087
-393.106	-80.523	-0.138	-0.046
-392.092	-200.000	0.037	-0.274
-391.077	800.000	0.020	0.064
-390.063	208.563	0.082	0.126
-389.048	99.692	0.156	-0.179
-388.033	-200.000	-0.028	-0.144
-387.019	-47.737	0.239	-0.115
-386.004	800.000	0.046	-0.133
-384.990	-76.265	0.501	-0.175
-383.975	-93.710	-0.137	-0.037
-382.960	133.513	0.033	-0.042
-381.946	85.361	0.253	0.275
-380.931	-41.978	0.203	0.103
-379.917	800.000	0.117	0.344
-378.902	-112.197	-0.353	0.070
-377.888	568.369	-0.052	-0.125
-376.873	800.000	0.050	-0.163
-375.858	-48.218	-0.497	-0.237
-374.844	-2.054	0.170	-0.118
-373.829	-166.299	-0.119	0.005
-372.815	-62.344	0.325	-0.134
-371.800	-104.648	0.332	0.076
-370.785	-42.240	0.035	-0.018
-369.771	-200.000	0.027	0.139
-368.756	-23.627	-0.084	-0.050
-367.742	772.984	0.064	0.172
-366.727	50.333	-0.262	-0.245
-365.712	-28.355	-0.050	0.028
-364.698	-54.389	-0.280	0.126
-363.683	-72.348	-0.287	-0.105
-362.669	79.717	-0.111	0.117
-361.654	-200.000	0.045	-0.248
-360.639	-84.934	-0.041	-0.013
-359.625	-200.000	-0.248	-0.000
-358.610	26.161	0.150	0.124
-357.596	412.822	0.180	0.378
-356.581	-18.534	0.069	0.043
-355.566	800.000	-0.013	-0.048
-354.552	-200.000	-0.038	-0.377
-353.537	-108.513	-0.175	-0.037
-352.523	800.000	0.064	-0.224
-351.508	-105.734	-0.096	0.021
-350.493	-200.000	0.035	-0.180
-349.479	-132.488	0.299	0.038
-348.464	-200.000	-0.008	0.083
-347.450	32.169	0.099	-0.084
-346.435	-89.091	-0.123	0.036
-345.420	248.278	0.136	0.227
-344.406	-4.425	0.072	-0.049
-343.391	-188.300	0.231	-0.003
-342.377	-177.308	-0.255	0.006
-341.362	-87.237	-0.192	0.058
-340.348	800.000	0.029	-0.122
-339.333	622.283	-0.138	-0.342
-338.318	12.411	-0.142	0.108
-337.304	-37.807	0.119	-0.063
-336.289	58.860	0.213	-0.207
-335.275	607.086	0.119	0.294
-334.260	-64.830	-0.240	0.096
-333.245	-189.128	-0.170	0.002
-332.231	-168.381	-0.199	-0.008
-331.216	-9.721	0.157	0.103
-330.202	643.255	-0.052	0.132
-329.187	-148.848	-0.250	-0.020
-328.172	10.705	0.032	-0.024
-327.158	50.641	0.150	-0.140
-326.143	-31.219	0.392	-0.218
-325.129	55.190	-0.108	0.103
-324.114	91.799	-0.183	0.204
-323.099	-169.336	-0.247	0.009
-322.085	-0.901	0.140	-0.098
-321.070	800.000	0.028	0.084
-320.056	5.984	0.318	0.233
-319.041	-90.226	0.202	-0.058
-318.026	-74.679	-0.164	-0.058
-317.012	-133.639	-0.224	0.028
-315.997	150.102	0.077	0.103
-314.983	-76.303	-0.360	0.125
-313.968	153.768	0.164	-0.222
-312.953	800.000	-0.032	0.109
-311.939	-164.994	-0.152	0.007
-310.924	-142.777	0.104	0.010
-309.910	-121.165	0.251	-0.042
-308.895	67.162	0.144	0.145
-307.880	-77.774	-0.456	-0.156
-306.866	-165.207	0.097	-0.004
-305.851	-102.567	-0.124	0.029
-304.837	-159.693	0.279	0.015
-303.822	-143.575	-0.104	-0.010
-302.807	-8.014	-0.240	0.160
-301.793	800.000	0.023	-0.076
-300.778	44.597	0.147	-0.133
-299.764	-200.000	0.036	0.315
-298.749	355.933	-0.086	-0.168
-297.735	41.702	0.193	0.173
-296.720	-101.354	-0.355	-0.085
-295.705	33.668	-0.270	-0.231
-294.691	-144.197	-0.200	0.018
-293.676	-9.819	-0.098	-0.064
-292.662	-81.847	-0.368	-0.119
-291.647	-163.281	0.239	0.011
-290.632	-200.000	-0.028	0.202
-289.618	-55.922	-0.248	-0.109
-288.603	48.995	-0.209	0.193
-287.589	17.825	-0.512	0.402
-286.574	14.473	0.032	0.024
-285.559	-200.000	0.018	0.172
-284.545	-17.642	0.131	0.081
-283.530	-200.000	0.032	-0.147
-282.516	353.764	-0.048	-0.093
-281.501	800.000	0.059	-0.230
-280.486	800.000	0.076	-0.255
-279.472	-43.358	-0.126	0.063
-278.457	-166.859	0.178	0.007
-277.443	-32.491	0.187	-0.103
-276.428	-200.000	-0.051	0.224
-275.413	75.627	-0.044	0.046
-274.399	-66.919	-0.117	-0.046
-273.384	-153.933	-0.251	-0.017
-272.370	-36.226	0.143	-0.076
-271.355	66.568	0.193	0.194
-270.340	-168.926	0.159	0.006
-269.326	179.697	-0.126	0.182
-268.311	-70.711	0.274	-0.102
-267.297	-106.822	0.218	-0.048
-266.282	-21.933	-0.151	-0.090
-265.267	800.000	0.061	0.247
-264.253	-200.000	0.007	-0.046
-263.238	-72.327	-0.271	0.099
-262.224	734.021	-0.070	0.186
-261.209	-200.000	0.002	0.231
-260.195	-15.426	0.125	0.079
-259.180	-200.000	-0.237	0.000
-258.165	403.387	0.084	-0.175
-257.151	-200.000	-0.049	0.281
-256.136	-95.329	0.294	-0.078
-255.122	-200.000	-0.001	-0.230
-254.107	-108.670	0.134	-0.028
-253.092	339.536	-0.166	-0.319
-252.078	182.428	0.104	0.151
-251.063	636.181	-0.047	0.118
-250.049	16.940	-0.388	-0.302
-249.034	384.457	0.070	-0.141
-248.019	314.185	-0.158	-0.292
-247.005	800.000	-0.059	0.169
-245.990	-96.838	0.101	-0.026
-244.976	295.432	-0.102	-0.184
-243.961	25.084	0.137	0.112
-242.946	800.000	-0.067	-0.241
-241.932	534.528	0.075	0.174
-240.917	-200.000	-0.022	-0.104
-239.903	158.163	0.162	0.221
-238.888	148.384	0.270	0.359
-237.873	60.516	0.111	0.108
-236.859	386.392	0.109	0.221
-235.844	638.145	0.105	-0.262
-234.830	9.835	0.056	-0.042
-233.815	-115.292	-0.200	-0.037
-232.800	131.210	-0.140	0.176
-231.786	800.000	-0.021	-0.068
-230.771	15.868	0.100	-0.078
-229.757	69.965	-0.038	-0.039
-228.742	118.759	0.085	0.104
-227.727	800.000	-0.132	0.382
-226.713	-200.000	0.003	0.306
-225.698	-54.308	-0.226	0.101
-224.684	800.000	-0.015	0.056
-223.669	-200.000	-0.032	-0.368
-222.655	-147.875	-0.285	-0.023
-221.640	401.428	-0.078	0.162
-220.625	-200.000	0.092	0.471
-219.611	-200.000	-0.017	0.091
-218.596	-78.866	0.058	0.019
-217.582	231.971	-0.103	-0.167
-216.567	-200.000	0.023	-0.138
-215.552	-191.926	-0.179	0.002
-214.538	193.954	-0.259	0.386
-213.523	-6.093	-0.169	-0.114
-212.509	-0.336	-0.061	0.043
-211.494	112.131	-0.216	0.256
-210.479	-144.050	0.188	0.017
-209.465	195.649	0.133	0.199
-208.450	-10.479	0.411	0.267
-207.436	220.585	-0.173	-0.273
-206.421	8.017	0.072	0.053
-205.406	-109.695	0.074	0.015
-204.392	-200.000	-0.057	0.266
-203.377	-112.300	0.232	0.046
-202.363	-73.467	-0.221	-0.079
-201.348	163.173	0.153	-0.211
-200.333	800.000	0.057	0.183
-199.319	5.317	-0.162	0.118
-198.304	-98.328	-0.160	0.040
-197.290	-119.152	0.247	0.042
-196.275	258.097	-0.095	-0.161
-195.260	-200.000	-0.013	0.175
-194.246	-94.261	0.114	-0.031
-193.231	74.356	0.137	-0.142
-192.217	334.037	0.146	0.278
-191.202	-11.665	-0.161	0.104
-190.187	800.000	-0.060	-0.175
-189.173	59.964	0.081	-0.078
-188.158	123.480	-0.106	0.130
-187.144	29.888	0.179	0.150
-186.129	230.407	-0.085	0.137
-185.114	800.000	-0.091	-0.307
-184.100	-160.561	0.407	0.021
-183.085	-34.279	-0.285	-0.154
-182.071	-52.874	-0.104	-0.047
-181.056	-200.000	0.089	-0.397
-180.042	-17.848	0.105	0.065
-179.027	-200.000	-0.003	-0.086
-178.012	-200.000	0.001	0.060
-176.998	505.280	0.241	0.548
-175.983	800.000	0.196	0.532
-174.969	-2.696	-0.082	0.057
-173.954	257.658	-0.010	-0.017
-172.939	-135.458	-0.321	-0.038
-171.925	6.434	-0.224	-0.163
-170.910	800.000	0.062	0.183
-169.896	191.741	0.119	0.177
-168.881	-200.000	0.038	-0.178
-167.866	184.579	-0.024	-0.035
-166.852	341.422	-0.126	-0.242
-165.837	-55.311	0.281	0.124
-164.823	-46.116	-0.137	-0.066
-163.808	-131.509	0.417	0.054
-162.793	51.205	0.270	0.251
-161.779	-115.506	0.125	0.023
-160.764	-200.000	-0.006	-0.082
-159.750	174.593	-0.166	-0.236
-158.735	430.711	0.152	0.323
-157.720	-105.813	0.058	-0.013
-156.706	65.681	-0.170	0.169
-155.691	-107.056	0.450	0.097
-154.677	-40.746	0.321	0.163
-153.662	-12.822	-0.293	-0.187
-152.647	4.422	-0.129	-0.093
-151.633	-18.687	0.294	0.180
-150.618	-176.359	-0.329	0.008
-149.604	-200.000	0.010	0.390
-148.589	42.896	0.304	0.271
-147.574	312.136	-0.173	-0.319
-146.560	80.546	0.288	0.305
-145.545	-45.364	-0.121	-0.059
-144.531	450.777	0.080	0.174
-143.516	-200.000	-0.042	0.346
-142.502	639.640	-0.064	0.160
-141.487	114.642	0.077	0.092
-140.472	515.965	0.013	0.029
-139.458	-200.000	0.003	0.013
-138.443	-152.600	-0.355	-0.025
-137.429	118.967	-0.072	0.087
-136.414	91.030	-0.161	0.177
-135.399	-173.610	-0.121	-0.004
-134.385	800.000	0.160	0.559
-133.370	-55.983	0.400	0.175
-132.356	14.409	0.127	0.097
-131.341	-99.622	-0.246	-0.061
-130.326	-120.536	0.115	-0.019
-129.312	-138.769	-0.139	0.015
-128.297	800.000	0.068	-0.226
-127.283	-135.587	-0.295	-0.034
-126.268	-24.203	0.143	-0.084
-125.253	72.547	0.153	-0.156
-124.239	-2.289	-0.135	0.093
-123.224	224.477	0.061	-0.097
-122.210	-200.000	-0.008	0.118
