DTS Sentinel unit serial number:	SN413079Multiplexer serial number:	ORYXHardware model number:	OX4-SRSoftware version number:	ORYX F/W v4.00 Oryx Data Collector v3.7.2.0data status	okinstallation	princeton_trtdifferential loss correction	single-endedforward channel	channel 2reverse channel	N/Adate	2019/09/18time	01:35:35forward acquisition time	60.00reverse acquisition time	0.00gamma	496.2192k internal	0.2350k external	0.2350temperature offset calibration	0.9983default loss term (dB/km)	0.3790temperature slope calibration	1.0000multiplexer offset coefficient	1.0000multiplexer slope coefficient	1.0000fibre end	0.00T internal ref (°C)	23.06T ext. ref 1 (°C)	0.17T ext. ref 2 (°C)	16.72length (m)	temperature (°C)	Stokes	anti-Stokes-747.200	87.078	-0.071	0.078
-746.185	218.844	-0.146	0.233
-745.171	112.337	0.142	-0.171
-744.156	-200.000	-0.004	-0.025
-743.142	-51.816	-0.124	0.058
-742.127	207.168	-0.202	-0.315
-741.112	-78.763	0.191	-0.065
-740.098	-200.000	-0.044	0.208
-739.083	196.470	0.110	0.168
-738.069	-60.923	-0.213	0.090
-737.054	305.378	-0.041	0.076
-736.039	-149.430	-0.420	-0.033
-735.025	800.000	-0.047	0.178
-734.010	172.228	-0.262	0.376
-732.996	-75.887	-0.223	0.079
-731.981	-108.706	-0.197	0.042
-730.966	98.857	-0.081	-0.093
-729.952	66.129	-0.250	0.254
-728.937	-11.364	0.178	0.117
-727.923	-74.978	-0.140	0.050
-726.908	330.423	-0.050	-0.096
-725.894	-200.000	-0.074	-0.340
-724.879	73.858	-0.237	-0.248
-723.864	362.096	-0.153	0.307
-722.850	-200.000	-0.028	-0.162
-721.835	800.000	-0.012	0.051
-720.821	408.670	-0.096	0.203
-719.806	-14.808	-0.420	-0.269
-718.791	-81.501	0.386	0.127
-717.777	702.306	-0.024	0.063
-716.762	88.842	0.108	-0.120
-715.748	-172.749	0.134	-0.004
-714.733	559.418	-0.079	0.189
-713.718	-200.000	0.020	0.089
-712.704	800.000	0.034	-0.100
-711.689	-83.398	0.211	-0.067
-710.675	-49.980	-0.137	0.065
-709.660	442.408	0.127	0.278
-708.645	800.000	0.020	0.069
-707.631	-200.000	-0.050	0.330
-706.616	683.296	-0.050	0.130
-705.602	-200.000	0.030	-0.184
-704.587	12.884	0.202	0.156
-703.572	-200.000	-0.052	-0.327
-702.558	800.000	-0.022	0.077
-701.543	-200.000	0.013	-0.196
-700.529	17.585	-0.234	-0.185
-699.514	233.088	0.085	0.139
-698.499	38.415	0.255	-0.227
-697.485	-130.783	-0.145	-0.019
-696.470	302.564	0.197	-0.364
-695.456	35.257	-0.254	0.222
-694.441	-47.793	0.213	-0.103
-693.426	-96.946	-0.326	-0.085
-692.412	-156.642	-0.080	-0.005
-691.397	-200.000	0.046	0.259
-690.383	49.931	-0.191	0.180
-689.368	169.280	0.077	-0.109
-688.354	-61.033	-0.251	-0.105
-687.339	5.110	-0.121	0.089
-686.324	800.000	0.075	0.306
-685.310	-110.142	0.229	-0.048
-684.295	17.260	-0.190	-0.151
-683.281	71.678	-0.100	0.104
-682.266	-52.598	0.115	-0.053
-681.251	-200.000	0.051	-0.296
-680.237	-12.772	0.155	-0.100
-679.222	712.562	0.094	0.248
-678.208	-87.597	0.069	0.021
-677.193	-92.427	-0.100	-0.028
-676.178	-41.361	-0.098	-0.050
-675.164	-137.686	0.175	0.020
-674.149	-87.042	-0.198	-0.060
-673.135	-125.385	0.572	0.087
-672.120	800.000	-0.079	-0.295
-671.105	-145.996	-0.143	0.013
-670.091	-200.000	-0.029	0.167
-669.076	800.000	0.066	-0.190
-668.062	-175.315	-0.414	-0.011
-667.047	83.062	-0.182	-0.198
-666.032	-169.422	-0.100	0.004
-665.018	-200.000	0.010	0.152
-664.003	-73.246	0.271	0.099
-662.989	-48.054	-0.245	0.118
-661.974	383.907	-0.083	-0.170
-660.959	710.805	0.082	-0.217
-659.945	800.000	-0.022	0.082
-658.930	-178.309	0.288	-0.007
-657.916	215.738	-0.181	-0.286
-656.901	800.000	0.075	-0.294
-655.886	197.690	-0.128	0.195
-654.872	-10.748	0.288	0.189
-653.857	78.140	-0.250	-0.265
-652.843	-200.000	0.026	-0.146
-651.828	199.999	0.102	0.156
-650.814	-144.799	0.399	-0.036
-649.799	257.741	0.121	-0.208
-648.784	34.835	-0.047	-0.041
-647.770	764.432	-0.021	-0.056
-646.755	-139.377	-0.237	-0.025
-645.741	55.428	-0.157	0.151
-644.726	393.334	-0.128	-0.265
-643.711	-139.629	0.133	0.014
-642.697	-87.586	-0.180	-0.054
-641.682	360.180	0.140	-0.279
-640.668	-197.502	0.138	0.001
-639.653	119.252	0.100	-0.123
-638.638	-200.000	-0.012	-0.087
-637.624	419.200	0.193	-0.410
-636.609	91.494	-0.170	0.190
-635.595	180.129	0.301	0.439
-634.580	-85.302	0.241	0.075
-633.565	313.139	0.212	0.396
-632.551	271.639	0.098	0.171
-631.536	-64.861	0.288	-0.116
-630.522	691.395	-0.100	-0.261
-629.507	10.698	-0.268	0.204
-628.492	-72.637	0.026	-0.010
-627.478	450.874	-0.059	-0.130
-626.463	800.000	-0.132	-0.454
-625.449	-200.000	0.006	-0.065
-624.434	-164.494	-0.106	-0.005
-623.419	53.954	-0.182	-0.174
-622.405	241.802	-0.174	-0.289
-621.390	88.410	-0.143	0.158
-620.376	800.000	-0.148	-0.450
-619.361	-162.698	0.520	0.025
-618.346	206.376	-0.229	-0.354
-617.332	-118.122	0.410	0.073
-616.317	-46.660	-0.187	-0.091
-615.303	674.327	-0.123	-0.316
-614.288	122.049	0.034	0.042
-613.273	78.609	-0.209	0.222
-612.259	800.000	-0.076	0.265
-611.244	800.000	-0.108	-0.320
-610.230	239.898	-0.252	-0.417
-609.215	398.171	-0.050	-0.105
-608.201	-24.454	-0.253	0.149
-607.186	800.000	-0.026	-0.081
-606.171	-132.936	0.176	-0.022
-605.157	40.033	0.201	0.179
-604.142	-13.478	0.267	0.172
-603.128	63.329	-0.057	0.057
-602.113	800.000	0.112	-0.330
-601.098	800.000	0.070	-0.273
-600.084	-169.248	-0.260	-0.010
-599.069	-81.380	-0.130	0.043
-598.055	18.165	0.255	-0.202
-597.040	-200.000	-0.018	-0.252
-596.025	296.234	-0.073	-0.133
-595.011	347.025	0.215	0.420
-593.996	232.818	-0.147	-0.239
-592.982	-18.119	0.118	-0.074
-591.967	465.978	0.116	-0.257
-590.952	7.868	0.206	0.153
-589.938	-200.000	-0.039	0.262
-588.923	24.965	-0.349	0.288
-587.909	800.000	-0.089	0.280
-586.894	-200.000	0.063	0.308
-585.879	-200.000	0.008	-0.335
-584.865	87.871	-0.393	-0.433
-583.850	-24.467	-0.086	-0.051
-582.836	711.190	0.065	0.172
-581.821	607.478	-0.013	-0.033
-580.806	-100.201	-0.163	0.040
-579.792	-143.635	0.238	-0.022
-578.777	277.749	-0.119	-0.211
-577.763	15.438	0.300	0.234
-576.748	-127.756	0.153	-0.022
-575.733	134.412	0.146	0.188
-574.719	391.949	-0.089	-0.183
-573.704	407.567	0.164	0.344
-572.690	193.530	-0.046	-0.070
-571.675	257.608	-0.102	-0.175
-570.661	16.688	0.181	0.142
-569.646	-105.273	0.160	0.036
-568.631	-48.337	0.186	0.089
-567.617	-200.000	0.077	-0.367
-566.602	-112.958	-0.311	-0.061
-565.588	-200.000	-0.026	0.196
-564.573	97.736	-0.022	-0.025
-563.558	135.253	0.065	-0.084
-562.544	-112.806	-0.135	0.027
-561.529	90.219	-0.066	-0.073
-560.515	-52.358	0.172	0.079
-559.500	586.612	-0.078	0.191
-558.485	800.000	0.063	0.221
-557.471	355.487	0.184	0.363
-556.456	465.787	0.090	0.201
-555.442	-62.754	0.249	0.102
-554.427	-45.282	-0.242	0.119
-553.412	-16.351	0.145	-0.091
-552.398	6.419	-0.267	-0.197
-551.383	68.073	0.070	0.071
-550.369	11.171	-0.215	-0.163
-549.354	-124.384	0.256	0.040
-548.339	-89.514	-0.446	0.130
-547.325	133.248	0.149	-0.190
-546.310	-200.000	0.027	0.351
-545.296	-26.901	-0.224	-0.130
-544.281	388.734	-0.148	0.303
-543.266	261.342	-0.094	0.162
-542.252	800.000	-0.034	0.105
-541.237	-67.217	-0.035	-0.014
-540.223	32.403	0.190	0.162
-539.208	97.303	-0.282	0.321
-538.193	-200.000	-0.002	-0.128
-537.179	-200.000	-0.009	-0.058
-536.164	-166.100	-0.121	-0.005
-535.150	-200.000	0.084	0.437
-534.135	7.887	-0.261	-0.194
-533.121	-81.986	-0.144	-0.047
-532.106	-73.660	-0.115	-0.041
-531.091	618.766	-0.021	0.052
-530.077	800.000	0.124	-0.378
-529.062	-46.247	-0.077	-0.038
-528.048	-112.779	0.157	-0.031
-527.033	-85.470	-0.203	0.063
-526.018	152.844	-0.031	0.042
-525.004	-200.000	0.024	-0.165
-523.989	-58.169	-0.161	-0.069
-522.975	-22.670	0.320	0.191
-521.960	-103.202	0.121	-0.028
-520.945	2.965	-0.219	0.157
-519.931	800.000	0.115	-0.339
-518.916	165.769	-0.167	0.233
-517.902	-8.610	-0.066	-0.044
-516.887	-8.981	0.467	-0.309
-515.872	214.827	-0.037	-0.058
-514.858	186.695	0.081	-0.119
-513.843	-61.723	0.286	0.119
-512.829	-200.000	-0.032	0.137
-511.814	-200.000	-0.036	-0.164
-510.799	353.377	-0.103	0.202
-509.785	-70.726	0.137	-0.051
-508.770	-200.000	0.117	-0.519
-507.756	-126.762	-0.177	0.026
-506.741	-200.000	0.083	-0.373
-505.726	31.263	0.259	0.220
-504.712	36.034	-0.355	0.309
-503.697	254.598	0.118	0.200
-502.683	-52.620	-0.148	0.068
-501.668	265.155	-0.042	0.073
-500.653	-200.000	0.069	-0.312
-499.639	603.026	0.067	0.165
-498.624	-135.618	-0.334	0.039
-497.610	133.511	-0.171	-0.218
-496.595	608.970	0.146	-0.360
-495.581	-60.120	-0.296	0.125
-494.566	209.829	0.084	-0.130
-493.551	-142.693	-0.317	-0.031
-492.537	-200.000	0.018	-0.305
-491.522	36.829	-0.068	0.059
-490.508	-8.274	0.258	0.172
-489.493	-128.656	-0.332	0.046
-488.478	-200.000	-0.010	-0.157
-487.464	261.669	-0.086	-0.147
-486.449	-100.244	-0.269	-0.066
-485.435	-87.131	0.249	-0.075
-484.420	-200.000	-0.003	0.035
-483.405	27.577	-0.317	0.264
-482.391	-118.739	0.240	0.042
-481.376	-200.000	0.008	-0.480
-480.362	191.591	-0.069	0.102
-479.347	327.295	-0.196	0.372
-478.332	-70.992	0.210	0.078
-477.318	727.444	0.104	0.274
-476.303	-161.420	0.289	-0.015
-475.289	-82.659	-0.208	0.067
-474.274	177.957	-0.071	-0.102
-473.259	140.347	0.134	0.175
-472.245	619.879	-0.092	-0.227
-471.230	358.732	0.062	-0.122
-470.216	800.000	-0.048	-0.152
-469.201	722.801	-0.021	0.056
-468.186	-200.000	0.019	-0.144
-467.172	298.309	-0.092	-0.166
-466.157	-0.905	0.201	-0.141
-465.143	-134.240	-0.161	0.020
-464.128	-117.597	-0.184	0.033
-463.113	-95.973	-0.434	-0.114
-462.099	-158.621	0.290	-0.017
-461.084	172.827	0.077	0.109
-460.070	-24.900	-0.223	-0.131
-459.055	-200.000	-0.038	0.187
-458.040	75.457	-0.316	0.329
-457.026	119.441	0.230	-0.281
-456.011	-200.000	-0.041	-0.178
-454.997	425.303	-0.041	-0.087
-453.982	-200.000	-0.032	0.186
-452.968	800.000	0.083	-0.227
-451.953	-72.161	-0.206	0.075
-450.938	-46.134	-0.287	-0.139
-449.924	-126.135	0.053	-0.008
-448.909	-158.796	-0.157	0.009
-447.895	465.593	0.061	0.134
-446.880	-114.929	-0.550	-0.103
-445.865	-79.899	-0.098	-0.033
-444.851	-200.000	-0.033	-0.150
-443.836	439.865	-0.116	-0.251
-442.822	334.575	0.082	-0.156
-441.807	-7.591	-0.059	-0.039
-440.792	132.164	-0.146	-0.185
-439.778	-200.000	-0.080	-0.480
-438.763	-99.732	-0.261	0.065
-437.749	-158.833	-0.221	0.012
-436.734	-26.367	-0.238	0.138
-435.719	800.000	-0.111	0.344
-434.705	-200.000	-0.022	0.364
-433.690	38.958	-0.179	0.158
-432.676	800.000	0.124	0.436
-431.661	4.766	-0.128	-0.093
-430.646	800.000	0.064	-0.274
-429.632	277.074	-0.049	-0.086
-428.617	-54.400	0.079	0.035
-427.603	433.722	0.061	0.130
-426.588	-56.550	0.079	0.035
-425.573	239.565	-0.149	0.245
-424.559	800.000	0.012	0.048
-423.544	354.022	0.133	0.261
-422.530	239.037	0.094	-0.154
-421.515	-57.516	0.264	0.114
-420.500	-200.000	0.031	0.210
-419.486	-200.000	-0.012	0.202
-418.471	236.660	-0.348	-0.569
-417.457	800.000	0.024	0.067
-416.442	800.000	0.048	0.178
-415.428	-200.000	0.026	-0.188
-414.413	-45.436	-0.155	-0.076
-413.398	-200.000	0.051	-0.246
-412.384	-120.622	-0.308	0.051
-411.369	-149.802	0.441	0.034
-410.355	139.033	-0.203	-0.263
-409.340	385.764	0.063	-0.129
-408.325	-66.621	0.212	-0.083
-407.311	136.334	0.238	0.306
-406.296	-57.351	-0.209	-0.091
-405.282	178.134	0.122	-0.175
-404.267	-41.144	0.380	0.193
-403.252	296.950	-0.065	-0.117
-402.238	70.626	-0.141	0.144
-401.223	-34.085	0.279	-0.151
-400.209	56.546	-0.196	-0.188
-399.194	21.074	0.200	0.160
-398.179	155.725	0.184	0.250
-397.165	352.685	0.108	0.212
-396.150	125.239	0.204	-0.253
-395.136	152.096	0.172	-0.232
-394.121	-107.418	0.162	0.035
-393.106	-64.239	0.341	0.137
-392.092	298.452	0.105	-0.191
-391.077	114.578	-0.233	0.280
-390.063	-61.938	0.185	0.076
-389.048	-200.000	-0.034	0.150
-388.033	800.000	0.057	-0.209
-387.019	-5.425	-0.175	0.119
-386.004	-200.000	-0.008	-0.280
-384.990	-200.000	-0.085	0.399
-383.975	-54.023	0.530	-0.238
-382.960	-200.000	0.001	-0.153
-381.946	-26.517	-0.226	-0.130
-380.931	91.393	-0.048	-0.053
-379.917	135.898	0.254	0.326
-378.902	505.648	-0.046	0.105
-377.888	-200.000	-0.007	-0.185
-376.873	486.956	0.118	-0.265
-375.858	246.922	0.077	0.128
-374.844	164.469	-0.178	-0.248
-373.829	528.928	-0.083	-0.194
-372.815	290.369	0.172	-0.308
-371.800	-35.043	-0.076	-0.041
-370.785	-21.201	-0.051	0.031
-369.771	374.868	0.096	-0.192
-368.756	150.293	0.239	-0.320
-367.742	-48.756	0.072	-0.034
-366.727	-200.000	0.012	0.084
-365.712	-76.257	-0.267	-0.093
-364.698	-76.882	0.473	-0.163
-363.683	70.513	0.212	-0.216
-362.669	-97.258	-0.252	0.065
-361.654	800.000	-0.070	-0.197
-360.639	309.481	0.107	0.197
-359.625	131.739	0.029	0.036
-358.610	94.662	0.155	0.174
-357.596	41.734	0.072	0.064
-356.581	800.000	-0.034	-0.106
-355.566	800.000	0.143	-0.526
-354.552	-44.723	-0.376	0.185
-353.537	-200.000	-0.053	0.318
-352.523	-200.000	-0.011	0.280
-351.508	800.000	0.062	-0.218
-350.493	342.832	0.046	0.089
-349.479	108.611	-0.250	-0.294
-348.464	205.210	-0.079	-0.121
-347.450	119.745	-0.194	0.236
-346.435	-199.381	-0.323	-0.002
-345.420	-56.690	-0.216	0.094
-344.406	386.030	0.086	0.175
-343.391	-200.000	-0.038	-0.164
-342.377	401.518	0.072	-0.149
-341.362	-104.257	0.211	-0.048
-340.348	59.615	0.151	0.147
-339.333	37.570	-0.034	-0.029
-338.318	-200.000	-0.021	0.200
-337.304	800.000	0.074	0.317
-336.289	56.052	0.241	0.230
-335.275	-2.125	0.039	-0.027
-334.260	-85.418	-0.241	0.074
-333.245	-1.475	0.043	0.030
-332.231	152.808	-0.233	0.313
-331.216	790.299	0.034	-0.093
-330.202	-200.000	0.013	0.269
-329.187	-81.206	-0.264	0.086
-328.172	-32.221	0.308	-0.169
-327.158	-116.390	-0.063	0.011
-326.143	180.147	0.106	-0.153
-325.129	-200.000	-0.025	0.121
-324.114	-200.000	-0.017	-0.190
-323.099	-93.947	-0.154	-0.042
-322.085	-200.000	-0.026	-0.130
-321.070	-129.356	-0.287	-0.039
-320.056	385.615	-0.070	-0.142
-319.041	49.534	0.221	-0.204
-318.026	-57.702	0.077	0.033
-317.012	-8.681	-0.267	0.176
-315.997	10.357	0.216	0.161
-314.983	785.304	-0.124	-0.334
-313.968	346.356	-0.090	-0.174
-312.953	-34.792	-0.275	0.147
-311.939	-200.000	0.073	0.503
-310.924	-81.383	0.113	0.036
-309.910	-167.340	-0.082	0.003
-308.895	-22.182	-0.110	-0.066
-307.880	-48.308	0.306	0.145
-306.866	-200.000	-0.056	0.250
-305.851	-195.952	0.304	-0.002
-304.837	110.739	0.111	0.131
-303.822	168.155	0.126	0.176
-302.807	356.523	0.075	0.146
-301.793	112.103	-0.185	0.219
-300.778	-76.807	-0.105	-0.036
-299.764	-121.045	0.364	-0.060
-298.749	-140.811	0.328	0.033
-297.735	-148.023	-0.356	0.029
-296.720	12.778	0.335	-0.254
-295.705	15.461	0.164	-0.127
-294.691	-11.973	0.322	0.207
-293.676	-200.000	-0.036	0.164
-292.662	-10.170	-0.026	-0.017
-291.647	-57.166	-0.105	0.045
-290.632	34.074	-0.228	0.195
-289.618	-52.730	-0.186	-0.084
-288.603	363.435	0.018	0.036
-287.589	459.786	-0.057	0.125
-286.574	-77.301	0.086	0.029
-285.559	0.747	-0.168	0.118
-284.545	-121.775	-0.215	-0.035
-283.530	439.829	-0.055	-0.119
-282.516	800.000	0.059	-0.191
-281.501	-77.242	-0.061	-0.021
-280.486	-113.391	-0.276	-0.053
-279.472	800.000	0.129	-0.450
-278.457	800.000	-0.086	0.233
-277.443	-200.000	-0.054	0.336
-276.428	-95.966	-0.043	-0.011
-275.413	800.000	-0.089	0.283
-274.399	396.823	0.131	0.269
-273.384	133.236	-0.155	0.196
-272.370	-45.985	-0.106	-0.051
-271.355	52.020	-0.051	-0.047
-270.340	-136.015	-0.206	0.024
-269.326	-82.682	0.312	-0.099
-268.311	800.000	0.062	-0.264
-267.297	557.825	0.052	-0.124
-266.282	-112.542	0.236	-0.046
-265.267	79.904	-0.097	0.102
-264.253	35.914	0.148	-0.127
-263.238	30.602	-0.345	0.289
-262.224	-67.374	0.178	-0.069
-261.209	-16.686	0.410	-0.254
-260.195	79.114	0.511	-0.537
-259.180	800.000	0.098	-0.379
-258.165	191.274	-0.148	-0.218
-257.151	-200.000	0.035	-0.155
-256.136	24.617	0.281	0.228
-255.122	221.875	-0.106	-0.167
-254.107	59.700	-0.155	-0.150
-253.092	582.786	0.111	-0.267
-252.078	-100.462	-0.274	0.066
-251.063	5.467	0.215	0.156
-250.049	-200.000	0.085	0.459
-249.034	-31.828	-0.081	0.044
-248.019	12.228	0.379	-0.286
-247.005	-126.582	-0.191	-0.028
-245.990	-200.000	-0.039	0.199
-244.976	-68.255	0.124	0.047
-243.961	60.674	0.194	0.189
-242.946	-32.219	0.062	0.034
-241.932	7.212	0.177	0.130
-240.917	-9.249	-0.224	0.147
-239.903	800.000	0.012	-0.045
-238.888	-60.587	-0.273	0.114
-237.873	-72.091	0.183	0.066
-236.859	-119.158	0.090	-0.015
-235.844	-200.000	0.041	0.291
-234.830	-200.000	0.002	0.049
-233.815	80.403	-0.150	0.158
-232.800	-200.000	0.017	-0.309
-231.786	-11.321	-0.168	0.109
-230.771	-74.608	0.128	-0.045
-229.757	-5.899	0.031	0.021
-228.742	-159.769	-0.236	0.013
-227.727	800.000	0.035	-0.118
-226.713	-200.000	0.015	-0.129
-225.698	101.106	0.196	-0.223
-224.684	-144.186	-0.081	0.007
-223.669	-200.000	-0.076	-0.362
-222.655	-200.000	-0.005	-0.097
-221.640	169.472	0.230	0.321
-220.625	-73.706	-0.215	-0.076
-219.611	-86.859	-0.084	-0.025
-218.596	450.366	-0.045	-0.097
-217.582	658.742	0.020	-0.051
-216.567	-63.430	0.281	0.113
-215.552	60.873	-0.080	-0.077
-214.538	-200.000	-0.018	0.296
-213.523	-72.143	-0.130	0.047
-212.509	800.000	-0.068	0.199
-211.494	-150.998	0.180	0.013
-210.479	230.306	-0.024	-0.038
-209.465	94.046	-0.216	0.240
-208.450	-65.474	-0.038	0.015
-207.436	-139.179	0.106	-0.011
-206.421	-13.131	-0.246	0.156
-205.406	-200.000	0.003	0.056
-204.392	120.942	-0.091	-0.110
-203.377	-39.638	0.108	0.055
-202.363	-200.000	-0.000	0.064
-201.348	-200.000	0.003	0.289
-200.333	-114.323	0.093	-0.018
-199.319	5.581	0.221	0.160
-198.304	-60.849	-0.082	0.034
-197.290	800.000	0.053	-0.153
-196.275	-91.427	-0.203	-0.057
-195.260	-147.505	0.180	-0.015
-194.246	-200.000	0.054	0.296
-193.231	-31.992	0.196	-0.107
-192.217	-200.000	-0.003	-0.095
-191.202	13.939	0.004	0.003
-190.187	-200.000	-0.042	-0.265
-189.173	-200.000	-0.054	0.405
-188.158	-33.895	0.194	-0.104
-187.144	-105.437	0.247	0.055
-186.129	113.052	-0.069	0.082
-185.114	-30.103	-0.122	-0.068
-184.100	74.215	-0.251	0.258
-183.085	111.264	0.073	0.086
-182.071	-82.565	-0.167	-0.053
-181.056	-143.294	-0.157	-0.015
-180.042	63.260	-0.164	0.161
-179.027	-200.000	-0.026	-0.178
-178.012	-170.713	-0.120	-0.004
-176.998	5.554	0.176	0.127
-175.983	-133.509	0.162	0.020
-174.969	42.402	0.307	0.272
-173.954	100.399	0.232	0.263
-172.939	23.661	0.138	0.111
-171.925	-72.187	0.501	-0.181
-170.910	-136.589	0.059	0.007
-169.896	27.166	0.165	-0.135
-168.881	-200.000	0.025	-0.140
-167.866	-174.376	-0.386	-0.011
-166.852	396.657	-0.118	0.240
-165.837	25.157	0.181	0.147
-164.823	131.208	-0.080	0.101
-163.808	788.529	-0.019	0.051
-162.793	-93.897	0.144	-0.039
-161.779	73.454	-0.029	-0.030
-160.764	-16.952	0.223	-0.137
-159.750	-163.226	-0.248	-0.012
-158.735	313.001	0.206	0.377
-157.720	-113.280	0.180	0.035
-156.706	-200.000	0.051	-0.253
-155.691	800.000	-0.128	0.442
-154.677	305.158	-0.192	0.349
-153.662	85.087	0.060	-0.064
-152.647	-200.000	0.012	0.109
-151.633	-102.827	0.099	-0.023
-150.618	-52.720	-0.098	-0.044
-149.604	800.000	-0.011	0.032
-148.589	-200.000	0.044	0.348
-147.574	168.179	-0.189	0.262
-146.560	109.873	0.089	0.104
-145.545	160.477	0.098	-0.134
-144.531	25.013	0.290	0.234
-143.516	800.000	0.044	0.136
-142.502	-200.000	-0.017	-0.254
-141.487	-153.806	-0.303	0.020
-140.472	61.132	-0.195	0.189
-139.458	-96.959	0.165	0.042
-138.443	-96.055	-0.225	0.058
-137.429	389.333	0.098	-0.198
-136.414	94.182	-0.081	-0.089
-135.399	-200.000	0.016	0.138
-134.385	210.236	0.121	0.185
-133.370	-59.944	-0.041	-0.017
-132.356	64.782	-0.083	-0.081
-131.341	-36.377	-0.339	0.178
-130.326	118.880	-0.118	0.143
-129.312	249.309	0.174	-0.288
-128.297	-129.296	-0.169	-0.023
-127.283	-2.648	-0.170	-0.116
-126.268	583.434	0.048	0.115
-125.253	-90.273	0.098	0.028
-124.239	-136.181	-0.198	-0.023
-123.224	-46.840	0.522	-0.249
-122.210	214.039	0.120	-0.185
-121.195	800.000	-0.144	-0.493
