DTS Sentinel unit serial number:	SN413079Multiplexer serial number:	ORYXHardware model number:	OX4-SRSoftware version number:	ORYX F/W v4.00 Oryx Data Collector v3.7.2.0data status	okinstallation	princeton_trtdifferential loss correction	single-endedforward channel	channel 2reverse channel	N/Adate	2019/09/17time	01:59:34forward acquisition time	60.00reverse acquisition time	0.00gamma	496.2192k internal	0.2328k external	0.2328temperature offset calibration	0.9975default loss term (dB/km)	0.3790temperature slope calibration	1.0000multiplexer offset coefficient	1.0000multiplexer slope coefficient	1.0000fibre end	0.00T internal ref (°C)	29.66T ext. ref 1 (°C)	0.12T ext. ref 2 (°C)	24.52length (m)	temperature (°C)	Stokes	anti-Stokes-747.200	299.584	-0.253	-0.471
-746.185	800.000	-0.083	0.232
-745.171	-200.000	-0.030	0.198
-744.156	116.816	0.094	-0.116
-743.142	465.682	-0.030	-0.067
-742.127	151.006	-0.095	0.131
-741.112	-200.000	0.020	-0.093
-740.098	50.045	-0.166	0.158
-739.083	726.040	-0.060	0.162
-738.069	-129.777	-0.078	-0.011
-737.054	-8.791	0.089	-0.060
-736.039	-56.332	-0.380	-0.170
-735.025	-149.027	0.399	0.032
-734.010	-43.948	-0.281	-0.142
-732.996	-124.717	-0.262	0.041
-731.981	-63.668	0.140	-0.058
-730.966	800.000	0.095	-0.277
-729.952	23.256	-0.276	0.228
-728.937	496.133	0.127	-0.293
-727.923	167.065	-0.030	0.042
-726.908	-118.836	0.078	0.014
-725.894	-94.003	-0.219	-0.060
-724.879	-108.786	0.352	-0.076
-723.864	64.766	0.019	-0.019
-722.850	-200.000	-0.017	0.107
-721.835	158.401	-0.090	0.126
-720.821	-17.438	0.182	0.115
-719.806	800.000	0.157	-0.443
-718.791	100.875	0.082	0.096
-717.777	56.003	-0.174	0.170
-716.762	-7.816	-0.038	0.026
-715.748	-126.832	0.138	0.020
-714.733	-200.000	-0.002	-0.248
-713.718	43.551	-0.234	-0.215
-712.704	-200.000	0.043	-0.238
-711.689	-180.871	0.043	-0.001
-710.675	13.170	0.183	-0.142
-709.660	31.137	0.140	0.121
-708.645	-106.589	0.122	0.027
-707.631	-83.404	-0.225	0.073
-706.616	-54.736	-0.079	-0.036
-705.602	-26.670	-0.154	-0.091
-704.587	-112.706	0.290	-0.058
-703.572	91.251	0.078	-0.088
-702.558	139.469	-0.156	-0.207
-701.543	92.817	-0.074	-0.084
-700.529	46.047	-0.191	-0.178
-699.514	-102.895	-0.341	0.082
-698.499	-200.000	-0.006	-0.492
-697.485	278.889	-0.149	0.268
-696.470	5.072	-0.176	0.130
-695.456	-26.525	0.100	-0.059
-694.441	10.232	0.207	-0.158
-693.426	25.087	-0.277	-0.231
-692.412	800.000	-0.093	0.261
-691.397	668.762	-0.030	-0.078
-690.383	-76.344	0.171	0.060
-689.368	-200.000	-0.025	-0.293
-688.354	180.758	-0.114	-0.168
-687.339	59.741	-0.296	-0.294
-686.324	-73.298	-0.314	-0.116
-685.310	-82.409	-0.134	0.044
-684.295	270.280	0.072	0.128
-683.281	11.315	0.151	-0.117
-682.266	-3.815	0.142	0.099
-681.251	218.035	-0.124	-0.198
-680.237	4.799	-0.181	-0.134
-679.222	-126.884	-0.248	0.037
-678.208	-200.000	-0.064	-0.294
-677.193	-112.078	-0.490	-0.099
-676.178	-200.000	-0.000	-0.055
-675.164	-159.149	-0.191	0.011
-674.149	-200.000	0.041	-0.269
-673.135	-5.855	0.166	0.114
-672.120	3.477	0.048	-0.035
-671.105	378.081	0.138	0.283
-670.091	-200.000	-0.060	0.269
-669.076	800.000	0.052	-0.214
-668.062	-184.281	0.270	0.004
-667.047	-200.000	0.001	0.040
-666.032	264.706	0.073	0.127
-665.018	-153.283	0.201	-0.014
-664.003	241.368	0.058	0.097
-662.989	-29.620	0.320	-0.183
-661.974	-46.427	-0.215	-0.106
-660.959	717.462	-0.077	-0.205
-659.945	-200.000	-0.031	-0.176
-658.930	-200.000	-0.011	-0.187
-657.916	162.319	0.183	-0.258
-656.901	44.037	-0.307	-0.283
-655.886	-200.000	0.045	0.210
-654.872	-200.000	0.004	-0.378
-653.857	97.846	-0.043	-0.049
-652.843	75.221	0.078	-0.083
-651.828	-61.245	0.154	0.065
-650.814	90.103	-0.063	-0.070
-649.799	-107.407	0.050	-0.011
-648.784	-200.000	-0.062	0.289
-647.770	-167.313	-0.212	-0.009
-646.755	-149.611	0.202	0.016
-645.741	114.156	0.178	0.218
-644.726	-200.000	0.034	0.250
-643.711	-87.728	-0.560	0.170
-642.697	137.628	-0.192	0.252
-641.682	-33.741	0.193	0.107
-640.668	-136.665	-0.175	0.020
-639.653	-200.000	0.011	0.061
-638.638	93.528	0.145	-0.164
-637.624	-200.000	0.041	-0.240
-636.609	-79.785	-0.051	-0.017
-635.595	-200.000	0.054	0.330
-634.580	-107.977	-0.159	-0.035
-633.565	163.312	0.073	-0.102
-632.551	800.000	0.079	-0.261
-631.536	561.746	-0.095	-0.231
-630.522	-163.238	-0.311	-0.015
-629.507	-69.717	-0.115	0.044
-628.492	-200.000	0.090	0.425
-627.478	-200.000	-0.003	-0.167
-626.463	800.000	-0.110	-0.377
-625.449	-166.992	-0.151	-0.006
-624.434	-74.845	-0.118	-0.043
-623.419	-97.302	0.132	-0.034
-622.405	-200.000	0.012	-0.193
-621.390	99.206	-0.109	0.126
-620.376	-54.086	0.071	-0.032
-619.361	-24.565	0.414	-0.247
-618.346	200.890	-0.241	0.372
-617.332	139.001	0.054	-0.071
-616.317	-200.000	0.005	-0.372
-615.303	-117.321	0.158	-0.029
-614.288	56.942	0.135	0.132
-613.273	85.206	-0.302	-0.332
-612.259	-93.333	-0.331	0.092
-611.244	-111.055	0.331	0.068
-610.230	-200.000	0.008	0.445
-609.215	316.662	-0.128	-0.242
-608.201	-175.393	-0.136	0.004
-607.186	291.328	0.091	0.166
-606.171	-200.000	0.025	-0.123
-605.157	130.089	-0.160	-0.206
-604.142	-10.634	0.236	-0.156
-603.128	800.000	0.058	0.181
-602.113	-131.697	-0.318	-0.042
-601.098	-164.392	-0.152	0.007
-600.084	55.290	-0.116	0.112
-599.069	435.972	0.040	-0.086
-598.055	-111.469	0.169	-0.034
-597.040	8.225	-0.342	0.257
-596.025	800.000	0.028	0.083
-595.011	-71.240	0.143	0.054
-593.996	165.574	0.089	0.127
-592.982	119.869	-0.202	0.250
-591.967	16.022	0.138	0.109
-590.952	-200.000	-0.012	-0.140
-589.938	-200.000	0.019	0.106
-588.923	-200.000	-0.057	-0.289
-587.909	-22.053	0.304	-0.185
-586.894	207.477	-0.146	-0.228
-585.879	-117.278	-0.277	-0.050
-584.865	-25.388	-0.150	-0.089
-583.850	-200.000	-0.024	-0.191
-582.836	-25.637	-0.314	-0.186
-581.821	626.272	0.149	0.375
-580.806	-82.704	-0.415	-0.134
-579.792	118.880	0.168	0.208
-578.777	800.000	0.046	0.149
-577.763	278.375	-0.176	0.314
-576.748	-117.829	-0.227	-0.041
-575.733	-64.646	-0.301	-0.122
-574.719	-51.868	0.108	0.050
-573.704	-154.625	-0.147	0.010
-572.690	-105.231	-0.364	0.083
-571.675	-19.053	0.095	-0.059
-570.661	294.653	0.103	-0.188
-569.646	-134.402	0.365	0.045
-568.631	-46.798	-0.346	0.170
-567.617	183.146	-0.127	-0.188
-566.602	800.000	-0.012	0.046
-565.588	-200.000	-0.028	0.255
-564.573	-129.083	-0.399	-0.056
-563.558	439.548	-0.148	-0.323
-562.544	800.000	-0.023	0.082
-561.529	235.072	-0.112	0.185
-560.515	800.000	-0.042	-0.140
-559.500	5.193	0.138	0.102
-558.485	-103.536	0.113	-0.027
-557.471	800.000	0.031	-0.107
-556.456	284.119	-0.146	0.262
-555.442	697.201	-0.016	0.043
-554.427	86.520	0.082	0.091
-553.412	-200.000	-0.004	0.313
-552.398	68.494	-0.185	0.190
-551.383	-200.000	0.005	-0.253
-550.369	-200.000	-0.014	-0.132
-549.354	800.000	-0.066	-0.183
-548.339	-121.371	0.514	0.086
-547.325	313.841	0.151	0.285
-546.310	61.197	-0.180	0.179
-545.296	-161.206	0.387	-0.020
-544.281	-30.448	0.234	0.132
-543.266	-200.000	-0.011	-0.065
-542.252	-186.354	-0.318	-0.005
-541.237	-200.000	0.033	0.149
-540.223	135.965	0.016	0.021
-539.208	98.668	0.129	-0.148
-538.193	-90.112	-0.236	-0.069
-537.179	459.994	-0.025	-0.056
-536.164	124.793	0.066	0.082
-535.150	168.260	0.099	0.141
-534.135	800.000	0.111	-0.341
-533.121	145.435	-0.198	-0.264
-532.106	27.096	0.157	0.132
-531.091	-79.372	0.233	0.079
-530.077	124.761	-0.109	0.137
-529.062	-34.654	0.084	-0.046
-528.048	68.439	0.250	-0.256
-527.033	800.000	-0.062	-0.189
-526.018	-129.019	-0.277	0.039
-525.004	1.925	0.193	-0.139
-523.989	185.980	-0.159	-0.236
-522.975	800.000	0.052	-0.219
-521.960	-18.462	0.328	0.205
-520.945	216.747	-0.085	-0.135
-519.931	-125.837	-0.263	-0.040
-518.916	171.726	0.180	-0.259
-517.902	-74.072	-0.037	0.013
-516.887	96.122	0.105	0.120
-515.872	-200.000	-0.032	0.303
-514.858	-117.688	-0.089	-0.016
-513.843	-200.000	-0.061	-0.436
-512.829	-72.747	0.102	0.038
-511.814	-75.583	0.017	0.006
-510.799	2.401	-0.138	-0.100
-509.785	95.939	0.073	0.083
-508.770	492.533	-0.116	-0.265
-507.756	-92.558	0.151	-0.042
-506.741	563.015	0.141	-0.340
-505.726	50.425	-0.247	-0.233
-504.712	102.140	0.145	-0.169
-503.697	120.901	0.227	-0.282
-502.683	-200.000	0.001	-0.259
-501.668	-8.782	0.084	0.056
-500.653	211.489	-0.123	-0.192
-499.639	20.483	-0.112	0.090
-498.624	-200.000	-0.006	-0.340
-497.610	30.989	-0.148	-0.127
-496.595	-3.752	-0.114	0.079
-495.581	-200.000	0.021	-0.156
-494.566	54.730	0.175	-0.168
-493.551	-200.000	0.083	-0.393
-492.537	-80.158	0.207	-0.069
-491.522	-81.405	0.133	0.044
-490.508	-164.177	0.194	0.009
-489.493	-200.000	-0.041	0.229
-488.478	87.534	-0.109	0.121
-487.464	-4.679	-0.104	-0.072
-486.449	118.405	-0.160	-0.197
-485.435	-69.349	-0.131	0.050
-484.420	-4.663	0.246	-0.169
-483.405	24.963	0.164	-0.136
-482.391	-149.481	-0.064	-0.005
-481.376	87.846	0.240	-0.266
-480.362	-127.639	-0.367	-0.053
-479.347	275.581	0.119	0.211
-478.332	-200.000	0.004	0.337
-477.318	-28.193	-0.138	-0.080
-476.303	584.744	-0.132	-0.322
-475.289	476.370	-0.131	0.296
-474.274	-74.391	0.106	-0.038
-473.259	-197.374	-0.187	-0.001
-472.245	171.391	0.222	0.317
-471.230	800.000	-0.087	-0.274
-470.216	-33.185	0.181	-0.100
-469.201	771.658	0.060	0.163
-468.186	-177.343	0.242	0.006
-467.172	-186.022	0.372	-0.005
-466.157	-59.591	0.285	0.122
-465.143	637.431	0.077	0.196
-464.128	-68.022	0.272	-0.106
-463.113	-12.884	0.170	-0.110
-462.099	-14.166	-0.069	-0.045
-461.084	-87.498	0.238	-0.072
-460.070	-6.092	0.213	0.145
-459.055	63.422	-0.046	0.046
-458.040	-32.796	-0.292	0.162
-457.026	152.425	0.070	-0.095
-456.011	-29.475	0.144	-0.082
-454.997	-200.000	0.070	0.308
-453.982	-26.679	-0.238	0.139
-452.968	-52.867	0.151	0.069
-451.953	260.282	-0.055	-0.094
-450.938	-200.000	0.021	-0.096
-449.924	675.454	-0.042	0.109
-448.909	-50.088	-0.288	0.136
-447.895	112.515	0.085	0.103
-446.880	441.962	0.263	-0.573
-445.865	63.220	0.173	-0.173
-444.851	59.883	0.233	0.229
-443.836	101.709	-0.082	-0.096
-442.822	800.000	0.058	0.162
-441.807	800.000	0.050	0.192
-440.792	-30.504	-0.090	0.051
-439.778	-98.642	-0.106	-0.027
-438.763	800.000	0.041	-0.113
-437.749	-14.054	-0.359	-0.231
-436.734	770.384	0.100	-0.270
-435.719	-68.305	0.358	0.138
-434.705	-28.338	-0.073	-0.042
-433.690	-200.000	0.007	-0.210
-432.676	-146.132	-0.325	0.028
-431.661	402.978	0.076	0.160
-430.646	126.670	-0.080	-0.101
-429.632	215.240	0.170	-0.268
-428.617	-200.000	0.021	0.096
-427.603	-97.476	-0.053	-0.014
-426.588	144.215	0.086	0.114
-425.573	-136.409	0.211	0.024
-424.559	220.825	-0.103	-0.164
-423.544	17.452	0.093	0.073
-422.530	-51.602	0.162	-0.075
-421.515	-42.061	0.183	-0.093
-420.500	417.235	0.138	0.294
-419.486	375.505	0.180	-0.366
-418.471	7.557	-0.112	0.083
-417.457	246.638	0.031	-0.052
-416.442	63.492	-0.008	0.008
-415.428	-14.038	-0.276	0.177
-414.413	164.813	0.119	-0.167
-413.398	-48.222	-0.090	-0.043
-412.384	354.972	-0.126	-0.250
-411.369	-9.199	0.146	0.097
-410.355	115.723	-0.098	-0.120
-409.340	-56.725	-0.259	0.114
-408.325	29.969	-0.125	0.106
-407.311	-67.725	-0.127	0.049
-406.296	-42.933	0.311	0.157
-405.282	390.186	0.195	-0.402
-404.267	-46.952	0.095	-0.046
-403.252	-144.351	-0.155	-0.014
-402.238	111.809	0.081	-0.098
-401.223	344.498	0.087	0.170
-400.209	-164.722	0.036	-0.002
-399.194	800.000	-0.023	0.095
-398.179	-127.043	0.206	0.030
-397.165	-2.335	-0.156	-0.109
-396.150	290.692	-0.039	0.070
-395.136	-155.183	-0.236	0.015
-394.121	10.867	-0.318	-0.241
-393.106	-6.328	-0.205	0.139
-392.092	46.229	0.056	-0.052
-391.077	199.389	-0.119	-0.182
-390.063	-138.017	0.161	0.018
-389.048	-158.152	-0.168	0.010
-388.033	-200.000	-0.041	-0.184
-387.019	-98.039	-0.217	0.055
-386.004	87.825	0.187	-0.206
-384.990	140.662	0.048	0.064
-383.975	-69.626	0.048	0.018
-382.960	-170.290	-0.101	-0.004
-381.946	-42.777	-0.333	0.168
-380.931	800.000	0.075	-0.225
-379.917	-105.587	-0.144	0.032
-378.902	-158.326	-0.110	0.006
-377.888	-200.000	-0.000	0.064
-376.873	795.592	0.134	-0.366
-375.858	110.879	0.118	-0.141
-374.844	-30.746	-0.188	0.106
-373.829	521.128	-0.097	0.227
-372.815	117.290	0.120	0.146
-371.800	-63.604	0.086	0.035
-370.785	-50.096	-0.108	0.051
-369.771	0.290	-0.198	0.140
-368.756	-126.239	0.070	-0.010
-367.742	-109.447	0.216	0.045
-366.727	-9.710	-0.062	-0.041
-365.712	-145.448	-0.304	-0.027
-364.698	800.000	-0.049	-0.162
-363.683	-177.595	-0.128	-0.003
-362.669	800.000	-0.126	0.366
-361.654	109.281	0.298	0.354
-360.639	-9.936	0.215	0.142
-359.625	90.270	0.121	0.135
-358.610	122.728	0.115	0.143
-357.596	127.983	-0.028	0.036
-356.581	313.042	-0.096	-0.180
-355.566	614.993	-0.141	0.352
-354.552	171.361	-0.125	0.179
-353.537	16.427	0.045	-0.035
-352.523	33.045	-0.085	0.073
-351.508	74.824	0.276	0.288
-350.493	17.708	-0.316	0.250
-349.479	-200.000	-0.045	0.333
-348.464	-23.671	-0.363	0.216
-347.450	-100.647	-0.158	0.039
-346.435	35.490	-0.090	-0.078
-345.420	261.408	-0.124	0.213
-344.406	-200.000	-0.012	-0.273
-343.391	-152.590	0.372	-0.026
-342.377	475.818	0.156	0.351
-341.362	-200.000	0.010	0.145
-340.348	-200.000	-0.012	0.160
-339.333	34.172	0.037	-0.032
-338.318	236.262	-0.137	0.224
-337.304	-200.000	0.018	-0.199
-336.289	38.915	-0.239	-0.211
-335.275	441.573	0.124	-0.269
-334.260	-200.000	0.015	-0.156
-333.245	-37.692	0.030	0.016
-332.231	77.492	0.081	0.085
-331.216	109.876	-0.163	0.194
-330.202	-200.000	0.052	0.302
-329.187	-200.000	0.014	0.196
-328.172	800.000	0.081	-0.227
-327.158	30.629	-0.144	0.122
-326.143	27.935	-0.336	0.281
-325.129	-26.207	0.116	-0.068
-324.114	-30.338	-0.223	-0.125
-323.099	208.725	-0.088	0.136
-322.085	442.405	0.033	0.072
-321.070	58.231	0.276	0.268
-320.056	455.417	0.122	0.267
-319.041	663.151	-0.027	-0.070
-318.026	-181.248	0.288	0.006
-317.012	75.887	0.158	-0.166
-315.997	-31.293	0.321	0.179
-314.983	372.385	-0.109	0.220
-313.968	47.820	-0.187	-0.173
-312.953	2.724	-0.091	0.066
-311.939	-200.000	0.074	-0.327
-310.924	-200.000	-0.047	0.300
-309.910	190.823	0.151	0.225
-308.895	298.673	0.200	0.365
-307.880	-91.712	-0.233	0.066
-306.866	78.966	-0.095	-0.100
-305.851	-110.663	0.085	-0.017
-304.837	-168.779	-0.278	0.010
-303.822	-108.885	0.239	-0.051
-302.807	-179.391	0.232	0.005
-301.793	-115.099	-0.257	0.048
-300.778	77.037	0.171	-0.180
-299.764	800.000	-0.075	-0.209
-298.749	266.958	0.228	0.395
-297.735	-200.000	-0.004	0.076
-296.720	596.313	-0.052	0.128
-295.705	34.441	-0.324	0.280
-294.691	-47.746	0.117	0.056
-293.676	-68.925	-0.221	-0.084
-292.662	-162.727	-0.333	-0.016
-291.647	671.134	-0.096	-0.246
-290.632	54.442	0.179	0.171
-289.618	-22.229	0.128	0.077
-288.603	-41.363	0.134	-0.068
-287.589	-58.814	0.213	0.091
-286.574	-80.279	-0.170	0.056
-285.559	800.000	0.108	-0.395
-284.545	10.291	0.213	-0.160
-283.530	800.000	-0.018	-0.064
-282.516	800.000	0.072	0.235
-281.501	-35.737	0.151	-0.081
-280.486	275.441	-0.074	-0.129
-279.472	-200.000	-0.007	0.074
-278.457	6.641	-0.336	-0.247
-277.443	-158.688	-0.167	0.010
-276.428	107.117	0.154	0.181
-275.413	195.270	-0.252	-0.379
-274.399	-96.174	-0.104	-0.027
-273.384	-86.543	0.178	0.054
-272.370	27.272	0.141	-0.117
-271.355	207.498	-0.111	-0.171
-270.340	-200.000	0.062	-0.302
-269.326	92.632	0.063	0.070
-268.311	-85.969	-0.144	0.044
-267.297	800.000	0.044	-0.144
-266.282	22.491	0.014	-0.011
-265.267	-11.676	0.174	-0.113
-264.253	-125.419	0.105	0.016
-263.238	390.270	-0.136	0.278
-262.224	800.000	0.076	-0.248
-261.209	210.851	-0.124	0.192
-260.195	-200.000	-0.018	0.156
-259.180	319.638	0.133	-0.249
-258.165	800.000	0.066	-0.198
-257.151	-86.230	0.126	-0.038
-256.136	-159.850	-0.227	0.012
-255.122	270.522	-0.110	0.192
-254.107	58.882	-0.134	-0.130
-253.092	-32.501	-0.414	-0.228
-252.078	182.198	-0.074	0.108
-251.063	-129.839	0.202	0.027
-250.049	-200.000	0.008	0.147
-249.034	-200.000	-0.031	-0.140
-248.019	-20.270	0.212	-0.129
-247.005	-50.695	0.278	0.129
-245.990	-120.518	-0.104	0.017
-244.976	121.035	0.129	0.158
-243.961	-200.000	0.017	-0.230
-242.946	-146.472	0.036	-0.003
-241.932	800.000	0.057	-0.207
-240.917	451.047	-0.118	0.257
-239.903	800.000	0.054	0.166
-238.888	295.723	-0.222	-0.402
-237.873	-123.146	-0.055	0.009
-236.859	-200.000	-0.013	-0.130
-235.844	715.769	-0.098	0.256
-234.830	-111.367	-0.162	0.033
-233.815	800.000	-0.061	-0.187
-232.800	800.000	0.063	0.232
-231.786	-77.046	-0.037	-0.013
-230.771	108.710	0.046	0.055
-229.757	-200.000	-0.007	-0.102
-228.742	-108.261	0.109	0.023
-227.727	-177.863	0.168	-0.004
-226.713	-200.000	0.008	0.301
-225.698	83.678	-0.161	0.174
-224.684	105.672	-0.045	-0.052
-223.669	212.569	-0.070	0.109
-222.655	759.642	-0.081	0.216
-221.640	-15.711	-0.281	0.177
-220.625	-43.148	-0.265	-0.133
-219.611	-130.216	0.150	0.020
-218.596	183.931	0.098	0.143
-217.582	-200.000	-0.024	-0.213
-216.567	-16.112	0.272	0.171
-215.552	143.111	0.117	-0.153
-214.538	-125.166	-0.112	0.017
-213.523	-200.000	0.009	-0.219
-212.509	-3.577	0.257	0.176
-211.494	-12.685	-0.105	0.067
-210.479	-200.000	-0.029	-0.353
-209.465	-133.207	0.409	0.051
-208.450	800.000	0.071	0.228
-207.436	-77.853	0.279	-0.095
-206.421	206.523	0.299	-0.459
-205.406	-200.000	0.019	0.120
-204.392	150.866	0.143	0.192
-203.377	-42.657	0.560	0.281
-202.363	800.000	-0.110	-0.394
-201.348	-75.619	-0.130	-0.046
-200.333	-200.000	0.029	0.164
-199.319	286.089	-0.098	0.174
-198.304	380.584	-0.081	0.164
-197.290	134.384	-0.267	-0.341
-196.275	-33.766	-0.239	0.130
-195.260	-200.000	-0.022	-0.095
-194.246	249.153	0.183	-0.306
-193.231	-102.577	0.352	0.083
-192.217	773.879	-0.141	-0.381
-191.202	705.562	0.076	-0.199
-190.187	152.232	0.068	-0.092
-189.173	-200.000	-0.022	0.156
-188.158	-106.138	-0.277	0.061
-187.144	-139.054	0.379	-0.040
-186.129	486.650	0.068	0.153
-185.114	723.516	0.024	-0.063
-184.100	800.000	0.090	0.249
-183.085	800.000	-0.044	-0.165
-182.071	-28.061	0.308	-0.175
-181.056	14.927	-0.120	-0.093
-180.042	-200.000	0.046	-0.425
-179.027	76.403	0.240	-0.251
-178.012	-90.998	0.216	-0.061
-176.998	136.399	0.212	-0.272
-175.983	118.913	-0.224	0.272
-174.969	-22.260	0.083	0.050
-173.954	800.000	-0.022	0.068
-172.939	-200.000	-0.109	-0.000
-171.925	-22.514	0.360	-0.215
-170.910	-91.459	-0.241	-0.068
-169.896	-60.407	0.245	0.103
-168.881	99.281	0.125	0.142
-167.866	189.423	0.073	-0.108
-166.852	-200.000	0.008	0.057
-165.837	1.782	-0.353	0.250
-164.823	522.237	0.097	0.224
-163.808	-91.305	0.233	0.066
-162.793	21.710	-0.243	0.195
-161.779	-200.000	0.029	0.144
-160.764	-144.943	-0.138	-0.012
-159.750	-200.000	-0.078	0.369
-158.735	-14.242	0.224	0.143
-157.720	-78.464	-0.258	0.087
-156.706	85.440	-0.105	-0.113
-155.691	800.000	0.179	0.505
-154.677	20.892	-0.068	0.055
-153.662	-132.364	0.119	0.015
-152.647	465.236	-0.182	-0.401
-151.633	84.173	-0.115	0.124
-150.618	97.288	-0.132	-0.149
-149.604	157.700	0.219	0.299
-148.589	-76.604	-0.075	-0.026
-147.574	800.000	0.045	-0.169
-146.560	-32.735	0.112	-0.061
-145.545	-106.312	-0.271	0.060
-144.531	5.003	-0.159	0.115
-143.516	31.851	0.047	-0.040
-142.502	-192.923	-0.219	0.002
-141.487	-15.906	-0.188	-0.118
-140.472	-111.689	-0.309	-0.062
-139.458	-93.479	0.243	0.066
-138.443	-103.046	-0.298	0.070
-137.429	-200.000	0.003	0.073
-136.414	-10.300	0.186	-0.121
-135.399	13.559	-0.070	-0.054
-134.385	-200.000	-0.009	0.138
-133.370	43.491	-0.240	-0.215
-132.356	-200.000	-0.012	0.106
-131.341	110.932	-0.166	0.197
-130.326	-51.538	0.267	0.123
-129.312	-94.552	-0.104	0.028
-128.297	-71.575	-0.395	-0.145
-127.283	-200.000	0.005	-0.114
-126.268	-74.330	0.255	0.091
-125.253	800.000	-0.051	0.192
-124.239	279.078	-0.201	-0.352
-123.224	-200.000	0.021	-0.284
-122.210	37.084	-0.331	0.288
-121.195	-200.000	0.004	-0.379
