DTS Sentinel unit serial number:	SN413079Multiplexer serial number:	ORYXHardware model number:	OX4-SRSoftware version number:	ORYX F/W v4.00 Oryx Data Collector v3.7.2.0data status	okinstallation	princeton_trtdifferential loss correction	single-endedforward channel	channel 2reverse channel	N/Adate	2019/09/12time	08:37:11forward acquisition time	60.00reverse acquisition time	0.00gamma	496.2192k internal	0.2318k external	0.2318temperature offset calibration	1.0063default loss term (dB/km)	0.3790temperature slope calibration	1.0000multiplexer offset coefficient	1.0000multiplexer slope coefficient	1.0000fibre end	0.00T internal ref (°C)	33.75T ext. ref 1 (°C)	1.72T ext. ref 2 (°C)	30.18length (m)	temperature (°C)	Stokes	anti-Stokes-747.200	-200.000	0.087	0.389
-746.185	-108.660	-0.319	-0.069
-745.171	-200.000	0.018	0.165
-744.156	207.778	0.121	0.191
-743.142	317.645	-0.134	-0.257
-742.127	672.075	-0.046	-0.120
-741.112	-200.000	-0.055	-0.261
-740.098	-200.000	0.002	0.196
-739.083	800.000	0.176	0.610
-738.069	341.219	-0.044	0.086
-737.054	-103.408	0.168	-0.040
-736.039	-200.000	0.041	0.185
-735.025	313.728	0.127	0.241
-734.010	800.000	-0.082	-0.275
-732.996	248.612	0.163	-0.280
-731.981	118.810	-0.198	-0.247
-730.966	-65.005	-0.112	-0.046
-729.952	101.052	0.140	-0.165
-728.937	-200.000	-0.011	0.141
-727.923	367.240	-0.166	0.338
-726.908	151.500	0.066	0.090
-725.894	800.000	0.047	0.161
-724.879	543.432	0.136	0.328
-723.864	30.954	-0.215	-0.186
-722.850	-2.846	-0.299	-0.211
-721.835	203.011	0.036	0.056
-720.821	-60.759	0.213	-0.091
-719.806	-108.811	0.326	-0.070
-718.791	-91.629	0.114	0.033
-717.777	290.104	0.096	0.176
-716.762	150.584	0.120	0.165
-715.748	800.000	-0.021	0.066
-714.733	67.615	-0.185	-0.191
-713.718	-126.435	0.171	0.026
-712.704	800.000	-0.029	-0.096
-711.689	-24.959	-0.385	-0.231
-710.675	-113.621	0.118	-0.023
-709.660	-38.914	0.168	0.090
-708.645	-132.200	0.172	-0.023
-707.631	9.471	0.151	0.115
-706.616	139.282	-0.153	-0.203
-705.602	314.108	0.189	0.359
-704.587	169.260	-0.159	-0.229
-703.572	800.000	0.019	-0.071
-702.558	800.000	0.074	0.259
-701.543	-22.092	-0.243	-0.149
-700.529	-200.000	0.031	0.251
-699.514	-113.726	-0.150	-0.030
-698.499	305.815	-0.111	-0.209
-697.485	53.394	-0.328	0.318
-696.470	-45.018	-0.077	0.038
-695.456	178.792	0.162	-0.240
-694.441	-88.578	-0.052	-0.016
-693.426	327.091	0.052	-0.101
-692.412	35.484	0.191	-0.169
-691.397	-153.434	-0.146	-0.010
-690.383	-200.000	-0.012	-0.179
-689.368	-105.793	-0.107	0.024
-688.354	-200.000	-0.062	0.356
-687.339	92.205	-0.184	-0.210
-686.324	-39.209	-0.188	-0.100
-685.310	-116.905	0.335	0.062
-684.295	100.177	-0.176	0.207
-683.281	-200.000	0.025	-0.227
-682.266	-60.744	0.100	-0.043
-681.251	-15.495	0.430	-0.277
-680.237	112.836	-0.258	-0.316
-679.222	-36.773	0.137	-0.074
-678.208	118.371	-0.119	-0.148
-677.193	550.641	-0.101	-0.243
-676.178	-90.499	0.156	0.046
-675.164	-174.677	-0.217	-0.006
-674.149	-146.201	0.128	0.011
-673.135	182.111	0.076	-0.113
-672.120	800.000	-0.072	0.235
-671.105	-200.000	-0.029	-0.282
-670.091	491.468	0.188	0.434
-669.076	-166.351	-0.139	-0.006
-668.062	-124.904	-0.271	0.042
-667.047	-200.000	-0.013	-0.131
-666.032	143.723	-0.152	0.204
-665.018	31.053	-0.162	-0.140
-664.003	-200.000	-0.104	0.518
-662.989	-29.762	0.283	0.163
-661.974	346.728	0.044	0.086
-660.959	-17.274	-0.226	-0.144
-659.945	-25.621	0.288	-0.172
-658.930	-17.129	0.171	0.109
-657.916	-17.749	-0.311	0.197
-656.901	-150.032	0.391	-0.031
-655.886	106.359	0.156	0.186
-654.872	-63.698	0.297	0.123
-653.857	-200.000	-0.012	-0.072
-652.843	-52.274	0.214	-0.100
-651.828	-4.457	0.101	0.071
-650.814	-84.402	-0.242	-0.077
-649.799	-131.213	0.417	-0.056
-648.784	-143.115	-0.386	0.038
-647.770	166.032	-0.036	0.052
-646.755	684.996	0.060	0.157
-645.741	-19.995	0.283	-0.176
-644.726	-37.711	0.249	-0.134
-643.711	-107.706	0.191	0.042
-642.697	800.000	-0.053	-0.195
-641.682	-200.000	0.010	-0.296
-640.668	-32.188	-0.210	0.119
-639.653	800.000	-0.108	0.328
-638.638	-147.373	-0.155	0.013
-637.624	116.489	0.133	-0.164
-636.609	-200.000	0.028	-0.450
-635.595	-14.848	0.231	-0.149
-634.580	142.283	-0.056	0.075
-633.565	-143.431	-0.247	0.024
-632.551	378.433	-0.070	0.145
-631.536	147.765	-0.077	0.105
-630.522	-141.759	-0.176	0.018
-629.507	-20.235	-0.272	-0.169
-628.492	-79.054	0.086	-0.029
-627.478	-172.525	-0.105	-0.003
-626.463	-129.853	0.299	0.041
-625.449	-29.698	-0.231	-0.133
-624.434	-76.303	0.082	-0.029
-623.419	-43.320	0.522	0.266
-622.405	800.000	-0.038	-0.120
-621.390	179.098	-0.058	-0.086
-620.376	41.414	0.366	0.334
-619.361	-99.232	0.109	-0.028
-618.346	-200.000	-0.008	-0.282
-617.332	44.545	-0.172	-0.159
-616.317	176.509	-0.113	0.165
-615.303	363.996	0.129	-0.261
-614.288	-8.949	0.170	0.115
-613.273	86.297	0.163	0.180
-612.259	-136.470	-0.359	-0.042
-611.244	183.684	-0.191	-0.285
-610.230	-88.848	-0.301	0.090
-609.215	158.534	-0.182	-0.254
-608.201	-126.886	0.032	-0.005
-607.186	91.146	0.187	-0.211
-606.171	34.081	-0.110	-0.096
-605.157	709.505	0.074	-0.197
-604.142	-96.936	0.303	0.080
-603.128	-114.200	-0.322	-0.063
-602.113	21.037	0.211	0.172
-601.098	-77.474	-0.051	0.018
-600.084	-200.000	0.032	0.144
-599.069	29.503	-0.322	0.275
-598.055	-125.579	0.254	-0.039
-597.040	468.462	0.029	0.066
-596.025	-69.972	0.194	-0.074
-595.011	800.000	-0.091	0.360
-593.996	39.020	0.108	-0.097
-592.982	-53.665	-0.202	-0.093
-591.967	-38.439	-0.049	-0.026
-590.952	-86.094	0.195	-0.060
-589.938	800.000	0.093	-0.391
-588.923	154.035	0.107	-0.148
-587.909	-40.757	-0.422	-0.220
-586.894	800.000	-0.033	-0.127
-585.879	-200.000	0.011	-0.058
-584.865	-200.000	0.137	0.000
-583.850	-200.000	0.005	-0.100
-582.836	121.009	-0.119	-0.148
-581.821	654.052	-0.020	0.050
-580.806	800.000	-0.021	-0.085
-579.792	455.451	0.126	0.280
-578.777	683.025	0.091	0.240
-577.763	-200.000	-0.004	-0.233
-576.748	9.949	0.037	-0.029
-575.733	25.600	0.351	-0.294
-574.719	386.902	0.013	0.027
-573.704	-200.000	0.019	-0.102
-572.690	-85.148	-0.120	0.038
-571.675	622.060	-0.143	-0.361
-570.661	800.000	-0.031	-0.090
-569.646	800.000	0.050	-0.178
-568.631	38.876	-0.151	-0.136
-567.617	-116.284	-0.210	-0.039
-566.602	345.742	-0.096	-0.190
-565.588	314.716	-0.042	-0.079
-564.573	298.073	0.065	0.121
-563.558	-43.238	-0.019	-0.010
-562.544	434.424	-0.096	0.209
-561.529	-68.727	-0.281	-0.109
-560.515	55.427	0.086	0.084
-559.500	-55.549	-0.281	-0.127
-558.485	800.000	-0.147	0.465
-557.471	-200.000	-0.007	-0.129
-556.456	272.588	-0.125	0.221
-555.442	-200.000	-0.010	-0.160
-554.427	51.677	0.434	0.415
-553.412	-200.000	0.421	-0.002
-552.398	-200.000	-0.002	0.041
-551.383	61.591	-0.124	0.124
-550.369	103.854	-0.240	0.283
-549.354	77.599	0.089	0.095
-548.339	263.635	0.128	-0.224
-547.325	509.335	0.105	-0.245
-546.310	-31.056	-0.334	-0.189
-545.296	95.504	-0.229	-0.262
-544.281	196.465	-0.127	-0.194
-543.266	258.963	-0.067	-0.116
-542.252	350.194	0.109	-0.217
-541.237	-62.576	0.227	0.095
-540.223	-84.514	0.349	-0.111
-539.208	-200.000	0.053	-0.279
-538.193	425.319	-0.047	-0.101
-537.179	800.000	-0.023	0.091
-536.164	-30.399	-0.323	-0.184
-535.150	-200.000	0.045	0.245
-534.135	338.458	-0.126	-0.247
-533.121	-27.130	0.224	0.131
-532.106	-192.443	0.279	-0.003
-531.091	50.749	-0.073	0.069
-530.077	8.250	0.129	0.097
-529.062	-167.499	-0.082	0.003
-528.048	-112.805	-0.217	0.043
-527.033	-90.112	-0.104	0.030
-526.018	41.500	-0.288	0.261
-525.004	-87.571	0.079	0.024
-523.989	194.526	-0.115	-0.176
-522.975	-44.003	-0.170	0.086
-521.960	-123.654	-0.181	0.029
-520.945	91.603	0.141	0.159
-519.931	-73.730	-0.223	0.081
-518.916	800.000	0.013	0.057
-517.902	55.838	0.178	-0.174
-516.887	111.667	-0.147	0.178
-515.872	-70.116	-0.176	-0.067
-514.858	-31.870	0.358	0.201
-513.843	-14.383	0.195	0.126
-512.829	-21.566	-0.182	-0.112
-511.814	-127.736	-0.251	-0.036
-510.799	290.968	-0.182	0.331
-509.785	317.356	0.096	-0.182
-508.770	-113.813	-0.040	0.008
-507.756	-5.029	-0.163	0.113
-506.741	48.756	-0.121	0.114
-505.726	-145.051	0.323	-0.029
-504.712	-132.672	0.268	-0.034
-503.697	-81.128	-0.297	0.099
-502.683	216.927	0.149	0.238
-501.668	303.335	0.121	0.225
-500.653	800.000	0.024	-0.086
-499.639	-68.027	0.283	0.111
-498.624	-38.431	-0.163	0.087
-497.610	-200.000	0.026	0.308
-496.595	-60.645	-0.273	0.116
-495.581	100.174	0.161	0.187
-494.566	-127.693	0.156	-0.023
-493.551	-161.364	-0.284	0.015
-492.537	229.123	0.100	0.164
-491.522	-200.000	-0.033	0.435
-490.508	227.457	0.123	-0.200
-489.493	-200.000	0.022	0.099
-488.478	-14.101	0.172	0.111
-487.464	-168.853	-0.239	-0.009
-486.449	-20.328	0.080	-0.049
-485.435	-30.243	0.188	0.107
-484.420	127.832	-0.184	0.234
-483.405	6.560	-0.127	0.095
-482.391	-200.000	-0.021	-0.109
-481.376	-62.807	0.472	-0.196
-480.362	298.275	0.072	-0.132
-479.347	355.525	-0.025	0.050
-478.332	-135.298	-0.166	-0.020
-477.318	-70.239	-0.277	-0.105
-476.303	80.825	0.263	-0.284
-475.289	99.485	0.165	0.192
-474.274	-141.323	-0.162	0.016
-473.259	-1.222	-0.183	-0.129
-472.245	-58.777	-0.038	0.016
-471.230	-115.014	0.080	-0.015
-470.216	125.034	-0.106	-0.133
-469.201	445.642	-0.071	-0.155
-468.186	-153.770	-0.159	-0.011
-467.172	-142.416	-0.243	0.024
-466.157	48.380	-0.042	-0.039
-465.143	-0.725	0.170	-0.121
-464.128	-136.994	-0.038	0.004
-463.113	543.424	-0.078	-0.186
-462.099	-147.968	-0.454	-0.038
-461.084	53.696	-0.229	-0.220
-460.070	-119.319	-0.305	-0.053
-459.055	-116.055	-0.091	0.017
-458.040	-200.000	-0.043	0.273
-457.026	240.247	0.128	-0.213
-456.011	-52.426	-0.048	0.022
-454.997	-18.015	-0.144	-0.091
-453.982	196.971	-0.247	0.376
-452.968	-27.943	0.037	-0.022
-451.953	-6.678	-0.142	-0.097
-450.938	-200.000	0.068	0.351
-449.924	-184.951	0.102	-0.002
-448.909	-106.166	0.082	0.018
-447.895	329.722	0.004	0.008
-446.880	800.000	-0.138	0.395
-445.865	500.253	0.032	0.075
-444.851	-50.083	0.071	-0.034
-443.836	800.000	-0.086	0.275
-442.822	120.815	-0.319	-0.397
-441.807	-45.874	-0.033	-0.016
-440.792	51.507	-0.319	0.304
-439.778	-200.000	0.004	-0.295
-438.763	-200.000	0.030	0.317
-437.749	342.179	-0.119	0.232
-436.734	-94.685	-0.238	0.065
-435.719	249.546	-0.155	0.262
-434.705	529.603	-0.138	0.325
-433.690	-200.000	0.014	0.164
-432.676	-80.363	0.260	0.087
-431.661	112.582	-0.164	-0.198
-430.646	70.429	0.128	0.132
-429.632	-35.442	0.139	0.075
-428.617	-200.000	-0.013	0.269
-427.603	-48.605	-0.215	0.103
-426.588	-16.198	-0.023	0.014
-425.573	135.503	-0.091	0.119
-424.559	769.603	-0.074	0.201
-423.544	-200.000	0.028	0.177
-422.530	800.000	0.040	-0.153
-421.515	-200.000	-0.015	0.378
-420.500	79.755	-0.054	0.058
-419.486	-98.859	-0.172	-0.044
-418.471	90.980	-0.183	-0.205
-417.457	456.450	0.189	0.419
-416.442	-16.214	0.257	0.163
-415.428	-200.000	0.066	-0.325
-414.413	800.000	-0.053	0.148
-413.398	219.001	0.113	-0.180
-412.384	-200.000	0.042	0.379
-411.369	-200.000	0.018	0.090
-410.355	26.778	0.025	0.021
-409.340	-146.825	-0.208	-0.018
-408.325	-116.518	-0.271	0.050
-407.311	-130.542	0.190	0.026
-406.296	-200.000	-0.018	-0.195
-405.282	311.849	-0.120	-0.225
-404.267	-114.521	0.274	0.052
-403.252	-49.282	0.175	0.083
-402.238	-6.020	0.062	0.042
-401.223	-65.544	-0.042	-0.017
-400.209	-115.533	-0.274	0.051
-399.194	9.674	-0.217	-0.164
-398.179	559.895	-0.085	0.205
-397.165	-152.515	0.089	-0.006
-396.150	-124.175	-0.148	-0.023
-395.136	180.635	0.055	0.081
-394.121	800.000	-0.054	-0.158
-393.106	512.675	0.138	0.321
-392.092	-200.000	-0.004	0.151
-391.077	-94.409	-0.329	-0.090
-390.063	-200.000	0.061	-0.361
-389.048	-200.000	-0.028	-0.167
-388.033	-200.000	-0.050	0.249
-387.019	-54.849	0.140	0.063
-386.004	800.000	-0.080	0.261
-384.990	56.315	-0.185	-0.180
-383.975	85.779	0.124	-0.136
-382.960	193.168	-0.051	0.076
-381.946	800.000	-0.019	-0.053
-380.931	-200.000	-0.032	-0.180
-379.917	467.201	0.046	-0.102
-378.902	-130.414	0.317	-0.043
-377.888	-97.823	0.393	-0.101
-376.873	96.902	-0.104	-0.119
-375.858	612.726	0.102	-0.256
-374.844	43.813	0.305	0.278
-373.829	-52.464	0.147	0.068
-372.815	204.139	-0.131	-0.202
-371.800	212.282	0.068	-0.106
-370.785	-66.437	0.197	0.078
-369.771	-200.000	0.025	0.198
-368.756	-84.702	0.385	0.121
-367.742	800.000	-0.121	-0.399
-366.727	129.663	0.080	0.102
-365.712	-96.442	-0.204	-0.054
-364.698	116.342	0.134	-0.163
-363.683	200.793	0.035	0.053
-362.669	82.382	-0.049	-0.054
-361.654	-74.858	-0.300	-0.107
-360.639	-96.841	0.480	-0.126
-359.625	800.000	0.045	-0.145
-358.610	228.058	-0.238	-0.387
-357.596	-63.012	0.248	-0.102
-356.581	-200.000	0.054	0.277
-355.566	-200.000	0.010	-0.094
-354.552	-54.509	-0.324	-0.146
-353.537	444.819	-0.097	-0.212
-352.523	-200.000	0.005	-0.345
-351.508	492.318	-0.055	0.126
-350.493	800.000	-0.022	-0.078
-349.479	690.178	-0.139	0.362
-348.464	-200.000	-0.007	-0.175
-347.450	-200.000	0.017	-0.160
-346.435	800.000	-0.085	-0.308
-345.420	234.224	-0.131	-0.214
-344.406	201.278	0.197	-0.302
-343.391	-200.000	-0.021	0.096
-342.377	523.075	-0.072	-0.168
-341.362	-36.419	0.149	-0.080
-340.348	-86.655	-0.184	-0.056
-339.333	109.633	-0.036	-0.043
-338.318	196.015	0.083	-0.126
-337.304	-200.000	-0.048	-0.270
-336.289	-107.962	-0.162	-0.035
-335.275	-35.061	-0.267	0.145
-334.260	502.420	-0.056	-0.129
-333.245	-20.431	-0.143	-0.088
-332.231	46.478	0.163	0.151
-331.216	-188.896	0.340	-0.004
-330.202	24.147	-0.240	0.197
-329.187	673.939	0.035	-0.091
-328.172	-150.977	0.327	-0.025
-327.158	320.077	-0.142	0.269
-326.143	-98.753	0.022	0.006
-325.129	89.604	-0.117	-0.131
-324.114	306.488	0.058	-0.108
-323.099	58.217	0.080	0.078
-322.085	41.509	0.450	0.406
-321.070	101.203	-0.097	-0.112
-320.056	-54.950	-0.270	0.121
-319.041	70.738	-0.105	0.109
-318.026	-140.242	-0.217	-0.023
-317.012	39.432	-0.110	-0.098
-315.997	-78.657	-0.212	0.072
-314.983	-66.604	-0.149	0.059
-313.968	68.191	0.105	0.107
-312.953	800.000	-0.083	-0.307
-311.939	185.220	-0.094	0.139
-310.924	-200.000	-0.001	0.242
-309.910	-200.000	-0.037	-0.264
-308.895	-200.000	0.007	0.040
-307.880	39.645	0.098	-0.087
-306.866	33.712	0.209	0.181
-305.851	43.074	-0.184	0.167
-304.837	-146.531	-0.205	-0.018
-303.822	-200.000	-0.014	-0.102
-302.807	-45.207	0.196	-0.097
-301.793	72.433	0.077	-0.080
-300.778	800.000	-0.027	0.094
-299.764	-11.746	-0.180	0.117
-298.749	-200.000	0.030	0.272
-297.735	-190.457	-0.387	0.004
-296.720	419.814	0.058	-0.124
-295.705	-136.275	0.085	-0.010
-294.691	93.274	0.077	0.087
-293.676	40.793	-0.113	0.101
-292.662	800.000	-0.048	0.184
-291.647	239.236	0.022	0.036
-290.632	-55.230	-0.257	-0.115
-289.618	-200.000	-0.017	0.155
-288.603	436.534	0.095	-0.206
-287.589	800.000	-0.044	-0.183
-286.574	800.000	0.078	0.328
-285.559	-200.000	0.035	0.220
-284.545	-51.493	0.210	-0.098
-283.530	-200.000	-0.053	0.269
-282.516	800.000	-0.013	0.043
-281.501	-92.145	0.172	-0.048
-280.486	62.637	-0.127	0.126
-279.472	-47.231	0.110	0.053
-278.457	-167.897	0.176	0.007
-277.443	-98.837	-0.165	0.042
-276.428	293.095	0.039	0.071
-275.413	716.442	-0.052	0.138
-274.399	-200.000	0.031	-0.346
-273.384	-200.000	-0.000	-0.159
-272.370	409.755	0.139	0.293
-271.355	-170.561	0.443	0.015
-270.340	43.521	0.201	-0.182
-269.326	632.874	0.073	0.183
-268.311	-165.033	0.243	0.011
-267.297	-164.331	0.235	0.011
-266.282	-130.102	0.225	0.030
-265.267	800.000	-0.067	-0.201
-264.253	-54.510	-0.124	-0.056
-263.238	-76.565	0.243	0.085
-262.224	541.910	-0.166	-0.394
-261.209	-162.818	0.190	0.009
-260.195	1.480	0.287	0.205
-259.180	-39.222	0.150	-0.078
-258.165	185.303	-0.042	0.062
-257.151	20.189	-0.096	-0.077
-256.136	-200.000	-0.030	-0.156
-255.122	71.467	0.264	-0.272
-254.107	-9.926	0.473	0.312
-253.092	63.608	0.116	0.115
-252.078	15.821	0.118	0.092
-251.063	-137.936	0.196	0.022
-250.049	800.000	-0.055	-0.234
-249.034	-48.042	-0.129	-0.062
-248.019	-200.000	-0.010	-0.081
-247.005	82.164	0.204	-0.220
-245.990	-104.997	0.225	-0.051
-244.976	788.277	0.132	0.360
-243.961	-109.008	0.098	0.021
-242.946	182.707	-0.120	-0.176
-241.932	800.000	-0.074	-0.204
-240.917	401.271	0.012	-0.025
-239.903	-94.734	-0.179	0.048
-238.888	-200.000	-0.017	0.124
-237.873	-106.271	0.307	0.068
-236.859	303.557	-0.039	0.072
-235.844	64.495	0.094	0.094
-234.830	-103.555	-0.095	-0.022
-233.815	-46.018	0.103	-0.050
-232.800	800.000	0.028	-0.102
-231.786	-100.186	0.274	0.068
-230.771	800.000	0.026	0.093
-229.757	-90.052	0.273	-0.079
-228.742	50.677	0.084	0.079
-227.727	-18.919	-0.382	0.236
-226.713	-14.617	0.345	0.220
-225.698	107.572	0.254	-0.300
-224.684	337.680	0.023	0.044
-223.669	44.407	0.158	0.144
-222.655	800.000	0.053	0.153
-221.640	11.871	0.190	0.145
-220.625	800.000	0.058	0.175
-219.611	-200.000	0.072	-0.491
-218.596	-88.885	0.274	0.080
-217.582	24.533	0.204	0.167
-216.567	40.639	-0.090	0.080
-215.552	326.480	0.143	-0.271
-214.538	-137.593	-0.270	0.030
-213.523	-200.000	-0.027	0.131
-212.509	-200.000	-0.050	-0.391
-211.494	82.344	0.142	-0.153
-210.479	-82.211	-0.057	0.018
-209.465	111.542	0.056	0.067
-208.450	84.389	-0.232	-0.251
-207.436	-122.327	-0.165	0.027
-206.421	25.595	-0.104	0.085
-205.406	-200.000	-0.027	0.125
-204.392	-10.867	-0.056	-0.036
-203.377	-84.314	-0.206	-0.065
-202.363	800.000	-0.095	0.280
-201.348	68.745	0.087	0.088
-200.333	367.483	0.117	0.234
-199.319	388.304	-0.188	0.385
-198.304	-200.000	0.026	-0.140
-197.290	-123.340	-0.441	0.070
-196.275	45.537	-0.178	0.163
-195.260	100.024	0.276	-0.317
-194.246	-177.596	0.100	0.002
-193.231	-48.107	-0.125	0.060
-192.217	-103.066	0.094	0.022
-191.202	101.951	0.129	0.149
-190.187	800.000	-0.019	-0.063
-189.173	-166.795	0.143	0.006
-188.158	36.797	0.111	0.097
-187.144	120.791	0.144	0.178
-186.129	3.882	-0.295	-0.213
-185.114	-200.000	-0.033	0.411
-184.100	800.000	0.063	0.259
-183.085	31.018	-0.353	-0.300
-182.071	182.734	-0.102	-0.149
-181.056	-2.253	-0.121	0.084
-180.042	26.073	0.236	-0.195
-179.027	187.779	0.091	-0.135
-178.012	-125.831	0.361	-0.054
-176.998	-187.389	0.375	-0.005
-175.983	-200.000	-0.009	-0.056
-174.969	-69.004	-0.233	-0.089
-173.954	-120.428	0.170	0.029
-172.939	800.000	0.022	0.067
-171.925	-200.000	-0.052	0.265
-170.910	-35.399	0.225	0.121
-169.896	-117.686	0.181	-0.032
-168.881	269.018	-0.029	-0.050
-167.866	-38.220	-0.212	-0.111
-166.852	270.490	-0.205	-0.356
-165.837	6.889	0.052	0.038
-164.823	-104.791	-0.306	0.070
-163.808	-169.702	0.041	-0.001
-162.793	-10.776	0.176	0.115
-161.779	-124.954	-0.146	-0.022
-160.764	190.874	-0.135	-0.201
-159.750	-36.840	-0.224	-0.119
-158.735	-93.683	0.294	-0.080
-157.720	-200.000	0.058	0.268
-156.706	57.069	-0.134	-0.130
-155.691	-200.000	0.010	-0.105
-154.677	228.000	0.030	0.049
-153.662	21.258	0.110	0.089
-152.647	-200.000	0.106	-0.501
-151.633	-96.445	-0.241	-0.063
-150.618	-200.000	0.007	-0.232
-149.604	-200.000	-0.012	0.401
-148.589	-200.000	0.126	0.615
-147.574	28.858	0.139	-0.116
-146.560	-200.000	0.033	0.159
-145.545	-5.685	0.087	0.059
-144.531	182.560	-0.166	0.243
-143.516	-200.000	0.009	-0.186
-142.502	5.893	0.236	-0.172
-141.487	-200.000	0.033	-0.207
-140.472	4.436	-0.358	0.260
-139.458	-48.840	-0.158	0.075
-138.443	-175.037	0.073	-0.002
-137.429	800.000	0.090	-0.368
-136.414	93.714	-0.243	0.272
-135.399	216.695	0.089	-0.139
-134.385	-115.619	0.244	0.045
-133.370	-200.000	-0.016	0.327
-132.356	-168.288	0.080	-0.003
-131.341	-53.111	0.139	-0.063
-130.326	59.950	-0.139	0.136
-129.312	289.153	0.075	0.135
-128.297	-27.065	0.218	0.126
-127.283	-81.880	0.240	0.077
-126.268	800.000	0.098	0.318
-125.253	-93.884	0.175	0.048
-124.239	800.000	0.103	-0.306
-123.224	-110.311	0.083	-0.017
-122.210	117.162	-0.002	-0.002
-121.195	-22.234	0.350	0.210
