DTS Sentinel unit serial number:	SN413079Multiplexer serial number:	ORYXHardware model number:	OX4-SRSoftware version number:	ORYX F/W v4.00 Oryx Data Collector v3.7.2.0data status	okinstallation	princeton_trtdifferential loss correction	single-endedforward channel	channel 2reverse channel	N/Adate	2019/09/13time	02:19:34forward acquisition time	60.00reverse acquisition time	0.00gamma	496.2192k internal	0.2334k external	0.2334temperature offset calibration	1.0182default loss term (dB/km)	0.3790temperature slope calibration	1.0000multiplexer offset coefficient	1.0000multiplexer slope coefficient	1.0000fibre end	0.00T internal ref (°C)	27.55T ext. ref 1 (°C)	3.93T ext. ref 2 (°C)	22.33length (m)	temperature (°C)	Stokes	anti-Stokes-747.200	-200.000	0.009	0.292
-746.185	-9.271	-0.282	0.189
-745.171	-23.682	0.188	-0.113
-744.156	-75.165	0.252	0.091
-743.142	800.000	0.008	0.033
-742.127	-133.363	-0.117	-0.015
-741.112	-9.794	0.053	0.035
-740.098	-94.663	-0.212	-0.058
-739.083	115.201	0.118	0.145
-738.069	16.376	-0.188	0.149
-737.054	-65.657	0.425	-0.171
-736.039	88.852	0.191	-0.213
-735.025	343.609	-0.074	0.145
-734.010	-159.937	-0.361	-0.020
-732.996	-200.000	0.069	-0.370
-731.981	176.343	0.038	0.055
-730.966	-7.278	-0.258	0.176
-729.952	103.371	-0.169	-0.199
-728.937	-13.812	-0.306	-0.198
-727.923	254.853	0.088	-0.150
-726.908	100.811	-0.189	0.220
-725.894	-123.836	-0.130	0.021
-724.879	-42.043	0.038	0.020
-723.864	713.872	-0.043	0.116
-722.850	127.260	-0.174	0.221
-721.835	-21.228	-0.231	-0.142
-720.821	166.280	0.205	-0.292
-719.806	91.616	-0.036	0.041
-718.791	168.334	0.049	-0.070
-717.777	-26.933	-0.159	0.093
-716.762	25.775	0.314	-0.263
-715.748	-49.574	0.296	-0.141
-714.733	144.655	0.139	-0.186
-713.718	-105.755	-0.497	0.113
-712.704	800.000	-0.010	0.036
-711.689	-158.715	-0.161	-0.009
-710.675	441.294	0.113	0.247
-709.660	800.000	0.073	0.245
-708.645	-18.054	-0.401	-0.252
-707.631	-2.176	-0.215	-0.151
-706.616	-56.616	-0.004	-0.002
-705.602	-31.566	0.053	0.030
-704.587	665.484	0.007	-0.017
-703.572	-107.338	0.117	0.026
-702.558	476.319	0.054	-0.121
-701.543	160.499	-0.054	0.076
-700.529	-200.000	-0.006	0.030
-699.514	-119.944	-0.345	-0.059
-698.499	-200.000	0.017	-0.103
-697.485	-1.298	0.116	0.082
-696.470	34.920	-0.305	0.268
-695.456	800.000	-0.025	-0.102
-694.441	114.085	-0.100	0.121
-693.426	-53.547	0.268	-0.123
-692.412	-60.522	0.270	-0.115
-691.397	-22.637	-0.244	0.148
-690.383	-111.700	-0.535	0.109
-689.368	-200.000	0.045	0.228
-688.354	137.910	0.224	-0.294
-687.339	-80.866	-0.067	-0.022
-686.324	800.000	0.114	-0.369
-685.310	-68.582	0.149	-0.058
-684.295	-200.000	-0.005	0.234
-683.281	267.101	0.174	0.305
-682.266	-33.778	-0.181	-0.100
-681.251	123.759	-0.299	0.376
-680.237	373.885	-0.043	-0.087
-679.222	-40.432	0.058	-0.030
-678.208	82.656	-0.290	-0.316
-677.193	108.980	-0.072	0.086
-676.178	-134.837	0.046	-0.006
-675.164	-24.440	0.145	0.087
-674.149	271.897	-0.227	0.402
-673.135	800.000	-0.120	0.353
-672.120	65.010	0.319	-0.323
-671.105	324.650	0.070	-0.135
-670.091	-112.480	0.394	-0.079
-669.076	800.000	-0.063	0.214
-668.062	36.128	-0.155	0.137
-667.047	800.000	-0.106	-0.302
-666.032	-200.000	0.004	0.182
-665.018	-141.864	-0.119	-0.012
-664.003	-200.000	-0.023	0.110
-662.989	3.788	-0.160	-0.117
-661.974	-94.524	-0.258	0.070
-660.959	-100.355	0.230	0.057
-659.945	63.435	-0.147	0.148
-658.930	-200.000	-0.022	0.326
-657.916	-116.119	0.418	-0.078
-656.901	178.763	-0.108	0.158
-655.886	334.962	-0.088	0.171
-654.872	-145.295	0.320	0.029
-653.857	-46.733	-0.246	0.120
-652.843	800.000	-0.026	0.100
-651.828	26.231	-0.197	-0.165
-650.814	19.580	0.257	-0.207
-649.799	-51.707	-0.378	-0.177
-648.784	800.000	0.066	0.247
-647.770	-52.568	-0.064	0.030
-646.755	-200.000	-0.010	-0.086
-645.741	-200.000	0.041	0.000
-644.726	800.000	0.055	0.189
-643.711	-200.000	0.032	0.323
-642.697	-200.000	0.027	-0.188
-641.682	800.000	0.079	-0.265
-640.668	212.033	-0.147	0.232
-639.653	-72.706	-0.111	-0.041
-638.638	-114.165	-0.056	-0.011
-637.624	-200.000	-0.008	-0.041
-636.609	-45.550	0.147	-0.073
-635.595	-17.003	-0.165	0.104
-634.580	-200.000	0.001	0.169
-633.565	112.428	-0.153	-0.186
-632.551	-58.376	-0.297	0.129
-631.536	-90.754	0.243	-0.070
-630.522	637.319	0.004	-0.011
-629.507	74.402	0.122	-0.128
-628.492	-44.703	-0.067	-0.033
-627.478	340.157	-0.047	0.093
-626.463	36.460	0.094	-0.083
-625.449	-25.072	-0.292	-0.173
-624.434	737.378	0.063	-0.169
-623.419	90.805	-0.334	0.375
-622.405	216.308	0.088	0.140
-621.390	179.915	-0.060	0.088
-620.376	-200.000	0.080	-0.566
-619.361	-193.993	-0.107	0.001
-618.346	259.103	-0.145	0.250
-617.332	509.579	0.112	-0.260
-616.317	-200.000	-0.013	-0.096
-615.303	26.017	-0.086	-0.072
-614.288	130.770	0.096	-0.123
-613.273	-200.000	0.016	0.171
-612.259	232.233	0.121	0.199
-611.244	-28.233	0.162	-0.093
-610.230	680.231	-0.049	0.127
-609.215	-112.068	-0.391	0.079
-608.201	-58.127	0.166	-0.072
-607.186	462.778	0.123	0.274
-606.171	-46.786	-0.092	-0.045
-605.157	189.455	0.175	-0.263
-604.142	100.085	0.141	-0.164
-603.128	26.579	-0.204	-0.171
-602.113	-136.754	0.182	0.021
-601.098	-91.752	-0.142	0.040
-600.084	102.671	-0.059	0.069
-599.069	-143.817	-0.303	0.029
-598.055	171.157	-0.091	-0.130
-597.040	65.211	0.253	-0.255
-596.025	77.401	0.217	0.231
-595.011	-119.163	0.260	-0.045
-593.996	436.101	-0.134	-0.292
-592.982	800.000	0.076	-0.299
-591.967	-113.582	-0.252	0.049
-590.952	-200.000	0.017	0.196
-589.938	800.000	-0.028	-0.105
-588.923	67.642	-0.173	-0.176
-587.909	800.000	0.155	-0.444
-586.894	-200.000	0.001	0.095
-585.879	-95.957	-0.331	-0.088
-584.865	-200.000	0.047	-0.257
-583.850	-185.250	0.160	-0.002
-582.836	107.793	0.259	0.308
-581.821	-84.034	-0.172	-0.055
-580.806	53.614	-0.150	-0.144
-579.792	-99.154	0.093	-0.023
-578.777	800.000	0.013	0.040
-577.763	800.000	0.069	0.289
-576.748	74.865	0.183	0.192
-575.733	264.929	0.139	0.243
-574.719	-160.081	-0.041	0.002
-573.704	645.274	0.082	-0.210
-572.690	6.279	0.125	-0.092
-571.675	-115.266	-0.096	-0.018
-570.661	-105.245	0.149	-0.034
-569.646	-77.009	-0.171	-0.060
-568.631	577.675	0.068	0.167
-567.617	765.190	0.013	0.035
-566.602	-94.607	-0.051	-0.014
-565.588	-69.965	-0.041	-0.016
-564.573	800.000	0.093	-0.320
-563.558	269.591	-0.145	0.253
-562.544	284.143	0.117	0.209
-561.529	287.402	-0.152	0.273
-560.515	-200.000	-0.032	-0.160
-559.500	-200.000	-0.026	0.137
-558.485	-76.076	-0.113	0.040
-557.471	-200.000	-0.025	-0.131
-556.456	-30.272	0.414	-0.235
-555.442	800.000	-0.049	-0.199
-554.427	544.082	0.072	-0.173
-553.412	-200.000	-0.017	0.096
-552.398	73.620	0.140	0.146
-551.383	-12.049	0.053	0.035
-550.369	146.750	0.145	-0.195
-549.354	-95.340	-0.262	0.070
-548.339	4.209	-0.196	-0.143
-547.325	93.103	0.043	0.049
-546.310	-52.322	0.324	0.150
-545.296	105.370	-0.214	0.252
-544.281	148.150	-0.049	-0.066
-543.266	134.789	-0.070	-0.091
-542.252	-137.829	-0.120	0.013
-541.237	-200.000	-0.019	0.120
-540.223	-73.791	0.265	-0.096
-539.208	88.736	0.077	0.085
-538.193	-166.523	-0.221	0.009
-537.179	-200.000	-0.013	0.092
-536.164	-131.534	-0.037	0.005
-535.150	224.481	-0.161	0.259
-534.135	-106.312	-0.364	-0.081
-533.121	252.813	-0.055	0.093
-532.106	195.705	0.095	-0.144
-531.091	42.604	-0.192	0.174
-530.077	172.886	0.227	0.325
-529.062	8.839	-0.081	-0.061
-528.048	707.394	-0.062	-0.162
-527.033	-19.581	-0.189	-0.117
-526.018	-44.704	0.165	-0.082
-525.004	353.984	-0.101	0.199
-523.989	800.000	0.055	0.153
-522.975	412.064	0.088	0.187
-521.960	0.802	-0.054	-0.039
-520.945	64.855	0.280	-0.282
-519.931	-153.905	0.205	0.014
-518.916	403.779	-0.070	0.146
-517.902	-132.929	0.347	0.044
-516.887	-74.062	-0.086	-0.031
-515.872	-200.000	-0.010	-0.115
-514.858	-86.562	-0.246	0.075
-513.843	-64.734	-0.115	0.046
-512.829	-200.000	-0.074	-0.382
-511.814	800.000	-0.057	-0.156
-510.799	91.747	0.110	0.123
-509.785	-69.712	0.145	0.055
-508.770	108.092	-0.039	-0.046
-507.756	-54.880	0.191	-0.086
-506.741	321.463	0.169	0.320
-505.726	105.384	0.269	0.316
-504.712	207.747	-0.132	-0.205
-503.697	800.000	-0.048	-0.173
-502.683	-124.588	0.312	-0.048
-501.668	373.524	-0.116	0.235
-500.653	-43.994	0.310	-0.155
-499.639	-144.272	0.182	0.017
-498.624	-200.000	-0.004	-0.193
-497.610	-200.000	-0.008	-0.150
-496.595	-200.000	-0.023	0.240
-495.581	-11.635	-0.280	-0.183
-494.566	-68.198	-0.389	-0.150
-493.551	-138.334	-0.304	-0.033
-492.537	181.782	-0.112	-0.164
-491.522	653.582	-0.095	0.242
-490.508	81.109	0.254	-0.273
-489.493	-107.720	-0.401	-0.087
-488.478	800.000	-0.069	-0.296
-487.464	461.404	-0.119	-0.263
-486.449	61.231	0.223	-0.220
-485.435	-200.000	-0.010	0.105
-484.420	153.458	0.123	-0.167
-483.405	-3.174	-0.159	0.110
-482.391	214.890	0.155	-0.245
-481.376	-200.000	0.031	0.230
-480.362	-53.196	0.073	0.033
-479.347	263.676	-0.090	0.156
-478.332	84.341	0.116	0.126
-477.318	50.676	0.146	-0.137
-476.303	800.000	-0.066	-0.196
-475.289	-122.294	0.191	0.031
-474.274	-200.000	-0.001	-0.073
-473.259	504.944	-0.149	-0.343
-472.245	-79.342	-0.151	0.051
-471.230	619.956	-0.024	-0.061
-470.216	800.000	-0.051	0.174
-469.201	17.016	-0.201	-0.159
-468.186	-82.108	-0.153	0.050
-467.172	-105.788	0.093	-0.021
-466.157	254.353	-0.132	-0.225
-465.143	338.132	0.143	-0.277
-464.128	67.438	-0.131	-0.133
-463.113	76.125	0.323	-0.340
-462.099	571.678	-0.068	0.164
-461.084	-200.000	-0.079	0.565
-460.070	-49.931	0.014	0.007
-459.055	-156.296	-0.286	0.018
-458.040	800.000	0.056	-0.154
-457.026	-200.000	0.016	-0.223
-456.011	72.165	0.096	-0.100
-454.997	800.000	0.064	-0.227
-453.982	-54.205	-0.248	-0.112
-452.968	800.000	-0.076	0.252
-451.953	-167.190	0.161	-0.006
-450.938	39.785	-0.238	0.212
-449.924	-50.240	0.088	-0.041
-448.909	-200.000	-0.009	0.092
-447.895	29.939	-0.359	0.304
-446.880	441.161	0.080	-0.174
-445.865	-115.647	0.235	-0.044
-444.851	85.008	-0.133	-0.145
-443.836	-66.472	-0.234	0.092
-442.822	22.778	-0.148	-0.121
-441.807	63.874	0.066	0.066
-440.792	686.815	0.141	-0.365
-439.778	401.878	0.031	0.065
-438.763	-135.794	-0.222	-0.026
-437.749	-60.169	0.061	0.026
-436.734	-38.781	-0.250	-0.131
-435.719	-200.000	0.019	-0.120
-434.705	-200.000	-0.050	-0.437
-433.690	51.963	0.258	0.244
-432.676	219.494	-0.091	0.145
-431.661	212.977	0.136	0.213
-430.646	-200.000	-0.030	0.154
-429.632	-200.000	0.025	0.270
-428.617	-50.049	-0.434	0.204
-427.603	-192.419	0.186	-0.002
-426.588	-65.101	-0.306	0.122
-425.573	-200.000	0.008	-0.151
-424.559	341.344	0.075	0.145
-423.544	169.021	-0.169	0.239
-422.530	-200.000	0.044	0.202
-421.515	-63.848	0.392	-0.159
-420.500	286.856	-0.115	-0.206
-419.486	334.063	-0.165	-0.318
-418.471	800.000	-0.034	0.145
-417.457	-77.529	0.212	0.073
-416.442	230.293	-0.169	-0.274
-415.428	-200.000	0.015	0.110
-414.413	254.534	-0.045	0.076
-413.398	-124.269	0.424	-0.066
-412.384	800.000	-0.029	0.082
-411.369	-97.322	0.242	-0.063
-410.355	-132.659	-0.104	0.013
-409.340	-200.000	0.018	-0.204
-408.325	160.477	-0.093	-0.129
-407.311	-176.935	-0.117	-0.003
-406.296	133.390	0.112	0.144
-405.282	800.000	0.035	0.140
-404.267	42.365	-0.184	-0.166
-403.252	-174.373	-0.252	-0.007
-402.238	361.720	-0.019	0.038
-401.223	12.542	0.162	-0.124
-400.209	-84.755	0.438	0.137
-399.194	100.029	-0.138	-0.158
-398.179	-27.309	-0.259	0.150
-397.165	-200.000	0.106	0.000
-396.150	360.720	0.118	-0.235
-395.136	351.433	-0.067	-0.132
-394.121	-102.422	-0.089	-0.021
-393.106	-5.458	0.222	-0.151
-392.092	-200.000	-0.063	-0.304
-391.077	104.697	0.037	0.044
-390.063	-100.774	0.143	0.035
-389.048	-200.000	0.001	-0.055
-388.033	-200.000	0.025	0.134
-387.019	-47.401	0.037	-0.018
-386.004	149.623	0.181	0.243
-384.990	-28.677	-0.156	-0.089
-383.975	-200.000	0.013	0.189
-382.960	-65.961	-0.156	0.062
-381.946	-91.508	0.462	-0.131
-380.931	32.314	-0.095	-0.082
-379.917	519.688	0.073	-0.169
-378.902	-92.403	0.451	-0.126
-377.888	362.516	-0.071	0.140
-376.873	-139.241	-0.134	-0.014
-375.858	34.137	-0.063	0.055
-374.844	-65.300	-0.218	-0.087
-373.829	-98.229	-0.134	-0.034
-372.815	800.000	0.079	0.270
-371.800	-53.906	-0.227	0.103
-370.785	-88.424	-0.079	-0.023
-369.771	-45.909	0.077	-0.038
-368.756	408.454	0.120	0.251
-367.742	90.765	0.122	-0.135
-366.727	800.000	0.040	0.156
-365.712	-54.700	0.138	-0.062
-364.698	-75.328	0.194	-0.069
-363.683	434.442	-0.245	0.527
-362.669	458.223	0.192	0.422
-361.654	-200.000	0.057	-0.305
-360.639	321.192	-0.040	-0.076
-359.625	800.000	-0.040	-0.168
-358.610	-42.835	0.130	-0.065
-357.596	-89.288	0.332	0.097
-356.581	-200.000	0.005	0.377
-355.566	376.020	-0.204	0.412
-354.552	800.000	-0.039	0.132
-353.537	-115.797	0.392	-0.073
-352.523	193.099	0.178	0.267
-351.508	93.406	0.105	-0.118
-350.493	325.167	-0.276	-0.522
-349.479	-200.000	0.016	0.127
-348.464	-35.949	-0.156	0.083
-347.450	-200.000	0.006	0.230
-346.435	420.464	0.136	-0.289
-345.420	-200.000	0.000	-0.111
-344.406	800.000	-0.098	0.395
-343.391	-40.236	0.420	0.216
-342.377	-26.616	-0.213	0.124
-341.362	-91.165	0.096	0.027
-340.348	800.000	0.132	0.373
-339.333	394.785	0.085	0.175
-338.318	-102.658	0.221	0.052
-337.304	62.029	-0.066	0.065
-336.289	-19.458	-0.060	0.037
-335.275	-200.000	-0.008	-0.190
-334.260	-166.091	-0.094	-0.004
-333.245	388.979	0.110	0.225
-332.231	800.000	-0.074	0.320
-331.216	-21.131	0.335	-0.202
-330.202	132.475	-0.054	-0.069
-329.187	800.000	-0.145	0.447
-328.172	-200.000	-0.003	0.055
-327.158	-36.711	-0.114	-0.060
-326.143	166.966	-0.231	-0.325
-325.129	701.312	0.038	0.100
-324.114	-59.923	-0.268	0.113
-323.099	-127.001	0.181	0.026
-322.085	298.507	0.079	0.144
-321.070	-5.527	0.135	-0.092
-320.056	444.894	0.198	-0.429
-319.041	1.733	-0.297	0.212
-318.026	362.530	-0.120	-0.238
-317.012	341.775	0.010	0.019
-315.997	-27.885	-0.331	0.189
-314.983	-8.000	-0.242	0.161
-313.968	-200.000	0.036	0.187
-312.953	3.838	0.212	0.153
-311.939	143.216	-0.057	-0.075
-310.924	250.189	-0.082	0.138
-309.910	-200.000	0.069	0.451
-308.895	184.694	0.103	0.151
-307.880	12.712	-0.143	0.109
-306.866	-200.000	-0.008	0.117
-305.851	-200.000	-0.040	0.203
-304.837	-200.000	0.009	0.257
-303.822	704.245	-0.100	0.260
-302.807	-92.432	0.039	0.011
-301.793	800.000	0.090	-0.272
-300.778	-62.820	-0.195	0.080
-299.764	784.724	-0.085	0.229
-298.749	241.144	0.072	-0.118
-297.735	151.606	-0.064	-0.087
-296.720	-144.468	-0.063	0.006
-295.705	410.311	-0.049	-0.103
-294.691	-200.000	0.044	0.216
-293.676	-200.000	0.035	0.257
-292.662	-22.757	0.137	-0.082
-291.647	-53.846	0.064	-0.029
-290.632	633.471	0.156	0.391
-289.618	42.362	-0.241	0.216
-288.603	-150.176	-0.136	0.010
-287.589	-200.000	0.003	-0.076
-286.574	139.566	-0.051	-0.067
-285.559	178.741	0.219	-0.316
-284.545	-147.894	-0.317	-0.026
-283.530	330.211	0.096	-0.182
-282.516	-106.369	-0.349	0.077
-281.501	141.851	0.154	-0.201
-280.486	185.747	-0.072	-0.106
-279.472	87.199	-0.259	-0.282
-278.457	-151.922	-0.323	-0.023
-277.443	39.776	-0.229	-0.203
-276.428	410.263	-0.100	-0.208
-275.413	-62.257	-0.165	-0.068
-274.399	800.000	-0.008	-0.026
-273.384	-177.701	0.184	-0.004
-272.370	370.904	0.124	-0.249
-271.355	-200.000	-0.014	-0.133
-270.340	85.472	0.141	-0.153
-269.326	344.534	-0.047	0.091
-268.311	745.733	0.032	0.085
-267.297	512.059	-0.163	-0.375
-266.282	8.763	-0.284	-0.211
-265.267	-82.616	-0.283	0.091
-264.253	-188.044	-0.269	-0.003
-263.238	261.454	-0.130	-0.222
-262.224	-6.263	-0.210	0.141
-261.209	-65.299	-0.208	-0.083
-260.195	36.502	0.120	0.104
-259.180	92.063	-0.177	0.196
-258.165	-176.857	0.089	0.002
-257.151	-111.755	-0.173	0.035
-256.136	120.372	0.197	-0.241
-255.122	-84.498	-0.154	-0.048
-254.107	-113.660	-0.095	-0.018
-253.092	286.458	0.129	0.230
-252.078	259.415	0.122	-0.207
-251.063	800.000	0.056	-0.195
-250.049	-200.000	0.009	-0.048
-249.034	54.846	-0.007	-0.006
-248.019	-119.847	0.257	-0.044
-247.005	80.296	-0.166	-0.176
-245.990	-200.000	-0.013	0.249
-244.976	-4.018	0.361	0.247
-243.961	-114.778	-0.116	-0.022
-242.946	-182.469	0.283	-0.005
-241.932	40.279	0.130	0.116
-240.917	70.436	-0.156	0.158
-239.903	-26.683	0.406	0.234
-238.888	-109.120	0.193	0.041
-237.873	193.107	-0.039	0.059
-236.859	41.471	0.119	0.106
-235.844	507.459	-0.113	-0.259
-234.830	-112.951	-0.360	-0.070
-233.815	-75.913	0.235	-0.082
-232.800	-200.000	-0.023	-0.373
-231.786	-39.761	0.171	0.088
-230.771	37.300	0.366	-0.320
-229.757	-42.738	-0.148	-0.074
-228.742	-200.000	0.010	-0.071
-227.727	38.515	-0.177	0.155
-226.713	-138.342	0.382	0.042
-225.698	-124.673	-0.276	0.042
-224.684	-200.000	0.048	0.342
-223.669	800.000	-0.023	0.073
-222.655	111.557	-0.019	-0.022
-221.640	-200.000	-0.024	-0.122
-220.625	172.409	0.472	-0.669
-219.611	-142.459	0.263	-0.026
-218.596	364.556	-0.126	-0.249
-217.582	-52.565	-0.086	0.039
-216.567	-200.000	0.002	-0.101
-215.552	629.521	-0.056	-0.139
-214.538	14.652	-0.081	0.062
-213.523	-39.115	0.048	0.025
-212.509	-200.000	-0.012	-0.411
-211.494	769.299	-0.115	-0.309
-210.479	188.190	0.025	0.037
-209.465	191.344	-0.156	-0.231
-208.450	-186.599	0.315	-0.004
-207.436	-200.000	-0.021	0.224
-206.421	-86.934	0.567	-0.170
-205.406	-200.000	-0.046	-0.204
-204.392	-200.000	-0.021	0.314
-203.377	800.000	-0.052	-0.170
-202.363	737.112	0.078	-0.205
-201.348	800.000	0.025	-0.079
-200.333	443.729	-0.042	0.091
-199.319	163.167	-0.192	0.265
-198.304	45.707	0.180	-0.164
-197.290	-72.372	0.276	0.100
-196.275	10.370	0.126	0.094
-195.260	-83.870	0.211	-0.066
-194.246	800.000	0.036	0.139
-193.231	-24.457	-0.200	0.117
-192.217	-200.000	-0.021	-0.304
-191.202	-123.599	0.161	0.025
-190.187	85.087	0.176	0.190
-189.173	-96.764	0.278	-0.072
-188.158	-200.000	0.006	0.062
-187.144	-23.948	0.157	0.092
-186.129	-161.571	0.017	-0.001
-185.114	-77.439	0.299	0.102
-184.100	-47.597	0.127	-0.061
-183.085	800.000	0.009	-0.033
-182.071	-200.000	-0.012	-0.094
-181.056	-93.201	-0.103	-0.028
-180.042	340.882	-0.098	0.189
-179.027	800.000	-0.124	-0.364
-178.012	-32.037	-0.196	-0.108
-176.998	-80.859	0.281	-0.091
-175.983	-31.527	0.060	0.033
-174.969	136.927	-0.178	0.229
-173.954	-77.505	-0.310	-0.106
-172.939	210.111	0.184	-0.284
-171.925	-72.560	0.313	0.114
-170.910	800.000	0.048	-0.187
-169.896	671.188	-0.116	0.295
-168.881	249.750	0.156	0.260
-167.866	-63.140	-0.411	0.167
-166.852	-200.000	0.046	0.221
-165.837	158.679	-0.265	0.361
-164.823	-32.701	-0.066	0.036
-163.808	-200.000	-0.002	0.199
-162.793	243.240	0.181	0.298
-161.779	-31.509	0.258	0.143
-160.764	49.318	-0.135	-0.124
-159.750	0.959	-0.179	0.126
-158.735	-22.051	0.195	0.116
-157.720	-59.799	0.191	0.080
-156.706	-49.399	-0.092	0.043
-155.691	-75.422	0.242	0.085
-154.677	-20.037	-0.282	0.171
-153.662	84.694	-0.172	0.185
-152.647	-33.110	0.308	0.167
-151.633	-200.000	0.001	-0.078
-150.618	287.447	-0.058	0.102
-149.604	61.248	0.088	-0.086
-148.589	-35.330	-0.266	-0.142
-147.574	-193.218	-0.148	-0.001
-146.560	147.930	-0.098	0.130
-145.545	-80.818	-0.046	-0.015
-144.531	-146.088	-0.010	-0.001
-143.516	180.856	-0.085	0.123
-142.502	-200.000	0.016	0.363
-141.487	-149.010	0.367	0.029
-140.472	-96.166	-0.334	0.087
-139.458	800.000	-0.087	-0.239
-138.443	-200.000	0.029	0.283
-137.429	45.462	-0.176	0.159
-136.414	800.000	0.063	-0.250
-135.399	38.942	0.291	0.255
-134.385	85.831	0.160	0.172
-133.370	-200.000	0.025	-0.223
-132.356	68.783	-0.077	-0.078
-131.341	-169.345	0.264	0.010
-130.326	-111.392	0.317	-0.063
-129.312	800.000	0.030	-0.091
-128.297	-71.441	0.253	0.093
-127.283	127.402	-0.203	0.253
-126.268	-85.123	-0.179	0.055
-125.253	-28.562	-0.441	-0.249
-124.239	800.000	-0.081	-0.289
-123.224	-200.000	0.035	-0.162
-122.210	-193.104	-0.051	-0.000
