DTS Sentinel unit serial number:	SN413079Multiplexer serial number:	ORYXHardware model number:	OX4-SRSoftware version number:	ORYX F/W v4.00 Oryx Data Collector v3.7.2.0data status	okinstallation	princeton_trtdifferential loss correction	single-endedforward channel	channel 2reverse channel	N/Adate	2019/09/15time	02:07:35forward acquisition time	60.00reverse acquisition time	0.00gamma	496.2192k internal	0.2325k external	0.2325temperature offset calibration	1.0034default loss term (dB/km)	0.3790temperature slope calibration	1.0000multiplexer offset coefficient	1.0000multiplexer slope coefficient	1.0000fibre end	0.00T internal ref (°C)	31.69T ext. ref 1 (°C)	4.55T ext. ref 2 (°C)	26.38length (m)	temperature (°C)	Stokes	anti-Stokes-747.200	800.000	0.041	-0.130
-746.185	-200.000	0.009	0.169
-745.171	-200.000	-0.006	0.060
-744.156	291.879	-0.187	0.343
-743.142	-133.826	-0.174	0.022
-742.127	159.417	-0.243	0.342
-741.112	-142.427	0.118	0.012
-740.098	67.203	-0.239	0.246
-739.083	283.448	-0.168	0.304
-738.069	-63.757	0.265	0.109
-737.054	800.000	0.023	-0.070
-736.039	-101.718	-0.417	-0.102
-735.025	32.969	0.346	0.303
-734.010	45.780	0.157	-0.147
-732.996	-4.067	-0.164	0.115
-731.981	-187.514	-0.327	-0.004
-730.966	800.000	0.054	0.219
-729.952	361.908	0.138	0.279
-728.937	-126.905	-0.048	0.007
-727.923	-200.000	-0.003	0.065
-726.908	800.000	-0.086	-0.345
-725.894	-200.000	-0.032	0.200
-724.879	-200.000	-0.040	0.301
-723.864	6.078	0.379	-0.283
-722.850	42.974	-0.207	0.190
-721.835	-200.000	0.024	0.119
-720.821	513.767	-0.140	0.329
-719.806	56.073	0.136	0.133
-718.791	16.827	0.185	0.148
-717.777	393.837	0.063	0.133
-716.762	-200.000	-0.031	-0.379
-715.748	780.641	0.183	-0.505
-714.733	355.046	0.060	-0.121
-713.718	-89.036	0.040	-0.012
-712.704	415.398	-0.002	0.005
-711.689	-200.000	-0.000	-0.111
-710.675	-200.000	0.006	0.124
-709.660	-114.287	-0.227	-0.044
-708.645	-200.000	-0.007	-0.476
-707.631	-118.522	0.144	-0.026
-706.616	107.651	0.058	0.069
-705.602	-200.000	0.019	-0.136
-704.587	-200.000	-0.023	-0.253
-703.572	-109.954	0.444	-0.094
-702.558	169.210	-0.067	0.096
-701.543	-112.031	0.120	0.024
-700.529	-200.000	-0.011	0.084
-699.514	6.414	-0.242	0.181
-698.499	-150.377	-0.113	-0.009
-697.485	-200.000	-0.053	-0.318
-696.470	-153.691	0.373	0.026
-695.456	-200.000	0.052	-0.267
-694.441	-1.915	0.141	0.100
-693.426	-200.000	0.026	-0.267
-692.412	-137.089	0.071	-0.008
-691.397	-63.948	-0.056	0.023
-690.383	38.909	-0.106	-0.095
-689.368	800.000	0.103	-0.337
-688.354	800.000	-0.049	0.149
-687.339	800.000	-0.079	-0.222
-686.324	-72.833	0.390	-0.145
-685.310	57.703	0.099	-0.098
-684.295	-155.964	-0.378	-0.024
-683.281	-124.220	0.050	-0.008
-682.266	63.769	0.122	-0.124
-681.251	-200.000	-0.027	-0.209
-680.237	-105.311	0.192	0.044
-679.222	193.290	-0.065	-0.099
-678.208	90.152	-0.176	0.198
-677.193	-63.080	0.332	-0.138
-676.178	196.471	-0.097	-0.149
-675.164	14.219	0.195	0.153
-674.149	800.000	0.019	-0.075
-673.135	305.018	-0.199	-0.372
-672.120	800.000	0.045	-0.180
-671.105	800.000	0.061	-0.232
-670.091	800.000	0.048	-0.186
-669.076	-200.000	-0.022	0.294
-668.062	-148.483	-0.078	0.006
-667.047	-106.997	-0.169	0.038
-666.032	33.170	-0.037	-0.032
-665.018	-100.858	-0.235	-0.058
-664.003	-200.000	0.000	0.007
-662.989	-14.949	-0.141	0.091
-661.974	-200.000	-0.008	-0.219
-660.959	-73.163	0.334	-0.123
-659.945	-200.000	-0.001	-0.055
-658.930	232.746	0.113	-0.186
-657.916	13.340	0.326	0.254
-656.901	10.272	-0.100	0.076
-655.886	-200.000	0.050	-0.286
-654.872	90.239	-0.399	0.449
-653.857	606.193	0.126	0.315
-652.843	216.409	-0.148	-0.237
-651.828	-31.023	0.104	-0.059
-650.814	800.000	-0.032	0.112
-649.799	-55.463	0.302	-0.136
-648.784	-36.774	-0.299	-0.161
-647.770	89.038	0.115	0.129
-646.755	37.199	-0.137	0.122
-645.741	20.206	-0.116	0.094
-644.726	800.000	0.034	0.108
-643.711	-2.779	0.415	0.292
-642.697	-83.969	-0.137	0.044
-641.682	174.943	-0.135	-0.197
-640.668	53.253	0.302	-0.290
-639.653	-87.039	0.096	0.029
-638.638	-200.000	-0.032	0.164
-637.624	13.907	-0.198	-0.155
-636.609	-24.115	0.251	0.150
-635.595	451.160	-0.064	0.142
-634.580	148.844	-0.141	0.191
-633.565	-14.776	0.029	-0.019
-632.551	-15.915	-0.294	0.188
-631.536	-200.000	0.023	0.161
-630.522	800.000	0.028	0.122
-629.507	-130.999	-0.219	-0.029
-628.492	-1.810	0.097	0.069
-627.478	-120.485	0.166	-0.028
-626.463	218.272	0.131	-0.210
-625.449	800.000	0.052	-0.229
-624.434	-55.124	0.314	0.142
-623.419	381.524	0.033	-0.068
-622.405	-12.722	-0.123	0.080
-621.390	-135.873	0.225	0.027
-620.376	-155.646	-0.305	-0.020
-619.361	210.045	0.073	-0.115
-618.346	800.000	0.039	-0.145
-617.332	42.842	0.275	0.251
-616.317	-40.066	-0.284	-0.148
-615.303	-105.219	0.104	0.024
-614.288	242.748	-0.193	-0.325
-613.273	166.631	-0.186	-0.265
-612.259	-19.013	-0.138	-0.086
-611.244	-43.189	-0.249	-0.127
-610.230	-69.317	-0.101	0.039
-609.215	37.470	0.031	-0.027
-608.201	39.423	-0.051	0.046
-607.186	-117.855	-0.325	-0.058
-606.171	371.182	0.048	-0.097
-605.157	-200.000	-0.063	0.361
-604.142	-68.318	0.251	0.098
-603.128	81.002	-0.361	-0.391
-602.113	751.605	0.073	0.197
-601.098	-23.113	-0.211	-0.127
-600.084	-79.930	-0.287	-0.097
-599.069	800.000	0.059	-0.183
-598.055	-200.000	0.024	0.247
-597.040	-33.915	0.140	0.077
-596.025	-67.675	-0.261	-0.103
-595.011	199.150	0.058	-0.089
-593.996	800.000	0.063	0.260
-592.982	102.545	-0.023	-0.027
-591.967	-161.628	-0.207	-0.011
-590.952	-156.068	0.164	0.010
-589.938	237.114	0.178	0.296
-588.923	-70.393	-0.032	-0.012
-587.909	118.627	-0.202	0.250
-586.894	-52.944	-0.099	0.046
-585.879	14.332	0.077	0.060
-584.865	-40.994	0.284	-0.147
-583.850	-200.000	-0.023	0.123
-582.836	-200.000	-0.009	-0.178
-581.821	135.110	0.217	0.283
-580.806	-2.758	-0.301	-0.211
-579.792	389.589	0.018	-0.038
-578.777	22.728	-0.190	-0.156
-577.763	313.462	-0.099	-0.186
-576.748	478.812	-0.145	-0.330
-575.733	184.678	-0.040	-0.060
-574.719	236.599	0.086	0.143
-573.704	-200.000	-0.002	-0.150
-572.690	-200.000	-0.008	-0.110
-571.675	-200.000	-0.009	-0.115
-570.661	-18.738	-0.122	0.076
-569.646	347.144	0.119	-0.235
-568.631	-26.807	0.091	-0.053
-567.617	30.334	0.216	-0.185
-566.602	-154.199	-0.750	0.051
-565.588	-200.000	-0.044	-0.216
-564.573	62.444	-0.052	-0.052
-563.558	59.842	0.116	-0.115
-562.544	-135.534	-0.437	-0.052
-561.529	-190.362	0.086	0.001
-560.515	-200.000	0.020	-0.212
-559.500	-13.936	0.184	-0.119
-558.485	-39.823	0.083	-0.043
-557.471	-69.367	-0.352	0.135
-556.456	-200.000	-0.011	0.443
-555.442	130.009	0.216	-0.277
-554.427	415.931	0.164	0.350
-553.412	125.507	0.239	-0.302
-552.398	13.962	0.106	-0.083
-551.383	-200.000	0.019	-0.092
-550.369	317.613	-0.040	-0.075
-549.354	-200.000	-0.023	-0.182
-548.339	-200.000	-0.060	-0.368
-547.325	-87.459	-0.228	-0.069
-546.310	800.000	-0.033	0.098
-545.296	54.211	-0.214	0.207
-544.281	-200.000	-0.029	0.139
-543.266	16.921	0.206	0.163
-542.252	-30.431	-0.367	-0.209
-541.237	18.879	-0.095	-0.076
-540.223	79.672	-0.166	0.179
-539.208	800.000	-0.114	0.341
-538.193	437.467	0.097	0.211
-537.179	70.461	-0.203	-0.210
-536.164	-200.000	-0.060	0.330
-535.150	800.000	0.042	0.170
-534.135	-84.030	0.317	-0.101
-533.121	-200.000	0.023	-0.355
-532.106	172.331	0.112	0.161
-531.091	-200.000	-0.015	-0.236
-530.077	800.000	0.013	-0.043
-529.062	100.995	0.202	-0.235
-528.048	-79.281	0.156	0.053
-527.033	800.000	-0.034	-0.140
-526.018	24.985	-0.084	-0.070
-525.004	51.807	0.141	-0.134
-523.989	-119.033	0.059	-0.010
-522.975	77.875	-0.276	0.295
-521.960	59.182	0.231	-0.227
-520.945	199.777	-0.130	-0.200
-519.931	-200.000	0.126	0.000
-518.916	-103.646	-0.035	0.008
-517.902	603.084	0.089	-0.220
-516.887	-69.673	0.183	0.070
-515.872	-39.897	0.161	-0.084
-514.858	800.000	-0.036	0.143
-513.843	407.011	0.125	-0.264
-512.829	-135.865	0.202	0.024
-511.814	70.946	0.036	0.037
-510.799	-74.006	0.267	-0.097
-509.785	112.936	0.124	-0.151
-508.770	-150.813	-0.271	0.021
-507.756	-164.368	0.215	0.010
-506.741	76.373	0.089	0.094
-505.726	800.000	-0.072	0.240
-504.712	44.290	-0.082	0.075
-503.697	-40.223	-0.044	-0.023
-502.683	-122.729	-0.300	0.048
-501.668	122.906	0.105	0.131
-500.653	-144.368	0.047	-0.004
-499.639	-65.836	0.191	-0.076
-498.624	166.002	-0.094	-0.133
-497.610	800.000	-0.019	-0.071
-496.595	688.538	0.064	-0.167
-495.581	-200.000	-0.020	-0.382
-494.566	85.043	-0.148	0.162
-493.551	205.553	0.073	0.113
-492.537	-47.181	-0.202	0.099
-491.522	-39.548	0.128	-0.067
-490.508	800.000	0.066	-0.248
-489.493	-25.260	0.171	-0.101
-488.478	-15.720	0.163	0.104
-487.464	800.000	-0.069	-0.209
-486.449	-12.284	-0.103	-0.067
-485.435	-200.000	-0.033	-0.290
-484.420	-11.094	-0.398	0.263
-483.405	4.255	0.169	0.124
-482.391	-83.258	-0.335	0.108
-481.376	800.000	-0.085	0.308
-480.362	-200.000	-0.004	0.215
-479.347	-49.555	0.204	0.097
-478.332	174.187	-0.160	-0.231
-477.318	-108.927	-0.118	-0.025
-476.303	113.262	0.153	-0.185
-475.289	-39.748	-0.357	0.186
-474.274	-66.964	-0.242	-0.095
-473.259	800.000	0.136	0.463
-472.245	-55.601	0.198	0.089
-471.230	36.913	-0.075	0.066
-470.216	-126.588	0.168	-0.025
-469.201	-64.143	0.169	-0.069
-468.186	28.882	0.113	0.096
-467.172	-200.000	-0.003	-0.180
-466.157	765.542	-0.094	-0.255
-465.143	-143.877	-0.194	-0.018
-464.128	16.474	0.335	0.264
-463.113	-59.952	-0.409	-0.175
-462.099	20.178	-0.334	-0.269
-461.084	-200.000	-0.014	-0.117
-460.070	158.890	-0.196	0.272
-459.055	77.919	0.118	0.125
-458.040	17.427	0.161	-0.127
-457.026	-175.167	-0.225	-0.006
-456.011	-36.577	-0.061	-0.033
-454.997	111.370	0.179	0.215
-453.982	-90.735	-0.296	-0.085
-452.968	81.473	-0.051	-0.055
-451.953	426.017	0.109	-0.234
-450.938	-200.000	0.003	0.571
-449.924	-75.018	0.224	-0.080
-448.909	198.027	-0.036	0.054
-447.895	11.950	-0.290	-0.222
-446.880	-101.320	0.257	0.063
-445.865	-123.137	-0.078	-0.012
-444.851	800.000	-0.054	-0.225
-443.836	235.191	0.091	-0.150
-442.822	-200.000	-0.009	-0.226
-441.807	-200.000	0.039	-0.182
-440.792	-200.000	-0.033	-0.150
-439.778	102.982	-0.227	0.266
-438.763	115.307	-0.078	-0.095
-437.749	-200.000	-0.001	-0.148
-436.734	409.303	-0.111	0.234
-435.719	212.322	-0.041	0.065
-434.705	77.877	0.260	0.276
-433.690	141.613	-0.145	-0.192
-432.676	163.497	-0.248	0.348
-431.661	-132.022	-0.116	0.015
-430.646	-200.000	0.017	-0.113
-429.632	37.232	-0.121	-0.107
-428.617	-23.424	-0.204	0.122
-427.603	800.000	-0.029	0.086
-426.588	-200.000	0.020	-0.186
-425.573	-25.347	-0.283	0.167
-424.559	-200.000	-0.013	-0.071
-423.544	-200.000	-0.005	-0.255
-422.530	-31.465	-0.249	-0.139
-421.515	-200.000	0.062	0.463
-420.500	-12.961	-0.417	0.271
-419.486	58.402	0.228	0.222
-418.471	-145.594	-0.287	-0.026
-417.457	-200.000	-0.034	-0.290
-416.442	293.536	-0.159	0.290
-415.428	422.146	0.058	0.125
-414.413	-90.014	-0.178	-0.052
-413.398	176.085	-0.090	0.130
-412.384	116.943	-0.183	-0.224
-411.369	57.654	0.157	0.153
-410.355	34.985	0.196	0.171
-409.340	-14.244	-0.128	-0.082
-408.325	-94.850	0.168	0.045
-407.311	-200.000	0.218	0.000
-406.296	-181.470	0.055	0.001
-405.282	-68.232	0.340	0.132
-404.267	100.365	0.084	0.097
-403.252	53.232	0.250	0.238
-402.238	-130.675	0.189	-0.025
-401.223	-200.000	-0.004	-0.282
-400.209	800.000	-0.020	-0.080
-399.194	-99.675	-0.176	-0.044
-398.179	-152.045	0.265	0.019
-397.165	188.842	-0.132	-0.196
-396.150	547.604	0.260	0.620
-395.136	84.304	-0.154	0.167
-394.121	40.379	0.114	-0.102
-393.106	-69.926	0.104	-0.039
-392.092	-200.000	-0.009	-0.162
-391.077	-84.671	0.087	-0.027
-390.063	236.046	0.155	-0.255
-389.048	98.582	0.174	0.200
-388.033	-145.537	0.146	-0.013
-387.019	-200.000	0.002	-0.237
-386.004	800.000	0.058	-0.181
-384.990	-120.943	-0.265	0.044
-383.975	-115.251	-0.177	-0.033
-382.960	-140.222	0.199	-0.021
-381.946	-200.000	0.011	0.310
-380.931	211.754	0.141	0.221
-379.917	-200.000	0.048	0.239
-378.902	-62.336	-0.064	-0.026
-377.888	83.291	0.149	-0.161
-376.873	-101.777	-0.250	0.060
-375.858	-200.000	0.007	0.056
-374.844	54.303	0.376	-0.360
-373.829	-200.000	0.001	-0.160
-372.815	770.137	0.085	0.231
-371.800	13.779	0.258	-0.199
-370.785	-23.470	0.234	0.140
-369.771	-200.000	0.003	-0.099
-368.756	231.411	0.087	0.142
-367.742	-200.000	-0.011	0.122
-366.727	238.111	0.090	0.148
-365.712	97.213	0.205	0.234
-364.698	9.033	-0.337	0.253
-363.683	-7.047	0.069	-0.046
-362.669	42.927	-0.192	-0.174
-361.654	172.035	0.257	0.367
-360.639	-200.000	0.031	-0.171
-359.625	-134.313	0.232	0.028
-358.610	-67.145	0.099	-0.039
-357.596	800.000	-0.079	-0.237
-356.581	78.784	0.081	-0.086
-355.566	-87.735	0.165	-0.049
-354.552	800.000	-0.147	-0.403
-353.537	800.000	0.044	-0.153
-352.523	-117.397	-0.223	0.040
-351.508	104.068	-0.177	0.207
-350.493	-165.796	0.165	-0.007
-349.479	-200.000	-0.025	-0.152
-348.464	34.422	-0.166	-0.144
-347.450	95.389	0.147	-0.167
-346.435	-200.000	-0.010	-0.103
-345.420	110.322	-0.078	0.093
-344.406	-83.600	-0.286	-0.091
-343.391	-103.276	-0.410	-0.096
-342.377	51.524	0.158	0.149
-341.362	88.335	0.239	0.264
-340.348	-36.215	0.090	0.048
-339.333	-108.469	-0.183	0.039
-338.318	56.330	0.091	-0.088
-337.304	-99.401	-0.204	0.051
-336.289	-89.832	-0.182	0.053
-335.275	-200.000	0.040	-0.342
-334.260	-200.000	0.033	-0.259
-333.245	800.000	0.086	-0.297
-332.231	800.000	0.025	0.074
-331.216	-200.000	-0.015	-0.134
-330.202	-179.170	-0.224	0.005
-329.187	-136.905	-0.163	0.019
-328.172	-124.846	0.195	0.030
-327.158	-129.736	0.162	-0.022
-326.143	163.687	-0.108	-0.150
-325.129	54.243	0.179	-0.171
-324.114	-8.388	0.048	-0.032
-323.099	166.435	-0.114	-0.161
-322.085	531.969	0.092	-0.217
-321.070	94.198	0.102	0.115
-320.056	6.102	0.285	-0.210
-319.041	54.008	-0.140	0.134
-318.026	113.554	0.096	0.115
-317.012	93.878	-0.354	0.398
-315.997	639.351	-0.095	0.239
-314.983	90.928	-0.044	-0.049
-313.968	189.141	0.126	0.188
-312.953	125.218	-0.183	0.229
-311.939	800.000	-0.009	0.039
-310.924	152.745	-0.021	-0.028
-309.910	800.000	-0.067	0.195
-308.895	48.735	0.178	0.165
-307.880	800.000	0.060	0.259
-306.866	176.601	0.113	0.163
-305.851	-26.988	0.217	-0.126
-304.837	309.797	0.128	0.238
-303.822	693.561	0.063	0.163
-302.807	-75.879	-0.276	0.097
-301.793	-114.821	0.047	0.009
-300.778	-200.000	-0.009	0.431
-299.764	-65.511	0.334	-0.133
-298.749	-1.047	0.189	0.132
-297.735	231.127	0.100	0.163
-296.720	-162.866	0.058	-0.003
-295.705	-91.612	-0.143	0.040
-294.691	-108.787	0.113	-0.024
-293.676	101.852	-0.137	-0.158
-292.662	20.480	-0.165	-0.132
-291.647	245.214	-0.055	0.092
-290.632	355.899	-0.080	-0.158
-289.618	598.117	0.136	-0.335
-288.603	215.764	0.203	0.320
-287.589	-200.000	-0.048	0.301
-286.574	109.269	0.092	0.109
-285.559	91.132	-0.233	0.260
-284.545	326.770	-0.200	-0.380
-283.530	-136.980	-0.155	-0.018
-282.516	-125.404	0.259	0.039
-281.501	-200.000	0.005	0.181
-280.486	-140.713	-0.264	0.027
-279.472	216.774	-0.167	0.263
-278.457	-200.000	0.077	0.342
-277.443	-200.000	0.018	0.341
-276.428	289.627	-0.156	-0.280
-275.413	-112.497	0.323	0.064
-274.399	144.573	-0.082	0.109
-273.384	-58.052	0.301	0.130
-272.370	302.294	0.065	0.120
-271.355	-200.000	-0.031	0.196
-270.340	2.175	-0.348	0.249
-269.326	-123.868	0.271	0.042
-268.311	-20.775	0.388	0.236
-267.297	-34.664	0.464	-0.251
-266.282	179.157	0.134	-0.195
-265.267	800.000	-0.056	0.156
-264.253	-30.106	0.115	-0.065
-263.238	15.258	-0.163	-0.127
-262.224	38.553	-0.353	0.312
-261.209	-175.756	0.394	-0.010
-260.195	-9.930	0.187	-0.123
-259.180	-83.398	-0.162	-0.051
-258.165	-200.000	0.004	0.100
-257.151	292.424	-0.008	0.014
-256.136	611.265	-0.078	-0.192
-255.122	-120.667	-0.087	-0.015
-254.107	-132.098	0.112	0.014
-253.092	255.012	-0.118	-0.201
-252.078	-200.000	0.024	0.237
-251.063	-80.444	-0.452	0.149
-250.049	-200.000	-0.023	0.222
-249.034	667.094	0.057	0.145
-248.019	800.000	0.083	0.254
-247.005	765.704	0.127	-0.341
-245.990	273.573	-0.118	-0.207
-244.976	-47.672	0.191	0.092
-243.961	321.813	-0.080	-0.151
-242.946	-200.000	-0.011	0.607
-241.932	-19.164	-0.316	-0.194
-240.917	-28.058	-0.264	0.151
-239.903	-133.815	-0.228	-0.028
-238.888	72.513	0.100	0.103
-237.873	557.786	-0.025	-0.060
-236.859	-200.000	-0.017	-0.134
-235.844	-60.754	0.192	-0.080
-234.830	-200.000	0.008	-0.409
-233.815	48.028	0.141	-0.130
-232.800	-134.931	-0.175	0.021
-231.786	-68.114	-0.115	-0.044
-230.771	-17.226	-0.314	-0.195
-229.757	-38.452	-0.090	-0.047
-228.742	-121.775	-0.136	-0.022
-227.727	-79.360	0.448	-0.150
-226.713	-130.187	-0.141	0.019
-225.698	762.115	0.085	0.228
-224.684	-44.326	0.343	0.170
-223.669	-1.792	0.124	-0.087
-222.655	-115.135	-0.297	-0.056
-221.640	800.000	0.031	0.132
-220.625	-57.740	-0.079	-0.034
-219.611	-98.178	0.116	-0.029
-218.596	-200.000	-0.053	-0.381
-217.582	4.210	0.140	0.101
-216.567	291.803	-0.224	0.403
-215.552	108.225	-0.151	0.179
-214.538	-169.000	-0.062	0.002
-213.523	-79.042	0.260	-0.087
-212.509	-49.510	0.057	0.027
-211.494	-79.428	0.113	0.038
-210.479	-123.128	-0.094	-0.015
-209.465	-18.801	0.097	-0.060
-208.450	-27.368	0.217	-0.125
-207.436	800.000	0.032	-0.109
-206.421	-96.055	0.330	0.087
-205.406	-140.975	0.037	0.004
-204.392	47.533	0.419	-0.386
-203.377	-200.000	0.012	-0.117
-202.363	-48.712	-0.192	0.091
-201.348	800.000	0.085	0.336
-200.333	0.602	0.284	-0.201
-199.319	800.000	0.057	-0.211
-198.304	-87.612	0.151	0.045
-197.290	409.363	0.149	0.312
-196.275	0.777	0.104	-0.073
-195.260	-83.580	0.172	-0.054
-194.246	-136.595	0.045	-0.005
-193.231	-200.000	0.029	-0.210
-192.217	175.024	-0.086	-0.122
-191.202	531.353	0.031	-0.071
-190.187	1.904	0.060	0.043
-189.173	-14.343	-0.275	0.175
-188.158	800.000	-0.024	-0.087
-187.144	696.890	0.107	-0.277
-186.129	-180.172	0.190	-0.004
-185.114	-200.000	0.013	-0.176
-184.100	492.943	-0.102	0.231
-183.085	-68.655	0.050	0.019
-182.071	727.052	0.138	-0.364
-181.056	-6.242	-0.386	-0.260
-180.042	146.250	0.203	0.268
-179.027	114.633	0.125	-0.150
-178.012	-200.000	0.008	0.053
-176.998	-15.750	-0.068	-0.043
-175.983	-1.513	0.166	0.115
-174.969	-98.557	-0.189	-0.048
-173.954	133.685	0.149	0.191
-172.939	-101.782	-0.177	0.042
-171.925	-114.043	-0.100	-0.019
-170.910	35.578	-0.200	-0.173
-169.896	-11.847	0.281	-0.182
-168.881	131.376	-0.207	-0.263
-167.866	-3.479	0.139	-0.096
-166.852	-33.089	-0.098	-0.054
-165.837	-41.520	-0.043	-0.022
-164.823	225.641	-0.147	0.235
-163.808	38.763	-0.110	-0.097
-162.793	-200.000	0.016	-0.296
-161.779	800.000	-0.136	0.393
-160.764	-123.136	-0.054	-0.009
-159.750	92.675	0.110	-0.122
-158.735	-9.122	0.125	0.082
-157.720	-100.552	-0.057	0.014
-156.706	-89.139	0.118	0.034
-155.691	8.262	0.206	-0.153
-154.677	-19.356	-0.390	0.238
-153.662	-200.000	-0.016	0.495
-152.647	-103.933	0.178	-0.041
-151.633	800.000	-0.038	-0.108
-150.618	-193.370	-0.083	-0.001
-149.604	-105.104	0.175	0.039
-148.589	469.449	0.150	0.333
-147.574	-105.075	-0.073	-0.017
-146.560	-200.000	0.001	0.096
-145.545	324.446	0.163	0.307
-144.531	296.305	-0.018	0.033
-143.516	15.253	-0.320	0.247
-142.502	680.854	-0.069	0.178
-141.487	135.078	0.112	-0.143
-140.472	-168.240	-0.124	-0.005
-139.458	-200.000	0.020	-0.200
-138.443	342.050	-0.214	0.413
-137.429	121.844	0.236	0.291
-136.414	105.137	-0.149	0.173
-135.399	35.238	-0.152	-0.131
-134.385	191.988	-0.099	0.147
-133.370	-137.031	0.301	0.034
-132.356	-128.802	-0.071	-0.010
-131.341	-129.040	0.318	0.044
-130.326	-106.876	-0.285	-0.062
-129.312	208.345	0.047	-0.072
-128.297	111.878	-0.211	0.251
-127.283	-200.000	0.017	-0.253
-126.268	-0.621	0.111	0.077
-125.253	-200.000	0.031	0.270
-124.239	800.000	-0.046	-0.161
-123.224	-200.000	0.000	0.062
-122.210	-200.000	0.055	0.561
-121.195	-200.000	0.052	0.268
