DTS Sentinel unit serial number:	SN413079Multiplexer serial number:	ORYXHardware model number:	OX4-SRSoftware version number:	ORYX F/W v4.00 Oryx Data Collector v3.7.2.0data status	okinstallation	princeton_trtdifferential loss correction	single-endedforward channel	channel 2reverse channel	N/Adate	2019/09/11time	20:29:11forward acquisition time	60.00reverse acquisition time	0.00gamma	496.2192k internal	0.2319k external	0.2319temperature offset calibration	1.0056default loss term (dB/km)	0.3790temperature slope calibration	1.0000multiplexer offset coefficient	1.0000multiplexer slope coefficient	1.0000fibre end	0.00T internal ref (°C)	37.69T ext. ref 1 (°C)	1.49T ext. ref 2 (°C)	30.91length (m)	temperature (°C)	Stokes	anti-Stokes-747.200	-200.000	-0.084	-0.413
-746.185	-200.000	0.007	0.166
-745.171	384.645	-0.057	0.120
-744.156	1.148	-0.127	0.092
-743.142	800.000	0.088	0.283
-742.127	-155.805	0.146	-0.009
-741.112	-200.000	-0.002	-0.187
-740.098	31.748	-0.116	0.101
-739.083	290.518	0.170	0.312
-738.069	30.974	-0.075	0.065
-737.054	800.000	0.039	0.154
-736.039	190.331	0.149	-0.226
-735.025	-3.530	0.104	0.073
-734.010	287.023	-0.121	-0.222
-732.996	-46.014	-0.346	0.172
-731.981	800.000	-0.097	-0.283
-730.966	-8.039	-0.223	0.152
-729.952	800.000	0.033	-0.119
-728.937	-174.989	0.232	-0.007
-727.923	174.795	0.093	0.137
-726.908	59.699	-0.326	-0.325
-725.894	109.581	-0.112	0.136
-724.879	-133.310	0.362	0.046
-723.864	-46.745	-0.066	0.033
-722.850	-164.323	-0.327	-0.015
-721.835	800.000	0.116	0.362
-720.821	-66.372	-0.258	0.104
-719.806	-31.516	-0.271	0.154
-718.791	628.000	-0.099	0.252
-717.777	199.304	0.105	0.163
-716.762	-41.562	0.260	-0.135
-715.748	272.595	-0.077	0.137
-714.733	107.870	-0.101	0.121
-713.718	235.017	-0.098	0.164
-712.704	-82.998	-0.247	-0.080
-711.689	-73.975	-0.095	0.035
-710.675	16.195	-0.094	-0.075
-709.660	-200.000	-0.026	0.193
-708.645	-200.000	-0.001	0.044
-707.631	3.610	0.133	-0.098
-706.616	393.464	-0.081	-0.170
-705.602	-72.543	0.119	-0.045
-704.587	722.321	-0.048	-0.129
-703.572	82.090	0.120	0.131
-702.558	-78.262	0.182	-0.063
-701.543	175.376	0.022	-0.032
-700.529	18.539	-0.285	-0.230
-699.514	-159.079	-0.321	0.018
-698.499	44.141	-0.133	-0.124
-697.485	335.432	-0.109	0.214
-696.470	205.505	-0.007	-0.011
-695.456	-154.594	-0.148	-0.010
-694.441	-18.905	-0.233	0.146
-693.426	32.308	0.099	-0.086
-692.412	-26.001	-0.064	-0.038
-691.397	-124.958	-0.087	-0.014
-690.383	-171.169	0.200	0.007
-689.368	800.000	-0.018	-0.067
-688.354	529.233	0.055	-0.130
-687.339	-104.170	0.250	0.059
-686.324	-107.058	0.212	-0.047
-685.310	-125.640	0.172	-0.026
-684.295	412.295	0.108	-0.232
-683.281	-29.920	-0.188	-0.108
-682.266	-123.397	0.063	-0.010
-681.251	548.982	0.136	0.328
-680.237	108.709	-0.305	-0.367
-679.222	-57.303	0.059	-0.026
-678.208	305.958	0.130	-0.244
-677.193	-19.878	-0.224	-0.139
-676.178	-200.000	0.019	0.147
-675.164	194.734	-0.316	-0.484
-674.149	-171.990	0.449	-0.015
-673.135	331.327	-0.073	0.142
-672.120	-71.934	0.190	-0.072
-671.105	800.000	-0.136	-0.418
-670.091	-200.000	0.004	-0.134
-669.076	38.643	-0.043	0.039
-668.062	212.137	0.137	0.217
-667.047	800.000	-0.081	0.306
-666.032	241.710	-0.174	0.293
-665.018	160.594	-0.068	0.095
-664.003	-81.174	-0.060	-0.020
-662.989	-34.199	0.081	0.045
-661.974	-200.000	0.020	0.118
-660.959	94.932	-0.192	-0.221
-659.945	800.000	-0.134	-0.384
-658.930	-157.298	0.031	0.002
-657.916	-39.986	0.179	-0.094
-656.901	75.444	-0.103	-0.110
-655.886	235.207	0.126	0.210
-654.872	44.159	0.145	-0.134
-653.857	800.000	-0.017	0.064
-652.843	-81.232	-0.191	0.064
-651.828	212.453	0.096	-0.152
-650.814	-152.549	0.254	-0.018
-649.799	-103.593	0.244	0.058
-648.784	-91.726	-0.250	-0.072
-647.770	-200.000	0.036	-0.187
-646.755	-49.412	-0.564	-0.271
-645.741	800.000	0.031	-0.088
-644.726	176.970	-0.147	-0.215
-643.711	93.093	-0.074	-0.085
-642.697	-200.000	-0.011	0.069
-641.682	-16.293	0.116	0.074
-640.668	177.095	-0.223	-0.327
-639.653	-200.000	0.014	-0.087
-638.638	-95.864	0.157	0.042
-637.624	-13.732	0.219	-0.143
-636.609	-79.047	-0.185	0.063
-635.595	-35.201	-0.283	-0.155
-634.580	-200.000	0.041	0.409
-633.565	93.563	-0.059	-0.067
-632.551	-165.566	-0.184	-0.008
-631.536	-117.144	-0.081	0.015
-630.522	402.853	0.065	-0.138
-629.507	-13.980	0.026	-0.017
-628.492	800.000	-0.092	-0.367
-627.478	46.523	-0.058	0.054
-626.463	-152.094	0.202	0.015
-625.449	-200.000	0.002	-0.008
-624.434	-200.000	-0.016	0.206
-623.419	-200.000	0.021	-0.099
-622.405	21.528	0.168	0.137
-621.390	350.253	-0.151	-0.300
-620.376	-162.668	-0.146	0.007
-619.361	-17.006	-0.155	0.099
-618.346	-5.986	-0.121	0.083
-617.332	80.514	-0.177	-0.192
-616.317	37.474	0.055	-0.049
-615.303	55.973	-0.188	0.183
-614.288	-30.075	-0.332	-0.190
-613.273	-106.361	-0.287	-0.065
-612.259	-200.000	0.005	0.277
-611.244	291.592	-0.126	-0.230
-610.230	115.083	0.066	-0.081
-609.215	-61.805	-0.289	0.122
-608.201	-1.935	-0.040	0.028
-607.186	98.960	-0.201	-0.234
-606.171	-153.819	0.421	0.029
-605.157	-200.000	0.040	-0.271
-604.142	250.081	0.146	0.248
-603.128	141.345	0.098	-0.130
-602.113	-140.203	-0.140	-0.015
-601.098	-74.617	0.215	0.078
-600.084	524.782	-0.231	0.546
-599.069	-27.611	-0.193	-0.113
-598.055	90.209	-0.232	-0.261
-597.040	-200.000	-0.000	0.250
-596.025	99.768	0.193	-0.224
-595.011	-200.000	-0.020	0.277
-593.996	-19.234	-0.327	0.204
-592.982	8.624	0.192	0.145
-591.967	119.150	0.104	0.130
-590.952	800.000	-0.039	0.123
-589.938	17.971	-0.132	0.106
-588.923	669.252	0.094	-0.245
-587.909	207.516	0.213	-0.335
-586.894	99.669	-0.334	0.389
-585.879	-200.000	0.040	0.333
-584.865	800.000	-0.047	0.157
-583.850	-84.604	-0.211	0.067
-582.836	-200.000	0.013	-0.263
-581.821	352.323	-0.103	-0.205
-580.806	75.903	-0.091	-0.097
-579.792	-122.976	-0.377	0.061
-578.777	-167.270	-0.059	-0.002
-577.763	35.155	-0.229	-0.202
-576.748	-130.554	0.382	0.052
-575.733	-200.000	0.023	0.140
-574.719	524.079	-0.056	0.133
-573.704	-95.604	-0.352	0.095
-572.690	-10.805	-0.131	0.087
-571.675	60.907	0.405	0.403
-570.661	-171.904	-0.158	0.005
-569.646	800.000	0.061	0.251
-568.631	30.382	-0.162	0.139
-567.617	-200.000	-0.029	-0.222
-566.602	698.078	0.108	0.286
-565.588	-81.034	-0.113	-0.038
-564.573	102.749	0.254	-0.298
-563.558	-100.005	0.145	-0.036
-562.544	133.888	0.197	-0.256
-561.529	158.633	0.101	0.141
-560.515	229.473	-0.144	0.236
-559.500	132.104	0.052	-0.067
-558.485	-31.138	-0.236	0.134
-557.471	800.000	-0.084	-0.269
-556.456	-153.328	0.157	-0.011
-555.442	-27.550	-0.448	-0.261
-554.427	126.285	-0.200	-0.254
-553.412	-200.000	0.006	-0.089
-552.398	-136.983	0.138	-0.016
-551.383	800.000	-0.080	-0.242
-550.369	131.642	-0.051	0.066
-549.354	13.097	-0.134	0.104
-548.339	165.476	-0.145	0.206
-547.325	-36.892	-0.023	-0.012
-546.310	-200.000	0.003	-0.264
-545.296	739.615	-0.010	-0.026
-544.281	310.137	-0.159	-0.298
-543.266	-30.613	0.282	-0.160
-542.252	-119.173	-0.116	-0.020
-541.237	-24.523	0.338	-0.202
-540.223	-103.987	-0.060	-0.014
-539.208	-75.137	-0.185	-0.066
-538.193	-105.695	-0.314	-0.071
-537.179	-93.194	-0.225	-0.063
-536.164	55.015	-0.254	0.246
-535.150	161.126	0.068	-0.095
-534.135	-134.903	-0.231	0.028
-533.121	385.659	0.023	-0.048
-532.106	140.435	-0.014	0.018
-531.091	-14.376	0.080	0.052
-530.077	-90.034	0.165	-0.048
-529.062	-49.131	0.126	-0.061
-528.048	800.000	0.097	-0.276
-527.033	62.444	0.112	0.112
-526.018	326.719	0.053	0.102
-525.004	150.923	0.128	-0.175
-523.989	-78.766	0.101	0.035
-522.975	422.100	0.167	0.360
-521.960	-96.587	0.062	-0.016
-520.945	-97.278	0.168	0.044
-519.931	-105.874	-0.328	0.074
-518.916	-1.460	-0.137	-0.097
-517.902	-200.000	0.034	-0.399
-516.887	-51.461	-0.294	-0.138
-515.872	61.406	-0.032	0.032
-514.858	-83.034	0.126	0.041
-513.843	-88.996	-0.438	-0.130
-512.829	800.000	0.109	-0.351
-511.814	235.971	0.020	0.034
-510.799	507.092	0.103	0.240
-509.785	-200.000	-0.049	-0.254
-508.770	800.000	0.072	0.295
-507.756	16.177	0.265	-0.209
-506.741	-140.756	-0.104	0.011
-505.726	-49.803	0.260	0.124
-504.712	244.981	0.051	-0.086
-503.697	-85.745	0.077	-0.024
-502.683	398.222	-0.145	0.305
-501.668	-105.707	-0.234	-0.053
-500.653	274.033	0.168	0.298
-499.639	294.342	-0.100	-0.183
-498.624	277.538	-0.106	-0.189
-497.610	-200.000	-0.017	0.225
-496.595	-51.833	-0.213	0.099
-495.581	108.264	-0.089	-0.107
-494.566	-46.307	0.207	0.102
-493.551	80.769	0.070	-0.075
-492.537	-14.248	0.161	0.104
-491.522	-0.346	0.163	0.116
-490.508	309.373	0.094	-0.176
-489.493	79.642	0.200	-0.216
-488.478	-200.000	-0.018	-0.257
-487.464	234.518	0.186	-0.307
-486.449	-200.000	-0.045	-0.320
-485.435	584.865	0.033	-0.080
-484.420	303.637	-0.050	-0.092
-483.405	4.633	0.372	-0.274
-482.391	-200.000	-0.031	-0.153
-481.376	800.000	0.074	0.232
-480.362	-155.125	0.218	-0.014
-479.347	800.000	-0.074	-0.208
-478.332	140.310	0.153	0.202
-477.318	-95.746	0.171	0.046
-476.303	73.130	-0.065	-0.068
-475.289	41.147	-0.038	-0.034
-474.274	116.943	-0.148	-0.182
-473.259	-179.246	0.321	-0.007
-472.245	89.889	-0.256	-0.286
-471.230	176.001	-0.106	-0.154
-470.216	-59.133	-0.317	-0.137
-469.201	-200.000	0.048	0.287
-468.186	39.475	0.166	-0.149
-467.172	800.000	-0.113	0.473
-466.157	-85.275	0.393	0.123
-465.143	-200.000	-0.011	-0.067
-464.128	327.006	-0.063	0.121
-463.113	-200.000	0.043	0.196
-462.099	-87.340	0.262	0.079
-461.084	22.291	0.135	0.111
-460.070	219.798	-0.167	0.267
-459.055	382.440	0.064	-0.131
-458.040	225.176	-0.109	-0.176
-457.026	-42.676	0.100	0.051
-456.011	-109.732	-0.265	-0.056
-454.997	-109.921	-0.239	0.050
-453.982	-110.479	0.135	0.028
-452.968	649.748	-0.067	0.171
-451.953	-173.595	-0.125	-0.004
-450.938	-200.000	0.024	-0.153
-449.924	636.396	0.093	0.235
-448.909	800.000	-0.053	0.147
-447.895	800.000	-0.054	-0.225
-446.880	-137.000	0.333	0.038
-445.865	372.058	0.040	0.082
-444.851	-39.875	-0.184	-0.096
-443.836	-109.559	-0.098	0.021
-442.822	-165.863	-0.321	0.014
-441.807	75.278	-0.078	0.083
-440.792	-200.000	-0.017	0.107
-439.778	-121.002	0.338	-0.057
-438.763	-69.158	-0.264	0.102
-437.749	536.226	-0.125	0.297
-436.734	-92.046	0.116	0.033
-435.719	374.969	0.190	-0.387
-434.705	-200.000	-0.049	-0.350
-433.690	-178.965	0.208	0.005
-432.676	-30.682	0.114	0.065
-431.661	324.558	-0.124	0.237
-430.646	94.317	-0.071	0.080
-429.632	180.204	0.120	-0.176
-428.617	-200.000	-0.011	-0.057
-427.603	442.936	-0.110	0.242
-426.588	87.212	0.050	-0.056
-425.573	-122.645	0.322	0.052
-424.559	232.764	-0.148	0.243
-423.544	4.803	-0.190	-0.139
-422.530	-122.215	0.306	-0.050
-421.515	295.558	0.118	-0.216
-420.500	-51.327	0.207	-0.097
-419.486	124.493	-0.075	0.094
-418.471	-172.356	-0.201	-0.006
-417.457	259.693	-0.053	-0.091
-416.442	800.000	0.045	0.156
-415.428	-200.000	-0.006	0.153
-414.413	-94.975	0.052	0.014
-413.398	-83.425	0.216	-0.069
-412.384	-104.490	0.253	-0.058
-411.369	-200.000	-0.022	-0.188
-410.355	110.340	0.179	-0.214
-409.340	-26.639	0.336	-0.196
-408.325	-55.781	0.008	0.004
-407.311	66.915	-0.254	0.258
-406.296	-200.000	0.002	-0.172
-405.282	181.046	-0.139	-0.204
-404.267	-200.000	0.031	0.218
-403.252	-20.987	0.195	-0.119
-402.238	-166.945	0.192	0.008
-401.223	-200.000	0.024	0.245
-400.209	424.946	-0.144	0.309
-399.194	100.938	-0.142	0.165
-398.179	44.643	-0.147	0.135
-397.165	610.679	-0.103	0.256
-396.150	184.174	-0.141	0.209
-395.136	-44.576	-0.281	0.140
-394.121	800.000	0.058	-0.172
-393.106	-200.000	0.041	-0.280
-392.092	800.000	-0.037	0.119
-391.077	-200.000	0.016	-0.081
-390.063	251.285	-0.077	-0.131
-389.048	-116.573	-0.188	0.034
-388.033	-162.141	-0.136	0.007
-387.019	-59.745	-0.035	0.015
-386.004	-35.824	0.295	-0.159
-384.990	666.526	0.108	0.279
-383.975	-106.859	0.411	-0.091
-382.960	-142.091	0.179	-0.018
-381.946	800.000	0.060	-0.216
-380.931	-172.520	0.313	0.010
-379.917	-159.769	0.078	0.004
-378.902	-51.869	-0.430	0.200
-377.888	-73.603	-0.141	0.051
-376.873	90.580	-0.057	0.064
-375.858	-68.995	0.394	0.151
-374.844	62.815	0.112	-0.111
-373.829	-86.294	-0.373	-0.115
-372.815	107.370	-0.115	0.136
-371.800	-163.229	-0.298	-0.014
-370.785	-70.890	0.273	-0.103
-369.771	-200.000	0.041	0.270
-368.756	-200.000	-0.002	0.214
-367.742	-200.000	-0.022	-0.216
-366.727	24.422	-0.095	-0.078
-365.712	-200.000	0.005	0.144
-364.698	-70.407	-0.195	0.074
-363.683	615.872	-0.132	-0.330
-362.669	-43.176	-0.239	0.121
-361.654	515.150	-0.127	-0.297
-360.639	-62.263	0.284	-0.118
-359.625	444.829	0.048	0.105
-358.610	526.826	0.142	-0.334
-357.596	620.449	-0.021	-0.053
-356.581	2.470	0.191	0.138
-355.566	-112.131	-0.210	-0.042
-354.552	-57.508	0.206	-0.090
-353.537	478.130	-0.084	-0.189
-352.523	-200.000	0.055	-0.501
-351.508	-66.884	0.248	-0.098
-350.493	-11.142	-0.105	0.069
-349.479	425.678	0.157	0.336
-348.464	-12.095	0.046	-0.030
-347.450	362.412	0.209	0.418
-346.435	-200.000	0.004	0.290
-345.420	265.282	-0.091	-0.157
-344.406	24.062	-0.192	0.158
-343.391	-164.058	-0.620	-0.029
-342.377	-73.605	-0.207	-0.075
-341.362	-62.154	0.205	0.085
-340.348	23.825	0.271	0.222
-339.333	46.445	-0.124	0.114
-338.318	225.580	-0.064	-0.103
-337.304	-98.735	-0.318	-0.081
-336.289	-77.273	-0.111	-0.038
-335.275	386.591	0.079	0.162
-334.260	-200.000	0.020	-0.168
-333.245	-166.375	0.355	-0.015
-332.231	750.576	0.124	-0.334
-331.216	-38.726	0.361	-0.189
-330.202	-182.972	-0.103	-0.002
-329.187	179.455	0.106	-0.154
-328.172	800.000	-0.028	-0.097
-327.158	15.763	-0.236	-0.185
-326.143	-200.000	-0.044	0.293
-325.129	142.403	0.079	-0.105
-324.114	58.067	-0.296	-0.289
-323.099	-27.040	0.213	0.124
-322.085	700.930	0.106	0.278
-321.070	-200.000	-0.033	-0.158
-320.056	299.297	0.157	0.288
-319.041	63.617	-0.367	0.367
-318.026	-157.084	-0.028	0.002
-317.012	82.855	-0.088	-0.096
-315.997	-199.745	0.275	-0.001
-314.983	149.522	0.030	-0.040
-313.968	-119.636	-0.335	-0.058
-312.953	120.096	-0.168	-0.207
-311.939	800.000	-0.062	-0.248
-310.924	-97.722	0.019	0.005
-309.910	118.459	-0.131	-0.161
-308.895	60.941	0.288	0.284
-307.880	760.788	-0.052	-0.140
-306.866	9.018	-0.145	-0.109
-305.851	-92.860	0.337	0.094
-304.837	-26.382	-0.010	-0.006
-303.822	800.000	0.057	-0.214
-302.807	-107.027	-0.092	-0.020
-301.793	-21.775	0.227	-0.137
-300.778	215.764	-0.051	-0.081
-299.764	-200.000	-0.006	-0.377
-298.749	800.000	0.081	0.249
-297.735	-38.243	-0.258	0.136
-296.720	59.349	0.153	-0.150
-295.705	-200.000	0.048	0.263
-294.691	-76.088	0.345	0.121
-293.676	-200.000	0.005	0.117
-292.662	-169.306	-0.090	-0.003
-291.647	-101.183	0.155	-0.038
-290.632	563.562	0.045	-0.107
-289.618	800.000	-0.045	-0.162
-288.603	73.553	-0.099	0.103
-287.589	623.773	-0.066	-0.165
-286.574	101.261	-0.085	0.099
-285.559	385.450	0.052	0.106
-284.545	-200.000	-0.180	-0.000
-283.530	8.404	0.054	-0.040
-282.516	-166.487	0.317	0.013
-281.501	-7.551	-0.223	-0.150
-280.486	64.818	0.022	0.022
-279.472	606.747	-0.149	0.368
-278.457	-173.235	-0.151	0.005
-277.443	-10.423	-0.129	-0.085
-276.428	-200.000	-0.032	0.549
-275.413	-109.781	0.486	0.101
-274.399	37.017	-0.244	0.215
-273.384	800.000	-0.017	-0.052
-272.370	-200.000	-0.013	0.090
-271.355	-38.979	-0.206	0.108
-270.340	-200.000	0.016	-0.372
-269.326	-200.000	0.017	0.103
-268.311	230.370	-0.095	0.155
-267.297	-200.000	-0.054	-0.266
-266.282	123.836	0.203	0.253
-265.267	206.627	-0.196	0.302
-264.253	171.471	-0.248	0.354
-263.238	359.562	0.194	0.384
-262.224	-76.074	0.080	0.028
-261.209	800.000	-0.021	-0.082
-260.195	-200.000	-0.013	-0.246
-259.180	-200.000	-0.033	0.375
-258.165	708.696	-0.033	0.087
-257.151	-104.027	0.116	-0.027
-256.136	-2.876	0.156	0.108
-255.122	-58.225	0.187	0.081
-254.107	-200.000	0.024	0.316
-253.092	51.459	-0.091	0.086
-252.078	21.019	0.035	-0.028
-251.063	29.570	0.229	0.193
-250.049	-115.998	0.033	-0.006
-249.034	800.000	-0.098	0.322
-248.019	23.903	0.162	-0.133
-247.005	32.823	0.233	-0.200
-245.990	64.376	0.081	-0.081
-244.976	153.536	-0.210	0.285
-243.961	25.827	0.148	-0.123
-242.946	204.661	0.230	0.353
-241.932	-198.218	-0.132	-0.001
-240.917	118.696	0.173	0.212
-239.903	-200.000	-0.010	0.453
-238.888	-70.503	0.225	-0.084
-237.873	-123.611	0.148	-0.023
-236.859	-200.000	0.008	0.423
-235.844	800.000	-0.034	0.137
-234.830	-159.803	-0.115	-0.006
-233.815	43.969	0.048	0.044
-232.800	45.415	-0.219	0.200
-231.786	31.507	0.237	0.202
-230.771	800.000	-0.097	0.349
-229.757	-138.426	-0.278	0.030
-228.742	-82.319	-0.307	0.099
-227.727	-118.537	0.172	0.030
-226.713	-200.000	-0.015	0.088
-225.698	-48.705	-0.176	0.084
-224.684	-32.633	0.191	-0.105
-223.669	-128.844	0.178	-0.025
-222.655	194.833	-0.049	0.073
-221.640	-20.316	0.205	-0.125
-220.625	-39.996	-0.292	-0.151
-219.611	-200.000	0.007	-0.464
-218.596	-101.302	0.334	-0.081
-217.582	-200.000	0.073	-0.395
-216.567	800.000	0.121	-0.351
-215.552	-200.000	0.032	-0.362
-214.538	6.669	0.046	0.034
-213.523	42.955	0.120	-0.109
-212.509	55.216	0.105	-0.101
-211.494	-8.780	0.123	-0.082
-210.479	107.134	0.059	0.069
-209.465	-184.542	-0.029	-0.000
-208.450	-200.000	0.018	-0.140
-207.436	-45.055	-0.222	-0.109
-206.421	211.933	-0.040	0.063
-205.406	-15.155	-0.187	-0.118
-204.392	-72.999	-0.101	-0.037
-203.377	800.000	-0.085	0.288
-202.363	-200.000	0.018	-0.184
-201.348	-169.935	-0.125	0.004
-200.333	800.000	-0.093	-0.344
-199.319	15.617	-0.222	-0.172
-198.304	-84.425	0.139	-0.043
-197.290	-200.000	-0.000	0.235
-196.275	53.337	0.183	-0.174
-195.260	31.821	0.183	-0.156
-194.246	28.723	0.207	-0.174
-193.231	-83.619	0.205	-0.065
-192.217	112.490	0.080	-0.095
-191.202	-200.000	-0.003	-0.026
-190.187	273.788	0.056	0.099
-189.173	800.000	0.023	-0.065
-188.158	800.000	0.093	0.275
-187.144	744.119	0.083	0.222
-186.129	183.992	0.156	0.229
-185.114	127.241	0.215	0.270
-184.100	-102.102	-0.145	-0.034
-183.085	-70.341	0.228	0.086
-182.071	-200.000	-0.029	-0.308
-181.056	105.681	-0.072	-0.084
-180.042	408.008	-0.083	-0.173
-179.027	704.146	0.131	0.342
-178.012	-183.765	0.091	-0.002
-176.998	-143.421	0.326	0.031
-175.983	-157.330	-0.178	0.011
-174.969	-70.937	-0.152	-0.057
-173.954	-55.506	-0.385	-0.171
-172.939	472.237	0.093	-0.206
-171.925	-53.749	0.089	-0.040
-170.910	224.372	-0.188	0.300
-169.896	272.335	0.115	-0.200
-168.881	-200.000	-0.007	0.058
-167.866	-148.677	0.136	0.011
-166.852	-61.344	0.237	0.099
-165.837	-32.574	0.221	-0.122
-164.823	800.000	-0.056	-0.170
-163.808	23.433	0.091	0.074
-162.793	800.000	0.052	0.152
-161.779	-200.000	0.008	-0.059
-160.764	138.551	0.107	0.139
-159.750	228.164	-0.045	-0.072
-158.735	-200.000	-0.004	-0.168
-157.720	-200.000	0.059	0.279
-156.706	-74.328	-0.131	0.047
-155.691	80.144	-0.083	-0.088
-154.677	-17.526	0.075	-0.047
-153.662	-100.363	0.211	-0.052
-152.647	800.000	-0.145	0.509
-151.633	-75.666	0.116	0.041
-150.618	-32.766	-0.043	-0.024
-149.604	562.923	-0.130	0.311
-148.589	-71.518	-0.208	-0.077
-147.574	-200.000	-0.006	-0.045
-146.560	102.521	0.069	-0.080
-145.545	64.787	0.191	0.190
-144.531	334.876	-0.014	-0.026
-143.516	234.706	0.076	0.125
-142.502	-108.074	0.352	-0.075
-141.487	273.861	0.142	0.247
-140.472	386.135	0.187	0.381
-139.458	-55.310	-0.130	0.058
-138.443	-175.027	-0.172	0.005
-137.429	-200.000	0.005	-0.141
-136.414	130.627	0.307	-0.389
-135.399	-1.832	0.189	-0.131
-134.385	-8.707	-0.021	-0.014
-133.370	83.757	0.126	-0.136
-132.356	800.000	0.050	0.178
-131.341	-200.000	-0.060	-0.309
-130.326	-200.000	-0.049	0.254
-129.312	800.000	-0.042	-0.120
-128.297	-70.573	-0.061	0.023
-127.283	174.057	0.229	-0.327
-126.268	800.000	0.075	-0.325
-125.253	-92.266	0.102	0.028
-124.239	-167.710	0.272	0.011
-123.224	800.000	0.083	0.273
-122.210	800.000	0.049	-0.152
