DTS Sentinel unit serial number:	SN413079Multiplexer serial number:	ORYXHardware model number:	OX4-SRSoftware version number:	ORYX F/W v4.00 Oryx Data Collector v3.7.2.0data status	okinstallation	princeton_trtdifferential loss correction	single-endedforward channel	channel 2reverse channel	N/Adate	2019/09/16time	23:55:35forward acquisition time	60.00reverse acquisition time	0.00gamma	496.2192k internal	0.2330k external	0.2330temperature offset calibration	0.9973default loss term (dB/km)	0.3790temperature slope calibration	1.0000multiplexer offset coefficient	1.0000multiplexer slope coefficient	1.0000fibre end	0.00T internal ref (°C)	29.62T ext. ref 1 (°C)	0.09T ext. ref 2 (°C)	23.94length (m)	temperature (°C)	Stokes	anti-Stokes-747.200	-139.321	-0.034	0.004
-746.185	-165.447	-0.237	0.010
-745.171	-49.661	-0.101	-0.048
-744.156	800.000	-0.058	0.169
-743.142	429.785	-0.149	-0.325
-742.127	800.000	-0.019	0.056
-741.112	-165.853	-0.402	-0.017
-740.098	78.402	0.215	0.231
-739.083	-166.201	-0.115	0.005
-738.069	50.103	-0.037	0.035
-737.054	32.597	-0.050	0.043
-736.039	153.376	0.015	-0.020
-735.025	-55.225	-0.157	0.071
-734.010	-1.171	-0.143	-0.102
-732.996	553.169	0.094	0.227
-731.981	146.050	-0.194	-0.262
-730.966	-36.236	-0.146	0.079
-729.952	228.686	-0.083	0.136
-728.937	-167.477	0.214	0.009
-727.923	96.587	-0.168	-0.193
-726.908	-88.520	-0.160	0.048
-725.894	-52.841	-0.235	-0.109
-724.879	800.000	0.077	-0.262
-723.864	-32.186	0.223	-0.126
-722.850	-45.961	-0.171	0.085
-721.835	105.431	-0.167	0.199
-720.821	-200.000	-0.014	0.088
-719.806	-92.950	-0.142	0.040
-718.791	298.075	0.243	-0.450
-717.777	37.556	-0.115	0.103
-716.762	398.792	0.068	0.143
-715.748	-23.433	-0.073	-0.044
-714.733	-79.898	-0.068	-0.023
-713.718	-162.974	0.313	-0.015
-712.704	800.000	-0.076	-0.278
-711.689	-5.689	-0.177	0.122
-710.675	133.203	-0.135	0.175
-709.660	800.000	-0.026	0.099
-708.645	-138.519	-0.235	0.026
-707.631	-11.989	0.421	-0.277
-706.616	-200.000	-0.008	-0.082
-705.602	471.727	0.091	0.207
-704.587	417.164	-0.117	-0.252
-703.572	17.923	-0.198	-0.158
-702.558	45.466	-0.115	0.106
-701.543	-200.000	-0.036	-0.261
-700.529	-71.162	-0.123	0.047
-699.514	64.204	-0.139	-0.141
-698.499	124.054	-0.197	-0.249
-697.485	-200.000	-0.000	-0.069
-696.470	800.000	0.043	-0.139
-695.456	515.736	0.142	0.333
-694.441	800.000	0.068	-0.202
-693.426	60.672	-0.285	-0.284
-692.412	-70.108	-0.307	0.117
-691.397	-77.037	0.154	0.054
-690.383	-200.000	-0.024	0.129
-689.368	-90.701	0.120	0.035
-688.354	385.162	0.055	-0.113
-687.339	-31.865	-0.264	-0.148
-686.324	800.000	-0.037	-0.158
-685.310	276.452	0.107	-0.191
-684.295	-47.442	0.188	0.092
-683.281	-132.451	0.348	-0.045
-682.266	-112.180	-0.330	0.067
-681.251	-45.582	-0.297	0.148
-680.237	-200.000	0.008	0.047
-679.222	118.437	-0.196	0.243
-678.208	235.570	-0.145	0.241
-677.193	203.401	0.038	0.058
-676.178	232.577	-0.061	0.101
-675.164	800.000	0.014	0.046
-674.149	-200.000	0.076	-0.376
-673.135	-153.736	0.156	0.011
-672.120	-63.996	0.163	0.067
-671.105	-185.157	-0.231	0.004
-670.091	-200.000	0.038	0.244
-669.076	-200.000	0.037	-0.253
-668.062	18.948	0.111	-0.089
-667.047	62.648	0.148	-0.148
-666.032	330.883	-0.185	-0.359
-665.018	-63.925	0.350	-0.144
-664.003	631.791	0.083	0.210
-662.989	545.174	0.126	-0.303
-661.974	154.774	0.117	0.162
-660.959	-67.754	0.394	0.155
-659.945	-158.009	-0.196	-0.012
-658.930	81.157	0.022	-0.024
-657.916	-20.248	0.229	0.141
-656.901	-103.599	-0.162	-0.038
-655.886	-200.000	-0.048	0.265
-654.872	217.906	-0.016	0.025
-653.857	600.040	0.036	-0.089
-652.843	292.578	-0.070	-0.128
-651.828	235.787	-0.241	-0.400
-650.814	235.319	0.048	-0.080
-649.799	-3.272	0.161	-0.113
-648.784	-86.061	0.135	0.042
-647.770	207.727	-0.188	0.294
-646.755	-161.599	-0.259	-0.013
-645.741	800.000	0.075	0.210
-644.726	-42.080	-0.117	0.060
-643.711	800.000	0.072	0.215
-642.697	-200.000	-0.009	-0.158
-641.682	512.240	-0.119	0.278
-640.668	-200.000	-0.007	-0.112
-639.653	792.932	-0.020	0.056
-638.638	-159.364	0.301	-0.017
-637.624	-75.842	0.414	-0.147
-636.609	111.882	0.202	-0.244
-635.595	-200.000	-0.028	0.243
-634.580	134.278	0.025	0.032
-633.565	174.493	-0.115	0.167
-632.551	800.000	0.079	0.260
-631.536	-200.000	-0.023	0.208
-630.522	-186.596	0.191	0.003
-629.507	-59.633	0.362	-0.156
-628.492	-71.479	-0.257	0.096
-627.478	222.118	-0.168	0.271
-626.463	-200.000	0.007	-0.096
-625.449	70.804	0.239	0.248
-624.434	-189.551	-0.137	-0.002
-623.419	-77.913	-0.106	-0.037
-622.405	-142.884	-0.424	0.041
-621.390	800.000	0.035	-0.154
-620.376	33.170	0.288	-0.250
-619.361	-98.536	-0.274	-0.070
-618.346	-72.207	0.412	-0.153
-617.332	-135.066	0.282	-0.034
-616.317	-55.912	-0.171	0.077
-615.303	593.703	-0.151	0.375
-614.288	132.710	0.050	-0.065
-613.273	163.223	-0.174	0.245
-612.259	112.646	-0.277	0.336
-611.244	9.239	0.258	0.195
-610.230	28.911	0.122	-0.104
-609.215	-118.611	0.183	-0.032
-608.201	-200.000	-0.015	0.207
-607.186	144.622	0.060	0.080
-606.171	372.087	-0.061	0.123
-605.157	77.574	0.096	-0.102
-604.142	393.441	0.158	-0.328
-603.128	800.000	-0.064	-0.219
-602.113	-115.575	0.253	0.048
-601.098	800.000	-0.083	-0.361
-600.084	730.367	0.098	-0.262
-599.069	69.415	-0.216	0.222
-598.055	51.586	0.058	0.055
-597.040	78.802	0.112	-0.120
-596.025	40.445	0.183	-0.165
-595.011	439.118	0.052	0.114
-593.996	-88.475	0.167	-0.050
-592.982	800.000	-0.084	0.348
-591.967	-179.480	-0.194	-0.004
-590.952	-200.000	0.047	-0.310
-589.938	-5.150	-0.379	-0.261
-588.923	587.737	0.121	-0.297
-587.909	-75.660	-0.260	0.093
-586.894	427.386	-0.032	0.070
-585.879	800.000	-0.035	0.150
-584.865	-200.000	-0.050	-0.365
-583.850	-54.968	0.378	-0.171
-582.836	65.520	-0.294	-0.298
-581.821	800.000	-0.041	0.162
-580.806	-200.000	-0.425	-0.001
-579.792	-1.172	0.199	-0.141
-578.777	42.056	-0.087	0.079
-577.763	-106.459	0.254	-0.057
-576.748	-62.913	-0.233	0.096
-575.733	-103.143	-0.217	-0.051
-574.719	53.908	0.055	0.053
-573.704	260.150	-0.130	0.225
-572.690	-86.912	-0.226	0.069
-571.675	800.000	0.033	0.108
-570.661	22.997	-0.023	-0.019
-569.646	73.106	0.105	0.110
-568.631	204.831	0.055	-0.085
-567.617	-175.781	-0.328	0.009
-566.602	-0.768	0.147	-0.104
-565.588	77.651	-0.118	0.126
-564.573	496.045	0.029	-0.066
-563.558	800.000	-0.015	0.045
-562.544	-35.369	-0.286	-0.155
-561.529	-200.000	0.003	0.056
-560.515	562.403	-0.056	0.135
-559.500	-18.207	0.252	0.158
-558.485	-200.000	0.035	0.170
-557.471	800.000	-0.040	0.132
-556.456	512.317	-0.086	0.200
-555.442	-200.000	-0.005	0.158
-554.427	121.628	-0.058	0.072
-553.412	-26.649	0.374	0.219
-552.398	177.221	0.186	-0.270
-551.383	69.729	-0.104	-0.107
-550.369	-89.996	-0.281	-0.082
-549.354	-158.662	-0.079	-0.005
-548.339	-200.000	0.022	-0.147
-547.325	-156.005	0.085	0.005
-546.310	-200.000	-0.008	-0.239
-545.296	-200.000	0.019	0.168
-544.281	-200.000	0.000	-0.307
-543.266	-107.783	-0.020	-0.004
-542.252	800.000	0.078	-0.221
-541.237	63.842	-0.347	-0.348
-540.223	800.000	0.047	0.168
-539.208	70.780	-0.056	-0.058
-538.193	-44.771	0.270	-0.134
-537.179	800.000	-0.044	0.149
-536.164	43.182	-0.114	0.104
-535.150	800.000	-0.040	0.144
-534.135	160.712	-0.192	0.268
-533.121	60.288	-0.160	-0.158
-532.106	36.049	0.097	0.086
-531.091	-82.705	-0.184	0.059
-530.077	5.925	-0.102	-0.076
-529.062	-113.788	0.336	0.065
-528.048	-7.477	-0.178	0.121
-527.033	800.000	0.059	0.240
-526.018	-163.463	-0.097	0.005
-525.004	-141.299	-0.311	-0.032
-523.989	-200.000	-0.010	-0.180
-522.975	95.985	-0.305	-0.347
-521.960	-200.000	0.013	-0.067
-520.945	160.463	0.191	-0.266
-519.931	800.000	-0.126	-0.456
-518.916	187.525	-0.172	-0.257
-517.902	-200.000	-0.041	-0.255
-516.887	800.000	-0.118	0.488
-515.872	25.237	0.047	-0.039
-514.858	-137.537	0.203	0.023
-513.843	193.233	0.026	-0.039
-512.829	163.912	0.069	0.097
-511.814	114.722	-0.207	0.252
-510.799	-200.000	0.010	0.075
-509.785	296.874	0.043	0.078
-508.770	97.865	0.203	-0.233
-507.756	-51.794	0.231	-0.107
-506.741	-70.989	0.162	-0.061
-505.726	8.764	-0.141	0.106
-504.712	650.686	-0.042	0.107
-503.697	-200.000	0.011	0.062
-502.683	-114.768	0.164	-0.031
-501.668	155.007	-0.101	-0.138
-500.653	147.639	0.138	0.186
-499.639	800.000	-0.085	-0.289
-498.624	-17.219	-0.136	0.086
-497.610	-98.479	0.187	0.048
-496.595	-104.300	-0.084	0.019
-495.581	-84.156	-0.267	0.084
-494.566	167.415	0.177	-0.251
-493.551	46.075	-0.285	0.263
-492.537	450.969	0.024	-0.052
-491.522	383.587	0.095	-0.196
-490.508	608.393	0.070	0.174
-489.493	800.000	0.032	0.093
-488.478	19.976	-0.060	0.048
-487.464	800.000	0.071	0.289
-486.449	101.615	0.121	-0.141
-485.435	47.105	0.289	0.268
-484.420	-200.000	0.011	-0.520
-483.405	-182.586	-0.302	-0.005
-482.391	91.732	-0.091	-0.102
-481.376	24.063	0.248	-0.204
-480.362	27.900	-0.023	-0.020
-479.347	186.385	0.192	0.285
-478.332	-106.321	0.336	-0.075
-477.318	-62.810	-0.202	0.083
-476.303	800.000	0.082	0.225
-475.289	-200.000	-0.027	0.290
-474.274	-117.697	0.077	0.014
-473.259	92.368	0.142	-0.159
-472.245	389.541	-0.046	-0.096
-471.230	108.187	0.172	0.204
-470.216	90.637	0.282	0.315
-469.201	-200.000	-0.020	-0.208
-468.186	-68.761	-0.135	-0.052
-467.172	-102.031	0.140	-0.034
-466.157	800.000	0.120	0.430
-465.143	-62.536	0.390	-0.161
-464.128	347.710	0.095	0.186
-463.113	149.203	-0.116	-0.156
-462.099	60.963	0.111	0.110
-461.084	75.738	-0.132	-0.139
-460.070	78.866	-0.097	-0.104
-459.055	60.710	-0.075	-0.074
-458.040	438.153	-0.076	-0.166
-457.026	163.054	0.072	0.101
-456.011	-97.066	-0.122	0.032
-454.997	96.873	-0.129	0.147
-453.982	275.914	-0.170	0.300
-452.968	-108.666	0.218	0.047
-451.953	-156.553	-0.370	0.023
-450.938	73.077	-0.071	0.074
-449.924	-200.000	-0.030	-0.228
-448.909	-51.930	-0.201	0.093
-447.895	138.867	0.170	0.222
-446.880	158.714	-0.137	-0.189
-445.865	327.912	-0.194	-0.370
-444.851	-200.000	-0.007	-0.312
-443.836	800.000	-0.112	0.334
-442.822	-55.256	-0.262	-0.117
-441.807	-200.000	0.033	-0.275
-440.792	175.328	-0.147	-0.211
-439.778	-200.000	-0.020	0.113
-438.763	723.110	-0.043	0.114
-437.749	215.562	-0.099	-0.157
-436.734	-200.000	0.031	-0.162
-435.719	39.147	0.237	0.211
-434.705	800.000	-0.070	0.298
-433.690	412.159	-0.170	-0.359
-432.676	172.761	0.231	-0.331
-431.661	-200.000	0.005	0.072
-430.646	-79.041	0.164	-0.055
-429.632	-68.419	-0.387	-0.149
-428.617	-200.000	-0.020	0.204
-427.603	-67.376	-0.209	0.082
-426.588	383.898	0.158	-0.323
-425.573	-95.013	0.073	0.020
-424.559	-200.000	0.041	0.183
-423.544	-26.530	-0.200	-0.117
-422.530	11.236	-0.480	-0.365
-421.515	51.901	-0.204	0.193
-420.500	450.099	0.121	-0.265
-419.486	800.000	0.070	-0.249
-418.471	168.354	0.182	-0.258
-417.457	162.670	0.041	-0.057
-416.442	-101.446	0.521	0.126
-415.428	51.583	0.136	-0.128
-414.413	113.436	-0.245	0.296
-413.398	3.834	-0.049	-0.035
-412.384	800.000	0.071	-0.308
-411.369	110.219	-0.146	0.174
-410.355	74.033	0.127	-0.133
-409.340	-105.106	-0.060	0.014
-408.325	-200.000	0.039	-0.295
-407.311	774.175	-0.198	-0.537
-406.296	-95.285	0.117	-0.031
-405.282	-200.000	0.007	-0.138
-404.267	176.310	-0.128	-0.185
-403.252	800.000	-0.048	0.200
-402.238	-51.180	-0.143	-0.067
-401.223	304.076	0.125	0.230
-400.209	252.724	-0.207	-0.350
-399.194	382.109	0.102	-0.209
-398.179	34.934	0.065	0.057
-397.165	-169.764	0.202	-0.007
-396.150	-76.720	0.269	-0.094
-395.136	-75.452	0.179	0.063
-394.121	70.864	0.045	0.046
-393.106	-11.247	-0.127	0.083
-392.092	-200.000	0.017	-0.096
-391.077	617.082	0.042	-0.105
-390.063	-200.000	-0.058	-0.301
-389.048	75.816	-0.078	-0.081
-388.033	-200.000	-0.021	0.115
-387.019	139.289	0.075	0.098
-386.004	-181.171	0.136	-0.003
-384.990	-13.523	0.186	0.119
-383.975	604.171	0.038	0.093
-382.960	12.459	-0.117	0.090
-381.946	-200.000	0.023	0.163
-380.931	800.000	-0.031	-0.111
-379.917	-153.522	-0.199	0.014
-378.902	-44.403	-0.081	-0.040
-377.888	8.108	0.276	0.205
-376.873	-200.000	-0.011	-0.053
-375.858	606.824	0.117	0.291
-374.844	-54.084	0.221	-0.100
-373.829	-76.933	0.154	-0.053
-372.815	26.115	0.249	-0.206
-371.800	-37.139	-0.104	-0.055
-370.785	668.323	0.094	0.242
-369.771	31.812	0.060	0.052
-368.756	-61.356	0.261	-0.109
-367.742	-200.000	-0.037	0.311
-366.727	319.033	-0.107	0.201
-365.712	760.006	0.089	0.240
-364.698	89.345	0.178	0.197
-363.683	-88.189	-0.195	0.058
-362.669	297.610	0.047	0.085
-361.654	32.017	0.323	0.276
-360.639	219.431	-0.164	0.260
-359.625	82.861	-0.223	-0.240
-358.610	-200.000	-0.024	-0.112
-357.596	-115.803	-0.285	0.053
-356.581	-120.136	-0.061	-0.010
-355.566	-62.081	0.217	0.090
-354.552	16.650	0.302	-0.237
-353.537	800.000	-0.110	-0.353
-352.523	-57.549	0.102	0.044
-351.508	-5.513	-0.281	0.191
-350.493	229.488	0.291	-0.470
-349.479	-9.504	0.355	-0.235
-348.464	423.910	0.140	0.298
-347.450	21.164	-0.206	-0.166
-346.435	-62.204	-0.253	-0.104
-345.420	-56.209	-0.201	0.089
-344.406	-161.739	-0.074	0.004
-343.391	-129.350	-0.385	-0.053
-342.377	109.762	0.043	-0.051
-341.362	138.381	-0.075	0.097
-340.348	503.936	0.019	-0.043
-339.333	81.641	-0.097	0.104
-338.318	105.740	0.169	0.198
-337.304	-138.991	0.341	-0.037
-336.289	-200.000	0.008	0.587
-335.275	-18.110	0.157	0.097
-334.260	-200.000	0.008	-0.184
-333.245	800.000	0.118	-0.385
-332.231	-200.000	-0.013	-0.162
-331.216	186.732	-0.037	0.054
-330.202	64.550	-0.161	0.161
-329.187	800.000	0.102	-0.385
-328.172	-16.608	-0.213	-0.134
-327.158	51.546	0.262	-0.247
-326.143	174.071	0.205	-0.294
-325.129	-7.625	-0.211	-0.142
-324.114	-67.312	-0.153	-0.059
-323.099	245.275	-0.049	0.082
-322.085	-112.572	0.432	-0.085
-321.070	15.136	-0.167	0.129
-320.056	175.760	0.076	-0.110
-319.041	275.803	0.103	-0.181
-318.026	-59.084	-0.112	0.048
-317.012	-200.000	-0.057	0.260
-315.997	38.486	0.078	-0.069
-314.983	-59.120	-0.036	-0.015
-313.968	-112.101	-0.216	0.043
-312.953	-3.226	0.422	-0.291
-311.939	-200.000	-0.038	-0.343
-310.924	-200.000	-0.011	0.274
-309.910	230.773	0.101	0.164
-308.895	-1.083	0.133	-0.093
-307.880	-71.666	-0.087	-0.032
-306.866	-87.876	0.281	-0.084
-305.851	158.184	0.075	0.102
-304.837	-1.546	-0.086	-0.060
-303.822	-150.671	-0.099	0.007
-302.807	-96.849	-0.153	-0.040
-301.793	-0.848	-0.304	0.213
-300.778	304.744	-0.088	0.161
-299.764	-49.054	-0.181	-0.086
-298.749	601.548	0.085	0.210
-297.735	-200.000	0.020	-0.224
-296.720	-40.598	-0.160	-0.082
-295.705	-153.038	-0.133	0.009
-294.691	-157.063	-0.214	-0.013
-293.676	-97.542	-0.243	-0.062
-292.662	800.000	-0.120	-0.456
-291.647	-109.282	0.262	-0.055
-290.632	-45.593	-0.097	-0.048
-289.618	-200.000	0.028	0.178
-288.603	-108.038	0.048	-0.010
-287.589	-94.229	0.237	-0.064
-286.574	800.000	0.011	0.032
-285.559	800.000	-0.086	0.262
-284.545	-200.000	0.026	-0.384
-283.530	-200.000	0.023	-0.117
-282.516	-56.032	0.243	0.107
-281.501	-118.859	-0.193	-0.034
-280.486	-109.023	-0.206	0.043
-279.472	-180.037	-0.030	0.001
-278.457	-14.826	-0.094	0.060
-277.443	-124.855	-0.352	0.054
-276.428	394.494	-0.034	0.070
-275.413	665.111	0.016	0.042
-274.399	-200.000	0.003	0.061
-273.384	222.062	-0.089	0.142
-272.370	-1.968	0.276	0.192
-271.355	-73.593	-0.280	-0.101
-270.340	319.988	-0.241	0.452
-269.326	601.991	-0.016	0.039
-268.311	-200.000	0.002	-0.010
-267.297	800.000	-0.057	0.159
-266.282	800.000	-0.027	0.079
-265.267	-10.060	-0.072	0.048
-264.253	315.268	0.038	0.070
-263.238	144.208	0.060	0.079
-262.224	-23.257	-0.413	0.246
-261.209	-75.639	-0.261	0.092
-260.195	365.389	0.086	0.171
-259.180	302.531	0.077	-0.140
-258.165	-3.883	0.327	-0.224
-257.151	328.051	0.084	-0.159
-256.136	743.658	0.099	-0.262
-255.122	-40.420	0.108	-0.055
-254.107	319.331	0.087	0.164
-253.092	310.560	0.157	0.290
-252.078	800.000	0.116	0.394
-251.063	-189.908	-0.217	0.002
-250.049	-200.000	-0.039	0.313
-249.034	800.000	0.037	-0.133
-248.019	-87.481	0.161	0.048
-247.005	340.374	-0.024	-0.047
-245.990	800.000	0.059	-0.210
-244.976	153.092	-0.266	0.359
-243.961	-138.995	0.168	-0.018
-242.946	-200.000	0.034	0.177
-241.932	-59.183	-0.097	0.041
-240.917	-200.000	0.048	-0.241
-239.903	-200.000	0.026	0.202
-238.888	14.978	-0.141	0.109
-237.873	0.414	-0.100	0.070
-236.859	599.578	0.088	0.217
-235.844	-10.749	0.341	-0.222
-234.830	176.748	0.177	-0.254
-233.815	61.122	0.032	-0.031
-232.800	-200.000	-0.010	-0.062
-231.786	800.000	-0.062	0.238
-230.771	36.575	0.229	-0.199
-229.757	-156.186	0.122	-0.008
-228.742	-77.310	-0.052	-0.018
-227.727	6.990	-0.171	0.126
-226.713	22.854	0.222	-0.180
-225.698	-200.000	-0.028	0.245
-224.684	250.927	-0.214	-0.359
-223.669	-112.435	-0.215	-0.042
-222.655	12.865	0.247	0.189
-221.640	336.267	0.224	0.429
-220.625	800.000	0.094	-0.383
-219.611	-200.000	0.027	-0.456
-218.596	-139.903	0.313	-0.033
-217.582	-200.000	-0.029	-0.204
-216.567	-66.810	-0.524	0.204
-215.552	-200.000	-0.053	-0.342
-214.538	-102.284	-0.100	0.024
-213.523	-154.584	-0.264	-0.017
-212.509	-52.887	0.116	0.053
-211.494	97.278	0.080	-0.090
-210.479	272.069	-0.038	0.066
-209.465	-75.159	0.193	0.068
-208.450	484.000	0.096	0.216
-207.436	87.584	0.063	-0.068
-206.421	-200.000	0.014	0.160
-205.406	-94.461	0.249	-0.067
-204.392	-200.000	0.006	-0.150
-203.377	175.030	-0.072	0.102
-202.363	-88.462	-0.251	0.074
-201.348	-200.000	0.026	0.497
-200.333	-66.127	-0.149	0.058
-199.319	764.792	0.088	0.237
-198.304	92.712	-0.152	-0.169
-197.290	371.849	-0.136	0.272
-196.275	-66.417	-0.191	-0.075
-195.260	294.342	-0.027	0.049
-194.246	800.000	-0.026	0.077
-193.231	298.977	-0.179	-0.324
-192.217	-33.515	-0.234	0.127
-191.202	-200.000	-0.039	0.179
-190.187	-96.210	-0.072	-0.019
-189.173	24.408	-0.298	0.243
-188.158	51.792	-0.125	0.117
-187.144	-200.000	-0.002	-0.105
-186.129	388.095	0.054	0.110
-185.114	270.777	0.113	0.196
-184.100	105.347	0.265	0.309
-183.085	142.857	-0.184	-0.241
-182.071	-200.000	0.045	0.237
-181.056	-195.051	-0.100	-0.001
-180.042	-137.242	0.098	0.011
-179.027	208.276	-0.162	-0.250
-178.012	468.711	-0.045	0.099
-176.998	180.645	-0.098	0.142
-175.983	-200.000	0.001	-0.128
-174.969	-19.338	-0.120	-0.073
-173.954	-100.766	0.358	0.087
-172.939	235.495	0.196	-0.318
-171.925	-200.000	0.007	0.040
-170.910	-4.497	0.244	0.166
-169.896	70.146	-0.023	0.023
-168.881	74.511	0.168	0.174
-167.866	180.655	0.012	-0.018
-166.852	-161.352	-0.297	-0.015
-165.837	-200.000	0.015	-0.101
-164.823	50.554	0.242	0.225
-163.808	47.478	0.289	-0.265
-162.793	3.374	-0.145	-0.104
-161.779	175.821	0.231	-0.330
-160.764	236.781	-0.226	0.368
-159.750	-200.000	0.038	-0.294
-158.735	-147.206	0.480	0.040
-157.720	396.168	-0.068	0.139
-156.706	-111.111	0.210	-0.042
-155.691	430.288	-0.061	0.129
-154.677	-64.638	-0.194	-0.077
-153.662	-200.000	-0.032	0.283
-152.647	-31.523	0.301	-0.167
-151.633	103.193	0.087	-0.100
-150.618	300.292	-0.040	-0.073
-149.604	-200.000	0.018	0.120
-148.589	24.155	-0.096	0.078
-147.574	800.000	-0.046	0.153
-146.560	-200.000	-0.010	-0.068
-145.545	-149.308	-0.251	-0.020
-144.531	-172.896	-0.107	-0.003
-143.516	516.528	0.056	-0.129
-142.502	-111.120	-0.430	0.087
-141.487	-22.205	-0.133	0.079
-140.472	-135.782	-0.229	-0.027
-139.458	115.034	-0.097	0.116
-138.443	227.635	0.031	-0.049
-137.429	167.497	0.233	0.325
-136.414	109.246	-0.223	0.262
-135.399	-200.000	0.028	-0.251
-134.385	-113.123	0.268	-0.052
-133.370	-200.000	-0.060	0.261
-132.356	79.445	-0.085	0.090
-131.341	-120.047	0.081	-0.014
-130.326	449.866	-0.101	0.219
-129.312	539.075	-0.059	0.137
-128.297	-17.915	0.160	0.099
-127.283	-200.000	0.027	0.310
-126.268	-200.000	0.057	0.452
-125.253	-47.359	-0.130	0.062
-124.239	65.090	-0.202	-0.201
-123.224	164.651	-0.158	0.219
-122.210	800.000	-0.061	0.209
-121.195	-35.455	-0.160	-0.085
