DTS Sentinel unit serial number:	SN413079Multiplexer serial number:	ORYXHardware model number:	OX4-SRSoftware version number:	ORYX F/W v4.00 Oryx Data Collector v3.7.2.0data status	okinstallation	princeton_trtdifferential loss correction	single-endedforward channel	channel 2reverse channel	N/Adate	2019/09/14time	15:39:35forward acquisition time	60.00reverse acquisition time	0.00gamma	496.2192k internal	0.2304k external	0.2304temperature offset calibration	1.0142default loss term (dB/km)	0.3790temperature slope calibration	1.0000multiplexer offset coefficient	1.0000multiplexer slope coefficient	1.0000fibre end	0.00T internal ref (°C)	38.78T ext. ref 1 (°C)	5.14T ext. ref 2 (°C)	34.28length (m)	temperature (°C)	Stokes	anti-Stokes-747.200	87.961	0.113	-0.127
-746.185	-133.566	0.257	-0.033
-745.171	-164.749	0.281	-0.013
-744.156	800.000	-0.059	0.248
-743.142	245.383	-0.121	0.208
-742.127	-125.773	-0.334	-0.051
-741.112	211.467	0.133	-0.213
-740.098	-200.000	-0.002	-0.209
-739.083	-41.213	0.124	-0.065
-738.069	-168.141	-0.289	-0.011
-737.054	36.374	0.069	0.062
-736.039	84.871	-0.065	-0.073
-735.025	59.997	0.105	-0.106
-734.010	-102.339	-0.345	-0.084
-732.996	-152.713	-0.238	0.017
-731.981	-120.538	-0.358	-0.062
-730.966	-93.896	-0.190	0.053
-729.952	86.418	-0.230	-0.258
-728.937	205.916	0.093	-0.148
-727.923	-110.925	-0.318	0.067
-726.908	203.565	0.157	-0.246
-725.894	15.311	0.077	0.061
-724.879	130.072	-0.125	0.162
-723.864	264.613	-0.097	0.172
-722.850	-131.438	-0.431	0.058
-721.835	7.270	-0.247	0.188
-720.821	-108.388	-0.296	0.065
-719.806	-200.000	-0.069	0.388
-718.791	73.808	0.043	0.046
-717.777	-65.480	-0.073	-0.030
-716.762	198.068	0.130	0.203
-715.748	800.000	0.095	0.312
-714.733	-200.000	0.034	0.443
-713.718	-101.294	-0.333	0.083
-712.704	-200.000	-0.020	-0.291
-711.689	-75.311	0.113	-0.041
-710.675	79.880	0.282	-0.308
-709.660	800.000	-0.104	-0.305
-708.645	-115.557	0.269	-0.051
-707.631	-190.359	-0.280	-0.003
-706.616	-200.000	0.004	-0.040
-705.602	-98.420	0.181	-0.047
-704.587	-200.000	-0.044	0.320
-703.572	12.465	0.013	-0.010
-702.558	398.139	-0.097	-0.206
-701.543	753.267	-0.091	0.251
-700.529	274.146	-0.142	0.255
-699.514	61.583	0.277	0.280
-698.499	-88.296	-0.270	-0.082
-697.485	155.780	-0.175	-0.245
-696.470	-200.000	0.002	-0.121
-695.456	-13.033	-0.082	0.054
-694.441	-93.926	0.161	-0.045
-693.426	800.000	-0.078	-0.225
-692.412	598.279	-0.116	-0.292
-691.397	-182.037	0.394	-0.008
-690.383	-200.000	0.018	-0.212
-689.368	5.973	-0.079	0.059
-688.354	-200.000	0.010	0.364
-687.339	-200.000	-0.073	-0.360
-686.324	227.676	0.238	-0.393
-685.310	-48.926	-0.182	-0.089
-684.295	-200.000	-0.003	0.119
-683.281	800.000	0.011	-0.049
-682.266	-69.051	0.120	-0.047
-681.251	24.090	-0.142	0.119
-680.237	-88.694	0.164	0.050
-679.222	-3.488	0.336	0.237
-678.208	-98.476	0.259	0.067
-677.193	-31.590	-0.246	-0.140
-676.178	213.849	0.212	0.340
-675.164	49.839	-0.238	0.228
-674.149	-106.344	0.309	-0.070
-673.135	-170.373	-0.046	-0.002
-672.120	-74.076	-0.127	-0.047
-671.105	-192.338	-0.341	0.003
-670.091	-5.333	0.107	-0.075
-669.076	-200.000	-0.078	0.394
-668.062	28.179	-0.267	-0.229
-667.047	-114.032	0.404	-0.079
-666.032	-111.409	0.266	-0.055
-665.018	-200.000	0.023	0.234
-664.003	-200.000	0.017	-0.203
-662.989	800.000	-0.142	0.438
-661.974	-38.944	-0.260	-0.139
-660.959	178.171	0.126	0.187
-659.945	1.283	-0.043	0.031
-658.930	35.793	-0.115	-0.102
-657.916	-82.018	-0.326	0.108
-656.901	800.000	-0.084	0.345
-655.886	-95.084	-0.056	0.015
-654.872	469.249	-0.090	0.204
-653.857	154.733	-0.189	0.264
-652.843	-118.115	0.386	-0.070
-651.828	-108.178	-0.292	-0.064
-650.814	-188.443	0.245	-0.003
-649.799	267.355	-0.103	-0.183
-648.784	30.773	-0.245	-0.213
-647.770	-112.728	-0.180	-0.036
-646.755	-180.207	0.160	-0.003
-645.741	-200.000	0.047	0.434
-644.726	-198.126	0.124	-0.001
-643.711	-135.653	-0.181	-0.022
-642.697	-4.213	0.151	0.106
-641.682	-200.000	0.003	0.389
-640.668	-200.000	-0.004	-0.209
-639.653	-65.144	-0.368	0.151
-638.638	-7.692	-0.163	0.112
-637.624	590.445	-0.042	0.106
-636.609	243.456	-0.110	-0.187
-635.595	92.082	0.165	0.189
-634.580	195.202	0.102	0.157
-633.565	800.000	-0.073	-0.226
-632.551	-87.847	-0.285	0.087
-631.536	-200.000	-0.001	0.008
-630.522	126.775	-0.158	-0.203
-629.507	-200.000	0.025	0.242
-628.492	-111.661	-0.227	0.047
-627.478	88.599	-0.033	-0.037
-626.463	-61.397	-0.131	0.056
-625.449	383.413	-0.091	-0.191
-624.434	237.667	-0.132	-0.223
-623.419	119.873	0.097	0.122
-622.405	-15.752	-0.266	-0.172
-621.390	453.098	0.100	0.224
-620.376	650.172	0.046	0.120
-619.361	-40.681	0.323	-0.170
-618.346	800.000	0.061	0.260
-617.332	-159.865	0.200	0.011
-616.317	81.903	-0.240	-0.264
-615.303	-9.614	-0.304	-0.205
-614.288	800.000	0.061	-0.216
-613.273	52.662	-0.121	-0.117
-612.259	-91.014	-0.127	-0.037
-611.244	-91.098	-0.142	-0.041
-610.230	-112.699	-0.248	0.050
-609.215	138.739	0.013	-0.018
-608.201	249.450	-0.130	0.223
-607.186	-52.526	-0.142	0.066
-606.171	116.651	-0.145	0.180
-605.157	429.501	-0.144	0.315
-604.142	800.000	-0.102	-0.310
-603.128	76.593	-0.090	-0.097
-602.113	32.116	-0.134	0.117
-601.098	11.641	0.271	-0.210
-600.084	-30.443	0.245	-0.141
-599.069	800.000	0.060	0.239
-598.055	-66.260	-0.158	-0.064
-597.040	381.040	-0.080	-0.166
-596.025	59.491	-0.169	-0.169
-595.011	-18.079	-0.137	-0.087
-593.996	-200.000	0.040	-0.277
-592.982	-6.880	-0.064	-0.044
-591.967	-122.601	-0.245	0.040
-590.952	-13.398	0.175	-0.115
-589.938	302.183	-0.144	-0.270
-588.923	-82.524	0.100	-0.033
-587.909	800.000	0.068	-0.198
-586.894	-63.126	0.082	0.034
-585.879	-64.478	-0.150	0.062
-584.865	67.794	0.091	-0.094
-583.850	-200.000	0.017	0.305
-582.836	-124.813	0.310	-0.049
-581.821	-10.082	0.367	-0.247
-580.806	61.982	-0.033	-0.033
-579.792	22.193	-0.118	-0.097
-578.777	-19.221	0.314	0.197
-577.763	250.038	0.068	0.117
-576.748	69.183	0.034	0.035
-575.733	-44.710	-0.131	0.066
-574.719	85.011	-0.249	0.276
-573.704	70.335	-0.153	-0.160
-572.690	231.518	0.048	0.079
-571.675	40.507	-0.195	-0.178
-570.661	800.000	0.108	-0.350
-569.646	-30.203	-0.223	0.128
-568.631	21.137	0.106	-0.087
-567.617	301.800	-0.109	-0.203
-566.602	-9.431	-0.200	-0.135
-565.588	121.585	0.158	-0.199
-564.573	-11.412	0.467	-0.311
-563.558	10.590	0.125	-0.096
-562.544	2.650	-0.349	0.256
-561.529	-176.534	-0.467	0.012
-560.515	-111.740	0.189	0.039
-559.500	-13.823	0.127	0.083
-558.485	800.000	0.054	-0.178
-557.471	-200.000	0.048	-0.253
-556.456	341.645	-0.057	-0.112
-555.442	-44.033	-0.178	0.091
-554.427	800.000	0.076	-0.229
-553.412	-200.000	0.013	0.167
-552.398	179.757	0.132	0.195
-551.383	-176.695	0.092	-0.002
-550.369	574.844	-0.060	0.149
-549.354	-118.057	-0.140	-0.025
-548.339	261.920	-0.105	-0.184
-547.325	195.139	0.161	-0.247
-546.310	-148.684	-0.144	-0.012
-545.296	-200.000	-0.009	0.242
-544.281	792.560	-0.034	-0.096
-543.266	123.403	0.115	-0.145
-542.252	-4.730	0.107	0.074
-541.237	800.000	0.047	0.174
-540.223	-200.000	0.011	0.303
-539.208	277.376	-0.125	0.225
-538.193	-16.768	-0.180	-0.115
-537.179	77.894	0.072	0.078
-536.164	156.011	-0.101	0.141
-535.150	-200.000	-0.014	-0.129
-534.135	-110.351	-0.302	-0.064
-533.121	670.366	0.109	0.286
-532.106	339.436	0.252	0.496
-531.091	233.706	0.141	-0.235
-530.077	-64.330	-0.347	-0.143
-529.062	-200.000	0.002	0.010
-528.048	764.472	-0.054	-0.149
-527.033	73.395	-0.112	-0.118
-526.018	10.784	0.214	0.165
-525.004	540.524	0.065	0.157
-523.989	249.361	0.086	-0.147
-522.975	-101.104	-0.191	0.047
-521.960	-49.270	-0.324	-0.156
-520.945	-200.000	0.014	0.245
-519.931	-124.246	-0.336	0.053
-518.916	-200.000	0.035	0.190
-517.902	124.720	-0.174	0.222
-516.887	-7.664	-0.346	0.236
-515.872	-42.342	0.016	0.008
-514.858	148.948	0.088	-0.121
-513.843	173.828	0.067	0.097
-512.829	-168.433	0.092	-0.004
-511.814	733.139	0.071	0.191
-510.799	-46.535	0.510	-0.252
-509.785	686.206	-0.087	0.229
-508.770	-200.000	-0.055	0.246
-507.756	800.000	0.102	-0.359
-506.741	-200.000	0.008	0.136
-505.726	-150.021	0.115	-0.009
-504.712	-63.437	-0.220	-0.091
-503.697	158.759	-0.047	0.065
-502.683	131.150	-0.260	-0.337
-501.668	-88.349	-0.298	-0.090
-500.653	-187.073	0.032	-0.000
-499.639	119.870	0.209	0.262
-498.624	146.604	0.049	0.066
-497.610	-200.000	-0.007	-0.043
-496.595	80.766	0.157	0.171
-495.581	-113.868	-0.163	0.032
-494.566	-200.000	-0.039	-0.184
-493.551	-40.792	-0.308	-0.161
-492.537	-15.993	0.140	0.090
-491.522	129.130	-0.052	0.067
-490.508	-103.204	0.144	0.034
-489.493	80.540	0.124	0.135
-488.478	28.684	-0.216	-0.184
-487.464	127.833	0.111	-0.143
-486.449	-126.224	-0.205	-0.031
-485.435	-4.958	-0.261	-0.181
-484.420	315.145	-0.143	-0.272
-483.405	-164.182	0.157	0.007
-482.391	241.103	-0.170	0.285
-481.376	-143.902	0.164	0.016
-480.362	-13.158	-0.098	0.064
-479.347	624.626	-0.096	0.244
-478.332	-200.000	-0.056	0.292
-477.318	53.997	0.018	0.018
-476.303	548.011	0.151	0.364
-475.289	-200.000	-0.009	-0.130
-474.274	8.892	-0.068	0.051
-473.259	32.386	0.300	-0.261
-472.245	800.000	0.027	0.092
-471.230	-13.133	0.230	0.151
-470.216	-104.455	0.196	0.046
-469.201	-200.000	0.007	-0.087
-468.186	69.669	-0.061	-0.064
-467.172	518.911	-0.090	0.213
-466.157	800.000	-0.085	0.321
-465.143	-64.819	0.321	-0.131
-464.128	38.955	-0.207	-0.186
-463.113	-34.681	-0.181	-0.100
-462.099	-54.001	0.339	-0.156
-461.084	-146.493	0.249	0.022
-460.070	800.000	0.040	-0.129
-459.055	-115.369	-0.221	-0.042
-458.040	-160.789	-0.109	0.006
-457.026	800.000	0.024	0.072
-456.011	800.000	0.093	0.277
-454.997	-124.981	0.123	-0.019
-453.982	-97.769	0.248	-0.065
-452.968	285.227	-0.050	0.091
-451.953	-99.678	0.111	0.028
-450.938	800.000	0.046	-0.190
-449.924	-200.000	0.024	0.345
-448.909	-101.312	0.292	-0.072
-447.895	-150.562	-0.347	-0.027
-446.880	252.967	0.027	-0.046
-445.865	246.840	0.048	0.081
-444.851	-5.098	0.059	-0.041
-443.836	-200.000	0.014	0.102
-442.822	800.000	-0.077	-0.305
-441.807	133.460	-0.151	0.197
-440.792	356.050	-0.075	0.150
-439.778	-93.505	0.292	0.081
-438.763	-89.279	0.255	0.076
-437.749	800.000	0.019	-0.055
-436.734	433.249	0.075	-0.164
-435.719	-41.664	-0.096	-0.050
-434.705	-89.968	0.128	-0.038
-433.690	800.000	-0.086	0.260
-432.676	-200.000	0.057	0.268
-431.661	-126.264	0.032	-0.005
-430.646	571.934	0.139	0.340
-429.632	-200.000	0.004	-0.194
-428.617	15.585	0.320	0.253
-427.603	-106.766	-0.209	0.047
-426.588	800.000	-0.082	-0.307
-425.573	753.731	0.086	-0.235
-424.559	-200.000	0.013	-0.124
-423.544	68.595	0.153	0.157
-422.530	800.000	0.056	-0.170
-421.515	-164.519	0.217	0.010
-420.500	371.093	-0.011	0.022
-419.486	-127.530	0.449	0.065
-418.471	-200.000	0.050	0.224
-417.457	800.000	-0.105	-0.293
-416.442	800.000	-0.088	-0.245
-415.428	-63.316	-0.606	0.251
-414.413	-200.000	0.022	-0.112
-413.398	800.000	0.035	-0.118
-412.384	1.615	0.316	0.229
-411.369	-83.603	0.064	0.021
-410.355	800.000	0.046	0.148
-409.340	-104.528	0.145	-0.034
-408.325	262.661	-0.047	0.082
-407.311	-54.156	0.291	-0.133
-406.296	800.000	0.057	-0.185
-405.282	-48.090	-0.196	-0.095
-404.267	485.719	0.066	0.150
-403.252	457.896	0.078	-0.174
-402.238	800.000	-0.054	0.198
-401.223	-127.976	-0.147	0.021
-400.209	537.484	0.065	-0.156
-399.194	297.057	-0.119	0.220
-398.179	248.605	0.056	0.096
-397.165	-135.049	-0.086	0.010
-396.150	20.559	-0.151	0.123
-395.136	-164.124	0.169	0.008
-394.121	201.796	-0.143	-0.221
-393.106	-90.139	0.147	-0.043
-392.092	-200.000	-0.007	0.301
-391.077	-200.000	-0.013	-0.332
-390.063	43.866	-0.276	-0.254
-389.048	-63.221	0.100	0.041
-388.033	-114.284	-0.336	-0.065
-387.019	-72.278	-0.135	0.050
-386.004	33.595	-0.297	0.259
-384.990	4.347	0.349	0.257
-383.975	800.000	-0.051	-0.165
-382.960	-94.499	0.347	-0.095
-381.946	-200.000	0.002	0.163
-380.931	-200.000	-0.018	-0.268
-379.917	-103.449	0.091	0.022
-378.902	96.821	0.147	0.170
-377.888	-172.798	0.185	-0.006
-376.873	234.076	0.174	0.287
-375.858	-105.714	0.114	0.026
-374.844	-200.000	0.227	-0.001
-373.829	-29.870	0.263	0.150
-372.815	-30.418	-0.103	-0.059
-371.800	-50.355	-0.092	0.043
-370.785	324.766	0.069	-0.133
-369.771	-200.000	-0.001	-0.011
-368.756	800.000	0.021	0.068
-367.742	-133.895	-0.257	-0.032
-366.727	-63.604	0.453	-0.187
-365.712	-59.700	-0.198	0.085
-364.698	191.423	-0.042	-0.064
-363.683	134.691	-0.178	-0.231
-362.669	-31.873	0.243	0.137
-361.654	149.097	-0.107	-0.145
-360.639	-200.000	-0.030	-0.138
-359.625	-200.000	0.013	-0.092
-358.610	-200.000	-0.008	-0.044
-357.596	-70.407	-0.223	0.085
-356.581	-116.720	-0.186	0.034
-355.566	-93.734	0.137	0.038
-354.552	800.000	-0.057	0.202
-353.537	-123.273	0.211	-0.034
-352.523	800.000	-0.056	0.174
-351.508	-200.000	-0.008	0.234
-350.493	102.121	0.063	-0.073
-349.479	69.116	0.194	0.200
-348.464	518.806	0.089	-0.209
-347.450	-128.519	0.195	0.028
-346.435	26.108	0.184	0.154
-345.420	-166.341	0.331	0.014
-344.406	-151.016	0.094	0.007
-343.391	-200.000	-0.011	0.113
-342.377	-111.016	-0.285	0.059
-341.362	100.040	0.035	-0.041
-340.348	800.000	0.130	-0.379
-339.333	800.000	0.029	0.111
-338.318	-97.871	-0.257	-0.067
-337.304	800.000	-0.098	-0.287
-336.289	741.069	-0.140	-0.376
-335.275	-113.177	-0.142	-0.028
-334.260	-34.837	-0.272	0.149
-333.245	273.165	-0.147	-0.260
-332.231	-74.037	0.212	0.077
-331.216	230.343	-0.043	-0.071
-330.202	-200.000	-0.013	0.224
-329.187	188.315	-0.077	-0.116
-328.172	-200.000	-0.014	-0.127
-327.158	-35.428	0.253	-0.138
-326.143	63.341	0.375	0.376
-325.129	-20.431	0.038	0.023
-324.114	-200.000	0.051	-0.352
-323.099	181.828	0.122	-0.180
-322.085	800.000	0.053	0.206
-321.070	-169.732	-0.201	-0.007
-320.056	-36.319	-0.104	0.056
-319.041	-75.971	0.262	-0.093
-318.026	-142.936	0.031	-0.003
-317.012	-0.876	-0.325	-0.230
-315.997	-1.319	-0.100	0.071
-314.983	118.538	0.072	0.089
-313.968	234.721	0.079	0.131
-312.953	460.098	0.070	-0.157
-311.939	-14.467	0.160	-0.103
-310.924	-86.351	-0.199	0.061
-309.910	610.001	0.040	0.101
-308.895	-32.645	-0.011	-0.006
-307.880	800.000	0.078	0.223
-306.866	44.845	0.194	-0.179
-305.851	800.000	-0.045	0.189
-304.837	77.150	0.051	-0.055
-303.822	-200.000	0.012	-0.228
-302.807	-115.537	-0.133	0.025
-301.793	800.000	-0.104	0.330
-300.778	226.168	-0.045	-0.073
-299.764	11.944	-0.161	0.124
-298.749	-2.572	-0.047	0.033
-297.735	-114.257	-0.087	-0.017
-296.720	146.801	0.175	-0.235
-295.705	-199.411	0.341	0.002
-294.691	23.680	-0.301	-0.248
-293.676	-200.000	-0.006	0.242
-292.662	-126.991	0.201	0.030
-291.647	143.180	-0.131	-0.175
-290.632	45.591	0.178	-0.164
-289.618	77.953	0.206	-0.219
-288.603	800.000	0.025	-0.073
-287.589	-200.000	-0.006	-0.322
-286.574	15.075	0.319	-0.250
-285.559	-91.007	-0.102	-0.029
-284.545	-128.298	-0.314	0.045
-283.530	-81.818	-0.251	0.082
-282.516	180.479	-0.076	-0.112
-281.501	-77.510	0.173	-0.060
-280.486	713.757	-0.094	0.249
-279.472	127.949	-0.286	-0.363
-278.457	-200.000	0.021	0.132
-277.443	193.839	0.085	-0.128
-276.428	10.186	-0.167	0.127
-275.413	-200.000	-0.035	-0.163
-274.399	-19.749	0.395	-0.244
-273.384	-71.424	0.136	-0.051
-272.370	528.312	0.043	0.102
-271.355	-131.459	0.336	0.044
-270.340	22.350	-0.075	-0.061
-269.326	-55.984	0.108	0.048
-268.311	541.960	-0.033	-0.077
-267.297	38.790	-0.142	0.127
-266.282	-200.000	0.061	-0.386
-265.267	169.852	-0.033	-0.047
-264.253	-200.000	0.002	-0.331
-263.238	337.564	-0.077	-0.149
-262.224	-103.707	0.254	0.060
-261.209	-50.351	0.411	0.194
-260.195	149.984	-0.118	0.160
-259.180	-94.082	-0.151	0.041
-258.165	-78.562	-0.128	-0.044
-257.151	666.361	-0.038	-0.098
-256.136	-126.628	-0.222	0.033
-255.122	-200.000	0.041	-0.236
-254.107	800.000	-0.034	0.120
-253.092	-5.592	0.296	0.203
-252.078	71.013	0.093	-0.097
-251.063	-200.000	-0.037	0.181
-250.049	462.893	0.121	0.269
-249.034	307.074	-0.134	-0.249
-248.019	-142.549	-0.264	0.026
-247.005	94.304	-0.045	0.051
-245.990	-121.085	-0.215	-0.036
-244.976	176.379	0.073	0.105
-243.961	-200.000	-0.037	-0.217
-242.946	266.009	0.057	0.099
-241.932	-97.271	0.411	0.107
-240.917	-200.000	0.015	0.092
-239.903	-38.902	-0.160	-0.084
-238.888	-54.345	-0.241	-0.109
-237.873	60.069	-0.200	0.198
-236.859	-200.000	0.105	0.470
-235.844	130.748	0.138	-0.176
-234.830	-122.959	-0.229	-0.037
-233.815	-17.233	0.190	-0.119
-232.800	-16.750	0.085	-0.054
-231.786	-133.815	0.198	0.025
-230.771	-54.864	0.124	-0.056
-229.757	-133.133	-0.140	0.018
-228.742	35.444	-0.101	0.088
-227.727	-200.000	0.020	-0.116
-226.713	376.488	0.071	-0.144
-225.698	800.000	-0.035	0.124
-224.684	-126.843	0.077	0.011
-223.669	437.738	0.187	0.406
-222.655	291.008	-0.032	-0.059
-221.640	128.108	-0.257	-0.327
-220.625	181.337	0.272	0.399
-219.611	-200.000	0.040	0.295
-218.596	214.597	0.055	-0.087
-217.582	-200.000	0.152	-0.000
-216.567	-90.242	0.184	0.053
-215.552	-93.409	-0.163	-0.045
-214.538	-200.000	0.057	0.301
-213.523	10.092	-0.251	-0.190
-212.509	800.000	0.026	-0.112
-211.494	-168.627	-0.325	0.012
-210.479	800.000	0.064	0.234
-209.465	-56.864	0.277	-0.122
-208.450	641.754	-0.081	-0.205
-207.436	118.739	-0.274	0.338
-206.421	-200.000	0.040	0.257
-205.406	800.000	0.137	0.381
-204.392	14.486	-0.146	-0.114
-203.377	216.302	-0.101	0.160
-202.363	800.000	0.096	0.273
-201.348	-8.124	0.203	0.136
-200.333	-200.000	0.015	-0.065
-199.319	-200.000	0.010	-0.186
-198.304	295.319	0.124	0.226
-197.290	800.000	-0.062	-0.184
-196.275	153.661	0.130	-0.177
-195.260	-72.893	0.157	0.058
-194.246	235.346	-0.135	0.222
-193.231	-118.675	0.100	-0.018
-192.217	-200.000	-0.023	0.144
-191.202	119.870	-0.021	0.026
-190.187	800.000	-0.082	-0.294
-189.173	-37.126	-0.136	0.072
-188.158	-182.642	-0.188	0.003
-187.144	760.657	-0.026	-0.070
-186.129	-200.000	0.015	0.110
-185.114	467.197	-0.069	0.155
-184.100	293.800	0.064	-0.117
-183.085	-126.290	-0.074	-0.011
-182.071	-200.000	0.012	-0.186
-181.056	-45.704	0.157	0.077
-180.042	-85.463	-0.294	-0.091
-179.027	-91.381	-0.206	-0.059
-178.012	622.935	0.075	-0.189
-176.998	-62.779	-0.059	0.024
-175.983	23.848	0.275	0.225
-174.969	174.946	0.154	-0.222
-173.954	-200.000	-0.006	-0.092
-172.939	-166.123	0.200	0.008
-171.925	-6.004	0.183	-0.124
-170.910	26.461	-0.153	0.128
-169.896	-200.000	-0.034	-0.161
-168.881	97.272	-0.329	0.375
-167.866	-140.785	-0.214	0.022
-166.852	-200.000	0.040	-0.413
-165.837	800.000	0.022	0.081
-164.823	-200.000	0.036	0.257
-163.808	248.899	-0.109	-0.184
-162.793	244.374	0.101	0.168
-161.779	-101.492	0.017	0.004
-160.764	800.000	-0.045	0.137
-159.750	79.541	-0.054	0.058
-158.735	-137.530	0.074	0.008
-157.720	-200.000	-0.002	0.070
-156.706	-200.000	0.018	-0.101
-155.691	98.787	0.208	-0.239
-154.677	-200.000	-0.001	0.140
-153.662	800.000	0.017	-0.053
-152.647	-15.386	0.055	-0.035
-151.633	218.443	0.044	-0.070
-150.618	800.000	-0.030	0.101
-149.604	800.000	0.078	-0.233
-148.589	87.635	0.413	0.455
-147.574	68.055	-0.245	0.249
-146.560	67.684	0.083	0.084
-145.545	-94.736	0.158	-0.043
-144.531	288.115	0.058	-0.104
-143.516	0.879	0.334	0.238
-142.502	170.852	0.224	0.319
-141.487	-200.000	0.004	0.188
-140.472	96.469	0.097	-0.110
-139.458	-200.000	-0.014	-0.292
-138.443	-164.678	0.215	0.010
-137.429	-154.846	0.341	0.022
-136.414	33.121	0.161	-0.139
-135.399	-200.000	-0.002	-0.160
-134.385	-59.291	0.199	0.085
-133.370	354.703	0.160	0.315
-132.356	-16.672	-0.099	0.062
-131.341	-200.000	-0.007	0.085
-130.326	340.065	0.104	0.203
-129.312	153.946	-0.120	-0.164
-128.297	-20.950	-0.065	-0.040
-127.283	-168.292	0.317	0.012
-126.268	-83.226	-0.511	-0.163
-125.253	-165.297	-0.180	-0.008
-124.239	-200.000	0.031	-0.257
-123.224	-49.590	-0.042	-0.020
-122.210	800.000	0.079	-0.287
