DTS Sentinel unit serial number:	SN413079Multiplexer serial number:	ORYXHardware model number:	OX4-SRSoftware version number:	ORYX F/W v4.00 Oryx Data Collector v3.7.2.0data status	okinstallation	princeton_trtdifferential loss correction	single-endedforward channel	channel 2reverse channel	N/Adate	2019/09/17time	20:31:34forward acquisition time	60.00reverse acquisition time	0.00gamma	496.2192k internal	0.2334k external	0.2334temperature offset calibration	0.9988default loss term (dB/km)	0.3790temperature slope calibration	1.0000multiplexer offset coefficient	1.0000multiplexer slope coefficient	1.0000fibre end	0.00T internal ref (°C)	30.55T ext. ref 1 (°C)	0.21T ext. ref 2 (°C)	21.23length (m)	temperature (°C)	Stokes	anti-Stokes-747.200	-74.585	-0.151	0.055
-746.185	10.197	0.190	0.145
-745.171	-5.674	-0.098	0.068
-744.156	-64.380	0.318	0.130
-743.142	474.748	0.012	-0.028
-742.127	509.889	-0.080	0.188
-741.112	-200.000	0.008	0.203
-740.098	800.000	-0.086	0.319
-739.083	-10.135	0.142	0.095
-738.069	-200.000	0.044	-0.294
-737.054	377.253	-0.086	-0.177
-736.039	501.779	0.110	0.256
-735.025	307.409	0.109	0.204
-734.010	342.313	-0.127	-0.250
-732.996	-164.466	-0.242	-0.011
-731.981	-52.387	-0.228	-0.106
-730.966	-46.659	-0.129	-0.064
-729.952	69.386	-0.142	0.147
-728.937	-124.084	-0.494	-0.078
-727.923	87.925	0.148	-0.165
-726.908	105.100	0.191	0.226
-725.894	-200.000	-0.027	-0.189
-724.879	-106.722	-0.315	-0.070
-723.864	-200.000	-0.012	-0.161
-722.850	800.000	-0.049	-0.203
-721.835	-61.223	0.175	0.074
-720.821	-104.919	0.137	-0.032
-719.806	111.741	0.148	0.180
-718.791	505.626	-0.033	-0.077
-717.777	639.393	0.069	-0.177
-716.762	-200.000	0.037	0.208
-715.748	78.220	-0.231	0.247
-714.733	-200.000	0.004	-0.227
-713.718	-96.909	0.309	0.081
-712.704	-200.000	0.009	-0.239
-711.689	-62.579	-0.462	-0.192
-710.675	-90.336	-0.355	0.104
-709.660	-64.830	0.168	-0.068
-708.645	-42.432	-0.243	0.124
-707.631	-200.000	-0.011	0.161
-706.616	33.711	-0.267	-0.233
-705.602	-87.772	0.078	0.024
-704.587	139.655	-0.176	-0.233
-703.572	-100.450	-0.266	-0.066
-702.558	54.335	-0.081	0.079
-701.543	334.681	0.067	0.129
-700.529	397.957	0.055	-0.115
-699.514	-200.000	-0.032	-0.428
-698.499	7.604	0.129	0.097
-697.485	-191.069	0.072	0.001
-696.470	-140.601	-0.163	-0.017
-695.456	49.085	0.253	-0.238
-694.441	800.000	0.060	0.246
-693.426	-31.365	0.352	0.199
-692.412	-48.390	0.202	-0.098
-691.397	606.817	0.084	-0.211
-690.383	20.684	-0.186	-0.151
-689.368	-200.000	-0.017	0.162
-688.354	-90.340	-0.370	0.108
-687.339	88.526	0.285	0.318
-686.324	-86.467	0.078	0.024
-685.310	14.291	-0.164	0.128
-684.295	42.348	-0.203	-0.185
-683.281	-21.723	-0.344	0.210
-682.266	-129.570	0.128	-0.018
-681.251	-154.046	0.281	-0.019
-680.237	168.647	-0.018	0.025
-679.222	10.869	-0.092	-0.071
-678.208	-146.493	0.208	0.018
-677.193	11.980	-0.181	0.140
-676.178	-36.320	0.065	-0.035
-675.164	-36.246	-0.238	0.128
-674.149	469.371	0.141	-0.317
-673.135	782.308	-0.150	-0.413
-672.120	-82.781	-0.334	-0.108
-671.105	203.407	0.157	0.244
-670.091	30.995	0.071	0.061
-669.076	800.000	0.143	0.421
-668.062	-24.831	-0.117	0.070
-667.047	-141.087	-0.101	0.010
-666.032	-200.000	0.028	-0.356
-665.018	22.100	-0.232	-0.189
-664.003	-133.813	-0.051	-0.006
-662.989	24.718	0.261	0.216
-661.974	-200.000	-0.011	0.124
-660.959	-143.582	-0.583	-0.056
-659.945	37.645	0.196	-0.174
-658.930	-200.000	-0.005	0.132
-657.916	-102.867	-0.338	-0.080
-656.901	800.000	-0.090	-0.258
-655.886	-35.524	-0.180	-0.098
-654.872	-160.150	0.147	-0.008
-653.857	800.000	0.050	0.196
-652.843	98.764	0.032	-0.037
-651.828	106.967	0.126	0.150
-650.814	800.000	0.099	0.333
-649.799	107.404	0.110	0.132
-648.784	-122.099	-0.278	0.046
-647.770	-88.763	-0.326	0.097
-646.755	-31.251	-0.158	-0.089
-645.741	-200.000	0.068	-0.422
-644.726	800.000	-0.056	-0.158
-643.711	-200.000	0.026	0.195
-642.697	333.666	0.139	-0.268
-641.682	-61.367	-0.122	0.051
-640.668	128.282	-0.251	-0.319
-639.653	-55.053	-0.123	-0.055
-638.638	69.309	-0.475	0.489
-637.624	-98.849	-0.155	-0.039
-636.609	-200.000	0.058	-0.277
-635.595	-200.000	0.007	-0.049
-634.580	-83.480	0.380	0.122
-633.565	-43.581	0.041	0.021
-632.551	-200.000	0.038	0.244
-631.536	116.591	0.109	0.134
-630.522	158.364	0.167	-0.232
-629.507	-200.000	-0.014	0.106
-628.492	113.899	0.033	-0.040
-627.478	-200.000	-0.019	0.196
-626.463	-57.970	-0.222	-0.097
-625.449	-27.546	-0.371	0.216
-624.434	242.963	-0.098	-0.164
-623.419	323.668	-0.038	-0.072
-622.405	800.000	0.097	-0.286
-621.390	475.276	0.054	0.121
-620.376	-66.900	0.359	-0.142
-619.361	94.542	-0.229	0.260
-618.346	-127.501	0.252	0.037
-617.332	-82.256	-0.187	-0.061
-616.317	-134.533	-0.421	-0.051
-615.303	348.854	0.179	-0.353
-614.288	220.359	0.094	-0.151
-613.273	3.901	0.188	0.137
-612.259	-195.731	-0.410	-0.003
-611.244	-120.080	0.235	-0.040
-610.230	46.335	0.240	-0.222
-609.215	-137.908	-0.443	-0.049
-608.201	-200.000	0.029	-0.403
-607.186	40.293	-0.171	-0.154
-606.171	-200.000	-0.023	-0.195
-605.157	365.936	-0.177	-0.357
-604.142	202.724	-0.098	0.152
-603.128	66.610	-0.230	-0.234
-602.113	-135.663	0.169	0.020
-601.098	-200.000	-0.025	-0.164
-600.084	-164.682	0.190	-0.009
-599.069	129.059	0.076	0.096
-598.055	-4.481	-0.037	0.025
-597.040	84.459	-0.106	0.116
-596.025	31.206	0.115	-0.098
-595.011	65.054	0.198	-0.200
-593.996	403.776	-0.018	-0.038
-592.982	-6.317	0.112	0.076
-591.967	-200.000	-0.022	0.133
-590.952	-42.242	-0.034	0.017
-589.938	359.759	-0.241	-0.482
-588.923	63.105	0.073	0.073
-587.909	287.346	-0.112	0.202
-586.894	146.831	-0.089	-0.120
-585.879	-144.886	-0.259	-0.024
-584.865	322.337	-0.079	0.151
-583.850	-21.566	-0.250	-0.152
-582.836	-200.000	-0.003	0.233
-581.821	122.051	0.256	0.319
-580.806	-138.521	0.087	-0.010
-579.792	-200.000	0.009	-0.201
-578.777	34.924	0.147	0.128
-577.763	2.744	-0.247	0.179
-576.748	378.062	0.054	0.110
-575.733	135.000	0.111	-0.144
-574.719	117.915	0.211	-0.260
-573.704	172.345	0.084	0.121
-572.690	186.540	-0.130	0.193
-571.675	-200.000	-0.033	0.257
-570.661	508.626	-0.106	-0.245
-569.646	-45.022	0.218	-0.108
-568.631	-70.095	-0.440	0.167
-567.617	800.000	-0.043	-0.160
-566.602	43.438	0.072	-0.065
-565.588	43.377	0.162	-0.148
-564.573	-100.350	-0.367	0.091
-563.558	800.000	0.025	-0.084
-562.544	-30.894	-0.190	0.107
-561.529	177.718	-0.251	0.366
-560.515	-92.587	0.292	-0.082
-559.500	402.344	-0.016	-0.034
-558.485	-128.125	0.167	-0.024
-557.471	800.000	-0.044	-0.178
-556.456	736.755	-0.123	-0.329
-555.442	-96.936	-0.035	-0.009
-554.427	-50.612	0.208	-0.098
-553.412	69.870	0.179	0.185
-552.398	-20.760	0.416	-0.254
-551.383	-88.905	-0.233	0.069
-550.369	148.878	-0.231	0.312
-549.354	800.000	0.035	-0.116
-548.339	-46.352	-0.084	0.041
-547.325	-200.000	0.021	0.210
-546.310	8.933	-0.117	-0.088
-545.296	31.299	-0.269	0.230
-544.281	16.717	0.098	-0.077
-543.266	533.130	-0.107	0.253
-542.252	225.139	-0.073	0.118
-541.237	119.442	-0.206	-0.254
-540.223	-200.000	0.057	0.273
-539.208	553.896	0.093	0.224
-538.193	-139.419	-0.049	0.005
-537.179	-200.000	-0.020	-0.119
-536.164	-109.181	0.125	0.026
-535.150	-123.320	0.171	0.027
-534.135	800.000	0.065	-0.200
-533.121	-200.000	-0.003	0.168
-532.106	-72.010	-0.234	-0.087
-531.091	383.078	0.099	-0.202
-530.077	138.267	-0.102	-0.134
-529.062	415.464	0.222	-0.473
-528.048	328.895	-0.226	-0.432
-527.033	800.000	0.016	-0.054
-526.018	-30.276	-0.226	-0.128
-525.004	-45.475	0.280	-0.138
-523.989	8.013	0.127	0.095
-522.975	-28.602	0.142	-0.082
-521.960	-119.413	0.185	0.032
-520.945	-200.000	-0.019	0.086
-519.931	800.000	-0.029	-0.091
-518.916	-96.462	-0.136	0.036
-517.902	800.000	0.028	0.101
-516.887	-176.871	-0.058	-0.001
-515.872	676.591	-0.008	-0.021
-514.858	-132.002	-0.222	0.029
-513.843	745.246	-0.113	0.302
-512.829	-101.457	0.151	-0.037
-511.814	285.538	-0.052	-0.094
-510.799	-200.000	0.030	0.202
-509.785	-200.000	0.028	-0.273
-508.770	-183.254	0.085	0.001
-507.756	157.253	-0.026	0.036
-506.741	-200.000	0.001	0.284
-505.726	473.928	0.089	0.200
-504.712	-200.000	-0.037	-0.297
-503.697	-200.000	0.006	-0.271
-502.683	-200.000	0.065	0.310
-501.668	-200.000	-0.008	0.102
-500.653	-4.952	-0.333	-0.228
-499.639	-36.457	0.233	-0.125
-498.624	-92.424	-0.179	0.050
-497.610	-200.000	-0.008	0.058
-496.595	233.283	0.131	0.214
-495.581	34.297	0.144	0.125
-494.566	-101.047	0.090	-0.022
-493.551	392.393	-0.122	-0.252
-492.537	-40.935	0.155	-0.080
-491.522	-146.151	0.254	0.022
-490.508	8.110	0.038	-0.028
-489.493	-117.974	0.390	-0.069
-488.478	-171.676	-0.144	-0.005
-487.464	-128.250	-0.247	0.035
-486.449	218.128	0.084	0.133
-485.435	-49.890	0.265	0.125
-484.420	121.616	-0.187	0.231
-483.405	533.443	0.112	0.264
-482.391	758.604	0.183	-0.494
-481.376	-165.958	0.225	-0.010
-480.362	134.223	-0.012	0.015
-479.347	-200.000	0.045	0.302
-478.332	268.109	0.129	0.225
-477.318	-12.083	0.155	0.101
-476.303	-200.000	-0.027	0.138
-475.289	-119.706	0.099	0.017
-474.274	85.147	-0.084	-0.091
-473.259	-122.843	-0.305	-0.049
-472.245	-115.196	0.070	-0.013
-471.230	-200.000	-0.027	0.136
-470.216	19.895	-0.210	-0.168
-469.201	800.000	-0.042	-0.122
-468.186	-200.000	-0.050	-0.424
-467.172	-200.000	0.027	-0.254
-466.157	-200.000	0.019	-0.299
-465.143	64.873	0.013	0.013
-464.128	100.974	0.121	0.140
-463.113	617.079	0.059	0.148
-462.099	-25.576	0.042	0.024
-461.084	800.000	-0.046	-0.129
-460.070	-125.262	0.307	-0.047
-459.055	-111.152	-0.083	0.017
-458.040	-4.023	-0.084	0.058
-457.026	317.478	0.131	-0.246
-456.011	-128.163	-0.361	-0.051
-454.997	-59.741	0.246	-0.105
-453.982	-200.000	-0.025	-0.342
-452.968	-115.853	0.180	-0.033
-451.953	-158.278	0.284	-0.016
-450.938	24.749	-0.146	-0.120
-449.924	136.572	-0.095	-0.123
-448.909	-200.000	0.004	-0.143
-447.895	146.563	0.260	0.347
-446.880	-60.875	0.086	0.036
-445.865	130.591	0.046	-0.059
-444.851	-25.414	-0.211	-0.124
-443.836	42.949	-0.246	0.223
-442.822	171.641	-0.008	0.012
-441.807	800.000	0.079	-0.342
-440.792	-177.783	-0.109	-0.003
-439.778	-104.366	-0.082	-0.019
-438.763	108.957	0.158	0.187
-437.749	-98.730	0.331	-0.084
-436.734	-102.557	-0.363	-0.086
-435.719	-167.095	-0.106	-0.004
-434.705	-47.035	-0.037	-0.018
-433.690	-200.000	-0.051	0.226
-432.676	25.907	-0.292	-0.242
-431.661	-22.019	-0.111	-0.067
-430.646	-200.000	-0.006	0.044
-429.632	-200.000	-0.020	0.174
-428.617	-42.129	0.218	0.111
-427.603	-88.855	0.340	0.100
-426.588	-200.000	-0.065	-0.314
-425.573	0.226	-0.103	-0.073
-424.559	120.040	0.125	-0.154
-423.544	-102.537	0.204	0.048
-422.530	-12.724	0.073	0.047
-421.515	-27.312	-0.137	0.079
-420.500	-200.000	0.309	-0.001
-419.486	-79.105	0.339	-0.114
-418.471	-177.402	-0.217	-0.005
-417.457	-200.000	-0.054	-0.447
-416.442	-138.316	0.153	0.017
-415.428	261.447	0.127	-0.218
-414.413	-200.000	0.013	-0.221
-413.398	-139.922	-0.274	0.029
-412.384	800.000	0.075	-0.253
-411.369	-178.485	-0.207	0.005
-410.355	17.301	-0.056	0.044
-409.340	110.942	0.087	0.104
-408.325	53.813	0.253	-0.241
-407.311	-29.208	0.263	0.150
-406.296	13.822	0.256	-0.197
-405.282	114.140	0.162	0.195
-404.267	800.000	-0.035	0.141
-403.252	101.475	0.125	0.144
-402.238	113.421	0.188	0.226
-401.223	-164.483	-0.289	-0.013
-400.209	147.862	-0.060	0.080
-399.194	22.536	-0.248	0.201
-398.179	-200.000	0.025	-0.205
-397.165	-67.292	0.201	-0.078
-396.150	-132.547	0.161	0.021
-395.136	281.394	0.050	0.090
-394.121	-1.751	0.243	-0.170
-393.106	186.280	0.135	0.199
-392.092	-32.890	0.231	0.127
-391.077	-6.850	-0.119	-0.081
-390.063	-127.778	0.339	-0.048
-389.048	-200.000	-0.044	0.327
-388.033	-81.898	-0.136	0.044
-387.019	-81.397	0.235	-0.077
-386.004	193.289	-0.117	0.175
-384.990	-74.822	-0.212	-0.075
-383.975	-101.118	0.129	-0.031
-382.960	9.830	0.172	0.129
-381.946	316.947	0.038	0.071
-380.931	-22.663	0.230	-0.138
-379.917	248.117	0.048	0.081
-378.902	-8.419	-0.111	0.074
-377.888	-200.000	0.006	0.326
-376.873	-151.814	-0.129	0.009
-375.858	-17.504	-0.174	-0.108
-374.844	-106.958	0.271	0.059
-373.829	-200.000	-0.009	0.044
-372.815	-200.000	0.008	0.057
-371.800	488.109	0.039	0.088
-370.785	-200.000	0.054	-0.283
-369.771	42.832	-0.127	0.115
-368.756	-110.228	-0.333	0.069
-367.742	800.000	-0.089	-0.337
-366.727	227.521	-0.033	-0.054
-365.712	800.000	0.062	-0.198
-364.698	-200.000	0.040	0.221
-363.683	-107.841	0.309	0.067
-362.669	141.008	0.098	0.128
-361.654	117.668	0.181	-0.220
-360.639	-184.012	-0.242	0.004
-359.625	103.205	0.146	0.170
-358.610	97.546	-0.129	0.147
-357.596	527.053	0.052	0.122
-356.581	180.815	0.120	0.174
-355.566	77.734	-0.094	-0.100
-354.552	-69.114	0.314	-0.120
-353.537	-200.000	-0.028	-0.133
-352.523	202.781	0.068	0.104
-351.508	-36.085	-0.118	-0.063
-350.493	800.000	-0.033	-0.098
-349.479	521.599	0.142	0.329
-348.464	-200.000	-0.015	0.352
-347.450	-200.000	0.035	-0.293
-346.435	-60.232	-0.008	0.003
-345.420	-57.261	0.108	-0.047
-344.406	70.022	-0.157	-0.160
-343.391	-26.693	-0.170	0.098
-342.377	-200.000	-0.008	-0.100
-341.362	-110.304	-0.095	0.020
-340.348	-200.000	-0.001	0.058
-339.333	-200.000	0.023	0.322
-338.318	-87.002	0.385	-0.116
-337.304	-79.883	0.194	-0.064
-336.289	800.000	-0.034	-0.137
-335.275	800.000	-0.023	0.089
-334.260	127.972	-0.082	-0.103
-333.245	-10.975	-0.093	0.060
-332.231	2.087	0.269	0.192
-331.216	374.530	0.112	-0.225
-330.202	-100.578	0.236	0.058
-329.187	-118.270	-0.297	0.052
-328.172	62.952	-0.026	-0.026
-327.158	-99.778	-0.069	0.017
-326.143	92.770	-0.246	-0.275
-325.129	158.542	-0.146	0.200
-324.114	800.000	-0.033	0.102
-323.099	800.000	-0.065	0.260
-322.085	80.041	-0.118	-0.126
-321.070	3.367	-0.271	-0.195
-320.056	-38.737	-0.398	0.207
-319.041	646.254	-0.065	-0.164
-318.026	-200.000	0.037	-0.201
-317.012	-113.857	0.145	0.028
-315.997	2.533	-0.066	0.047
-314.983	-59.481	0.299	-0.127
-313.968	-85.969	-0.087	-0.027
-312.953	-200.000	0.027	-0.228
-311.939	454.389	-0.034	0.075
-310.924	92.242	-0.292	0.325
-309.910	-200.000	-0.008	0.164
-308.895	-200.000	-0.003	0.449
-307.880	362.672	0.149	0.296
-306.866	593.792	-0.073	0.179
-305.851	76.055	-0.089	-0.093
-304.837	-200.000	0.052	0.276
-303.822	-23.619	0.254	-0.150
-302.807	180.099	0.152	-0.220
-301.793	800.000	0.049	-0.197
-300.778	274.763	0.101	0.177
-299.764	-123.506	-0.227	-0.036
-298.749	561.448	-0.090	0.215
-297.735	222.889	-0.100	-0.160
-296.720	-107.045	-0.352	0.077
-295.705	38.868	-0.085	0.075
-294.691	376.043	-0.025	0.050
-293.676	382.616	-0.087	0.176
-292.662	91.369	-0.186	-0.206
-291.647	-200.000	0.018	-0.162
-290.632	-32.804	0.086	0.047
-289.618	-200.000	-0.019	0.374
-288.603	-53.538	-0.206	0.093
-287.589	-81.689	-0.205	-0.066
-286.574	-200.000	0.058	0.362
-285.559	380.197	0.109	0.221
-284.545	27.274	0.230	-0.191
-283.530	-105.260	0.251	-0.056
-282.516	-87.971	-0.283	-0.084
-281.501	-33.751	-0.249	-0.135
-280.486	350.835	-0.086	0.167
-279.472	508.353	0.064	-0.147
-278.457	-200.000	-0.012	-0.125
-277.443	426.671	0.045	-0.095
-276.428	-200.000	-0.035	-0.192
-275.413	-10.004	-0.218	0.143
-274.399	-19.511	0.325	0.199
-273.384	-16.313	0.166	-0.104
-272.370	-27.258	0.062	0.036
-271.355	-200.000	-0.029	-0.173
-270.340	35.578	-0.103	0.089
-269.326	-57.451	0.063	0.027
-268.311	-46.936	-0.170	0.082
-267.297	-42.328	0.012	-0.006
-266.282	-200.000	-0.020	0.280
-265.267	-17.003	-0.151	0.094
-264.253	235.149	0.134	-0.218
-263.238	-200.000	0.023	-0.208
-262.224	266.297	-0.165	-0.285
-261.209	-46.856	-0.287	0.138
-260.195	773.257	0.106	0.286
-259.180	-111.742	-0.349	0.070
-258.165	-127.401	0.142	0.020
-257.151	-57.083	0.142	0.062
-256.136	-85.686	-0.074	0.023
-255.122	-200.000	0.047	0.305
-254.107	-94.296	0.130	0.035
-253.092	-39.319	0.143	-0.074
-252.078	345.640	0.160	0.310
-251.063	371.754	0.073	0.145
-250.049	350.088	0.134	0.261
-249.034	800.000	0.181	-0.594
-248.019	-28.019	-0.405	0.231
-247.005	367.614	0.186	0.370
-245.990	386.665	0.064	-0.131
-244.976	-200.000	0.009	0.252
-243.961	-22.354	-0.445	0.266
-242.946	-47.028	0.409	0.197
-241.932	58.282	-0.182	0.176
-240.917	69.698	0.188	-0.191
-239.903	-200.000	-0.005	-0.181
-238.888	-69.221	-0.229	0.087
-237.873	-9.635	-0.144	-0.095
-236.859	129.922	0.090	-0.113
-235.844	-200.000	-0.006	-0.073
-234.830	-200.000	-0.019	0.171
-233.815	94.956	0.317	0.356
-232.800	492.073	0.130	0.293
-231.786	-66.604	0.053	-0.021
-230.771	800.000	-0.008	-0.029
-229.757	-23.673	-0.128	0.076
-228.742	-200.000	0.002	-0.236
-227.727	800.000	-0.069	-0.222
-226.713	12.980	0.135	-0.103
-225.698	407.986	0.064	-0.133
-224.684	48.436	0.155	-0.143
-223.669	800.000	0.067	0.213
-222.655	1.471	-0.085	0.060
-221.640	-12.210	0.164	-0.105
-220.625	-23.892	0.308	-0.181
-219.611	800.000	-0.032	0.124
-218.596	50.465	-0.103	-0.096
-217.582	-200.000	-0.000	-0.063
-216.567	-138.424	-0.112	0.012
-215.552	7.904	-0.242	0.179
-214.538	80.126	-0.094	0.100
-213.523	800.000	0.045	0.151
-212.509	21.800	-0.027	-0.021
-211.494	-200.000	-0.517	-0.001
-210.479	800.000	0.077	0.293
-209.465	-83.774	-0.312	0.098
-208.450	-1.493	-0.403	-0.280
-207.436	800.000	0.052	-0.165
-206.421	-75.540	-0.075	0.026
-205.406	-67.310	-0.135	0.052
-204.392	-103.459	-0.288	0.067
-203.377	7.929	-0.228	-0.168
-202.363	800.000	0.133	0.443
-201.348	486.293	-0.042	-0.094
-200.333	69.503	0.213	0.216
-199.319	-102.958	0.357	0.083
-198.304	-84.291	0.195	0.061
-197.290	121.806	0.155	0.190
-196.275	116.767	0.146	0.176
-195.260	105.746	0.109	-0.126
-194.246	800.000	-0.060	0.165
-193.231	-58.323	-0.067	0.029
-192.217	737.607	-0.039	0.102
-191.202	800.000	-0.046	-0.151
-190.187	374.381	0.022	-0.044
-189.173	-51.266	0.493	0.227
-188.158	-113.473	-0.218	-0.042
-187.144	-47.629	-0.257	-0.122
-186.129	293.220	0.045	0.081
-185.114	-200.000	0.094	-0.506
-184.100	-42.755	0.161	0.081
-183.085	-86.327	0.101	-0.031
-182.071	-200.000	0.016	-0.174
-181.056	-30.405	-0.342	-0.191
-180.042	-89.692	-0.178	-0.051
-179.027	800.000	0.030	-0.105
-178.012	253.481	-0.231	-0.387
-176.998	467.407	0.167	0.368
-175.983	80.824	-0.067	-0.071
-174.969	24.025	0.049	-0.040
-173.954	800.000	0.030	0.082
-172.939	62.683	0.175	-0.172
-171.925	-59.987	-0.118	-0.050
-170.910	32.018	0.144	-0.122
-169.896	-200.000	-0.016	0.346
-168.881	-200.000	0.015	-0.174
-167.866	32.228	0.114	0.097
-166.852	-126.247	-0.301	-0.044
-165.837	75.008	0.324	0.336
-164.823	7.401	0.079	-0.058
-163.808	-73.193	-0.170	0.061
-162.793	-200.000	-0.005	-0.246
-161.779	-2.556	-0.152	-0.105
-160.764	-77.527	0.373	-0.127
-159.750	-25.012	0.031	-0.018
-158.735	118.255	0.208	0.252
-157.720	103.652	0.203	0.234
-156.706	6.165	-0.076	0.055
-155.691	-200.000	-0.038	-0.206
-154.677	-23.208	0.026	-0.016
-153.662	386.007	-0.097	0.197
-152.647	-32.996	-0.079	0.043
-151.633	229.056	-0.109	-0.175
-150.618	-60.334	0.041	0.017
-149.604	-200.000	-0.041	0.229
-148.589	-152.562	-0.267	-0.019
-147.574	144.630	0.081	-0.106
-146.560	800.000	-0.059	0.225
-145.545	-200.000	-0.021	0.277
-144.531	-42.206	0.181	-0.091
-143.516	-200.000	0.036	-0.175
-142.502	120.422	-0.042	0.052
-141.487	800.000	0.076	0.238
-140.472	-9.466	-0.059	-0.039
-139.458	800.000	0.133	-0.407
-138.443	456.575	0.001	0.002
-137.429	-93.942	0.202	-0.054
-136.414	161.477	0.173	-0.238
-135.399	122.922	0.046	-0.056
-134.385	-110.470	0.266	-0.054
-133.370	86.976	0.150	-0.162
-132.356	123.815	-0.121	0.148
-131.341	-124.476	0.187	0.029
-130.326	132.139	-0.118	-0.150
-129.312	572.709	-0.054	0.129
-128.297	53.220	-0.173	-0.163
-127.283	-73.271	0.165	0.059
-126.268	-200.000	-0.088	-0.438
-125.253	63.374	0.232	-0.228
-124.239	87.259	-0.123	0.134
-123.224	34.910	-0.218	0.187
-122.210	-200.000	0.004	-0.128
-121.195	99.823	0.090	-0.102
