DTS Sentinel unit serial number:	SN413079Multiplexer serial number:	ORYXHardware model number:	OX4-SRSoftware version number:	ORYX F/W v4.00 Oryx Data Collector v3.7.2.0data status	okinstallation	princeton_trtdifferential loss correction	single-endedforward channel	channel 2reverse channel	N/Adate	2019/09/12time	13:13:11forward acquisition time	60.00reverse acquisition time	0.00gamma	496.2192k internal	0.2297k external	0.2297temperature offset calibration	1.0076default loss term (dB/km)	0.3790temperature slope calibration	1.0000multiplexer offset coefficient	1.0000multiplexer slope coefficient	1.0000fibre end	0.00T internal ref (°C)	41.03T ext. ref 1 (°C)	2.08T ext. ref 2 (°C)	35.34length (m)	temperature (°C)	Stokes	anti-Stokes-747.200	800.000	-0.030	-0.124
-746.185	800.000	0.033	0.133
-745.171	-45.969	0.165	0.083
-744.156	75.183	-0.254	0.274
-743.142	98.277	-0.123	0.144
-742.127	800.000	-0.010	-0.041
-741.112	44.159	-0.189	0.177
-740.098	-138.246	-0.140	0.016
-739.083	27.518	0.090	0.078
-738.069	106.483	0.051	0.062
-737.054	42.086	-0.249	0.231
-736.039	185.167	0.085	-0.129
-735.025	480.901	0.128	-0.296
-734.010	-37.008	-0.361	-0.198
-732.996	82.106	-0.193	0.214
-731.981	362.277	0.132	-0.270
-730.966	-13.718	0.337	0.222
-729.952	76.721	-0.087	-0.094
-728.937	48.160	-0.225	0.214
-727.923	-116.963	0.216	-0.040
-726.908	26.079	-0.151	0.128
-725.894	468.939	-0.131	-0.301
-724.879	-200.000	-0.001	-0.140
-723.864	800.000	0.117	-0.401
-722.850	56.527	0.222	0.220
-721.835	-128.633	0.174	0.025
-720.821	11.206	-0.244	-0.190
-719.806	-200.000	0.007	-0.079
-718.791	383.059	0.179	0.375
-717.777	800.000	0.073	-0.268
-716.762	-83.612	-0.252	-0.082
-715.748	362.284	-0.121	-0.247
-714.733	80.633	0.091	-0.100
-713.718	-135.924	0.209	-0.025
-712.704	396.997	-0.138	-0.294
-711.689	-52.976	-0.029	0.014
-710.675	-200.000	0.037	0.183
-709.660	418.173	0.091	-0.199
-708.645	800.000	-0.097	-0.274
-707.631	-151.734	-0.242	-0.018
-706.616	-44.621	0.166	0.085
-705.602	-114.077	-0.283	-0.056
-704.587	64.632	-0.199	0.205
-703.572	-200.000	-0.007	0.078
-702.558	-63.598	0.303	0.127
-701.543	-200.000	-0.007	-0.068
-700.529	-200.000	-0.060	0.308
-699.514	-94.580	0.172	-0.048
-698.499	80.886	0.253	0.279
-697.485	73.009	-0.056	0.060
-696.470	-0.385	-0.166	-0.120
-695.456	-47.534	-0.140	0.069
-694.441	150.662	-0.093	0.128
-693.426	315.445	0.096	0.185
-692.412	-159.311	-0.058	-0.003
-691.397	-200.000	0.008	0.113
-690.383	-16.555	0.315	-0.203
-689.368	83.176	0.073	-0.081
-688.354	-133.640	0.442	-0.056
-687.339	-34.494	0.183	-0.102
-686.324	-78.725	0.170	0.059
-685.310	193.817	0.090	0.138
-684.295	122.301	-0.190	0.242
-683.281	800.000	-0.084	-0.296
-682.266	549.921	-0.096	-0.234
-681.251	-22.646	-0.063	0.039
-680.237	-130.747	-0.364	0.050
-679.222	-200.000	-0.036	0.243
-678.208	-127.027	0.095	0.014
-677.193	-155.590	-0.284	-0.019
-676.178	-200.000	-0.065	-0.319
-675.164	800.000	0.026	0.109
-674.149	-200.000	-0.021	-0.376
-673.135	-6.047	0.180	-0.126
-672.120	386.346	0.141	0.297
-671.105	-8.618	0.102	-0.069
-670.091	168.513	-0.123	-0.179
-669.076	-154.077	-0.060	0.004
-668.062	800.000	-0.093	0.335
-667.047	-175.765	0.217	0.006
-666.032	58.469	-0.310	0.310
-665.018	-63.692	0.254	0.106
-664.003	39.154	0.075	0.068
-662.989	290.987	-0.112	0.207
-661.974	800.000	-0.073	0.293
-660.959	-115.873	0.300	0.057
-659.945	65.203	-0.204	0.210
-658.930	-117.438	0.286	0.053
-657.916	-43.627	0.074	0.038
-656.901	171.544	0.180	-0.264
-655.886	25.107	0.205	-0.173
-654.872	-31.131	-0.202	0.116
-653.857	800.000	0.076	-0.333
-652.843	474.734	0.086	-0.197
-651.828	273.581	-0.157	0.283
-650.814	-108.178	-0.347	0.076
-649.799	-112.976	-0.211	-0.043
-648.784	-104.351	-0.174	0.041
-647.770	800.000	-0.028	-0.103
-646.755	-200.000	-0.029	0.296
-645.741	-63.667	0.264	-0.110
-644.726	52.118	-0.103	-0.100
-643.711	800.000	-0.049	-0.195
-642.697	-200.000	-0.023	-0.147
-641.682	117.211	-0.057	0.071
-640.668	-28.603	-0.361	0.212
-639.653	-144.071	0.077	-0.007
-638.638	21.719	-0.309	-0.256
-637.624	-70.012	-0.280	-0.108
-636.609	800.000	-0.030	0.128
-635.595	800.000	-0.111	-0.328
-634.580	209.091	0.168	-0.267
-633.565	800.000	0.012	0.048
-632.551	-53.899	-0.207	-0.096
-631.536	-88.885	0.236	-0.071
-630.522	-166.907	-0.071	0.003
-629.507	800.000	-0.133	-0.435
-628.492	305.287	-0.066	0.124
-627.478	172.879	0.033	0.048
-626.463	-173.112	-0.389	0.012
-625.449	-200.000	-0.026	0.118
-624.434	800.000	-0.094	-0.327
-623.419	-14.401	0.056	-0.037
-622.405	164.897	0.060	0.087
-621.390	6.118	-0.335	0.252
-620.376	-200.000	-0.012	0.054
-619.361	-200.000	0.284	-0.001
-618.346	-106.911	-0.349	0.078
-617.332	174.776	0.144	-0.212
-616.317	-38.015	0.241	-0.130
-615.303	-19.860	-0.466	0.292
-614.288	171.252	-0.217	-0.316
-613.273	-44.063	0.217	-0.110
-612.259	-200.000	0.051	-0.255
-611.244	-101.667	0.228	0.056
-610.230	-20.155	-0.097	-0.061
-609.215	-170.064	0.317	-0.011
-608.201	14.646	0.189	0.150
-607.186	242.076	-0.071	0.121
-606.171	-67.049	-0.421	-0.169
-605.157	35.958	-0.121	-0.108
-604.142	-163.929	-0.353	0.017
-603.128	-56.248	-0.250	0.113
-602.113	800.000	0.149	0.510
-601.098	-89.417	0.266	0.080
-600.084	2.579	-0.196	-0.144
-599.069	-37.492	-0.394	0.214
-598.055	136.282	0.136	0.180
-597.040	32.006	-0.193	0.169
-596.025	8.875	0.129	-0.099
-595.011	305.899	-0.132	-0.249
-593.996	133.726	-0.147	0.193
-592.982	-85.437	-0.189	-0.060
-591.967	800.000	-0.032	-0.141
-590.952	-14.532	0.198	0.129
-589.938	800.000	0.088	-0.289
-588.923	-200.000	-0.018	-0.364
-587.909	-200.000	-0.000	0.154
-586.894	-70.635	-0.160	0.061
-585.879	-200.000	0.072	-0.349
-584.865	-137.820	-0.137	0.016
-583.850	-84.487	-0.384	0.123
-582.836	439.186	0.077	-0.170
-581.821	-76.688	0.255	-0.091
-580.806	113.287	0.165	-0.203
-579.792	124.385	0.046	0.058
-578.777	85.881	-0.189	-0.211
-577.763	800.000	-0.074	-0.272
-576.748	-62.421	-0.052	0.022
-575.733	-200.000	0.038	0.278
-574.719	65.315	-0.187	-0.192
-573.704	284.779	0.005	0.009
-572.690	-200.000	-0.061	-0.310
-571.675	-54.793	-0.416	-0.190
-570.661	69.124	-0.194	0.202
-569.646	-45.757	-0.053	0.027
-568.631	-2.985	0.269	0.190
-567.617	205.688	-0.138	0.217
-566.602	9.945	0.283	-0.218
-565.588	-153.880	-0.056	0.004
-564.573	17.556	-0.116	0.093
-563.558	51.749	0.164	-0.158
-562.544	800.000	-0.035	-0.145
-561.529	7.434	0.032	0.024
-560.515	-129.935	0.035	-0.005
-559.500	666.429	-0.022	-0.058
-558.485	-200.000	-0.041	-0.376
-557.471	73.750	-0.092	0.098
-556.456	-70.148	-0.133	-0.051
-555.442	-90.072	-0.083	-0.024
-554.427	-98.187	0.194	-0.051
-553.412	-200.000	-0.011	0.127
-552.398	8.710	0.005	-0.004
-551.383	90.724	0.089	0.101
-550.369	64.906	-0.052	0.053
-549.354	800.000	-0.033	-0.107
-548.339	53.308	0.218	-0.211
-547.325	-9.395	-0.233	-0.157
-546.310	800.000	-0.068	0.256
-545.296	-200.000	0.033	0.209
-544.281	5.654	-0.215	-0.161
-543.266	114.709	0.154	-0.190
-542.252	496.790	-0.052	0.121
-541.237	-166.251	0.373	-0.016
-540.223	-200.000	0.001	0.175
-539.208	-130.204	0.114	-0.016
-538.193	-200.000	-0.014	0.185
-537.179	212.339	0.076	-0.121
-536.164	-124.259	0.100	0.016
-535.150	800.000	0.045	0.182
-534.135	-32.469	-0.242	0.137
-533.121	-136.733	0.023	0.003
-532.106	-200.000	-0.040	0.272
-531.091	800.000	0.091	-0.320
-530.077	-156.471	0.116	0.007
-529.062	6.435	0.281	0.212
-528.048	227.970	0.076	-0.125
-527.033	-69.306	-0.212	0.082
-526.018	61.100	-0.114	0.114
-525.004	149.714	-0.164	-0.226
-523.989	-26.157	-0.176	0.105
-522.975	-18.739	0.179	-0.113
-521.960	-64.441	-0.122	-0.050
-520.945	49.762	0.200	-0.191
-519.931	3.807	0.063	-0.047
-518.916	-200.000	-0.035	0.231
-517.902	-78.918	-0.162	0.056
-516.887	-13.872	-0.288	0.188
-515.872	800.000	-0.052	-0.155
-514.858	-200.000	-0.048	0.230
-513.843	-39.653	-0.409	0.217
-512.829	66.882	-0.245	-0.253
-511.814	-106.519	-0.203	0.046
-510.799	-200.000	0.046	0.350
-509.785	119.756	-0.139	0.174
-508.770	-200.000	0.004	0.035
-507.756	-91.329	0.325	-0.094
-506.741	44.936	-0.198	-0.184
-505.726	800.000	-0.051	0.153
-504.712	-125.997	-0.163	0.025
-503.697	26.390	-0.254	0.215
-502.683	800.000	0.032	-0.110
-501.668	-163.371	-0.293	0.014
-500.653	-186.309	-0.495	-0.007
-499.639	-102.735	-0.174	0.042
-498.624	36.475	0.119	0.107
-497.610	570.820	0.055	0.135
-496.595	446.944	0.079	-0.176
-495.581	-20.606	0.206	0.128
-494.566	49.137	-0.355	0.338
-493.551	6.707	-0.162	-0.122
-492.537	-135.533	0.229	0.028
-491.522	90.895	-0.187	0.212
-490.508	-200.000	-0.016	0.437
-489.493	-200.000	0.021	0.128
-488.478	13.253	-0.094	0.073
-487.464	-96.593	0.222	0.059
-486.449	57.439	-0.110	-0.109
-485.435	6.587	-0.130	-0.098
-484.420	-23.794	-0.085	-0.052
-483.405	110.771	0.137	-0.166
-482.391	87.873	0.157	-0.176
-481.376	581.425	-0.085	-0.210
-480.362	-55.109	0.234	0.107
-479.347	41.305	-0.224	-0.204
-478.332	181.268	-0.125	0.185
-477.318	216.933	-0.089	0.143
-476.303	114.487	0.274	-0.337
-475.289	-200.000	-0.028	0.284
-474.274	269.297	-0.088	0.156
-473.259	-66.545	-0.291	-0.117
-472.245	717.792	0.112	-0.301
-471.230	14.807	-0.174	-0.137
-470.216	-200.000	0.021	0.159
-469.201	-200.000	-0.032	0.187
-468.186	-200.000	0.003	0.260
-467.172	133.909	0.228	0.298
-466.157	-89.424	0.431	-0.128
-465.143	-64.904	0.144	0.059
-464.128	-200.000	-0.007	0.058
-463.113	-200.000	0.023	-0.147
-462.099	327.435	-0.081	0.157
-461.084	-133.234	-0.212	-0.027
-460.070	50.065	0.405	-0.386
-459.055	-38.593	-0.184	-0.098
-458.040	723.306	-0.057	0.155
-457.026	496.300	0.061	0.141
-456.011	-200.000	0.000	-0.212
-454.997	-200.000	-0.033	0.359
-453.982	-73.842	0.149	0.055
-452.968	57.133	0.305	-0.300
-451.953	134.477	0.014	0.019
-450.938	-35.907	0.136	0.075
-449.924	207.297	-0.202	0.318
-448.909	-106.319	0.393	0.089
-447.895	123.041	-0.198	0.251
-446.880	57.464	0.225	0.222
-445.865	330.455	-0.035	0.069
-444.851	800.000	0.072	0.287
-443.836	-3.516	-0.057	0.040
-442.822	-200.000	-0.002	-0.384
-441.807	-87.845	-0.316	-0.096
-440.792	800.000	-0.121	-0.423
-439.778	168.884	0.067	0.097
-438.763	800.000	-0.053	0.193
-437.749	800.000	-0.109	0.368
-436.734	139.297	-0.190	-0.253
-435.719	800.000	0.069	0.199
-434.705	-34.318	0.086	-0.048
-433.690	800.000	0.050	0.191
-432.676	37.855	0.067	0.060
-431.661	-105.330	0.205	-0.047
-430.646	-200.000	-0.003	-0.019
-429.632	424.769	-0.083	-0.179
-428.617	177.939	-0.103	-0.152
-427.603	77.404	-0.145	0.156
-426.588	800.000	-0.050	0.153
-425.573	-200.000	0.030	-0.294
-424.559	6.410	0.312	-0.234
-423.544	494.975	0.092	-0.214
-422.530	448.016	-0.013	0.028
-421.515	262.460	-0.103	-0.180
-420.500	116.753	0.034	-0.042
-419.486	800.000	-0.141	-0.504
-418.471	-200.000	-0.006	0.078
-417.457	-104.263	-0.089	-0.021
-416.442	-200.000	-0.004	-0.175
-415.428	-200.000	0.022	0.169
-414.413	478.496	0.128	0.293
-413.398	47.229	0.120	-0.113
-412.384	-130.413	0.279	0.038
-411.369	-114.147	0.385	0.075
-410.355	323.166	0.087	0.167
-409.340	-200.000	-0.042	0.204
-408.325	397.229	0.175	-0.368
-407.311	178.237	-0.087	-0.127
-406.296	313.661	-0.097	-0.184
-405.282	-200.000	0.003	0.013
-404.267	800.000	-0.029	-0.107
-403.252	-163.928	0.425	-0.020
-402.238	187.331	-0.069	-0.104
-401.223	-200.000	-0.011	0.096
-400.209	265.373	-0.166	0.292
-399.194	800.000	-0.095	-0.311
-398.179	-21.905	-0.208	0.128
-397.165	800.000	-0.061	0.252
-396.150	-75.556	-0.170	0.061
-395.136	33.144	-0.201	0.176
-394.121	204.722	0.219	-0.343
-393.106	423.432	-0.063	0.137
-392.092	-183.866	-0.178	-0.003
-391.077	800.000	-0.049	0.137
-390.063	-119.958	0.318	0.055
-389.048	-72.243	0.235	-0.088
-388.033	102.115	0.136	0.160
-387.019	735.589	0.030	-0.081
-386.004	31.976	0.139	-0.121
-384.990	90.239	0.175	0.197
-383.975	21.795	-0.316	-0.260
-382.960	212.523	-0.089	-0.141
-381.946	-99.423	-0.415	-0.105
-380.931	15.347	-0.162	0.128
-379.917	-94.329	0.290	0.080
-378.902	-169.347	-0.184	-0.007
-377.888	428.033	0.032	-0.069
-376.873	-200.000	-0.001	0.051
-375.858	53.115	-0.139	0.134
-374.844	-2.453	0.089	0.063
-373.829	-200.000	-0.009	-0.056
-372.815	123.628	-0.119	0.150
-371.800	-178.698	-0.176	-0.004
-370.785	-48.985	0.091	-0.044
-369.771	-167.547	0.098	0.004
-368.756	-27.456	-0.116	0.068
-367.742	-131.962	-0.243	0.032
-366.727	-105.013	0.188	-0.043
-365.712	-99.073	0.132	0.034
-364.698	62.200	-0.138	-0.138
-363.683	-97.562	0.126	-0.033
-362.669	542.793	-0.047	0.113
-361.654	20.798	0.290	0.236
-360.639	-99.396	-0.121	-0.031
-359.625	-16.041	0.118	-0.075
-358.610	-163.538	0.239	-0.011
-357.596	125.293	0.298	0.378
-356.581	-58.124	-0.201	-0.088
-355.566	147.475	-0.164	0.222
-354.552	38.052	-0.078	-0.070
-353.537	-40.787	-0.240	0.125
-352.523	3.013	0.152	-0.111
-351.508	-26.672	0.193	-0.114
-350.493	-200.000	-0.018	-0.312
-349.479	4.370	-0.369	-0.272
-348.464	28.450	-0.058	-0.049
-347.450	-92.937	-0.166	-0.047
-346.435	194.673	0.094	-0.144
-345.420	-60.661	0.223	-0.095
-344.406	119.739	-0.217	0.270
-343.391	238.214	-0.034	0.056
-342.377	-74.641	0.287	-0.104
-341.362	108.387	-0.143	-0.172
-340.348	476.040	-0.102	-0.231
-339.333	-200.000	0.052	0.305
-338.318	-125.161	0.132	0.020
-337.304	50.758	0.289	0.275
-336.289	9.870	-0.057	0.043
-335.275	-151.008	0.212	-0.016
-334.260	-33.589	0.129	-0.072
-333.245	110.099	0.217	-0.262
-332.231	110.225	0.281	-0.339
-331.216	82.920	0.138	0.151
-330.202	55.367	0.132	0.128
-329.187	48.968	-0.070	0.066
-328.172	-200.000	-0.040	0.256
-327.158	-200.000	-0.040	-0.256
-326.143	800.000	0.040	0.147
-325.129	181.946	0.141	0.209
-324.114	-173.343	0.364	0.011
-323.099	105.564	0.140	0.166
-322.085	-103.837	0.158	0.037
-321.070	37.878	-0.248	-0.222
-320.056	34.548	0.096	-0.085
-319.041	-36.223	-0.221	-0.120
-318.026	239.705	0.266	0.444
-317.012	174.390	0.138	-0.200
-315.997	-122.724	0.216	0.035
-314.983	-200.000	-0.016	-0.158
-313.968	188.529	-0.054	0.081
-312.953	168.900	0.119	-0.170
-311.939	-27.666	-0.149	-0.087
-310.924	-25.153	0.144	-0.085
-309.910	451.004	-0.065	0.144
-308.895	-108.221	0.305	-0.066
-307.880	167.653	0.073	-0.104
-306.866	800.000	-0.046	0.139
-305.851	108.886	-0.180	-0.216
-304.837	-200.000	0.037	0.197
-303.822	247.801	-0.049	-0.082
-302.807	-92.318	0.067	-0.019
-301.793	-48.038	0.179	0.087
-300.778	-200.000	-0.020	0.231
-299.764	34.191	-0.152	-0.133
-298.749	-90.641	0.352	-0.102
-297.735	-109.982	0.166	0.035
-296.720	800.000	0.038	-0.157
-295.705	-158.476	0.245	0.014
-294.691	-48.807	0.382	0.184
-293.676	-90.118	-0.201	-0.059
-292.662	-160.709	0.112	-0.006
-291.647	-200.000	0.004	-0.090
-290.632	-200.000	0.033	-0.144
-289.618	-87.368	0.381	-0.116
-288.603	-88.594	0.094	0.028
-287.589	-200.000	0.038	0.185
-286.574	-200.000	0.031	0.163
-285.559	800.000	0.025	0.074
-284.545	275.290	0.163	0.290
-283.530	-32.181	0.038	0.021
-282.516	-139.746	0.174	-0.019
-281.501	52.795	0.201	0.192
-280.486	-86.436	0.059	0.018
-279.472	-200.000	0.286	0.000
-278.457	324.514	-0.014	-0.028
-277.443	-80.663	-0.319	0.106
-276.428	35.857	-0.356	0.314
-275.413	436.732	0.030	-0.066
-274.399	284.701	0.067	0.122
-273.384	-121.502	0.137	-0.023
-272.370	52.961	0.477	-0.458
-271.355	-83.890	-0.166	-0.053
-270.340	-57.706	-0.111	0.049
-269.326	199.963	-0.150	-0.231
-268.311	-73.654	-0.194	-0.071
-267.297	800.000	-0.049	0.175
-266.282	-49.818	-0.066	-0.032
-265.267	-200.000	0.058	0.300
-264.253	39.965	-0.107	0.096
-263.238	800.000	0.024	-0.103
-262.224	-200.000	0.022	0.101
-261.209	-200.000	-0.020	0.095
-260.195	-93.722	0.141	-0.039
-259.180	27.571	-0.171	0.144
-258.165	-89.742	-0.127	-0.037
-257.151	-200.000	-0.002	-0.064
-256.136	-200.000	-0.047	-0.370
-255.122	392.685	-0.165	-0.345
-254.107	-162.605	-0.172	-0.009
-253.092	-200.000	0.024	0.203
-252.078	372.684	-0.123	-0.250
-251.063	285.035	-0.012	-0.021
-250.049	-124.391	-0.111	0.017
-249.034	-200.000	-0.024	-0.162
-248.019	800.000	-0.097	-0.346
-247.005	-20.711	-0.161	0.099
-245.990	307.813	0.031	0.058
-244.976	241.517	0.163	0.273
-243.961	-24.031	0.203	-0.121
-242.946	-165.712	0.198	-0.009
-241.932	-200.000	-0.027	-0.237
-240.917	-85.085	-0.168	-0.053
-239.903	-200.000	0.009	-0.051
-238.888	-62.474	0.369	0.154
-237.873	-130.694	-0.202	0.027
-236.859	800.000	-0.064	0.180
-235.844	-200.000	0.070	0.354
-234.830	52.029	0.041	0.039
-233.815	-200.000	-0.052	0.346
-232.800	54.655	0.148	0.143
-231.786	-200.000	-0.022	-0.143
-230.771	90.733	0.189	0.212
-229.757	695.660	0.058	0.153
-228.742	-48.149	-0.104	-0.050
-227.727	800.000	-0.037	-0.125
-226.713	-169.916	0.058	0.002
-225.698	13.788	-0.037	0.029
-224.684	520.145	0.051	-0.121
-223.669	-97.490	0.125	-0.033
-222.655	47.584	-0.076	-0.071
-221.640	-200.000	0.032	0.251
-220.625	-52.046	0.209	0.097
-219.611	-114.439	0.112	0.022
-218.596	-138.216	-0.255	-0.028
-217.582	9.089	0.021	0.016
-216.567	81.022	0.022	-0.024
-215.552	403.827	0.014	-0.030
-214.538	222.018	0.140	0.225
-213.523	197.326	0.122	-0.187
-212.509	800.000	-0.039	-0.107
-211.494	207.751	-0.093	-0.146
-210.479	-155.788	0.310	-0.020
-209.465	-200.000	-0.059	0.509
-208.450	-200.000	0.063	-0.405
-207.436	156.482	0.069	0.095
-206.421	-152.999	-0.315	-0.022
-205.406	-16.391	-0.144	0.091
-204.392	-200.000	0.056	0.548
-203.377	800.000	-0.063	0.218
-202.363	800.000	-0.031	0.101
-201.348	-119.510	0.111	-0.019
-200.333	-200.000	0.027	-0.219
-199.319	-51.513	-0.294	-0.137
-198.304	523.750	0.118	-0.276
-197.290	-200.000	0.003	0.235
-196.275	2.423	0.316	-0.229
-195.260	-79.701	0.332	-0.112
-194.246	-200.000	0.042	-0.210
-193.231	-31.570	0.235	0.132
-192.217	186.896	0.119	0.178
-191.202	-136.704	0.175	0.020
-190.187	-125.443	0.507	-0.077
-189.173	5.909	-0.203	0.150
-188.158	778.936	-0.051	-0.140
-187.144	37.821	-0.117	-0.104
-186.129	-176.492	0.091	-0.002
-185.114	-114.409	0.345	0.066
-184.100	262.367	0.071	0.124
-183.085	-79.804	0.199	-0.067
-182.071	-140.428	-0.257	0.027
-181.056	354.736	-0.088	-0.174
-180.042	-8.317	0.203	0.136
-179.027	71.150	-0.071	-0.073
-178.012	600.544	-0.158	0.393
-176.998	800.000	0.019	-0.078
-175.983	-67.534	-0.198	0.078
-174.969	162.633	0.191	0.268
-173.954	800.000	-0.036	-0.117
-172.939	53.113	-0.040	-0.038
-171.925	343.325	-0.196	-0.384
-170.910	10.197	0.305	-0.232
-169.896	-200.000	-0.074	-0.354
-168.881	91.522	-0.165	0.185
-167.866	-200.000	0.002	-0.313
-166.852	210.368	-0.207	-0.325
-165.837	800.000	-0.036	-0.151
-164.823	365.140	0.058	-0.116
-163.808	-200.000	-0.021	0.150
-162.793	104.719	0.091	0.107
-161.779	-61.408	0.073	0.031
-160.764	174.245	-0.146	0.211
-159.750	-51.345	0.022	0.010
-158.735	800.000	0.056	0.192
-157.720	-123.147	-0.051	-0.008
-156.706	-200.000	-0.029	0.371
-155.691	800.000	0.023	0.088
-154.677	-137.919	-0.379	0.042
-153.662	-86.303	0.183	-0.056
-152.647	332.637	0.171	-0.330
-151.633	-68.711	-0.186	-0.072
-150.618	-122.317	0.089	0.014
-149.604	-200.000	-0.017	0.271
-148.589	-140.007	-0.290	-0.031
-147.574	-47.613	-0.210	-0.102
-146.560	122.755	-0.104	-0.130
-145.545	-92.402	-0.175	-0.049
-144.531	-200.000	-0.072	0.410
-143.516	-100.964	0.074	-0.018
-142.502	289.566	-0.147	-0.266
-141.487	32.953	-0.105	-0.091
-140.472	-200.000	0.022	0.199
-139.458	341.233	-0.077	-0.149
-138.443	89.579	0.123	0.137
-137.429	-82.725	0.276	0.089
-136.414	-63.426	-0.113	-0.046
-135.399	-24.377	0.140	-0.083
-134.385	269.148	0.177	-0.310
-133.370	-178.049	0.412	-0.010
-132.356	48.388	-0.102	0.095
-131.341	647.566	0.120	0.306
-130.326	34.465	0.127	0.111
-129.312	-147.031	-0.175	0.015
-128.297	-40.068	-0.337	0.175
-127.283	149.011	-0.145	0.195
-126.268	538.222	-0.027	-0.064
-125.253	732.469	-0.053	-0.142
-124.239	-111.719	0.414	-0.084
-123.224	674.458	-0.072	-0.186
-122.210	63.595	-0.267	-0.267
-121.195	35.712	0.229	-0.201
