DTS Sentinel unit serial number:	SN413079Multiplexer serial number:	ORYXHardware model number:	OX4-SRSoftware version number:	ORYX F/W v4.00 Oryx Data Collector v3.7.2.0data status	okinstallation	princeton_trtdifferential loss correction	single-endedforward channel	channel 2reverse channel	N/Adate	2019/09/15time	23:15:34forward acquisition time	60.00reverse acquisition time	0.00gamma	496.2192k internal	0.2336k external	0.2336temperature offset calibration	0.9949default loss term (dB/km)	0.3790temperature slope calibration	1.0000multiplexer offset coefficient	1.0000multiplexer slope coefficient	1.0000fibre end	0.00T internal ref (°C)	28.37T ext. ref 1 (°C)	9.07T ext. ref 2 (°C)	22.15length (m)	temperature (°C)	Stokes	anti-Stokes-747.200	-89.575	0.100	0.030
-746.185	227.336	-0.097	-0.159
-745.171	141.103	0.227	0.301
-744.156	-118.376	-0.498	0.089
-743.142	202.451	-0.137	-0.213
-742.127	-90.828	0.173	0.050
-741.112	-140.633	0.142	-0.015
-740.098	20.331	0.107	0.087
-739.083	23.092	0.175	0.145
-738.069	-200.000	-0.024	-0.210
-737.054	-95.712	-0.218	-0.059
-736.039	6.255	-0.063	-0.047
-735.025	-159.886	0.110	-0.006
-734.010	-12.957	-0.232	-0.151
-732.996	-135.134	-0.114	0.014
-731.981	153.295	-0.187	0.257
-730.966	-103.974	-0.199	-0.047
-729.952	-0.961	0.147	0.104
-728.937	-42.573	-0.164	-0.084
-727.923	-128.740	-0.299	-0.042
-726.908	64.399	0.066	0.067
-725.894	-34.723	-0.219	-0.120
-724.879	107.512	0.214	-0.255
-723.864	-200.000	0.090	-0.000
-722.850	800.000	-0.038	-0.132
-721.835	-158.191	-0.323	-0.019
-720.821	800.000	-0.066	-0.264
-719.806	-161.640	-0.116	-0.006
-718.791	-96.841	0.132	0.035
-717.777	800.000	-0.037	0.154
-716.762	-200.000	-0.005	0.322
-715.748	-119.997	-0.178	0.031
-714.733	10.968	-0.232	0.178
-713.718	-55.950	0.199	0.089
-712.704	185.586	-0.087	0.130
-711.689	-73.826	-0.142	-0.052
-710.675	800.000	0.062	-0.235
-709.660	-200.000	0.040	-0.442
-708.645	-105.470	0.359	0.082
-707.631	800.000	0.080	-0.322
-706.616	800.000	-0.067	0.211
-705.602	-200.000	-0.056	-0.324
-704.587	-9.443	-0.235	-0.157
-703.572	455.081	-0.159	-0.354
-702.558	306.972	0.127	0.237
-701.543	-200.000	0.016	0.118
-700.529	5.773	0.105	-0.078
-699.514	-200.000	-0.011	0.159
-698.499	-69.558	-0.160	0.061
-697.485	247.582	0.094	0.159
-696.470	-125.486	0.288	-0.044
-695.456	-200.000	-0.021	0.206
-694.441	193.913	-0.094	-0.143
-693.426	638.401	0.139	-0.354
-692.412	31.148	0.120	0.103
-691.397	800.000	-0.091	0.278
-690.383	-95.295	0.237	0.064
-689.368	-200.000	-0.058	-0.311
-688.354	334.293	0.045	0.087
-687.339	-63.925	-0.401	0.164
-686.324	85.624	0.099	-0.109
-685.310	-200.000	0.054	-0.600
-684.295	-200.000	0.015	0.124
-683.281	-200.000	-0.022	-0.211
-682.266	6.389	-0.397	-0.296
-681.251	-180.060	0.056	0.001
-680.237	265.098	-0.124	-0.216
-679.222	131.264	0.126	0.162
-678.208	-51.567	-0.131	-0.061
-677.193	-200.000	-0.037	0.173
-676.178	-115.657	-0.077	-0.015
-675.164	-200.000	-0.019	-0.200
-674.149	-200.000	0.019	-0.233
-673.135	-185.929	-0.220	0.003
-672.120	236.207	0.146	0.241
-671.105	-42.890	0.208	0.106
-670.091	-200.000	0.029	-0.226
-669.076	800.000	-0.034	-0.100
-668.062	-130.298	0.114	-0.016
-667.047	12.130	0.132	-0.102
-666.032	-200.000	0.016	-0.257
-665.018	80.101	-0.194	0.209
-664.003	-200.000	-0.066	0.442
-662.989	800.000	-0.026	-0.078
-661.974	221.211	-0.077	-0.124
-660.959	800.000	-0.026	-0.101
-659.945	244.810	0.070	-0.118
-658.930	800.000	-0.046	-0.162
-657.916	800.000	0.090	-0.275
-656.901	-200.000	-0.056	0.257
-655.886	800.000	0.095	0.280
-654.872	-200.000	0.037	0.167
-653.857	-37.460	-0.098	0.053
-652.843	-84.864	0.305	0.096
-651.828	-152.861	-0.192	-0.014
-650.814	-200.000	-0.019	-0.242
-649.799	-200.000	-0.041	-0.252
-648.784	-76.838	-0.150	-0.052
-647.770	147.467	-0.242	-0.327
-646.755	36.416	0.226	-0.199
-645.741	-82.607	-0.132	-0.043
-644.726	-102.309	0.277	0.067
-643.711	43.538	0.314	-0.287
-642.697	46.480	0.158	0.147
-641.682	158.290	-0.080	0.110
-640.668	-200.000	0.078	0.442
-639.653	800.000	0.032	0.135
-638.638	-144.528	0.103	-0.009
-637.624	695.995	-0.036	0.093
-636.609	-122.014	0.322	0.053
-635.595	250.571	0.085	-0.145
-634.580	-117.037	0.025	0.005
-633.565	-41.874	-0.396	-0.203
-632.551	-61.336	-0.253	0.106
-631.536	-200.000	-0.020	0.346
-630.522	-200.000	0.036	0.209
-629.507	173.609	0.181	0.261
-628.492	-200.000	0.042	0.306
-627.478	-29.033	0.193	-0.110
-626.463	-200.000	0.000	-0.318
-625.449	-86.554	0.359	0.110
-624.434	-158.181	-0.089	0.005
-623.419	60.760	-0.030	0.030
-622.405	512.877	0.051	0.120
-621.390	274.653	-0.106	-0.187
-620.376	800.000	0.058	0.168
-619.361	285.079	0.031	-0.057
-618.346	-98.115	0.203	-0.052
-617.332	-8.210	-0.301	0.203
-616.317	-103.887	0.033	-0.008
-615.303	-71.972	0.254	0.094
-614.288	141.566	0.201	-0.266
-613.273	-200.000	0.007	-0.263
-612.259	-103.783	-0.117	-0.027
-611.244	-44.289	0.283	0.142
-610.230	569.095	0.134	-0.324
-609.215	800.000	-0.037	0.152
-608.201	800.000	-0.040	-0.169
-607.186	298.920	0.042	0.078
-606.171	437.446	-0.138	-0.301
-605.157	800.000	-0.117	-0.378
-604.142	-200.000	0.002	0.031
-603.128	48.681	-0.346	0.324
-602.113	-111.032	-0.363	0.074
-601.098	-36.145	0.125	0.067
-600.084	-41.613	-0.166	0.085
-599.069	-200.000	0.055	-0.274
-598.055	-38.059	-0.260	0.138
-597.040	800.000	-0.054	0.218
-596.025	37.782	0.203	0.180
-595.011	89.388	-0.025	-0.028
-593.996	14.972	-0.170	-0.133
-592.982	-150.402	-0.185	-0.014
-591.967	800.000	0.047	-0.168
-590.952	800.000	0.068	0.239
-589.938	194.795	-0.224	0.340
-588.923	133.591	-0.090	0.116
-587.909	340.688	-0.109	0.213
-586.894	-194.618	0.096	0.001
-585.879	133.004	-0.134	-0.172
-584.865	440.288	0.193	0.420
-583.850	693.239	-0.049	0.127
-582.836	192.501	-0.039	0.059
-581.821	315.225	-0.053	-0.100
-580.806	800.000	0.076	0.239
-579.792	-200.000	0.053	0.431
-578.777	-81.231	-0.506	-0.167
-577.763	800.000	-0.023	-0.097
-576.748	351.083	0.037	-0.073
-575.733	769.287	0.061	0.167
-574.719	-200.000	-0.034	-0.187
-573.704	-97.254	-0.125	-0.033
-572.690	93.396	-0.099	0.112
-571.675	664.033	0.109	0.279
-570.661	-54.523	-0.128	-0.058
-569.646	-200.000	-0.031	0.153
-568.631	1.108	-0.085	0.061
-567.617	-200.000	-0.001	0.019
-566.602	278.676	-0.073	0.131
-565.588	-159.535	0.294	-0.016
-564.573	164.491	0.148	-0.209
-563.558	-1.064	0.053	0.037
-562.544	281.482	-0.211	-0.378
-561.529	-200.000	-0.013	-0.176
-560.515	-200.000	-0.040	-0.223
-559.500	-200.000	-0.018	0.270
-558.485	-200.000	0.020	-0.276
-557.471	707.679	-0.039	-0.103
-556.456	10.454	0.051	0.039
-555.442	98.295	0.109	-0.125
-554.427	-200.000	0.020	-0.226
-553.412	27.520	-0.256	0.214
-552.398	-200.000	-0.017	0.225
-551.383	79.044	-0.162	-0.173
-550.369	-109.698	0.165	-0.035
-549.354	28.316	-0.173	0.146
-548.339	29.436	0.101	0.086
-547.325	-41.909	0.022	0.011
-546.310	-104.845	0.281	-0.064
-545.296	-200.000	-0.010	-0.139
-544.281	-1.540	-0.179	-0.125
-543.266	-96.311	-0.042	-0.011
-542.252	-200.000	-0.059	-0.260
-541.237	2.136	-0.091	-0.065
-540.223	-200.000	-0.053	0.347
-539.208	800.000	0.090	-0.323
-538.193	103.422	0.248	-0.290
-537.179	-22.310	0.144	-0.087
-536.164	124.522	-0.127	0.159
-535.150	-146.661	0.041	0.004
-534.135	-176.045	0.198	0.005
-533.121	441.760	-0.125	0.272
-532.106	-0.228	0.227	0.161
-531.091	225.085	-0.018	-0.029
-530.077	9.222	0.039	0.029
-529.062	-28.988	-0.357	0.204
-528.048	121.442	-0.176	0.219
-527.033	800.000	0.089	-0.301
-526.018	88.868	0.007	0.008
-525.004	157.922	0.066	-0.092
-523.989	56.596	-0.234	-0.226
-522.975	-176.176	-0.159	0.004
-521.960	-4.813	-0.082	-0.056
-520.945	154.775	-0.075	0.103
-519.931	15.917	0.123	-0.096
-518.916	645.355	-0.187	0.475
-517.902	-15.807	0.163	-0.103
-516.887	-75.859	0.256	-0.090
-515.872	255.709	-0.112	-0.192
-514.858	38.052	0.132	-0.117
-513.843	235.730	0.189	-0.311
-512.829	63.597	0.156	-0.156
-511.814	35.354	0.069	0.060
-510.799	-1.274	-0.176	0.124
-509.785	-3.177	-0.180	0.125
-508.770	-148.996	-0.294	0.024
-507.756	37.040	0.113	-0.100
-506.741	-16.241	-0.127	0.081
-505.726	87.090	-0.220	0.242
-504.712	19.165	-0.112	-0.089
-503.697	-200.000	0.018	-0.249
-502.683	-200.000	0.005	-0.172
-501.668	63.899	-0.017	-0.017
-500.653	96.423	-0.027	-0.030
-499.639	-200.000	0.031	-0.164
-498.624	-78.038	0.181	0.062
-497.610	-83.967	-0.145	0.046
-496.595	-154.073	0.351	0.024
-495.581	637.468	-0.125	-0.316
-494.566	72.067	-0.339	-0.351
-493.551	15.849	0.060	0.047
-492.537	-87.104	0.306	-0.093
-491.522	-200.000	-0.058	0.361
-490.508	-69.360	0.142	-0.054
-489.493	63.983	-0.097	-0.097
-488.478	8.203	0.232	0.174
-487.464	54.916	-0.211	0.203
-486.449	-18.647	-0.254	-0.157
-485.435	340.358	0.097	0.189
-484.420	-200.000	0.006	0.124
-483.405	641.506	-0.105	0.265
-482.391	-31.152	-0.073	-0.041
-481.376	-200.000	0.047	-0.229
-480.362	56.892	-0.138	-0.133
-479.347	234.208	-0.108	-0.177
-478.332	30.538	-0.203	0.172
-477.318	-200.000	0.010	-0.062
-476.303	-36.608	-0.120	0.064
-475.289	-43.669	-0.202	-0.101
-474.274	229.937	-0.162	0.262
-473.259	800.000	0.071	-0.223
-472.245	149.170	-0.109	-0.146
-471.230	169.960	0.242	-0.343
-470.216	-200.000	0.031	0.143
-469.201	-166.621	0.266	0.011
-468.186	-200.000	-0.065	-0.471
-467.172	-200.000	0.033	-0.317
-466.157	126.235	-0.093	-0.117
-465.143	-200.000	-0.004	-0.141
-464.128	-200.000	-0.008	0.130
-463.113	-68.722	-0.191	0.073
-462.099	43.943	-0.177	0.161
-461.084	227.140	-0.303	0.488
-460.070	372.701	-0.060	0.122
-459.055	-200.000	-0.008	-0.074
-458.040	255.899	-0.155	0.265
-457.026	800.000	0.089	0.272
-456.011	-54.552	0.291	-0.131
-454.997	-78.602	0.108	-0.037
-453.982	-122.537	0.180	-0.029
-452.968	-159.970	0.271	0.015
-451.953	33.642	0.066	0.057
-450.938	800.000	-0.027	-0.093
-449.924	800.000	-0.108	-0.299
-448.909	800.000	0.011	0.043
-447.895	-200.000	-0.014	-0.111
-446.880	-142.073	-0.264	-0.026
-445.865	-164.639	-0.393	-0.018
-444.851	-96.070	-0.196	0.052
-443.836	-124.473	-0.450	0.070
-442.822	-95.075	0.401	0.107
-441.807	120.108	0.144	0.178
-440.792	373.212	-0.074	-0.149
-439.778	-200.000	0.001	0.135
-438.763	-50.209	0.528	-0.248
-437.749	-200.000	-0.013	0.122
-436.734	800.000	0.127	0.421
-435.719	187.435	-0.090	-0.133
-434.705	351.203	-0.107	-0.209
-433.690	-144.834	0.351	0.032
-432.676	16.365	-0.227	0.178
-431.661	-37.458	-0.125	0.066
-430.646	24.017	-0.150	0.123
-429.632	-110.610	-0.454	-0.093
-428.617	800.000	-0.036	0.127
-427.603	-200.000	-0.037	0.166
-426.588	800.000	-0.078	0.217
-425.573	255.954	0.191	0.325
-424.559	-67.836	0.378	-0.147
-423.544	123.901	0.157	-0.196
-422.530	153.418	-0.194	0.263
-421.515	-74.859	-0.223	0.079
-420.500	401.299	-0.063	-0.132
-419.486	-200.000	0.037	0.185
-418.471	-82.903	0.195	-0.063
-417.457	-37.435	-0.386	0.204
-416.442	699.437	-0.144	-0.374
-415.428	27.371	0.020	-0.017
-414.413	-105.878	0.314	0.070
-413.398	-41.813	0.234	0.119
-412.384	-128.753	-0.356	-0.050
-411.369	128.393	0.134	-0.169
-410.355	800.000	-0.075	0.327
-409.340	95.188	-0.157	-0.177
-408.325	-106.771	-0.131	0.029
-407.311	194.093	0.108	-0.162
-406.296	-116.995	-0.185	-0.034
-405.282	-180.806	-0.361	0.007
-404.267	348.935	0.132	0.258
-403.252	69.091	0.025	0.026
-402.238	200.439	-0.114	0.174
-401.223	-78.502	0.226	-0.077
-400.209	-120.178	0.138	-0.023
-399.194	144.847	-0.115	0.152
-398.179	217.133	0.125	0.198
-397.165	209.273	-0.093	-0.144
-396.150	-200.000	-0.013	0.170
-395.136	-43.283	-0.046	-0.023
-394.121	-96.885	-0.205	0.053
-393.106	-16.631	0.153	-0.096
-392.092	800.000	0.040	-0.123
-391.077	-147.355	-0.284	-0.024
-390.063	800.000	0.074	-0.208
-389.048	0.711	0.087	-0.062
-388.033	-107.174	-0.210	-0.046
-387.019	8.312	0.197	0.146
-386.004	534.500	-0.155	0.363
-384.990	133.327	0.128	-0.163
-383.975	68.644	0.156	0.159
-382.960	-200.000	-0.051	0.306
-381.946	273.855	-0.072	0.126
-380.931	-124.535	-0.113	-0.017
-379.917	190.779	0.021	0.031
-378.902	-35.892	0.094	-0.050
-377.888	-200.000	-0.021	0.139
-376.873	-140.927	-0.222	-0.023
-375.858	392.861	0.009	-0.019
-374.844	-52.318	0.177	0.081
-373.829	800.000	0.092	-0.257
-372.815	-200.000	0.050	-0.394
-371.800	-200.000	0.042	-0.309
-370.785	55.421	-0.233	0.224
-369.771	-200.000	-0.015	0.181
-368.756	175.513	-0.131	0.188
-367.742	-112.460	0.411	0.081
-366.727	538.735	-0.109	-0.257
-365.712	-58.939	0.085	0.036
-364.698	196.678	-0.205	0.309
-363.683	-200.000	-0.005	0.182
-362.669	292.345	0.087	0.157
-361.654	-27.616	0.128	0.074
-360.639	312.060	-0.057	-0.107
-359.625	615.278	-0.129	-0.320
-358.610	-123.863	0.229	-0.036
-357.596	83.172	-0.160	-0.172
-356.581	-200.000	-0.008	0.226
-355.566	-62.796	-0.131	-0.054
-354.552	-200.000	-0.006	0.048
-353.537	-200.000	0.001	-0.090
-352.523	-200.000	0.020	0.158
-351.508	800.000	-0.085	-0.298
-350.493	33.720	0.208	0.179
-349.479	108.770	-0.054	0.064
-348.464	-200.000	0.070	-0.327
-347.450	800.000	-0.034	0.095
-346.435	67.173	0.112	-0.113
-345.420	464.455	-0.089	0.198
-344.406	369.123	-0.093	-0.187
-343.391	-200.000	0.041	-0.199
-342.377	23.218	-0.197	-0.160
-341.362	800.000	0.046	0.170
-340.348	-200.000	-0.030	0.153
-339.333	284.308	-0.029	0.051
-338.318	-200.000	-0.004	-0.410
-337.304	175.295	-0.024	-0.034
-336.289	700.961	0.053	0.137
-335.275	251.560	0.110	0.185
-334.260	-160.081	0.237	0.013
-333.245	-104.574	0.198	-0.045
-332.231	-47.339	0.332	-0.160
-331.216	-200.000	-0.012	-0.132
-330.202	28.217	-0.353	-0.295
-329.187	14.162	0.129	-0.099
-328.172	455.594	-0.126	0.276
-327.158	-116.846	-0.233	-0.042
-326.143	55.117	-0.159	-0.151
-325.129	800.000	0.097	-0.265
-324.114	-112.312	0.126	-0.025
-323.099	715.725	-0.128	0.335
-322.085	-88.043	-0.287	0.085
-321.070	-51.096	0.242	0.112
-320.056	-8.580	-0.190	-0.126
-319.041	-106.918	-0.104	0.023
-318.026	202.368	0.044	0.067
-317.012	84.288	0.172	-0.186
-315.997	-200.000	0.033	-0.271
-314.983	-200.000	0.006	-0.082
-313.968	-162.354	0.293	0.014
-312.953	57.366	-0.112	-0.108
-311.939	448.333	0.082	0.177
-310.924	-167.344	0.067	0.003
-309.910	-200.000	0.039	-0.178
-308.895	-130.406	-0.206	0.028
-307.880	347.865	0.051	-0.099
-306.866	630.010	0.147	-0.366
-305.851	800.000	-0.059	-0.217
-304.837	-200.000	-0.022	0.386
-303.822	-92.654	0.518	0.143
-302.807	800.000	0.127	-0.359
-301.793	800.000	-0.100	0.367
-300.778	191.056	-0.118	0.175
-299.764	147.653	-0.136	0.180
-298.749	-200.000	-0.045	-0.282
-297.735	800.000	0.074	0.240
-296.720	182.172	0.108	-0.157
-295.705	800.000	0.037	0.119
-294.691	-16.834	0.296	0.185
-293.676	800.000	-0.029	-0.081
-292.662	800.000	0.037	-0.143
-291.647	-116.706	0.489	-0.089
-290.632	-81.982	0.315	0.101
-289.618	-200.000	0.011	0.117
-288.603	-47.088	-0.100	-0.048
-287.589	-200.000	-0.018	0.297
-286.574	38.165	0.107	0.094
-285.559	151.556	0.196	0.264
-284.545	-200.000	-0.015	0.308
-283.530	-200.000	0.042	0.369
-282.516	47.771	-0.103	-0.095
-281.501	-137.909	0.067	-0.007
-280.486	99.225	0.113	-0.129
-279.472	800.000	-0.082	0.232
-278.457	-200.000	-0.025	-0.294
-277.443	354.460	0.065	-0.128
-276.428	27.562	0.105	0.087
-275.413	489.736	-0.201	-0.453
-274.399	317.280	-0.046	0.085
-273.384	-55.407	0.117	0.052
-272.370	-39.215	0.489	-0.253
-271.355	325.003	0.086	0.161
-270.340	-200.000	0.023	-0.231
-269.326	84.500	0.134	-0.145
-268.311	156.254	0.070	0.095
-267.297	-66.483	-0.290	-0.113
-266.282	-113.546	0.193	-0.037
-265.267	800.000	0.068	-0.200
-264.253	100.322	-0.073	0.084
-263.238	-100.094	0.057	0.014
-262.224	800.000	-0.140	0.390
-261.209	14.300	-0.113	0.087
-260.195	-196.694	-0.115	0.001
-259.180	492.283	-0.090	-0.204
-258.165	-32.433	0.167	-0.092
-257.151	-94.626	-0.335	-0.090
-256.136	-38.742	-0.220	-0.114
-255.122	129.341	0.216	-0.272
-254.107	-43.492	-0.083	0.041
-253.092	13.222	0.228	-0.174
-252.078	800.000	0.059	-0.164
-251.063	2.645	0.141	-0.101
-250.049	74.403	0.179	-0.186
-249.034	-74.149	0.202	-0.072
-248.019	800.000	0.056	0.162
-247.005	67.439	-0.076	-0.076
-245.990	413.034	-0.054	0.113
-244.976	-200.000	-0.018	-0.202
-243.961	800.000	-0.080	-0.298
-242.946	-200.000	0.011	-0.231
-241.932	29.720	-0.164	0.138
-240.917	-1.480	0.234	0.163
-239.903	-200.000	-0.036	0.246
-238.888	-24.434	0.075	0.044
-237.873	322.415	0.100	-0.188
-236.859	-45.474	0.135	0.066
-235.844	116.597	-0.069	-0.084
-234.830	-38.117	0.169	0.089
-233.815	67.493	-0.229	-0.230
-232.800	100.213	0.313	-0.358
-231.786	55.320	-0.062	-0.059
-230.771	7.860	-0.236	-0.174
-229.757	-200.000	-0.012	-0.078
-228.742	-200.000	0.028	0.248
-227.727	68.133	0.035	-0.035
-226.713	245.889	0.215	-0.357
-225.698	47.076	0.099	-0.091
-224.684	-133.549	-0.311	0.038
-223.669	37.411	0.057	-0.050
-222.655	-35.022	0.425	0.228
-221.640	435.826	-0.016	-0.034
-220.625	-124.743	0.267	-0.041
-219.611	239.671	0.167	0.273
-218.596	-74.036	-0.410	-0.146
-217.582	-21.982	-0.169	-0.101
-216.567	119.335	0.187	0.227
-215.552	-138.788	-0.203	-0.022
-214.538	66.614	0.273	-0.274
-213.523	20.961	0.025	0.020
-212.509	-114.032	0.154	-0.029
-211.494	-90.889	0.092	-0.026
-210.479	13.866	0.091	-0.069
-209.465	-17.095	-0.156	0.097
-208.450	89.299	0.213	0.234
-207.436	-92.069	0.142	0.040
-206.421	-75.082	0.267	-0.094
-205.406	-3.037	-0.070	-0.048
-204.392	-145.521	-0.175	-0.015
-203.377	156.365	-0.136	0.185
-202.363	395.313	0.048	-0.098
-201.348	123.595	-0.196	0.242
-200.333	-60.205	-0.392	0.164
-199.319	-19.555	0.229	-0.139
-198.304	-125.375	0.254	0.038
-197.290	-79.777	0.018	0.006
-196.275	58.940	-0.251	0.242
-195.260	-1.718	-0.089	-0.061
-194.246	-78.687	-0.282	0.095
-193.231	-19.294	0.171	0.104
-192.217	-33.389	0.083	0.045
-191.202	-188.311	-0.121	0.001
-190.187	130.887	-0.040	0.050
-189.173	195.660	-0.124	0.186
-188.158	-79.188	-0.285	0.095
-187.144	-15.317	0.192	-0.121
-186.129	-41.197	0.225	0.114
-185.114	15.030	-0.208	0.160
-184.100	-11.251	0.081	-0.052
-183.085	-86.262	-0.245	-0.074
-182.071	355.982	0.159	-0.310
-181.056	531.205	-0.068	0.157
-180.042	419.499	0.041	-0.086
-179.027	-43.256	0.088	-0.044
-178.012	800.000	-0.045	0.126
-176.998	247.257	0.084	0.140
-175.983	-108.644	0.426	0.090
-174.969	520.218	0.113	0.259
-173.954	-200.000	0.011	0.167
-172.939	800.000	0.024	0.095
-171.925	405.307	-0.035	0.072
-170.910	-89.595	0.154	0.045
-169.896	77.177	0.153	0.159
-168.881	342.937	-0.034	0.066
-167.866	-113.840	0.197	0.038
-166.852	216.564	-0.075	-0.118
-165.837	-19.745	-0.093	0.056
-164.823	-135.287	-0.304	-0.036
-163.808	82.543	-0.123	-0.131
-162.793	122.647	0.101	0.125
-161.779	-52.606	-0.303	-0.137
-160.764	119.264	0.233	0.284
-159.750	400.864	0.179	-0.368
-158.735	800.000	0.015	-0.040
-157.720	32.245	-0.210	0.178
-156.706	-200.000	-0.034	0.177
-155.691	189.522	-0.072	-0.106
-154.677	57.921	-0.101	0.097
-153.662	22.000	-0.352	-0.282
-152.647	-93.527	0.090	0.024
-151.633	594.284	0.135	-0.327
-150.618	-200.000	-0.027	-0.201
-149.604	-200.000	0.060	0.273
-148.589	-78.828	0.172	0.058
-147.574	6.124	-0.299	-0.218
-146.560	-138.190	-0.327	0.036
-145.545	394.389	-0.129	-0.264
-144.531	-56.909	-0.165	-0.071
-143.516	-91.787	0.249	-0.069
-142.502	-200.000	0.027	0.237
-141.487	14.775	0.214	0.164
-140.472	-163.301	-0.379	0.018
-139.458	-200.000	0.025	0.145
-138.443	22.059	-0.183	-0.147
-137.429	800.000	-0.078	-0.267
-136.414	-200.000	0.025	0.237
-135.399	800.000	0.034	0.103
-134.385	-51.617	0.251	0.115
-133.370	-200.000	-0.017	0.094
-132.356	-106.355	0.025	0.006
-131.341	-0.482	0.291	0.203
-130.326	-130.861	-0.104	0.014
-129.312	18.827	-0.175	-0.137
-128.297	-4.723	0.123	-0.083
-127.283	156.536	0.186	0.252
-126.268	144.424	-0.258	0.337
-125.253	134.741	-0.162	0.206
-124.239	800.000	0.084	0.301
-123.224	-68.503	-0.350	0.133
-122.210	29.372	0.148	-0.123
-121.195	-116.454	-0.058	0.011
