DTS Sentinel unit serial number:	SN413079Multiplexer serial number:	ORYXHardware model number:	OX4-SRSoftware version number:	ORYX F/W v4.00 Oryx Data Collector v3.7.2.0data status	okinstallation	princeton_trtdifferential loss correction	single-endedforward channel	channel 2reverse channel	N/Adate	2019/09/12time	13:29:11forward acquisition time	60.00reverse acquisition time	0.00gamma	496.2192k internal	0.2297k external	0.2297temperature offset calibration	1.0081default loss term (dB/km)	0.3790temperature slope calibration	1.0000multiplexer offset coefficient	1.0000multiplexer slope coefficient	1.0000fibre end	0.00T internal ref (°C)	41.09T ext. ref 1 (°C)	2.13T ext. ref 2 (°C)	36.45length (m)	temperature (°C)	Stokes	anti-Stokes-747.200	248.373	0.077	0.134
-746.185	211.034	0.107	0.171
-745.171	224.335	-0.214	0.354
-744.156	-200.000	-0.030	0.469
-743.142	46.753	-0.256	0.242
-742.127	-42.595	0.087	0.045
-741.112	194.571	0.120	0.186
-740.098	-116.582	0.244	-0.046
-739.083	-30.596	0.182	0.105
-738.069	670.614	0.149	0.394
-737.054	92.096	-0.205	-0.235
-736.039	36.486	-0.009	0.008
-735.025	-111.318	0.258	0.054
-734.010	-200.000	-0.009	0.129
-732.996	-20.163	-0.111	0.070
-731.981	-74.400	-0.365	0.135
-730.966	-86.812	0.340	-0.106
-729.952	-124.771	0.325	0.051
-728.937	-96.582	-0.349	0.094
-727.923	-200.000	-0.036	-0.279
-726.908	-115.407	-0.231	0.045
-725.894	-200.000	-0.002	-0.024
-724.879	-32.298	0.093	-0.053
-723.864	-200.000	0.088	-0.602
-722.850	99.581	-0.394	0.465
-721.835	-55.573	-0.220	0.100
-720.821	261.556	-0.050	-0.088
-719.806	800.000	0.036	-0.105
-718.791	42.580	0.063	-0.058
-717.777	-117.483	-0.304	0.056
-716.762	-99.461	-0.286	0.073
-715.748	-168.207	-0.204	-0.008
-714.733	-111.595	-0.233	-0.048
-713.718	-72.642	0.332	-0.125
-712.704	-101.163	-0.147	0.037
-711.689	369.971	0.117	-0.242
-710.675	183.488	0.064	-0.097
-709.660	-200.000	-0.013	-0.187
-708.645	-107.228	-0.382	0.086
-707.631	37.125	0.247	0.223
-706.616	-86.697	-0.559	0.175
-705.602	89.248	-0.088	0.100
-704.587	-148.302	0.063	0.005
-703.572	-57.232	0.174	-0.078
-702.558	146.412	-0.175	-0.240
-701.543	-79.105	0.159	-0.055
-700.529	293.763	0.043	-0.080
-699.514	10.248	0.128	-0.099
-698.499	34.793	-0.187	-0.167
-697.485	-95.064	0.145	-0.040
-696.470	-85.993	0.249	0.078
-695.456	114.038	0.127	-0.158
-694.441	19.897	-0.124	-0.102
-693.426	-200.000	0.080	0.393
-692.412	-62.559	0.220	-0.093
-691.397	212.745	-0.183	-0.294
-690.383	-200.000	-0.000	0.106
-689.368	800.000	0.064	0.247
-688.354	220.104	-0.086	-0.141
-687.339	-200.000	0.031	-0.152
-686.324	-76.461	-0.055	-0.020
-685.310	101.274	0.145	-0.172
-684.295	-157.223	-0.085	-0.005
-683.281	-200.000	0.002	0.088
-682.266	-200.000	0.002	-0.169
-681.251	-200.000	-0.010	0.423
-680.237	-81.769	0.020	0.007
-679.222	162.832	0.117	0.168
-678.208	69.460	-0.083	0.087
-677.193	12.567	-0.137	-0.108
-676.178	62.259	0.122	-0.124
-675.164	12.415	-0.170	0.133
-674.149	-200.000	-0.017	0.078
-673.135	-141.657	0.209	0.021
-672.120	-102.326	-0.259	0.063
-671.105	55.749	-0.128	0.126
-670.091	-71.751	-0.413	0.157
-669.076	-73.084	-0.305	0.114
-668.062	448.491	0.069	0.155
-667.047	800.000	0.103	0.305
-666.032	186.513	0.029	0.044
-665.018	138.967	0.246	0.329
-664.003	4.803	-0.097	-0.073
-662.989	-200.000	-0.026	-0.314
-661.974	-200.000	0.018	0.137
-660.959	2.992	-0.223	0.165
-659.945	-126.497	0.107	-0.016
-658.930	-135.437	0.368	0.045
-657.916	-71.691	-0.235	0.089
-656.901	-200.000	0.043	0.221
-655.886	118.852	-0.104	0.131
-654.872	11.237	-0.239	-0.186
-653.857	-72.094	0.266	-0.101
-652.843	-200.000	-0.067	-0.319
-651.828	150.211	0.122	-0.168
-650.814	-200.000	0.000	0.230
-649.799	800.000	-0.083	-0.263
-648.784	-200.000	-0.074	-0.450
-647.770	800.000	-0.078	-0.255
-646.755	-125.074	0.166	-0.026
-645.741	-200.000	0.007	-0.226
-644.726	-88.086	0.045	0.014
-643.711	-53.979	0.083	-0.038
-642.697	56.247	-0.153	0.151
-641.682	755.112	0.085	0.235
-640.668	-2.290	0.189	-0.135
-639.653	-200.000	-0.007	-0.064
-638.638	-76.944	-0.324	0.115
-637.624	-27.791	0.437	0.258
-636.609	365.707	-0.044	0.091
-635.595	37.424	0.407	0.367
-634.580	293.503	0.111	-0.206
-633.565	800.000	0.037	0.110
-632.551	-150.859	0.023	0.002
-631.536	800.000	-0.060	-0.178
-630.522	21.091	0.082	0.068
-629.507	-80.900	0.170	0.057
-628.492	10.901	0.287	0.222
-627.478	-111.514	-0.127	0.026
-626.463	-27.444	0.323	-0.191
-625.449	-77.236	0.160	0.057
-624.434	-110.937	-0.225	0.047
-623.419	7.515	-0.266	-0.202
-622.405	164.262	-0.267	-0.383
-621.390	-200.000	0.074	0.591
-620.376	-97.304	-0.126	0.033
-619.361	-11.278	0.169	0.113
-618.346	77.195	-0.110	0.119
-617.332	-18.055	-0.191	0.122
-616.317	-88.355	-0.145	-0.044
-615.303	69.801	-0.219	0.229
-614.288	-125.831	-0.320	0.049
-613.273	-105.393	-0.281	-0.065
-612.259	424.102	-0.048	-0.104
-611.244	-73.001	0.051	-0.019
-610.230	-115.967	0.332	0.063
-609.215	308.094	0.030	-0.057
-608.201	-146.850	-0.252	0.022
-607.186	11.824	-0.291	-0.227
-606.171	103.804	0.099	0.119
-605.157	784.031	0.092	0.256
-604.142	198.312	-0.037	-0.058
-603.128	153.521	-0.061	0.085
-602.113	-77.672	-0.117	0.041
-601.098	-200.000	0.020	0.131
-600.084	-200.000	-0.010	0.142
-599.069	-34.260	0.265	0.148
-598.055	-80.939	0.407	-0.137
-597.040	-31.859	-0.358	0.204
-596.025	42.331	0.305	-0.282
-595.011	800.000	-0.066	-0.221
-593.996	73.920	0.049	0.053
-592.982	800.000	-0.030	0.108
-591.967	19.693	0.091	-0.074
-590.952	20.348	0.070	-0.058
-589.938	-130.855	-0.279	-0.038
-588.923	800.000	0.076	-0.230
-587.909	37.687	-0.268	-0.241
-586.894	31.275	0.085	0.074
-585.879	-200.000	0.006	0.342
-584.865	-200.000	0.045	-0.269
-583.850	64.312	-0.120	0.122
-582.836	68.197	-0.066	0.068
-581.821	-37.896	0.108	-0.058
-580.806	800.000	-0.086	-0.259
-579.792	-79.465	-0.195	0.067
-578.777	800.000	-0.104	0.306
-577.763	17.075	0.356	-0.287
-576.748	-62.917	-0.270	0.113
-575.733	-74.863	0.343	0.125
-574.719	-200.000	-0.052	-0.240
-573.704	380.598	-0.143	0.297
-572.690	-106.645	-0.120	-0.027
-571.675	-50.875	0.231	-0.110
-570.661	271.752	-0.010	0.019
-569.646	114.736	-0.151	0.187
-568.631	-134.191	0.221	-0.028
-567.617	-160.500	-0.233	-0.013
-566.602	-47.137	-0.172	-0.085
-565.588	800.000	0.039	-0.117
-564.573	-83.692	-0.213	-0.069
-563.558	-21.355	0.209	0.129
-562.544	-200.000	0.053	0.300
-561.529	139.838	-0.142	-0.190
-560.515	-162.446	-0.120	0.006
-559.500	-78.860	-0.293	0.101
-558.485	-47.188	-0.148	-0.073
-557.471	85.780	0.139	0.155
-556.456	-200.000	-0.023	0.349
-555.442	-130.488	-0.253	0.035
-554.427	-135.933	0.192	-0.023
-553.412	182.905	0.108	-0.162
-552.398	69.154	-0.078	-0.081
-551.383	-36.262	-0.272	-0.149
-550.369	-3.182	0.059	-0.042
-549.354	-89.452	0.145	0.043
-548.339	800.000	0.037	-0.116
-547.325	-200.000	0.006	0.089
-546.310	-113.895	-0.243	-0.048
-545.296	26.328	0.142	-0.120
-544.281	88.792	0.082	-0.093
-543.266	-58.866	-0.174	-0.076
-542.252	390.910	0.054	0.113
-541.237	410.829	0.052	0.112
-540.223	476.305	-0.082	0.189
-539.208	-120.212	-0.079	0.014
-538.193	97.457	-0.070	-0.081
-537.179	800.000	-0.072	0.276
-536.164	-200.000	-0.015	0.116
-535.150	-116.121	0.178	0.034
-534.135	348.111	-0.100	-0.200
-533.121	713.047	0.031	-0.084
-532.106	165.798	0.179	0.256
-531.091	34.925	0.059	0.052
-530.077	-64.130	0.044	-0.018
-529.062	-200.000	-0.007	0.034
-528.048	75.677	-0.149	0.160
-527.033	-38.439	-0.067	0.036
-526.018	-200.000	-0.002	0.032
-525.004	313.658	0.105	0.199
-523.989	186.853	0.202	0.305
-522.975	-33.002	0.144	0.081
-521.960	-200.000	-0.032	0.222
-520.945	156.509	0.150	0.209
-519.931	-200.000	-0.256	0.000
-518.916	15.521	0.256	-0.204
-517.902	-34.681	0.092	0.051
-516.887	44.960	-0.092	0.086
-515.872	-139.344	-0.214	-0.023
-514.858	-44.988	0.235	0.118
-513.843	-200.000	-0.092	0.510
-512.829	-179.410	-0.122	-0.003
-511.814	416.750	0.045	-0.098
-510.799	800.000	0.066	-0.257
-509.785	-19.519	-0.050	0.032
-508.770	-200.000	-0.041	-0.206
-507.756	800.000	0.067	-0.246
-506.741	-91.215	-0.255	-0.074
-505.726	119.999	0.093	0.117
-504.712	14.060	0.221	0.174
-503.697	-115.324	0.203	-0.039
-502.683	-200.000	0.015	-0.127
-501.668	302.726	0.202	-0.379
-500.653	800.000	0.083	-0.242
-499.639	697.128	-0.089	-0.238
-498.624	-119.389	-0.260	0.046
-497.610	-49.096	0.282	0.137
-496.595	106.359	-0.167	-0.200
-495.581	142.104	0.074	-0.099
-494.566	406.048	0.048	0.103
-493.551	-200.000	0.011	-0.138
-492.537	-200.000	-0.227	0.000
-491.522	70.401	0.078	0.082
-490.508	-10.396	-0.175	-0.117
-489.493	687.919	0.055	-0.146
-488.478	-200.000	-0.005	-0.130
-487.464	136.109	0.034	-0.045
-486.449	-29.906	0.337	-0.194
-485.435	172.869	0.148	-0.215
-484.420	226.052	0.140	-0.229
-483.405	184.052	0.172	0.257
-482.391	-30.364	-0.364	-0.209
-481.376	-17.551	-0.379	-0.241
-480.362	114.683	-0.067	-0.083
-479.347	-75.660	0.130	-0.047
-478.332	173.309	-0.173	0.252
-477.318	800.000	0.014	0.062
-476.303	7.551	-0.369	0.279
-475.289	-70.755	0.144	0.055
-474.274	-200.000	0.097	-0.587
-473.259	294.995	-0.210	-0.388
-472.245	-200.000	-0.034	-0.243
-471.230	-1.313	-0.122	0.087
-470.216	-75.124	0.212	-0.076
-469.201	-152.844	-0.255	-0.018
-468.186	163.931	-0.153	-0.218
-467.172	-94.547	0.057	0.016
-466.157	-68.375	-0.175	0.069
-465.143	518.808	-0.034	-0.080
-464.128	248.537	0.155	-0.264
-463.113	-7.215	0.226	0.155
-462.099	-200.000	0.029	0.171
-461.084	-83.728	0.142	-0.046
-460.070	-24.448	-0.263	-0.158
-459.055	-45.611	0.171	0.086
-458.040	-125.816	0.361	-0.055
-457.026	-73.816	-0.207	0.076
-456.011	255.460	0.163	0.282
-454.997	800.000	0.122	-0.347
-453.982	-9.834	-0.128	-0.086
-452.968	-186.607	0.152	0.002
-451.953	-92.413	-0.063	-0.018
-450.938	87.387	0.035	0.040
-449.924	-165.583	0.148	0.006
-448.909	-50.277	0.165	0.079
-447.895	-60.035	-0.129	0.056
-446.880	2.540	-0.206	-0.150
-445.865	292.310	0.114	-0.210
-444.851	59.479	0.128	-0.127
-443.836	-151.934	0.109	-0.008
-442.822	-200.000	-0.045	0.212
-441.807	-65.679	-0.235	-0.095
-440.792	14.953	-0.197	0.156
-439.778	-91.403	-0.156	0.045
-438.763	-48.621	0.248	-0.120
-437.749	274.810	-0.034	0.060
-436.734	-200.000	-0.080	-0.374
-435.719	-200.000	-0.009	-0.116
-434.705	199.660	-0.144	-0.223
-433.690	515.177	0.123	0.290
-432.676	-75.546	-0.218	0.078
-431.661	-200.000	-0.027	-0.125
-430.646	-68.511	-0.108	0.042
-429.632	-59.510	0.200	0.087
-428.617	-17.611	0.253	0.160
-427.603	243.627	0.199	-0.337
-426.588	166.914	0.156	0.223
-425.573	-79.476	-0.105	0.036
-424.559	414.610	0.037	-0.079
-423.544	-27.060	0.077	0.046
-422.530	16.323	-0.124	-0.099
-421.515	-61.721	-0.115	0.048
-420.500	-73.856	0.075	0.028
-419.486	21.021	-0.109	0.089
-418.471	98.424	-0.142	0.165
-417.457	-200.000	-0.023	0.177
-416.442	-56.030	0.081	-0.036
-415.428	-21.958	-0.125	0.077
-414.413	-99.193	0.326	0.083
-413.398	-160.523	-0.131	0.007
-412.384	439.484	-0.061	0.134
-411.369	49.403	0.232	-0.220
-410.355	-32.503	-0.168	-0.095
-409.340	-200.000	-0.006	0.223
-408.325	-200.000	0.009	0.110
-407.311	27.675	0.138	0.117
-406.296	-117.531	-0.359	-0.065
-405.282	-200.000	0.006	-0.205
-404.267	-200.000	0.007	-0.087
-403.252	-119.963	0.237	0.041
-402.238	-140.756	0.216	-0.022
-401.223	-127.766	0.115	-0.017
-400.209	800.000	-0.035	-0.120
-399.194	446.520	-0.087	0.192
-398.179	-193.291	0.023	-0.000
-397.165	-200.000	0.002	0.023
-396.150	69.863	-0.188	0.195
-395.136	54.774	-0.104	-0.101
-394.121	-200.000	0.537	0.002
-393.106	159.717	-0.076	-0.106
-392.092	800.000	0.020	-0.072
-391.077	-87.346	-0.071	-0.022
-390.063	-98.125	-0.188	0.049
-389.048	220.170	-0.129	-0.208
-388.033	533.172	-0.058	-0.138
-387.019	-200.000	-0.066	-0.459
-386.004	-68.467	0.117	-0.046
-384.990	21.259	-0.179	-0.146
-383.975	148.520	-0.173	-0.236
-382.960	-35.783	0.191	0.104
-381.946	-187.067	-0.189	0.003
-380.931	497.294	-0.148	0.342
-379.917	93.825	-0.181	-0.206
-378.902	-200.000	-0.066	-0.366
-377.888	-167.814	-0.133	0.005
-376.873	-66.484	-0.144	0.057
-375.858	-198.803	-0.541	-0.003
-374.844	198.106	-0.198	-0.304
-373.829	18.206	-0.164	-0.132
-372.815	-64.028	0.199	-0.082
-371.800	315.784	-0.084	-0.159
-370.785	114.046	-0.083	0.102
-369.771	306.555	-0.168	-0.314
-368.756	-200.000	0.016	0.298
-367.742	-51.031	0.411	-0.194
-366.727	26.970	-0.214	0.180
-365.712	800.000	0.077	0.315
-364.698	-95.822	-0.170	-0.046
-363.683	-108.186	-0.181	-0.039
-362.669	-13.083	0.280	-0.183
-361.654	-20.589	0.295	0.182
-360.639	-60.121	0.277	0.119
-359.625	-150.533	0.083	-0.006
-358.610	-40.227	-0.184	0.096
-357.596	800.000	0.034	0.131
-356.581	89.719	-0.116	0.130
-355.566	-130.106	-0.151	0.021
-354.552	800.000	0.096	-0.280
-353.537	800.000	-0.098	-0.374
-352.523	194.686	-0.080	-0.122
-351.508	545.208	0.030	-0.073
-350.493	86.073	-0.169	-0.187
-349.479	800.000	0.060	-0.180
-348.464	295.463	-0.129	0.237
-347.450	239.021	-0.060	0.100
-346.435	-14.900	-0.209	0.135
-345.420	11.442	0.290	-0.223
-344.406	128.153	-0.120	0.154
-343.391	-178.949	0.276	-0.006
-342.377	792.932	-0.075	-0.207
-341.362	182.573	0.051	0.075
-340.348	800.000	0.063	-0.184
-339.333	-200.000	-0.001	-0.153
-338.318	-103.687	-0.342	-0.080
-337.304	54.151	0.130	0.126
-336.289	376.284	0.103	0.212
-335.275	77.724	0.050	-0.053
-334.260	-26.839	-0.204	0.120
-333.245	-109.632	0.387	0.082
-332.231	566.376	0.139	0.338
-331.216	72.060	-0.149	-0.156
-330.202	800.000	0.148	0.411
-329.187	-200.000	0.035	0.189
-328.172	456.141	-0.092	0.204
-327.158	249.735	0.043	-0.073
-326.143	-200.000	-0.017	0.086
-325.129	52.122	-0.055	-0.053
-324.114	23.969	0.211	0.175
-323.099	-200.000	0.062	0.460
-322.085	-81.117	-0.260	-0.086
-321.070	221.262	0.098	-0.159
-320.056	-16.928	0.188	-0.119
-319.041	-144.751	-0.211	-0.019
-318.026	-200.000	0.027	0.310
-317.012	-136.925	-0.275	0.032
-315.997	-45.563	-0.091	-0.045
-314.983	199.593	-0.096	0.148
-313.968	93.189	-0.218	-0.247
-312.953	-200.000	0.018	0.091
-311.939	-158.628	0.157	-0.009
-310.924	-102.589	0.277	0.066
-309.910	64.976	0.219	0.222
-308.895	121.022	0.058	-0.072
-307.880	370.468	0.096	0.196
-306.866	-200.000	-0.021	-0.172
-305.851	800.000	-0.045	-0.136
-304.837	-200.000	-0.009	0.118
-303.822	-92.371	-0.259	0.073
-302.807	1.559	0.127	-0.092
-301.793	161.226	-0.154	-0.216
-300.778	149.098	-0.026	0.035
-299.764	37.808	-0.287	0.256
-298.749	800.000	0.108	0.305
-297.735	800.000	-0.005	-0.020
-296.720	-55.711	0.034	0.015
-295.705	298.417	-0.044	0.082
-294.691	800.000	0.093	-0.266
-293.676	8.901	-0.139	0.105
-292.662	-54.652	0.094	-0.043
-291.647	-57.381	-0.222	0.098
-290.632	-4.023	0.256	0.178
-289.618	-80.321	-0.222	-0.075
-288.603	-114.445	-0.381	-0.074
-287.589	-80.452	-0.141	-0.047
-286.574	-200.000	0.007	0.261
-285.559	-167.931	0.321	-0.013
-284.545	16.293	-0.221	0.175
-283.530	800.000	0.073	0.316
-282.516	-200.000	-0.002	0.628
-281.501	271.468	0.091	0.161
-280.486	282.058	-0.064	-0.115
-279.472	-107.087	0.268	0.059
-278.457	-78.254	-0.683	0.235
-277.443	-14.031	-0.212	0.137
-276.428	-96.168	0.112	-0.030
-275.413	800.000	-0.044	-0.151
-274.399	169.011	-0.021	-0.031
-273.384	-26.914	0.161	-0.095
-272.370	-124.788	-0.175	-0.027
-271.355	740.323	0.049	-0.133
-270.340	-200.000	0.002	0.182
-269.326	-180.745	-0.198	-0.004
-268.311	-60.503	-0.072	0.031
-267.297	-200.000	0.001	-0.059
-266.282	49.526	0.321	0.302
-265.267	113.976	-0.069	0.084
-264.253	-69.503	0.164	0.063
-263.238	-110.321	0.106	-0.022
-262.224	51.934	0.084	0.081
-261.209	-200.000	-0.009	0.056
-260.195	8.976	0.119	-0.090
-259.180	16.682	0.227	-0.180
-258.165	145.425	0.072	-0.096
-257.151	-13.465	-0.113	-0.073
-256.136	-200.000	0.038	-0.345
-255.122	-118.575	-0.109	0.019
-254.107	-19.494	0.101	-0.063
-253.092	205.983	-0.117	-0.182
-252.078	-200.000	0.000	-0.089
-251.063	-200.000	0.020	0.108
-250.049	-20.393	-0.044	-0.027
-249.034	-46.553	0.141	0.069
-248.019	50.391	0.357	-0.338
-247.005	-121.420	-0.129	0.022
-245.990	800.000	0.036	-0.105
-244.976	66.224	0.085	0.086
-243.961	-67.450	0.238	-0.094
-242.946	800.000	0.086	0.346
-241.932	-123.252	-0.225	0.036
-240.917	-19.104	-0.080	0.050
-239.903	434.515	-0.072	-0.157
-238.888	166.991	0.334	0.474
-237.873	101.417	-0.077	0.090
-236.859	94.670	0.145	-0.165
-235.844	24.692	-0.082	-0.068
-234.830	-53.075	0.129	0.060
-233.815	604.142	-0.092	-0.230
-232.800	-114.322	-0.143	0.028
-231.786	-58.223	0.215	-0.094
-230.771	298.083	0.187	-0.343
-229.757	308.988	0.050	0.093
-228.742	135.667	0.281	0.366
-227.727	-170.824	0.033	0.001
-226.713	-200.000	0.020	-0.216
-225.698	-200.000	-0.005	-0.080
-224.684	358.077	-0.170	-0.340
-223.669	-200.000	-0.058	-0.377
-222.655	-124.288	0.549	-0.086
-221.640	25.822	0.169	0.141
-220.625	-165.457	-0.243	0.011
-219.611	-196.136	0.162	0.001
-218.596	44.954	-0.119	0.110
-217.582	-200.000	0.016	-0.109
-216.567	-140.146	0.110	-0.012
-215.552	-200.000	-0.028	-0.258
-214.538	100.762	-0.033	0.038
-213.523	-190.542	-0.362	-0.004
-212.509	72.087	-0.140	0.145
-211.494	-200.000	-0.038	0.313
-210.479	800.000	0.072	0.235
-209.465	115.787	-0.014	-0.017
-208.450	734.802	-0.111	-0.298
-207.436	-29.352	-0.140	0.080
-206.421	-41.116	0.198	-0.102
-205.406	661.218	0.096	-0.248
-204.392	800.000	0.034	-0.096
-203.377	-85.435	-0.137	0.043
-202.363	-128.378	0.202	-0.029
-201.348	40.375	0.117	-0.106
-200.333	133.788	0.134	-0.173
-199.319	-93.037	-0.376	0.105
-198.304	-27.287	0.163	-0.095
-197.290	11.435	-0.092	0.071
-196.275	27.475	-0.225	0.189
-195.260	-72.659	0.101	0.037
-194.246	-29.777	-0.154	0.088
-193.231	28.570	-0.050	-0.042
-192.217	-101.693	0.344	-0.083
-191.202	216.704	0.126	-0.201
-190.187	-179.853	-0.260	0.006
-189.173	212.510	-0.132	0.208
-188.158	202.689	-0.066	-0.102
-187.144	-51.331	-0.245	-0.115
-186.129	39.594	0.220	-0.197
-185.114	-29.195	0.166	-0.095
-184.100	-66.083	0.197	0.078
-183.085	-200.000	0.023	0.160
-182.071	-173.705	0.305	-0.009
-181.056	-200.000	0.051	0.246
-180.042	-200.000	-0.036	0.364
-179.027	26.742	0.359	-0.300
-178.012	137.853	-0.144	-0.188
-176.998	167.821	-0.144	0.204
-175.983	-64.585	0.079	-0.032
-174.969	-22.296	-0.077	-0.047
-173.954	-200.000	0.000	0.212
-172.939	-200.000	0.002	0.213
-171.925	-200.000	-0.064	0.284
-170.910	9.307	0.039	0.029
-169.896	-57.540	0.253	-0.111
-168.881	-177.149	0.135	0.003
-167.866	-94.294	-0.210	-0.057
-166.852	-111.819	-0.309	0.062
-165.837	-81.515	-0.200	-0.066
-164.823	-119.860	-0.056	0.010
-163.808	44.567	0.451	0.414
-162.793	209.144	0.127	-0.198
-161.779	-200.000	0.049	-0.328
-160.764	-200.000	0.026	-0.214
-159.750	-200.000	-0.013	0.275
-158.735	592.234	-0.184	0.453
-157.720	-22.848	-0.086	0.052
-156.706	-175.855	0.148	0.004
-155.691	-139.025	0.341	-0.037
-154.677	69.148	0.157	-0.161
-153.662	-121.261	0.258	0.043
-152.647	800.000	0.050	0.199
-151.633	18.812	0.112	0.090
-150.618	327.905	0.132	-0.254
-149.604	-121.840	-0.103	0.017
-148.589	-96.817	-0.270	0.071
-147.574	1.598	-0.163	-0.117
-146.560	-200.000	0.030	0.222
-145.545	-55.094	0.212	0.095
-144.531	-160.360	-0.128	-0.007
-143.516	28.005	-0.099	-0.083
-142.502	-138.942	0.367	0.040
-141.487	800.000	-0.127	0.481
-140.472	209.953	-0.156	-0.243
-139.458	-200.000	0.005	0.206
-138.443	54.163	0.217	-0.209
-137.429	800.000	-0.116	-0.433
-136.414	149.892	0.268	-0.363
-135.399	-85.476	-0.096	-0.030
-134.385	-23.518	-0.251	-0.150
-133.370	-103.095	0.275	0.065
-132.356	115.753	-0.140	-0.171
-131.341	-54.451	0.104	-0.047
-130.326	-119.764	-0.140	-0.024
-129.312	35.546	-0.139	0.122
-128.297	380.023	-0.057	-0.117
-127.283	38.826	-0.227	0.202
-126.268	-39.210	0.144	-0.075
-125.253	-130.536	-0.059	0.008
-124.239	-200.000	-0.000	-0.440
-123.224	697.464	0.178	-0.466
-122.210	-78.329	-0.368	0.126
-121.195	-200.000	-0.018	0.201
