DTS Sentinel unit serial number:	SN413079Multiplexer serial number:	ORYXHardware model number:	OX4-SRSoftware version number:	ORYX F/W v4.00 Oryx Data Collector v3.7.2.0data status	okinstallation	princeton_trtdifferential loss correction	single-endedforward channel	channel 2reverse channel	N/Adate	2019/09/15time	01:19:35forward acquisition time	60.00reverse acquisition time	0.00gamma	496.2192k internal	0.2325k external	0.2325temperature offset calibration	1.0035default loss term (dB/km)	0.3790temperature slope calibration	1.0000multiplexer offset coefficient	1.0000multiplexer slope coefficient	1.0000fibre end	0.00T internal ref (°C)	31.94T ext. ref 1 (°C)	4.52T ext. ref 2 (°C)	26.85length (m)	temperature (°C)	Stokes	anti-Stokes-747.200	-54.038	-0.383	-0.176
-746.185	114.347	-0.091	0.112
-745.171	-153.985	0.047	-0.003
-744.156	44.086	0.261	0.241
-743.142	215.837	0.136	0.218
-742.127	-106.806	0.010	0.002
-741.112	-140.517	-0.230	0.024
-740.098	-200.000	-0.026	0.414
-739.083	-133.255	-0.365	-0.047
-738.069	115.100	-0.196	0.242
-737.054	-200.000	-0.020	0.159
-736.039	800.000	0.012	0.045
-735.025	-31.877	0.187	0.106
-734.010	127.008	0.040	-0.052
-732.996	-112.524	-0.439	-0.088
-731.981	-91.526	0.129	0.037
-730.966	-91.376	-0.198	-0.057
-729.952	485.302	0.132	-0.302
-728.937	-83.957	-0.122	0.039
-727.923	-137.691	-0.190	-0.022
-726.908	25.340	-0.278	-0.233
-725.894	-200.000	-0.023	-0.103
-724.879	-158.842	-0.393	0.023
-723.864	-200.000	0.006	-0.055
-722.850	79.662	-0.052	-0.056
-721.835	457.484	-0.129	0.290
-720.821	285.280	0.072	-0.131
-719.806	21.445	-0.092	0.075
-718.791	-76.885	-0.078	-0.027
-717.777	-128.870	-0.129	-0.018
-716.762	800.000	-0.046	-0.159
-715.748	-37.824	0.298	0.160
-714.733	800.000	-0.054	-0.187
-713.718	-125.751	0.166	0.025
-712.704	525.934	0.093	0.222
-711.689	-102.906	-0.402	0.096
-710.675	91.262	0.244	-0.277
-709.660	322.053	-0.077	0.148
-708.645	-101.328	0.175	-0.043
-707.631	-91.443	-0.037	-0.011
-706.616	193.883	-0.189	-0.288
-705.602	800.000	-0.058	-0.213
-704.587	102.397	-0.068	-0.080
-703.572	177.257	-0.066	-0.097
-702.558	56.829	0.195	0.192
-701.543	633.791	0.051	-0.130
-700.529	-200.000	0.004	-0.036
-699.514	106.884	0.053	0.064
-698.499	17.277	-0.309	-0.247
-697.485	800.000	-0.088	0.311
-696.470	338.391	-0.092	0.180
-695.456	800.000	0.084	0.308
-694.441	752.748	0.084	0.228
-693.426	19.086	-0.115	0.093
-692.412	-200.000	0.014	0.096
-691.397	-93.104	-0.076	0.021
-690.383	-200.000	-0.046	0.267
-689.368	-132.884	-0.293	0.038
-688.354	291.069	0.092	-0.168
-687.339	71.264	-0.157	0.164
-686.324	-200.000	0.015	0.080
-685.310	-172.213	0.130	-0.004
-684.295	800.000	-0.059	-0.254
-683.281	-200.000	0.061	-0.459
-682.266	-24.098	-0.315	-0.189
-681.251	-153.867	0.127	0.009
-680.237	-104.008	0.110	0.026
-679.222	465.540	-0.063	0.142
-678.208	86.834	-0.375	0.417
-677.193	-102.402	-0.145	-0.035
-676.178	94.296	-0.193	0.220
-675.164	550.196	0.110	0.265
-674.149	481.902	0.124	0.284
-673.135	29.310	0.194	0.165
-672.120	-200.000	0.002	0.119
-671.105	-200.000	-0.054	0.249
-670.091	41.958	-0.135	0.124
-669.076	-200.000	-0.016	-0.222
-668.062	800.000	-0.079	0.249
-667.047	-115.536	-0.231	0.044
-666.032	-200.000	0.022	0.167
-665.018	-160.616	0.207	0.011
-664.003	290.230	-0.161	0.295
-662.989	-95.329	-0.242	0.066
-661.974	800.000	-0.027	0.101
-660.959	-200.000	0.008	-0.090
-659.945	-58.840	-0.361	0.157
-658.930	-103.816	-0.122	0.029
-657.916	-168.477	-0.310	0.012
-656.901	-150.378	0.073	-0.006
-655.886	30.110	-0.139	0.120
-654.872	10.911	-0.148	0.113
-653.857	-40.608	-0.029	-0.015
-652.843	-200.000	0.018	0.242
-651.828	180.542	0.118	0.174
-650.814	-9.385	-0.284	0.191
-649.799	396.450	0.105	0.220
-648.784	-106.990	0.126	-0.028
-647.770	4.587	-0.169	-0.125
-646.755	-48.933	-0.272	0.131
-645.741	-163.189	0.149	-0.007
-644.726	26.692	0.145	-0.122
-643.711	-32.830	0.282	-0.158
-642.697	63.774	-0.130	-0.132
-641.682	-88.125	0.221	-0.067
-640.668	800.000	0.086	-0.260
-639.653	161.548	-0.209	0.294
-638.638	-99.667	0.225	0.057
-637.624	-94.273	0.164	-0.045
-636.609	0.188	-0.155	-0.111
-635.595	-48.695	0.174	-0.084
-634.580	92.681	-0.049	0.055
-633.565	-25.515	-0.320	0.190
-632.551	-4.991	0.189	-0.131
-631.536	-34.422	0.113	0.062
-630.522	-62.186	-0.302	0.126
-629.507	-200.000	-0.024	-0.305
-628.492	-21.958	-0.081	0.049
-627.478	-126.783	0.152	0.023
-626.463	123.790	0.194	0.244
-625.449	800.000	-0.036	0.160
-624.434	518.836	-0.094	0.221
-623.419	378.558	0.148	0.305
-622.405	-155.968	-0.120	0.008
-621.390	147.915	0.087	-0.118
-620.376	148.026	-0.119	-0.161
-619.361	174.878	-0.066	0.095
-618.346	591.208	-0.084	0.209
-617.332	112.436	0.096	-0.116
-616.317	700.220	0.043	0.114
-615.303	-98.181	0.118	-0.030
-614.288	800.000	-0.044	-0.183
-613.273	-80.914	-0.207	0.069
-612.259	-137.068	0.206	0.024
-611.244	245.906	0.101	0.171
-610.230	-200.000	0.017	-0.448
-609.215	-71.571	-0.286	0.107
-608.201	624.086	0.070	-0.177
-607.186	-55.027	0.167	-0.075
-606.171	-77.981	0.101	0.035
-605.157	-200.000	-0.004	-0.143
-604.142	800.000	0.128	-0.359
-603.128	248.130	-0.125	0.212
-602.113	-50.984	-0.116	0.055
-601.098	-7.493	-0.264	-0.179
-600.084	-58.108	0.482	-0.211
-599.069	-80.726	0.229	0.076
-598.055	-200.000	-0.028	-0.188
-597.040	800.000	-0.066	-0.204
-596.025	561.806	-0.064	-0.156
-595.011	167.115	0.116	0.165
-593.996	800.000	0.084	-0.275
-592.982	-104.820	-0.303	-0.070
-591.967	-94.037	0.306	0.084
-590.952	-51.111	0.242	-0.114
-589.938	-200.000	-0.029	0.195
-588.923	-43.102	-0.360	-0.183
-587.909	800.000	0.026	-0.074
-586.894	800.000	0.092	-0.292
-585.879	-64.247	0.078	-0.032
-584.865	-71.260	-0.054	-0.020
-583.850	63.456	-0.186	-0.187
-582.836	800.000	0.027	0.118
-581.821	19.487	-0.161	0.129
-580.806	-29.022	0.148	-0.085
-579.792	299.690	0.065	0.120
-578.777	-200.000	0.167	0.000
-577.763	118.383	0.072	-0.089
-576.748	31.357	-0.275	0.237
-575.733	800.000	0.025	-0.104
-574.719	2.981	-0.073	-0.053
-573.704	800.000	0.048	-0.206
-572.690	-200.000	0.053	-0.234
-571.675	-200.000	-0.068	0.298
-570.661	800.000	0.040	-0.159
-569.646	800.000	0.058	-0.211
-568.631	-142.355	0.161	0.016
-567.617	544.649	0.117	-0.280
-566.602	93.245	0.101	-0.114
-565.588	800.000	0.049	0.175
-564.573	57.520	0.279	-0.273
-563.558	-96.476	-0.297	-0.078
-562.544	51.842	-0.075	0.072
-561.529	361.714	0.075	-0.151
-560.515	-99.598	0.082	-0.021
-559.500	-200.000	0.017	0.332
-558.485	206.461	0.037	-0.058
-557.471	-200.000	-0.009	-0.094
-556.456	304.167	0.235	-0.436
-555.442	386.284	0.113	-0.233
-554.427	-200.000	0.042	-0.190
-553.412	-69.033	-0.230	-0.089
-552.398	-78.139	-0.085	0.029
-551.383	-9.829	-0.159	0.106
-550.369	185.734	0.041	0.061
-549.354	-4.698	0.194	0.134
-548.339	-200.000	0.008	-0.144
-547.325	-200.000	0.003	-0.145
-546.310	166.748	-0.225	0.320
-545.296	-200.000	-0.032	-0.422
-544.281	437.552	-0.232	-0.507
-543.266	40.920	-0.261	-0.236
-542.252	-200.000	-0.000	-0.179
-541.237	800.000	-0.103	-0.404
-540.223	683.662	0.069	0.181
-539.208	169.629	-0.109	-0.156
-538.193	1.693	-0.154	-0.111
-537.179	336.086	-0.092	0.178
-536.164	151.757	-0.277	-0.378
-535.150	-147.512	-0.100	0.008
-534.135	15.966	-0.222	0.175
-533.121	-177.840	0.181	-0.004
-532.106	136.253	-0.178	-0.233
-531.091	800.000	0.016	0.068
-530.077	48.755	0.161	0.151
-529.062	800.000	-0.009	0.037
-528.048	-200.000	-0.013	-0.294
-527.033	531.533	0.025	-0.059
-526.018	-31.761	-0.136	-0.076
-525.004	-60.603	0.225	0.095
-523.989	-187.095	-0.241	0.003
-522.975	46.312	-0.160	-0.148
-521.960	256.161	-0.120	0.205
-520.945	177.556	-0.050	0.073
-519.931	-1.167	0.072	-0.051
-518.916	-200.000	0.036	-0.274
-517.902	41.858	-0.184	-0.167
-516.887	64.317	-0.032	-0.033
-515.872	-200.000	-0.011	0.073
-514.858	800.000	-0.017	-0.052
-513.843	169.393	0.043	0.061
-512.829	142.268	-0.187	-0.248
-511.814	563.681	-0.093	0.226
-510.799	771.018	-0.041	-0.111
-509.785	800.000	0.028	-0.106
-508.770	-130.268	-0.530	0.072
-507.756	-62.715	0.201	0.083
-506.741	-200.000	0.041	0.262
-505.726	-136.015	0.134	0.016
-504.712	-66.964	-0.088	0.035
-503.697	-173.990	0.239	0.007
-502.683	361.456	-0.072	-0.144
-501.668	-71.879	-0.078	0.029
-500.653	572.955	-0.080	-0.195
-499.639	29.030	0.211	0.179
-498.624	800.000	0.080	-0.320
-497.610	526.597	0.068	-0.161
-496.595	-200.000	0.056	-0.371
-495.581	29.378	0.165	0.140
-494.566	327.199	0.105	0.202
-493.551	356.118	-0.081	0.160
-492.537	101.817	-0.124	-0.145
-491.522	-200.000	0.012	-0.130
-490.508	-200.000	-0.004	0.048
-489.493	-200.000	-0.001	0.054
-488.478	-200.000	0.006	-0.078
-487.464	-53.247	0.104	0.048
-486.449	-200.000	-0.027	0.154
-485.435	117.394	0.315	-0.386
-484.420	-200.000	0.001	-0.169
-483.405	43.232	0.208	-0.190
-482.391	187.917	0.058	-0.086
-481.376	88.559	0.138	0.153
-480.362	-32.505	0.332	0.185
-479.347	-158.966	0.249	0.014
-478.332	302.403	-0.060	-0.112
-477.318	-79.013	0.213	0.072
-476.303	-200.000	-0.031	-0.364
-475.289	-151.621	0.422	-0.031
-474.274	495.462	-0.040	-0.092
-473.259	-200.000	0.003	0.077
-472.245	-85.709	0.209	0.065
-471.230	30.183	-0.262	-0.223
-470.216	183.880	-0.108	-0.160
-469.201	66.400	-0.039	-0.039
-468.186	-99.145	-0.308	0.078
-467.172	308.750	0.117	0.218
-466.157	-35.472	-0.103	-0.056
-465.143	-2.215	-0.209	0.147
-464.128	-200.000	-0.025	-0.169
-463.113	-187.425	-0.240	-0.003
-462.099	-153.133	0.171	0.012
-461.084	295.576	0.228	-0.417
-460.070	800.000	-0.125	0.373
-459.055	-200.000	0.019	0.113
-458.040	-200.000	-0.010	0.249
-457.026	-179.166	0.249	0.006
-456.011	-27.768	-0.205	-0.119
-454.997	24.302	-0.113	-0.093
-453.982	-136.870	-0.150	0.017
-452.968	10.952	-0.090	0.069
-451.953	120.017	-0.118	-0.146
-450.938	-108.138	-0.080	-0.017
-449.924	11.318	0.124	-0.095
-448.909	-83.895	0.201	-0.064
-447.895	-54.389	-0.445	-0.201
-446.880	-200.000	0.044	0.237
-445.865	-113.687	0.115	-0.022
-444.851	-19.394	-0.323	-0.200
-443.836	25.753	0.078	0.064
-442.822	61.756	0.122	0.121
-441.807	-59.072	-0.199	0.086
-440.792	-19.271	-0.107	0.066
-439.778	133.517	-0.085	-0.109
-438.763	-52.803	-0.375	-0.172
-437.749	15.849	0.126	0.099
-436.734	-200.000	-0.333	0.002
-435.719	-115.469	0.223	-0.042
-434.705	774.179	-0.189	0.513
-433.690	607.015	-0.150	0.372
-432.676	-4.574	-0.102	-0.071
-431.661	-108.841	0.169	-0.036
-430.646	-200.000	0.017	0.188
-429.632	-109.816	-0.166	0.035
-428.617	800.000	0.059	0.195
-427.603	-200.000	0.011	-0.079
-426.588	-200.000	0.000	-0.076
-425.573	-8.963	0.199	-0.133
-424.559	628.507	0.056	-0.141
-423.544	45.566	0.322	-0.296
-422.530	-178.359	-0.170	-0.004
-421.515	43.909	0.123	-0.112
-420.500	-76.606	0.167	0.058
-419.486	58.521	0.121	-0.118
-418.471	-75.210	-0.371	0.132
-417.457	800.000	-0.028	-0.097
-416.442	274.369	-0.116	-0.204
-415.428	-10.637	0.079	-0.052
-414.413	-97.298	0.101	-0.026
-413.398	-200.000	-0.005	0.095
-412.384	181.980	-0.135	0.198
-411.369	-123.021	0.063	-0.010
-410.355	-200.000	0.022	-0.145
-409.340	-77.217	-0.237	-0.082
-408.325	367.049	-0.056	-0.112
-407.311	60.592	-0.165	0.162
-406.296	545.566	-0.103	0.246
-405.282	9.838	-0.207	-0.156
-404.267	800.000	-0.146	0.409
-403.252	83.441	0.136	-0.148
-402.238	800.000	0.131	-0.439
-401.223	-118.850	-0.476	0.083
-400.209	-200.000	-0.069	0.352
-399.194	-126.064	-0.122	-0.018
-398.179	77.297	0.062	-0.066
-397.165	-31.486	0.178	0.100
-396.150	252.990	-0.133	-0.226
-395.136	13.356	-0.114	0.088
-394.121	800.000	0.082	-0.232
-393.106	-200.000	-0.032	0.165
-392.092	-61.291	-0.036	-0.015
-391.077	744.951	0.052	-0.138
-390.063	-200.000	-0.014	-0.333
-389.048	-200.000	-0.028	-0.198
-388.033	-34.078	-0.103	-0.056
-387.019	232.762	-0.152	0.248
-386.004	224.291	-0.121	-0.194
-384.990	-46.641	0.279	0.136
-383.975	148.653	-0.042	-0.056
-382.960	800.000	0.026	0.106
-381.946	-200.000	-0.006	0.212
-380.931	-64.728	-0.162	-0.065
-379.917	-124.281	0.153	-0.024
-378.902	-90.350	0.047	0.013
-377.888	-117.745	-0.257	-0.046
-376.873	54.172	0.299	0.286
-375.858	-200.000	-0.029	0.247
-374.844	398.690	0.127	0.263
-373.829	-151.157	0.106	0.008
-372.815	800.000	-0.096	0.324
-371.800	139.515	-0.159	0.208
-370.785	417.769	-0.120	-0.255
-369.771	509.102	0.064	-0.148
-368.756	-102.142	-0.162	-0.039
-367.742	-200.000	0.020	0.167
-366.727	-57.002	-0.040	0.018
-365.712	-45.678	0.115	-0.056
-364.698	-21.352	-0.095	0.057
-363.683	-200.000	-0.013	-0.101
-362.669	-63.522	0.258	-0.105
-361.654	-138.006	-0.243	-0.027
-360.639	-28.561	0.340	0.195
-359.625	27.062	0.052	-0.044
-358.610	160.595	-0.090	-0.125
-357.596	5.839	-0.095	0.070
-356.581	-38.021	-0.173	-0.091
-355.566	-200.000	-0.179	-0.001
-354.552	761.708	0.128	0.346
-353.537	264.300	0.093	0.161
-352.523	724.338	0.055	0.146
-351.508	-200.000	0.049	0.395
-350.493	376.261	0.198	0.402
-349.479	640.206	0.039	0.099
-348.464	501.927	-0.182	0.417
-347.450	-200.000	-0.006	0.087
-346.435	484.128	0.050	0.112
-345.420	-24.708	-0.099	0.058
-344.406	322.478	0.118	0.223
-343.391	71.818	0.150	0.155
-342.377	56.251	0.189	0.182
-341.362	-200.000	0.001	0.044
-340.348	-99.671	-0.075	0.019
-339.333	800.000	-0.054	0.224
-338.318	-152.072	0.226	-0.016
-337.304	-84.667	-0.417	-0.130
-336.289	-79.422	-0.240	0.081
-335.275	-200.000	0.004	-0.023
-334.260	-81.414	0.300	0.098
-333.245	43.247	0.090	0.082
-332.231	420.847	-0.030	-0.064
-331.216	265.141	-0.126	-0.217
-330.202	-200.000	-0.003	-0.359
-329.187	31.967	0.241	-0.206
-328.172	-104.840	0.210	-0.048
-327.158	-34.658	0.121	-0.066
-326.143	-200.000	-0.014	0.082
-325.129	106.691	0.225	0.264
-324.114	233.750	0.122	0.199
-323.099	72.290	-0.103	-0.107
-322.085	63.512	-0.073	0.072
-321.070	-126.583	-0.284	-0.042
-320.056	768.437	-0.051	-0.139
-319.041	230.464	0.216	-0.351
-318.026	304.736	-0.038	-0.070
-317.012	324.323	0.161	0.305
-315.997	-27.472	-0.151	-0.087
-314.983	-70.560	-0.110	-0.041
-313.968	-200.000	-0.005	-0.162
-312.953	-161.811	-0.139	0.007
-311.939	-51.941	0.166	0.077
-310.924	-41.320	-0.293	-0.150
-309.910	292.431	-0.187	-0.338
-308.895	-144.481	0.166	-0.015
-307.880	280.615	0.141	0.250
-306.866	-126.097	-0.266	-0.040
-305.851	-54.557	-0.368	-0.165
-304.837	-53.821	-0.270	0.122
-303.822	78.935	0.027	0.029
-302.807	-68.835	-0.104	-0.040
-301.793	-179.958	-0.233	-0.005
-300.778	-136.301	-0.102	0.012
-299.764	165.781	-0.181	0.255
-298.749	-200.000	-0.004	-0.176
-297.735	-79.210	0.130	0.044
-296.720	-168.651	0.147	0.006
-295.705	2.469	-0.117	0.084
-294.691	-70.723	-0.029	0.011
-293.676	-86.307	0.137	0.042
-292.662	-163.135	-0.148	-0.007
-291.647	800.000	-0.066	0.233
-290.632	-128.553	0.093	0.013
-289.618	388.770	-0.034	-0.069
-288.603	87.987	-0.216	0.237
-287.589	-200.000	0.037	0.262
-286.574	-88.212	0.237	-0.070
-285.559	-13.773	0.102	-0.065
-284.545	-16.803	0.073	-0.046
-283.530	-53.585	0.156	0.071
-282.516	-54.165	-0.396	-0.178
-281.501	-14.370	-0.166	-0.106
-280.486	-106.637	-0.281	-0.062
-279.472	403.034	0.096	-0.200
-278.457	112.400	-0.158	-0.189
-277.443	100.038	0.069	0.080
-276.428	138.484	0.160	0.208
-275.413	800.000	0.056	0.171
-274.399	-66.307	-0.102	0.040
-273.384	325.090	-0.276	0.523
-272.370	794.649	-0.040	-0.108
-271.355	-198.985	-0.035	-0.000
-270.340	93.030	0.161	-0.180
-269.326	-16.446	-0.168	0.105
-268.311	148.473	-0.176	0.236
-267.297	412.805	0.040	-0.085
-266.282	800.000	0.021	-0.081
-265.267	13.402	0.385	-0.296
-264.253	341.813	-0.143	0.277
-263.238	43.613	-0.107	0.097
-262.224	-165.079	-0.116	0.005
-261.209	185.347	-0.093	-0.137
-260.195	-120.606	0.304	0.051
-259.180	-72.386	-0.090	-0.033
-258.165	-18.732	0.246	0.152
-257.151	164.199	-0.232	0.323
-256.136	-44.631	-0.262	0.130
-255.122	-61.119	0.159	0.067
-254.107	-86.221	0.189	0.058
-253.092	-75.267	-0.146	-0.052
-252.078	-123.655	0.314	0.049
-251.063	-120.644	-0.197	-0.033
-250.049	-13.390	0.295	0.189
-249.034	-200.000	-0.025	-0.160
-248.019	64.359	0.128	0.127
-247.005	-188.864	0.472	-0.006
-245.990	-200.000	-0.036	-0.335
-244.976	-161.782	-0.129	0.006
-243.961	-27.092	0.252	-0.146
-242.946	-28.113	0.133	0.076
-241.932	800.000	0.021	-0.084
-240.917	-55.317	0.382	-0.170
-239.903	142.248	0.203	0.267
-238.888	38.871	0.260	-0.230
-237.873	-26.078	0.144	-0.084
-236.859	-110.703	0.096	-0.020
-235.844	-63.445	0.302	-0.123
-234.830	213.493	0.190	0.297
-233.815	139.064	-0.055	0.072
-232.800	672.500	-0.097	0.248
-231.786	-19.680	-0.276	0.169
-230.771	-200.000	-0.006	0.078
-229.757	-200.000	0.038	0.171
-228.742	-16.792	0.155	0.097
-227.727	800.000	-0.094	-0.367
-226.713	-200.000	-0.027	-0.159
-225.698	-167.211	-0.249	0.010
-224.684	-0.289	0.246	0.173
-223.669	800.000	0.065	0.272
-222.655	-43.826	0.219	0.109
-221.640	-117.779	0.186	-0.033
-220.625	800.000	0.063	-0.209
-219.611	-200.000	0.022	-0.141
-218.596	-200.000	0.002	0.346
-217.582	-200.000	0.000	0.190
-216.567	130.006	0.071	0.090
-215.552	-185.632	0.205	-0.003
-214.538	-200.000	-0.044	0.252
-213.523	-200.000	0.013	-0.160
-212.509	-200.000	-0.018	-0.125
-211.494	241.886	-0.022	0.037
-210.479	79.980	0.225	0.239
-209.465	122.374	0.020	0.024
-208.450	-108.034	0.106	0.023
-207.436	539.120	0.039	0.092
-206.421	-64.470	0.091	-0.037
-205.406	-49.040	0.451	-0.213
-204.392	329.548	0.128	0.243
-203.377	800.000	0.017	0.061
-202.363	747.788	0.037	0.100
-201.348	-48.169	-0.388	-0.185
-200.333	309.318	-0.238	-0.439
-199.319	-200.000	0.030	-0.133
-198.304	-200.000	-0.018	0.201
-197.290	-200.000	0.012	-0.119
-196.275	23.469	0.082	-0.067
-195.260	-1.757	-0.097	-0.067
-194.246	-99.129	0.154	-0.039
-193.231	-200.000	-0.035	0.372
-192.217	-28.648	0.114	-0.065
-191.202	800.000	0.155	0.517
-190.187	-6.114	0.114	0.077
-189.173	62.958	-0.093	-0.092
-188.158	-200.000	-0.007	-0.188
-187.144	-133.705	0.133	-0.016
-186.129	388.932	-0.185	0.377
-185.114	-200.000	-0.022	0.226
-184.100	324.132	0.131	0.247
-183.085	-145.490	0.359	-0.032
-182.071	-119.941	-0.328	0.056
-181.056	-200.000	-0.011	0.073
-180.042	225.442	0.060	0.096
-179.027	-200.000	-0.026	0.118
-178.012	-33.307	0.282	0.154
-176.998	-55.194	-0.285	0.127
-175.983	-163.263	-0.366	0.017
-174.969	379.691	0.042	0.084
-173.954	50.726	-0.274	-0.256
-172.939	-200.000	0.019	-0.204
-171.925	-44.310	-0.083	0.041
-170.910	187.191	0.050	0.074
-169.896	-95.591	-0.079	-0.021
-168.881	31.807	-0.044	0.037
-167.866	441.374	-0.081	0.174
-166.852	335.785	0.207	0.397
-165.837	-200.000	0.043	-0.250
-164.823	-40.445	0.147	0.075
-163.808	1.926	-0.258	0.184
-162.793	-106.742	-0.009	0.002
-161.779	638.027	0.084	0.211
-160.764	-35.954	-0.214	-0.114
-159.750	127.231	-0.126	-0.158
-158.735	288.170	0.008	0.015
-157.720	-200.000	-0.014	0.354
-156.706	9.866	-0.304	0.227
-155.691	-139.260	-0.083	0.009
-154.677	4.966	0.301	-0.219
-153.662	38.297	0.156	0.137
-152.647	75.022	0.224	-0.232
-151.633	-200.000	0.012	-0.175
-150.618	-55.249	0.101	-0.045
-149.604	540.880	0.030	0.071
-148.589	-64.650	-0.160	0.064
-147.574	504.151	0.065	0.149
-146.560	-14.597	-0.067	-0.043
-145.545	258.723	-0.084	0.142
-144.531	-200.000	0.009	0.125
-143.516	-128.031	0.058	0.008
-142.502	800.000	-0.065	-0.278
-141.487	9.053	0.133	0.099
-140.472	-95.803	0.145	0.038
-139.458	-128.913	0.034	0.005
-138.443	104.751	-0.201	-0.233
-137.429	-66.504	-0.117	0.046
-136.414	-200.000	0.030	-0.229
-135.399	-48.264	0.239	0.114
-134.385	126.387	-0.225	0.280
-133.370	0.607	0.282	0.199
-132.356	76.758	-0.116	0.121
-131.341	90.943	0.108	-0.119
-130.326	-99.654	-0.426	0.105
-129.312	197.299	-0.124	0.186
-128.297	20.549	0.162	0.129
-127.283	-198.897	0.199	-0.001
-126.268	-109.668	-0.153	-0.032
-125.253	-43.225	-0.275	-0.137
-124.239	-23.298	0.063	0.037
-123.224	71.919	0.170	-0.174
-122.210	100.779	-0.063	-0.072
-121.195	-101.964	-0.192	-0.046
