DTS Sentinel unit serial number:	SN413079Multiplexer serial number:	ORYXHardware model number:	OX4-SRSoftware version number:	ORYX F/W v4.00 Oryx Data Collector v3.7.2.0data status	okinstallation	princeton_trtdifferential loss correction	single-endedforward channel	channel 2reverse channel	N/Adate	2019/09/17time	14:55:34forward acquisition time	60.00reverse acquisition time	0.00gamma	496.2192k internal	0.2310k external	0.2310temperature offset calibration	0.9984default loss term (dB/km)	0.3790temperature slope calibration	1.0000multiplexer offset coefficient	1.0000multiplexer slope coefficient	1.0000fibre end	0.00T internal ref (°C)	37.25T ext. ref 1 (°C)	0.39T ext. ref 2 (°C)	34.23length (m)	temperature (°C)	Stokes	anti-Stokes-747.200	-69.562	-0.147	-0.057
-746.185	-200.000	0.062	0.331
-745.171	-200.000	0.032	0.205
-744.156	322.849	0.174	0.336
-743.142	66.399	-0.233	0.240
-742.127	146.076	-0.114	0.156
-741.112	-14.535	0.142	0.093
-740.098	15.361	-0.246	0.196
-739.083	40.322	0.310	0.284
-738.069	-200.000	0.060	0.405
-737.054	-200.000	0.000	0.361
-736.039	-200.000	-0.015	0.112
-735.025	-200.000	-0.053	0.258
-734.010	434.479	-0.039	-0.085
-732.996	63.550	-0.212	-0.216
-731.981	61.817	-0.174	-0.176
-730.966	-40.812	-0.132	-0.069
-729.952	56.275	0.052	-0.051
-728.937	-200.000	0.007	0.239
-727.923	-200.000	-0.015	-0.156
-726.908	-118.823	-0.226	-0.040
-725.894	-200.000	0.017	0.375
-724.879	-172.880	-0.190	-0.006
-723.864	-11.038	-0.116	-0.078
-722.850	67.930	0.141	-0.147
-721.835	-200.000	0.038	-0.200
-720.821	-200.000	0.028	-0.222
-719.806	-119.788	0.215	0.038
-718.791	98.942	0.228	0.267
-717.777	-89.461	0.322	-0.096
-716.762	-113.042	-0.183	0.037
-715.748	88.613	-0.095	-0.107
-714.733	-200.000	0.009	0.121
-713.718	-109.238	-0.132	-0.028
-712.704	-78.222	-0.080	-0.028
-711.689	-48.400	0.200	0.098
-710.675	74.894	0.114	-0.121
-709.660	800.000	-0.096	-0.353
-708.645	-200.000	-0.039	-0.234
-707.631	-162.756	0.392	0.019
-706.616	-140.495	0.344	-0.036
-705.602	538.431	-0.086	-0.207
-704.587	-62.406	-0.195	0.082
-703.572	-200.000	0.026	0.193
-702.558	436.851	-0.089	-0.197
-701.543	800.000	-0.106	-0.452
-700.529	800.000	0.036	-0.135
-699.514	75.755	-0.110	-0.118
-698.499	289.495	0.042	0.078
-697.485	-50.317	0.184	0.088
-696.470	-94.111	-0.052	0.014
-695.456	-200.000	0.053	-0.264
-694.441	-53.530	0.082	0.038
-693.426	-38.427	-0.035	-0.019
-692.412	-73.883	-0.197	-0.073
-691.397	401.641	-0.029	0.061
-690.383	83.277	0.211	-0.233
-689.368	55.241	-0.074	0.073
-688.354	621.460	-0.030	0.077
-687.339	131.508	0.102	0.133
-686.324	278.890	-0.053	0.095
-685.310	119.936	0.175	-0.220
-684.295	-11.498	-0.061	0.041
-683.281	-84.940	-0.042	-0.013
-682.266	-200.000	-0.036	-0.264
-681.251	800.000	0.112	0.314
-680.237	-200.000	-0.023	-0.315
-679.222	-200.000	0.037	0.404
-678.208	-59.071	0.275	0.120
-677.193	33.841	-0.168	-0.148
-676.178	722.910	-0.143	-0.386
-675.164	379.396	0.036	0.075
-674.149	64.537	-0.335	0.342
-673.135	85.584	-0.262	0.291
-672.120	299.814	0.165	0.309
-671.105	-46.905	-0.192	-0.095
-670.091	-115.248	-0.332	0.064
-669.076	-200.000	0.067	0.299
-668.062	342.030	0.031	0.062
-667.047	800.000	0.090	-0.335
-666.032	137.706	-0.054	-0.071
-665.018	-116.808	-0.153	-0.028
-664.003	176.289	0.126	0.185
-662.989	-91.936	-0.450	0.129
-661.974	-102.930	0.222	-0.053
-660.959	-66.026	0.162	-0.066
-659.945	206.606	0.251	0.396
-658.930	800.000	-0.067	0.263
-657.916	165.880	-0.224	-0.321
-656.901	521.711	0.067	-0.159
-655.886	108.118	0.159	0.192
-654.872	-200.000	0.003	0.037
-653.857	800.000	0.102	0.292
-652.843	65.476	0.265	0.272
-651.828	-116.004	0.076	-0.014
-650.814	-7.652	0.241	-0.165
-649.799	26.686	-0.078	0.066
-648.784	169.179	-0.152	-0.220
-647.770	-88.336	-0.241	-0.073
-646.755	-122.526	-0.122	-0.020
-645.741	90.587	0.189	-0.214
-644.726	210.543	-0.112	-0.177
-643.711	-200.000	0.010	0.158
-642.697	800.000	0.041	0.159
-641.682	-101.429	0.072	0.018
-640.668	-25.054	-0.313	-0.188
-639.653	800.000	-0.029	-0.119
-638.638	800.000	-0.030	-0.091
-637.624	390.256	0.060	-0.127
-636.609	-71.832	-0.147	-0.055
-635.595	-86.771	0.063	0.019
-634.580	71.641	0.080	-0.084
-633.565	-18.431	0.056	0.036
-632.551	35.805	0.172	0.153
-631.536	347.106	0.130	-0.259
-630.522	800.000	0.116	0.332
-629.507	65.449	-0.159	-0.163
-628.492	281.602	0.101	-0.183
-627.478	-123.445	-0.406	-0.065
-626.463	-21.819	0.227	0.139
-625.449	800.000	-0.093	-0.321
-624.434	-143.390	0.270	0.026
-623.419	-157.972	-0.061	-0.004
-622.405	-200.000	-0.013	-0.291
-621.390	-200.000	0.060	0.312
-620.376	62.298	-0.117	0.118
-619.361	-119.019	-0.213	0.038
-618.346	-200.000	-0.020	0.141
-617.332	35.462	-0.094	0.084
-616.317	-24.422	0.183	0.110
-615.303	265.872	0.193	-0.340
-614.288	90.870	-0.143	-0.162
-613.273	-100.275	0.464	-0.117
-612.259	-112.306	-0.465	-0.094
-611.244	265.148	-0.046	-0.081
-610.230	-84.607	-0.103	-0.033
-609.215	434.958	0.089	-0.195
-608.201	138.698	-0.099	0.131
-607.186	-32.195	0.250	0.141
-606.171	-190.586	0.191	0.002
-605.157	-200.000	0.036	-0.190
-604.142	800.000	-0.059	-0.235
-603.128	-200.000	-0.015	-0.128
-602.113	-84.693	-0.171	0.054
-601.098	-29.640	0.178	0.103
-600.084	-200.000	0.027	-0.230
-599.069	279.875	-0.075	0.136
-598.055	-69.900	-0.191	0.074
-597.040	800.000	-0.031	-0.096
-596.025	-145.186	0.292	-0.027
-595.011	-121.420	-0.246	-0.041
-593.996	800.000	0.027	0.119
-592.982	37.130	0.148	0.132
-591.967	100.879	0.132	-0.155
-590.952	215.841	-0.211	0.338
-589.938	800.000	-0.076	-0.248
-588.923	302.312	0.158	-0.295
-587.909	-200.000	0.007	-0.191
-586.894	13.640	0.263	-0.206
-585.879	-20.045	-0.179	0.111
-584.865	-90.343	-0.240	-0.070
-583.850	108.138	0.157	0.189
-582.836	-55.770	-0.190	0.086
-581.821	-12.800	-0.177	-0.116
-580.806	-31.858	-0.063	-0.035
-579.792	-198.606	-0.470	0.003
-578.777	157.442	0.164	-0.228
-577.763	-148.398	0.254	-0.021
-576.748	-200.000	-0.021	0.141
-575.733	-114.259	0.186	0.036
-574.719	-200.000	0.046	-0.230
-573.704	800.000	0.050	0.174
-572.690	-63.338	-0.161	0.067
-571.675	286.486	-0.042	-0.077
-570.661	-139.155	0.352	0.038
-569.646	201.293	-0.141	0.220
-568.631	-200.000	-0.029	0.179
-567.617	-168.198	0.175	-0.007
-566.602	-30.958	0.073	-0.042
-565.588	800.000	0.100	0.284
-564.573	-37.059	-0.261	-0.141
-563.558	-32.815	0.266	0.149
-562.544	15.770	0.092	-0.073
-561.529	800.000	0.034	-0.096
-560.515	503.453	-0.168	-0.391
-559.500	-74.711	-0.320	-0.116
-558.485	75.735	-0.240	-0.256
-557.471	-83.515	-0.403	0.130
-556.456	11.189	-0.449	0.346
-555.442	-103.226	0.422	0.101
-554.427	-12.722	-0.213	0.140
-553.412	-64.560	-0.087	0.035
-552.398	-103.259	-0.241	-0.057
-551.383	800.000	-0.074	0.230
-550.369	-105.599	-0.397	0.091
-549.354	19.900	-0.183	-0.148
-548.339	-42.223	-0.137	0.070
-547.325	-18.090	-0.106	-0.067
-546.310	-200.000	0.059	-0.393
-545.296	352.956	-0.022	0.045
-544.281	108.237	0.246	0.295
-543.266	-200.000	-0.028	-0.313
-542.252	-200.000	-0.013	0.136
-541.237	-44.551	0.163	-0.082
-540.223	114.043	0.136	0.167
-539.208	245.864	0.282	0.479
-538.193	310.920	-0.039	-0.074
-537.179	-40.416	-0.057	-0.030
-536.164	6.368	-0.110	0.082
-535.150	390.450	0.065	0.136
-534.135	-144.978	0.243	0.022
-533.121	105.370	0.391	-0.466
-532.106	34.917	-0.130	-0.115
-531.091	-179.436	0.315	-0.007
-530.077	138.799	-0.079	0.105
-529.062	595.637	-0.024	0.061
-528.048	-34.772	-0.325	0.179
-527.033	-11.525	-0.131	0.087
-526.018	-0.141	-0.076	0.054
-525.004	-143.500	0.156	0.015
-523.989	-75.537	-0.159	-0.057
-522.975	-18.733	0.027	-0.017
-521.960	615.066	-0.078	0.196
-520.945	-71.989	-0.112	0.042
-519.931	-26.398	-0.182	-0.107
-518.916	298.370	-0.179	-0.330
-517.902	92.439	-0.140	-0.159
-516.887	-70.348	-0.212	-0.081
-515.872	-200.000	-0.006	-0.467
-514.858	-102.696	-0.211	-0.051
-513.843	800.000	-0.132	-0.383
-512.829	-6.369	0.356	0.245
-511.814	80.249	0.125	-0.136
-510.799	239.302	-0.075	0.126
-509.785	-132.707	0.237	0.031
-508.770	-200.000	0.019	-0.262
-507.756	64.740	-0.236	0.239
-506.741	-149.690	0.086	0.007
-505.726	15.608	0.285	0.226
-504.712	-130.983	-0.083	0.011
-503.697	-62.817	-0.271	-0.113
-502.683	435.929	0.030	-0.066
-501.668	68.088	0.096	0.099
-500.653	-106.088	-0.214	-0.048
-499.639	-120.052	-0.293	0.051
-498.624	-165.406	0.313	-0.014
-497.610	229.072	-0.036	-0.059
-496.595	-107.579	-0.025	-0.005
-495.581	479.476	-0.098	-0.224
-494.566	-200.000	-0.031	0.152
-493.551	800.000	0.055	-0.163
-492.537	-200.000	0.050	0.265
-491.522	25.756	0.021	0.017
-490.508	46.319	-0.140	0.130
-489.493	-200.000	-0.001	-0.145
-488.478	-57.442	0.198	0.087
-487.464	-200.000	-0.005	-0.396
-486.449	-141.217	0.316	-0.032
-485.435	-81.041	-0.333	0.111
-484.420	259.777	-0.128	-0.223
-483.405	-150.144	0.241	-0.019
-482.391	140.472	0.321	-0.426
-481.376	253.701	0.070	0.121
-480.362	169.435	-0.186	0.267
-479.347	-81.634	0.324	0.107
-478.332	800.000	0.039	0.113
-477.318	32.677	-0.032	-0.028
-476.303	-144.509	0.297	0.028
-475.289	180.218	0.136	-0.201
-474.274	131.993	0.062	0.080
-473.259	800.000	0.103	-0.296
-472.245	226.100	-0.111	-0.181
-471.230	705.351	-0.122	0.323
-470.216	2.645	0.153	-0.111
-469.201	83.995	0.208	-0.228
-468.186	-87.928	-0.083	-0.025
-467.172	87.411	-0.146	-0.162
-466.157	-17.851	-0.130	-0.082
-465.143	800.000	0.040	0.149
-464.128	206.209	-0.115	0.180
-463.113	-92.112	-0.269	0.076
-462.099	336.464	0.053	0.103
-461.084	-200.000	0.030	-0.173
-460.070	-200.000	-0.012	0.193
-459.055	-108.686	0.278	-0.060
-458.040	-88.567	-0.223	-0.067
-457.026	-200.000	-0.001	-0.083
-456.011	38.894	-0.124	-0.111
-454.997	105.577	-0.083	0.098
-453.982	9.098	0.144	0.109
-452.968	273.953	-0.040	-0.072
-451.953	-40.804	-0.120	0.062
-450.938	-27.976	0.250	0.145
-449.924	800.000	0.047	-0.199
-448.909	-200.000	-0.085	0.380
-447.895	-200.000	0.041	0.179
-446.880	224.026	-0.276	0.447
-445.865	-200.000	0.008	0.249
-444.851	800.000	-0.097	0.425
-443.836	109.064	0.145	0.174
-442.822	-200.000	0.037	-0.257
-441.807	-29.858	-0.137	0.078
-440.792	536.656	0.196	-0.468
-439.778	-78.715	0.161	-0.055
-438.763	-200.000	0.024	-0.221
-437.749	-200.000	-0.018	0.138
-436.734	-155.541	0.295	0.019
-435.719	-200.000	-0.006	0.077
-434.705	267.072	-0.053	-0.093
-433.690	-38.575	0.173	0.092
-432.676	-200.000	-0.020	0.155
-431.661	-106.840	0.168	-0.037
-430.646	133.461	-0.253	-0.328
-429.632	-15.752	-0.096	-0.062
-428.617	-129.350	0.077	-0.011
-427.603	-200.000	-0.165	-0.000
-426.588	133.815	-0.097	0.126
-425.573	-135.976	-0.316	-0.037
-424.559	32.798	-0.040	-0.034
-423.544	80.506	-0.148	-0.160
-422.530	-49.783	0.406	-0.193
-421.515	-108.242	0.112	-0.024
-420.500	-86.968	0.155	0.047
-419.486	-200.000	0.009	0.055
-418.471	-138.806	-0.158	0.017
-417.457	-200.000	0.036	0.165
-416.442	-179.325	0.063	-0.001
-415.428	58.189	-0.204	-0.201
-414.413	800.000	0.106	-0.308
-413.398	-44.529	0.182	-0.091
-412.384	-200.000	0.008	0.144
-411.369	-200.000	-0.001	-0.146
-410.355	-69.219	0.115	0.044
-409.340	-131.642	0.303	-0.040
-408.325	-101.506	0.185	-0.045
-407.311	131.454	0.192	-0.247
-406.296	737.761	0.091	0.243
-405.282	-200.000	0.076	-0.426
-404.267	-120.987	-0.506	-0.085
-403.252	800.000	0.011	-0.047
-402.238	-24.147	-0.054	-0.032
-401.223	800.000	-0.016	-0.054
-400.209	-21.698	0.354	-0.216
-399.194	-79.317	0.149	-0.050
-398.179	-28.250	-0.118	0.068
-397.165	-6.515	0.087	-0.060
-396.150	-103.333	0.078	-0.018
-395.136	-200.000	-0.010	-0.056
-394.121	800.000	-0.035	-0.106
-393.106	-40.684	-0.154	-0.080
-392.092	-200.000	-0.053	-0.314
-391.077	-140.049	0.117	0.012
-390.063	-94.078	-0.183	-0.050
-389.048	40.669	-0.125	0.113
-388.033	-62.097	-0.120	-0.050
-387.019	-141.174	-0.211	-0.022
-386.004	26.466	0.069	-0.058
-384.990	800.000	0.011	0.039
-383.975	800.000	-0.028	0.121
-382.960	-55.857	0.282	-0.126
-381.946	45.791	0.038	-0.035
-380.931	800.000	-0.174	0.484
-379.917	-200.000	0.031	0.175
-378.902	-106.621	0.240	-0.054
-377.888	135.605	-0.224	0.292
-376.873	-150.323	-0.210	-0.016
-375.858	-99.621	-0.051	0.013
-374.844	444.139	0.140	0.308
-373.829	80.126	0.171	0.184
-372.815	-200.000	-0.017	-0.172
-371.800	63.363	0.082	-0.083
-370.785	-123.206	0.069	0.011
-369.771	800.000	-0.071	0.259
-368.756	41.685	0.087	0.079
-367.742	46.235	0.075	0.070
-366.727	-174.242	0.133	-0.004
-365.712	778.802	0.043	0.117
-364.698	231.429	0.113	0.185
-363.683	-168.907	-0.145	0.005
-362.669	367.710	0.065	0.132
-361.654	800.000	-0.015	0.047
-360.639	49.923	-0.097	-0.092
-359.625	-200.000	-0.109	0.526
-358.610	-85.571	-0.351	0.109
-357.596	336.969	-0.083	-0.162
-356.581	6.195	-0.155	-0.115
-355.566	360.463	0.152	-0.303
-354.552	13.743	0.344	-0.268
-353.537	-136.878	0.043	0.005
-352.523	-200.000	-0.013	0.192
-351.508	-54.787	-0.298	0.135
-350.493	237.206	-0.179	0.297
-349.479	24.039	-0.073	0.060
-348.464	800.000	0.044	0.132
-347.450	-200.000	-0.000	0.135
-346.435	161.316	-0.105	-0.147
-345.420	800.000	0.028	-0.086
-344.406	-200.000	-0.002	0.071
-343.391	-69.515	-0.238	0.091
-342.377	-123.355	0.079	0.013
-341.362	-95.158	0.447	0.120
-340.348	110.491	-0.187	-0.225
-339.333	-200.000	-0.020	0.401
-338.318	-86.208	0.080	0.025
-337.304	-38.734	0.023	-0.012
-336.289	-142.780	0.190	-0.019
-335.275	216.683	0.138	0.219
-334.260	-73.826	0.404	0.147
-333.245	-200.000	0.080	0.383
-332.231	-132.313	-0.067	0.009
-331.216	-113.204	-0.281	0.055
-330.202	154.103	0.119	0.163
-329.187	59.191	-0.235	0.232
-328.172	-101.498	-0.226	0.055
-327.158	385.708	-0.005	-0.011
-326.143	8.668	0.388	-0.292
-325.129	-200.000	-0.062	-0.469
-324.114	-69.737	0.131	0.050
-323.099	-57.884	0.299	-0.130
-322.085	113.691	0.216	-0.262
-321.070	-83.036	-0.014	-0.005
-320.056	18.920	-0.159	0.127
-319.041	59.523	0.066	0.065
-318.026	-64.689	-0.214	0.086
-317.012	123.697	-0.100	-0.125
-315.997	238.460	-0.181	0.300
-314.983	-144.130	0.337	-0.032
-313.968	-200.000	0.050	0.247
-312.953	-62.937	-0.195	0.081
-311.939	-200.000	-0.015	0.095
-310.924	174.847	-0.125	0.181
-309.910	800.000	0.105	-0.448
-308.895	17.625	0.144	-0.114
-307.880	-24.201	-0.299	-0.178
-306.866	-57.878	-0.187	0.082
-305.851	275.778	0.129	0.228
-304.837	508.832	-0.063	0.146
-303.822	-200.000	0.004	0.218
-302.807	63.681	-0.125	0.126
-301.793	44.887	0.128	0.117
-300.778	-88.202	-0.220	0.066
-299.764	-200.000	0.077	-0.411
-298.749	68.407	-0.325	0.332
-297.735	-200.000	0.018	-0.241
-296.720	-5.119	0.096	-0.066
-295.705	424.028	0.077	-0.164
-294.691	-155.632	-0.277	0.018
-293.676	421.342	0.063	0.135
-292.662	-200.000	0.003	0.116
-291.647	-166.529	-0.210	-0.009
-290.632	-45.187	0.219	-0.109
-289.618	258.375	-0.196	0.337
-288.603	800.000	-0.072	0.218
-287.589	-24.674	-0.107	-0.064
-286.574	-73.935	0.034	-0.012
-285.559	800.000	-0.093	0.258
-284.545	-200.000	-0.020	0.194
-283.530	-65.084	0.231	0.093
-282.516	-141.419	0.393	-0.040
-281.501	342.504	-0.087	-0.169
-280.486	206.713	0.275	-0.427
-279.472	-71.162	-0.452	0.169
-278.457	578.931	-0.020	-0.049
-277.443	-125.207	0.056	-0.009
-276.428	-200.000	0.040	-0.363
-275.413	-129.951	0.304	-0.042
-274.399	-22.497	-0.117	0.070
-273.384	600.490	0.032	-0.078
-272.370	-37.764	0.019	0.010
-271.355	418.078	-0.053	-0.113
-270.340	-0.449	-0.214	0.151
-269.326	579.792	-0.056	-0.137
-268.311	-147.463	-0.164	-0.014
-267.297	386.640	-0.030	0.061
-266.282	-20.432	0.324	0.199
-265.267	-200.000	-0.011	0.315
-264.253	245.335	0.067	0.112
-263.238	399.754	0.114	0.238
-262.224	800.000	0.057	0.230
-261.209	87.748	-0.232	-0.257
-260.195	-69.311	0.025	0.010
-259.180	109.079	-0.139	-0.166
-258.165	207.242	0.076	0.117
-257.151	101.053	-0.074	0.086
-256.136	-200.000	-0.028	0.178
-255.122	-2.692	-0.178	-0.124
-254.107	-119.678	-0.199	-0.034
-253.092	-67.971	-0.193	-0.075
-252.078	123.652	0.264	-0.330
-251.063	-200.000	-0.002	-0.065
-250.049	-93.423	0.298	-0.082
-249.034	-58.151	0.090	-0.039
-248.019	800.000	-0.104	-0.344
-247.005	129.052	-0.112	-0.142
-245.990	-14.297	0.274	-0.176
-244.976	-28.909	0.165	-0.094
-243.961	-174.664	0.406	-0.011
-242.946	800.000	0.086	-0.268
-241.932	-200.000	-0.025	0.364
-240.917	-60.539	-0.130	0.055
-239.903	186.199	0.021	-0.031
-238.888	-200.000	0.015	0.152
-237.873	-44.234	-0.076	-0.038
-236.859	-96.565	-0.144	0.038
-235.844	-200.000	-0.009	0.195
-234.830	-54.483	-0.354	-0.160
-233.815	-135.171	0.068	0.008
-232.800	-200.000	0.008	-0.226
-231.786	800.000	-0.076	-0.295
-230.771	567.874	0.036	0.088
-229.757	146.558	0.182	0.243
-228.742	-55.945	0.167	0.074
-227.727	227.922	-0.114	0.185
-226.713	-177.027	0.374	-0.009
-225.698	800.000	-0.091	-0.253
-224.684	-81.489	-0.284	0.093
-223.669	240.418	0.114	-0.189
-222.655	-200.000	-0.039	-0.269
-221.640	210.753	0.134	-0.210
-220.625	13.062	-0.096	0.074
-219.611	-114.424	0.366	0.070
-218.596	-200.000	-0.003	0.112
-217.582	800.000	-0.050	-0.153
-216.567	359.025	0.123	0.244
-215.552	-17.548	0.191	0.119
-214.538	-200.000	0.024	0.370
-213.523	-200.000	0.010	-0.106
-212.509	-11.658	0.085	-0.055
-211.494	175.806	-0.084	0.121
-210.479	-39.557	0.225	0.117
-209.465	76.251	0.137	-0.144
-208.450	484.776	0.016	0.036
-207.436	313.654	-0.039	0.072
-206.421	82.430	-0.043	0.046
-205.406	203.678	-0.232	0.356
-204.392	494.320	-0.081	0.185
-203.377	61.417	-0.078	0.077
-202.363	-83.686	0.146	0.046
-201.348	283.824	0.131	-0.233
-200.333	-14.892	0.117	-0.075
-199.319	84.394	0.092	-0.100
-198.304	-25.963	0.083	-0.049
-197.290	-35.688	0.446	0.240
-196.275	-200.000	-0.016	-0.380
-195.260	-109.579	0.189	0.040
-194.246	226.486	-0.191	-0.309
-193.231	-78.855	0.285	-0.097
-192.217	464.354	0.103	-0.229
-191.202	800.000	-0.078	-0.328
-190.187	-200.000	0.008	0.050
-189.173	-200.000	-0.082	0.434
-188.158	-200.000	0.008	-0.193
-187.144	-82.148	-0.148	0.048
-186.129	-200.000	-0.009	-0.089
-185.114	120.444	0.133	0.164
-184.100	-200.000	-0.002	-0.099
-183.085	73.224	-0.212	-0.221
-182.071	-35.442	0.215	-0.116
-181.056	554.501	0.089	0.214
-180.042	94.437	-0.230	-0.259
-179.027	-41.052	-0.188	-0.097
-178.012	110.930	-0.079	0.094
-176.998	800.000	0.051	0.174
-175.983	-87.822	-0.337	0.101
-174.969	-200.000	0.008	-0.063
-173.954	72.017	0.063	-0.065
-172.939	528.312	0.111	0.260
-171.925	-102.336	-0.236	0.056
-170.910	-96.947	-0.013	0.003
-169.896	-200.000	-0.029	0.346
-168.881	-164.848	-0.232	0.010
-167.866	217.351	-0.132	0.209
-166.852	-200.000	-0.010	0.209
-165.837	199.216	0.143	0.217
-164.823	-200.000	-0.008	-0.106
-163.808	-146.599	0.258	-0.022
-162.793	431.698	-0.098	0.212
-161.779	172.656	-0.235	0.336
-160.764	75.659	0.135	0.142
-159.750	800.000	-0.054	-0.223
-158.735	-133.092	0.193	0.024
-157.720	170.372	-0.132	0.187
-156.706	225.114	0.042	0.067
-155.691	301.229	-0.053	0.096
-154.677	-200.000	-0.045	-0.255
-153.662	-58.678	0.078	-0.034
-152.647	-121.801	0.103	0.017
-151.633	133.435	0.162	-0.207
-150.618	-180.592	0.317	0.006
-149.604	5.136	-0.146	0.106
-148.589	-5.825	-0.159	0.108
-147.574	0.915	0.157	-0.111
-146.560	-101.250	-0.311	-0.075
-145.545	-100.943	-0.111	0.027
-144.531	279.681	-0.073	0.129
-143.516	-8.638	-0.381	-0.253
-142.502	-140.918	0.264	0.027
-141.487	770.223	-0.062	0.168
-140.472	-142.555	0.062	0.006
-139.458	-23.581	0.177	0.105
-138.443	-56.776	0.112	-0.049
-137.429	-132.135	-0.227	0.029
-136.414	800.000	0.012	0.042
-135.399	401.419	-0.106	-0.221
-134.385	-171.473	-0.150	-0.005
-133.370	-21.972	-0.329	-0.198
-132.356	-175.969	0.109	-0.003
-131.341	110.355	-0.133	0.158
-130.326	207.913	0.263	-0.407
-129.312	38.380	-0.059	-0.052
-128.297	317.694	-0.044	-0.082
-127.283	-119.497	0.359	-0.062
-126.268	-42.216	0.118	-0.060
-125.253	39.297	0.247	0.219
-124.239	-200.000	-0.026	-0.227
-123.224	-200.000	-0.017	-0.230
-122.210	-49.704	0.087	-0.041
