DTS Sentinel unit serial number:	SN413079Multiplexer serial number:	ORYXHardware model number:	OX4-SRSoftware version number:	ORYX F/W v4.00 Oryx Data Collector v3.7.2.0data status	okinstallation	princeton_trtdifferential loss correction	single-endedforward channel	channel 2reverse channel	N/Adate	2019/09/13time	21:15:34forward acquisition time	60.00reverse acquisition time	0.00gamma	496.2192k internal	0.2334k external	0.2334temperature offset calibration	1.0129default loss term (dB/km)	0.3790temperature slope calibration	1.0000multiplexer offset coefficient	1.0000multiplexer slope coefficient	1.0000fibre end	0.00T internal ref (°C)	28.44T ext. ref 1 (°C)	3.15T ext. ref 2 (°C)	23.15length (m)	temperature (°C)	Stokes	anti-Stokes-747.200	-72.316	-0.206	0.077
-746.185	-150.823	-0.333	0.025
-745.171	128.663	0.138	-0.177
-744.156	-200.000	0.068	-0.000
-743.142	216.973	0.092	-0.148
-742.127	142.235	-0.260	0.346
-741.112	800.000	0.041	-0.114
-740.098	-52.849	-0.295	-0.137
-739.083	95.273	-0.106	-0.122
-738.069	131.049	0.147	0.189
-737.054	135.632	0.099	0.129
-736.039	-26.445	-0.184	-0.108
-735.025	-200.000	0.023	0.224
-734.010	800.000	0.056	-0.157
-732.996	-10.353	-0.135	0.090
-731.981	-200.000	-0.002	-0.026
-730.966	-19.960	-0.267	-0.166
-729.952	328.876	-0.218	-0.421
-728.937	133.626	-0.123	0.160
-727.923	800.000	-0.065	0.257
-726.908	-97.449	-0.191	0.050
-725.894	44.316	-0.082	-0.075
-724.879	-84.132	-0.211	-0.067
-723.864	-108.767	-0.223	0.048
-722.850	-200.000	-0.027	0.295
-721.835	-140.447	0.247	-0.026
-720.821	6.324	0.074	0.055
-719.806	-102.699	-0.141	-0.034
-718.791	-66.971	-0.158	0.063
-717.777	249.896	0.105	0.178
-716.762	156.606	-0.105	-0.146
-715.748	-200.000	-0.074	-0.350
-714.733	-22.700	-0.150	0.091
-713.718	-200.000	0.043	-0.478
-712.704	304.499	0.122	-0.228
-711.689	234.708	-0.160	-0.265
-710.675	244.308	0.079	-0.134
-709.660	-126.096	-0.019	-0.003
-708.645	-11.012	-0.215	0.142
-707.631	-200.000	-0.024	-0.182
-706.616	-111.215	0.159	0.033
-705.602	134.005	0.058	-0.076
-704.587	800.000	0.028	-0.106
-703.572	800.000	0.062	-0.272
-702.558	-103.797	-0.034	0.008
-701.543	18.427	0.172	-0.138
-700.529	-200.000	-0.009	0.122
-699.514	-126.145	0.182	-0.027
-698.499	-200.000	0.005	0.070
-697.485	-200.000	-0.021	0.310
-696.470	-38.656	-0.182	-0.096
-695.456	-82.741	0.305	-0.099
-694.441	-44.456	-0.178	-0.090
-693.426	677.996	-0.060	-0.156
-692.412	98.909	0.147	0.170
-691.397	653.963	-0.030	-0.078
-690.383	84.808	-0.169	0.185
-689.368	-124.045	-0.194	0.031
-688.354	114.151	-0.131	-0.160
-687.339	800.000	-0.058	-0.249
-686.324	-45.829	0.106	-0.052
-685.310	-200.000	0.038	0.231
-684.295	-22.858	-0.153	0.092
-683.281	219.568	-0.204	-0.327
-682.266	-100.636	-0.188	-0.047
-681.251	-65.591	-0.204	-0.082
-680.237	-53.292	0.186	0.086
-679.222	-200.000	-0.007	0.095
-678.208	-200.000	0.027	0.271
-677.193	-63.034	0.237	0.098
-676.178	-129.466	0.267	0.037
-675.164	19.790	0.092	0.075
-674.149	-21.736	0.251	-0.153
-673.135	266.776	-0.191	-0.334
-672.120	-77.133	0.433	0.151
-671.105	52.373	-0.323	-0.309
-670.091	800.000	-0.023	0.090
-669.076	326.880	0.056	-0.108
-668.062	-74.706	0.121	0.044
-667.047	82.190	0.178	-0.193
-666.032	18.185	-0.135	-0.108
-665.018	-125.229	-0.557	-0.085
-664.003	-21.421	-0.153	-0.094
-662.989	60.994	-0.132	0.132
-661.974	-177.931	0.061	-0.001
-660.959	-200.000	-0.002	0.075
-659.945	14.378	-0.127	0.100
-658.930	-125.726	0.110	0.017
-657.916	-200.000	0.000	0.156
-656.901	-200.000	-0.027	0.137
-655.886	800.000	-0.037	0.139
-654.872	121.558	-0.123	0.153
-653.857	74.411	-0.225	-0.237
-652.843	145.033	0.100	0.133
-651.828	123.570	0.179	-0.225
-650.814	-91.784	-0.242	0.069
-649.799	800.000	0.087	-0.248
-648.784	-200.000	0.008	-0.119
-647.770	800.000	-0.025	0.098
-646.755	-23.436	-0.335	0.202
-645.741	-28.063	0.198	0.115
-644.726	800.000	-0.036	-0.116
-643.711	481.371	0.077	-0.176
-642.697	183.018	0.127	-0.188
-641.682	-44.587	-0.177	-0.088
-640.668	-41.426	0.164	0.084
-639.653	800.000	-0.070	-0.294
-638.638	-4.714	-0.109	-0.075
-637.624	50.389	-0.236	0.224
-636.609	228.931	0.036	0.059
-635.595	14.660	-0.336	0.263
-634.580	-53.725	-0.323	-0.147
-633.565	50.490	0.095	0.090
-632.551	73.395	-0.219	0.229
-631.536	-82.296	0.271	-0.088
-630.522	53.752	-0.095	-0.091
-629.507	-200.000	0.036	-0.208
-628.492	-200.000	0.036	0.215
-627.478	268.603	-0.101	-0.178
-626.463	358.818	0.026	-0.051
-625.449	239.777	-0.153	0.255
-624.434	47.341	-0.280	-0.261
-623.419	171.237	-0.266	-0.382
-622.405	203.537	-0.082	-0.127
-621.390	246.007	0.056	-0.094
-620.376	272.146	0.115	0.203
-619.361	28.806	-0.204	-0.173
-618.346	-36.992	0.296	-0.159
-617.332	-57.073	-0.234	0.103
-616.317	104.987	-0.144	-0.170
-615.303	-200.000	-0.024	-0.445
-614.288	-200.000	0.005	-0.166
-613.273	-108.944	0.280	-0.060
-612.259	156.831	0.114	-0.157
-611.244	-133.187	-0.177	-0.022
-610.230	-118.104	0.231	-0.041
-609.215	272.835	-0.133	-0.234
-608.201	196.500	-0.125	-0.190
-607.186	800.000	0.049	0.191
-606.171	104.971	-0.113	-0.134
-605.157	800.000	-0.037	-0.146
-604.142	38.169	0.035	0.031
-603.128	383.686	-0.101	-0.207
-602.113	-200.000	0.004	0.045
-601.098	235.932	0.196	-0.324
-600.084	310.266	-0.121	-0.226
-599.069	-200.000	-0.002	0.030
-598.055	-82.017	-0.137	0.045
-597.040	-156.997	-0.315	-0.019
-596.025	18.295	0.172	0.137
-595.011	7.383	0.235	-0.176
-593.996	110.314	-0.174	-0.209
-592.982	520.616	-0.149	0.349
-591.967	165.792	-0.152	0.215
-590.952	492.387	0.077	0.175
-589.938	-200.000	-0.009	-0.301
-588.923	3.376	-0.103	-0.075
-587.909	800.000	-0.059	0.245
-586.894	-200.000	0.047	-0.298
-585.879	-25.532	-0.108	-0.064
-584.865	-51.971	-0.273	0.127
-583.850	-44.048	-0.126	0.063
-582.836	-200.000	0.050	-0.230
-581.821	-200.000	0.057	-0.300
-580.806	58.631	-0.206	0.202
-579.792	212.883	0.146	0.230
-578.777	48.704	-0.135	-0.127
-577.763	87.497	-0.094	0.104
-576.748	-112.615	0.112	-0.022
-575.733	-115.295	-0.463	0.087
-574.719	-77.844	0.207	0.072
-573.704	-99.207	0.342	0.086
-572.690	237.103	0.178	-0.294
-571.675	159.052	-0.083	0.115
-570.661	-149.933	-0.135	0.011
-569.646	-124.668	-0.139	-0.021
-568.631	-200.000	-0.009	-0.092
-567.617	-200.000	-0.014	0.165
-566.602	-200.000	0.004	0.395
-565.588	-68.124	0.127	0.050
-564.573	-200.000	0.019	0.186
-563.558	800.000	0.073	-0.236
-562.544	-126.525	0.362	-0.054
-561.529	-83.415	0.361	-0.115
-560.515	581.414	-0.144	0.353
-559.500	-187.554	0.101	0.001
-558.485	-117.637	0.374	0.067
-557.471	366.373	-0.012	-0.024
-556.456	-200.000	-0.011	-0.268
-555.442	324.055	0.150	0.285
-554.427	18.883	0.150	0.120
-553.412	-200.000	-0.003	0.304
-552.398	89.872	-0.113	-0.126
-551.383	208.664	0.058	0.091
-550.369	-142.922	-0.269	-0.026
-549.354	-200.000	0.076	-0.336
-548.339	681.010	-0.034	0.087
-547.325	-51.920	-0.160	0.074
-546.310	-200.000	0.043	-0.291
-545.296	3.243	-0.299	-0.217
-544.281	146.960	-0.194	0.261
-543.266	28.347	0.261	0.220
-542.252	800.000	-0.093	-0.287
-541.237	700.144	0.114	-0.300
-540.223	354.663	-0.028	0.055
-539.208	173.373	-0.047	-0.067
-538.193	285.690	-0.051	-0.092
-537.179	-200.000	-0.006	0.194
-536.164	-30.356	-0.039	-0.022
-535.150	81.390	-0.025	0.027
-534.135	-162.062	0.234	0.012
-533.121	-24.673	-0.337	-0.200
-532.106	-70.844	0.260	0.098
-531.091	-111.780	-0.087	0.018
-530.077	800.000	-0.096	0.327
-529.062	800.000	-0.076	0.304
-528.048	-52.259	0.309	-0.143
-527.033	321.225	-0.079	-0.150
-526.018	-37.581	0.353	-0.188
-525.004	-39.434	0.138	-0.072
-523.989	-124.792	0.079	-0.012
-522.975	-200.000	0.012	0.069
-521.960	-146.949	0.423	0.036
-520.945	-157.052	-0.117	0.007
-519.931	800.000	-0.129	-0.398
-518.916	-124.180	0.284	-0.044
-517.902	252.579	-0.100	0.169
-516.887	-125.632	0.092	-0.014
-515.872	-102.882	0.076	-0.018
-514.858	187.083	-0.099	0.147
-513.843	361.992	0.035	0.071
-512.829	-136.918	-0.184	-0.021
-511.814	-57.569	0.029	0.013
-510.799	-101.010	-0.177	0.043
-509.785	-5.801	0.320	0.218
-508.770	112.578	0.063	0.076
-507.756	773.892	-0.031	-0.085
-506.741	214.501	-0.145	-0.228
-505.726	-70.830	-0.045	-0.017
-504.712	-10.176	-0.246	-0.163
-503.697	59.924	0.055	0.054
-502.683	-200.000	0.021	-0.189
-501.668	153.586	0.043	0.058
-500.653	42.989	0.390	-0.354
-499.639	168.206	-0.117	0.166
-498.624	-63.315	-0.245	0.101
-497.610	-30.281	0.068	-0.039
-496.595	-19.960	0.279	-0.171
-495.581	-200.000	0.028	0.149
-494.566	378.765	-0.107	0.218
-493.551	25.823	0.035	-0.029
-492.537	-200.000	0.000	0.044
-491.522	-56.169	0.251	-0.111
-490.508	-123.515	-0.280	-0.044
-489.493	-21.428	-0.228	0.138
-488.478	-122.307	0.031	-0.005
-487.464	52.348	0.311	0.296
-486.449	-128.996	-0.055	0.008
-485.435	352.955	0.084	-0.165
-484.420	79.901	-0.154	0.165
-483.405	-200.000	0.019	0.169
-482.391	249.130	-0.034	0.057
-481.376	-200.000	-0.029	-0.463
-480.362	-200.000	0.018	-0.361
-479.347	36.640	0.133	0.117
-478.332	800.000	-0.169	0.538
-477.318	-139.722	0.150	-0.016
-476.303	-166.552	0.197	0.008
-475.289	-155.859	0.068	0.004
-474.274	-61.213	0.131	-0.055
-473.259	-12.342	0.099	0.064
-472.245	378.983	0.143	0.291
-471.230	42.749	0.096	0.087
-470.216	31.119	0.282	0.240
-469.201	-200.000	0.020	0.090
-468.186	-121.075	-0.046	0.008
-467.172	213.802	0.112	-0.176
-466.157	-200.000	0.068	0.338
-465.143	-111.283	0.223	0.045
-464.128	-103.778	-0.347	0.081
-463.113	-91.353	-0.464	-0.132
-462.099	203.921	0.049	0.075
-461.084	800.000	0.018	-0.052
-460.070	208.145	0.105	-0.163
-459.055	77.599	-0.219	0.232
-458.040	-200.000	0.033	0.251
-457.026	-200.000	-0.037	0.318
-456.011	-47.346	-0.146	-0.071
-454.997	-0.399	0.164	0.116
-453.982	800.000	0.077	0.269
-452.968	-91.307	-0.392	0.111
-451.953	-74.870	-0.260	0.093
-450.938	800.000	0.009	0.039
-449.924	-200.000	0.056	-0.482
-448.909	-119.019	-0.178	0.031
-447.895	-101.568	0.122	0.029
-446.880	0.088	0.131	-0.093
-445.865	134.264	0.072	-0.093
-444.851	31.208	-0.062	0.053
-443.836	26.624	0.230	0.191
-442.822	84.298	-0.215	-0.234
-441.807	-91.684	-0.035	-0.010
-440.792	-200.000	-0.063	-0.388
-439.778	-108.591	0.392	-0.084
-438.763	84.812	-0.068	0.074
-437.749	-70.237	-0.285	-0.107
-436.734	-200.000	0.004	0.249
-435.719	-200.000	0.042	0.185
-434.705	-69.657	0.185	0.070
-433.690	-31.174	-0.252	-0.141
-432.676	214.371	-0.076	-0.120
-431.661	-86.677	0.133	0.040
-430.646	165.881	0.104	0.146
-429.632	-200.000	-0.042	0.255
-428.617	490.020	-0.057	-0.129
-427.603	84.824	-0.059	-0.064
-426.588	505.793	0.208	0.478
-425.573	-147.771	-0.148	0.012
-424.559	-152.407	0.243	0.017
-423.544	-187.282	0.254	0.003
-422.530	800.000	0.083	0.252
-421.515	511.087	-0.025	0.058
-420.500	328.618	0.056	0.107
-419.486	752.119	0.075	0.200
-418.471	-95.587	0.120	0.032
-417.457	-101.506	-0.100	-0.024
-416.442	76.379	-0.200	0.210
-415.428	-71.359	0.096	-0.036
-414.413	183.675	0.080	-0.118
-413.398	210.102	0.221	-0.345
-412.384	392.751	-0.115	-0.237
-411.369	42.068	0.061	0.055
-410.355	182.833	0.073	-0.107
-409.340	-98.802	0.332	-0.084
-408.325	-200.000	0.139	0.001
-407.311	800.000	0.042	-0.129
-406.296	155.788	-0.101	0.138
-405.282	-21.668	-0.085	0.052
-404.267	96.559	-0.331	-0.376
-403.252	289.027	-0.111	0.199
-402.238	-200.000	-0.003	0.213
-401.223	280.324	-0.123	0.218
-400.209	323.507	0.094	-0.178
-399.194	348.822	0.124	0.243
-398.179	24.947	-0.122	0.100
-397.165	-200.000	-0.406	0.000
-396.150	-39.232	-0.319	0.166
-395.136	82.694	-0.121	0.130
-394.121	-3.629	0.120	0.083
-393.106	-161.393	-0.367	-0.019
-392.092	151.603	-0.130	0.175
-391.077	55.873	0.262	-0.252
-390.063	85.783	-0.144	0.157
-389.048	-190.486	-0.235	0.003
-388.033	-130.120	0.237	0.032
-387.019	-56.301	-0.110	0.048
-386.004	-121.637	0.197	-0.032
-384.990	119.395	-0.249	-0.305
-383.975	-23.696	-0.067	0.040
-382.960	6.291	0.115	0.085
-381.946	51.537	-0.160	0.151
-380.931	94.372	0.048	-0.054
-379.917	-33.470	-0.098	-0.054
-378.902	-38.339	0.225	-0.118
-377.888	-158.446	0.259	0.015
-376.873	267.115	0.138	-0.239
-375.858	-200.000	-0.018	-0.318
-374.844	-95.115	0.070	0.019
-373.829	-138.379	0.270	-0.029
-372.815	-161.134	0.152	-0.008
-371.800	-143.186	0.099	-0.009
-370.785	365.402	0.139	-0.278
-369.771	169.520	-0.191	0.270
-368.756	-200.000	-0.005	0.262
-367.742	-200.000	0.019	-0.351
-366.727	33.394	-0.291	-0.250
-365.712	-75.397	0.248	0.087
-364.698	295.514	0.055	0.100
-363.683	800.000	0.042	-0.127
-362.669	-187.101	-0.404	-0.005
-361.654	-145.314	0.189	0.017
-360.639	20.556	-0.093	0.075
-359.625	-67.986	-0.366	0.142
-358.610	180.074	0.263	-0.381
-357.596	-200.000	0.014	-0.107
-356.581	-200.000	-0.007	0.066
-355.566	169.834	-0.160	-0.226
-354.552	-200.000	-0.004	-0.145
-353.537	26.527	-0.177	0.147
-352.523	27.696	0.191	-0.159
-351.508	-80.693	-0.207	0.068
-350.493	-200.000	0.008	0.182
-349.479	-200.000	0.005	0.105
-348.464	-5.915	-0.117	0.079
-347.450	-135.645	0.418	0.049
-346.435	-20.194	0.192	-0.117
-345.420	-102.132	0.412	0.098
-344.406	-132.423	-0.052	0.007
-343.391	-200.000	0.054	-0.250
-342.377	612.707	0.067	-0.165
-341.362	-0.776	-0.358	0.251
-340.348	-120.395	0.205	0.035
-339.333	-200.000	0.026	-0.203
-338.318	-8.342	-0.275	-0.183
-337.304	-73.668	0.094	0.034
-336.289	-200.000	-0.024	-0.171
-335.275	-62.545	0.271	0.111
-334.260	106.796	0.051	-0.060
-333.245	348.919	-0.131	0.256
-332.231	-148.633	0.230	-0.019
-331.216	-42.383	-0.057	0.029
-330.202	-140.819	-0.255	0.026
-329.187	69.035	0.150	-0.152
-328.172	-200.000	0.018	-0.166
-327.158	154.226	0.181	-0.245
-326.143	800.000	-0.061	-0.205
-325.129	-40.179	0.243	0.125
-324.114	-115.241	0.101	-0.019
-323.099	-171.757	0.243	0.008
-322.085	-139.880	-0.405	-0.042
-321.070	-54.308	0.144	-0.065
-320.056	106.653	-0.328	-0.385
-319.041	115.798	0.181	0.219
-318.026	274.348	-0.056	-0.099
-317.012	52.627	-0.161	0.152
-315.997	-168.156	0.124	-0.005
-314.983	84.048	-0.101	-0.109
-313.968	-103.112	-0.137	-0.032
-312.953	-40.900	-0.170	-0.087
-311.939	-2.780	-0.110	0.076
-310.924	8.216	0.205	0.152
-309.910	-35.304	-0.189	-0.102
-308.895	-200.000	0.015	-0.116
-307.880	166.786	0.176	0.246
-306.866	102.134	-0.271	-0.313
-305.851	96.069	0.148	0.167
-304.837	18.817	0.130	0.103
-303.822	526.799	-0.056	0.129
-302.807	-21.987	-0.244	0.147
-301.793	800.000	-0.110	-0.326
-300.778	137.694	-0.263	-0.340
-299.764	-52.460	0.424	0.194
-298.749	256.519	0.076	-0.128
-297.735	800.000	-0.078	-0.214
-296.720	73.930	0.154	-0.160
-295.705	-36.238	0.417	0.222
-294.691	-95.262	-0.228	0.061
-293.676	-154.514	0.038	-0.003
-292.662	800.000	-0.021	-0.074
-291.647	-66.112	-0.370	0.146
-290.632	63.517	-0.280	-0.278
-289.618	-148.831	-0.223	-0.018
-288.603	164.999	0.198	-0.276
-287.589	-200.000	0.038	-0.199
-286.574	239.285	-0.100	0.164
-285.559	305.248	0.150	-0.275
-284.545	526.919	-0.117	-0.273
-283.530	-88.940	0.471	0.138
-282.516	800.000	0.097	0.340
-281.501	408.345	0.067	-0.140
-280.486	284.687	-0.127	0.225
-279.472	800.000	-0.031	-0.100
-278.457	679.476	-0.076	-0.196
-277.443	800.000	-0.069	-0.227
-276.428	-65.648	0.045	-0.018
-275.413	-20.961	0.177	0.107
-274.399	-54.809	-0.243	0.108
-273.384	800.000	0.089	0.342
-272.370	-200.000	-0.058	-0.281
-271.355	335.408	-0.080	-0.153
-270.340	-200.000	-0.008	0.226
-269.326	513.006	0.214	0.491
-268.311	-200.000	-0.010	-0.090
-267.297	680.424	-0.072	0.185
-266.282	187.262	-0.284	-0.418
-265.267	131.807	0.189	0.240
-264.253	186.507	0.207	0.304
-263.238	192.558	0.126	-0.188
-262.224	96.763	0.072	-0.082
-261.209	-200.000	-0.014	-0.202
-260.195	800.000	0.039	0.160
-259.180	-60.406	0.471	-0.197
-258.165	19.236	0.185	0.146
-257.151	-67.121	-0.165	0.064
-256.136	800.000	0.065	0.252
-255.122	120.889	0.244	-0.299
-254.107	-14.633	-0.165	0.105
-253.092	244.518	-0.089	0.147
-252.078	-13.826	-0.154	0.098
-251.063	228.912	0.087	-0.140
-250.049	14.174	-0.363	-0.279
-249.034	591.123	0.114	-0.278
-248.019	-90.524	0.220	0.063
-247.005	-200.000	0.018	0.289
-245.990	-10.406	-0.127	0.083
-244.976	-120.043	0.189	-0.032
-243.961	-98.652	-0.310	0.078
-242.946	34.704	0.132	-0.114
-241.932	-43.934	0.199	-0.099
-240.917	-36.875	-0.193	-0.102
-239.903	-135.404	-0.321	-0.038
-238.888	286.882	0.155	0.275
-237.873	11.861	0.163	-0.124
-236.859	-52.855	-0.108	0.049
-235.844	152.059	-0.130	-0.175
-234.830	616.727	-0.063	0.157
-233.815	212.578	-0.114	-0.177
-232.800	148.970	0.147	-0.195
-231.786	-147.071	0.224	0.019
-230.771	35.720	0.154	-0.133
-229.757	-119.119	0.186	0.032
-228.742	135.580	0.162	0.208
-227.727	800.000	0.111	0.378
-226.713	800.000	-0.071	-0.278
-225.698	-140.570	-0.056	-0.006
-224.684	140.872	-0.116	0.151
-223.669	-136.051	-0.234	-0.027
-222.655	-200.000	0.004	-0.029
-221.640	490.898	0.071	-0.160
-220.625	-181.077	0.113	-0.002
-219.611	-63.055	-0.345	-0.140
-218.596	495.964	0.109	0.247
-217.582	445.606	0.094	0.203
-216.567	-200.000	-0.023	0.618
-215.552	-178.445	-0.239	-0.005
-214.538	-200.000	0.052	-0.365
-213.523	345.672	0.193	-0.373
-212.509	-37.377	-0.066	0.035
-211.494	-18.700	-0.273	0.168
-210.479	-21.979	0.082	0.049
-209.465	-119.866	-0.201	-0.034
-208.450	30.859	-0.121	0.102
-207.436	-101.610	0.341	0.081
-206.421	-31.742	-0.129	0.071
-205.406	-25.458	0.250	0.145
-204.392	91.864	0.178	0.197
-203.377	-82.581	0.245	0.078
-202.363	-200.000	0.031	0.215
-201.348	-118.293	0.076	0.013
-200.333	-200.000	-0.002	0.499
-199.319	243.674	-0.084	0.139
-198.304	0.472	-0.083	0.058
-197.290	244.883	-0.149	-0.246
-196.275	-170.346	0.275	-0.009
-195.260	-200.000	0.054	-0.258
-194.246	44.605	-0.213	-0.192
-193.231	-134.880	0.157	0.019
-192.217	360.300	0.097	-0.192
-191.202	-82.386	-0.325	-0.104
-190.187	94.427	0.120	0.134
-189.173	-38.744	0.090	0.047
-188.158	800.000	-0.104	0.288
-187.144	314.941	-0.131	0.243
-186.129	70.734	-0.248	0.252
-185.114	800.000	0.068	-0.199
-184.100	113.992	0.030	0.036
-183.085	-119.841	-0.293	0.050
-182.071	487.713	0.091	-0.204
-181.056	117.468	0.097	-0.118
-180.042	736.962	0.059	0.155
-179.027	391.972	-0.091	-0.185
-178.012	800.000	-0.043	0.130
-176.998	218.724	-0.033	0.051
-175.983	-121.220	0.389	-0.064
-174.969	-59.815	0.286	-0.120
-173.954	-43.983	0.151	0.075
-172.939	-200.000	0.023	0.099
-171.925	-111.945	-0.067	0.013
-170.910	-200.000	0.003	0.359
-169.896	-5.433	0.060	-0.040
-168.881	182.044	0.178	0.258
-167.866	-28.022	0.040	0.023
-166.852	-28.849	-0.051	0.029
-165.837	800.000	0.041	0.168
-164.823	-24.860	-0.093	0.054
-163.808	-92.530	-0.271	-0.075
-162.793	525.630	-0.034	-0.078
-161.779	800.000	-0.003	-0.010
-160.764	794.889	0.123	0.333
-159.750	587.433	-0.055	-0.132
-158.735	60.718	0.037	-0.036
-157.720	23.790	-0.116	-0.094
-156.706	285.777	-0.152	0.269
-155.691	174.667	0.090	0.129
-154.677	545.270	0.034	0.080
-153.662	-135.780	-0.297	0.035
-152.647	185.853	-0.087	0.127
-151.633	-124.846	-0.359	0.054
-150.618	397.498	-0.210	0.431
-149.604	175.699	0.308	0.438
-148.589	-200.000	-0.004	0.228
-147.574	800.000	0.072	-0.230
-146.560	467.744	-0.177	-0.390
-145.545	-82.445	0.100	-0.032
-144.531	268.860	0.116	0.199
-143.516	122.456	-0.029	-0.036
-142.502	-200.000	-0.010	-0.380
-141.487	269.948	0.071	0.122
-140.472	-187.434	0.099	-0.001
-139.458	21.698	-0.137	-0.110
-138.443	800.000	-0.074	0.224
-137.429	35.917	0.211	-0.182
-136.414	-7.552	0.226	0.150
-135.399	-13.911	-0.110	-0.070
-134.385	-200.000	-0.056	0.548
-133.370	-200.000	0.035	0.215
-132.356	660.682	-0.019	-0.047
-131.341	71.379	0.079	-0.081
-130.326	-105.955	-0.328	0.073
-129.312	-171.103	-0.321	0.011
-128.297	-153.125	0.304	0.021
-127.283	161.036	0.153	-0.209
-126.268	-90.203	-0.315	-0.090
-125.253	800.000	-0.045	0.159
-124.239	169.723	-0.110	0.155
-123.224	-191.465	0.225	-0.002
-122.210	-165.284	0.281	-0.012
-121.195	-200.000	0.047	0.250
