DTS Sentinel unit serial number:	SN413079Multiplexer serial number:	ORYXHardware model number:	OX4-SRSoftware version number:	ORYX F/W v4.00 Oryx Data Collector v3.7.2.0data status	okinstallation	princeton_trtdifferential loss correction	single-endedforward channel	channel 2reverse channel	N/Adate	2019/09/12time	18:16:48forward acquisition time	15.00reverse acquisition time	0.00gamma	496.2192k internal	0.2324k external	0.2324temperature offset calibration	1.0141default loss term (dB/km)	0.3790temperature slope calibration	1.0000multiplexer offset coefficient	1.0000multiplexer slope coefficient	1.0000fibre end	0.00T internal ref (°C)	33.50T ext. ref 1 (°C)	2.97T ext. ref 2 (°C)	28.07length (m)	temperature (°C)	Stokes	anti-Stokes-747.200	74.313	0.271	0.287
-746.185	-200.000	0.007	-0.165
-745.171	29.951	0.460	-0.396
-744.156	-200.000	-0.039	-0.758
-743.142	-25.639	-0.407	0.242
-742.127	177.963	0.299	0.440
-741.112	691.241	0.178	0.471
-740.098	224.945	0.178	0.290
-739.083	141.755	0.136	-0.182
-738.069	800.000	-0.157	0.558
-737.054	-174.456	-0.707	-0.020
-736.039	800.000	0.126	0.414
-735.025	800.000	-0.141	-0.414
-734.010	576.799	0.267	-0.659
-732.996	278.023	0.114	-0.205
-731.981	355.383	-0.293	-0.589
-730.966	-82.467	0.793	0.260
-729.952	-19.148	0.661	0.414
-728.937	610.730	0.158	0.398
-727.923	-14.642	-0.260	0.169
-726.908	454.710	-0.490	-1.095
-725.894	800.000	-0.320	-1.038
-724.879	475.448	0.251	-0.572
-723.864	74.856	0.206	0.219
-722.850	-200.000	0.033	0.845
-721.835	-111.471	-0.822	0.169
-720.821	106.050	0.224	0.267
-719.806	-111.261	-0.954	0.197
-718.791	800.000	0.148	0.604
-717.777	-200.000	0.077	-1.106
-716.762	204.658	0.364	-0.570
-715.748	161.532	0.445	-0.628
-714.733	106.866	-0.050	-0.060
-713.718	-200.000	0.041	0.251
-712.704	-200.000	-0.024	0.429
-711.689	-200.000	-0.008	0.085
-710.675	-200.000	0.090	0.942
-709.660	27.527	-0.712	0.604
-708.645	423.080	-0.410	-0.889
-707.631	264.885	0.283	0.497
-706.616	-179.351	-0.340	0.008
-705.602	572.904	0.079	0.195
-704.587	38.650	0.273	-0.245
-703.572	-60.380	0.258	-0.110
-702.558	-139.025	0.559	0.061
-701.543	27.701	0.649	-0.551
-700.529	-40.451	-0.404	0.212
-699.514	-67.582	-0.843	-0.333
-698.499	800.000	-0.089	-0.332
-697.485	-200.000	-0.073	0.413
-696.470	-50.930	-0.483	-0.228
-695.456	-67.097	-0.762	-0.303
-694.441	-34.881	-0.426	0.234
-693.426	-77.412	-0.398	-0.139
-692.412	419.121	-0.052	-0.113
-691.397	596.716	0.339	-0.846
-690.383	495.645	0.398	-0.922
-689.368	-74.374	0.653	-0.238
-688.354	-10.044	-0.603	0.404
-687.339	420.497	-0.089	0.192
-686.324	-37.107	-0.442	-0.238
-685.310	213.867	-0.446	-0.711
-684.295	-200.000	0.099	-0.457
-683.281	-200.000	-0.211	0.932
-682.266	-200.000	0.079	0.448
-681.251	-136.715	-0.990	-0.115
-680.237	231.432	0.066	0.108
-679.222	23.737	0.145	0.121
-678.208	449.439	0.158	-0.350
-677.193	316.719	-0.140	-0.267
-676.178	-200.000	-0.039	0.452
-675.164	237.627	-0.328	0.547
-674.149	3.371	-0.469	0.344
-673.135	63.273	-0.194	-0.196
-672.120	-47.073	0.727	0.357
-671.105	-71.571	-0.271	-0.102
-670.091	-7.754	0.385	0.262
-669.076	-61.685	0.486	0.205
-668.062	-126.455	0.298	0.045
-667.047	238.006	-0.638	-1.066
-666.032	800.000	-0.142	-0.564
-665.018	703.806	-0.271	-0.719
-664.003	-83.684	0.221	0.071
-662.989	41.508	0.495	0.451
-661.974	-52.169	-0.336	0.157
-660.959	-105.344	0.144	0.033
-659.945	-75.337	-0.329	-0.118
-658.930	165.559	-0.125	0.178
-657.916	-0.088	0.365	0.261
-656.901	518.983	-0.089	-0.209
-655.886	7.046	0.317	0.238
-654.872	329.177	-0.145	-0.281
-653.857	30.229	0.257	-0.220
-652.843	5.659	0.447	-0.332
-651.828	800.000	0.210	0.645
-650.814	51.907	-0.399	0.382
-649.799	-198.216	-0.532	-0.003
-648.784	-200.000	0.229	1.031
-647.770	-56.505	-0.323	-0.144
-646.755	48.742	0.628	-0.593
-645.741	800.000	0.128	-0.360
-644.726	157.949	-0.653	0.910
-643.711	90.856	0.353	0.398
-642.697	-65.898	0.424	-0.170
-641.682	-200.000	0.047	0.250
-640.668	-200.000	0.130	0.608
-639.653	-61.651	-0.442	0.186
-638.638	-173.734	-0.896	0.027
-637.624	-93.230	0.251	0.070
-636.609	-200.000	-0.213	-1.009
-635.595	-200.000	-0.065	-0.494
-634.580	800.000	0.233	-0.738
-633.565	-200.000	0.097	0.648
-632.551	16.389	-0.256	0.203
-631.536	84.306	0.309	0.339
-630.522	314.696	0.148	-0.280
-629.507	-17.345	-0.812	-0.514
-628.492	-200.000	0.003	-0.670
-627.478	199.473	-0.296	0.456
-626.463	274.681	0.484	0.861
-625.449	-133.643	-0.551	0.069
-624.434	-200.000	0.082	-0.618
-623.419	-200.000	-0.098	0.516
-622.405	800.000	-0.186	-0.601
-621.390	300.657	-0.140	0.260
-620.376	-22.952	-0.372	0.226
-619.361	27.048	-0.277	-0.234
-618.346	-88.788	0.709	-0.211
-617.332	535.165	-0.147	-0.351
-616.317	138.373	0.379	-0.500
-615.303	-164.302	0.896	-0.041
-614.288	-135.206	0.426	0.051
-613.273	516.584	-0.264	0.620
-612.259	248.001	0.368	0.624
-611.244	-77.929	0.779	-0.270
-610.230	152.279	-0.544	-0.745
-609.215	-114.987	-0.274	0.052
-608.201	219.432	-0.063	0.101
-607.186	-200.000	0.140	0.670
-606.171	151.652	-0.226	0.309
-605.157	536.594	0.279	-0.665
-604.142	-134.509	-0.138	-0.017
-603.128	-200.000	0.009	0.391
-602.113	133.711	0.274	0.356
-601.098	-200.000	0.106	0.484
-600.084	-13.913	-0.253	-0.164
-599.069	-137.576	0.842	-0.095
-598.055	-2.237	-0.416	-0.293
-597.040	-48.137	0.822	0.398
-596.025	-200.000	0.108	-0.810
-595.011	-115.228	-0.719	-0.136
-593.996	57.271	0.189	-0.185
-592.982	300.493	-0.456	-0.844
-591.967	-200.000	-0.022	-0.166
-590.952	800.000	0.167	-0.655
-589.938	157.436	-0.234	0.325
-588.923	-4.116	-0.852	0.592
-587.909	-156.700	-0.255	-0.016
-586.894	26.015	-0.280	-0.235
-585.879	712.433	-0.111	0.296
-584.865	-91.672	-0.847	0.242
-583.850	200.039	-0.513	0.789
-582.836	-165.234	0.204	0.009
-581.821	-33.461	0.288	0.160
-580.806	299.836	-0.117	-0.216
-579.792	800.000	0.185	0.542
-578.777	271.941	0.369	0.653
-577.763	-200.000	0.332	-0.002
-576.748	-93.389	-0.602	-0.167
-575.733	-29.280	-0.455	-0.261
-574.719	-37.681	-0.418	-0.224
-573.704	-200.000	-0.002	-0.313
-572.690	800.000	-0.313	0.926
-571.675	-200.000	0.068	0.329
-570.661	800.000	-0.099	-0.359
-569.646	-139.867	0.459	0.049
-568.631	-156.697	-0.864	0.054
-567.617	-73.817	-0.254	0.092
-566.602	528.270	0.109	-0.258
-565.588	-200.000	-0.023	0.401
-564.573	77.980	-0.624	0.667
-563.558	339.720	0.293	-0.573
-562.544	-200.000	-0.038	-0.394
-561.529	8.370	0.927	-0.699
-560.515	800.000	-0.184	-0.780
-559.500	-101.892	0.192	-0.047
-558.485	-200.000	-0.012	-0.727
-557.471	36.886	0.099	-0.088
-556.456	128.757	0.424	-0.541
-555.442	-54.460	0.650	0.295
-554.427	-24.692	-0.065	-0.039
-553.412	39.683	0.882	-0.793
-552.398	-200.000	0.136	-0.655
-551.383	151.433	-0.590	-0.805
-550.369	81.285	0.334	-0.361
-549.354	-176.697	0.540	-0.014
-548.339	-71.797	-0.510	-0.190
-547.325	-68.977	0.503	-0.194
-546.310	128.068	-0.313	0.399
-545.296	-146.882	-0.250	0.022
-544.281	764.835	-0.095	0.258
-543.266	559.608	0.377	0.911
-542.252	-35.227	-0.551	-0.301
-541.237	-200.000	0.035	1.164
-540.223	-50.688	0.158	-0.074
-539.208	-34.889	0.290	-0.158
-538.193	324.515	0.664	1.270
-537.179	-104.460	0.838	-0.194
-536.164	800.000	-0.087	-0.372
-535.150	36.465	-0.670	0.592
-534.135	457.612	-0.369	0.821
-533.121	-46.637	-0.754	-0.370
-532.106	10.319	0.590	-0.450
-531.091	-200.000	-0.015	-0.319
-530.077	201.837	0.354	0.546
-529.062	-88.195	0.461	-0.138
-528.048	-200.000	-0.102	0.772
-527.033	-2.056	-0.580	-0.408
-526.018	352.891	-0.246	-0.489
-525.004	-96.999	0.696	0.183
-523.989	191.517	-0.414	-0.625
-522.975	-22.815	-0.127	0.076
-521.960	269.225	0.259	0.455
-520.945	800.000	-0.011	0.041
-519.931	-200.000	0.001	1.442
-518.916	-200.000	-0.087	0.629
-517.902	-34.750	0.423	-0.231
-516.887	269.214	-0.192	-0.337
-515.872	-101.005	0.947	-0.233
-514.858	175.370	-0.135	-0.195
-513.843	-200.000	0.082	0.360
-512.829	61.032	0.411	0.409
-511.814	616.015	0.202	0.506
-510.799	-39.186	-0.450	-0.236
-509.785	179.408	-0.482	-0.706
-508.770	-50.994	-0.766	-0.360
-507.756	-200.000	-0.075	0.443
-506.741	-95.222	-1.021	-0.275
-505.726	-104.300	0.548	0.127
-504.712	-200.000	-0.025	-0.545
-503.697	-13.935	-0.227	-0.146
-502.683	-111.851	0.650	-0.131
-501.668	133.452	-0.495	-0.640
-500.653	98.770	0.286	0.330
-499.639	-41.614	0.396	0.203
-498.624	800.000	0.089	-0.301
-497.610	-69.520	-0.710	0.272
-496.595	41.006	-0.170	0.153
-495.581	363.044	-0.099	-0.199
-494.566	-149.771	0.908	-0.071
-493.551	-200.000	-0.026	-0.314
-492.537	196.472	0.100	-0.152
-491.522	-106.384	0.292	-0.065
-490.508	-200.000	-0.037	0.439
-489.493	359.716	0.374	-0.747
-488.478	208.325	0.174	-0.272
-487.464	-200.000	-0.141	-0.820
-486.449	-50.127	0.320	-0.151
-485.435	-67.118	-0.608	0.239
-484.420	-50.514	0.855	-0.403
-483.405	800.000	-0.224	-0.830
-482.391	97.997	-0.192	-0.221
-481.376	800.000	0.056	0.192
-480.362	-150.909	0.283	-0.021
-479.347	-200.000	0.032	-0.271
-478.332	-159.542	-0.782	-0.043
-477.318	-200.000	0.070	-0.709
-476.303	205.994	-0.249	-0.387
-475.289	-34.198	0.707	0.388
-474.274	60.013	0.862	-0.851
-473.259	-136.515	0.345	0.040
-472.245	-200.000	-0.067	0.511
-471.230	304.497	0.327	0.607
-470.216	596.037	-0.334	0.826
-469.201	45.517	-0.707	0.652
-468.186	242.190	-0.621	-1.037
-467.172	164.840	0.453	-0.638
-466.157	-200.000	-0.062	-0.652
-465.143	-85.583	0.295	0.092
-464.128	-79.456	0.523	0.177
-463.113	-165.601	-0.439	0.019
-462.099	-200.000	0.005	-0.465
-461.084	-200.000	-0.393	0.000
-460.070	-115.717	1.011	0.189
-459.055	-200.000	0.054	0.654
-458.040	68.984	0.322	-0.330
-457.026	-63.065	-0.396	0.163
-456.011	384.535	-0.074	-0.153
-454.997	316.136	-0.215	-0.405
-453.982	23.240	-0.208	0.171
-452.968	-128.290	-0.555	0.079
-451.953	-200.000	0.024	-0.682
-450.938	-109.841	-0.248	-0.052
-449.924	-82.344	0.622	0.202
-448.909	167.793	-0.508	0.721
-447.895	485.220	-0.448	1.017
-446.880	770.251	0.174	0.474
-445.865	-83.350	0.333	0.107
-444.851	-138.991	0.470	0.051
-443.836	-8.756	1.089	0.729
-442.822	52.629	-0.129	0.123
-441.807	-13.524	-0.234	0.151
-440.792	-160.709	0.670	0.036
-439.778	8.224	-0.650	-0.487
-438.763	-156.891	0.647	-0.040
-437.749	421.684	-0.431	-0.923
-436.734	800.000	-0.357	-1.042
-435.719	-200.000	-0.096	0.440
-434.705	205.934	-0.190	-0.295
-433.690	416.218	0.110	-0.235
-432.676	800.000	0.200	0.588
-431.661	723.075	-0.073	-0.195
-430.646	685.712	-0.337	0.877
-429.632	313.697	0.114	-0.213
-428.617	-200.000	0.145	-0.712
-427.603	-200.000	0.074	0.689
-426.588	-157.977	0.311	-0.018
-425.573	396.888	0.240	-0.501
-424.559	-104.952	-0.194	0.044
-423.544	-108.382	1.071	0.230
-422.530	-200.000	-0.102	0.734
-421.515	-127.305	-0.170	-0.025
-420.500	-124.710	-0.177	0.027
-419.486	-153.848	-0.596	0.041
-418.471	195.198	-0.430	0.651
-417.457	800.000	0.323	0.947
-416.442	82.086	0.580	0.627
-415.428	558.514	-0.243	0.585
-414.413	35.709	-0.383	-0.335
-413.398	-89.128	-0.164	-0.048
-412.384	189.794	-0.380	0.568
-411.369	73.104	-0.645	0.671
-410.355	263.858	0.198	-0.343
-409.340	-29.506	0.436	0.248
-408.325	22.480	0.314	-0.255
-407.311	-91.796	0.634	0.179
-406.296	103.943	0.424	-0.496
-405.282	-26.618	-0.747	-0.436
-404.267	96.587	-0.724	-0.826
-403.252	-200.000	0.115	0.937
-402.238	172.246	-0.242	-0.346
-401.223	266.555	-0.028	0.049
-400.209	-39.935	-0.766	0.398
-399.194	-200.000	-0.062	-0.313
-398.179	-200.000	0.031	-0.438
-397.165	632.145	-0.500	1.262
-396.150	-124.276	-0.475	-0.074
-395.136	152.110	0.101	0.137
-394.121	-200.000	0.110	0.777
-393.106	-105.047	0.427	-0.097
-392.092	-60.988	0.780	-0.328
-391.077	-20.765	-0.356	-0.218
-390.063	-98.532	0.970	-0.247
-389.048	36.384	0.360	0.316
-388.033	514.062	0.336	0.779
-387.019	-74.014	0.246	-0.089
-386.004	756.583	-0.215	-0.580
-384.990	-140.696	-0.918	0.094
-383.975	800.000	-0.098	0.397
-382.960	748.389	-0.289	0.774
-381.946	-200.000	0.057	-0.286
-380.931	-99.052	0.074	0.019
-379.917	-200.000	0.167	0.840
-378.902	-200.000	-0.007	0.849
-377.888	-200.000	-0.063	0.323
-376.873	-136.334	0.813	0.094
-375.858	-200.000	0.107	0.000
-374.844	15.957	0.669	-0.524
-373.829	-139.388	0.769	-0.082
-372.815	-148.086	-0.547	-0.045
-371.800	-22.601	0.219	-0.132
-370.785	-126.613	0.277	0.041
-369.771	380.687	-0.334	0.682
-368.756	-139.333	-0.576	0.062
-367.742	-60.142	0.425	-0.180
-366.727	120.843	0.378	-0.467
-365.712	90.502	0.494	0.550
-364.698	508.797	-0.367	0.849
-363.683	-200.000	-0.027	0.364
-362.669	-133.007	0.550	0.069
-361.654	-41.989	0.619	0.315
-360.639	800.000	-0.084	-0.259
-359.625	141.148	0.555	0.731
-358.610	-126.672	0.955	0.141
-357.596	-152.650	-0.546	-0.039
-356.581	107.783	-0.305	-0.361
-355.566	-181.664	-0.643	-0.012
-354.552	78.195	-0.620	-0.657
-353.537	70.500	0.375	0.386
-352.523	-200.000	0.044	0.276
-351.508	-53.890	-0.667	0.302
-350.493	-93.195	1.526	0.422
-349.479	-82.681	0.587	-0.189
-348.464	304.937	0.282	-0.521
-347.450	0.723	0.529	-0.376
-346.435	-200.000	0.049	0.410
-345.420	-159.338	-0.198	-0.011
-344.406	177.623	0.350	-0.506
-343.391	800.000	0.267	-1.039
-342.377	109.537	0.311	0.370
-341.362	303.994	0.493	-0.909
-340.348	31.440	-0.276	0.235
-339.333	-75.932	0.135	-0.047
-338.318	-70.457	-0.394	-0.148
-337.304	-200.000	0.320	0.000
-336.289	291.656	-0.205	0.371
-335.275	449.691	-0.046	-0.101
-334.260	27.347	-0.706	0.590
-333.245	-200.000	0.023	0.215
-332.231	-88.483	-0.380	0.113
-331.216	98.362	-0.484	0.554
-330.202	-140.820	-0.513	0.053
-329.187	-28.936	-0.619	0.353
-328.172	5.394	-0.504	0.369
-327.158	-200.000	0.037	-0.171
-326.143	29.713	-0.282	0.239
-325.129	181.744	0.070	0.102
-324.114	-21.056	-0.135	-0.082
-323.099	251.770	-0.305	0.516
-322.085	217.280	0.108	0.171
-321.070	-200.000	-0.045	0.215
-320.056	409.792	-0.152	0.320
-319.041	800.000	-0.221	-0.736
-318.026	-110.485	0.356	-0.073
-317.012	39.038	0.689	-0.612
-315.997	-200.000	-0.042	0.646
-314.983	800.000	0.188	-0.731
-313.968	77.337	0.254	0.268
-312.953	-55.005	0.789	0.353
-311.939	-100.371	-0.783	-0.193
-310.924	-61.369	0.123	0.052
-309.910	502.151	-0.059	-0.136
-308.895	-200.000	-0.186	-0.853
-307.880	-100.041	-0.305	0.075
-306.866	364.083	-0.315	0.629
-305.851	-151.466	-0.447	0.033
-304.837	203.680	-0.261	0.401
-303.822	113.805	0.277	0.334
-302.807	444.321	-0.260	-0.565
-301.793	28.250	-0.444	-0.372
-300.778	-200.000	-0.074	0.572
-299.764	322.338	0.108	-0.205
-298.749	35.634	-0.347	-0.302
-297.735	-118.972	0.229	-0.040
-296.720	-200.000	0.017	0.980
-295.705	-18.386	-0.257	0.159
-294.691	244.393	0.064	0.106
-293.676	800.000	-0.389	-1.342
-292.662	-91.761	-0.209	0.059
-291.647	5.297	0.653	0.478
-290.632	-101.935	-0.169	0.040
-289.618	-200.000	0.057	0.369
-288.603	733.125	0.158	-0.419
-287.589	175.987	0.700	-1.007
-286.574	-139.007	-1.031	0.111
-285.559	75.967	0.329	0.345
-284.545	-141.975	0.145	0.014
-283.530	-80.248	-0.664	0.220
-282.516	161.709	-0.246	-0.341
-281.501	23.249	0.161	-0.131
-280.486	163.380	0.313	-0.436
-279.472	-55.470	0.760	-0.338
-278.457	800.000	0.257	-1.104
-277.443	-77.324	-0.239	0.082
-276.428	-10.532	0.145	-0.095
-275.413	-39.004	0.188	-0.098
-274.399	-200.000	-0.122	-0.596
-273.384	-200.000	0.076	-0.543
-272.370	800.000	-0.187	0.686
-271.355	-133.987	-0.504	-0.062
-270.340	109.296	0.062	-0.074
-269.326	-200.000	-0.005	-0.581
-268.311	17.144	0.399	-0.313
-267.297	-69.236	0.616	0.235
-266.282	41.448	0.588	0.528
-265.267	-87.050	-0.616	0.186
-264.253	800.000	0.208	0.694
-263.238	800.000	0.070	0.257
-262.224	183.677	-0.042	-0.061
-261.209	510.469	0.310	-0.713
-260.195	511.273	0.337	-0.777
-259.180	-107.796	-0.189	0.041
-258.165	10.292	0.345	0.260
-257.151	513.969	0.184	-0.425
-256.136	-29.436	-0.354	0.200
-255.122	800.000	-0.127	-0.499
-254.107	84.801	0.579	0.628
-253.092	800.000	-0.114	0.320
-252.078	202.439	0.470	-0.719
-251.063	-89.473	-0.880	-0.256
-250.049	520.417	-0.365	-0.847
-249.034	30.004	-0.572	0.483
-248.019	800.000	-0.145	0.436
-247.005	-14.419	-0.633	-0.404
-245.990	-124.780	0.515	-0.079
-244.976	-200.000	0.027	1.106
-243.961	149.698	0.203	0.272
-242.946	0.027	-0.162	-0.114
-241.932	229.494	-0.389	-0.628
-240.917	-39.252	1.361	0.708
-239.903	-31.999	0.337	0.187
-238.888	-118.612	0.355	-0.062
-237.873	-144.473	-0.318	-0.029
-236.859	-200.000	0.123	-1.292
-235.844	-153.506	-0.594	0.041
-234.830	652.308	0.054	-0.138
-233.815	-132.982	0.335	-0.042
-232.800	800.000	-0.243	0.887
-231.786	112.396	0.265	-0.317
-230.771	800.000	0.314	1.094
-229.757	28.381	-0.764	0.639
-228.742	-200.000	-0.056	-0.401
-227.727	204.321	0.553	-0.847
-226.713	800.000	0.035	0.141
-225.698	105.108	0.302	-0.353
-224.684	-130.707	-0.466	0.062
-223.669	69.044	-0.058	-0.059
-222.655	-63.858	0.536	-0.217
-221.640	-82.644	0.994	0.318
-220.625	-115.238	-0.095	-0.018
-219.611	-187.711	0.436	-0.006
-218.596	249.126	-0.602	-1.009
-217.582	800.000	-0.146	-0.539
-216.567	308.378	0.253	-0.467
-215.552	143.865	0.589	-0.776
-214.538	-73.774	-0.397	-0.143
-213.523	-133.915	-0.126	0.015
-212.509	-32.716	0.613	-0.337
-211.494	-143.299	-0.334	0.032
-210.479	356.837	-0.152	-0.299
-209.465	22.243	-0.526	-0.425
-208.450	-75.308	-0.113	0.040
-207.436	221.641	-0.118	0.188
-206.421	-23.316	-0.131	0.078
-205.406	-1.648	-0.343	0.239
-204.392	775.895	-0.248	0.668
-203.377	-108.385	-0.377	-0.080
-202.363	-200.000	0.082	0.575
-201.348	-50.898	0.506	-0.235
-200.333	-38.127	-0.871	0.457
-199.319	279.435	0.562	0.992
-198.304	-66.062	-0.271	0.107
-197.290	-32.057	0.645	0.357
-196.275	15.714	-0.353	-0.274
-195.260	-97.569	0.101	-0.026
-194.246	-200.000	-0.026	-0.975
-193.231	-35.315	-0.153	-0.082
-192.217	240.690	-0.250	0.412
-191.202	448.792	-0.208	0.452
-190.187	800.000	-0.254	-0.979
-189.173	-200.000	-0.065	0.445
-188.158	73.557	0.013	-0.014
-187.144	159.200	0.124	0.171
-186.129	547.949	0.225	-0.532
-185.114	47.899	-0.364	-0.336
-184.100	800.000	0.198	0.570
-183.085	-48.104	0.329	0.157
-182.071	35.982	-0.240	-0.208
-181.056	-139.452	-0.392	0.041
-180.042	-200.000	0.002	0.374
-179.027	-126.638	0.100	-0.015
-178.012	217.146	0.225	0.354
-176.998	448.847	-0.174	-0.379
-175.983	-89.417	-0.917	0.266
-174.969	-200.000	0.029	-1.176
-173.954	211.386	0.115	-0.179
-172.939	363.574	-0.357	0.708
-171.925	-200.000	0.075	-1.061
-170.910	800.000	0.181	-0.514
-169.896	98.468	-0.297	0.338
-168.881	27.943	-0.048	-0.040
-167.866	-200.000	-0.185	1.168
-166.852	-200.000	-0.053	0.558
-165.837	323.372	-0.355	-0.668
-164.823	-94.362	-0.727	-0.196
-163.808	700.556	0.161	0.417
-162.793	-150.334	-0.458	-0.035
-161.779	-144.901	-0.966	-0.087
-160.764	-200.000	0.147	-0.841
-159.750	-8.578	0.629	-0.417
-158.735	-38.739	0.262	-0.136
-157.720	-121.142	-0.149	-0.025
-156.706	-176.590	0.395	-0.010
-155.691	-159.836	-0.573	-0.031
-154.677	190.526	-0.486	0.721
-153.662	-1.633	0.438	0.305
-152.647	147.292	0.414	-0.550
-151.633	-86.676	-0.707	0.213
-150.618	-95.826	0.691	-0.182
-149.604	529.324	0.183	0.425
-148.589	-200.000	0.031	0.157
-147.574	455.022	-0.249	-0.544
-146.560	761.038	-0.306	0.818
-145.545	-13.822	0.659	0.420
-144.531	189.499	-0.292	0.432
-143.516	160.219	0.034	-0.047
-142.502	-200.000	-0.178	0.782
-141.487	-136.853	-0.822	-0.093
-140.472	43.448	0.514	0.463
-139.458	90.733	0.465	0.513
-138.443	-200.000	0.062	0.378
-137.429	-47.351	0.690	0.331
-136.414	505.043	0.120	0.274
-135.399	-145.307	0.442	0.039
-134.385	800.000	-0.148	0.510
-133.370	-200.000	-0.082	0.368
-132.356	35.247	-0.248	0.215
-131.341	-200.000	-0.037	0.480
-130.326	188.246	0.581	0.856
-129.312	-116.053	0.249	-0.046
-128.297	-118.820	-0.678	-0.118
-127.283	-200.000	-0.051	-0.762
-126.268	-128.716	-0.611	-0.085
-125.253	76.755	-0.939	-0.982
-124.239	-78.667	0.994	-0.335
-123.224	-200.000	-0.095	-0.442
-122.210	-2.309	-0.747	-0.516
