DTS Sentinel unit serial number:	SN413079Multiplexer serial number:	ORYXHardware model number:	OX4-SRSoftware version number:	ORYX F/W v4.00 Oryx Data Collector v3.7.2.0data status	okinstallation	princeton_trtdifferential loss correction	single-endedforward channel	channel 2reverse channel	N/Adate	2019/09/19time	00:27:35forward acquisition time	60.00reverse acquisition time	0.00gamma	496.2192k internal	0.2352k external	0.2352temperature offset calibration	1.0019default loss term (dB/km)	0.3790temperature slope calibration	1.0000multiplexer offset coefficient	1.0000multiplexer slope coefficient	1.0000fibre end	0.00T internal ref (°C)	22.50T ext. ref 1 (°C)	0.74T ext. ref 2 (°C)	15.43length (m)	temperature (°C)	Stokes	anti-Stokes-747.200	800.000	-0.077	0.332
-746.185	-3.692	-0.203	0.141
-745.171	3.136	-0.050	-0.036
-744.156	158.909	0.108	-0.150
-743.142	39.553	-0.050	0.045
-742.127	297.944	0.133	0.243
-741.112	-71.113	0.179	0.067
-740.098	13.392	-0.068	-0.052
-739.083	-45.150	-0.148	-0.074
-738.069	-200.000	0.022	0.275
-737.054	569.128	0.058	0.140
-736.039	193.994	-0.249	-0.375
-735.025	-73.841	-0.219	0.079
-734.010	536.177	0.054	-0.128
-732.996	800.000	-0.041	-0.171
-731.981	144.004	0.115	-0.153
-730.966	-200.000	-0.070	0.349
-729.952	65.672	0.044	-0.045
-728.937	-41.530	-0.026	-0.014
-727.923	-200.000	0.013	-0.264
-726.908	-63.894	-0.251	-0.102
-725.894	-121.140	-0.204	0.034
-724.879	14.894	-0.229	0.179
-723.864	53.238	-0.172	-0.164
-722.850	157.538	0.117	0.162
-721.835	800.000	-0.046	-0.137
-720.821	-131.956	-0.305	0.040
-719.806	-122.568	-0.238	0.039
-718.791	-200.000	0.006	-0.053
-717.777	-94.219	0.265	-0.072
-716.762	800.000	-0.090	-0.341
-715.748	199.120	-0.126	0.193
-714.733	-45.584	0.182	0.090
-713.718	99.292	0.045	0.052
-712.704	490.594	-0.152	-0.347
-711.689	-112.466	0.153	0.031
-710.675	118.660	-0.099	0.121
-709.660	27.812	0.124	0.104
-708.645	-12.390	0.065	0.042
-707.631	-146.108	0.207	0.018
-706.616	-157.755	-0.600	-0.036
-705.602	14.246	0.230	0.179
-704.587	-121.315	-0.230	-0.038
-703.572	212.332	-0.111	-0.174
-702.558	-121.389	-0.196	0.032
-701.543	-71.514	-0.347	-0.129
-700.529	599.134	-0.050	-0.124
-699.514	152.879	0.133	0.181
-698.499	-200.000	0.018	0.125
-697.485	-108.469	-0.295	0.063
-696.470	197.963	-0.202	0.307
-695.456	-200.000	0.017	-0.091
-694.441	-95.496	-0.172	-0.046
-693.426	-59.553	-0.160	0.068
-692.412	725.967	0.071	0.187
-691.397	202.028	0.214	0.328
-690.383	158.968	0.037	0.051
-689.368	99.147	0.056	0.064
-688.354	-7.456	-0.312	0.211
-687.339	209.040	-0.273	0.425
-686.324	-100.654	-0.114	-0.028
-685.310	-113.246	0.061	-0.012
-684.295	340.071	0.098	-0.191
-683.281	-200.000	-0.019	-0.383
-682.266	213.739	-0.137	-0.215
-681.251	-136.209	0.072	-0.008
-680.237	-98.340	-0.254	0.065
-679.222	-142.181	-0.151	-0.015
-678.208	-47.155	0.127	0.062
-677.193	-174.820	0.293	-0.008
-676.178	-200.000	0.001	-0.095
-675.164	63.841	-0.143	-0.143
-674.149	-14.579	0.164	-0.105
-673.135	-98.150	-0.249	0.064
-672.120	625.008	-0.115	-0.288
-671.105	43.782	0.244	0.222
-670.091	469.386	0.122	-0.272
-669.076	-49.508	-0.295	-0.140
-668.062	-200.000	-0.019	0.388
-667.047	-13.077	-0.170	-0.110
-666.032	800.000	-0.049	-0.172
-665.018	1.438	0.162	0.116
-664.003	343.592	0.104	0.202
-662.989	249.709	0.199	-0.335
-661.974	-62.343	-0.171	0.071
-660.959	-31.412	0.102	-0.057
-659.945	139.552	-0.055	-0.072
-658.930	308.338	-0.091	-0.170
-657.916	289.214	0.055	-0.100
-656.901	-200.000	0.018	0.136
-655.886	4.734	-0.414	0.302
-654.872	-70.750	0.222	-0.083
-653.857	-3.687	-0.142	0.098
-652.843	-127.877	0.104	0.015
-651.828	115.270	-0.245	0.297
-650.814	-155.229	-0.383	-0.025
-649.799	-163.063	-0.273	-0.013
-648.784	-141.598	-0.171	-0.017
-647.770	-180.140	-0.095	-0.002
-646.755	-110.405	-0.043	-0.009
-645.741	39.403	0.088	0.078
-644.726	-28.282	-0.344	0.198
-643.711	-3.168	0.051	-0.036
-642.697	116.394	0.027	-0.033
-641.682	21.831	-0.178	0.144
-640.668	-200.000	-0.024	0.380
-639.653	800.000	0.012	-0.035
-638.638	-123.795	0.123	-0.019
-637.624	-60.579	-0.193	-0.081
-636.609	-200.000	0.015	-0.101
-635.595	-200.000	-0.011	-0.226
-634.580	-152.744	-0.203	0.014
-633.565	-200.000	-0.017	0.075
-632.551	-44.901	-0.230	-0.114
-631.536	768.461	-0.045	-0.121
-630.522	-111.681	-0.339	0.068
-629.507	-54.997	0.046	0.021
-628.492	393.641	-0.047	0.098
-627.478	-55.055	-0.215	0.096
-626.463	800.000	-0.037	0.134
-625.449	-14.877	0.230	-0.146
-624.434	21.360	-0.102	-0.082
-623.419	-2.254	-0.201	-0.140
-622.405	-200.000	-0.343	0.000
-621.390	-27.116	-0.394	-0.228
-620.376	-200.000	0.078	0.401
-619.361	800.000	0.067	0.214
-618.346	211.721	0.015	-0.023
-617.332	-153.839	0.281	-0.019
-616.317	-91.424	-0.318	-0.090
-615.303	-27.751	0.173	-0.099
-614.288	-98.990	0.280	0.071
-613.273	609.973	0.051	-0.125
-612.259	-200.000	0.013	-0.276
-611.244	93.046	0.161	0.181
-610.230	-87.357	0.193	0.058
-609.215	99.657	0.094	0.108
-608.201	-120.630	-0.403	-0.068
-607.186	-92.596	0.177	-0.049
-606.171	-8.827	0.221	0.147
-605.157	-30.699	0.063	0.036
-604.142	-200.000	0.008	0.081
-603.128	-166.927	0.235	-0.010
-602.113	-200.000	0.015	-0.213
-601.098	-28.715	0.313	-0.178
-600.084	2.791	0.038	-0.027
-599.069	-65.864	0.107	-0.042
-598.055	474.653	0.076	-0.170
-597.040	-74.240	-0.292	-0.105
-596.025	431.233	-0.119	0.255
-595.011	100.236	-0.136	0.157
-593.996	-29.924	0.231	-0.131
-592.982	638.686	0.076	0.192
-591.967	-200.000	-0.071	0.330
-590.952	-27.989	0.093	0.053
-589.938	800.000	0.141	0.403
-588.923	-129.553	0.098	-0.013
-587.909	-108.581	0.184	0.039
-586.894	-97.029	-0.133	-0.035
-585.879	-116.037	0.453	0.084
-584.865	148.784	0.061	0.081
-583.850	-95.540	-0.259	-0.069
-582.836	-67.172	0.319	0.124
-581.821	800.000	-0.030	-0.127
-580.806	-42.232	0.291	-0.148
-579.792	176.997	-0.136	-0.196
-578.777	800.000	-0.051	0.193
-577.763	-80.939	0.311	-0.102
-576.748	-173.355	-0.328	0.010
-575.733	-170.648	-0.249	0.009
-574.719	190.612	-0.042	0.063
-573.704	-148.624	-0.144	-0.012
-572.690	-73.005	-0.105	-0.038
-571.675	3.148	0.229	0.165
-570.661	-8.137	0.274	0.183
-569.646	-200.000	-0.051	0.293
-568.631	109.715	-0.299	-0.355
-567.617	135.305	0.123	0.159
-566.602	-45.931	-0.148	-0.072
-565.588	-200.000	-0.008	0.050
-564.573	-152.764	-0.178	0.013
-563.558	-88.039	-0.273	0.081
-562.544	75.859	0.189	0.198
-561.529	-28.700	0.120	0.068
-560.515	800.000	-0.069	0.254
-559.500	57.331	-0.116	0.112
-558.485	-117.402	-0.174	-0.031
-557.471	800.000	-0.057	0.232
-556.456	290.152	0.109	-0.197
-555.442	-79.989	-0.242	-0.080
-554.427	-177.316	0.197	-0.005
-553.412	800.000	-0.095	-0.260
-552.398	-200.000	0.020	-0.219
-551.383	-127.442	0.154	0.022
-550.369	24.659	0.132	0.108
-549.354	-108.984	-0.046	-0.010
-548.339	800.000	0.054	0.154
-547.325	13.053	0.091	0.070
-546.310	-17.330	0.139	0.087
-545.296	-175.849	0.295	0.008
-544.281	-200.000	0.026	0.204
-543.266	800.000	0.041	-0.130
-542.252	-200.000	-0.015	-0.206
-541.237	800.000	-0.106	0.322
-540.223	-200.000	-0.018	0.553
-539.208	81.153	-0.140	-0.150
-538.193	800.000	0.050	-0.138
-537.179	401.986	0.082	0.171
-536.164	-120.096	-0.079	0.013
-535.150	-200.000	0.051	-0.224
-534.135	-200.000	0.024	-0.252
-533.121	36.616	0.146	0.128
-532.106	131.408	0.074	-0.094
-531.091	82.420	0.260	-0.279
-530.077	-77.612	-0.135	0.046
-529.062	46.017	-0.014	-0.013
-528.048	-95.049	-0.189	0.051
-527.033	-200.000	-0.062	0.377
-526.018	-12.264	0.231	0.150
-525.004	8.944	0.116	-0.087
-523.989	77.100	-0.181	-0.190
-522.975	47.496	-0.272	0.251
-521.960	36.891	0.168	-0.147
-520.945	91.437	0.172	0.191
-519.931	-52.074	-0.159	-0.073
-518.916	154.006	-0.087	-0.118
-517.902	-137.015	0.189	-0.021
-516.887	800.000	-0.041	-0.121
-515.872	791.640	-0.083	0.226
-514.858	450.576	-0.057	0.125
-513.843	23.859	-0.195	0.159
-512.829	-200.000	0.006	-0.144
-511.814	-104.375	-0.258	0.059
-510.799	-10.931	0.110	0.072
-509.785	-142.750	-0.122	0.012
-508.770	-13.956	-0.370	-0.236
-507.756	800.000	-0.062	-0.263
-506.741	55.578	0.248	0.238
-505.726	-72.289	-0.456	0.167
-504.712	-50.764	-0.209	-0.097
-503.697	-181.864	-0.098	-0.002
-502.683	539.683	-0.131	-0.308
-501.668	137.432	0.226	-0.293
-500.653	31.286	-0.263	-0.223
-499.639	-192.781	-0.139	-0.001
-498.624	46.530	0.116	-0.106
-497.610	30.288	-0.346	0.292
-496.595	590.519	0.107	0.260
-495.581	-2.094	0.186	0.129
-494.566	-12.279	0.313	0.202
-493.551	17.246	-0.130	-0.102
-492.537	800.000	-0.023	0.075
-491.522	800.000	0.042	-0.117
-490.508	-118.727	-0.145	0.025
-489.493	-105.823	0.247	0.055
-488.478	71.186	0.129	-0.132
-487.464	-200.000	0.060	-0.344
-486.449	139.427	-0.108	-0.140
-485.435	37.850	0.177	-0.155
-484.420	12.816	-0.238	-0.182
-483.405	662.751	0.087	-0.221
-482.391	-140.714	-0.164	0.017
-481.376	-85.644	-0.331	-0.102
-480.362	-200.000	0.028	0.124
-479.347	800.000	0.036	-0.150
-478.332	-147.218	0.298	0.025
-477.318	-95.710	0.052	0.014
-476.303	66.182	-0.193	-0.193
-475.289	75.628	0.230	-0.239
-474.274	69.638	0.184	-0.187
-473.259	47.562	0.136	-0.126
-472.245	-127.465	-0.106	-0.015
-471.230	633.300	-0.109	-0.274
-470.216	-72.721	0.329	-0.120
-469.201	-116.353	-0.407	0.074
-468.186	543.134	-0.052	-0.121
-467.172	-171.213	0.194	0.006
-466.157	-200.000	-0.006	-0.297
-465.143	800.000	-0.093	0.260
-464.128	800.000	0.043	-0.140
-463.113	-72.040	0.270	-0.099
-462.099	193.182	-0.154	0.230
-461.084	151.750	0.253	0.341
-460.070	-200.000	0.020	-0.102
-459.055	800.000	0.018	-0.065
-458.040	67.552	0.040	-0.040
-457.026	387.089	-0.061	-0.124
-456.011	38.240	0.140	-0.123
-454.997	-200.000	0.078	-0.371
-453.982	193.662	-0.052	-0.077
-452.968	21.963	-0.111	-0.090
-451.953	78.140	-0.105	0.111
-450.938	40.808	-0.173	0.154
-449.924	49.339	-0.174	0.161
-448.909	-129.221	0.260	0.036
-447.895	24.534	0.395	-0.322
-446.880	195.639	-0.079	0.119
-445.865	293.800	-0.027	-0.048
-444.851	-89.566	0.198	-0.057
-443.836	-200.000	0.027	0.365
-442.822	-16.385	-0.176	0.110
-441.807	-108.772	0.201	0.042
-440.792	-200.000	0.015	0.188
-439.778	-100.448	-0.333	-0.081
-438.763	-42.432	-0.212	0.106
-437.749	32.458	-0.072	0.061
-436.734	111.458	0.185	-0.220
-435.719	-176.560	0.154	-0.004
-434.705	-200.000	0.042	0.295
-433.690	-200.000	0.005	0.051
-432.676	-200.000	-0.016	-0.175
-431.661	-200.000	0.041	-0.179
-430.646	-200.000	-0.017	0.090
-429.632	409.817	-0.021	-0.043
-428.617	-178.632	0.272	0.006
-427.603	352.645	0.064	0.126
-426.588	-108.183	-0.154	0.033
-425.573	-92.667	-0.192	0.053
-424.559	-200.000	0.020	-0.108
-423.544	-26.270	-0.165	0.096
-422.530	284.662	-0.058	0.104
-421.515	34.208	0.298	-0.256
-420.500	-110.781	0.290	-0.059
-419.486	800.000	0.040	0.130
-418.471	-37.887	0.228	0.119
-417.457	-20.748	0.472	0.285
-416.442	-39.949	0.035	0.018
-415.428	800.000	-0.060	-0.185
-414.413	480.446	-0.046	0.102
-413.398	-200.000	-0.026	0.196
-412.384	-200.000	-0.023	0.209
-411.369	-200.000	0.007	-0.136
-410.355	7.008	-0.223	-0.163
-409.340	28.766	0.256	-0.214
-408.325	387.776	-0.081	-0.165
-407.311	-200.000	0.035	-0.357
-406.296	-89.527	0.186	0.054
-405.282	131.378	-0.252	-0.319
-404.267	109.386	0.212	-0.249
-403.252	-59.319	-0.214	0.091
-402.238	-61.454	0.148	0.061
-401.223	308.301	-0.029	0.053
-400.209	-200.000	0.006	-0.029
-399.194	-37.103	0.408	0.215
-398.179	120.949	-0.148	0.181
-397.165	-200.000	0.003	-0.197
-396.150	-200.000	-0.026	-0.232
-395.136	-200.000	-0.067	-0.317
-394.121	219.032	-0.064	-0.100
-393.106	800.000	0.077	-0.286
-392.092	56.386	-0.278	0.266
-391.077	-74.822	0.239	0.084
-390.063	-54.004	0.200	-0.090
-389.048	-137.071	0.105	0.012
-388.033	-200.000	-0.026	-0.368
-387.019	-200.000	0.002	0.098
-386.004	-167.076	-0.265	-0.011
-384.990	-14.682	0.179	0.113
-383.975	-127.371	-0.303	-0.043
-382.960	48.293	0.315	-0.290
-381.946	800.000	-0.026	-0.076
-380.931	27.781	-0.223	0.185
-379.917	58.000	-0.080	-0.077
-378.902	-59.030	0.108	-0.046
-377.888	-58.542	0.024	0.010
-376.873	-200.000	0.023	0.284
-375.858	-69.454	0.250	-0.094
-374.844	-0.301	-0.268	0.187
-373.829	-42.098	-0.113	-0.057
-372.815	30.187	0.318	0.267
-371.800	54.537	0.099	-0.094
-370.785	415.408	0.083	-0.175
-369.771	751.462	0.086	0.228
-368.756	-140.536	-0.082	0.008
-367.742	75.711	0.092	-0.095
-366.727	-40.495	-0.407	0.208
-365.712	13.831	-0.295	-0.225
-364.698	360.583	-0.245	0.482
-363.683	-200.000	-0.030	0.186
-362.669	311.827	-0.131	-0.241
-361.654	-68.086	0.295	0.113
-360.639	326.384	0.100	-0.188
-359.625	-200.000	0.005	-0.042
-358.610	800.000	-0.078	-0.227
-357.596	800.000	0.095	-0.273
-356.581	26.078	-0.098	0.080
-355.566	48.990	-0.136	-0.125
-354.552	800.000	0.023	0.087
-353.537	-69.404	-0.261	-0.098
-352.523	376.589	-0.112	-0.225
-351.508	111.956	-0.182	0.216
-350.493	-186.255	0.295	-0.004
-349.479	-33.968	0.140	-0.075
-348.464	7.573	0.233	-0.171
-347.450	-99.184	-0.235	-0.058
-346.435	-9.194	-0.393	0.258
-345.420	-53.820	-0.096	0.043
-344.406	-39.916	0.067	-0.034
-343.391	58.665	-0.062	0.060
-342.377	105.735	0.207	0.241
-341.362	800.000	0.073	0.254
-340.348	-76.663	0.106	0.037
-339.333	4.634	0.303	0.219
-338.318	184.681	0.135	-0.197
-337.304	16.854	-0.102	-0.079
-336.289	800.000	0.059	-0.199
-335.275	567.185	-0.095	0.227
-334.260	221.422	-0.108	0.171
-333.245	-125.709	0.206	-0.031
-332.231	800.000	-0.048	-0.163
-331.216	-108.167	-0.191	0.041
-330.202	-99.943	0.339	-0.083
-329.187	800.000	-0.049	-0.212
-328.172	-25.366	0.117	-0.068
-327.158	-200.000	-0.007	-0.371
-326.143	-67.500	0.134	0.052
-325.129	-110.222	0.250	0.051
-324.114	690.875	-0.016	0.042
-323.099	209.181	0.069	0.106
-322.085	249.059	-0.135	-0.224
-321.070	464.828	0.055	0.121
-320.056	524.167	0.062	-0.142
-319.041	800.000	-0.019	0.056
-318.026	-29.437	0.218	0.123
-317.012	-88.647	0.280	-0.082
-315.997	-116.176	-0.117	0.021
-314.983	271.237	0.107	0.185
-313.968	-200.000	-0.003	0.215
-312.953	198.437	-0.234	-0.351
-311.939	-200.000	0.052	0.623
-310.924	178.046	-0.106	0.152
-309.910	-87.078	0.201	0.060
-308.895	-33.612	0.144	-0.078
-307.880	38.629	0.212	0.185
-306.866	79.501	0.308	-0.324
-305.851	-29.821	-0.166	-0.093
-304.837	588.034	0.057	0.139
-303.822	-200.000	-0.026	0.261
-302.807	-200.000	-0.009	0.071
-301.793	116.522	-0.304	-0.366
-300.778	-137.150	-0.349	0.039
-299.764	-200.000	0.029	0.285
-298.749	800.000	-0.093	-0.299
-297.735	356.660	-0.060	-0.117
-296.720	-171.111	-0.427	-0.014
-295.705	74.368	-0.203	0.209
-294.691	-200.000	0.084	-0.377
-293.676	-113.455	0.415	0.080
-292.662	-57.185	-0.112	0.048
-291.647	423.714	0.020	-0.043
-290.632	-17.382	-0.129	0.079
-289.618	33.615	-0.198	0.169
-288.603	576.508	0.025	0.059
-287.589	-123.751	0.124	0.019
-286.574	-200.000	0.072	0.328
-285.559	-128.386	0.108	-0.015
-284.545	-155.926	-0.170	-0.011
-283.530	193.320	0.103	-0.152
-282.516	62.180	-0.150	0.146
-281.501	800.000	0.121	0.415
-280.486	-200.000	0.036	0.180
-279.472	800.000	-0.076	-0.317
-278.457	-83.696	0.236	-0.074
-277.443	80.622	-0.198	0.209
-276.428	800.000	-0.056	-0.177
-275.413	-48.816	-0.147	-0.069
-274.399	-200.000	-0.044	0.242
-273.384	64.385	0.096	0.095
-272.370	249.016	0.278	0.461
-271.355	419.855	0.234	-0.491
-270.340	-10.585	-0.299	-0.194
-269.326	-148.602	0.135	-0.011
-268.311	188.607	0.267	0.391
-267.297	95.166	0.118	-0.132
-266.282	-200.000	-0.017	-0.272
-265.267	-200.000	-0.013	0.063
-264.253	-32.877	0.260	0.141
-263.238	-102.811	-0.124	0.029
-262.224	-200.000	-0.005	-0.128
-261.209	26.269	-0.280	-0.229
-260.195	14.509	-0.102	0.078
-259.180	-16.660	-0.100	-0.062
-258.165	634.063	0.093	0.232
-257.151	174.725	0.059	-0.083
-256.136	800.000	0.016	0.047
-255.122	-132.649	0.030	0.004
-254.107	194.834	0.198	-0.294
-253.092	-49.868	-0.478	0.222
-252.078	10.239	0.121	0.090
-251.063	-149.236	0.155	0.012
-250.049	-27.358	-0.386	0.220
-249.034	-161.864	0.148	0.007
-248.019	57.858	0.310	0.297
-247.005	-73.309	-0.305	0.109
-245.990	40.728	-0.172	0.152
-244.976	87.224	-0.190	-0.206
-243.961	-118.653	0.267	0.046
-242.946	60.169	-0.027	0.026
-241.932	-8.305	-0.094	0.062
-240.917	198.739	0.137	0.206
-239.903	-200.000	0.011	0.285
-238.888	42.637	0.288	0.256
-237.873	-200.000	0.009	-0.084
-236.859	-139.562	0.209	-0.022
-235.844	800.000	0.155	-0.483
-234.830	-143.794	0.206	0.019
-233.815	800.000	-0.079	-0.250
-232.800	-87.405	-0.210	-0.062
-231.786	-109.743	-0.362	0.074
-230.771	-200.000	0.004	0.093
-229.757	116.431	0.028	-0.034
-228.742	34.175	-0.357	0.304
-227.727	-128.001	-0.013	0.002
-226.713	214.350	0.183	-0.283
-225.698	-37.718	-0.162	0.084
-224.684	540.249	0.060	-0.139
-223.669	-142.750	0.420	-0.040
-222.655	14.060	-0.209	0.159
-221.640	-91.343	0.443	0.124
-220.625	101.484	0.060	-0.068
-219.611	-200.000	-0.010	-0.061
-218.596	-156.074	0.210	0.013
-217.582	-55.389	-0.157	0.069
-216.567	253.725	0.106	0.177
-215.552	800.000	0.032	-0.099
-214.538	-200.000	-0.019	-0.118
-213.523	800.000	0.072	0.201
-212.509	800.000	-0.061	-0.183
-211.494	-138.025	-0.118	0.013
-210.479	-152.959	0.261	-0.018
-209.465	478.377	0.079	0.174
-208.450	730.041	-0.114	0.298
-207.436	800.000	-0.048	0.169
-206.421	-7.109	-0.361	0.239
-205.406	800.000	-0.055	0.161
-204.392	11.517	-0.160	-0.120
-203.377	800.000	-0.120	-0.405
-202.363	800.000	-0.067	0.227
-201.348	-10.818	-0.021	0.014
-200.333	447.880	-0.159	-0.343
-199.319	-88.544	-0.198	-0.057
-198.304	691.642	0.076	0.194
-197.290	-200.000	0.036	0.250
-196.275	-12.611	0.100	0.063
-195.260	-33.271	0.184	0.099
-194.246	100.758	0.113	0.128
-193.231	-100.963	-0.250	-0.060
-192.217	-200.000	-0.026	-0.257
-191.202	-39.598	-0.172	-0.088
-190.187	-108.003	-0.153	0.032
-189.173	99.441	-0.253	0.286
-188.158	-36.060	0.085	-0.045
-187.144	800.000	-0.072	0.202
-186.129	-200.000	0.001	-0.124
-185.114	635.930	0.122	0.301
-184.100	36.692	-0.121	0.105
-183.085	800.000	0.090	-0.279
-182.071	233.287	0.089	0.143
-181.056	-30.469	-0.089	0.049
-180.042	-200.000	0.016	-0.097
-179.027	-59.611	0.266	-0.111
-178.012	101.884	0.286	-0.326
-176.998	0.082	-0.134	-0.093
-175.983	14.936	-0.264	-0.202
-174.969	-179.497	0.233	0.005
-173.954	-131.019	0.415	-0.054
-172.939	-117.264	0.198	-0.035
-171.925	-65.567	-0.591	-0.231
-170.910	800.000	-0.024	0.094
-169.896	761.258	-0.062	-0.163
-168.881	-35.566	0.158	-0.083
-167.866	155.874	0.084	-0.114
-166.852	-196.580	-0.260	-0.002
-165.837	-200.000	0.008	-0.135
-164.823	-11.187	0.130	0.083
-163.808	528.332	-0.149	0.344
-162.793	800.000	0.124	0.360
-161.779	800.000	0.080	-0.215
-160.764	-200.000	-0.015	-0.138
-159.750	-200.000	0.069	-0.477
-158.735	-53.515	-0.167	-0.075
-157.720	-200.000	-0.008	0.149
-156.706	216.017	-0.285	-0.441
-155.691	113.928	-0.044	-0.052
-154.677	-200.000	0.008	0.188
-153.662	-200.000	-0.070	-0.444
-152.647	114.763	0.175	-0.208
-151.633	800.000	-0.076	0.254
-150.618	-98.705	0.268	-0.067
-149.604	-172.151	-0.309	-0.010
-148.589	-60.476	-0.152	-0.063
-147.574	-200.000	0.046	0.336
-146.560	140.137	0.248	-0.318
-145.545	800.000	-0.165	-0.491
-144.531	236.244	0.108	0.174
-143.516	-200.000	-0.041	0.585
-142.502	-55.604	0.314	-0.137
-141.487	-119.768	-0.451	0.076
-140.472	-123.638	-0.233	-0.036
-139.458	-96.771	0.224	-0.057
-138.443	34.209	0.327	-0.278
-137.429	63.679	-0.172	-0.168
-136.414	-56.461	-0.525	-0.227
-135.399	-200.000	-0.008	0.096
-134.385	-200.000	-0.007	0.149
-133.370	-28.473	-0.456	-0.256
-132.356	309.204	-0.051	0.092
-131.341	800.000	0.068	-0.205
-130.326	295.565	0.104	0.185
-129.312	21.731	-0.090	0.072
-128.297	-117.545	0.080	0.014
-127.283	-56.623	0.211	-0.091
-126.268	-69.508	-0.095	0.035
-125.253	670.201	-0.069	-0.175
-124.239	50.473	-0.136	-0.126
-123.224	-122.971	0.028	-0.004
-122.210	800.000	0.049	-0.162
-121.195	11.539	0.060	-0.045
