DTS Sentinel unit serial number:	SN413079Multiplexer serial number:	ORYXHardware model number:	OX4-SRSoftware version number:	ORYX F/W v4.00 Oryx Data Collector v3.7.2.0data status	okinstallation	princeton_trtdifferential loss correction	single-endedforward channel	channel 2reverse channel	N/Adate	2019/09/14time	13:03:35forward acquisition time	60.00reverse acquisition time	0.00gamma	496.2192k internal	0.2306k external	0.2306temperature offset calibration	1.0158default loss term (dB/km)	0.3790temperature slope calibration	1.0000multiplexer offset coefficient	1.0000multiplexer slope coefficient	1.0000fibre end	0.00T internal ref (°C)	37.97T ext. ref 1 (°C)	4.86T ext. ref 2 (°C)	33.00length (m)	temperature (°C)	Stokes	anti-Stokes-747.200	800.000	0.056	-0.221
-746.185	-200.000	-0.008	0.042
-745.171	-200.000	-0.008	0.095
-744.156	-200.000	0.061	0.413
-743.142	2.619	-0.195	-0.144
-742.127	-200.000	-0.020	0.676
-741.112	179.281	-0.112	-0.167
-740.098	800.000	0.106	0.402
-739.083	37.347	-0.142	0.128
-738.069	-200.000	0.051	-0.483
-737.054	-69.572	0.164	-0.064
-736.039	26.286	-0.305	0.259
-735.025	89.146	-0.291	0.330
-734.010	-153.718	0.116	-0.008
-732.996	-58.783	-0.112	-0.049
-731.981	315.614	-0.206	-0.395
-730.966	232.194	-0.152	-0.254
-729.952	-77.365	-0.179	-0.063
-728.937	8.163	-0.204	-0.156
-727.923	-200.000	0.046	-0.211
-726.908	-164.250	-0.171	0.008
-725.894	322.343	-0.126	-0.244
-724.879	44.502	0.079	-0.074
-723.864	1.905	-0.070	-0.052
-722.850	-29.017	0.193	0.112
-721.835	-67.781	-0.124	0.049
-720.821	-101.609	0.051	-0.013
-719.806	-200.000	-0.009	-0.183
-718.791	278.383	-0.152	0.275
-717.777	202.276	0.176	-0.276
-716.762	-200.000	0.052	-0.397
-715.748	800.000	0.101	0.385
-714.733	-185.849	-0.058	-0.001
-713.718	-45.941	0.354	-0.177
-712.704	-200.000	0.001	-0.157
-711.689	-53.856	-0.170	-0.079
-710.675	-133.665	-0.119	-0.015
-709.660	9.273	0.212	-0.163
-708.645	-92.292	0.253	-0.073
-707.631	-3.347	0.101	0.072
-706.616	-122.229	-0.125	-0.021
-705.602	33.858	0.199	0.176
-704.587	-108.030	-0.289	-0.064
-703.572	301.130	-0.044	-0.083
-702.558	-50.094	0.040	-0.019
-701.543	-6.126	-0.175	0.122
-700.529	-200.000	0.009	-0.087
-699.514	-181.694	-0.202	-0.004
-698.499	317.904	0.034	0.066
-697.485	442.945	-0.088	-0.196
-696.470	147.347	0.089	0.121
-695.456	-200.000	0.033	0.175
-694.441	-163.950	0.141	-0.007
-693.426	-82.577	-0.269	0.089
-692.412	-115.246	-0.224	0.043
-691.397	-34.604	0.399	-0.222
-690.383	800.000	0.087	-0.260
-689.368	196.450	-0.086	-0.134
-688.354	-19.411	0.297	0.187
-687.339	-68.694	-0.118	-0.046
-686.324	-112.284	0.257	0.052
-685.310	-121.988	0.121	-0.020
-684.295	-24.748	0.075	-0.045
-683.281	10.862	0.183	-0.142
-682.266	203.230	-0.145	-0.228
-681.251	-23.808	0.157	0.096
-680.237	230.824	-0.283	0.470
-679.222	391.239	0.170	0.359
-678.208	-181.317	-0.245	0.005
-677.193	747.636	-0.068	0.186
-676.178	-95.529	-0.114	0.031
-675.164	532.101	-0.078	-0.188
-674.149	-159.286	0.235	0.013
-673.135	-200.000	0.002	-0.362
-672.120	800.000	-0.045	0.134
-671.105	-200.000	0.009	-0.132
-670.091	-157.166	-0.130	-0.008
-669.076	-156.645	0.225	0.014
-668.062	77.366	-0.150	0.162
-667.047	-200.000	0.046	0.211
-666.032	166.198	-0.083	0.119
-665.018	-53.209	-0.060	0.028
-664.003	325.098	-0.107	0.207
-662.989	800.000	-0.030	0.084
-661.974	-0.005	-0.250	0.181
-660.959	523.886	-0.033	-0.079
-659.945	-132.348	-0.184	-0.024
-658.930	329.959	-0.065	-0.127
-657.916	800.000	0.042	-0.167
-656.901	236.415	0.026	-0.043
-655.886	-200.000	-0.014	0.278
-654.872	800.000	-0.040	0.161
-653.857	-200.000	-0.026	-0.206
-652.843	163.803	-0.129	-0.184
-651.828	-200.000	-0.020	0.151
-650.814	58.295	0.306	0.304
-649.799	800.000	0.173	0.575
-648.784	800.000	0.095	-0.350
-647.770	-200.000	-0.049	-0.238
-646.755	138.082	0.160	0.213
-645.741	211.464	-0.134	0.214
-644.726	-99.869	-0.228	0.058
-643.711	-37.880	0.219	-0.118
-642.697	15.854	-0.164	-0.131
-641.682	-198.882	0.344	-0.002
-640.668	-38.404	0.204	-0.109
-639.653	-200.000	-0.004	0.210
-638.638	-68.282	0.153	-0.060
-637.624	800.000	-0.042	-0.163
-636.609	-0.337	-0.070	0.051
-635.595	-76.656	-0.241	0.086
-634.580	144.561	0.147	-0.199
-633.565	800.000	-0.100	0.351
-632.551	800.000	-0.048	0.135
-631.536	-40.732	-0.220	-0.116
-630.522	212.624	0.175	-0.279
-629.507	-200.000	0.033	-0.241
-628.492	67.985	0.068	0.071
-627.478	2.182	0.198	-0.145
-626.463	-132.670	-0.097	-0.013
-625.449	800.000	-0.051	-0.149
-624.434	-0.706	0.307	0.220
-623.419	14.954	-0.062	-0.049
-622.405	800.000	-0.042	0.129
-621.390	89.483	-0.024	-0.027
-620.376	74.894	0.174	0.185
-619.361	18.656	0.289	-0.234
-618.346	-34.745	-0.221	0.122
-617.332	377.254	-0.091	-0.187
-616.317	700.744	-0.038	-0.102
-615.303	-15.940	-0.231	-0.149
-614.288	-74.981	0.230	0.083
-613.273	-200.000	0.041	0.300
-612.259	267.561	-0.087	0.154
-611.244	-17.152	0.240	0.153
-610.230	602.710	-0.133	-0.336
-609.215	-64.546	-0.031	0.013
-608.201	-200.000	-0.023	0.285
-607.186	-79.496	-0.275	0.094
-606.171	-200.000	0.006	0.166
-605.157	-84.808	0.087	0.028
-604.142	800.000	0.052	0.177
-603.128	800.000	0.124	-0.370
-602.113	-141.652	0.136	0.014
-601.098	75.478	0.214	0.228
-600.084	800.000	0.078	0.308
-599.069	-200.000	-0.000	0.009
-598.055	-32.311	-0.358	0.202
-597.040	403.597	0.133	0.283
-596.025	-62.664	-0.325	-0.136
-595.011	800.000	0.106	0.331
-593.996	-200.000	-0.014	0.133
-592.982	-200.000	-0.031	-0.326
-591.967	588.755	-0.034	-0.085
-590.952	13.528	0.244	-0.191
-589.938	-20.126	0.179	0.112
-588.923	-8.860	0.323	0.219
-587.909	-18.722	-0.201	0.126
-586.894	-67.636	0.223	0.089
-585.879	-200.000	0.066	0.602
-584.865	-101.961	0.219	0.054
-583.850	-200.000	-0.043	0.339
-582.836	17.120	0.230	0.184
-581.821	593.153	0.066	0.164
-580.806	25.252	0.096	-0.081
-579.792	-200.000	-0.035	0.161
-578.777	-99.286	-0.177	-0.045
-577.763	-99.593	0.066	-0.017
-576.748	2.858	-0.214	0.157
-575.733	11.772	0.229	0.178
-574.719	-174.920	-0.502	-0.014
-573.704	106.365	-0.206	-0.247
-572.690	800.000	-0.079	0.286
-571.675	-47.825	0.366	-0.179
-570.661	-12.461	0.386	0.255
-569.646	-200.000	0.016	0.122
-568.631	-81.352	0.193	0.064
-567.617	-200.000	0.000	0.102
-566.602	228.796	0.138	-0.227
-565.588	-90.261	-0.181	-0.053
-564.573	-200.000	-0.018	-0.186
-563.558	319.676	-0.054	-0.103
-562.544	-7.265	-0.295	0.202
-561.529	-72.604	-0.314	-0.117
-560.515	18.819	0.051	-0.042
-559.500	-136.121	0.182	0.022
-558.485	-153.269	-0.248	0.018
-557.471	391.974	-0.022	-0.047
-556.456	-200.000	0.012	-0.108
-555.442	580.496	0.046	-0.115
-554.427	1.245	-0.026	-0.019
-553.412	800.000	-0.053	-0.205
-552.398	-145.697	0.133	0.012
-551.383	-157.738	0.458	-0.028
-550.369	-40.343	-0.494	-0.259
-549.354	-200.000	0.032	0.181
-548.339	14.076	0.151	0.118
-547.325	800.000	-0.064	-0.193
-546.310	298.133	0.156	0.289
-545.296	800.000	-0.138	-0.400
-544.281	800.000	0.033	0.092
-543.266	-111.120	-0.135	0.028
-542.252	-114.356	-0.117	-0.023
-541.237	-81.430	-0.239	-0.079
-540.223	-200.000	0.009	0.071
-539.208	42.444	-0.142	-0.131
-538.193	-8.773	-0.105	-0.071
-537.179	-156.489	-0.230	-0.014
-536.164	28.145	-0.264	-0.225
-535.150	95.202	0.156	0.180
-534.135	-128.907	-0.067	-0.009
-533.121	-200.000	-0.011	-0.212
-532.106	-14.657	-0.199	-0.129
-531.091	-105.207	-0.177	-0.041
-530.077	254.020	-0.013	-0.023
-529.062	185.322	-0.207	-0.310
-528.048	-200.000	0.017	-0.214
-527.033	-200.000	-0.065	0.361
-526.018	230.624	-0.244	-0.402
-525.004	137.877	0.092	0.121
-523.989	-173.045	0.415	-0.013
-522.975	71.487	-0.037	0.039
-521.960	53.779	0.057	0.055
-520.945	50.229	0.227	0.216
-519.931	-200.000	0.012	0.138
-518.916	0.029	-0.087	-0.062
-517.902	225.743	-0.107	0.175
-516.887	48.537	-0.194	0.183
-515.872	-139.181	-0.270	-0.029
-514.858	39.921	0.135	-0.122
-513.843	255.018	0.125	-0.217
-512.829	5.091	0.296	0.220
-511.814	180.946	-0.096	-0.142
-510.799	-200.000	0.036	-0.307
-509.785	-128.948	0.116	-0.016
-508.770	40.777	0.320	-0.291
-507.756	-32.521	-0.117	-0.066
-506.741	-200.000	0.010	-0.103
-505.726	-89.519	-0.177	-0.052
-504.712	270.712	-0.092	0.163
-503.697	-175.444	-0.264	-0.007
-502.683	-52.798	-0.098	0.045
-501.668	-184.045	0.053	0.001
-500.653	-200.000	0.011	-0.179
-499.639	-136.540	-0.114	0.013
-498.624	-122.487	-0.327	0.054
-497.610	-200.000	-0.005	0.191
-496.595	167.121	-0.072	-0.104
-495.581	265.350	-0.177	0.311
-494.566	-31.668	0.226	-0.128
-493.551	287.534	0.112	0.203
-492.537	-98.923	-0.160	-0.041
-491.522	109.439	-0.179	-0.216
-490.508	-200.000	0.018	-0.113
-489.493	-72.459	-0.335	0.125
-488.478	-94.992	-0.179	0.049
-487.464	53.808	-0.142	0.137
-486.449	326.219	0.137	0.264
-485.435	114.942	0.167	-0.205
-484.420	50.808	0.219	-0.209
-483.405	-91.631	-0.294	-0.084
-482.391	800.000	-0.059	-0.207
-481.376	166.460	0.125	0.179
-480.362	183.730	0.113	0.169
-479.347	-118.295	-0.252	0.045
-478.332	555.727	-0.168	-0.408
-477.318	-140.644	-0.163	-0.017
-476.303	391.170	0.126	0.264
-475.289	16.033	0.218	0.173
-474.274	-200.000	0.033	0.244
-473.259	-152.612	-0.047	-0.003
-472.245	-42.139	-0.154	-0.079
-471.230	-170.231	-0.180	0.006
-470.216	156.338	-0.101	0.141
-469.201	-20.183	0.219	0.136
-468.186	359.349	-0.077	0.155
-467.172	800.000	-0.043	-0.149
-466.157	-131.577	-0.102	0.014
-465.143	66.558	-0.171	0.175
-464.128	-152.887	0.080	0.006
-463.113	227.763	0.104	-0.170
-462.099	800.000	-0.101	-0.319
-461.084	186.910	-0.012	-0.019
-460.070	-169.902	-0.118	-0.004
-459.055	22.913	-0.326	-0.269
-458.040	83.313	0.170	-0.187
-457.026	33.253	0.139	-0.121
-456.011	189.652	0.138	-0.208
-454.997	-200.000	0.028	-0.160
-453.982	-41.434	0.111	-0.057
-452.968	-166.637	-0.252	0.011
-451.953	1.316	-0.402	0.291
-450.938	10.951	-0.252	-0.194
-449.924	800.000	0.062	-0.266
-448.909	182.502	-0.260	0.386
-447.895	264.776	-0.092	-0.160
-446.880	-200.000	0.019	0.175
-445.865	38.961	0.384	-0.345
-444.851	137.003	0.051	0.068
-443.836	800.000	-0.052	0.219
-442.822	-105.731	0.106	-0.024
-441.807	10.004	-0.195	-0.149
-440.792	800.000	-0.075	-0.251
-439.778	-150.563	0.203	0.016
-438.763	-200.000	-0.012	-0.297
-437.749	800.000	-0.100	-0.338
-436.734	-78.788	-0.149	-0.051
-435.719	9.974	0.159	-0.122
-434.705	215.019	0.095	-0.152
-433.690	42.032	0.413	-0.377
-432.676	-32.634	-0.067	-0.038
-431.661	-109.200	-0.219	-0.047
-430.646	-54.027	0.157	-0.072
-429.632	-17.820	0.377	0.238
-428.617	173.760	-0.136	-0.197
-427.603	244.084	0.152	-0.256
-426.588	100.054	0.134	0.156
-425.573	69.883	-0.119	-0.123
-424.559	800.000	-0.032	0.093
-423.544	800.000	-0.121	0.494
-422.530	-63.193	0.020	-0.008
-421.515	-10.973	0.122	-0.081
-420.500	378.917	-0.058	0.119
-419.486	-79.232	0.143	-0.049
-418.471	168.530	-0.052	-0.074
-417.457	84.455	-0.191	-0.209
-416.442	-200.000	0.010	0.200
-415.428	-99.218	0.163	-0.041
-414.413	-106.843	-0.048	-0.011
-413.398	375.961	-0.090	-0.185
-412.384	274.134	-0.013	-0.024
-411.369	-32.689	-0.143	-0.080
-410.355	-200.000	-0.030	0.208
-409.340	-59.288	-0.205	0.088
-408.325	-149.390	0.161	-0.013
-407.311	-90.006	-0.175	-0.051
-406.296	-70.381	-0.179	-0.068
-405.282	-48.980	0.225	0.108
-404.267	62.566	-0.133	0.134
-403.252	800.000	-0.059	0.167
-402.238	800.000	0.016	-0.051
-401.223	712.093	-0.085	-0.226
-400.209	-62.457	-0.131	-0.055
-399.194	-200.000	-0.009	-0.178
-398.179	-91.290	0.195	0.056
-397.165	4.307	0.121	0.089
-396.150	-158.058	0.095	-0.006
-395.136	-13.130	-0.247	-0.161
-394.121	-9.289	0.257	-0.172
-393.106	564.788	-0.105	-0.255
-392.092	800.000	-0.034	0.116
-391.077	800.000	-0.087	0.273
-390.063	800.000	-0.029	-0.123
-389.048	91.328	-0.056	-0.064
-388.033	-58.751	0.320	0.139
-387.019	-109.154	0.350	0.075
-386.004	405.053	-0.072	-0.152
-384.990	-99.256	-0.243	-0.061
-383.975	-115.314	-0.100	-0.019
-382.960	88.930	-0.186	-0.208
-381.946	231.899	0.236	-0.388
-380.931	796.929	0.063	0.173
-379.917	-54.945	-0.320	-0.145
-378.902	-68.855	0.247	0.096
-377.888	-104.397	-0.148	0.034
-376.873	14.194	0.135	0.105
-375.858	-59.601	0.129	-0.055
-374.844	-200.000	0.041	-0.269
-373.829	-200.000	0.044	-0.197
-372.815	109.021	0.078	-0.094
-371.800	104.239	-0.159	-0.188
-370.785	92.769	0.056	-0.064
-369.771	-67.579	-0.153	0.060
-368.756	429.515	-0.061	-0.132
-367.742	199.484	0.154	0.237
-366.727	416.150	0.059	0.126
-365.712	-184.174	-0.106	-0.002
-364.698	-200.000	-0.013	0.184
-363.683	-26.928	0.016	0.009
-362.669	37.266	0.106	-0.094
-361.654	-54.177	0.057	-0.026
-360.639	76.427	-0.141	0.149
-359.625	154.225	-0.158	-0.217
-358.610	61.931	0.162	0.161
-357.596	-200.000	0.005	-0.146
-356.581	-1.641	0.212	0.149
-355.566	-200.000	0.005	-0.226
-354.552	-85.643	0.424	0.132
-353.537	-108.742	0.169	-0.036
-352.523	340.920	-0.150	0.293
-351.508	-74.533	-0.166	-0.060
-350.493	800.000	-0.085	0.300
-349.479	25.887	-0.135	0.113
-348.464	14.192	0.310	-0.242
-347.450	53.440	0.045	0.043
-346.435	-98.233	-0.078	-0.020
-345.420	-200.000	0.026	-0.163
-344.406	-31.956	-0.077	-0.043
-343.391	-131.268	0.354	-0.047
-342.377	75.333	-0.118	-0.125
-341.362	470.468	0.072	-0.163
-340.348	43.728	0.088	0.080
-339.333	-200.000	0.007	0.110
-338.318	800.000	-0.048	0.161
-337.304	319.397	-0.205	-0.389
-336.289	-11.705	0.193	-0.127
-335.275	-135.792	-0.119	0.014
-334.260	-2.506	0.173	-0.122
-333.245	370.043	-0.105	0.213
-332.231	-113.054	-0.153	0.030
-331.216	581.785	0.183	-0.449
-330.202	-38.034	-0.515	0.274
-329.187	-138.941	0.211	0.023
-328.172	800.000	0.026	0.076
-327.158	-29.340	0.032	-0.019
-326.143	-110.730	0.246	0.051
-325.129	-133.183	-0.264	0.033
-324.114	275.685	0.067	-0.118
-323.099	114.879	-0.190	0.232
-322.085	-17.663	-0.026	-0.016
-321.070	-151.359	0.260	-0.019
-320.056	31.126	-0.147	-0.127
-319.041	189.044	-0.100	0.149
-318.026	-45.390	0.219	0.109
-317.012	-88.308	-0.106	0.032
-315.997	227.923	-0.179	-0.292
-314.983	-98.175	0.210	-0.054
-313.968	-75.708	0.275	0.098
-312.953	-174.650	0.157	0.004
-311.939	202.996	0.151	0.233
-310.924	-98.931	-0.072	-0.018
-309.910	-66.749	-0.282	0.112
-308.895	-169.121	0.236	0.009
-307.880	-158.839	-0.188	0.011
-306.866	586.150	0.156	0.385
-305.851	151.835	-0.081	0.111
-304.837	-110.598	-0.062	-0.013
-303.822	-77.489	-0.075	0.026
-302.807	122.015	0.085	0.107
-301.793	-72.409	0.084	0.031
-300.778	-96.944	-0.017	-0.005
-299.764	91.787	0.229	-0.258
-298.749	-104.617	-0.221	-0.051
-297.735	800.000	-0.039	-0.126
-296.720	398.823	-0.086	-0.179
-295.705	-82.074	-0.103	-0.033
-294.691	-41.164	0.080	0.041
-293.676	13.884	-0.115	0.089
-292.662	-200.000	-0.018	-0.110
-291.647	-200.000	-0.241	-0.000
-290.632	-122.895	0.101	0.016
-289.618	108.829	-0.102	-0.122
-288.603	411.600	-0.073	0.155
-287.589	16.240	0.170	0.134
-286.574	-50.629	0.239	0.113
-285.559	253.387	-0.014	-0.023
-284.545	370.092	0.186	-0.377
-283.530	-77.080	-0.220	0.077
-282.516	-64.047	0.378	-0.154
-281.501	-51.833	0.224	-0.104
-280.486	-131.501	-0.244	0.032
-279.472	-156.482	0.192	-0.012
-278.457	-200.000	0.001	-0.088
-277.443	-27.682	0.091	-0.053
-276.428	230.448	-0.195	0.318
-275.413	-54.623	0.196	0.088
-274.399	-200.000	0.001	0.037
-273.384	7.545	-0.100	-0.074
-272.370	521.577	0.168	0.394
-271.355	133.126	-0.364	0.470
-270.340	-200.000	-0.016	0.486
-269.326	-90.598	-0.471	0.136
-268.311	-55.100	-0.182	-0.082
-267.297	800.000	-0.171	-0.485
-266.282	-52.567	0.198	0.091
-265.267	105.597	-0.081	0.096
-264.253	800.000	0.064	-0.265
-263.238	103.892	-0.130	0.153
-262.224	-200.000	0.028	0.199
-261.209	-117.167	0.178	0.032
-260.195	128.597	-0.252	-0.321
-259.180	800.000	0.079	0.218
-258.165	-200.000	-0.038	0.239
-257.151	328.599	-0.096	-0.184
-256.136	49.045	-0.233	-0.219
-255.122	800.000	-0.059	-0.201
-254.107	-200.000	0.016	0.295
-253.092	-200.000	0.011	-0.242
-252.078	-107.338	0.054	0.012
-251.063	-30.997	0.135	-0.076
-250.049	64.876	0.100	0.100
-249.034	402.247	-0.085	-0.178
-248.019	-200.000	0.028	-0.164
-247.005	-120.292	0.046	0.008
-245.990	800.000	0.080	0.273
-244.976	756.150	0.099	0.266
-243.961	-81.631	-0.412	-0.135
-242.946	67.311	0.114	0.116
-241.932	191.042	0.058	-0.087
-240.917	124.112	-0.079	-0.099
-239.903	242.300	0.154	0.257
-238.888	-7.872	0.117	-0.079
-237.873	-200.000	0.012	0.253
-236.859	-114.229	-0.124	-0.024
-235.844	-60.431	0.258	0.109
-234.830	312.203	0.041	-0.077
-233.815	36.583	-0.241	0.212
-232.800	-130.379	-0.099	-0.013
-231.786	-200.000	0.033	0.176
-230.771	-113.036	-0.355	0.070
-229.757	-63.617	-0.262	0.107
-228.742	-33.240	-0.019	0.010
-227.727	242.207	-0.159	-0.265
-226.713	-200.000	-0.053	-0.271
-225.698	-70.717	-0.116	0.044
-224.684	3.539	0.043	0.031
-223.669	-142.913	0.320	0.031
-222.655	59.279	0.166	0.163
-221.640	27.164	0.226	0.190
-220.625	800.000	0.045	-0.129
-219.611	-200.000	-0.019	-0.084
-218.596	-120.464	0.057	-0.010
-217.582	-42.685	-0.053	0.027
-216.567	-54.336	0.065	0.029
-215.552	-62.830	-0.135	0.056
-214.538	222.488	0.088	0.141
-213.523	133.246	0.176	0.227
-212.509	-46.299	-0.249	0.122
-211.494	-200.000	-0.066	-0.294
-210.479	-0.044	0.312	-0.221
-209.465	-21.773	0.190	0.115
-208.450	213.086	0.128	0.201
-207.436	-200.000	0.017	0.079
-206.421	-19.377	0.092	-0.057
-205.406	492.098	0.079	0.180
-204.392	-26.632	-0.081	-0.047
-203.377	-4.565	0.295	-0.203
-202.363	-200.000	-0.007	-0.285
-201.348	41.358	-0.120	-0.108
-200.333	800.000	0.063	0.198
-199.319	383.305	-0.066	-0.135
-198.304	607.213	0.176	0.437
-197.290	-89.091	0.025	0.007
-196.275	189.497	-0.169	-0.252
-195.260	-114.525	0.375	-0.072
-194.246	-200.000	0.066	0.523
-193.231	800.000	0.061	0.172
-192.217	174.286	-0.058	-0.084
-191.202	49.132	0.111	-0.104
-190.187	-35.477	-0.228	0.123
-189.173	-181.383	-0.220	0.004
-188.158	388.974	-0.093	-0.192
-187.144	294.720	0.040	0.074
-186.129	287.894	-0.187	0.337
-185.114	64.520	0.214	-0.215
-184.100	30.857	-0.170	-0.145
-183.085	312.507	-0.121	-0.227
-182.071	32.778	0.332	0.286
-181.056	-97.754	0.113	0.029
-180.042	-145.474	0.092	0.008
-179.027	616.424	0.047	-0.116
-178.012	800.000	-0.111	-0.317
-176.998	-200.000	0.020	-0.112
-175.983	-163.280	0.229	-0.011
-174.969	279.949	0.222	0.394
-173.954	-200.000	-0.031	0.247
-172.939	-118.590	0.213	0.038
-171.925	150.285	0.159	0.215
-170.910	136.669	0.191	0.248
-169.896	115.571	-0.115	-0.139
-168.881	164.899	-0.159	-0.223
-167.866	-30.434	0.279	-0.157
-166.852	2.279	0.073	-0.052
-165.837	106.997	-0.171	0.203
-164.823	25.864	0.221	-0.183
-163.808	-49.273	-0.228	0.108
-162.793	203.721	-0.236	-0.363
-161.779	-132.657	0.050	-0.006
-160.764	200.083	-0.025	0.038
-159.750	-174.139	0.385	0.011
-158.735	-200.000	0.002	0.174
-157.720	-41.235	-0.346	-0.177
-156.706	-58.728	0.296	-0.128
-155.691	-42.693	0.071	-0.036
-154.677	-200.000	0.006	0.247
-153.662	-163.016	-0.097	0.005
-152.647	-60.730	-0.174	-0.073
-151.633	-27.535	0.129	-0.074
-150.618	-126.645	0.084	0.012
-149.604	-200.000	-0.001	0.186
-148.589	-88.565	-0.052	0.015
-147.574	800.000	0.025	-0.078
-146.560	755.112	0.078	0.211
-145.545	-152.923	-0.073	-0.005
-144.531	800.000	-0.049	-0.152
-143.516	-113.746	0.266	0.052
-142.502	-53.394	0.320	-0.146
-141.487	-90.342	0.210	0.061
-140.472	-91.391	-0.320	-0.091
-139.458	51.626	-0.231	-0.218
-138.443	800.000	0.079	-0.299
-137.429	-121.332	-0.196	-0.032
-136.414	800.000	0.050	0.202
-135.399	64.566	-0.114	-0.114
-134.385	-11.544	0.071	-0.046
-133.370	-200.000	0.010	0.063
-132.356	129.193	0.186	0.236
-131.341	-200.000	0.013	0.095
-130.326	-86.834	-0.053	-0.016
-129.312	28.613	0.218	0.183
-128.297	800.000	-0.037	0.155
-127.283	800.000	-0.057	0.202
-126.268	-91.470	-0.147	0.042
-125.253	-200.000	-0.042	-0.204
-124.239	72.795	-0.113	-0.117
-123.224	-68.932	0.082	0.031
-122.210	-78.278	-0.182	0.062
