DTS Sentinel unit serial number:	SN413079Multiplexer serial number:	ORYXHardware model number:	OX4-SRSoftware version number:	ORYX F/W v4.00 Oryx Data Collector v3.7.2.0data status	okinstallation	princeton_trtdifferential loss correction	single-endedforward channel	channel 2reverse channel	N/Adate	2019/09/15time	11:51:35forward acquisition time	60.00reverse acquisition time	0.00gamma	496.2192k internal	0.2315k external	0.2315temperature offset calibration	1.0016default loss term (dB/km)	0.3790temperature slope calibration	1.0000multiplexer offset coefficient	1.0000multiplexer slope coefficient	1.0000fibre end	0.00T internal ref (°C)	34.37T ext. ref 1 (°C)	5.06T ext. ref 2 (°C)	30.08length (m)	temperature (°C)	Stokes	anti-Stokes-747.200	422.829	0.057	0.124
-746.185	-49.689	0.236	-0.114
-745.171	529.242	0.054	0.129
-744.156	265.069	0.133	0.236
-743.142	238.262	0.211	0.356
-742.127	686.579	0.150	0.398
-741.112	800.000	0.054	0.175
-740.098	800.000	0.064	0.257
-739.083	-200.000	0.003	-0.492
-738.069	-45.056	-0.218	-0.110
-737.054	4.665	-0.155	0.115
-736.039	-104.808	-0.162	0.038
-735.025	16.653	0.185	0.148
-734.010	-200.000	-0.008	0.059
-732.996	-67.604	-0.207	-0.082
-731.981	-53.824	-0.324	-0.150
-730.966	152.381	0.114	0.158
-729.952	-47.733	-0.392	0.192
-728.937	-82.314	-0.242	-0.080
-727.923	243.752	0.127	-0.216
-726.908	-55.746	-0.365	-0.165
-725.894	-200.000	-0.008	0.293
-724.879	14.747	-0.156	0.123
-723.864	95.317	0.290	-0.334
-722.850	91.556	-0.105	-0.120
-721.835	-200.000	-0.037	-0.280
-720.821	-187.606	-0.252	-0.003
-719.806	-109.790	-0.040	0.008
-718.791	59.052	0.240	-0.239
-717.777	800.000	-0.127	0.380
-716.762	634.730	0.041	-0.106
-715.748	553.486	0.164	-0.399
-714.733	642.545	0.061	-0.158
-713.718	-200.000	0.022	-0.121
-712.704	-200.000	-0.042	0.267
-711.689	-200.000	0.032	0.217
-710.675	-86.357	-0.167	-0.052
-709.660	-70.853	-0.357	-0.136
-708.645	-200.000	0.011	0.133
-707.631	-200.000	-0.030	-0.247
-706.616	800.000	0.072	0.233
-705.602	191.272	0.082	-0.125
-704.587	-200.000	-0.002	-0.194
-703.572	-172.257	0.110	0.004
-702.558	298.707	0.081	-0.151
-701.543	-131.755	0.114	0.015
-700.529	-10.531	-0.115	0.077
-699.514	-51.165	-0.183	-0.087
-698.499	-85.336	0.169	0.053
-697.485	14.751	-0.250	0.197
-696.470	-200.000	0.027	0.285
-695.456	138.671	-0.086	0.115
-694.441	27.495	0.242	-0.206
-693.426	-120.741	0.154	-0.026
-692.412	134.509	0.178	0.233
-691.397	54.499	-0.186	-0.181
-690.383	-172.512	-0.154	0.005
-689.368	-175.387	-0.193	-0.005
-688.354	-152.008	-0.153	0.011
-687.339	82.284	0.234	-0.257
-686.324	-102.772	0.097	0.023
-685.310	-59.180	-0.207	-0.090
-684.295	-119.423	0.071	-0.012
-683.281	-200.000	0.046	-0.229
-682.266	-103.111	-0.063	0.015
-681.251	-161.164	-0.082	0.004
-680.237	-200.000	0.328	-0.000
-679.222	-100.545	0.058	0.015
-678.208	155.363	-0.099	0.138
-677.193	-200.000	0.014	0.159
-676.178	44.544	-0.278	-0.258
-675.164	-106.486	0.223	-0.050
-674.149	372.427	-0.096	0.197
-673.135	16.454	-0.093	0.074
-672.120	189.332	0.345	0.522
-671.105	-123.699	-0.249	-0.040
-670.091	114.200	-0.092	-0.113
-669.076	-42.886	0.191	0.098
-668.062	68.857	-0.157	-0.163
-667.047	72.901	-0.274	-0.289
-666.032	-81.931	0.082	-0.027
-665.018	-138.511	0.277	0.031
-664.003	-7.362	-0.095	0.065
-662.989	24.840	-0.097	0.081
-661.974	132.732	-0.041	0.054
-660.959	508.744	0.020	0.047
-659.945	-21.849	0.242	-0.149
-658.930	70.162	0.207	-0.216
-657.916	122.819	-0.260	-0.328
-656.901	-46.158	-0.159	0.079
-655.886	236.390	0.112	0.187
-654.872	-54.656	-0.111	-0.051
-653.857	130.379	0.211	-0.274
-652.843	94.940	0.179	0.205
-651.828	320.689	0.026	0.049
-650.814	800.000	0.070	-0.205
-649.799	33.929	0.155	-0.136
-648.784	800.000	0.053	0.187
-647.770	0.466	-0.158	-0.114
-646.755	-88.450	-0.048	0.014
-645.741	-98.670	0.174	0.045
-644.726	-200.000	0.005	-0.093
-643.711	-18.062	0.040	-0.025
-642.697	19.450	0.185	-0.150
-641.682	-93.333	-0.125	0.035
-640.668	-200.000	-0.005	-0.089
-639.653	-19.791	0.191	0.119
-638.638	366.231	-0.073	-0.148
-637.624	265.560	0.144	0.253
-636.609	-41.625	-0.348	-0.180
-635.595	-200.000	0.007	-0.170
-634.580	-87.040	0.050	0.015
-633.565	-69.362	-0.147	-0.057
-632.551	800.000	0.088	0.280
-631.536	47.711	0.295	0.277
-630.522	69.225	-0.209	0.217
-629.507	156.559	0.120	-0.167
-628.492	-150.414	-0.107	0.008
-627.478	-99.628	-0.195	0.049
-626.463	-200.000	0.017	-0.254
-625.449	-77.093	-0.246	0.087
-624.434	800.000	0.044	0.123
-623.419	-200.000	-0.077	-0.355
-622.405	464.095	-0.226	-0.509
-621.390	281.345	-0.139	-0.251
-620.376	-76.238	0.058	0.020
-619.361	800.000	-0.052	0.154
-618.346	800.000	0.055	-0.174
-617.332	172.147	-0.250	-0.363
-616.317	53.847	-0.299	0.290
-615.303	479.366	0.036	-0.083
-614.288	77.075	-0.277	0.297
-613.273	-157.694	0.170	-0.010
-612.259	-200.000	-0.033	0.166
-611.244	132.036	0.107	0.138
-610.230	595.791	0.140	-0.350
-609.215	20.432	0.302	0.246
-608.201	-127.569	-0.174	0.025
-607.186	-4.315	0.287	-0.200
-606.171	-83.911	0.329	0.106
-605.157	198.257	0.126	-0.194
-604.142	-87.282	0.273	-0.083
-603.128	-200.000	-0.028	0.203
-602.113	800.000	0.076	-0.297
-601.098	800.000	0.120	-0.378
-600.084	-200.000	0.049	0.376
-599.069	105.820	0.093	-0.111
-598.055	181.219	-0.142	0.211
-597.040	-112.147	0.271	-0.055
-596.025	-147.741	-0.225	0.019
-595.011	-35.253	-0.038	0.021
-593.996	627.360	-0.118	0.300
-592.982	-145.661	-0.303	-0.027
-591.967	211.519	-0.077	0.123
-590.952	800.000	-0.085	0.245
-589.938	-48.515	0.141	0.068
-588.923	415.139	0.137	-0.295
-587.909	277.918	-0.075	-0.134
-586.894	45.552	-0.166	-0.154
-585.879	159.487	-0.065	0.092
-584.865	643.465	0.063	0.162
-583.850	-44.172	-0.322	0.163
-582.836	16.878	-0.163	0.130
-581.821	-200.000	-0.020	0.265
-580.806	504.572	0.055	-0.129
-579.792	-200.000	0.128	-0.582
-578.777	-26.137	0.230	0.136
-577.763	189.904	0.073	-0.111
-576.748	-6.019	-0.345	0.238
-575.733	277.561	-0.065	-0.116
-574.719	-76.172	0.407	-0.145
-573.704	-200.000	-0.035	-0.343
-572.690	117.948	0.067	0.084
-571.675	-35.992	0.405	-0.221
-570.661	2.276	-0.253	0.184
-569.646	-143.851	-0.112	-0.011
-568.631	-200.000	-0.053	-0.304
-567.617	93.766	0.142	-0.162
-566.602	-171.285	0.306	-0.010
-565.588	549.177	-0.116	0.279
-564.573	258.598	-0.065	0.112
-563.558	71.144	0.202	-0.210
-562.544	-139.988	-0.226	-0.024
-561.529	800.000	-0.173	-0.613
-560.515	-200.000	-0.017	0.226
-559.500	800.000	-0.028	-0.098
-558.485	150.098	-0.237	-0.324
-557.471	-200.000	-0.014	0.064
-556.456	23.273	-0.053	-0.044
-555.442	-27.258	-0.220	0.129
-554.427	-36.270	-0.242	-0.131
-553.412	-10.589	-0.122	0.081
-552.398	-48.500	-0.216	0.105
-551.383	-175.127	0.282	0.008
-550.369	275.684	0.160	-0.285
-549.354	175.052	-0.037	0.054
-548.339	-51.694	0.227	-0.106
-547.325	-144.087	-0.294	-0.028
-546.310	134.211	-0.131	-0.170
-545.296	-68.553	-0.213	0.083
-544.281	-200.000	0.013	-0.176
-543.266	-200.000	0.028	-0.150
-542.252	148.111	-0.053	0.072
-541.237	98.204	0.050	-0.058
-540.223	91.753	-0.094	0.107
-539.208	-200.000	-0.064	-0.298
-538.193	-58.680	-0.048	-0.021
-537.179	-193.594	-0.258	0.002
-536.164	-157.226	-0.233	-0.014
-535.150	361.205	0.049	-0.099
-534.135	104.658	-0.152	-0.180
-533.121	-82.307	-0.449	0.147
-532.106	-111.354	0.515	-0.106
-531.091	-103.843	-0.290	0.068
-530.077	-98.192	-0.184	0.048
-529.062	14.095	-0.163	-0.128
-528.048	-65.739	-0.133	-0.054
-527.033	-200.000	0.002	-0.064
-526.018	32.076	0.200	-0.173
-525.004	25.511	0.073	-0.061
-523.989	242.953	-0.320	0.539
-522.975	72.116	0.281	-0.293
-521.960	172.704	0.188	0.273
-520.945	-115.485	0.123	-0.023
-519.931	-110.070	0.134	0.028
-518.916	170.217	-0.101	0.146
-517.902	340.157	-0.076	0.149
-516.887	-64.412	-0.179	0.073
-515.872	-8.038	0.156	-0.106
-514.858	110.498	0.030	0.036
-513.843	18.267	0.112	-0.090
-512.829	278.294	0.204	0.366
-511.814	-27.658	-0.094	-0.055
-510.799	293.514	-0.082	-0.150
-509.785	-49.768	-0.203	-0.097
-508.770	64.892	-0.044	0.045
-507.756	-155.877	-0.202	0.013
-506.741	386.360	0.097	-0.201
-505.726	-4.100	0.239	0.167
-504.712	-33.614	-0.259	0.143
-503.697	-78.558	-0.165	0.057
-502.683	-200.000	0.017	0.182
-501.668	-200.000	0.043	-0.201
-500.653	-62.146	-0.233	-0.097
-499.639	800.000	-0.082	0.245
-498.624	-200.000	0.024	-0.319
-497.610	-116.776	0.312	-0.058
-496.595	394.854	0.143	-0.299
-495.581	-19.303	0.442	-0.275
-494.566	256.350	0.123	0.212
-493.551	4.422	-0.249	0.183
-492.537	-55.819	-0.092	-0.041
-491.522	-0.750	-0.104	0.074
-490.508	800.000	0.212	0.746
-489.493	800.000	-0.049	0.212
-488.478	-142.460	-0.453	0.045
-487.464	-200.000	-0.011	0.158
-486.449	-73.110	-0.159	-0.058
-485.435	48.139	-0.146	0.137
-484.420	-4.207	-0.075	-0.052
-483.405	-200.000	-0.004	-0.199
-482.391	-200.000	0.159	0.000
-481.376	-200.000	-0.044	0.284
-480.362	-30.100	-0.281	0.160
-479.347	-23.488	-0.192	0.116
-478.332	-50.524	-0.016	0.008
-477.318	-200.000	-0.034	0.191
-476.303	711.543	-0.047	0.125
-475.289	-180.523	-0.281	0.006
-474.274	-62.324	0.127	-0.053
-473.259	-168.036	0.314	-0.012
-472.245	-200.000	-0.020	-0.282
-471.230	-200.000	0.005	-0.029
-470.216	-87.627	0.235	0.071
-469.201	-200.000	0.016	-0.156
-468.186	-46.241	-0.151	-0.075
-467.172	-23.804	-0.371	-0.223
-466.157	-83.823	0.254	0.081
-465.143	-200.000	-0.009	0.135
-464.128	-2.517	0.159	0.112
-463.113	294.335	-0.170	0.311
-462.099	800.000	-0.102	0.412
-461.084	423.879	0.076	-0.164
-460.070	-78.800	-0.164	0.056
-459.055	27.918	-0.162	0.137
-458.040	-103.018	0.318	-0.076
-457.026	-66.061	-0.171	0.069
-456.011	-82.902	0.315	-0.102
-454.997	-200.000	0.013	-0.291
-453.982	-200.000	0.001	0.062
-452.968	-79.368	0.225	0.076
-451.953	-44.942	-0.150	0.075
-450.938	-200.000	0.028	0.165
-449.924	266.777	0.079	0.138
-448.909	105.173	-0.165	-0.195
-447.895	99.177	0.132	-0.152
-446.880	108.778	0.090	-0.108
-445.865	800.000	0.093	-0.293
-444.851	-43.888	0.084	-0.043
-443.836	-61.495	0.039	0.017
-442.822	96.109	0.029	0.033
-441.807	-200.000	-0.033	0.181
-440.792	-24.264	-0.145	-0.087
-439.778	800.000	-0.040	-0.151
-438.763	247.339	0.134	-0.227
-437.749	74.197	0.135	-0.142
-436.734	800.000	0.098	0.396
-435.719	23.368	0.167	0.137
-434.705	1.549	0.196	-0.141
-433.690	800.000	-0.081	0.239
-432.676	-23.317	-0.159	0.096
-431.661	-81.244	0.262	-0.087
-430.646	-102.193	0.029	0.007
-429.632	33.664	-0.318	0.277
-428.617	-177.187	0.192	0.005
-427.603	-200.000	0.015	-0.139
-426.588	82.332	0.156	0.169
-425.573	-66.992	-0.119	-0.047
-424.559	-86.904	-0.242	0.074
-423.544	601.371	0.041	0.101
-422.530	800.000	0.070	-0.204
-421.515	-78.704	-0.189	0.065
-420.500	800.000	-0.028	0.083
-419.486	391.523	-0.148	0.308
-418.471	-200.000	0.003	-0.138
-417.457	-200.000	0.055	-0.353
-416.442	-200.000	0.033	-0.222
-415.428	0.106	0.296	-0.211
-414.413	215.804	-0.168	0.268
-413.398	26.067	-0.173	0.145
-412.384	88.404	0.114	-0.127
-411.369	-108.996	-0.094	0.020
-410.355	4.052	0.123	0.090
-409.340	-138.356	0.117	-0.013
-408.325	-22.499	0.082	-0.050
-407.311	-17.757	0.290	-0.182
-406.296	-200.000	0.040	-0.342
-405.282	634.670	0.108	-0.273
-404.267	-167.589	0.349	-0.014
-403.252	-200.000	0.069	0.308
-402.238	88.678	-0.216	-0.240
-401.223	-107.262	-0.157	-0.035
-400.209	46.280	-0.225	-0.208
-399.194	772.600	-0.011	-0.029
-398.179	-161.726	-0.175	0.009
-397.165	800.000	-0.078	0.317
-396.150	14.710	-0.071	0.056
-395.136	-200.000	0.015	0.271
-394.121	800.000	-0.065	0.241
-393.106	29.187	0.071	0.060
-392.092	-23.572	-0.203	0.122
-391.077	28.421	0.114	-0.096
-390.063	301.008	-0.133	-0.246
-389.048	118.378	0.157	-0.193
-388.033	245.933	0.079	0.133
-387.019	-96.845	0.050	0.013
-386.004	-63.329	-0.159	0.066
-384.990	24.301	0.213	0.176
-383.975	-126.979	0.086	0.013
-382.960	698.692	-0.085	0.224
-381.946	89.106	0.142	-0.158
-380.931	800.000	0.096	0.265
-379.917	-200.000	0.036	0.283
-378.902	-116.060	-0.219	0.041
-377.888	-200.000	-0.015	-0.089
-376.873	423.756	-0.155	0.333
-375.858	-123.829	0.221	0.035
-374.844	-200.000	0.003	-0.093
-373.829	130.006	-0.174	0.222
-372.815	2.400	-0.177	-0.128
-371.800	-154.762	-0.188	-0.012
-370.785	76.396	0.079	-0.083
-369.771	800.000	0.098	-0.298
-368.756	37.047	-0.027	0.024
-367.742	-200.000	0.030	-0.461
-366.727	-200.000	-0.001	-0.024
-365.712	-200.000	0.050	0.250
-364.698	-58.631	0.228	0.099
-363.683	-200.000	-0.017	0.353
-362.669	-200.000	-0.002	-0.342
-361.654	2.821	-0.207	-0.150
-360.639	-23.893	0.122	0.073
-359.625	800.000	0.085	-0.244
-358.610	298.809	-0.135	-0.249
-357.596	118.102	0.094	-0.115
-356.581	-45.466	0.156	0.077
-355.566	-200.000	-0.027	0.141
-354.552	-103.160	0.291	0.069
-353.537	-84.408	0.102	-0.032
-352.523	-91.209	-0.021	-0.006
-351.508	-139.194	-0.171	0.018
-350.493	-74.225	0.201	0.072
-349.479	-200.000	0.079	0.379
-348.464	105.054	0.089	0.104
-347.450	130.501	-0.214	0.274
-346.435	-200.000	-0.017	0.152
-345.420	-144.428	-0.125	0.012
-344.406	-200.000	0.008	0.206
-343.391	-76.536	-0.020	0.007
-342.377	43.159	0.101	0.092
-341.362	-200.000	-0.038	0.392
-340.348	-100.331	-0.281	-0.069
-339.333	-48.345	-0.163	-0.078
-338.318	-68.520	0.101	-0.039
-337.304	696.394	0.178	0.467
-336.289	800.000	-0.080	-0.308
-335.275	-200.000	0.033	-0.207
-334.260	176.414	-0.109	0.158
-333.245	-200.000	-0.007	0.216
-332.231	-200.000	0.005	-0.273
-331.216	599.666	-0.073	0.181
-330.202	499.385	-0.131	0.302
-329.187	-160.273	-0.353	0.019
-328.172	-200.000	0.026	-0.249
-327.158	-136.685	0.279	0.032
-326.143	-176.945	0.254	-0.006
-325.129	-200.000	-0.020	-0.163
-324.114	-87.169	-0.108	-0.033
-323.099	-90.394	-0.122	0.035
-322.085	638.009	0.118	0.299
-321.070	-200.000	0.026	0.194
-320.056	-67.736	0.194	0.076
-319.041	71.895	-0.040	-0.042
-318.026	209.785	0.159	-0.248
-317.012	-61.373	0.312	0.131
-315.997	127.247	-0.067	0.085
-314.983	-46.259	-0.063	-0.031
-313.968	-112.509	-0.158	0.031
-312.953	-52.524	-0.074	-0.034
-311.939	800.000	0.075	0.259
-310.924	-58.972	-0.010	-0.004
-309.910	-43.378	0.280	-0.141
-308.895	380.769	-0.153	0.313
-307.880	-200.000	0.115	-0.000
-306.866	16.365	0.134	-0.106
-305.851	646.722	-0.073	0.186
-304.837	-104.793	0.333	-0.076
-303.822	236.137	0.073	0.121
-302.807	-21.306	0.048	0.029
-301.793	-6.381	-0.395	-0.268
-300.778	-146.359	-0.223	-0.019
-299.764	800.000	0.058	0.185
-298.749	609.366	0.098	0.244
-297.735	21.916	0.141	0.115
-296.720	5.749	0.250	-0.184
-295.705	800.000	0.075	-0.219
-294.691	-41.760	0.292	-0.149
-293.676	499.388	0.088	-0.202
-292.662	123.470	0.150	0.187
-291.647	-55.242	-0.208	0.093
-290.632	89.004	0.091	0.100
-289.618	27.135	-0.119	0.100
-288.603	-149.766	0.270	0.021
-287.589	-56.805	0.345	0.152
-286.574	-200.000	0.017	-0.162
-285.559	183.440	-0.187	-0.275
-284.545	-200.000	0.002	-0.206
-283.530	-200.000	0.040	0.181
-282.516	30.028	-0.295	0.250
-281.501	-29.295	0.177	-0.101
-280.486	100.043	-0.143	0.165
-279.472	11.915	-0.246	-0.188
-278.457	628.868	-0.097	-0.243
-277.443	7.659	0.154	0.114
-276.428	603.212	0.015	-0.037
-275.413	800.000	0.029	0.114
-274.399	-53.628	0.403	0.183
-273.384	-200.000	0.007	0.090
-272.370	800.000	-0.142	0.425
-271.355	74.649	0.188	-0.196
-270.340	-177.795	0.346	-0.008
-269.326	71.195	-0.193	0.199
-268.311	-6.377	0.069	0.047
-267.297	-70.106	0.150	0.057
-266.282	-133.490	0.277	-0.035
-265.267	-170.346	0.179	-0.006
-264.253	364.398	-0.138	-0.276
-263.238	78.826	-0.155	0.165
-262.224	-200.000	0.026	-0.317
-261.209	213.342	-0.151	-0.238
-260.195	61.855	0.323	-0.320
-259.180	32.303	-0.080	-0.068
-258.165	4.195	0.288	0.210
-257.151	170.971	0.172	0.246
-256.136	27.150	-0.208	-0.174
-255.122	38.277	-0.210	0.186
-254.107	-200.000	0.039	-0.274
-253.092	-141.450	-0.233	0.023
-252.078	105.221	-0.043	0.050
-251.063	800.000	0.127	-0.415
-250.049	-65.023	0.059	0.024
-249.034	-25.861	-0.155	-0.091
-248.019	-200.000	0.010	0.099
-247.005	558.520	-0.061	-0.146
-245.990	99.977	0.091	-0.104
-244.976	-102.248	0.175	-0.042
-243.961	187.960	-0.217	0.322
-242.946	800.000	0.088	-0.319
-241.932	-200.000	0.031	-0.310
-240.917	-93.719	0.109	-0.030
-239.903	-200.000	0.019	-0.201
-238.888	800.000	-0.031	-0.113
-237.873	685.173	-0.037	-0.097
-236.859	-200.000	0.001	-0.141
-235.844	-69.934	-0.174	0.066
-234.830	-68.250	0.214	0.083
-233.815	-84.495	0.079	0.025
-232.800	2.736	0.146	-0.105
-231.786	800.000	-0.075	-0.210
-230.771	424.326	-0.074	-0.158
-229.757	-200.000	0.025	-0.134
-228.742	-11.570	-0.358	-0.234
-227.727	800.000	-0.024	-0.097
-226.713	-165.905	0.157	-0.007
-225.698	406.700	-0.073	-0.154
-224.684	-12.923	0.273	-0.177
-223.669	80.913	-0.039	-0.042
-222.655	-51.221	-0.070	-0.032
-221.640	48.709	-0.065	-0.060
-220.625	51.073	-0.152	0.143
-219.611	-134.607	-0.048	0.006
-218.596	-47.072	-0.200	-0.097
-217.582	-74.414	-0.419	0.150
-216.567	-79.157	0.066	0.022
-215.552	132.539	0.123	0.158
-214.538	320.147	0.086	0.163
-213.523	-200.000	0.003	-0.102
-212.509	694.768	0.093	-0.243
-211.494	229.268	0.170	0.275
-210.479	130.123	-0.048	0.061
-209.465	319.841	0.083	-0.157
-208.450	323.153	0.069	0.131
-207.436	-54.795	0.075	-0.034
-206.421	800.000	-0.074	0.255
-205.406	-10.129	-0.262	0.173
-204.392	-4.167	-0.152	-0.105
-203.377	134.751	-0.142	-0.183
-202.363	-3.793	-0.040	-0.028
-201.348	-164.118	0.321	0.015
-200.333	-200.000	0.028	0.148
-199.319	633.253	-0.099	-0.249
-198.304	-70.330	0.089	0.034
-197.290	-200.000	-0.024	-0.112
-196.275	-200.000	-0.015	-0.079
-195.260	-148.251	-0.179	-0.015
-194.246	24.729	-0.148	-0.122
-193.231	175.644	-0.098	0.141
-192.217	-31.152	-0.134	0.075
-191.202	-200.000	-0.010	0.102
-190.187	-152.357	-0.210	-0.015
-189.173	-85.703	-0.169	0.052
-188.158	493.222	0.050	-0.113
-187.144	-29.530	0.117	-0.066
-186.129	-200.000	0.046	0.295
-185.114	-21.932	0.172	-0.103
-184.100	-167.271	0.285	-0.011
-183.085	-69.848	0.080	0.030
-182.071	-119.423	-0.228	0.039
-181.056	166.153	-0.239	0.336
-180.042	-116.444	0.190	0.035
-179.027	-33.303	-0.193	-0.106
-178.012	-135.051	0.293	0.035
-176.998	29.068	-0.196	0.165
-175.983	-109.558	-0.328	0.069
-174.969	16.352	0.358	0.280
-173.954	-200.000	0.102	0.000
-172.939	193.150	-0.052	0.077
-171.925	363.185	0.068	-0.136
-170.910	800.000	0.004	0.018
-169.896	800.000	0.068	0.201
-168.881	273.956	-0.062	-0.109
-167.866	31.303	0.201	-0.171
-166.852	-60.815	0.207	0.087
-165.837	15.173	-0.073	0.057
-164.823	128.243	0.117	-0.147
-163.808	234.915	0.166	-0.271
-162.793	-200.000	0.048	-0.427
-161.779	98.702	0.182	0.208
-160.764	-135.321	-0.120	-0.014
-159.750	13.780	-0.168	-0.130
-158.735	-7.721	-0.146	-0.098
-157.720	-12.405	0.185	-0.120
-156.706	800.000	-0.124	0.373
-155.691	-15.827	-0.178	-0.112
-154.677	-10.114	0.156	-0.103
-153.662	-112.082	-0.200	0.040
-152.647	404.770	0.159	0.331
-151.633	580.459	0.195	0.474
-150.618	-123.135	-0.206	0.033
-149.604	-65.356	-0.350	0.139
-148.589	42.388	-0.220	0.198
-147.574	-136.426	-0.153	-0.018
-146.560	496.751	-0.082	-0.188
-145.545	200.256	-0.155	-0.236
-144.531	-200.000	0.021	0.133
-143.516	-96.243	0.292	-0.077
-142.502	800.000	-0.158	0.498
-141.487	-200.000	-0.049	-0.258
-140.472	564.267	-0.066	0.159
-139.458	-3.053	-0.136	0.094
-138.443	449.730	-0.157	-0.344
-137.429	-170.014	0.240	0.008
-136.414	134.148	0.154	-0.198
-135.399	203.473	0.079	0.120
-134.385	-194.704	0.291	0.002
-133.370	86.165	0.188	0.205
-132.356	143.575	0.161	-0.213
-131.341	-100.943	-0.142	-0.035
-130.326	222.801	0.089	-0.141
-129.312	-59.218	-0.259	-0.111
-128.297	-34.584	0.077	0.042
-127.283	800.000	-0.042	-0.124
-126.268	-176.728	0.152	-0.004
-125.253	-69.313	0.282	-0.107
-124.239	81.574	-0.083	0.089
-123.224	-200.000	-0.007	0.125
-122.210	28.360	-0.087	0.073
-121.195	29.334	0.166	0.140
-120.180	10.281	0.172	0.129
