DTS Sentinel unit serial number:	SN413079Multiplexer serial number:	ORYXHardware model number:	OX4-SRSoftware version number:	ORYX F/W v4.00 Oryx Data Collector v3.7.2.0data status	okinstallation	princeton_trtdifferential loss correction	single-endedforward channel	channel 2reverse channel	N/Adate	2019/09/11time	06:01:10forward acquisition time	60.00reverse acquisition time	0.00gamma	496.2192k internal	0.2329k external	0.2329temperature offset calibration	0.9940default loss term (dB/km)	0.3790temperature slope calibration	1.0000multiplexer offset coefficient	1.0000multiplexer slope coefficient	1.0000fibre end	0.00T internal ref (°C)	29.42T ext. ref 1 (°C)	-0.19T ext. ref 2 (°C)	23.53length (m)	temperature (°C)	Stokes	anti-Stokes-747.200	-40.337	0.138	0.072
-746.185	-137.901	-0.202	0.023
-745.171	-81.853	0.207	0.068
-744.156	-8.789	0.366	-0.247
-743.142	-154.570	0.208	-0.014
-742.127	19.987	-0.311	0.252
-741.112	-159.509	0.280	0.016
-740.098	457.825	0.103	-0.230
-739.083	-139.220	0.104	0.011
-738.069	-200.000	0.063	0.288
-737.054	-149.517	-0.193	0.015
-736.039	20.557	-0.272	-0.221
-735.025	-200.000	0.056	0.471
-734.010	-99.434	-0.193	0.049
-732.996	77.262	-0.284	0.304
-731.981	800.000	0.038	0.116
-730.966	145.473	0.104	-0.140
-729.952	358.661	-0.233	-0.469
-728.937	-98.362	-0.368	-0.095
-727.923	-200.000	-0.047	-0.245
-726.908	170.548	0.085	-0.122
-725.894	-200.000	0.010	0.162
-724.879	-72.574	-0.363	-0.135
-723.864	-47.316	-0.242	-0.119
-722.850	27.744	0.139	0.117
-721.835	-66.985	-0.232	-0.092
-720.821	800.000	0.053	0.204
-719.806	-89.890	0.213	0.063
-718.791	-142.509	-0.081	-0.008
-717.777	-105.029	0.476	0.110
-716.762	37.753	0.251	0.225
-715.748	58.812	0.170	0.168
-714.733	-21.424	-0.203	-0.124
-713.718	184.241	-0.327	-0.488
-712.704	-200.000	-0.024	-0.228
-711.689	-200.000	-0.017	-0.094
-710.675	87.191	0.094	-0.105
-709.660	598.213	-0.066	-0.164
-708.645	-108.681	-0.474	0.102
-707.631	-26.800	0.087	-0.051
-706.616	500.318	0.128	-0.298
-705.602	-50.479	-0.160	-0.076
-704.587	334.425	-0.230	0.448
-703.572	247.661	0.139	-0.236
-702.558	309.144	0.031	0.059
-701.543	-78.967	0.132	0.045
-700.529	282.413	-0.086	0.155
-699.514	-200.000	-0.004	-0.189
-698.499	65.293	-0.141	0.143
-697.485	-121.268	-0.207	-0.035
-696.470	84.330	0.028	-0.031
-695.456	18.174	-0.012	-0.010
-694.441	140.617	0.269	-0.357
-693.426	470.315	0.054	-0.121
-692.412	-59.605	-0.262	0.113
-691.397	106.205	-0.203	0.242
-690.383	402.287	0.123	0.260
-689.368	-67.688	0.350	0.138
-688.354	154.153	-0.156	-0.215
-687.339	-118.676	-0.206	0.037
-686.324	-86.617	0.061	-0.019
-685.310	800.000	-0.028	-0.104
-684.295	61.252	-0.058	-0.058
-683.281	50.586	0.166	-0.158
-682.266	-61.837	0.077	0.032
-681.251	-200.000	-0.028	0.241
-680.237	9.162	0.111	-0.085
-679.222	-96.696	-0.399	0.105
-678.208	-19.845	0.131	0.081
-677.193	-200.000	-0.062	-0.385
-676.178	282.835	0.165	-0.297
-675.164	-98.350	-0.409	0.105
-674.149	-148.115	0.228	0.019
-673.135	-121.962	-0.213	0.035
-672.120	-200.000	0.010	-0.296
-671.105	-87.975	-0.244	-0.074
-670.091	-136.488	0.392	-0.046
-669.076	176.457	-0.027	-0.039
-668.062	25.214	0.175	0.146
-667.047	340.265	0.010	-0.021
-666.032	368.748	-0.029	0.059
-665.018	-166.798	0.067	0.003
-664.003	-163.578	-0.252	0.012
-662.989	-200.000	0.022	-0.391
-661.974	263.826	-0.074	-0.130
-660.959	-101.814	-0.367	0.089
-659.945	800.000	0.064	-0.181
-658.930	-39.571	-0.076	-0.040
-657.916	84.869	-0.030	-0.033
-656.901	100.754	-0.041	-0.048
-655.886	-69.000	0.051	0.020
-654.872	7.655	-0.221	0.166
-653.857	-156.282	-0.280	0.018
-652.843	-42.836	0.148	0.075
-651.828	6.089	-0.147	-0.109
-650.814	-134.179	-0.349	-0.043
-649.799	-200.000	-0.035	-0.308
-648.784	41.211	0.029	-0.026
-647.770	-22.115	0.103	0.063
-646.755	-70.411	-0.228	0.087
-645.741	800.000	-0.005	-0.017
-644.726	-70.585	0.289	0.110
-643.711	-200.000	0.001	0.139
-642.697	-63.038	-0.297	-0.123
-641.682	-188.924	-0.364	0.004
-640.668	-200.000	-0.033	-0.167
-639.653	-20.136	-0.181	0.112
-638.638	196.601	0.086	-0.132
-637.624	-32.691	-0.229	-0.128
-636.609	-200.000	0.052	-0.297
-635.595	-200.000	0.009	-0.123
-634.580	-33.097	-0.196	-0.109
-633.565	-113.831	-0.187	0.036
-632.551	800.000	-0.020	-0.080
-631.536	-125.518	-0.364	-0.055
-630.522	172.116	-0.039	-0.056
-629.507	-19.692	-0.270	-0.168
-628.492	-178.496	-0.327	-0.008
-627.478	-200.000	-0.067	0.396
-626.463	800.000	-0.045	-0.170
-625.449	23.098	-0.171	-0.141
-624.434	-67.148	-0.061	-0.024
-623.419	145.831	0.183	-0.246
-622.405	-59.929	-0.205	0.088
-621.390	-200.000	-0.027	-0.152
-620.376	-194.979	0.122	-0.001
-619.361	-41.316	-0.169	0.087
-618.346	66.103	0.136	-0.138
-617.332	109.726	0.193	-0.232
-616.317	-22.648	-0.109	0.066
-615.303	319.012	-0.126	-0.240
-614.288	-81.768	-0.484	-0.159
-613.273	-178.666	-0.340	0.008
-612.259	-140.138	0.338	-0.036
-611.244	176.279	-0.161	0.235
-610.230	11.260	0.118	0.091
-609.215	-200.000	0.023	0.107
-608.201	-57.893	0.202	0.088
-607.186	-0.184	0.155	-0.110
-606.171	84.434	-0.124	-0.135
-605.157	-115.984	0.385	0.072
-604.142	-53.107	0.185	-0.085
-603.128	-200.000	0.012	-0.199
-602.113	109.475	-0.190	0.228
-601.098	-66.676	-0.127	-0.050
-600.084	-200.000	-0.275	0.001
-599.069	-44.947	-0.088	-0.044
-598.055	-129.456	-0.272	0.038
-597.040	53.575	0.407	0.391
-596.025	77.884	-0.210	0.224
-595.011	94.596	0.053	0.061
-593.996	-200.000	-0.003	0.242
-592.982	800.000	0.072	0.242
-591.967	61.021	0.164	0.163
-590.952	-200.000	0.018	-0.284
-589.938	-16.112	-0.152	-0.097
-588.923	500.904	0.114	-0.263
-587.909	38.918	0.160	0.143
-586.894	580.543	-0.080	-0.196
-585.879	-50.537	0.178	0.084
-584.865	205.406	-0.120	-0.186
-583.850	800.000	-0.077	0.230
-582.836	-85.232	0.479	-0.150
-581.821	132.960	0.018	0.024
-580.806	9.287	0.124	0.094
-579.792	-200.000	-0.005	0.085
-578.777	-18.516	0.275	0.172
-577.763	-159.552	-0.085	0.005
-576.748	-200.000	0.004	-0.090
-575.733	800.000	0.098	-0.337
-574.719	-200.000	0.024	-0.130
-573.704	82.144	-0.073	-0.080
-572.690	427.482	0.116	-0.249
-571.675	800.000	0.026	-0.087
-570.661	-125.824	0.131	-0.020
-569.646	800.000	-0.088	0.351
-568.631	-1.733	0.105	0.074
-567.617	800.000	-0.024	-0.091
-566.602	800.000	-0.066	0.213
-565.588	12.281	0.050	-0.038
-564.573	43.964	-0.151	0.138
-563.558	-132.966	-0.411	0.052
-562.544	-156.463	0.164	0.010
-561.529	61.363	-0.204	-0.202
-560.515	-47.675	0.238	-0.115
-559.500	-22.575	-0.002	-0.001
-558.485	422.999	-0.126	-0.270
-557.471	2.175	0.362	0.261
-556.456	87.240	-0.100	-0.111
-555.442	93.807	0.019	-0.021
-554.427	-200.000	-0.009	-0.312
-553.412	70.243	-0.142	0.147
-552.398	512.512	-0.184	-0.428
-551.383	75.270	0.149	-0.158
-550.369	677.485	0.045	-0.116
-549.354	800.000	-0.124	-0.349
-548.339	-93.307	0.273	-0.076
-547.325	800.000	0.124	0.471
-546.310	216.621	-0.071	0.113
-545.296	695.157	-0.083	0.218
-544.281	-133.225	0.173	-0.022
-543.266	49.272	-0.133	-0.125
-542.252	-27.301	-0.045	0.026
-541.237	-200.000	0.030	0.244
-540.223	279.817	0.084	0.151
-539.208	-200.000	-0.057	-0.336
-538.193	204.463	0.209	-0.323
-537.179	800.000	0.039	-0.150
-536.164	-200.000	0.064	-0.371
-535.150	-200.000	0.027	-0.274
-534.135	-200.000	-0.005	-0.024
-533.121	-63.977	0.232	-0.095
-532.106	276.115	-0.055	-0.098
-531.091	-147.543	-0.375	0.032
-530.077	-34.587	0.300	-0.164
-529.062	-14.595	0.270	-0.174
-528.048	-53.571	-0.064	0.029
-527.033	-194.134	-0.295	-0.002
-526.018	147.655	-0.132	0.178
-525.004	-140.968	-0.123	0.013
-523.989	-161.906	-0.168	-0.008
-522.975	17.139	0.195	0.154
-521.960	211.170	0.109	-0.172
-520.945	800.000	0.049	-0.200
-519.931	446.274	-0.059	-0.129
-518.916	58.171	0.109	0.106
-517.902	634.801	-0.105	0.267
-516.887	217.685	0.086	-0.136
-515.872	-118.071	0.111	0.020
-514.858	26.798	0.223	0.186
-513.843	12.794	-0.161	-0.124
-512.829	-52.062	0.226	0.105
-511.814	800.000	-0.041	-0.149
-510.799	-200.000	-0.013	-0.488
-509.785	320.927	-0.030	0.057
-508.770	647.661	-0.038	0.097
-507.756	-135.489	-0.452	-0.054
-506.741	339.384	-0.063	-0.123
-505.726	-200.000	0.212	0.001
-504.712	-10.320	0.185	0.122
-503.697	-53.568	-0.202	0.092
-502.683	-1.292	0.280	-0.197
-501.668	-29.640	-0.256	-0.146
-500.653	-19.149	-0.131	0.081
-499.639	529.386	0.025	0.059
-498.624	-200.000	-0.066	0.289
-497.610	-161.950	-0.226	0.011
-496.595	-42.727	0.321	0.163
-495.581	205.907	0.023	0.036
-494.566	137.892	-0.223	0.292
-493.551	88.860	-0.041	-0.046
-492.537	114.299	-0.182	0.221
-491.522	624.367	-0.043	-0.109
-490.508	-63.047	-0.117	-0.048
-489.493	-200.000	0.022	0.134
-488.478	-200.000	-0.056	-0.425
-487.464	659.448	-0.142	-0.365
-486.449	-200.000	0.046	0.229
-485.435	-129.518	-0.107	-0.015
-484.420	225.981	-0.101	0.163
-483.405	238.414	0.033	-0.054
-482.391	72.431	0.237	-0.246
-481.376	-200.000	0.002	-0.044
-480.362	-82.703	-0.048	0.015
-479.347	-200.000	0.016	-0.102
-478.332	471.965	-0.102	-0.230
-477.318	-56.802	0.156	-0.069
-476.303	-126.211	-0.062	0.009
-475.289	-142.818	-0.221	0.021
-474.274	-140.733	0.292	0.030
-473.259	-43.098	0.106	-0.053
-472.245	277.857	-0.135	0.240
-471.230	-200.000	-0.003	0.072
-470.216	-200.000	0.011	0.432
-469.201	-61.345	0.143	0.060
-468.186	-127.586	-0.417	0.060
-467.172	-8.789	0.304	0.203
-466.157	-7.618	-0.234	-0.157
-465.143	-168.697	-0.406	-0.015
-464.128	-200.000	-0.045	-0.200
-463.113	14.344	-0.335	0.260
-462.099	-66.440	0.277	0.110
-461.084	800.000	-0.045	0.152
-460.070	6.894	-0.255	-0.189
-459.055	-41.015	-0.079	0.041
-458.040	-24.033	-0.186	0.111
-457.026	28.456	0.061	-0.051
-456.011	-200.000	0.017	0.342
-454.997	-74.930	-0.075	-0.027
-453.982	-70.419	-0.033	0.013
-452.968	226.487	0.185	0.298
-451.953	-78.009	0.123	-0.042
-450.938	264.664	0.100	0.174
-449.924	-200.000	-0.012	0.172
-448.909	156.967	-0.150	-0.206
-447.895	24.734	0.190	0.157
-446.880	480.417	0.081	-0.183
-445.865	-200.000	-0.007	-0.035
-444.851	-44.875	-0.124	-0.061
-443.836	-39.807	0.139	0.072
-442.822	428.254	0.029	-0.062
-441.807	89.140	-0.295	-0.327
-440.792	412.445	0.023	-0.049
-439.778	-114.028	0.341	0.066
-438.763	16.363	-0.242	0.190
-437.749	98.119	0.032	-0.037
-436.734	-96.054	-0.342	-0.090
-435.719	260.782	-0.106	0.182
-434.705	-102.818	0.258	-0.061
-433.690	-115.404	-0.314	0.059
-432.676	87.433	-0.047	0.052
-431.661	73.850	-0.231	0.240
-430.646	-200.000	0.015	-0.338
-429.632	208.201	-0.068	0.105
-428.617	800.000	0.151	0.511
-427.603	-200.000	-0.003	0.224
-426.588	-200.000	-0.047	-0.245
-425.573	800.000	0.017	0.071
-424.559	-192.342	0.312	0.003
-423.544	800.000	0.073	-0.246
-422.530	800.000	0.067	-0.202
-421.515	-119.508	-0.122	-0.021
-420.500	-81.136	0.248	0.082
-419.486	-10.056	0.096	-0.064
-418.471	-77.673	-0.086	-0.030
-417.457	34.761	0.091	0.079
-416.442	-156.014	0.081	-0.005
-415.428	768.065	0.154	-0.417
-414.413	-92.143	0.303	-0.085
-413.398	30.546	0.167	-0.142
-412.384	480.734	0.104	0.235
-411.369	221.506	0.121	0.193
-410.355	27.366	0.151	-0.127
-409.340	184.435	0.280	-0.412
-408.325	170.069	0.134	-0.190
-407.311	201.280	0.090	-0.138
-406.296	-154.924	0.302	-0.020
-405.282	112.856	0.119	0.144
-404.267	68.346	0.222	0.227
-403.252	789.372	0.174	-0.474
-402.238	-97.215	-0.209	0.054
-401.223	-105.571	-0.451	-0.102
-400.209	-42.993	-0.064	-0.032
-399.194	800.000	-0.045	-0.185
-398.179	47.388	0.127	0.117
-397.165	68.167	0.223	0.227
-396.150	149.349	0.220	0.296
-395.136	-85.619	0.173	-0.053
-394.121	290.314	0.090	0.162
-393.106	-102.142	-0.186	0.044
-392.092	-162.614	0.104	-0.005
-391.077	-1.694	-0.165	0.116
-390.063	-169.759	-0.059	-0.002
-389.048	-88.883	0.018	0.005
-388.033	-78.829	0.067	0.023
-387.019	12.314	-0.409	0.313
-386.004	-30.687	0.103	-0.058
-384.990	208.315	0.086	-0.133
-383.975	48.520	0.199	0.185
-382.960	406.978	-0.053	0.111
-381.946	-89.590	0.130	0.038
-380.931	-30.625	-0.295	-0.166
-379.917	-51.292	0.039	-0.018
-378.902	345.623	-0.093	-0.181
-377.888	-101.096	-0.141	0.034
-376.873	-25.229	-0.310	0.182
-375.858	-138.842	0.122	-0.013
-374.844	-127.491	0.260	-0.038
-373.829	-110.836	-0.138	0.028
-372.815	441.441	0.172	0.374
-371.800	-200.000	-0.012	0.224
-370.785	800.000	-0.061	0.204
-369.771	28.690	-0.256	-0.215
-368.756	50.424	0.156	0.146
-367.742	-39.661	-0.287	-0.149
-366.727	88.023	0.056	-0.061
-365.712	-130.923	-0.200	-0.027
-364.698	-72.801	0.067	0.025
-363.683	-200.000	0.046	-0.228
-362.669	137.907	-0.116	-0.151
-361.654	-119.406	0.164	-0.028
-360.639	-200.000	-0.010	0.200
-359.625	800.000	-0.041	0.151
-358.610	1.105	0.070	-0.050
-357.596	380.998	0.114	0.231
-356.581	4.603	-0.230	-0.168
-355.566	-73.431	-0.113	0.041
-354.552	28.478	-0.228	-0.191
-353.537	151.873	0.116	0.157
-352.523	694.503	-0.094	-0.244
-351.508	771.325	0.053	0.142
-350.493	-57.157	0.203	-0.089
-349.479	-127.797	0.160	0.023
-348.464	265.218	-0.147	0.254
-347.450	-127.535	-0.157	-0.023
-346.435	800.000	0.121	0.443
-345.420	125.952	0.025	-0.032
-344.406	-200.000	-0.028	0.130
-343.391	594.092	-0.151	0.371
-342.377	-89.286	-0.238	0.070
-341.362	-200.000	0.001	-0.025
-340.348	-184.800	-0.373	0.006
-339.333	-12.549	0.156	0.101
-338.318	589.006	-0.106	0.259
-337.304	139.132	-0.096	-0.125
-336.289	61.199	-0.127	-0.125
-335.275	-200.000	0.008	0.061
-334.260	800.000	0.034	0.129
-333.245	-132.446	0.163	-0.021
-332.231	-200.000	0.008	-0.135
-331.216	9.675	0.201	0.151
-330.202	800.000	-0.038	0.135
-329.187	525.145	-0.137	-0.320
-328.172	-116.832	0.250	0.045
-327.158	-200.000	0.009	0.113
-326.143	488.830	-0.089	0.201
-325.129	-200.000	0.014	-0.123
-324.114	97.330	-0.119	-0.135
-323.099	-109.554	0.072	-0.015
-322.085	-126.693	-0.123	-0.018
-321.070	-9.676	-0.084	-0.055
-320.056	-200.000	0.008	0.475
-319.041	539.242	-0.198	-0.466
-318.026	-21.901	0.324	-0.195
-317.012	-131.492	-0.142	0.019
-315.997	466.730	0.092	0.205
-314.983	-167.809	-0.297	-0.012
-313.968	-200.000	-0.012	-0.434
-312.953	-2.233	-0.300	-0.209
-311.939	-22.799	0.101	-0.060
-310.924	800.000	0.078	0.259
-309.910	75.828	0.221	-0.231
-308.895	-200.000	-0.020	0.166
-307.880	433.563	-0.102	-0.220
-306.866	104.165	0.008	-0.010
-305.851	-121.459	0.104	0.017
-304.837	-62.290	-0.375	0.155
-303.822	-70.768	0.123	0.046
-302.807	-70.642	0.096	0.036
-301.793	-200.000	0.002	0.015
-300.778	118.583	0.282	0.345
-299.764	-69.125	-0.213	-0.081
-298.749	116.946	0.163	-0.198
-297.735	-200.000	-0.012	0.109
-296.720	-183.803	-0.302	-0.005
-295.705	113.494	-0.036	0.044
-294.691	-200.000	0.015	-0.240
-293.676	-36.086	-0.047	0.025
-292.662	-0.985	0.117	-0.082
-291.647	45.010	0.161	0.146
-290.632	-65.761	0.306	-0.121
-289.618	800.000	-0.069	0.207
-288.603	-200.000	0.060	0.282
-287.589	186.062	0.018	-0.027
-286.574	-15.855	0.229	-0.144
-285.559	150.229	-0.267	-0.358
-284.545	-34.447	-0.019	0.010
-283.530	218.993	-0.158	0.249
-282.516	-166.160	0.392	0.016
-281.501	-189.074	0.121	0.001
-280.486	800.000	0.044	-0.181
-279.472	136.708	0.208	-0.269
-278.457	800.000	0.060	0.182
-277.443	-200.000	-0.000	-0.213
-276.428	-18.683	0.308	0.190
-275.413	-8.167	0.186	-0.124
-274.399	-200.000	-0.079	0.413
-273.384	8.306	0.312	-0.232
-272.370	800.000	0.056	-0.175
-271.355	-200.000	0.010	-0.133
-270.340	9.366	0.270	-0.202
-269.326	-200.000	-0.016	0.073
-268.311	161.923	-0.155	0.215
-267.297	-185.475	0.170	-0.003
-266.282	-76.101	0.038	0.013
-265.267	-131.178	0.366	0.048
-264.253	182.257	0.182	-0.265
-263.238	164.705	-0.195	-0.272
-262.224	-71.368	-0.220	-0.082
-261.209	-200.000	-0.020	0.126
-260.195	215.431	0.064	0.101
-259.180	354.631	0.052	0.102
-258.165	-107.700	-0.132	0.028
-257.151	-89.958	-0.156	-0.045
-256.136	-161.799	-0.413	0.021
-255.122	-39.924	-0.354	-0.183
-254.107	292.516	-0.237	0.428
-253.092	-200.000	-0.084	0.496
-252.078	96.699	0.105	0.119
-251.063	404.935	-0.151	0.314
-250.049	74.428	-0.067	-0.070
-249.034	669.979	0.164	-0.420
-248.019	800.000	-0.036	0.148
-247.005	10.029	0.189	0.142
-245.990	232.166	0.029	-0.048
-244.976	-92.996	-0.076	0.021
-243.961	256.063	0.186	0.315
-242.946	-13.607	-0.190	0.121
-241.932	-200.000	0.045	0.354
-240.917	-200.000	-0.005	-0.040
-239.903	2.967	0.047	0.034
-238.888	-187.116	0.212	-0.003
-237.873	-24.710	-0.381	-0.224
-236.859	762.951	0.049	-0.131
-235.844	200.335	-0.039	0.060
-234.830	97.776	-0.172	-0.195
-233.815	-97.696	-0.265	-0.068
-232.800	66.108	0.130	-0.131
-231.786	-200.000	-0.005	0.204
-230.771	37.519	0.172	0.150
-229.757	76.660	0.213	0.223
-228.742	151.385	-0.286	0.385
-227.727	-111.722	0.049	-0.010
-226.713	199.903	-0.209	0.316
-225.698	-200.000	0.001	0.016
-224.684	-58.326	0.531	-0.228
-223.669	507.109	-0.091	0.208
-222.655	759.639	-0.131	0.352
-221.640	25.188	-0.229	0.188
-220.625	-200.000	0.059	-0.318
-219.611	16.118	0.040	0.031
-218.596	-200.000	0.016	0.121
-217.582	-140.178	0.320	0.033
-216.567	-75.872	0.222	0.078
-215.552	800.000	0.043	-0.132
-214.538	-79.680	0.170	-0.057
-213.523	590.848	0.035	0.085
-212.509	-160.347	-0.253	0.013
-211.494	-55.426	-0.231	0.102
-210.479	-31.746	0.189	0.105
-209.465	-200.000	-0.000	0.070
-208.450	-2.660	0.269	0.186
-207.436	800.000	0.133	0.380
-206.421	-160.749	0.340	0.018
-205.406	310.756	-0.087	0.161
-204.392	-200.000	0.011	-0.228
-203.377	179.175	0.139	0.201
-202.363	-93.586	0.159	-0.043
-201.348	469.813	-0.074	-0.164
-200.333	71.101	0.202	0.206
-199.319	-151.002	-0.255	0.019
-198.304	-25.721	0.181	0.105
-197.290	-116.182	-0.152	-0.028
-196.275	-200.000	0.010	-0.120
-195.260	-98.032	0.109	-0.028
-194.246	-200.000	0.042	-0.250
-193.231	25.210	0.148	0.121
-192.217	-49.259	0.092	0.043
-191.202	8.110	0.144	0.106
-190.187	6.674	-0.126	-0.092
-189.173	-67.877	0.066	0.025
-188.158	-118.457	0.100	-0.017
-187.144	-35.698	0.124	-0.066
-186.129	125.058	0.150	-0.186
-185.114	800.000	-0.117	0.414
-184.100	235.275	0.057	0.093
-183.085	513.428	0.089	-0.204
-182.071	548.255	-0.126	0.298
-181.056	-61.636	0.120	-0.049
-180.042	4.736	-0.285	-0.206
-179.027	-102.677	0.089	0.021
-178.012	-139.761	0.104	0.011
-176.998	-28.249	-0.277	0.157
-175.983	-101.765	-0.301	0.072
-174.969	106.235	-0.208	-0.243
-173.954	-123.720	0.032	-0.005
-172.939	-28.821	-0.279	0.158
-171.925	122.991	-0.181	-0.223
-170.910	-60.743	-0.347	-0.145
-169.896	800.000	0.123	-0.375
-168.881	83.319	0.082	-0.088
-167.866	47.697	-0.075	0.068
-166.852	-149.230	-0.104	-0.008
-165.837	294.218	0.157	-0.282
-164.823	106.688	-0.186	-0.218
-163.808	312.308	-0.125	0.232
-162.793	82.590	0.149	0.159
-161.779	-18.061	0.121	0.074
-160.764	-28.967	0.188	0.106
-159.750	-166.990	0.299	-0.012
-158.735	225.783	0.163	-0.260
-157.720	73.881	0.297	-0.307
-156.706	770.335	-0.179	-0.479
-155.691	-89.730	0.254	-0.073
-154.677	90.020	0.105	0.115
-153.662	800.000	-0.088	0.309
-152.647	-163.207	0.137	0.006
-151.633	-200.000	0.045	-0.356
-150.618	-200.000	-0.001	-0.100
-149.604	339.432	0.145	-0.277
-148.589	-30.737	-0.419	0.233
-147.574	-7.761	-0.316	-0.210
-146.560	89.508	0.082	-0.090
-145.545	41.523	-0.121	-0.108
-144.531	-91.593	0.205	-0.058
-143.516	-3.102	-0.335	0.230
-142.502	-200.000	0.013	0.128
-141.487	-43.323	0.157	0.078
-140.472	800.000	0.104	-0.288
-139.458	-60.145	0.228	-0.096
-138.443	-132.837	0.387	0.049
-137.429	332.472	0.096	0.183
-136.414	-63.355	0.271	0.110
-135.399	-80.154	-0.236	-0.078
-134.385	-113.265	0.317	0.061
-133.370	-68.730	0.173	-0.066
-132.356	162.167	-0.118	-0.163
-131.341	-38.488	0.267	0.139
-130.326	-200.000	0.003	0.157
-129.312	-66.079	0.152	-0.060
-128.297	164.800	-0.111	0.154
-127.283	-200.000	-0.039	0.383
-126.268	134.315	0.040	0.051
-125.253	491.275	-0.100	0.226
-124.239	-115.330	0.398	0.074
-123.224	-174.672	0.285	0.008
-122.210	65.407	-0.222	0.221
-121.195	-16.550	-0.204	0.127
-120.180	76.444	0.180	0.188
