DTS Sentinel unit serial number:	SN413079Multiplexer serial number:	ORYXHardware model number:	OX4-SRSoftware version number:	ORYX F/W v4.00 Oryx Data Collector v3.7.2.0data status	okinstallation	princeton_trtdifferential loss correction	single-endedforward channel	channel 2reverse channel	N/Adate	2019/09/13time	04:27:35forward acquisition time	60.00reverse acquisition time	0.00gamma	496.2192k internal	0.2336k external	0.2336temperature offset calibration	1.0187default loss term (dB/km)	0.3790temperature slope calibration	1.0000multiplexer offset coefficient	1.0000multiplexer slope coefficient	1.0000fibre end	0.00T internal ref (°C)	26.75T ext. ref 1 (°C)	4.05T ext. ref 2 (°C)	21.16length (m)	temperature (°C)	Stokes	anti-Stokes-747.200	-82.944	-0.106	0.034
-746.185	9.067	-0.162	0.123
-745.171	-59.021	-0.399	-0.173
-744.156	-200.000	0.048	0.298
-743.142	122.984	-0.042	-0.053
-742.127	-117.174	-0.712	0.130
-741.112	246.615	0.047	-0.080
-740.098	111.911	0.239	0.290
-739.083	-111.160	-0.336	-0.069
-738.069	800.000	0.024	0.072
-737.054	-24.703	0.167	0.100
-736.039	22.763	-0.356	-0.293
-735.025	-168.337	-0.057	-0.002
-734.010	212.257	-0.103	-0.163
-732.996	-57.829	0.115	-0.050
-731.981	81.217	0.098	-0.106
-730.966	-63.034	-0.199	-0.083
-729.952	520.577	0.091	0.215
-728.937	30.725	-0.111	0.096
-727.923	-14.553	0.101	-0.065
-726.908	-56.944	-0.224	-0.099
-725.894	-78.223	0.140	0.048
-724.879	-90.452	0.030	0.009
-723.864	-109.102	-0.072	-0.015
-722.850	-70.879	0.094	-0.036
-721.835	329.538	0.060	-0.117
-720.821	108.797	0.254	-0.305
-719.806	800.000	0.053	-0.152
-718.791	-79.231	0.190	-0.065
-717.777	-134.207	-0.283	-0.035
-716.762	-78.138	0.243	0.084
-715.748	101.520	0.059	0.069
-714.733	231.519	-0.038	0.063
-713.718	-28.467	0.180	-0.104
-712.704	-79.865	-0.261	-0.088
-711.689	-30.743	0.172	0.097
-710.675	57.461	-0.167	-0.163
-709.660	99.878	0.145	0.169
-708.645	702.852	-0.088	-0.233
-707.631	-95.419	0.040	0.011
-706.616	-74.868	-0.084	-0.030
-705.602	-200.000	-0.062	-0.294
-704.587	-200.000	0.001	-0.182
-703.572	290.959	0.058	0.106
-702.558	-172.026	-0.463	0.015
-701.543	-200.000	0.009	0.103
-700.529	-40.999	-0.048	0.025
-699.514	212.073	0.179	0.283
-698.499	48.623	-0.360	0.338
-697.485	3.181	0.334	0.243
-696.470	800.000	0.105	-0.333
-695.456	-174.230	-0.100	-0.003
-694.441	-171.768	0.275	-0.009
-693.426	557.525	-0.095	-0.230
-692.412	-56.046	-0.166	0.074
-691.397	-200.000	-0.039	0.307
-690.383	-92.572	0.208	-0.058
-689.368	-81.122	0.110	-0.036
-688.354	200.943	0.120	-0.185
-687.339	63.685	-0.039	-0.039
-686.324	-0.750	0.117	-0.083
-685.310	-48.644	0.144	-0.069
-684.295	-103.999	-0.487	0.114
-683.281	205.404	0.104	0.162
-682.266	-26.770	-0.165	0.097
-681.251	-107.870	-0.259	-0.056
-680.237	-143.290	-0.045	0.004
-679.222	-92.051	-0.163	-0.046
-678.208	-97.051	-0.101	0.026
-677.193	199.625	-0.200	-0.307
-676.178	-200.000	0.023	0.269
-675.164	431.443	0.013	0.029
-674.149	-164.321	-0.111	0.005
-673.135	-105.876	0.131	0.030
-672.120	53.631	-0.208	0.200
-671.105	-200.000	-0.014	0.346
-670.091	-144.829	0.040	-0.004
-669.076	800.000	0.086	0.263
-668.062	-65.149	0.078	0.031
-667.047	-98.541	0.140	0.036
-666.032	-13.266	-0.231	-0.150
-665.018	-18.723	0.191	-0.119
-664.003	288.146	-0.177	-0.321
-662.989	800.000	0.010	0.042
-661.974	74.771	0.097	0.102
-660.959	-137.360	-0.134	0.015
-659.945	-200.000	-0.008	0.069
-658.930	-104.005	0.280	-0.065
-657.916	115.666	-0.153	-0.187
-656.901	232.252	0.117	-0.192
-655.886	608.326	-0.069	0.172
-654.872	252.657	0.052	0.089
-653.857	-6.529	-0.302	-0.206
-652.843	506.838	0.112	-0.259
-651.828	113.661	-0.041	-0.049
-650.814	22.635	0.115	0.094
-649.799	-200.000	-0.005	-0.351
-648.784	213.383	-0.104	-0.165
-647.770	30.059	-0.258	-0.220
-646.755	18.816	0.376	0.301
-645.741	133.485	-0.036	-0.046
-644.726	-99.866	-0.100	-0.025
-643.711	-53.260	-0.073	0.033
-642.697	125.743	0.166	-0.210
-641.682	26.266	-0.101	-0.084
-640.668	39.153	-0.108	0.096
-639.653	-156.378	-0.119	0.007
-638.638	-176.915	-0.285	-0.007
-637.624	-49.540	0.124	0.059
-636.609	-90.552	-0.256	0.074
-635.595	-110.711	-0.212	0.044
-634.580	-109.773	0.323	0.068
-633.565	-107.549	-0.342	-0.075
-632.551	-200.000	0.068	0.320
-631.536	-2.081	-0.068	-0.048
-630.522	190.607	0.112	0.168
-629.507	-59.533	-0.210	0.090
-628.492	-200.000	-0.009	0.114
-627.478	77.417	0.295	0.314
-626.463	-45.635	0.029	0.014
-625.449	800.000	0.056	0.203
-624.434	107.487	0.197	0.234
-623.419	-141.643	-0.250	0.025
-622.405	-200.000	-0.032	0.174
-621.390	166.242	0.150	0.213
-620.376	-107.773	-0.277	-0.060
-619.361	15.428	-0.242	-0.190
-618.346	151.192	-0.133	0.181
-617.332	-58.104	0.240	0.104
-616.317	-80.188	0.139	0.046
-615.303	800.000	0.023	0.077
-614.288	-90.392	0.449	-0.130
-613.273	437.681	0.095	0.207
-612.259	61.904	-0.140	-0.140
-611.244	-149.534	0.342	-0.027
-610.230	-35.640	0.039	-0.021
-609.215	-200.000	-0.066	0.297
-608.201	-158.159	-0.253	-0.015
-607.186	172.702	0.153	0.220
-606.171	172.241	0.221	-0.318
-605.157	-200.000	-0.002	-0.235
-604.142	800.000	0.060	-0.216
-603.128	-105.795	0.174	0.039
-602.113	44.620	-0.035	0.032
-601.098	-63.239	0.201	0.083
-600.084	-51.040	-0.273	-0.128
-599.069	-200.000	-0.005	0.073
-598.055	-200.000	-0.018	-0.248
-597.040	39.684	0.243	-0.218
-596.025	179.012	0.148	0.217
-595.011	-102.667	0.348	0.083
-593.996	-93.232	0.369	0.102
-592.982	-37.458	0.168	0.090
-591.967	-40.906	-0.051	-0.026
-590.952	-153.693	-0.273	0.019
-589.938	800.000	0.083	0.244
-588.923	424.497	0.019	-0.040
-587.909	-200.000	-0.026	-0.375
-586.894	709.223	-0.103	-0.271
-585.879	-200.000	0.003	0.179
-584.865	-144.889	0.274	0.025
-583.850	88.277	0.162	-0.179
-582.836	-50.982	0.114	-0.054
-581.821	-46.454	-0.094	0.046
-580.806	218.097	-0.155	-0.247
-579.792	-21.967	-0.028	-0.017
-578.777	13.399	-0.115	0.089
-577.763	-12.911	0.170	-0.111
-576.748	262.374	0.067	0.116
-575.733	-51.625	-0.126	-0.059
-574.719	-12.034	0.115	0.075
-573.704	-173.875	-0.214	-0.006
-572.690	212.787	0.141	-0.223
-571.675	-180.646	-0.141	0.003
-570.661	327.094	0.154	-0.295
-569.646	-200.000	-0.011	0.264
-568.631	-200.000	-0.121	0.555
-567.617	213.614	0.208	-0.329
-566.602	800.000	0.057	-0.170
-565.588	-104.722	0.198	0.046
-564.573	-26.199	-0.215	-0.126
-563.558	-168.551	-0.256	0.010
-562.544	159.849	-0.121	0.168
-561.529	247.428	0.112	-0.188
-560.515	800.000	0.086	-0.359
-559.500	-185.319	-0.323	0.005
-558.485	248.266	-0.194	-0.327
-557.471	800.000	-0.053	-0.228
-556.456	-200.000	0.011	0.247
-555.442	-73.540	0.228	0.083
-554.427	-105.330	-0.173	0.039
-553.412	-16.795	0.358	-0.226
-552.398	-130.003	0.071	0.010
-551.383	800.000	0.110	-0.436
-550.369	1.856	0.116	0.083
-549.354	96.533	-0.087	0.099
-548.339	-149.467	0.045	-0.004
-547.325	800.000	-0.046	0.176
-546.310	-158.561	-0.073	0.004
-545.296	-105.523	0.266	-0.060
-544.281	167.994	0.039	-0.055
-543.266	-41.860	0.357	-0.182
-542.252	242.655	-0.174	0.290
-541.237	-139.877	-0.150	0.016
-540.223	-10.255	-0.160	-0.106
-539.208	-93.160	-0.060	0.017
-538.193	800.000	0.043	-0.147
-537.179	-138.245	-0.257	-0.028
-536.164	8.266	0.351	0.263
-535.150	-167.661	0.220	0.009
-534.135	101.279	-0.117	0.135
-533.121	-200.000	0.008	-0.094
-532.106	-153.925	-0.544	-0.037
-531.091	-65.672	-0.244	-0.097
-530.077	46.553	0.095	-0.087
-529.062	-53.037	-0.056	0.026
-528.048	175.870	0.089	-0.128
-527.033	-78.628	-0.132	0.045
-526.018	-102.608	0.427	0.102
-525.004	800.000	-0.082	-0.312
-523.989	-134.087	-0.201	-0.025
-522.975	56.905	-0.150	-0.145
-521.960	219.977	0.149	-0.237
-520.945	-200.000	-0.003	-0.138
-519.931	-200.000	0.059	-0.305
-518.916	444.285	-0.083	-0.181
-517.902	24.417	0.127	0.105
-516.887	86.761	-0.113	-0.124
-515.872	-200.000	-0.042	-0.232
-514.858	800.000	-0.036	0.145
-513.843	-86.707	-0.454	-0.138
-512.829	-200.000	-0.035	0.345
-511.814	-62.456	-0.240	-0.099
-510.799	99.514	0.102	0.118
-509.785	147.177	-0.147	0.197
-508.770	-67.091	-0.358	-0.140
-507.756	158.347	-0.188	-0.259
-506.741	-17.051	0.360	0.226
-505.726	101.497	-0.104	0.120
-504.712	-200.000	0.020	-0.418
-503.697	-65.159	-0.376	0.151
-502.683	-66.579	-0.098	-0.039
-501.668	-83.230	0.078	-0.025
-500.653	-124.938	0.282	0.043
-499.639	800.000	-0.057	0.238
-498.624	4.773	-0.228	-0.167
-497.610	-101.046	0.248	0.060
-496.595	-200.000	0.043	-0.264
-495.581	-76.516	-0.182	0.064
-494.566	800.000	-0.045	0.137
-493.551	-120.543	0.063	0.011
-492.537	-200.000	0.019	0.159
-491.522	8.576	0.229	-0.171
-490.508	191.832	-0.031	-0.047
-489.493	89.074	-0.153	0.170
-488.478	-107.259	0.081	0.018
-487.464	107.075	0.110	0.130
-486.449	800.000	0.032	-0.091
-485.435	-0.972	0.277	-0.195
-484.420	-135.708	-0.157	0.018
-483.405	-8.568	0.241	0.161
-482.391	-200.000	0.036	0.229
-481.376	-132.446	0.113	0.014
-480.362	220.065	0.274	-0.437
-479.347	-73.679	-0.155	-0.056
-478.332	386.463	-0.139	0.285
-477.318	116.220	-0.028	0.034
-476.303	62.557	0.013	0.013
-475.289	800.000	0.011	-0.034
-474.274	87.816	0.074	-0.082
-473.259	3.694	0.149	0.108
-472.245	55.375	-0.350	-0.336
-471.230	468.946	-0.040	-0.089
-470.216	33.022	-0.176	-0.152
-469.201	103.348	-0.139	-0.161
-468.186	83.409	0.075	0.081
-467.172	643.593	-0.059	0.150
-466.157	-200.000	-0.017	0.096
-465.143	-18.860	-0.046	-0.029
-464.128	-45.636	-0.207	0.102
-463.113	363.671	0.064	-0.127
-462.099	-49.613	0.022	0.010
-461.084	-200.000	0.029	0.344
-460.070	-200.000	0.025	0.191
-459.055	-200.000	-0.014	-0.097
-458.040	800.000	0.068	-0.195
-457.026	304.631	-0.020	-0.036
-456.011	-105.597	0.289	0.065
-454.997	-164.551	-0.266	-0.012
-453.982	800.000	-0.018	-0.052
-452.968	-200.000	0.041	-0.221
-451.953	30.396	0.062	0.053
-450.938	-112.571	0.240	0.047
-449.924	-62.881	-0.141	-0.058
-448.909	120.855	-0.212	0.262
-447.895	172.082	0.085	-0.122
-446.880	800.000	0.023	-0.074
-445.865	170.002	-0.219	0.311
-444.851	-200.000	-0.005	-0.064
-443.836	103.907	0.182	-0.212
-442.822	800.000	-0.048	0.154
-441.807	-200.000	0.000	0.131
-440.792	33.395	-0.271	0.233
-439.778	-147.946	-0.260	0.021
-438.763	144.144	0.206	0.273
-437.749	507.287	-0.052	-0.119
-436.734	59.364	0.068	-0.067
-435.719	-83.332	-0.120	-0.038
-434.705	53.948	-0.211	-0.201
-433.690	800.000	0.012	0.040
-432.676	-200.000	-0.017	-0.165
-431.661	-200.000	-0.045	-0.586
-430.646	-54.731	0.365	0.164
-429.632	-21.583	-0.026	-0.016
-428.617	800.000	-0.060	-0.226
-427.603	58.346	0.144	0.140
-426.588	-68.202	0.554	0.214
-425.573	-35.835	0.396	0.213
-424.559	-80.987	0.110	-0.036
-423.544	-107.630	0.396	0.086
-422.530	228.810	-0.195	-0.315
-421.515	-135.947	0.147	0.017
-420.500	-107.938	-0.228	-0.049
-419.486	-58.112	-0.362	0.156
-418.471	694.728	-0.106	0.275
-417.457	391.722	0.121	-0.249
-416.442	642.313	-0.064	-0.162
-415.428	-97.866	-0.368	-0.094
-414.413	-25.866	0.209	-0.122
-413.398	684.652	-0.049	0.127
-412.384	-200.000	-0.002	-0.049
-411.369	-62.558	0.196	0.081
-410.355	11.561	-0.222	-0.168
-409.340	-140.458	-0.139	0.014
-408.325	-84.325	0.130	-0.041
-407.311	-108.430	-0.296	0.063
-406.296	-139.216	0.230	-0.025
-405.282	-92.626	0.282	0.078
-404.267	37.791	-0.235	-0.207
-403.252	785.983	0.051	0.140
-402.238	122.798	-0.052	0.064
-401.223	224.987	0.091	0.146
-400.209	-94.310	-0.385	-0.104
-399.194	-49.167	0.323	-0.153
-398.179	-39.750	-0.290	-0.150
-397.165	-134.115	0.041	-0.005
-396.150	-101.626	0.037	0.009
-395.136	69.946	-0.086	-0.088
-394.121	-7.568	-0.209	-0.140
-393.106	303.768	0.142	-0.261
-392.092	-138.359	-0.502	0.055
-391.077	169.002	-0.160	0.227
-390.063	101.748	0.151	-0.174
-389.048	20.337	-0.180	-0.144
-388.033	800.000	-0.096	-0.286
-387.019	599.500	-0.177	-0.434
-386.004	800.000	0.109	-0.362
-384.990	6.569	-0.175	0.129
-383.975	310.154	-0.080	0.149
-382.960	-4.841	0.127	-0.086
-381.946	800.000	0.061	0.213
-380.931	-54.665	0.177	0.079
-379.917	-5.034	0.084	-0.057
-378.902	-32.991	-0.137	0.075
-377.888	98.924	-0.216	-0.247
-376.873	118.068	-0.125	0.153
-375.858	230.996	0.153	0.248
-374.844	-37.045	0.253	0.134
-373.829	-131.874	0.280	0.036
-372.815	99.396	0.198	-0.226
-371.800	520.191	0.047	-0.109
-370.785	170.019	-0.144	-0.204
-369.771	-200.000	-0.003	0.367
-368.756	-135.705	-0.346	-0.041
-367.742	20.024	0.152	-0.121
-366.727	52.387	0.047	0.044
-365.712	672.815	-0.140	-0.359
-364.698	-115.039	0.184	0.035
-363.683	-200.000	-0.003	0.357
-362.669	-111.609	-0.085	0.017
-361.654	-102.046	-0.080	0.019
-360.639	92.312	-0.148	-0.165
-359.625	127.263	0.101	0.127
-358.610	265.500	-0.055	-0.095
-357.596	-35.234	0.247	-0.133
-356.581	109.526	-0.248	0.294
-355.566	-107.592	0.309	-0.067
-354.552	28.366	-0.273	0.228
-353.537	-83.891	-0.183	0.057
-352.523	-43.524	0.184	-0.092
-351.508	-37.168	-0.204	-0.108
-350.493	800.000	-0.052	0.155
-349.479	-200.000	0.239	-0.001
-348.464	136.768	0.029	0.038
-347.450	800.000	-0.068	-0.242
-346.435	-126.922	0.058	0.008
-345.420	-48.644	0.118	-0.056
-344.406	-78.546	-0.108	-0.036
-343.391	-144.386	-0.212	0.019
-342.377	800.000	0.065	-0.223
-341.362	-171.631	0.401	0.013
-340.348	800.000	-0.061	0.203
-339.333	136.006	0.124	-0.160
-338.318	800.000	-0.027	-0.096
-337.304	-191.118	0.186	-0.002
-336.289	589.284	-0.205	0.499
-335.275	-99.643	-0.103	-0.026
-334.260	172.088	0.179	-0.254
-333.245	800.000	0.042	0.131
-332.231	-54.932	-0.220	-0.098
-331.216	-84.463	-0.052	-0.016
-330.202	-200.000	-0.046	-0.240
-329.187	-200.000	-0.026	0.188
-328.172	202.917	-0.057	0.087
-327.158	800.000	0.029	-0.104
-326.143	-200.000	0.041	-0.193
-325.129	-1.816	0.162	-0.113
-324.114	435.864	-0.116	-0.249
-323.099	-200.000	0.000	0.186
-322.085	-200.000	0.007	-0.057
-321.070	387.991	-0.028	-0.058
-320.056	-155.429	-0.122	-0.008
-319.041	-68.361	-0.072	0.028
-318.026	22.521	-0.278	-0.224
-317.012	318.648	0.053	-0.100
-315.997	-200.000	-0.023	-0.159
-314.983	-28.317	0.263	-0.150
-313.968	-200.000	-0.011	0.056
-312.953	800.000	-0.109	0.364
-311.939	-12.531	0.100	0.064
-310.924	-27.673	0.066	-0.038
-309.910	26.989	0.045	0.037
-308.895	-142.521	0.259	-0.025
-307.880	-190.258	0.554	-0.006
-306.866	-200.000	-0.041	-0.316
-305.851	-157.278	-0.332	-0.020
-304.837	205.305	-0.128	0.197
-303.822	565.402	-0.048	-0.114
-302.807	-131.329	0.195	-0.026
-301.793	-52.644	0.203	0.092
-300.778	207.395	0.208	-0.320
-299.764	-92.534	0.388	0.108
-298.749	-200.000	-0.032	-0.199
-297.735	-57.518	-0.433	-0.187
-296.720	800.000	0.030	0.093
-295.705	626.525	-0.034	-0.086
-294.691	-68.737	0.327	-0.125
-293.676	-64.879	0.236	-0.094
-292.662	-60.394	-0.446	0.187
-291.647	-109.481	0.394	0.082
-290.632	800.000	-0.057	0.195
-289.618	501.045	-0.023	-0.053
-288.603	179.324	-0.121	-0.174
-287.589	342.193	0.069	-0.133
-286.574	-155.471	-0.154	0.010
-285.559	800.000	0.019	-0.074
-284.545	-200.000	0.026	0.121
-283.530	800.000	-0.046	-0.183
-282.516	-200.000	0.010	0.150
-281.501	181.298	0.024	0.035
-280.486	207.543	-0.099	-0.153
-279.472	-52.438	-0.257	0.117
-278.457	-36.520	-0.322	-0.171
-277.443	243.944	-0.100	0.165
-276.428	-67.973	0.177	-0.068
-275.413	-158.587	-0.090	0.005
-274.399	-142.762	-0.337	-0.032
-273.384	-200.000	0.020	0.333
-272.370	-145.304	0.279	0.025
-271.355	765.698	-0.046	-0.124
-270.340	-42.908	0.066	-0.033
-269.326	272.313	0.089	0.155
-268.311	800.000	-0.050	-0.164
-267.297	800.000	0.032	-0.116
-266.282	167.870	0.102	0.143
-265.267	-90.987	-0.154	0.044
-264.253	641.367	0.058	0.145
-263.238	664.343	-0.027	-0.068
-262.224	1.813	-0.326	0.232
-261.209	-66.612	-0.281	0.110
-260.195	70.673	-0.114	-0.116
-259.180	-106.293	-0.369	-0.081
-258.165	-85.778	0.325	-0.099
-257.151	-164.580	0.198	-0.009
-256.136	-11.754	-0.329	0.213
-255.122	-39.611	0.399	0.206
-254.107	-144.644	0.363	0.033
-253.092	24.936	-0.242	0.198
-252.078	391.037	-0.182	0.372
-251.063	-200.000	0.045	0.478
-250.049	-94.106	-0.147	-0.040
-249.034	-200.000	0.052	0.254
-248.019	-103.179	-0.300	-0.070
-247.005	144.154	0.155	0.204
-245.990	116.588	0.220	-0.265
-244.976	-191.764	0.221	0.002
-243.961	-89.157	-0.185	0.054
-242.946	297.030	-0.069	0.126
-241.932	80.024	0.073	-0.077
-240.917	88.331	-0.168	0.184
-239.903	-19.357	-0.148	0.090
-238.888	499.697	-0.105	-0.238
-237.873	-42.719	-0.061	0.031
-236.859	-132.704	-0.341	-0.043
-235.844	4.503	-0.193	-0.140
-234.830	642.622	0.116	0.291
-233.815	-200.000	-0.094	0.416
-232.800	19.054	0.218	0.172
-231.786	-200.000	0.017	0.266
-230.771	-36.516	0.082	0.044
-229.757	-79.155	0.240	0.080
-228.742	297.739	-0.084	0.151
-227.727	-48.779	0.117	0.055
-226.713	14.780	-0.177	-0.136
-225.698	7.475	-0.268	0.197
-224.684	254.269	0.226	0.381
-223.669	459.546	-0.104	-0.228
-222.655	14.366	0.149	-0.114
-221.640	331.446	0.090	0.170
-220.625	432.687	-0.055	-0.118
-219.611	781.930	-0.060	0.162
-218.596	-198.983	0.264	-0.001
-217.582	46.948	0.235	0.215
-216.567	-128.088	0.036	-0.005
-215.552	800.000	0.047	0.143
-214.538	800.000	-0.014	-0.039
-213.523	-171.070	0.297	-0.010
-212.509	160.178	0.150	-0.205
-211.494	800.000	0.051	0.172
-210.479	68.658	0.156	0.157
-209.465	35.216	0.122	-0.105
-208.450	27.684	0.084	0.070
-207.436	547.237	-0.118	-0.277
-206.421	-83.372	-0.133	0.042
-205.406	800.000	0.034	-0.114
-204.392	-198.407	0.039	0.000
-203.377	177.468	-0.144	0.207
-202.363	-50.879	-0.139	0.064
-201.348	-41.738	0.039	-0.020
-200.333	520.573	-0.071	0.165
-199.319	-200.000	-0.036	0.159
-198.304	-120.304	0.405	0.068
-197.290	175.073	-0.290	0.413
-196.275	20.732	-0.200	0.159
-195.260	-27.112	0.116	-0.067
-194.246	-52.844	0.161	0.073
-193.231	-147.705	0.272	-0.022
-192.217	343.148	-0.131	0.252
-191.202	226.599	0.295	0.470
-190.187	23.345	0.190	-0.154
-189.173	-108.576	-0.278	-0.059
-188.158	-2.218	0.195	0.135
-187.144	-116.566	-0.145	-0.026
-186.129	-148.678	-0.291	-0.023
-185.114	67.243	-0.110	0.111
-184.100	158.353	0.174	0.237
-183.085	-2.173	-0.037	0.025
-182.071	444.011	0.128	0.276
-181.056	481.080	0.086	-0.191
-180.042	59.940	0.132	0.129
-179.027	36.899	0.214	0.186
-178.012	-200.000	-0.014	0.093
-176.998	-200.000	-0.107	-0.480
-175.983	-150.209	-0.312	-0.024
-174.969	87.774	-0.130	0.142
-173.954	-200.000	0.012	-0.159
-172.939	22.417	-0.105	-0.084
-171.925	-42.834	-0.056	-0.028
-170.910	102.828	0.139	-0.159
-169.896	-170.261	0.362	0.013
-168.881	-47.058	0.181	0.087
-167.866	49.975	0.082	0.076
-166.852	-97.564	0.304	0.078
-165.837	-76.806	-0.192	-0.066
-164.823	618.774	0.020	-0.050
-163.808	84.803	0.137	0.147
-162.793	-158.552	0.166	0.009
-161.779	-124.679	-0.262	-0.040
-160.764	-65.454	0.292	-0.115
-159.750	101.260	0.092	-0.105
-158.735	-5.077	-0.355	-0.240
-157.720	111.445	-0.205	-0.242
-156.706	459.664	0.199	0.436
-155.691	-70.633	-0.346	0.128
-154.677	-58.214	0.053	0.023
-153.662	-47.833	0.120	-0.057
-152.647	119.545	-0.224	-0.272
-151.633	178.795	0.119	-0.171
-150.618	-200.000	-0.010	0.224
-149.604	-200.000	-0.033	0.402
-148.589	180.468	-0.212	-0.305
-147.574	551.394	0.102	0.240
-146.560	-26.117	0.187	-0.108
-145.545	150.163	-0.086	0.115
-144.531	276.436	-0.119	0.207
-143.516	-200.000	-0.005	-0.164
-142.502	-1.714	-0.264	0.183
-141.487	-168.012	-0.312	0.012
-140.472	61.297	-0.111	-0.108
-139.458	1.189	-0.156	0.110
-138.443	-6.863	-0.097	-0.064
-137.429	-102.006	0.229	0.054
-136.414	-8.136	0.210	-0.139
-135.399	226.231	0.181	-0.288
-134.385	20.247	0.259	-0.205
-133.370	121.643	-0.259	-0.317
-132.356	237.829	-0.083	0.135
-131.341	-76.056	-0.513	0.178
-130.326	28.271	0.161	0.133
-129.312	-80.071	0.072	0.024
-128.297	64.013	0.396	0.391
-127.283	800.000	-0.100	-0.318
-126.268	140.004	-0.037	-0.048
-125.253	-9.381	-0.131	0.086
-124.239	800.000	0.023	-0.096
-123.224	-33.480	-0.180	0.098
-122.210	28.832	0.247	0.205
-121.195	-110.488	0.168	0.034
