DTS Sentinel unit serial number:	SN413079Multiplexer serial number:	ORYXHardware model number:	OX4-SRSoftware version number:	ORYX F/W v4.00 Oryx Data Collector v3.7.2.0data status	okinstallation	princeton_trtdifferential loss correction	single-endedforward channel	channel 2reverse channel	N/Adate	2019/09/14time	19:47:35forward acquisition time	60.00reverse acquisition time	0.00gamma	496.2192k internal	0.2320k external	0.2320temperature offset calibration	1.0095default loss term (dB/km)	0.3790temperature slope calibration	1.0000multiplexer offset coefficient	1.0000multiplexer slope coefficient	1.0000fibre end	0.00T internal ref (°C)	34.36T ext. ref 1 (°C)	4.88T ext. ref 2 (°C)	28.54length (m)	temperature (°C)	Stokes	anti-Stokes-747.200	218.015	-0.097	0.156
-746.185	-172.017	-0.081	-0.003
-745.171	74.308	0.139	-0.148
-744.156	-118.792	-0.259	-0.046
-743.142	505.417	-0.125	-0.294
-742.127	222.105	0.068	0.111
-741.112	-107.757	-0.380	0.084
-740.098	-146.182	0.150	-0.013
-739.083	122.492	0.128	0.162
-738.069	9.891	-0.412	0.316
-737.054	-188.854	0.261	0.003
-736.039	312.512	-0.108	-0.205
-735.025	140.246	-0.078	0.104
-734.010	-200.000	-0.007	0.078
-732.996	198.169	-0.100	-0.155
-731.981	274.267	0.139	-0.248
-730.966	-200.000	0.004	-0.037
-729.952	-126.220	-0.324	0.049
-728.937	-200.000	0.021	0.165
-727.923	-166.903	0.196	-0.008
-726.908	229.844	0.266	0.438
-725.894	-147.548	0.409	0.035
-724.879	-87.464	-0.257	-0.078
-723.864	204.408	0.102	-0.160
-722.850	45.723	0.156	-0.145
-721.835	-163.428	-0.188	0.009
-720.821	-59.908	0.304	0.131
-719.806	46.743	-0.241	0.226
-718.791	-39.672	-0.039	0.021
-717.777	530.848	-0.153	0.366
-716.762	-200.000	-0.016	-0.119
-715.748	-48.374	-0.040	-0.019
-714.733	800.000	-0.057	-0.204
-713.718	-126.369	-0.158	0.024
-712.704	-3.291	-0.390	-0.274
-711.689	-93.739	-0.364	-0.101
-710.675	76.517	0.081	-0.087
-709.660	-200.000	-0.037	0.188
-708.645	800.000	-0.041	0.116
-707.631	103.967	-0.035	0.042
-706.616	-200.000	0.021	-0.136
-705.602	-200.000	-0.052	0.282
-704.587	800.000	0.067	-0.294
-703.572	-200.000	0.035	-0.524
-702.558	-70.227	-0.161	0.062
-701.543	-21.304	0.260	-0.160
-700.529	380.177	0.033	0.067
-699.514	284.077	-0.166	-0.301
-698.499	-85.716	-0.282	-0.088
-697.485	23.729	-0.093	-0.078
-696.470	81.358	-0.030	0.033
-695.456	-200.000	0.007	-0.110
-694.441	37.474	-0.182	-0.163
-693.426	62.321	-0.218	0.220
-692.412	-127.877	-0.239	0.035
-691.397	121.222	-0.085	-0.107
-690.383	800.000	-0.122	-0.406
-689.368	800.000	-0.117	0.339
-688.354	-94.666	0.122	-0.033
-687.339	155.342	-0.080	0.111
-686.324	-142.889	-0.146	-0.014
-685.310	185.783	0.044	-0.066
-684.295	-177.966	0.218	-0.005
-683.281	800.000	-0.019	-0.056
-682.266	-48.115	-0.316	0.154
-681.251	-161.179	0.107	0.006
-680.237	-200.000	-0.003	0.213
-679.222	-164.373	0.186	-0.009
-678.208	233.762	0.027	0.045
-677.193	238.004	-0.229	0.384
-676.178	172.316	0.009	0.012
-675.164	88.163	0.118	-0.132
-674.149	137.389	-0.123	0.162
-673.135	-165.561	-0.250	0.011
-672.120	-112.512	-0.411	-0.083
-671.105	-200.000	-0.004	-0.034
-670.091	-200.000	-0.035	-0.194
-669.076	55.853	0.020	0.019
-668.062	-184.531	0.030	-0.000
-667.047	-200.000	-0.002	0.109
-666.032	-163.726	0.330	-0.016
-665.018	189.173	-0.031	0.047
-664.003	-119.476	-0.101	-0.018
-662.989	48.516	-0.157	0.148
-661.974	-44.205	-0.255	-0.129
-660.959	254.914	0.084	-0.145
-659.945	-200.000	0.011	-0.111
-658.930	325.217	-0.179	0.345
-657.916	-62.139	-0.169	-0.071
-656.901	-91.653	-0.122	0.035
-655.886	499.766	0.227	-0.527
-654.872	681.317	-0.085	-0.223
-653.857	-159.222	-0.242	-0.014
-652.843	-91.136	-0.163	0.047
-651.828	800.000	-0.033	-0.099
-650.814	249.703	0.090	-0.154
-649.799	-115.199	-0.182	-0.035
-648.784	-86.165	-0.207	0.064
-647.770	-85.561	0.277	-0.087
-646.755	-179.613	-0.285	0.006
-645.741	5.339	-0.162	0.120
-644.726	-200.000	-0.000	0.334
-643.711	-185.331	-0.140	0.002
-642.697	-200.000	-0.065	0.293
-641.682	-60.754	-0.213	-0.091
-640.668	141.114	0.101	-0.135
-639.653	166.274	-0.165	0.235
-638.638	62.322	-0.141	0.141
-637.624	195.607	-0.068	0.104
-636.609	15.797	-0.247	0.196
-635.595	-171.583	0.230	0.008
-634.580	800.000	0.130	0.431
-633.565	-200.000	0.009	-0.240
-632.551	2.063	-0.160	-0.117
-631.536	-91.525	-0.252	-0.072
-630.522	800.000	0.092	0.300
-629.507	800.000	0.085	0.239
-628.492	176.120	0.053	-0.077
-627.478	332.846	0.148	-0.288
-626.463	-200.000	-0.007	-0.086
-625.449	-200.000	-0.045	0.289
-624.434	-144.193	0.460	-0.043
-623.419	4.844	-0.122	-0.090
-622.405	-57.873	0.131	-0.058
-621.390	-6.334	-0.058	-0.040
-620.376	67.267	-0.224	-0.230
-619.361	36.186	-0.143	0.127
-618.346	800.000	0.043	-0.167
-617.332	-162.921	0.086	-0.004
-616.317	15.374	0.090	-0.071
-615.303	35.748	-0.136	-0.120
-614.288	800.000	-0.087	0.317
-613.273	-43.465	0.277	0.141
-612.259	127.487	0.106	0.136
-611.244	800.000	0.026	0.072
-610.230	438.320	-0.131	0.288
-609.215	-86.312	-0.151	-0.047
-608.201	-97.623	0.363	-0.095
-607.186	-200.000	0.086	0.470
-606.171	-200.000	0.003	-0.342
-605.157	134.099	0.270	0.351
-604.142	9.527	0.137	0.104
-603.128	-127.205	-0.399	0.059
-602.113	58.638	-0.238	0.235
-601.098	-62.551	-0.019	-0.008
-600.084	137.850	0.294	-0.387
-599.069	-63.995	-0.372	-0.153
-598.055	800.000	0.103	-0.289
-597.040	-21.451	0.139	0.085
-596.025	-200.000	-0.057	0.268
-595.011	800.000	-0.014	-0.050
-593.996	-144.349	-0.379	0.035
-592.982	55.437	0.249	-0.242
-591.967	4.681	0.219	0.162
-590.952	132.220	0.112	-0.145
-589.938	534.753	0.044	-0.105
-588.923	3.341	0.142	0.104
-587.909	305.956	-0.081	-0.151
-586.894	65.483	0.211	-0.215
-585.879	-200.000	0.025	0.245
-584.865	800.000	-0.050	0.198
-583.850	-124.781	-0.169	-0.026
-582.836	342.072	0.082	-0.161
-581.821	-97.895	0.013	0.003
-580.806	800.000	0.088	0.255
-579.792	123.982	-0.017	0.022
-578.777	489.509	-0.040	-0.091
-577.763	-200.000	0.003	0.151
-576.748	306.393	0.116	0.217
-575.733	224.941	-0.038	-0.062
-574.719	-93.044	0.162	-0.045
-573.704	380.935	-0.042	0.086
-572.690	-95.040	-0.324	-0.088
-571.675	-79.997	-0.101	-0.034
-570.661	62.209	-0.334	-0.335
-569.646	-68.894	0.163	-0.063
-568.631	457.527	0.170	-0.379
-567.617	4.819	-0.075	0.055
-566.602	-33.005	0.166	-0.092
-565.588	-0.146	-0.320	0.228
-564.573	196.782	-0.028	-0.043
-563.558	-200.000	-0.027	-0.308
-562.544	800.000	-0.012	0.040
-561.529	9.832	0.172	0.131
-560.515	800.000	-0.023	-0.072
-559.500	529.048	0.171	0.406
-558.485	204.926	-0.054	-0.085
-557.471	-150.875	-0.199	-0.015
-556.456	-200.000	0.011	0.238
-555.442	791.762	0.134	-0.371
-554.427	-14.409	-0.149	-0.096
-553.412	184.052	-0.093	-0.138
-552.398	-111.861	-0.057	-0.011
-551.383	361.972	0.153	-0.308
-550.369	318.473	0.045	-0.085
-549.354	-46.179	-0.088	-0.043
-548.339	-34.864	0.256	-0.140
-547.325	-110.811	-0.245	-0.051
-546.310	665.663	0.132	0.343
-545.296	800.000	-0.045	-0.178
-544.281	-200.000	-0.029	-0.252
-543.266	800.000	0.111	-0.333
-542.252	0.259	0.142	-0.102
-541.237	-139.149	-0.027	-0.003
-540.223	6.638	-0.080	0.060
-539.208	-152.672	0.151	-0.011
-538.193	-97.064	-0.282	-0.074
-537.179	800.000	0.059	0.198
-536.164	800.000	-0.060	0.194
-535.150	-86.891	-0.163	0.050
-534.135	-200.000	-0.009	0.120
-533.121	351.815	0.078	0.155
-532.106	-200.000	0.018	-0.183
-531.091	33.148	-0.103	0.090
-530.077	156.558	0.048	-0.067
-529.062	800.000	0.066	-0.200
-528.048	-44.054	-0.388	-0.195
-527.033	628.478	0.082	0.209
-526.018	-200.000	-0.017	-0.310
-525.004	132.085	0.058	-0.075
-523.989	59.660	-0.118	0.117
-522.975	-181.692	-0.383	-0.007
-521.960	-20.679	0.097	0.060
-520.945	302.443	0.135	-0.251
-519.931	800.000	-0.114	-0.418
-518.916	-200.000	-0.031	-0.238
-517.902	223.006	0.206	-0.333
-516.887	-67.011	0.063	-0.025
-515.872	-200.000	0.039	0.251
-514.858	-170.716	0.215	0.007
-513.843	733.834	-0.080	0.215
-512.829	-55.629	-0.121	-0.054
-511.814	-188.262	-0.296	-0.004
-510.799	98.457	-0.264	0.305
-509.785	800.000	0.051	0.168
-508.770	-54.476	0.092	-0.042
-507.756	134.966	0.105	0.137
-506.741	-139.608	-0.118	-0.013
-505.726	409.791	-0.039	0.082
-504.712	-14.234	-0.080	0.052
-503.697	-60.564	-0.256	0.109
-502.683	117.571	0.294	0.362
-501.668	-200.000	0.064	0.295
-500.653	-37.793	-0.077	0.041
-499.639	40.249	0.315	-0.284
-498.624	86.469	0.061	-0.067
-497.610	-200.000	0.008	0.136
-496.595	61.632	0.190	-0.189
-495.581	-61.024	0.032	0.014
-494.566	203.484	-0.140	-0.217
-493.551	144.652	-0.155	0.207
-492.537	188.207	0.097	-0.145
-491.522	35.410	-0.035	0.031
-490.508	-68.589	0.187	-0.073
-489.493	-26.318	-0.194	0.114
-488.478	129.076	-0.097	-0.124
-487.464	-105.759	0.409	-0.093
-486.449	-70.763	-0.329	0.124
-485.435	-200.000	0.077	0.380
-484.420	-200.000	0.031	0.222
-483.405	147.754	-0.176	-0.238
-482.391	20.799	0.100	-0.081
-481.376	-9.062	0.298	0.200
-480.362	-200.000	-0.052	0.341
-479.347	800.000	0.075	0.247
-478.332	286.356	-0.136	0.246
-477.318	-16.957	-0.020	0.012
-476.303	169.385	0.070	-0.100
-475.289	-200.000	0.025	-0.195
-474.274	211.176	0.068	-0.107
-473.259	800.000	-0.041	0.150
-472.245	-59.740	-0.229	0.098
-471.230	135.755	0.032	-0.041
-470.216	-27.015	0.081	0.047
-469.201	-200.000	0.079	0.370
-468.186	-65.911	-0.155	0.062
-467.172	86.368	0.101	-0.111
-466.157	-154.442	0.365	0.024
-465.143	133.562	0.171	-0.222
-464.128	-200.000	-0.002	-0.027
-463.113	-46.160	-0.412	0.203
-462.099	-25.277	-0.226	-0.134
-461.084	-184.906	0.203	0.003
-460.070	-1.473	0.191	-0.135
-459.055	723.237	0.075	0.199
-458.040	-161.454	-0.256	-0.013
-457.026	-0.690	0.068	-0.049
-456.011	294.613	-0.059	0.109
-454.997	-200.000	-0.006	-0.094
-453.982	104.970	-0.293	-0.346
-452.968	800.000	-0.159	-0.551
-451.953	107.978	-0.162	-0.193
-450.938	-126.329	-0.409	0.061
-449.924	145.647	0.024	0.032
-448.909	-200.000	-0.026	-0.196
-447.895	429.958	-0.073	0.158
-446.880	-96.819	-0.044	-0.012
-445.865	377.377	-0.171	-0.349
-444.851	789.762	0.099	-0.272
-443.836	-60.097	0.373	0.159
-442.822	-38.386	-0.279	0.148
-441.807	-45.956	0.359	0.177
-440.792	-200.000	0.023	-0.220
-439.778	800.000	0.058	-0.216
-438.763	800.000	0.029	0.106
-437.749	62.804	0.050	-0.050
-436.734	-124.421	0.019	-0.003
-435.719	-39.186	-0.397	-0.208
-434.705	5.185	0.305	0.224
-433.690	259.398	-0.114	0.196
-432.676	-200.000	-0.010	-0.078
-431.661	-93.832	0.387	0.106
-430.646	196.670	-0.258	-0.393
-429.632	-136.594	0.232	0.027
-428.617	-146.086	0.261	-0.023
-427.603	-110.987	0.271	-0.056
-426.588	378.141	-0.030	-0.061
-425.573	15.495	-0.110	-0.086
-424.559	-148.322	-0.301	0.025
-423.544	261.587	-0.023	0.040
-422.530	-63.598	-0.177	-0.073
-421.515	-200.000	0.018	-0.165
-420.500	-93.248	0.234	0.065
-419.486	-73.056	-0.314	0.115
-418.471	-2.205	-0.074	-0.052
-417.457	-200.000	-0.075	0.337
-416.442	79.638	0.074	0.080
-415.428	191.563	0.174	0.262
-414.413	-138.199	0.353	-0.039
-413.398	-89.400	-0.145	-0.043
-412.384	-9.609	0.101	0.067
-411.369	-31.381	0.234	0.132
-410.355	800.000	-0.035	0.103
-409.340	-200.000	-0.026	-0.171
-408.325	800.000	-0.031	-0.102
-407.311	-76.652	0.089	0.031
-406.296	800.000	0.025	0.097
-405.282	-51.390	-0.422	-0.197
-404.267	-200.000	0.035	-0.165
-403.252	123.179	0.089	-0.112
-402.238	306.076	-0.099	0.184
-401.223	508.564	-0.148	0.342
-400.209	-95.421	-0.363	-0.097
-399.194	-125.880	0.530	-0.080
-398.179	-47.662	-0.075	0.036
-397.165	-147.854	0.089	0.007
-396.150	94.155	0.238	0.269
-395.136	-200.000	0.015	-0.249
-394.121	800.000	-0.026	-0.106
-393.106	182.672	0.123	-0.181
-392.092	-35.802	-0.118	0.064
-391.077	-22.226	-0.411	-0.249
-390.063	291.213	-0.124	-0.225
-389.048	-153.070	0.226	0.016
-388.033	-94.575	0.169	-0.046
-387.019	800.000	-0.038	-0.113
-386.004	29.333	0.178	-0.151
-384.990	34.448	-0.135	-0.118
-383.975	-14.736	0.460	0.294
-382.960	-60.040	0.192	-0.082
-381.946	50.806	-0.378	0.357
-380.931	-53.032	0.223	-0.102
-379.917	66.598	0.234	0.237
-378.902	-200.000	0.000	0.129
-377.888	-109.685	0.203	0.043
-376.873	-200.000	-0.007	-0.385
-375.858	-111.707	-0.249	0.050
-374.844	-114.535	0.198	-0.038
-373.829	-200.000	-0.003	-0.128
-372.815	800.000	-0.034	-0.125
-371.800	225.143	-0.160	0.258
-370.785	-12.213	-0.335	-0.219
-369.771	800.000	0.010	0.032
-368.756	75.596	-0.054	-0.056
-367.742	143.576	-0.111	0.147
-366.727	-136.264	-0.014	-0.002
-365.712	197.337	-0.192	-0.292
-364.698	-134.880	-0.134	-0.016
-363.683	162.034	-0.099	-0.138
-362.669	-18.408	0.027	-0.017
-361.654	511.556	0.081	0.188
-360.639	-34.134	-0.486	0.266
-359.625	-200.000	0.161	0.001
-358.610	800.000	-0.086	-0.356
-357.596	-200.000	0.022	0.267
-356.581	698.038	-0.052	0.135
-355.566	189.490	0.235	0.350
-354.552	-158.477	-0.270	-0.016
-353.537	-200.000	0.062	0.287
-352.523	-200.000	0.013	0.069
-351.508	228.108	-0.057	-0.092
-350.493	368.458	-0.022	-0.045
-349.479	-181.351	-0.245	-0.005
-348.464	14.693	-0.245	-0.191
-347.450	800.000	0.111	-0.357
-346.435	-131.622	-0.061	0.008
-345.420	-99.164	0.237	-0.060
-344.406	-85.449	-0.130	-0.040
-343.391	-84.195	0.354	-0.112
-342.377	-55.373	-0.270	0.121
-341.362	-115.931	0.289	-0.054
-340.348	203.094	0.053	-0.082
-339.333	-125.635	-0.114	0.017
-338.318	13.191	-0.118	0.091
-337.304	-200.000	-0.005	0.042
-336.289	145.276	0.167	0.223
-335.275	207.354	-0.032	-0.050
-334.260	-67.475	0.113	0.044
-333.245	212.429	0.163	0.255
-332.231	145.706	0.215	0.286
-331.216	-153.212	-0.042	0.003
-330.202	316.724	0.152	-0.286
-329.187	478.841	0.156	-0.350
-328.172	-29.367	0.274	-0.156
-327.158	46.059	0.043	0.040
-326.143	-141.105	0.098	-0.010
-325.129	-160.312	0.275	0.015
-324.114	800.000	-0.027	-0.096
-323.099	244.827	0.076	-0.128
-322.085	-200.000	-0.007	0.145
-321.070	-148.041	-0.168	0.014
-320.056	-74.735	0.216	0.077
-319.041	-15.848	-0.324	0.205
-318.026	-44.684	0.217	0.108
-317.012	800.000	-0.082	-0.254
-315.997	569.147	-0.131	0.317
-314.983	800.000	0.078	-0.334
-313.968	-91.219	0.245	-0.070
-312.953	196.084	0.154	-0.234
-311.939	800.000	-0.051	0.200
-310.924	707.170	0.028	-0.075
-309.910	195.859	0.036	0.054
-308.895	-138.376	-0.198	-0.022
-307.880	-200.000	0.023	-0.190
-306.866	117.287	-0.202	-0.246
-305.851	800.000	-0.050	0.170
-304.837	-200.000	-0.042	-0.182
-303.822	235.507	0.086	0.141
-302.807	-104.472	0.200	0.046
-301.793	-12.880	-0.147	-0.095
-300.778	-175.731	-0.046	-0.001
-299.764	471.905	0.044	0.099
-298.749	225.860	0.143	0.231
-297.735	-163.211	0.236	0.011
-296.720	92.299	-0.268	-0.300
-295.705	214.432	0.141	0.222
-294.691	-128.785	-0.220	0.031
-293.676	294.722	0.076	0.139
-292.662	-90.185	0.380	0.110
-291.647	10.532	0.112	-0.085
-290.632	-8.312	0.128	-0.086
-289.618	-53.248	-0.143	-0.065
-288.603	407.039	0.096	-0.202
-287.589	200.634	0.190	-0.290
-286.574	213.265	-0.111	-0.174
-285.559	172.302	-0.182	-0.260
-284.545	453.816	0.059	-0.129
-283.530	-106.377	-0.164	-0.036
-282.516	-88.445	-0.201	0.060
-281.501	-200.000	-0.023	-0.161
-280.486	-59.891	-0.284	-0.121
-279.472	762.450	0.082	0.221
-278.457	-200.000	0.012	-0.186
-277.443	280.995	-0.056	0.099
-276.428	-94.907	-0.174	0.047
-275.413	-33.020	-0.373	-0.205
-274.399	800.000	-0.023	0.095
-273.384	678.643	0.021	0.055
-272.370	800.000	-0.072	0.258
-271.355	-60.660	0.145	-0.061
-270.340	-9.656	-0.074	-0.049
-269.326	-69.732	-0.396	0.150
-268.311	2.933	-0.311	-0.224
-267.297	47.689	-0.179	-0.166
-266.282	-51.649	0.208	0.096
-265.267	-200.000	0.003	-0.173
-264.253	326.429	0.017	0.033
-263.238	56.681	0.149	-0.144
-262.224	800.000	-0.104	0.329
-261.209	-200.000	0.212	0.000
-260.195	575.515	-0.074	-0.180
-259.180	99.437	-0.268	0.308
-258.165	82.299	0.256	0.276
-257.151	-146.011	-0.144	-0.013
-256.136	-115.536	-0.265	-0.049
-255.122	383.293	0.079	0.161
-254.107	117.452	-0.119	0.145
-253.092	800.000	-0.107	0.359
-252.078	475.988	-0.036	0.080
-251.063	800.000	-0.040	-0.128
-250.049	248.041	0.086	0.144
-249.034	-200.000	0.000	0.118
-248.019	-200.000	0.026	0.137
-247.005	-200.000	-0.002	-0.243
-245.990	-157.722	0.235	0.014
-244.976	165.732	0.125	0.176
-243.961	-200.000	-0.000	-0.169
-242.946	-22.427	0.235	-0.141
-241.932	-165.603	-0.242	-0.010
-240.917	-111.444	0.206	-0.042
-239.903	-61.198	0.035	-0.015
-238.888	213.728	0.167	-0.262
-237.873	496.830	0.041	0.093
-236.859	75.852	0.216	0.226
-235.844	-101.391	0.120	0.029
-234.830	114.595	-0.340	-0.411
-233.815	800.000	0.082	-0.288
-232.800	16.631	0.187	0.147
-231.786	800.000	-0.032	0.108
-230.771	136.668	0.089	0.116
-229.757	254.093	0.083	-0.141
-228.742	800.000	0.039	-0.138
-227.727	-123.282	-0.465	-0.074
-226.713	-200.000	-0.027	-0.195
-225.698	-200.000	-0.044	-0.235
-224.684	-200.000	-0.015	-0.160
-223.669	-99.404	0.215	0.054
-222.655	-44.758	0.131	0.065
-221.640	-156.832	0.204	0.012
-220.625	800.000	0.097	-0.284
-219.611	-53.417	-0.174	-0.079
-218.596	56.991	0.056	0.054
-217.582	-74.689	0.061	-0.022
-216.567	-90.994	-0.474	0.135
-215.552	415.531	-0.089	-0.187
-214.538	-59.972	-0.201	0.085
-213.523	-168.667	0.088	-0.003
-212.509	114.628	-0.071	-0.086
-211.494	-27.334	0.113	-0.065
-210.479	419.361	0.119	-0.252
-209.465	-42.002	-0.177	0.090
-208.450	800.000	-0.090	0.256
-207.436	-36.017	-0.076	0.040
-206.421	32.825	0.209	0.179
-205.406	-83.700	0.134	0.042
-204.392	-155.356	0.388	0.025
-203.377	-89.995	-0.355	0.103
-202.363	-36.339	0.443	0.236
-201.348	-38.743	-0.123	0.064
-200.333	-200.000	-0.015	0.120
-199.319	144.614	-0.015	-0.020
-198.304	-86.286	-0.089	-0.027
-197.290	-148.628	-0.227	0.018
-196.275	-42.878	0.192	0.097
-195.260	-42.614	0.319	-0.161
-194.246	800.000	-0.046	-0.137
-193.231	-83.545	0.283	-0.090
-192.217	327.628	-0.035	0.066
-191.202	711.180	0.136	0.356
-190.187	-50.293	-0.239	0.112
-189.173	-200.000	-0.057	0.327
-188.158	-25.052	-0.144	-0.084
-187.144	-107.241	-0.224	0.049
-186.129	112.564	-0.225	-0.270
-185.114	107.757	0.099	-0.116
-184.100	272.279	-0.091	0.159
-183.085	-44.286	0.490	0.243
-182.071	-134.890	0.140	-0.017
-181.056	-69.693	-0.278	0.105
-180.042	-87.240	0.074	-0.022
-179.027	800.000	0.033	0.139
-178.012	-11.219	0.164	-0.107
-176.998	202.844	-0.170	0.260
-175.983	-200.000	0.028	0.188
-174.969	-43.920	0.545	-0.271
-173.954	-200.000	-0.019	0.090
-172.939	-101.604	-0.019	-0.005
-171.925	800.000	0.077	-0.297
-170.910	-54.332	0.177	0.079
-169.896	5.849	0.235	0.172
-168.881	-93.838	0.367	-0.100
-167.866	106.448	-0.058	-0.068
-166.852	382.827	-0.146	-0.296
-165.837	-200.000	0.001	0.312
-164.823	545.234	-0.042	-0.099
-163.808	-144.374	0.171	-0.016
-162.793	-200.000	0.037	0.419
-161.779	-200.000	-0.024	0.209
-160.764	800.000	0.089	-0.257
-159.750	-200.000	-0.027	0.436
-158.735	130.699	0.147	0.186
-157.720	-79.431	-0.045	-0.015
-156.706	271.661	-0.044	0.076
-155.691	800.000	0.100	-0.283
-154.677	-200.000	-0.006	-0.274
-153.662	-98.017	-0.205	-0.052
-152.647	-71.744	-0.391	0.144
-151.633	62.075	-0.161	0.158
-150.618	-200.000	0.007	0.069
-149.604	-30.064	-0.363	0.204
-148.589	-200.000	0.004	0.207
-147.574	160.136	-0.207	-0.285
-146.560	-46.413	0.312	0.151
-145.545	-200.000	0.012	0.185
-144.531	-172.034	-0.309	0.010
-143.516	335.526	-0.016	-0.030
-142.502	800.000	-0.075	0.297
-141.487	434.025	-0.057	0.123
-140.472	169.637	0.157	0.221
-139.458	116.997	0.196	0.237
-138.443	-200.000	-0.028	0.138
-137.429	799.846	0.023	0.062
-136.414	-67.564	0.186	0.072
-135.399	-79.423	0.274	-0.091
-134.385	181.174	-0.120	0.175
-133.370	123.528	-0.283	0.351
-132.356	-135.713	0.197	0.023
-131.341	612.936	0.073	-0.180
-130.326	-20.614	0.232	-0.141
-129.312	532.578	-0.061	-0.142
-128.297	-200.000	0.025	-0.133
-127.283	290.488	-0.082	0.148
-126.268	-129.314	0.334	-0.046
-125.253	-25.063	-0.133	-0.078
-124.239	258.459	-0.116	-0.197
-123.224	698.086	-0.137	-0.356
-122.210	-99.104	-0.233	0.058
