DTS Sentinel unit serial number:	SN413079Multiplexer serial number:	ORYXHardware model number:	OX4-SRSoftware version number:	ORYX F/W v4.00 Oryx Data Collector v3.7.2.0data status	okinstallation	princeton_trtdifferential loss correction	single-endedforward channel	channel 2reverse channel	N/Adate	2019/09/12time	18:50:49forward acquisition time	15.00reverse acquisition time	0.00gamma	496.2192k internal	0.2325k external	0.2325temperature offset calibration	1.0124default loss term (dB/km)	0.3790temperature slope calibration	1.0000multiplexer offset coefficient	1.0000multiplexer slope coefficient	1.0000fibre end	0.00T internal ref (°C)	32.94T ext. ref 1 (°C)	2.97T ext. ref 2 (°C)	27.43length (m)	temperature (°C)	Stokes	anti-Stokes-747.200	-102.760	-1.082	-0.260
-746.185	-200.000	-0.033	-0.768
-745.171	136.341	-0.449	-0.591
-744.156	162.427	-0.167	0.236
-743.142	-200.000	-0.002	0.234
-742.127	62.608	-0.358	0.361
-741.112	-200.000	0.060	-0.316
-740.098	-200.000	0.056	-0.371
-739.083	-56.940	0.824	-0.367
-738.069	-34.975	0.977	0.538
-737.054	71.856	-0.454	-0.476
-736.039	303.744	-0.445	0.833
-735.025	800.000	-0.190	0.839
-734.010	-134.559	0.142	0.017
-732.996	-12.068	0.518	0.342
-731.981	481.820	-0.031	0.072
-730.966	-200.000	0.060	-0.263
-729.952	556.856	-0.142	-0.344
-728.937	190.055	-0.167	0.253
-727.923	-200.000	-0.085	-0.930
-726.908	-200.000	-0.025	-0.276
-725.894	-136.286	-0.441	0.052
-724.879	-121.882	-0.204	0.034
-723.864	-6.199	-0.249	-0.171
-722.850	124.560	-0.162	0.206
-721.835	289.647	-0.217	-0.397
-720.821	800.000	0.167	-0.490
-719.806	-200.000	-0.005	-0.377
-718.791	-34.169	0.167	-0.092
-717.777	181.533	-0.476	0.705
-716.762	-200.000	-0.041	-0.392
-715.748	800.000	0.198	0.660
-714.733	57.625	0.147	0.144
-713.718	-138.451	0.176	-0.020
-712.704	756.481	0.113	-0.309
-711.689	-200.000	0.216	-1.078
-710.675	119.120	-0.639	-0.796
-709.660	800.000	-0.205	0.679
-708.645	176.149	-0.525	0.769
-707.631	-116.293	0.243	0.045
-706.616	800.000	-0.035	-0.146
-705.602	207.741	-0.203	-0.319
-704.587	-200.000	-0.036	-0.740
-703.572	17.524	0.318	0.255
-702.558	-58.820	-0.707	-0.308
-701.543	800.000	-0.187	-0.579
-700.529	69.685	0.359	0.373
-699.514	-16.398	0.213	0.136
-698.499	152.859	0.179	-0.247
-697.485	800.000	0.184	0.690
-696.470	368.630	0.110	-0.225
-695.456	-118.737	-0.579	0.103
-694.441	10.468	-0.602	0.462
-693.426	-5.887	-0.366	0.253
-692.412	125.491	0.106	-0.135
-691.397	-90.755	-0.118	-0.034
-690.383	-81.972	-0.547	-0.180
-689.368	84.983	0.471	-0.519
-688.354	-126.327	1.167	-0.175
-687.339	-112.398	-0.286	0.058
-686.324	242.722	0.316	-0.532
-685.310	300.023	0.127	-0.236
-684.295	262.469	0.138	0.241
-683.281	-30.150	-0.769	-0.440
-682.266	-29.120	0.475	0.274
-681.251	430.206	-0.233	-0.507
-680.237	-52.146	0.407	0.190
-679.222	-8.449	-0.680	-0.460
-678.208	-2.353	-0.942	-0.665
-677.193	-200.000	-0.011	-0.438
-676.178	45.487	-0.502	-0.467
-675.164	660.823	0.304	0.787
-674.149	-84.876	-0.872	0.276
-673.135	-88.763	0.640	-0.191
-672.120	-117.763	-0.884	-0.160
-671.105	-25.436	0.615	0.366
-670.091	800.000	-0.129	-0.358
-669.076	-200.000	0.046	-0.328
-668.062	-140.488	1.059	-0.111
-667.047	-200.000	0.046	0.317
-666.032	-89.928	-0.525	-0.154
-665.018	25.354	0.425	0.355
-664.003	800.000	0.028	-0.080
-662.989	-77.985	-0.596	0.207
-661.974	104.869	0.110	0.130
-660.959	612.454	-0.220	-0.553
-659.945	693.592	-0.215	0.568
-658.930	9.474	-0.281	0.214
-657.916	800.000	-0.048	-0.145
-656.901	-97.243	0.869	0.228
-655.886	679.758	-0.095	-0.249
-654.872	-5.610	0.676	-0.466
-653.857	55.116	0.229	0.223
-652.843	139.257	0.133	-0.175
-651.828	-155.142	-0.433	0.028
-650.814	-154.792	0.052	-0.003
-649.799	-28.255	0.605	0.352
-648.784	-133.731	-0.495	-0.062
-647.770	174.262	0.411	-0.598
-646.755	-132.246	-0.271	0.035
-645.741	-200.000	0.069	-0.309
-644.726	-200.000	-0.013	-0.068
-643.711	-11.819	0.515	0.340
-642.697	-200.000	0.069	0.564
-641.682	800.000	-0.082	-0.361
-640.668	8.703	-0.706	0.535
-639.653	-200.000	-0.119	0.759
-638.638	282.409	0.527	0.949
-637.624	-200.000	0.606	-0.002
-636.609	-125.918	0.394	0.060
-635.595	14.751	0.549	0.432
-634.580	-41.624	-0.182	0.094
-633.565	-120.760	-0.528	-0.090
-632.551	289.726	-0.275	-0.502
-631.536	82.174	0.441	-0.481
-630.522	26.203	-0.178	0.150
-629.507	800.000	0.255	0.790
-628.492	302.932	0.080	0.148
-627.478	92.489	0.402	-0.455
-626.463	604.080	0.182	0.455
-625.449	-200.000	0.192	-0.930
-624.434	-100.262	0.723	0.180
-623.419	-59.493	-0.543	-0.234
-622.405	-92.475	-0.668	0.189
-621.390	-35.846	-0.245	-0.133
-620.376	800.000	0.164	0.657
-619.361	-84.694	1.028	-0.325
-618.346	0.953	0.307	-0.221
-617.332	-44.273	0.518	0.261
-616.317	-19.167	0.564	0.352
-615.303	487.853	0.293	-0.671
-614.288	-200.000	-0.023	-0.532
-613.273	7.847	0.146	0.110
-612.259	327.315	-0.302	-0.581
-611.244	-38.143	-0.611	0.326
-610.230	-183.631	0.401	-0.007
-609.215	-77.565	-0.711	0.247
-608.201	-38.151	0.308	0.164
-607.186	570.675	-0.254	-0.620
-606.171	-200.000	-0.025	-0.388
-605.157	-200.000	-0.033	-0.408
-604.142	-200.000	-0.483	0.001
-603.128	-200.000	0.069	0.416
-602.113	27.536	0.273	-0.231
-601.098	-200.000	-0.054	0.248
-600.084	142.638	-0.353	0.470
-599.069	-154.170	-0.774	-0.053
-598.055	673.723	0.422	1.097
-597.040	-134.785	0.459	-0.056
-596.025	-200.000	-0.028	-0.263
-595.011	-200.000	-0.047	-0.283
-593.996	615.101	-0.448	-1.127
-592.982	-43.068	0.342	-0.174
-591.967	-200.000	-0.012	-0.291
-590.952	2.711	0.313	-0.227
-589.938	-60.857	0.588	0.250
-588.923	800.000	-0.129	-0.382
-587.909	-152.573	-0.265	0.019
-586.894	708.353	0.160	0.424
-585.879	180.948	-0.504	-0.743
-584.865	-53.568	0.458	0.210
-583.850	169.175	-0.423	0.605
-582.836	-200.000	0.031	0.163
-581.821	-65.073	-0.269	-0.109
-580.806	65.812	-0.077	-0.078
-579.792	-200.000	-0.014	0.717
-578.777	-55.249	-0.583	0.263
-577.763	-28.477	0.086	-0.050
-576.748	30.923	-0.360	-0.309
-575.733	-200.000	-0.085	0.856
-574.719	800.000	0.152	0.426
-573.704	-7.774	0.452	-0.306
-572.690	800.000	0.241	0.899
-571.675	106.263	0.541	-0.642
-570.661	-125.227	0.946	0.145
-569.646	-200.000	-0.008	-0.067
-568.631	656.431	0.347	0.893
-567.617	800.000	-0.218	0.638
-566.602	-200.000	0.054	0.479
-565.588	-110.895	0.106	0.022
-564.573	-98.392	-0.677	0.174
-563.558	-45.780	0.542	0.268
-562.544	-17.325	0.361	-0.228
-561.529	-109.006	-0.173	0.037
-560.515	518.199	-0.224	-0.526
-559.500	100.394	0.247	0.287
-558.485	-200.000	-0.004	-0.407
-557.471	-125.109	0.270	0.042
-556.456	-4.047	0.778	-0.540
-555.442	-102.069	0.493	0.119
-554.427	13.331	0.797	0.619
-553.412	-200.000	-0.027	-0.179
-552.398	2.645	-0.808	0.586
-551.383	-24.028	-0.270	-0.161
-550.369	102.581	0.143	0.168
-549.354	458.472	-0.233	0.518
-548.339	-0.428	0.298	0.212
-547.325	-107.143	0.289	0.064
-546.310	-138.721	0.588	-0.064
-545.296	615.916	-0.151	-0.379
-544.281	370.247	-0.441	0.894
-543.266	135.653	0.339	-0.442
-542.252	691.862	-0.051	0.133
-541.237	-127.987	0.329	-0.047
-540.223	800.000	-0.272	0.844
-539.208	-59.593	-0.401	0.172
-538.193	-23.987	0.274	-0.164
-537.179	800.000	-0.260	-0.967
-536.164	78.210	0.285	0.304
-535.150	436.619	-0.311	-0.677
-534.135	180.679	-0.326	-0.479
-533.121	648.662	-0.265	-0.678
-532.106	-200.000	-0.011	0.267
-531.091	-112.963	0.520	-0.103
-530.077	-55.362	-0.425	0.191
-529.062	-3.469	-0.347	-0.241
-528.048	800.000	-0.319	-1.060
-527.033	-84.931	-0.282	0.089
-526.018	-69.125	0.302	-0.116
-525.004	180.615	-0.365	-0.536
-523.989	-200.000	-0.036	-0.758
-522.975	-199.321	-0.457	0.002
-521.960	116.944	0.589	-0.723
-520.945	-200.000	-0.054	-0.829
-519.931	-93.502	0.482	0.134
-518.916	-117.133	0.486	-0.089
-517.902	-200.000	0.086	-0.620
-516.887	-84.258	-0.324	0.103
-515.872	-55.607	-0.615	-0.276
-514.858	-200.000	-0.138	-0.702
-513.843	-75.870	-0.607	-0.215
-512.829	290.297	-0.467	0.848
-511.814	-138.618	-0.631	0.069
-510.799	-65.715	-0.248	0.100
-509.785	517.733	0.132	0.309
-508.770	-164.299	-0.468	0.021
-507.756	204.422	-0.250	0.388
-506.741	800.000	0.294	0.868
-505.726	-195.158	0.305	0.002
-504.712	38.603	-0.533	0.475
-503.697	-19.246	0.478	0.297
-502.683	-101.558	-0.273	-0.066
-501.668	202.251	0.261	0.402
-500.653	100.817	0.428	-0.498
-499.639	710.256	-0.123	0.326
-498.624	-200.000	0.031	-0.978
-497.610	-131.564	0.954	0.126
-496.595	-200.000	-0.096	0.955
-495.581	-162.076	-0.658	-0.033
-494.566	743.424	0.148	-0.397
-493.551	-200.000	-0.024	-0.193
-492.537	800.000	-0.242	-0.915
-491.522	-113.241	-1.306	-0.257
-490.508	-88.866	0.621	0.184
-489.493	199.952	0.631	-0.968
-488.478	-200.000	-0.059	-0.323
-487.464	-200.000	-0.026	0.125
-486.449	-12.928	0.741	-0.482
-485.435	-200.000	-0.053	-0.252
-484.420	-200.000	-0.127	-0.690
-483.405	-11.776	-1.102	0.722
-482.391	81.990	0.506	0.548
-481.376	-11.603	0.613	0.402
-480.362	681.995	-0.146	0.380
-479.347	-21.517	0.121	-0.074
-478.332	109.747	-0.287	0.343
-477.318	-109.546	-0.820	0.173
-476.303	79.481	0.202	0.216
-475.289	34.631	-0.473	-0.413
-474.274	-200.000	0.106	-0.858
-473.259	10.764	0.227	-0.173
-472.245	28.752	-0.189	-0.160
-471.230	-142.980	0.768	-0.074
-470.216	-200.000	-0.029	-0.165
-469.201	328.495	0.150	0.287
-468.186	-106.237	-0.392	0.088
-467.172	-85.436	-1.449	0.451
-466.157	-200.000	0.000	0.126
-465.143	-200.000	0.005	-0.342
-464.128	54.721	-0.802	-0.772
-463.113	30.206	0.084	-0.071
-462.099	-200.000	-0.085	0.662
-461.084	85.289	-0.533	0.584
-460.070	-161.525	-1.391	0.071
-459.055	800.000	0.333	-0.929
-458.040	-200.000	0.005	0.328
-457.026	-200.000	-0.045	0.323
-456.011	40.445	0.316	-0.284
-454.997	800.000	-0.147	0.553
-453.982	800.000	-0.219	0.649
-452.968	-200.000	0.188	1.038
-451.953	-200.000	-0.072	0.343
-450.938	157.317	0.224	0.309
-449.924	-17.341	0.665	-0.418
-448.909	800.000	0.093	-0.329
-447.895	321.107	0.130	-0.247
-446.880	-2.520	-0.383	0.268
-445.865	390.002	0.081	-0.169
-444.851	13.588	-0.452	0.350
-443.836	-200.000	0.010	0.237
-442.822	77.583	-0.377	-0.400
-441.807	-107.487	0.575	-0.126
-440.792	-80.260	0.074	-0.025
-439.778	800.000	0.092	0.302
-438.763	445.922	-0.146	-0.319
-437.749	-200.000	-0.101	0.854
-436.734	-163.315	-0.600	-0.029
-435.719	-74.296	0.989	-0.356
-434.705	195.057	0.265	0.402
-433.690	66.288	-0.087	0.088
-432.676	-200.000	0.004	0.240
-431.661	-148.206	-0.414	0.034
-430.646	94.764	-0.319	0.362
-429.632	-166.844	-0.660	-0.027
-428.617	646.063	0.115	-0.293
-427.603	-107.633	-0.663	0.145
-426.588	622.034	0.287	0.720
-425.573	-28.370	0.250	0.144
-424.559	-17.359	-0.615	0.386
-423.544	-98.843	0.277	0.070
-422.530	251.976	-0.381	0.647
-421.515	10.687	-0.908	-0.690
-420.500	212.366	-0.259	0.407
-419.486	-200.000	-0.067	0.707
-418.471	114.094	-0.465	0.564
-417.457	800.000	-0.469	-1.532
-416.442	25.073	-0.318	-0.263
-415.428	214.905	-0.337	-0.532
-414.413	-173.338	0.818	-0.025
-413.398	373.862	-0.248	0.502
-412.384	-200.000	-0.059	1.130
-411.369	419.947	0.454	0.969
-410.355	-62.372	-0.084	0.035
-409.340	-97.490	-0.047	-0.012
-408.325	-59.065	0.760	0.327
-407.311	86.002	-0.249	-0.273
-406.296	105.134	-0.159	-0.187
-405.282	266.973	0.439	-0.765
-404.267	-200.000	-0.097	0.585
-403.252	-41.282	0.106	0.054
-402.238	-36.472	-0.691	-0.371
-401.223	-200.000	-0.115	0.580
-400.209	-200.000	0.042	-0.722
-399.194	-200.000	0.037	-0.182
-398.179	-200.000	-0.019	0.241
-397.165	78.375	0.484	0.515
-396.150	-200.000	-0.142	-0.702
-395.136	-200.000	0.121	-0.574
-394.121	40.735	-0.376	0.337
-393.106	800.000	0.130	0.414
-392.092	-68.519	-0.818	-0.316
-391.077	-100.552	0.301	0.074
-390.063	137.491	-0.257	-0.334
-389.048	-53.319	0.820	-0.374
-388.033	-100.372	-0.222	-0.055
-387.019	-137.793	-0.782	-0.087
-386.004	70.537	0.306	0.315
-384.990	-80.676	0.235	0.078
-383.975	-64.149	0.347	0.141
-382.960	800.000	0.145	-0.604
-381.946	-200.000	0.016	-0.084
-380.931	-45.824	0.410	-0.202
-379.917	-26.683	-1.442	-0.840
-378.902	51.463	0.376	-0.355
-377.888	-38.980	0.433	0.227
-376.873	-35.073	0.293	-0.159
-375.858	-63.401	0.586	0.240
-374.844	-200.000	-0.062	0.581
-373.829	-70.061	-0.389	-0.147
-372.815	21.814	-0.302	0.244
-371.800	509.520	0.086	-0.199
-370.785	-158.107	-0.775	0.045
-369.771	-200.000	0.051	0.246
-368.756	67.872	0.725	0.737
-367.742	345.929	0.336	-0.657
-366.727	138.454	0.101	0.131
-365.712	-102.101	-1.022	-0.245
-364.698	-200.000	-0.179	-0.924
-363.683	-95.231	-0.382	0.102
-362.669	-167.672	0.876	0.035
-361.654	-52.145	-0.395	-0.182
-360.639	584.898	0.187	-0.457
-359.625	-94.191	0.792	0.216
-358.610	111.480	0.337	-0.404
-357.596	-130.044	0.725	-0.098
-356.581	-200.000	-0.077	-0.579
-355.566	-200.000	0.241	-1.395
-354.552	-45.590	-0.176	-0.087
-353.537	-200.000	-0.012	-0.531
-352.523	68.269	0.294	0.299
-351.508	-200.000	-0.109	1.077
-350.493	690.388	0.412	-1.072
-349.479	800.000	0.089	0.298
-348.464	-194.717	-0.581	0.005
-347.450	800.000	-0.253	-0.705
-346.435	-51.400	-0.796	-0.370
-345.420	12.334	-0.272	0.208
-344.406	83.866	-0.645	0.699
-343.391	75.343	-0.216	0.227
-342.377	-200.000	-0.020	0.557
-341.362	-200.000	0.063	-0.615
-340.348	-193.762	0.116	0.001
-339.333	-200.000	-0.101	0.465
-338.318	71.705	-0.228	-0.235
-337.304	-200.000	-0.018	0.151
-336.289	-200.000	0.035	0.240
-335.275	-32.253	-0.295	0.164
-334.260	167.014	-0.274	-0.387
-333.245	-200.000	0.155	-0.836
-332.231	-156.171	-0.580	-0.036
-331.216	341.077	-0.193	0.374
-330.202	-87.301	0.509	-0.153
-329.187	732.780	0.310	-0.822
-328.172	-57.265	-0.579	0.253
-327.158	800.000	-0.110	0.419
-326.143	240.296	0.229	-0.380
-325.129	106.962	0.268	0.316
-324.114	208.289	-0.245	-0.379
-323.099	213.512	-0.503	-0.790
-322.085	0.028	-0.101	-0.071
-321.070	-9.524	0.482	0.319
-320.056	-121.116	-0.445	-0.074
-319.041	-200.000	0.026	0.343
-318.026	243.953	-0.217	0.361
-317.012	79.772	-0.280	-0.298
-315.997	-76.704	-0.283	-0.098
-314.983	-200.000	0.162	0.824
-313.968	-50.609	0.227	0.106
-312.953	0.192	-0.108	0.077
-311.939	21.426	0.969	-0.781
-310.924	-172.096	0.803	-0.026
-309.910	6.481	-0.284	0.209
-308.895	10.779	0.727	-0.550
-307.880	-86.444	-0.135	0.041
-306.866	-79.084	0.270	0.091
-305.851	-37.717	0.117	0.062
-304.837	-159.367	-0.246	-0.014
-303.822	46.807	-0.479	0.441
-302.807	-36.972	0.862	0.458
-301.793	-41.241	0.388	-0.198
-300.778	5.261	0.920	0.673
-299.764	-200.000	-0.003	0.096
-298.749	800.000	-0.050	-0.214
-297.735	520.655	0.177	-0.412
-296.720	-58.974	0.650	0.279
-295.705	-47.760	0.348	0.167
-294.691	-57.658	0.509	0.221
-293.676	14.418	-0.321	-0.248
-292.662	-94.568	0.440	-0.119
-291.647	-142.241	-0.457	0.045
-290.632	285.839	0.108	-0.193
-289.618	18.664	0.330	-0.262
-288.603	-103.995	-1.035	-0.239
-287.589	196.685	0.588	-0.888
-286.574	-91.361	0.588	-0.167
-285.559	229.482	0.512	0.829
-284.545	541.436	0.280	-0.661
-283.530	800.000	-0.113	0.440
-282.516	232.803	-0.222	-0.362
-281.501	-173.061	0.253	0.008
-280.486	-57.402	-0.538	-0.234
-279.472	800.000	-0.126	-0.470
-278.457	-89.549	0.314	-0.091
-277.443	25.142	0.838	0.690
-276.428	50.233	0.163	0.153
-275.413	-153.203	0.566	0.039
-274.399	-135.198	0.699	0.083
-273.384	286.145	0.593	1.060
-272.370	76.383	0.273	-0.286
-271.355	-200.000	-0.025	0.432
-270.340	245.524	-0.222	0.371
-269.326	559.212	0.265	-0.633
-268.311	-142.415	-0.099	0.010
-267.297	-146.813	0.180	0.015
-266.282	-17.738	-0.923	0.574
-265.267	-115.825	0.269	0.050
-264.253	253.449	0.192	-0.325
-263.238	-107.897	-0.389	0.084
-262.224	341.283	-0.170	0.330
-261.209	800.000	0.176	0.750
-260.195	-109.664	-0.387	-0.081
-259.180	-125.157	0.612	0.093
-258.165	800.000	0.160	-0.453
-257.151	-89.778	0.559	0.162
-256.136	-200.000	0.044	0.563
-255.122	129.962	0.742	0.939
-254.107	800.000	0.111	-0.362
-253.092	-83.524	-0.613	-0.194
-252.078	-200.000	-0.068	-0.349
-251.063	-123.444	-1.006	-0.159
-250.049	-31.688	0.491	-0.273
-249.034	100.929	-0.868	-0.999
-248.019	-74.516	0.571	-0.204
-247.005	-200.000	-0.066	0.621
-245.990	-49.666	0.791	0.372
-244.976	-137.271	0.276	0.031
-243.961	177.738	0.384	-0.555
-242.946	-93.303	-0.122	-0.034
-241.932	-200.000	-0.007	-0.393
-240.917	248.147	0.111	0.186
-239.903	497.611	-0.157	0.358
-238.888	-37.903	-0.633	-0.333
-237.873	-59.452	-0.543	-0.231
-236.859	-100.031	-0.342	0.084
-235.844	123.121	-0.426	0.528
-234.830	-169.298	-0.213	-0.008
-233.815	-83.252	-1.037	-0.329
-232.800	9.232	-0.256	-0.191
-231.786	379.341	-0.163	0.330
-230.771	800.000	0.294	0.803
-229.757	1.089	0.587	0.417
-228.742	163.042	0.293	0.407
-227.727	800.000	0.154	-0.505
-226.713	407.238	-0.112	-0.233
-225.698	800.000	-0.138	0.541
-224.684	-200.000	0.022	-0.159
-223.669	800.000	-0.036	0.122
-222.655	-62.133	-0.510	0.211
-221.640	200.281	0.337	-0.512
-220.625	800.000	-0.097	0.345
-219.611	-163.059	-1.059	-0.051
-218.596	10.378	-0.534	-0.402
-217.582	-26.547	-0.566	0.328
-216.567	800.000	-0.130	-0.564
-215.552	-83.988	0.755	0.237
-214.538	-26.806	-0.510	-0.294
-213.523	-123.939	-0.443	0.069
-212.509	288.577	-0.174	-0.312
-211.494	-102.260	-0.409	-0.097
-210.479	331.396	0.566	-1.078
-209.465	-200.000	-0.064	-0.473
-208.450	725.848	-0.341	0.899
-207.436	-200.000	0.032	0.390
-206.421	-96.330	-0.143	-0.037
-205.406	606.955	-0.195	-0.481
-204.392	593.275	-0.154	0.377
-203.377	99.961	-0.205	0.234
-202.363	764.969	0.073	0.196
-201.348	800.000	-0.314	-0.934
-200.333	233.532	0.238	0.387
-199.319	-200.000	0.024	0.317
-198.304	-145.494	-0.277	0.025
-197.290	6.714	0.450	-0.330
-196.275	-200.000	-0.040	0.199
-195.260	312.496	-0.224	0.416
-194.246	116.628	0.283	0.342
-193.231	19.187	-0.747	-0.592
-192.217	-162.625	-0.864	0.042
-191.202	63.315	0.304	-0.301
-190.187	-90.703	0.639	0.182
-189.173	269.110	-0.011	0.019
-188.158	214.557	0.237	-0.370
-187.144	800.000	-0.207	0.564
-186.129	-92.663	0.220	-0.061
-185.114	-98.574	0.206	0.052
-184.100	173.776	-0.037	0.053
-183.085	90.460	0.376	0.416
-182.071	-46.745	0.337	-0.163
-181.056	-126.213	0.772	0.114
-180.042	44.204	0.903	-0.818
-179.027	349.083	-0.432	-0.842
-178.012	195.172	0.162	0.243
-176.998	-164.600	0.627	-0.028
-175.983	44.790	-0.243	-0.221
-174.969	125.803	-0.195	0.242
-173.954	-200.000	-0.009	0.610
-172.939	800.000	0.083	-0.276
-171.925	-142.027	0.459	0.045
-170.910	272.323	0.257	0.447
-169.896	3.355	0.378	0.272
-168.881	31.842	-0.390	-0.332
-167.866	-22.378	-0.507	-0.303
-166.852	-73.307	0.634	-0.229
-165.837	-200.000	0.093	0.432
-164.823	-159.658	0.386	0.021
-163.808	-200.000	-0.014	0.277
-162.793	-68.625	0.248	0.095
-161.779	-200.000	-0.085	0.515
-160.764	461.180	-0.430	-0.945
-159.750	-77.822	0.407	0.139
-158.735	379.677	-0.064	0.129
-157.720	71.657	0.179	-0.184
-156.706	-29.794	-0.341	0.192
-155.691	122.602	-0.137	0.169
-154.677	-83.426	-0.337	-0.107
-153.662	-112.565	-0.157	0.031
-152.647	15.665	-0.521	-0.404
-151.633	-23.006	0.442	0.263
-150.618	-109.079	-0.935	-0.196
-149.604	181.180	0.360	0.521
-148.589	111.439	0.769	0.914
-147.574	800.000	-0.219	0.773
-146.560	19.114	0.388	-0.307
-145.545	-124.769	0.482	-0.074
-144.531	800.000	-0.052	-0.161
-143.516	800.000	0.098	-0.362
-142.502	-86.220	0.300	0.091
-141.487	800.000	0.232	-0.691
-140.472	651.699	-0.155	0.392
-139.458	307.215	-0.795	-1.461
-138.443	-118.971	-0.454	0.078
-137.429	36.327	0.269	0.234
-136.414	-119.751	0.075	0.013
-135.399	-200.000	-0.084	0.877
-134.385	-200.000	0.007	0.449
-133.370	198.867	-0.414	-0.625
-132.356	-96.342	0.394	-0.103
-131.341	-158.430	-0.605	0.035
-130.326	546.559	0.254	-0.599
-129.312	160.684	-0.565	-0.777
-128.297	47.917	0.641	-0.590
-127.283	34.502	-0.665	-0.572
-126.268	403.421	0.185	-0.384
-125.253	-46.463	0.386	-0.186
-124.239	207.219	0.375	-0.576
-123.224	32.772	-0.937	-0.798
-122.210	-200.000	-0.063	-0.460
