DTS Sentinel unit serial number:	SN413079Multiplexer serial number:	ORYXHardware model number:	OX4-SRSoftware version number:	ORYX F/W v4.00 Oryx Data Collector v3.7.2.0data status	okinstallation	princeton_trtdifferential loss correction	single-endedforward channel	channel 2reverse channel	N/Adate	2019/09/14time	22:51:35forward acquisition time	60.00reverse acquisition time	0.00gamma	496.2192k internal	0.2324k external	0.2324temperature offset calibration	1.0059default loss term (dB/km)	0.3790temperature slope calibration	1.0000multiplexer offset coefficient	1.0000multiplexer slope coefficient	1.0000fibre end	0.00T internal ref (°C)	32.50T ext. ref 1 (°C)	4.68T ext. ref 2 (°C)	27.43length (m)	temperature (°C)	Stokes	anti-Stokes-747.200	76.683	0.096	0.103
-746.185	99.437	-0.281	0.328
-745.171	56.897	-0.155	0.153
-744.156	-200.000	-0.002	0.254
-743.142	-67.928	-0.156	-0.061
-742.127	-14.464	-0.191	0.124
-741.112	25.072	0.150	-0.126
-740.098	233.805	0.039	-0.065
-739.083	-104.783	0.151	-0.035
-738.069	400.423	0.083	0.176
-737.054	738.390	0.046	-0.125
-736.039	559.441	-0.188	-0.457
-735.025	-112.743	-0.274	0.055
-734.010	245.364	-0.052	0.087
-732.996	-200.000	-0.021	-0.368
-731.981	126.837	-0.344	-0.440
-730.966	49.141	0.192	-0.182
-729.952	-200.000	0.050	-0.344
-728.937	-127.279	-0.079	-0.012
-727.923	-154.242	-0.161	0.011
-726.908	-48.652	-0.196	0.095
-725.894	216.733	0.151	-0.242
-724.879	-112.047	-0.073	0.015
-723.864	379.883	0.041	-0.085
-722.850	176.870	-0.227	-0.333
-721.835	800.000	-0.105	-0.328
-720.821	-126.907	-0.189	-0.028
-719.806	141.713	-0.060	0.080
-718.791	56.730	-0.155	-0.153
-717.777	-137.314	-0.057	-0.007
-716.762	-86.836	-0.276	-0.085
-715.748	-200.000	-0.020	0.203
-714.733	729.920	-0.038	-0.102
-713.718	89.994	0.041	-0.046
-712.704	-99.355	-0.182	0.046
-711.689	129.820	-0.057	-0.073
-710.675	-200.000	0.010	-0.291
-709.660	156.350	0.099	-0.138
-708.645	-72.444	0.194	0.072
-707.631	-24.518	0.192	0.115
-706.616	-40.488	-0.156	-0.081
-705.602	-200.000	0.033	0.169
-704.587	-200.000	0.054	0.293
-703.572	-74.498	0.246	0.089
-702.558	-5.056	0.111	0.077
-701.543	115.705	-0.050	0.061
-700.529	-200.000	0.004	-0.320
-699.514	-68.422	-0.188	0.074
-698.499	263.896	0.222	-0.388
-697.485	123.746	-0.250	-0.316
-696.470	-200.000	-0.000	0.303
-695.456	321.460	0.097	0.186
-694.441	-50.087	-0.341	0.163
-693.426	-51.937	-0.266	0.125
-692.412	111.083	-0.116	0.141
-691.397	131.828	0.099	0.128
-690.383	-196.580	-0.196	0.001
-689.368	-53.007	-0.280	0.130
-688.354	-200.000	0.032	0.275
-687.339	-200.000	-0.013	0.086
-686.324	371.916	-0.129	-0.263
-685.310	800.000	0.139	-0.410
-684.295	-109.280	-0.164	-0.035
-683.281	-31.868	-0.285	0.161
-682.266	800.000	-0.092	-0.260
-681.251	-170.420	-0.034	-0.001
-680.237	707.952	0.161	-0.428
-679.222	104.055	0.076	-0.090
-678.208	-200.000	-0.397	-0.001
-677.193	120.990	0.072	-0.090
-676.178	-78.504	-0.318	-0.110
-675.164	426.288	0.028	-0.060
-674.149	-200.000	0.018	-0.402
-673.135	-72.015	0.073	-0.027
-672.120	-130.733	0.294	-0.040
-671.105	800.000	0.075	-0.264
-670.091	107.897	-0.320	-0.383
-669.076	-200.000	0.020	-0.112
-668.062	-200.000	-0.006	-0.323
-667.047	-171.857	-0.442	0.015
-666.032	234.697	0.148	0.246
-665.018	800.000	-0.082	-0.237
-664.003	-200.000	-0.005	0.062
-662.989	-66.781	-0.149	0.059
-661.974	60.742	-0.249	0.248
-660.959	-51.400	-0.356	-0.168
-659.945	132.372	0.194	-0.252
-658.930	269.664	-0.050	0.088
-657.916	26.654	-0.221	0.187
-656.901	-32.733	-0.063	-0.035
-655.886	26.663	0.118	0.099
-654.872	56.867	-0.110	-0.108
-653.857	36.963	-0.232	-0.206
-652.843	-12.154	0.212	-0.139
-651.828	-44.901	-0.112	0.056
-650.814	-116.181	0.343	-0.064
-649.799	-200.000	0.006	-0.066
-648.784	-28.446	-0.070	0.040
-647.770	-200.000	0.007	0.201
-646.755	215.134	-0.281	-0.448
-645.741	36.521	0.188	0.166
-644.726	-88.938	0.275	0.082
-643.711	800.000	-0.096	-0.288
-642.697	-19.655	0.115	-0.071
-641.682	-200.000	-0.087	0.426
-640.668	800.000	0.017	-0.048
-639.653	-125.026	-0.140	-0.022
-638.638	-166.955	-0.079	0.003
-637.624	132.052	0.151	0.195
-636.609	620.871	-0.104	-0.262
-635.595	-147.988	-0.036	-0.003
-634.580	-53.836	0.390	0.179
-633.565	287.108	-0.057	0.103
-632.551	279.747	-0.092	-0.165
-631.536	180.849	-0.013	0.019
-630.522	139.959	0.079	-0.105
-629.507	108.823	0.057	-0.068
-628.492	-8.332	0.018	0.012
-627.478	-200.000	-0.006	0.205
-626.463	-79.291	-0.134	-0.046
-625.449	252.847	-0.092	0.157
-624.434	-70.405	-0.246	-0.094
-623.419	800.000	-0.089	0.293
-622.405	133.599	0.069	-0.089
-621.390	-145.557	-0.077	0.007
-620.376	-200.000	0.026	-0.201
-619.361	-42.727	-0.197	-0.101
-618.346	216.113	-0.069	-0.110
-617.332	-80.229	-0.248	-0.083
-616.317	-200.000	-0.022	-0.101
-615.303	-118.858	-0.242	-0.043
-614.288	-59.496	0.304	-0.131
-613.273	12.946	0.072	0.056
-612.259	-105.718	-0.228	0.052
-611.244	-145.738	0.063	-0.006
-610.230	-141.866	-0.377	0.038
-609.215	94.344	-0.066	0.075
-608.201	-200.000	0.027	0.229
-607.186	800.000	0.038	0.126
-606.171	120.987	-0.238	-0.297
-605.157	-78.088	0.057	-0.020
-604.142	453.601	-0.016	-0.036
-603.128	-200.000	0.012	-0.190
-602.113	-135.127	-0.397	-0.048
-601.098	800.000	-0.082	0.236
-600.084	-23.448	0.143	0.086
-599.069	203.372	0.052	0.081
-598.055	-18.139	0.147	0.092
-597.040	-200.000	-0.033	-0.499
-596.025	-154.550	-0.206	0.014
-595.011	-36.474	0.149	-0.081
-593.996	571.136	-0.101	-0.246
-592.982	-142.637	-0.306	0.030
-591.967	767.894	0.094	0.256
-590.952	-200.000	-0.015	-0.156
-589.938	221.832	0.184	-0.297
-588.923	32.361	-0.006	0.005
-587.909	-200.000	0.029	-0.218
-586.894	374.339	0.025	-0.050
-585.879	-105.534	0.193	-0.044
-584.865	141.182	-0.112	-0.149
-583.850	58.821	-0.422	-0.416
-582.836	-23.792	0.281	-0.169
-581.821	-166.894	-0.476	0.020
-580.806	-16.196	-0.157	0.100
-579.792	70.192	-0.092	0.095
-578.777	-96.489	0.342	-0.091
-577.763	-42.056	0.087	0.045
-576.748	-38.122	-0.185	0.098
-575.733	336.546	-0.104	0.202
-574.719	-172.943	-0.177	0.005
-573.704	-181.221	0.299	-0.006
-572.690	-131.676	-0.254	0.033
-571.675	-82.661	0.282	-0.092
-570.661	-137.320	0.185	0.021
-569.646	-56.342	-0.264	-0.118
-568.631	-200.000	-0.007	-0.139
-567.617	322.077	0.121	-0.231
-566.602	-9.453	-0.116	0.078
-565.588	-200.000	-0.018	-0.177
-564.573	-181.235	-0.134	0.003
-563.558	800.000	0.029	-0.110
-562.544	-158.214	-0.210	0.012
-561.529	-200.000	0.009	-0.286
-560.515	-200.000	0.036	-0.326
-559.500	-200.000	0.002	0.154
-558.485	677.808	0.135	0.352
-557.471	-128.431	-0.557	-0.079
-556.456	129.284	0.168	0.215
-555.442	-91.964	0.103	0.029
-554.427	-52.437	0.212	0.098
-553.412	-200.000	-0.008	0.100
-552.398	127.044	-0.137	-0.174
-551.383	-13.124	0.321	-0.209
-550.369	-86.124	0.416	-0.128
-549.354	-33.089	-0.270	-0.150
-548.339	-35.551	0.148	-0.080
-547.325	294.657	0.045	-0.083
-546.310	-200.000	-0.035	-0.285
-545.296	800.000	0.056	-0.206
-544.281	-105.281	0.136	0.031
-543.266	-123.108	-0.118	-0.019
-542.252	-63.579	0.397	-0.163
-541.237	-138.506	-0.233	0.026
-540.223	573.801	-0.089	-0.218
-539.208	270.542	0.150	-0.264
-538.193	60.581	-0.167	-0.166
-537.179	361.321	-0.110	0.220
-536.164	-200.000	0.016	0.240
-535.150	-200.000	0.021	-0.115
-534.135	-102.445	-0.229	0.055
-533.121	-186.352	-0.237	-0.003
-532.106	-60.671	0.345	0.146
-531.091	141.919	0.183	-0.243
-530.077	61.704	-0.087	-0.087
-529.062	-42.352	0.196	-0.100
-528.048	-152.717	0.208	0.015
-527.033	800.000	0.035	-0.125
-526.018	13.239	0.046	-0.035
-525.004	-92.737	0.077	-0.022
-523.989	92.149	-0.286	-0.322
-522.975	-74.747	-0.247	0.089
-521.960	-37.589	0.293	-0.156
-520.945	10.072	0.221	0.168
-519.931	-124.596	-0.285	0.044
-518.916	198.907	0.097	-0.149
-517.902	169.903	-0.256	0.366
-516.887	-200.000	-0.030	-0.159
-515.872	-85.738	-0.199	0.062
-514.858	-66.886	-0.195	0.077
-513.843	-79.374	-0.104	-0.035
-512.829	217.822	-0.052	0.082
-511.814	-140.475	0.360	-0.037
-510.799	9.577	-0.215	0.163
-509.785	555.218	-0.091	-0.219
-508.770	-27.790	-0.166	0.096
-507.756	800.000	-0.023	0.081
-506.741	-133.270	-0.118	-0.015
-505.726	-200.000	-0.008	0.238
-504.712	800.000	0.048	-0.152
-503.697	95.693	0.076	-0.086
-502.683	-28.696	-0.305	0.175
-501.668	-96.519	0.161	0.043
-500.653	294.208	0.201	0.367
-499.639	-42.369	-0.066	-0.034
-498.624	222.306	0.079	-0.127
-497.610	161.010	-0.085	0.118
-496.595	273.250	0.068	0.120
-495.581	99.830	0.041	0.048
-494.566	24.093	0.100	0.083
-493.551	707.620	-0.112	-0.296
-492.537	-118.967	0.026	-0.005
-491.522	-122.529	-0.325	0.053
-490.508	-200.000	-0.014	-0.116
-489.493	-200.000	0.024	-0.336
-488.478	-200.000	-0.005	0.356
-487.464	800.000	-0.133	-0.486
-486.449	-8.557	0.293	0.197
-485.435	-64.454	-0.018	0.007
-484.420	-200.000	0.037	-0.244
-483.405	511.776	0.021	-0.049
-482.391	-101.123	0.163	0.040
-481.376	129.784	-0.136	0.173
-480.362	-182.584	-0.139	-0.003
-479.347	373.930	-0.115	0.234
-478.332	-50.470	-0.247	-0.116
-477.318	-104.804	-0.123	0.028
-476.303	-185.163	-0.201	-0.003
-475.289	-200.000	-0.013	0.110
-474.274	96.519	0.176	-0.201
-473.259	135.931	-0.037	0.049
-472.245	-74.829	0.232	-0.083
-471.230	-69.437	-0.126	-0.048
-470.216	64.665	-0.066	-0.066
-469.201	-59.681	-0.168	-0.072
-468.186	105.176	0.060	0.070
-467.172	157.176	0.103	0.143
-466.157	-25.340	-0.142	-0.084
-465.143	77.310	0.082	-0.087
-464.128	-200.000	-0.012	0.331
-463.113	6.779	0.238	0.177
-462.099	-200.000	0.073	-0.467
-461.084	62.170	0.114	0.114
-460.070	37.494	-0.118	-0.104
-459.055	154.038	0.195	0.267
-458.040	481.032	0.096	0.217
-457.026	288.951	0.070	0.127
-456.011	131.275	-0.156	0.200
-454.997	28.750	-0.131	-0.110
-453.982	-64.308	-0.019	0.008
-452.968	-66.588	-0.141	-0.056
-451.953	800.000	0.038	-0.124
-450.938	-200.000	-0.046	-0.274
-449.924	-38.792	0.373	-0.196
-448.909	800.000	-0.042	0.119
-447.895	-200.000	-0.061	-0.419
-446.880	-40.686	-0.100	-0.052
-445.865	800.000	0.020	0.075
-444.851	185.136	0.126	-0.186
-443.836	5.558	0.085	0.063
-442.822	800.000	0.043	0.147
-441.807	-70.247	-0.076	-0.029
-440.792	-200.000	-0.003	-0.365
-439.778	-200.000	-0.003	-0.113
-438.763	-200.000	-0.012	-0.191
-437.749	-200.000	-0.024	-0.259
-436.734	-98.750	0.192	0.049
-435.719	-48.645	0.076	-0.036
-434.705	-168.739	-0.157	0.006
-433.690	-200.000	0.022	-0.328
-432.676	-127.469	0.220	0.032
-431.661	-44.348	-0.112	-0.056
-430.646	-178.548	0.025	0.001
-429.632	-118.642	-0.133	-0.023
-428.617	800.000	-0.096	-0.286
-427.603	-200.000	0.102	-0.447
-426.588	189.629	-0.173	0.258
-425.573	-81.681	0.283	-0.093
-424.559	-200.000	-0.027	0.329
-423.544	-69.809	-0.169	0.064
-422.530	-41.548	0.246	0.126
-421.515	57.351	0.184	-0.179
-420.500	224.149	-0.199	-0.320
-419.486	-200.000	-0.024	-0.119
-418.471	-135.138	-0.223	0.027
-417.457	-51.839	0.406	0.188
-416.442	185.439	-0.175	0.260
-415.428	306.965	-0.166	0.309
-414.413	-66.229	0.415	0.165
-413.398	318.323	0.090	-0.170
-412.384	800.000	-0.044	-0.123
-411.369	-83.539	-0.136	0.044
-410.355	-78.703	-0.220	0.075
-409.340	-119.929	-0.173	0.030
-408.325	296.268	-0.074	-0.136
-407.311	-42.510	-0.182	0.093
-406.296	451.063	0.081	-0.178
-405.282	78.739	0.267	-0.284
-404.267	-45.104	-0.161	-0.080
-403.252	7.008	-0.046	-0.034
-402.238	-177.588	0.257	0.006
-401.223	52.441	0.145	0.138
-400.209	-19.560	-0.609	-0.376
-399.194	-200.000	-0.010	0.272
-398.179	800.000	-0.061	-0.169
-397.165	729.593	-0.021	0.056
-396.150	467.286	0.052	-0.117
-395.136	77.364	-0.179	-0.189
-394.121	-0.611	0.362	-0.256
-393.106	-156.462	0.359	-0.022
-392.092	-50.954	-0.204	-0.095
-391.077	-200.000	0.050	-0.298
-390.063	115.866	0.246	0.299
-389.048	53.249	-0.125	-0.119
-388.033	-83.145	0.170	-0.054
-387.019	-108.818	-0.109	-0.023
-386.004	-55.632	0.210	-0.094
-384.990	32.186	-0.193	0.166
-383.975	-200.000	-0.005	0.403
-382.960	224.766	0.048	0.078
-381.946	-49.029	-0.072	-0.034
-380.931	-69.133	0.310	0.119
-379.917	292.261	-0.094	0.170
-378.902	-131.954	-0.316	-0.041
-377.888	-109.566	-0.263	-0.055
-376.873	27.811	-0.337	0.283
-375.858	800.000	0.097	0.322
-374.844	183.952	-0.117	0.173
-373.829	-119.990	0.149	0.025
-372.815	-200.000	0.003	-0.302
-371.800	157.653	-0.165	-0.227
-370.785	-200.000	0.018	-0.165
-369.771	-200.000	0.390	0.001
-368.756	-72.455	-0.216	-0.079
-367.742	-21.942	0.101	0.061
-366.727	323.304	-0.105	-0.198
-365.712	-61.908	0.177	0.074
-364.698	-143.670	0.415	0.039
-363.683	800.000	-0.029	-0.105
-362.669	-140.783	0.376	0.039
-361.654	785.489	0.097	0.266
-360.639	248.561	0.093	-0.156
-359.625	3.132	-0.342	0.247
-358.610	-200.000	0.033	0.225
-357.596	205.691	0.237	0.366
-356.581	-1.598	0.024	-0.017
-355.566	-200.000	0.004	0.020
-354.552	-200.000	-0.025	0.391
-353.537	485.446	0.053	-0.121
-352.523	-88.355	0.253	0.075
-351.508	-200.000	0.005	0.231
-350.493	193.182	0.107	0.161
-349.479	136.230	0.181	-0.234
-348.464	16.623	0.229	0.180
-347.450	76.001	0.153	-0.161
-346.435	465.913	-0.109	-0.243
-345.420	258.368	0.063	-0.109
-344.406	-200.000	0.057	-0.281
-343.391	-32.624	0.277	-0.153
-342.377	-78.331	-0.078	0.026
-341.362	58.264	-0.040	-0.039
-340.348	573.849	0.034	-0.082
-339.333	-200.000	0.003	0.097
-338.318	-85.171	-0.108	0.033
-337.304	353.040	-0.160	0.315
-336.289	-99.730	0.180	-0.045
-335.275	186.523	0.152	-0.225
-334.260	-127.905	0.150	0.021
-333.245	-98.549	0.382	-0.097
-332.231	34.749	0.216	-0.188
-331.216	-200.000	-0.024	-0.222
-330.202	185.026	-0.080	0.118
-329.187	-115.301	0.097	0.018
-328.172	26.216	0.269	0.223
-327.158	-48.827	0.075	-0.036
-326.143	-21.216	0.220	-0.134
-325.129	-200.000	0.008	-0.097
-324.114	776.954	0.042	0.115
-323.099	99.406	0.247	0.284
-322.085	-200.000	0.021	-0.356
-321.070	-136.372	-0.035	0.004
-320.056	-200.000	-0.024	-0.354
-319.041	200.792	-0.088	-0.135
-318.026	-200.000	0.041	-0.196
-317.012	394.883	0.217	-0.450
-315.997	800.000	0.105	0.336
-314.983	-20.851	0.162	0.099
-313.968	-200.000	-0.019	0.134
-312.953	-97.758	0.158	-0.041
-311.939	-135.466	-0.322	0.038
-310.924	289.238	0.019	0.033
-309.910	-200.000	-0.015	0.261
-308.895	-164.935	-0.351	0.016
-307.880	59.035	0.303	0.296
-306.866	-100.596	-0.549	-0.135
-305.851	31.359	0.355	0.303
-304.837	153.736	-0.147	0.200
-303.822	358.071	-0.122	0.242
-302.807	-115.936	0.180	0.033
-301.793	-200.000	0.014	-0.120
-300.778	171.247	-0.075	-0.107
-299.764	168.795	0.073	0.103
-298.749	164.466	0.175	0.244
-297.735	-142.707	0.219	-0.021
-296.720	156.971	-0.254	-0.349
-295.705	800.000	0.015	-0.059
-294.691	516.177	-0.113	-0.261
-293.676	134.551	0.016	0.020
-292.662	297.681	0.142	-0.258
-291.647	153.830	0.116	-0.158
-290.632	83.429	-0.097	0.105
-289.618	-200.000	0.007	0.267
-288.603	394.342	0.155	0.320
-287.589	-110.453	0.062	-0.013
-286.574	-200.000	0.060	0.338
-285.559	366.981	-0.147	0.295
-284.545	105.091	-0.038	-0.045
-283.530	-102.156	0.049	-0.012
-282.516	800.000	-0.089	0.310
-281.501	-200.000	0.017	-0.104
-280.486	-200.000	0.001	0.077
-279.472	-85.054	0.173	0.054
-278.457	-200.000	0.005	0.093
-277.443	-149.592	-0.205	0.016
-276.428	94.518	0.131	-0.147
-275.413	12.755	0.150	0.115
-274.399	138.148	-0.034	0.044
-273.384	41.808	-0.323	0.291
-272.370	800.000	-0.041	0.171
-271.355	-61.223	-0.027	0.011
-270.340	219.803	0.094	-0.149
-269.326	-31.226	0.216	-0.121
-268.311	800.000	-0.073	-0.253
-267.297	-104.300	-0.398	-0.092
-266.282	-84.921	0.171	0.053
-265.267	-22.581	0.106	0.064
-264.253	103.866	0.113	-0.132
-263.238	-67.536	-0.104	0.040
-262.224	-102.624	-0.270	0.064
-261.209	-90.599	-0.255	-0.073
-260.195	800.000	0.059	-0.183
-259.180	-200.000	0.033	0.439
-258.165	-99.738	0.025	0.006
-257.151	-200.000	0.005	-0.279
-256.136	800.000	-0.097	0.294
-255.122	294.895	-0.105	0.191
-254.107	534.753	-0.061	-0.143
-253.092	153.297	0.171	-0.232
-252.078	-44.389	0.338	-0.168
-251.063	89.380	0.160	0.176
-250.049	-200.000	-0.016	0.153
-249.034	329.817	0.145	-0.276
-248.019	-200.000	-0.013	0.136
-247.005	125.085	0.126	0.157
-245.990	15.105	0.011	-0.008
-244.976	9.422	0.190	0.143
-243.961	120.246	-0.322	0.396
-242.946	-43.162	0.035	0.018
-241.932	387.776	-0.188	0.386
-240.917	199.473	0.180	0.273
-239.903	82.118	0.171	0.183
-238.888	800.000	-0.101	0.287
-237.873	-71.256	0.103	-0.038
-236.859	66.606	-0.116	0.116
-235.844	624.447	0.098	-0.243
-234.830	-130.283	-0.011	-0.001
-233.815	260.283	0.090	-0.153
-232.800	-137.584	-0.107	-0.012
-231.786	15.936	0.221	-0.172
-230.771	329.600	-0.068	-0.130
-229.757	162.629	0.057	0.079
-228.742	23.569	0.125	-0.102
-227.727	-62.381	-0.448	0.184
-226.713	-56.158	-0.243	0.107
-225.698	-200.000	0.011	0.174
-224.684	800.000	-0.081	0.226
-223.669	-55.056	-0.205	-0.092
-222.655	-200.000	-0.067	0.617
-221.640	-27.159	0.019	0.011
-220.625	36.899	-0.323	0.283
-219.611	148.631	-0.144	0.193
-218.596	-74.578	-0.444	0.158
-217.582	-3.091	-0.097	0.067
-216.567	725.160	0.225	0.593
-215.552	-127.136	-0.167	0.024
-214.538	571.361	0.107	0.258
-213.523	-105.847	0.252	0.056
-212.509	-200.000	0.002	-0.113
-211.494	-27.121	-0.510	-0.294
-210.479	-200.000	-0.001	0.402
-209.465	282.363	-0.081	0.144
-208.450	-110.149	0.066	-0.014
-207.436	660.625	0.052	-0.132
-206.421	202.752	0.092	0.141
-205.406	377.031	0.179	0.360
-204.392	-177.411	-0.177	0.004
-203.377	18.778	0.177	-0.140
-202.363	-81.934	-0.172	0.056
-201.348	-91.480	0.084	-0.024
-200.333	-200.000	-0.025	0.156
-199.319	-200.000	-0.052	0.236
-198.304	-41.528	-0.424	0.215
-197.290	51.182	0.119	0.112
-196.275	-200.000	0.017	-0.187
-195.260	501.465	-0.071	-0.161
-194.246	-60.453	-0.220	-0.092
-193.231	-200.000	-0.102	-0.455
-192.217	-146.633	0.274	-0.023
-191.202	363.834	-0.271	-0.539
-190.187	244.676	-0.134	0.222
-189.173	-200.000	0.038	0.209
-188.158	-1.733	-0.310	-0.215
-187.144	800.000	0.033	-0.138
-186.129	-11.592	-0.030	-0.019
-185.114	-98.731	-0.133	0.034
-184.100	-172.735	0.317	0.010
-183.085	-51.115	0.272	0.126
-182.071	289.223	-0.124	-0.222
-181.056	-88.662	0.028	0.008
-180.042	-108.763	0.171	-0.036
-179.027	196.028	0.055	0.083
-178.012	92.137	0.040	-0.044
-176.998	800.000	0.126	0.476
-175.983	114.644	-0.057	-0.069
-174.969	-200.000	0.034	-0.197
-173.954	800.000	0.075	-0.211
-172.939	-146.899	-0.187	0.016
-171.925	-93.360	0.293	0.080
-170.910	360.280	-0.068	-0.135
-169.896	-48.924	-0.112	-0.053
-168.881	-58.832	0.170	0.073
-167.866	-58.294	-0.069	-0.030
-166.852	800.000	-0.064	-0.253
-165.837	-104.074	0.197	-0.045
-164.823	-104.657	0.087	-0.020
-163.808	-30.733	0.103	0.057
-162.793	-75.755	0.461	0.161
-161.779	217.393	-0.239	-0.376
-160.764	800.000	0.123	0.407
-159.750	-88.663	0.349	0.102
-158.735	800.000	-0.053	-0.215
-157.720	-200.000	-0.047	0.249
-156.706	-200.000	0.047	-0.257
-155.691	-200.000	0.027	0.303
-154.677	310.759	-0.061	-0.114
-153.662	-200.000	-0.001	0.392
-152.647	40.152	-0.187	0.165
-151.633	-200.000	-0.047	0.233
-150.618	-39.616	0.077	0.040
-149.604	-133.778	0.309	0.038
-148.589	-200.000	-0.003	-0.097
-147.574	-99.787	0.168	-0.041
-146.560	141.436	0.255	-0.333
-145.545	5.742	-0.172	-0.126
-144.531	28.527	0.110	-0.092
-143.516	-36.398	-0.117	-0.062
-142.502	-95.717	-0.217	0.057
-141.487	-160.958	0.416	-0.022
-140.472	100.828	0.068	0.078
-139.458	580.352	-0.068	-0.165
-138.443	800.000	-0.026	-0.088
-137.429	-82.060	0.389	-0.125
-136.414	-95.218	-0.439	0.117
-135.399	114.603	-0.112	0.135
-134.385	-68.200	0.094	-0.036
-133.370	6.832	-0.034	0.025
-132.356	-6.486	0.245	-0.164
-131.341	-122.992	0.067	-0.011
-130.326	-103.927	-0.336	0.077
-129.312	-54.561	-0.262	0.117
-128.297	611.668	-0.132	-0.325
-127.283	-56.853	0.206	-0.090
-126.268	-89.344	0.077	0.022
-125.253	-200.000	0.002	0.493
-124.239	-147.456	0.145	-0.012
-123.224	800.000	-0.044	-0.149
