DTS Sentinel unit serial number:	SN413079Multiplexer serial number:	ORYXHardware model number:	OX4-SRSoftware version number:	ORYX F/W v4.00 Oryx Data Collector v3.7.2.0data status	okinstallation	princeton_trtdifferential loss correction	single-endedforward channel	channel 2reverse channel	N/Adate	2019/09/14time	10:35:35forward acquisition time	60.00reverse acquisition time	0.00gamma	496.2192k internal	0.2315k external	0.2315temperature offset calibration	1.0140default loss term (dB/km)	0.3790temperature slope calibration	1.0000multiplexer offset coefficient	1.0000multiplexer slope coefficient	1.0000fibre end	0.00T internal ref (°C)	35.00T ext. ref 1 (°C)	4.22T ext. ref 2 (°C)	32.94length (m)	temperature (°C)	Stokes	anti-Stokes-747.200	-40.092	0.365	-0.193
-746.185	116.960	0.215	0.267
-745.171	-115.807	-0.350	0.066
-744.156	-200.000	-0.020	0.100
-743.142	419.461	-0.068	0.148
-742.127	-200.000	-0.021	0.145
-741.112	131.339	0.151	-0.197
-740.098	-68.031	0.166	-0.066
-739.083	-197.884	0.470	0.003
-738.069	-8.321	0.375	0.256
-737.054	-74.827	-0.292	-0.106
-736.039	-200.000	-0.340	-0.000
-735.025	-163.690	0.282	-0.013
-734.010	-88.410	-0.158	-0.048
-732.996	35.579	-0.089	-0.079
-731.981	-200.000	0.067	-0.493
-730.966	-3.764	0.295	-0.208
-729.952	-128.887	0.193	0.028
-728.937	26.890	-0.347	-0.295
-727.923	176.644	0.047	0.069
-726.908	-57.278	-0.110	0.049
-725.894	-200.000	-0.013	-0.174
-724.879	-200.000	-0.018	0.374
-723.864	-137.582	-0.371	-0.042
-722.850	-149.158	0.333	0.027
-721.835	12.900	0.159	-0.124
-720.821	800.000	0.085	-0.256
-719.806	-76.028	-0.274	0.098
-718.791	100.479	-0.028	-0.033
-717.777	90.070	-0.188	0.213
-716.762	204.272	0.140	-0.220
-715.748	28.593	0.182	0.156
-714.733	-100.185	0.165	-0.042
-713.718	588.396	0.099	0.246
-712.704	-23.501	-0.267	0.162
-711.689	60.226	-0.090	0.090
-710.675	800.000	0.020	0.059
-709.660	198.389	-0.114	-0.177
-708.645	-71.892	0.212	-0.080
-707.631	-200.000	-0.061	-0.280
-706.616	800.000	-0.051	-0.212
-705.602	-64.441	-0.058	-0.024
-704.587	800.000	-0.037	-0.125
-703.572	-200.000	-0.077	-0.400
-702.558	-28.824	0.105	-0.061
-701.543	64.699	0.027	0.027
-700.529	165.577	0.244	-0.348
-699.514	37.285	0.132	-0.118
-698.499	144.213	0.137	-0.185
-697.485	-32.318	-0.081	-0.046
-696.470	42.052	-0.167	-0.153
-695.456	-68.487	0.370	-0.145
-694.441	-60.148	0.333	0.144
-693.426	-200.000	-0.024	-0.370
-692.412	19.257	-0.134	0.108
-691.397	67.223	-0.269	-0.277
-690.383	-84.668	0.170	-0.054
-689.368	-28.299	0.141	0.082
-688.354	-27.806	0.127	0.074
-687.339	644.831	0.030	0.078
-686.324	-200.000	0.020	-0.354
-685.310	-124.902	0.181	0.028
-684.295	68.378	-0.194	-0.201
-683.281	-64.522	-0.222	-0.091
-682.266	-200.000	0.008	-0.317
-681.251	-130.575	-0.190	0.026
-680.237	-21.960	-0.163	0.100
-679.222	-200.000	0.010	0.045
-678.208	18.184	0.383	-0.309
-677.193	-96.960	0.168	0.044
-676.178	-6.279	0.130	-0.090
-675.164	291.017	-0.110	-0.202
-674.149	800.000	0.037	-0.106
-673.135	-112.450	-0.127	-0.026
-672.120	-26.266	-0.328	0.195
-671.105	509.131	0.051	-0.120
-670.091	-48.847	0.109	-0.053
-669.076	-95.546	-0.189	0.051
-668.062	-19.628	0.357	-0.223
-667.047	-200.000	-0.055	0.279
-666.032	-200.000	0.050	-0.358
-665.018	-200.000	0.091	0.000
-664.003	-200.000	-0.007	-0.112
-662.989	800.000	-0.065	0.208
-661.974	-13.478	0.047	-0.031
-660.959	800.000	-0.060	0.172
-659.945	114.742	0.089	0.109
-658.930	27.563	0.331	-0.281
-657.916	15.128	-0.094	0.074
-656.901	189.225	-0.092	0.140
-655.886	-47.306	-0.101	-0.049
-654.872	41.173	-0.079	0.072
-653.857	800.000	0.035	-0.138
-652.843	23.530	-0.282	-0.234
-651.828	455.202	0.151	-0.338
-650.814	-84.029	0.277	0.089
-649.799	129.828	0.138	-0.178
-648.784	709.187	-0.047	0.125
-647.770	298.535	-0.120	-0.223
-646.755	-89.242	-0.302	0.090
-645.741	206.810	0.091	0.143
-644.726	78.165	-0.055	-0.059
-643.711	-200.000	-0.074	-0.349
-642.697	-176.871	-0.294	0.008
-641.682	-64.474	-0.076	0.031
-640.668	-200.000	0.013	-0.058
-639.653	141.937	-0.143	-0.191
-638.638	-52.888	-0.098	0.046
-637.624	-200.000	-0.003	-0.325
-636.609	-10.184	-0.101	0.068
-635.595	-170.948	-0.206	-0.007
-634.580	-48.144	0.109	0.053
-633.565	85.516	0.038	-0.042
-632.551	103.046	-0.184	-0.218
-631.536	-116.956	-0.177	0.033
-630.522	-158.559	-0.139	0.008
-629.507	66.738	-0.134	-0.137
-628.492	-111.858	-0.293	0.060
-627.478	26.115	-0.116	-0.098
-626.463	800.000	-0.054	0.229
-625.449	-113.426	-0.346	0.068
-624.434	562.902	-0.089	0.218
-623.419	34.308	-0.101	-0.089
-622.405	-146.378	0.317	-0.028
-621.390	163.618	-0.161	-0.229
-620.376	-200.000	0.032	0.264
-619.361	-200.000	-0.012	-0.209
-618.346	23.609	-0.192	0.160
-617.332	-200.000	-0.033	-0.184
-616.317	-200.000	0.009	-0.110
-615.303	-162.630	0.231	0.011
-614.288	91.333	-0.225	0.255
-613.273	16.088	-0.110	0.087
-612.259	-187.613	-0.316	-0.004
-611.244	38.875	0.202	0.182
-610.230	226.108	0.189	-0.309
-609.215	-98.875	0.330	-0.084
-608.201	-61.227	0.221	0.094
-607.186	198.216	-0.251	0.387
-606.171	-165.894	0.400	0.017
-605.157	15.760	0.190	-0.150
-604.142	168.739	0.164	0.236
-603.128	-37.548	0.364	0.196
-602.113	-200.000	-0.005	0.356
-601.098	332.710	0.127	0.248
-600.084	-200.000	-0.042	0.240
-599.069	-86.947	0.188	0.058
-598.055	-57.092	0.160	-0.071
-597.040	-200.000	0.010	0.170
-596.025	58.140	-0.097	0.096
-595.011	165.792	0.056	-0.079
-593.996	-200.000	-0.050	-0.352
-592.982	-147.866	0.072	-0.006
-591.967	-110.701	-0.133	-0.028
-590.952	490.722	-0.049	-0.113
-589.938	-5.445	0.184	0.127
-588.923	-165.422	0.102	0.004
-587.909	-200.000	0.030	0.215
-586.894	800.000	-0.044	0.183
-585.879	-64.031	0.301	-0.124
-584.865	-41.693	0.179	-0.092
-583.850	18.679	-0.097	0.078
-582.836	-200.000	-0.057	-0.374
-581.821	800.000	-0.026	0.079
-580.806	40.695	0.317	-0.288
-579.792	800.000	-0.057	-0.167
-578.777	-200.000	-0.056	-0.332
-577.763	-200.000	0.231	-0.000
-576.748	-34.908	-0.215	-0.118
-575.733	-15.070	-0.232	0.150
-574.719	83.945	0.212	-0.233
-573.704	-65.260	0.335	-0.136
-572.690	800.000	-0.040	0.118
-571.675	101.078	0.068	0.080
-570.661	24.911	-0.411	0.343
-569.646	-73.066	-0.234	-0.087
-568.631	161.157	0.163	0.229
-567.617	6.158	-0.099	-0.074
-566.602	174.521	0.094	0.138
-565.588	23.470	-0.254	-0.210
-564.573	-67.434	0.211	-0.083
-563.558	42.604	-0.128	-0.117
-562.544	1.679	-0.162	-0.117
-561.529	97.284	-0.162	0.186
-560.515	-49.198	0.481	-0.231
-559.500	-106.552	0.091	-0.020
-558.485	17.108	-0.245	-0.196
-557.471	30.083	0.210	0.180
-556.456	-132.285	-0.334	-0.043
-555.442	-121.351	0.284	-0.048
-554.427	26.174	0.191	0.161
-553.412	-90.308	0.247	-0.072
-552.398	-200.000	0.006	0.231
-551.383	-62.406	-0.324	0.135
-550.369	-8.897	0.248	-0.167
-549.354	-200.000	0.015	-0.192
-548.339	41.059	0.197	0.179
-547.325	-66.468	0.378	-0.151
-546.310	-116.240	-0.440	-0.082
-545.296	-91.127	0.071	-0.021
-544.281	-134.369	0.185	-0.023
-543.266	-0.160	0.289	-0.207
-542.252	-32.753	-0.180	-0.101
-541.237	-115.670	-0.114	0.022
-540.223	-200.000	-0.039	0.435
-539.208	-0.252	-0.201	0.144
-538.193	138.580	-0.051	-0.067
-537.179	-200.000	0.013	0.083
-536.164	296.799	-0.246	-0.453
-535.150	789.286	-0.022	-0.059
-534.135	-47.788	0.442	0.215
-533.121	-38.034	-0.086	-0.046
-532.106	-200.000	-0.215	0.001
-531.091	-200.000	-0.071	-0.423
-530.077	137.092	-0.112	0.148
-529.062	87.746	0.182	-0.202
-528.048	-197.908	-0.067	-0.000
-527.033	160.581	0.115	0.161
-526.018	52.307	0.124	0.119
-525.004	-150.793	-0.271	0.021
-523.989	-101.456	-0.032	0.008
-522.975	80.296	0.083	-0.090
-521.960	40.206	-0.138	-0.125
-520.945	632.081	0.046	-0.117
-519.931	-200.000	0.015	0.113
-518.916	-200.000	-0.014	-0.226
-517.902	-35.427	0.346	-0.189
-516.887	2.733	0.174	0.127
-515.872	37.354	-0.324	-0.288
-514.858	168.906	0.084	-0.120
-513.843	132.580	0.157	0.204
-512.829	230.046	-0.047	-0.076
-511.814	-54.883	-0.100	0.045
-510.799	-120.450	-0.084	-0.014
-509.785	800.000	0.072	0.269
-508.770	-200.000	0.024	-0.179
-507.756	92.014	-0.100	0.113
-506.741	-127.003	-0.137	0.020
-505.726	-200.000	0.002	-0.080
-504.712	293.876	0.193	0.354
-503.697	-72.184	0.186	-0.069
-502.683	73.085	-0.165	0.173
-501.668	-14.707	-0.301	-0.194
-500.653	444.818	0.092	-0.202
-499.639	-156.238	-0.249	-0.016
-498.624	-37.656	-0.161	0.086
-497.610	87.717	-0.201	0.224
-496.595	-200.000	0.005	0.131
-495.581	-200.000	0.016	-0.133
-494.566	-105.748	-0.189	0.043
-493.551	800.000	-0.085	-0.371
-492.537	-83.627	0.088	-0.028
-491.522	-89.640	-0.215	-0.063
-490.508	-200.000	-0.034	0.193
-489.493	587.153	-0.068	-0.169
-488.478	31.058	0.226	0.195
-487.464	-126.208	0.090	0.014
-486.449	-190.945	0.204	-0.002
-485.435	-200.000	-0.024	0.131
-484.420	-25.134	-0.126	-0.075
-483.405	637.992	0.126	0.321
-482.391	-116.237	0.209	-0.039
-481.376	27.168	0.044	-0.037
-480.362	257.149	-0.056	-0.097
-479.347	-55.908	-0.077	0.034
-478.332	0.024	0.057	-0.041
-477.318	-156.311	0.367	-0.023
-476.303	-200.000	0.010	-0.395
-475.289	-128.153	0.114	0.016
-474.274	-4.132	0.166	-0.115
-473.259	60.905	-0.030	-0.029
-472.245	-105.197	0.339	-0.078
-471.230	42.042	0.132	-0.121
-470.216	-10.613	-0.200	-0.133
-469.201	-18.645	0.251	-0.157
-468.186	-64.952	-0.471	-0.191
-467.172	133.926	-0.109	0.142
-466.157	-137.472	0.189	0.021
-465.143	-29.685	0.407	0.233
-464.128	83.155	0.141	0.154
-463.113	244.731	-0.089	0.150
-462.099	129.985	-0.225	0.289
-461.084	600.758	0.022	0.055
-460.070	628.519	-0.077	-0.195
-459.055	-78.267	0.081	0.028
-458.040	107.604	-0.082	0.098
-457.026	-78.882	0.302	0.103
-456.011	800.000	-0.028	0.107
-454.997	-32.727	0.263	0.147
-453.982	-200.000	0.025	-0.210
-452.968	-200.000	0.017	0.151
-451.953	-200.000	-0.089	0.499
-450.938	-200.000	0.018	0.120
-449.924	-200.000	-0.069	-0.605
-448.909	-97.402	-0.071	0.018
-447.895	-200.000	0.008	0.160
-446.880	-200.000	-0.000	-0.259
-445.865	-200.000	-0.004	0.189
-444.851	394.772	-0.117	0.243
-443.836	-67.567	-0.218	0.086
-442.822	751.673	-0.105	-0.285
-441.807	39.576	-0.130	0.116
-440.792	-194.296	0.316	0.003
-439.778	800.000	-0.107	-0.416
-438.763	-200.000	0.033	0.151
-437.749	213.909	0.101	0.160
-436.734	-65.982	0.157	-0.063
-435.719	-200.000	-0.003	-0.088
-434.705	-19.180	-0.134	-0.084
-433.690	-8.555	0.256	-0.172
-432.676	746.132	0.092	-0.248
-431.661	-70.743	-0.125	-0.047
-430.646	800.000	0.021	-0.083
-429.632	-81.005	0.491	-0.163
-428.617	78.414	0.143	-0.153
-427.603	-5.485	-0.316	0.217
-426.588	0.781	-0.199	0.142
-425.573	-200.000	0.019	-0.127
-424.559	-184.040	0.171	0.003
-423.544	-1.914	0.233	-0.164
-422.530	-122.340	-0.204	0.033
-421.515	-74.048	0.259	-0.094
-420.500	-200.000	-0.051	-0.273
-419.486	164.984	-0.090	-0.127
-418.471	-200.000	0.024	0.146
-417.457	561.448	0.073	-0.176
-416.442	-200.000	-0.045	0.237
-415.428	79.677	-0.107	0.115
-414.413	-99.360	-0.108	0.027
-413.398	-37.121	-0.157	-0.084
-412.384	209.274	0.087	0.136
-411.369	-29.307	0.106	-0.061
-410.355	56.203	0.034	-0.033
-409.340	-12.665	0.186	-0.121
-408.325	-200.000	-0.042	0.205
-407.311	-50.698	0.143	-0.067
-406.296	136.531	0.031	0.041
-405.282	182.048	-0.148	0.217
-404.267	-130.300	-0.159	-0.022
-403.252	14.576	-0.203	0.159
-402.238	-84.187	0.271	0.086
-401.223	800.000	-0.030	0.108
-400.209	-67.720	-0.299	0.117
-399.194	-79.887	0.124	0.042
-398.179	295.643	-0.090	0.164
-397.165	225.141	-0.211	0.341
-396.150	81.520	-0.093	-0.101
-395.136	89.414	0.167	0.186
-394.121	-162.127	0.141	-0.007
-393.106	-200.000	0.002	-0.110
-392.092	0.899	0.046	0.033
-391.077	-59.402	0.121	0.052
-390.063	-200.000	0.358	-0.000
-389.048	29.655	0.049	-0.042
-388.033	-69.001	-0.417	0.160
-387.019	521.988	0.069	0.163
-386.004	56.527	-0.043	-0.041
-384.990	-22.887	0.023	0.014
-383.975	-97.865	-0.125	0.032
-382.960	-133.979	-0.350	-0.043
-381.946	-61.936	0.231	0.097
-380.931	-113.433	0.164	0.032
-379.917	-105.647	-0.135	0.031
-378.902	86.525	0.100	-0.110
-377.888	105.632	-0.195	-0.230
-376.873	241.655	0.092	-0.154
-375.858	281.123	0.109	-0.194
-374.844	-125.121	-0.256	-0.039
-373.829	241.730	0.220	-0.366
-372.815	-22.578	0.282	-0.170
-371.800	116.404	-0.070	0.085
-370.785	800.000	0.106	-0.325
-369.771	155.614	-0.054	0.074
-368.756	71.240	-0.268	0.278
-367.742	530.256	0.074	0.175
-366.727	-200.000	0.047	0.262
-365.712	-54.093	-0.109	0.049
-364.698	-57.178	0.235	-0.103
-363.683	267.822	-0.101	-0.177
-362.669	273.826	0.117	0.206
-361.654	-91.008	-0.209	-0.060
-360.639	-0.471	0.114	0.081
-359.625	800.000	-0.125	0.385
-358.610	22.545	-0.127	0.103
-357.596	450.198	0.017	0.037
-356.581	103.247	0.007	0.008
-355.566	208.674	0.103	-0.160
-354.552	239.500	0.017	0.028
-353.537	153.066	0.175	-0.238
-352.523	-33.456	-0.046	0.025
-351.508	-46.919	-0.217	0.106
-350.493	-200.000	0.099	0.000
-349.479	-200.000	0.002	0.188
-348.464	731.206	-0.020	0.054
-347.450	-91.561	-0.116	0.033
-346.435	-53.332	-0.250	-0.115
-345.420	-47.207	0.336	-0.163
-344.406	-200.000	0.011	-0.141
-343.391	-16.297	-0.414	0.262
-342.377	-76.098	-0.418	-0.147
-341.362	234.933	-0.066	-0.108
-340.348	-200.000	0.005	0.224
-339.333	-156.310	0.214	0.013
-338.318	97.092	-0.070	-0.081
-337.304	-38.607	-0.191	0.100
-336.289	-152.439	0.421	0.030
-335.275	-162.097	-0.152	0.008
-334.260	-200.000	0.021	0.146
-333.245	2.929	-0.199	-0.144
-332.231	7.031	0.347	0.258
-331.216	108.230	0.112	0.133
-330.202	-200.000	0.002	0.037
-329.187	355.472	-0.081	-0.160
-328.172	143.627	-0.033	0.044
-327.158	-200.000	-0.010	0.127
-326.143	178.078	-0.084	0.123
-325.129	-89.298	0.057	0.017
-324.114	627.446	-0.116	0.291
-323.099	-35.307	-0.191	-0.104
-322.085	-26.203	-0.184	-0.108
-321.070	-120.032	-0.149	-0.025
-320.056	-94.676	-0.013	0.003
-319.041	-146.714	-0.438	-0.038
-318.026	744.062	-0.061	0.163
-317.012	-5.429	0.093	-0.063
-315.997	-200.000	0.029	0.353
-314.983	-114.528	-0.408	-0.078
-313.968	-51.381	-0.179	-0.083
-312.953	-111.718	0.195	0.039
-311.939	800.000	0.065	0.241
-310.924	111.368	-0.237	0.285
-309.910	0.779	0.118	-0.084
-308.895	800.000	0.089	0.258
-307.880	118.544	0.107	-0.131
-306.866	31.087	0.103	0.088
-305.851	14.418	-0.209	0.163
-304.837	-77.955	0.464	0.159
-303.822	-5.908	-0.212	0.145
-302.807	-60.641	-0.405	-0.171
-301.793	-200.000	-0.022	0.170
-300.778	-146.705	0.191	0.017
-299.764	274.416	0.038	-0.067
-298.749	-126.711	-0.179	0.026
-297.735	-200.000	-0.009	0.107
-296.720	-200.000	0.038	-0.191
-295.705	316.302	-0.059	-0.111
-294.691	-200.000	0.024	0.143
-293.676	467.371	-0.047	-0.105
-292.662	50.245	-0.261	-0.246
-291.647	-200.000	0.000	0.040
-290.632	-200.000	0.026	0.144
-289.618	721.578	-0.080	0.213
-288.603	800.000	-0.076	-0.216
-287.589	117.112	0.200	0.245
-286.574	-80.901	-0.090	0.030
-285.559	64.096	0.196	0.197
-284.545	128.716	-0.124	-0.158
-283.530	-114.689	-0.175	-0.033
-282.516	-138.958	0.299	-0.032
-281.501	-42.485	0.259	0.131
-280.486	585.575	-0.106	-0.259
-279.472	-200.000	-0.024	0.115
-278.457	231.302	0.042	0.069
-277.443	-200.000	-0.023	0.213
-276.428	-200.000	-0.006	0.045
-275.413	72.479	-0.122	0.126
-274.399	-116.132	-0.267	0.049
-273.384	-136.344	-0.285	-0.033
-272.370	-200.000	0.016	-0.154
-271.355	-200.000	0.026	-0.302
-270.340	-164.265	0.108	0.005
-269.326	-173.499	0.121	-0.004
-268.311	456.519	0.103	0.227
-267.297	30.176	-0.278	-0.236
-266.282	800.000	-0.097	-0.353
-265.267	-200.000	0.012	-0.222
-264.253	-104.076	0.219	0.051
-263.238	158.419	0.124	0.172
-262.224	-32.686	0.259	-0.143
-261.209	-89.495	-0.130	-0.038
-260.195	800.000	-0.026	0.086
-259.180	252.619	0.193	-0.328
-258.165	-32.867	-0.198	-0.109
-257.151	-200.000	0.040	-0.216
-256.136	523.177	-0.113	-0.263
-255.122	-57.561	0.323	0.141
-254.107	-54.711	-0.313	0.140
-253.092	-80.769	-0.124	-0.041
-252.078	193.102	0.244	-0.367
-251.063	-200.000	-0.000	-0.295
-250.049	564.845	0.038	-0.091
-249.034	-9.640	-0.148	-0.098
-248.019	273.467	-0.060	0.105
-247.005	9.215	0.224	0.168
-245.990	43.673	-0.173	-0.158
-244.976	380.987	-0.028	-0.057
-243.961	-77.416	-0.233	0.080
-242.946	-200.000	-0.005	-0.243
-241.932	-33.813	-0.214	0.117
-240.917	634.197	0.144	0.362
-239.903	-79.006	-0.025	-0.009
-238.888	39.153	-0.077	0.068
-237.873	800.000	0.069	0.249
-236.859	-200.000	-0.023	-0.171
-235.844	235.813	0.113	0.186
-234.830	164.969	0.062	-0.087
-233.815	394.237	-0.154	0.319
-232.800	-54.354	0.208	0.094
-231.786	2.794	-0.119	0.085
-230.771	84.534	0.269	-0.293
-229.757	-75.044	0.093	0.033
-228.742	-33.199	0.238	0.131
-227.727	51.795	0.066	-0.062
-226.713	-200.000	0.013	-0.102
-225.698	800.000	-0.046	0.150
-224.684	696.448	-0.117	-0.304
-223.669	-60.262	0.107	-0.045
-222.655	-56.059	-0.234	-0.104
-221.640	154.331	0.070	0.095
-220.625	-63.928	-0.201	-0.082
-219.611	200.322	0.092	0.140
-218.596	189.653	-0.071	0.106
-217.582	701.529	-0.026	0.067
-216.567	-90.402	0.171	-0.049
-215.552	-200.000	0.010	-0.504
-214.538	-200.000	-0.010	0.080
-213.523	-62.304	-0.205	0.085
-212.509	-200.000	-0.027	-0.141
-211.494	110.472	-0.087	0.103
-210.479	241.783	0.117	0.195
-209.465	-143.386	0.189	-0.018
-208.450	43.562	-0.112	-0.101
-207.436	-177.601	0.149	0.004
-206.421	-41.118	-0.102	-0.052
-205.406	-200.000	-0.006	0.085
-204.392	636.791	-0.162	0.407
-203.377	-77.984	0.171	0.058
-202.363	208.761	0.065	-0.101
-201.348	-86.686	-0.193	0.059
-200.333	249.678	0.196	0.329
-199.319	-200.000	0.065	-0.361
-198.304	127.094	-0.327	-0.411
-197.290	-32.687	0.075	-0.041
-196.275	295.329	-0.096	-0.174
-195.260	54.067	-0.164	-0.156
-194.246	41.808	-0.201	-0.180
-193.231	401.656	0.030	0.063
-192.217	800.000	-0.097	-0.327
-191.202	189.803	0.102	-0.151
-190.187	-35.856	0.145	-0.078
-189.173	-56.496	0.148	0.065
-188.158	-10.867	-0.152	-0.100
-187.144	800.000	0.055	0.211
-186.129	64.621	0.145	0.145
-185.114	-110.175	0.311	0.064
-184.100	-200.000	0.045	-0.285
-183.085	-79.619	-0.246	-0.082
-182.071	75.158	0.240	0.251
-181.056	351.976	-0.134	-0.263
-180.042	800.000	0.111	-0.347
-179.027	-63.671	0.162	-0.066
-178.012	615.565	0.033	-0.081
-176.998	2.704	0.094	0.067
-175.983	-38.882	0.238	-0.124
-174.969	104.627	0.147	0.172
-173.954	535.990	0.042	0.098
-172.939	-94.366	0.191	-0.052
-171.925	-89.123	-0.239	-0.070
-170.910	-97.829	0.590	0.151
-169.896	-200.000	-0.013	0.394
-168.881	207.290	0.105	0.162
-167.866	316.763	0.189	-0.354
-166.852	-85.937	0.161	0.049
-165.837	494.139	-0.050	-0.113
-164.823	-132.370	-0.146	0.019
-163.808	-81.448	-0.091	0.030
-162.793	337.869	0.099	0.191
-161.779	196.473	0.029	0.044
-160.764	30.647	-0.259	0.219
-159.750	208.062	-0.084	-0.130
-158.735	800.000	-0.042	0.174
-157.720	291.732	-0.134	0.242
-156.706	-200.000	0.005	0.272
-155.691	800.000	-0.030	-0.114
-154.677	101.224	0.213	-0.246
-153.662	-101.994	0.091	-0.022
-152.647	800.000	0.103	0.289
-151.633	103.021	-0.198	0.230
-150.618	-90.442	-0.323	-0.093
-149.604	-99.231	-0.083	0.021
-148.589	-200.000	-0.044	-0.219
-147.574	-49.399	-0.219	-0.103
-146.560	8.183	-0.220	-0.163
-145.545	20.244	-0.151	-0.121
-144.531	159.619	-0.178	-0.245
-143.516	458.822	0.095	-0.208
-142.502	164.864	0.127	0.178
-141.487	-200.000	-0.001	0.217
-140.472	-200.000	-0.048	0.364
-139.458	-115.485	0.132	-0.025
-138.443	-4.955	-0.014	0.010
-137.429	-200.000	0.019	-0.371
-136.414	-61.277	-0.081	0.034
-135.399	-132.239	0.009	-0.001
-134.385	-138.004	0.374	0.041
-133.370	792.946	-0.124	-0.337
-132.356	335.387	-0.181	0.347
-131.341	-132.061	-0.472	0.061
-130.326	343.335	0.183	-0.355
-129.312	43.319	0.256	0.231
-128.297	307.368	0.029	-0.054
-127.283	258.758	0.132	0.225
-126.268	-200.000	0.012	-0.134
-125.253	97.479	0.263	-0.299
-124.239	-31.629	0.302	-0.168
-123.224	130.342	0.062	-0.079
-122.210	27.181	0.200	-0.166
-121.195	-95.067	0.196	0.052
