DTS Sentinel unit serial number:	SN413079Multiplexer serial number:	ORYXHardware model number:	OX4-SRSoftware version number:	ORYX F/W v4.00 Oryx Data Collector v3.7.2.0data status	okinstallation	princeton_trtdifferential loss correction	single-endedforward channel	channel 2reverse channel	N/Adate	2019/09/12time	19:17:49forward acquisition time	15.00reverse acquisition time	0.00gamma	496.2192k internal	0.2326k external	0.2326temperature offset calibration	1.0148default loss term (dB/km)	0.3790temperature slope calibration	1.0000multiplexer offset coefficient	1.0000multiplexer slope coefficient	1.0000fibre end	0.00T internal ref (°C)	32.50T ext. ref 1 (°C)	3.20T ext. ref 2 (°C)	27.02length (m)	temperature (°C)	Stokes	anti-Stokes-747.200	-86.263	-0.089	0.028
-746.185	-200.000	0.092	-0.911
-745.171	-55.570	-0.587	0.265
-744.156	399.548	0.454	0.961
-743.142	800.000	-0.031	0.092
-742.127	-106.565	0.315	0.071
-741.112	433.117	0.275	-0.603
-740.098	21.409	-0.699	0.573
-739.083	403.948	-0.301	0.640
-738.069	-115.331	-0.220	-0.042
-737.054	-91.540	-0.802	0.231
-736.039	-161.233	-0.734	0.038
-735.025	17.057	-0.623	0.498
-734.010	13.082	-0.557	-0.435
-732.996	-127.789	-0.420	-0.061
-731.981	-82.465	-0.288	0.094
-730.966	-111.386	-0.485	0.100
-729.952	-90.851	0.343	-0.100
-728.937	-200.000	-0.040	1.089
-727.923	776.687	-0.175	-0.483
-726.908	368.987	-0.227	0.463
-725.894	-117.152	0.327	-0.060
-724.879	-143.474	0.517	-0.050
-723.864	-39.364	-1.191	-0.630
-722.850	154.562	-0.448	-0.620
-721.835	-200.000	0.025	-0.628
-720.821	-200.000	0.043	-0.331
-719.806	-1.692	-0.218	-0.155
-718.791	383.012	0.207	-0.429
-717.777	236.399	0.347	-0.579
-716.762	166.885	-0.515	-0.736
-715.748	16.435	0.584	0.465
-714.733	-150.298	0.229	-0.018
-713.718	-3.523	0.228	0.160
-712.704	625.911	0.041	0.103
-711.689	-35.262	0.446	-0.245
-710.675	34.343	0.464	0.408
-709.660	102.556	0.069	-0.081
-708.645	-44.530	-0.353	-0.178
-707.631	374.977	-0.042	0.086
-706.616	254.974	0.073	-0.126
-705.602	-200.000	0.034	-0.180
-704.587	-200.000	-0.141	1.068
-703.572	-200.000	-0.031	0.357
-702.558	64.891	0.659	0.670
-701.543	-106.085	0.466	-0.106
-700.529	-85.966	0.921	0.287
-699.514	198.282	-0.682	1.050
-698.499	800.000	0.236	0.850
-697.485	-200.000	0.041	-1.254
-696.470	86.565	-0.179	-0.199
-695.456	800.000	0.267	0.763
-694.441	167.334	0.470	0.672
-693.426	-63.726	-0.320	-0.132
-692.412	800.000	-0.206	-0.822
-691.397	-159.139	-0.314	-0.018
-690.383	-171.496	0.864	-0.029
-689.368	-146.540	-0.764	-0.067
-688.354	779.093	-0.291	-0.801
-687.339	83.844	0.644	-0.707
-686.324	-54.509	-0.644	0.294
-685.310	-20.628	0.577	-0.357
-684.295	180.977	0.602	-0.890
-683.281	-145.232	-0.306	0.028
-682.266	-85.400	-0.315	-0.099
-681.251	267.896	0.177	-0.312
-680.237	-22.740	0.134	0.082
-679.222	778.789	-0.302	0.831
-678.208	-200.000	-0.017	-0.346
-677.193	-28.369	0.101	-0.059
-676.178	205.688	0.067	-0.105
-675.164	263.772	0.299	0.523
-674.149	-172.340	-0.237	0.008
-673.135	-18.977	0.540	0.338
-672.120	52.560	-0.453	-0.435
-671.105	633.707	0.161	-0.411
-670.091	-76.068	-0.495	-0.176
-669.076	-73.499	-1.041	-0.382
-668.062	-81.062	0.589	-0.196
-667.047	-85.053	0.129	0.040
-666.032	-200.000	-0.015	-0.885
-665.018	71.161	-0.300	0.313
-664.003	-105.330	-0.735	0.168
-662.989	24.266	-0.177	0.147
-661.974	-50.870	0.550	0.260
-660.959	-50.177	-0.402	0.191
-659.945	-109.644	0.539	-0.114
-658.930	-200.000	-0.033	-0.498
-657.916	-109.592	0.948	-0.201
-656.901	-200.000	-0.096	0.624
-655.886	-123.686	-0.441	0.070
-654.872	-53.541	0.310	-0.143
-653.857	196.325	-0.158	-0.242
-652.843	112.930	-0.277	-0.337
-651.828	800.000	0.068	0.203
-650.814	-200.000	0.163	0.896
-649.799	24.903	-0.147	0.123
-648.784	243.257	-0.488	-0.821
-647.770	4.927	-0.456	-0.337
-646.755	-200.000	-0.054	-1.139
-645.741	-125.346	-0.479	-0.073
-644.726	-200.000	0.030	-0.160
-643.711	-58.252	0.321	0.140
-642.697	41.265	0.379	0.344
-641.682	-100.749	-0.454	-0.112
-640.668	286.454	0.236	0.427
-639.653	114.251	-0.530	-0.648
-638.638	800.000	-0.205	0.829
-637.624	-0.100	0.550	0.394
-636.609	105.678	0.326	0.387
-635.595	-172.007	0.626	0.020
-634.580	176.729	-0.297	-0.433
-633.565	-200.000	-0.028	0.777
-632.551	16.223	-0.593	-0.470
-631.536	85.080	-0.788	0.868
-630.522	-169.373	0.846	-0.031
-629.507	-200.000	0.051	-0.716
-628.492	-69.906	-0.434	0.166
-627.478	336.874	-0.223	-0.435
-626.463	15.308	0.677	0.533
-625.449	800.000	-0.067	-0.281
-624.434	-107.303	-0.225	0.050
-623.419	19.536	0.410	-0.331
-622.405	9.600	0.736	0.559
-621.390	137.988	-0.134	0.176
-620.376	-200.000	0.094	-0.937
-619.361	161.116	0.145	-0.204
-618.346	-58.712	0.716	0.312
-617.332	5.101	0.582	0.430
-616.317	-200.000	0.005	1.162
-615.303	800.000	-0.118	-0.353
-614.288	-102.673	0.903	0.216
-613.273	-93.359	-0.479	-0.133
-612.259	-200.000	-0.106	0.998
-611.244	-177.968	1.045	-0.025
-610.230	-124.251	0.517	0.081
-609.215	-11.237	0.657	-0.435
-608.201	-106.352	0.441	-0.099
-607.186	-200.000	0.025	-0.606
-606.171	-132.629	-0.768	-0.099
-605.157	55.366	0.212	0.206
-604.142	782.350	0.113	0.311
-603.128	39.606	0.543	0.489
-602.113	-133.481	0.484	0.061
-601.098	-200.000	-0.091	-0.495
-600.084	643.109	0.051	-0.131
-599.069	-188.816	0.261	-0.003
-598.055	-85.675	-0.418	0.130
-597.040	-124.287	-0.454	0.071
-596.025	85.378	-0.265	-0.292
-595.011	294.960	-0.448	-0.822
-593.996	-113.245	-0.409	-0.081
-592.982	-163.463	-0.203	-0.010
-591.967	365.902	-0.041	0.083
-590.952	-200.000	0.022	0.377
-589.938	697.203	0.150	0.396
-588.923	220.069	-0.263	0.423
-587.909	-183.804	0.267	0.005
-586.894	173.110	0.169	0.244
-585.879	-128.510	-0.155	-0.022
-584.865	318.376	-0.239	0.454
-583.850	800.000	0.072	0.244
-582.836	145.763	0.359	-0.482
-581.821	-70.635	-0.541	-0.205
-580.806	114.204	-0.128	0.157
-579.792	-132.579	-0.141	-0.018
-578.777	743.375	0.365	0.985
-577.763	-200.000	0.103	0.790
-576.748	35.228	-0.237	-0.209
-575.733	-184.133	-0.723	-0.012
-574.719	35.010	-0.290	-0.254
-573.704	74.102	0.730	-0.768
-572.690	193.041	-0.425	0.643
-571.675	14.083	0.162	0.127
-570.661	800.000	0.184	0.704
-569.646	-107.250	-0.180	-0.040
-568.631	178.336	-0.635	-0.929
-567.617	-200.000	0.042	-0.330
-566.602	510.237	-0.290	-0.675
-565.588	-99.014	0.373	-0.095
-564.573	-200.000	-0.109	-0.000
-563.558	202.032	-0.115	0.177
-562.544	210.411	0.107	-0.168
-561.529	800.000	0.229	-0.900
-560.515	57.507	0.491	0.481
-559.500	33.782	-0.249	0.217
-558.485	800.000	-0.192	-0.824
-557.471	-11.538	0.343	-0.226
-556.456	-200.000	0.245	-1.366
-555.442	64.532	0.373	0.376
-554.427	131.534	0.358	0.460
-553.412	294.667	0.092	0.168
-552.398	95.937	0.347	0.397
-551.383	679.332	-0.282	-0.735
-550.369	3.758	-0.992	-0.725
-549.354	610.723	0.159	-0.397
-548.339	536.466	0.188	-0.447
-547.325	-121.541	0.200	-0.033
-546.310	11.621	-0.318	0.244
-545.296	-8.203	-0.991	-0.668
-544.281	-56.882	0.194	0.086
-543.266	240.583	-0.413	0.689
-542.252	6.310	-0.401	0.298
-541.237	-15.136	0.608	0.390
-540.223	-52.152	-0.414	-0.192
-539.208	-200.000	-0.013	-0.172
-538.193	291.402	0.274	0.499
-537.179	800.000	-0.030	-0.107
-536.164	47.883	-0.384	0.359
-535.150	-117.238	-1.062	-0.193
-534.135	66.814	-0.614	-0.625
-533.121	-148.676	0.786	0.064
-532.106	-54.673	-0.871	0.394
-531.091	-107.406	0.813	0.179
-530.077	-88.478	-0.318	-0.095
-529.062	-200.000	0.116	0.865
-528.048	-200.000	0.075	-0.740
-527.033	119.481	0.412	0.510
-526.018	800.000	-0.255	-0.988
-525.004	-109.941	-0.350	0.073
-523.989	-200.000	0.068	0.741
-522.975	376.285	-0.297	-0.606
-521.960	-28.502	-0.314	0.181
-520.945	375.170	0.090	0.183
-519.931	50.213	-0.395	-0.373
-518.916	-82.927	-0.579	0.187
-517.902	495.008	-0.055	-0.126
-516.887	-88.799	0.275	-0.082
-515.872	52.449	0.308	-0.294
-514.858	136.604	-0.590	0.770
-513.843	-23.973	0.333	0.199
-512.829	128.704	0.106	0.136
-511.814	132.784	0.705	0.910
-510.799	45.624	-0.314	0.290
-509.785	-92.454	-0.406	0.114
-508.770	-162.074	0.429	0.022
-507.756	-74.488	-0.323	-0.116
-506.741	-200.000	-0.071	-0.375
-505.726	19.317	0.497	-0.399
-504.712	142.358	-0.147	-0.195
-503.697	-200.000	-0.040	0.359
-502.683	-200.000	0.108	0.645
-501.668	337.090	0.116	0.226
-500.653	-93.871	-0.532	0.146
-499.639	-200.000	0.065	0.513
-498.624	800.000	-0.196	0.583
-497.610	83.779	-0.469	0.511
-496.595	6.462	-0.115	-0.085
-495.581	311.681	-0.276	-0.517
-494.566	-71.416	0.386	0.144
-493.551	-137.078	-0.543	-0.062
-492.537	136.198	-0.478	0.623
-491.522	-148.845	0.841	0.068
-490.508	416.809	-0.456	-0.972
-489.493	277.459	-0.419	-0.745
-488.478	-45.141	0.271	-0.135
-487.464	313.962	0.251	-0.473
-486.449	-200.000	-0.127	1.028
-485.435	-92.359	0.857	-0.241
-484.420	44.152	-0.643	0.589
-483.405	-200.000	0.054	-0.375
-482.391	-9.159	-0.947	-0.633
-481.376	227.161	0.387	0.627
-480.362	-73.120	0.129	0.047
-479.347	263.342	0.739	-1.281
-478.332	-7.887	0.691	-0.466
-477.318	295.052	0.446	-0.814
-476.303	77.243	0.451	0.478
-475.289	-200.000	-0.072	-0.826
-474.274	-200.000	0.039	-0.676
-473.259	9.621	0.188	0.142
-472.245	-138.650	0.393	-0.043
-471.230	800.000	0.195	-0.633
-470.216	-200.000	-0.771	0.001
-469.201	15.120	0.370	-0.289
-468.186	-200.000	-0.171	-1.236
-467.172	34.200	0.936	-0.814
-466.157	-200.000	-0.109	-0.721
-465.143	-100.220	-0.210	-0.052
-464.128	-55.274	-1.026	-0.460
-463.113	-200.000	0.017	-0.289
-462.099	-195.547	0.499	0.004
-461.084	-121.085	-0.912	0.153
-460.070	425.666	0.307	0.660
-459.055	-200.000	-0.042	0.228
-458.040	147.078	0.494	-0.662
-457.026	-101.347	0.109	0.026
-456.011	-68.052	0.773	-0.300
-454.997	-72.803	0.018	0.007
-453.982	-16.126	-0.313	-0.198
-452.968	-176.455	-0.355	0.009
-451.953	-115.262	0.712	0.134
-450.938	-54.925	0.387	-0.174
-449.924	-90.327	-0.500	0.145
-448.909	736.326	0.016	0.043
-447.895	-200.000	-0.038	0.454
-446.880	188.460	0.414	0.618
-445.865	-64.094	0.432	-0.176
-444.851	-42.671	0.503	0.255
-443.836	-200.000	-0.041	-0.235
-442.822	-82.024	0.985	-0.321
-441.807	-174.702	-0.668	0.019
-440.792	307.246	0.524	0.973
-439.778	-24.034	-0.935	-0.557
-438.763	-200.000	-0.050	0.228
-437.749	-77.055	-0.515	0.179
-436.734	-11.366	0.324	-0.213
-435.719	104.878	-0.040	0.046
-434.705	-65.108	0.712	0.286
-433.690	26.243	0.635	-0.529
-432.676	-63.732	-0.254	0.104
-431.661	27.091	-0.191	0.160
-430.646	-200.000	-0.009	1.037
-429.632	333.214	0.339	-0.652
-428.617	-200.000	-0.095	0.798
-427.603	-200.000	0.035	0.481
-426.588	-200.000	-0.030	-0.167
-425.573	-82.969	0.806	0.259
-424.559	-30.634	0.430	-0.242
-423.544	-125.515	0.363	-0.055
-422.530	800.000	0.067	-0.255
-421.515	-111.836	0.668	0.134
-420.500	-200.000	0.053	-0.348
-419.486	-200.000	0.055	0.562
-418.471	450.678	0.272	-0.598
-417.457	-175.702	-0.217	-0.006
-416.442	-148.874	0.454	0.037
-415.428	-50.705	0.717	-0.336
-414.413	-200.000	-0.053	0.311
-413.398	-125.146	0.674	0.103
-412.384	4.527	-0.110	0.080
-411.369	352.238	-0.207	-0.408
-410.355	-50.785	-0.113	0.053
-409.340	75.710	-0.268	0.282
-408.325	583.650	0.143	-0.349
-407.311	-72.895	-0.388	-0.142
-406.296	225.604	0.125	-0.202
-405.282	800.000	0.171	0.676
-404.267	-178.711	0.375	-0.009
-403.252	-159.492	0.537	-0.030
-402.238	-123.706	-0.068	0.011
-401.223	-159.450	-0.841	-0.047
-400.209	-140.588	0.703	-0.073
-399.194	-164.471	0.844	0.038
-398.179	145.684	-0.576	0.769
-397.165	629.744	0.073	0.183
-396.150	-64.327	0.305	-0.124
-395.136	-86.602	-0.394	-0.120
-394.121	-75.484	-0.699	0.248
-393.106	46.229	0.661	0.610
-392.092	-59.464	-0.320	0.137
-391.077	123.240	-0.608	0.758
-390.063	46.912	-0.263	0.243
-389.048	800.000	-0.200	0.844
-388.033	-60.060	-0.302	-0.128
-387.019	-88.846	0.465	-0.137
-386.004	324.270	-0.231	-0.439
-384.990	-84.745	0.983	-0.308
-383.975	380.848	-0.187	0.382
-382.960	800.000	0.117	0.496
-381.946	117.350	0.711	0.870
-380.931	-200.000	-0.054	0.593
-379.917	-106.805	-0.552	0.122
-378.902	800.000	0.090	-0.279
-377.888	-200.000	-0.049	0.583
-376.873	-74.308	0.257	0.092
-375.858	-200.000	-0.103	-0.562
-374.844	-98.196	-0.779	-0.199
-373.829	-21.782	0.238	-0.144
-372.815	291.610	-0.389	-0.704
-371.800	800.000	-0.157	0.540
-370.785	105.541	0.252	-0.296
-369.771	-200.000	-0.046	0.267
-368.756	-200.000	0.091	0.469
-367.742	2.214	0.149	0.107
-366.727	800.000	0.126	-0.408
-365.712	-200.000	0.106	0.569
-364.698	482.993	-0.415	0.939
-363.683	-200.000	0.047	-0.441
-362.669	120.184	-0.178	-0.220
-361.654	-200.000	0.013	-0.209
-360.639	800.000	0.159	-0.622
-359.625	236.311	0.207	0.341
-358.610	34.804	0.271	0.236
-357.596	-155.696	0.575	0.037
-356.581	-82.506	0.823	-0.265
-355.566	-106.137	0.518	-0.116
-354.552	-165.711	0.671	0.029
-353.537	381.181	0.283	-0.577
-352.523	-56.601	-0.727	0.320
-351.508	-56.900	0.182	0.080
-350.493	800.000	0.197	0.622
-349.479	-69.973	0.325	-0.123
-348.464	-15.197	-0.827	-0.526
-347.450	-200.000	0.084	0.386
-346.435	-200.000	0.042	-0.320
-345.420	271.794	-0.371	-0.649
-344.406	-47.454	0.833	0.402
-343.391	401.713	-0.115	0.240
-342.377	-119.339	-0.343	-0.059
-341.362	-58.360	-0.315	0.136
-340.348	-14.485	0.662	0.423
-339.333	291.271	0.093	-0.167
-338.318	54.074	-0.512	0.489
-337.304	9.596	0.260	-0.196
-336.289	715.848	0.064	0.170
-335.275	241.226	-0.307	-0.509
-334.260	800.000	-0.144	-0.611
-333.245	-178.575	0.429	0.010
-332.231	-40.257	-0.792	0.409
-331.216	91.721	-0.536	-0.598
-330.202	-200.000	0.102	-0.765
-329.187	-62.353	0.216	0.089
-328.172	-88.127	0.539	-0.161
-327.158	79.931	0.365	0.389
-326.143	116.282	-0.287	-0.349
-325.129	143.076	-0.098	0.130
-324.114	15.670	-0.416	-0.325
-323.099	-200.000	-0.003	-0.070
-322.085	51.507	-0.308	-0.291
-321.070	-127.257	-0.427	0.062
-320.056	-118.636	0.446	0.078
-319.041	198.721	-0.545	-0.827
-318.026	754.687	0.364	0.977
-317.012	39.495	0.305	0.271
-315.997	98.211	0.490	-0.559
-314.983	340.678	-0.394	0.763
-313.968	73.399	-0.510	-0.529
-312.953	754.351	0.125	0.335
-311.939	-200.000	-0.005	-0.215
-310.924	-200.000	-0.119	0.647
-309.910	261.546	-0.562	0.965
-308.895	-53.324	0.201	0.091
-307.880	-30.641	-0.271	-0.152
-306.866	79.317	-0.084	-0.090
-305.851	465.427	-0.235	0.522
-304.837	-95.844	-0.673	-0.178
-303.822	800.000	-0.117	0.364
-302.807	217.230	-0.149	-0.236
-301.793	-22.069	-0.304	0.183
-300.778	-200.000	0.126	0.880
-299.764	-200.000	-0.014	0.240
-298.749	425.152	0.163	0.349
-297.735	-1.631	-0.430	-0.301
-296.720	-200.000	0.021	-0.314
-295.705	-32.728	0.437	0.241
-294.691	-119.786	0.458	-0.078
-293.676	238.008	-0.589	-0.968
-292.662	-196.306	-1.034	0.007
-291.647	-200.000	0.055	-0.956
-290.632	112.000	0.369	0.441
-289.618	-105.980	-0.188	0.042
-288.603	-200.000	-0.075	0.475
-287.589	149.305	0.403	0.541
-286.574	-29.896	0.338	0.191
-285.559	-126.075	-0.375	-0.056
-284.545	-41.917	0.701	0.356
-283.530	800.000	0.183	0.690
-282.516	-5.154	-0.618	-0.421
-281.501	-97.825	0.596	-0.153
-280.486	7.059	0.294	-0.217
-279.472	-54.080	0.622	-0.280
-278.457	800.000	0.281	0.791
-277.443	91.652	-0.307	0.342
-276.428	-11.126	-0.787	0.514
-275.413	-200.000	0.000	-0.204
-274.399	104.446	0.073	0.085
-273.384	27.887	-0.398	0.332
-272.370	-74.334	-0.185	-0.066
-271.355	800.000	-0.031	0.105
-270.340	160.057	0.228	0.314
-269.326	167.782	-0.519	-0.731
-268.311	165.281	-0.069	-0.096
-267.297	261.178	0.101	0.173
-266.282	-38.025	-0.307	-0.161
-265.267	-200.000	-0.112	1.014
-264.253	-124.434	0.700	0.108
-263.238	-200.000	-0.128	0.780
-262.224	-200.000	-0.463	-0.002
-261.209	800.000	-0.099	0.374
-260.195	40.869	0.228	-0.203
-259.180	42.339	-0.218	0.196
-258.165	59.477	-0.331	0.323
-257.151	241.237	0.554	0.915
-256.136	-76.645	0.030	-0.010
-255.122	63.027	-0.485	-0.480
-254.107	-200.000	0.012	0.089
-253.092	459.322	0.263	-0.580
-252.078	799.158	0.215	-0.586
-251.063	-17.963	-0.219	0.136
-250.049	-166.648	0.925	0.038
-249.034	-200.000	0.035	0.188
-248.019	115.231	0.095	-0.115
-247.005	11.098	-0.327	-0.247
-245.990	-23.106	0.438	-0.261
-244.976	-42.634	-0.530	0.267
-243.961	-98.378	-0.156	0.040
-242.946	-31.649	-0.449	-0.249
-241.932	4.995	0.389	0.283
-240.917	340.055	0.411	-0.794
-239.903	511.548	0.221	0.510
-238.888	800.000	-0.171	-0.597
-237.873	713.999	0.464	-1.217
-236.859	212.852	-0.338	-0.528
-235.844	456.348	0.328	0.720
-234.830	-200.000	-0.036	-0.240
-233.815	487.705	-0.276	-0.622
-232.800	619.378	0.037	0.092
-231.786	-10.940	-0.911	-0.595
-230.771	34.541	0.368	0.318
-229.757	586.330	-0.127	0.309
-228.742	256.805	0.499	0.847
-227.727	800.000	0.075	0.248
-226.713	350.688	-0.364	-0.712
-225.698	-27.972	-0.544	0.311
-224.684	-31.508	-0.540	-0.300
-223.669	-11.456	0.676	-0.440
-222.655	-109.080	-0.492	0.104
-221.640	-91.179	-0.323	0.091
-220.625	-27.226	-0.240	-0.138
-219.611	-184.922	-0.333	-0.005
-218.596	-72.206	0.475	-0.174
-217.582	155.319	0.061	-0.083
-216.567	800.000	-0.174	0.566
-215.552	177.730	-0.370	0.532
-214.538	-57.676	-0.791	0.342
-213.523	759.368	-0.186	0.498
-212.509	-124.798	0.154	0.023
-211.494	-119.230	0.846	0.146
-210.479	-161.207	0.885	0.045
-209.465	-99.355	-0.423	-0.105
-208.450	800.000	-0.077	0.319
-207.436	327.187	-0.145	-0.274
-206.421	233.859	0.216	-0.351
-205.406	-145.887	0.298	-0.026
-204.392	800.000	-0.091	-0.297
-203.377	399.770	-0.470	-0.974
-202.363	88.332	0.132	0.144
-201.348	106.930	0.435	-0.510
-200.333	-200.000	-0.030	-0.277
-199.319	-200.000	-0.014	0.850
-198.304	-104.682	0.892	-0.203
-197.290	-124.862	0.291	0.044
-196.275	32.637	-0.567	-0.484
-195.260	-160.086	-0.241	0.013
-194.246	18.823	0.870	-0.688
-193.231	-200.000	-0.037	-0.649
-192.217	69.297	-0.490	-0.497
-191.202	184.428	-0.660	0.965
-190.187	212.729	0.468	-0.729
-189.173	-85.866	0.596	-0.182
-188.158	-200.000	-0.118	-0.579
-187.144	-70.876	0.461	0.172
-186.129	-120.475	-0.809	-0.136
-185.114	-35.179	-0.499	0.268
-184.100	67.876	0.517	-0.522
-183.085	-49.725	-0.434	-0.204
-182.071	-156.916	-1.626	0.098
-181.056	-67.515	-0.709	-0.275
-180.042	-79.993	0.412	0.136
-179.027	-200.000	-0.138	-0.706
-178.012	-27.209	0.477	-0.274
-176.998	-81.097	-0.264	-0.086
-175.983	243.952	0.145	0.240
-174.969	-133.721	-1.247	0.154
-173.954	800.000	-0.131	-0.377
-172.939	-95.334	0.952	0.253
-171.925	699.257	-0.338	-0.876
-170.910	-200.000	-0.082	-0.449
-169.896	-39.478	-0.221	0.114
-168.881	127.433	-0.824	1.031
-167.866	389.902	-0.361	0.739
-166.852	800.000	0.186	0.551
-165.837	-49.229	0.346	-0.163
-164.823	800.000	-0.356	-1.011
-163.808	112.455	-0.498	-0.594
-162.793	83.815	-0.510	0.549
-161.779	27.423	0.338	0.280
-160.764	-156.206	0.393	0.024
-159.750	800.000	-0.160	0.515
-158.735	-200.000	0.134	0.814
-157.720	-78.638	-0.333	-0.112
-156.706	-113.253	0.667	-0.129
-155.691	120.950	-0.339	0.415
-154.677	-103.601	-0.586	-0.136
-153.662	-164.684	0.947	0.042
-152.647	-157.321	-1.257	0.075
-151.633	-53.207	0.782	-0.354
-150.618	-180.923	-0.295	-0.006
-149.604	86.045	0.315	0.342
-148.589	800.000	-0.121	0.462
-147.574	-18.790	-0.124	-0.076
-146.560	364.604	-0.026	-0.052
-145.545	41.545	0.329	-0.293
-144.531	-148.168	0.505	0.041
-143.516	60.705	-0.346	0.338
-142.502	738.089	0.255	-0.675
-141.487	-22.590	0.226	0.135
-140.472	800.000	-0.118	-0.325
-139.458	-104.239	0.416	0.095
-138.443	123.754	-0.482	0.596
-137.429	-101.086	-0.622	-0.150
-136.414	571.170	0.241	-0.579
-135.399	-55.613	-0.195	-0.086
-134.385	-82.399	0.405	0.130
-133.370	-7.464	-0.731	0.487
-132.356	365.233	0.099	-0.196
-131.341	-0.765	0.678	-0.473
-130.326	-68.961	0.764	-0.290
-129.312	-84.474	-0.564	0.175
-128.297	-112.508	-1.144	-0.225
-127.283	-122.091	-0.812	0.131
-126.268	300.293	0.094	-0.170
-125.253	-101.342	-0.044	0.011
-124.239	332.447	0.079	0.150
-123.224	-150.311	-1.009	-0.077
-122.210	-200.000	0.013	-0.167
