DTS Sentinel unit serial number:	SN413079Multiplexer serial number:	ORYXHardware model number:	OX4-SRSoftware version number:	ORYX F/W v4.00 Oryx Data Collector v3.7.2.0data status	okinstallation	princeton_trtdifferential loss correction	single-endedforward channel	channel 2reverse channel	N/Adate	2019/09/14time	11:15:35forward acquisition time	60.00reverse acquisition time	0.00gamma	496.2192k internal	0.2312k external	0.2312temperature offset calibration	1.0149default loss term (dB/km)	0.3790temperature slope calibration	1.0000multiplexer offset coefficient	1.0000multiplexer slope coefficient	1.0000fibre end	0.00T internal ref (°C)	36.56T ext. ref 1 (°C)	4.48T ext. ref 2 (°C)	33.36length (m)	temperature (°C)	Stokes	anti-Stokes-747.200	2.427	-0.135	-0.099
-746.185	120.215	0.087	0.110
-745.171	485.625	0.125	-0.288
-744.156	-200.000	0.017	-0.104
-743.142	-70.851	-0.322	-0.123
-742.127	-40.274	-0.301	0.159
-741.112	-77.002	0.208	-0.074
-740.098	670.347	-0.015	0.040
-739.083	-107.796	-0.120	0.027
-738.069	-200.000	-0.053	0.293
-737.054	206.286	0.085	0.134
-736.039	-200.000	-0.042	-0.187
-735.025	226.502	0.178	0.293
-734.010	-147.253	-0.232	0.020
-732.996	243.224	-0.112	0.190
-731.981	-33.625	0.126	-0.070
-730.966	-200.000	-0.033	-0.149
-729.952	-147.689	-0.490	-0.042
-728.937	391.542	-0.157	-0.331
-727.923	800.000	0.018	-0.057
-726.908	-127.057	0.232	0.035
-725.894	-112.792	-0.434	-0.087
-724.879	-13.859	-0.105	-0.069
-723.864	140.712	0.193	-0.258
-722.850	-119.515	-0.209	-0.037
-721.835	148.157	-0.248	-0.339
-720.821	-20.926	-0.192	-0.119
-719.806	264.080	-0.060	0.105
-718.791	404.849	-0.130	-0.277
-717.777	606.407	-0.062	0.157
-716.762	7.184	0.040	0.030
-715.748	-200.000	0.020	-0.284
-714.733	800.000	0.065	0.194
-713.718	-200.000	-0.040	0.256
-712.704	-8.586	-0.426	0.290
-711.689	42.789	-0.123	-0.113
-710.675	4.354	0.118	0.088
-709.660	18.243	0.127	0.103
-708.645	433.776	0.080	-0.176
-707.631	-200.000	-0.005	-0.126
-706.616	-76.162	-0.492	-0.176
-705.602	-108.268	0.314	0.069
-704.587	15.356	0.227	-0.180
-703.572	671.151	-0.027	-0.071
-702.558	-200.000	-0.037	-0.238
-701.543	662.969	0.047	-0.122
-700.529	800.000	-0.054	-0.189
-699.514	497.888	0.109	0.253
-698.499	117.117	-0.077	0.096
-697.485	585.614	-0.059	0.147
-696.470	-100.895	0.223	0.056
-695.456	-180.386	0.197	0.004
-694.441	-79.075	-0.289	0.100
-693.426	-51.259	-0.283	-0.134
-692.412	-35.124	-0.288	0.159
-691.397	-147.055	0.022	-0.002
-690.383	553.245	0.088	0.213
-689.368	99.686	0.157	0.184
-688.354	-146.049	-0.179	0.016
-687.339	-200.000	-0.039	0.304
-686.324	800.000	0.051	0.202
-685.310	800.000	-0.064	0.210
-684.295	-37.975	0.280	-0.151
-683.281	-143.006	-0.321	0.031
-682.266	-92.467	-0.158	0.045
-681.251	-200.000	-0.048	0.251
-680.237	800.000	-0.092	-0.336
-679.222	227.663	0.085	-0.140
-678.208	544.779	0.111	0.268
-677.193	671.835	0.008	0.021
-676.178	-51.951	-0.117	-0.055
-675.164	34.789	0.174	-0.154
-674.149	-114.686	0.329	0.064
-673.135	2.013	0.178	0.130
-672.120	-200.000	0.016	0.145
-671.105	-16.467	-0.302	-0.194
-670.091	561.993	0.166	-0.406
-669.076	-83.431	-0.143	-0.046
-668.062	603.513	-0.137	0.345
-667.047	300.267	-0.041	-0.076
-666.032	132.302	0.046	-0.061
-665.018	-17.927	-0.098	0.062
-664.003	-115.393	0.141	-0.027
-662.989	107.730	-0.148	0.179
-661.974	-51.450	-0.236	0.111
-660.959	-63.710	-0.252	-0.105
-659.945	243.240	-0.241	0.409
-658.930	400.224	-0.188	-0.398
-657.916	57.551	-0.080	-0.079
-656.901	-120.800	-0.127	0.022
-655.886	-19.536	0.213	0.134
-654.872	-200.000	-0.009	-0.041
-653.857	188.142	-0.279	0.422
-652.843	76.376	0.138	0.148
-651.828	3.506	0.297	0.219
-650.814	-7.250	0.101	-0.069
-649.799	34.843	-0.086	0.076
-648.784	82.146	0.140	-0.153
-647.770	-46.965	-0.167	0.083
-646.755	-200.000	0.045	-0.363
-645.741	-96.774	-0.300	0.080
-644.726	133.823	-0.196	0.256
-643.711	800.000	-0.011	0.042
-642.697	167.310	0.159	-0.229
-641.682	-139.389	-0.270	0.029
-640.668	186.530	-0.105	-0.158
-639.653	-200.000	0.019	-0.234
-638.638	-38.959	-0.304	-0.162
-637.624	31.130	0.191	0.166
-636.609	246.383	0.110	0.188
-635.595	-58.260	-0.159	0.070
-634.580	-134.858	0.028	0.003
-633.565	-111.363	-0.168	0.035
-632.551	800.000	0.044	0.135
-631.536	-95.342	-0.103	0.028
-630.522	27.130	-0.375	-0.318
-629.507	-200.000	0.028	0.245
-628.492	387.846	-0.098	0.204
-627.478	-104.353	0.599	0.140
-626.463	-171.278	-0.075	-0.003
-625.449	91.594	0.125	-0.142
-624.434	-1.395	-0.340	0.242
-623.419	-22.038	0.151	0.092
-622.405	-200.000	-0.063	0.480
-621.390	11.284	0.042	0.032
-620.376	-44.776	0.145	0.073
-619.361	-49.963	0.184	-0.088
-618.346	10.888	0.063	-0.048
-617.332	-107.298	0.044	0.010
-616.317	-42.063	0.210	0.109
-615.303	-10.475	0.342	-0.229
-614.288	77.225	-0.240	-0.257
-613.273	141.410	0.146	-0.195
-612.259	-134.090	0.288	0.036
-611.244	-128.497	-0.177	-0.025
-610.230	-136.564	-0.124	-0.015
-609.215	325.718	-0.106	0.205
-608.201	9.540	0.099	-0.076
-607.186	-200.000	-0.037	-0.550
-606.171	-13.144	0.073	-0.048
-605.157	-0.858	-0.323	0.231
-604.142	483.978	0.015	-0.035
-603.128	219.987	-0.038	-0.061
-602.113	100.833	0.226	0.265
-601.098	11.995	-0.073	-0.057
-600.084	210.564	-0.123	-0.194
-599.069	-200.000	-0.068	0.354
-598.055	-200.000	-0.069	0.338
-597.040	800.000	-0.077	0.241
-596.025	-114.169	0.113	-0.022
-595.011	-103.511	0.041	0.010
-593.996	-69.187	0.228	-0.088
-592.982	-60.329	0.675	0.290
-591.967	-200.000	0.028	0.299
-590.952	230.585	0.017	-0.029
-589.938	-200.000	0.022	0.139
-588.923	-200.000	0.046	-0.237
-587.909	-200.000	0.004	0.029
-586.894	-28.826	0.231	-0.134
-585.879	-200.000	0.017	-0.400
-584.865	-59.952	0.100	0.043
-583.850	38.320	0.093	-0.083
-582.836	-36.064	-0.358	-0.195
-581.821	-83.732	-0.597	0.192
-580.806	-170.116	0.174	-0.006
-579.792	-133.909	0.120	0.015
-578.777	219.928	0.002	0.003
-577.763	279.898	0.052	-0.094
-576.748	449.551	0.055	0.123
-575.733	765.798	0.043	0.116
-574.719	-31.372	0.493	-0.280
-573.704	-15.142	-0.222	0.143
-572.690	-35.136	-0.105	-0.058
-571.675	10.273	-0.128	0.098
-570.661	800.000	-0.108	0.442
-569.646	-42.040	0.199	-0.103
-568.631	-3.829	-0.281	0.197
-567.617	22.872	0.418	-0.346
-566.602	800.000	-0.080	-0.297
-565.588	-62.778	-0.278	-0.116
-564.573	-94.621	0.263	0.072
-563.558	-45.467	-0.525	-0.262
-562.544	-112.669	0.179	0.036
-561.529	3.172	-0.103	0.076
-560.515	68.149	0.199	0.206
-559.500	250.191	-0.132	0.225
-558.485	1.797	-0.257	0.187
-557.471	-57.116	-0.200	-0.089
-556.456	326.597	-0.111	-0.214
-555.442	-154.752	-0.158	0.011
-554.427	594.241	-0.040	-0.101
-553.412	800.000	-0.093	-0.280
-552.398	-112.597	0.260	0.052
-551.383	-200.000	-0.021	0.192
-550.369	379.591	0.052	-0.107
-549.354	93.242	0.161	0.183
-548.339	631.814	-0.113	-0.287
-547.325	-149.947	-0.074	0.006
-546.310	-144.578	-0.260	0.024
-545.296	-146.061	-0.235	-0.021
-544.281	19.492	-0.068	-0.055
-543.266	166.823	0.088	-0.126
-542.252	-10.821	0.237	-0.158
-541.237	108.476	-0.106	0.128
-540.223	800.000	0.101	0.358
-539.208	-56.820	0.230	-0.102
-538.193	-200.000	-0.102	-0.559
-537.179	17.654	0.037	0.030
-536.164	-92.892	0.287	0.081
-535.150	-43.474	0.252	0.128
-534.135	800.000	-0.091	0.322
-533.121	-81.722	0.067	-0.022
-532.106	-132.385	0.164	-0.021
-531.091	800.000	-0.076	0.314
-530.077	-18.571	0.370	0.232
-529.062	800.000	-0.060	0.216
-528.048	-157.975	-0.270	-0.016
-527.033	-200.000	0.024	0.168
-526.018	800.000	-0.025	-0.077
-525.004	439.245	0.052	0.114
-523.989	-106.617	0.179	-0.040
-522.975	-200.000	-0.027	-0.155
-521.960	314.282	0.046	-0.087
-520.945	-12.226	-0.201	-0.132
-519.931	800.000	0.039	-0.137
-518.916	65.476	-0.078	-0.080
-517.902	-19.119	-0.141	0.088
-516.887	15.956	0.103	-0.082
-515.872	273.580	-0.210	-0.374
-514.858	-112.376	-0.139	-0.028
-513.843	800.000	0.018	0.052
-512.829	-199.247	-0.276	0.001
-511.814	-200.000	-0.008	0.069
-510.799	-139.749	0.172	-0.018
-509.785	-177.746	-0.189	-0.005
-508.770	207.566	-0.240	0.377
-507.756	343.328	-0.086	-0.169
-506.741	-110.048	-0.028	-0.006
-505.726	115.547	0.246	-0.303
-504.712	800.000	-0.056	-0.183
-503.697	244.732	-0.178	0.301
-502.683	-51.602	0.282	0.132
-501.668	-132.069	-0.427	-0.056
-500.653	-128.524	0.106	0.015
-499.639	800.000	0.081	0.314
-498.624	-147.224	0.142	-0.012
-497.610	-104.632	0.145	0.034
-496.595	750.872	0.031	0.085
-495.581	800.000	0.091	0.279
-494.566	348.091	-0.187	0.371
-493.551	-18.786	0.379	0.237
-492.537	-105.649	-0.290	-0.066
-491.522	54.719	-0.087	0.084
-490.508	115.807	-0.056	-0.069
-489.493	-94.199	0.063	-0.017
-488.478	800.000	-0.146	-0.438
-487.464	-85.272	-0.199	-0.062
-486.449	800.000	0.040	0.172
-485.435	43.944	-0.222	-0.205
-484.420	182.115	0.075	-0.111
-483.405	-71.710	-0.182	0.068
-482.391	458.302	0.156	0.349
-481.376	27.152	-0.214	0.180
-480.362	800.000	0.028	-0.101
-479.347	-99.575	0.153	-0.039
-478.332	-109.373	0.424	-0.090
-477.318	-23.797	0.063	0.038
-476.303	800.000	-0.031	-0.098
-475.289	800.000	-0.081	-0.281
-474.274	-200.000	0.011	0.223
-473.259	-145.892	-0.200	0.018
-472.245	800.000	0.053	0.181
-471.230	800.000	-0.030	0.105
-470.216	101.950	0.102	-0.119
-469.201	207.194	-0.138	0.216
-468.186	16.294	0.202	-0.160
-467.172	126.174	0.056	0.071
-466.157	-25.800	-0.130	0.077
-465.143	-170.772	-0.190	0.007
-464.128	-198.259	-0.103	-0.001
-463.113	-22.331	-0.208	0.126
-462.099	55.699	-0.116	0.113
-461.084	-89.791	0.155	-0.046
-460.070	10.759	-0.116	0.089
-459.055	241.418	-0.106	0.178
-458.040	-180.126	-0.266	0.006
-457.026	685.635	-0.069	-0.181
-456.011	585.771	-0.146	0.361
-454.997	800.000	-0.141	-0.450
-453.982	84.714	-0.150	-0.164
-452.968	78.349	-0.211	-0.226
-451.953	800.000	0.097	-0.346
-450.938	-77.302	0.164	0.057
-449.924	-200.000	-0.038	-0.248
-448.909	-200.000	0.003	0.029
-447.895	-138.020	-0.238	-0.027
-446.880	259.515	-0.092	0.160
-445.865	-200.000	0.043	-0.217
-444.851	114.090	0.124	-0.151
-443.836	162.303	0.048	-0.067
-442.822	11.121	0.273	-0.209
-441.807	148.230	-0.121	-0.163
-440.792	-200.000	-0.020	0.122
-439.778	-127.990	-0.190	-0.027
-438.763	-200.000	0.040	-0.605
-437.749	-14.400	-0.307	-0.198
-436.734	-200.000	-0.017	-0.208
-435.719	7.801	0.122	-0.092
-434.705	-200.000	0.027	0.182
-433.690	123.545	0.022	0.027
-432.676	-44.856	0.158	0.079
-431.661	-127.977	-0.055	-0.008
-430.646	83.283	-0.225	-0.245
-429.632	-14.426	-0.103	-0.067
-428.617	-106.778	0.034	0.008
-427.603	-200.000	-0.008	-0.193
-426.588	78.140	0.152	-0.162
-425.573	240.744	0.244	0.408
-424.559	-20.127	-0.149	0.092
-423.544	46.059	-0.149	0.138
-422.530	-16.800	0.240	-0.152
-421.515	-200.000	-0.052	0.243
-420.500	-2.485	-0.218	-0.153
-419.486	-200.000	-0.061	-0.320
-418.471	412.746	-0.088	-0.187
-417.457	-44.957	0.170	-0.085
-416.442	-200.000	-0.031	-0.216
-415.428	380.730	-0.032	0.066
-414.413	-34.507	0.203	0.111
-413.398	-94.200	0.108	-0.030
-412.384	-150.579	0.239	0.018
-411.369	-156.293	-0.132	0.008
-410.355	-200.000	-0.017	-0.139
-409.340	396.241	0.008	-0.017
-408.325	-19.493	-0.061	-0.038
-407.311	-200.000	0.005	-0.408
-406.296	-70.344	-0.305	-0.116
-405.282	-200.000	0.018	-0.217
-404.267	-116.122	-0.260	0.048
-403.252	87.681	-0.143	0.159
-402.238	-200.000	-0.040	0.242
-401.223	-78.839	0.409	-0.139
-400.209	800.000	0.074	0.273
-399.194	263.378	0.142	-0.247
-398.179	57.378	0.145	-0.142
-397.165	184.297	-0.032	-0.047
-396.150	-73.086	0.325	0.119
-395.136	-200.000	-0.002	0.085
-394.121	368.908	0.038	0.077
-393.106	-193.118	-0.134	-0.001
-392.092	-200.000	0.135	0.000
-391.077	800.000	0.021	-0.069
-390.063	-131.563	-0.169	0.022
-389.048	-54.791	-0.271	-0.122
-388.033	800.000	-0.091	-0.394
-387.019	-61.106	0.445	0.188
-386.004	-200.000	0.058	0.265
-384.990	-200.000	0.016	-0.148
-383.975	-90.732	0.282	0.081
-382.960	-11.741	0.236	-0.155
-381.946	56.274	-0.229	-0.223
-380.931	521.576	0.032	0.075
-379.917	-58.856	0.203	0.088
-378.902	109.762	-0.046	-0.055
-377.888	380.671	-0.067	-0.138
-376.873	-200.000	0.090	0.406
-375.858	272.068	0.084	0.148
-374.844	298.650	-0.128	0.236
-373.829	-200.000	-0.014	-0.177
-372.815	-200.000	-0.061	-0.287
-371.800	-55.359	-0.306	-0.137
-370.785	-88.563	0.525	0.157
-369.771	160.073	-0.035	0.049
-368.756	-52.289	0.209	-0.097
-367.742	-54.690	0.067	0.030
-366.727	6.221	0.032	-0.024
-365.712	-141.799	-0.092	0.009
-364.698	-200.000	-0.068	0.487
-363.683	71.449	-0.124	-0.129
-362.669	-200.000	0.031	-0.224
-361.654	93.386	0.217	-0.246
-360.639	-200.000	-0.001	-0.075
-359.625	-200.000	-0.003	0.086
-358.610	-140.421	-0.021	0.002
-357.596	10.814	0.151	-0.115
-356.581	-165.681	-0.202	0.009
-355.566	-22.401	0.265	0.160
-354.552	95.689	0.243	-0.278
-353.537	-3.098	-0.141	0.098
-352.523	212.533	-0.166	0.261
-351.508	-200.000	-0.039	-0.228
-350.493	800.000	-0.078	0.228
-349.479	-134.618	0.151	-0.018
-348.464	174.131	-0.154	0.222
-347.450	38.780	0.062	-0.055
-346.435	800.000	0.104	0.411
-345.420	-46.634	-0.117	-0.057
-344.406	84.468	-0.148	-0.161
-343.391	-171.635	0.044	-0.001
-342.377	18.093	-0.085	-0.068
-341.362	-104.914	0.097	-0.022
-340.348	-141.935	-0.158	-0.016
-339.333	-71.452	-0.136	-0.051
-338.318	800.000	-0.039	0.144
-337.304	274.271	-0.097	0.172
-336.289	19.122	0.056	-0.045
-335.275	-200.000	0.047	-0.211
-334.260	107.570	-0.192	0.228
-333.245	800.000	0.040	-0.119
-332.231	65.343	-0.155	-0.157
-331.216	26.260	-0.139	-0.116
-330.202	300.955	0.159	0.293
-329.187	-27.264	-0.183	-0.106
-328.172	-58.463	-0.338	-0.147
-327.158	226.385	0.127	-0.205
-326.143	-200.000	-0.010	0.314
-325.129	-200.000	-0.047	0.333
-324.114	-90.537	0.195	-0.056
-323.099	-200.000	0.013	-0.244
-322.085	-82.748	-0.063	-0.020
-321.070	44.676	-0.199	-0.183
-320.056	87.372	-0.078	-0.086
-319.041	188.036	-0.081	-0.121
-318.026	-111.380	0.201	-0.041
-317.012	-200.000	-0.002	-0.205
-315.997	-54.017	-0.137	0.062
-314.983	62.392	0.084	-0.083
-313.968	-200.000	-0.035	0.254
-312.953	572.059	-0.048	0.115
-311.939	61.940	-0.251	0.250
-310.924	4.530	-0.240	0.176
-309.910	-200.000	0.017	-0.107
-308.895	437.898	0.104	0.227
-307.880	-175.579	0.225	-0.006
-306.866	152.372	0.168	0.229
-305.851	163.352	0.270	0.379
-304.837	-9.741	-0.101	-0.067
-303.822	-129.048	-0.276	0.039
-302.807	-74.516	-0.570	-0.205
-301.793	-64.157	0.394	0.160
-300.778	-88.344	-0.116	-0.035
-299.764	135.586	-0.177	-0.229
-298.749	145.086	0.210	0.280
-297.735	800.000	-0.020	0.065
-296.720	800.000	0.050	0.184
-295.705	-200.000	-0.022	-0.101
-294.691	63.540	0.062	0.062
-293.676	-162.114	0.187	0.009
-292.662	274.052	-0.088	-0.156
-291.647	46.837	-0.183	-0.169
-290.632	-36.560	0.150	0.080
-289.618	800.000	0.067	-0.201
-288.603	66.164	-0.274	0.277
-287.589	273.924	-0.087	0.154
-286.574	12.822	-0.070	0.054
-285.559	-47.447	0.122	-0.059
-284.545	196.289	-0.200	-0.304
-283.530	97.540	-0.113	0.129
-282.516	170.923	0.122	-0.175
-281.501	-133.807	0.307	0.038
-280.486	800.000	-0.074	-0.247
-279.472	-72.911	0.088	-0.032
-278.457	-99.158	0.085	0.021
-277.443	-83.908	0.238	0.075
-276.428	-70.063	0.334	-0.127
-275.413	800.000	0.032	-0.121
-274.399	-64.223	-0.128	-0.052
-273.384	-65.973	0.097	-0.039
-272.370	-112.401	-0.288	0.057
-271.355	27.669	0.275	0.231
-270.340	31.320	0.097	0.083
-269.326	-200.000	0.007	0.147
-268.311	-94.430	0.290	0.079
-267.297	3.346	0.110	0.080
-266.282	33.699	-0.173	0.150
-265.267	141.695	0.160	-0.211
-264.253	-95.775	0.317	0.084
-263.238	251.394	0.099	0.168
-262.224	-141.194	0.314	-0.032
-261.209	800.000	-0.033	0.092
-260.195	276.035	-0.107	0.189
-259.180	-200.000	0.057	-0.397
-258.165	218.810	-0.178	0.284
-257.151	-200.000	0.009	-0.193
-256.136	-163.436	0.219	-0.010
-255.122	-200.000	0.007	0.167
-254.107	24.605	0.090	-0.074
-253.092	800.000	0.084	-0.258
-252.078	-50.452	0.097	0.046
-251.063	-200.000	-0.040	-0.233
-250.049	-200.000	0.001	0.142
-249.034	-64.949	0.337	0.136
-248.019	125.969	0.124	-0.156
-247.005	-124.662	-0.102	-0.016
-245.990	800.000	-0.039	0.127
-244.976	800.000	-0.077	0.214
-243.961	-108.348	0.111	0.024
-242.946	-63.554	0.241	0.098
-241.932	4.399	-0.203	-0.148
-240.917	384.288	0.093	-0.191
-239.903	121.951	0.008	0.009
-238.888	92.047	-0.039	0.043
-237.873	800.000	-0.055	-0.190
-236.859	-138.478	0.088	0.010
-235.844	-48.184	-0.253	-0.121
-234.830	62.098	0.120	-0.119
-233.815	-200.000	0.017	-0.336
-232.800	-15.422	-0.132	-0.084
-231.786	800.000	-0.037	-0.123
-230.771	68.760	-0.159	0.163
-229.757	-131.986	-0.248	-0.032
-228.742	-96.985	-0.268	0.070
-227.727	-117.946	0.201	0.036
-226.713	671.537	-0.131	0.337
-225.698	197.019	-0.071	0.108
-224.684	414.569	0.109	-0.230
-223.669	800.000	0.017	-0.063
-222.655	343.714	0.145	0.283
-221.640	35.601	-0.119	-0.104
-220.625	26.266	-0.250	-0.208
-219.611	-43.271	-0.062	-0.031
-218.596	476.563	-0.043	-0.097
-217.582	16.791	0.375	0.295
-216.567	137.491	-0.148	0.193
-215.552	11.587	-0.204	0.156
-214.538	30.908	0.194	-0.166
-213.523	415.101	-0.122	-0.258
-212.509	-2.352	-0.053	-0.037
-211.494	-200.000	0.001	-0.043
-210.479	-39.564	-0.140	-0.073
-209.465	79.108	0.148	0.157
-208.450	60.786	0.216	-0.213
-207.436	-114.253	0.199	-0.038
-206.421	-200.000	0.016	-0.247
-205.406	190.154	-0.133	-0.198
-204.392	471.581	0.143	-0.321
-203.377	515.595	-0.084	0.194
-202.363	-74.294	-0.309	0.111
-201.348	800.000	0.131	0.451
-200.333	-200.000	0.044	-0.202
-199.319	22.939	-0.188	0.153
-198.304	-19.613	-0.409	0.252
-197.290	-200.000	-0.005	0.112
-196.275	765.369	-0.083	-0.224
-195.260	-200.000	0.023	0.135
-194.246	-103.129	-0.179	-0.042
-193.231	111.295	-0.227	0.272
-192.217	-200.000	-0.019	0.304
-191.202	-200.000	0.021	0.116
-190.187	-200.000	0.110	-0.517
-189.173	800.000	-0.073	0.308
-188.158	90.821	0.078	0.087
-187.144	-56.173	0.157	0.069
-186.129	800.000	-0.119	-0.333
-185.114	-28.958	0.222	-0.127
-184.100	136.757	0.195	-0.253
-183.085	800.000	-0.052	0.189
-182.071	-101.962	-0.175	0.042
-181.056	-81.185	-0.485	0.159
-180.042	800.000	-0.012	0.036
-179.027	-58.124	0.265	-0.115
-178.012	-129.960	0.282	0.038
-176.998	-200.000	-0.014	0.316
-175.983	218.774	0.098	-0.156
-174.969	121.361	0.115	0.142
-173.954	223.650	0.103	-0.165
-172.939	-99.573	0.620	-0.155
-171.925	40.397	0.013	-0.012
-170.910	-200.000	-0.041	-0.388
-169.896	141.452	0.087	-0.115
-168.881	-200.000	0.041	-0.253
-167.866	498.602	0.051	-0.116
-166.852	52.663	-0.069	-0.066
-165.837	53.155	0.105	-0.100
-164.823	-18.112	0.126	-0.078
-163.808	-104.885	-0.218	0.050
-162.793	347.668	-0.231	0.452
-161.779	-16.166	0.212	0.134
-160.764	-200.000	-0.012	0.244
-159.750	-200.000	-0.014	0.465
-158.735	48.074	-0.139	0.129
-157.720	800.000	0.115	0.439
-156.706	-158.380	-0.160	0.009
-155.691	464.873	-0.011	-0.024
-154.677	-200.000	0.001	0.183
-153.662	-143.612	0.282	0.027
-152.647	-76.997	0.229	0.079
-151.633	-107.404	0.440	-0.096
-150.618	135.404	0.073	0.095
-149.604	-145.802	0.283	-0.025
-148.589	-14.271	-0.167	-0.107
-147.574	-121.447	0.259	-0.043
-146.560	800.000	-0.022	0.069
-145.545	800.000	-0.094	0.261
-144.531	-184.072	0.124	-0.002
-143.516	-200.000	-0.028	0.342
-142.502	790.554	0.064	0.173
-141.487	-58.354	0.072	0.031
-140.472	-91.724	-0.325	0.092
-139.458	322.947	0.124	-0.234
-138.443	94.494	0.176	0.198
-137.429	126.538	0.035	0.043
-136.414	167.641	-0.212	-0.299
-135.399	228.922	0.195	0.315
-134.385	-75.482	-0.348	0.123
-133.370	515.776	-0.133	0.309
-132.356	800.000	-0.088	-0.305
-131.341	800.000	0.102	0.331
-130.326	443.491	0.037	-0.081
-129.312	-1.540	-0.199	0.139
-128.297	361.972	-0.120	-0.239
-127.283	205.502	0.054	0.083
-126.268	270.820	-0.138	0.241
-125.253	366.244	-0.114	0.227
-124.239	-200.000	-0.004	-0.173
-123.224	55.483	-0.181	-0.174
-122.210	-183.919	0.232	0.004
-121.195	380.764	0.093	0.190
