DTS Sentinel unit serial number:	SN413079Multiplexer serial number:	ORYXHardware model number:	OX4-SRSoftware version number:	ORYX F/W v4.00 Oryx Data Collector v3.7.2.0data status	okinstallation	princeton_trtdifferential loss correction	single-endedforward channel	channel 2reverse channel	N/Adate	2019/09/19time	15:11:35forward acquisition time	60.00reverse acquisition time	0.00gamma	496.2192k internal	0.2321k external	0.2321temperature offset calibration	1.0025default loss term (dB/km)	0.3790temperature slope calibration	1.0000multiplexer offset coefficient	1.0000multiplexer slope coefficient	1.0000fibre end	0.00T internal ref (°C)	33.47T ext. ref 1 (°C)	1.14T ext. ref 2 (°C)	30.49length (m)	temperature (°C)	Stokes	anti-Stokes-747.200	71.500	-0.046	0.048
-746.185	76.747	-0.360	0.386
-745.171	183.903	0.172	0.258
-744.156	69.836	0.198	0.206
-743.142	16.538	-0.120	-0.096
-742.127	-100.616	0.105	-0.026
-741.112	-81.249	-0.232	-0.077
-740.098	80.364	0.016	-0.017
-739.083	729.147	0.028	0.077
-738.069	-50.992	0.277	0.131
-737.054	-74.356	0.267	0.097
-736.039	-200.000	-0.042	0.452
-735.025	-173.538	0.254	-0.008
-734.010	29.557	0.236	-0.203
-732.996	-200.000	-0.028	0.163
-731.981	800.000	-0.078	-0.281
-730.966	28.059	0.227	-0.193
-729.952	-200.000	0.019	-0.127
-728.937	-56.403	-0.283	-0.127
-727.923	17.375	-0.176	0.141
-726.908	-90.833	0.230	0.067
-725.894	-112.116	0.055	-0.011
-724.879	-162.160	0.065	-0.003
-723.864	800.000	0.113	-0.412
-722.850	-200.000	0.032	-0.311
-721.835	225.550	-0.030	0.049
-720.821	254.072	0.079	0.137
-719.806	344.764	-0.078	-0.155
-718.791	800.000	-0.050	-0.206
-717.777	-101.435	0.184	0.045
-716.762	-200.000	-0.045	-0.227
-715.748	-152.873	-0.311	-0.022
-714.733	800.000	0.033	0.113
-713.718	-200.000	-0.019	-0.093
-712.704	800.000	-0.016	-0.067
-711.689	419.005	-0.102	-0.220
-710.675	101.982	-0.123	0.145
-709.660	77.337	0.236	-0.253
-708.645	416.849	0.099	0.214
-707.631	-133.197	-0.172	-0.022
-706.616	-200.000	-0.010	0.331
-705.602	-131.228	-0.177	-0.024
-704.587	800.000	-0.091	-0.308
-703.572	140.917	-0.076	-0.101
-702.558	800.000	0.032	0.131
-701.543	796.046	0.099	0.277
-700.529	-200.000	0.009	-0.043
-699.514	-80.467	-0.118	0.040
-698.499	114.540	-0.266	0.327
-697.485	-200.000	0.001	-0.093
-696.470	212.062	-0.228	-0.362
-695.456	-200.000	-0.001	-0.190
-694.441	-69.343	0.359	-0.139
-693.426	252.586	-0.128	-0.220
-692.412	-28.829	-0.277	-0.161
-691.397	288.498	0.045	0.083
-690.383	800.000	0.050	-0.201
-689.368	130.678	-0.309	-0.400
-688.354	487.195	-0.069	-0.159
-687.339	-102.957	0.221	0.053
-686.324	-200.000	-0.009	-0.154
-685.310	-25.453	-0.095	-0.057
-684.295	-64.679	-0.354	-0.145
-683.281	-200.000	-0.041	-0.328
-682.266	67.108	-0.124	0.128
-681.251	-200.000	0.042	-0.274
-680.237	-56.580	-0.023	-0.010
-679.222	800.000	-0.034	-0.141
-678.208	162.794	0.175	-0.248
-677.193	289.680	-0.099	0.181
-676.178	-115.193	-0.468	0.089
-675.164	145.204	-0.256	-0.346
-674.149	800.000	-0.050	-0.143
-673.135	-200.000	-0.001	-0.105
-672.120	-96.696	-0.040	-0.011
-671.105	-112.649	0.058	0.012
-670.091	-200.000	0.022	0.267
-669.076	383.851	0.114	-0.237
-668.062	-111.801	-0.313	0.064
-667.047	-200.000	0.011	0.206
-666.032	220.940	0.046	-0.074
-665.018	-39.381	-0.326	0.172
-664.003	-200.000	0.030	0.134
-662.989	-43.015	-0.277	0.142
-661.974	800.000	0.033	0.110
-660.959	800.000	-0.126	0.358
-659.945	-146.036	0.260	0.023
-658.930	-200.000	-0.010	-0.099
-657.916	790.678	-0.071	-0.197
-656.901	-31.910	-0.208	0.118
-655.886	-118.396	0.149	-0.027
-654.872	141.665	-0.056	-0.074
-653.857	800.000	0.061	-0.183
-652.843	-200.000	0.010	-0.069
-651.828	-51.797	-0.219	-0.103
-650.814	351.108	-0.043	0.086
-649.799	-34.305	0.111	-0.061
-648.784	-1.778	0.073	0.052
-647.770	55.364	-0.218	0.212
-646.755	-115.435	0.092	0.018
-645.741	632.478	0.099	-0.253
-644.726	285.768	0.124	-0.226
-643.711	-101.565	-0.270	-0.066
-642.697	-50.607	0.374	0.177
-641.682	1.363	-0.152	0.110
-640.668	-149.844	-0.448	0.035
-639.653	769.606	-0.075	0.205
-638.638	-109.606	-0.270	-0.057
-637.624	-98.199	-0.242	-0.063
-636.609	-200.000	0.003	-0.014
-635.595	800.000	0.071	0.206
-634.580	27.369	-0.139	-0.117
-633.565	-115.684	0.244	-0.046
-632.551	107.271	-0.123	0.147
-631.536	45.818	0.168	0.157
-630.522	-131.767	-0.217	0.029
-629.507	131.112	-0.346	0.447
-628.492	-30.880	-0.360	0.205
-627.478	-200.000	-0.008	0.048
-626.463	-200.000	0.011	0.077
-625.449	-68.012	0.246	0.097
-624.434	6.986	0.148	-0.111
-623.419	12.680	0.267	-0.207
-622.405	-79.248	-0.120	0.041
-621.390	-36.516	-0.117	-0.064
-620.376	-179.411	0.081	0.002
-619.361	-200.000	0.039	0.260
-618.346	29.886	0.049	-0.042
-617.332	-71.398	-0.030	-0.011
-616.317	584.275	0.043	-0.105
-615.303	-107.266	-0.440	0.097
-614.288	-171.002	-0.363	-0.012
-613.273	-200.000	0.002	0.326
-612.259	-115.066	-0.134	0.026
-611.244	800.000	0.070	0.219
-610.230	-102.055	0.157	-0.038
-609.215	90.751	-0.077	-0.086
-608.201	-135.777	0.038	0.004
-607.186	329.643	0.063	0.123
-606.171	800.000	0.056	0.176
-605.157	-4.699	0.074	0.052
-604.142	55.243	-0.207	-0.201
-603.128	-56.204	-0.294	-0.131
-602.113	267.989	0.097	0.170
-601.098	800.000	0.059	0.258
-600.084	-200.000	-0.035	-0.177
-599.069	-128.397	0.230	-0.033
-598.055	-124.450	-0.063	0.010
-597.040	-141.994	-0.170	0.017
-596.025	429.027	-0.148	0.322
-595.011	616.140	0.109	0.275
-593.996	2.087	-0.208	0.151
-592.982	-103.713	-0.109	0.026
-591.967	800.000	-0.104	-0.415
-590.952	800.000	0.113	0.339
-589.938	-200.000	-0.059	0.355
-588.923	-87.686	-0.285	-0.086
-587.909	17.659	-0.151	-0.121
-586.894	-13.242	-0.191	-0.125
-585.879	17.066	0.005	-0.004
-584.865	-200.000	0.018	0.182
-583.850	-79.609	-0.113	0.038
-582.836	-98.854	-0.135	-0.035
-581.821	247.729	0.064	-0.108
-580.806	-138.187	0.182	0.020
-579.792	463.059	0.140	0.314
-578.777	-3.742	0.147	-0.103
-577.763	-117.354	0.453	-0.082
-576.748	-41.281	0.061	-0.032
-575.733	359.719	0.134	0.269
-574.719	-85.370	0.055	-0.017
-573.704	66.182	-0.058	0.059
-572.690	78.673	0.178	-0.191
-571.675	1.837	0.080	0.058
-570.661	489.914	-0.056	0.128
-569.646	39.681	0.156	-0.141
-568.631	0.597	-0.403	-0.290
-567.617	-200.000	-0.024	-0.207
-566.602	-200.000	-0.003	0.057
-565.588	232.250	0.092	0.152
-564.573	106.632	-0.066	0.079
-563.558	-142.857	0.067	0.007
-562.544	-37.383	0.227	0.122
-561.529	52.386	0.312	-0.298
-560.515	-96.003	-0.174	0.046
-559.500	685.378	-0.113	0.296
-558.485	-200.000	0.037	0.260
-557.471	-121.869	-0.442	0.073
-556.456	1.496	0.090	-0.065
-555.442	335.951	-0.082	-0.159
-554.427	-200.000	-0.014	0.076
-553.412	-139.722	-0.445	0.048
-552.398	-53.024	0.041	-0.019
-551.383	-96.946	0.184	-0.048
-550.369	800.000	-0.051	-0.158
-549.354	220.418	-0.171	0.274
-548.339	82.690	0.265	-0.288
-547.325	-17.042	-0.179	0.113
-546.310	-52.000	-0.420	-0.196
-545.296	120.425	-0.045	0.056
-544.281	-3.006	0.187	0.131
-543.266	-119.852	-0.352	0.061
-542.252	-56.759	-0.156	0.069
-541.237	-10.584	0.269	0.179
-540.223	98.912	-0.163	-0.189
-539.208	-200.000	0.017	-0.116
-538.193	-16.853	0.100	0.063
-537.179	250.966	-0.129	-0.220
-536.164	-191.502	-0.251	-0.003
-535.150	-141.612	-0.270	0.027
-534.135	658.649	0.077	-0.199
-533.121	79.758	-0.047	-0.051
-532.106	-131.777	0.287	0.038
-531.091	-200.000	0.000	0.066
-530.077	158.088	0.133	0.184
-529.062	800.000	-0.032	-0.105
-528.048	-42.957	0.130	0.066
-527.033	379.555	-0.139	0.284
-526.018	129.502	0.082	-0.105
-525.004	800.000	-0.084	0.340
-523.989	-141.930	-0.202	0.020
-522.975	-200.000	-0.026	-0.279
-521.960	-39.321	-0.258	0.136
-520.945	-200.000	0.001	-0.181
-519.931	112.370	-0.127	-0.154
-518.916	-109.722	0.270	0.057
-517.902	37.568	0.031	-0.028
-516.887	-6.878	0.160	-0.109
-515.872	684.387	-0.219	-0.574
-514.858	-81.407	-0.076	0.025
-513.843	-90.557	0.303	0.088
-512.829	3.124	-0.293	-0.214
-511.814	191.641	-0.060	-0.091
-510.799	800.000	-0.073	0.272
-509.785	89.487	-0.378	0.422
-508.770	580.974	0.164	0.402
-507.756	-11.607	0.005	-0.003
-506.741	800.000	-0.097	0.389
-505.726	65.257	0.075	0.076
-504.712	-200.000	-0.037	-0.192
-503.697	416.310	0.067	0.144
-502.683	-177.076	0.285	0.007
-501.668	-200.000	0.042	-0.195
-500.653	-200.000	-0.026	0.192
-499.639	229.136	0.126	0.205
-498.624	157.529	0.083	0.115
-497.610	16.803	0.185	0.146
-496.595	50.849	0.226	-0.215
-495.581	800.000	0.063	-0.205
-494.566	608.408	-0.100	-0.250
-493.551	-200.000	0.048	0.235
-492.537	-72.569	0.199	0.074
-491.522	-98.666	0.160	-0.041
-490.508	800.000	-0.079	-0.236
-489.493	-200.000	0.053	0.283
-488.478	-177.194	-0.025	0.001
-487.464	173.159	-0.047	-0.068
-486.449	313.742	-0.062	0.117
-485.435	-127.599	-0.364	-0.053
-484.420	184.118	0.063	-0.093
-483.405	187.562	0.244	0.365
-482.391	-188.099	0.302	0.004
-481.376	186.734	-0.199	0.296
-480.362	258.677	0.108	-0.186
-479.347	382.653	-0.148	-0.304
-478.332	-92.645	0.073	0.020
-477.318	-103.360	-0.239	-0.056
-476.303	113.146	0.104	-0.126
-475.289	-156.526	0.191	-0.012
-474.274	247.959	-0.098	-0.165
-473.259	20.306	0.183	-0.148
-472.245	800.000	0.071	0.291
-471.230	800.000	-0.114	0.344
-470.216	282.117	0.102	0.182
-469.201	-131.373	-0.331	-0.044
-468.186	182.705	0.131	0.193
-467.172	91.800	0.053	0.059
-466.157	800.000	-0.053	0.207
-465.143	71.962	-0.079	-0.082
-464.128	202.604	0.180	0.278
-463.113	-19.488	0.169	-0.104
-462.099	143.904	-0.146	0.195
-461.084	79.576	0.363	-0.389
-460.070	-47.759	-0.202	-0.098
-459.055	-200.000	0.001	-0.219
-458.040	63.305	-0.084	-0.084
-457.026	-200.000	0.010	0.363
-456.011	-60.913	0.129	0.054
-454.997	158.619	-0.079	-0.110
-453.982	-25.026	0.188	0.112
-452.968	225.745	-0.061	0.099
-451.953	231.337	0.227	-0.372
-450.938	-114.707	0.114	-0.022
-449.924	321.073	0.122	-0.231
-448.909	567.743	0.016	-0.038
-447.895	138.768	0.078	-0.102
-446.880	-200.000	-0.022	0.182
-445.865	305.023	-0.056	0.103
-444.851	610.091	0.048	-0.121
-443.836	87.066	-0.150	-0.166
-442.822	-200.000	0.030	-0.470
-441.807	-70.033	-0.238	0.091
-440.792	-103.036	-0.333	-0.079
-439.778	-200.000	0.019	0.312
-438.763	99.865	0.177	0.205
-437.749	-176.075	0.006	0.000
-436.734	-163.555	-0.226	-0.011
-435.719	-200.000	-0.053	-0.398
-434.705	800.000	0.018	0.066
-433.690	93.294	0.026	-0.029
-432.676	-147.358	0.037	-0.003
-431.661	-200.000	0.013	0.241
-430.646	31.064	0.117	0.100
-429.632	38.581	0.175	-0.155
-428.617	-125.622	0.054	-0.008
-427.603	0.713	0.152	-0.109
-426.588	63.181	-0.149	-0.149
-425.573	-200.000	0.053	0.460
-424.559	-200.000	0.020	-0.209
-423.544	108.799	0.159	-0.190
-422.530	-96.916	0.040	-0.010
-421.515	-200.000	0.040	-0.239
-420.500	58.092	0.091	0.089
-419.486	800.000	-0.052	0.226
-418.471	32.359	0.141	0.122
-417.457	-75.505	-0.493	0.175
-416.442	17.433	0.055	0.043
-415.428	-82.579	0.117	0.038
-414.413	-102.524	0.302	-0.072
-413.398	110.603	-0.051	-0.061
-412.384	27.105	-0.142	0.119
-411.369	-3.529	0.330	0.229
-410.355	-200.000	0.002	0.286
-409.340	61.063	0.052	0.052
-408.325	-200.000	-0.012	-0.179
-407.311	-37.270	0.216	-0.115
-406.296	800.000	0.079	-0.331
-405.282	628.082	0.081	-0.203
-404.267	539.769	0.023	-0.054
-403.252	456.556	0.053	0.117
-402.238	10.361	-0.136	0.103
-401.223	-200.000	-0.047	0.307
-400.209	630.515	-0.076	-0.193
-399.194	800.000	-0.096	-0.341
-398.179	-92.902	0.111	-0.031
-397.165	-15.585	-0.098	0.062
-396.150	681.875	-0.042	-0.108
-395.136	-76.378	-0.188	0.066
-394.121	-143.122	-0.271	0.026
-393.106	800.000	-0.042	0.134
-392.092	415.797	0.126	-0.268
-391.077	235.132	0.100	0.164
-390.063	-200.000	0.049	0.223
-389.048	-133.083	0.203	-0.026
-388.033	40.171	0.071	-0.064
-387.019	-16.496	0.255	0.161
-386.004	-200.000	-0.012	-0.185
-384.990	-4.249	0.264	0.182
-383.975	-99.108	0.262	-0.066
-382.960	76.507	-0.135	-0.142
-381.946	17.844	-0.271	-0.215
-380.931	-25.399	-0.190	-0.112
-379.917	405.232	0.154	-0.323
-378.902	-78.463	-0.343	0.117
-377.888	800.000	-0.007	-0.027
-376.873	56.934	0.219	-0.212
-375.858	-200.000	0.027	0.309
-374.844	3.849	0.096	0.070
-373.829	161.011	-0.133	0.186
-372.815	-200.000	-0.040	0.394
-371.800	7.094	-0.096	0.071
-370.785	-30.127	0.219	-0.124
-369.771	800.000	0.034	-0.115
-368.756	92.437	-0.195	-0.219
-367.742	346.043	-0.125	-0.245
-366.727	39.935	-0.214	-0.191
-365.712	71.161	0.174	0.179
-364.698	-200.000	0.028	-0.164
-363.683	37.591	-0.121	-0.107
-362.669	-142.223	-0.117	-0.012
-361.654	80.003	0.154	0.165
-360.639	-28.683	0.259	0.149
-359.625	-149.882	-0.103	0.008
-358.610	-200.000	0.005	-0.214
-357.596	-200.000	-0.183	-0.000
-356.581	-200.000	-0.004	0.373
-355.566	382.688	0.079	-0.161
-354.552	293.485	0.141	0.257
-353.537	-200.000	0.008	-0.049
-352.523	-2.364	0.179	-0.125
-351.508	310.621	0.171	-0.318
-350.493	68.329	0.099	-0.101
-349.479	-74.407	-0.272	0.098
-348.464	426.122	-0.079	-0.170
-347.450	-46.755	-0.206	-0.100
-346.435	-131.361	0.029	0.004
-345.420	147.609	-0.044	0.059
-344.406	74.319	0.175	0.183
-343.391	25.092	0.122	-0.101
-342.377	-14.871	0.196	-0.125
-341.362	-154.755	-0.229	0.015
-340.348	800.000	0.036	0.127
-339.333	144.743	-0.374	0.497
-338.318	69.154	-0.049	0.050
-337.304	-21.151	-0.421	0.256
-336.289	40.098	-0.160	-0.143
-335.275	-95.502	0.280	0.075
-334.260	-56.007	-0.140	-0.062
-333.245	-200.000	-0.062	-0.467
-332.231	-37.429	0.055	0.029
-331.216	-99.349	-0.162	-0.041
-330.202	27.297	-0.136	0.114
-329.187	-118.221	-0.120	-0.021
-328.172	-27.704	0.289	-0.167
-327.158	-105.603	-0.355	0.080
-326.143	93.333	-0.181	0.203
-325.129	24.876	0.205	0.169
-324.114	20.076	-0.161	-0.129
-323.099	-32.965	-0.113	-0.063
-322.085	63.116	0.062	-0.062
-321.070	313.320	-0.116	-0.217
-320.056	800.000	-0.013	0.039
-319.041	126.161	0.210	-0.264
-318.026	62.586	0.038	-0.038
-317.012	-5.124	0.151	0.103
-315.997	-132.866	-0.285	0.036
-314.983	-200.000	0.014	0.084
-313.968	-92.011	0.014	0.004
-312.953	34.045	-0.323	-0.280
-311.939	-200.000	0.003	-0.202
-310.924	210.459	0.171	-0.267
-309.910	-174.694	0.141	-0.004
-308.895	733.546	-0.147	0.391
-307.880	-94.890	-0.308	0.083
-306.866	-110.108	-0.199	-0.041
-305.851	800.000	-0.073	0.250
-304.837	-126.028	0.201	0.030
-303.822	90.434	-0.337	0.375
-302.807	800.000	-0.080	0.328
-301.793	-67.360	-0.269	-0.105
-300.778	165.822	0.078	0.110
-299.764	-91.551	-0.213	-0.060
-298.749	353.295	0.089	0.175
-297.735	183.144	-0.256	-0.375
-296.720	-162.614	-0.143	0.007
-295.705	77.025	-0.192	-0.202
-294.691	-112.182	-0.252	-0.050
-293.676	-177.492	0.355	0.009
-292.662	51.375	0.341	-0.322
-291.647	-200.000	-0.030	0.167
-290.632	59.394	0.323	-0.316
-289.618	-200.000	0.021	-0.147
-288.603	328.214	0.044	-0.085
-287.589	-200.000	0.022	-0.262
-286.574	-22.501	-0.104	0.062
-285.559	-200.000	0.011	0.091
-284.545	-159.529	-0.105	-0.006
-283.530	-200.000	-0.039	-0.320
-282.516	-119.928	0.361	-0.062
-281.501	-200.000	-0.021	-0.393
-280.486	19.540	-0.152	0.121
-279.472	413.872	0.136	-0.287
-278.457	-144.275	0.334	-0.031
-277.443	188.925	0.175	-0.261
-276.428	-69.748	0.196	-0.074
-275.413	-200.000	-0.027	0.128
-274.399	-85.113	-0.162	-0.050
-273.384	-19.831	0.151	0.092
-272.370	388.633	-0.098	0.201
-271.355	-12.728	-0.324	-0.209
-270.340	20.991	0.185	0.149
-269.326	335.922	0.059	0.114
-268.311	800.000	-0.075	0.245
-267.297	12.321	-0.058	-0.045
-266.282	90.039	-0.102	-0.113
-265.267	-124.791	-0.112	-0.017
-264.253	64.273	-0.208	-0.208
-263.238	800.000	0.075	-0.326
-262.224	234.954	0.032	-0.053
-261.209	-200.000	-0.009	0.086
-260.195	-157.199	-0.106	0.006
-259.180	-162.043	0.056	-0.003
-258.165	77.838	0.331	-0.350
-257.151	800.000	0.088	-0.258
-256.136	-168.202	0.301	0.012
-255.122	-59.508	0.229	-0.098
-254.107	-60.309	0.201	-0.085
-253.092	71.939	0.111	0.114
-252.078	202.293	-0.063	-0.096
-251.063	-112.298	0.258	-0.051
-250.049	-200.000	-0.020	0.385
-249.034	-99.221	-0.449	-0.112
-248.019	-200.000	-0.025	0.390
-247.005	-162.869	0.239	-0.012
-245.990	-171.602	-0.027	0.001
-244.976	30.398	-0.153	0.129
-243.961	-80.170	0.239	-0.079
-242.946	-34.462	-0.077	0.042
-241.932	-200.000	-0.002	-0.185
-240.917	-70.787	0.067	-0.025
-239.903	406.986	0.122	-0.255
-238.888	151.811	0.099	0.134
-237.873	87.817	0.185	-0.203
-236.859	-12.544	0.079	0.051
-235.844	-6.538	0.192	-0.130
-234.830	800.000	-0.078	0.317
-233.815	-70.266	0.133	0.050
-232.800	22.612	-0.203	0.165
-231.786	-12.731	0.112	0.072
-230.771	335.549	-0.106	0.203
-229.757	-200.000	-0.002	-0.072
-228.742	-77.726	0.234	-0.080
-227.727	-108.855	0.259	-0.055
-226.713	-200.000	0.045	0.222
-225.698	495.600	-0.044	0.100
-224.684	-19.976	0.253	0.155
-223.669	-46.233	0.131	-0.064
-222.655	217.505	-0.076	0.120
-221.640	-59.355	0.070	-0.030
-220.625	-178.391	-0.115	-0.003
-219.611	71.556	0.101	-0.104
-218.596	-25.237	0.319	0.187
-217.582	329.851	0.094	0.180
-216.567	158.763	0.076	0.104
-215.552	-44.914	0.229	-0.113
-214.538	-9.917	0.133	-0.088
-213.523	-198.044	0.328	0.002
-212.509	39.943	0.253	-0.225
-211.494	356.832	0.011	-0.022
-210.479	-3.779	-0.240	0.165
-209.465	83.492	0.069	-0.074
-208.450	103.452	-0.158	-0.184
-207.436	152.086	0.061	-0.083
-206.421	-200.000	0.007	-0.058
-205.406	-158.205	0.223	-0.013
-204.392	191.851	-0.031	0.046
-203.377	73.119	-0.165	-0.170
-202.363	-158.532	-0.338	0.019
-201.348	-13.109	0.066	0.042
-200.333	51.344	0.092	0.086
-199.319	-200.000	-0.013	-0.119
-198.304	-52.983	-0.031	-0.014
-197.290	-200.000	-0.184	0.000
-196.275	-200.000	-0.013	-0.108
-195.260	139.776	0.155	0.202
-194.246	795.775	0.090	-0.245
-193.231	68.780	-0.222	0.225
-192.217	-91.388	0.219	0.062
-191.202	-40.949	-0.279	0.143
-190.187	142.970	-0.063	0.083
-189.173	-138.286	0.355	0.039
-188.158	-59.244	-0.325	-0.138
-187.144	-160.798	-0.354	0.019
-186.129	535.326	0.172	-0.403
-185.114	-39.461	0.082	0.043
-184.100	-200.000	-0.012	-0.261
-183.085	-103.969	-0.174	0.040
-182.071	3.504	-0.059	-0.042
-181.056	-46.581	-0.131	0.063
-180.042	88.007	0.372	-0.408
-179.027	-75.659	0.218	-0.076
-178.012	-62.714	-0.267	-0.110
-176.998	-80.658	-0.004	-0.001
-175.983	465.975	0.069	-0.152
-174.969	63.024	0.320	-0.317
-173.954	-113.813	0.203	-0.039
-172.939	90.781	-0.237	-0.263
-171.925	554.190	0.068	0.162
-170.910	-156.904	-0.311	0.019
-169.896	-5.768	0.088	0.060
-168.881	-102.070	-0.249	-0.059
-167.866	-200.000	-0.006	0.167
-166.852	-108.617	0.255	-0.054
-165.837	113.517	0.301	0.361
-164.823	-23.991	0.093	-0.055
-163.808	800.000	0.072	0.295
-162.793	800.000	-0.034	-0.098
-161.779	-200.000	0.038	-0.269
-160.764	-96.999	-0.257	0.066
-159.750	-139.593	-0.148	0.016
-158.735	95.176	-0.041	0.046
-157.720	-178.513	0.265	-0.006
-156.706	-77.868	0.137	0.047
-155.691	296.503	0.161	-0.291
-154.677	563.974	0.093	0.223
-153.662	-134.258	-0.276	0.034
-152.647	800.000	-0.070	0.253
-151.633	800.000	-0.092	-0.302
-150.618	387.607	0.144	-0.293
-149.604	45.502	0.080	0.073
-148.589	-49.496	0.176	0.083
-147.574	150.562	-0.097	0.130
-146.560	-106.777	0.389	0.085
-145.545	450.994	0.165	-0.360
-144.531	-111.716	0.217	-0.043
-143.516	431.245	0.011	0.023
-142.502	109.079	-0.051	0.060
-141.487	-200.000	0.336	-0.001
-140.472	57.956	0.247	0.239
-139.458	-53.730	0.609	0.275
-138.443	54.396	-0.225	0.214
-137.429	-158.579	0.204	0.012
-136.414	12.144	-0.082	-0.063
-135.399	800.000	-0.081	-0.233
-134.385	-200.000	-0.006	-0.131
-133.370	-200.000	0.005	0.027
-132.356	174.863	0.041	-0.059
-131.341	-200.000	-0.022	0.172
-130.326	85.142	-0.085	-0.092
-129.312	-200.000	0.018	0.326
-128.297	-103.851	0.362	0.084
-127.283	88.503	-0.120	-0.132
-126.268	-54.392	0.232	-0.104
-125.253	-25.634	0.370	-0.216
-124.239	40.745	0.151	-0.135
-123.224	-69.263	0.135	-0.051
-122.210	-105.772	0.139	-0.031
-121.195	-24.232	-0.420	-0.247
