DTS Sentinel unit serial number:	SN413079Multiplexer serial number:	ORYXHardware model number:	OX4-SRSoftware version number:	ORYX F/W v4.00 Oryx Data Collector v3.7.2.0data status	okinstallation	princeton_trtdifferential loss correction	single-endedforward channel	channel 2reverse channel	N/Adate	2019/09/15time	02:59:35forward acquisition time	60.00reverse acquisition time	0.00gamma	496.2192k internal	0.2326k external	0.2326temperature offset calibration	1.0035default loss term (dB/km)	0.3790temperature slope calibration	1.0000multiplexer offset coefficient	1.0000multiplexer slope coefficient	1.0000fibre end	0.00T internal ref (°C)	31.25T ext. ref 1 (°C)	4.59T ext. ref 2 (°C)	25.70length (m)	temperature (°C)	Stokes	anti-Stokes-747.200	60.177	-0.137	0.136
-746.185	800.000	-0.070	0.238
-745.171	33.990	-0.352	0.310
-744.156	101.118	-0.065	-0.076
-743.142	31.074	0.161	0.140
-742.127	499.683	0.098	-0.229
-741.112	-200.000	0.005	0.158
-740.098	-200.000	-0.000	0.172
-739.083	52.469	0.246	0.236
-738.069	800.000	0.123	0.436
-737.054	-200.000	0.030	-0.340
-736.039	370.602	-0.131	-0.268
-735.025	-28.823	0.132	-0.077
-734.010	14.909	-0.275	-0.217
-732.996	-113.887	-0.135	-0.026
-731.981	54.115	-0.074	0.072
-730.966	-200.000	0.055	-0.301
-729.952	-53.367	0.176	0.081
-728.937	41.917	0.161	0.147
-727.923	-53.915	-0.374	0.172
-726.908	306.622	0.048	0.091
-725.894	800.000	-0.014	0.051
-724.879	235.797	-0.196	-0.327
-723.864	-82.220	-0.217	-0.071
-722.850	116.150	-0.124	-0.152
-721.835	800.000	0.080	-0.231
-720.821	679.634	-0.065	0.171
-719.806	-117.872	-0.073	0.013
-718.791	-83.422	-0.123	-0.040
-717.777	-200.000	0.056	-0.316
-716.762	-34.282	-0.289	0.160
-715.748	-133.244	-0.416	0.053
-714.733	-200.000	-0.049	0.427
-713.718	26.790	0.103	0.087
-712.704	-200.000	0.020	-0.205
-711.689	17.580	0.060	-0.048
-710.675	-23.396	-0.130	-0.079
-709.660	88.971	0.357	-0.400
-708.645	-30.014	0.253	0.145
-707.631	523.184	0.040	-0.095
-706.616	-200.000	0.022	-0.324
-705.602	-200.000	0.008	0.113
-704.587	440.854	0.160	0.352
-703.572	-122.315	0.248	-0.041
-702.558	-114.288	-0.247	0.048
-701.543	152.619	0.131	0.180
-700.529	-169.662	-0.421	0.015
-699.514	312.696	0.172	-0.325
-698.499	800.000	-0.103	0.306
-697.485	-200.000	-0.027	-0.300
-696.470	-34.150	-0.175	0.097
-695.456	-45.543	0.243	-0.121
-694.441	58.416	0.106	0.105
-693.426	-200.000	-0.042	-0.215
-692.412	-158.041	-0.249	0.015
-691.397	267.581	0.067	-0.118
-690.383	77.277	0.227	-0.243
-689.368	-31.008	0.231	-0.131
-688.354	253.583	-0.160	-0.275
-687.339	-54.515	-0.192	0.087
-686.324	281.014	0.089	-0.161
-685.310	800.000	-0.089	0.368
-684.295	225.131	-0.207	-0.337
-683.281	800.000	-0.017	0.067
-682.266	60.288	-0.044	0.044
-681.251	1.624	-0.291	0.211
-680.237	-144.969	0.096	-0.009
-679.222	153.923	-0.232	0.320
-678.208	800.000	-0.076	0.231
-677.193	3.863	-0.082	-0.060
-676.178	291.407	0.074	0.136
-675.164	16.594	0.240	0.191
-674.149	-22.736	-0.282	0.172
-673.135	-200.000	0.039	-0.296
-672.120	-154.812	0.213	-0.014
-671.105	154.241	-0.200	-0.276
-670.091	-120.239	-0.219	0.038
-669.076	-200.000	-0.033	-0.334
-668.062	150.156	-0.065	0.089
-667.047	-200.000	-0.010	-0.073
-666.032	-200.000	-0.054	-0.286
-665.018	-200.000	0.022	-0.126
-664.003	773.585	-0.118	-0.325
-662.989	271.831	-0.065	0.115
-661.974	-175.074	-0.279	-0.008
-660.959	-134.250	0.354	-0.044
-659.945	-200.000	0.031	-0.224
-658.930	332.081	0.094	0.182
-657.916	62.046	-0.192	-0.192
-656.901	-127.364	0.301	0.044
-655.886	-117.903	-0.352	-0.063
-654.872	65.347	-0.240	-0.244
-653.857	-200.000	0.047	-0.237
-652.843	13.831	0.380	-0.297
-651.828	-61.904	0.275	-0.116
-650.814	109.861	0.169	0.204
-649.799	-57.639	0.256	0.113
-648.784	517.931	-0.192	0.452
-647.770	800.000	0.063	-0.213
-646.755	4.235	-0.289	-0.213
-645.741	184.719	-0.059	0.088
-644.726	298.212	0.112	0.206
-643.711	390.753	0.186	0.387
-642.697	49.383	-0.247	0.233
-641.682	147.213	-0.091	0.123
-640.668	-85.556	0.062	0.019
-639.653	-117.720	0.220	0.040
-638.638	-95.086	-0.425	0.115
-637.624	109.019	0.174	-0.209
-636.609	259.947	0.053	0.091
-635.595	-200.000	-0.026	0.181
-634.580	-200.000	0.015	0.188
-633.565	-200.000	0.011	0.286
-632.551	-85.547	0.350	0.109
-631.536	-200.000	-0.007	-0.099
-630.522	-139.453	0.214	-0.023
-629.507	-200.000	0.019	0.225
-628.492	-54.365	0.145	0.066
-627.478	-200.000	-0.016	0.329
-626.463	-7.230	-0.041	0.028
-625.449	245.601	0.143	-0.241
-624.434	-200.000	0.032	-0.287
-623.419	321.645	0.044	-0.085
-622.405	270.632	-0.064	-0.112
-621.390	-200.000	-0.010	-0.140
-620.376	-176.528	-0.144	-0.004
-619.361	-104.148	0.089	-0.021
-618.346	-200.000	0.048	-0.338
-617.332	-23.269	-0.112	0.067
-616.317	42.617	-0.326	-0.298
-615.303	-149.049	-0.107	0.009
-614.288	12.957	0.194	-0.151
-613.273	-71.966	-0.230	-0.086
-612.259	41.850	-0.023	-0.021
-611.244	529.915	0.041	0.097
-610.230	473.603	-0.049	0.110
-609.215	800.000	-0.051	-0.183
-608.201	534.982	-0.038	-0.091
-607.186	800.000	-0.036	0.153
-606.171	309.067	-0.136	0.256
-605.157	220.295	-0.072	-0.116
-604.142	67.489	0.044	0.045
-603.128	-66.051	0.063	-0.025
-602.113	-141.842	0.172	-0.017
-601.098	-160.264	0.205	-0.011
-600.084	-200.000	-0.002	0.086
-599.069	-86.479	0.144	0.044
-598.055	104.510	0.305	-0.360
-597.040	-159.822	-0.149	0.008
-596.025	-200.000	-0.008	0.326
-595.011	46.724	-0.074	-0.069
-593.996	-85.173	-0.180	-0.057
-592.982	450.638	-0.143	-0.316
-591.967	648.981	0.053	-0.137
-590.952	120.605	-0.063	-0.079
-589.938	-200.000	-0.005	-0.088
-588.923	-83.505	0.287	0.092
-587.909	155.443	0.199	-0.275
-586.894	778.539	-0.040	0.109
-585.879	-200.000	-0.025	0.246
-584.865	-161.058	-0.256	0.013
-583.850	-200.000	0.059	-0.284
-582.836	-53.460	-0.217	-0.100
-581.821	-74.706	0.353	0.127
-580.806	631.980	0.069	0.176
-579.792	-200.000	0.031	-0.169
-578.777	591.563	-0.133	-0.330
-577.763	-192.716	-0.502	-0.005
-576.748	-12.953	-0.069	0.045
-575.733	-98.075	-0.315	0.081
-574.719	-132.362	0.050	-0.006
-573.704	-21.683	0.115	-0.070
-572.690	15.563	-0.182	0.143
-571.675	70.601	-0.184	-0.190
-570.661	-200.000	-0.049	-0.266
-569.646	-118.892	0.317	0.056
-568.631	334.370	-0.124	-0.241
-567.617	-55.179	-0.279	-0.126
-566.602	-200.000	0.009	0.120
-565.588	-20.891	0.177	0.109
-564.573	416.275	0.055	0.118
-563.558	-200.000	0.024	-0.112
-562.544	-71.389	-0.317	-0.119
-561.529	-34.800	-0.422	0.231
-560.515	20.650	-0.238	0.193
-559.500	-65.467	-0.277	0.111
-558.485	572.870	0.205	-0.499
-557.471	-64.349	-0.042	0.017
-556.456	360.526	-0.097	-0.194
-555.442	234.707	0.120	0.199
-554.427	-146.408	-0.429	0.037
-553.412	-200.000	-0.046	0.542
-552.398	-77.017	-0.232	0.081
-551.383	-31.462	0.154	0.086
-550.369	-174.038	-0.316	0.009
-549.354	-49.078	-0.455	-0.218
-548.339	-13.232	-0.020	-0.013
-547.325	800.000	-0.074	-0.219
-546.310	-200.000	-0.009	-0.086
-545.296	800.000	-0.084	-0.265
-544.281	-69.773	-0.338	-0.129
-543.266	18.266	-0.276	-0.221
-542.252	-200.000	-0.069	-0.323
-541.237	-147.501	-0.111	0.009
-540.223	215.266	0.023	-0.037
-539.208	-200.000	0.020	0.127
-538.193	56.968	0.195	-0.190
-537.179	108.870	-0.081	0.097
-536.164	-46.126	0.223	-0.110
-535.150	-200.000	-0.023	-0.160
-534.135	800.000	-0.013	-0.043
-533.121	-33.160	0.220	0.122
-532.106	150.721	0.104	-0.142
-531.091	525.960	0.097	-0.228
-530.077	-48.137	0.287	0.138
-529.062	-180.504	-0.158	-0.003
-528.048	-19.128	0.158	-0.098
-527.033	90.098	-0.069	0.077
-526.018	-5.451	0.261	0.179
-525.004	634.363	0.114	0.290
-523.989	173.853	-0.202	-0.292
-522.975	291.001	-0.168	-0.306
-521.960	-200.000	-0.080	-0.386
-520.945	-200.000	0.028	-0.332
-519.931	-32.759	-0.101	0.056
-518.916	-81.894	0.224	0.073
-517.902	83.947	0.229	0.250
-516.887	800.000	0.049	-0.196
-515.872	551.846	0.078	0.187
-514.858	-200.000	0.011	0.112
-513.843	174.648	0.152	0.219
-512.829	800.000	0.144	-0.411
-511.814	-129.763	0.282	0.039
-510.799	-110.436	0.037	-0.008
-509.785	146.711	0.131	-0.176
-508.770	-200.000	0.042	-0.311
-507.756	-22.168	-0.146	-0.088
-506.741	74.661	-0.240	-0.252
-505.726	-66.921	0.298	0.118
-504.712	-41.587	-0.060	-0.031
-503.697	-200.000	0.013	-0.094
-502.683	-92.263	-0.325	0.091
-501.668	-200.000	0.038	0.254
-500.653	-200.000	0.021	0.179
-499.639	-32.001	-0.085	0.048
-498.624	-95.341	0.434	0.117
-497.610	-132.238	0.109	0.014
-496.595	178.103	0.073	0.106
-495.581	-200.000	0.027	0.175
-494.566	-33.955	-0.239	-0.131
-493.551	132.201	-0.159	-0.205
-492.537	-190.435	-0.314	0.003
-491.522	-140.310	0.355	0.037
-490.508	167.542	0.078	-0.110
-489.493	-200.000	0.021	-0.264
-488.478	-36.310	0.233	-0.125
-487.464	-87.260	0.122	0.037
-486.449	161.732	0.091	-0.127
-485.435	29.431	-0.100	-0.085
-484.420	72.885	-0.142	0.148
-483.405	-22.199	-0.170	-0.103
-482.391	150.842	0.262	0.356
-481.376	163.122	-0.069	-0.097
-480.362	-93.189	-0.134	0.037
-479.347	-77.515	-0.036	0.013
-478.332	-74.588	0.295	-0.106
-477.318	-20.798	0.333	0.204
-476.303	10.051	-0.082	0.063
-475.289	-200.000	0.003	0.029
-474.274	-104.563	0.159	0.037
-473.259	28.531	0.123	-0.103
-472.245	-37.187	0.189	0.101
-471.230	-130.406	0.090	0.012
-470.216	-105.162	0.224	0.051
-469.201	800.000	-0.028	0.086
-468.186	-45.016	0.259	-0.129
-467.172	800.000	-0.045	-0.184
-466.157	-165.157	0.077	-0.003
-465.143	285.318	-0.073	-0.130
-464.128	800.000	-0.089	-0.251
-463.113	37.910	-0.039	-0.035
-462.099	34.390	-0.187	0.163
-461.084	74.745	-0.188	-0.197
-460.070	381.497	0.174	-0.356
-459.055	800.000	-0.092	0.263
-458.040	-200.000	-0.001	-0.140
-457.026	-200.000	0.023	0.455
-456.011	-128.587	0.379	0.053
-454.997	69.272	-0.090	0.092
-453.982	-11.492	0.155	0.102
-452.968	-44.068	-0.138	-0.069
-451.953	-187.105	0.108	0.001
-450.938	779.408	-0.004	-0.011
-449.924	-139.227	-0.587	0.063
-448.909	18.025	0.226	0.180
-447.895	112.783	-0.096	-0.116
-446.880	-46.539	0.058	0.028
-445.865	-200.000	-0.041	0.450
-444.851	620.009	0.147	-0.368
-443.836	352.787	0.094	-0.186
-442.822	-200.000	0.019	-0.118
-441.807	64.584	0.244	0.245
-440.792	184.690	-0.089	-0.131
-439.778	-108.502	-0.277	0.059
-438.763	-200.000	0.029	-0.225
-437.749	-84.636	-0.244	-0.076
-436.734	-200.000	-0.012	0.094
-435.719	-152.992	-0.186	0.013
-434.705	-59.379	0.244	-0.105
-433.690	-85.336	-0.436	0.135
-432.676	-77.254	0.107	0.037
-431.661	107.720	-0.100	0.119
-430.646	-200.000	0.011	-0.190
-429.632	217.046	-0.173	-0.274
-428.617	-86.729	-0.353	0.108
-427.603	-200.000	0.058	-0.257
-426.588	-57.847	-0.114	0.050
-425.573	-200.000	0.019	-0.317
-424.559	101.056	-0.278	0.322
-423.544	265.991	0.091	-0.158
-422.530	800.000	-0.068	-0.251
-421.515	66.994	-0.284	-0.288
-420.500	-53.145	0.181	-0.083
-419.486	205.998	0.058	0.090
-418.471	-104.013	-0.343	-0.080
-417.457	286.886	0.030	0.054
-416.442	800.000	-0.047	0.175
-415.428	312.990	0.108	0.202
-414.413	-9.915	0.164	0.109
-413.398	-8.540	0.278	0.186
-412.384	-200.000	-0.071	-0.375
-411.369	800.000	0.072	-0.259
-410.355	-117.369	0.169	0.030
-409.340	-3.002	-0.212	-0.147
-408.325	-183.814	0.364	0.006
-407.311	62.887	0.036	0.035
-406.296	174.470	-0.140	0.202
-405.282	7.519	-0.181	0.135
-404.267	800.000	-0.025	0.074
-403.252	-173.730	0.140	0.004
-402.238	800.000	0.022	0.087
-401.223	342.912	0.138	-0.268
-400.209	38.871	-0.219	-0.195
-399.194	188.180	-0.170	0.253
-398.179	-200.000	0.003	0.103
-397.165	34.767	0.143	0.124
-396.150	-65.107	0.374	-0.150
-395.136	473.558	0.151	-0.339
-394.121	-93.655	-0.033	-0.009
-393.106	220.509	-0.134	0.214
-392.092	188.322	0.018	0.026
-391.077	-200.000	0.040	0.355
-390.063	27.751	0.254	0.213
-389.048	123.310	0.202	-0.252
-388.033	-121.820	0.334	0.055
-387.019	-1.234	0.332	0.233
-386.004	-2.396	0.040	-0.028
-384.990	-200.000	0.006	0.122
-383.975	563.060	0.171	0.412
-382.960	-135.647	0.080	0.009
-381.946	171.739	0.128	0.183
-380.931	-0.916	-0.345	-0.243
-379.917	94.537	0.059	-0.066
-378.902	-200.000	0.016	0.393
-377.888	231.544	-0.025	0.041
-376.873	-200.000	0.039	0.514
-375.858	23.626	0.039	-0.032
-374.844	-200.000	0.002	0.054
-373.829	348.485	0.053	0.105
-372.815	-122.675	0.194	0.031
-371.800	-16.765	0.097	-0.061
-370.785	-88.315	-0.079	-0.024
-369.771	-200.000	0.021	0.180
-368.756	-67.992	-0.194	-0.075
-367.742	-13.514	-0.207	0.133
-366.727	664.834	0.084	0.216
-365.712	92.228	0.103	-0.116
-364.698	-159.510	-0.029	0.002
-363.683	-99.888	0.131	0.032
-362.669	-103.039	-0.248	-0.059
-361.654	-21.687	0.087	0.053
-360.639	256.100	0.226	0.385
-359.625	-12.988	-0.043	-0.028
-358.610	696.353	0.123	0.320
-357.596	236.423	-0.110	-0.182
-356.581	489.217	0.110	-0.250
-355.566	388.651	0.087	-0.179
-354.552	800.000	0.067	0.254
-353.537	-49.664	-0.188	-0.089
-352.523	-95.421	0.066	0.018
-351.508	-200.000	0.007	-0.182
-350.493	106.516	0.125	-0.148
-349.479	800.000	-0.064	0.214
-348.464	313.756	0.105	-0.195
-347.450	130.494	-0.100	-0.127
-346.435	-74.908	0.137	0.049
-345.420	-30.262	0.105	-0.059
-344.406	298.694	0.162	-0.296
-343.391	-41.083	0.239	-0.122
-342.377	800.000	-0.055	0.223
-341.362	800.000	0.059	-0.168
-340.348	209.124	0.204	0.317
-339.333	294.799	-0.131	0.239
-338.318	-132.236	-0.174	0.022
-337.304	-175.134	-0.316	-0.009
-336.289	-66.190	-0.072	-0.029
-335.275	122.700	-0.205	-0.255
-334.260	-22.643	-0.371	0.222
-333.245	-200.000	0.014	-0.239
-332.231	107.628	0.222	-0.262
-331.216	23.592	0.242	0.198
-330.202	-200.000	0.033	0.241
-329.187	-28.171	0.334	-0.192
-328.172	-137.263	-0.187	-0.021
-327.158	-115.573	0.438	-0.082
-326.143	332.118	0.087	-0.167
-325.129	-200.000	0.022	0.224
-324.114	-200.000	0.059	0.352
-323.099	-17.019	-0.280	0.176
-322.085	162.993	0.062	-0.087
-321.070	716.115	-0.073	-0.193
-320.056	205.838	0.149	-0.230
-319.041	135.168	0.073	0.094
-318.026	-200.000	0.041	0.316
-317.012	261.479	-0.144	0.248
-315.997	-133.089	0.243	-0.031
-314.983	-200.000	0.011	-0.212
-313.968	-200.000	-0.034	0.181
-312.953	-33.674	-0.327	0.179
-311.939	-185.795	0.180	0.003
-310.924	-113.234	-0.194	-0.038
-309.910	-200.000	0.050	-0.288
-308.895	-49.433	-0.065	0.031
-307.880	211.613	0.108	-0.168
-306.866	4.877	-0.279	0.203
-305.851	-200.000	-0.014	-0.127
-304.837	-157.777	0.447	0.026
-303.822	-200.000	-0.023	-0.319
-302.807	-5.639	0.312	0.212
-301.793	171.991	0.100	-0.143
-300.778	-3.020	0.034	-0.024
-299.764	-157.042	-0.108	-0.007
-298.749	50.933	0.061	0.057
-297.735	-11.889	-0.286	0.186
-296.720	214.343	0.101	-0.159
-295.705	-161.368	0.200	-0.010
-294.691	800.000	-0.060	0.185
-293.676	120.694	0.090	-0.111
-292.662	166.251	-0.164	0.231
-291.647	-159.943	0.359	0.019
-290.632	226.702	-0.155	0.249
-289.618	-104.708	0.333	0.076
-288.603	63.780	-0.295	-0.293
-287.589	631.347	0.134	0.335
-286.574	153.364	0.099	-0.135
-285.559	-158.008	0.209	0.012
-284.545	-200.000	0.015	-0.259
-283.530	-186.488	0.083	0.001
-282.516	393.068	-0.105	-0.217
-281.501	800.000	0.078	-0.236
-280.486	800.000	0.055	0.212
-279.472	213.922	-0.238	-0.372
-278.457	138.056	-0.135	0.176
-277.443	-26.438	-0.241	-0.140
-276.428	486.368	0.097	-0.219
-275.413	36.459	-0.143	-0.125
-274.399	229.521	0.119	-0.192
-273.384	527.788	-0.067	-0.157
-272.370	268.034	0.136	-0.235
-271.355	-63.098	-0.160	0.065
-270.340	97.699	0.192	-0.218
-269.326	-193.237	-0.374	0.003
-268.311	-0.441	-0.058	-0.040
-267.297	256.391	-0.037	0.062
-266.282	-46.896	-0.131	-0.064
-265.267	800.000	0.087	0.264
-264.253	-200.000	0.028	0.320
-263.238	67.713	-0.142	-0.143
-262.224	-40.943	-0.126	0.065
-261.209	-42.206	0.079	-0.040
-260.195	679.748	0.132	-0.341
-259.180	-200.000	0.016	0.234
-258.165	30.139	0.095	-0.080
-257.151	-200.000	-0.022	0.114
-256.136	-74.165	0.257	0.092
-255.122	182.375	-0.150	-0.218
-254.107	-37.227	0.197	0.104
-253.092	-25.246	-0.040	-0.023
-252.078	596.666	-0.143	-0.350
-251.063	-52.447	0.175	-0.080
-250.049	-200.000	0.018	-0.100
-249.034	262.902	0.095	-0.163
-248.019	111.587	0.182	-0.217
-247.005	377.657	-0.100	-0.202
-245.990	330.893	0.125	-0.238
-244.976	15.487	-0.292	-0.227
-243.961	-131.616	-0.125	-0.016
-242.946	-200.000	0.011	-0.116
-241.932	61.218	-0.111	-0.109
-240.917	1.854	0.249	0.178
-239.903	-200.000	0.027	-0.200
-238.888	303.740	0.061	-0.112
-237.873	-52.980	0.278	0.126
-236.859	144.885	-0.203	0.268
-235.844	-134.193	0.332	0.040
-234.830	-200.000	0.026	0.222
-233.815	713.677	-0.173	0.452
-232.800	-200.000	-0.071	0.502
-231.786	-200.000	0.010	0.228
-230.771	-115.468	-0.320	-0.060
-229.757	92.152	-0.254	-0.283
-228.742	163.355	0.091	-0.127
-227.727	-200.000	0.008	0.322
-226.713	800.000	0.129	0.440
-225.698	-33.356	0.043	-0.023
-224.684	76.226	0.013	-0.014
-223.669	800.000	-0.055	-0.216
-222.655	-95.725	0.074	-0.020
-221.640	-28.333	-0.178	0.102
-220.625	-118.689	-0.288	0.050
-219.611	-21.998	0.103	0.062
-218.596	144.966	0.176	0.232
-217.582	113.123	-0.087	0.105
-216.567	547.576	-0.079	-0.187
-215.552	-0.913	-0.259	0.181
-214.538	-200.000	0.007	0.048
-213.523	-48.605	0.179	0.085
-212.509	317.746	0.104	0.195
-211.494	35.514	0.078	0.068
-210.479	273.021	-0.070	0.122
-209.465	-2.119	-0.062	0.043
-208.450	-200.000	-0.019	0.337
-207.436	-109.072	-0.283	0.060
-206.421	-144.402	0.045	-0.004
-205.406	-112.068	-0.039	-0.008
-204.392	-94.285	0.222	-0.060
-203.377	-125.970	-0.300	0.045
-202.363	-50.635	-0.126	0.059
-201.348	-200.000	0.014	-0.092
-200.333	-41.293	0.177	-0.090
-199.319	-200.000	-0.001	0.265
-198.304	-100.175	0.186	0.046
-197.290	94.223	0.289	-0.323
-196.275	-33.913	0.012	-0.007
-195.260	-65.378	-0.335	0.133
-194.246	-200.000	0.034	0.218
-193.231	107.169	0.198	-0.233
-192.217	-200.000	0.004	-0.393
-191.202	-200.000	0.002	0.177
-190.187	74.705	0.185	0.192
-189.173	-68.278	-0.255	0.098
-188.158	-200.000	-0.008	-0.163
-187.144	181.503	-0.158	0.229
-186.129	457.989	0.042	-0.093
-185.114	-200.000	-0.014	-0.092
-184.100	58.850	0.078	-0.076
-183.085	-147.274	-0.363	0.030
-182.071	-179.002	-0.207	-0.005
-181.056	800.000	0.037	0.143
-180.042	788.725	0.042	-0.114
-179.027	107.026	-0.050	-0.059
-178.012	32.968	0.287	-0.245
-176.998	800.000	-0.062	0.229
-175.983	418.039	-0.056	-0.118
-174.969	200.512	-0.102	-0.155
-173.954	-162.800	-0.308	0.015
-172.939	-101.311	0.111	0.027
-171.925	-89.822	0.212	-0.061
-170.910	-12.838	0.214	0.138
-169.896	-124.973	-0.149	0.023
-168.881	251.157	0.085	0.142
-167.866	-200.000	-0.050	0.218
-166.852	130.045	0.081	0.102
-165.837	385.718	-0.068	0.138
-164.823	-116.426	-0.096	-0.017
-163.808	230.831	0.141	-0.228
-162.793	562.380	0.074	0.175
-161.779	-200.000	-0.014	-0.166
-160.764	-114.996	-0.259	0.049
-159.750	41.214	-0.235	0.209
-158.735	800.000	-0.167	0.669
-157.720	-42.417	0.325	-0.163
-156.706	-200.000	-0.017	0.127
-155.691	-4.678	-0.130	0.088
-154.677	26.851	-0.152	-0.126
-153.662	-90.710	-0.168	0.048
-152.647	-108.446	-0.049	-0.010
-151.633	-111.405	-0.243	-0.049
-150.618	250.695	0.054	-0.091
-149.604	64.387	-0.143	-0.142
-148.589	800.000	-0.058	-0.181
-147.574	-117.461	-0.162	0.029
-146.560	480.120	0.063	-0.140
-145.545	-200.000	-0.048	0.219
-144.531	147.686	-0.163	0.217
-143.516	19.155	-0.158	0.125
-142.502	176.778	-0.124	-0.177
-141.487	109.592	-0.132	0.156
-140.472	-45.399	0.168	-0.082
-139.458	788.331	-0.049	-0.132
-138.443	-91.793	0.106	0.030
-137.429	-200.000	0.004	-0.396
-136.414	-111.838	0.170	-0.034
-135.399	-200.000	0.018	0.094
-134.385	-80.900	-0.109	-0.036
-133.370	35.456	0.211	-0.182
-132.356	22.106	-0.173	-0.139
-131.341	482.254	0.076	-0.170
-130.326	-200.000	-0.021	0.349
-129.312	-98.423	-0.066	0.017
-128.297	-200.000	0.004	0.090
-127.283	430.867	0.088	0.188
-126.268	-200.000	0.096	-0.472
-125.253	-180.567	-0.066	-0.001
-124.239	-63.777	-0.337	0.136
-123.224	-200.000	-0.009	-0.074
-122.210	316.927	0.097	0.180
