DTS Sentinel unit serial number:	SN413079Multiplexer serial number:	ORYXHardware model number:	OX4-SRSoftware version number:	ORYX F/W v4.00 Oryx Data Collector v3.7.2.0data status	okinstallation	princeton_trtdifferential loss correction	single-endedforward channel	channel 2reverse channel	N/Adate	2019/09/16time	01:55:35forward acquisition time	60.00reverse acquisition time	0.00gamma	496.2192k internal	0.2336k external	0.2336temperature offset calibration	0.9967default loss term (dB/km)	0.3790temperature slope calibration	1.0000multiplexer offset coefficient	1.0000multiplexer slope coefficient	1.0000fibre end	0.00T internal ref (°C)	27.41T ext. ref 1 (°C)	10.06T ext. ref 2 (°C)	22.32length (m)	temperature (°C)	Stokes	anti-Stokes-747.200	-200.000	0.028	0.195
-746.185	-200.000	-0.053	0.304
-745.171	-75.212	0.139	-0.050
-744.156	297.936	-0.172	0.318
-743.142	-200.000	-0.016	0.223
-742.127	23.143	0.175	0.145
-741.112	42.326	0.108	0.099
-740.098	48.672	-0.450	0.423
-739.083	80.583	0.109	0.118
-738.069	-35.903	-0.107	0.058
-737.054	37.451	0.280	-0.249
-736.039	-73.920	-0.045	-0.016
-735.025	-82.654	0.252	0.082
-734.010	-0.667	-0.125	0.089
-732.996	370.634	-0.044	0.089
-731.981	-167.758	-0.237	-0.009
-730.966	-200.000	0.020	0.120
-729.952	-128.275	0.157	-0.022
-728.937	800.000	-0.097	0.312
-727.923	-86.484	-0.173	0.053
-726.908	800.000	0.035	-0.141
-725.894	82.541	0.260	0.283
-724.879	82.110	-0.227	-0.247
-723.864	-136.779	-0.163	-0.019
-722.850	-93.701	-0.127	0.035
-721.835	800.000	-0.080	0.264
-720.821	-96.702	-0.165	0.044
-719.806	146.055	-0.032	-0.042
-718.791	-89.724	0.036	-0.010
-717.777	-111.957	0.334	0.068
-716.762	461.085	-0.131	-0.294
-715.748	-200.000	-0.005	-0.163
-714.733	-38.156	0.120	-0.064
-713.718	55.947	-0.030	-0.029
-712.704	800.000	-0.038	0.108
-711.689	-78.821	-0.143	0.049
-710.675	-65.548	-0.185	-0.075
-709.660	-200.000	0.004	-0.075
-708.645	-90.022	-0.249	0.073
-707.631	-73.053	0.254	0.094
-706.616	-82.885	0.199	-0.064
-705.602	-133.480	-0.129	-0.016
-704.587	253.807	-0.063	-0.109
-703.572	-83.262	-0.258	-0.083
-702.558	27.981	-0.085	0.072
-701.543	418.072	0.167	-0.359
-700.529	800.000	-0.041	0.142
-699.514	-105.505	0.338	0.077
-698.499	-200.000	0.010	0.230
-697.485	221.629	-0.116	-0.187
-696.470	-34.538	0.154	-0.085
-695.456	305.991	-0.119	-0.221
-694.441	-200.000	0.022	-0.127
-693.426	800.000	0.097	-0.299
-692.412	184.972	-0.182	-0.270
-691.397	-169.246	-0.166	-0.006
-690.383	384.683	-0.062	0.128
-689.368	553.689	-0.203	-0.488
-688.354	219.633	0.011	0.017
-687.339	312.673	0.098	0.185
-686.324	-58.528	-0.132	0.058
-685.310	18.754	-0.051	-0.041
-684.295	-200.000	0.004	-0.290
-683.281	-14.160	-0.142	0.092
-682.266	-83.897	0.182	0.058
-681.251	101.585	0.173	0.201
-680.237	-145.050	-0.249	0.023
-679.222	-200.000	-0.000	0.026
-678.208	276.681	0.174	-0.309
-677.193	800.000	-0.075	-0.270
-676.178	12.711	0.086	0.067
-675.164	800.000	-0.047	0.188
-674.149	-128.543	0.260	-0.037
-673.135	-110.777	0.343	-0.071
-672.120	45.504	-0.096	-0.088
-671.105	-200.000	-0.015	0.211
-670.091	73.688	-0.064	0.067
-669.076	-116.955	0.244	-0.045
-668.062	-200.000	-0.013	-0.091
-667.047	-128.149	-0.383	-0.055
-666.032	-200.000	0.026	0.263
-665.018	135.138	0.118	-0.153
-664.003	125.796	0.078	0.098
-662.989	-4.112	-0.242	0.168
-661.974	-200.000	0.013	0.080
-660.959	800.000	-0.066	-0.202
-659.945	-191.771	0.157	0.002
-658.930	38.021	-0.149	-0.133
-657.916	-200.000	-0.006	-0.107
-656.901	344.026	0.057	-0.112
-655.886	237.827	-0.191	-0.318
-654.872	-54.295	0.263	0.119
-653.857	39.867	0.046	-0.041
-652.843	-90.791	-0.326	0.094
-651.828	-123.401	-0.208	-0.033
-650.814	88.283	0.202	-0.224
-649.799	-118.186	0.272	0.049
-648.784	-97.567	-0.136	-0.035
-647.770	800.000	-0.099	-0.410
-646.755	-89.612	0.175	0.051
-645.741	-104.070	-0.175	0.041
-644.726	-31.262	0.420	-0.237
-643.711	-149.182	0.138	0.011
-642.697	-200.000	0.003	0.274
-641.682	37.896	0.294	0.261
-640.668	715.883	0.103	-0.274
-639.653	-121.298	-0.145	0.024
-638.638	65.331	-0.121	-0.122
-637.624	4.549	-0.132	-0.097
-636.609	-145.348	0.151	0.014
-635.595	224.816	-0.095	-0.154
-634.580	126.951	-0.202	-0.257
-633.565	-153.595	0.358	-0.025
-632.551	216.646	-0.173	-0.275
-631.536	-84.759	0.186	-0.058
-630.522	51.745	0.164	-0.156
-629.507	-200.000	-0.023	-0.120
-628.492	-62.835	-0.140	0.058
-627.478	-107.061	-0.062	-0.014
-626.463	26.528	0.116	-0.097
-625.449	-49.318	-0.039	-0.019
-624.434	800.000	-0.040	0.128
-623.419	18.516	-0.090	-0.072
-622.405	132.380	0.317	-0.408
-621.390	-200.000	0.040	0.402
-620.376	-136.759	-0.293	-0.034
-619.361	139.157	0.101	-0.132
-618.346	-200.000	-0.058	0.295
-617.332	36.709	0.065	0.058
-616.317	-200.000	-0.005	-0.320
-615.303	800.000	-0.087	-0.284
-614.288	-181.037	0.071	0.001
-613.273	-200.000	-0.028	-0.423
-612.259	-55.286	-0.119	-0.053
-611.244	-50.018	-0.291	0.138
-610.230	-200.000	0.034	0.164
-609.215	-200.000	0.013	-0.234
-608.201	48.022	-0.082	-0.076
-607.186	4.196	0.134	0.098
-606.171	-70.201	0.121	0.046
-605.157	-148.065	0.171	-0.014
-604.142	-169.456	-0.084	0.003
-603.128	-126.239	-0.288	-0.043
-602.113	-21.341	-0.049	-0.030
-601.098	-200.000	-0.004	0.075
-600.084	-13.832	0.238	-0.154
-599.069	-103.469	0.144	0.034
-598.055	-135.050	0.412	-0.050
-597.040	89.704	0.170	-0.190
-596.025	154.556	-0.190	0.261
-595.011	-102.614	-0.334	0.080
-593.996	142.463	0.094	0.125
-592.982	241.058	-0.049	0.081
-591.967	143.078	-0.151	0.201
-590.952	800.000	0.027	-0.081
-589.938	-200.000	-0.019	-0.230
-588.923	-200.000	-0.041	-0.350
-587.909	800.000	-0.060	-0.238
-586.894	-65.808	-0.107	0.043
-585.879	60.391	0.119	0.118
-584.865	-191.709	-0.082	0.001
-583.850	-156.927	0.229	-0.014
-582.836	24.380	-0.013	0.011
-581.821	800.000	-0.135	-0.502
-580.806	-107.340	-0.297	-0.065
-579.792	10.564	-0.133	-0.101
-578.777	-159.454	-0.284	-0.016
-577.763	-55.829	0.039	-0.017
-576.748	-23.475	0.200	-0.120
-575.733	181.620	0.217	0.319
-574.719	-138.269	0.026	-0.003
-573.704	356.289	-0.081	0.161
-572.690	-53.540	-0.236	-0.108
-571.675	-61.119	0.207	0.087
-570.661	-108.813	0.355	-0.076
-569.646	-44.915	-0.336	0.167
-568.631	-65.081	0.100	-0.040
-567.617	-116.878	-0.312	-0.057
-566.602	-85.946	0.204	-0.063
-565.588	48.044	-0.071	-0.066
-564.573	-102.105	-0.231	-0.055
-563.558	800.000	-0.072	0.306
-562.544	-68.197	-0.164	-0.064
-561.529	255.422	-0.021	0.036
-560.515	-98.436	-0.114	-0.029
-559.500	-2.482	-0.231	-0.162
-558.485	-36.045	-0.219	-0.118
-557.471	-145.221	-0.158	-0.014
-556.456	223.603	0.191	-0.307
-555.442	800.000	-0.016	-0.057
-554.427	-66.728	-0.184	-0.073
-553.412	-67.493	0.187	0.073
-552.398	-200.000	0.003	-0.094
-551.383	-200.000	-0.039	-0.214
-550.369	-111.406	-0.114	0.023
-549.354	-89.716	0.147	-0.043
-548.339	-100.579	0.171	0.042
-547.325	152.903	-0.121	-0.165
-546.310	266.449	0.162	-0.282
-545.296	800.000	0.031	0.117
-544.281	-22.146	0.139	0.084
-543.266	131.585	-0.125	-0.160
-542.252	-200.000	0.033	-0.204
-541.237	-42.715	0.306	-0.155
-540.223	321.102	0.034	-0.065
-539.208	-148.218	-0.398	0.033
-538.193	164.589	-0.180	0.253
-537.179	-77.844	-0.111	0.038
-536.164	800.000	-0.046	-0.174
-535.150	-200.000	0.075	-0.334
-534.135	263.286	-0.024	0.042
-533.121	-94.722	-0.196	-0.053
-532.106	-200.000	0.009	-0.338
-531.091	105.433	-0.037	-0.043
-530.077	174.268	-0.158	0.227
-529.062	169.165	0.100	0.143
-528.048	40.440	-0.058	0.052
-527.033	-200.000	0.015	-0.130
-526.018	157.483	0.093	0.129
-525.004	-41.476	-0.045	0.023
-523.989	-156.884	0.254	-0.016
-522.975	0.895	0.201	-0.143
-521.960	-88.824	0.219	-0.065
-520.945	28.378	0.105	-0.088
-519.931	800.000	0.081	0.236
-518.916	-108.958	-0.167	-0.035
-517.902	-200.000	-0.017	-0.434
-516.887	345.260	0.057	-0.112
-515.872	-142.700	0.231	-0.022
-514.858	-36.050	-0.228	0.122
-513.843	-18.757	-0.073	-0.045
-512.829	154.614	-0.119	0.163
-511.814	-144.037	0.118	0.011
-510.799	84.067	-0.117	-0.127
-509.785	28.104	-0.074	0.062
-508.770	-200.000	0.010	-0.096
-507.756	-93.379	-0.194	0.054
-506.741	295.587	-0.083	-0.151
-505.726	-75.754	-0.212	0.075
-504.712	249.823	-0.242	-0.408
-503.697	73.377	-0.070	0.073
-502.683	-142.929	-0.073	-0.007
-501.668	800.000	0.013	-0.041
-500.653	800.000	0.095	0.353
-499.639	75.471	0.176	0.185
-498.624	-200.000	0.059	-0.393
-497.610	-200.000	-0.028	-0.139
-496.595	-106.736	-0.164	-0.036
-495.581	-200.000	0.033	-0.360
-494.566	158.968	-0.043	-0.059
-493.551	-200.000	0.037	-0.230
-492.537	400.117	-0.099	0.207
-491.522	-94.635	0.246	0.067
-490.508	800.000	0.035	0.141
-489.493	-97.364	-0.036	0.009
-488.478	607.813	0.146	-0.362
-487.464	-96.923	-0.096	-0.025
-486.449	-25.835	-0.049	-0.029
-485.435	800.000	0.031	-0.088
-484.420	-80.248	0.232	-0.077
-483.405	166.557	-0.026	0.036
-482.391	-88.166	0.421	0.125
-481.376	-43.061	-0.419	-0.211
-480.362	-140.489	0.270	-0.028
-479.347	-200.000	-0.001	-0.213
-478.332	572.054	0.096	0.234
-477.318	-1.287	-0.283	0.199
-476.303	-41.539	-0.305	-0.156
-475.289	-139.175	-0.125	-0.013
-474.274	-200.000	-0.012	-0.319
-473.259	-200.000	-0.029	0.156
-472.245	-64.832	0.170	0.068
-471.230	-200.000	-0.010	0.263
-470.216	-6.144	-0.147	0.100
-469.201	-200.000	0.058	0.292
-468.186	-200.000	-0.046	-0.383
-467.172	-200.000	0.039	-0.267
-466.157	215.356	-0.118	0.187
-465.143	-200.000	0.009	-0.201
-464.128	-22.136	-0.252	0.152
-463.113	-82.708	-0.233	0.075
-462.099	-122.260	-0.263	-0.043
-461.084	-49.372	0.188	-0.089
-460.070	224.545	-0.049	-0.079
-459.055	24.174	0.224	0.184
-458.040	-200.000	-0.009	-0.232
-457.026	348.500	-0.154	-0.301
-456.011	-200.000	0.011	0.062
-454.997	37.222	0.284	-0.250
-453.982	-98.323	0.217	0.055
-452.968	27.661	0.322	0.269
-451.953	105.310	0.061	0.072
-450.938	87.129	-0.177	-0.194
-449.924	-122.122	0.161	-0.026
-448.909	78.770	-0.163	-0.174
-447.895	-82.197	-0.125	-0.040
-446.880	6.834	0.160	0.118
-445.865	228.393	0.095	-0.153
-444.851	278.652	-0.163	0.289
-443.836	-196.117	-0.377	0.003
-442.822	-200.000	-0.015	-0.226
-441.807	105.950	0.088	0.103
-440.792	-27.868	-0.178	-0.102
-439.778	312.267	0.141	0.263
-438.763	-22.810	-0.203	0.121
-437.749	7.828	0.131	0.097
-436.734	458.899	0.052	0.114
-435.719	-14.961	-0.193	0.123
-434.705	-106.936	-0.040	-0.009
-433.690	9.165	0.048	0.036
-432.676	-39.250	0.218	-0.114
-431.661	-157.606	-0.272	0.016
-430.646	191.960	0.145	0.217
-429.632	-198.013	0.117	0.001
-428.617	-200.000	0.000	-0.166
-427.603	-86.022	-0.284	0.087
-426.588	-5.692	0.280	-0.190
-425.573	-29.792	0.438	0.248
-424.559	-167.651	-0.299	-0.012
-423.544	-111.838	-0.284	-0.057
-422.530	174.881	0.144	0.207
-421.515	-120.196	-0.246	0.042
-420.500	26.897	0.198	0.165
-419.486	-55.011	-0.484	0.216
-418.471	-8.153	-0.119	0.080
-417.457	800.000	0.060	-0.229
-416.442	800.000	-0.042	0.125
-415.428	350.461	0.064	0.125
-414.413	-61.004	0.059	0.025
-413.398	434.612	-0.084	-0.181
-412.384	273.473	-0.065	0.114
-411.369	-200.000	-0.020	0.157
-410.355	-200.000	0.004	-0.240
-409.340	52.773	0.240	0.227
-408.325	-200.000	-0.003	0.110
-407.311	48.641	0.081	0.075
-406.296	-56.744	-0.165	-0.072
-405.282	-200.000	0.025	-0.203
-404.267	734.583	0.140	-0.373
-403.252	263.612	-0.162	-0.279
-402.238	134.699	-0.109	-0.140
-401.223	800.000	0.057	0.165
-400.209	431.016	0.011	0.023
-399.194	-14.629	-0.114	0.073
-398.179	18.659	0.226	0.179
-397.165	280.293	-0.020	0.035
-396.150	-88.255	-0.068	-0.020
-395.136	137.975	-0.112	-0.146
-394.121	-51.737	-0.184	-0.085
-393.106	-89.924	0.290	-0.084
-392.092	800.000	0.021	-0.077
-391.077	130.265	0.240	0.304
-390.063	52.242	-0.119	0.113
-389.048	-64.709	0.296	0.119
-388.033	-26.035	-0.264	0.154
-387.019	-134.457	0.248	0.030
-386.004	-66.279	-0.302	0.119
-384.990	-146.463	0.120	0.010
-383.975	-200.000	0.021	0.100
-382.960	0.312	0.080	0.057
-381.946	551.516	0.104	0.247
-380.931	-110.133	-0.222	0.046
-379.917	-38.986	0.181	0.094
-378.902	800.000	0.079	-0.253
-377.888	-157.192	0.384	-0.023
-376.873	-200.000	-0.029	-0.192
-375.858	440.796	0.119	0.258
-374.844	800.000	0.086	-0.275
-373.829	-116.887	-0.135	-0.024
-372.815	314.923	0.038	-0.070
-371.800	167.656	0.179	0.252
-370.785	-45.137	-0.476	0.234
-369.771	-79.487	0.432	0.145
-368.756	545.136	-0.089	0.210
-367.742	-84.271	-0.108	-0.034
-366.727	-138.414	-0.319	-0.035
-365.712	217.111	-0.089	-0.140
-364.698	395.600	-0.090	0.185
-363.683	-47.658	-0.206	-0.099
-362.669	42.232	0.276	-0.248
-361.654	-109.881	-0.319	0.066
-360.639	800.000	0.091	-0.257
-359.625	-28.540	-0.386	-0.220
-358.610	-139.467	-0.152	0.016
-357.596	-76.737	0.137	-0.047
-356.581	110.415	-0.132	-0.157
-355.566	800.000	0.066	0.275
-354.552	-95.451	0.086	0.023
-353.537	800.000	-0.050	0.214
-352.523	-84.744	0.327	-0.102
-351.508	-112.363	-0.311	-0.062
-350.493	49.066	0.228	-0.212
-349.479	-30.570	-0.187	-0.105
-348.464	285.374	0.060	-0.107
-347.450	157.156	0.073	-0.100
-346.435	60.412	0.217	-0.213
-345.420	12.153	-0.139	0.106
-344.406	-119.676	-0.180	-0.031
-343.391	-200.000	-0.011	0.229
-342.377	691.629	-0.125	0.324
-341.362	495.515	0.062	-0.141
-340.348	-74.998	-0.467	0.165
-339.333	-18.650	-0.175	0.108
-338.318	-40.330	-0.155	0.080
-337.304	800.000	-0.037	-0.126
-336.289	-43.082	0.067	0.033
-335.275	-123.956	-0.195	-0.030
-334.260	79.635	0.012	-0.013
-333.245	-99.181	0.071	0.018
-332.231	-95.982	0.066	0.017
-331.216	-200.000	-0.026	0.224
-330.202	125.862	-0.117	-0.146
-329.187	290.020	-0.028	-0.051
-328.172	-200.000	-0.039	-0.178
-327.158	-200.000	0.043	-0.189
-326.143	-0.960	0.132	-0.092
-325.129	-29.588	0.397	-0.224
-324.114	141.722	-0.331	-0.433
-323.099	239.329	-0.089	0.146
-322.085	-120.631	0.064	0.011
-321.070	-86.336	0.149	0.045
-320.056	-121.537	-0.128	-0.021
-319.041	248.666	0.083	-0.139
-318.026	65.603	0.146	0.146
-317.012	188.576	0.106	-0.156
-315.997	348.026	0.051	-0.099
-314.983	-159.868	0.417	-0.023
-313.968	69.213	-0.168	0.171
-312.953	-200.000	-0.058	-0.337
-311.939	-26.171	0.354	0.205
-310.924	-0.431	-0.042	-0.029
-309.910	-134.989	0.283	0.034
-308.895	-200.000	0.007	-0.030
-307.880	171.675	0.019	0.026
-306.866	-200.000	0.002	-0.038
-305.851	226.709	0.120	0.192
-304.837	111.113	-0.077	0.092
-303.822	-200.000	0.022	0.161
-302.807	-200.000	0.009	0.268
-301.793	-137.211	0.140	-0.016
-300.778	800.000	-0.052	0.187
-299.764	-98.967	0.163	-0.041
-298.749	96.104	-0.142	0.160
-297.735	-179.388	-0.161	0.004
-296.720	-200.000	-0.016	0.219
-295.705	-67.399	0.249	-0.096
-294.691	-152.625	0.167	-0.012
-293.676	-200.000	0.042	0.195
-292.662	-17.804	-0.247	0.153
-291.647	-49.451	-0.500	0.235
-290.632	-19.540	-0.046	0.028
-289.618	384.507	0.059	0.119
-288.603	-112.895	0.181	0.035
-287.589	-10.658	-0.162	-0.106
-286.574	-37.681	0.189	-0.099
-285.559	800.000	-0.088	0.349
-284.545	-99.628	0.331	0.082
-283.530	-200.000	-0.079	-0.439
-282.516	-200.000	-0.008	0.235
-281.501	149.868	-0.170	0.227
-280.486	45.054	0.258	0.234
-279.472	214.969	0.057	-0.089
-278.457	800.000	-0.082	-0.275
-277.443	513.000	0.105	0.241
-276.428	8.702	0.064	0.048
-275.413	81.848	0.015	-0.017
-274.399	-90.829	0.305	-0.087
-273.384	112.023	0.216	0.258
-272.370	-52.598	-0.133	0.061
-271.355	800.000	0.043	0.122
-270.340	800.000	0.049	0.160
-269.326	56.759	-0.164	0.157
-268.311	-30.644	0.143	0.080
-267.297	155.757	0.041	-0.056
-266.282	108.538	-0.088	0.104
-265.267	-50.697	-0.192	-0.089
-264.253	-152.924	-0.325	-0.023
-263.238	102.615	0.181	0.209
-262.224	52.662	0.210	0.198
-261.209	800.000	-0.015	0.043
-260.195	-30.787	-0.285	0.159
-259.180	-159.705	0.165	-0.009
-258.165	-192.106	-0.133	0.001
-257.151	617.983	-0.044	0.110
-256.136	315.368	-0.123	-0.228
-255.122	600.689	-0.120	-0.295
-254.107	-10.458	-0.060	0.039
-253.092	199.940	0.094	-0.142
-252.078	-30.572	0.272	0.152
-251.063	-62.443	-0.075	-0.031
-250.049	-13.903	0.152	0.097
-249.034	800.000	0.089	0.297
-248.019	142.847	0.150	0.197
-247.005	-74.644	0.163	0.058
-245.990	-55.794	-0.243	0.107
-244.976	-41.916	0.177	-0.089
-243.961	-67.217	-0.194	0.075
-242.946	-71.759	0.160	0.059
-241.932	-56.991	0.261	-0.113
-240.917	277.255	-0.192	-0.336
-239.903	-105.184	-0.134	-0.030
-238.888	-66.382	-0.121	-0.047
-237.873	92.669	0.123	-0.137
-236.859	44.735	-0.172	0.156
-235.844	-200.000	0.060	0.268
-234.830	800.000	0.042	0.181
-233.815	800.000	0.009	0.032
-232.800	-200.000	-0.013	0.082
-231.786	-82.171	-0.193	-0.062
-230.771	-200.000	0.003	0.020
-229.757	-200.000	-0.022	0.154
-228.742	-200.000	0.047	0.308
-227.727	-55.110	-0.057	0.025
-226.713	216.179	-0.075	0.117
-225.698	-29.732	0.118	0.066
-224.684	-23.868	0.403	-0.237
-223.669	-10.744	-0.111	-0.072
-222.655	-70.834	0.253	-0.094
-221.640	-27.092	-0.161	0.093
-220.625	21.426	0.159	0.127
-219.611	106.885	0.219	-0.256
-218.596	-74.369	0.074	-0.026
-217.582	-200.000	0.001	0.134
-216.567	13.776	-0.219	0.168
-215.552	-139.459	-0.346	0.036
-214.538	252.348	0.086	0.144
-213.523	4.151	0.286	-0.206
-212.509	-10.670	0.152	0.099
-211.494	-74.027	0.073	0.026
-210.479	800.000	0.055	0.156
-209.465	531.149	-0.102	0.238
-208.450	-83.049	-0.125	0.040
-207.436	-200.000	-0.039	-0.289
-206.421	800.000	-0.078	0.251
-205.406	380.551	-0.167	0.337
-204.392	16.652	0.077	-0.060
-203.377	-120.253	0.320	-0.054
-202.363	737.705	0.131	0.344
-201.348	70.024	-0.166	-0.168
-200.333	57.471	-0.193	-0.185
-199.319	118.158	-0.119	0.144
-198.304	-200.000	0.039	0.192
-197.290	102.532	0.107	0.123
-196.275	-197.249	-0.348	0.002
-195.260	-65.597	0.070	-0.028
-194.246	94.533	0.127	-0.142
-193.231	-50.501	0.242	0.112
-192.217	-42.404	0.051	0.026
-191.202	-20.201	-0.244	0.147
-190.187	-26.822	-0.107	-0.062
-189.173	-37.271	0.129	-0.068
-188.158	-60.145	0.327	0.137
-187.144	11.703	0.291	0.219
-186.129	-26.837	0.301	0.173
-185.114	367.974	0.204	0.404
-184.100	800.000	-0.042	0.178
-183.085	221.590	-0.191	-0.301
-182.071	228.380	0.078	0.125
-181.056	46.980	-0.156	0.142
-180.042	96.112	-0.229	-0.257
-179.027	570.472	0.128	0.306
-178.012	-120.700	-0.295	0.049
-176.998	-136.946	0.120	0.014
-175.983	-129.017	-0.062	-0.009
-174.969	-153.218	-0.092	0.006
-173.954	-185.783	0.216	-0.003
-172.939	-200.000	0.005	0.324
-171.925	60.351	-0.059	0.057
-170.910	-126.434	0.403	-0.059
-169.896	479.615	0.127	0.282
-168.881	-66.498	-0.133	-0.052
-167.866	211.019	-0.085	-0.131
-166.852	-200.000	-0.014	-0.184
-165.837	800.000	0.042	0.133
-164.823	-87.390	0.230	-0.068
-163.808	-120.144	0.314	0.053
-162.793	-7.322	-0.202	0.134
-161.779	-83.692	0.257	0.081
-160.764	800.000	-0.070	-0.200
-159.750	-107.328	-0.365	0.079
-158.735	-103.403	-0.095	0.022
-157.720	800.000	-0.052	0.174
-156.706	555.597	0.124	-0.294
-155.691	-128.175	-0.068	0.010
-154.677	-23.596	-0.209	0.123
-153.662	-200.000	0.020	-0.154
-152.647	-200.000	0.032	-0.158
-151.633	397.598	0.153	-0.314
-150.618	-86.582	-0.191	-0.057
-149.604	-67.161	-0.136	0.052
-148.589	-104.601	-0.230	0.052
-147.574	78.476	-0.112	-0.118
-146.560	-154.324	0.439	-0.029
-145.545	5.684	0.296	0.215
-144.531	153.227	0.084	-0.112
-143.516	-32.630	0.340	0.186
-142.502	-0.631	-0.138	-0.096
-141.487	156.656	0.089	-0.121
-140.472	800.000	0.080	0.297
-139.458	-86.446	0.142	-0.043
-138.443	-200.000	-0.007	-0.145
-137.429	-28.220	-0.261	0.148
-136.414	-200.000	0.017	0.133
-135.399	-119.931	-0.308	-0.052
-134.385	800.000	0.088	-0.288
-133.370	-97.928	0.051	0.013
-132.356	-200.000	0.110	0.549
-131.341	95.515	0.055	-0.062
-130.326	-25.876	0.183	0.106
-129.312	-200.000	0.025	0.195
-128.297	-63.585	-0.245	-0.099
-127.283	-160.940	0.330	0.017
-126.268	-61.777	0.287	0.118
-125.253	357.318	-0.053	0.103
-124.239	416.526	-0.062	-0.130
-123.224	108.343	0.127	-0.148
-122.210	-6.483	0.083	0.055
-121.195	-2.823	0.151	-0.104
