DTS Sentinel unit serial number:	SN413079Multiplexer serial number:	ORYXHardware model number:	OX4-SRSoftware version number:	ORYX F/W v4.00 Oryx Data Collector v3.7.2.0data status	okinstallation	princeton_trtdifferential loss correction	single-endedforward channel	channel 2reverse channel	N/Adate	2019/09/13time	04:47:35forward acquisition time	60.00reverse acquisition time	0.00gamma	496.2192k internal	0.2336k external	0.2336temperature offset calibration	1.0192default loss term (dB/km)	0.3790temperature slope calibration	1.0000multiplexer offset coefficient	1.0000multiplexer slope coefficient	1.0000fibre end	0.00T internal ref (°C)	26.56T ext. ref 1 (°C)	4.06T ext. ref 2 (°C)	21.09length (m)	temperature (°C)	Stokes	anti-Stokes-747.200	3.318	-0.193	0.141
-746.185	1.883	0.243	-0.176
-745.171	800.000	0.074	0.293
-744.156	60.641	-0.368	0.366
-743.142	-200.000	-0.006	-0.155
-742.127	107.908	-0.089	-0.107
-741.112	-24.516	0.018	-0.011
-740.098	5.739	0.232	0.172
-739.083	87.179	0.085	-0.095
-738.069	389.170	0.140	0.292
-737.054	800.000	0.097	0.301
-736.039	-93.465	-0.352	-0.098
-735.025	-73.118	-0.082	0.030
-734.010	433.408	-0.160	-0.349
-732.996	-107.669	-0.190	-0.042
-731.981	-120.916	-0.473	0.080
-730.966	27.804	0.081	-0.069
-729.952	117.018	0.075	-0.093
-728.937	800.000	0.115	0.468
-727.923	21.932	-0.006	-0.005
-726.908	413.785	-0.041	0.088
-725.894	-200.000	-0.037	0.198
-724.879	-5.655	-0.175	-0.121
-723.864	-190.387	-0.166	0.002
-722.850	177.435	-0.021	-0.031
-721.835	-165.557	-0.515	-0.023
-720.821	138.747	-0.196	-0.259
-719.806	-200.000	0.035	-0.239
-718.791	-200.000	-0.029	0.315
-717.777	-121.284	-0.423	-0.071
-716.762	25.015	-0.282	-0.235
-715.748	-200.000	-0.002	-0.158
-714.733	535.896	-0.047	0.113
-713.718	800.000	0.077	0.265
-712.704	-57.169	-0.186	0.082
-711.689	-61.979	-0.213	-0.089
-710.675	448.487	-0.150	-0.331
-709.660	-35.717	0.346	-0.188
-708.645	-200.000	-0.001	0.149
-707.631	16.077	-0.288	0.228
-706.616	-120.381	0.053	0.009
-705.602	-120.846	-0.341	-0.058
-704.587	800.000	-0.080	0.267
-703.572	43.023	-0.177	-0.161
-702.558	-141.907	0.256	-0.026
-701.543	800.000	-0.083	0.345
-700.529	64.838	0.304	-0.308
-699.514	-200.000	-0.006	-0.090
-698.499	800.000	-0.021	0.067
-697.485	-48.653	0.141	-0.068
-696.470	-61.359	0.077	0.033
-695.456	-106.478	-0.135	0.030
-694.441	672.743	-0.041	-0.108
-693.426	192.653	-0.220	-0.333
-692.412	-7.804	0.135	-0.091
-691.397	-53.269	-0.431	-0.198
-690.383	28.565	-0.222	-0.189
-689.368	452.094	0.064	0.143
-688.354	-75.330	0.239	-0.085
-687.339	21.694	-0.287	0.234
-686.324	-7.272	0.129	-0.088
-685.310	-42.234	0.193	0.099
-684.295	-99.734	0.184	-0.046
-683.281	800.000	0.019	0.059
-682.266	-35.039	-0.136	0.074
-681.251	-76.794	-0.203	0.071
-680.237	96.001	-0.067	-0.077
-679.222	-200.000	0.031	0.196
-678.208	800.000	0.064	-0.272
-677.193	315.478	-0.125	0.237
-676.178	-69.913	-0.198	-0.076
-675.164	-53.792	0.064	-0.029
-674.149	-127.168	0.209	0.031
-673.135	39.460	0.059	0.053
-672.120	-83.753	0.270	-0.086
-671.105	-5.640	-0.185	-0.127
-670.091	800.000	-0.028	-0.119
-669.076	-65.649	-0.208	0.083
-668.062	-177.372	0.054	0.001
-667.047	114.331	-0.162	0.198
-666.032	-200.000	0.017	-0.190
-665.018	553.626	-0.065	0.156
-664.003	-200.000	-0.000	-0.050
-662.989	108.596	-0.108	0.129
-661.974	-132.114	-0.241	-0.031
-660.959	-200.000	0.010	-0.114
-659.945	800.000	0.055	-0.208
-658.930	153.300	-0.239	0.327
-657.916	163.329	0.131	0.185
-656.901	-95.667	0.099	0.027
-655.886	-110.472	-0.292	0.061
-654.872	-200.000	-0.021	-0.289
-653.857	-11.749	-0.166	-0.109
-652.843	152.115	-0.154	-0.210
-651.828	-120.007	-0.227	0.039
-650.814	800.000	0.047	-0.141
-649.799	-25.987	-0.228	-0.134
-648.784	328.430	-0.180	-0.346
-647.770	148.280	0.169	0.229
-646.755	800.000	0.038	0.116
-645.741	800.000	0.044	-0.133
-644.726	-200.000	0.001	0.106
-643.711	-111.609	-0.388	-0.079
-642.697	-59.027	-0.364	-0.157
-641.682	-105.146	-0.250	-0.057
-640.668	-104.095	0.162	-0.038
-639.653	-200.000	-0.010	0.245
-638.638	800.000	0.021	0.081
-637.624	195.087	0.125	0.190
-636.609	800.000	-0.065	0.216
-635.595	57.039	-0.208	0.203
-634.580	-33.560	0.233	0.129
-633.565	-200.000	-0.039	-0.201
-632.551	-144.787	0.193	0.018
-631.536	386.863	-0.094	0.193
-630.522	-23.010	0.046	0.028
-629.507	-78.483	0.578	0.198
-628.492	75.072	0.140	-0.147
-627.478	-40.805	-0.037	0.019
-626.463	510.744	-0.222	0.516
-625.449	170.343	0.167	-0.239
-624.434	243.776	-0.092	-0.155
-623.419	87.367	0.083	0.092
-622.405	78.111	0.164	-0.175
-621.390	562.859	0.065	0.157
-620.376	61.702	-0.169	-0.169
-619.361	-43.534	0.054	-0.027
-618.346	-79.534	-0.198	-0.067
-617.332	-117.968	-0.093	0.017
-616.317	153.811	0.112	0.154
-615.303	689.160	0.056	0.146
-614.288	1.658	-0.289	0.208
-613.273	-200.000	0.044	0.212
-612.259	-200.000	-0.013	-0.065
-611.244	133.845	-0.071	0.091
-610.230	437.796	-0.056	-0.123
-609.215	37.714	-0.132	-0.117
-608.201	-114.185	-0.090	0.017
-607.186	-200.000	-0.013	0.083
-606.171	-200.000	0.012	-0.120
-605.157	-200.000	0.016	-0.089
-604.142	-80.282	0.102	0.034
-603.128	-64.804	-0.190	0.077
-602.113	-200.000	0.065	0.345
-601.098	-68.026	0.171	0.067
-600.084	-111.443	0.327	-0.067
-599.069	12.470	-0.019	0.015
-598.055	-200.000	-0.008	-0.044
-597.040	-178.135	-0.352	-0.008
-596.025	54.797	0.183	0.176
-595.011	90.291	-0.148	0.166
-593.996	-161.095	0.288	0.015
-592.982	-177.720	0.092	-0.002
-591.967	109.810	0.106	0.127
-590.952	800.000	0.010	0.041
-589.938	-136.622	0.427	-0.049
-588.923	166.592	0.072	0.102
-587.909	-44.411	-0.227	-0.114
-586.894	-38.136	0.192	-0.102
-585.879	-157.186	0.196	0.012
-584.865	-55.339	-0.050	0.023
-583.850	199.112	-0.145	-0.222
-582.836	-200.000	-0.008	-0.130
-581.821	-200.000	0.002	0.086
-580.806	39.126	0.136	-0.121
-579.792	-26.519	0.165	-0.096
-578.777	93.143	-0.113	0.128
-577.763	-200.000	-0.002	0.039
-576.748	197.276	-0.099	-0.151
-575.733	-200.000	-0.004	-0.091
-574.719	-94.626	-0.408	-0.111
-573.704	-67.831	-0.279	0.109
-572.690	-129.815	0.228	-0.031
-571.675	800.000	0.025	-0.071
-570.661	-76.925	-0.164	-0.057
-569.646	83.784	0.115	-0.125
-568.631	-90.353	-0.314	-0.091
-567.617	-99.269	0.053	-0.013
-566.602	-200.000	0.020	-0.269
-565.588	-97.793	0.251	0.065
-564.573	-102.178	0.316	0.076
-563.558	-200.000	0.043	0.300
-562.544	256.820	0.074	0.126
-561.529	-36.132	0.309	-0.166
-560.515	-49.726	0.044	0.021
-559.500	-200.000	0.001	0.054
-558.485	-181.023	0.096	-0.002
-557.471	-168.045	-0.298	0.012
-556.456	-0.759	0.200	-0.142
-555.442	-134.675	-0.099	0.012
-554.427	-9.913	-0.035	0.023
-553.412	-68.988	0.149	-0.057
-552.398	23.015	0.109	0.089
-551.383	314.625	-0.088	0.166
-550.369	186.535	0.050	0.074
-549.354	-36.470	0.154	0.083
-548.339	140.980	-0.138	0.182
-547.325	747.096	-0.165	0.443
-546.310	71.590	0.234	-0.242
-545.296	-81.741	-0.066	0.022
-544.281	94.099	-0.079	0.090
-543.266	-108.704	0.207	0.044
-542.252	123.578	0.232	-0.290
-541.237	-128.019	0.267	-0.038
-540.223	-44.763	0.170	-0.084
-539.208	23.189	-0.048	0.039
-538.193	-87.312	0.477	0.144
-537.179	793.723	-0.032	0.087
-536.164	-76.564	-0.108	0.038
-535.150	800.000	0.048	-0.172
-534.135	-112.897	0.141	-0.028
-533.121	80.457	-0.097	0.104
-532.106	66.468	0.317	-0.321
-531.091	-117.954	0.312	-0.056
-530.077	80.888	-0.109	-0.117
-529.062	100.278	-0.010	0.012
-528.048	-142.556	0.176	-0.017
-527.033	-48.758	0.064	-0.030
-526.018	-114.446	-0.165	0.032
-525.004	-200.000	0.023	-0.119
-523.989	-46.108	-0.141	0.069
-522.975	-115.643	0.217	0.041
-521.960	117.101	0.131	0.160
-520.945	-30.679	-0.015	0.008
-519.931	-165.551	-0.318	0.014
-518.916	800.000	-0.055	0.208
-517.902	131.374	0.137	-0.176
-516.887	-34.192	-0.273	0.149
-515.872	-144.418	0.331	0.031
-514.858	-171.826	-0.268	-0.009
-513.843	-22.980	0.127	-0.076
-512.829	56.096	-0.034	-0.033
-511.814	-17.788	0.270	0.169
-510.799	218.081	-0.094	0.148
-509.785	-60.774	-0.082	0.035
-508.770	93.336	-0.042	0.047
-507.756	-200.000	0.026	0.188
-506.741	-188.519	0.015	0.000
-505.726	409.333	0.102	-0.215
-504.712	-46.303	0.176	-0.086
-503.697	761.285	-0.063	-0.171
-502.683	684.485	0.103	-0.267
-501.668	80.024	-0.170	0.182
-500.653	120.646	0.046	0.057
-499.639	-94.249	0.345	0.094
-498.624	-61.246	-0.231	-0.097
-497.610	-146.783	-0.195	0.017
-496.595	-67.417	-0.054	0.021
-495.581	-200.000	-0.017	-0.077
-494.566	-153.013	-0.231	0.016
-493.551	-98.945	-0.381	0.096
-492.537	-15.842	0.104	0.066
-491.522	-159.665	-0.302	-0.017
-490.508	77.282	0.264	0.279
-489.493	373.413	-0.109	-0.220
-488.478	175.299	0.066	0.095
-487.464	800.000	0.060	0.221
-486.449	-137.000	0.203	-0.023
-485.435	800.000	0.021	-0.089
-484.420	-79.270	0.198	0.067
-483.405	-57.706	-0.104	-0.045
-482.391	263.014	0.136	-0.236
-481.376	-83.439	-0.223	0.071
-480.362	331.346	0.100	0.192
-479.347	-115.446	0.104	-0.020
-478.332	-92.138	-0.365	-0.103
-477.318	-123.384	0.170	0.027
-476.303	-200.000	0.047	-0.205
-475.289	-59.978	-0.231	0.098
-474.274	-15.543	-0.406	0.257
-473.259	40.575	-0.192	0.171
-472.245	133.092	-0.060	0.077
-471.230	800.000	0.062	0.257
-470.216	203.374	0.021	-0.032
-469.201	-200.000	0.041	-0.192
-468.186	48.356	-0.300	-0.279
-467.172	-92.678	-0.180	0.050
-466.157	265.340	-0.076	0.132
-465.143	-101.030	0.225	-0.055
-464.128	208.983	-0.058	0.090
-463.113	-175.558	-0.275	0.007
-462.099	-200.000	0.007	0.353
-461.084	-200.000	-0.003	-0.042
-460.070	-200.000	0.003	-0.082
-459.055	-72.016	-0.200	-0.074
-458.040	-20.237	-0.329	0.201
-457.026	-200.000	0.002	-0.236
-456.011	-75.889	-0.150	-0.053
-454.997	7.933	0.102	-0.076
-453.982	84.743	-0.120	0.130
-452.968	251.808	0.147	-0.248
-451.953	-97.704	0.221	-0.057
-450.938	13.525	0.122	0.094
-449.924	-153.905	-0.281	0.019
-448.909	-200.000	-0.003	0.072
-447.895	36.900	0.123	-0.108
-446.880	800.000	0.110	-0.331
-445.865	-200.000	-0.024	-0.143
-444.851	178.172	0.205	-0.298
-443.836	-200.000	0.019	-0.154
-442.822	-200.000	-0.006	-0.150
-441.807	-76.280	-0.258	0.090
-440.792	-104.099	-0.155	-0.036
-439.778	800.000	0.067	-0.293
-438.763	-200.000	-0.070	0.390
-437.749	-57.114	0.166	-0.073
-436.734	-200.000	-0.031	-0.374
-435.719	92.182	0.249	-0.278
-434.705	-200.000	0.075	-0.344
-433.690	471.137	-0.013	0.029
-432.676	-68.490	-0.164	0.063
-431.661	800.000	-0.032	-0.106
-430.646	102.032	0.161	-0.186
-429.632	-68.950	-0.052	-0.020
-428.617	-72.889	-0.382	0.139
-427.603	-184.323	-0.184	0.003
-426.588	-116.870	-0.488	0.089
-425.573	-90.522	0.136	0.039
-424.559	284.895	-0.018	0.033
-423.544	800.000	-0.083	0.330
-422.530	800.000	-0.123	0.381
-421.515	800.000	-0.072	-0.200
-420.500	-175.461	-0.170	0.005
-419.486	800.000	0.017	-0.062
-418.471	-92.918	0.149	-0.041
-417.457	800.000	-0.106	0.407
-416.442	794.750	-0.044	0.121
-415.428	172.148	0.134	0.191
-414.413	-62.456	-0.134	0.055
-413.398	800.000	-0.064	-0.276
-412.384	-91.748	0.200	-0.056
-411.369	67.205	0.039	0.040
-410.355	27.359	-0.346	0.288
-409.340	228.915	0.073	-0.119
-408.325	-152.189	-0.405	0.029
-407.311	-89.412	-0.208	-0.061
-406.296	-128.478	0.137	0.019
-405.282	-200.000	-0.023	-0.260
-404.267	-50.596	-0.183	-0.086
-403.252	-143.376	0.141	0.013
-402.238	800.000	0.094	-0.324
-401.223	-200.000	0.026	0.302
-400.209	65.298	0.095	-0.095
-399.194	-34.696	0.222	-0.120
-398.179	800.000	0.078	-0.314
-397.165	343.835	-0.061	0.119
-396.150	-200.000	0.061	0.308
-395.136	-91.794	-0.508	-0.143
-394.121	800.000	-0.009	0.026
-393.106	-200.000	0.035	-0.181
-392.092	-37.548	-0.175	-0.093
-391.077	356.117	-0.048	0.095
-390.063	27.438	-0.137	0.114
-389.048	152.867	0.085	0.115
-388.033	-85.506	-0.517	0.159
-387.019	-125.690	0.301	-0.045
-386.004	89.041	-0.143	-0.157
-384.990	316.093	-0.065	-0.122
-383.975	-111.100	0.184	0.037
-382.960	-90.533	-0.038	0.011
-381.946	184.952	0.075	0.110
-380.931	800.000	-0.107	0.373
-379.917	65.334	0.247	-0.248
-378.902	800.000	0.074	-0.272
-377.888	-200.000	-0.048	0.238
-376.873	101.138	-0.035	0.040
-375.858	-74.513	-0.163	0.058
-374.844	-119.900	0.358	-0.061
-373.829	-27.080	0.068	0.039
-372.815	-132.928	-0.258	-0.032
-371.800	170.225	0.136	0.192
-370.785	800.000	-0.087	-0.345
-369.771	-46.006	-0.052	-0.025
-368.756	525.796	0.140	-0.327
-367.742	176.266	0.070	0.100
-366.727	-93.471	-0.343	0.094
-365.712	189.884	-0.256	-0.380
-364.698	-78.100	0.264	0.090
-363.683	-200.000	0.060	0.503
-362.669	800.000	-0.072	0.221
-361.654	114.020	-0.108	-0.130
-360.639	-10.089	0.179	0.117
-359.625	63.718	-0.262	-0.261
-358.610	-47.035	-0.083	0.040
-357.596	742.385	0.147	-0.392
-356.581	-18.909	-0.195	-0.120
-355.566	-84.463	0.275	0.086
-354.552	800.000	0.029	0.105
-353.537	10.884	0.182	-0.138
-352.523	-200.000	-0.078	-0.345
-351.508	800.000	0.061	-0.224
-350.493	16.932	-0.133	-0.104
-349.479	-95.627	0.318	-0.084
-348.464	1.736	-0.089	-0.063
-347.450	-81.927	0.556	-0.180
-346.435	162.374	0.095	0.132
-345.420	-27.659	-0.197	0.113
-344.406	-130.355	-0.298	0.040
-343.391	800.000	0.113	-0.466
-342.377	-52.951	0.194	0.088
-341.362	-31.252	0.156	0.087
-340.348	-151.192	-0.165	0.012
-339.333	800.000	-0.064	0.184
-338.318	253.835	-0.143	0.242
-337.304	120.004	0.067	-0.082
-336.289	-64.426	0.469	-0.188
-335.275	136.675	-0.036	-0.047
-334.260	-114.971	-0.400	0.075
-333.245	-85.103	0.082	0.025
-332.231	203.637	-0.149	-0.228
-331.216	800.000	0.035	-0.119
-330.202	80.704	0.092	-0.098
-329.187	-191.505	0.314	0.003
-328.172	699.072	0.043	0.112
-327.158	800.000	-0.135	-0.504
-326.143	562.571	0.050	-0.121
-325.129	274.203	-0.143	-0.250
-324.114	590.673	0.085	0.208
-323.099	-45.935	0.057	-0.028
-322.085	800.000	-0.075	0.222
-321.070	67.261	-0.155	0.156
-320.056	319.750	0.158	0.297
-319.041	-75.897	-0.337	-0.118
-318.026	16.476	0.117	0.091
-317.012	-84.930	-0.098	-0.030
-315.997	2.988	0.138	-0.099
-314.983	-200.000	0.056	-0.245
-313.968	286.511	0.027	-0.049
-312.953	521.009	-0.070	-0.163
-311.939	-19.774	0.173	-0.106
-310.924	-200.000	0.014	0.121
-309.910	-128.585	-0.313	0.044
-308.895	-43.361	0.137	0.068
-307.880	-10.068	-0.132	0.086
-306.866	-200.000	-0.004	0.058
-305.851	-21.138	0.177	-0.107
-304.837	-78.686	0.263	-0.089
-303.822	-88.198	-0.018	0.005
-302.807	124.269	0.198	0.246
-301.793	-200.000	-0.005	-0.098
-300.778	63.509	-0.191	-0.189
-299.764	-200.000	0.019	0.098
-298.749	-200.000	-0.030	0.166
-297.735	-138.560	-0.367	0.040
-296.720	-42.700	0.305	-0.153
-295.705	643.224	-0.059	-0.149
-294.691	27.625	-0.189	-0.157
-293.676	21.286	0.247	-0.198
-292.662	-6.330	0.082	0.055
-291.647	-118.432	0.275	-0.048
-290.632	-186.583	0.338	-0.005
-289.618	-200.000	-0.026	-0.228
-288.603	266.656	-0.097	-0.167
-287.589	-200.000	-0.046	-0.258
-286.574	-182.259	0.291	0.005
-285.559	584.043	0.091	0.221
-284.545	36.613	0.134	-0.117
-283.530	-162.720	0.156	-0.008
-282.516	19.461	0.165	0.131
-281.501	589.573	-0.039	0.095
-280.486	728.105	-0.034	-0.090
-279.472	-100.125	-0.095	-0.023
-278.457	-25.169	0.090	-0.053
-277.443	-200.000	-0.038	0.319
-276.428	394.987	0.116	-0.239
-275.413	-104.042	0.169	0.039
-274.399	-200.000	-0.049	-0.262
-273.384	460.618	0.185	-0.406
-272.370	150.854	0.132	0.177
-271.355	-143.192	0.057	-0.005
-270.340	-38.213	0.185	-0.097
-269.326	800.000	0.152	0.568
-268.311	45.749	0.103	0.094
-267.297	733.657	-0.169	-0.447
-266.282	370.447	0.083	-0.166
-265.267	-200.000	0.018	0.166
-264.253	800.000	-0.052	0.200
-263.238	-94.476	-0.222	-0.060
-262.224	534.020	-0.144	0.336
-261.209	-153.900	-0.288	-0.019
-260.195	-56.835	0.393	0.171
-259.180	405.947	0.156	0.325
-258.165	-200.000	0.430	0.000
-257.151	-200.000	0.260	-0.001
-256.136	-14.223	-0.053	-0.034
-255.122	-155.354	-0.256	0.016
-254.107	28.791	-0.058	0.048
-253.092	-200.000	0.053	0.282
-252.078	800.000	0.113	0.348
-251.063	318.513	0.064	-0.120
-250.049	110.054	0.030	-0.036
-249.034	-110.858	-0.346	-0.070
-248.019	-200.000	0.009	-0.091
-247.005	-200.000	-0.020	-0.156
-245.990	211.299	0.167	-0.258
-244.976	308.425	-0.064	0.118
-243.961	-200.000	-0.065	0.285
-242.946	-47.858	-0.170	-0.081
-241.932	-139.755	-0.452	-0.047
-240.917	-200.000	0.061	-0.482
-239.903	-122.610	-0.253	0.040
-238.888	-144.124	0.424	-0.039
-237.873	-200.000	-0.000	0.320
-236.859	35.414	-0.120	-0.103
-235.844	800.000	-0.084	0.284
-234.830	55.003	-0.100	0.096
-233.815	-109.565	-0.349	-0.073
-232.800	-200.000	0.059	-0.399
-231.786	-106.684	-0.138	-0.030
-230.771	77.714	0.183	0.192
-229.757	-200.000	-0.068	-0.000
-228.742	58.069	-0.084	0.081
-227.727	175.984	-0.104	-0.148
-226.713	-137.445	0.251	-0.028
-225.698	335.628	-0.062	0.119
-224.684	-200.000	-0.013	0.240
-223.669	-195.528	0.227	0.002
-222.655	192.026	0.085	-0.126
-221.640	270.758	0.138	0.238
-220.625	-17.840	0.163	0.101
-219.611	-157.616	0.197	0.012
-218.596	-82.379	0.041	-0.013
-217.582	-200.000	0.024	0.118
-216.567	800.000	0.055	-0.227
-215.552	-200.000	0.043	0.488
-214.538	-142.899	-0.309	-0.029
-213.523	-163.267	0.179	-0.008
-212.509	48.788	0.181	-0.167
-211.494	-82.359	-0.228	-0.073
-210.479	-200.000	-0.010	0.120
-209.465	-127.332	0.329	-0.047
-208.450	5.594	0.045	0.032
-207.436	-42.249	0.264	0.133
-206.421	-0.379	0.092	-0.064
-205.406	-154.635	-0.439	-0.029
-204.392	136.221	0.028	0.036
-203.377	508.372	0.220	0.502
-202.363	-200.000	-0.014	-0.065
-201.348	-81.371	0.242	-0.078
-200.333	280.096	-0.111	-0.194
-199.319	-165.267	0.692	0.030
-198.304	301.072	0.110	0.199
-197.290	178.020	-0.141	-0.203
-196.275	-200.000	0.001	0.097
-195.260	-65.381	-0.119	-0.047
-194.246	494.205	0.100	-0.226
-193.231	-44.578	-0.425	-0.209
-192.217	-200.000	-0.016	0.078
-191.202	-138.504	0.151	0.016
-190.187	-32.531	-0.179	-0.098
-189.173	6.271	-0.088	0.064
-188.158	227.510	-0.051	0.082
-187.144	41.467	0.144	0.128
-186.129	273.679	-0.114	-0.199
-185.114	214.030	0.065	0.102
-184.100	156.767	-0.175	-0.238
-183.085	2.513	-0.196	-0.139
-182.071	-165.984	0.278	-0.012
-181.056	-18.270	-0.262	0.161
-180.042	-29.537	-0.086	0.048
-179.027	441.517	-0.038	-0.082
-178.012	-200.000	0.021	0.128
-176.998	-200.000	-0.008	0.198
-175.983	-200.000	-0.042	-0.190
-174.969	800.000	-0.034	-0.136
-173.954	-200.000	0.020	0.160
-172.939	800.000	0.060	0.180
-171.925	-200.000	0.027	0.169
-170.910	-135.575	-0.316	-0.037
-169.896	732.888	0.038	-0.099
-168.881	129.608	-0.182	-0.229
-167.866	-51.230	-0.288	-0.132
-166.852	352.981	-0.053	0.102
-165.837	-200.000	0.035	0.197
-164.823	-134.317	0.523	-0.063
-163.808	-61.160	-0.251	-0.104
-162.793	-32.646	-0.147	0.080
-161.779	-130.593	-0.187	-0.025
-160.764	-122.685	-0.424	0.067
-159.750	-24.254	0.188	-0.110
-158.735	128.490	-0.168	0.210
-157.720	-140.546	0.031	0.003
-156.706	-95.918	-0.360	0.094
-155.691	85.866	0.125	0.135
-154.677	-200.000	-0.047	0.240
-153.662	-200.000	-0.026	0.280
-152.647	-165.797	-0.161	-0.007
-151.633	800.000	-0.023	-0.080
-150.618	14.121	0.163	0.124
-149.604	68.607	0.100	-0.101
-148.589	-200.000	0.016	0.081
-147.574	302.326	0.044	-0.080
-146.560	800.000	0.059	-0.194
-145.545	501.350	-0.172	-0.389
-144.531	177.837	-0.174	0.249
-143.516	390.186	0.137	0.278
-142.502	-200.000	0.335	0.001
-141.487	-200.000	0.015	0.209
-140.472	717.911	0.064	-0.167
-139.458	-55.376	-0.300	0.132
-138.443	-148.112	0.281	0.023
-137.429	-171.863	-0.105	-0.003
-136.414	-129.884	0.254	0.034
-135.399	-200.000	-0.043	-0.279
-134.385	61.731	-0.096	0.093
-133.370	-88.481	-0.129	-0.038
-132.356	-76.977	0.166	0.057
-131.341	-18.266	0.061	0.037
-130.326	540.733	-0.166	0.387
-129.312	291.147	0.162	0.288
-128.297	-100.230	0.154	0.038
-127.283	232.222	-0.180	0.290
-126.268	-170.127	0.192	0.007
-125.253	261.638	0.225	-0.382
-124.239	-73.058	-0.125	-0.045
-123.224	-200.000	-0.001	0.031
-122.210	87.058	-0.062	-0.067
