DTS Sentinel unit serial number:	SN413079Multiplexer serial number:	ORYXHardware model number:	OX4-SRSoftware version number:	ORYX F/W v4.00 Oryx Data Collector v3.7.2.0data status	okinstallation	princeton_trtdifferential loss correction	single-endedforward channel	channel 2reverse channel	N/Adate	2019/09/18time	18:11:35forward acquisition time	60.00reverse acquisition time	0.00gamma	496.2192k internal	0.2304k external	0.2304temperature offset calibration	1.0022default loss term (dB/km)	0.3790temperature slope calibration	1.0000multiplexer offset coefficient	1.0000multiplexer slope coefficient	1.0000fibre end	0.00T internal ref (°C)	39.06T ext. ref 1 (°C)	0.93T ext. ref 2 (°C)	32.19length (m)	temperature (°C)	Stokes	anti-Stokes-747.200	-200.000	0.004	-0.225
-746.185	800.000	0.036	0.114
-745.171	262.045	-0.100	0.177
-744.156	43.196	0.261	0.243
-743.142	800.000	0.029	-0.113
-742.127	-200.000	-0.000	-0.018
-741.112	444.277	-0.033	0.074
-740.098	-200.000	-0.027	0.350
-739.083	-93.508	-0.211	0.060
-738.069	800.000	-0.065	0.186
-737.054	-113.215	-0.206	-0.041
-736.039	-104.197	-0.328	0.078
-735.025	-200.000	-0.027	0.182
-734.010	800.000	0.116	-0.402
-732.996	-111.993	-0.398	-0.082
-731.981	215.313	0.042	0.067
-730.966	107.906	-0.083	-0.100
-729.952	-133.300	-0.287	0.037
-728.937	-200.000	-0.024	-0.219
-727.923	39.632	-0.085	0.078
-726.908	-9.359	-0.203	0.138
-725.894	-12.286	0.120	-0.080
-724.879	476.205	-0.084	0.192
-723.864	800.000	-0.046	0.134
-722.850	-200.000	-0.008	-0.141
-721.835	232.877	-0.077	-0.129
-720.821	568.163	-0.117	0.289
-719.806	-200.000	0.013	0.069
-718.791	-114.659	-0.163	-0.032
-717.777	121.573	-0.173	0.219
-716.762	-61.208	0.228	0.098
-715.748	83.941	-0.057	-0.063
-714.733	-74.194	0.281	-0.104
-713.718	-96.603	0.242	-0.065
-712.704	506.734	0.116	0.274
-711.689	800.000	0.088	0.343
-710.675	435.539	0.122	0.269
-709.660	113.776	0.164	-0.203
-708.645	-118.122	-0.493	-0.089
-707.631	-30.906	0.203	0.116
-706.616	-67.072	-0.267	-0.107
-705.602	-50.834	0.087	0.042
-704.587	204.847	0.014	-0.022
-703.572	-184.440	-0.280	0.005
-702.558	643.904	0.024	0.063
-701.543	158.111	0.076	0.107
-700.529	241.749	-0.111	-0.189
-699.514	125.089	-0.136	-0.175
-698.499	800.000	0.066	-0.271
-697.485	238.261	0.103	-0.175
-696.470	162.497	0.169	0.240
-695.456	53.950	-0.242	-0.236
-694.441	183.552	-0.050	-0.075
-693.426	-200.000	0.047	-0.235
-692.412	34.843	-0.277	-0.246
-691.397	-200.000	-0.022	-0.135
-690.383	171.973	-0.197	0.287
-689.368	-116.430	0.129	-0.024
-688.354	-200.000	0.001	0.154
-687.339	-95.845	0.291	-0.079
-686.324	-8.448	-0.179	-0.123
-685.310	73.384	0.233	0.247
-684.295	-36.717	0.376	0.205
-683.281	80.245	0.117	-0.128
-682.266	-200.000	-0.439	-0.001
-681.251	-41.393	0.123	-0.065
-680.237	-146.576	0.105	0.009
-679.222	800.000	0.041	0.175
-678.208	-157.972	-0.139	0.008
-677.193	-200.000	-0.017	0.244
-676.178	800.000	0.028	-0.092
-675.164	43.335	-0.130	0.121
-674.149	-25.050	0.059	0.036
-673.135	48.000	0.132	-0.125
-672.120	-200.000	0.033	-0.194
-671.105	800.000	-0.075	-0.223
-670.091	-101.798	0.313	0.077
-669.076	379.326	0.032	-0.067
-668.062	-79.757	-0.310	0.106
-667.047	-41.623	0.131	0.068
-666.032	23.286	-0.300	0.251
-665.018	15.114	-0.122	0.097
-664.003	800.000	-0.085	0.241
-662.989	437.842	-0.057	0.126
-661.974	-82.095	-0.321	-0.106
-660.959	-52.336	-0.304	0.143
-659.945	4.970	0.097	-0.072
-658.930	-53.790	-0.023	0.010
-657.916	-121.012	-0.123	-0.021
-656.901	800.000	0.088	0.289
-655.886	727.280	0.099	-0.269
-654.872	149.316	-0.067	0.091
-653.857	-16.689	-0.085	-0.055
-652.843	-0.135	0.088	0.063
-651.828	154.285	-0.025	-0.035
-650.814	-200.000	0.085	-0.477
-649.799	800.000	-0.077	-0.244
-648.784	87.017	-0.080	-0.090
-647.770	47.652	-0.239	-0.226
-646.755	137.588	-0.044	0.059
-645.741	26.561	-0.125	0.106
-644.726	58.530	0.180	-0.180
-643.711	-112.643	0.369	0.075
-642.697	-107.694	-0.214	0.047
-641.682	52.341	0.031	-0.030
-640.668	-156.461	0.273	0.017
-639.653	-78.026	-0.162	0.056
-638.638	-115.939	-0.092	0.017
-637.624	-101.180	-0.170	-0.042
-636.609	-101.459	0.144	-0.035
-635.595	-90.544	0.354	0.104
-634.580	-200.000	0.426	-0.000
-633.565	569.811	0.034	0.083
-632.551	-89.072	-0.127	0.038
-631.536	-135.806	0.303	-0.036
-630.522	221.397	-0.100	0.163
-629.507	180.946	0.064	0.096
-628.492	-200.000	-0.045	-0.454
-627.478	800.000	0.027	0.098
-626.463	-122.880	0.104	-0.017
-625.449	-116.241	-0.325	-0.061
-624.434	-200.000	0.223	0.000
-623.419	376.909	0.158	0.327
-622.405	531.891	-0.162	-0.388
-621.390	-200.000	-0.004	0.168
-620.376	686.138	-0.098	0.259
-619.361	-112.295	0.130	0.026
-618.346	74.898	0.061	-0.065
-617.332	-200.000	-0.064	0.289
-616.317	-53.678	-0.285	-0.132
-615.303	261.458	0.075	-0.131
-614.288	-80.753	0.126	0.042
-613.273	-7.837	-0.218	-0.149
-612.259	-43.066	-0.372	-0.191
-611.244	-157.313	-0.295	-0.018
-610.230	66.736	0.062	0.064
-609.215	-140.275	0.270	0.029
-608.201	-113.844	-0.122	0.024
-607.186	800.000	-0.028	0.126
-606.171	-17.012	-0.344	-0.220
-605.157	278.648	-0.106	-0.191
-604.142	413.887	-0.135	0.291
-603.128	83.192	-0.177	0.195
-602.113	800.000	0.064	-0.239
-601.098	523.125	0.110	-0.261
-600.084	147.661	0.010	0.014
-599.069	-7.832	-0.176	-0.120
-598.055	-200.000	-0.056	-0.401
-597.040	800.000	0.062	0.180
-596.025	-106.277	0.144	0.033
-595.011	518.853	0.206	-0.489
-593.996	-186.310	0.185	0.003
-592.982	-132.583	0.330	-0.043
-591.967	424.609	-0.116	-0.254
-590.952	439.478	-0.154	-0.340
-589.938	-113.554	0.393	-0.078
-588.923	-200.000	-0.001	-0.173
-587.909	-200.000	0.023	-0.530
-586.894	29.449	0.105	-0.090
-585.879	480.963	0.033	-0.076
-584.865	-34.788	-0.078	-0.043
-583.850	-42.401	0.176	-0.091
-582.836	-59.127	0.155	0.068
-581.821	94.176	0.180	-0.206
-580.806	-179.434	0.192	-0.004
-579.792	174.047	-0.095	0.139
-578.777	-94.662	-0.163	-0.045
-577.763	394.966	-0.035	-0.073
-576.748	800.000	-0.039	-0.121
-575.733	25.070	0.357	0.299
-574.719	800.000	-0.024	0.069
-573.704	218.310	-0.081	0.131
-572.690	63.284	-0.073	0.074
-571.675	248.111	-0.195	0.334
-570.661	55.706	0.212	-0.208
-569.646	625.345	-0.066	0.169
-568.631	-58.895	0.164	0.072
-567.617	91.973	-0.113	-0.128
-566.602	737.946	0.073	-0.197
-565.588	-6.890	0.195	-0.134
-564.573	-0.246	0.080	-0.057
-563.558	201.995	-0.142	0.221
-562.544	-200.000	-0.048	0.329
-561.529	-28.298	-0.198	0.116
-560.515	137.751	-0.199	-0.264
-559.500	189.979	-0.076	0.116
-558.485	123.849	-0.084	0.106
-557.471	422.885	0.204	-0.443
-556.456	90.023	-0.189	0.213
-555.442	800.000	-0.069	-0.221
-554.427	148.744	0.143	-0.195
-553.412	-100.649	0.261	-0.065
-552.398	272.809	-0.108	0.193
-551.383	-86.964	-0.069	-0.021
-550.369	-19.374	0.305	-0.191
-549.354	-67.595	-0.220	-0.087
-548.339	249.970	-0.132	0.226
-547.325	800.000	0.081	-0.266
-546.310	114.020	0.075	-0.092
-545.296	-71.088	0.164	-0.062
-544.281	-54.873	0.177	0.080
-543.266	-200.000	0.007	0.285
-542.252	-39.676	-0.282	0.149
-541.237	-200.000	-0.044	-0.240
-540.223	61.732	-0.142	-0.143
-539.208	-145.060	0.184	0.017
-538.193	800.000	0.006	-0.019
-537.179	-137.885	0.107	-0.012
-536.164	-84.850	-0.397	0.126
-535.150	-40.085	0.065	0.034
-534.135	-200.000	-0.029	0.137
-533.121	-42.608	0.095	0.049
-532.106	-110.894	-0.379	-0.079
-531.091	800.000	0.096	0.277
-530.077	-22.083	0.101	-0.062
-529.062	495.546	-0.004	0.008
-528.048	-20.464	0.238	0.148
-527.033	-152.264	0.548	0.040
-526.018	-69.213	0.256	-0.099
-525.004	450.661	-0.129	0.287
-523.989	-153.429	-0.095	-0.007
-522.975	222.849	0.108	0.175
-521.960	418.397	0.093	0.201
-520.945	-200.000	-0.004	-0.214
-519.931	-11.258	-0.121	-0.080
-518.916	-200.000	0.020	-0.155
-517.902	-53.354	0.328	-0.152
-516.887	127.524	0.043	0.055
-515.872	199.738	0.192	0.297
-514.858	31.701	0.160	0.139
-513.843	-63.080	-0.065	0.027
-512.829	-97.630	0.152	0.040
-511.814	-83.008	0.080	-0.026
-510.799	-74.574	-0.292	-0.106
-509.785	312.597	-0.097	0.183
-508.770	749.192	-0.027	0.073
-507.756	-67.499	0.392	-0.155
-506.741	-124.318	0.165	-0.026
-505.726	-41.607	0.109	-0.057
-504.712	74.234	-0.232	0.245
-503.697	-34.907	0.157	-0.086
-502.683	34.948	-0.196	-0.173
-501.668	-200.000	0.029	-0.286
-500.653	241.286	0.107	0.181
-499.639	-96.878	-0.148	0.039
-498.624	-200.000	0.008	-0.110
-497.610	626.078	0.042	0.107
-496.595	800.000	0.011	-0.040
-495.581	-97.241	-0.327	0.086
-494.566	-200.000	0.034	-0.230
-493.551	-27.924	-0.261	-0.152
-492.537	769.862	0.034	-0.093
-491.522	-60.418	-0.132	-0.057
-490.508	-200.000	-0.012	-0.372
-489.493	-111.047	-0.132	0.027
-488.478	-200.000	-0.035	-0.174
-487.464	520.524	0.081	-0.191
-486.449	-200.000	-0.028	0.176
-485.435	-29.038	-0.039	0.022
-484.420	800.000	0.053	-0.185
-483.405	144.043	0.110	0.148
-482.391	5.239	-0.233	0.173
-481.376	-180.358	-0.284	0.006
-480.362	422.717	-0.113	-0.244
-479.347	-157.952	0.127	-0.008
-478.332	-200.000	0.015	0.083
-477.318	18.434	-0.209	-0.168
-476.303	-169.170	-0.474	0.018
-475.289	-200.000	0.038	0.219
-474.274	110.774	-0.213	-0.259
-473.259	-7.467	-0.145	-0.099
-472.245	-199.777	0.459	-0.002
-471.230	-52.437	-0.044	0.020
-470.216	173.181	-0.219	0.317
-469.201	396.295	-0.159	0.334
-468.186	-200.000	0.002	-0.183
-467.172	-42.394	0.156	-0.080
-466.157	800.000	-0.066	-0.269
-465.143	-56.331	-0.143	0.064
-464.128	-63.773	-0.085	0.035
-463.113	-21.777	-0.219	0.134
-462.099	800.000	-0.085	-0.272
-461.084	-34.439	-0.041	0.023
-460.070	-46.448	-0.262	-0.130
-459.055	209.253	0.030	-0.047
-458.040	-29.308	0.160	0.092
-457.026	23.735	-0.125	0.104
-456.011	739.346	-0.063	-0.170
-454.997	-139.443	0.256	0.028
-453.982	800.000	-0.054	0.215
-452.968	5.602	-0.308	0.229
-451.953	-107.557	-0.107	0.024
-450.938	-69.970	0.162	-0.062
-449.924	406.616	0.114	-0.242
-448.909	80.895	-0.245	-0.266
-447.895	-62.476	-0.254	0.106
-446.880	-200.000	0.001	-0.105
-445.865	800.000	0.085	0.256
-444.851	800.000	0.039	-0.126
-443.836	-154.842	-0.248	0.017
-442.822	-200.000	-0.030	-0.307
-441.807	-200.000	-0.016	-0.127
-440.792	-200.000	0.003	-0.201
-439.778	-73.375	0.232	-0.085
-438.763	50.115	-0.356	-0.338
-437.749	800.000	-0.071	-0.207
-436.734	-67.660	-0.122	0.048
-435.719	-33.165	-0.162	0.091
-434.705	800.000	0.052	0.157
-433.690	312.309	0.099	-0.188
-432.676	-135.694	-0.291	0.035
-431.661	-131.687	0.457	0.060
-430.646	-200.000	-0.011	0.213
-429.632	-49.099	-0.369	-0.178
-428.617	138.029	0.117	0.154
-427.603	-26.900	-0.251	0.148
-426.588	-96.000	-0.085	0.023
-425.573	305.566	-0.176	-0.330
-424.559	-1.853	-0.268	-0.190
-423.544	-8.726	0.409	0.276
-422.530	-30.076	-0.179	0.103
-421.515	-200.000	-0.021	0.396
-420.500	-143.232	-0.319	-0.031
-419.486	696.802	0.117	-0.310
-418.471	-57.331	-0.268	0.119
-417.457	-132.160	0.068	-0.009
-416.442	221.766	-0.204	-0.330
-415.428	0.877	0.152	0.109
-414.413	-0.562	-0.095	0.068
-413.398	44.291	0.163	0.150
-412.384	-200.000	0.053	-0.401
-411.369	26.298	-0.082	0.069
-410.355	168.811	0.155	0.222
-409.340	192.531	-0.129	0.195
-408.325	31.876	0.249	-0.215
-407.311	85.153	-0.162	0.179
-406.296	-200.000	-0.067	0.344
-405.282	-189.410	0.161	-0.002
-404.267	-65.195	0.041	-0.017
-403.252	-112.033	-0.270	-0.055
-402.238	-122.644	0.263	-0.043
-401.223	23.418	-0.114	0.094
-400.209	800.000	-0.041	0.153
-399.194	110.182	-0.174	-0.210
-398.179	-56.973	0.207	0.092
-397.165	-46.080	0.184	-0.091
-396.150	800.000	-0.035	0.115
-395.136	-200.000	-0.040	-0.310
-394.121	383.112	0.016	0.032
-393.106	572.555	-0.033	-0.082
-392.092	-200.000	0.008	-0.234
-391.077	-51.819	-0.342	-0.160
-390.063	-72.324	-0.039	0.014
-389.048	-170.783	0.033	-0.001
-388.033	479.681	0.114	0.260
-387.019	-106.071	-0.216	0.049
-386.004	-112.969	-0.134	-0.027
-384.990	187.579	0.190	-0.284
-383.975	300.808	0.088	0.163
-382.960	377.777	0.115	0.236
-381.946	-16.060	0.129	-0.082
-380.931	23.961	0.212	0.176
-379.917	411.612	0.232	-0.495
-378.902	-88.306	0.199	0.060
-377.888	-84.333	-0.273	-0.087
-376.873	11.483	-0.160	0.123
-375.858	-110.903	-0.295	-0.061
-374.844	-6.209	0.322	0.221
-373.829	-200.000	0.003	0.061
-372.815	468.693	-0.078	0.176
-371.800	-200.000	0.005	-0.258
-370.785	-98.399	0.322	0.083
-369.771	-108.803	-0.333	0.071
-368.756	-123.468	0.194	-0.031
-367.742	30.398	-0.116	-0.099
-366.727	-76.770	0.166	-0.058
-365.712	-96.220	0.093	0.025
-364.698	77.560	-0.207	0.221
-363.683	-64.504	-0.152	0.062
-362.669	-52.144	0.315	-0.147
-361.654	-70.869	-0.105	-0.040
-360.639	12.364	0.201	0.155
-359.625	-145.968	-0.086	0.008
-358.610	432.482	-0.063	0.138
-357.596	1.977	-0.122	0.088
-356.581	-200.000	0.003	0.057
-355.566	27.290	-0.221	0.186
-354.552	-22.797	0.477	0.289
-353.537	-200.000	-0.005	0.166
-352.523	800.000	-0.027	0.098
-351.508	-23.064	-0.332	0.200
-350.493	114.212	0.251	0.306
-349.479	-20.890	0.017	0.010
-348.464	-200.000	-0.030	0.267
-347.450	77.684	0.030	0.032
-346.435	800.000	-0.015	0.060
-345.420	139.328	0.140	-0.185
-344.406	278.279	0.088	0.156
-343.391	426.599	0.087	0.187
-342.377	-90.144	0.126	0.037
-341.362	447.191	0.148	-0.326
-340.348	-200.000	0.018	0.348
-339.333	-112.542	0.128	-0.026
-338.318	231.853	0.295	-0.484
-337.304	146.620	-0.114	-0.154
-336.289	-161.031	-0.037	0.002
-335.275	-80.445	0.196	0.066
-334.260	47.059	-0.148	-0.138
-333.245	-75.538	0.464	0.165
-332.231	5.788	-0.349	0.258
-331.216	-130.162	0.305	-0.042
-330.202	-200.000	-0.017	0.418
-329.187	-4.439	-0.310	0.215
-328.172	16.897	-0.234	-0.185
-327.158	-196.441	0.214	-0.001
-326.143	800.000	-0.147	0.428
-325.129	-8.515	0.169	0.113
-324.114	-11.644	-0.205	-0.135
-323.099	249.861	-0.115	-0.195
-322.085	-106.649	0.368	0.082
-321.070	-200.000	0.027	0.300
-320.056	87.542	0.156	-0.173
-319.041	-156.217	-0.050	0.003
-318.026	-20.062	-0.299	0.185
-317.012	-200.000	-0.063	0.391
-315.997	765.349	0.083	0.225
-314.983	-13.829	-0.126	-0.082
-313.968	800.000	-0.119	-0.408
-312.953	-200.000	-0.014	-0.336
-311.939	-127.990	-0.219	-0.031
-310.924	196.051	0.190	0.289
-309.910	-200.000	0.034	0.292
-308.895	336.327	0.144	-0.280
-307.880	-67.141	-0.278	-0.109
-306.866	50.317	0.050	0.048
-305.851	231.801	0.112	-0.184
-304.837	-3.523	0.051	-0.035
-303.822	800.000	0.048	0.186
-302.807	-53.699	-0.050	0.023
-301.793	-73.231	-0.278	-0.102
-300.778	-200.000	-0.020	-0.370
-299.764	-200.000	-0.008	0.099
-298.749	-104.055	-0.037	-0.009
-297.735	-200.000	-0.051	-0.233
-296.720	-46.189	0.448	-0.221
-295.705	-200.000	-0.030	0.326
-294.691	-200.000	0.030	-0.220
-293.676	-32.338	0.032	-0.018
-292.662	158.520	-0.043	0.060
-291.647	-53.189	0.107	-0.049
-290.632	-90.664	-0.201	0.058
-289.618	218.113	-0.106	0.169
-288.603	-200.000	-0.057	0.318
-287.589	800.000	0.059	0.221
-286.574	35.577	0.189	0.166
-285.559	-55.234	0.290	-0.131
-284.545	-200.000	-0.054	-0.340
-283.530	800.000	-0.095	0.292
-282.516	-131.029	0.270	0.036
-281.501	43.067	0.036	0.033
-280.486	-200.000	0.003	0.044
-279.472	-0.937	0.191	-0.135
-278.457	7.529	0.122	-0.091
-277.443	-108.077	-0.004	-0.001
-276.428	800.000	-0.059	0.174
-275.413	-200.000	0.017	0.274
-274.399	-22.888	0.081	-0.049
-273.384	12.917	0.279	-0.216
-272.370	-116.260	0.124	0.023
-271.355	539.835	-0.070	-0.165
-270.340	-200.000	0.038	0.291
-269.326	-200.000	0.044	0.239
-268.311	138.610	0.172	0.226
-267.297	614.457	0.102	0.256
-266.282	82.201	0.063	0.068
-265.267	-132.846	0.136	-0.017
-264.253	72.523	0.025	-0.027
-263.238	-92.113	-0.108	-0.031
-262.224	-40.148	-0.171	0.089
-261.209	105.920	-0.226	0.267
-260.195	-18.947	-0.241	0.150
-259.180	-173.855	0.393	0.012
-258.165	-200.000	-0.031	-0.261
-257.151	-166.757	0.155	0.006
-256.136	800.000	0.031	-0.125
-255.122	800.000	-0.109	-0.348
-254.107	49.386	0.056	-0.053
-253.092	-31.635	0.083	-0.047
-252.078	-46.795	-0.406	0.198
-251.063	65.083	0.139	-0.140
-250.049	-200.000	0.088	0.416
-249.034	18.637	0.006	0.005
-248.019	800.000	0.059	0.251
-247.005	59.474	-0.065	-0.064
-245.990	492.654	-0.153	-0.350
-244.976	-51.742	0.223	-0.104
-243.961	-200.000	0.031	0.149
-242.946	-15.458	0.171	-0.109
-241.932	-113.927	-0.262	0.051
-240.917	-115.862	-0.446	0.083
-239.903	-95.825	0.143	0.038
-238.888	325.322	0.065	-0.124
-237.873	-200.000	-0.009	-0.267
-236.859	-84.556	-0.134	0.042
-235.844	-105.355	-0.128	0.029
-234.830	-92.081	0.421	-0.119
-233.815	309.293	-0.164	-0.306
-232.800	-200.000	0.016	-0.227
-231.786	13.703	-0.194	-0.150
-230.771	39.202	-0.124	0.111
-229.757	-105.244	0.211	-0.048
-228.742	420.494	-0.062	0.133
-227.727	302.079	-0.117	0.217
-226.713	216.346	-0.211	-0.335
-225.698	23.009	0.291	0.238
-224.684	-130.760	0.201	0.027
-223.669	-200.000	0.080	-0.350
-222.655	-94.434	0.201	-0.055
-221.640	800.000	-0.090	-0.311
-220.625	22.129	0.102	-0.083
-219.611	-106.326	0.141	0.031
-218.596	-96.841	-0.576	0.151
-217.582	-171.657	0.204	0.007
-216.567	-5.995	0.212	0.145
-215.552	-138.597	0.199	-0.022
-214.538	267.274	-0.179	-0.312
-213.523	-29.517	0.322	-0.184
-212.509	444.199	0.042	0.093
-211.494	-200.000	0.047	-0.282
-210.479	7.310	-0.071	0.053
-209.465	-200.000	0.027	-0.160
-208.450	-48.295	0.362	0.174
-207.436	-82.068	0.220	0.072
-206.421	0.637	0.150	0.107
-205.406	-200.000	0.003	-0.044
-204.392	-64.129	-0.466	0.190
-203.377	-77.238	0.069	0.024
-202.363	-167.842	-0.080	0.003
-201.348	-70.975	-0.377	-0.141
-200.333	393.491	0.140	-0.289
-199.319	344.564	-0.164	-0.321
-198.304	-200.000	-0.033	-0.224
-197.290	-150.581	0.438	-0.033
-196.275	-100.613	-0.375	-0.092
-195.260	287.545	-0.097	-0.176
-194.246	-8.365	-0.084	-0.056
-193.231	9.658	-0.086	-0.065
-192.217	-121.574	0.248	-0.041
-191.202	-21.288	0.168	0.102
-190.187	-2.064	-0.102	0.071
-189.173	800.000	0.106	0.307
-188.158	-64.678	-0.205	0.083
-187.144	352.487	0.141	0.279
-186.129	-120.579	0.278	-0.047
-185.114	-90.864	0.165	0.047
-184.100	28.531	-0.324	0.273
-183.085	-200.000	-0.019	0.133
-182.071	87.538	-0.196	0.216
-181.056	-200.000	-0.051	0.260
-180.042	-200.000	0.032	0.364
-179.027	800.000	0.029	0.099
-178.012	322.351	-0.065	-0.124
-176.998	22.420	0.144	0.117
-175.983	-200.000	-0.017	-0.210
-174.969	55.355	-0.090	0.086
-173.954	277.151	-0.110	-0.195
-172.939	-54.887	0.197	-0.088
-171.925	-109.387	-0.222	-0.047
-170.910	-43.317	-0.293	0.148
-169.896	-200.000	-0.020	-0.144
-168.881	-136.932	0.245	-0.028
-167.866	82.634	-0.226	0.244
-166.852	643.305	0.056	-0.142
-165.837	25.023	0.148	0.122
-164.823	800.000	0.086	0.299
-163.808	-200.000	-0.058	0.443
-162.793	-200.000	-0.078	0.372
-161.779	259.926	-0.160	-0.275
-160.764	775.835	0.053	0.143
-159.750	219.029	0.129	0.206
-158.735	35.089	0.270	0.235
-157.720	-129.365	0.160	0.022
-156.706	345.196	-0.119	-0.233
-155.691	0.706	-0.245	0.174
-154.677	-44.640	-0.117	-0.058
-153.662	-160.826	-0.262	-0.014
-152.647	-156.332	0.081	-0.005
-151.633	800.000	0.048	-0.157
-150.618	-142.751	0.161	0.016
-149.604	35.416	0.171	-0.149
-148.589	-200.000	0.023	0.327
-147.574	-200.000	0.021	0.157
-146.560	55.546	-0.063	-0.060
-145.545	-74.668	0.083	-0.030
-144.531	-0.620	-0.085	-0.060
-143.516	-73.804	0.082	-0.030
-142.502	416.896	0.143	0.303
-141.487	-16.001	-0.382	-0.242
-140.472	517.180	0.074	-0.172
-139.458	411.057	-0.039	0.083
-138.443	-79.948	0.229	0.077
-137.429	62.870	0.149	0.148
-136.414	155.533	0.121	0.165
-135.399	-200.000	-0.043	0.279
-134.385	99.503	-0.085	-0.098
-133.370	-89.207	-0.254	0.075
-132.356	-200.000	-0.007	0.364
-131.341	464.311	0.108	-0.241
-130.326	-200.000	0.052	-0.317
-129.312	240.989	0.092	-0.152
-128.297	-64.329	-0.027	0.011
-127.283	83.250	0.049	0.053
-126.268	-58.138	0.267	-0.116
-125.253	325.281	0.059	0.111
-124.239	-146.716	0.232	0.020
-123.224	256.705	0.032	0.055
-122.210	67.236	0.140	0.142
-121.195	-83.995	-0.156	0.049
-120.180	631.048	0.077	0.194
