DTS Sentinel unit serial number:	SN413079Multiplexer serial number:	ORYXHardware model number:	OX4-SRSoftware version number:	ORYX F/W v4.00 Oryx Data Collector v3.7.2.0data status	okinstallation	princeton_trtdifferential loss correction	single-endedforward channel	channel 2reverse channel	N/Adate	2019/09/18time	11:47:35forward acquisition time	60.00reverse acquisition time	0.00gamma	496.2192k internal	0.2325k external	0.2325temperature offset calibration	0.9987default loss term (dB/km)	0.3790temperature slope calibration	1.0000multiplexer offset coefficient	1.0000multiplexer slope coefficient	1.0000fibre end	0.00T internal ref (°C)	31.16T ext. ref 1 (°C)	0.46T ext. ref 2 (°C)	28.36length (m)	temperature (°C)	Stokes	anti-Stokes-747.200	637.067	0.099	0.255
-746.185	800.000	-0.054	0.214
-745.171	-103.586	-0.271	-0.064
-744.156	112.973	0.265	0.324
-743.142	422.746	-0.054	0.118
-742.127	-81.903	0.071	0.024
-741.112	-192.366	0.302	-0.003
-740.098	800.000	0.058	0.177
-739.083	86.275	0.140	0.155
-738.069	215.295	-0.113	0.181
-737.054	13.663	0.084	0.066
-736.039	-120.144	-0.252	-0.044
-735.025	66.175	0.111	0.114
-734.010	-56.287	0.152	-0.068
-732.996	481.601	-0.133	0.304
-731.981	-21.936	0.386	-0.236
-730.966	-28.260	-0.260	0.151
-729.952	-163.568	0.086	0.004
-728.937	-155.082	-0.160	-0.011
-727.923	800.000	0.017	0.050
-726.908	-45.401	-0.203	0.101
-725.894	418.469	0.110	0.237
-724.879	-131.638	0.316	-0.042
-723.864	-200.000	0.033	-0.364
-722.850	-200.000	0.001	-0.239
-721.835	117.918	-0.150	0.186
-720.821	-152.832	-0.373	0.027
-719.806	99.732	-0.051	0.059
-718.791	800.000	0.114	-0.360
-717.777	260.381	-0.063	-0.109
-716.762	800.000	0.087	-0.341
-715.748	160.015	-0.164	-0.230
-714.733	800.000	-0.039	-0.117
-713.718	800.000	0.031	0.122
-712.704	-51.340	-0.080	0.038
-711.689	27.768	0.181	0.154
-710.675	-65.606	0.233	0.094
-709.660	800.000	0.033	-0.142
-708.645	698.346	0.057	-0.152
-707.631	-101.037	0.164	0.040
-706.616	-66.328	-0.130	-0.052
-705.602	420.152	0.150	-0.324
-704.587	-200.000	-0.014	0.081
-703.572	156.182	-0.216	-0.300
-702.558	67.583	0.184	-0.189
-701.543	112.700	0.176	0.215
-700.529	-29.669	0.153	-0.088
-699.514	78.205	-0.168	0.181
-698.499	-153.640	-0.166	0.012
-697.485	800.000	-0.101	-0.281
-696.470	-114.012	-0.434	0.085
-695.456	-200.000	-0.006	-0.067
-694.441	141.879	-0.139	-0.186
-693.426	-180.652	-0.218	-0.005
-692.412	-38.366	-0.085	0.045
-691.397	-97.204	-0.113	-0.030
-690.383	-40.506	0.382	-0.200
-689.368	786.869	-0.148	0.408
-688.354	-110.912	-0.491	0.102
-687.339	65.833	0.291	0.297
-686.324	44.089	0.054	0.050
-685.310	57.184	-0.141	-0.138
-684.295	-57.565	0.308	-0.136
-683.281	181.772	-0.066	0.098
-682.266	21.298	0.155	0.127
-681.251	-86.000	0.134	-0.042
-680.237	-200.000	-0.049	0.277
-679.222	115.928	-0.294	-0.362
-678.208	60.953	-0.190	-0.189
-677.193	-200.000	0.027	-0.155
-676.178	-64.206	-0.246	-0.101
-675.164	155.032	0.035	0.049
-674.149	328.493	0.059	-0.115
-673.135	-200.000	-0.014	0.187
-672.120	469.166	-0.048	-0.108
-671.105	-120.178	-0.373	0.064
-670.091	-21.718	-0.102	-0.062
-669.076	-45.309	-0.245	0.122
-668.062	195.854	-0.242	-0.370
-667.047	253.434	0.109	0.187
-666.032	505.051	-0.061	-0.142
-665.018	123.652	-0.050	-0.063
-664.003	45.805	-0.131	-0.122
-662.989	-46.000	-0.103	-0.051
-661.974	-121.629	-0.130	-0.022
-660.959	-200.000	-0.018	-0.154
-659.945	-151.794	0.170	-0.013
-658.930	-89.810	-0.101	0.030
-657.916	-87.920	-0.151	0.046
-656.901	169.478	-0.169	-0.242
-655.886	272.327	-0.089	-0.159
-654.872	-61.826	-0.196	-0.082
-653.857	-76.376	0.225	0.080
-652.843	0.090	-0.232	0.166
-651.828	-200.000	-0.039	-0.464
-650.814	-8.066	-0.101	-0.068
-649.799	239.552	0.132	-0.220
-648.784	800.000	0.051	-0.219
-647.770	645.547	-0.095	0.244
-646.755	-119.587	0.210	0.037
-645.741	9.663	-0.087	-0.066
-644.726	-76.391	0.204	-0.072
-643.711	800.000	-0.022	-0.074
-642.697	-11.567	-0.234	-0.155
-641.682	-73.450	0.069	0.025
-640.668	-72.260	-0.069	0.026
-639.653	218.761	-0.148	-0.237
-638.638	800.000	-0.025	-0.083
-637.624	800.000	-0.188	-0.564
-636.609	-200.000	-0.016	0.148
-635.595	163.811	0.083	0.117
-634.580	800.000	-0.067	0.278
-633.565	133.762	-0.158	-0.206
-632.551	-200.000	0.034	0.180
-631.536	135.809	-0.194	-0.253
-630.522	-200.000	0.034	-0.180
-629.507	-200.000	0.303	0.001
-628.492	69.952	-0.102	-0.106
-627.478	-168.682	-0.205	0.008
-626.463	156.111	-0.195	-0.271
-625.449	-200.000	-0.019	0.212
-624.434	125.889	0.264	-0.335
-623.419	-130.724	0.178	-0.024
-622.405	-9.222	-0.185	-0.124
-621.390	-90.257	-0.222	0.065
-620.376	-119.985	-0.275	0.047
-619.361	800.000	-0.106	-0.377
-618.346	-128.831	-0.091	-0.013
-617.332	41.511	0.186	0.169
-616.317	351.712	0.067	0.133
-615.303	-200.000	-0.011	0.160
-614.288	-200.000	0.005	0.110
-613.273	800.000	0.086	-0.340
-612.259	-118.906	0.026	-0.005
-611.244	-55.568	-0.236	-0.106
-610.230	278.306	0.185	-0.332
-609.215	-156.646	-0.216	0.013
-608.201	-25.656	-0.055	-0.033
-607.186	-32.270	-0.061	-0.034
-606.171	-200.000	-0.032	-0.299
-605.157	800.000	0.060	0.210
-604.142	-51.178	-0.027	-0.013
-603.128	-153.581	-0.132	0.009
-602.113	-93.294	-0.277	0.077
-601.098	800.000	0.026	-0.084
-600.084	60.725	0.157	0.156
-599.069	134.840	-0.243	-0.317
-598.055	-200.000	-0.018	0.105
-597.040	105.663	-0.314	0.372
-596.025	-72.479	0.311	0.115
-595.011	-69.847	0.095	0.036
-593.996	-200.000	-0.096	-0.426
-592.982	167.540	-0.120	0.171
-591.967	-95.387	0.142	0.038
-590.952	22.123	0.130	0.106
-589.938	-27.269	-0.123	0.072
-588.923	-140.700	-0.138	-0.014
-587.909	-80.339	0.333	-0.111
-586.894	-200.000	0.001	0.337
-585.879	-76.571	-0.255	0.090
-584.865	39.092	0.250	0.224
-583.850	-28.495	-0.188	0.109
-582.836	-149.538	-0.491	0.039
-581.821	-200.000	-0.052	0.253
-580.806	-60.076	0.107	-0.046
-579.792	-82.365	-0.366	0.119
-578.777	21.600	-0.041	-0.033
-577.763	-148.494	-0.357	0.029
-576.748	-200.000	0.033	0.310
-575.733	-200.000	-0.022	0.121
-574.719	168.501	0.258	-0.369
-573.704	-200.000	-0.001	0.245
-572.690	50.543	0.161	-0.152
-571.675	209.873	-0.033	0.051
-570.661	-146.954	-0.146	0.013
-569.646	126.334	-0.185	-0.234
-568.631	800.000	-0.019	-0.056
-567.617	-145.276	0.178	0.016
-566.602	-34.561	0.089	0.049
-565.588	69.711	-0.219	0.226
-564.573	-124.165	0.100	0.016
-563.558	-41.159	0.103	0.054
-562.544	39.496	-0.142	0.127
-561.529	-42.461	0.067	0.034
-560.515	-26.960	-0.423	0.248
-559.500	-200.000	0.039	0.337
-558.485	-91.096	0.205	0.059
-557.471	-200.000	0.057	-0.443
-556.456	-200.000	0.014	0.243
-555.442	-200.000	-0.013	0.154
-554.427	10.990	0.142	0.108
-553.412	-33.289	0.151	-0.083
-552.398	-45.359	-0.324	0.161
-551.383	-34.693	-0.197	0.108
-550.369	200.969	-0.207	-0.318
-549.354	175.565	0.125	0.182
-548.339	-200.000	-0.013	0.276
-547.325	-200.000	0.023	-0.173
-546.310	-200.000	0.006	0.115
-545.296	-71.790	0.026	0.010
-544.281	-200.000	0.015	-0.242
-543.266	-71.313	0.151	0.057
-542.252	800.000	-0.070	-0.198
-541.237	73.333	0.091	0.096
-540.223	54.449	-0.099	-0.096
-539.208	-71.765	-0.048	0.018
-538.193	-25.086	0.169	-0.100
-537.179	-147.725	-0.233	0.020
-536.164	-189.170	-0.481	0.006
-535.150	7.920	0.299	-0.224
-534.135	536.565	-0.076	-0.181
-533.121	-97.520	0.068	-0.018
-532.106	69.858	0.245	-0.253
-531.091	-81.618	0.207	0.068
-530.077	344.780	-0.050	-0.098
-529.062	437.990	-0.077	0.168
-528.048	-115.978	-0.232	-0.043
-527.033	-40.301	-0.145	0.075
-526.018	284.904	0.092	-0.166
-525.004	-200.000	-0.049	-0.268
-523.989	-170.317	0.377	-0.013
-522.975	23.448	-0.190	0.156
-521.960	-121.131	0.129	-0.022
-520.945	527.288	0.079	-0.186
-519.931	3.255	0.060	-0.043
-518.916	62.243	-0.082	-0.081
-517.902	-61.837	0.133	0.056
-516.887	60.472	0.118	0.117
-515.872	800.000	0.033	0.142
-514.858	161.972	-0.115	-0.161
-513.843	-172.095	-0.516	-0.017
-512.829	-7.865	-0.144	0.097
-511.814	800.000	0.056	-0.242
-510.799	-193.161	0.224	-0.002
-509.785	800.000	-0.088	-0.245
-508.770	592.588	0.052	-0.129
-507.756	-99.278	0.278	-0.070
-506.741	-34.085	0.420	0.231
-505.726	800.000	-0.066	-0.270
-504.712	-200.000	0.041	-0.258
-503.697	-3.945	0.107	0.074
-502.683	800.000	0.019	0.073
-501.668	-50.644	-0.329	-0.155
-500.653	-200.000	-0.014	0.142
-499.639	199.429	0.061	-0.094
-498.624	-200.000	-0.030	-0.348
-497.610	19.095	0.040	-0.032
-496.595	398.073	-0.027	0.057
-495.581	574.499	-0.037	0.091
-494.566	-18.972	0.194	-0.121
-493.551	-20.369	-0.254	0.156
-492.537	24.258	-0.191	-0.158
-491.522	800.000	-0.038	-0.143
-490.508	-200.000	-0.055	0.446
-489.493	-49.932	0.080	-0.038
-488.478	-200.000	-0.027	0.163
-487.464	-200.000	-0.084	0.431
-486.449	621.285	0.105	-0.265
-485.435	543.812	-0.051	0.121
-484.420	800.000	0.059	0.164
-483.405	-200.000	0.003	-0.071
-482.391	359.042	-0.171	-0.342
-481.376	-108.566	-0.233	0.050
-480.362	-21.653	0.084	0.051
-479.347	61.312	-0.076	-0.075
-478.332	-135.278	0.025	-0.003
-477.318	-76.972	0.140	-0.049
-476.303	800.000	-0.087	-0.302
-475.289	-134.234	-0.251	0.031
-474.274	-200.000	0.016	0.085
-473.259	-72.910	0.125	-0.046
-472.245	6.218	0.209	0.155
-471.230	-200.000	-0.033	-0.157
-470.216	800.000	-0.020	0.066
-469.201	152.766	0.156	0.213
-468.186	-161.287	-0.308	-0.016
-467.172	-185.461	0.279	0.004
-466.157	-200.000	-0.020	0.107
-465.143	800.000	-0.058	0.244
-464.128	-65.024	-0.159	0.064
-463.113	27.235	0.178	0.149
-462.099	-10.689	-0.069	0.046
-461.084	454.279	-0.159	-0.352
-460.070	-200.000	0.008	0.127
-459.055	113.861	-0.086	-0.104
-458.040	-77.646	-0.083	0.029
-457.026	698.777	0.088	0.231
-456.011	-143.365	-0.187	0.018
-454.997	34.640	-0.237	-0.207
-453.982	-200.000	0.293	0.000
-452.968	800.000	0.116	-0.375
-451.953	-3.194	0.243	-0.169
-450.938	106.827	0.127	-0.151
-449.924	-200.000	-0.072	0.350
-448.909	645.872	-0.084	0.214
-447.895	14.882	0.105	-0.082
-446.880	-65.496	-0.089	0.036
-445.865	659.394	-0.116	-0.299
-444.851	-106.096	0.249	-0.056
-443.836	-200.000	-0.040	0.292
-442.822	-200.000	-0.014	-0.139
-441.807	-177.998	0.372	0.009
-440.792	55.223	-0.324	0.312
-439.778	159.816	0.064	-0.088
-438.763	-88.765	-0.337	-0.100
-437.749	508.888	-0.150	0.347
-436.734	260.186	-0.016	-0.027
-435.719	-67.016	0.375	-0.148
-434.705	-34.731	-0.068	-0.037
-433.690	-146.896	0.210	-0.018
-432.676	-47.713	-0.116	0.056
-431.661	-200.000	-0.001	0.142
-430.646	800.000	-0.046	0.186
-429.632	324.473	-0.130	0.247
-428.617	-108.648	-0.238	0.051
-427.603	-200.000	0.009	-0.060
-426.588	16.983	0.146	-0.115
-425.573	249.588	-0.235	-0.397
-424.559	-108.009	0.144	0.031
-423.544	-194.645	-0.106	0.001
-422.530	5.642	0.175	-0.129
-421.515	800.000	0.057	-0.160
-420.500	35.840	0.258	0.226
-419.486	-200.000	0.022	-0.254
-418.471	-141.652	-0.255	-0.026
-417.457	12.799	0.197	-0.151
-416.442	224.336	-0.086	0.138
-415.428	-73.277	0.038	-0.014
-414.413	4.984	0.234	0.171
-413.398	123.725	0.325	0.406
-412.384	765.503	0.040	0.109
-411.369	-200.000	-0.003	-0.069
-410.355	-87.140	-0.129	-0.039
-409.340	506.201	-0.018	-0.043
-408.325	-28.219	0.182	0.105
-407.311	-101.265	0.028	0.007
-406.296	800.000	-0.048	0.154
-405.282	130.319	-0.213	-0.271
-404.267	-200.000	0.006	0.067
-403.252	213.565	-0.098	0.155
-402.238	67.467	0.182	0.185
-401.223	-3.208	-0.050	0.035
-400.209	702.109	0.061	0.160
-399.194	-200.000	0.023	-0.224
-398.179	-200.000	0.001	0.224
-397.165	23.422	0.147	-0.120
-396.150	246.550	0.173	0.291
-395.136	208.972	0.165	0.256
-394.121	1.270	0.101	0.072
-393.106	598.055	0.089	-0.220
-392.092	250.917	-0.134	-0.227
-391.077	19.293	0.315	-0.252
-390.063	-111.461	-0.249	0.051
-389.048	641.107	0.077	0.194
-388.033	-99.311	-0.114	0.029
-387.019	-28.404	-0.288	-0.165
-386.004	-98.135	0.313	-0.080
-384.990	-124.068	0.148	-0.023
-383.975	171.740	0.113	0.162
-382.960	-90.907	-0.255	0.073
-381.946	-58.285	-0.092	-0.040
-380.931	-10.782	-0.287	-0.189
-379.917	80.754	0.196	-0.210
-378.902	-107.839	-0.239	-0.052
-377.888	293.293	0.174	0.317
-376.873	-71.604	0.194	-0.072
-375.858	800.000	-0.106	-0.351
-374.844	-86.110	0.091	0.028
-373.829	-100.387	-0.315	-0.078
-372.815	-200.000	0.012	0.236
-371.800	334.483	0.047	0.091
-370.785	800.000	0.037	0.141
-369.771	-142.876	-0.527	-0.051
-368.756	-22.365	-0.176	0.106
-367.742	-85.450	0.209	-0.065
-366.727	-43.541	-0.197	0.099
-365.712	93.007	-0.105	0.118
-364.698	98.509	-0.211	-0.242
-363.683	800.000	-0.039	-0.127
-362.669	125.249	0.067	-0.084
-361.654	112.769	-0.157	0.190
-360.639	57.414	0.242	0.235
-359.625	800.000	0.083	-0.251
-358.610	140.700	0.119	0.156
-357.596	-126.665	0.092	0.014
-356.581	800.000	0.072	-0.246
-355.566	323.963	0.030	-0.057
-354.552	-20.833	-0.076	-0.046
-353.537	800.000	0.026	0.100
-352.523	-200.000	-0.020	-0.204
-351.508	800.000	0.053	-0.174
-350.493	-129.513	-0.129	0.018
-349.479	-80.703	0.192	-0.064
-348.464	-24.728	0.275	-0.163
-347.450	800.000	0.039	0.116
-346.435	-162.276	-0.190	-0.009
-345.420	-53.683	0.123	0.056
-344.406	800.000	-0.140	-0.385
-343.391	800.000	-0.046	0.177
-342.377	800.000	0.118	0.329
-341.362	223.537	0.093	0.149
-340.348	135.808	-0.087	0.112
-339.333	-200.000	0.034	-0.290
-338.318	-25.355	0.067	0.039
-337.304	290.829	-0.141	0.255
-336.289	-111.516	-0.204	0.041
-335.275	-122.080	-0.093	-0.015
-334.260	412.164	-0.214	-0.452
-333.245	-200.000	0.003	0.065
-332.231	224.213	-0.037	0.059
-331.216	118.738	-0.117	-0.143
-330.202	-21.525	-0.053	0.032
-329.187	800.000	0.026	0.107
-328.172	-179.278	-0.057	-0.001
-327.158	210.733	0.073	-0.114
-326.143	44.264	0.105	0.095
-325.129	219.978	0.108	-0.171
-324.114	-126.766	-0.156	0.023
-323.099	184.785	0.207	0.305
-322.085	-200.000	-0.029	0.223
-321.070	-26.640	-0.239	-0.139
-320.056	800.000	0.059	0.179
-319.041	-40.507	0.250	-0.129
-318.026	417.644	0.100	-0.211
-317.012	-200.000	0.012	-0.061
-315.997	-107.321	0.294	0.064
-314.983	-200.000	-0.029	-0.131
-313.968	332.262	-0.153	-0.294
-312.953	123.506	-0.195	-0.243
-311.939	34.439	-0.205	-0.178
-310.924	615.332	-0.042	-0.105
-309.910	-200.000	-0.023	0.149
-308.895	-41.534	-0.066	0.034
-307.880	211.231	0.170	0.265
-306.866	-70.410	-0.143	-0.054
-305.851	-200.000	-0.002	-0.014
-304.837	53.923	0.215	0.205
-303.822	-48.893	0.135	-0.064
-302.807	38.966	0.174	-0.154
-301.793	45.543	-0.049	-0.045
-300.778	106.200	-0.192	-0.226
-299.764	116.861	-0.064	0.077
-298.749	508.815	0.120	0.276
-297.735	-200.000	-0.030	0.147
-296.720	-200.000	-0.014	-0.301
-295.705	-68.090	-0.076	0.029
-294.691	-27.518	-0.436	0.251
-293.676	529.572	-0.037	-0.087
-292.662	-200.000	-0.096	0.491
-291.647	800.000	0.106	0.378
-290.632	-38.399	0.101	0.053
-289.618	65.060	-0.099	-0.100
-288.603	-36.610	0.208	0.111
-287.589	-86.285	0.205	0.062
-286.574	-200.000	-0.054	-0.350
-285.559	-139.384	0.172	0.018
-284.545	-15.991	-0.087	-0.055
-283.530	43.891	-0.281	-0.255
-282.516	-37.441	0.218	-0.115
-281.501	-200.000	-0.029	0.159
-280.486	800.000	0.064	0.210
-279.472	411.664	0.146	0.307
-278.457	17.694	0.058	-0.045
-277.443	-24.967	-0.137	0.081
-276.428	-200.000	0.040	-0.295
-275.413	-3.708	0.256	-0.176
-274.399	255.095	0.107	-0.182
-273.384	60.532	-0.179	0.175
-272.370	800.000	0.079	-0.231
-271.355	-41.060	0.303	-0.155
-270.340	-29.958	-0.167	-0.094
-269.326	-45.999	0.129	0.063
-268.311	-20.359	0.233	-0.142
-267.297	-200.000	-0.072	0.345
-266.282	-200.000	0.020	0.240
-265.267	-84.735	0.322	0.100
-264.253	-18.587	-0.272	0.168
-263.238	112.500	0.176	-0.211
-262.224	160.664	0.102	0.142
-261.209	-112.730	-0.059	0.012
-260.195	370.734	0.046	0.092
-259.180	-20.845	0.209	-0.127
-258.165	42.773	0.146	-0.131
-257.151	-117.563	-0.115	-0.021
-256.136	-200.000	-0.022	0.117
-255.122	579.817	-0.096	-0.234
-254.107	267.619	-0.127	0.221
-253.092	-88.144	0.083	-0.025
-252.078	153.894	0.190	0.258
-251.063	343.391	-0.060	-0.116
-250.049	134.828	0.105	0.135
-249.034	-200.000	-0.020	0.115
-248.019	800.000	0.029	0.123
-247.005	59.153	0.142	0.138
-245.990	-200.000	-0.025	-0.173
-244.976	-200.000	-0.009	0.125
-243.961	141.597	0.120	0.158
-242.946	-102.857	-0.032	-0.008
-241.932	71.300	0.118	0.121
-240.917	389.830	0.046	0.094
-239.903	194.520	0.089	0.133
-238.888	800.000	0.009	-0.035
-237.873	-200.000	-0.011	0.166
-236.859	-125.412	0.251	-0.038
-235.844	-140.110	-0.470	-0.049
-234.830	265.307	-0.137	-0.236
-233.815	23.270	-0.110	0.089
-232.800	124.856	0.165	0.206
-231.786	-62.949	-0.145	-0.059
-230.771	71.683	0.139	-0.143
-229.757	411.474	0.092	-0.192
-228.742	-31.362	0.181	0.101
-227.727	-87.197	-0.302	0.091
-226.713	-30.219	-0.339	0.191
-225.698	82.299	0.204	-0.219
-224.684	686.420	-0.032	0.083
-223.669	118.587	-0.007	-0.009
-222.655	-73.414	-0.127	0.046
-221.640	-164.080	0.265	0.012
-220.625	800.000	-0.012	-0.037
-219.611	-200.000	-0.011	-0.069
-218.596	800.000	0.026	0.083
-217.582	-80.606	0.286	-0.094
-216.567	-85.661	-0.288	0.089
-215.552	-137.612	-0.088	-0.010
-214.538	-94.866	-0.322	0.086
-213.523	-64.115	0.208	-0.084
-212.509	-64.282	-0.208	-0.084
-211.494	344.555	0.083	-0.160
-210.479	-200.000	0.036	0.244
-209.465	-130.586	0.182	0.024
-208.450	599.853	-0.072	0.176
-207.436	800.000	0.037	-0.102
-206.421	94.452	-0.154	-0.173
-205.406	-88.659	-0.096	-0.028
-204.392	4.603	-0.239	0.173
-203.377	-30.983	0.213	-0.119
-202.363	26.506	0.059	0.049
-201.348	-26.387	-0.191	0.110
-200.333	800.000	-0.088	0.302
-199.319	5.460	-0.161	-0.118
-198.304	-44.206	0.075	-0.037
-197.290	33.212	-0.154	-0.132
-196.275	-19.782	0.167	-0.102
-195.260	-17.068	0.159	0.099
-194.246	-141.180	-0.233	-0.024
-193.231	800.000	-0.102	-0.322
-192.217	-62.768	-0.233	-0.095
-191.202	247.980	0.154	-0.257
-190.187	800.000	-0.072	-0.233
-189.173	-4.781	0.128	-0.087
-188.158	-91.492	0.241	-0.068
-187.144	800.000	0.106	0.414
-186.129	-73.008	0.268	-0.097
-185.114	800.000	-0.083	0.250
-184.100	61.236	-0.146	-0.143
-183.085	-164.507	0.193	-0.009
-182.071	-35.047	-0.191	-0.103
-181.056	-78.318	0.214	0.072
-180.042	-169.533	0.191	-0.007
-179.027	9.806	0.179	0.134
-178.012	-200.000	0.017	-0.347
-176.998	-85.050	0.110	-0.034
-175.983	-181.627	0.440	0.008
-174.969	800.000	-0.052	0.223
-173.954	65.125	0.107	-0.106
-172.939	520.051	0.055	-0.126
-171.925	-200.000	-0.075	0.399
-170.910	800.000	0.089	-0.343
-169.896	423.242	0.102	-0.217
-168.881	-104.574	0.185	0.042
-167.866	-138.674	0.596	-0.064
-166.852	-141.633	0.229	0.023
-165.837	109.573	-0.123	-0.145
-164.823	-84.323	-0.220	0.069
-163.808	381.579	-0.084	-0.171
-162.793	112.908	-0.148	0.177
-161.779	-5.391	-0.307	0.208
-160.764	-162.839	-0.023	-0.001
-159.750	-200.000	-0.045	0.209
-158.735	-114.355	0.086	0.016
-157.720	80.418	0.036	-0.038
-156.706	0.077	0.298	0.210
-155.691	287.247	0.109	0.193
-154.677	-200.000	0.011	0.048
-153.662	163.786	-0.144	0.200
-152.647	-11.113	0.394	0.256
-151.633	65.741	-0.146	-0.146
-150.618	800.000	-0.076	-0.268
-149.604	224.106	-0.023	0.037
-148.589	-123.635	-0.509	-0.080
-147.574	121.365	0.237	0.290
-146.560	-200.000	-0.003	0.018
-145.545	800.000	0.098	0.304
-144.531	97.552	-0.118	0.134
-143.516	-115.119	0.216	-0.040
-142.502	-95.513	0.085	0.022
-141.487	-58.041	0.151	0.065
-140.472	127.232	-0.180	-0.225
-139.458	614.749	-0.112	-0.275
-138.443	-92.376	0.391	-0.109
-137.429	-200.000	0.014	-0.202
-136.414	78.743	-0.084	0.088
-135.399	-93.154	-0.039	-0.011
-134.385	-177.174	-0.305	-0.007
-133.370	-0.419	0.082	0.057
-132.356	477.189	-0.084	-0.187
-131.341	-101.361	0.251	0.060
-130.326	76.784	-0.309	0.323
-129.312	-41.779	-0.059	-0.030
-128.297	-78.854	-0.383	-0.129
-127.283	800.000	0.128	0.361
-126.268	-200.000	-0.018	-0.168
-125.253	76.310	0.028	0.029
-124.239	239.957	0.150	-0.246
-123.224	-50.286	0.524	0.244
-122.210	-3.050	-0.325	-0.223
-121.195	-54.759	-0.127	0.056
