DTS Sentinel unit serial number:	SN413079Multiplexer serial number:	ORYXHardware model number:	OX4-SRSoftware version number:	ORYX F/W v4.00 Oryx Data Collector v3.7.2.0data status	okinstallation	princeton_trtdifferential loss correction	single-endedforward channel	channel 2reverse channel	N/Adate	2019/09/16time	07:51:35forward acquisition time	60.00reverse acquisition time	0.00gamma	496.2192k internal	0.2331k external	0.2331temperature offset calibration	0.9976default loss term (dB/km)	0.3790temperature slope calibration	1.0000multiplexer offset coefficient	1.0000multiplexer slope coefficient	1.0000fibre end	0.00T internal ref (°C)	28.19T ext. ref 1 (°C)	11.71T ext. ref 2 (°C)	24.67length (m)	temperature (°C)	Stokes	anti-Stokes-747.200	-72.107	-0.229	0.086
-746.185	75.257	0.371	0.394
-745.171	-97.913	0.281	0.073
-744.156	800.000	-0.083	0.250
-743.142	-200.000	-0.001	0.064
-742.127	251.146	-0.034	-0.058
-741.112	159.039	-0.281	0.393
-740.098	489.364	0.049	0.113
-739.083	-200.000	-0.065	0.353
-738.069	54.659	-0.116	-0.113
-737.054	174.746	-0.056	-0.081
-736.039	98.294	-0.130	-0.151
-735.025	91.239	0.120	0.135
-734.010	-200.000	-0.044	0.249
-732.996	-200.000	0.015	0.138
-731.981	9.557	-0.172	-0.131
-730.966	-185.985	-0.623	-0.009
-729.952	32.835	0.039	-0.034
-728.937	-200.000	-0.001	-0.124
-727.923	291.213	-0.114	-0.208
-726.908	-53.794	0.370	0.170
-725.894	-109.683	-0.165	-0.035
-724.879	-89.870	-0.104	0.030
-723.864	-59.584	-0.219	-0.094
-722.850	-66.958	-0.139	-0.055
-721.835	193.703	-0.054	-0.083
-720.821	-200.000	0.006	-0.080
-719.806	7.969	-0.115	-0.087
-718.791	593.103	-0.039	0.097
-717.777	-6.607	-0.129	-0.088
-716.762	-117.461	0.134	0.024
-715.748	-42.899	0.065	-0.033
-714.733	7.665	-0.165	0.124
-713.718	82.443	-0.310	-0.338
-712.704	-74.956	0.239	0.086
-711.689	-52.657	-0.188	0.087
-710.675	206.454	-0.091	0.143
-709.660	-89.533	0.349	-0.103
-708.645	227.079	-0.025	-0.041
-707.631	-90.201	-0.301	0.088
-706.616	800.000	-0.050	0.142
-705.602	-193.139	-0.393	0.004
-704.587	180.695	-0.158	-0.233
-703.572	-110.686	-0.366	-0.076
-702.558	-130.793	-0.274	-0.037
-701.543	-200.000	-0.041	0.180
-700.529	423.085	0.071	0.153
-699.514	247.706	0.133	-0.225
-698.499	-114.257	0.240	0.047
-697.485	-200.000	0.069	0.489
-696.470	800.000	-0.031	-0.107
-695.456	-143.599	-0.336	0.032
-694.441	209.697	-0.087	-0.137
-693.426	114.065	0.040	-0.049
-692.412	800.000	-0.090	-0.351
-691.397	62.288	0.161	-0.161
-690.383	137.421	-0.181	-0.238
-689.368	800.000	-0.081	-0.328
-688.354	800.000	0.043	-0.132
-687.339	90.241	0.149	-0.167
-686.324	-5.076	-0.121	0.084
-685.310	-200.000	0.040	-0.193
-684.295	800.000	0.053	-0.179
-683.281	-85.191	-0.362	0.114
-682.266	800.000	0.063	-0.245
-681.251	-200.000	-0.021	0.134
-680.237	-200.000	0.019	0.298
-679.222	63.848	0.096	-0.097
-678.208	-36.371	0.170	-0.092
-677.193	-104.368	0.094	0.022
-676.178	-200.000	-0.056	0.325
-675.164	-96.335	-0.071	-0.019
-674.149	-200.000	-0.005	-0.067
-673.135	18.354	-0.282	-0.226
-672.120	-73.529	-0.470	-0.172
-671.105	-33.395	0.423	0.235
-670.091	54.986	-0.061	0.059
-669.076	-200.000	-0.022	0.217
-668.062	249.497	-0.124	0.211
-667.047	53.711	-0.334	-0.322
-666.032	163.308	0.106	-0.149
-665.018	-22.375	-0.206	-0.125
-664.003	595.647	-0.110	-0.273
-662.989	126.769	-0.099	-0.126
-661.974	402.162	-0.053	0.113
-660.959	188.358	-0.215	-0.322
-659.945	521.956	-0.075	0.176
-658.930	18.934	-0.100	0.080
-657.916	39.078	-0.065	-0.058
-656.901	-65.990	0.247	0.099
-655.886	-200.000	-0.033	0.174
-654.872	-200.000	0.032	0.165
-653.857	-119.047	-0.184	-0.032
-652.843	-114.850	-0.367	0.070
-651.828	-83.311	-0.065	-0.021
-650.814	-172.167	0.044	0.001
-649.799	-130.756	-0.029	0.004
-648.784	26.658	0.366	-0.307
-647.770	88.106	-0.160	0.178
-646.755	-200.000	-0.000	0.002
-645.741	758.671	0.062	0.167
-644.726	-81.031	0.417	0.138
-643.711	-43.133	-0.098	-0.050
-642.697	-129.833	0.149	-0.021
-641.682	276.221	0.141	0.251
-640.668	-137.857	0.253	0.028
-639.653	158.303	-0.177	-0.246
-638.638	361.427	-0.006	-0.013
-637.624	44.531	-0.090	0.083
-636.609	-142.228	-0.244	-0.024
-635.595	-200.000	0.013	0.193
-634.580	-200.000	-0.077	0.406
-633.565	385.793	-0.035	-0.072
-632.551	120.401	-0.108	-0.134
-631.536	-15.292	0.127	-0.082
-630.522	2.447	-0.154	0.112
-629.507	800.000	0.047	0.190
-628.492	-118.632	-0.218	-0.039
-627.478	-102.212	-0.223	0.054
-626.463	-45.952	0.165	-0.082
-625.449	-10.702	-0.128	-0.085
-624.434	681.787	0.075	0.195
-623.419	-200.000	0.003	-0.223
-622.405	-42.317	-0.493	-0.252
-621.390	-10.931	-0.142	0.094
-620.376	-165.812	0.235	-0.010
-619.361	-200.000	-0.068	0.310
-618.346	800.000	-0.029	-0.111
-617.332	7.751	-0.255	-0.191
-616.317	-200.000	-0.012	0.362
-615.303	-200.000	-0.001	-0.202
-614.288	31.479	-0.039	0.034
-613.273	113.563	0.180	0.219
-612.259	-200.000	0.041	-0.483
-611.244	-101.488	0.185	0.045
-610.230	194.271	0.060	-0.090
-609.215	0.275	-0.226	0.162
-608.201	800.000	-0.079	-0.221
-607.186	-169.958	-0.325	-0.012
-606.171	-200.000	0.011	-0.349
-605.157	-161.667	-0.286	0.015
-604.142	-200.000	-0.025	0.216
-603.128	187.483	0.200	0.299
-602.113	252.102	0.098	-0.167
-601.098	-92.015	0.103	0.029
-600.084	800.000	-0.083	0.262
-599.069	440.663	-0.168	0.367
-598.055	800.000	0.087	-0.331
-597.040	800.000	0.025	0.077
-596.025	322.109	-0.118	0.224
-595.011	-81.537	-0.300	-0.099
-593.996	-127.238	0.234	-0.034
-592.982	800.000	0.041	-0.126
-591.967	280.107	0.117	-0.209
-590.952	116.924	-0.161	0.198
-589.938	-23.134	-0.082	0.050
-588.923	-35.163	0.144	-0.078
-587.909	2.115	0.033	-0.024
-586.894	36.579	-0.095	-0.084
-585.879	-166.388	-0.218	0.009
-584.865	-86.310	-0.103	-0.032
-583.850	165.005	-0.207	0.293
-582.836	-63.795	-0.174	0.071
-581.821	-200.000	0.037	-0.302
-580.806	-60.017	-0.235	0.100
-579.792	-95.618	-0.242	0.065
-578.777	-200.000	-0.018	-0.118
-577.763	-54.849	-0.068	-0.031
-576.748	240.986	-0.091	0.152
-575.733	-140.085	0.164	0.017
-574.719	-200.000	0.046	-0.291
-573.704	-200.000	-0.073	0.346
-572.690	-200.000	-0.010	0.234
-571.675	-25.374	0.090	0.053
-570.661	91.030	0.201	0.226
-569.646	-151.904	-0.040	0.003
-568.631	-200.000	0.012	-0.070
-567.617	454.992	0.041	-0.092
-566.602	-29.907	-0.177	0.101
-565.588	-120.751	-0.154	0.026
-564.573	168.679	0.125	0.178
-563.558	49.855	-0.051	0.048
-562.544	800.000	-0.026	0.084
-561.529	214.278	0.037	0.058
-560.515	-121.074	-0.272	-0.046
-559.500	-200.000	-0.009	0.057
-558.485	10.580	-0.221	-0.169
-557.471	-73.601	-0.398	0.145
-556.456	800.000	0.062	0.203
-555.442	63.433	-0.247	-0.248
-554.427	800.000	0.035	-0.142
-553.412	-64.190	-0.198	-0.081
-552.398	-23.630	-0.103	0.062
-551.383	613.947	-0.033	0.083
-550.369	97.337	0.078	-0.090
-549.354	6.773	0.230	0.171
-548.339	124.206	-0.135	0.170
-547.325	-51.589	-0.242	-0.113
-546.310	-200.000	-0.019	-0.152
-545.296	-88.662	-0.282	0.084
-544.281	-71.461	-0.094	-0.035
-543.266	-7.766	-0.056	0.038
-542.252	-50.874	-0.390	0.183
-541.237	-54.118	-0.159	-0.072
-540.223	116.187	0.143	0.175
-539.208	-111.883	-0.117	0.024
-538.193	-184.432	-0.378	0.006
-537.179	442.003	0.083	0.182
-536.164	130.328	-0.147	-0.188
-535.150	-97.103	0.063	-0.017
-534.135	34.299	-0.173	0.151
-533.121	164.434	0.065	-0.091
-532.106	376.916	-0.023	-0.046
-531.091	800.000	-0.148	0.541
-530.077	28.306	-0.108	-0.091
-529.062	800.000	0.042	0.156
-528.048	-120.487	-0.280	0.048
-527.033	-200.000	-0.010	-0.361
-526.018	-18.209	0.070	0.044
-525.004	-108.223	0.211	-0.045
-523.989	-52.001	0.057	-0.026
-522.975	-174.866	0.039	-0.001
-521.960	-70.732	0.288	0.108
-520.945	-200.000	0.030	-0.224
-519.931	-200.000	0.022	-0.136
-518.916	-3.885	0.179	0.124
-517.902	-1.435	0.187	0.132
-516.887	-138.726	-0.150	-0.016
-515.872	160.480	-0.191	-0.266
-514.858	32.525	-0.227	0.196
-513.843	124.448	-0.149	0.186
-512.829	800.000	-0.021	0.070
-511.814	310.696	-0.195	0.364
-510.799	-20.799	0.221	-0.135
-509.785	-89.887	0.400	0.117
-508.770	100.588	0.051	0.059
-507.756	-65.241	0.318	-0.128
-506.741	180.165	-0.037	-0.054
-505.726	800.000	0.051	0.165
-504.712	800.000	0.055	0.187
-503.697	-52.672	0.113	0.052
-502.683	-114.761	-0.159	0.030
-501.668	-72.853	-0.052	0.019
-500.653	-200.000	0.013	-0.059
-499.639	51.531	0.213	-0.202
-498.624	-21.039	-0.008	0.005
-497.610	-96.006	0.099	-0.026
-496.595	-30.637	-0.102	0.058
-495.581	509.351	0.051	-0.117
-494.566	129.791	-0.150	-0.191
-493.551	208.055	0.029	-0.045
-492.537	-30.753	-0.289	0.163
-491.522	-41.439	0.228	-0.117
-490.508	53.881	-0.137	-0.131
-489.493	1.536	-0.154	-0.110
-488.478	123.958	-0.306	-0.383
-487.464	800.000	0.012	-0.049
-486.449	39.948	-0.094	0.084
-485.435	-200.000	-0.017	0.209
-484.420	-175.110	0.062	0.002
-483.405	241.983	-0.087	-0.145
-482.391	117.565	-0.159	-0.195
-481.376	-152.050	-0.163	0.012
-480.362	-15.360	-0.156	0.099
-479.347	-22.677	0.042	-0.025
-478.332	-200.000	0.033	0.246
-477.318	787.846	0.078	0.213
-476.303	-50.228	-0.070	0.033
-475.289	89.647	0.258	-0.286
-474.274	800.000	0.114	-0.334
-473.259	-42.079	-0.377	0.192
-472.245	800.000	0.085	-0.292
-471.230	-160.913	0.160	-0.008
-470.216	-27.576	0.095	-0.055
-469.201	-200.000	-0.044	-0.248
-468.186	-200.000	0.024	0.257
-467.172	-28.143	0.044	0.026
-466.157	-7.553	0.107	0.072
-465.143	-170.473	0.173	0.006
-464.128	-50.722	0.113	-0.053
-463.113	-102.243	-0.356	-0.085
-462.099	64.145	0.152	-0.153
-461.084	-54.043	0.063	-0.029
-460.070	-200.000	0.024	-0.199
-459.055	-15.515	0.183	-0.116
-458.040	18.704	-0.258	0.205
-457.026	186.250	0.183	0.270
-456.011	-200.000	0.002	0.309
-454.997	-36.972	0.532	-0.284
-453.982	-74.326	0.285	-0.102
-452.968	123.509	0.203	0.254
-451.953	196.512	0.052	-0.079
-450.938	-69.681	0.173	0.066
-449.924	25.894	-0.311	0.258
-448.909	-200.000	0.014	-0.193
-447.895	88.852	0.190	0.210
-446.880	800.000	-0.091	-0.348
-445.865	48.636	-0.128	-0.119
-444.851	162.284	0.098	0.137
-443.836	-45.171	0.496	0.245
-442.822	23.279	-0.273	-0.223
-441.807	514.505	-0.158	-0.368
-440.792	45.006	0.114	0.104
-439.778	-34.097	0.290	0.158
-438.763	-32.896	-0.311	0.172
-437.749	134.119	-0.116	0.150
-436.734	-40.029	-0.211	0.109
-435.719	764.526	0.037	0.099
-434.705	-200.000	-0.020	0.099
-433.690	-88.135	0.241	0.072
-432.676	-146.754	0.351	0.030
-431.661	-138.538	0.140	-0.015
-430.646	369.400	-0.058	-0.116
-429.632	-139.057	0.049	-0.005
-428.617	-53.010	-0.273	-0.125
-427.603	800.000	0.068	0.256
-426.588	290.375	0.047	-0.086
-425.573	60.849	-0.146	0.144
-424.559	-154.255	0.145	0.010
-423.544	55.876	-0.145	-0.139
-422.530	163.959	0.161	-0.225
-421.515	401.057	-0.067	0.139
-420.500	39.267	-0.146	0.130
-419.486	323.302	-0.107	-0.203
-418.471	800.000	-0.018	0.062
-417.457	-107.630	0.317	-0.069
-416.442	800.000	-0.051	-0.200
-415.428	46.501	-0.320	-0.295
-414.413	-187.922	0.200	-0.003
-413.398	97.087	0.160	0.183
-412.384	116.261	-0.105	0.127
-411.369	186.476	0.102	-0.151
-410.355	-200.000	-0.064	-0.292
-409.340	-60.098	0.133	0.056
-408.325	88.883	-0.212	0.234
-407.311	-98.792	0.105	-0.027
-406.296	-200.000	-0.014	-0.160
-405.282	-183.173	-0.166	0.003
-404.267	-135.456	0.446	0.053
-403.252	-138.296	-0.338	0.037
-402.238	800.000	0.039	-0.167
-401.223	-200.000	-0.001	0.158
-400.209	114.838	0.248	0.300
-399.194	-200.000	0.055	-0.367
-398.179	-155.913	0.482	-0.030
-397.165	416.325	0.174	-0.369
-396.150	-200.000	-0.009	0.205
-395.136	-138.819	-0.450	-0.049
-394.121	-131.748	-0.187	-0.024
-393.106	-167.241	-0.182	-0.007
-392.092	-23.914	0.211	-0.126
-391.077	800.000	-0.067	0.189
-390.063	489.695	-0.127	-0.288
-389.048	-200.000	0.041	-0.209
-388.033	14.297	-0.123	0.095
-387.019	-68.756	-0.208	-0.080
-386.004	-200.000	-0.030	0.191
-384.990	-200.000	-0.035	-0.293
-383.975	-200.000	0.024	0.280
-382.960	800.000	0.099	-0.347
-381.946	59.213	-0.264	-0.258
-380.931	-52.545	-0.162	0.074
-379.917	2.437	0.148	-0.106
-378.902	-76.196	0.333	0.117
-377.888	800.000	-0.019	-0.079
-376.873	369.671	0.140	0.281
-375.858	-200.000	-0.012	0.115
-374.844	191.621	-0.120	-0.180
-373.829	114.241	0.072	0.087
-372.815	194.576	-0.117	-0.176
-371.800	-173.763	-0.259	0.008
-370.785	-200.000	0.038	0.197
-369.771	-165.595	-0.611	0.026
-368.756	56.393	0.208	-0.200
-367.742	223.779	-0.139	-0.223
-366.727	758.657	-0.075	-0.201
-365.712	34.217	-0.046	0.040
-364.698	800.000	-0.042	0.150
-363.683	-147.551	0.017	-0.001
-362.669	-59.246	-0.215	0.092
-361.654	414.564	-0.105	0.222
-360.639	14.023	-0.063	0.049
-359.625	-200.000	-0.014	-0.072
-358.610	-42.084	-0.170	0.086
-357.596	797.101	0.228	-0.624
-356.581	-108.497	-0.370	-0.079
-355.566	-34.234	0.283	0.154
-354.552	16.011	0.143	0.111
-353.537	-15.958	0.167	0.105
-352.523	-63.487	-0.350	-0.143
-351.508	26.713	0.386	-0.321
-350.493	2.625	0.009	0.007
-349.479	-106.348	0.471	0.104
-348.464	-57.072	-0.134	0.059
-347.450	-76.883	0.079	0.027
-346.435	102.538	-0.306	-0.354
-345.420	210.437	-0.156	-0.242
-344.406	157.998	-0.134	0.184
-343.391	-135.365	0.103	-0.012
-342.377	8.863	-0.424	0.317
-341.362	65.024	-0.198	-0.198
-340.348	-104.678	0.468	0.107
-339.333	-131.755	0.319	-0.041
-338.318	-56.606	0.127	0.056
-337.304	7.809	-0.289	0.214
-336.289	800.000	0.089	0.348
-335.275	161.646	-0.172	-0.238
-334.260	158.851	0.195	0.268
-333.245	93.936	0.173	0.195
-332.231	67.617	0.111	-0.113
-331.216	-200.000	-0.004	0.247
-330.202	148.954	-0.122	0.164
-329.187	51.772	-0.159	-0.150
-328.172	197.315	-0.117	0.177
-327.158	800.000	0.104	0.338
-326.143	-107.949	0.253	0.054
-325.129	-28.592	-0.223	-0.127
-324.114	151.183	-0.046	-0.063
-323.099	-127.698	0.098	-0.014
-322.085	35.452	-0.084	-0.073
-321.070	-177.579	-0.157	0.004
-320.056	-75.532	0.085	0.030
-319.041	96.970	0.190	0.215
-318.026	75.158	-0.057	-0.060
-317.012	-200.000	0.001	0.199
-315.997	191.296	-0.278	0.414
-314.983	-28.209	0.273	0.156
-313.968	226.408	0.056	-0.090
-312.953	-200.000	-0.009	-0.177
-311.939	-200.000	0.043	-0.346
-310.924	-200.000	-0.090	-0.430
-309.910	800.000	-0.020	-0.065
-308.895	262.429	0.067	-0.114
-307.880	-37.739	0.111	-0.059
-306.866	310.643	0.031	0.058
-305.851	48.777	-0.185	0.172
-304.837	88.794	-0.121	-0.133
-303.822	-98.951	-0.299	0.075
-302.807	-32.916	0.132	-0.073
-301.793	-79.427	0.294	-0.099
-300.778	-200.000	0.005	0.140
-299.764	-200.000	0.021	-0.127
-298.749	8.451	0.170	0.126
-297.735	121.797	0.202	0.249
-296.720	800.000	0.037	0.145
-295.705	-108.899	0.423	0.089
-294.691	454.463	-0.062	-0.136
-293.676	-200.000	-0.046	0.222
-292.662	387.791	0.079	0.161
-291.647	-200.000	-0.006	-0.102
-290.632	117.741	-0.261	-0.317
-289.618	53.159	0.240	0.227
-288.603	-80.937	0.578	0.189
-287.589	-17.450	-0.221	-0.138
-286.574	-200.000	-0.034	-0.197
-285.559	-48.594	-0.216	-0.103
-284.545	79.819	0.116	-0.124
-283.530	7.005	-0.201	-0.148
-282.516	-102.715	-0.308	-0.073
-281.501	75.567	0.138	-0.144
-280.486	-87.955	-0.354	-0.105
-279.472	39.766	0.300	0.266
-278.457	-200.000	0.012	0.159
-277.443	337.602	-0.064	-0.122
-276.428	144.289	-0.138	-0.182
-275.413	340.761	0.073	0.140
-274.399	148.981	-0.103	0.138
-273.384	-200.000	-0.044	-0.303
-272.370	-101.156	0.082	-0.020
-271.355	800.000	-0.035	0.106
-270.340	-7.419	0.496	-0.332
-269.326	-109.271	0.144	0.030
-268.311	-70.363	0.168	0.063
-267.297	32.601	0.018	-0.016
-266.282	675.015	-0.064	-0.163
-265.267	153.781	0.067	-0.091
-264.253	335.359	0.180	-0.345
-263.238	38.098	0.092	-0.081
-262.224	129.099	0.116	-0.146
-261.209	-50.809	0.304	0.141
-260.195	800.000	-0.037	0.155
-259.180	-62.355	0.209	0.086
-258.165	-127.046	-0.099	-0.014
-257.151	262.233	0.094	0.160
-256.136	501.315	0.001	0.001
-255.122	-200.000	0.009	-0.300
-254.107	47.167	-0.348	0.320
-253.092	179.977	0.166	-0.240
-252.078	-14.795	-0.131	0.083
-251.063	118.403	-0.134	0.163
-250.049	-50.124	0.253	0.118
-249.034	-59.622	0.320	0.135
-248.019	276.374	-0.093	0.162
-247.005	461.292	0.042	0.094
-245.990	-200.000	-0.037	-0.196
-244.976	84.010	0.319	-0.344
-243.961	6.705	0.105	0.077
-242.946	-200.000	-0.026	-0.327
-241.932	4.995	0.237	0.172
-240.917	462.235	0.068	0.149
-239.903	-127.296	-0.291	0.042
-238.888	-86.990	0.356	-0.107
-237.873	-91.519	0.285	-0.080
-236.859	622.417	0.073	0.182
-235.844	798.706	-0.165	-0.448
-234.830	30.559	0.241	-0.204
-233.815	-200.000	0.027	0.253
-232.800	-200.000	0.030	0.251
-231.786	-93.530	0.348	-0.095
-230.771	-157.789	0.285	-0.017
-229.757	115.945	-0.120	0.145
-228.742	-89.931	-0.211	-0.061
-227.727	-131.208	0.290	0.038
-226.713	-21.187	-0.074	0.045
-225.698	30.623	0.190	-0.161
-224.684	29.816	0.329	-0.277
-223.669	71.931	-0.042	0.043
-222.655	62.169	0.213	-0.210
-221.640	46.916	0.259	-0.238
-220.625	209.237	0.161	-0.249
-219.611	268.166	-0.136	-0.235
-218.596	215.756	-0.207	0.324
-217.582	-9.981	0.247	-0.162
-216.567	300.675	-0.162	-0.294
-215.552	-200.000	-0.012	-0.093
-214.538	-200.000	-0.000	0.086
-213.523	-200.000	0.094	0.413
-212.509	14.097	0.134	-0.103
-211.494	-200.000	0.030	-0.144
-210.479	95.181	-0.186	0.209
-209.465	-24.835	-0.241	-0.141
-208.450	340.101	-0.124	-0.239
-207.436	4.384	-0.089	-0.064
-206.421	-200.000	0.037	-0.272
-205.406	651.177	-0.114	-0.287
-204.392	-84.761	0.129	0.040
-203.377	43.643	-0.087	0.078
-202.363	271.917	0.036	0.062
-201.348	-200.000	0.025	0.360
-200.333	-63.686	0.286	-0.115
-199.319	19.824	-0.113	0.090
-198.304	-200.000	0.067	0.341
-197.290	140.180	-0.068	-0.089
-196.275	252.740	0.073	0.123
-195.260	65.725	0.263	0.263
-194.246	294.709	0.177	-0.319
-193.231	38.758	0.168	-0.147
-192.217	-90.316	-0.174	-0.050
-191.202	-8.254	0.230	0.152
-190.187	-140.908	-0.374	0.038
-189.173	41.231	-0.215	0.191
-188.158	179.935	0.168	0.243
-187.144	72.991	-0.057	-0.059
-186.129	123.507	-0.129	-0.160
-185.114	209.274	-0.124	-0.191
-184.100	800.000	0.064	0.227
-183.085	210.659	0.093	0.143
-182.071	-3.438	-0.236	-0.162
-181.056	554.707	-0.119	0.281
-180.042	-34.203	-0.089	0.048
-179.027	-200.000	-0.023	0.200
-178.012	800.000	0.063	-0.201
-176.998	800.000	0.050	-0.182
-175.983	800.000	0.061	0.244
-174.969	-57.408	-0.358	-0.155
-173.954	800.000	0.054	-0.173
-172.939	33.038	-0.176	-0.150
-171.925	791.502	-0.139	0.377
-170.910	-45.801	0.285	-0.139
-169.896	-111.906	0.353	0.070
-168.881	-59.216	0.126	0.054
-167.866	-90.346	0.430	0.123
-166.852	-51.827	-0.243	0.111
-165.837	-35.685	-0.099	0.053
-164.823	158.443	-0.150	0.205
-163.808	224.379	0.070	0.112
-162.793	-129.618	0.093	0.013
-161.779	-200.000	-0.016	0.239
-160.764	-90.205	0.359	-0.103
-159.750	-200.000	0.055	-0.237
-158.735	-35.269	-0.087	-0.047
-157.720	-31.644	-0.234	-0.129
-156.706	-12.809	0.304	-0.195
-155.691	108.772	-0.242	0.284
-154.677	-200.000	0.015	0.074
-153.662	-176.948	-0.194	-0.005
-152.647	-63.863	-0.152	-0.061
-151.633	97.863	0.031	0.035
-150.618	103.915	0.190	0.220
-149.604	-200.000	0.024	-0.422
-148.589	203.719	0.069	-0.105
-147.574	-134.466	0.305	-0.037
-146.560	98.393	0.040	-0.045
-145.545	-1.853	-0.205	-0.142
-144.531	-126.916	-0.233	-0.034
-143.516	275.036	0.153	0.266
-142.502	58.005	-0.258	-0.248
-141.487	800.000	-0.064	0.197
-140.472	230.394	0.135	0.216
-139.458	-34.856	0.316	-0.170
-138.443	64.426	-0.121	-0.119
-137.429	-76.627	0.411	0.142
-136.414	-58.122	-0.188	0.080
-135.399	35.540	0.236	-0.204
-134.385	-7.730	-0.060	-0.040
-133.370	-200.000	-0.011	0.116
-132.356	800.000	-0.072	-0.249
-131.341	57.313	-0.299	-0.287
-130.326	-200.000	-0.035	0.294
-129.312	-200.000	-0.003	0.340
-128.297	800.000	-0.111	0.322
-127.283	-68.298	0.121	0.046
-126.268	-112.793	-0.304	-0.059
-125.253	800.000	0.014	-0.050
-124.239	-200.000	0.051	0.271
-123.224	800.000	0.109	0.298
-122.210	-21.236	0.186	0.112
-121.195	500.510	-0.034	0.078
-120.180	-38.635	0.353	-0.183
