DTS Sentinel unit serial number:	SN413079Multiplexer serial number:	ORYXHardware model number:	OX4-SRSoftware version number:	ORYX F/W v4.00 Oryx Data Collector v3.7.2.0data status	okinstallation	princeton_trtdifferential loss correction	single-endedforward channel	channel 2reverse channel	N/Adate	2019/09/16time	23:51:34forward acquisition time	60.00reverse acquisition time	0.00gamma	496.2192k internal	0.2329k external	0.2329temperature offset calibration	0.9974default loss term (dB/km)	0.3790temperature slope calibration	1.0000multiplexer offset coefficient	1.0000multiplexer slope coefficient	1.0000fibre end	0.00T internal ref (°C)	29.62T ext. ref 1 (°C)	0.09T ext. ref 2 (°C)	23.91length (m)	temperature (°C)	Stokes	anti-Stokes-747.200	-98.766	-0.323	0.083
-746.185	800.000	-0.138	0.477
-745.171	133.583	-0.302	0.393
-744.156	-39.540	-0.458	0.242
-743.142	-51.768	-0.229	0.107
-742.127	144.490	-0.067	-0.090
-741.112	800.000	0.072	0.224
-740.098	-63.784	-0.318	0.131
-739.083	2.553	-0.343	0.250
-738.069	626.132	-0.079	0.200
-737.054	192.058	0.051	0.077
-736.039	-36.801	-0.115	0.062
-735.025	182.083	0.090	0.133
-734.010	-29.761	-0.184	-0.105
-732.996	243.366	-0.115	0.194
-731.981	800.000	-0.090	0.326
-730.966	-21.422	0.104	0.064
-729.952	13.764	0.128	0.100
-728.937	-128.078	0.197	-0.028
-727.923	331.510	-0.111	-0.216
-726.908	-200.000	-0.017	0.079
-725.894	-16.160	-0.286	-0.183
-724.879	-175.045	-0.302	0.008
-723.864	193.423	-0.119	0.181
-722.850	800.000	-0.132	0.402
-721.835	-6.530	-0.193	-0.132
-720.821	-104.205	0.303	-0.071
-719.806	67.664	-0.180	0.185
-718.791	-3.793	0.239	0.167
-717.777	5.363	-0.252	0.187
-716.762	-115.413	-0.301	0.057
-715.748	-100.295	-0.307	-0.077
-714.733	311.619	-0.084	0.159
-713.718	-85.701	-0.378	-0.118
-712.704	-69.772	-0.134	-0.051
-711.689	800.000	0.029	-0.128
-710.675	512.317	0.151	-0.353
-709.660	-200.000	-0.028	-0.241
-708.645	282.681	0.137	0.247
-707.631	800.000	-0.051	-0.214
-706.616	-13.377	-0.214	-0.140
-705.602	-157.544	0.123	-0.007
-704.587	305.194	0.129	-0.241
-703.572	179.305	0.069	0.101
-702.558	100.304	0.240	-0.280
-701.543	385.249	-0.147	0.305
-700.529	-12.612	-0.352	-0.231
-699.514	623.711	-0.104	-0.263
-698.499	-200.000	0.027	-0.133
-697.485	-117.488	-0.254	-0.046
-696.470	-200.000	0.012	-0.292
-695.456	24.195	0.238	0.198
-694.441	-200.000	-0.001	-0.086
-693.426	103.968	-0.052	-0.062
-692.412	-24.831	0.256	0.153
-691.397	-200.000	0.009	0.343
-690.383	10.208	0.052	0.039
-689.368	13.058	-0.175	0.136
-688.354	-87.487	0.138	-0.042
-687.339	-8.900	-0.058	-0.039
-686.324	55.541	-0.169	-0.165
-685.310	-137.120	0.134	-0.015
-684.295	-82.631	-0.342	0.111
-683.281	13.523	0.195	-0.152
-682.266	-121.575	-0.345	-0.058
-681.251	31.955	-0.124	0.107
-680.237	800.000	-0.079	-0.227
-679.222	-71.723	0.114	-0.043
-678.208	153.251	-0.075	0.103
-677.193	-6.859	-0.202	-0.138
-676.178	504.092	-0.036	0.083
-675.164	166.966	-0.097	-0.138
-674.149	-200.000	-0.023	-0.194
-673.135	-154.509	-0.057	-0.004
-672.120	156.979	0.045	0.063
-671.105	-102.500	0.330	-0.079
-670.091	-42.907	0.173	0.088
-669.076	-109.915	-0.107	-0.023
-668.062	-200.000	-0.018	-0.147
-667.047	160.661	-0.168	-0.235
-666.032	-200.000	0.007	-0.064
-665.018	53.133	-0.123	-0.118
-664.003	-125.526	-0.228	0.035
-662.989	19.686	-0.158	-0.127
-661.974	-200.000	-0.013	-0.163
-660.959	518.733	0.060	0.141
-659.945	800.000	-0.098	-0.294
-658.930	-112.533	-0.244	0.049
-657.916	-124.805	-0.170	-0.026
-656.901	800.000	-0.065	0.279
-655.886	-51.251	0.342	0.161
-654.872	-200.000	0.068	0.306
-653.857	-26.285	0.248	0.146
-652.843	182.125	0.074	0.110
-651.828	22.811	-0.088	-0.073
-650.814	-56.796	0.199	0.088
-649.799	68.589	0.094	-0.097
-648.784	-200.000	-0.006	-0.178
-647.770	41.485	-0.140	-0.127
-646.755	-200.000	-0.120	0.000
-645.741	-200.000	0.002	0.069
-644.726	-68.575	-0.187	0.073
-643.711	6.012	-0.302	0.225
-642.697	198.728	0.286	-0.439
-641.682	800.000	-0.078	-0.333
-640.668	194.822	-0.190	-0.289
-639.653	508.930	-0.193	0.451
-638.638	-76.541	0.197	-0.069
-637.624	201.704	0.114	-0.176
-636.609	-129.217	0.329	0.046
-635.595	-117.221	-0.293	0.053
-634.580	-200.000	0.001	-0.408
-633.565	-200.000	0.002	-0.133
-632.551	-135.232	-0.150	-0.018
-631.536	-119.060	-0.309	0.054
-630.522	-56.624	-0.325	-0.144
-629.507	-200.000	0.005	0.231
-628.492	800.000	0.127	0.405
-627.478	-200.000	-0.018	0.243
-626.463	-200.000	-0.021	0.182
-625.449	-12.166	0.122	-0.080
-624.434	113.195	-0.089	-0.108
-623.419	-24.639	-0.218	-0.130
-622.405	-145.173	-0.566	-0.051
-621.390	232.010	-0.107	0.176
-620.376	-200.000	-0.009	-0.050
-619.361	74.606	0.158	-0.166
-618.346	-200.000	-0.011	0.151
-617.332	593.676	0.185	0.457
-616.317	16.966	0.036	0.028
-615.303	-43.635	-0.027	-0.013
-614.288	-134.644	0.416	-0.051
-613.273	45.663	0.147	-0.136
-612.259	-9.745	-0.137	-0.091
-611.244	-127.886	-0.201	0.029
-610.230	-10.111	-0.306	-0.204
-609.215	48.962	0.142	0.134
-608.201	-53.466	-0.208	-0.095
-607.186	531.601	-0.172	-0.407
-606.171	-200.000	0.009	-0.219
-605.157	-48.166	0.134	-0.065
-604.142	-107.054	-0.239	-0.053
-603.128	310.413	0.080	-0.151
-602.113	-91.239	0.234	0.067
-601.098	150.196	0.261	0.354
-600.084	800.000	-0.055	0.236
-599.069	-150.182	-0.029	0.002
-598.055	75.009	0.165	0.174
-597.040	-146.680	0.276	0.024
-596.025	9.649	0.152	-0.116
-595.011	243.599	0.125	-0.210
-593.996	-200.000	-0.022	0.158
-592.982	-101.434	0.178	0.043
-591.967	36.975	-0.214	-0.190
-590.952	700.932	-0.032	-0.085
-589.938	800.000	0.064	-0.237
-588.923	-119.148	-0.203	-0.035
-587.909	40.985	-0.256	0.231
-586.894	800.000	-0.031	-0.111
-585.879	245.067	0.035	0.058
-584.865	-158.048	0.244	-0.014
-583.850	-132.302	0.148	-0.019
-582.836	-61.935	-0.149	0.062
-581.821	22.895	0.199	0.163
-580.806	139.031	-0.101	0.133
-579.792	-18.244	0.139	-0.087
-578.777	-22.153	-0.169	-0.103
-577.763	-108.962	0.410	-0.087
-576.748	-53.416	0.118	-0.054
-575.733	-93.112	0.408	0.114
-574.719	-160.338	-0.277	-0.015
-573.704	-96.394	0.193	0.051
-572.690	-39.480	-0.165	-0.086
-571.675	-10.816	-0.190	0.125
-570.661	103.840	-0.307	0.361
-569.646	76.011	-0.263	0.278
-568.631	40.497	-0.140	-0.126
-567.617	-127.893	-0.037	-0.005
-566.602	-42.489	-0.232	0.118
-565.588	-78.976	0.194	0.066
-564.573	-71.901	0.136	-0.051
-563.558	-70.824	-0.196	0.074
-562.544	-200.000	0.063	0.381
-561.529	-4.095	-0.039	-0.027
-560.515	800.000	0.081	0.284
-559.500	800.000	0.023	-0.069
-558.485	800.000	0.082	-0.236
-557.471	81.954	0.214	-0.232
-556.456	253.437	-0.068	-0.116
-555.442	20.932	-0.104	-0.084
-554.427	-118.540	-0.224	0.040
-553.412	-82.303	0.356	-0.116
-552.398	800.000	0.029	0.127
-551.383	-49.902	-0.408	-0.194
-550.369	-95.703	-0.146	0.039
-549.354	-70.877	0.267	-0.101
-548.339	7.079	0.072	0.054
-547.325	-53.102	-0.224	0.103
-546.310	800.000	0.058	-0.218
-545.296	-23.254	0.143	-0.086
-544.281	301.691	0.231	-0.427
-543.266	-200.000	-0.061	0.281
-542.252	-200.000	0.038	0.196
-541.237	760.564	-0.107	-0.289
-540.223	273.931	-0.086	-0.152
-539.208	-148.819	0.202	0.016
-538.193	687.008	0.081	0.211
-537.179	-200.000	0.000	0.142
-536.164	-30.331	0.134	-0.076
-535.150	175.659	-0.178	-0.258
-534.135	488.044	-0.088	-0.202
-533.121	-87.498	-0.211	0.064
-532.106	717.245	-0.027	-0.073
-531.091	301.820	-0.032	0.059
-530.077	-200.000	-0.074	0.366
-529.062	-167.306	-0.368	-0.015
-528.048	800.000	-0.051	-0.173
-527.033	508.665	-0.038	0.089
-526.018	800.000	-0.080	0.324
-525.004	128.352	0.086	-0.110
-523.989	559.314	0.068	-0.163
-522.975	800.000	0.016	-0.063
-521.960	98.588	0.100	0.115
-520.945	186.453	-0.092	-0.137
-519.931	-200.000	-0.012	0.161
-518.916	-61.782	0.149	0.062
-517.902	519.875	-0.117	0.274
-516.887	-200.000	0.000	0.309
-515.872	800.000	-0.120	0.342
-514.858	-2.027	0.171	0.120
-513.843	299.803	0.029	0.053
-512.829	-30.220	0.223	0.127
-511.814	677.840	-0.122	-0.318
-510.799	584.645	0.102	0.251
-509.785	800.000	0.053	0.171
-508.770	-112.718	0.249	0.049
-507.756	144.865	0.187	0.250
-506.741	-163.526	-0.179	-0.008
-505.726	322.317	0.056	-0.106
-504.712	-114.789	0.189	-0.036
-503.697	800.000	-0.014	-0.039
-502.683	27.518	0.155	-0.130
-501.668	-200.000	-0.006	0.093
-500.653	148.661	-0.069	-0.094
-499.639	19.218	0.177	-0.142
-498.624	659.111	-0.099	-0.255
-497.610	35.752	-0.292	0.256
-496.595	-200.000	-0.020	0.219
-495.581	-200.000	-0.040	-0.233
-494.566	800.000	-0.070	0.262
-493.551	-48.085	-0.123	-0.059
-492.537	-44.762	0.300	0.149
-491.522	800.000	-0.129	-0.366
-490.508	-20.591	0.107	-0.066
-489.493	-200.000	0.038	-0.222
-488.478	-137.031	-0.122	0.014
-487.464	428.960	-0.064	-0.137
-486.449	75.752	0.144	-0.152
-485.435	160.979	-0.299	-0.416
-484.420	-58.005	-0.144	0.063
-483.405	-96.815	0.461	-0.121
-482.391	-158.402	0.123	-0.007
-481.376	-42.700	-0.069	0.035
-480.362	144.095	0.114	-0.151
-479.347	79.756	0.195	-0.209
-478.332	-15.611	0.098	-0.062
-477.318	9.445	-0.340	-0.257
-476.303	800.000	0.119	0.328
-475.289	-25.295	0.298	0.175
-474.274	32.549	-0.027	0.023
-473.259	-10.674	-0.333	0.220
-472.245	-165.281	0.145	-0.006
-471.230	-25.609	-0.211	0.124
-470.216	-35.859	0.283	0.153
-469.201	13.780	-0.148	0.115
-468.186	88.344	0.119	0.131
-467.172	-45.886	-0.405	-0.199
-466.157	-200.000	0.034	-0.164
-465.143	17.287	0.064	0.050
-464.128	-63.065	-0.330	-0.136
-463.113	-82.162	-0.042	-0.014
-462.099	-50.846	0.306	-0.143
-461.084	515.567	0.031	-0.073
-460.070	-107.408	0.090	0.020
-459.055	106.418	0.094	0.111
-458.040	228.053	-0.089	-0.144
-457.026	-155.338	-0.354	0.023
-456.011	-111.593	-0.197	0.040
-454.997	11.574	-0.231	-0.176
-453.982	-10.855	0.365	0.240
-452.968	24.772	0.274	-0.226
-451.953	-144.744	-0.178	-0.016
-450.938	-81.248	0.282	0.093
-449.924	-174.199	0.174	-0.005
-448.909	-107.553	0.383	0.084
-447.895	325.562	0.074	-0.141
-446.880	96.393	0.175	-0.199
-445.865	-200.000	-0.019	-0.281
-444.851	-66.929	-0.015	-0.006
-443.836	21.008	0.265	0.214
-442.822	-113.888	-0.093	-0.018
-441.807	-200.000	0.004	0.268
-440.792	800.000	-0.064	0.178
-439.778	800.000	0.058	0.180
-438.763	-23.794	-0.219	0.131
-437.749	-200.000	0.036	-0.193
-436.734	800.000	-0.048	0.176
-435.719	800.000	-0.138	0.591
-434.705	-77.333	-0.492	0.170
-433.690	54.174	-0.358	0.343
-432.676	475.186	0.094	0.211
-431.661	2.837	0.174	0.126
-430.646	-200.000	0.003	-0.212
-429.632	411.193	-0.084	-0.177
-428.617	44.458	0.157	-0.144
-427.603	-92.420	-0.420	-0.117
-426.588	133.215	-0.083	-0.106
-425.573	125.681	0.142	-0.178
-424.559	98.192	-0.089	0.102
-423.544	-200.000	0.016	-0.145
-422.530	282.210	0.115	-0.206
-421.515	-154.392	-0.273	-0.018
-420.500	-55.548	0.302	-0.134
-419.486	-200.000	0.016	-0.097
-418.471	-200.000	-0.023	0.326
-417.457	48.550	0.074	-0.069
-416.442	-7.544	-0.042	0.028
-415.428	-61.312	-0.282	-0.118
-414.413	191.726	-0.031	0.046
-413.398	800.000	-0.064	0.201
-412.384	72.309	0.029	0.030
-411.369	35.021	-0.147	-0.128
-410.355	-200.000	0.011	0.072
-409.340	134.438	0.138	-0.178
-408.325	-200.000	-0.063	0.387
-407.311	367.920	-0.067	-0.135
-406.296	800.000	0.034	-0.108
-405.282	-200.000	0.010	0.079
-404.267	-52.510	-0.272	-0.125
-403.252	-200.000	-0.021	-0.325
-402.238	449.940	-0.015	0.033
-401.223	132.244	-0.155	-0.198
-400.209	-27.919	0.260	-0.150
-399.194	-200.000	0.019	0.154
-398.179	-116.607	0.132	0.024
-397.165	-85.090	-0.345	-0.107
-396.150	155.782	0.151	0.206
-395.136	-200.000	-0.009	0.097
-394.121	107.362	-0.150	-0.178
-393.106	-10.425	-0.139	0.091
-392.092	-138.501	0.275	-0.030
-391.077	-98.956	-0.122	0.031
-390.063	-25.974	-0.346	0.202
-389.048	33.311	-0.139	0.120
-388.033	-17.279	-0.214	-0.134
-387.019	20.882	-0.077	0.062
-386.004	53.391	0.269	0.256
-384.990	672.310	0.117	0.302
-383.975	-163.772	0.271	0.013
-382.960	643.486	0.071	-0.179
-381.946	-25.299	-0.146	0.086
-380.931	-94.017	0.322	0.088
-379.917	-135.289	0.180	0.021
-378.902	-16.426	-0.300	-0.189
-377.888	104.720	-0.075	0.088
-376.873	-65.366	-0.095	0.038
-375.858	346.577	-0.169	-0.331
-374.844	800.000	-0.103	0.356
-373.829	534.966	-0.062	-0.145
-372.815	108.169	-0.081	-0.096
-371.800	13.331	-0.119	-0.091
-370.785	443.955	0.144	-0.312
-369.771	144.441	0.070	0.093
-368.756	-34.060	0.034	-0.019
-367.742	379.562	-0.091	-0.186
-366.727	-84.568	0.163	-0.051
-365.712	-200.000	0.013	-0.141
-364.698	218.598	-0.187	-0.297
-363.683	677.007	0.157	0.405
-362.669	12.286	0.189	0.144
-361.654	118.857	0.007	0.009
-360.639	-200.000	-0.041	-0.362
-359.625	-166.071	0.376	0.016
-358.610	-56.267	-0.169	-0.074
-357.596	-200.000	-0.044	-0.265
-356.581	108.119	0.038	0.045
-355.566	143.766	-0.179	0.237
-354.552	791.936	0.055	-0.151
-353.537	-116.174	-0.187	-0.034
-352.523	-84.103	-0.179	0.057
-351.508	-92.302	-0.190	-0.053
-350.493	202.462	-0.153	-0.235
-349.479	32.342	0.285	-0.244
-348.464	-96.394	0.269	0.071
-347.450	-158.415	-0.085	-0.005
-346.435	-166.790	0.105	-0.004
-345.420	78.699	-0.117	0.124
-344.406	561.307	0.102	-0.246
-343.391	230.356	-0.200	-0.324
-342.377	-86.736	-0.112	0.034
-341.362	-200.000	-0.003	0.081
-340.348	61.235	0.234	-0.230
-339.333	-145.967	0.324	-0.028
-338.318	211.624	-0.214	-0.334
-337.304	-108.009	0.382	-0.082
-336.289	707.614	-0.070	-0.183
-335.275	118.152	0.077	-0.094
-334.260	397.444	0.155	0.321
-333.245	504.980	0.053	-0.123
-332.231	21.056	-0.208	-0.167
-331.216	731.596	-0.118	-0.312
-330.202	800.000	-0.063	-0.174
-329.187	-8.995	-0.155	-0.103
-328.172	-105.873	-0.249	-0.056
-327.158	-30.707	0.183	0.103
-326.143	80.408	-0.182	-0.194
-325.129	210.263	0.154	0.239
-324.114	196.896	0.131	-0.198
-323.099	800.000	0.032	0.108
-322.085	-200.000	-0.041	0.226
-321.070	-200.000	0.015	-0.157
-320.056	48.760	-0.184	0.171
-319.041	27.677	-0.102	-0.085
-318.026	-38.652	0.236	-0.124
-317.012	800.000	0.042	0.139
-315.997	-200.000	0.014	-0.279
-314.983	-114.490	0.157	-0.030
-313.968	-200.000	0.006	0.454
-312.953	621.655	0.065	0.161
-311.939	36.512	-0.235	0.206
-310.924	800.000	0.105	0.315
-309.910	-82.687	0.185	0.059
-308.895	157.047	0.190	0.260
-307.880	413.990	-0.090	0.189
-306.866	10.794	-0.122	0.092
-305.851	129.097	0.163	0.206
-304.837	35.469	0.086	0.075
-303.822	-200.000	-0.014	-0.114
-302.807	783.170	0.051	0.139
-301.793	-57.436	0.213	0.093
-300.778	-100.682	-0.297	0.073
-299.764	-75.577	0.102	-0.036
-298.749	-19.671	-0.386	-0.237
-297.735	19.377	-0.185	-0.147
-296.720	800.000	-0.070	-0.293
-295.705	800.000	-0.033	-0.135
-294.691	-167.022	0.441	0.018
-293.676	27.993	-0.177	-0.147
-292.662	-200.000	-0.025	0.198
-291.647	-156.030	-0.106	-0.007
-290.632	109.151	-0.017	0.020
-289.618	-5.069	-0.294	0.200
-288.603	800.000	0.057	0.171
-287.589	0.421	0.176	-0.124
-286.574	-135.905	-0.239	-0.028
-285.559	94.215	-0.042	0.047
-284.545	180.764	0.244	0.355
-283.530	-200.000	0.043	0.218
-282.516	293.303	-0.228	-0.412
-281.501	-129.509	-0.520	0.071
-280.486	375.113	0.130	0.262
-279.472	105.400	0.287	0.335
-278.457	-29.688	0.197	0.111
-277.443	-70.840	-0.264	0.098
-276.428	-48.844	-0.084	0.040
-275.413	-53.263	-0.150	0.068
-274.399	-200.000	-0.027	-0.464
-273.384	800.000	-0.040	0.161
-272.370	-80.209	0.388	-0.128
-271.355	-200.000	0.005	0.237
-270.340	-12.395	-0.296	-0.191
-269.326	-134.523	0.083	-0.010
-268.311	-9.898	-0.159	-0.105
-267.297	240.058	-0.037	0.060
-266.282	12.240	0.153	0.116
-265.267	800.000	0.055	0.172
-264.253	-200.000	-0.006	-0.252
-263.238	31.986	-0.247	0.210
-262.224	-114.450	0.387	0.073
-261.209	229.891	0.177	0.286
-260.195	578.022	-0.105	-0.253
-259.180	-9.784	0.192	-0.126
-258.165	374.639	-0.102	0.206
-257.151	-200.000	0.019	0.252
-256.136	-200.000	-0.037	-0.246
-255.122	-40.036	0.196	-0.101
-254.107	660.674	0.082	0.208
-253.092	3.304	0.085	-0.061
-252.078	-6.981	0.231	0.155
-251.063	-200.000	0.007	0.169
-250.049	-110.429	0.260	0.053
-249.034	-54.139	0.094	-0.042
-248.019	6.766	-0.129	0.094
-247.005	-170.602	-0.091	0.003
-245.990	-97.955	0.120	0.031
-244.976	338.841	0.116	0.223
-243.961	730.159	-0.125	-0.330
-242.946	-34.356	0.114	0.062
-241.932	-200.000	-0.004	0.106
-240.917	-120.432	-0.140	0.023
-239.903	-200.000	0.001	-0.410
-238.888	800.000	0.097	-0.268
-237.873	287.216	0.120	0.214
-236.859	213.327	-0.153	0.239
-235.844	-179.103	0.209	0.005
-234.830	281.378	-0.084	0.148
-233.815	-200.000	0.032	-0.252
-232.800	-200.000	0.016	0.103
-231.786	-166.535	0.087	0.004
-230.771	-200.000	-0.005	0.064
-229.757	-84.654	0.110	0.034
-228.742	1.048	0.259	-0.183
-227.727	199.769	0.065	0.098
-226.713	-200.000	0.000	-0.073
-225.698	-129.678	-0.127	0.017
-224.684	472.093	0.060	0.134
-223.669	-39.213	0.195	-0.101
-222.655	82.386	-0.065	-0.069
-221.640	313.915	0.061	0.114
-220.625	19.963	0.087	0.069
-219.611	55.056	0.222	0.212
-218.596	-91.473	0.014	-0.004
-217.582	-199.621	-0.170	-0.001
-216.567	-131.171	-0.057	-0.007
-215.552	-159.408	0.185	-0.010
-214.538	-200.000	-0.000	-0.064
-213.523	800.000	-0.067	-0.189
-212.509	212.785	0.103	0.160
-211.494	-39.068	0.111	0.057
-210.479	-200.000	0.062	0.303
-209.465	-25.655	-0.223	-0.130
-208.450	-200.000	-0.015	-0.071
-207.436	413.083	-0.132	-0.278
-206.421	-200.000	0.017	-0.207
-205.406	-136.865	0.428	-0.048
-204.392	800.000	0.049	-0.187
-203.377	-106.506	-0.150	0.033
-202.363	-135.583	-0.462	-0.054
-201.348	800.000	0.036	-0.132
-200.333	-117.409	-0.214	0.038
-199.319	301.412	-0.064	-0.116
-198.304	92.277	-0.125	0.139
-197.290	-30.643	0.082	-0.046
-196.275	-200.000	0.011	-0.271
-195.260	-200.000	0.011	0.275
-194.246	317.824	0.124	-0.231
-193.231	-156.464	0.196	0.012
-192.217	-38.058	-0.124	0.065
-191.202	-200.000	-0.009	-0.104
-190.187	80.632	0.146	-0.155
-189.173	-152.262	-0.166	-0.012
-188.158	-200.000	0.014	-0.080
-187.144	-22.547	0.240	-0.143
-186.129	393.083	0.042	0.087
-185.114	105.010	-0.075	-0.087
-184.100	-200.000	0.031	-0.294
-183.085	-85.649	-0.102	0.031
-182.071	-149.265	0.121	-0.009
-181.056	25.855	-0.090	0.074
-180.042	800.000	-0.094	0.312
-179.027	293.681	0.031	0.056
-178.012	-142.584	0.097	0.009
-176.998	-47.363	0.253	-0.121
-175.983	136.509	0.232	-0.298
-174.969	-104.560	0.284	-0.064
-173.954	77.772	0.027	-0.029
-172.939	-84.542	-0.276	-0.086
-171.925	800.000	-0.030	0.108
-170.910	-200.000	-0.016	-0.330
-169.896	-56.141	0.162	0.071
-168.881	-56.255	0.054	-0.024
-167.866	630.124	0.075	0.188
-166.852	800.000	0.077	0.291
-165.837	103.057	0.087	0.100
-164.823	-33.663	-0.235	-0.128
-163.808	-156.144	0.086	0.005
-162.793	-200.000	0.031	0.185
-161.779	3.571	0.159	0.114
-160.764	-86.199	-0.539	0.164
-159.750	-200.000	-0.034	0.434
-158.735	-26.088	0.255	0.148
-157.720	-200.000	-0.008	0.130
-156.706	800.000	0.071	0.226
-155.691	689.755	-0.083	-0.213
-154.677	800.000	-0.059	0.218
-153.662	800.000	0.059	-0.193
-152.647	338.371	-0.135	0.259
-151.633	206.428	0.126	-0.193
-150.618	674.251	-0.036	-0.092
-149.604	-70.604	0.314	-0.117
-148.589	8.673	-0.171	-0.127
-147.574	-200.000	0.055	-0.396
-146.560	800.000	-0.060	0.245
-145.545	144.402	0.302	0.397
-144.531	-89.444	-0.156	0.045
-143.516	16.703	0.175	-0.136
-142.502	281.158	-0.037	0.065
-141.487	112.164	0.116	0.138
-140.472	87.135	-0.215	0.234
-139.458	111.312	-0.153	0.181
-138.443	-76.112	0.220	-0.076
-137.429	36.916	0.263	-0.229
-136.414	-142.899	-0.542	0.052
-135.399	-81.786	0.160	0.052
-134.385	10.507	0.216	-0.162
-133.370	123.124	-0.050	-0.061
-132.356	177.513	-0.146	-0.209
-131.341	121.335	-0.170	0.209
-130.326	-200.000	0.000	0.055
-129.312	-13.662	0.155	0.099
-128.297	-124.373	0.307	-0.047
-127.283	571.482	-0.088	-0.210
-126.268	413.127	0.045	-0.094
-125.253	800.000	0.076	0.272
-124.239	-85.526	-0.636	-0.195
-123.224	-200.000	-0.004	-0.059
-122.210	-138.862	-0.104	0.011
-121.195	-63.823	0.192	-0.077
