DTS Sentinel unit serial number:	SN413079Multiplexer serial number:	ORYXHardware model number:	OX4-SRSoftware version number:	ORYX F/W v4.00 Oryx Data Collector v3.7.2.0data status	okinstallation	princeton_trtdifferential loss correction	single-endedforward channel	channel 2reverse channel	N/Adate	2019/09/14time	09:43:35forward acquisition time	60.00reverse acquisition time	0.00gamma	496.2192k internal	0.2322k external	0.2322temperature offset calibration	1.0134default loss term (dB/km)	0.3790temperature slope calibration	1.0000multiplexer offset coefficient	1.0000multiplexer slope coefficient	1.0000fibre end	0.00T internal ref (°C)	32.14T ext. ref 1 (°C)	3.91T ext. ref 2 (°C)	30.35length (m)	temperature (°C)	Stokes	anti-Stokes-747.200	-66.883	0.205	-0.082
-746.185	-71.746	0.235	0.089
-745.171	-118.211	-0.132	-0.024
-744.156	-61.775	0.021	0.009
-743.142	-22.588	-0.220	0.134
-742.127	108.307	-0.196	0.236
-741.112	344.829	0.119	0.237
-740.098	800.000	-0.018	0.072
-739.083	98.088	-0.105	0.122
-738.069	365.424	0.195	0.397
-737.054	299.177	0.099	-0.183
-736.039	213.153	-0.248	-0.395
-735.025	-200.000	-0.027	0.161
-734.010	124.950	-0.263	0.334
-732.996	800.000	-0.111	-0.345
-731.981	348.079	0.149	-0.296
-730.966	-200.000	0.025	0.159
-729.952	-200.000	0.042	0.217
-728.937	-102.084	-0.152	0.037
-727.923	276.647	-0.103	-0.185
-726.908	326.211	-0.071	-0.138
-725.894	58.340	0.092	0.091
-724.879	236.021	-0.027	-0.046
-723.864	-104.865	-0.511	0.118
-722.850	-47.918	0.087	0.042
-721.835	-19.905	-0.045	-0.028
-720.821	-154.670	-0.286	0.019
-719.806	-34.521	0.051	-0.028
-718.791	53.838	-0.104	-0.100
-717.777	110.515	-0.116	-0.140
-716.762	154.586	-0.081	-0.112
-715.748	-146.637	0.051	0.004
-714.733	-200.000	0.015	-0.192
-713.718	196.657	-0.057	0.088
-712.704	307.991	0.128	-0.241
-711.689	243.836	-0.096	0.163
-710.675	-200.000	-0.046	-0.235
-709.660	229.763	-0.124	0.204
-708.645	-70.131	-0.166	0.064
-707.631	-200.000	-0.051	-0.253
-706.616	800.000	0.089	-0.264
-705.602	494.735	0.085	0.197
-704.587	-200.000	-0.034	-0.182
-703.572	-147.411	-0.255	-0.022
-702.558	-121.651	0.111	0.019
-701.543	-63.590	-0.207	0.086
-700.529	219.570	-0.054	0.088
-699.514	-200.000	-0.102	0.521
-698.499	13.934	0.236	-0.185
-697.485	-165.449	-0.384	0.017
-696.470	446.329	0.021	-0.046
-695.456	-200.000	-0.014	0.200
-694.441	-200.000	0.013	0.159
-693.426	-200.000	-0.010	0.152
-692.412	7.681	0.411	-0.310
-691.397	102.770	0.233	-0.275
-690.383	-79.832	-0.018	-0.006
-689.368	270.577	0.172	0.306
-688.354	-95.695	-0.182	0.049
-687.339	-200.000	0.027	-0.145
-686.324	431.812	0.167	-0.364
-685.310	-84.660	-0.190	-0.060
-684.295	-54.814	0.266	0.121
-683.281	-9.866	-0.227	-0.152
-682.266	154.925	-0.112	-0.156
-681.251	-43.633	-0.509	0.258
-680.237	94.640	0.104	-0.119
-679.222	120.788	-0.168	-0.211
-678.208	43.231	0.147	-0.135
-677.193	88.405	0.109	-0.122
-676.178	800.000	0.127	0.400
-675.164	-119.204	-0.188	0.033
-674.149	800.000	0.112	-0.450
-673.135	-200.000	-0.025	-0.277
-672.120	800.000	0.121	-0.351
-671.105	110.684	0.115	-0.140
-670.091	483.856	0.116	-0.266
-669.076	27.251	-0.091	-0.077
-668.062	201.291	0.060	-0.093
-667.047	800.000	-0.097	0.350
-666.032	-101.612	0.143	0.035
-665.018	46.048	-0.111	-0.104
-664.003	-0.680	0.054	-0.039
-662.989	-16.037	-0.181	-0.116
-661.974	-200.000	-0.004	0.344
-660.959	-120.924	-0.202	0.034
-659.945	-200.000	-0.034	-0.296
-658.930	-150.173	0.272	-0.021
-657.916	642.375	-0.156	0.399
-656.901	-107.289	-0.407	0.090
-655.886	-112.419	-0.316	-0.064
-654.872	-100.015	-0.287	0.072
-653.857	-75.334	-0.071	0.026
-652.843	800.000	0.010	0.029
-651.828	-7.110	-0.190	0.130
-650.814	-16.585	-0.400	-0.255
-649.799	-148.980	-0.129	-0.010
-648.784	48.727	0.178	-0.168
-647.770	-22.881	0.051	0.031
-646.755	186.672	0.052	-0.077
-645.741	-200.000	-0.045	-0.243
-644.726	115.701	-0.142	0.174
-643.711	259.787	0.081	-0.140
-642.697	39.614	-0.180	-0.163
-641.682	-146.608	-0.179	-0.016
-640.668	175.528	0.201	0.293
-639.653	259.879	0.085	0.148
-638.638	-21.050	-0.299	0.184
-637.624	122.568	-0.052	-0.065
-636.609	-200.000	-0.064	0.389
-635.595	-200.000	0.002	0.147
-634.580	-58.018	-0.228	-0.100
-633.565	-74.168	0.214	-0.078
-632.551	-16.364	-0.197	-0.126
-631.536	-33.659	0.123	-0.068
-630.522	-166.810	-0.257	-0.011
-629.507	-2.199	0.036	-0.026
-628.492	-87.808	-0.152	0.046
-627.478	-24.344	-0.218	0.131
-626.463	14.442	0.077	0.061
-625.449	-17.907	-0.109	-0.069
-624.434	-95.152	-0.247	0.067
-623.419	225.890	-0.192	-0.313
-622.405	-73.824	0.301	-0.110
-621.390	279.533	-0.129	0.232
-620.376	800.000	0.009	-0.036
-619.361	-130.390	-0.103	-0.014
-618.346	-200.000	0.009	-0.144
-617.332	-54.406	0.286	-0.130
-616.317	8.198	0.145	0.110
-615.303	-17.221	-0.266	0.169
-614.288	800.000	0.037	-0.141
-613.273	256.543	0.041	-0.070
-612.259	-98.591	-0.135	-0.035
-611.244	365.829	0.096	-0.195
-610.230	272.969	0.118	-0.209
-609.215	-146.969	0.255	0.022
-608.201	269.251	0.090	0.159
-607.186	800.000	0.020	0.082
-606.171	45.263	0.399	0.369
-605.157	-42.712	-0.143	-0.073
-604.142	-132.850	0.464	-0.059
-603.128	800.000	0.048	0.139
-602.113	-101.219	-0.327	-0.080
-601.098	391.357	-0.031	-0.064
-600.084	-1.243	-0.254	0.180
-599.069	4.222	-0.205	0.151
-598.055	-73.961	0.008	0.003
-597.040	90.281	-0.050	-0.056
-596.025	-200.000	0.036	0.315
-595.011	-12.655	-0.109	-0.072
-593.996	87.406	-0.108	0.120
-592.982	27.471	-0.160	-0.135
-591.967	-200.000	-0.005	-0.351
-590.952	35.925	-0.151	-0.133
-589.938	-28.756	-0.101	-0.059
-588.923	92.910	-0.070	0.079
-587.909	213.494	0.080	-0.127
-586.894	800.000	-0.050	-0.189
-585.879	800.000	0.049	0.140
-584.865	79.793	-0.252	0.272
-583.850	181.006	-0.177	-0.261
-582.836	-121.320	0.331	0.055
-581.821	88.775	0.159	-0.177
-580.806	43.717	-0.111	0.102
-579.792	-38.304	0.220	0.117
-578.777	-59.304	-0.236	0.102
-577.763	-50.727	-0.072	-0.034
-576.748	-116.568	0.093	0.017
-575.733	-90.230	-0.146	0.043
-574.719	-67.639	0.145	0.057
-573.704	248.474	0.187	0.318
-572.690	151.859	0.082	-0.113
-571.675	-41.704	0.417	-0.215
-570.661	-9.212	0.223	0.150
-569.646	-59.558	-0.092	0.039
-568.631	-161.194	0.459	-0.024
-567.617	-200.000	-0.020	-0.164
-566.602	543.316	-0.149	0.356
-565.588	210.067	-0.089	-0.140
-564.573	-9.999	0.386	-0.258
-563.558	167.973	0.090	0.129
-562.544	-159.217	-0.157	-0.009
-561.529	54.606	0.185	0.179
-560.515	264.705	0.187	-0.327
-559.500	800.000	-0.078	0.309
-558.485	56.349	0.210	0.204
-557.471	800.000	-0.122	0.409
-556.456	67.475	-0.058	0.060
-555.442	-200.000	0.057	-0.377
-554.427	-169.210	0.165	0.006
-553.412	111.047	0.158	-0.191
-552.398	800.000	-0.077	0.266
-551.383	109.955	0.101	-0.122
-550.369	-114.078	0.098	0.019
-549.354	151.642	-0.083	-0.114
-548.339	-107.059	-0.354	0.078
-547.325	-132.198	-0.475	-0.062
-546.310	304.502	-0.050	0.092
-545.296	-45.758	0.070	-0.035
-544.281	-156.079	0.140	-0.009
-543.266	-103.348	0.164	-0.039
-542.252	494.529	0.086	-0.198
-541.237	105.279	0.085	-0.101
-540.223	-20.374	0.131	-0.080
-539.208	668.842	-0.049	0.127
-538.193	444.569	0.150	0.329
-537.179	-32.437	0.162	0.091
-536.164	367.535	0.085	-0.171
-535.150	-47.562	0.029	0.014
-534.135	4.597	-0.200	-0.147
-533.121	48.327	0.044	-0.041
-532.106	-106.846	-0.115	-0.025
-531.091	-192.119	-0.124	0.001
-530.077	645.126	-0.044	0.113
-529.062	-61.101	0.282	-0.119
-528.048	130.281	-0.087	0.112
-527.033	112.835	0.097	-0.118
-526.018	117.610	-0.148	-0.182
-525.004	-146.184	-0.289	-0.026
-523.989	170.076	0.212	0.303
-522.975	-142.150	-0.240	0.024
-521.960	516.822	0.021	0.050
-520.945	564.550	0.045	0.108
-519.931	-75.159	-0.183	0.065
-518.916	151.783	0.163	-0.222
-517.902	-76.073	0.508	0.180
-516.887	-156.786	-0.291	-0.018
-515.872	800.000	-0.069	0.281
-514.858	-66.768	-0.247	0.098
-513.843	-200.000	0.107	-0.628
-512.829	-200.000	-0.034	0.390
-511.814	-142.886	-0.298	0.029
-510.799	116.311	-0.132	-0.162
-509.785	-100.322	-0.202	0.050
-508.770	-46.698	-0.111	0.055
-507.756	554.389	0.067	0.162
-506.741	-57.850	-0.134	0.059
-505.726	-64.927	-0.101	0.041
-504.712	56.509	0.190	0.185
-503.697	-76.769	-0.095	0.033
-502.683	-26.413	0.171	0.100
-501.668	-56.183	0.196	0.087
-500.653	35.412	-0.215	0.189
-499.639	-25.424	0.303	0.179
-498.624	-145.680	0.033	0.003
-497.610	227.756	0.174	-0.283
-496.595	-200.000	0.011	0.114
-495.581	-148.117	-0.083	0.007
-494.566	-199.086	0.136	-0.001
-493.551	-200.000	0.001	-0.082
-492.537	32.557	0.276	-0.239
-491.522	417.030	0.050	-0.106
-490.508	266.777	-0.031	-0.054
-489.493	-27.561	-0.138	-0.080
-488.478	85.425	-0.196	-0.216
-487.464	428.963	0.198	0.427
-486.449	-200.000	-0.007	0.201
-485.435	-61.171	-0.111	-0.047
-484.420	-70.500	0.076	-0.029
-483.405	800.000	-0.034	0.125
-482.391	-55.505	-0.178	0.080
-481.376	44.857	0.331	0.304
-480.362	295.457	-0.097	0.177
-479.347	-167.733	-0.183	-0.007
-478.332	800.000	-0.088	-0.310
-477.318	-200.000	0.033	0.196
-476.303	-107.606	-0.381	0.083
-475.289	-140.276	0.077	0.008
-474.274	-114.726	0.194	-0.037
-473.259	70.138	-0.187	0.193
-472.245	-119.305	-0.307	0.053
-471.230	9.782	-0.068	-0.052
-470.216	396.785	0.061	-0.128
-469.201	65.026	-0.198	-0.200
-468.186	327.140	-0.043	0.083
-467.172	-113.240	0.315	-0.062
-466.157	258.447	-0.163	-0.280
-465.143	-200.000	-0.015	-0.076
-464.128	-123.978	0.243	-0.038
-463.113	-80.662	-0.555	0.185
-462.099	348.325	-0.072	0.142
-461.084	513.037	0.136	-0.316
-460.070	-95.273	0.334	0.090
-459.055	125.057	-0.120	-0.150
-458.040	800.000	-0.081	0.288
-457.026	-127.143	-0.136	-0.020
-456.011	-148.578	0.289	0.024
-454.997	-200.000	-0.050	-0.367
-453.982	-34.544	0.396	0.217
-452.968	-7.883	-0.135	-0.091
-451.953	-74.928	-0.373	0.134
-450.938	78.588	0.127	-0.135
-449.924	-200.000	-0.006	0.201
-448.909	584.767	-0.082	0.202
-447.895	58.759	0.333	-0.327
-446.880	628.847	-0.114	0.287
-445.865	14.266	0.153	0.119
-444.851	800.000	0.080	-0.311
-443.836	-162.986	0.135	0.007
-442.822	-200.000	-0.054	0.254
-441.807	-45.218	-0.141	0.070
-440.792	197.992	-0.186	-0.283
-439.778	69.613	0.192	-0.197
-438.763	-200.000	0.007	0.077
-437.749	147.560	-0.127	0.171
-436.734	135.374	-0.327	0.424
-435.719	-42.852	0.156	0.079
-434.705	93.496	-0.145	-0.164
-433.690	462.647	-0.106	-0.235
-432.676	218.648	-0.104	0.166
-431.661	1.130	0.510	-0.365
-430.646	-78.479	-0.054	-0.018
-429.632	118.828	0.066	-0.081
-428.617	58.184	0.039	0.038
-427.603	-18.388	-0.180	0.112
-426.588	-149.703	0.157	0.012
-425.573	142.584	0.048	0.063
-424.559	52.921	-0.122	0.117
-423.544	-129.775	0.191	-0.026
-422.530	-39.671	0.055	-0.029
-421.515	-71.405	-0.233	0.087
-420.500	-54.272	0.120	0.054
-419.486	90.646	-0.320	-0.358
-418.471	-67.980	0.114	-0.044
-417.457	430.160	0.089	-0.193
-416.442	41.688	0.258	0.233
-415.428	-60.441	0.163	0.069
-414.413	-200.000	-0.019	-0.248
-413.398	17.033	-0.150	-0.119
-412.384	175.582	0.126	0.182
-411.369	-20.825	-0.194	-0.118
-410.355	-200.000	0.023	0.258
-409.340	800.000	0.166	0.480
-408.325	-80.084	-0.357	0.119
-407.311	337.118	-0.029	0.057
-406.296	-61.513	0.105	0.044
-405.282	611.765	-0.064	-0.161
-404.267	26.575	-0.097	-0.081
-403.252	185.888	0.073	-0.108
-402.238	-83.900	0.093	0.030
-401.223	95.615	-0.042	-0.048
-400.209	-13.659	0.234	0.151
-399.194	-55.368	0.290	0.130
-398.179	498.398	-0.087	0.200
-397.165	800.000	-0.061	-0.202
-396.150	-85.736	0.133	-0.041
-395.136	-99.292	-0.245	-0.062
-394.121	-170.916	0.324	0.011
-393.106	15.687	-0.053	0.042
-392.092	574.602	0.081	0.197
-391.077	-200.000	-0.010	0.135
-390.063	-178.529	0.339	-0.008
-389.048	243.824	-0.128	-0.213
-388.033	-153.493	0.246	0.017
-387.019	800.000	-0.055	0.187
-386.004	-200.000	-0.003	0.023
-384.990	-200.000	0.002	0.032
-383.975	-113.138	-0.366	0.072
-382.960	-200.000	-0.010	-0.188
-381.946	9.149	0.068	-0.051
-380.931	-121.237	-0.054	0.009
-379.917	-132.844	-0.233	0.030
-378.902	-13.681	-0.247	0.159
-377.888	3.664	0.124	-0.090
-376.873	31.259	-0.157	0.134
-375.858	-63.948	0.048	-0.019
-374.844	256.821	-0.158	-0.270
-373.829	-70.859	-0.185	0.069
-372.815	313.783	-0.119	-0.222
-371.800	-200.000	0.000	0.073
-370.785	800.000	-0.125	-0.416
-369.771	-8.213	-0.165	-0.111
-368.756	-170.986	-0.341	0.012
-367.742	-9.258	0.263	0.175
-366.727	-26.351	-0.126	0.074
-365.712	-200.000	0.020	-0.163
-364.698	-4.175	0.253	0.174
-363.683	800.000	0.020	-0.079
-362.669	124.348	-0.126	-0.158
-361.654	297.126	0.059	0.108
-360.639	112.170	0.087	0.104
-359.625	209.063	0.134	-0.209
-358.610	55.225	-0.011	-0.011
-357.596	-200.000	0.007	-0.129
-356.581	122.817	-0.119	0.149
-355.566	337.930	-0.114	0.221
-354.552	147.702	-0.091	-0.123
-353.537	102.766	-0.177	-0.207
-352.523	98.847	0.045	-0.051
-351.508	342.057	0.194	0.377
-350.493	-110.639	0.114	0.023
-349.479	554.657	0.024	-0.056
-348.464	475.021	0.049	0.111
-347.450	-40.297	-0.156	0.081
-346.435	-52.518	-0.110	-0.051
-345.420	800.000	-0.030	0.093
-344.406	-154.281	-0.239	0.016
-343.391	135.325	-0.134	-0.173
-342.377	113.515	-0.195	-0.235
-341.362	86.882	-0.262	0.288
-340.348	-200.000	0.015	0.240
-339.333	66.915	0.089	-0.091
-338.318	-125.217	-0.132	-0.020
-337.304	298.075	-0.053	-0.096
-336.289	-200.000	0.043	-0.274
-335.275	-51.722	0.082	0.038
-334.260	-200.000	-0.067	-0.316
-333.245	16.124	-0.208	-0.163
-332.231	-200.000	-0.005	-0.148
-331.216	-27.899	0.360	-0.207
-330.202	535.447	-0.076	0.180
-329.187	800.000	-0.046	0.166
-328.172	-141.296	-0.374	0.038
-327.158	27.975	-0.198	-0.166
-326.143	-5.388	0.248	0.169
-325.129	628.000	0.023	0.058
-324.114	583.718	0.024	0.058
-323.099	800.000	0.083	-0.294
-322.085	-77.261	-0.133	0.046
-321.070	48.881	-0.135	-0.126
-320.056	94.717	-0.052	0.058
-319.041	-200.000	0.005	-0.398
-318.026	-200.000	0.033	-0.244
-317.012	-200.000	-0.032	-0.188
-315.997	87.066	-0.146	-0.160
-314.983	-124.538	0.328	-0.051
-313.968	23.181	0.213	0.173
-312.953	-100.229	0.200	0.049
-311.939	-79.008	0.536	-0.181
-310.924	800.000	0.058	-0.179
-309.910	-200.000	-0.008	0.079
-308.895	302.144	-0.041	-0.075
-307.880	-138.727	0.467	0.051
-306.866	-26.618	-0.090	0.052
-305.851	186.096	0.051	-0.075
-304.837	272.688	-0.126	-0.220
-303.822	-200.000	0.018	0.169
-302.807	81.382	0.274	0.294
-301.793	-114.254	0.033	-0.006
-300.778	-93.611	-0.074	0.020
-299.764	573.405	-0.060	0.146
-298.749	-66.298	-0.284	0.112
-297.735	219.467	-0.104	-0.166
-296.720	5.077	0.147	-0.107
-295.705	5.240	0.200	0.146
-294.691	174.431	-0.140	-0.201
-293.676	-41.812	0.111	-0.056
-292.662	-200.000	0.057	0.412
-291.647	-4.497	0.154	0.106
-290.632	-77.050	-0.299	-0.103
-289.618	213.153	0.160	-0.250
-288.603	-103.255	0.124	-0.029
-287.589	-143.184	0.325	0.031
-286.574	77.309	0.163	-0.172
-285.559	277.826	-0.068	-0.121
-284.545	-78.367	0.169	0.058
-283.530	-200.000	-0.003	-0.266
-282.516	-54.830	0.343	0.154
-281.501	154.178	-0.121	0.165
-280.486	28.298	0.144	0.120
-279.472	-69.698	0.253	-0.096
-278.457	800.000	0.092	-0.273
-277.443	783.592	-0.094	0.256
-276.428	-46.877	-0.456	-0.221
-275.413	800.000	-0.058	-0.214
-274.399	-111.928	0.260	-0.052
-273.384	137.033	-0.153	-0.199
-272.370	273.176	0.074	-0.129
-271.355	-36.621	-0.123	0.066
-270.340	240.981	0.126	-0.208
-269.326	-129.094	0.132	0.018
-268.311	-90.153	-0.330	0.095
-267.297	18.873	-0.243	0.193
-266.282	6.245	-0.236	-0.174
-265.267	-62.641	0.252	-0.104
-264.253	-28.770	-0.052	-0.030
-263.238	800.000	0.061	0.218
-262.224	281.136	0.069	-0.122
-261.209	-110.766	0.135	-0.028
-260.195	38.875	0.145	-0.129
-259.180	-188.489	-0.455	-0.006
-258.165	-129.850	-0.126	-0.017
-257.151	-146.719	0.083	0.007
-256.136	-52.868	0.089	0.041
-255.122	37.001	0.057	0.050
-254.107	117.531	-0.152	0.185
-253.092	-128.433	0.252	-0.035
-252.078	-74.935	-0.133	0.047
-251.063	-114.850	-0.188	-0.035
-250.049	-162.379	0.143	0.007
-249.034	-200.000	-0.019	0.218
-248.019	-109.101	-0.436	0.092
-247.005	11.174	-0.342	-0.259
-245.990	-71.573	-0.032	-0.012
-244.976	218.224	0.031	0.050
-243.961	-35.105	0.097	-0.053
-242.946	25.565	0.364	-0.300
-241.932	234.758	-0.073	-0.120
-240.917	-96.668	-0.152	0.040
-239.903	-200.000	-0.052	0.238
-238.888	64.838	0.099	0.099
-237.873	45.409	-0.113	-0.103
-236.859	110.692	0.309	0.368
-235.844	-109.282	-0.155	-0.033
-234.830	45.176	0.128	-0.117
-233.815	-200.000	-0.004	-0.042
-232.800	107.257	-0.245	-0.288
-231.786	-178.635	-0.246	-0.006
-230.771	-153.055	-0.281	-0.020
-229.757	800.000	-0.019	-0.075
-228.742	-48.947	0.159	0.076
-227.727	34.970	-0.101	0.087
-226.713	-152.757	0.097	-0.007
-225.698	-25.261	0.186	-0.109
-224.684	-156.602	0.283	0.017
-223.669	792.302	0.033	-0.091
-222.655	-46.098	0.426	-0.208
-221.640	44.932	-0.347	-0.316
-220.625	-29.281	-0.025	-0.014
-219.611	-115.402	0.316	0.059
-218.596	136.813	-0.225	-0.290
-217.582	-156.632	0.158	0.010
-216.567	116.333	-0.272	-0.330
-215.552	-152.859	0.225	0.016
-214.538	37.507	0.188	0.165
-213.523	635.233	0.168	0.421
-212.509	72.803	-0.055	0.057
-211.494	-14.211	0.176	0.112
-210.479	108.994	0.129	0.153
-209.465	800.000	-0.057	0.167
-208.450	-200.000	0.020	0.279
-207.436	-148.016	0.154	0.013
-206.421	-200.000	-0.030	-0.172
-205.406	-90.705	0.318	-0.091
-204.392	-109.840	0.247	-0.051
-203.377	-102.547	0.129	-0.031
-202.363	81.765	-0.313	0.335
-201.348	-35.473	0.147	0.079
-200.333	-200.000	0.053	0.228
-199.319	11.368	0.102	-0.078
-198.304	-14.481	0.411	-0.262
-197.290	-43.246	0.234	0.117
-196.275	-200.000	-0.004	-0.063
-195.260	113.583	-0.239	0.287
-194.246	650.044	0.124	0.314
-193.231	611.437	0.168	-0.414
-192.217	85.066	-0.186	0.201
-191.202	93.912	0.162	0.182
-190.187	215.189	0.120	0.189
-189.173	77.688	0.035	-0.037
-188.158	-60.855	-0.202	0.085
-187.144	800.000	0.012	0.045
-186.129	362.087	-0.118	-0.235
-185.114	-135.813	-0.281	0.033
-184.100	-200.000	-0.018	0.149
-183.085	-200.000	-0.032	-0.222
-182.071	-71.862	0.216	0.080
-181.056	-128.806	-0.098	-0.014
-180.042	401.894	0.091	0.188
-179.027	-200.000	-0.035	-0.384
-178.012	-27.550	-0.282	0.162
-176.998	-47.550	-0.127	0.061
-175.983	-185.595	-0.247	-0.004
-174.969	-69.572	0.274	0.104
-173.954	-200.000	-0.015	0.145
-172.939	173.300	-0.187	0.266
-171.925	-200.000	0.012	-0.159
-170.910	149.619	-0.141	-0.188
-169.896	140.396	0.132	0.172
-168.881	-131.436	-0.134	-0.017
-167.866	-200.000	0.048	-0.231
-166.852	-11.717	-0.112	0.072
-165.837	800.000	-0.067	-0.242
-164.823	388.030	0.040	-0.082
-163.808	-200.000	-0.002	0.152
-162.793	-99.607	0.088	0.022
-161.779	-2.724	0.053	0.036
-160.764	-132.246	0.165	0.021
-159.750	438.694	-0.061	0.131
-158.735	-200.000	-0.014	-0.197
-157.720	12.211	0.168	-0.128
-156.706	-66.928	-0.318	0.124
-155.691	-142.669	-0.145	0.014
-154.677	43.715	0.087	-0.078
-153.662	77.818	0.033	-0.035
-152.647	-76.793	-0.255	0.088
-151.633	800.000	-0.013	-0.035
-150.618	-62.039	-0.118	0.049
-149.604	13.746	0.277	-0.213
-148.589	661.598	-0.068	0.174
-147.574	205.839	0.127	0.195
-146.560	-71.533	-0.057	0.021
-145.545	-13.470	-0.253	-0.162
-144.531	337.132	0.088	0.168
-143.516	-116.247	0.141	0.026
-142.502	-72.078	-0.116	0.043
-141.487	54.959	-0.112	0.107
-140.472	639.234	0.095	0.239
-139.458	-38.648	0.293	0.153
-138.443	74.267	0.158	-0.164
-137.429	-200.000	-0.021	-0.110
-136.414	84.760	0.261	-0.282
-135.399	43.408	0.228	-0.205
-134.385	103.339	-0.093	0.108
-133.370	269.101	0.154	0.266
-132.356	-55.382	-0.128	0.057
-131.341	800.000	0.051	0.165
-130.326	-59.217	0.111	-0.047
-129.312	46.173	-0.181	-0.166
-128.297	285.307	0.107	-0.191
-127.283	24.365	0.167	0.136
-126.268	32.385	-0.140	-0.119
-125.253	-174.746	-0.196	-0.005
-124.239	-120.674	0.234	-0.039
-123.224	-18.707	0.502	-0.309
-122.210	20.112	-0.048	-0.038
-121.195	-19.700	-0.160	0.098
