DTS Sentinel unit serial number:	SN413079Multiplexer serial number:	ORYXHardware model number:	OX4-SRSoftware version number:	ORYX F/W v4.00 Oryx Data Collector v3.7.2.0data status	okinstallation	princeton_trtdifferential loss correction	single-endedforward channel	channel 2reverse channel	N/Adate	2019/09/13time	02:39:34forward acquisition time	60.00reverse acquisition time	0.00gamma	496.2192k internal	0.2334k external	0.2334temperature offset calibration	1.0191default loss term (dB/km)	0.3790temperature slope calibration	1.0000multiplexer offset coefficient	1.0000multiplexer slope coefficient	1.0000fibre end	0.00T internal ref (°C)	27.44T ext. ref 1 (°C)	4.01T ext. ref 2 (°C)	22.27length (m)	temperature (°C)	Stokes	anti-Stokes-747.200	117.610	-0.072	0.089
-746.185	800.000	-0.059	0.188
-745.171	-60.534	-0.036	-0.015
-744.156	124.067	-0.192	-0.242
-743.142	-61.661	-0.331	0.140
-742.127	43.787	-0.129	0.118
-741.112	26.871	0.244	0.206
-740.098	-43.774	0.135	0.068
-739.083	800.000	0.103	0.445
-738.069	-200.000	0.029	0.148
-737.054	32.228	0.076	-0.066
-736.039	-200.000	-0.012	-0.363
-735.025	-112.183	-0.100	0.020
-734.010	163.852	-0.126	0.178
-732.996	-43.514	-0.112	-0.057
-731.981	151.174	-0.287	0.393
-730.966	-64.284	-0.519	0.212
-729.952	105.193	-0.131	0.156
-728.937	472.460	-0.173	-0.391
-727.923	-188.098	-0.135	-0.002
-726.908	118.734	-0.131	0.162
-725.894	-87.203	-0.254	0.078
-724.879	-103.377	0.196	-0.046
-723.864	-23.242	0.199	0.120
-722.850	-108.670	-0.188	-0.041
-721.835	-96.581	-0.134	0.035
-720.821	-200.000	-0.043	0.207
-719.806	-200.000	0.027	-0.317
-718.791	20.737	-0.283	-0.230
-717.777	-185.082	-0.248	0.004
-716.762	168.469	-0.142	-0.202
-715.748	642.519	0.060	-0.153
-714.733	-84.234	0.246	-0.078
-713.718	-200.000	-0.089	-0.464
-712.704	105.597	-0.062	0.074
-711.689	-77.163	-0.174	-0.061
-710.675	-108.596	0.479	-0.103
-709.660	-200.000	-0.008	-0.095
-708.645	599.870	0.197	-0.491
-707.631	-86.960	-0.381	-0.117
-706.616	800.000	-0.019	0.081
-705.602	405.882	-0.089	-0.189
-704.587	-25.700	0.161	-0.096
-703.572	-36.764	0.099	0.054
-702.558	15.799	0.090	0.071
-701.543	-69.364	-0.193	0.074
-700.529	-95.913	0.148	0.040
-699.514	267.562	0.097	-0.170
-698.499	-39.130	-0.326	-0.172
-697.485	-196.797	0.150	-0.001
-696.470	-200.000	-0.009	-0.068
-695.456	-168.824	0.515	0.019
-694.441	-125.512	0.166	-0.025
-693.426	-200.000	-0.007	0.085
-692.412	-110.717	0.341	-0.071
-691.397	64.863	0.058	0.058
-690.383	-42.193	-0.380	-0.195
-689.368	-73.037	-0.176	-0.065
-688.354	-200.000	-0.005	0.497
-687.339	800.000	-0.153	-0.503
-686.324	-66.189	-0.467	-0.187
-685.310	-200.000	0.035	0.258
-684.295	-18.684	-0.372	0.233
-683.281	-200.000	0.074	-0.372
-682.266	-200.000	0.007	-0.156
-681.251	0.024	-0.124	0.089
-680.237	171.258	-0.140	-0.201
-679.222	-200.000	-0.023	0.173
-678.208	-200.000	-0.006	-0.115
-677.193	-85.672	0.284	-0.088
-676.178	143.672	0.069	-0.093
-675.164	-35.729	0.406	-0.221
-674.149	59.996	0.125	-0.124
-673.135	312.930	0.060	-0.113
-672.120	-40.653	-0.136	-0.070
-671.105	25.780	0.008	0.007
-670.091	-41.255	-0.314	0.162
-669.076	94.286	-0.132	0.150
-668.062	-98.265	-0.316	-0.081
-667.047	-128.396	0.195	0.028
-666.032	-44.443	0.157	-0.079
-665.018	-35.005	-0.155	0.085
-664.003	-50.344	0.078	-0.037
-662.989	-200.000	-0.031	0.263
-661.974	14.238	0.259	0.202
-660.959	333.417	0.050	-0.097
-659.945	406.871	-0.153	0.323
-658.930	-200.000	-0.187	0.000
-657.916	83.047	0.153	-0.167
-656.901	542.863	-0.054	0.128
-655.886	268.557	-0.128	0.225
-654.872	-133.021	0.067	0.008
-653.857	194.493	0.163	0.248
-652.843	28.346	-0.399	0.337
-651.828	164.533	-0.136	-0.192
-650.814	439.988	0.121	0.265
-649.799	-200.000	0.016	-0.199
-648.784	-26.133	-0.312	0.184
-647.770	800.000	-0.080	-0.345
-646.755	17.431	-0.146	0.116
-645.741	-200.000	0.056	-0.380
-644.726	-200.000	0.002	-0.196
-643.711	-200.000	0.005	-0.222
-642.697	-55.628	0.183	0.082
-641.682	22.492	-0.324	0.265
-640.668	117.471	0.078	-0.096
-639.653	-200.000	0.001	0.064
-638.638	-46.863	-0.274	0.134
-637.624	-200.000	-0.011	0.051
-636.609	-92.655	-0.182	-0.051
-635.595	-10.268	0.500	-0.332
-634.580	691.614	-0.079	-0.207
-633.565	342.299	-0.084	-0.165
-632.551	-200.000	0.005	-0.378
-631.536	361.335	-0.104	-0.210
-630.522	24.170	0.292	-0.241
-629.507	218.746	-0.133	-0.213
-628.492	53.217	0.290	0.278
-627.478	-122.224	-0.107	-0.018
-626.463	-143.618	-0.147	0.014
-625.449	45.714	-0.111	-0.103
-624.434	-105.266	-0.163	0.037
-623.419	46.493	-0.203	-0.188
-622.405	800.000	-0.084	0.249
-621.390	182.066	0.103	-0.151
-620.376	-200.000	0.033	-0.146
-619.361	531.128	0.017	-0.041
-618.346	800.000	-0.042	0.175
-617.332	298.138	-0.038	-0.071
-616.317	-111.883	0.163	0.033
-615.303	800.000	-0.053	-0.154
-614.288	-106.945	-0.214	-0.047
-613.273	-26.955	-0.474	-0.277
-612.259	800.000	0.093	0.336
-611.244	41.601	0.274	0.248
-610.230	-50.401	-0.256	0.121
-609.215	-101.297	0.267	0.065
-608.201	171.904	-0.065	-0.093
-607.186	800.000	-0.015	-0.043
-606.171	-14.745	-0.160	-0.103
-605.157	788.566	0.053	-0.145
-604.142	800.000	-0.054	0.197
-603.128	-22.407	0.264	0.160
-602.113	-103.996	-0.244	-0.057
-601.098	483.657	-0.154	-0.349
-600.084	228.527	-0.102	-0.167
-599.069	28.172	-0.130	-0.110
-598.055	-157.139	0.123	0.007
-597.040	-200.000	0.033	0.180
-596.025	-200.000	-0.006	0.327
-595.011	158.964	0.147	0.204
-593.996	-55.414	-0.225	0.101
-592.982	549.027	-0.159	-0.380
-591.967	800.000	0.102	-0.316
-590.952	422.854	0.033	-0.071
-589.938	-68.296	0.297	0.115
-588.923	800.000	0.034	0.140
-587.909	10.764	0.065	-0.049
-586.894	122.898	-0.091	0.114
-585.879	800.000	0.033	0.093
-584.865	8.693	0.172	0.129
-583.850	118.755	0.058	-0.071
-582.836	-129.410	-0.329	-0.046
-581.821	-200.000	0.009	-0.132
-580.806	106.533	-0.150	0.177
-579.792	237.644	0.117	0.193
-578.777	637.931	-0.034	0.086
-577.763	-106.720	-0.242	-0.054
-576.748	-54.614	-0.254	-0.115
-575.733	-83.384	-0.362	-0.116
-574.719	-10.117	0.139	0.092
-573.704	99.165	-0.208	0.240
-572.690	-1.543	-0.067	-0.047
-571.675	73.542	0.273	0.286
-570.661	-103.651	0.055	0.013
-569.646	-200.000	0.000	0.055
-568.631	-200.000	0.014	-0.236
-567.617	143.940	-0.133	0.178
-566.602	-70.970	-0.105	-0.039
-565.588	-138.477	0.252	-0.028
-564.573	111.101	0.054	-0.065
-563.558	578.362	-0.110	-0.269
-562.544	291.234	0.150	0.273
-561.529	281.307	0.120	0.214
-560.515	-104.907	-0.310	0.071
-559.500	74.965	-0.046	0.048
-558.485	-17.077	-0.230	-0.145
-557.471	-200.000	-0.027	0.278
-556.456	101.888	-0.178	-0.208
-555.442	-99.065	0.395	-0.100
-554.427	-42.380	-0.081	-0.041
-553.412	800.000	-0.048	0.182
-552.398	424.786	0.073	0.156
-551.383	-68.324	0.128	-0.050
-550.369	-11.929	-0.074	0.048
-549.354	-87.795	-0.209	-0.063
-548.339	800.000	-0.136	0.399
-547.325	13.291	0.292	0.226
-546.310	-200.000	-0.028	0.217
-545.296	92.781	-0.237	0.267
-544.281	81.564	-0.260	0.281
-543.266	-200.000	-0.024	0.305
-542.252	-200.000	0.031	0.208
-541.237	194.208	0.122	0.185
-540.223	-27.906	-0.170	0.098
-539.208	800.000	-0.062	-0.184
-538.193	-200.000	0.045	-0.328
-537.179	-64.088	-0.092	-0.037
-536.164	-20.482	-0.061	-0.037
-535.150	800.000	-0.091	-0.325
-534.135	-60.316	0.314	-0.133
-533.121	800.000	0.037	0.121
-532.106	22.935	0.058	0.048
-531.091	344.013	-0.091	0.178
-530.077	-94.519	-0.197	-0.054
-529.062	25.168	-0.332	-0.275
-528.048	-200.000	0.013	0.300
-527.033	-134.281	0.235	0.029
-526.018	303.037	-0.034	0.063
-525.004	800.000	-0.021	0.070
-523.989	-200.000	-0.039	-0.181
-522.975	800.000	-0.045	0.128
-521.960	-91.187	0.288	0.082
-520.945	-37.149	-0.076	-0.040
-519.931	8.915	0.083	0.062
-518.916	41.518	0.124	0.112
-517.902	34.173	-0.307	0.266
-516.887	-200.000	-0.017	-0.159
-515.872	362.255	0.161	0.322
-514.858	800.000	0.105	-0.367
-513.843	-37.405	-0.226	-0.120
-512.829	109.012	-0.166	-0.198
-511.814	-134.904	-0.138	-0.017
-510.799	-73.187	-0.200	-0.073
-509.785	111.635	0.193	0.232
-508.770	10.964	0.321	-0.244
-507.756	-1.281	-0.255	0.179
-506.741	-33.489	0.153	-0.084
-505.726	551.075	-0.057	-0.136
-504.712	800.000	-0.032	-0.105
-503.697	242.440	0.047	-0.078
-502.683	-86.846	-0.143	-0.043
-501.668	-150.787	-0.216	-0.016
-500.653	800.000	0.051	0.185
-499.639	800.000	0.023	0.095
-498.624	-94.209	-0.160	-0.044
-497.610	-139.478	0.341	-0.036
-496.595	-80.829	-0.247	-0.082
-495.581	66.040	0.298	-0.301
-494.566	49.552	-0.349	-0.327
-493.551	-200.000	0.019	-0.230
-492.537	8.855	0.166	-0.125
-491.522	-22.110	-0.199	-0.120
-490.508	76.407	-0.022	-0.023
-489.493	-111.688	0.106	0.021
-488.478	-200.000	-0.005	-0.192
-487.464	85.595	-0.201	-0.220
-486.449	123.044	-0.188	-0.234
-485.435	-108.553	-0.414	-0.089
-484.420	800.000	-0.059	0.220
-483.405	403.343	-0.215	0.450
-482.391	-70.239	-0.200	-0.076
-481.376	314.169	-0.116	-0.218
-480.362	-200.000	0.018	0.242
-479.347	695.236	-0.088	0.231
-478.332	278.399	0.081	0.143
-477.318	-52.720	0.232	0.107
-476.303	197.761	-0.195	0.296
-475.289	37.002	0.147	0.129
-474.274	-39.353	0.221	-0.115
-473.259	-160.807	-0.322	-0.017
-472.245	97.003	-0.196	0.224
-471.230	158.887	0.193	0.266
-470.216	-200.000	0.018	0.429
-469.201	-200.000	0.036	0.231
-468.186	-200.000	0.038	0.250
-467.172	800.000	0.040	-0.111
-466.157	293.476	-0.073	0.133
-465.143	-51.699	0.288	0.133
-464.128	-82.438	0.221	0.071
-463.113	70.994	-0.247	0.255
-462.099	498.201	-0.061	-0.140
-461.084	-36.871	-0.145	-0.077
-460.070	-79.178	-0.294	-0.099
-459.055	-34.274	-0.054	-0.029
-458.040	620.180	0.121	-0.302
-457.026	97.386	0.054	0.062
-456.011	800.000	-0.130	-0.393
-454.997	783.653	0.097	-0.265
-453.982	198.584	0.072	-0.109
-452.968	-127.196	-0.225	-0.033
-451.953	-200.000	-0.028	-0.322
-450.938	-61.673	-0.276	0.115
-449.924	625.639	0.116	-0.290
-448.909	-43.087	-0.283	0.142
-447.895	24.915	-0.256	0.211
-446.880	-200.000	-0.005	-0.087
-445.865	-36.707	0.378	0.202
-444.851	-168.784	-0.074	0.003
-443.836	-200.000	-0.008	-0.045
-442.822	77.292	0.299	0.315
-441.807	-36.488	-0.165	0.088
-440.792	-108.431	0.071	0.015
-439.778	-200.000	0.028	-0.269
-438.763	-200.000	-0.026	-0.236
-437.749	-165.524	0.255	0.011
-436.734	449.744	0.083	0.181
-435.719	-15.934	-0.104	-0.066
-434.705	-101.419	0.204	-0.049
-433.690	-200.000	-0.013	-0.089
-432.676	100.276	-0.040	0.046
-431.661	-44.276	-0.101	-0.050
-430.646	226.026	0.075	-0.121
-429.632	-200.000	0.063	0.347
-428.617	-200.000	0.032	-0.500
-427.603	-200.000	-0.080	-0.529
-426.588	179.821	-0.067	-0.098
-425.573	-200.000	0.035	-0.211
-424.559	26.077	-0.091	-0.075
-423.544	-200.000	0.055	-0.266
-422.530	-43.050	0.251	-0.126
-421.515	192.393	-0.043	-0.065
-420.500	800.000	0.089	0.327
-419.486	-200.000	-0.027	-0.203
-418.471	-41.914	0.244	-0.124
-417.457	51.452	0.200	0.188
-416.442	-46.018	-0.069	-0.034
-415.428	51.837	0.213	-0.201
-414.413	-200.000	-0.002	0.108
-413.398	-200.000	0.001	0.208
-412.384	800.000	0.058	-0.212
-411.369	18.939	-0.333	-0.265
-410.355	-25.371	-0.048	-0.028
-409.340	74.993	-0.132	-0.138
-408.325	800.000	-0.072	-0.268
-407.311	29.789	0.159	0.134
-406.296	-200.000	0.037	0.170
-405.282	-89.810	-0.189	-0.055
-404.267	-55.176	-0.296	0.132
-403.252	235.980	-0.119	0.196
-402.238	227.784	0.273	0.440
-401.223	711.846	0.033	0.087
-400.209	-61.399	0.334	0.139
-399.194	-124.750	0.391	-0.060
-398.179	747.795	0.113	0.302
-397.165	-71.875	0.045	0.017
-396.150	800.000	-0.073	0.279
-395.136	193.453	-0.088	0.132
-394.121	82.771	-0.103	-0.111
-393.106	-106.089	-0.129	0.029
-392.092	-95.217	0.289	0.077
-391.077	-19.778	-0.069	0.042
-390.063	-90.841	0.161	-0.046
-389.048	139.222	0.157	-0.204
-388.033	171.500	0.234	0.333
-387.019	-92.397	0.188	-0.052
-386.004	-124.015	-0.268	0.042
-384.990	-7.667	0.276	0.185
-383.975	110.696	-0.100	0.120
-382.960	-80.149	0.387	0.128
-381.946	87.913	0.313	-0.343
-380.931	-163.457	0.103	-0.005
-379.917	169.362	-0.102	0.144
-378.902	-200.000	0.021	-0.108
-377.888	-200.000	0.023	0.295
-376.873	38.649	0.221	0.196
-375.858	-59.073	0.299	-0.128
-374.844	87.951	-0.146	0.160
-373.829	-19.376	-0.187	0.115
-372.815	-88.763	0.087	0.026
-371.800	39.447	-0.248	-0.220
-370.785	-104.453	0.248	-0.057
-369.771	116.910	-0.202	0.245
-368.756	504.339	0.076	-0.174
-367.742	30.425	-0.251	0.212
-366.727	166.671	0.184	-0.258
-365.712	-93.811	-0.159	0.043
-364.698	5.367	-0.357	0.261
-363.683	800.000	-0.099	0.375
-362.669	443.224	-0.062	0.134
-361.654	-103.878	0.273	-0.063
-360.639	-68.875	-0.025	0.009
-359.625	206.642	-0.122	0.189
-358.610	-91.271	-0.222	-0.063
-357.596	27.221	-0.176	0.146
-356.581	-200.000	-0.006	0.335
-355.566	-87.685	-0.181	0.054
-354.552	142.344	-0.303	-0.398
-353.537	16.349	0.224	-0.175
-352.523	-110.792	0.108	0.022
-351.508	-77.133	0.122	0.042
-350.493	-183.148	-0.277	-0.005
-349.479	-200.000	0.023	0.294
-348.464	-42.646	-0.338	0.170
-347.450	-200.000	-0.012	0.395
-346.435	-5.701	-0.331	0.224
-345.420	3.537	0.317	0.229
-344.406	-124.311	0.115	-0.018
-343.391	-200.000	-0.026	0.145
-342.377	-12.976	0.073	0.047
-341.362	75.117	0.055	-0.057
-340.348	-200.000	-0.004	0.334
-339.333	90.932	-0.077	0.086
-338.318	-148.369	0.209	0.017
-337.304	-35.906	0.009	0.005
-336.289	-91.942	-0.079	0.022
-335.275	-79.176	0.208	0.070
-334.260	19.115	-0.352	-0.280
-333.245	-134.629	-0.115	0.014
-332.231	-42.101	-0.060	-0.031
-331.216	-62.331	0.044	-0.018
-330.202	-46.710	0.245	-0.119
-329.187	-200.000	-0.032	-0.213
-328.172	-22.337	0.171	-0.103
-327.158	361.585	0.141	-0.280
-326.143	-200.000	0.025	0.364
-325.129	-14.788	-0.186	-0.118
-324.114	-200.000	-0.012	-0.180
-323.099	-40.561	-0.272	0.140
-322.085	-83.310	-0.134	-0.043
-321.070	-200.000	0.014	-0.153
-320.056	-200.000	-0.011	-0.135
-319.041	-115.301	0.103	-0.019
-318.026	-200.000	-0.001	0.069
-317.012	22.498	-0.134	0.108
-315.997	-28.144	0.213	0.122
-314.983	174.347	-0.079	-0.113
-313.968	-50.897	-0.287	0.134
-312.953	146.648	0.089	-0.119
-311.939	105.658	-0.249	0.291
-310.924	-33.165	-0.151	0.083
-309.910	407.552	-0.141	0.294
-308.895	-93.944	-0.174	0.047
-307.880	-48.258	-0.118	-0.056
-306.866	-44.540	0.234	-0.116
-305.851	-200.000	0.003	0.092
-304.837	6.819	0.116	-0.085
-303.822	-200.000	-0.014	-0.169
-302.807	-121.937	-0.110	-0.018
-301.793	800.000	0.038	0.130
-300.778	800.000	-0.064	-0.187
-299.764	-46.428	-0.248	-0.121
-298.749	-176.355	-0.348	-0.009
-297.735	-49.206	0.249	0.117
-296.720	-30.271	-0.053	0.030
-295.705	-81.457	0.189	0.062
-294.691	-67.630	-0.269	0.104
-293.676	-44.461	0.137	0.068
-292.662	-9.465	-0.187	0.123
-291.647	-200.000	0.004	-0.201
-290.632	-112.288	0.340	-0.067
-289.618	-25.548	-0.257	-0.150
-288.603	342.542	-0.157	0.303
-287.589	121.742	-0.081	0.099
-286.574	-200.000	-0.070	-0.486
-285.559	-41.644	0.177	0.090
-284.545	286.011	-0.064	-0.113
-283.530	-200.000	0.077	-0.000
-282.516	-200.000	0.098	0.490
-281.501	122.171	0.157	-0.193
-280.486	-132.511	-0.220	0.028
-279.472	491.633	0.097	-0.219
-278.457	-128.576	0.321	0.045
-277.443	-200.000	0.034	-0.218
-276.428	-7.425	-0.163	0.109
-275.413	-75.938	0.042	0.015
-274.399	-101.306	-0.052	0.012
-273.384	26.468	-0.162	0.134
-272.370	23.167	-0.146	-0.119
-271.355	-45.874	0.298	0.145
-270.340	142.347	-0.172	-0.225
-269.326	-200.000	-0.003	-0.066
-268.311	521.182	0.116	-0.268
-267.297	612.988	0.026	-0.064
-266.282	-50.029	0.343	0.160
-265.267	-94.378	-0.529	0.143
-264.253	250.346	-0.078	0.130
-263.238	-2.846	0.164	0.113
-262.224	-42.000	-0.437	0.221
-261.209	65.782	0.245	-0.244
-260.195	220.783	0.136	0.215
-259.180	-9.138	-0.193	0.127
-258.165	61.532	-0.096	-0.095
-257.151	8.757	-0.233	0.173
-256.136	734.774	-0.140	-0.369
-255.122	-20.977	-0.313	-0.189
-254.107	132.891	0.034	-0.043
-253.092	-97.648	-0.163	0.042
-252.078	-83.062	-0.073	0.023
-251.063	-200.000	-0.062	0.648
-250.049	800.000	-0.020	-0.079
-249.034	-85.070	0.027	-0.008
-248.019	93.255	-0.071	0.079
-247.005	-147.499	-0.375	-0.031
-245.990	143.460	-0.129	0.169
-244.976	-63.908	-0.023	-0.009
-243.961	322.155	0.051	-0.096
-242.946	-69.700	-0.209	-0.079
-241.932	504.555	0.153	-0.348
-240.917	-200.000	0.076	-0.335
-239.903	-104.122	0.156	0.036
-238.888	-116.462	-0.135	0.025
-237.873	234.238	-0.037	-0.060
-236.859	-200.000	-0.047	0.348
-235.844	108.357	-0.147	-0.173
-234.830	200.711	0.120	0.182
-233.815	305.899	-0.048	-0.087
-232.800	-3.158	0.197	0.135
-231.786	-82.298	0.418	-0.134
-230.771	-90.448	0.454	-0.130
-229.757	83.785	-0.108	-0.116
-228.742	-14.249	0.242	-0.154
-227.727	263.288	-0.060	-0.102
-226.713	788.111	0.088	-0.239
-225.698	-177.183	-0.210	0.005
-224.684	113.924	0.108	0.129
-223.669	-114.524	-0.143	0.027
-222.655	-200.000	0.089	-0.467
-221.640	724.176	0.120	-0.314
-220.625	800.000	-0.093	0.278
-219.611	-121.418	-0.263	0.043
-218.596	-84.469	0.145	0.045
-217.582	800.000	-0.057	-0.178
-216.567	-17.155	0.235	-0.146
-215.552	27.192	0.229	0.189
-214.538	-40.739	0.282	0.144
-213.523	-200.000	0.014	0.136
-212.509	94.862	-0.152	0.170
-211.494	20.236	0.343	-0.273
-210.479	275.629	0.224	-0.391
-209.465	778.733	-0.041	-0.110
-208.450	186.063	0.110	-0.161
-207.436	-77.770	0.669	0.227
-206.421	-71.913	0.155	0.057
-205.406	800.000	0.025	0.067
-204.392	800.000	-0.106	0.333
-203.377	84.540	0.074	0.080
-202.363	-106.978	-0.020	0.004
-201.348	-200.000	0.000	0.063
-200.333	-200.000	-0.034	0.166
-199.319	284.578	0.110	-0.195
-198.304	800.000	0.039	-0.163
-197.290	-200.000	-0.006	0.064
-196.275	58.411	0.277	0.267
-195.260	-67.460	0.257	-0.099
-194.246	204.761	0.162	-0.248
-193.231	-119.083	0.224	0.039
-192.217	3.918	-0.088	-0.063
-191.202	-200.000	-0.006	-0.047
-190.187	-200.000	-0.001	-0.032
-189.173	800.000	0.047	-0.167
-188.158	-200.000	-0.095	-0.423
-187.144	-111.657	0.238	-0.047
-186.129	-95.663	0.169	0.044
-185.114	-173.713	0.097	-0.003
-184.100	-113.691	0.268	0.051
-183.085	-160.078	0.423	0.023
-182.071	44.844	-0.118	-0.107
-181.056	-15.939	0.168	-0.105
-180.042	102.192	0.006	0.007
-179.027	-133.792	0.095	-0.012
-178.012	68.195	0.086	0.086
-176.998	-200.000	-0.027	0.399
-175.983	-200.000	-0.013	0.132
-174.969	794.733	0.129	-0.350
-173.954	13.085	0.101	-0.077
-172.939	54.468	0.201	0.190
-171.925	312.923	0.050	-0.093
-170.910	-59.277	0.149	0.063
-169.896	-200.000	0.007	0.165
-168.881	-119.634	0.204	0.035
-167.866	12.914	0.383	-0.291
-166.852	800.000	0.033	0.139
-165.837	-200.000	0.004	0.105
-164.823	62.587	0.108	-0.106
-163.808	-90.387	0.351	-0.100
-162.793	-200.000	-0.024	-0.211
-161.779	-45.125	0.206	-0.101
-160.764	-200.000	-0.017	-0.240
-159.750	-200.000	0.008	0.178
-158.735	29.425	0.374	-0.312
-157.720	633.575	-0.024	0.060
-156.706	779.584	-0.102	0.273
-155.691	-48.525	-0.211	-0.100
-154.677	-30.249	0.139	0.078
-153.662	-71.683	0.219	0.080
-152.647	703.546	0.076	-0.197
-151.633	-200.000	-0.060	-0.289
-150.618	-200.000	-0.006	-0.379
-149.604	-95.858	0.178	-0.047
-148.589	-200.000	0.036	0.158
-147.574	59.602	-0.062	0.060
-146.560	-36.686	-0.209	-0.110
-145.545	-200.000	0.042	-0.370
-144.531	543.655	-0.080	0.187
-143.516	-105.736	0.182	0.040
-142.502	-200.000	0.029	0.281
-141.487	-30.527	0.245	0.136
-140.472	89.187	-0.051	0.056
-139.458	694.514	0.052	-0.135
-138.443	95.634	0.217	-0.244
-137.429	-137.290	0.131	0.015
-136.414	-104.784	-0.456	-0.103
-135.399	41.964	-0.304	-0.271
-134.385	-67.441	0.345	-0.133
-133.370	-30.384	0.080	0.044
-132.356	-200.000	0.006	-0.178
-131.341	-200.000	0.006	-0.080
-130.326	-200.000	0.028	-0.248
-129.312	124.450	-0.070	-0.087
-128.297	10.390	0.188	-0.141
-127.283	800.000	-0.038	-0.113
-126.268	14.391	-0.164	0.126
-125.253	800.000	-0.044	0.157
-124.239	346.147	0.045	-0.087
-123.224	-62.603	-0.338	-0.138
-122.210	-200.000	-0.039	-0.316
