DTS Sentinel unit serial number:	SN413079Multiplexer serial number:	ORYXHardware model number:	OX4-SRSoftware version number:	ORYX F/W v4.00 Oryx Data Collector v3.7.2.0data status	okinstallation	princeton_trtdifferential loss correction	single-endedforward channel	channel 2reverse channel	N/Adate	2019/09/14time	06:27:34forward acquisition time	60.00reverse acquisition time	0.00gamma	496.2192k internal	0.2337k external	0.2337temperature offset calibration	1.0135default loss term (dB/km)	0.3790temperature slope calibration	1.0000multiplexer offset coefficient	1.0000multiplexer slope coefficient	1.0000fibre end	0.00T internal ref (°C)	26.50T ext. ref 1 (°C)	3.41T ext. ref 2 (°C)	20.42length (m)	temperature (°C)	Stokes	anti-Stokes-747.200	309.131	-0.126	0.237
-746.185	462.588	0.274	0.614
-745.171	-84.795	0.068	0.021
-744.156	139.862	-0.060	0.079
-743.142	380.489	0.097	-0.200
-742.127	369.656	-0.160	0.325
-741.112	31.211	0.101	0.087
-740.098	19.060	-0.260	0.209
-739.083	597.696	0.026	-0.065
-738.069	152.068	-0.222	0.304
-737.054	-200.000	-0.036	-0.240
-736.039	-31.195	-0.042	-0.024
-735.025	543.935	0.151	0.362
-734.010	-68.562	-0.289	-0.113
-732.996	-139.980	-0.298	0.032
-731.981	273.360	0.225	0.398
-730.966	-200.000	-0.041	0.269
-729.952	-13.675	-0.333	-0.216
-728.937	-118.119	-0.184	-0.033
-727.923	139.088	-0.102	-0.135
-726.908	-16.373	-0.093	0.059
-725.894	-54.094	-0.296	0.135
-724.879	783.836	0.108	-0.298
-723.864	800.000	-0.108	0.306
-722.850	800.000	-0.038	-0.144
-721.835	-200.000	-0.072	-0.464
-720.821	-200.000	0.002	-0.042
-719.806	-60.710	-0.386	-0.164
-718.791	-200.000	-0.020	-0.312
-717.777	19.772	-0.173	0.140
-716.762	800.000	0.036	0.149
-715.748	-102.695	-0.271	0.065
-714.733	24.398	0.092	-0.076
-713.718	703.753	-0.020	0.052
-712.704	-200.000	0.014	0.275
-711.689	108.515	-0.104	0.124
-710.675	104.711	-0.187	0.221
-709.660	-200.000	0.005	0.370
-708.645	355.748	-0.126	-0.252
-707.631	339.508	0.153	0.299
-706.616	123.102	-0.197	-0.248
-705.602	-131.977	-0.132	0.017
-704.587	-34.478	0.308	-0.169
-703.572	150.819	-0.128	-0.175
-702.558	139.784	-0.309	-0.407
-701.543	182.307	-0.084	-0.125
-700.529	-121.970	-0.391	-0.064
-699.514	800.000	-0.020	-0.079
-698.499	24.526	0.259	0.215
-697.485	136.620	-0.027	0.035
-696.470	-200.000	-0.042	0.200
-695.456	-74.284	0.033	-0.012
-694.441	469.506	-0.098	0.220
-693.426	-200.000	-0.013	0.087
-692.412	-70.073	0.137	-0.052
-691.397	-200.000	0.080	-0.483
-690.383	-13.289	0.274	-0.178
-689.368	-200.000	-0.042	0.246
-688.354	292.318	-0.226	0.412
-687.339	-200.000	-0.072	0.423
-686.324	800.000	-0.023	0.072
-685.310	19.455	-0.082	-0.066
-684.295	121.652	-0.253	0.316
-683.281	107.987	0.188	-0.225
-682.266	-102.942	0.325	-0.077
-681.251	-33.074	0.156	0.087
-680.237	-200.000	0.034	-0.188
-679.222	-68.673	0.247	-0.096
-678.208	40.716	-0.095	-0.086
-677.193	-200.000	-0.043	0.273
-676.178	452.631	0.056	0.124
-675.164	-200.000	0.029	-0.144
-674.149	-88.675	-0.112	-0.033
-673.135	-111.293	0.190	0.039
-672.120	179.208	-0.038	-0.056
-671.105	800.000	-0.024	-0.079
-670.091	207.178	-0.167	0.261
-669.076	379.203	0.113	-0.232
-668.062	-89.483	0.309	0.091
-667.047	-146.132	0.208	-0.018
-666.032	800.000	-0.087	0.245
-665.018	542.382	-0.104	-0.248
-664.003	18.706	-0.279	0.224
-662.989	-200.000	-0.053	0.270
-661.974	178.112	0.096	-0.140
-660.959	-142.418	-0.199	0.020
-659.945	84.893	-0.310	-0.340
-658.930	-200.000	-0.025	-0.158
-657.916	-200.000	-0.003	-0.191
-656.901	-12.104	0.062	-0.041
-655.886	-51.318	-0.147	0.069
-654.872	-13.851	-0.100	0.065
-653.857	-200.000	-0.006	0.223
-652.843	130.589	-0.261	0.335
-651.828	-27.903	0.148	0.086
-650.814	-141.454	-0.154	0.016
-649.799	-200.000	0.035	-0.317
-648.784	27.714	-0.328	-0.277
-647.770	394.807	-0.072	-0.150
-646.755	44.573	-0.175	-0.161
-645.741	-23.549	-0.180	-0.108
-644.726	-70.527	-0.224	-0.085
-643.711	-61.314	-0.098	0.041
-642.697	-57.830	-0.323	-0.141
-641.682	-200.000	-0.033	-0.474
-640.668	-14.617	0.335	-0.215
-639.653	-77.235	0.201	0.070
-638.638	-119.364	0.156	-0.027
-637.624	800.000	-0.019	0.055
-636.609	800.000	-0.067	0.279
-635.595	-82.955	-0.035	-0.011
-634.580	632.582	0.122	0.309
-633.565	-65.855	0.177	-0.071
-632.551	-200.000	-0.002	0.132
-631.536	800.000	0.033	0.134
-630.522	-200.000	0.006	0.056
-629.507	-81.405	-0.030	0.010
-628.492	-200.000	-0.027	0.152
-627.478	588.232	0.106	0.262
-626.463	-200.000	0.007	0.136
-625.449	205.870	0.184	-0.285
-624.434	-168.007	0.090	-0.004
-623.419	6.176	0.130	-0.096
-622.405	66.704	0.219	0.222
-621.390	131.697	0.142	-0.182
-620.376	-200.000	0.002	-0.107
-619.361	384.084	0.072	0.148
-618.346	-36.802	0.104	0.056
-617.332	589.590	0.048	-0.119
-616.317	239.714	0.049	0.082
-615.303	-131.148	-0.124	-0.017
-614.288	124.985	0.095	-0.119
-613.273	426.346	0.126	-0.271
-612.259	4.531	0.038	-0.028
-611.244	-113.530	-0.239	-0.047
-610.230	-32.959	-0.226	0.125
-609.215	162.224	-0.065	0.091
-608.201	-200.000	-0.048	0.261
-607.186	-158.557	0.207	-0.012
-606.171	159.273	-0.187	-0.260
-605.157	-200.000	-0.288	-0.001
-604.142	-81.889	0.260	-0.085
-603.128	-51.092	0.268	0.126
-602.113	-135.543	-0.103	-0.012
-601.098	800.000	-0.040	0.116
-600.084	-44.179	0.249	0.125
-599.069	-193.726	0.303	-0.003
-598.055	-117.092	-0.293	-0.053
-597.040	-200.000	0.066	0.325
-596.025	32.335	-0.268	0.231
-595.011	-21.856	-0.274	0.166
-593.996	501.151	-0.043	-0.099
-592.982	186.310	0.206	0.306
-591.967	-134.208	-0.509	0.063
-590.952	63.638	0.147	-0.148
-589.938	203.579	0.032	0.049
-588.923	-200.000	0.034	0.318
-587.909	-151.961	0.047	0.003
-586.894	-84.138	0.114	-0.036
-585.879	-128.221	0.154	-0.022
-584.865	-103.982	-0.111	0.026
-583.850	193.305	-0.137	-0.207
-582.836	226.110	0.229	-0.370
-581.821	800.000	0.036	-0.141
-580.806	-124.991	-0.268	0.041
-579.792	104.533	-0.121	-0.142
-578.777	191.519	-0.089	0.134
-577.763	-200.000	0.065	-0.328
-576.748	-200.000	0.019	0.277
-575.733	-127.525	-0.202	0.029
-574.719	-83.860	-0.355	-0.113
-573.704	-200.000	-0.006	0.276
-572.690	17.544	0.085	0.067
-571.675	49.153	-0.134	0.125
-570.661	369.464	0.052	-0.105
-569.646	-52.477	-0.191	0.088
-568.631	-86.418	0.367	0.113
-567.617	-7.005	-0.023	-0.016
-566.602	-89.419	-0.358	0.105
-565.588	66.846	0.024	0.025
-564.573	800.000	-0.089	-0.323
-563.558	-56.276	-0.246	-0.109
-562.544	-49.886	-0.105	-0.050
-561.529	-9.196	0.141	-0.094
-560.515	-61.386	0.256	-0.107
-559.500	19.224	-0.192	0.154
-558.485	328.552	-0.042	0.081
-557.471	181.318	0.173	0.254
-556.456	-143.060	-0.537	0.052
-555.442	6.268	-0.084	0.062
-554.427	-200.000	0.011	-0.094
-553.412	-55.968	-0.148	-0.066
-552.398	667.556	0.011	0.028
-551.383	-19.925	-0.061	0.037
-550.369	235.429	0.112	0.184
-549.354	-96.519	-0.169	0.044
-548.339	294.902	0.176	-0.320
-547.325	800.000	0.072	0.227
-546.310	-27.289	-0.183	-0.106
-545.296	39.178	-0.039	-0.035
-544.281	-200.000	-0.024	0.123
-543.266	800.000	-0.086	-0.267
-542.252	-200.000	0.039	-0.332
-541.237	82.640	0.081	-0.088
-540.223	14.239	-0.177	0.137
-539.208	546.817	0.066	-0.156
-538.193	67.464	-0.198	0.202
-537.179	186.706	-0.061	-0.091
-536.164	-23.544	0.180	-0.108
-535.150	-65.891	0.298	0.119
-534.135	-200.000	0.054	-0.375
-533.121	261.944	0.219	0.377
-532.106	-154.776	-0.327	-0.022
-531.091	-200.000	0.045	-0.209
-530.077	487.863	-0.055	0.126
-529.062	625.523	0.042	0.105
-528.048	584.542	-0.121	0.295
-527.033	28.640	0.161	0.136
-526.018	-67.798	-0.117	0.046
-525.004	-68.875	0.417	-0.160
-523.989	29.688	-0.029	0.025
-522.975	-89.773	-0.200	0.058
-521.960	301.688	0.044	0.082
-520.945	-61.222	0.351	-0.147
-519.931	218.529	0.060	-0.096
-518.916	83.284	-0.349	-0.378
-517.902	631.734	-0.246	-0.620
-516.887	-97.952	-0.561	0.144
-515.872	800.000	0.044	-0.125
-514.858	332.023	-0.144	-0.276
-513.843	800.000	0.062	-0.183
-512.829	800.000	-0.086	0.364
-511.814	-94.719	0.076	0.021
-510.799	-113.373	-0.209	-0.041
-509.785	49.701	0.091	0.086
-508.770	435.619	-0.116	-0.251
-507.756	-33.787	0.077	-0.042
-506.741	-111.912	-0.052	-0.010
-505.726	-73.292	0.358	-0.130
-504.712	-200.000	-0.031	-0.335
-503.697	-116.470	0.207	0.038
-502.683	55.370	0.165	-0.159
-501.668	800.000	-0.130	-0.564
-500.653	93.580	0.182	-0.205
-499.639	664.313	-0.143	0.367
-498.624	-94.893	-0.201	-0.054
-497.610	-162.656	0.250	-0.012
-496.595	22.520	-0.114	-0.093
-495.581	-200.000	0.023	0.213
-494.566	-200.000	0.063	0.366
-493.551	65.594	0.163	0.164
-492.537	74.840	0.129	0.135
-491.522	387.364	0.057	0.116
-490.508	185.301	0.052	-0.077
-489.493	-108.586	0.132	0.028
-488.478	-190.494	0.335	0.004
-487.464	-132.919	-0.352	0.045
-486.449	99.824	0.225	0.259
-485.435	118.987	0.135	0.165
-484.420	-118.175	0.147	-0.026
-483.405	246.890	0.185	0.311
-482.391	-94.898	0.251	-0.067
-481.376	-78.580	-0.224	-0.076
-480.362	-85.794	0.117	0.036
-479.347	-200.000	-0.023	0.143
-478.332	800.000	-0.030	0.117
-477.318	44.427	0.298	-0.272
-476.303	-9.368	-0.245	-0.163
-475.289	-27.095	0.273	-0.158
-474.274	-73.045	-0.207	-0.076
-473.259	448.962	-0.014	0.030
-472.245	-116.119	0.012	0.002
-471.230	-200.000	-0.048	-0.380
-470.216	-200.000	0.034	0.204
-469.201	633.139	0.085	0.214
-468.186	-200.000	-0.014	0.104
-467.172	-200.000	-0.031	0.139
-466.157	-15.297	-0.294	-0.187
-465.143	260.672	-0.169	0.290
-464.128	-26.676	0.094	0.055
-463.113	39.704	0.301	0.268
-462.099	579.490	0.046	-0.112
-461.084	87.233	-0.264	0.290
-460.070	-136.071	0.366	0.043
-459.055	-30.873	-0.082	0.046
-458.040	64.207	-0.261	-0.261
-457.026	-151.449	0.291	0.021
-456.011	-200.000	0.014	0.086
-454.997	-112.509	-0.313	0.062
-453.982	-22.506	-0.106	0.064
-452.968	177.953	0.179	0.260
-451.953	-147.286	-0.378	0.032
-450.938	61.331	-0.108	0.106
-449.924	-129.511	0.065	0.009
-448.909	114.311	0.183	0.222
-447.895	-161.836	-0.095	0.005
-446.880	341.755	0.103	-0.199
-445.865	800.000	0.107	-0.324
-444.851	-33.376	0.028	-0.015
-443.836	250.818	-0.031	-0.053
-442.822	-200.000	-0.048	-0.321
-441.807	-66.492	0.263	0.104
-440.792	-61.933	0.245	0.102
-439.778	-118.222	-0.208	-0.037
-438.763	567.265	-0.164	0.394
-437.749	-75.763	0.187	0.066
-436.734	11.768	-0.192	0.146
-435.719	-200.000	0.010	0.061
-434.705	-5.261	0.083	-0.056
-433.690	-200.000	0.019	0.115
-432.676	662.799	-0.032	-0.082
-431.661	188.273	-0.151	-0.224
-430.646	-200.000	-0.070	-0.405
-429.632	46.286	0.288	-0.265
-428.617	444.291	0.057	-0.124
-427.603	800.000	-0.060	-0.184
-426.588	-79.000	0.224	0.076
-425.573	-200.000	0.020	0.088
-424.559	800.000	0.028	-0.122
-423.544	800.000	0.036	0.145
-422.530	503.866	-0.102	0.234
-421.515	-200.000	0.011	0.054
-420.500	248.641	-0.014	0.023
-419.486	-200.000	-0.019	0.122
-418.471	-185.785	0.173	-0.003
-417.457	-200.000	0.018	-0.129
-416.442	-31.283	-0.194	0.108
-415.428	-200.000	0.027	-0.629
-414.413	56.591	-0.183	-0.177
-413.398	-9.832	0.062	0.041
-412.384	-200.000	0.014	0.067
-411.369	-138.315	0.239	-0.026
-410.355	12.466	0.351	-0.268
-409.340	26.523	0.214	0.177
-408.325	-7.584	0.091	0.061
-407.311	-200.000	-0.033	-0.174
-406.296	-98.226	-0.030	-0.008
-405.282	435.341	0.133	0.286
-404.267	-122.234	-0.571	0.092
-403.252	-200.000	0.018	0.144
-402.238	67.952	0.044	-0.044
-401.223	305.985	0.042	0.077
-400.209	14.228	-0.290	-0.224
-399.194	247.202	-0.031	-0.051
-398.179	14.464	-0.148	-0.114
-397.165	140.933	0.105	0.138
-396.150	2.069	-0.161	-0.115
-395.136	-23.145	-0.271	0.162
-394.121	66.921	-0.125	0.126
-393.106	114.991	0.106	0.129
-392.092	-80.655	0.197	-0.065
-391.077	-163.246	0.255	-0.012
-390.063	-200.000	-0.006	0.434
-389.048	45.113	-0.079	0.072
-388.033	-200.000	-0.013	-0.142
-387.019	68.440	0.216	0.219
-386.004	140.085	-0.251	0.328
-384.990	132.723	0.032	-0.041
-383.975	32.374	-0.047	-0.040
-382.960	687.116	0.100	0.259
-381.946	134.173	-0.084	0.108
-380.931	680.037	-0.010	-0.027
-379.917	16.309	0.167	-0.130
-378.902	-190.926	-0.133	0.001
-377.888	-118.864	-0.221	0.038
-376.873	-69.578	-0.246	0.093
-375.858	-31.631	0.260	-0.145
-374.844	176.500	0.068	0.098
-373.829	-4.187	-0.061	-0.042
-372.815	-200.000	0.065	-0.461
-371.800	205.722	-0.070	-0.108
-370.785	-67.966	-0.355	0.137
-369.771	153.125	0.174	0.236
-368.756	800.000	0.110	0.325
-367.742	-40.239	0.221	-0.114
-366.727	800.000	-0.031	0.097
-365.712	-23.369	0.169	-0.100
-364.698	-93.702	0.286	0.078
-363.683	800.000	-0.125	0.410
-362.669	499.341	0.059	-0.134
-361.654	-97.067	0.270	-0.070
-360.639	-200.000	-0.023	0.211
-359.625	-1.581	-0.207	-0.144
-358.610	85.778	0.060	0.065
-357.596	576.075	0.071	0.171
-356.581	-86.808	0.244	-0.074
-355.566	-39.091	-0.293	0.152
-354.552	98.884	-0.085	0.097
-353.537	-196.763	-0.061	0.000
-352.523	-80.896	-0.156	0.051
-351.508	47.172	-0.173	0.159
-350.493	401.552	-0.028	-0.059
-349.479	-60.292	-0.090	-0.038
-348.464	800.000	0.046	0.168
-347.450	465.648	0.124	-0.274
-346.435	-42.781	-0.283	-0.142
-345.420	449.221	-0.021	-0.045
-344.406	-82.977	0.336	-0.107
-343.391	369.556	-0.101	0.202
-342.377	-42.348	0.114	0.057
-341.362	-108.727	0.195	-0.041
-340.348	-121.665	-0.292	-0.048
-339.333	-127.922	0.115	-0.016
-338.318	-4.284	0.210	-0.143
-337.304	-28.916	0.272	-0.155
-336.289	-133.851	-0.314	0.039
-335.275	-200.000	-0.008	-0.053
-334.260	-103.175	-0.276	0.064
-333.245	-200.000	-0.009	-0.088
-332.231	-14.756	-0.263	-0.167
-331.216	-200.000	-0.019	-0.296
-330.202	100.275	-0.210	-0.240
-329.187	715.725	-0.038	0.099
-328.172	-200.000	-0.018	-0.213
-327.158	-200.000	-0.012	0.278
-326.143	-27.153	0.204	0.117
-325.129	234.372	-0.054	0.088
-324.114	-190.957	0.125	-0.001
-323.099	8.486	0.139	0.104
-322.085	215.316	0.050	0.078
-321.070	-200.000	0.014	-0.079
-320.056	-23.162	-0.115	-0.068
-319.041	-0.042	-0.119	0.084
-318.026	-59.662	0.322	0.136
-317.012	-181.877	0.333	-0.006
-315.997	208.529	-0.196	0.303
-314.983	-98.195	0.278	0.070
-313.968	36.399	-0.292	0.254
-312.953	-114.155	0.467	0.089
-311.939	200.963	0.075	-0.114
-310.924	-38.078	-0.430	-0.225
-309.910	-129.220	0.129	-0.018
-308.895	606.451	0.049	-0.120
-307.880	-29.010	0.131	-0.074
-306.866	21.135	-0.137	-0.110
-305.851	76.596	-0.180	0.188
-304.837	261.404	-0.106	0.181
-303.822	19.612	0.326	-0.259
-302.807	-176.551	-0.457	-0.012
-301.793	474.787	-0.036	-0.079
-300.778	290.583	0.150	0.269
-299.764	2.880	0.117	-0.084
-298.749	-151.231	0.200	-0.015
-297.735	127.624	-0.206	0.259
-296.720	-200.000	0.037	-0.210
-295.705	-9.004	-0.065	-0.043
-294.691	800.000	-0.014	-0.045
-293.676	209.098	-0.054	0.083
-292.662	522.804	-0.117	0.271
-291.647	233.671	0.177	-0.288
-290.632	-116.042	-0.386	0.071
-289.618	-164.801	-0.152	0.007
-288.603	183.213	-0.175	-0.254
-287.589	800.000	-0.103	0.287
-286.574	800.000	-0.062	0.238
-285.559	-155.846	0.333	0.021
-284.545	-200.000	-0.030	0.231
-283.530	18.270	0.192	0.151
-282.516	-94.090	-0.365	0.099
-281.501	31.085	0.142	-0.120
-280.486	-142.839	-0.218	0.021
-279.472	-65.767	0.258	-0.102
-278.457	658.543	0.072	-0.182
-277.443	329.963	0.140	-0.265
-276.428	800.000	-0.030	-0.085
-275.413	-200.000	0.030	-0.213
-274.399	210.120	0.062	0.096
-273.384	-56.836	0.374	0.163
-272.370	-200.000	0.019	-0.207
-271.355	-200.000	0.023	-0.133
-270.340	271.346	-0.118	0.204
-269.326	-61.336	0.064	0.026
-268.311	-41.456	-0.060	0.031
-267.297	449.636	0.090	-0.196
-266.282	56.881	-0.162	0.156
-265.267	-145.362	-0.168	-0.015
-264.253	800.000	-0.010	0.029
-263.238	-200.000	0.040	0.244
-262.224	-53.351	0.180	-0.081
-261.209	-11.138	-0.171	0.111
-260.195	77.913	0.231	-0.242
-259.180	21.845	-0.200	-0.161
-258.165	-40.987	-0.121	0.061
-257.151	-23.411	0.151	-0.089
-256.136	-45.919	-0.122	-0.059
-255.122	-153.003	-0.281	0.019
-254.107	796.541	-0.051	-0.138
-253.092	-99.411	0.327	-0.081
-252.078	-200.000	-0.025	0.156
-251.063	-134.408	-0.157	-0.019
-250.049	41.684	0.136	-0.122
-249.034	-65.562	0.167	-0.066
-248.019	306.888	-0.077	-0.142
-247.005	225.257	0.091	-0.144
-245.990	15.464	-0.316	-0.244
-244.976	-200.000	0.055	-0.303
-243.961	-0.125	-0.211	-0.148
-242.946	470.401	0.083	0.183
-241.932	-93.970	0.110	-0.030
-240.917	-3.513	0.156	0.107
-239.903	93.565	-0.084	0.094
-238.888	-38.879	-0.216	-0.112
-237.873	722.626	-0.033	-0.085
-236.859	800.000	-0.018	0.076
-235.844	-33.351	0.195	-0.106
-234.830	800.000	0.120	0.470
-233.815	-200.000	-0.015	-0.179
-232.800	99.125	0.243	-0.277
-231.786	91.331	0.287	-0.317
-230.771	137.653	-0.185	0.238
-229.757	21.546	0.153	-0.123
-228.742	-200.000	0.009	0.120
-227.727	-36.541	0.215	0.114
-226.713	279.742	-0.048	-0.084
-225.698	124.494	-0.177	-0.219
-224.684	-168.570	-0.235	0.009
-223.669	-3.236	0.155	0.106
-222.655	144.738	-0.200	-0.263
-221.640	544.455	0.134	-0.315
-220.625	-143.613	-0.071	-0.007
-219.611	54.287	0.084	-0.079
-218.596	-124.206	-0.051	0.008
-217.582	-75.778	-0.373	-0.130
-216.567	470.493	0.049	-0.109
-215.552	84.590	0.153	-0.165
-214.538	358.921	0.214	0.420
-213.523	-133.925	-0.199	0.024
-212.509	-141.200	-0.176	0.018
-211.494	-30.886	-0.143	-0.079
-210.479	4.916	0.109	-0.079
-209.465	-162.611	-0.148	-0.007
-208.450	-100.217	0.204	-0.050
-207.436	-132.249	-0.049	0.006
-206.421	21.231	0.082	0.065
-205.406	119.596	-0.281	-0.342
-204.392	-200.000	0.068	-0.339
-203.377	-163.517	-0.279	0.013
-202.363	-116.415	-0.190	0.034
-201.348	27.019	0.199	0.164
-200.333	748.577	-0.186	-0.493
-199.319	-134.236	0.244	0.029
-198.304	5.425	0.107	0.077
-197.290	48.732	0.168	0.154
-196.275	-125.405	0.108	-0.016
-195.260	5.723	0.078	0.057
-194.246	-48.055	-0.179	-0.085
-193.231	586.069	0.098	0.237
-192.217	-91.642	-0.266	0.074
-191.202	-200.000	0.041	0.381
-190.187	602.738	-0.137	0.335
-189.173	270.290	0.037	-0.063
-188.158	-200.000	0.037	0.200
-187.144	20.875	0.104	0.083
-186.129	800.000	0.070	-0.218
-185.114	-200.000	0.000	0.026
-184.100	193.604	0.152	-0.226
-183.085	-200.000	-0.091	0.404
-182.071	119.557	0.175	-0.213
-181.056	71.742	0.153	0.156
-180.042	-112.644	-0.155	-0.030
-179.027	800.000	0.062	-0.234
-178.012	-64.070	0.099	0.040
-176.998	-18.496	0.182	-0.112
-175.983	-200.000	0.007	-0.063
-174.969	392.392	0.103	-0.210
-173.954	800.000	0.045	0.174
-172.939	322.509	-0.095	0.178
-171.925	-9.233	0.042	0.027
-170.910	435.667	-0.088	-0.187
-169.896	-119.262	0.171	-0.029
-168.881	297.044	0.086	0.155
-167.866	800.000	0.057	-0.158
-166.852	-72.143	-0.092	-0.033
-165.837	-105.223	-0.394	0.088
-164.823	180.191	0.158	0.228
-163.808	169.298	-0.059	-0.083
-162.793	654.505	0.022	-0.057
-161.779	356.683	-0.123	0.241
-160.764	570.865	0.094	0.224
-159.750	97.822	-0.051	-0.058
-158.735	23.654	0.133	0.108
-157.720	-156.332	0.213	0.013
-156.706	-200.000	-0.033	0.214
-155.691	516.085	-0.124	0.284
-154.677	166.286	0.112	-0.155
-153.662	64.090	0.130	0.129
-152.647	-58.686	-0.160	0.068
-151.633	-200.000	0.030	0.270
-150.618	-200.000	-0.012	0.122
-149.604	244.547	0.109	-0.179
-148.589	328.113	0.032	-0.061
-147.574	800.000	-0.088	0.276
-146.560	125.076	-0.300	-0.370
-145.545	122.250	0.078	-0.095
-144.531	-200.000	0.038	-0.253
-143.516	-87.963	0.130	0.038
-142.502	154.642	0.173	-0.233
-141.487	-200.000	-0.019	0.431
-140.472	-112.562	0.150	-0.029
-139.458	534.987	-0.125	-0.290
-138.443	800.000	0.014	0.041
-137.429	-200.000	0.042	-0.324
-136.414	-31.510	0.246	-0.136
-135.399	-200.000	-0.006	-0.068
-134.385	-200.000	-0.018	0.142
-133.370	245.650	-0.128	0.212
-132.356	-200.000	0.012	0.188
-131.341	-200.000	0.005	0.417
-130.326	81.420	-0.043	0.045
-129.312	46.301	0.091	-0.083
-128.297	11.985	0.189	0.143
-127.283	37.395	0.040	-0.035
-126.268	99.980	0.159	-0.181
-125.253	-117.419	-0.154	-0.027
-124.239	26.574	0.304	0.249
-123.224	-80.052	-0.274	-0.090
-122.210	-35.601	-0.112	0.060
-121.195	-200.000	0.025	0.240
