DTS Sentinel unit serial number:	SN413079Multiplexer serial number:	ORYXHardware model number:	OX4-SRSoftware version number:	ORYX F/W v4.00 Oryx Data Collector v3.7.2.0data status	okinstallation	princeton_trtdifferential loss correction	single-endedforward channel	channel 2reverse channel	N/Adate	2019/09/15time	13:23:34forward acquisition time	60.00reverse acquisition time	0.00gamma	496.2192k internal	0.2307k external	0.2307temperature offset calibration	0.9995default loss term (dB/km)	0.3790temperature slope calibration	1.0000multiplexer offset coefficient	1.0000multiplexer slope coefficient	1.0000fibre end	0.00T internal ref (°C)	37.37T ext. ref 1 (°C)	4.92T ext. ref 2 (°C)	34.21length (m)	temperature (°C)	Stokes	anti-Stokes-747.200	24.301	0.176	0.148
-746.185	-33.632	-0.255	0.143
-745.171	-64.438	-0.127	0.053
-744.156	99.844	0.190	0.224
-743.142	-200.000	0.055	0.313
-742.127	36.714	-0.387	0.348
-741.112	-111.957	0.225	-0.046
-740.098	-97.719	-0.313	-0.083
-739.083	-145.083	0.225	0.021
-738.069	350.553	-0.276	0.554
-737.054	-85.606	-0.305	-0.096
-736.039	198.564	0.208	-0.323
-735.025	251.297	0.123	0.212
-734.010	-121.543	-0.585	0.099
-732.996	-200.000	0.015	0.126
-731.981	-140.371	0.237	-0.025
-730.966	-200.000	-0.051	-0.326
-729.952	-1.063	0.133	0.096
-728.937	-162.290	-0.101	-0.005
-727.923	-85.035	0.270	-0.086
-726.908	89.767	-0.114	0.130
-725.894	800.000	-0.097	0.383
-724.879	-144.940	0.170	-0.016
-723.864	-50.779	0.033	0.016
-722.850	-24.309	0.042	-0.025
-721.835	326.593	0.077	-0.150
-720.821	121.573	-0.106	0.134
-719.806	10.562	0.187	-0.145
-718.791	-162.172	0.101	-0.005
-717.777	536.903	0.007	-0.016
-716.762	-2.747	-0.132	-0.094
-715.748	-35.991	-0.062	0.034
-714.733	-120.228	-0.165	-0.029
-713.718	-55.733	-0.286	0.130
-712.704	537.408	-0.043	0.104
-711.689	-74.405	0.396	-0.145
-710.675	555.016	-0.074	-0.180
-709.660	-66.617	-0.261	0.105
-708.645	-64.798	0.176	-0.072
-707.631	-41.362	0.216	0.113
-706.616	-200.000	-0.020	-0.100
-705.602	-200.000	-0.001	0.218
-704.587	53.929	-0.062	0.061
-703.572	364.365	-0.096	0.197
-702.558	292.855	0.228	-0.422
-701.543	-200.000	0.007	0.124
-700.529	-11.041	-0.090	-0.060
-699.514	133.118	0.064	-0.084
-698.499	-136.138	-0.124	0.015
-697.485	-200.000	0.022	0.393
-696.470	54.758	0.195	0.191
-695.456	-200.000	-0.007	0.229
-694.441	28.875	0.247	-0.212
-693.426	-113.919	0.188	-0.037
-692.412	-117.820	0.553	0.101
-691.397	62.792	-0.140	-0.142
-690.383	-6.058	-0.318	-0.220
-689.368	-90.316	0.228	-0.067
-688.354	-113.864	-0.210	-0.041
-687.339	-76.668	0.152	-0.054
-686.324	-2.355	-0.143	-0.102
-685.310	-115.961	-0.317	-0.060
-684.295	-141.943	0.057	-0.006
-683.281	800.000	0.124	0.374
-682.266	-200.000	-0.002	-0.122
-681.251	-110.862	0.222	-0.046
-680.237	-15.050	0.140	-0.091
-679.222	559.505	0.044	0.108
-678.208	-200.000	-0.029	-0.441
-677.193	-168.592	0.260	0.010
-676.178	623.162	-0.013	-0.034
-675.164	-96.308	-0.111	0.030
-674.149	-148.971	0.068	-0.006
-673.135	66.237	0.286	0.294
-672.120	-155.575	-0.201	0.013
-671.105	-200.000	-0.041	-0.320
-670.091	31.486	0.079	0.069
-669.076	-33.232	-0.240	-0.135
-668.062	47.549	0.234	-0.221
-667.047	313.339	-0.156	-0.297
-666.032	-200.000	0.005	0.225
-665.018	-39.096	0.218	-0.116
-664.003	-122.169	-0.187	-0.031
-662.989	-200.000	0.026	0.228
-661.974	565.347	-0.007	-0.018
-660.959	-200.000	0.043	-0.319
-659.945	-101.014	0.056	0.014
-658.930	745.279	0.031	0.086
-657.916	-89.319	-0.166	0.050
-656.901	-179.231	0.044	0.001
-655.886	-81.784	0.108	-0.036
-654.872	27.334	0.193	-0.164
-653.857	-130.390	-0.104	-0.014
-652.843	-123.212	0.156	-0.025
-651.828	78.179	-0.102	-0.111
-650.814	-56.677	-0.338	0.152
-649.799	-8.795	-0.055	0.037
-648.784	18.648	0.193	0.156
-647.770	78.013	-0.162	-0.175
-646.755	-49.011	-0.192	0.093
-645.741	-200.000	-0.044	0.204
-644.726	-97.148	0.250	0.066
-643.711	-13.674	-0.234	0.154
-642.697	147.140	0.248	0.338
-641.682	-200.000	-0.019	-0.178
-640.668	-127.875	-0.191	-0.028
-639.653	-79.028	0.225	-0.078
-638.638	-115.073	0.057	0.011
-637.624	411.910	-0.025	0.054
-636.609	175.208	-0.048	0.071
-635.595	311.750	0.017	-0.032
-634.580	249.015	0.113	-0.194
-633.565	-89.575	-0.305	-0.091
-632.551	6.012	0.208	0.156
-631.536	157.650	0.111	0.156
-630.522	-18.534	-0.058	0.037
-629.507	76.773	0.056	0.060
-628.492	123.860	-0.100	-0.127
-627.478	-69.453	0.091	0.035
-626.463	-142.718	0.118	-0.012
-625.449	-56.637	0.162	0.073
-624.434	279.364	-0.082	-0.148
-623.419	800.000	0.079	-0.329
-622.405	204.601	-0.167	-0.262
-621.390	-128.815	-0.119	-0.017
-620.376	-157.296	0.346	0.021
-619.361	267.964	-0.173	0.307
-618.346	-84.806	-0.019	0.006
-617.332	451.496	-0.054	0.122
-616.317	166.839	-0.191	-0.274
-615.303	-200.000	0.006	-0.213
-614.288	-153.910	-0.172	-0.012
-613.273	-96.039	-0.107	0.029
-612.259	800.000	0.096	0.273
-611.244	792.272	-0.106	-0.296
-610.230	-155.894	-0.220	-0.014
-609.215	-60.209	0.253	-0.109
-608.201	629.089	-0.133	-0.341
-607.186	26.535	-0.306	0.259
-606.171	315.865	0.061	0.116
-605.157	377.276	-0.139	0.287
-604.142	48.908	0.303	0.288
-603.128	82.436	0.115	-0.127
-602.113	-200.000	-0.000	-0.128
-601.098	196.692	-0.071	0.109
-600.084	800.000	-0.051	0.167
-599.069	-45.872	-0.169	0.084
-598.055	319.421	0.042	0.081
-597.040	191.190	0.055	0.084
-596.025	153.182	0.156	0.216
-595.011	47.103	0.285	-0.269
-593.996	800.000	0.047	0.162
-592.982	690.277	0.107	0.282
-591.967	51.316	-0.157	-0.151
-590.952	24.882	-0.138	-0.116
-589.938	-200.000	0.024	-0.194
-588.923	10.980	-0.298	-0.230
-587.909	-105.481	0.265	-0.061
-586.894	394.357	0.052	0.110
-585.879	-200.000	0.011	0.206
-584.865	800.000	0.063	-0.248
-583.850	-200.000	-0.017	0.534
-582.836	-49.931	-0.059	-0.028
-581.821	149.740	-0.086	0.118
-580.806	128.656	-0.173	-0.222
-579.792	66.387	-0.120	0.124
-578.777	70.181	-0.181	-0.189
-577.763	-88.695	0.260	0.078
-576.748	73.241	-0.036	0.038
-575.733	-92.391	0.247	-0.070
-574.719	-200.000	0.057	-0.274
-573.704	-69.662	0.239	0.092
-572.690	-119.166	-0.097	-0.017
-571.675	-187.525	-0.073	0.001
-570.661	669.999	-0.129	0.337
-569.646	-90.346	0.407	-0.119
-568.631	143.942	0.095	-0.128
-567.617	117.365	0.153	-0.190
-566.602	-95.091	-0.118	0.032
-565.588	-200.000	-0.009	0.096
-564.573	-0.528	0.083	0.059
-563.558	317.532	0.135	-0.258
-562.544	-200.000	-0.076	0.357
-561.529	20.040	-0.210	0.171
-560.515	-152.018	-0.120	-0.009
-559.500	335.693	0.190	0.372
-558.485	800.000	0.121	-0.352
-557.471	-4.187	-0.216	0.151
-556.456	-200.000	-0.001	0.100
-555.442	-82.140	-0.205	0.068
-554.427	96.074	-0.229	-0.264
-553.412	261.336	-0.019	-0.032
-552.398	301.435	-0.072	0.134
-551.383	-99.759	0.188	-0.048
-550.369	153.031	-0.019	0.026
-549.354	4.548	-0.112	0.083
-548.339	-42.672	-0.018	0.009
-547.325	-34.738	0.249	-0.137
-546.310	-13.707	0.302	-0.197
-545.296	-120.407	-0.128	0.022
-544.281	82.256	-0.129	-0.141
-543.266	126.200	0.050	-0.063
-542.252	15.366	-0.101	0.080
-541.237	-17.473	0.144	-0.092
-540.223	800.000	0.077	0.284
-539.208	-200.000	-0.037	-0.271
-538.193	-111.943	0.140	-0.028
-537.179	172.291	0.053	0.077
-536.164	-140.436	0.146	0.015
-535.150	-200.000	0.030	-0.143
-534.135	-200.000	-0.007	0.249
-533.121	139.994	-0.037	0.049
-532.106	800.000	-0.059	-0.248
-531.091	-79.863	-0.078	-0.026
-530.077	65.791	-0.193	0.198
-529.062	450.929	-0.049	-0.110
-528.048	234.989	-0.205	-0.342
-527.033	33.013	0.242	0.212
-526.018	606.745	-0.170	-0.429
-525.004	24.358	-0.115	-0.096
-523.989	268.533	0.042	0.074
-522.975	-63.266	-0.225	0.093
-521.960	-34.685	-0.163	0.090
-520.945	-200.000	0.052	0.234
-519.931	40.631	0.131	-0.119
-518.916	-101.525	-0.302	0.074
-517.902	-9.287	-0.164	-0.110
-516.887	-62.154	-0.223	-0.094
-515.872	800.000	0.085	-0.346
-514.858	800.000	0.108	-0.350
-513.843	17.594	0.176	-0.141
-512.829	-200.000	0.061	0.566
-511.814	800.000	-0.121	-0.347
-510.799	-4.974	-0.312	-0.217
-509.785	782.124	0.102	-0.280
-508.770	-5.793	0.099	-0.068
-507.756	-8.191	0.215	-0.146
-506.741	624.161	0.079	-0.201
-505.726	-20.447	0.046	-0.029
-504.712	-153.120	0.223	-0.016
-503.697	399.438	-0.124	-0.262
-502.683	-200.000	-0.057	-0.364
-501.668	-127.071	-0.276	0.041
-500.653	491.937	-0.193	0.445
-499.639	-115.557	0.275	-0.052
-498.624	-45.864	0.214	0.107
-497.610	800.000	-0.087	0.257
-496.595	103.372	-0.059	0.070
-495.581	-7.647	-0.324	0.221
-494.566	-109.895	0.189	0.040
-493.551	-200.000	-0.008	-0.192
-492.537	-200.000	0.049	-0.429
-491.522	-79.828	0.241	0.082
-490.508	800.000	-0.023	-0.086
-489.493	151.804	0.072	0.099
-488.478	-200.000	-0.001	-0.108
-487.464	-86.638	0.081	-0.025
-486.449	-200.000	0.016	-0.082
-485.435	-117.757	-0.254	-0.046
-484.420	183.853	-0.084	-0.125
-483.405	-200.000	-0.028	-0.193
-482.391	-57.910	0.318	-0.140
-481.376	47.742	-0.257	-0.242
-480.362	212.238	-0.107	0.170
-479.347	85.500	0.159	-0.176
-478.332	-200.000	0.023	0.259
-477.318	-114.008	0.222	0.043
-476.303	222.920	-0.236	-0.383
-475.289	-200.000	0.008	0.154
-474.274	-82.735	-0.177	-0.058
-473.259	208.359	-0.082	-0.129
-472.245	192.844	-0.081	-0.123
-471.230	235.191	-0.074	0.123
-470.216	-163.558	-0.278	-0.013
-469.201	-100.795	0.049	0.012
-468.186	108.388	-0.357	0.428
-467.172	-198.050	-0.109	0.001
-466.157	451.279	0.055	-0.122
-465.143	-50.167	-0.065	0.031
-464.128	-173.548	-0.164	-0.005
-463.113	26.089	-0.208	0.175
-462.099	10.233	-0.169	-0.129
-461.084	459.509	0.083	-0.186
-460.070	739.820	0.107	-0.288
-459.055	23.504	0.274	-0.227
-458.040	190.436	0.021	0.031
-457.026	309.333	-0.088	-0.165
-456.011	800.000	-0.055	-0.186
-454.997	-146.622	0.117	-0.010
-453.982	349.438	-0.146	0.290
-452.968	-92.673	0.057	-0.016
-451.953	-99.051	0.250	-0.064
-450.938	-200.000	-0.004	-0.265
-449.924	800.000	-0.057	0.217
-448.909	-7.689	-0.035	-0.024
-447.895	275.388	0.277	0.494
-446.880	547.716	-0.087	0.209
-445.865	-2.000	0.212	0.150
-444.851	-200.000	0.035	0.238
-443.836	-137.703	0.209	-0.024
-442.822	-147.795	0.333	-0.028
-441.807	254.616	-0.161	-0.277
-440.792	-200.000	0.034	-0.173
-439.778	-126.125	-0.069	-0.010
-438.763	45.095	0.163	0.151
-437.749	75.851	-0.125	-0.132
-436.734	-200.000	0.031	0.343
-435.719	-18.051	-0.179	0.113
-434.705	316.729	-0.164	0.312
-433.690	800.000	0.078	0.253
-432.676	217.206	-0.113	0.181
-431.661	-141.962	0.029	0.003
-430.646	11.843	-0.256	0.198
-429.632	48.113	0.133	0.125
-428.617	119.060	-0.084	0.104
-427.603	2.453	-0.350	0.254
-426.588	-22.135	-0.193	0.118
-425.573	-200.000	-0.015	-0.134
-424.559	70.336	0.040	-0.041
-423.544	425.626	0.073	-0.158
-422.530	-200.000	0.074	-0.378
-421.515	-143.211	-0.106	-0.010
-420.500	-51.708	-0.167	-0.078
-419.486	149.192	-0.167	0.227
-418.471	22.285	-0.276	0.226
-417.457	2.481	-0.028	-0.020
-416.442	-62.043	-0.186	-0.078
-415.428	-119.228	0.422	-0.074
-414.413	393.762	-0.081	-0.170
-413.398	112.412	0.066	-0.080
-412.384	-39.907	-0.289	-0.152
-411.369	-24.853	-0.474	-0.283
-410.355	-79.021	0.529	0.181
-409.340	238.747	0.164	0.274
-408.325	-189.221	-0.481	-0.006
-407.311	-200.000	-0.031	0.196
-406.296	800.000	0.046	-0.130
-405.282	553.131	-0.010	0.025
-404.267	-79.196	0.418	-0.142
-403.252	124.496	0.015	-0.019
-402.238	-126.307	-0.237	-0.036
-401.223	800.000	0.036	-0.141
-400.209	-110.941	-0.041	-0.008
-399.194	213.416	-0.046	0.072
-398.179	-5.533	-0.158	0.108
-397.165	-45.891	0.337	0.167
-396.150	476.446	-0.021	0.048
-395.136	-115.215	0.093	0.018
-394.121	-52.894	0.076	0.035
-393.106	60.511	-0.170	-0.169
-392.092	-200.000	0.047	-0.212
-391.077	800.000	0.010	0.043
-390.063	119.789	0.054	0.067
-389.048	-25.389	-0.152	0.090
-388.033	-39.399	0.120	0.063
-387.019	661.675	0.052	-0.135
-386.004	-61.512	0.085	0.036
-384.990	369.562	-0.019	0.038
-383.975	-200.000	-0.038	0.497
-382.960	-107.705	-0.412	0.090
-381.946	23.327	-0.150	-0.123
-380.931	-79.964	0.291	0.098
-379.917	-7.929	0.389	-0.263
-378.902	-83.655	-0.147	-0.047
-377.888	-99.267	0.129	0.033
-376.873	-98.780	-0.398	-0.102
-375.858	800.000	-0.055	0.209
-374.844	-200.000	-0.019	-0.087
-373.829	-146.420	-0.106	0.009
-372.815	247.435	-0.046	0.077
-371.800	-200.000	-0.005	-0.311
-370.785	283.370	0.130	-0.234
-369.771	87.061	-0.127	-0.141
-368.756	225.746	0.104	0.169
-367.742	-62.547	-0.132	0.055
-366.727	123.495	0.123	0.154
-365.712	394.584	-0.125	-0.262
-364.698	257.811	0.154	-0.265
-363.683	-61.409	-0.210	0.089
-362.669	-15.779	-0.066	-0.042
-361.654	-75.670	-0.223	-0.079
-360.639	-200.000	-0.011	0.195
-359.625	800.000	-0.019	-0.084
-358.610	114.590	-0.076	-0.093
-357.596	5.615	0.426	-0.315
-356.581	499.031	0.151	-0.349
-355.566	20.656	0.160	0.130
-354.552	-200.000	-0.020	-0.381
-353.537	-8.494	0.156	0.105
-352.523	-51.441	-0.059	0.028
-351.508	323.369	0.098	-0.187
-350.493	-200.000	-0.010	-0.235
-349.479	183.464	0.271	0.402
-348.464	-141.641	0.080	0.008
-347.450	182.221	0.039	0.057
-346.435	26.876	-0.251	-0.210
-345.420	-57.535	0.099	-0.044
-344.406	-200.000	0.074	-0.000
-343.391	56.399	-0.062	0.060
-342.377	-84.663	0.163	0.051
-341.362	129.913	0.314	0.402
-340.348	-200.000	0.017	0.297
-339.333	32.054	-0.170	-0.146
-338.318	-169.344	0.236	0.009
-337.304	-76.653	0.119	-0.042
-336.289	-77.472	0.095	0.033
-335.275	-25.218	0.055	0.033
-334.260	-89.288	0.332	-0.098
-333.245	800.000	-0.028	-0.111
-332.231	320.588	-0.219	0.417
-331.216	-200.000	-0.037	0.225
-330.202	592.314	0.092	-0.228
-329.187	800.000	0.062	0.194
-328.172	-84.656	0.216	0.068
-327.158	36.830	0.178	-0.158
-326.143	703.986	-0.081	-0.212
-325.129	23.286	-0.112	-0.092
-324.114	800.000	-0.074	-0.265
-323.099	-85.400	-0.068	0.021
-322.085	174.897	-0.188	0.272
-321.070	733.192	-0.107	0.288
-320.056	-200.000	0.012	0.097
-319.041	103.917	0.161	-0.189
-318.026	-10.131	0.067	0.045
-317.012	105.697	0.101	0.120
-315.997	-141.376	0.106	0.011
-314.983	360.933	0.139	0.279
-313.968	186.120	0.056	-0.083
-312.953	-200.000	-0.055	0.493
-311.939	-200.000	0.012	-0.095
-310.924	522.278	-0.039	-0.092
-309.910	200.499	-0.072	0.110
-308.895	-169.032	-0.049	0.002
-307.880	-62.048	-0.386	0.161
-306.866	124.930	0.122	-0.153
-305.851	171.452	0.161	-0.231
-304.837	-103.515	0.134	-0.031
-303.822	-95.242	-0.153	0.041
-302.807	-11.144	0.112	-0.074
-301.793	-132.796	0.236	-0.030
-300.778	427.041	-0.045	-0.098
-299.764	-200.000	-0.035	-0.177
-298.749	-200.000	0.053	0.246
-297.735	224.524	0.112	-0.181
-296.720	-113.914	-0.292	-0.057
-295.705	-49.419	0.030	-0.014
-294.691	-88.449	0.116	0.035
-293.676	-31.666	0.332	-0.186
-292.662	-200.000	-0.007	-0.295
-291.647	249.296	-0.032	-0.054
-290.632	137.687	-0.150	-0.196
-289.618	-200.000	-0.004	0.221
-288.603	-200.000	0.001	-0.008
-287.589	-33.537	-0.188	-0.104
-286.574	-141.698	0.320	-0.032
-285.559	-200.000	-0.012	-0.088
-284.545	112.713	0.085	0.103
-283.530	-128.922	-0.159	-0.022
-282.516	431.014	-0.105	0.227
-281.501	355.437	0.126	-0.251
-280.486	231.736	-0.021	-0.035
-279.472	-74.813	-0.373	-0.134
-278.457	6.772	0.283	-0.210
-277.443	-86.954	-0.238	-0.073
-276.428	-48.194	0.005	-0.002
-275.413	181.224	-0.178	-0.262
-274.399	78.154	0.080	-0.085
-273.384	116.454	0.097	-0.119
-272.370	-200.000	0.083	0.549
-271.355	800.000	0.043	0.182
-270.340	148.072	-0.151	0.204
-269.326	-1.301	-0.234	-0.165
-268.311	-60.622	0.218	-0.092
-267.297	-89.546	-0.170	0.050
-266.282	120.294	-0.146	-0.181
-265.267	-7.227	-0.226	0.153
-264.253	-166.289	-0.055	-0.002
-263.238	73.521	0.149	-0.156
-262.224	-16.064	-0.382	0.243
-261.209	-180.061	0.250	0.005
-260.195	800.000	-0.052	0.158
-259.180	-86.931	-0.282	0.086
-258.165	-113.363	-0.034	0.007
-257.151	-200.000	0.018	-0.111
-256.136	54.923	-0.157	-0.152
-255.122	328.394	0.040	0.076
-254.107	-200.000	-0.049	-0.360
-253.092	-85.018	-0.333	-0.104
-252.078	22.749	0.189	-0.154
-251.063	-200.000	0.023	-0.104
-250.049	800.000	-0.061	0.186
-249.034	-11.729	0.157	0.103
-248.019	148.636	-0.162	0.218
-247.005	-200.000	-0.009	0.108
-245.990	311.808	0.135	0.253
-244.976	-25.109	0.062	-0.036
-243.961	-116.190	0.224	-0.041
-242.946	-118.641	0.176	0.031
-241.932	299.190	-0.115	0.210
-240.917	800.000	0.094	-0.365
-239.903	800.000	0.069	-0.203
-238.888	-6.734	-0.228	0.155
-237.873	9.298	0.093	-0.070
-236.859	-171.512	-0.078	-0.003
-235.844	-14.913	-0.081	0.052
-234.830	800.000	-0.086	-0.272
-233.815	800.000	-0.075	-0.249
-232.800	-70.536	-0.148	-0.056
-231.786	85.276	0.136	-0.149
-230.771	-59.347	-0.141	-0.060
-229.757	-34.840	0.217	0.118
-228.742	-200.000	0.008	0.158
-227.727	-182.874	0.053	0.001
-226.713	531.994	-0.043	0.102
-225.698	-59.976	-0.184	0.078
-224.684	-38.146	0.174	0.092
-223.669	-200.000	0.048	0.327
-222.655	264.645	-0.103	0.179
-221.640	88.582	0.083	-0.092
-220.625	-137.287	-0.062	0.007
-219.611	601.622	-0.121	0.300
-218.596	7.963	-0.107	0.080
-217.582	-29.221	-0.015	0.009
-216.567	-200.000	0.008	-0.142
-215.552	-97.045	0.341	-0.089
-214.538	615.950	0.039	0.099
-213.523	-143.909	-0.181	0.017
-212.509	800.000	0.009	0.032
-211.494	246.152	0.224	0.375
-210.479	792.870	0.056	0.154
-209.465	57.322	0.127	-0.124
-208.450	52.153	0.206	0.195
-207.436	-34.353	-0.104	-0.057
-206.421	-96.037	0.028	-0.007
-205.406	136.803	0.100	-0.130
-204.392	-50.208	0.322	-0.152
-203.377	-200.000	0.003	0.125
-202.363	98.851	0.219	0.252
-201.348	318.331	-0.075	0.140
-200.333	-200.000	0.019	0.263
-199.319	-115.279	-0.167	-0.031
-198.304	-99.913	0.192	-0.048
-197.290	126.689	0.159	0.201
-196.275	215.248	-0.046	0.072
-195.260	-53.299	0.242	-0.111
-194.246	800.000	0.055	-0.214
-193.231	-31.394	0.377	0.211
-192.217	-200.000	-0.007	0.255
-191.202	340.962	0.078	0.152
-190.187	276.876	-0.173	0.307
-189.173	31.749	0.249	-0.213
-188.158	206.076	-0.169	-0.262
-187.144	728.400	0.054	0.144
-186.129	-129.587	-0.283	0.039
-185.114	-200.000	-0.052	-0.280
-184.100	-200.000	0.005	0.134
-183.085	-177.707	0.096	-0.002
-182.071	352.559	-0.119	0.235
-181.056	-180.343	-0.131	0.003
-180.042	800.000	0.106	-0.310
-179.027	175.541	-0.059	-0.086
-178.012	183.176	-0.170	0.249
-176.998	4.308	0.271	-0.198
-175.983	-5.291	0.389	0.266
-174.969	-200.000	0.028	0.254
-173.954	800.000	-0.042	-0.172
-172.939	-134.207	0.078	-0.010
-171.925	19.207	-0.221	0.176
-170.910	14.901	-0.037	0.029
-169.896	110.287	0.036	-0.043
-168.881	-90.589	0.224	0.064
-167.866	-9.179	0.060	-0.040
-166.852	-35.752	-0.182	0.098
-165.837	-148.250	0.319	-0.026
-164.823	-102.491	-0.272	0.065
-163.808	-56.441	0.154	-0.068
-162.793	63.825	-0.018	0.018
-161.779	-200.000	0.028	-0.135
-160.764	-61.926	0.140	-0.058
-159.750	800.000	-0.056	-0.195
-158.735	303.655	0.045	0.083
-157.720	219.024	-0.077	-0.123
-156.706	560.545	-0.058	0.139
-155.691	637.774	0.086	0.218
-154.677	16.972	0.149	-0.117
-153.662	800.000	-0.085	-0.263
-152.647	18.330	-0.221	0.175
-151.633	418.164	-0.027	0.058
-150.618	-110.112	0.250	0.052
-149.604	79.433	0.173	0.184
-148.589	-26.629	0.146	-0.085
-147.574	-136.166	0.184	-0.021
-146.560	-93.657	-0.066	-0.018
-145.545	207.343	0.109	-0.169
-144.531	112.864	-0.256	-0.308
-143.516	130.637	0.074	0.094
-142.502	-162.581	-0.090	-0.004
-141.487	-104.489	-0.061	-0.014
-140.472	-118.377	0.162	-0.029
-139.458	-102.204	0.171	-0.041
-138.443	83.570	-0.151	-0.163
-137.429	-200.000	-0.021	-0.105
-136.414	-162.191	-0.351	-0.017
-135.399	-113.518	-0.145	0.028
-134.385	147.980	-0.041	-0.055
-133.370	-115.139	0.214	0.040
-132.356	-96.334	-0.207	-0.055
-131.341	28.046	-0.261	0.218
-130.326	24.988	0.156	-0.129
-129.312	800.000	-0.020	-0.084
-128.297	-109.490	0.485	-0.102
-127.283	77.080	-0.169	-0.178
-126.268	-29.754	0.176	0.100
-125.253	1.407	0.073	-0.052
-124.239	-200.000	0.018	0.132
-123.224	-73.116	-0.300	0.109
-122.210	-19.640	-0.299	0.184
-121.195	-200.000	0.018	0.208
