DTS Sentinel unit serial number:	SN413079Multiplexer serial number:	ORYXHardware model number:	OX4-SRSoftware version number:	ORYX F/W v4.00 Oryx Data Collector v3.7.2.0data status	okinstallation	princeton_trtdifferential loss correction	single-endedforward channel	channel 2reverse channel	N/Adate	2019/09/13time	00:55:35forward acquisition time	60.00reverse acquisition time	0.00gamma	496.2192k internal	0.2333k external	0.2333temperature offset calibration	1.0159default loss term (dB/km)	0.3790temperature slope calibration	1.0000multiplexer offset coefficient	1.0000multiplexer slope coefficient	1.0000fibre end	0.00T internal ref (°C)	28.11T ext. ref 1 (°C)	3.65T ext. ref 2 (°C)	22.65length (m)	temperature (°C)	Stokes	anti-Stokes-747.200	409.932	-0.186	0.396
-746.185	-36.434	0.268	0.145
-745.171	424.544	-0.037	-0.079
-744.156	602.548	-0.071	-0.179
-743.142	-142.879	0.101	-0.010
-742.127	-89.206	0.053	0.016
-741.112	-47.583	0.356	-0.174
-740.098	-200.000	-0.031	0.177
-739.083	-46.746	0.130	0.064
-738.069	-160.359	0.179	0.010
-737.054	800.000	0.094	-0.351
-736.039	-111.762	-0.296	-0.060
-735.025	-80.266	-0.062	-0.021
-734.010	-114.492	-0.185	0.036
-732.996	-200.000	-0.033	0.203
-731.981	-200.000	-0.002	-0.166
-730.966	-108.068	-0.291	-0.063
-729.952	328.556	-0.067	0.130
-728.937	-159.423	-0.096	0.005
-727.923	-110.677	0.109	0.023
-726.908	243.756	-0.184	-0.310
-725.894	10.529	-0.005	-0.004
-724.879	48.258	0.092	0.086
-723.864	-76.335	-0.116	0.041
-722.850	-139.101	0.112	-0.012
-721.835	-200.000	-0.047	-0.443
-720.821	182.321	-0.186	0.275
-719.806	-89.756	-0.179	0.053
-718.791	119.166	-0.240	-0.298
-717.777	54.719	-0.246	0.238
-716.762	-200.000	-0.033	-0.224
-715.748	800.000	-0.042	-0.165
-714.733	-120.604	-0.100	0.017
-713.718	-200.000	-0.020	0.149
-712.704	98.703	-0.103	0.120
-711.689	-50.008	-0.119	0.057
-710.675	113.060	-0.149	0.182
-709.660	-89.831	-0.138	0.041
-708.645	34.672	-0.173	-0.152
-707.631	800.000	0.077	-0.334
-706.616	-200.000	0.019	-0.356
-705.602	147.672	0.236	-0.319
-704.587	-200.000	-0.028	-0.374
-703.572	-64.781	-0.239	0.097
-702.558	374.226	0.178	0.365
-701.543	800.000	-0.182	-0.545
-700.529	-200.000	0.012	0.172
-699.514	182.278	-0.191	-0.282
-698.499	-95.777	-0.391	0.105
-697.485	75.715	0.197	0.209
-696.470	-116.944	-0.406	-0.074
-695.456	800.000	0.030	-0.083
-694.441	-102.976	-0.170	0.041
-693.426	800.000	0.007	-0.028
-692.412	17.125	-0.121	-0.096
-691.397	314.233	0.043	0.080
-690.383	206.966	0.151	0.236
-689.368	-182.213	0.065	0.001
-688.354	-91.591	-0.182	-0.052
-687.339	84.610	0.075	-0.082
-686.324	-56.603	0.177	-0.079
-685.310	-93.995	-0.083	0.023
-684.295	417.794	0.030	-0.064
-683.281	175.175	-0.151	-0.219
-682.266	-154.089	-0.321	0.022
-681.251	-53.063	-0.172	0.079
-680.237	800.000	0.057	-0.240
-679.222	-200.000	0.002	0.333
-678.208	-140.304	0.174	0.018
-677.193	-41.389	0.128	-0.066
-676.178	47.910	-0.204	-0.191
-675.164	102.960	0.183	-0.215
-674.149	-165.612	0.198	0.009
-673.135	-165.752	0.373	-0.016
-672.120	10.140	-0.265	0.202
-671.105	-200.000	0.000	-0.045
-670.091	140.965	-0.167	0.221
-669.076	-200.000	-0.064	-0.301
-668.062	-200.000	0.005	-0.117
-667.047	-200.000	0.003	0.061
-666.032	-4.409	-0.361	-0.250
-665.018	-200.000	0.043	0.221
-664.003	378.995	-0.130	-0.266
-662.989	8.931	0.309	-0.234
-661.974	-200.000	0.037	0.293
-660.959	349.835	0.114	-0.226
-659.945	232.044	-0.072	0.118
-658.930	-0.409	-0.101	-0.072
-657.916	-200.000	0.051	-0.281
-656.901	-69.557	0.225	-0.086
-655.886	-200.000	-0.012	-0.083
-654.872	-135.068	0.053	-0.006
-653.857	-200.000	0.003	-0.060
-652.843	-69.409	0.109	-0.042
-651.828	-200.000	0.008	-0.095
-650.814	800.000	-0.071	-0.273
-649.799	800.000	0.069	0.271
-648.784	-97.969	-0.214	0.055
-647.770	-22.641	0.196	0.119
-646.755	5.409	-0.176	-0.130
-645.741	120.953	-0.094	-0.117
-644.726	-122.646	0.272	-0.044
-643.711	-200.000	-0.054	-0.304
-642.697	-102.295	0.263	0.063
-641.682	-55.802	-0.160	-0.071
-640.668	-200.000	-0.002	-0.046
-639.653	-79.427	-0.052	-0.017
-638.638	2.292	0.349	-0.252
-637.624	140.082	0.117	0.154
-636.609	34.084	-0.112	0.098
-635.595	78.642	-0.219	-0.235
-634.580	0.919	-0.188	-0.135
-633.565	-98.471	0.241	-0.062
-632.551	144.940	-0.108	-0.144
-631.536	353.022	-0.058	-0.114
-630.522	-17.279	0.096	-0.061
-629.507	-125.273	0.139	-0.021
-628.492	-99.801	0.134	-0.034
-627.478	-109.864	0.096	-0.020
-626.463	-54.042	0.264	-0.120
-625.449	800.000	0.085	-0.327
-624.434	62.799	-0.239	-0.240
-623.419	800.000	-0.103	0.296
-622.405	-200.000	0.021	-0.146
-621.390	-200.000	0.025	-0.345
-620.376	-200.000	0.007	-0.195
-619.361	275.480	0.078	0.138
-618.346	-70.057	-0.254	-0.097
-617.332	800.000	0.052	-0.210
-616.317	270.000	-0.056	-0.099
-615.303	-200.000	-0.001	-0.158
-614.288	-135.069	-0.393	-0.047
-613.273	-200.000	0.019	-0.146
-612.259	-200.000	0.014	0.063
-611.244	-200.000	-0.002	-0.266
-610.230	12.492	-0.016	0.012
-609.215	-200.000	0.019	-0.260
-608.201	55.390	0.022	0.021
-607.186	-183.735	-0.081	0.001
-606.171	596.262	0.053	-0.130
-605.157	-132.865	0.297	0.038
-604.142	65.792	0.167	0.170
-603.128	9.171	0.172	-0.130
-602.113	-47.662	-0.167	-0.081
-601.098	156.258	-0.070	-0.097
-600.084	24.316	-0.139	-0.115
-599.069	23.772	-0.193	0.159
-598.055	-135.905	0.236	0.028
-597.040	-158.836	-0.099	0.006
-596.025	9.356	0.147	-0.111
-595.011	-1.667	0.040	0.028
-593.996	800.000	-0.020	-0.059
-592.982	197.095	0.188	-0.287
-591.967	1.651	-0.035	0.025
-590.952	-200.000	-0.048	0.278
-589.938	666.820	0.134	-0.347
-588.923	50.366	0.105	0.099
-587.909	48.455	-0.131	0.123
-586.894	131.833	-0.060	-0.077
-585.879	-98.539	-0.320	-0.082
-584.865	-8.738	-0.190	-0.127
-583.850	-24.703	0.133	-0.079
-582.836	30.935	-0.124	-0.106
-581.821	524.435	0.026	-0.061
-580.806	-200.000	0.035	0.271
-579.792	-200.000	0.038	0.186
-578.777	-200.000	0.016	0.198
-577.763	-136.572	0.159	0.018
-576.748	483.179	0.089	0.203
-575.733	-200.000	0.015	0.163
-574.719	-71.765	0.501	-0.187
-573.704	252.611	-0.117	0.199
-572.690	-3.171	0.112	-0.078
-571.675	-100.186	0.323	-0.080
-570.661	800.000	-0.145	-0.479
-569.646	-86.640	-0.180	0.055
-568.631	-22.106	0.160	0.097
-567.617	-62.461	0.097	-0.040
-566.602	-200.000	-0.013	-0.177
-565.588	-55.285	-0.297	-0.133
-564.573	-57.581	0.296	0.130
-563.558	-0.557	-0.195	0.138
-562.544	-200.000	-0.038	-0.323
-561.529	384.339	0.120	-0.246
-560.515	-200.000	0.046	0.253
-559.500	148.853	-0.085	0.115
-558.485	800.000	0.013	-0.049
-557.471	-61.816	0.193	-0.081
-556.456	-40.084	0.147	-0.077
-555.442	-200.000	0.021	0.226
-554.427	-13.071	-0.251	0.163
-553.412	800.000	-0.024	0.104
-552.398	495.703	0.108	-0.247
-551.383	-78.182	-0.283	0.097
-550.369	-115.937	0.090	0.017
-549.354	33.443	-0.076	-0.066
-548.339	125.179	-0.084	0.105
-547.325	48.377	-0.327	-0.305
-546.310	102.280	0.285	-0.332
-545.296	-200.000	-0.016	-0.206
-544.281	-83.321	-0.344	0.110
-543.266	-200.000	0.034	0.381
-542.252	427.871	0.067	-0.144
-541.237	-141.083	-0.266	-0.027
-540.223	17.631	0.166	-0.132
-539.208	-89.415	-0.268	-0.079
-538.193	-21.836	0.122	-0.074
-537.179	428.649	0.091	-0.195
-536.164	-195.931	-0.162	-0.001
-535.150	33.182	0.257	-0.222
-534.135	257.551	0.107	0.183
-533.121	-200.000	-0.043	0.239
-532.106	800.000	0.026	-0.079
-531.091	-200.000	0.058	0.388
-530.077	-200.000	-0.031	0.165
-529.062	-155.898	0.295	0.019
-528.048	193.188	0.055	0.083
-527.033	-37.859	0.114	0.061
-526.018	-116.694	0.063	-0.012
-525.004	8.892	-0.156	-0.117
-523.989	-64.194	0.105	0.043
-522.975	440.947	0.103	0.225
-521.960	30.917	0.037	0.031
-520.945	96.445	-0.183	0.209
-519.931	109.373	-0.187	-0.223
-518.916	55.730	-0.211	0.204
-517.902	-132.442	-0.155	0.020
-516.887	-200.000	-0.035	0.406
-515.872	108.274	0.296	-0.352
-514.858	0.001	-0.121	-0.086
-513.843	63.135	-0.163	-0.162
-512.829	492.677	0.033	-0.076
-511.814	124.753	0.077	0.096
-510.799	-109.268	-0.208	-0.044
-509.785	-200.000	0.002	-0.107
-508.770	128.944	-0.226	-0.287
-507.756	258.198	-0.154	0.265
-506.741	800.000	0.086	0.307
-505.726	4.690	-0.083	0.060
-504.712	166.426	-0.317	0.447
-503.697	379.476	0.134	0.274
-502.683	800.000	0.036	0.131
-501.668	800.000	-0.037	-0.145
-500.653	263.871	0.044	-0.077
-499.639	-131.522	0.226	-0.030
-498.624	800.000	-0.020	-0.068
-497.610	-80.214	0.249	-0.083
-496.595	-37.207	0.149	0.079
-495.581	-200.000	0.009	-0.430
-494.566	260.147	0.139	0.239
-493.551	-107.267	-0.183	0.040
-492.537	-50.988	-0.260	0.122
-491.522	-115.492	-0.380	0.071
-490.508	312.283	-0.048	0.090
-489.493	-9.928	-0.268	0.177
-488.478	-153.660	-0.223	0.015
-487.464	-42.745	-0.334	0.169
-486.449	125.065	-0.120	0.151
-485.435	112.832	-0.056	-0.067
-484.420	-110.690	0.217	0.045
-483.405	-145.903	0.121	0.011
-482.391	-119.676	-0.303	0.052
-481.376	-200.000	0.003	0.211
-480.362	800.000	0.012	-0.050
-479.347	-172.738	-0.297	0.009
-478.332	-200.000	-0.007	0.290
-477.318	-55.386	0.285	0.127
-476.303	-35.286	-0.233	-0.126
-475.289	670.529	-0.095	-0.245
-474.274	-121.888	-0.240	0.039
-473.259	657.598	-0.038	-0.096
-472.245	55.270	-0.343	0.330
-471.230	-19.477	-0.303	-0.187
-470.216	-200.000	0.006	0.074
-469.201	553.644	-0.080	-0.192
-468.186	-146.358	0.167	0.015
-467.172	158.770	0.103	0.142
-466.157	-200.000	-0.026	-0.240
-465.143	339.821	-0.033	-0.064
-464.128	95.396	-0.142	-0.161
-463.113	112.047	-0.176	0.212
-462.099	-57.021	0.562	-0.247
-461.084	-200.000	0.033	0.215
-460.070	-200.000	-0.064	-0.293
-459.055	-1.731	0.112	-0.078
-458.040	-62.244	0.259	0.107
-457.026	191.348	0.153	0.230
-456.011	105.387	-0.193	-0.227
-454.997	216.016	-0.039	0.061
-453.982	-7.575	0.400	-0.269
-452.968	-21.081	0.190	0.116
-451.953	-114.248	0.404	0.077
-450.938	-71.935	-0.147	-0.054
-449.924	-200.000	0.038	0.201
-448.909	47.002	-0.330	0.305
-447.895	-50.299	0.421	0.198
-446.880	-159.949	-0.201	-0.011
-445.865	541.828	0.056	0.134
-444.851	-200.000	-0.008	-0.201
-443.836	-108.802	-0.193	0.041
-442.822	-3.106	0.240	-0.166
-441.807	485.489	-0.125	0.282
-440.792	432.330	0.118	0.253
-439.778	197.462	0.201	-0.305
-438.763	11.152	-0.097	0.074
-437.749	-200.000	-0.011	0.210
-436.734	82.554	0.021	-0.023
-435.719	-55.979	-0.331	0.147
-434.705	375.920	-0.118	0.239
-433.690	402.736	0.168	-0.351
-432.676	-125.867	-0.095	0.014
-431.661	-130.536	0.182	-0.024
-430.646	800.000	0.096	0.391
-429.632	113.219	0.049	0.060
-428.617	-200.000	0.029	-0.352
-427.603	90.869	0.088	0.098
-426.588	-76.852	0.215	-0.075
-425.573	-200.000	-0.187	-0.001
-424.559	-100.975	-0.087	-0.021
-423.544	-75.119	-0.097	0.035
-422.530	-175.595	0.183	0.005
-421.515	-143.494	-0.203	-0.019
-420.500	609.453	-0.017	-0.042
-419.486	-23.040	0.337	-0.202
-418.471	-75.567	-0.300	0.106
-417.457	800.000	0.047	-0.132
-416.442	59.888	0.091	0.089
-415.428	-200.000	0.019	-0.311
-414.413	-144.976	0.185	0.017
-413.398	15.330	0.211	-0.164
-412.384	1.904	0.134	-0.096
-411.369	-173.276	-0.097	-0.003
-410.355	36.385	-0.245	0.215
-409.340	656.539	-0.015	0.037
-408.325	-200.000	-0.015	-0.210
-407.311	43.697	-0.087	0.079
-406.296	-122.550	-0.198	0.032
-405.282	-72.442	0.299	-0.110
-404.267	-105.017	0.273	-0.062
-403.252	640.805	-0.071	0.180
-402.238	800.000	0.067	0.214
-401.223	28.896	-0.096	0.080
-400.209	-29.513	0.124	0.070
-399.194	-104.985	0.160	-0.036
-398.179	85.171	0.149	-0.162
-397.165	12.520	-0.231	-0.177
-396.150	151.612	-0.170	-0.230
-395.136	800.000	-0.055	-0.212
-394.121	-200.000	-0.014	0.150
-393.106	800.000	-0.078	-0.241
-392.092	139.066	-0.164	0.214
-391.077	8.434	0.101	-0.075
-390.063	-107.340	0.275	-0.060
-389.048	-55.112	0.340	-0.152
-388.033	-200.000	0.041	0.179
-387.019	-200.000	-0.070	0.323
-386.004	128.726	0.092	-0.116
-384.990	90.099	0.091	-0.101
-383.975	800.000	0.068	0.195
-382.960	103.930	-0.203	-0.236
-381.946	-160.086	0.203	-0.011
-380.931	-108.475	0.314	-0.067
-379.917	99.569	-0.182	0.209
-378.902	800.000	-0.021	0.081
-377.888	202.575	-0.138	-0.212
-376.873	-108.124	0.276	0.059
-375.858	-74.149	-0.184	-0.066
-374.844	-119.673	0.219	0.038
-373.829	-167.364	-0.254	0.010
-372.815	-149.466	0.174	0.014
-371.800	277.854	0.048	-0.084
-370.785	-200.000	-0.021	-0.148
-369.771	719.465	-0.026	0.068
-368.756	61.992	0.178	0.175
-367.742	800.000	0.048	0.144
-366.727	-88.022	-0.400	0.119
-365.712	-200.000	0.046	-0.366
-364.698	30.808	-0.198	-0.168
-363.683	-1.660	-0.103	-0.072
-362.669	-89.672	0.198	0.058
-361.654	-200.000	-0.030	-0.387
-360.639	-49.795	-0.064	0.030
-359.625	-99.648	-0.169	-0.042
-358.610	84.743	0.195	0.211
-357.596	800.000	0.071	-0.263
-356.581	-48.268	-0.078	0.037
-355.566	160.039	0.269	0.371
-354.552	-94.859	-0.164	-0.044
-353.537	-200.000	0.000	0.282
-352.523	800.000	0.090	-0.287
-351.508	-180.400	-0.340	0.007
-350.493	279.786	-0.112	-0.198
-349.479	-106.458	-0.217	-0.048
-348.464	2.523	-0.190	-0.136
-347.450	-200.000	-0.009	0.339
-346.435	800.000	-0.034	-0.096
-345.420	82.146	-0.230	0.247
-344.406	26.904	0.105	-0.087
-343.391	800.000	0.102	-0.292
-342.377	-87.282	0.335	0.101
-341.362	-146.855	0.099	-0.008
-340.348	-103.706	0.156	-0.036
-339.333	197.800	-0.091	-0.137
-338.318	-200.000	-0.003	0.082
-337.304	233.360	0.079	-0.128
-336.289	-27.755	0.067	-0.038
-335.275	-200.000	-0.010	0.060
-334.260	126.728	-0.068	-0.085
-333.245	252.496	-0.034	0.057
-332.231	51.252	0.239	-0.225
-331.216	-85.166	0.117	0.036
-330.202	-194.730	0.369	0.003
-329.187	-200.000	0.013	0.304
-328.172	800.000	-0.023	-0.096
-327.158	-56.632	0.219	0.096
-326.143	115.102	0.112	0.136
-325.129	198.966	0.081	0.123
-324.114	109.999	-0.101	-0.120
-323.099	-26.544	-0.036	-0.021
-322.085	-151.586	-0.248	0.018
-321.070	-146.700	-0.174	-0.015
-320.056	-65.020	0.388	-0.155
-319.041	-200.000	0.005	0.400
-318.026	800.000	0.089	0.351
-317.012	23.628	0.176	0.143
-315.997	0.261	0.287	0.202
-314.983	79.459	-0.091	-0.096
-313.968	108.867	-0.207	0.244
-312.953	41.674	0.383	0.343
-311.939	-200.000	0.031	0.212
-310.924	-64.431	-0.053	-0.021
-309.910	-32.531	0.020	-0.011
-308.895	-117.709	0.282	-0.050
-307.880	260.790	0.226	-0.387
-306.866	-30.324	0.069	0.039
-305.851	-49.050	-0.411	0.194
-304.837	-85.914	-0.195	-0.060
-303.822	-200.000	0.098	0.459
-302.807	-200.000	0.028	0.162
-301.793	-200.000	0.012	0.096
-300.778	800.000	0.108	-0.455
-299.764	183.262	0.038	0.056
-298.749	87.422	0.141	0.154
-297.735	800.000	-0.104	-0.299
-296.720	800.000	-0.130	-0.499
-295.705	15.763	-0.137	-0.107
-294.691	-56.686	0.167	0.073
-293.676	-200.000	-0.015	-0.136
-292.662	-158.717	0.346	0.020
-291.647	27.744	0.123	-0.102
-290.632	-5.300	-0.255	0.173
-289.618	800.000	-0.010	-0.031
-288.603	800.000	0.016	-0.053
-287.589	-200.000	0.007	-0.163
-286.574	-88.003	0.246	0.073
-285.559	800.000	0.059	0.161
-284.545	-41.666	-0.111	0.057
-283.530	-200.000	0.044	-0.306
-282.516	800.000	0.046	-0.179
-281.501	800.000	0.061	0.177
-280.486	33.192	0.035	0.030
-279.472	-5.884	-0.018	-0.012
-278.457	-12.595	0.208	0.134
-277.443	-200.000	-0.011	-0.121
-276.428	25.100	-0.047	0.039
-275.413	-58.248	-0.160	0.069
-274.399	3.074	0.139	-0.100
-273.384	454.956	0.067	0.147
-272.370	-127.539	-0.031	-0.004
-271.355	-10.951	0.082	-0.054
-270.340	-97.237	0.150	0.039
-269.326	-148.474	-0.288	-0.023
-268.311	-200.000	-0.023	-0.267
-267.297	17.471	0.296	-0.232
-266.282	-98.874	0.450	-0.113
-265.267	800.000	-0.081	0.273
-264.253	27.946	-0.266	0.221
-263.238	-70.149	0.407	0.153
-262.224	348.412	0.082	-0.160
-261.209	-200.000	0.061	0.268
-260.195	244.628	0.113	0.188
-259.180	-200.000	0.010	0.247
-258.165	80.207	0.199	-0.211
-257.151	-90.236	-0.177	0.051
-256.136	324.908	0.147	-0.278
-255.122	-101.831	0.255	-0.061
-254.107	800.000	-0.025	-0.093
-253.092	360.892	-0.136	-0.269
-252.078	-87.959	-0.039	0.011
-251.063	-200.000	-0.017	0.240
-250.049	800.000	-0.054	-0.172
-249.034	361.837	0.123	-0.244
-248.019	-146.325	0.336	-0.029
-247.005	67.553	-0.304	0.306
-245.990	518.900	-0.050	0.116
-244.976	127.386	-0.075	-0.094
-243.961	-58.164	-0.065	-0.028
-242.946	45.196	-0.095	-0.086
-241.932	-65.811	-0.103	0.041
-240.917	-124.200	-0.456	-0.070
-239.903	-0.828	-0.079	0.055
-238.888	376.048	0.127	-0.255
-237.873	86.590	0.221	0.240
-236.859	11.002	0.189	0.143
-235.844	515.865	0.101	0.233
-234.830	192.212	0.021	0.031
-233.815	261.344	0.023	-0.039
-232.800	225.450	0.120	0.191
-231.786	-200.000	-0.005	0.139
-230.771	-200.000	-0.020	-0.162
-229.757	-200.000	-0.026	-0.404
-228.742	-75.019	-0.067	-0.024
-227.727	-34.195	-0.092	0.050
-226.713	-46.244	0.095	-0.046
-225.698	-101.413	0.124	0.030
-224.684	-125.064	-0.192	0.029
-223.669	-49.335	-0.194	0.091
-222.655	27.346	-0.169	0.140
-221.640	-69.254	-0.284	0.108
-220.625	-150.432	-0.116	0.009
-219.611	-130.097	-0.042	-0.006
-218.596	751.376	-0.166	0.442
-217.582	314.582	0.234	0.434
-216.567	44.482	0.261	0.237
-215.552	-152.073	-0.343	-0.025
-214.538	477.719	0.061	0.136
-213.523	31.670	-0.178	-0.151
-212.509	115.462	-0.166	-0.200
-211.494	-47.460	-0.325	-0.155
-210.479	754.074	-0.036	0.095
-209.465	800.000	0.022	-0.066
-208.450	-200.000	0.006	-0.146
-207.436	-21.547	-0.151	0.090
-206.421	104.466	0.192	-0.223
-205.406	-200.000	0.030	-0.163
-204.392	-112.460	0.163	-0.032
-203.377	-200.000	-0.026	-0.381
-202.363	-35.589	-0.299	-0.160
-201.348	32.635	-0.126	-0.108
-200.333	-146.108	0.158	0.014
-199.319	-200.000	0.003	0.292
-198.304	125.984	-0.004	-0.005
-197.290	-49.833	-0.062	-0.029
-196.275	58.249	-0.268	0.258
-195.260	7.423	-0.274	-0.201
-194.246	-200.000	0.010	0.072
-193.231	-140.136	-0.213	-0.022
-192.217	-75.796	0.147	-0.051
-191.202	800.000	0.063	-0.187
-190.187	81.267	-0.173	0.183
-189.173	800.000	-0.054	0.198
-188.158	26.110	-0.149	-0.122
-187.144	800.000	-0.057	0.218
-186.129	-29.811	-0.324	0.182
-185.114	164.266	0.288	0.400
-184.100	-71.199	-0.246	0.091
-183.085	-102.236	-0.304	-0.072
-182.071	359.624	0.213	0.419
-181.056	100.716	0.105	-0.120
-180.042	129.315	-0.216	-0.271
-179.027	-128.764	-0.258	-0.036
-178.012	800.000	-0.030	-0.113
-176.998	-200.000	0.041	-0.285
-175.983	800.000	0.018	-0.063
-174.969	800.000	0.025	-0.083
-173.954	-80.061	0.178	-0.059
-172.939	800.000	-0.030	0.127
-171.925	-25.779	0.207	0.120
-170.910	401.961	0.114	0.236
-169.896	-50.167	0.339	-0.158
-168.881	-149.880	-0.176	0.014
-167.866	73.435	0.126	-0.130
-166.852	-98.527	-0.220	-0.055
-165.837	30.024	0.026	0.022
-164.823	-18.866	-0.232	-0.142
-163.808	257.822	0.045	0.076
-162.793	172.387	0.189	0.267
-161.779	800.000	-0.055	-0.224
-160.764	800.000	-0.057	0.164
-159.750	230.419	0.041	-0.066
-158.735	-200.000	0.046	0.229
-157.720	800.000	-0.096	0.286
-156.706	283.406	-0.104	0.183
-155.691	800.000	-0.077	0.302
-154.677	800.000	-0.072	0.213
-153.662	56.642	-0.241	-0.230
-152.647	154.768	-0.188	0.253
-151.633	628.097	-0.025	-0.063
-150.618	98.276	-0.202	-0.228
-149.604	-18.283	-0.277	-0.170
-148.589	-57.114	0.182	0.079
-147.574	-1.581	-0.272	-0.189
-146.560	800.000	-0.052	-0.154
-145.545	-149.666	0.266	-0.021
-144.531	-46.928	0.188	-0.090
-143.516	148.946	-0.090	-0.119
-142.502	-19.504	-0.145	-0.088
-141.487	-125.210	0.311	0.047
-140.472	-45.652	0.198	0.096
-139.458	-82.788	-0.260	-0.083
-138.443	-50.196	0.281	-0.130
-137.429	90.034	0.317	-0.347
-136.414	-200.000	-0.044	0.369
-135.399	364.077	-0.117	-0.231
-134.385	10.079	-0.045	0.034
-133.370	-200.000	0.003	0.291
-132.356	120.252	0.102	-0.124
-131.341	135.652	0.176	0.225
-130.326	-21.719	-0.041	-0.024
-129.312	-28.002	-0.142	0.081
-128.297	-118.092	0.193	-0.034
-127.283	-200.000	0.012	-0.190
-126.268	-200.000	0.060	0.636
-125.253	800.000	-0.065	0.178
-124.239	364.111	-0.085	0.167
-123.224	7.615	-0.177	0.130
-122.210	-11.037	-0.319	0.206
