DTS Sentinel unit serial number:	SN413079Multiplexer serial number:	ORYXHardware model number:	OX4-SRSoftware version number:	ORYX F/W v4.00 Oryx Data Collector v3.7.2.0data status	okinstallation	princeton_trtdifferential loss correction	single-endedforward channel	channel 2reverse channel	N/Adate	2019/09/14time	15:43:35forward acquisition time	60.00reverse acquisition time	0.00gamma	496.2192k internal	0.2304k external	0.2304temperature offset calibration	1.0139default loss term (dB/km)	0.3790temperature slope calibration	1.0000multiplexer offset coefficient	1.0000multiplexer slope coefficient	1.0000fibre end	0.00T internal ref (°C)	38.75T ext. ref 1 (°C)	5.11T ext. ref 2 (°C)	34.42length (m)	temperature (°C)	Stokes	anti-Stokes-747.200	223.634	0.040	0.066
-746.185	419.104	0.144	0.313
-745.171	191.717	-0.192	-0.294
-744.156	-200.000	0.009	-0.070
-743.142	-6.410	0.131	-0.091
-742.127	-200.000	-0.072	0.434
-741.112	800.000	0.037	0.111
-740.098	-20.857	-0.273	-0.170
-739.083	202.211	-0.044	-0.069
-738.069	487.747	0.158	0.367
-737.054	108.919	0.204	-0.248
-736.039	-200.000	0.018	-0.237
-735.025	-200.000	0.014	0.103
-734.010	474.404	-0.118	0.270
-732.996	135.902	-0.079	-0.105
-731.981	-52.338	0.131	-0.062
-730.966	-200.000	0.007	-0.159
-729.952	-114.062	-0.195	0.038
-728.937	8.703	-0.122	-0.094
-727.923	313.195	-0.204	-0.391
-726.908	-164.072	-0.248	0.012
-725.894	234.924	0.106	0.178
-724.879	-200.000	0.031	-0.346
-723.864	475.019	-0.030	-0.070
-722.850	28.564	-0.095	0.082
-721.835	-12.432	0.094	0.062
-720.821	104.730	0.160	-0.192
-719.806	-200.000	0.022	-0.132
-718.791	-130.225	0.135	-0.019
-717.777	55.497	-0.048	0.047
-716.762	-200.000	-0.003	-0.319
-715.748	-200.000	0.004	-0.232
-714.733	-50.696	-0.097	-0.046
-713.718	-200.000	0.007	-0.116
-712.704	-200.000	-0.004	-0.256
-711.689	-200.000	-0.016	0.397
-710.675	81.950	0.178	-0.196
-709.660	-62.695	0.303	-0.128
-708.645	398.145	-0.141	0.300
-707.631	-200.000	-0.017	0.161
-706.616	-29.401	0.147	-0.086
-705.602	-96.049	0.106	0.029
-704.587	-200.000	0.051	-0.378
-703.572	-46.854	-0.443	-0.220
-702.558	74.523	0.166	0.177
-701.543	-38.996	-0.171	0.091
-700.529	144.049	-0.176	-0.239
-699.514	210.672	0.089	0.143
-698.499	800.000	-0.073	-0.306
-697.485	-200.000	-0.010	-0.140
-696.470	-138.423	-0.409	-0.046
-695.456	-45.489	0.115	-0.058
-694.441	-104.350	0.329	-0.077
-693.426	-200.000	-0.012	-0.171
-692.412	-200.000	-0.031	-0.306
-691.397	165.871	0.038	-0.055
-690.383	127.191	0.264	-0.340
-689.368	72.300	0.261	-0.276
-688.354	-200.000	0.003	0.247
-687.339	-8.213	-0.208	-0.142
-686.324	731.170	0.090	-0.244
-685.310	-200.000	-0.065	-0.314
-684.295	35.121	0.155	-0.138
-683.281	281.989	0.115	0.209
-682.266	-77.842	0.242	-0.085
-681.251	-200.000	-0.006	0.128
-680.237	-68.196	0.388	-0.153
-679.222	185.645	0.052	-0.078
-678.208	-72.307	-0.315	-0.119
-677.193	-65.064	-0.184	0.075
-676.178	79.193	-0.201	-0.219
-675.164	304.395	0.031	0.058
-674.149	800.000	-0.040	-0.176
-673.135	15.973	-0.184	0.147
-672.120	210.785	-0.113	0.181
-671.105	-57.830	0.285	0.126
-670.091	800.000	0.047	-0.162
-669.076	159.098	0.216	-0.305
-668.062	-187.154	-0.151	-0.002
-667.047	122.547	-0.125	-0.158
-666.032	-45.260	-0.216	0.109
-665.018	73.502	-0.057	0.060
-664.003	-36.180	0.182	-0.099
-662.989	-177.619	0.364	0.009
-661.974	-109.017	0.531	-0.115
-660.959	8.653	-0.069	0.052
-659.945	33.160	-0.329	-0.289
-658.930	278.365	-0.039	-0.070
-657.916	-200.000	0.000	0.083
-656.901	-34.214	-0.210	-0.117
-655.886	354.044	0.066	-0.134
-654.872	-200.000	0.010	0.214
-653.857	222.313	-0.082	-0.135
-652.843	-0.453	-0.097	-0.070
-651.828	20.580	0.065	-0.053
-650.814	13.523	0.104	0.082
-649.799	-43.139	-0.209	-0.108
-648.784	-111.606	0.206	0.042
-647.770	185.638	0.127	-0.191
-646.755	11.793	0.122	-0.095
-645.741	-200.000	-0.010	-0.071
-644.726	-200.000	-0.005	0.192
-643.711	-89.304	-0.103	-0.031
-642.697	800.000	-0.060	-0.218
-641.682	268.668	0.013	-0.023
-640.668	583.480	0.058	-0.145
-639.653	-126.369	-0.326	-0.049
-638.638	463.881	0.057	0.129
-637.624	-22.701	0.088	-0.054
-636.609	-47.669	0.417	-0.205
-635.595	-69.354	-0.122	0.047
-634.580	800.000	0.102	0.298
-633.565	-12.467	0.168	0.111
-632.551	-200.000	-0.004	-0.068
-631.536	-158.327	-0.232	-0.014
-630.522	-166.176	-0.268	-0.012
-629.507	98.715	0.179	0.210
-628.492	-114.084	-0.308	-0.060
-627.478	-79.858	-0.122	-0.041
-626.463	-156.633	-0.318	-0.020
-625.449	108.252	-0.259	-0.313
-624.434	549.051	-0.159	0.385
-623.419	586.097	0.047	0.116
-622.405	-17.309	0.156	0.099
-621.390	-200.000	-0.043	-0.252
-620.376	188.777	-0.040	0.060
-619.361	232.341	0.143	-0.239
-618.346	800.000	-0.089	0.273
-617.332	-156.139	0.177	-0.011
-616.317	-164.978	0.320	0.014
-615.303	-200.000	-0.039	-0.300
-614.288	79.086	-0.084	0.091
-613.273	-200.000	0.030	0.526
-612.259	229.233	0.085	-0.141
-611.244	-100.109	-0.159	-0.040
-610.230	-200.000	-0.076	-0.388
-609.215	-200.000	0.020	0.227
-608.201	-200.000	-0.036	-0.212
-607.186	-200.000	0.023	-0.319
-606.171	656.243	-0.083	0.217
-605.157	18.635	0.144	0.117
-604.142	-110.536	-0.235	0.049
-603.128	800.000	-0.029	-0.092
-602.113	800.000	-0.034	-0.097
-601.098	-65.867	0.358	-0.145
-600.084	-137.207	0.153	-0.018
-599.069	-87.400	0.197	-0.060
-598.055	57.669	0.135	0.134
-597.040	34.891	0.103	-0.091
-596.025	-19.401	-0.137	-0.086
-595.011	-191.262	-0.159	-0.002
-593.996	800.000	0.061	-0.258
-592.982	-181.551	-0.105	0.002
-591.967	-150.905	-0.218	0.017
-590.952	207.971	0.220	-0.347
-589.938	584.208	-0.145	-0.361
-588.923	-38.656	-0.364	-0.195
-587.909	800.000	0.148	-0.418
-586.894	-116.326	0.238	0.045
-585.879	565.141	-0.168	-0.413
-584.865	-97.558	0.168	0.044
-583.850	-200.000	0.000	-0.043
-582.836	95.019	-0.134	-0.155
-581.821	118.189	0.068	0.084
-580.806	-200.000	-0.001	0.246
-579.792	345.959	0.036	-0.072
-578.777	-200.000	-0.014	0.347
-577.763	-200.000	-0.006	0.220
-576.748	-200.000	0.032	-0.173
-575.733	-38.866	-0.188	0.100
-574.719	-164.056	-0.133	0.006
-573.704	169.807	0.176	-0.254
-572.690	-114.994	0.090	-0.017
-571.675	-73.995	0.114	-0.042
-570.661	-65.430	-0.310	0.126
-569.646	153.035	-0.079	0.110
-568.631	-200.000	-0.003	-0.107
-567.617	632.266	0.062	0.160
-566.602	-8.732	-0.114	0.077
-565.588	-17.307	0.045	0.029
-564.573	26.520	0.191	-0.161
-563.558	-114.495	-0.068	-0.013
-562.544	-34.524	0.191	-0.106
-561.529	18.251	-0.313	0.252
-560.515	800.000	0.048	0.200
-559.500	800.000	-0.083	0.233
-558.485	635.123	-0.019	0.048
-557.471	-44.204	-0.355	0.180
-556.456	93.019	0.216	0.247
-555.442	-200.000	-0.044	-0.326
-554.427	-8.819	-0.135	0.092
-553.412	-200.000	-0.015	0.184
-552.398	-94.702	0.137	-0.038
-551.383	-67.842	-0.198	-0.078
-550.369	495.667	0.046	-0.106
-549.354	89.941	0.071	-0.081
-548.339	531.410	0.234	-0.560
-547.325	-151.068	-0.362	0.028
-546.310	-128.967	-0.201	0.028
-545.296	259.606	0.090	-0.158
-544.281	16.851	-0.114	-0.091
-543.266	-200.000	-0.003	0.139
-542.252	-141.128	0.165	0.017
-541.237	-68.378	-0.095	0.037
-540.223	760.469	0.067	0.183
-539.208	33.424	-0.065	-0.057
-538.193	-64.346	-0.064	0.026
-537.179	178.486	0.075	0.110
-536.164	-200.000	0.053	-0.421
-535.150	13.547	0.014	0.011
-534.135	-70.211	0.247	-0.095
-533.121	26.285	0.170	0.144
-532.106	31.980	-0.288	-0.251
-531.091	36.520	0.416	-0.371
-530.077	-177.456	0.125	0.003
-529.062	-118.822	0.290	-0.051
-528.048	-200.000	-0.024	-0.297
-527.033	-134.877	-0.375	-0.046
-526.018	-143.771	-0.045	-0.004
-525.004	31.669	0.092	0.080
-523.989	-200.000	-0.000	0.082
-522.975	-140.804	-0.203	0.021
-521.960	25.890	-0.147	-0.124
-520.945	27.100	0.063	0.054
-519.931	-200.000	0.012	0.192
-518.916	-200.000	-0.100	-0.511
-517.902	800.000	0.030	-0.082
-516.887	-200.000	-0.152	-0.000
-515.872	69.172	-0.284	0.295
-514.858	120.474	0.213	0.266
-513.843	-131.376	0.170	0.023
-512.829	28.025	0.176	-0.149
-511.814	23.894	-0.158	-0.131
-510.799	-200.000	0.011	0.181
-509.785	-200.000	0.023	-0.266
-508.770	4.846	0.133	-0.099
-507.756	-200.000	0.008	0.209
-506.741	102.595	0.152	0.179
-505.726	31.595	0.071	0.061
-504.712	-57.323	-0.350	-0.155
-503.697	800.000	-0.087	-0.359
-502.683	-186.336	-0.037	-0.001
-501.668	-17.199	-0.329	-0.209
-500.653	-200.000	0.029	-0.165
-499.639	-66.668	0.336	-0.134
-498.624	318.791	-0.085	-0.163
-497.610	-67.731	0.181	0.072
-496.595	34.977	-0.253	-0.223
-495.581	-123.519	0.212	-0.034
-494.566	-77.768	0.289	0.101
-493.551	-129.566	-0.352	-0.049
-492.537	27.856	0.173	0.147
-491.522	-200.000	-0.049	0.274
-490.508	2.654	0.097	0.071
-489.493	-111.137	-0.326	-0.067
-488.478	191.714	0.091	-0.138
-487.464	-27.911	-0.281	-0.164
-486.449	-115.707	0.093	-0.018
-485.435	81.214	-0.189	-0.206
-484.420	-88.495	-0.145	-0.043
-483.405	-82.921	-0.284	-0.092
-482.391	192.536	-0.264	-0.401
-481.376	-79.142	0.153	-0.052
-480.362	140.744	-0.041	-0.055
-479.347	-200.000	0.270	-0.001
-478.332	-103.734	-0.156	-0.037
-477.318	-200.000	-0.038	0.236
-476.303	239.866	-0.095	-0.159
-475.289	-20.405	-0.105	-0.065
-474.274	-124.689	0.110	-0.017
-473.259	721.699	-0.047	-0.125
-472.245	785.604	0.147	0.405
-471.230	-36.170	0.209	-0.113
-470.216	54.677	0.204	0.199
-469.201	-163.528	0.419	0.020
-468.186	-25.929	0.132	-0.078
-467.172	435.002	-0.037	0.081
-466.157	-43.114	0.258	0.132
-465.143	-200.000	-0.010	0.134
-464.128	23.155	-0.027	0.023
-463.113	34.277	0.110	-0.097
-462.099	-200.000	-0.047	-0.250
-461.084	389.078	-0.125	-0.262
-460.070	765.734	-0.098	-0.267
-459.055	-108.328	-0.135	0.029
-458.040	-200.000	0.017	0.140
-457.026	-200.000	-0.000	-0.068
-456.011	178.577	-0.086	-0.126
-454.997	-200.000	-0.003	-0.111
-453.982	800.000	-0.029	0.086
-452.968	-200.000	-0.028	-0.279
-451.953	32.080	-0.051	-0.045
-450.938	22.882	-0.064	0.053
-449.924	-19.298	-0.235	0.147
-448.909	-200.000	0.023	-0.460
-447.895	800.000	-0.060	0.257
-446.880	-77.051	-0.194	0.068
-445.865	800.000	-0.078	-0.234
-444.851	-200.000	-0.003	0.107
-443.836	-90.450	0.419	0.122
-442.822	-48.019	0.250	0.122
-441.807	800.000	-0.119	0.446
-440.792	-52.897	0.347	0.161
-439.778	-159.151	0.376	-0.021
-438.763	-49.269	-0.052	-0.025
-437.749	10.514	0.291	0.223
-436.734	-164.226	0.231	-0.011
-435.719	-148.817	0.400	-0.033
-434.705	72.026	-0.288	0.302
-433.690	186.370	0.176	0.263
-432.676	243.749	-0.176	0.297
-431.661	-179.286	-0.310	-0.007
-430.646	64.815	-0.148	0.150
-429.632	119.742	0.156	0.194
-428.617	-6.364	-0.358	0.246
-427.603	-134.378	0.056	-0.007
-426.588	85.967	-0.166	-0.184
-425.573	-51.794	0.163	-0.076
-424.559	381.801	0.101	0.209
-423.544	800.000	0.081	0.224
-422.530	275.130	0.106	0.189
-421.515	-88.616	0.092	-0.027
-420.500	-162.255	-0.103	0.005
-419.486	-82.694	0.243	-0.079
-418.471	-126.208	0.487	0.073
-417.457	-158.069	-0.135	-0.008
-416.442	800.000	0.074	0.312
-415.428	-101.008	0.352	-0.087
-414.413	-143.973	-0.162	-0.015
-413.398	-118.059	-0.184	-0.033
-412.384	479.679	0.060	0.137
-411.369	-40.608	0.290	0.151
-410.355	588.205	0.140	0.346
-409.340	182.903	-0.148	0.219
-408.325	800.000	0.139	0.408
-407.311	256.878	0.180	0.310
-406.296	-200.000	0.032	-0.268
-405.282	800.000	-0.027	-0.107
-404.267	-72.831	0.286	0.106
-403.252	-172.435	-0.365	0.012
-402.238	90.032	0.074	0.083
-401.223	-59.977	0.188	0.081
-400.209	-200.000	-0.047	-0.387
-399.194	105.685	-0.210	-0.249
-398.179	-200.000	-0.027	-0.195
-397.165	39.433	-0.133	0.120
-396.150	-21.492	-0.441	-0.270
-395.136	4.291	0.281	0.207
-394.121	-200.000	0.005	0.110
-393.106	58.391	-0.089	0.088
-392.092	-12.720	0.154	0.101
-391.077	-99.824	-0.276	0.069
-390.063	116.386	0.066	0.081
-389.048	-84.926	-0.238	-0.075
-388.033	-156.855	0.364	-0.022
-387.019	-20.528	-0.387	0.239
-386.004	800.000	-0.035	0.123
-384.990	-200.000	-0.026	-0.128
-383.975	152.774	-0.138	0.189
-382.960	-200.000	0.008	0.076
-381.946	-200.000	-0.029	0.181
-380.931	-54.208	0.293	0.134
-379.917	424.471	0.107	-0.231
-378.902	-115.187	0.158	-0.030
-377.888	-87.497	0.146	0.044
-376.873	800.000	-0.031	-0.110
-375.858	54.247	-0.179	0.173
-374.844	-39.857	0.360	0.189
-373.829	98.816	-0.057	-0.067
-372.815	800.000	-0.041	-0.178
-371.800	5.029	-0.236	-0.174
-370.785	522.445	-0.162	-0.381
-369.771	800.000	0.060	0.188
-368.756	509.896	0.125	0.293
-367.742	800.000	0.005	-0.019
-366.727	800.000	-0.023	0.094
-365.712	17.802	0.131	0.105
-364.698	-79.065	-0.153	-0.052
-363.683	64.460	0.247	-0.250
-362.669	-200.000	-0.017	-0.259
-361.654	22.658	0.233	0.191
-360.639	11.503	-0.211	0.162
-359.625	-91.093	0.303	0.087
-358.610	-133.556	-0.174	0.022
-357.596	230.027	0.105	-0.171
-356.581	57.073	0.168	-0.164
-355.566	-0.898	-0.117	0.083
-354.552	27.116	0.286	-0.241
-353.537	-92.566	0.157	-0.044
-352.523	247.625	-0.170	-0.288
-351.508	-70.563	-0.125	-0.048
-350.493	-111.228	-0.275	0.056
-349.479	4.069	-0.227	-0.167
-348.464	-116.296	0.313	-0.058
-347.450	-135.520	-0.062	-0.007
-346.435	27.417	0.166	0.139
-345.420	119.635	0.090	0.112
-344.406	-200.000	0.016	0.252
-343.391	138.166	0.083	0.109
-342.377	-85.551	-0.389	0.121
-341.362	693.713	-0.093	0.245
-340.348	260.052	-0.171	0.295
-339.333	182.187	0.104	0.154
-338.318	-81.097	0.198	0.066
-337.304	-200.000	0.039	0.301
-336.289	-21.947	-0.013	-0.008
-335.275	800.000	0.093	-0.321
-334.260	-169.846	-0.110	-0.004
-333.245	-114.537	-0.284	-0.055
-332.231	-101.229	0.242	-0.059
-331.216	-137.856	-0.171	-0.019
-330.202	-2.905	0.150	-0.105
-329.187	-200.000	-0.054	0.283
-328.172	-200.000	0.014	-0.073
-327.158	-200.000	0.001	0.170
-326.143	-79.982	0.218	-0.073
-325.129	5.371	-0.249	0.184
-324.114	-200.000	0.025	-0.160
-323.099	532.893	-0.042	0.101
-322.085	35.497	0.156	-0.137
-321.070	135.519	-0.374	-0.487
-320.056	-96.086	0.108	0.029
-319.041	-53.451	0.180	-0.083
-318.026	-14.679	-0.149	-0.096
-317.012	800.000	-0.117	0.418
-315.997	16.937	0.323	-0.256
-314.983	-96.306	0.243	0.064
-313.968	84.264	0.151	0.165
-312.953	-133.578	0.155	-0.019
-311.939	56.120	0.096	-0.093
-310.924	-30.093	0.121	0.069
-309.910	469.725	0.010	0.023
-308.895	-86.153	-0.118	-0.036
-307.880	309.001	0.097	0.182
-306.866	50.154	-0.132	-0.125
-305.851	800.000	-0.094	0.261
-304.837	-147.650	0.279	0.023
-303.822	-153.404	-0.317	-0.022
-302.807	136.878	-0.084	0.109
-301.793	800.000	-0.057	-0.168
-300.778	506.023	-0.055	0.127
-299.764	-92.110	-0.300	-0.085
-298.749	25.376	-0.265	-0.220
-297.735	-58.061	-0.293	0.128
-296.720	-45.071	0.240	0.120
-295.705	287.733	-0.066	-0.120
-294.691	-200.000	0.035	-0.194
-293.676	-61.266	0.142	-0.060
-292.662	147.148	0.133	0.179
-291.647	182.280	0.055	0.082
-290.632	-94.227	0.168	0.046
-289.618	-200.000	-0.004	0.161
-288.603	88.307	-0.133	0.148
-287.589	800.000	0.157	0.540
-286.574	54.515	-0.398	0.384
-285.559	-200.000	-0.019	-0.314
-284.545	-104.583	0.241	-0.056
-283.530	-104.803	-0.501	0.115
-282.516	38.843	-0.177	-0.158
-281.501	162.698	-0.176	0.247
-280.486	42.953	0.192	0.175
-279.472	72.542	-0.143	0.149
-278.457	96.713	-0.143	0.164
-277.443	-110.154	0.180	-0.038
-276.428	198.134	0.134	0.205
-275.413	-68.146	-0.246	0.096
-274.399	-200.000	0.023	0.120
-273.384	-132.748	-0.227	-0.029
-272.370	-40.162	-0.422	0.219
-271.355	-167.952	0.229	0.009
-270.340	320.262	0.156	-0.295
-269.326	-114.645	-0.296	-0.057
-268.311	-200.000	0.003	0.115
-267.297	-82.965	-0.278	0.090
-266.282	316.460	0.175	-0.331
-265.267	-96.878	-0.282	0.074
-264.253	-49.263	0.189	-0.090
-263.238	-169.387	-0.436	-0.016
-262.224	-134.005	0.119	0.015
-261.209	-88.277	0.108	0.032
-260.195	353.046	-0.024	0.047
-259.180	-116.833	-0.095	-0.017
-258.165	-20.960	-0.247	-0.151
-257.151	26.560	0.196	0.164
-256.136	48.276	0.139	-0.130
-255.122	800.000	0.038	-0.165
-254.107	109.127	-0.072	0.086
-253.092	114.760	-0.215	0.262
-252.078	-28.947	0.101	-0.058
-251.063	-175.471	0.057	0.002
-250.049	-200.000	0.049	0.349
-249.034	-59.673	-0.279	0.120
-248.019	-71.987	-0.255	0.095
-247.005	491.790	-0.156	0.356
-245.990	-35.088	-0.050	0.027
-244.976	-111.937	0.450	-0.091
-243.961	800.000	0.073	0.247
-242.946	203.990	0.038	0.059
-241.932	35.254	0.439	-0.385
-240.917	-77.508	0.077	-0.027
-239.903	25.969	0.429	-0.357
-238.888	-97.584	0.212	-0.055
-237.873	800.000	-0.052	-0.188
-236.859	87.842	-0.074	0.082
-235.844	291.789	-0.147	-0.268
-234.830	214.257	0.216	0.341
-233.815	-200.000	-0.060	0.336
-232.800	60.952	0.154	-0.152
-231.786	-96.434	0.397	0.105
-230.771	-38.514	0.166	-0.087
-229.757	254.308	0.160	0.272
-228.742	800.000	-0.065	-0.272
-227.727	14.535	0.192	-0.149
-226.713	116.022	-0.156	0.190
-225.698	800.000	-0.010	-0.041
-224.684	800.000	0.052	0.205
-223.669	439.949	0.100	0.217
-222.655	800.000	-0.047	-0.151
-221.640	173.972	-0.117	0.168
-220.625	-200.000	0.007	-0.219
-219.611	-135.800	0.058	0.007
-218.596	-85.313	-0.163	-0.051
-217.582	63.310	0.060	-0.060
-216.567	281.681	0.194	-0.347
-215.552	285.225	0.072	-0.129
-214.538	-99.793	-0.107	-0.027
-213.523	-123.216	0.137	0.022
-212.509	415.263	0.064	-0.137
-211.494	28.276	0.079	0.067
-210.479	-200.000	-0.051	0.295
-209.465	-28.285	-0.225	0.130
-208.450	800.000	0.123	0.523
-207.436	90.267	-0.199	-0.222
-206.421	84.174	0.128	-0.139
-205.406	800.000	0.051	0.146
-204.392	800.000	0.089	0.367
-203.377	229.284	0.025	-0.041
-202.363	42.216	-0.137	0.124
-201.348	57.395	-0.117	0.114
-200.333	-119.241	0.055	0.010
-199.319	170.799	-0.149	0.212
-198.304	77.367	-0.097	-0.103
-197.290	-62.634	-0.231	-0.095
-196.275	-137.900	0.259	0.029
-195.260	373.072	0.227	-0.460
-194.246	553.316	-0.033	-0.079
-193.231	-200.000	-0.083	0.389
-192.217	244.359	-0.096	0.161
-191.202	441.003	-0.032	-0.069
-190.187	800.000	0.017	-0.072
-189.173	800.000	-0.041	0.131
-188.158	-151.945	0.350	-0.025
-187.144	-139.502	-0.274	0.029
-186.129	-180.252	0.246	-0.005
-185.114	-116.320	-0.308	-0.057
-184.100	-5.867	0.165	-0.112
-183.085	-169.688	0.190	-0.007
-182.071	-46.706	0.301	-0.147
-181.056	-45.273	-0.212	-0.105
-180.042	-200.000	0.013	-0.167
-179.027	-90.951	-0.144	-0.041
-178.012	-124.919	0.317	-0.049
-176.998	-149.017	0.287	-0.023
-175.983	-74.809	-0.151	0.054
-174.969	-1.718	-0.348	-0.244
-173.954	218.168	-0.168	-0.268
-172.939	-200.000	-0.011	0.157
-171.925	60.031	0.094	0.093
-170.910	-200.000	0.027	0.164
-169.896	-200.000	0.069	-0.516
-168.881	-200.000	0.011	0.252
-167.866	-1.802	-0.207	-0.145
-166.852	35.923	0.100	-0.088
-165.837	459.966	-0.063	-0.140
-164.823	-31.578	-0.191	-0.107
-163.808	152.883	0.094	-0.128
-162.793	67.553	-0.192	-0.196
-161.779	-200.000	-0.031	-0.341
-160.764	-92.171	0.183	-0.052
-159.750	379.220	-0.026	0.054
-158.735	-124.743	-0.274	0.042
-157.720	-128.234	-0.347	0.049
-156.706	-142.993	0.307	-0.030
-155.691	-46.035	-0.110	-0.054
-154.677	76.302	-0.127	0.134
-153.662	-200.000	-0.024	-0.210
-152.647	103.989	-0.189	-0.221
-151.633	108.011	0.010	0.012
-150.618	-200.000	-0.035	0.270
-149.604	249.709	-0.083	0.140
-148.589	36.767	-0.250	0.220
-147.574	122.437	0.053	0.066
-146.560	54.942	-0.252	0.242
-145.545	301.105	-0.051	-0.094
-144.531	223.890	-0.084	-0.135
-143.516	-14.568	0.137	0.088
-142.502	-45.531	-0.316	-0.156
-141.487	-111.912	-0.265	0.053
-140.472	285.639	-0.160	0.288
-139.458	1.435	0.124	0.088
-138.443	302.007	0.101	-0.186
-137.429	800.000	0.034	0.116
-136.414	127.474	-0.152	0.192
-135.399	-103.715	0.062	-0.014
-134.385	44.560	0.289	0.264
-133.370	30.180	-0.222	0.189
-132.356	-69.709	-0.209	-0.080
-131.341	-51.260	0.214	0.100
-130.326	710.853	0.074	0.195
-129.312	598.742	0.017	-0.043
-128.297	-100.281	-0.016	-0.004
-127.283	-200.000	-0.024	0.199
-126.268	5.401	-0.110	-0.080
-125.253	-54.340	-0.155	0.070
-124.239	-200.000	0.019	0.151
-123.224	-99.544	0.229	-0.057
-122.210	-112.515	0.501	0.099
