DTS Sentinel unit serial number:	SN413079Multiplexer serial number:	ORYXHardware model number:	OX4-SRSoftware version number:	ORYX F/W v4.00 Oryx Data Collector v3.7.2.0data status	okinstallation	princeton_trtdifferential loss correction	single-endedforward channel	channel 2reverse channel	N/Adate	2019/09/14time	09:03:35forward acquisition time	60.00reverse acquisition time	0.00gamma	496.2192k internal	0.2324k external	0.2324temperature offset calibration	1.0124default loss term (dB/km)	0.3790temperature slope calibration	1.0000multiplexer offset coefficient	1.0000multiplexer slope coefficient	1.0000fibre end	0.00T internal ref (°C)	30.09T ext. ref 1 (°C)	3.74T ext. ref 2 (°C)	28.49length (m)	temperature (°C)	Stokes	anti-Stokes-747.200	-81.464	-0.468	0.156
-746.185	-79.330	-0.601	-0.206
-745.171	263.090	-0.171	0.301
-744.156	-55.447	-0.259	0.117
-743.142	-200.000	0.009	-0.096
-742.127	83.960	-0.185	-0.204
-741.112	-11.181	0.161	0.107
-740.098	800.000	-0.133	0.399
-739.083	101.880	0.189	-0.223
-738.069	-61.458	-0.365	0.155
-737.054	138.063	-0.005	0.006
-736.039	-71.259	-0.124	-0.047
-735.025	46.512	0.051	-0.048
-734.010	-83.847	0.123	0.040
-732.996	112.760	-0.116	-0.142
-731.981	10.863	0.224	0.173
-730.966	800.000	-0.068	0.208
-729.952	38.951	-0.083	0.075
-728.937	22.399	0.085	0.070
-727.923	-47.148	-0.415	-0.204
-726.908	-68.815	-0.020	0.008
-725.894	49.378	-0.174	0.165
-724.879	12.398	0.116	0.090
-723.864	-52.801	-0.165	0.077
-722.850	-200.000	-0.005	0.183
-721.835	-200.000	0.059	0.290
-720.821	-44.991	-0.365	-0.183
-719.806	-135.163	0.305	0.037
-718.791	52.666	0.096	0.092
-717.777	695.288	0.095	-0.251
-716.762	-28.922	-0.114	-0.066
-715.748	43.266	0.167	-0.154
-714.733	-84.911	-0.349	0.110
-713.718	358.677	-0.044	-0.089
-712.704	800.000	-0.118	-0.337
-711.689	593.049	-0.041	-0.102
-710.675	800.000	-0.053	-0.183
-709.660	100.677	-0.066	-0.077
-708.645	26.686	-0.242	-0.205
-707.631	-11.600	0.048	-0.032
-706.616	-18.381	-0.185	-0.117
-705.602	64.478	0.160	0.163
-704.587	133.286	-0.179	-0.233
-703.572	609.802	-0.030	-0.076
-702.558	-200.000	-0.019	-0.145
-701.543	420.457	0.171	-0.370
-700.529	-165.940	0.094	-0.004
-699.514	800.000	-0.077	-0.235
-698.499	-58.057	-0.179	-0.078
-697.485	800.000	0.029	0.104
-696.470	238.712	0.112	0.188
-695.456	800.000	-0.030	0.122
-694.441	800.000	-0.096	-0.350
-693.426	-120.915	0.449	0.076
-692.412	-100.136	-0.146	-0.037
-691.397	145.858	-0.236	-0.319
-690.383	-30.480	-0.091	0.052
-689.368	83.986	-0.192	-0.212
-688.354	-121.350	-0.127	-0.021
-687.339	-200.000	0.027	-0.270
-686.324	800.000	-0.112	-0.387
-685.310	-96.664	0.192	0.051
-684.295	-133.446	0.279	0.035
-683.281	800.000	-0.042	0.182
-682.266	-55.301	0.244	0.110
-681.251	-17.475	-0.121	-0.077
-680.237	489.565	-0.044	-0.102
-679.222	184.421	-0.127	0.190
-678.208	-70.373	-0.334	-0.128
-677.193	-200.000	0.010	-0.268
-676.178	58.458	-0.223	0.220
-675.164	-200.000	0.005	0.041
-674.149	-105.342	-0.057	0.013
-673.135	-61.689	-0.040	-0.017
-672.120	-200.000	-0.053	0.413
-671.105	21.334	-0.189	0.154
-670.091	800.000	-0.070	0.207
-669.076	32.879	-0.136	0.119
-668.062	-15.524	-0.085	0.055
-667.047	221.688	0.092	-0.149
-666.032	-56.843	-0.086	-0.038
-665.018	518.793	0.113	-0.266
-664.003	102.175	0.101	-0.118
-662.989	-4.824	-0.137	0.095
-661.974	-68.950	0.280	0.109
-660.959	-94.604	0.015	-0.004
-659.945	-200.000	0.001	0.235
-658.930	-200.000	-0.015	0.144
-657.916	800.000	0.026	0.101
-656.901	-27.378	-0.274	-0.160
-655.886	156.992	-0.208	-0.290
-654.872	-29.383	-0.378	-0.218
-653.857	-141.420	0.243	0.025
-652.843	-99.820	-0.127	-0.032
-651.828	-200.000	-0.028	-0.287
-650.814	125.488	0.169	0.214
-649.799	800.000	-0.104	0.300
-648.784	293.705	-0.084	0.154
-647.770	14.122	-0.154	0.121
-646.755	-51.224	-0.123	0.058
-645.741	24.929	-0.180	-0.150
-644.726	193.341	0.202	-0.307
-643.711	800.000	0.042	-0.132
-642.697	-99.231	0.330	0.084
-641.682	0.847	-0.418	-0.301
-640.668	-112.848	-0.149	0.030
-639.653	-70.243	-0.233	-0.089
-638.638	-14.708	0.128	-0.083
-637.624	543.620	0.122	-0.293
-636.609	-200.000	0.001	0.126
-635.595	-200.000	-0.057	-0.304
-634.580	349.532	-0.054	0.106
-633.565	-153.844	0.094	0.006
-632.551	248.737	0.090	0.154
-631.536	-65.800	-0.396	-0.159
-630.522	-200.000	-0.034	0.293
-629.507	23.214	0.151	0.124
-628.492	-81.169	0.182	-0.060
-627.478	800.000	0.080	0.256
-626.463	-110.267	-0.103	-0.022
-625.449	-12.308	-0.082	-0.054
-624.434	631.247	-0.093	0.237
-623.419	68.175	0.113	-0.117
-622.405	-33.472	0.121	-0.067
-621.390	-102.865	-0.276	-0.066
-620.376	532.224	-0.169	-0.402
-619.361	-144.698	-0.093	-0.009
-618.346	-168.527	-0.439	0.017
-617.332	-200.000	0.033	0.232
-616.317	800.000	-0.079	-0.241
-615.303	800.000	0.081	-0.245
-614.288	-60.026	-0.238	0.102
-613.273	800.000	-0.039	0.141
-612.259	-78.056	-0.207	0.072
-611.244	800.000	0.141	0.433
-610.230	-145.401	0.246	-0.022
-609.215	800.000	-0.060	-0.215
-608.201	395.771	0.055	-0.115
-607.186	-130.168	-0.163	-0.022
-606.171	-140.019	0.205	-0.022
-605.157	-28.302	-0.307	0.178
-604.142	800.000	-0.090	-0.382
-603.128	6.169	0.232	-0.173
-602.113	-73.510	-0.207	-0.076
-601.098	13.579	0.162	-0.126
-600.084	454.596	-0.063	0.141
-599.069	-68.338	0.236	-0.092
-598.055	-103.104	-0.318	0.076
-597.040	-200.000	-0.019	-0.333
-596.025	-26.865	-0.192	-0.113
-595.011	800.000	0.034	0.135
-593.996	423.454	-0.088	0.191
-592.982	-200.000	-0.019	0.139
-591.967	-4.683	-0.126	-0.087
-590.952	102.718	0.131	-0.154
-589.938	-94.054	0.174	0.048
-588.923	800.000	-0.026	0.085
-587.909	76.486	-0.072	-0.077
-586.894	-112.652	-0.295	0.059
-585.879	-200.000	0.100	0.489
-584.865	-169.598	0.072	0.003
-583.850	125.433	-0.075	0.095
-582.836	254.920	0.089	0.152
-581.821	-58.588	-0.310	-0.135
-580.806	-110.248	0.217	0.045
-579.792	149.777	0.210	-0.286
-578.777	800.000	-0.070	-0.221
-577.763	151.362	-0.103	-0.141
-576.748	-200.000	0.012	-0.081
-575.733	-55.998	-0.186	0.083
-574.719	-145.497	0.341	-0.031
-573.704	371.999	-0.060	0.122
-572.690	29.245	-0.123	0.105
-571.675	800.000	0.077	-0.296
-570.661	-150.638	0.091	0.007
-569.646	-200.000	-0.019	-0.114
-568.631	-61.502	-0.369	-0.155
-567.617	166.487	0.052	-0.074
-566.602	-47.736	-0.316	-0.154
-565.588	122.013	-0.240	-0.300
-564.573	-134.012	0.305	-0.038
-563.558	-200.000	-0.039	0.186
-562.544	-73.575	-0.205	0.075
-561.529	127.208	-0.021	0.026
-560.515	-103.851	-0.080	-0.019
-559.500	198.596	0.111	0.170
-558.485	-157.769	0.348	0.021
-557.471	-159.158	-0.343	0.019
-556.456	35.349	-0.224	0.197
-555.442	-35.633	-0.253	0.138
-554.427	56.234	0.170	0.165
-553.412	800.000	-0.046	-0.155
-552.398	-18.478	-0.053	-0.033
-551.383	-18.257	0.087	0.054
-550.369	-183.650	0.322	-0.006
-549.354	-35.955	0.090	0.049
-548.339	4.701	0.302	-0.222
-547.325	-63.373	-0.343	0.141
-546.310	-13.532	-0.317	0.206
-545.296	800.000	-0.085	-0.372
-544.281	800.000	-0.023	0.095
-543.266	114.046	-0.139	0.170
-542.252	83.889	-0.082	-0.089
-541.237	-200.000	-0.013	-0.180
-540.223	-200.000	-0.010	-0.119
-539.208	-42.762	-0.340	-0.173
-538.193	13.453	-0.139	-0.108
-537.179	-59.468	-0.401	-0.172
-536.164	-86.837	-0.096	0.029
-535.150	-200.000	0.063	-0.316
-534.135	-200.000	0.022	-0.209
-533.121	130.833	-0.107	-0.138
-532.106	-66.708	0.175	0.070
-531.091	-68.219	0.370	-0.144
-530.077	-200.000	-0.030	0.146
-529.062	-53.816	-0.213	-0.097
-528.048	225.429	0.194	-0.315
-527.033	-200.000	-0.032	-0.206
-526.018	105.772	0.213	0.253
-525.004	63.106	0.046	-0.046
-523.989	494.435	0.044	-0.101
-522.975	125.647	0.263	-0.332
-521.960	-200.000	-0.004	-0.037
-520.945	265.725	-0.086	-0.151
-519.931	-2.332	-0.104	-0.073
-518.916	-106.583	0.283	0.063
-517.902	193.163	-0.098	-0.149
-516.887	6.143	0.108	0.080
-515.872	-90.931	-0.231	0.067
-514.858	800.000	0.037	0.152
-513.843	18.548	-0.075	-0.060
-512.829	-70.177	-0.313	-0.119
-511.814	19.633	0.060	0.049
-510.799	-200.000	-0.023	0.188
-509.785	147.105	0.109	0.146
-508.770	312.053	0.107	-0.201
-507.756	-30.468	0.151	-0.086
-506.741	-50.331	0.163	0.077
-505.726	-200.000	0.014	0.083
-504.712	108.200	-0.011	0.013
-503.697	-60.761	0.242	0.103
-502.683	-177.958	-0.170	-0.004
-501.668	280.835	0.169	0.303
-500.653	473.226	0.109	0.246
-499.639	12.342	0.119	0.091
-498.624	745.717	0.076	0.203
-497.610	-62.843	0.089	-0.037
-496.595	-89.524	-0.085	-0.025
-495.581	-52.675	-0.281	0.130
-494.566	-200.000	-0.019	0.419
-493.551	542.763	0.150	0.357
-492.537	95.575	-0.098	-0.112
-491.522	611.326	-0.064	0.160
-490.508	800.000	-0.018	0.077
-489.493	-21.022	0.091	-0.056
-488.478	97.395	0.054	0.062
-487.464	-15.810	-0.158	0.100
-486.449	-33.001	-0.154	0.086
-485.435	20.519	0.144	0.117
-484.420	-4.314	0.283	0.196
-483.405	50.412	0.201	-0.190
-482.391	-39.339	-0.308	-0.162
-481.376	-8.083	0.302	-0.203
-480.362	-200.000	0.008	0.099
-479.347	-61.711	-0.078	-0.033
-478.332	-97.099	0.266	0.070
-477.318	191.084	0.114	0.171
-476.303	-160.184	0.341	-0.018
-475.289	-86.122	-0.072	0.022
-474.274	800.000	0.068	0.197
-473.259	-192.288	-0.223	-0.002
-472.245	-142.129	0.250	-0.025
-471.230	-1.786	0.297	-0.209
-470.216	59.318	0.295	-0.291
-469.201	-200.000	-0.003	-0.221
-468.186	378.868	0.036	0.073
-467.172	208.272	0.198	-0.309
-466.157	-69.560	-0.320	0.122
-465.143	101.626	-0.129	0.150
-464.128	-80.903	0.444	-0.147
-463.113	-28.302	-0.223	0.129
-462.099	-200.000	0.009	-0.171
-461.084	-26.062	0.244	-0.143
-460.070	-146.758	0.145	-0.013
-459.055	-142.933	-0.184	-0.018
-458.040	-69.210	-0.060	0.023
-457.026	800.000	0.040	0.169
-456.011	449.233	-0.101	-0.222
-454.997	-117.547	-0.459	-0.083
-453.982	-50.029	0.129	-0.061
-452.968	-200.000	0.141	0.000
-451.953	-86.236	0.460	-0.142
-450.938	-124.242	0.221	-0.034
-449.924	-200.000	0.017	-0.452
-448.909	-200.000	-0.021	-0.102
-447.895	-69.552	0.346	0.132
-446.880	53.694	0.235	0.225
-445.865	800.000	-0.037	-0.159
-444.851	-132.765	-0.162	-0.021
-443.836	-56.184	0.511	-0.227
-442.822	-200.000	0.022	0.137
-441.807	800.000	-0.071	0.210
-440.792	800.000	-0.045	0.192
-439.778	305.986	0.018	-0.034
-438.763	18.895	0.061	-0.049
-437.749	800.000	-0.036	-0.125
-436.734	-46.849	-0.282	-0.138
-435.719	430.754	0.083	0.180
-434.705	137.751	0.085	0.111
-433.690	-200.000	0.053	-0.309
-432.676	800.000	-0.049	-0.192
-431.661	-200.000	0.031	-0.237
-430.646	493.318	-0.117	-0.267
-429.632	54.973	0.152	0.146
-428.617	-200.000	0.005	-0.056
-427.603	-136.665	0.083	-0.010
-426.588	-130.797	-0.224	0.030
-425.573	-95.627	0.074	-0.020
-424.559	-98.771	-0.108	-0.027
-423.544	234.423	0.120	0.198
-422.530	78.363	0.216	-0.229
-421.515	-76.881	-0.329	-0.115
-420.500	-157.531	0.205	0.012
-419.486	-82.322	0.266	0.086
-418.471	355.475	-0.021	-0.043
-417.457	-200.000	-0.104	-0.000
-416.442	131.279	0.100	-0.128
-415.428	-19.424	-0.317	-0.196
-414.413	-131.069	-0.276	-0.037
-413.398	-94.930	0.315	-0.085
-412.384	-119.203	0.320	0.056
-411.369	-19.628	-0.203	-0.125
-410.355	32.477	-0.288	-0.248
-409.340	800.000	0.043	0.142
-408.325	-11.334	0.168	0.110
-407.311	-200.000	0.044	-0.326
-406.296	-86.830	-0.196	-0.060
-405.282	-171.744	0.205	-0.007
-404.267	-30.931	0.198	0.111
-403.252	288.934	-0.122	-0.220
-402.238	-192.453	-0.163	-0.002
-401.223	-91.711	0.220	0.062
-400.209	-4.714	0.178	0.122
-399.194	-117.077	0.045	0.008
-398.179	-65.465	0.428	0.171
-397.165	60.238	-0.359	-0.354
-396.150	43.853	-0.149	-0.136
-395.136	-200.000	0.247	-0.000
-394.121	-144.190	-0.080	-0.007
-393.106	583.751	0.100	-0.245
-392.092	-52.296	0.118	0.055
-391.077	247.137	-0.336	0.565
-390.063	-2.692	0.206	-0.143
-389.048	-200.000	0.052	0.395
-388.033	128.058	0.092	-0.117
-387.019	-73.974	-0.281	-0.102
-386.004	6.486	0.177	0.131
-384.990	315.926	0.106	0.198
-383.975	480.462	0.073	0.164
-382.960	-71.315	-0.200	-0.075
-381.946	277.237	0.114	0.202
-380.931	112.573	0.103	-0.125
-379.917	287.810	-0.191	-0.343
-378.902	-108.110	-0.040	-0.009
-377.888	-23.281	-0.173	0.103
-376.873	-200.000	0.069	-0.330
-375.858	-168.228	-0.142	0.005
-374.844	35.123	-0.068	-0.060
-373.829	-90.265	0.230	-0.066
-372.815	416.508	0.092	-0.195
-371.800	-100.233	-0.173	0.043
-370.785	-74.462	-0.203	0.073
-369.771	367.518	-0.153	-0.308
-368.756	-44.770	-0.226	0.112
-367.742	619.736	-0.061	-0.152
-366.727	-59.893	-0.385	-0.164
-365.712	170.723	-0.228	0.326
-364.698	41.346	0.140	0.126
-363.683	-32.120	-0.235	0.130
-362.669	-155.356	-0.136	-0.009
-361.654	-200.000	-0.024	-0.145
-360.639	-130.948	-0.191	-0.025
-359.625	-65.010	0.151	0.061
-358.610	10.687	0.057	0.043
-357.596	261.003	0.119	0.204
-356.581	800.000	0.043	-0.139
-355.566	139.487	-0.253	0.331
-354.552	-200.000	-0.007	-0.147
-353.537	45.837	0.064	-0.059
-352.523	-200.000	-0.002	0.138
-351.508	39.019	-0.325	0.289
-350.493	-155.121	0.076	-0.005
-349.479	107.834	0.154	0.183
-348.464	74.509	0.027	0.028
-347.450	-200.000	0.020	0.121
-346.435	14.935	-0.137	0.106
-345.420	5.159	0.217	-0.159
-344.406	-100.299	0.364	-0.090
-343.391	-74.829	0.289	-0.103
-342.377	656.565	-0.104	0.265
-341.362	-76.192	-0.157	-0.055
-340.348	-200.000	0.040	0.217
-339.333	-31.319	0.149	-0.083
-338.318	-110.449	0.425	-0.088
-337.304	-103.820	-0.233	-0.054
-336.289	-200.000	0.015	0.281
-335.275	-5.628	0.277	-0.189
-334.260	800.000	-0.018	-0.072
-333.245	800.000	0.089	0.305
-332.231	-115.742	-0.286	0.053
-331.216	121.640	-0.216	-0.268
-330.202	800.000	-0.075	-0.301
-329.187	285.566	0.033	-0.060
-328.172	-119.442	-0.250	0.043
-327.158	93.911	0.324	0.365
-326.143	-13.774	-0.098	0.063
-325.129	-200.000	-0.011	0.097
-324.114	85.088	0.208	0.227
-323.099	-200.000	-0.034	0.218
-322.085	-200.000	0.015	-0.146
-321.070	-200.000	-0.015	0.224
-320.056	240.345	0.138	0.228
-319.041	-24.180	0.310	-0.184
-318.026	-34.468	-0.069	-0.038
-317.012	266.282	-0.025	-0.043
-315.997	-87.477	-0.248	0.074
-314.983	-51.351	0.133	-0.062
-313.968	-37.176	0.281	0.149
-312.953	142.676	0.056	0.074
-311.939	-165.366	-0.365	-0.016
-310.924	47.348	0.284	-0.262
-309.910	800.000	-0.117	0.358
-308.895	36.588	0.225	0.197
-307.880	-102.990	0.283	-0.067
-306.866	-104.071	-0.094	0.022
-305.851	-200.000	-0.028	0.379
-304.837	-27.382	-0.465	0.268
-303.822	800.000	-0.061	-0.186
-302.807	-72.511	-0.261	-0.096
-301.793	-35.402	-0.183	0.099
-300.778	586.097	-0.126	0.308
-299.764	-160.775	-0.247	0.013
-298.749	-169.509	-0.124	-0.004
-297.735	-132.107	-0.051	0.007
-296.720	40.878	-0.273	0.245
-295.705	58.676	0.278	-0.271
-294.691	-39.260	0.125	0.065
-293.676	42.831	-0.269	-0.243
-292.662	-48.922	-0.175	0.083
-291.647	49.569	0.080	0.075
-290.632	-200.000	0.004	-0.022
-289.618	-95.676	-0.080	-0.021
-288.603	800.000	0.026	-0.090
-287.589	-54.994	0.307	-0.137
-286.574	-42.251	0.082	0.042
-285.559	-68.244	-0.263	0.101
-284.545	-200.000	-0.034	-0.243
-283.530	-173.085	0.237	0.007
-282.516	30.029	0.089	0.075
-281.501	-53.840	0.150	-0.068
-280.486	-97.365	0.252	-0.065
-279.472	-45.940	0.251	-0.123
-278.457	-110.990	0.143	0.029
-277.443	401.074	-0.241	-0.502
-276.428	-200.000	0.047	-0.297
-275.413	29.382	0.202	0.170
-274.399	-114.650	-0.317	-0.060
-273.384	-16.971	0.233	-0.146
-272.370	-200.000	-0.021	-0.296
-271.355	-28.698	0.148	0.085
-270.340	-130.149	0.106	0.014
-269.326	-23.007	-0.467	-0.279
-268.311	69.576	-0.086	0.087
-267.297	-200.000	0.029	0.173
-266.282	-164.709	-0.404	0.018
-265.267	-69.123	0.060	0.023
-264.253	-7.433	0.219	-0.147
-263.238	131.671	0.154	-0.196
-262.224	121.181	-0.093	0.115
-261.209	2.043	0.219	0.156
-260.195	370.878	0.065	-0.131
-259.180	-47.164	-0.073	-0.035
-258.165	108.238	-0.001	-0.001
-257.151	-15.371	0.118	0.075
-256.136	-200.000	-0.009	-0.362
-255.122	3.696	0.114	-0.082
-254.107	800.000	-0.101	-0.311
-253.092	-200.000	-0.023	0.230
-252.078	32.547	0.174	0.149
-251.063	-200.000	0.079	0.474
-250.049	125.361	0.127	-0.159
-249.034	22.422	0.067	-0.054
-248.019	-49.737	0.035	-0.016
-247.005	48.925	-0.265	-0.246
-245.990	342.952	0.080	-0.156
-244.976	-200.000	0.013	0.114
-243.961	-4.128	-0.315	-0.216
-242.946	-111.401	-0.129	0.026
-241.932	-28.591	0.090	-0.051
-240.917	-200.000	0.031	0.284
-239.903	-66.841	-0.413	-0.162
-238.888	197.531	-0.197	0.298
-237.873	-200.000	0.017	-0.148
-236.859	-74.061	0.206	0.074
-235.844	-49.960	0.147	-0.069
-234.830	320.387	-0.004	0.008
-233.815	-19.592	-0.211	-0.129
-232.800	800.000	0.134	0.432
-231.786	586.152	-0.120	0.293
-230.771	166.080	0.056	0.079
-229.757	-200.000	-0.036	0.168
-228.742	-86.718	-0.043	-0.013
-227.727	-200.000	0.016	0.217
-226.713	-200.000	0.008	-0.287
-225.698	800.000	0.059	-0.238
-224.684	-37.838	-0.077	-0.041
-223.669	-200.000	0.003	-0.241
-222.655	800.000	-0.028	-0.077
-221.640	800.000	0.123	0.415
-220.625	-200.000	-0.014	0.457
-219.611	-54.781	0.196	-0.087
-218.596	-92.508	-0.209	0.058
-217.582	188.821	0.165	0.245
-216.567	-6.939	0.266	0.178
-215.552	98.730	0.209	0.238
-214.538	-114.920	0.309	0.058
-213.523	-200.000	-0.035	-0.481
-212.509	800.000	-0.095	-0.309
-211.494	-59.773	0.402	0.170
-210.479	103.810	0.170	0.197
-209.465	-112.539	0.332	0.066
-208.450	-200.000	-0.019	-0.101
-207.436	-103.511	-0.183	-0.043
-206.421	38.391	0.170	0.150
-205.406	-200.000	0.023	-0.230
-204.392	-200.000	0.051	0.575
-203.377	-200.000	0.011	0.169
-202.363	170.792	-0.236	-0.334
-201.348	-129.792	-0.446	-0.061
-200.333	-200.000	-0.038	0.191
-199.319	-42.856	0.411	-0.206
-198.304	-98.467	-0.380	-0.096
-197.290	-200.000	0.042	0.214
-196.275	-130.919	0.124	-0.016
-195.260	-200.000	-0.018	-0.148
-194.246	-200.000	0.040	-0.207
-193.231	-200.000	-0.002	-0.133
-192.217	-200.000	-0.040	0.284
-191.202	91.070	-0.074	0.082
-190.187	702.544	-0.096	0.249
-189.173	155.675	-0.113	0.154
-188.158	655.079	0.031	-0.079
-187.144	-136.611	0.374	-0.043
-186.129	113.797	0.136	0.164
-185.114	49.866	-0.104	0.097
-184.100	-156.128	0.167	-0.010
-183.085	126.407	-0.066	-0.082
-182.071	-128.648	-0.449	-0.063
-181.056	-76.974	0.035	0.012
-180.042	11.332	-0.322	0.244
-179.027	677.863	0.142	0.364
-178.012	800.000	0.043	0.168
-176.998	-200.000	0.018	0.261
-175.983	78.019	-0.128	-0.135
-174.969	800.000	0.084	0.276
-173.954	-79.249	0.234	-0.078
-172.939	800.000	-0.074	0.238
-171.925	4.333	-0.152	-0.110
-170.910	-200.000	-0.017	0.114
-169.896	34.173	0.187	-0.161
-168.881	-99.496	-0.236	0.059
-167.866	800.000	-0.080	0.245
-166.852	-136.417	-0.230	-0.026
-165.837	-114.011	0.083	0.016
-164.823	383.634	0.030	0.061
-163.808	448.914	0.037	-0.080
-162.793	-140.527	-0.444	-0.046
-161.779	706.117	-0.008	-0.021
-160.764	-17.173	-0.074	0.046
-159.750	141.416	0.193	0.252
-158.735	-200.000	-0.032	0.167
-157.720	-117.793	0.045	-0.008
-156.706	204.637	-0.076	-0.117
-155.691	607.840	-0.053	-0.131
-154.677	-121.793	-0.068	-0.011
-153.662	-89.788	0.571	-0.165
-152.647	-67.793	-0.050	0.019
-151.633	726.169	0.121	0.318
-150.618	418.251	-0.049	-0.103
-149.604	-127.815	-0.256	-0.036
-148.589	-200.000	0.000	-0.148
-147.574	520.156	0.064	-0.148
-146.560	-78.044	-0.178	-0.061
-145.545	-99.367	0.157	0.039
-144.531	800.000	0.054	-0.233
-143.516	800.000	0.039	-0.137
-142.502	181.529	-0.188	-0.273
-141.487	214.588	0.107	-0.166
-140.472	-72.402	0.153	-0.056
-139.458	721.569	0.127	0.332
-138.443	102.309	-0.075	0.086
-137.429	-200.000	-0.030	-0.383
-136.414	-200.000	0.016	0.109
-135.399	800.000	0.045	-0.162
-134.385	-10.439	0.032	-0.021
-133.370	264.713	-0.162	-0.278
-132.356	3.766	-0.240	0.173
-131.341	-62.105	-0.234	-0.096
-130.326	195.877	-0.187	0.281
-129.312	118.629	0.123	0.150
-128.297	800.000	0.018	-0.058
-127.283	-151.226	-0.184	-0.014
-126.268	54.561	0.242	-0.230
-125.253	15.310	0.256	-0.198
-124.239	-200.000	-0.025	-0.388
-123.224	800.000	0.072	0.228
-122.210	34.853	-0.141	0.121
