DTS Sentinel unit serial number:	SN413079Multiplexer serial number:	ORYXHardware model number:	OX4-SRSoftware version number:	ORYX F/W v4.00 Oryx Data Collector v3.7.2.0data status	okinstallation	princeton_trtdifferential loss correction	single-endedforward channel	channel 2reverse channel	N/Adate	2019/09/16time	05:55:35forward acquisition time	60.00reverse acquisition time	0.00gamma	496.2192k internal	0.2334k external	0.2334temperature offset calibration	0.9977default loss term (dB/km)	0.3790temperature slope calibration	1.0000multiplexer offset coefficient	1.0000multiplexer slope coefficient	1.0000fibre end	0.00T internal ref (°C)	27.41T ext. ref 1 (°C)	11.24T ext. ref 2 (°C)	22.17length (m)	temperature (°C)	Stokes	anti-Stokes-747.200	-115.982	0.041	-0.008
-746.185	21.655	-0.307	0.251
-745.171	157.281	0.119	0.166
-744.156	-139.020	-0.306	0.033
-743.142	-200.000	0.002	-0.109
-742.127	353.979	0.197	0.393
-741.112	-9.497	0.606	0.406
-740.098	1.240	-0.157	0.113
-739.083	-56.067	-0.142	-0.063
-738.069	-33.624	-0.337	-0.187
-737.054	-25.481	0.041	-0.024
-736.039	79.861	0.162	0.175
-735.025	-22.010	0.189	0.115
-734.010	-200.000	-0.023	-0.237
-732.996	-72.612	0.354	0.131
-731.981	-66.862	-0.522	-0.207
-730.966	-53.824	0.229	0.105
-729.952	349.482	0.139	0.276
-728.937	800.000	-0.089	0.301
-727.923	-101.248	0.181	0.044
-726.908	800.000	0.076	0.331
-725.894	98.300	-0.125	0.144
-724.879	-200.000	-0.060	-0.322
-723.864	-95.685	0.287	-0.077
-722.850	-14.353	-0.090	0.058
-721.835	445.990	-0.093	-0.206
-720.821	-130.190	-0.240	0.033
-719.806	98.942	-0.132	-0.153
-718.791	297.911	-0.157	0.290
-717.777	12.936	0.123	-0.096
-716.762	74.957	0.296	-0.313
-715.748	800.000	0.058	0.174
-714.733	134.261	0.224	0.291
-713.718	96.483	-0.163	-0.187
-712.704	-65.159	-0.324	-0.131
-711.689	800.000	-0.034	0.135
-710.675	-114.934	0.155	-0.030
-709.660	16.785	-0.125	-0.099
-708.645	42.928	0.154	-0.141
-707.631	-3.624	-0.069	0.048
-706.616	131.459	0.237	0.306
-705.602	178.932	-0.094	-0.137
-704.587	-58.739	-0.258	0.112
-703.572	-136.123	0.303	0.036
-702.558	-143.416	-0.419	-0.040
-701.543	123.292	0.060	0.075
-700.529	-200.000	-0.025	0.133
-699.514	800.000	-0.078	0.268
-698.499	-91.816	-0.304	-0.087
-697.485	412.099	0.113	-0.241
-696.470	-46.512	-0.012	0.006
-695.456	398.932	0.134	0.281
-694.441	44.502	0.106	0.097
-693.426	41.275	-0.029	0.026
-692.412	-36.072	-0.299	-0.162
-691.397	19.330	-0.148	-0.119
-690.383	-110.385	-0.111	-0.023
-689.368	-11.442	0.334	-0.220
-688.354	554.393	0.051	0.123
-687.339	135.233	0.139	-0.181
-686.324	-137.634	0.161	0.018
-685.310	-14.246	-0.299	0.193
-684.295	-137.474	-0.281	0.032
-683.281	-200.000	0.023	0.293
-682.266	-17.496	-0.216	-0.136
-681.251	-0.881	0.207	0.147
-680.237	800.000	-0.050	-0.162
-679.222	-163.102	-0.236	-0.011
-678.208	-22.696	-0.165	0.100
-677.193	-200.000	0.018	-0.301
-676.178	131.462	0.207	-0.266
-675.164	188.285	0.056	-0.084
-674.149	5.789	0.172	0.127
-673.135	-200.000	-0.047	-0.278
-672.120	-154.115	-0.038	0.003
-671.105	800.000	-0.104	0.304
-670.091	-96.563	0.070	0.018
-669.076	-196.304	-0.174	-0.001
-668.062	213.718	-0.118	-0.186
-667.047	-146.045	-0.198	-0.018
-666.032	512.404	-0.021	-0.048
-665.018	342.048	-0.161	0.316
-664.003	457.029	-0.126	0.281
-662.989	-129.287	0.029	-0.004
-661.974	-53.527	-0.347	-0.159
-660.959	217.261	-0.033	-0.053
-659.945	277.397	-0.167	-0.297
-658.930	20.420	0.245	-0.199
-657.916	800.000	-0.024	0.092
-656.901	-4.691	0.297	0.206
-655.886	800.000	-0.055	0.205
-654.872	89.372	-0.153	-0.171
-653.857	-99.628	0.133	-0.033
-652.843	-200.000	0.002	-0.014
-651.828	389.041	-0.055	0.115
-650.814	-200.000	0.033	-0.150
-649.799	336.401	-0.108	-0.209
-648.784	-200.000	0.026	-0.140
-647.770	73.709	-0.240	-0.252
-646.755	143.092	-0.055	0.074
-645.741	78.710	0.138	-0.148
-644.726	-56.028	0.189	0.085
-643.711	45.828	-0.122	0.113
-642.697	-65.011	-0.266	-0.107
-641.682	800.000	-0.088	0.303
-640.668	186.963	-0.022	-0.033
-639.653	-200.000	0.067	-0.341
-638.638	136.236	0.139	-0.181
-637.624	-52.641	-0.364	0.168
-636.609	11.989	0.198	0.153
-635.595	800.000	-0.059	-0.184
-634.580	-200.000	-0.013	-0.324
-633.565	-29.857	0.210	-0.120
-632.551	-87.785	-0.088	-0.027
-631.536	-83.345	-0.094	-0.030
-630.522	800.000	0.049	0.155
-629.507	165.456	0.060	0.085
-628.492	-116.173	-0.078	-0.015
-627.478	-54.597	0.148	0.067
-626.463	3.127	0.146	-0.106
-625.449	-87.108	-0.114	0.035
-624.434	-89.962	0.419	0.122
-623.419	508.898	-0.114	0.265
-622.405	8.865	-0.363	0.274
-621.390	-200.000	-0.027	0.288
-620.376	-200.000	0.012	-0.064
-619.361	143.076	0.179	0.238
-618.346	-6.991	0.309	0.210
-617.332	-16.674	-0.176	-0.112
-616.317	-120.076	0.204	0.035
-615.303	-153.143	0.192	0.013
-614.288	125.067	0.232	0.293
-613.273	-137.040	-0.252	-0.029
-612.259	317.086	0.089	0.169
-611.244	-17.954	0.364	-0.228
-610.230	193.798	-0.106	-0.160
-609.215	-31.957	0.118	0.066
-608.201	290.160	-0.055	-0.100
-607.186	-88.656	0.191	-0.057
-606.171	29.894	-0.457	0.390
-605.157	200.853	-0.207	0.318
-604.142	-200.000	0.014	0.064
-603.128	57.638	0.215	-0.210
-602.113	-15.803	-0.063	0.040
-601.098	303.946	-0.358	-0.663
-600.084	799.177	-0.125	0.344
-599.069	183.661	0.021	0.030
-598.055	-97.126	-0.171	0.045
-597.040	-5.965	-0.099	0.068
-596.025	142.117	-0.073	0.097
-595.011	-100.308	-0.278	0.069
-593.996	-200.000	0.011	-0.082
-592.982	7.814	-0.107	-0.080
-591.967	122.216	0.162	-0.202
-590.952	180.740	-0.087	-0.128
-589.938	800.000	-0.074	0.227
-588.923	-44.728	0.144	-0.072
-587.909	305.774	0.184	-0.342
-586.894	-67.278	0.206	0.081
-585.879	-1.211	0.177	-0.125
-584.865	306.074	-0.014	0.026
-583.850	-141.592	0.216	0.022
-582.836	214.654	-0.092	0.146
-581.821	19.514	-0.248	0.199
-580.806	139.412	-0.153	-0.201
-579.792	20.056	-0.164	0.132
-578.777	572.450	0.113	0.275
-577.763	156.927	0.128	-0.176
-576.748	-82.035	-0.133	-0.043
-575.733	-31.850	-0.274	0.153
-574.719	104.408	0.156	-0.184
-573.704	-169.197	0.409	-0.015
-572.690	234.653	-0.114	0.187
-571.675	-200.000	-0.007	0.149
-570.661	-200.000	-0.015	0.228
-569.646	29.793	0.176	0.150
-568.631	193.095	-0.060	-0.091
-567.617	-81.646	0.114	-0.037
-566.602	-22.417	-0.408	-0.247
-565.588	254.260	0.096	0.164
-564.573	-200.000	-0.027	-0.187
-563.558	63.954	0.340	0.341
-562.544	-17.896	0.191	0.120
-561.529	-99.094	-0.474	-0.120
-560.515	-200.000	0.028	-0.171
-559.500	-33.549	-0.346	-0.190
-558.485	800.000	-0.007	-0.026
-557.471	-200.000	-0.021	0.167
-556.456	112.282	0.180	0.218
-555.442	21.045	0.044	-0.036
-554.427	-19.768	0.187	-0.115
-553.412	193.427	0.129	-0.195
-552.398	-200.000	-0.012	-0.159
-551.383	-158.815	-0.341	0.019
-550.369	298.585	-0.049	0.090
-549.354	-200.000	0.012	0.307
-548.339	89.126	-0.104	-0.116
-547.325	800.000	-0.086	0.289
-546.310	139.822	-0.111	0.146
-545.296	-32.911	-0.195	0.108
-544.281	31.101	-0.191	-0.163
-543.266	-115.419	0.091	-0.017
-542.252	-113.130	0.223	0.044
-541.237	224.055	-0.135	0.218
-540.223	-100.539	0.181	0.045
-539.208	4.229	-0.229	-0.167
-538.193	6.361	-0.294	0.217
-537.179	-141.653	0.071	-0.007
-536.164	-196.597	-0.119	-0.001
-535.150	-99.113	-0.139	0.035
-534.135	225.666	-0.298	0.482
-533.121	-200.000	-0.006	-0.035
-532.106	800.000	-0.069	-0.193
-531.091	-200.000	-0.020	-0.123
-530.077	17.041	0.170	-0.134
-529.062	2.465	-0.099	-0.072
-528.048	-94.111	-0.099	-0.027
-527.033	-35.904	-0.102	0.055
-526.018	-10.499	-0.196	-0.129
-525.004	-98.541	-0.212	-0.054
-523.989	800.000	0.074	-0.294
-522.975	-165.185	-0.161	0.007
-521.960	115.242	0.066	-0.080
-520.945	650.262	-0.147	-0.376
-519.931	-54.054	-0.216	0.098
-518.916	-103.229	0.168	0.040
-517.902	800.000	-0.105	0.303
-516.887	-49.753	-0.164	-0.078
-515.872	-137.448	-0.180	0.020
-514.858	-102.550	-0.311	0.074
-513.843	800.000	0.005	0.021
-512.829	189.437	0.068	0.101
-511.814	3.606	-0.165	0.120
-510.799	-71.021	0.310	0.116
-509.785	800.000	0.079	0.306
-508.770	115.538	0.110	0.134
-507.756	492.046	0.092	0.209
-506.741	800.000	-0.141	0.494
-505.726	-102.241	-0.096	0.023
-504.712	41.680	0.179	0.161
-503.697	545.238	-0.117	-0.279
-502.683	-48.738	0.280	0.134
-501.668	-200.000	0.029	-0.346
-500.653	-108.781	0.173	-0.037
-499.639	-122.662	0.192	0.031
-498.624	-74.561	0.302	0.108
-497.610	-200.000	0.026	0.435
-496.595	428.092	0.153	-0.328
-495.581	-0.995	0.176	0.124
-494.566	136.031	0.341	-0.442
-493.551	-82.753	0.076	0.024
-492.537	-8.705	0.160	0.107
-491.522	16.266	0.107	0.084
-490.508	-97.751	0.180	0.046
-489.493	35.941	-0.246	-0.215
-488.478	-149.040	0.219	0.017
-487.464	-192.565	0.187	0.002
-486.449	24.344	0.094	0.078
-485.435	152.457	0.043	0.059
-484.420	66.732	-0.194	-0.196
-483.405	-29.957	-0.281	-0.159
-482.391	-154.155	-0.148	-0.010
-481.376	-200.000	-0.001	-0.217
-480.362	-97.394	0.164	0.043
-479.347	-2.420	-0.136	0.095
-478.332	800.000	-0.033	0.093
-477.318	98.873	0.134	-0.154
-476.303	-200.000	-0.053	-0.439
-475.289	254.741	-0.181	0.308
-474.274	-152.604	-0.378	0.027
-473.259	199.250	-0.096	-0.146
-472.245	81.228	-0.110	0.118
-471.230	-132.829	-0.093	-0.012
-470.216	-120.471	0.147	0.025
-469.201	608.463	0.007	-0.016
-468.186	574.137	0.174	-0.421
-467.172	-144.424	-0.145	-0.013
-466.157	-81.983	-0.236	0.077
-465.143	-80.043	0.469	-0.156
-464.128	800.000	-0.113	-0.401
-463.113	-26.767	0.143	-0.083
-462.099	-52.197	-0.193	-0.089
-461.084	-86.649	0.364	0.111
-460.070	-54.315	0.223	-0.100
-459.055	-43.704	0.066	0.033
-458.040	-93.575	-0.486	0.133
-457.026	-200.000	-0.037	-0.196
-456.011	-94.589	0.410	0.111
-454.997	19.568	-0.133	-0.106
-453.982	564.693	-0.051	0.124
-452.968	385.504	0.153	-0.314
-451.953	-99.599	0.269	0.067
-450.938	157.930	0.231	-0.318
-449.924	78.602	0.115	-0.122
-448.909	82.521	0.213	-0.229
-447.895	-95.338	-0.198	0.053
-446.880	27.890	0.110	-0.092
-445.865	-52.853	0.066	-0.030
-444.851	-161.939	0.093	-0.005
-443.836	-109.156	-0.267	-0.056
-442.822	129.114	0.188	-0.238
-441.807	50.750	-0.209	-0.196
-440.792	168.695	-0.151	0.214
-439.778	800.000	0.061	-0.239
-438.763	-200.000	-0.027	-0.150
-437.749	242.833	-0.352	-0.585
-436.734	-123.350	0.141	0.022
-435.719	-111.835	-0.346	0.069
-434.705	49.839	-0.074	0.069
-433.690	5.622	-0.095	0.070
-432.676	-200.000	0.008	-0.136
-431.661	488.530	-0.089	-0.201
-430.646	-56.723	0.178	-0.078
-429.632	335.974	-0.108	-0.208
-428.617	131.779	-0.210	-0.268
-427.603	60.313	-0.082	-0.080
-426.588	-200.000	0.041	-0.238
-425.573	-102.217	0.497	-0.118
-424.559	800.000	0.011	0.039
-423.544	-11.992	-0.108	-0.070
-422.530	-200.000	0.019	-0.184
-421.515	-82.832	0.027	-0.009
-420.500	6.936	-0.197	-0.146
-419.486	-10.082	-0.297	0.196
-418.471	-182.184	0.091	-0.002
-417.457	800.000	0.127	-0.469
-416.442	-76.012	-0.293	-0.103
-415.428	19.056	0.220	-0.175
-414.413	-59.234	0.140	0.060
-413.398	-60.635	0.145	-0.061
-412.384	6.561	-0.148	-0.109
-411.369	-10.343	-0.163	0.108
-410.355	-200.000	-0.007	-0.091
-409.340	83.587	-0.113	-0.122
-408.325	67.671	0.164	-0.166
-407.311	-95.970	0.234	-0.062
-406.296	97.120	-0.065	-0.074
-405.282	-94.731	-0.217	0.058
-404.267	555.398	0.099	0.236
-403.252	0.912	-0.112	0.080
-402.238	-97.087	0.299	-0.078
-401.223	127.182	-0.136	0.171
-400.209	-200.000	-0.005	-0.101
-399.194	-200.000	-0.032	-0.219
-398.179	40.178	0.215	0.191
-397.165	-18.571	0.226	-0.140
-396.150	-67.257	-0.130	-0.051
-395.136	40.595	-0.175	0.156
-394.121	32.957	-0.391	-0.335
-393.106	26.800	0.246	-0.204
-392.092	17.107	0.192	-0.151
-391.077	17.484	0.147	-0.116
-390.063	800.000	-0.067	0.227
-389.048	136.363	0.034	0.044
-388.033	-111.346	0.031	-0.006
-387.019	-83.594	0.450	-0.143
-386.004	-38.123	0.273	0.143
-384.990	751.195	-0.066	-0.175
-383.975	-109.718	0.490	-0.102
-382.960	800.000	-0.017	-0.060
-381.946	661.044	0.097	0.248
-380.931	549.792	0.092	-0.217
-379.917	162.795	-0.137	-0.190
-378.902	672.696	-0.075	-0.192
-377.888	-51.474	0.116	0.054
-376.873	-117.452	-0.129	0.023
-375.858	-122.273	0.064	-0.010
-374.844	-41.335	0.271	-0.138
-373.829	-61.601	0.149	-0.062
-372.815	435.763	-0.085	0.183
-371.800	69.963	-0.060	-0.061
-370.785	-139.634	-0.358	-0.038
-369.771	-200.000	-0.001	0.301
-368.756	-106.804	0.443	-0.097
-367.742	-113.086	0.290	0.057
-366.727	-200.000	0.064	0.385
-365.712	131.730	0.086	0.109
-364.698	-160.617	0.264	0.014
-363.683	800.000	0.046	-0.153
-362.669	-110.392	-0.144	0.030
-361.654	-83.152	0.265	0.084
-360.639	158.882	-0.115	0.158
-359.625	134.253	-0.019	-0.024
-358.610	-103.034	0.130	-0.031
-357.596	76.577	0.138	0.145
-356.581	-21.996	-0.229	0.138
-355.566	135.200	-0.229	0.295
-354.552	-200.000	-0.009	-0.082
-353.537	-109.444	0.127	0.026
-352.523	-99.730	-0.631	-0.156
-351.508	-200.000	-0.044	-0.242
-350.493	64.573	0.145	0.145
-349.479	-55.304	0.269	0.119
-348.464	73.066	0.159	0.165
-347.450	-146.697	-0.300	-0.026
-346.435	157.818	0.100	-0.136
-345.420	800.000	0.106	-0.291
-344.406	800.000	0.014	-0.052
-343.391	175.563	0.051	0.074
-342.377	-4.818	-0.177	-0.121
-341.362	413.833	0.237	-0.500
-340.348	-200.000	-0.002	0.101
-339.333	95.565	0.031	0.035
-338.318	25.557	-0.189	0.155
-337.304	-200.000	0.022	0.154
-336.289	-200.000	-0.038	-0.169
-335.275	162.956	-0.070	-0.097
-334.260	130.314	-0.225	0.285
-333.245	-200.000	-0.051	0.222
-332.231	-32.052	-0.183	-0.101
-331.216	126.969	0.111	0.139
-330.202	43.824	0.291	-0.263
-329.187	-68.706	-0.439	-0.168
-328.172	127.881	-0.041	-0.052
-327.158	376.015	-0.088	-0.178
-326.143	306.033	-0.091	-0.167
-325.129	162.571	0.206	-0.286
-324.114	-16.983	0.147	0.091
-323.099	-200.000	-0.001	-0.141
-322.085	134.334	-0.166	-0.213
-321.070	137.559	0.157	0.203
-320.056	645.561	0.144	0.364
-319.041	146.753	0.196	0.261
-318.026	-67.064	-0.240	0.093
-317.012	800.000	0.127	0.455
-315.997	-163.611	-0.162	0.008
-314.983	140.976	-0.087	-0.114
-313.968	-200.000	0.011	-0.445
-312.953	68.151	-0.127	0.129
-311.939	-200.000	-0.285	0.000
-310.924	-200.000	-0.026	0.169
-309.910	-200.000	0.022	-0.096
-308.895	-200.000	-0.030	0.156
-307.880	-172.140	-0.149	0.005
-306.866	-200.000	-0.020	-0.108
-305.851	800.000	-0.105	-0.328
-304.837	-200.000	0.020	0.145
-303.822	157.552	0.241	0.329
-302.807	124.145	-0.069	-0.086
-301.793	131.647	0.114	-0.145
-300.778	522.981	0.083	-0.192
-299.764	-9.360	0.102	0.067
-298.749	370.973	-0.126	0.253
-297.735	-52.610	-0.093	0.042
-296.720	105.099	-0.076	0.089
-295.705	454.087	-0.210	-0.460
-294.691	-182.341	-0.335	-0.006
-293.676	261.235	-0.190	0.325
-292.662	110.122	0.107	0.127
-291.647	-124.969	0.333	-0.051
-290.632	-87.081	0.239	0.072
-289.618	-200.000	-0.032	0.228
-288.603	-43.947	-0.120	-0.060
-287.589	-200.000	-0.045	-0.384
-286.574	-3.320	-0.395	0.272
-285.559	-200.000	0.013	0.212
-284.545	245.905	-0.095	-0.158
-283.530	-174.346	0.094	-0.003
-282.516	-114.021	0.213	-0.041
-281.501	-200.000	-0.023	0.147
-280.486	-30.752	0.227	0.127
-279.472	-200.000	-0.475	-0.002
-278.457	-200.000	-0.006	-0.137
-277.443	-38.172	-0.074	-0.039
-276.428	-200.000	-0.011	0.107
-275.413	36.480	-0.135	-0.118
-274.399	59.402	-0.144	0.140
-273.384	-200.000	0.013	0.230
-272.370	-200.000	0.019	0.306
-271.355	712.115	-0.088	0.230
-270.340	-54.980	0.413	-0.184
-269.326	8.283	-0.160	-0.118
-268.311	51.888	-0.143	0.135
-267.297	26.971	0.180	0.149
-266.282	-40.500	0.172	-0.088
-265.267	-76.789	0.246	0.085
-264.253	-59.383	0.100	-0.043
-263.238	-171.861	0.198	-0.006
-262.224	14.537	-0.179	-0.138
-261.209	-21.616	-0.174	-0.105
-260.195	-29.935	0.318	0.179
-259.180	12.460	0.185	-0.141
-258.165	-200.000	0.000	-0.083
-257.151	205.470	-0.123	0.188
-256.136	-0.730	0.144	0.100
-255.122	800.000	0.081	0.253
-254.107	-200.000	0.035	-0.240
-253.092	-23.183	-0.176	-0.105
-252.078	-31.078	-0.081	0.045
-251.063	-27.783	0.002	-0.001
-250.049	208.180	-0.137	-0.211
-249.034	-200.000	-0.004	-0.135
-248.019	-200.000	-0.009	0.176
-247.005	65.325	0.206	0.205
-245.990	149.496	-0.055	0.073
-244.976	800.000	0.066	0.212
-243.961	-200.000	-0.017	-0.166
-242.946	52.897	-0.070	0.066
-241.932	-200.000	-0.010	0.062
-240.917	74.069	0.130	-0.134
-239.903	800.000	0.028	-0.106
-238.888	-11.320	-0.266	-0.172
-237.873	-141.569	-0.121	-0.012
-236.859	346.441	0.147	-0.284
-235.844	-70.264	-0.445	0.167
-234.830	-81.336	-0.210	0.068
-233.815	401.526	0.128	0.266
-232.800	-26.737	0.187	-0.108
-231.786	-127.280	-0.134	0.019
-230.771	-117.763	-0.148	-0.026
-229.757	-9.082	0.170	-0.112
-228.742	96.241	0.259	-0.292
-227.727	-106.882	-0.259	-0.057
-226.713	-136.895	0.180	-0.020
-225.698	-200.000	0.027	-0.257
-224.684	312.820	-0.067	0.124
-223.669	-68.454	-0.058	-0.022
-222.655	329.119	0.118	0.224
-221.640	-200.000	-0.243	0.000
-220.625	194.591	-0.077	0.115
-219.611	197.716	0.147	0.221
-218.596	800.000	-0.057	0.244
-217.582	382.085	-0.036	0.073
-216.567	-4.033	0.219	-0.149
-215.552	800.000	0.039	0.110
-214.538	-142.562	-0.132	-0.013
-213.523	-50.336	-0.233	0.108
-212.509	343.188	-0.140	-0.269
-211.494	-200.000	-0.005	0.113
-210.479	800.000	-0.048	0.171
-209.465	800.000	-0.083	0.245
-208.450	210.409	0.146	0.226
-207.436	190.527	0.046	0.068
-206.421	112.062	0.208	0.248
-205.406	67.531	-0.095	0.096
-204.392	-79.646	0.246	0.082
-203.377	-133.161	0.090	0.011
-202.363	2.288	0.164	-0.117
-201.348	168.773	-0.158	-0.222
-200.333	113.148	0.149	0.177
-199.319	-200.000	0.059	0.417
-198.304	36.400	0.313	0.272
-197.290	555.851	0.069	0.162
-196.275	-109.115	0.257	0.054
-195.260	-173.738	-0.640	-0.019
-194.246	-78.371	0.088	-0.030
-193.231	-65.297	0.514	-0.204
-192.217	-136.034	0.091	-0.011
-191.202	-8.404	-0.094	0.062
-190.187	10.731	-0.167	-0.126
-189.173	1.800	0.039	-0.027
-188.158	52.124	0.135	0.127
-187.144	409.569	0.024	-0.050
-186.129	20.536	-0.139	0.111
-185.114	-20.323	0.301	-0.182
-184.100	-12.681	-0.206	-0.132
-183.085	-200.000	-0.023	0.124
-182.071	800.000	0.008	0.021
-181.056	800.000	-0.033	-0.099
-180.042	3.486	0.132	0.095
-179.027	-200.000	0.009	-0.133
-178.012	-65.732	0.254	0.100
-176.998	68.630	0.143	0.145
-175.983	-100.796	0.067	0.016
-174.969	544.034	0.032	0.075
-173.954	-155.040	-0.223	0.014
-172.939	-48.684	-0.063	-0.030
-171.925	-46.948	0.166	0.079
-170.910	800.000	0.028	0.084
-169.896	-81.553	0.184	0.060
-168.881	27.278	0.163	0.135
-167.866	-75.279	-0.220	-0.077
-166.852	64.975	-0.139	-0.138
-165.837	-200.000	-0.022	-0.123
-164.823	43.768	-0.283	0.255
-163.808	-170.584	0.139	0.005
-162.793	271.184	-0.110	0.189
-161.779	768.553	-0.102	0.273
-160.764	273.758	-0.137	0.239
-159.750	184.737	0.170	-0.248
-158.735	-200.000	-0.018	0.170
-157.720	-141.787	-0.132	0.013
-156.706	-81.671	-0.142	-0.046
-155.691	158.695	-0.228	0.311
-154.677	571.230	0.043	-0.102
-153.662	551.189	0.093	-0.218
-152.647	-32.503	0.274	0.150
-151.633	-200.000	-0.030	0.223
-150.618	-200.000	0.015	-0.126
-149.604	-200.000	0.059	-0.310
-148.589	-151.347	0.165	0.012
-147.574	-200.000	-0.045	0.296
-146.560	272.685	-0.100	0.173
-145.545	47.622	0.037	-0.034
-144.531	-200.000	-0.051	0.261
-143.516	231.029	0.196	-0.315
-142.502	-57.036	-0.428	-0.185
-141.487	219.220	0.100	-0.158
-140.472	800.000	-0.058	0.174
-139.458	226.701	-0.186	0.297
-138.443	-200.000	0.041	0.248
-137.429	-200.000	0.006	-0.138
-136.414	-76.059	0.288	0.100
-135.399	14.953	-0.130	-0.100
-134.385	219.006	0.253	-0.397
-133.370	-186.422	-0.317	-0.004
-132.356	336.908	-0.099	-0.189
-131.341	-200.000	0.044	0.196
-130.326	88.535	0.158	0.172
-129.312	-200.000	-0.059	0.306
-128.297	508.236	-0.154	-0.352
-127.283	-72.310	-0.267	-0.097
-126.268	-200.000	0.011	0.297
-125.253	-155.036	-0.194	-0.012
-124.239	24.196	0.230	0.187
-123.224	74.492	0.213	0.219
-122.210	435.715	0.090	0.193
-121.195	220.869	0.132	0.207
-120.180	-15.080	-0.302	0.189
