DTS Sentinel unit serial number:	SN413079Multiplexer serial number:	ORYXHardware model number:	OX4-SRSoftware version number:	ORYX F/W v4.00 Oryx Data Collector v3.7.2.0data status	okinstallation	princeton_trtdifferential loss correction	single-endedforward channel	channel 2reverse channel	N/Adate	2019/09/18time	01:39:34forward acquisition time	60.00reverse acquisition time	0.00gamma	496.2192k internal	0.2350k external	0.2350temperature offset calibration	0.9983default loss term (dB/km)	0.3790temperature slope calibration	1.0000multiplexer offset coefficient	1.0000multiplexer slope coefficient	1.0000fibre end	0.00T internal ref (°C)	23.05T ext. ref 1 (°C)	0.16T ext. ref 2 (°C)	16.68length (m)	temperature (°C)	Stokes	anti-Stokes-747.200	-50.124	0.090	-0.043
-746.185	-200.000	-0.028	0.237
-745.171	-200.000	-0.011	0.093
-744.156	-200.000	0.036	0.294
-743.142	63.229	0.126	-0.126
-742.127	435.066	-0.109	0.236
-741.112	255.223	0.120	0.206
-740.098	-200.000	0.042	0.293
-739.083	136.305	0.043	-0.056
-738.069	-200.000	-0.010	-0.113
-737.054	-200.000	-0.002	0.064
-736.039	-120.495	-0.184	-0.031
-735.025	-97.127	0.082	0.021
-734.010	118.050	-0.219	-0.269
-732.996	16.834	-0.278	0.219
-731.981	-55.097	-0.242	0.109
-730.966	-70.155	-0.275	0.104
-729.952	424.982	-0.080	-0.172
-728.937	-200.000	0.011	-0.058
-727.923	8.778	0.236	0.177
-726.908	180.545	-0.198	0.289
-725.894	-135.300	0.237	0.028
-724.879	-127.108	-0.036	0.005
-723.864	-168.800	0.078	0.003
-722.850	-200.000	-0.018	0.333
-721.835	-200.000	-0.005	-0.158
-720.821	387.319	-0.032	-0.066
-719.806	692.054	-0.047	-0.123
-718.791	-106.214	-0.194	0.043
-717.777	-127.746	-0.157	0.023
-716.762	-21.951	0.448	-0.271
-715.748	800.000	0.051	-0.186
-714.733	-21.403	-0.094	0.057
-713.718	-200.000	-0.004	0.143
-712.704	-98.103	0.231	0.059
-711.689	113.828	-0.041	-0.050
-710.675	-200.000	-0.028	-0.249
-709.660	15.655	-0.050	0.039
-708.645	800.000	0.058	0.233
-707.631	88.567	-0.318	0.352
-706.616	-146.031	-0.172	-0.015
-705.602	420.077	-0.086	0.184
-704.587	147.662	0.109	0.146
-703.572	-83.846	0.341	0.108
-702.558	-200.000	0.012	0.269
-701.543	114.277	0.188	0.228
-700.529	433.764	-0.072	-0.155
-699.514	18.105	0.243	-0.193
-698.499	27.323	-0.416	-0.349
-697.485	-28.406	0.042	-0.024
-696.470	-62.079	-0.205	0.085
-695.456	-190.940	0.346	-0.004
-694.441	800.000	-0.098	-0.369
-693.426	800.000	0.125	-0.428
-692.412	317.231	-0.068	-0.129
-691.397	139.034	0.041	0.053
-690.383	-200.000	-0.006	0.466
-689.368	800.000	0.054	0.154
-688.354	-200.000	0.014	-0.122
-687.339	-68.581	-0.318	-0.123
-686.324	-200.000	-0.024	-0.135
-685.310	269.000	0.205	-0.359
-684.295	-97.697	0.203	-0.052
-683.281	770.566	-0.068	-0.185
-682.266	-152.189	-0.342	-0.025
-681.251	800.000	-0.084	0.290
-680.237	800.000	-0.066	0.269
-679.222	-98.430	0.238	-0.061
-678.208	-82.415	0.043	-0.014
-677.193	111.147	-0.042	0.050
-676.178	-120.606	-0.269	-0.045
-675.164	-4.184	0.150	-0.104
-674.149	177.740	0.119	0.172
-673.135	226.583	0.055	-0.089
-672.120	-6.746	-0.174	-0.118
-671.105	33.921	0.184	-0.160
-670.091	137.488	-0.166	0.216
-669.076	-158.253	0.369	0.021
-668.062	-98.685	-0.149	0.038
-667.047	111.539	-0.108	0.130
-666.032	-200.000	0.032	0.337
-665.018	-200.000	0.017	-0.168
-664.003	610.343	-0.148	-0.367
-662.989	-96.444	-0.248	-0.065
-661.974	178.464	-0.292	0.424
-660.959	800.000	0.098	-0.278
-659.945	135.310	-0.175	0.226
-658.930	69.259	-0.079	0.081
-657.916	-200.000	0.010	0.065
-656.901	-200.000	0.040	0.590
-655.886	-14.741	-0.167	-0.107
-654.872	108.039	0.182	-0.216
-653.857	-36.887	-0.244	-0.130
-652.843	-48.836	0.219	0.104
-651.828	558.143	-0.061	-0.146
-650.814	407.564	0.106	-0.224
-649.799	-100.635	-0.149	0.037
-648.784	-45.981	0.126	-0.062
-647.770	-5.011	-0.097	0.066
-646.755	-200.000	-0.033	-0.231
-645.741	800.000	-0.045	-0.130
-644.726	-200.000	0.070	0.343
-643.711	-139.439	0.165	-0.018
-642.697	-138.452	0.169	0.018
-641.682	800.000	0.046	-0.173
-640.668	800.000	-0.146	-0.525
-639.653	-193.512	0.563	0.005
-638.638	-200.000	-0.030	-0.272
-637.624	800.000	-0.131	-0.377
-636.609	800.000	0.043	-0.128
-635.595	-17.444	-0.079	-0.049
-634.580	-111.861	0.390	0.078
-633.565	-77.148	-0.437	-0.151
-632.551	-77.573	-0.381	0.131
-631.536	86.042	-0.114	-0.125
-630.522	-17.701	-0.054	-0.034
-629.507	-89.821	0.251	-0.073
-628.492	-107.876	0.191	-0.041
-627.478	-200.000	-0.006	-0.056
-626.463	-50.660	0.342	-0.160
-625.449	-85.513	-0.176	-0.054
-624.434	-36.933	-0.044	-0.023
-623.419	-84.635	-0.126	0.039
-622.405	-89.217	-0.149	-0.044
-621.390	-104.247	0.260	0.060
-620.376	-200.000	-0.028	0.336
-619.361	-91.056	0.224	0.064
-618.346	-200.000	-0.075	0.373
-617.332	742.737	-0.112	0.299
-616.317	-200.000	-0.060	0.314
-615.303	-8.236	-0.104	-0.070
-614.288	-200.000	-0.022	-0.213
-613.273	-80.241	-0.130	-0.043
-612.259	-83.792	0.059	0.019
-611.244	79.292	-0.155	0.165
-610.230	187.940	-0.193	0.287
-609.215	4.574	-0.239	-0.174
-608.201	-8.208	0.155	0.104
-607.186	4.191	0.158	-0.115
-606.171	56.976	-0.274	0.265
-605.157	61.026	0.046	-0.046
-604.142	-64.780	-0.205	-0.082
-603.128	-28.310	0.214	-0.122
-602.113	-46.683	-0.252	-0.123
-601.098	800.000	-0.044	0.149
-600.084	300.551	0.077	0.140
-599.069	-147.993	0.177	0.015
-598.055	-142.643	-0.274	-0.027
-597.040	141.583	-0.099	0.130
-596.025	-53.455	0.256	0.117
-595.011	-168.418	-0.329	-0.013
-593.996	120.959	-0.205	-0.253
-592.982	-132.298	-0.465	-0.060
-591.967	-28.245	0.262	0.150
-590.952	78.381	-0.090	0.096
-589.938	206.316	0.104	0.161
-588.923	-2.724	-0.117	0.081
-587.909	110.749	0.127	0.152
-586.894	-118.900	0.156	-0.027
-585.879	-77.816	-0.088	-0.030
-584.865	187.371	0.178	0.263
-583.850	131.230	0.165	0.211
-582.836	-10.942	0.066	0.043
-581.821	-91.953	-0.474	0.133
-580.806	800.000	0.035	-0.125
-579.792	35.928	-0.078	-0.068
-578.777	-200.000	-0.003	-0.385
-577.763	317.986	-0.081	-0.152
-576.748	-148.603	-0.063	0.005
-575.733	72.415	0.147	-0.152
-574.719	-33.648	-0.451	0.247
-573.704	-52.221	-0.163	-0.075
-572.690	78.900	-0.141	0.150
-571.675	800.000	-0.081	-0.298
-570.661	386.273	0.052	0.107
-569.646	-200.000	0.075	0.349
-568.631	800.000	-0.075	0.224
-567.617	45.780	-0.184	0.169
-566.602	-154.043	-0.261	-0.018
-565.588	-176.107	0.117	0.003
-564.573	-74.219	0.356	0.128
-563.558	-140.486	-0.294	-0.030
-562.544	800.000	-0.054	-0.220
-561.529	-18.144	-0.226	-0.140
-560.515	14.325	0.171	0.133
-559.500	-86.860	0.116	-0.035
-558.485	-31.991	-0.233	0.129
-557.471	-1.297	0.170	0.119
-556.456	-200.000	0.048	-0.000
-555.442	-200.000	-0.075	0.352
-554.427	-62.777	0.089	-0.036
-553.412	-159.386	0.135	-0.007
-552.398	30.478	-0.035	-0.030
-551.383	800.000	-0.065	0.264
-550.369	-88.848	0.261	0.077
-549.354	800.000	0.068	0.194
-548.339	800.000	0.059	0.232
-547.325	35.449	-0.169	-0.147
-546.310	-200.000	-0.072	-0.337
-545.296	800.000	0.057	-0.245
-544.281	336.497	-0.243	-0.467
-543.266	21.295	-0.068	0.055
-542.252	93.266	0.140	-0.157
-541.237	-200.000	0.037	-0.262
-540.223	44.769	-0.184	0.168
-539.208	-200.000	0.024	0.257
-538.193	-68.982	0.086	-0.033
-537.179	292.011	-0.163	0.295
-536.164	61.965	-0.029	-0.029
-535.150	-200.000	0.017	0.298
-534.135	47.525	0.136	0.126
-533.121	-39.090	-0.066	-0.034
-532.106	153.810	-0.089	0.120
-531.091	411.015	0.214	0.449
-530.077	-23.662	0.219	0.130
-529.062	79.235	-0.130	0.138
-528.048	-29.990	-0.035	-0.020
-527.033	-50.076	0.280	-0.131
-526.018	-125.560	0.451	-0.068
-525.004	139.497	-0.008	0.010
-523.989	-200.000	0.042	-0.293
-522.975	-9.183	0.284	0.188
-521.960	6.369	0.170	0.125
-520.945	-200.000	0.010	-0.105
-519.931	95.538	-0.273	-0.309
-518.916	-158.639	0.343	0.020
-517.902	-200.000	0.004	0.072
-516.887	800.000	0.044	-0.172
-515.872	800.000	-0.050	-0.142
-514.858	-91.934	-0.296	-0.083
-513.843	-153.323	-0.195	-0.013
-512.829	44.537	-0.130	0.118
-511.814	11.252	0.199	-0.151
-510.799	-200.000	-0.007	-0.146
-509.785	238.544	0.120	0.198
-508.770	47.719	-0.117	-0.108
-507.756	62.418	0.141	-0.139
-506.741	-200.000	-0.017	0.235
-505.726	-125.378	0.242	-0.037
-504.712	-45.115	-0.207	0.102
-503.697	18.719	-0.265	0.210
-502.683	-138.328	-0.442	-0.048
-501.668	4.280	0.187	0.135
-500.653	800.000	-0.018	-0.056
-499.639	800.000	0.098	0.268
-498.624	7.907	0.072	0.053
-497.610	-86.977	-0.016	-0.005
-496.595	-17.678	0.114	0.071
-495.581	-27.631	0.192	0.110
-494.566	84.434	-0.201	0.217
-493.551	-81.222	0.348	0.114
-492.537	124.007	-0.225	0.280
-491.522	-38.763	0.343	0.179
-490.508	387.906	-0.064	0.131
-489.493	-200.000	-0.021	-0.152
-488.478	-42.768	0.278	0.140
-487.464	-158.527	-0.214	0.012
-486.449	90.866	0.112	0.125
-485.435	142.814	0.106	-0.139
-484.420	-200.000	-0.009	-0.117
-483.405	-0.092	-0.203	0.143
-482.391	120.186	-0.260	-0.319
-481.376	-200.000	0.034	0.236
-480.362	-200.000	0.006	0.036
-479.347	30.570	-0.066	0.055
-478.332	-30.890	-0.158	-0.088
-477.318	800.000	-0.033	0.097
-476.303	241.962	-0.155	0.255
-475.289	-46.947	-0.180	0.087
-474.274	-52.942	-0.263	0.120
-473.259	-46.572	-0.157	-0.076
-472.245	800.000	0.051	-0.139
-471.230	509.528	-0.108	-0.248
-470.216	-137.848	0.339	0.037
-469.201	800.000	-0.078	0.236
-468.186	-200.000	0.001	0.570
-467.172	270.500	-0.138	0.240
-466.157	109.301	0.013	0.015
-465.143	390.988	0.184	0.376
-464.128	-200.000	-0.098	0.547
-463.113	267.633	-0.066	-0.114
-462.099	134.173	-0.066	-0.084
-461.084	89.233	0.244	0.268
-460.070	524.713	0.041	0.096
-459.055	-78.083	-0.071	-0.024
-458.040	-4.841	0.318	0.216
-457.026	-200.000	0.003	-0.267
-456.011	440.737	-0.049	0.106
-454.997	66.488	0.152	0.153
-453.982	-133.017	0.288	0.036
-452.968	800.000	0.019	0.061
-451.953	774.437	0.064	0.173
-450.938	21.002	-0.230	-0.184
-449.924	-48.611	-0.182	0.086
-448.909	428.541	-0.022	-0.046
-447.895	800.000	-0.040	-0.131
-446.880	-60.435	-0.170	0.071
-445.865	-200.000	-0.029	0.192
-444.851	-25.129	-0.120	-0.070
-443.836	230.641	-0.271	-0.438
-442.822	175.513	0.189	0.270
-441.807	12.012	-0.153	-0.116
-440.792	65.723	0.165	0.165
-439.778	800.000	-0.037	-0.136
-438.763	-182.194	-0.365	-0.007
-437.749	-200.000	0.026	0.160
-436.734	-191.801	0.298	-0.003
-435.719	207.728	0.224	-0.345
-434.705	-48.588	0.089	0.042
-433.690	-200.000	0.102	0.459
-432.676	-58.547	-0.232	0.099
-431.661	-118.687	-0.325	-0.057
-430.646	391.613	-0.093	-0.191
-429.632	-54.195	-0.133	-0.060
-428.617	-0.603	-0.329	-0.230
-427.603	-200.000	0.005	-0.175
-426.588	-200.000	-0.001	-0.298
-425.573	-115.066	0.304	-0.057
-424.559	45.163	-0.417	0.379
-423.544	800.000	-0.123	-0.341
-422.530	-44.369	-0.319	0.158
-421.515	-200.000	-0.001	-0.165
-420.500	-200.000	0.023	-0.196
-419.486	98.528	-0.138	-0.157
-418.471	-122.901	-0.142	0.023
-417.457	-200.000	0.024	0.173
-416.442	43.620	-0.129	-0.116
-415.428	329.075	-0.086	-0.162
-414.413	55.386	-0.312	-0.297
-413.398	-133.538	-0.081	-0.010
-412.384	57.677	-0.079	0.076
-411.369	-86.385	0.091	0.028
-410.355	-200.000	0.050	-0.245
-409.340	-74.416	-0.189	-0.067
-408.325	800.000	0.078	-0.233
-407.311	800.000	-0.081	-0.319
-406.296	148.215	0.074	-0.098
-405.282	-112.607	0.273	0.054
-404.267	800.000	-0.160	0.464
-403.252	-113.675	-0.095	0.018
-402.238	-88.361	0.038	-0.011
-401.223	5.913	-0.146	0.106
-400.209	157.364	-0.233	-0.318
-399.194	-11.911	0.301	-0.194
-398.179	800.000	0.093	0.269
-397.165	-28.830	-0.167	-0.095
-396.150	-200.000	-0.001	0.315
-395.136	22.469	-0.136	0.110
-394.121	-200.000	-0.000	0.016
-393.106	-30.232	0.111	0.062
-392.092	-200.000	-0.003	-0.266
-391.077	301.545	0.105	-0.192
-390.063	58.003	0.085	0.081
-389.048	-200.000	-0.026	-0.249
-388.033	-90.579	0.206	0.059
-387.019	237.141	0.052	-0.085
-386.004	-132.963	-0.265	-0.033
-384.990	-200.000	-0.037	0.279
-383.975	-171.059	-0.126	-0.004
-382.960	526.007	0.084	-0.194
-381.946	-102.987	-0.240	0.056
-380.931	15.609	0.214	0.165
-379.917	-14.243	0.207	0.132
-378.902	5.239	-0.227	-0.165
-377.888	167.039	0.282	-0.393
-376.873	231.579	0.254	-0.410
-375.858	-200.000	0.030	-0.192
-374.844	404.711	0.140	-0.291
-373.829	36.985	0.177	-0.154
-372.815	-5.308	-0.197	0.133
-371.800	67.584	0.258	0.260
-370.785	-124.975	0.343	0.052
-369.771	-114.887	0.417	0.078
-368.756	-39.298	-0.192	-0.099
-367.742	-200.000	-0.072	-0.385
-366.727	-200.000	-0.019	0.309
-365.712	212.120	0.015	0.023
-364.698	74.155	0.125	-0.129
-363.683	-200.000	0.051	0.348
-362.669	-15.373	0.292	0.184
-361.654	171.110	0.156	-0.219
-360.639	-120.494	-0.287	-0.048
-359.625	800.000	-0.122	0.423
-358.610	-200.000	-0.001	-0.045
-357.596	28.225	0.166	0.138
-356.581	-200.000	0.023	0.414
-355.566	-200.000	-0.051	-0.266
-354.552	-97.335	0.315	-0.081
-353.537	-116.683	-0.302	-0.055
-352.523	-164.703	0.206	0.009
-351.508	33.783	-0.251	0.214
-350.493	37.464	0.136	-0.119
-349.479	83.668	0.085	0.092
-348.464	116.845	0.036	0.044
-347.450	-124.856	0.122	0.018
-346.435	134.019	0.142	-0.181
-345.420	800.000	-0.048	-0.189
-344.406	786.279	0.026	0.070
-343.391	-13.817	0.231	-0.147
-342.377	32.616	-0.233	0.198
-341.362	-113.953	0.157	0.030
-340.348	250.069	0.146	0.244
-339.333	-103.149	-0.261	-0.061
-338.318	800.000	-0.038	-0.144
-337.304	-94.088	0.185	-0.050
-336.289	207.424	0.130	-0.200
-335.275	209.327	0.132	0.204
-334.260	800.000	-0.051	-0.156
-333.245	800.000	0.122	-0.338
-332.231	73.769	-0.086	-0.088
-331.216	-77.688	0.176	-0.060
-330.202	-152.295	-0.195	-0.014
-329.187	140.506	0.071	-0.092
-328.172	58.228	-0.102	0.098
-327.158	-93.536	0.064	0.017
-326.143	114.121	-0.167	-0.199
-325.129	158.188	-0.106	0.144
-324.114	83.934	-0.331	-0.355
-323.099	800.000	-0.048	-0.198
-322.085	173.274	-0.166	-0.234
-321.070	71.330	-0.097	-0.099
-320.056	800.000	0.098	0.356
-319.041	-55.748	0.169	0.074
-318.026	800.000	0.122	0.371
-317.012	-102.374	-0.220	0.052
-315.997	-200.000	-0.027	-0.280
-314.983	-1.099	0.278	0.193
-313.968	449.184	-0.068	0.147
-312.953	800.000	0.045	-0.169
-311.939	-119.486	0.104	-0.018
-310.924	-200.000	-0.015	-0.152
-309.910	-200.000	-0.036	-0.189
-308.895	-128.707	0.089	0.012
-307.880	186.330	0.100	0.146
-306.866	140.963	-0.162	-0.211
-305.851	590.863	-0.048	-0.117
-304.837	-47.938	0.233	-0.111
-303.822	699.938	-0.042	-0.109
-302.807	-44.607	0.085	-0.041
-301.793	-62.583	-0.069	0.028
-300.778	-66.077	-0.155	-0.061
-299.764	713.406	0.029	-0.076
-298.749	-200.000	-0.092	-0.469
-297.735	-23.541	0.479	-0.282
-296.720	33.534	-0.146	-0.125
-295.705	-200.000	0.026	0.220
-294.691	96.631	0.280	0.314
-293.676	21.965	0.005	0.004
-292.662	800.000	0.138	0.393
-291.647	-49.579	-0.204	0.095
-290.632	5.893	-0.094	-0.069
-289.618	-200.000	0.057	-0.263
-288.603	800.000	0.009	-0.038
-287.589	302.338	0.127	-0.231
-286.574	800.000	0.035	0.118
-285.559	-200.000	0.002	-0.094
-284.545	119.828	0.084	-0.102
-283.530	-200.000	0.001	0.071
-282.516	-96.875	0.333	0.086
-281.501	86.545	0.131	0.142
-280.486	-16.223	-0.236	-0.147
-279.472	770.937	-0.033	-0.088
-278.457	-200.000	-0.012	0.066
-277.443	-200.000	0.046	-0.200
-276.428	-64.500	-0.112	-0.045
-275.413	800.000	0.080	0.292
-274.399	58.918	0.162	-0.156
-273.384	-167.086	-0.296	0.012
-272.370	-47.716	-0.183	-0.087
-271.355	-108.327	0.186	0.039
-270.340	27.360	0.159	-0.131
-269.326	68.291	-0.171	0.171
-268.311	-200.000	0.011	-0.110
-267.297	13.427	0.171	0.130
-266.282	-200.000	0.016	0.192
-265.267	-26.505	-0.108	0.062
-264.253	-54.548	-0.310	-0.138
-263.238	-200.000	0.056	-0.350
-262.224	-200.000	-0.015	0.117
-261.209	-200.000	-0.011	-0.376
-260.195	109.671	-0.165	-0.193
-259.180	-112.029	-0.484	0.095
-258.165	-28.001	0.193	0.109
-257.151	333.646	0.093	0.176
-256.136	-200.000	0.036	0.276
-255.122	-200.000	-0.055	-0.291
-254.107	488.747	0.058	0.129
-253.092	-175.572	0.395	0.010
-252.078	-36.309	-0.095	0.050
-251.063	-36.892	-0.092	-0.049
-250.049	124.461	0.153	-0.188
-249.034	799.146	-0.040	-0.107
-248.019	-22.560	0.209	-0.124
-247.005	-31.666	0.153	0.084
-245.990	-104.778	-0.104	0.024
-244.976	112.762	-0.112	0.133
-243.961	-49.490	-0.171	-0.080
-242.946	-131.189	0.273	0.036
-241.932	215.555	-0.076	0.118
-240.917	-145.870	-0.263	-0.023
-239.903	-76.251	0.117	0.040
-238.888	-38.572	0.231	0.119
-237.873	-43.726	0.097	0.048
-236.859	427.768	0.061	-0.130
-235.844	126.999	-0.057	0.071
-234.830	-200.000	-0.017	-0.173
-233.815	-200.000	0.024	0.432
-232.800	-151.075	0.217	0.016
-231.786	373.361	-0.175	-0.347
-230.771	-50.716	0.118	0.054
-229.757	-65.297	-0.256	-0.101
-228.742	-97.549	0.099	0.025
-227.727	-200.000	0.005	-0.143
-226.713	237.015	-0.273	0.443
-225.698	-200.000	0.096	0.416
-224.684	-62.705	-0.160	0.065
-223.669	-121.000	0.176	0.029
-222.655	-107.267	0.342	0.074
-221.640	-170.425	-0.180	0.006
-220.625	450.123	0.141	-0.305
-219.611	-41.730	0.211	-0.106
-218.596	-43.217	0.100	0.049
-217.582	-4.381	-0.172	0.116
-216.567	-108.349	-0.255	-0.054
-215.552	225.546	0.171	0.271
-214.538	226.598	-0.057	0.090
-213.523	-166.444	0.158	0.006
-212.509	-110.364	0.141	0.029
-211.494	800.000	-0.061	0.174
-210.479	-200.000	-0.019	-0.282
-209.465	-200.000	-0.013	-0.105
-208.450	-200.000	0.064	-0.335
-207.436	-200.000	0.005	0.340
-206.421	580.431	0.063	-0.150
-205.406	-26.319	-0.052	0.030
-204.392	-200.000	0.018	0.126
-203.377	162.321	-0.120	-0.165
-202.363	-200.000	-0.015	0.240
-201.348	-11.162	0.167	0.108
-200.333	-100.323	-0.126	0.031
-199.319	36.317	0.124	0.107
-198.304	172.435	-0.174	-0.244
-197.290	-12.624	0.141	-0.090
-196.275	-77.861	-0.317	0.107
-195.260	-181.187	-0.508	-0.010
-194.246	73.050	0.083	0.085
-193.231	-200.000	-0.211	-0.000
-192.217	-74.857	-0.097	0.034
-191.202	-77.054	0.373	0.127
-190.187	-0.081	-0.106	-0.073
-189.173	147.753	-0.044	-0.058
-188.158	321.020	0.094	0.175
-187.144	205.191	-0.110	0.167
-186.129	-121.037	0.053	0.009
-185.114	177.319	-0.207	-0.294
-184.100	335.703	-0.004	0.007
-183.085	31.149	0.099	0.083
-182.071	-16.140	0.217	-0.135
-181.056	192.130	-0.049	0.073
-180.042	-200.000	-0.005	-0.112
-179.027	-107.590	-0.440	-0.094
-178.012	61.570	-0.098	-0.095
-176.998	-200.000	-0.040	-0.515
-175.983	37.877	0.121	-0.105
-174.969	-11.908	0.126	0.081
-173.954	-182.419	-0.260	0.005
-172.939	1.408	0.212	-0.149
-171.925	-54.549	0.239	0.106
-170.910	-12.579	0.178	-0.113
-169.896	-40.208	0.189	-0.096
-168.881	160.358	-0.185	0.252
-167.866	-200.000	0.052	-0.249
-166.852	-64.931	0.162	-0.064
-165.837	-200.000	0.066	-0.385
-164.823	800.000	-0.082	0.223
-163.808	-200.000	-0.028	0.134
-162.793	259.264	0.086	0.145
-161.779	-0.298	0.234	-0.162
-160.764	86.074	0.087	-0.093
-159.750	393.505	0.232	-0.471
-158.735	-13.593	0.242	-0.153
-157.720	800.000	0.099	0.285
-156.706	-69.031	0.186	-0.070
-155.691	-200.000	-0.008	-0.093
-154.677	13.698	0.262	-0.198
-153.662	-200.000	0.014	0.362
-152.647	207.902	-0.182	0.277
-151.633	-200.000	-0.057	-0.319
-150.618	72.951	-0.105	-0.107
-149.604	153.792	-0.034	0.045
-148.589	-144.956	-0.089	0.008
-147.574	-6.853	0.145	-0.096
-146.560	-126.510	-0.105	-0.015
-145.545	-18.813	0.250	0.152
-144.531	-200.000	0.056	-0.383
-143.516	-63.566	-0.157	0.063
-142.502	-200.000	0.010	-0.081
-141.487	103.934	0.229	0.263
-140.472	-107.565	-0.103	0.022
-139.458	214.891	0.067	-0.104
-138.443	78.524	-0.083	-0.086
-137.429	-152.886	-0.214	-0.015
-136.414	-200.000	-0.002	0.139
-135.399	-148.426	0.356	0.028
-134.385	800.000	0.033	0.138
-133.370	800.000	-0.034	-0.104
-132.356	168.366	-0.034	0.047
-131.341	-200.000	0.038	0.236
-130.326	-148.683	-0.293	-0.023
-129.312	800.000	0.069	0.261
-128.297	49.935	0.170	0.156
-127.283	-57.185	-0.396	0.170
-126.268	800.000	0.001	0.004
-125.253	2.850	0.219	0.155
-124.239	-200.000	-0.012	0.112
-123.224	222.482	0.166	0.260
-122.210	-142.857	-0.156	0.015
-121.195	608.565	0.036	0.087
