DTS Sentinel unit serial number:	SN413079Multiplexer serial number:	ORYXHardware model number:	OX4-SRSoftware version number:	ORYX F/W v4.00 Oryx Data Collector v3.7.2.0data status	okinstallation	princeton_trtdifferential loss correction	single-endedforward channel	channel 2reverse channel	N/Adate	2019/09/18time	16:35:35forward acquisition time	60.00reverse acquisition time	0.00gamma	496.2192k internal	0.2300k external	0.2300temperature offset calibration	1.0008default loss term (dB/km)	0.3790temperature slope calibration	1.0000multiplexer offset coefficient	1.0000multiplexer slope coefficient	1.0000fibre end	0.00T internal ref (°C)	39.47T ext. ref 1 (°C)	0.84T ext. ref 2 (°C)	36.81length (m)	temperature (°C)	Stokes	anti-Stokes-747.200	168.674	0.142	0.206
-746.185	-200.000	-0.008	0.221
-745.171	105.899	-0.215	0.259
-744.156	301.856	0.206	0.388
-743.142	-85.523	0.036	0.011
-742.127	114.139	-0.102	0.127
-741.112	-22.626	-0.304	0.188
-740.098	-0.367	-0.086	0.062
-739.083	-91.056	-0.214	0.063
-738.069	12.196	0.216	0.169
-737.054	-51.204	0.411	-0.197
-736.039	-101.522	-0.217	0.054
-735.025	-31.427	0.159	0.091
-734.010	-200.000	0.009	-0.208
-732.996	-88.535	-0.286	0.087
-731.981	-128.641	-0.277	-0.040
-730.966	76.551	0.085	0.092
-729.952	-200.000	0.033	-0.298
-728.937	-60.453	0.033	-0.014
-727.923	-200.000	0.003	-0.087
-726.908	256.759	0.048	-0.083
-725.894	93.889	0.103	-0.119
-724.879	-65.487	0.083	-0.034
-723.864	-58.602	0.169	-0.075
-722.850	494.731	-0.100	-0.233
-721.835	-74.222	-0.229	0.084
-720.821	800.000	0.020	-0.088
-719.806	-200.000	0.007	-0.214
-718.791	201.176	-0.342	-0.536
-717.777	-12.522	-0.044	-0.030
-716.762	-142.965	-0.026	-0.003
-715.748	800.000	-0.098	-0.396
-714.733	589.056	-0.081	0.203
-713.718	98.133	-0.174	0.204
-712.704	49.326	0.293	0.281
-711.689	42.625	0.140	0.130
-710.675	647.687	0.130	0.338
-709.660	365.864	0.115	-0.237
-708.645	-200.000	-0.008	0.103
-707.631	-200.000	-0.004	-0.044
-706.616	111.587	0.085	-0.104
-705.602	122.618	-0.093	-0.119
-704.587	152.451	0.184	-0.256
-703.572	-182.770	0.201	-0.004
-702.558	-200.000	0.009	0.078
-701.543	128.203	-0.241	0.313
-700.529	800.000	-0.113	-0.490
-699.514	-200.000	-0.037	-0.321
-698.499	364.240	0.085	0.174
-697.485	-118.956	-0.290	-0.052
-696.470	201.013	0.040	-0.063
-695.456	67.210	-0.191	0.198
-694.441	-200.000	-0.057	0.391
-693.426	-61.667	0.142	-0.061
-692.412	800.000	-0.066	-0.240
-691.397	483.980	0.074	-0.172
-690.383	133.014	-0.095	-0.125
-689.368	-86.432	-0.070	-0.022
-688.354	-164.435	-0.338	0.016
-687.339	21.619	0.092	-0.076
-686.324	-172.784	0.048	-0.002
-685.310	-138.566	0.219	-0.024
-684.295	-144.165	0.063	0.006
-683.281	82.279	0.062	-0.068
-682.266	119.205	-0.100	-0.126
-681.251	-187.635	0.087	-0.001
-680.237	-200.000	0.013	0.189
-679.222	93.083	-0.056	0.065
-678.208	-200.000	0.013	0.227
-677.193	-100.985	0.233	-0.058
-676.178	453.481	-0.056	0.126
-675.164	174.135	-0.272	0.400
-674.149	403.020	-0.017	-0.035
-673.135	-200.000	0.026	0.355
-672.120	194.385	0.134	-0.207
-671.105	332.430	0.196	-0.386
-670.091	-55.746	-0.312	-0.142
-669.076	8.593	-0.325	0.249
-668.062	-9.952	0.185	0.125
-667.047	-73.348	-0.190	-0.071
-666.032	203.350	-0.165	-0.260
-665.018	172.217	-0.024	0.035
-664.003	-117.063	-0.242	0.045
-662.989	-53.034	0.379	-0.177
-661.974	-160.285	-0.350	-0.019
-660.959	735.978	0.071	0.194
-659.945	-74.014	-0.409	-0.151
-658.930	800.000	-0.082	-0.314
-657.916	105.293	-0.023	-0.027
-656.901	-78.102	-0.087	0.031
-655.886	18.425	0.086	-0.070
-654.872	-147.785	0.065	0.006
-653.857	150.727	0.050	0.069
-652.843	-24.062	0.256	-0.156
-651.828	40.828	-0.157	-0.144
-650.814	-199.197	0.135	-0.001
-649.799	75.141	-0.246	-0.263
-648.784	800.000	0.048	-0.205
-647.770	41.274	0.074	-0.068
-646.755	83.285	0.095	-0.105
-645.741	-15.329	0.210	-0.136
-644.726	800.000	-0.073	0.211
-643.711	82.530	0.046	-0.050
-642.697	-125.096	0.277	-0.043
-641.682	-160.736	-0.274	-0.015
-640.668	-89.505	-0.025	0.008
-639.653	-109.901	0.375	-0.080
-638.638	12.793	-0.091	-0.072
-637.624	800.000	0.067	-0.203
-636.609	-63.596	0.297	0.124
-635.595	-190.127	0.272	0.003
-634.580	-42.938	0.172	-0.089
-633.565	183.902	0.202	-0.303
-632.551	-70.322	-0.092	-0.035
-631.536	693.911	-0.109	0.289
-630.522	-200.000	-0.032	-0.224
-629.507	151.036	0.128	-0.177
-628.492	-26.716	0.353	-0.210
-627.478	-34.934	0.164	0.091
-626.463	280.038	0.109	-0.198
-625.449	800.000	-0.098	-0.302
-624.434	438.790	0.097	0.214
-623.419	94.491	0.170	-0.196
-622.405	238.686	-0.131	0.222
-621.390	-29.509	-0.187	-0.109
-620.376	800.000	0.034	-0.113
-619.361	140.991	0.108	0.144
-618.346	6.443	0.246	0.186
-617.332	-200.000	0.013	0.366
-616.317	672.598	0.073	0.191
-615.303	-155.603	0.189	-0.012
-614.288	6.697	0.292	-0.221
-613.273	-11.074	-0.202	-0.136
-612.259	-200.000	-0.045	0.298
-611.244	-200.000	-0.036	-0.188
-610.230	-200.000	0.011	0.145
-609.215	-33.194	0.125	-0.071
-608.201	164.880	0.201	-0.288
-607.186	-200.000	0.030	-0.144
-606.171	-200.000	0.001	0.387
-605.157	-42.042	-0.313	0.162
-604.142	-84.405	-0.130	-0.042
-603.128	-200.000	-0.015	-0.150
-602.113	800.000	0.034	-0.140
-601.098	415.094	0.078	-0.170
-600.084	24.063	-0.264	0.221
-599.069	800.000	-0.021	0.061
-598.055	-106.207	0.268	-0.061
-597.040	-176.195	-0.236	-0.006
-596.025	212.651	0.122	-0.195
-595.011	800.000	-0.045	0.188
-593.996	-138.125	0.092	-0.010
-592.982	800.000	0.064	0.209
-591.967	-63.860	0.259	-0.107
-590.952	-200.000	-0.009	0.056
-589.938	-107.596	0.040	0.009
-588.923	-50.406	-0.390	0.187
-587.909	-115.822	0.289	0.055
-586.894	409.817	0.145	0.312
-585.879	-131.191	0.186	-0.025
-584.865	179.237	-0.117	0.173
-583.850	54.644	-0.138	0.134
-582.836	-141.736	-0.376	0.038
-581.821	311.205	0.134	-0.255
-580.806	-27.383	-0.047	-0.028
-579.792	-138.379	0.085	-0.009
-578.777	10.931	-0.092	0.071
-577.763	119.295	-0.147	-0.185
-576.748	-38.681	0.210	0.112
-575.733	-32.911	-0.258	0.145
-574.719	30.886	0.116	0.100
-573.704	418.294	-0.149	0.323
-572.690	-138.965	-0.118	0.013
-571.675	601.905	0.183	0.461
-570.661	201.250	0.186	0.291
-569.646	-79.795	0.324	-0.111
-568.631	-200.000	0.029	-0.157
-567.617	800.000	-0.074	-0.254
-566.602	58.580	0.060	-0.060
-565.588	800.000	-0.071	-0.314
-564.573	14.121	-0.138	0.109
-563.558	-200.000	-0.007	-0.035
-562.544	-180.026	0.136	0.003
-561.529	-200.000	-0.036	0.225
-560.515	163.162	0.142	0.202
-559.500	549.384	-0.107	-0.260
-558.485	-67.329	-0.178	0.071
-557.471	-200.000	0.015	0.141
-556.456	-4.811	-0.074	-0.052
-555.442	-37.275	0.099	-0.054
-554.427	263.130	-0.108	-0.190
-553.412	-22.654	-0.103	0.063
-552.398	-58.556	-0.188	0.083
-551.383	-42.043	-0.286	-0.148
-550.369	-88.469	-0.079	0.024
-549.354	484.540	0.073	-0.169
-548.339	451.286	-0.096	-0.215
-547.325	505.920	0.040	0.094
-546.310	-13.563	0.140	-0.092
-545.296	325.527	0.210	0.406
-544.281	271.783	0.102	-0.182
-543.266	53.981	-0.229	0.223
-542.252	75.964	0.245	0.262
-541.237	377.252	-0.043	-0.090
-540.223	-46.844	0.277	0.137
-539.208	-61.488	0.163	0.069
-538.193	800.000	-0.110	0.312
-537.179	-200.000	0.289	0.001
-536.164	-40.768	-0.102	0.054
-535.150	-47.962	-0.307	0.150
-534.135	347.908	0.021	-0.042
-533.121	95.695	-0.055	0.063
-532.106	-132.828	-0.247	0.032
-531.091	-105.723	0.148	0.034
-530.077	800.000	0.011	0.033
-529.062	769.671	0.123	-0.338
-528.048	-41.460	0.192	-0.100
-527.033	-200.000	-0.012	-0.163
-526.018	-112.528	-0.054	-0.011
-525.004	-103.243	-0.171	-0.041
-523.989	-78.502	0.236	0.082
-522.975	3.864	-0.178	0.131
-521.960	-200.000	-0.023	0.142
-520.945	-25.409	0.280	-0.167
-519.931	228.383	-0.161	-0.266
-518.916	800.000	0.050	0.208
-517.902	-73.645	-0.184	0.068
-516.887	35.733	0.158	-0.141
-515.872	245.029	0.137	0.232
-514.858	-32.914	-0.154	0.086
-513.843	146.955	-0.075	0.102
-512.829	54.405	-0.095	0.093
-511.814	-115.732	0.137	-0.026
-510.799	-27.156	0.079	-0.047
-509.785	800.000	0.056	-0.220
-508.770	121.843	-0.053	-0.067
-507.756	45.323	0.184	0.171
-506.741	-106.612	-0.158	0.036
-505.726	552.992	-0.055	0.135
-504.712	-11.277	0.137	-0.091
-503.697	-45.232	-0.089	-0.045
-502.683	287.875	0.039	0.072
-501.668	223.855	0.044	0.073
-500.653	256.196	-0.090	-0.157
-499.639	-2.397	-0.086	0.061
-498.624	-55.191	-0.253	0.115
-497.610	73.610	-0.094	-0.100
-496.595	373.552	-0.110	-0.227
-495.581	-31.059	0.377	-0.215
-494.566	-126.362	0.133	0.020
-493.551	119.655	-0.138	-0.172
-492.537	18.848	0.067	-0.054
-491.522	15.172	-0.168	-0.133
-490.508	-200.000	0.009	-0.049
-489.493	183.160	0.252	-0.376
-488.478	18.167	0.192	-0.155
-487.464	-80.441	-0.255	-0.086
-486.449	30.785	-0.259	0.223
-485.435	-200.000	-0.033	0.247
-484.420	-48.343	-0.077	0.038
-483.405	69.291	-0.090	0.093
-482.391	-89.992	-0.171	-0.050
-481.376	-148.370	-0.169	-0.014
-480.362	-200.000	-0.008	0.119
-479.347	-42.279	0.285	0.147
-478.332	-73.300	-0.155	-0.057
-477.318	-36.939	-0.204	0.110
-476.303	-200.000	0.021	-0.100
-475.289	52.331	-0.243	-0.234
-474.274	-200.000	0.014	0.309
-473.259	-200.000	0.010	0.071
-472.245	278.926	0.085	-0.153
-471.230	-114.815	-0.134	-0.026
-470.216	-59.053	0.012	-0.005
-469.201	800.000	0.070	0.263
-468.186	11.235	-0.298	-0.230
-467.172	800.000	-0.039	-0.151
-466.157	-65.692	0.137	-0.055
-465.143	102.474	-0.266	-0.314
-464.128	-123.210	-0.213	-0.034
-463.113	20.833	0.076	-0.062
-462.099	279.366	0.244	0.439
-461.084	-120.082	-0.084	0.014
-460.070	-200.000	-0.036	-0.260
-459.055	30.162	0.087	-0.075
-458.040	46.661	-0.234	0.219
-457.026	-172.943	-0.182	-0.006
-456.011	800.000	-0.087	-0.263
-454.997	116.995	0.285	-0.353
-453.982	-158.235	0.058	0.003
-452.968	553.221	-0.075	-0.182
-451.953	-63.883	0.170	-0.070
-450.938	-66.769	-0.375	-0.149
-449.924	636.048	0.097	0.247
-448.909	510.056	0.178	0.418
-447.895	-200.000	-0.012	0.507
-446.880	247.997	0.139	0.238
-445.865	167.575	0.048	-0.069
-444.851	29.570	0.289	-0.248
-443.836	-95.109	0.243	0.066
-442.822	101.870	-0.198	0.233
-441.807	119.709	0.265	0.331
-440.792	-200.000	0.010	-0.435
-439.778	-200.000	-0.047	-0.285
-438.763	100.842	-0.251	-0.294
-437.749	-94.182	0.361	-0.100
-436.734	237.932	-0.061	-0.103
-435.719	52.399	-0.070	0.067
-434.705	-200.000	-0.045	-0.260
-433.690	-92.268	-0.276	0.079
-432.676	163.027	0.215	-0.304
-431.661	-200.000	-0.018	0.214
-430.646	-90.743	-0.279	-0.081
-429.632	-81.925	-0.310	0.102
-428.617	-193.271	0.062	0.001
-427.603	249.280	0.120	0.205
-426.588	-151.475	-0.240	0.018
-425.573	-27.075	0.034	0.020
-424.559	-3.996	-0.208	-0.145
-423.544	225.507	-0.192	-0.314
-422.530	-71.364	-0.199	-0.075
-421.515	78.406	-0.102	0.110
-420.500	54.257	-0.304	0.294
-419.486	-97.551	-0.301	0.079
-418.471	-200.000	-0.012	0.198
-417.457	56.285	-0.055	0.054
-416.442	-200.000	0.042	-0.614
-415.428	417.795	-0.239	-0.514
-414.413	-39.605	0.225	-0.119
-413.398	-51.757	0.177	0.083
-412.384	800.000	-0.087	0.359
-411.369	37.689	0.186	0.166
-410.355	744.199	0.088	0.239
-409.340	-200.000	0.010	0.057
-408.325	176.210	0.016	-0.023
-407.311	-200.000	-0.024	-0.168
-406.296	-142.707	0.174	-0.017
-405.282	-200.000	-0.022	-0.316
-404.267	-200.000	-0.016	-0.128
-403.252	-9.990	-0.163	0.109
-402.238	44.643	0.072	-0.067
-401.223	800.000	0.054	-0.157
-400.209	224.805	-0.085	0.138
-399.194	52.028	0.203	0.195
-398.179	12.371	-0.313	0.243
-397.165	182.549	-0.042	0.062
-396.150	-200.000	0.040	0.285
-395.136	-36.682	0.217	-0.117
-394.121	135.129	0.310	-0.406
-393.106	10.041	0.152	0.116
-392.092	-53.130	0.129	-0.060
-391.077	112.924	-0.192	0.234
-390.063	-110.386	0.115	0.024
-389.048	-200.000	0.041	-0.364
-388.033	-100.336	-0.245	-0.061
-387.019	209.890	0.050	0.079
-386.004	415.562	-0.100	0.214
-384.990	-200.000	-0.002	-0.310
-383.975	183.464	-0.330	0.491
-382.960	-3.590	0.093	-0.065
-381.946	800.000	0.036	-0.110
-380.931	-114.992	0.300	-0.057
-379.917	209.466	-0.098	-0.155
-378.902	173.105	-0.124	0.180
-377.888	126.314	-0.055	0.070
-376.873	348.806	-0.066	-0.131
-375.858	-121.433	0.487	0.081
-374.844	-196.766	-0.247	0.002
-373.829	-139.800	0.207	0.022
-372.815	-57.550	-0.353	-0.156
-371.800	-73.385	-0.348	-0.128
-370.785	-200.000	-0.000	-0.028
-369.771	800.000	0.078	-0.274
-368.756	-200.000	0.072	-0.340
-367.742	137.683	0.115	0.151
-366.727	-200.000	-0.013	-0.072
-365.712	-200.000	-0.018	0.202
-364.698	-112.968	0.476	0.095
-363.683	-200.000	-0.024	-0.233
-362.669	38.829	-0.181	-0.162
-361.654	800.000	-0.066	0.211
-360.639	-107.738	0.341	-0.075
-359.625	-68.583	-0.389	0.151
-358.610	155.142	0.069	0.095
-357.596	191.919	-0.151	-0.229
-356.581	214.836	0.068	0.108
-355.566	81.594	-0.109	-0.119
-354.552	94.905	0.151	-0.173
-353.537	-200.000	0.064	0.338
-352.523	-8.497	-0.168	0.113
-351.508	-43.773	0.302	0.153
-350.493	-115.337	-0.340	-0.064
-349.479	25.454	0.184	-0.154
-348.464	800.000	-0.114	-0.482
-347.450	458.925	0.071	0.159
-346.435	66.055	-0.125	-0.127
-345.420	21.176	-0.067	-0.054
-344.406	-55.941	0.248	0.111
-343.391	26.413	-0.036	-0.030
-342.377	111.917	-0.073	-0.089
-341.362	800.000	0.045	-0.168
-340.348	27.309	0.314	-0.265
-339.333	220.466	-0.268	-0.432
-338.318	-29.439	-0.349	-0.200
-337.304	109.946	-0.172	-0.207
-336.289	84.133	-0.232	0.254
-335.275	-32.279	0.237	-0.133
-334.260	800.000	0.043	0.119
-333.245	103.432	0.113	-0.134
-332.231	27.106	0.281	0.237
-331.216	5.778	0.094	-0.070
-330.202	102.345	0.096	0.113
-329.187	-128.470	0.273	-0.039
-328.172	-200.000	0.007	0.043
-327.158	-66.097	-0.090	0.036
-326.143	-34.843	0.076	0.042
-325.129	800.000	0.050	-0.221
-324.114	800.000	0.031	-0.107
-323.099	-142.930	-0.201	0.020
-322.085	-63.040	0.283	-0.117
-321.070	-144.237	-0.071	0.007
-320.056	-31.379	0.189	0.107
-319.041	-200.000	0.024	0.285
-318.026	-200.000	0.036	0.203
-317.012	3.163	-0.113	0.082
-315.997	226.160	-0.098	-0.159
-314.983	1.196	0.218	0.157
-313.968	-52.272	-0.205	-0.095
-312.953	-200.000	0.069	-0.355
-311.939	-103.284	-0.206	0.049
-310.924	773.990	0.127	-0.346
-309.910	213.681	0.045	0.071
-308.895	419.305	-0.147	-0.316
-307.880	-200.000	0.060	0.347
-306.866	800.000	0.050	-0.187
-305.851	800.000	-0.064	-0.185
-304.837	-200.000	0.010	0.057
-303.822	15.810	0.106	0.084
-302.807	-187.950	-0.145	0.002
-301.793	-190.231	-0.334	-0.004
-300.778	441.775	0.060	-0.131
-299.764	-157.840	0.182	-0.011
-298.749	-79.125	0.327	-0.111
-297.735	-200.000	-0.022	-0.268
-296.720	-34.142	-0.133	-0.074
-295.705	601.663	-0.116	0.289
-294.691	-26.920	0.125	-0.073
-293.676	181.621	0.086	0.127
-292.662	-81.857	0.362	0.119
-291.647	151.155	0.039	0.053
-290.632	-181.709	0.228	0.004
-289.618	379.454	-0.147	-0.301
-288.603	724.637	-0.047	0.124
-287.589	-200.000	0.028	-0.274
-286.574	-176.458	-0.025	-0.001
-285.559	-178.698	0.181	-0.004
-284.545	-200.000	-0.003	0.163
-283.530	103.319	-0.223	0.262
-282.516	382.268	-0.190	0.391
-281.501	-200.000	0.025	-0.342
-280.486	-45.222	0.030	-0.015
-279.472	-200.000	0.035	-0.258
-278.457	-200.000	0.015	-0.243
-277.443	138.152	0.160	0.210
-276.428	-45.286	0.365	-0.181
-275.413	0.702	0.189	0.136
-274.399	-56.798	0.275	-0.122
-273.384	519.778	0.099	-0.233
-272.370	118.515	-0.074	0.091
-271.355	-70.330	-0.157	-0.060
-270.340	-83.132	0.280	0.090
-269.326	-89.621	0.111	0.033
-268.311	-88.684	0.448	0.134
-267.297	-18.162	-0.341	0.214
-266.282	296.136	-0.222	0.407
-265.267	-8.703	-0.125	-0.084
-264.253	-88.635	-0.164	-0.049
-263.238	-101.737	-0.059	0.014
-262.224	-26.121	-0.157	0.092
-261.209	-55.912	-0.196	0.088
-260.195	-200.000	-0.061	0.342
-259.180	93.390	-0.139	0.157
-258.165	800.000	-0.047	0.178
-257.151	-200.000	0.006	0.292
-256.136	800.000	-0.034	-0.145
-255.122	47.925	0.298	0.278
-254.107	-187.966	0.157	0.002
-253.092	-200.000	0.022	0.146
-252.078	28.261	-0.218	-0.184
-251.063	800.000	-0.090	0.346
-250.049	-200.000	0.018	-0.124
-249.034	529.666	0.036	-0.086
-248.019	-79.819	-0.133	0.045
-247.005	438.589	-0.108	-0.235
-245.990	-200.000	-0.034	0.213
-244.976	-200.000	0.028	0.205
-243.961	-162.809	0.169	0.008
-242.946	-40.059	0.160	-0.083
-241.932	326.667	-0.089	-0.171
-240.917	220.530	-0.214	0.343
-239.903	-119.866	0.062	0.011
-238.888	-152.321	-0.259	0.019
-237.873	-28.998	0.207	0.119
-236.859	42.530	0.292	0.266
-235.844	-116.170	0.298	-0.055
-234.830	-178.974	-0.375	-0.008
-233.815	-165.552	-0.238	0.010
-232.800	800.000	-0.031	-0.116
-231.786	-200.000	0.057	0.362
-230.771	-200.000	0.031	0.199
-229.757	800.000	-0.041	0.174
-228.742	66.709	-0.155	-0.158
-227.727	-200.000	-0.007	0.482
-226.713	353.502	0.126	0.250
-225.698	603.374	-0.030	0.074
-224.684	-200.000	-0.002	-0.077
-223.669	101.932	0.199	0.232
-222.655	112.811	-0.242	-0.293
-221.640	84.426	-0.175	-0.192
-220.625	800.000	-0.072	-0.246
-219.611	268.608	-0.080	0.140
-218.596	59.622	-0.133	0.131
-217.582	-200.000	-0.125	-0.000
-216.567	86.680	-0.095	-0.105
-215.552	187.431	-0.059	-0.087
-214.538	-78.915	-0.331	-0.112
-213.523	-34.765	0.130	0.071
-212.509	-200.000	-0.005	-0.200
-211.494	-134.342	-0.132	-0.016
-210.479	-200.000	-0.033	0.259
-209.465	-2.131	0.104	0.073
-208.450	-156.149	0.290	-0.018
-207.436	-34.615	-0.125	-0.068
-206.421	-134.724	0.162	-0.020
-205.406	-14.213	-0.366	-0.236
-204.392	137.566	-0.097	0.126
-203.377	250.426	0.169	-0.286
-202.363	-63.014	-0.454	-0.187
-201.348	-59.651	-0.211	0.090
-200.333	175.076	0.177	-0.256
-199.319	-200.000	0.053	-0.323
-198.304	399.370	0.122	-0.254
-197.290	106.075	0.289	0.342
-196.275	87.689	-0.278	0.307
-195.260	-99.331	-0.090	0.023
-194.246	49.152	-0.292	-0.274
-193.231	800.000	-0.002	-0.006
-192.217	-99.557	0.017	0.004
-191.202	-153.904	0.130	0.009
-190.187	-200.000	0.001	0.259
-189.173	-180.866	0.201	-0.004
-188.158	-200.000	0.040	-0.198
-187.144	-142.822	0.120	-0.012
-186.129	117.366	-0.208	-0.256
-185.114	129.221	0.072	-0.092
-184.100	-200.000	0.001	-0.173
-183.085	96.646	-0.201	0.230
-182.071	560.203	-0.047	0.114
-181.056	-200.000	0.031	0.232
-180.042	-200.000	0.000	-0.003
-179.027	-138.498	-0.441	0.048
-178.012	-200.000	-0.001	-0.058
-176.998	-27.151	0.330	0.192
-175.983	-124.522	-0.247	-0.038
-174.969	-200.000	0.010	0.284
-173.954	-14.086	0.077	-0.050
-172.939	-42.521	0.106	0.054
-171.925	22.606	-0.181	0.148
-170.910	-48.796	0.326	0.156
-169.896	9.629	-0.124	0.094
-168.881	-113.296	-0.274	-0.054
-167.866	26.333	-0.143	0.119
-166.852	186.322	0.143	-0.212
-165.837	-77.441	0.298	-0.103
-164.823	182.733	0.114	0.168
-163.808	-200.000	0.078	-0.376
-162.793	485.567	0.076	-0.173
-161.779	13.451	-0.431	0.333
-160.764	-200.000	-0.012	-0.161
-159.750	-183.061	0.159	-0.003
-158.735	-200.000	-0.017	0.169
-157.720	16.106	0.277	0.217
-156.706	-54.293	-0.274	0.124
-155.691	91.151	-0.010	-0.011
-154.677	-200.000	-0.047	0.238
-153.662	101.523	0.235	0.272
-152.647	118.722	0.036	-0.045
-151.633	63.745	0.166	0.167
-150.618	481.599	0.025	0.056
-149.604	-57.901	-0.190	0.083
-148.589	-164.189	-0.393	0.018
-147.574	800.000	-0.042	0.177
-146.560	4.393	0.088	-0.064
-145.545	-105.841	0.226	-0.051
-144.531	800.000	0.063	0.193
-143.516	57.107	0.286	0.278
-142.502	800.000	-0.074	0.255
-141.487	263.414	0.073	0.126
-140.472	-200.000	0.003	0.050
-139.458	-88.027	-0.401	0.120
-138.443	-81.660	-0.128	-0.042
-137.429	432.015	-0.022	0.048
-136.414	-72.745	0.062	-0.023
-135.399	-85.395	0.099	0.031
-134.385	-109.377	-0.548	-0.115
-133.370	-33.091	-0.267	-0.147
-132.356	800.000	-0.025	0.101
-131.341	-113.687	0.264	-0.051
-130.326	-15.227	-0.120	0.077
-129.312	285.162	0.089	0.160
-128.297	-200.000	0.017	0.096
-127.283	477.547	-0.106	-0.239
-126.268	-200.000	0.015	-0.169
-125.253	70.629	-0.306	-0.316
-124.239	74.804	0.130	0.137
-123.224	40.377	-0.127	-0.114
-122.210	46.885	0.142	-0.131
-121.195	144.808	0.248	0.329
