DTS Sentinel unit serial number:	SN413079Multiplexer serial number:	ORYXHardware model number:	OX4-SRSoftware version number:	ORYX F/W v4.00 Oryx Data Collector v3.7.2.0data status	okinstallation	princeton_trtdifferential loss correction	single-endedforward channel	channel 2reverse channel	N/Adate	2019/09/15time	13:51:34forward acquisition time	60.00reverse acquisition time	0.00gamma	496.2192k internal	0.2303k external	0.2303temperature offset calibration	0.9994default loss term (dB/km)	0.3790temperature slope calibration	1.0000multiplexer offset coefficient	1.0000multiplexer slope coefficient	1.0000fibre end	0.00T internal ref (°C)	38.19T ext. ref 1 (°C)	4.95T ext. ref 2 (°C)	35.49length (m)	temperature (°C)	Stokes	anti-Stokes-747.200	-39.454	-0.347	0.186
-746.185	126.793	-0.252	0.325
-745.171	-64.185	-0.219	0.091
-744.156	-37.235	-0.050	0.027
-743.142	-166.814	0.207	0.009
-742.127	289.958	0.102	0.188
-741.112	-200.000	-0.000	0.048
-740.098	-70.569	-0.368	0.142
-739.083	-200.000	0.027	0.383
-738.069	-200.000	0.020	0.165
-737.054	-200.000	0.142	0.645
-736.039	-200.000	-0.052	0.243
-735.025	-200.000	0.026	0.196
-734.010	63.517	-0.084	0.086
-732.996	286.936	-0.029	0.053
-731.981	18.325	0.343	-0.279
-730.966	395.107	-0.113	0.240
-729.952	38.610	-0.161	0.146
-728.937	302.623	-0.073	0.138
-727.923	18.674	-0.110	-0.090
-726.908	-200.000	-0.556	-0.002
-725.894	800.000	-0.109	0.332
-724.879	-87.827	0.272	0.083
-723.864	-141.438	-0.227	0.023
-722.850	-200.000	-0.022	0.227
-721.835	-70.796	-0.226	-0.087
-720.821	-200.000	-0.006	-0.122
-719.806	800.000	-0.106	-0.344
-718.791	193.559	0.093	-0.143
-717.777	91.449	-0.318	-0.364
-716.762	187.164	0.030	-0.045
-715.748	501.257	-0.100	-0.234
-714.733	-200.000	-0.036	-0.203
-713.718	219.232	-0.080	0.131
-712.704	-33.717	0.293	-0.164
-711.689	-42.485	-0.171	-0.088
-710.675	206.130	0.146	0.232
-709.660	-118.899	0.157	-0.028
-708.645	756.201	-0.052	-0.144
-707.631	-33.675	0.047	-0.026
-706.616	-200.000	-0.054	0.312
-705.602	-200.000	-0.028	0.432
-704.587	150.799	0.198	0.274
-703.572	-113.101	-0.357	-0.072
-702.558	-119.481	-0.355	0.063
-701.543	100.866	0.075	0.089
-700.529	475.456	0.067	-0.153
-699.514	22.351	-0.181	0.150
-698.499	19.903	-0.241	-0.197
-697.485	800.000	0.039	-0.168
-696.470	376.489	-0.082	-0.170
-695.456	-59.627	-0.211	-0.092
-694.441	-68.272	-0.136	0.054
-693.426	-200.000	-0.018	0.254
-692.412	-149.826	-0.230	-0.018
-691.397	800.000	-0.106	0.319
-690.383	160.909	-0.142	0.202
-689.368	-29.093	-0.129	0.075
-688.354	-200.000	0.017	0.193
-687.339	114.581	0.072	-0.089
-686.324	-163.346	0.402	-0.020
-685.310	-88.119	0.129	-0.039
-684.295	800.000	-0.061	-0.177
-683.281	-122.493	0.379	-0.063
-682.266	-155.892	-0.455	0.029
-681.251	-144.683	-0.272	0.025
-680.237	-35.001	-0.150	-0.083
-679.222	602.860	-0.134	-0.339
-678.208	6.140	0.034	-0.025
-677.193	-26.713	0.163	-0.097
-676.178	-199.551	0.213	-0.001
-675.164	-200.000	0.009	-0.199
-674.149	-40.705	-0.122	-0.064
-673.135	-75.057	-0.117	0.043
-672.120	-200.000	0.002	0.055
-671.105	-23.325	-0.330	0.202
-670.091	-93.786	0.153	0.043
-669.076	-155.903	0.132	0.009
-668.062	222.133	-0.149	-0.244
-667.047	525.728	0.067	-0.160
-666.032	-139.993	0.064	0.007
-665.018	-90.466	-0.111	0.033
-664.003	-26.529	-0.192	-0.114
-662.989	-200.000	0.027	-0.153
-661.974	98.476	0.169	-0.198
-660.959	-62.039	-0.127	-0.054
-659.945	-200.000	0.064	0.468
-658.930	332.461	0.176	-0.345
-657.916	109.464	0.189	-0.230
-656.901	-86.378	0.274	0.086
-655.886	-200.000	0.021	-0.166
-654.872	-200.000	-0.003	-0.207
-653.857	-117.757	-0.425	0.078
-652.843	-62.986	0.092	0.039
-651.828	-172.058	0.196	0.006
-650.814	306.761	0.068	-0.129
-649.799	-200.000	0.034	-0.420
-648.784	27.490	0.141	0.121
-647.770	222.585	0.089	-0.145
-646.755	-200.000	-0.011	-0.078
-645.741	46.904	0.069	0.065
-644.726	68.165	-0.215	-0.223
-643.711	457.300	-0.155	-0.350
-642.697	-61.583	0.029	-0.012
-641.682	-180.284	0.450	0.010
-640.668	-200.000	-0.041	-0.280
-639.653	222.602	0.162	-0.264
-638.638	-200.000	-0.026	0.160
-637.624	783.589	0.122	-0.340
-636.609	3.451	-0.041	0.030
-635.595	288.403	0.088	0.162
-634.580	800.000	-0.034	-0.102
-633.565	10.708	-0.075	0.058
-632.551	48.299	0.133	0.126
-631.536	-42.613	0.399	-0.206
-630.522	317.056	0.081	-0.156
-629.507	-200.000	0.026	-0.166
-628.492	156.365	0.038	-0.054
-627.478	-200.000	-0.004	0.086
-626.463	-165.324	-0.095	-0.004
-625.449	-200.000	0.060	-0.324
-624.434	-200.000	-0.048	-0.234
-623.419	-200.000	-0.008	-0.368
-622.405	424.314	0.035	0.076
-621.390	-131.065	0.218	-0.029
-620.376	36.318	0.210	0.188
-619.361	49.172	-0.235	0.224
-618.346	206.550	-0.084	-0.132
-617.332	-122.219	-0.125	-0.021
-616.317	315.998	-0.148	-0.283
-615.303	-35.616	-0.171	-0.094
-614.288	335.695	-0.085	-0.167
-613.273	-200.000	0.010	0.093
-612.259	236.254	0.053	0.089
-611.244	73.798	-0.226	-0.240
-610.230	14.008	0.128	0.101
-609.215	-200.000	0.005	0.094
-608.201	-200.000	-0.034	0.219
-607.186	26.517	-0.087	0.073
-606.171	-44.147	-0.269	-0.137
-605.157	55.282	-0.235	0.231
-604.142	81.173	0.150	-0.164
-603.128	-200.000	-0.042	-0.493
-602.113	-77.871	-0.158	0.055
-601.098	-48.431	-0.143	0.070
-600.084	-106.495	0.181	0.041
-599.069	69.282	-0.138	-0.144
-598.055	-49.707	0.381	-0.183
-597.040	800.000	0.092	-0.353
-596.025	800.000	0.020	-0.078
-595.011	-200.000	-0.022	0.211
-593.996	-11.285	0.063	0.042
-592.982	-200.000	-0.016	0.141
-591.967	-81.686	-0.073	0.024
-590.952	472.309	-0.067	0.153
-589.938	-57.305	-0.255	0.114
-588.923	-39.130	-0.075	0.040
-587.909	-29.638	0.168	0.097
-586.894	-200.000	0.002	0.142
-585.879	63.318	0.191	-0.194
-584.865	-33.618	-0.152	0.085
-583.850	145.613	0.093	-0.127
-582.836	33.477	0.288	-0.253
-581.821	-115.031	-0.122	0.023
-580.806	144.310	-0.159	-0.215
-579.792	31.772	0.076	-0.066
-578.777	-200.000	-0.042	0.191
-577.763	443.569	-0.082	0.182
-576.748	-134.648	0.221	-0.027
-575.733	160.325	-0.073	0.103
-574.719	-200.000	-0.002	-0.044
-573.704	-145.763	-0.080	0.007
-572.690	-47.144	0.418	0.206
-571.675	-200.000	0.032	-0.150
-570.661	-129.181	-0.253	-0.036
-569.646	-153.144	-0.317	-0.022
-568.631	53.321	-0.077	-0.075
-567.617	245.856	-0.141	0.240
-566.602	-146.849	-0.091	0.008
-565.588	-200.000	0.025	0.217
-564.573	-200.000	0.033	0.229
-563.558	-33.322	-0.281	-0.157
-562.544	800.000	-0.096	-0.288
-561.529	258.916	-0.039	-0.068
-560.515	120.589	-0.085	-0.107
-559.500	-23.643	-0.165	-0.100
-558.485	-174.166	-0.134	-0.004
-557.471	-45.109	-0.076	0.038
-556.456	132.070	-0.113	-0.147
-555.442	-51.251	0.162	-0.077
-554.427	-69.318	0.331	0.129
-553.412	254.377	0.004	-0.006
-552.398	-156.371	-0.065	-0.004
-551.383	-116.127	0.200	0.038
-550.369	-103.338	-0.354	0.084
-549.354	7.348	0.435	0.329
-548.339	-41.476	-0.351	0.183
-547.325	800.000	0.085	0.264
-546.310	158.484	0.162	-0.227
-545.296	36.480	0.312	0.279
-544.281	28.994	0.291	-0.249
-543.266	-6.627	-0.169	0.116
-542.252	-170.872	0.225	-0.008
-541.237	800.000	0.132	-0.515
-540.223	-51.426	-0.186	0.088
-539.208	-70.807	-0.178	-0.068
-538.193	-127.766	0.128	-0.019
-537.179	800.000	-0.030	0.114
-536.164	-200.000	0.024	-0.222
-535.150	-130.499	0.134	-0.018
-534.135	-200.000	-0.018	-0.474
-533.121	-200.000	0.019	-0.263
-532.106	-44.350	-0.483	0.244
-531.091	54.192	-0.152	-0.148
-530.077	-200.000	-0.004	0.195
-529.062	-52.032	0.031	-0.015
-528.048	-123.920	-0.078	0.012
-527.033	-200.000	-0.058	-0.401
-526.018	-93.980	-0.185	-0.051
-525.004	-13.990	-0.153	-0.100
-523.989	-200.000	0.008	-0.267
-522.975	800.000	0.050	0.215
-521.960	64.778	-0.173	-0.176
-520.945	363.507	-0.137	-0.278
-519.931	800.000	-0.109	-0.433
-518.916	-200.000	-0.024	-0.146
-517.902	91.914	0.263	0.299
-516.887	-36.168	0.286	0.156
-515.872	652.698	-0.054	0.140
-514.858	-42.205	0.190	0.098
-513.843	-24.627	-0.395	0.237
-512.829	-200.000	-0.008	0.044
-511.814	-154.149	0.194	0.013
-510.799	82.953	0.113	0.124
-509.785	-164.874	0.536	-0.024
-508.770	303.842	0.070	0.131
-507.756	-2.859	0.101	-0.071
-506.741	41.228	0.148	-0.135
-505.726	518.253	-0.045	-0.106
-504.712	-89.164	0.179	-0.053
-503.697	800.000	-0.070	0.260
-502.683	-200.000	-0.038	0.327
-501.668	684.458	0.095	0.249
-500.653	-148.653	0.200	-0.016
-499.639	-135.202	0.111	0.013
-498.624	-67.137	-0.133	-0.053
-497.610	85.568	-0.051	0.056
-496.595	-121.799	0.267	0.044
-495.581	-143.399	0.485	0.047
-494.566	-91.280	0.309	-0.089
-493.551	143.052	0.105	-0.140
-492.537	69.765	-0.087	-0.091
-491.522	-200.000	0.028	0.268
-490.508	-200.000	-0.001	0.107
-489.493	200.953	0.110	-0.171
-488.478	-44.183	0.259	0.131
-487.464	32.564	-0.090	0.079
-486.449	800.000	-0.075	-0.225
-485.435	502.626	0.048	-0.111
-484.420	800.000	-0.065	-0.199
-483.405	35.961	0.235	0.208
-482.391	14.066	-0.361	-0.283
-481.376	393.406	0.093	-0.196
-480.362	107.468	-0.129	-0.155
-479.347	-66.480	-0.161	-0.064
-478.332	-108.055	0.158	-0.034
-477.318	-77.275	0.198	0.070
-476.303	-109.178	-0.378	0.081
-475.289	-49.575	0.244	0.117
-474.274	800.000	0.062	-0.203
-473.259	101.986	-0.245	0.288
-472.245	602.868	0.079	0.199
-471.230	-200.000	-0.028	0.201
-470.216	-200.000	-0.037	0.278
-469.201	73.797	-0.289	-0.305
-468.186	180.017	-0.095	0.140
-467.172	-25.198	0.366	0.219
-466.157	139.315	-0.071	-0.094
-465.143	350.382	0.173	0.344
-464.128	-75.767	0.036	-0.013
-463.113	-77.571	-0.344	-0.120
-462.099	292.654	0.126	0.231
-461.084	252.104	-0.190	-0.326
-460.070	-200.000	0.055	-0.294
-459.055	-109.136	0.216	-0.046
-458.040	-200.000	-0.032	0.218
-457.026	-126.351	0.366	0.055
-456.011	-200.000	-0.007	0.036
-454.997	800.000	-0.183	-0.612
-453.982	-30.959	-0.255	0.145
-452.968	-76.797	0.072	-0.025
-451.953	-45.450	-0.096	0.048
-450.938	443.228	0.090	-0.199
-449.924	-44.701	0.081	0.041
-448.909	-120.725	-0.152	0.026
-447.895	-78.861	0.275	0.094
-446.880	-200.000	0.001	0.402
-445.865	384.196	-0.075	-0.156
-444.851	-200.000	-0.058	0.287
-443.836	-46.836	-0.197	-0.097
-442.822	-101.947	-0.271	-0.066
-441.807	-90.449	-0.146	0.043
-440.792	3.189	-0.210	0.154
-439.778	-7.925	-0.108	-0.073
-438.763	-150.987	0.204	0.015
-437.749	66.901	-0.221	-0.227
-436.734	689.096	-0.060	0.157
-435.719	116.773	-0.195	0.241
-434.705	189.547	-0.148	0.223
-433.690	731.729	-0.025	0.067
-432.676	800.000	0.058	-0.199
-431.661	46.414	-0.128	-0.120
-430.646	310.384	0.051	-0.096
-429.632	259.234	0.069	-0.121
-428.617	800.000	-0.074	0.209
-427.603	85.989	-0.135	-0.149
-426.588	-59.933	-0.169	0.073
-425.573	-200.000	-0.032	-0.210
-424.559	266.772	-0.104	-0.184
-423.544	68.895	0.118	0.122
-422.530	800.000	-0.037	-0.141
-421.515	-200.000	0.028	0.143
-420.500	-74.829	-0.079	0.028
-419.486	66.584	-0.190	-0.195
-418.471	101.247	-0.139	0.163
-417.457	-200.000	0.050	0.284
-416.442	800.000	0.083	-0.306
-415.428	-200.000	-0.036	-0.171
-414.413	354.504	0.114	0.229
-413.398	-200.000	-0.009	0.258
-412.384	169.116	-0.072	0.103
-411.369	-105.307	-0.156	0.036
-410.355	-51.524	0.062	-0.029
-409.340	215.735	-0.166	0.266
-408.325	-166.729	0.280	0.012
-407.311	800.000	0.056	0.222
-406.296	-200.000	-0.017	0.119
-405.282	-185.761	0.202	0.003
-404.267	128.811	-0.148	0.189
-403.252	800.000	-0.054	-0.183
-402.238	-195.369	-0.011	0.000
-401.223	-46.164	-0.159	-0.079
-400.209	147.262	0.050	0.067
-399.194	-200.000	0.011	0.065
-398.179	111.850	0.317	-0.384
-397.165	-200.000	0.045	-0.426
-396.150	648.965	-0.151	0.388
-395.136	10.212	-0.073	0.056
-394.121	-158.885	-0.190	0.011
-393.106	67.917	-0.190	0.195
-392.092	65.648	0.216	-0.220
-391.077	-71.580	0.238	0.089
-390.063	-200.000	-0.005	0.328
-389.048	-200.000	-0.019	0.119
-388.033	50.188	0.218	-0.207
-387.019	756.321	-0.068	0.186
-386.004	-72.703	0.238	-0.088
-384.990	-9.252	0.369	-0.248
-383.975	-170.812	-0.088	0.003
-382.960	405.940	-0.110	-0.233
-381.946	-98.666	-0.149	0.038
-380.931	-151.907	0.163	0.012
-379.917	-200.000	-0.012	0.175
-378.902	422.084	0.171	0.369
-377.888	-120.900	-0.192	0.032
-376.873	29.446	0.095	-0.081
-375.858	-25.494	0.194	0.115
-374.844	-146.945	0.199	0.017
-373.829	-28.808	-0.283	0.163
-372.815	379.081	0.073	0.150
-371.800	-200.000	-0.011	-0.055
-370.785	800.000	-0.018	-0.076
-369.771	-144.011	0.139	-0.013
-368.756	-60.796	-0.376	0.160
-367.742	-124.683	0.175	0.027
-366.727	800.000	0.053	0.172
-365.712	154.038	-0.114	-0.156
-364.698	379.716	0.041	0.084
-363.683	152.253	0.055	-0.076
-362.669	359.133	0.107	0.214
-361.654	337.980	0.081	0.158
-360.639	10.286	-0.131	0.100
-359.625	-200.000	0.021	-0.157
-358.610	-41.866	-0.261	-0.134
-357.596	-200.000	-0.007	0.297
-356.581	282.881	-0.057	-0.103
-355.566	288.512	-0.048	-0.087
-354.552	-45.915	-0.107	-0.053
-353.537	800.000	-0.085	-0.302
-352.523	-200.000	-0.065	-0.307
-351.508	-22.044	-0.049	0.030
-350.493	5.825	0.167	0.124
-349.479	-199.565	-0.445	-0.002
-348.464	-90.289	0.300	-0.087
-347.450	635.046	-0.078	-0.199
-346.435	-119.911	-0.210	0.036
-345.420	-200.000	0.037	-0.171
-344.406	158.366	0.096	0.134
-343.391	-200.000	-0.019	0.187
-342.377	-146.913	0.065	0.006
-341.362	-92.637	-0.075	-0.021
-340.348	-200.000	0.009	0.252
-339.333	583.351	-0.123	0.303
-338.318	-40.434	-0.312	-0.162
-337.304	-200.000	0.026	0.118
-336.289	181.724	0.266	0.393
-335.275	-148.038	0.127	0.011
-334.260	-14.377	0.093	-0.060
-333.245	-78.409	0.171	0.059
-332.231	-100.028	-0.157	-0.039
-331.216	-35.717	0.186	-0.101
-330.202	11.041	-0.132	0.101
-329.187	-200.000	0.027	0.199
-328.172	-119.778	-0.318	-0.055
-327.158	-142.403	-0.357	-0.035
-326.143	-172.823	0.354	0.011
-325.129	-200.000	-0.002	0.116
-324.114	-97.097	0.230	-0.060
-323.099	-74.264	-0.052	-0.019
-322.085	800.000	-0.064	0.180
-321.070	-200.000	0.065	0.326
-320.056	172.168	0.129	0.186
-319.041	24.979	-0.320	-0.266
-318.026	-200.000	-0.047	0.237
-317.012	-151.718	0.250	0.018
-315.997	125.481	0.159	0.201
-314.983	49.512	-0.080	0.076
-313.968	510.456	0.100	0.233
-312.953	-94.619	-0.427	0.116
-311.939	115.751	-0.207	0.254
-310.924	-200.000	-0.006	0.119
-309.910	162.264	-0.067	-0.095
-308.895	103.116	0.045	0.053
-307.880	315.543	0.090	-0.170
-306.866	-150.091	-0.226	-0.018
-305.851	452.696	0.172	-0.380
-304.837	-36.603	0.172	-0.093
-303.822	455.718	0.092	-0.205
-302.807	345.121	-0.088	-0.174
-301.793	246.429	0.196	0.331
-300.778	7.159	-0.192	0.143
-299.764	-38.130	-0.148	-0.078
-298.749	-156.183	-0.406	0.026
-297.735	-188.668	-0.283	0.003
-296.720	-3.333	0.672	0.469
-295.705	-171.703	-0.299	-0.010
-294.691	-200.000	0.028	0.200
-293.676	-66.494	0.075	-0.030
-292.662	-63.707	-0.204	0.084
-291.647	699.037	0.018	-0.047
-290.632	-44.798	-0.126	0.063
-289.618	117.623	-0.114	0.140
-288.603	-73.901	0.228	-0.083
-287.589	74.813	-0.032	0.034
-286.574	63.459	0.106	-0.106
-285.559	-62.778	0.153	0.063
-284.545	-78.184	-0.177	-0.061
-283.530	154.643	0.102	-0.140
-282.516	-126.458	0.159	-0.024
-281.501	-113.186	0.321	-0.063
-280.486	-59.326	-0.196	-0.084
-279.472	-50.722	-0.176	0.083
-278.457	-200.000	-0.001	0.229
-277.443	132.818	-0.080	-0.104
-276.428	-23.419	0.241	-0.145
-275.413	-52.562	0.216	0.100
-274.399	-200.000	-0.016	0.099
-273.384	19.010	-0.262	-0.210
-272.370	-63.876	-0.309	0.126
-271.355	-32.526	-0.330	0.184
-270.340	20.753	-0.280	0.227
-269.326	-200.000	-0.103	-0.468
-268.311	-180.392	-0.268	-0.006
-267.297	-34.388	-0.197	0.108
-266.282	125.685	-0.084	-0.106
-265.267	-40.555	0.177	-0.092
-264.253	145.828	-0.052	-0.070
-263.238	252.473	-0.093	0.158
-262.224	-141.572	-0.332	-0.033
-261.209	-128.385	0.201	0.029
-260.195	38.075	-0.304	0.270
-259.180	218.616	-0.033	0.053
-258.165	-90.217	-0.024	0.007
-257.151	-44.778	0.219	-0.109
-256.136	350.974	0.139	0.274
-255.122	-93.567	0.260	0.072
-254.107	-183.350	0.404	0.007
-253.092	-128.161	-0.338	0.048
-252.078	-200.000	-0.004	-0.206
-251.063	-200.000	0.008	0.200
-250.049	-200.000	0.007	0.264
-249.034	3.802	-0.094	-0.068
-248.019	-200.000	-0.038	-0.207
-247.005	68.640	-0.198	-0.203
-245.990	800.000	-0.022	-0.086
-244.976	800.000	-0.107	-0.361
-243.961	8.257	0.376	-0.282
-242.946	-11.603	-0.363	-0.238
-241.932	356.691	-0.066	-0.131
-240.917	-200.000	0.037	-0.187
-239.903	-200.000	-0.054	-0.382
-238.888	117.665	0.121	0.148
-237.873	525.277	-0.055	-0.130
-236.859	159.040	-0.110	-0.153
-235.844	144.531	-0.206	-0.275
-234.830	800.000	0.062	0.243
-233.815	1.368	-0.169	-0.121
-232.800	238.742	0.181	-0.301
-231.786	-94.932	0.336	-0.091
-230.771	-38.212	-0.286	0.151
-229.757	-42.836	0.286	0.145
-228.742	-200.000	0.032	0.447
-227.727	28.216	0.091	-0.077
-226.713	38.919	-0.102	-0.091
-225.698	-200.000	-0.029	-0.258
-224.684	310.292	0.051	0.096
-223.669	36.655	0.174	0.154
-222.655	762.740	-0.104	0.283
-221.640	-184.581	0.345	0.006
-220.625	-200.000	0.009	0.041
-219.611	-65.134	0.304	0.122
-218.596	800.000	0.010	-0.035
-217.582	47.959	0.185	0.173
-216.567	-137.229	-0.036	-0.004
-215.552	63.462	-0.153	-0.153
-214.538	-16.772	0.201	-0.127
-213.523	207.013	0.099	-0.154
-212.509	81.086	0.224	-0.241
-211.494	23.858	-0.187	0.154
-210.479	-112.088	0.260	-0.052
-209.465	74.774	-0.223	0.234
-208.450	-200.000	-0.113	-0.000
-207.436	-31.317	0.370	0.208
-206.421	-200.000	-0.005	0.180
-205.406	363.567	0.062	0.125
-204.392	-63.906	-0.155	0.063
-203.377	-190.206	0.087	0.001
-202.363	39.710	-0.332	0.297
-201.348	-200.000	-0.002	0.324
-200.333	239.861	-0.050	-0.083
-199.319	-125.049	-0.160	-0.025
-198.304	-101.608	0.233	-0.056
-197.290	334.048	-0.169	0.327
-196.275	-2.259	-0.211	-0.147
-195.260	-85.909	0.125	0.038
-194.246	-95.537	0.300	0.080
-193.231	-200.000	-0.042	0.253
-192.217	119.524	0.106	-0.131
-191.202	-137.879	-0.202	-0.022
-190.187	-130.570	-0.175	-0.024
-189.173	-184.295	0.212	0.003
-188.158	256.510	0.166	0.284
-187.144	-152.125	0.401	-0.029
-186.129	112.337	0.052	0.062
-185.114	29.443	-0.171	0.145
-184.100	-26.472	0.187	0.109
-183.085	3.645	-0.147	-0.107
-182.071	-72.966	-0.061	-0.022
-181.056	-200.000	-0.019	0.271
-180.042	155.316	0.196	-0.268
-179.027	-200.000	-0.295	-0.001
-178.012	399.907	0.033	0.068
-176.998	20.911	0.068	0.055
-175.983	192.917	-0.094	-0.141
-174.969	800.000	0.083	-0.230
-173.954	-200.000	0.118	-0.540
-172.939	-71.475	-0.180	-0.067
-171.925	-122.200	-0.171	0.028
-170.910	800.000	0.028	-0.106
-169.896	-124.514	0.309	0.048
-168.881	3.570	0.306	0.223
-167.866	337.711	-0.114	-0.222
-166.852	324.887	0.038	-0.073
-165.837	-191.074	0.137	0.001
-164.823	-200.000	0.025	0.140
-163.808	4.962	-0.131	0.096
-162.793	-200.000	-0.067	-0.340
-161.779	16.289	0.063	-0.050
-160.764	-200.000	0.101	-0.496
-159.750	-161.086	0.303	0.016
-158.735	-147.694	0.379	0.032
-157.720	20.877	-0.239	-0.193
-156.706	-26.280	-0.161	-0.094
-155.691	152.001	0.210	0.285
-154.677	-65.145	0.242	0.097
-153.662	64.961	-0.293	0.294
-152.647	800.000	-0.056	0.218
-151.633	-53.737	0.174	-0.079
-150.618	126.863	-0.082	0.103
-149.604	-200.000	-0.001	0.093
-148.589	-200.000	-0.018	-0.277
-147.574	-150.440	-0.474	-0.036
-146.560	-116.351	0.190	0.035
-145.545	-200.000	0.002	-0.028
-144.531	609.370	0.111	-0.277
-143.516	-63.465	-0.192	0.079
-142.502	61.941	0.163	-0.162
-141.487	38.116	0.193	0.171
-140.472	-80.001	0.223	-0.075
-139.458	-112.619	0.298	-0.059
-138.443	-103.541	-0.401	0.094
-137.429	-200.000	0.013	-0.103
-136.414	-200.000	-0.029	0.393
-135.399	116.096	0.157	0.192
-134.385	256.229	0.054	0.092
-133.370	173.038	0.217	0.311
-132.356	282.760	-0.017	0.030
-131.341	189.054	0.155	0.231
-130.326	-114.195	0.257	0.049
-129.312	-148.851	-0.025	0.002
-128.297	-1.892	0.155	0.109
-127.283	-200.000	-0.008	0.353
-126.268	-40.128	-0.290	0.150
-125.253	-131.768	-0.379	0.049
-124.239	-115.785	0.260	-0.048
-123.224	210.902	-0.167	0.261
