DTS Sentinel unit serial number:	SN413079Multiplexer serial number:	ORYXHardware model number:	OX4-SRSoftware version number:	ORYX F/W v4.00 Oryx Data Collector v3.7.2.0data status	okinstallation	princeton_trtdifferential loss correction	single-endedforward channel	channel 2reverse channel	N/Adate	2019/09/14time	22:19:35forward acquisition time	60.00reverse acquisition time	0.00gamma	496.2192k internal	0.2324k external	0.2324temperature offset calibration	1.0064default loss term (dB/km)	0.3790temperature slope calibration	1.0000multiplexer offset coefficient	1.0000multiplexer slope coefficient	1.0000fibre end	0.00T internal ref (°C)	32.61T ext. ref 1 (°C)	4.70T ext. ref 2 (°C)	27.58length (m)	temperature (°C)	Stokes	anti-Stokes-747.200	-19.147	0.210	-0.132
-746.185	-200.000	0.054	0.264
-745.171	313.278	-0.128	0.244
-744.156	-73.980	-0.326	0.119
-743.142	-20.278	0.254	-0.158
-742.127	-200.000	0.004	0.031
-741.112	-71.657	-0.212	-0.080
-740.098	13.994	-0.373	-0.293
-739.083	2.408	0.182	0.133
-738.069	-200.000	0.023	0.374
-737.054	-116.573	0.173	-0.032
-736.039	82.195	-0.188	-0.206
-735.025	-140.981	-0.047	0.005
-734.010	800.000	0.071	0.232
-732.996	800.000	0.029	0.120
-731.981	-200.000	0.027	0.157
-730.966	800.000	0.031	0.089
-729.952	197.329	-0.193	-0.297
-728.937	800.000	0.032	-0.137
-727.923	-200.000	-0.037	0.171
-726.908	-154.994	-0.235	-0.016
-725.894	-146.863	-0.606	0.053
-724.879	468.760	-0.041	-0.094
-723.864	-43.557	-0.113	0.057
-722.850	-152.025	0.489	-0.036
-721.835	-200.000	0.010	-0.110
-720.821	52.785	0.126	-0.121
-719.806	800.000	0.047	-0.143
-718.791	11.733	-0.136	-0.106
-717.777	106.326	0.172	-0.205
-716.762	59.357	0.145	-0.144
-715.748	54.615	0.222	0.216
-714.733	-107.705	-0.350	0.077
-713.718	62.503	0.090	0.091
-712.704	119.787	0.159	-0.199
-711.689	35.944	-0.289	-0.256
-710.675	370.345	0.218	-0.445
-709.660	-45.940	0.219	0.109
-708.645	-200.000	-0.028	0.288
-707.631	-166.058	0.315	-0.014
-706.616	-73.843	0.145	-0.053
-705.602	-24.226	-0.196	-0.118
-704.587	248.945	0.110	0.188
-703.572	176.093	-0.198	-0.290
-702.558	-200.000	0.066	0.410
-701.543	-200.000	0.009	-0.391
-700.529	60.819	-0.156	-0.156
-699.514	-86.054	-0.128	-0.040
-698.499	-90.244	-0.375	0.110
-697.485	-38.920	0.215	0.114
-696.470	184.299	0.201	-0.300
-695.456	66.865	0.172	-0.176
-694.441	193.114	0.100	-0.152
-693.426	593.005	0.034	-0.084
-692.412	141.267	-0.124	-0.165
-691.397	476.929	0.190	-0.434
-690.383	-93.656	0.128	0.035
-689.368	56.691	-0.126	-0.123
-688.354	-118.152	-0.115	0.021
-687.339	-69.470	0.315	-0.122
-686.324	800.000	0.056	0.157
-685.310	-159.941	0.251	-0.014
-684.295	-200.000	-0.001	0.036
-683.281	331.977	-0.058	-0.114
-682.266	-200.000	0.025	-0.115
-681.251	96.954	0.105	-0.121
-680.237	-72.233	-0.196	-0.073
-679.222	57.421	-0.094	-0.092
-678.208	-129.160	0.116	0.016
-677.193	266.250	-0.026	-0.046
-676.178	-103.545	0.269	0.064
-675.164	7.921	-0.052	-0.039
-674.149	-200.000	-0.003	-0.349
-673.135	-91.721	-0.170	-0.049
-672.120	225.135	-0.085	-0.139
-671.105	-8.300	0.105	0.071
-670.091	-200.000	0.025	-0.123
-669.076	-135.255	-0.214	0.026
-668.062	-200.000	0.035	-0.166
-667.047	34.497	-0.217	0.191
-666.032	31.392	0.278	-0.240
-665.018	256.235	0.159	0.274
-664.003	800.000	-0.022	-0.089
-662.989	-62.981	0.119	-0.049
-661.974	-24.452	-0.200	0.120
-660.959	518.632	-0.089	-0.209
-659.945	-104.077	0.173	0.041
-658.930	399.703	-0.187	-0.394
-657.916	86.185	0.098	-0.109
-656.901	-72.974	0.235	0.087
-655.886	800.000	0.029	-0.101
-654.872	137.829	0.317	-0.418
-653.857	-200.000	-0.001	-0.093
-652.843	-86.281	-0.329	-0.102
-651.828	800.000	-0.019	0.076
-650.814	800.000	0.046	0.191
-649.799	560.557	-0.057	0.138
-648.784	-175.647	-0.040	-0.001
-647.770	-200.000	0.023	0.205
-646.755	-130.841	-0.288	-0.039
-645.741	800.000	-0.037	0.162
-644.726	-64.113	-0.272	-0.112
-643.711	-200.000	-0.263	0.001
-642.697	-44.875	-0.114	0.057
-641.682	-52.273	0.020	0.009
-640.668	-69.249	-0.178	-0.069
-639.653	-54.391	0.224	0.102
-638.638	-42.604	0.363	0.186
-637.624	-160.829	0.187	-0.010
-636.609	712.737	0.062	0.164
-635.595	-200.000	-0.016	-0.311
-634.580	6.268	-0.233	-0.173
-633.565	-104.354	-0.392	0.091
-632.551	-51.536	0.159	-0.075
-631.536	-46.794	-0.250	0.123
-630.522	-200.000	0.018	0.082
-629.507	81.595	-0.183	0.199
-628.492	800.000	0.041	-0.178
-627.478	743.916	-0.037	-0.101
-626.463	134.239	0.073	-0.095
-625.449	115.808	0.116	-0.143
-624.434	-118.218	-0.372	-0.067
-623.419	-62.392	0.142	-0.060
-622.405	-200.000	-0.006	-0.144
-621.390	109.140	-0.209	0.252
-620.376	154.892	-0.211	-0.291
-619.361	800.000	-0.087	-0.315
-618.346	-67.455	0.036	0.014
-617.332	-38.429	-0.055	0.029
-616.317	-94.891	0.338	-0.092
-615.303	-10.213	0.196	0.130
-614.288	71.865	-0.260	0.272
-613.273	-144.284	0.190	-0.018
-612.259	-145.424	0.302	0.027
-611.244	26.530	0.095	-0.080
-610.230	-132.459	-0.468	0.061
-609.215	13.271	-0.198	0.154
-608.201	104.807	0.107	-0.126
-607.186	89.040	-0.187	-0.209
-606.171	-84.876	0.176	0.055
-605.157	-200.000	0.025	-0.343
-604.142	-200.000	0.069	0.321
-603.128	-187.123	-0.151	0.002
-602.113	108.007	-0.128	0.153
-601.098	-152.118	0.077	-0.006
-600.084	-58.541	0.073	0.032
-599.069	-118.833	-0.235	-0.041
-598.055	-105.392	-0.248	-0.057
-597.040	87.986	-0.063	-0.071
-596.025	800.000	-0.011	-0.031
-595.011	367.870	-0.201	0.407
-593.996	-200.000	0.082	0.518
-592.982	-52.765	0.192	-0.089
-591.967	64.631	-0.229	-0.232
-590.952	-62.621	0.122	-0.051
-589.938	800.000	0.033	-0.122
-588.923	126.133	-0.124	-0.157
-587.909	103.552	0.152	0.180
-586.894	800.000	-0.031	0.130
-585.879	-200.000	-0.030	-0.164
-584.865	-200.000	-0.036	0.181
-583.850	171.465	-0.201	-0.289
-582.836	127.926	0.102	-0.130
-581.821	-72.322	0.130	0.048
-580.806	89.486	0.158	-0.177
-579.792	165.780	0.040	-0.056
-578.777	-51.961	-0.120	0.056
-577.763	-93.908	-0.299	-0.083
-576.748	-105.363	-0.287	-0.065
-575.733	-73.155	-0.412	0.152
-574.719	-128.942	-0.381	0.054
-573.704	41.855	-0.103	0.094
-572.690	-113.300	0.258	-0.051
-571.675	-105.637	0.098	0.022
-570.661	121.814	-0.084	-0.105
-569.646	119.083	0.132	-0.164
-568.631	-113.445	0.232	-0.046
-567.617	-89.886	0.011	0.003
-566.602	-52.631	-0.143	0.066
-565.588	532.456	0.076	-0.179
-564.573	-70.269	0.073	-0.028
-563.558	-32.069	0.066	-0.037
-562.544	800.000	-0.019	-0.080
-561.529	800.000	0.094	-0.309
-560.515	600.316	-0.085	-0.211
-559.500	-41.430	0.234	-0.121
-558.485	-200.000	0.056	-0.271
-557.471	-110.979	0.160	-0.033
-556.456	-46.196	-0.029	0.014
-555.442	-168.516	-0.261	-0.010
-554.427	-38.022	-0.121	-0.064
-553.412	-3.528	0.209	-0.146
-552.398	-200.000	0.030	0.136
-551.383	-200.000	-0.001	-0.038
-550.369	-74.156	-0.174	0.063
-549.354	112.377	0.136	0.164
-548.339	-103.005	-0.373	0.089
-547.325	-200.000	-0.008	-0.142
-546.310	619.903	0.099	-0.250
-545.296	84.643	-0.152	0.167
-544.281	139.024	-0.077	-0.101
-543.266	-66.637	-0.066	0.026
-542.252	-200.000	-0.031	-0.227
-541.237	6.009	-0.252	0.187
-540.223	33.026	-0.107	-0.093
-539.208	37.712	-0.242	-0.215
-538.193	357.586	0.121	0.243
-537.179	-200.000	0.078	0.415
-536.164	800.000	0.069	0.219
-535.150	186.887	-0.154	0.230
-534.135	-200.000	0.017	0.203
-533.121	-110.542	-0.306	-0.063
-532.106	800.000	-0.030	-0.084
-531.091	522.111	-0.155	-0.364
-530.077	526.149	-0.055	-0.131
-529.062	-110.661	0.054	0.011
-528.048	20.285	0.153	0.124
-527.033	59.830	0.069	0.069
-526.018	-36.853	-0.261	-0.140
-525.004	711.453	-0.097	0.256
-523.989	800.000	0.131	-0.512
-522.975	57.808	0.235	-0.230
-521.960	754.865	0.094	-0.256
-520.945	-200.000	0.051	-0.235
-519.931	39.809	0.049	0.044
-518.916	-85.763	0.167	-0.052
-517.902	-134.760	-0.051	-0.006
-516.887	-95.573	0.133	0.036
-515.872	-23.968	0.269	0.161
-514.858	148.642	-0.047	-0.064
-513.843	-77.686	-0.209	-0.072
-512.829	14.045	0.156	0.121
-511.814	-127.412	0.285	0.042
-510.799	-68.709	-0.406	-0.157
-509.785	69.853	-0.331	-0.341
-508.770	-174.975	-0.240	-0.007
-507.756	299.833	-0.129	-0.238
-506.741	102.579	0.051	0.060
-505.726	-33.090	0.171	0.095
-504.712	-200.000	-0.008	0.168
-503.697	-10.278	0.106	0.070
-502.683	-65.746	0.320	0.128
-501.668	-31.204	-0.316	-0.178
-500.653	-27.304	0.060	0.035
-499.639	-165.941	0.139	0.006
-498.624	-130.272	-0.233	0.032
-497.610	27.788	0.111	0.094
-496.595	0.106	-0.150	0.107
-495.581	65.291	-0.099	-0.100
-494.566	-50.459	-0.375	-0.177
-493.551	491.691	-0.082	-0.187
-492.537	-69.952	0.156	0.059
-491.522	178.442	-0.112	-0.164
-490.508	-60.649	-0.380	0.161
-489.493	97.060	0.202	0.232
-488.478	138.819	0.113	-0.149
-487.464	36.740	0.089	0.079
-486.449	-5.274	0.325	0.223
-485.435	-108.410	0.115	0.025
-484.420	280.302	-0.160	0.286
-483.405	461.164	0.131	0.292
-482.391	124.907	0.174	0.219
-481.376	-22.718	-0.304	0.183
-480.362	-138.139	0.099	-0.011
-479.347	-2.549	0.245	-0.172
-478.332	78.806	0.065	-0.069
-477.318	17.520	-0.369	0.293
-476.303	100.388	-0.186	-0.215
-475.289	134.354	0.185	0.239
-474.274	4.665	0.133	0.097
-473.259	-200.000	-0.041	-0.242
-472.245	800.000	-0.063	-0.213
-471.230	433.098	0.122	0.265
-470.216	-150.024	-0.275	-0.021
-469.201	-106.812	0.414	-0.092
-468.186	124.802	0.131	0.165
-467.172	147.903	-0.129	-0.173
-466.157	-200.000	-0.024	-0.217
-465.143	55.156	0.095	0.092
-464.128	-75.286	0.125	0.044
-463.113	-200.000	0.040	-0.207
-462.099	88.609	0.149	0.166
-461.084	179.797	-0.109	0.160
-460.070	285.131	-0.057	0.103
-459.055	-200.000	0.014	0.235
-458.040	-113.122	-0.320	-0.063
-457.026	-85.512	-0.308	-0.096
-456.011	-200.000	0.030	0.192
-454.997	-147.134	0.089	-0.008
-453.982	29.906	0.085	0.072
-452.968	-200.000	-0.031	-0.163
-451.953	-101.706	-0.378	0.092
-450.938	-200.000	0.012	-0.089
-449.924	257.680	-0.166	0.284
-448.909	-91.597	0.214	-0.061
-447.895	800.000	-0.012	-0.048
-446.880	-26.940	0.443	-0.258
-445.865	36.771	0.152	0.134
-444.851	-200.000	0.033	0.214
-443.836	-200.000	-0.004	0.049
-442.822	262.072	-0.186	-0.322
-441.807	67.826	-0.178	0.182
-440.792	-18.058	-0.051	0.032
-439.778	33.401	-0.128	-0.111
-438.763	118.504	-0.097	-0.120
-437.749	800.000	0.012	0.046
-436.734	-104.921	-0.224	0.051
-435.719	728.330	0.073	0.194
-434.705	114.477	-0.174	-0.211
-433.690	-106.328	0.115	-0.026
-432.676	-73.128	0.024	0.009
-431.661	-200.000	0.007	0.216
-430.646	-5.110	0.323	0.222
-429.632	-118.446	0.280	-0.049
-428.617	-200.000	0.006	-0.130
-427.603	800.000	0.053	0.230
-426.588	23.505	0.216	0.177
-425.573	-90.448	0.124	0.036
-424.559	-58.789	-0.086	0.037
-423.544	116.036	0.169	-0.207
-422.530	-200.000	-0.050	-0.274
-421.515	4.267	-0.312	-0.228
-420.500	-200.000	0.008	-0.125
-419.486	-119.373	-0.196	-0.034
-418.471	-200.000	-0.001	-0.032
-417.457	800.000	0.033	0.101
-416.442	2.574	0.150	0.108
-415.428	463.149	-0.107	0.237
-414.413	-200.000	0.025	0.142
-413.398	51.083	0.357	-0.337
-412.384	-200.000	0.009	0.188
-411.369	182.898	0.102	0.150
-410.355	468.984	-0.098	-0.219
-409.340	-121.860	-0.148	0.024
-408.325	89.538	-0.019	0.021
-407.311	198.647	-0.176	-0.269
-406.296	-75.344	0.076	-0.027
-405.282	-87.476	-0.322	-0.097
-404.267	287.430	-0.185	-0.332
-403.252	-200.000	0.024	-0.191
-402.238	800.000	0.155	-0.556
-401.223	-51.166	-0.389	-0.182
-400.209	770.522	-0.126	0.342
-399.194	256.365	0.059	0.100
-398.179	72.946	-0.376	0.391
-397.165	-200.000	-0.012	0.210
-396.150	-118.004	-0.197	0.035
-395.136	71.842	0.169	0.175
-394.121	800.000	-0.125	0.352
-393.106	102.393	0.286	0.333
-392.092	-13.597	-0.094	0.061
-391.077	266.669	0.117	0.204
-390.063	726.928	0.154	0.408
-389.048	98.334	0.061	0.070
-388.033	161.469	-0.116	-0.162
-387.019	643.238	0.127	-0.322
-386.004	56.716	0.112	-0.108
-384.990	-200.000	-0.002	-0.121
-383.975	-46.797	-0.181	0.088
-382.960	-76.391	-0.091	-0.032
-381.946	-111.428	0.231	-0.047
-380.931	-200.000	0.036	-0.228
-379.917	-200.000	0.004	-0.297
-378.902	15.100	0.087	0.067
-377.888	130.455	0.165	-0.211
-376.873	9.777	0.259	0.195
-375.858	800.000	-0.055	-0.214
-374.844	-200.000	-0.012	-0.278
-373.829	800.000	0.027	0.075
-372.815	-200.000	-0.006	-0.143
-371.800	271.156	0.113	-0.198
-370.785	108.019	0.192	-0.227
-369.771	86.952	0.165	0.181
-368.756	370.135	-0.094	-0.189
-367.742	-35.151	0.269	0.146
-366.727	-200.000	-0.053	-0.376
-365.712	193.479	0.092	0.138
-364.698	800.000	0.065	0.253
-363.683	-56.643	-0.360	0.158
-362.669	-146.676	-0.220	0.019
-361.654	-147.275	-0.235	-0.020
-360.639	-64.276	0.429	-0.174
-359.625	455.381	-0.045	0.100
-358.610	9.357	-0.062	0.047
-357.596	42.915	-0.402	-0.365
-356.581	-200.000	-0.009	-0.183
-355.566	-111.870	0.156	0.031
-354.552	738.707	-0.035	-0.094
-353.537	-4.751	-0.110	0.076
-352.523	-108.218	-0.090	-0.019
-351.508	-200.000	0.025	0.146
-350.493	29.276	-0.056	0.047
-349.479	416.663	-0.128	0.271
-348.464	77.495	0.226	-0.239
-347.450	-142.234	-0.087	-0.009
-346.435	412.492	-0.151	0.320
-345.420	-46.927	0.287	0.139
-344.406	64.624	-0.137	0.138
-343.391	-171.394	0.165	0.005
-342.377	-200.000	-0.030	-0.133
-341.362	-68.043	0.186	0.072
-340.348	36.440	-0.056	-0.049
-339.333	800.000	0.056	0.227
-338.318	198.423	0.154	0.234
-337.304	123.375	0.214	0.266
-336.289	142.026	-0.058	0.077
-335.275	800.000	0.023	0.072
-334.260	-143.213	0.209	0.020
-333.245	-5.523	-0.238	-0.162
-332.231	-65.632	0.373	0.148
-331.216	-83.055	-0.335	0.107
-330.202	-200.000	-0.001	0.212
-329.187	-84.080	-0.256	0.081
-328.172	182.425	0.040	0.059
-327.158	-200.000	0.047	0.209
-326.143	211.176	0.028	0.044
-325.129	116.014	-0.143	0.173
-324.114	-30.217	-0.059	0.033
-323.099	800.000	0.074	0.283
-322.085	-93.010	-0.406	-0.113
-321.070	-143.364	0.267	0.025
-320.056	-40.671	0.228	0.117
-319.041	-98.380	0.209	0.053
-318.026	-127.226	0.236	0.034
-317.012	-105.841	0.161	0.036
-315.997	7.360	0.213	-0.158
-314.983	-37.131	0.073	-0.039
-313.968	-76.355	-0.083	-0.029
-312.953	-200.000	-0.027	-0.155
-311.939	184.340	-0.012	0.017
-310.924	-200.000	0.025	-0.159
-309.910	-105.524	0.190	0.043
-308.895	-200.000	-0.049	0.363
-307.880	-128.036	0.196	0.028
-306.866	333.194	0.165	0.316
-305.851	778.366	0.083	-0.225
-304.837	-111.672	0.281	-0.057
-303.822	-197.659	0.092	0.001
-302.807	-80.667	0.112	-0.037
-301.793	62.078	0.154	-0.153
-300.778	52.382	0.174	-0.164
-299.764	192.381	0.008	-0.012
-298.749	84.430	-0.056	-0.061
-297.735	533.272	0.115	-0.269
-296.720	-178.790	0.249	0.006
-295.705	71.532	0.091	0.094
-294.691	-200.000	0.028	-0.316
-293.676	-24.680	-0.119	0.070
-292.662	1.882	0.045	0.032
-291.647	-200.000	-0.001	-0.123
-290.632	-37.519	-0.103	-0.055
-289.618	291.727	0.079	-0.143
-288.603	185.951	0.179	-0.265
-287.589	-200.000	0.005	-0.065
-286.574	-70.950	0.430	0.161
-285.559	-3.540	0.309	0.213
-284.545	-54.095	-0.183	0.082
-283.530	800.000	0.105	0.298
-282.516	-86.542	0.190	0.058
-281.501	-38.060	0.165	0.087
-280.486	-200.000	0.003	-0.117
-279.472	-171.639	0.135	0.004
-278.457	-200.000	0.004	0.146
-277.443	-93.354	-0.234	0.064
-276.428	800.000	-0.134	0.404
-275.413	194.813	-0.096	-0.144
-274.399	360.911	-0.117	-0.231
-273.384	-57.085	-0.106	-0.046
-272.370	-175.298	0.114	0.003
-271.355	-200.000	0.064	0.364
-270.340	-200.000	-0.019	-0.084
-269.326	105.508	-0.156	-0.182
-268.311	129.528	0.122	-0.155
-267.297	-86.017	-0.146	-0.045
-266.282	88.660	0.127	0.139
-265.267	168.844	-0.216	-0.305
-264.253	-102.189	-0.286	0.068
-263.238	57.348	-0.185	0.179
-262.224	160.291	0.145	-0.201
-261.209	204.050	0.131	0.201
-260.195	-76.910	-0.224	0.077
-259.180	-83.137	-0.224	0.071
-258.165	283.968	0.144	0.257
-257.151	-200.000	0.008	0.118
-256.136	-200.000	-0.063	-0.294
-255.122	80.673	-0.069	-0.074
-254.107	714.065	-0.051	0.135
-253.092	-8.469	0.148	0.099
-252.078	-200.000	0.016	0.094
-251.063	29.902	0.064	0.054
-250.049	-200.000	-0.001	-0.280
-249.034	-125.272	0.219	0.033
-248.019	31.178	-0.117	-0.099
-247.005	-45.535	0.206	-0.101
-245.990	-175.052	-0.565	-0.016
-244.976	-126.231	0.289	0.043
-243.961	-40.271	-0.026	0.014
-242.946	42.162	-0.335	0.301
-241.932	-200.000	0.017	-0.132
-240.917	-200.000	-0.009	0.079
-239.903	-200.000	-0.033	0.223
-238.888	-200.000	0.003	0.125
-237.873	33.290	-0.114	0.098
-236.859	396.695	-0.111	0.229
-235.844	-39.686	-0.035	0.018
-234.830	57.319	-0.151	-0.145
-233.815	-58.823	0.298	0.127
-232.800	-200.000	-0.055	0.366
-231.786	-200.000	-0.013	0.203
-230.771	-200.000	0.005	0.138
-229.757	257.534	0.097	0.166
-228.742	-81.117	-0.240	-0.079
-227.727	-51.826	-0.265	0.122
-226.713	800.000	-0.027	-0.114
-225.698	92.268	0.343	-0.383
-224.684	800.000	0.073	-0.207
-223.669	-21.413	0.119	0.072
-222.655	-21.765	-0.125	0.075
-221.640	178.540	-0.101	0.145
-220.625	800.000	-0.099	-0.278
-219.611	154.994	-0.111	0.150
-218.596	-37.633	0.350	0.184
-217.582	-200.000	-0.031	-0.151
-216.567	101.621	-0.069	0.079
-215.552	28.168	0.091	0.076
-214.538	160.966	-0.097	-0.135
-213.523	-188.389	0.024	0.000
-212.509	-108.852	0.215	0.046
-211.494	-105.500	0.512	0.115
-210.479	-47.473	0.060	0.029
-209.465	99.659	-0.062	-0.071
-208.450	23.044	-0.169	-0.137
-207.436	-200.000	-0.020	-0.187
-206.421	257.333	0.147	-0.251
-205.406	122.216	-0.157	-0.194
-204.392	39.293	0.287	0.254
-203.377	109.052	0.144	-0.170
-202.363	-200.000	-0.050	-0.401
-201.348	42.122	0.170	-0.152
-200.333	-16.222	-0.037	0.023
-199.319	17.186	0.113	0.088
-198.304	21.300	0.281	-0.226
-197.290	800.000	-0.082	-0.331
-196.275	80.833	-0.068	0.072
-195.260	800.000	0.043	-0.148
-194.246	-105.861	0.144	0.032
-193.231	-200.000	0.103	-0.476
-192.217	-115.042	0.203	0.038
-191.202	399.357	-0.210	0.435
-190.187	338.580	0.078	-0.150
-189.173	548.945	0.088	-0.208
-188.158	800.000	0.135	-0.529
-187.144	-106.977	0.192	-0.042
-186.129	-109.289	-0.149	-0.031
-185.114	46.568	-0.174	-0.159
-184.100	40.442	0.220	0.196
-183.085	234.518	-0.116	0.189
-182.071	800.000	-0.032	0.111
-181.056	-50.733	-0.252	0.117
-180.042	266.694	0.152	0.263
-179.027	-63.918	0.096	0.039
-178.012	45.230	-0.159	0.145
-176.998	800.000	0.013	-0.042
-175.983	-135.672	0.026	0.003
-174.969	800.000	-0.041	-0.126
-173.954	214.295	0.086	-0.134
-172.939	-200.000	0.010	0.138
-171.925	303.037	-0.108	0.197
-170.910	-167.101	0.347	-0.014
-169.896	654.206	-0.090	-0.228
-168.881	696.221	0.089	0.230
-167.866	-57.976	0.151	-0.065
-166.852	-49.674	0.249	0.117
-165.837	-200.000	0.001	-0.042
-164.823	-10.892	0.076	0.050
-163.808	-82.255	-0.538	0.173
-162.793	177.627	0.225	-0.324
-161.779	-30.553	0.348	-0.194
-160.764	136.061	-0.237	0.305
-159.750	-43.047	-0.391	0.196
-158.735	-99.569	-0.224	0.056
-157.720	76.705	0.238	-0.250
-156.706	-200.000	-0.021	0.204
-155.691	417.453	-0.033	-0.069
-154.677	-13.660	-0.175	0.112
-153.662	-200.000	-0.065	-0.306
-152.647	-5.444	0.025	0.017
-151.633	-47.230	0.148	-0.071
-150.618	-129.267	-0.176	-0.024
-149.604	184.226	0.149	-0.217
-148.589	293.748	0.202	-0.365
-147.574	-107.960	-0.235	0.050
-146.560	-122.428	0.067	-0.011
-145.545	-94.428	0.343	0.092
-144.531	160.684	0.174	-0.240
-143.516	57.325	0.119	-0.115
-142.502	289.019	0.019	-0.033
-141.487	-141.031	0.371	0.038
-140.472	106.685	0.129	0.151
-139.458	-21.281	-0.189	-0.114
-138.443	48.700	0.126	-0.117
-137.429	-171.250	-0.254	0.008
-136.414	35.914	-0.210	0.182
-135.399	-128.175	-0.200	0.028
-134.385	-50.315	-0.121	-0.056
-133.370	-200.000	-0.018	-0.110
-132.356	-76.632	0.342	0.118
-131.341	800.000	0.142	-0.533
-130.326	800.000	-0.129	-0.356
-129.312	800.000	0.046	-0.176
-128.297	-172.042	0.251	0.008
-127.283	-200.000	-0.009	0.165
-126.268	800.000	-0.030	0.108
-125.253	-45.857	0.169	-0.082
-124.239	-177.926	0.069	-0.002
-123.224	117.649	-0.035	-0.042
-122.210	-132.111	0.387	0.050
-121.195	61.509	0.182	0.178
-120.180	104.038	-0.166	-0.193
