DTS Sentinel unit serial number:	SN413079Multiplexer serial number:	ORYXHardware model number:	OX4-SRSoftware version number:	ORYX F/W v4.00 Oryx Data Collector v3.7.2.0data status	okinstallation	princeton_trtdifferential loss correction	single-endedforward channel	channel 2reverse channel	N/Adate	2019/09/18time	19:59:34forward acquisition time	60.00reverse acquisition time	0.00gamma	496.2192k internal	0.2333k external	0.2333temperature offset calibration	1.0026default loss term (dB/km)	0.3790temperature slope calibration	1.0000multiplexer offset coefficient	1.0000multiplexer slope coefficient	1.0000fibre end	0.00T internal ref (°C)	30.41T ext. ref 1 (°C)	0.95T ext. ref 2 (°C)	21.07length (m)	temperature (°C)	Stokes	anti-Stokes-747.200	566.395	0.078	-0.191
-746.185	-200.000	-0.055	0.248
-745.171	128.111	0.083	0.106
-744.156	9.307	-0.328	0.249
-743.142	-25.784	0.065	0.038
-742.127	-106.446	-0.249	0.056
-741.112	-158.864	-0.086	0.005
-740.098	-96.933	0.170	0.045
-739.083	-100.601	-0.088	-0.022
-738.069	800.000	0.091	0.371
-737.054	800.000	-0.089	-0.250
-736.039	-165.801	-0.422	0.018
-735.025	238.420	-0.024	0.039
-734.010	161.970	-0.291	-0.409
-732.996	-200.000	-0.063	-0.580
-731.981	32.765	-0.195	0.170
-730.966	800.000	0.067	-0.218
-729.952	-200.000	0.010	-0.084
-728.937	317.631	0.094	0.179
-727.923	800.000	-0.047	0.153
-726.908	-69.141	-0.229	-0.089
-725.894	800.000	0.094	-0.318
-724.879	421.757	0.055	-0.118
-723.864	5.733	0.126	-0.094
-722.850	-200.000	-0.038	0.259
-721.835	-3.524	0.304	-0.212
-720.821	772.345	-0.087	-0.238
-719.806	172.756	-0.051	-0.074
-718.791	-186.291	-0.233	-0.003
-717.777	-36.225	-0.234	-0.127
-716.762	-42.280	0.301	0.154
-715.748	-200.000	0.038	-0.439
-714.733	628.391	0.095	-0.242
-713.718	-51.872	-0.035	0.016
-712.704	800.000	0.079	-0.328
-711.689	111.689	-0.245	-0.297
-710.675	-200.000	0.044	0.236
-709.660	-124.034	0.098	-0.015
-708.645	800.000	-0.089	-0.361
-707.631	345.963	-0.055	0.108
-706.616	-120.034	0.168	0.029
-705.602	-53.306	-0.131	0.061
-704.587	-90.720	-0.194	-0.056
-703.572	-80.790	0.111	-0.037
-702.558	-68.141	0.141	-0.055
-701.543	-123.788	-0.395	0.063
-700.529	272.287	0.075	-0.133
-699.514	-103.492	0.087	-0.021
-698.499	572.918	0.130	-0.319
-697.485	-82.675	-0.062	-0.020
-696.470	-24.295	-0.336	0.201
-695.456	-200.000	0.002	0.117
-694.441	-200.000	-0.010	0.167
-693.426	278.515	-0.132	0.237
-692.412	584.272	-0.023	0.056
-691.397	-200.000	0.022	-0.108
-690.383	744.410	-0.096	0.259
-689.368	161.104	-0.196	0.274
-688.354	-10.859	-0.188	-0.124
-687.339	-200.000	0.012	-0.097
-686.324	-200.000	-0.009	-0.096
-685.310	350.899	-0.104	-0.206
-684.295	800.000	-0.077	-0.220
-683.281	-200.000	0.026	-0.287
-682.266	18.825	-0.329	-0.264
-681.251	334.627	-0.141	-0.274
-680.237	-200.000	0.013	-0.220
-679.222	-200.000	0.031	-0.139
-678.208	-97.833	-0.254	0.066
-677.193	-51.678	0.290	-0.135
-676.178	-185.921	-0.081	0.001
-675.164	122.083	0.161	-0.202
-674.149	-41.343	0.130	-0.067
-673.135	-133.981	-0.075	0.009
-672.120	265.815	-0.053	-0.093
-671.105	-54.628	0.075	-0.034
-670.091	800.000	0.038	-0.162
-669.076	-120.304	-0.386	-0.066
-668.062	619.581	-0.061	0.155
-667.047	-144.564	0.195	-0.018
-666.032	385.498	0.220	-0.456
-665.018	260.890	0.068	-0.118
-664.003	-195.422	-0.397	-0.003
-662.989	800.000	-0.091	-0.335
-661.974	683.548	0.044	0.114
-660.959	121.464	0.169	-0.211
-659.945	220.276	-0.126	-0.202
-658.930	-185.606	0.283	-0.004
-657.916	619.314	0.015	-0.039
-656.901	622.592	-0.132	-0.333
-655.886	800.000	0.100	-0.409
-654.872	-143.389	-0.299	0.029
-653.857	544.176	-0.088	-0.210
-652.843	-95.389	0.145	0.039
-651.828	480.352	-0.106	-0.241
-650.814	10.528	-0.139	0.106
-649.799	29.495	-0.204	0.174
-648.784	-197.767	-0.219	-0.001
-647.770	10.848	-0.096	0.073
-646.755	-54.398	0.067	0.031
-645.741	-40.781	-0.144	-0.075
-644.726	767.397	-0.058	0.158
-643.711	87.379	0.191	-0.212
-642.697	-200.000	0.016	0.075
-641.682	-200.000	-0.005	-0.047
-640.668	-147.077	-0.453	-0.039
-639.653	-200.000	0.027	0.276
-638.638	800.000	0.049	-0.159
-637.624	257.235	0.089	0.153
-636.609	-200.000	-0.057	-0.309
-635.595	-98.773	0.219	-0.056
-634.580	-35.267	-0.130	-0.071
-633.565	-125.763	0.293	-0.044
-632.551	123.262	-0.197	-0.247
-631.536	-200.000	-0.030	-0.188
-630.522	-111.434	-0.238	-0.048
-629.507	-54.797	-0.196	0.089
-628.492	-200.000	0.054	-0.429
-627.478	800.000	-0.060	0.216
-626.463	800.000	-0.068	0.281
-625.449	123.810	0.061	-0.076
-624.434	-109.092	0.203	-0.043
-623.419	715.946	-0.120	0.318
-622.405	139.412	-0.040	0.053
-621.390	7.012	0.286	0.214
-620.376	-14.370	0.426	0.275
-619.361	-200.000	0.035	0.168
-618.346	40.191	0.251	-0.226
-617.332	-109.030	-0.369	0.079
-616.317	-187.686	-0.147	0.002
-615.303	-156.655	0.050	-0.003
-614.288	-200.000	-0.049	-0.243
-613.273	9.915	0.188	-0.143
-612.259	726.355	-0.058	0.155
-611.244	-75.154	0.341	-0.122
-610.230	-200.000	-0.033	-0.215
-609.215	-102.952	-0.135	0.032
-608.201	-122.921	0.069	0.011
-607.186	62.862	0.110	0.110
-606.171	-200.000	0.014	-0.191
-605.157	-57.517	-0.300	-0.132
-604.142	146.032	-0.022	-0.030
-603.128	-9.075	-0.268	-0.180
-602.113	293.591	-0.165	-0.300
-601.098	-166.814	-0.170	0.007
-600.084	-158.816	0.195	-0.011
-599.069	-167.859	-0.199	-0.008
-598.055	800.000	0.101	0.368
-597.040	37.371	-0.265	0.235
-596.025	-128.389	0.197	0.028
-595.011	81.671	-0.097	0.105
-593.996	-200.000	-0.000	0.007
-592.982	281.139	-0.200	0.358
-591.967	62.705	-0.085	0.085
-590.952	133.108	0.122	0.157
-589.938	305.091	0.071	-0.131
-588.923	-95.264	-0.293	-0.079
-587.909	57.101	0.039	-0.038
-586.894	-200.000	-0.019	0.189
-585.879	83.335	-0.073	-0.080
-584.865	-200.000	0.026	-0.171
-583.850	462.243	-0.056	0.126
-582.836	800.000	-0.041	-0.127
-581.821	800.000	0.103	0.321
-580.806	64.177	-0.227	-0.228
-579.792	-105.957	0.467	0.105
-578.777	-200.000	-0.009	0.327
-577.763	-90.297	-0.086	-0.025
-576.748	201.342	-0.082	0.126
-575.733	194.669	0.257	0.390
-574.719	-109.213	0.375	0.080
-573.704	-46.346	-0.246	-0.121
-572.690	146.595	-0.052	-0.070
-571.675	34.194	-0.077	-0.067
-570.661	431.443	0.116	-0.252
-569.646	298.354	0.079	0.145
-568.631	98.760	-0.040	0.046
-567.617	-92.955	0.113	-0.031
-566.602	-76.205	-0.344	-0.121
-565.588	397.004	-0.064	-0.133
-564.573	-150.435	0.241	-0.019
-563.558	-127.375	0.162	0.024
-562.544	-85.817	-0.207	0.064
-561.529	-200.000	0.001	0.024
-560.515	66.386	-0.149	-0.151
-559.500	-189.840	0.249	0.003
-558.485	-200.000	-0.022	-0.192
-557.471	800.000	-0.120	-0.417
-556.456	-108.990	0.268	0.057
-555.442	800.000	-0.089	-0.246
-554.427	212.773	-0.206	0.325
-553.412	-109.015	-0.375	0.080
-552.398	800.000	-0.009	-0.034
-551.383	186.606	0.069	-0.103
-550.369	-135.245	0.289	-0.035
-549.354	800.000	0.056	0.201
-548.339	118.224	-0.257	-0.316
-547.325	-200.000	0.074	0.337
-546.310	27.971	0.108	-0.091
-545.296	148.245	-0.163	0.220
-544.281	-130.019	0.303	-0.041
-543.266	-90.191	-0.130	0.038
-542.252	800.000	0.064	-0.233
-541.237	-50.522	0.079	0.037
-540.223	625.258	-0.115	-0.290
-539.208	140.476	-0.160	-0.211
-538.193	800.000	-0.039	0.139
-537.179	13.377	-0.272	0.210
-536.164	364.566	-0.127	-0.255
-535.150	-77.971	-0.301	0.103
-534.135	781.409	-0.017	-0.046
-533.121	-155.023	-0.165	-0.011
-532.106	-86.670	-0.220	-0.067
-531.091	-200.000	-0.020	-0.108
-530.077	-38.341	0.249	0.131
-529.062	27.365	0.089	0.075
-528.048	-192.044	0.075	-0.001
-527.033	-39.761	0.281	-0.147
-526.018	800.000	-0.046	-0.164
-525.004	758.176	0.059	0.160
-523.989	-40.643	-0.219	0.113
-522.975	-73.053	0.383	0.140
-521.960	800.000	0.083	-0.354
-520.945	800.000	-0.173	-0.565
-519.931	-4.755	-0.144	-0.099
-518.916	-200.000	-0.003	0.164
-517.902	410.571	0.047	-0.099
-516.887	800.000	0.023	-0.083
-515.872	-73.511	0.325	-0.118
-514.858	124.930	0.172	0.216
-513.843	-154.932	0.041	0.003
-512.829	247.330	-0.092	-0.156
-511.814	-20.986	0.211	-0.129
-510.799	-12.967	-0.083	-0.054
-509.785	-20.077	0.166	0.102
-508.770	310.918	-0.113	-0.211
-507.756	498.334	-0.179	0.412
-506.741	581.294	0.181	0.442
-505.726	-200.000	-0.032	0.195
-504.712	-200.000	0.006	0.297
-503.697	-200.000	-0.051	0.296
-502.683	27.626	0.261	0.219
-501.668	525.848	-0.165	0.386
-500.653	-82.258	-0.057	-0.019
-499.639	800.000	0.049	-0.157
-498.624	800.000	0.068	-0.252
-497.610	-97.761	-0.091	-0.024
-496.595	100.602	-0.123	-0.142
-495.581	159.499	0.054	-0.075
-494.566	800.000	-0.031	-0.103
-493.551	306.332	-0.079	-0.146
-492.537	-5.100	-0.063	0.043
-491.522	-127.305	0.092	-0.013
-490.508	800.000	0.060	-0.195
-489.493	-123.145	-0.187	-0.030
-488.478	702.840	0.122	-0.319
-487.464	-200.000	0.009	0.124
-486.449	-200.000	0.101	0.450
-485.435	-94.289	-0.153	-0.041
-484.420	435.350	-0.211	0.456
-483.405	-171.681	0.263	0.009
-482.391	-125.297	-0.224	-0.034
-481.376	56.640	-0.101	-0.098
-480.362	-200.000	-0.043	0.475
-479.347	14.471	-0.282	0.219
-478.332	-200.000	0.008	0.159
-477.318	800.000	0.060	-0.210
-476.303	-200.000	0.031	-0.201
-475.289	-200.000	-0.006	0.040
-474.274	586.481	-0.057	0.141
-473.259	-114.058	0.281	-0.054
-472.245	-200.000	-0.025	-0.116
-471.230	764.995	-0.068	-0.183
-470.216	-43.500	-0.121	0.061
-469.201	-160.676	0.323	0.017
-468.186	44.006	-0.027	-0.025
-467.172	-61.491	-0.178	0.074
-466.157	-59.207	-0.186	-0.080
-465.143	78.234	0.037	-0.039
-464.128	-83.432	-0.109	-0.035
-463.113	-30.214	-0.168	-0.095
-462.099	-146.958	-0.269	0.023
-461.084	2.217	0.075	-0.054
-460.070	130.118	0.081	0.103
-459.055	-200.000	-0.116	-0.512
-458.040	-149.224	0.103	-0.008
-457.026	-64.265	0.190	-0.077
-456.011	800.000	0.116	-0.383
-454.997	450.390	-0.064	0.141
-453.982	-49.086	0.130	0.062
-452.968	800.000	-0.065	0.214
-451.953	16.555	0.256	0.201
-450.938	9.302	-0.115	0.087
-449.924	149.364	-0.181	-0.244
-448.909	800.000	0.081	-0.296
-447.895	-182.101	-0.111	-0.002
-446.880	-30.769	0.099	-0.056
-445.865	167.459	0.184	0.259
-444.851	-200.000	-0.016	-0.101
-443.836	-72.832	0.157	0.057
-442.822	-200.000	-0.027	0.272
-441.807	63.545	-0.130	-0.129
-440.792	767.644	0.052	-0.140
-439.778	200.558	-0.038	-0.058
-438.763	-200.000	-0.018	-0.170
-437.749	418.163	0.104	-0.221
-436.734	-200.000	-0.027	-0.200
-435.719	210.160	-0.077	0.119
-434.705	188.898	0.158	0.235
-433.690	-200.000	-0.007	0.083
-432.676	105.005	-0.107	-0.126
-431.661	-139.225	-0.213	-0.023
-430.646	-110.328	-0.103	-0.021
-429.632	-200.000	-0.029	0.167
-428.617	-61.112	0.051	0.021
-427.603	-200.000	-0.074	0.000
-426.588	0.631	-0.103	0.073
-425.573	-41.960	0.199	-0.101
-424.559	11.705	0.093	-0.071
-423.544	800.000	-0.022	0.071
-422.530	-200.000	-0.022	0.262
-421.515	-200.000	0.091	0.409
-420.500	191.017	0.214	0.320
-419.486	-200.000	-0.005	0.235
-418.471	-200.000	0.001	-0.018
-417.457	-200.000	0.019	-0.174
-416.442	-109.538	0.114	-0.024
-415.428	800.000	0.067	-0.210
-414.413	122.487	-0.088	-0.109
-413.398	-63.885	-0.104	-0.042
-412.384	207.297	-0.075	-0.115
-411.369	800.000	-0.107	0.353
-410.355	23.786	0.069	0.057
-409.340	-200.000	0.004	0.020
-408.325	-48.534	-0.171	0.082
-407.311	55.653	0.321	-0.309
-406.296	187.875	0.136	-0.201
-405.282	225.970	-0.147	0.237
-404.267	-159.384	0.150	0.008
-403.252	324.994	-0.061	-0.116
-402.238	437.902	-0.212	-0.460
-401.223	157.867	0.036	-0.050
-400.209	-99.079	0.146	0.037
-399.194	-25.075	-0.312	-0.183
-398.179	-152.184	0.343	0.025
-397.165	425.998	-0.053	0.114
-396.150	-200.000	-0.012	0.130
-395.136	373.742	-0.060	-0.120
-394.121	130.499	-0.211	-0.269
-393.106	-80.792	-0.294	-0.097
-392.092	431.450	-0.082	-0.176
-391.077	-200.000	0.040	-0.266
-390.063	-139.180	0.241	0.026
-389.048	93.727	0.242	-0.272
-388.033	-163.338	-0.103	-0.005
-387.019	60.337	0.281	-0.276
-386.004	215.951	0.192	0.302
-384.990	97.441	-0.235	0.268
-383.975	-30.927	0.276	-0.154
-382.960	800.000	-0.098	0.295
-381.946	88.671	-0.237	-0.261
-380.931	800.000	-0.158	-0.456
-379.917	-200.000	0.023	-0.107
-378.902	-57.361	-0.314	-0.137
-377.888	272.662	0.181	0.316
-376.873	325.348	0.043	0.081
-375.858	195.344	-0.308	0.463
-374.844	386.289	0.063	0.129
-373.829	503.013	-0.112	-0.257
-372.815	-126.523	0.175	-0.026
-371.800	-42.716	-0.078	-0.039
-370.785	-78.258	-0.238	0.081
-369.771	-14.938	-0.214	0.136
-368.756	800.000	0.065	0.268
-367.742	-141.115	0.141	0.014
-366.727	-52.238	-0.205	-0.094
-365.712	-39.097	0.205	-0.107
-364.698	213.473	0.169	-0.265
-363.683	436.952	-0.194	0.420
-362.669	327.246	0.095	0.180
-361.654	49.324	0.246	0.229
-360.639	-55.250	0.024	-0.011
-359.625	504.555	-0.060	0.139
-358.610	-82.028	-0.102	0.033
-357.596	-57.741	-0.115	0.050
-356.581	72.760	0.036	-0.038
-355.566	-200.000	-0.011	0.056
-354.552	448.189	0.146	0.319
-353.537	800.000	-0.080	0.220
-352.523	-124.710	0.187	-0.029
-351.508	-186.812	0.162	0.002
-350.493	105.993	-0.169	-0.198
-349.479	-157.488	-0.212	-0.013
-348.464	701.641	0.105	0.275
-347.450	800.000	-0.095	0.277
-346.435	-200.000	-0.064	0.311
-345.420	-47.634	-0.192	-0.092
-344.406	61.488	0.151	-0.148
-343.391	-200.000	0.006	0.146
-342.377	129.425	-0.293	0.370
-341.362	44.414	0.197	-0.179
-340.348	457.472	0.065	-0.144
-339.333	140.185	0.228	0.298
-338.318	-8.208	0.075	-0.050
-337.304	-164.250	0.215	-0.010
-336.289	-200.000	-0.014	-0.123
-335.275	-200.000	0.037	-0.192
-334.260	-114.700	0.352	-0.067
-333.245	-193.921	0.272	0.002
-332.231	150.920	-0.126	-0.169
-331.216	258.066	0.115	-0.196
-330.202	-70.323	0.225	-0.084
-329.187	-200.000	0.020	0.185
-328.172	-200.000	-0.050	-0.220
-327.158	-62.407	-0.186	0.077
-326.143	-200.000	0.018	0.116
-325.129	20.922	0.073	0.058
-324.114	74.938	0.207	-0.216
-323.099	84.030	-0.160	-0.173
-322.085	800.000	-0.085	-0.333
-321.070	-107.882	0.220	-0.047
-320.056	253.731	-0.072	0.122
-319.041	70.492	0.162	0.165
-318.026	96.905	0.133	-0.150
-317.012	-55.924	-0.274	-0.121
-315.997	-200.000	0.039	-0.202
-314.983	529.478	-0.097	-0.226
-313.968	171.559	0.180	-0.256
-312.953	382.714	0.108	0.220
-311.939	-200.000	-0.004	-0.032
-310.924	529.618	-0.103	0.240
-309.910	-58.454	0.108	0.046
-308.895	-39.677	0.207	0.107
-307.880	-200.000	0.002	-0.156
-306.866	-78.044	-0.321	-0.109
-305.851	242.136	0.160	0.264
-304.837	-200.000	0.043	-0.258
-303.822	-173.802	0.212	-0.006
-302.807	-68.116	0.338	-0.130
-301.793	6.910	-0.092	-0.068
-300.778	245.654	-0.199	0.331
-299.764	-83.969	0.105	0.033
-298.749	-65.176	0.220	0.088
-297.735	800.000	-0.017	-0.063
-296.720	-200.000	-0.002	-0.111
-295.705	183.706	-0.078	0.114
-294.691	800.000	-0.045	-0.142
-293.676	117.856	-0.140	0.170
-292.662	70.682	-0.045	0.046
-291.647	534.562	-0.070	0.164
-290.632	-50.492	-0.042	0.019
-289.618	-5.214	0.073	-0.050
-288.603	-133.208	0.089	-0.011
-287.589	-33.755	0.295	-0.161
-286.574	-49.373	-0.241	-0.114
-285.559	0.437	0.087	0.062
-284.545	666.693	-0.044	-0.111
-283.530	-83.935	-0.519	-0.163
-282.516	17.092	0.112	0.087
-281.501	22.160	0.036	0.029
-280.486	-53.881	0.126	-0.057
-279.472	374.006	-0.112	-0.225
-278.457	-65.956	0.213	-0.084
-277.443	-140.746	0.204	-0.021
-276.428	-200.000	0.029	-0.292
-275.413	-92.122	0.175	-0.049
-274.399	30.419	0.113	0.096
-273.384	-200.000	-0.058	0.327
-272.370	-150.050	0.143	0.011
-271.355	800.000	0.064	-0.184
-270.340	-12.884	0.192	-0.124
-269.326	-92.767	0.261	0.072
-268.311	-200.000	-0.166	0.000
-267.297	26.157	0.419	0.345
-266.282	74.432	0.094	0.097
-265.267	96.453	-0.169	0.191
-264.253	-23.601	0.116	-0.069
-263.238	-200.000	0.020	0.144
-262.224	-24.447	0.176	-0.103
-261.209	800.000	-0.061	-0.183
-260.195	-52.950	-0.272	-0.124
-259.180	-15.327	-0.226	-0.143
-258.165	-29.171	0.314	0.178
-257.151	-83.748	0.246	-0.078
-256.136	132.781	-0.160	-0.204
-255.122	53.120	0.186	-0.176
-254.107	139.504	0.302	0.393
-253.092	-179.628	-0.110	-0.002
-252.078	-40.974	-0.310	-0.158
-251.063	-59.320	-0.086	0.036
-250.049	-172.430	-0.094	-0.003
-249.034	-200.000	-0.024	0.164
-248.019	60.461	0.237	-0.231
-247.005	-67.995	0.166	-0.064
-245.990	-9.263	-0.099	0.065
-244.976	-60.775	-0.112	0.047
-243.961	-182.957	-0.237	0.004
-242.946	-112.196	-0.182	-0.036
-241.932	-195.952	-0.124	-0.001
-240.917	86.554	-0.159	0.173
-239.903	22.621	-0.138	0.111
-238.888	-200.000	0.021	-0.189
-237.873	-34.097	0.122	-0.066
-236.859	537.022	-0.126	-0.296
-235.844	-175.903	0.125	0.003
-234.830	-200.000	0.024	0.238
-233.815	65.553	0.122	-0.122
-232.800	-134.555	-0.301	-0.036
-231.786	674.674	0.086	-0.221
-230.771	71.081	0.236	-0.241
-229.757	73.585	-0.026	0.027
-228.742	-25.690	0.170	-0.099
-227.727	-44.659	0.197	-0.097
-226.713	671.335	-0.061	0.155
-225.698	-97.108	-0.146	0.038
-224.684	-85.381	-0.147	-0.045
-223.669	-200.000	-0.041	0.322
-222.655	289.942	0.016	-0.028
-221.640	80.456	0.181	-0.192
-220.625	-200.000	-0.027	0.153
-219.611	223.866	0.108	0.172
-218.596	27.416	-0.291	0.241
-217.582	-100.758	-0.115	0.028
-216.567	68.868	0.212	0.214
-215.552	84.389	0.122	-0.131
-214.538	703.420	0.067	0.174
-213.523	181.072	0.103	0.150
-212.509	-200.000	0.076	-0.000
-211.494	53.152	-0.236	-0.222
-210.479	335.043	-0.164	-0.313
-209.465	800.000	-0.022	0.072
-208.450	121.900	-0.239	-0.293
-207.436	206.990	0.197	0.302
-206.421	64.326	-0.111	-0.110
-205.406	-200.000	0.063	0.433
-204.392	-127.398	0.451	0.065
-203.377	-25.110	0.086	0.050
-202.363	-22.846	-0.244	0.145
-201.348	250.259	-0.100	0.166
-200.333	-200.000	0.016	-0.207
-199.319	150.492	0.131	-0.176
-198.304	800.000	-0.109	0.462
-197.290	248.913	-0.230	-0.384
-196.275	-38.480	-0.061	0.032
-195.260	-54.539	0.045	0.020
-194.246	42.708	0.149	0.134
-193.231	78.916	0.124	0.131
-192.217	-96.564	-0.267	0.069
-191.202	-87.337	0.340	0.101
-190.187	482.028	-0.125	-0.278
-189.173	621.528	-0.102	-0.253
-188.158	175.150	0.267	0.381
-187.144	491.484	-0.039	0.088
-186.129	32.001	-0.087	-0.074
-185.114	800.000	0.080	-0.226
-184.100	223.046	-0.083	0.132
-183.085	19.720	-0.111	-0.088
-182.071	800.000	0.040	-0.143
-181.056	310.601	-0.122	-0.225
-180.042	374.061	0.053	0.106
-179.027	800.000	0.040	-0.155
-178.012	-200.000	0.018	-0.223
-176.998	74.350	-0.137	0.141
-175.983	800.000	-0.051	0.150
-174.969	-200.000	0.046	0.333
-173.954	-14.050	0.232	0.148
-172.939	-38.519	-0.177	-0.092
-171.925	-7.287	0.071	-0.047
-170.910	-166.310	-0.003	-0.000
-169.896	-80.941	0.105	-0.034
-168.881	-180.909	-0.148	-0.003
-167.866	67.479	0.098	0.098
-166.852	800.000	-0.130	0.428
-165.837	-200.000	0.053	-0.242
-164.823	248.589	-0.240	-0.400
-163.808	-200.000	-0.017	-0.212
-162.793	490.994	0.072	0.163
-161.779	-124.886	-0.231	0.035
-160.764	800.000	-0.087	-0.289
-159.750	800.000	-0.071	0.285
-158.735	-141.207	-0.182	0.018
-157.720	458.051	-0.166	0.363
-156.706	143.092	0.071	0.093
-155.691	-121.256	-0.080	0.013
-154.677	558.831	0.049	0.116
-153.662	-70.028	0.354	0.133
-152.647	-2.455	-0.151	0.104
-151.633	800.000	0.112	-0.366
-150.618	188.544	0.151	-0.222
-149.604	175.304	0.144	0.206
-148.589	154.984	0.363	0.490
-147.574	402.680	0.174	0.359
-146.560	-40.385	-0.171	-0.087
-145.545	312.124	-0.239	-0.441
-144.531	-142.028	0.208	0.020
-143.516	206.649	0.171	-0.262
-142.502	-42.351	0.220	0.110
-141.487	-163.963	-0.074	-0.003
-140.472	-200.000	-0.016	0.238
-139.458	-64.252	0.297	-0.119
-138.443	-76.996	-0.334	0.114
-137.429	-122.681	0.304	-0.048
-136.414	-200.000	-0.051	0.556
-135.399	108.980	0.260	0.305
-134.385	350.060	-0.076	0.148
-133.370	-182.366	-0.261	0.005
-132.356	-200.000	0.009	0.212
-131.341	-120.379	0.122	-0.020
-130.326	338.166	0.188	0.359
-129.312	-101.044	-0.179	0.043
-128.297	-38.435	0.349	0.181
-127.283	-35.497	0.147	-0.078
-126.268	47.304	-0.190	0.174
-125.253	-24.055	0.377	-0.221
-124.239	35.559	0.057	-0.049
-123.224	-200.000	-0.364	0.001
