DTS Sentinel unit serial number:	SN413079Multiplexer serial number:	ORYXHardware model number:	OX4-SRSoftware version number:	ORYX F/W v4.00 Oryx Data Collector v3.7.2.0data status	okinstallation	princeton_trtdifferential loss correction	single-endedforward channel	channel 2reverse channel	N/Adate	2019/09/14time	12:19:35forward acquisition time	60.00reverse acquisition time	0.00gamma	496.2192k internal	0.2307k external	0.2307temperature offset calibration	1.0155default loss term (dB/km)	0.3790temperature slope calibration	1.0000multiplexer offset coefficient	1.0000multiplexer slope coefficient	1.0000fibre end	0.00T internal ref (°C)	37.69T ext. ref 1 (°C)	4.74T ext. ref 2 (°C)	34.51length (m)	temperature (°C)	Stokes	anti-Stokes-747.200	80.317	-0.216	0.237
-746.185	81.944	0.197	0.217
-745.171	800.000	-0.098	0.295
-744.156	800.000	-0.142	0.608
-743.142	-200.000	0.039	0.212
-742.127	-66.351	0.239	0.097
-741.112	488.539	0.067	-0.155
-740.098	6.751	-0.292	-0.221
-739.083	-200.000	-0.014	0.369
-738.069	79.609	0.110	0.121
-737.054	-200.000	0.008	-0.125
-736.039	-88.297	-0.375	-0.114
-735.025	-200.000	0.055	0.450
-734.010	-11.079	0.144	-0.096
-732.996	-21.534	0.124	-0.077
-731.981	41.924	0.263	0.242
-730.966	800.000	-0.068	-0.294
-729.952	-118.754	0.143	-0.026
-728.937	684.284	-0.032	-0.084
-727.923	20.107	0.048	0.039
-726.908	800.000	-0.042	-0.122
-725.894	-14.292	-0.135	-0.088
-724.879	-17.894	0.107	0.068
-723.864	290.096	-0.065	0.121
-722.850	264.082	-0.179	-0.317
-721.835	-147.001	0.043	-0.004
-720.821	-29.167	-0.096	0.056
-719.806	-30.685	-0.292	-0.168
-718.791	605.234	0.038	-0.096
-717.777	250.512	-0.125	-0.215
-716.762	-160.552	-0.118	-0.006
-715.748	-104.685	-0.128	0.030
-714.733	-37.464	-0.324	-0.176
-713.718	-57.555	0.146	0.065
-712.704	-3.306	-0.082	0.058
-711.689	-65.809	0.029	-0.012
-710.675	-148.390	0.102	-0.009
-709.660	-200.000	0.011	0.198
-708.645	800.000	-0.068	-0.201
-707.631	-200.000	0.056	-0.408
-706.616	-23.800	0.229	0.139
-705.602	-47.066	0.341	0.169
-704.587	399.326	-0.092	0.197
-703.572	601.510	-0.118	0.298
-702.558	-94.671	-0.367	0.101
-701.543	-200.000	0.005	-0.078
-700.529	800.000	0.053	0.184
-699.514	-108.827	-0.224	0.049
-698.499	-45.883	-0.182	0.091
-697.485	112.554	-0.145	0.179
-696.470	-124.429	-0.348	-0.055
-695.456	-82.360	-0.194	-0.064
-694.441	144.113	-0.189	-0.256
-693.426	348.052	0.090	0.179
-692.412	-56.564	0.288	-0.129
-691.397	51.743	0.048	0.046
-690.383	-125.325	0.514	-0.080
-689.368	-155.775	0.175	0.011
-688.354	-158.048	0.134	0.008
-687.339	197.355	-0.227	-0.352
-686.324	800.000	-0.076	-0.291
-685.310	453.154	0.061	-0.138
-684.295	191.257	-0.162	-0.248
-683.281	-121.811	0.075	-0.013
-682.266	-78.860	-0.154	0.053
-681.251	-97.985	0.143	0.037
-680.237	-200.000	0.022	-0.319
-679.222	-115.496	0.203	-0.039
-678.208	34.605	-0.268	0.237
-677.193	800.000	-0.032	0.125
-676.178	-79.019	0.124	0.043
-675.164	-17.593	0.208	0.133
-674.149	800.000	-0.024	-0.101
-673.135	-200.000	-0.029	-0.217
-672.120	800.000	0.042	-0.158
-671.105	-117.715	-0.117	0.021
-670.091	-200.000	0.029	-0.342
-669.076	800.000	0.038	0.169
-668.062	-200.000	0.036	-0.330
-667.047	-154.752	0.054	0.004
-666.032	-200.000	-0.316	0.000
-665.018	231.995	-0.110	-0.183
-664.003	-30.236	0.052	-0.030
-662.989	-16.941	0.123	0.079
-661.974	642.348	-0.111	0.287
-660.959	-200.000	0.014	0.221
-659.945	71.023	-0.072	-0.076
-658.930	-71.785	-0.304	-0.115
-657.916	-13.516	0.137	0.090
-656.901	-200.000	-0.047	-0.227
-655.886	-58.006	-0.050	-0.022
-654.872	-140.372	0.516	0.055
-653.857	208.470	0.153	0.243
-652.843	35.999	0.139	-0.124
-651.828	-78.725	-0.139	0.048
-650.814	62.415	0.286	-0.290
-649.799	237.414	0.231	-0.388
-648.784	-182.190	0.184	-0.003
-647.770	12.832	0.262	0.205
-646.755	5.898	-0.069	-0.052
-645.741	800.000	0.091	0.268
-644.726	800.000	-0.052	0.221
-643.711	109.931	-0.097	0.118
-642.697	-200.000	0.000	0.290
-641.682	-200.000	0.003	-0.117
-640.668	-200.000	0.001	0.078
-639.653	-200.000	0.014	-0.152
-638.638	463.089	-0.036	0.082
-637.624	110.186	0.076	-0.093
-636.609	-77.791	0.304	-0.106
-635.595	-200.000	0.015	-0.267
-634.580	-103.389	0.297	0.071
-633.565	521.184	0.090	-0.213
-632.551	-70.324	-0.267	-0.102
-631.536	240.027	-0.077	0.129
-630.522	626.960	0.093	-0.237
-629.507	800.000	0.054	-0.171
-628.492	261.829	-0.144	-0.253
-627.478	-112.860	0.148	0.030
-626.463	245.110	-0.041	-0.069
-625.449	37.845	0.073	0.066
-624.434	800.000	0.033	-0.114
-623.419	-200.000	0.004	-0.340
-622.405	-200.000	-0.032	-0.331
-621.390	-14.369	-0.072	-0.047
-620.376	-200.000	0.006	-0.245
-619.361	-136.963	-0.307	0.036
-618.346	27.754	-0.145	-0.123
-617.332	800.000	0.018	-0.056
-616.317	-91.874	-0.333	0.096
-615.303	-40.778	-0.209	0.110
-614.288	339.902	0.098	0.194
-613.273	391.767	-0.137	-0.287
-612.259	-68.125	-0.332	-0.131
-611.244	42.048	-0.094	0.087
-610.230	758.240	-0.099	0.271
-609.215	5.386	-0.123	-0.091
-608.201	-68.285	-0.178	-0.070
-607.186	-42.585	0.084	0.043
-606.171	-200.000	-0.021	-0.144
-605.157	-159.923	0.240	0.013
-604.142	-200.000	-0.007	0.229
-603.128	359.964	0.018	-0.036
-602.113	8.736	-0.116	-0.088
-601.098	-200.000	-0.030	-0.185
-600.084	118.710	0.031	0.039
-599.069	-156.880	0.034	-0.002
-598.055	290.346	0.051	0.093
-597.040	230.704	-0.120	-0.198
-596.025	-130.114	0.225	0.031
-595.011	-37.307	-0.117	0.063
-593.996	-200.000	-0.021	-0.255
-592.982	-160.964	-0.211	0.011
-591.967	61.416	-0.148	-0.149
-590.952	-129.056	-0.136	-0.019
-589.938	1.108	0.009	-0.006
-588.923	-70.671	-0.213	0.081
-587.909	21.918	-0.053	-0.044
-586.894	-152.505	-0.096	0.007
-585.879	800.000	-0.109	-0.404
-584.865	800.000	0.019	-0.077
-583.850	-28.384	-0.209	0.122
-582.836	-57.931	-0.183	-0.081
-581.821	-125.966	-0.205	-0.031
-580.806	-46.949	0.253	-0.125
-579.792	320.306	-0.072	-0.138
-578.777	-94.100	-0.209	0.058
-577.763	-200.000	0.015	0.182
-576.748	270.515	-0.185	-0.329
-575.733	27.973	0.089	-0.076
-574.719	-200.000	-0.019	-0.371
-573.704	-105.684	-0.074	0.017
-572.690	24.943	-0.151	0.126
-571.675	121.835	-0.177	0.223
-570.661	-200.000	0.008	-0.078
-569.646	-200.000	0.016	0.248
-568.631	-81.263	0.313	0.104
-567.617	800.000	0.105	-0.444
-566.602	46.474	0.176	-0.165
-565.588	-200.000	0.024	-0.151
-564.573	97.149	-0.185	0.215
-563.558	21.110	0.124	-0.102
-562.544	-3.980	0.208	0.145
-561.529	800.000	0.021	0.079
-560.515	-24.856	0.163	-0.098
-559.500	-200.000	-0.009	-0.112
-558.485	151.145	0.181	0.249
-557.471	731.065	0.066	0.178
-556.456	79.342	-0.105	-0.114
-555.442	34.506	-0.159	-0.140
-554.427	152.937	-0.108	-0.148
-553.412	113.401	-0.160	-0.196
-552.398	-6.557	0.051	-0.035
-551.383	800.000	0.083	-0.262
-550.369	450.151	0.036	0.079
-549.354	504.412	-0.146	0.340
-548.339	87.218	0.156	-0.175
-547.325	50.835	0.303	-0.290
-546.310	225.222	-0.033	-0.054
-545.296	8.042	0.132	-0.100
-544.281	5.799	0.026	-0.019
-543.266	262.161	0.182	0.319
-542.252	-194.950	0.243	0.002
-541.237	-200.000	0.028	0.247
-540.223	-117.406	0.149	-0.027
-539.208	315.925	0.158	-0.301
-538.193	-200.000	0.005	0.154
-537.179	-99.810	-0.161	-0.041
-536.164	45.327	0.139	-0.129
-535.150	36.515	-0.057	-0.050
-534.135	-100.998	0.167	0.041
-533.121	0.143	-0.191	-0.137
-532.106	800.000	-0.063	0.237
-531.091	800.000	0.078	-0.256
-530.077	-200.000	0.025	-0.266
-529.062	84.828	0.042	0.047
-528.048	0.630	-0.152	0.109
-527.033	-23.578	-0.115	-0.070
-526.018	-141.686	0.354	0.036
-525.004	169.393	-0.178	0.257
-523.989	800.000	0.053	0.231
-522.975	588.401	0.160	-0.397
-521.960	-11.356	0.242	-0.160
-520.945	-200.000	0.019	-0.143
-519.931	-158.954	-0.185	-0.011
-518.916	-49.728	-0.223	-0.107
-517.902	-63.320	0.137	0.057
-516.887	-200.000	0.057	-0.286
-515.872	-5.702	0.292	-0.201
-514.858	203.400	-0.233	-0.363
-513.843	-78.831	0.087	0.030
-512.829	-200.000	0.010	0.091
-511.814	792.155	-0.032	-0.090
-510.799	129.822	-0.131	-0.169
-509.785	94.988	-0.148	0.170
-508.770	11.441	0.208	-0.161
-507.756	-63.316	0.288	-0.120
-506.741	-15.611	-0.399	0.257
-505.726	-84.964	0.149	-0.047
-504.712	-94.544	-0.265	0.073
-503.697	17.697	0.176	0.141
-502.683	85.278	0.273	0.301
-501.668	-56.932	-0.300	0.133
-500.653	800.000	0.048	-0.189
-499.639	-28.562	0.107	0.062
-498.624	-181.487	0.291	-0.006
-497.610	415.073	0.103	0.221
-496.595	-200.000	0.013	0.208
-495.581	420.377	0.040	0.086
-494.566	22.793	-0.164	0.136
-493.551	-22.820	0.227	-0.138
-492.537	-91.368	0.194	-0.056
-491.522	-48.780	0.228	-0.110
-490.508	58.115	-0.152	-0.150
-489.493	133.906	-0.137	0.178
-488.478	318.207	0.045	-0.086
-487.464	800.000	-0.005	0.013
-486.449	800.000	-0.014	0.059
-485.435	71.289	-0.083	0.087
-484.420	86.303	-0.293	0.324
-483.405	-200.000	-0.020	0.226
-482.391	-200.000	0.069	0.410
-481.376	-200.000	-0.444	-0.001
-480.362	-87.349	0.027	0.008
-479.347	157.634	0.033	0.046
-478.332	115.994	0.204	0.251
-477.318	-40.582	0.072	-0.037
-476.303	-200.000	-0.020	-0.166
-475.289	157.993	-0.125	0.174
-474.274	-200.000	0.049	0.230
-473.259	-200.000	-0.069	0.306
-472.245	-0.206	0.171	0.122
-471.230	-124.532	-0.151	0.024
-470.216	-200.000	0.028	-0.199
-469.201	800.000	-0.069	-0.206
-468.186	-62.946	-0.102	-0.042
-467.172	-127.521	-0.250	0.036
-466.157	-150.376	-0.317	-0.025
-465.143	115.287	-0.214	0.263
-464.128	-79.153	0.177	-0.060
-463.113	-37.790	0.026	0.014
-462.099	-200.000	-0.019	-0.169
-461.084	-59.614	0.227	-0.098
-460.070	-124.333	-0.419	0.066
-459.055	277.775	-0.114	0.204
-458.040	79.091	-0.120	-0.129
-457.026	-113.039	0.474	0.094
-456.011	-200.000	-0.016	0.230
-454.997	-44.578	0.040	-0.020
-453.982	-200.000	0.034	-0.428
-452.968	35.020	-0.135	0.119
-451.953	-200.000	0.004	0.109
-450.938	800.000	-0.060	-0.171
-449.924	800.000	-0.062	0.200
-448.909	-116.544	-0.132	-0.024
-447.895	-64.053	-0.212	-0.087
-446.880	109.071	0.089	0.107
-445.865	59.396	0.125	-0.124
-444.851	23.951	0.154	0.128
-443.836	1.208	0.128	-0.092
-442.822	-8.717	-0.186	0.125
-441.807	56.336	0.191	-0.186
-440.792	64.788	-0.153	-0.155
-439.778	-123.616	-0.398	0.063
-438.763	678.129	0.079	0.208
-437.749	134.627	0.171	0.223
-436.734	-200.000	0.002	-0.160
-435.719	627.929	0.152	-0.385
-434.705	-200.000	-0.033	-0.176
-433.690	48.388	-0.157	0.148
-432.676	55.127	0.186	0.181
-431.661	-37.309	0.251	-0.135
-430.646	-17.692	0.126	0.080
-429.632	-187.660	-0.285	0.004
-428.617	-35.781	0.312	0.170
-427.603	-102.164	-0.073	0.018
-426.588	800.000	0.062	-0.175
-425.573	-200.000	0.002	-0.221
-424.559	616.996	-0.070	-0.175
-423.544	-51.377	0.180	0.084
-422.530	11.956	0.215	0.166
-421.515	-24.499	-0.026	0.016
-420.500	-5.170	0.249	0.172
-419.486	520.681	0.050	-0.117
-418.471	17.443	0.117	-0.093
-417.457	613.398	-0.016	-0.040
-416.442	-163.493	-0.284	-0.014
-415.428	3.697	-0.313	0.229
-414.413	-119.841	-0.238	0.041
-413.398	-7.432	0.215	0.146
-412.384	-100.628	0.177	0.044
-411.369	800.000	-0.048	-0.171
-410.355	121.523	0.282	0.353
-409.340	800.000	-0.036	-0.100
-408.325	173.313	-0.038	0.055
-407.311	31.063	0.153	-0.132
-406.296	800.000	-0.058	-0.201
-405.282	800.000	0.043	-0.174
-404.267	800.000	-0.057	0.177
-403.252	102.813	0.046	-0.054
-402.238	-72.417	-0.249	-0.092
-401.223	287.998	0.112	0.203
-400.209	-97.795	0.182	0.047
-399.194	-27.770	-0.191	-0.111
-398.179	-19.104	-0.224	-0.139
-397.165	800.000	0.111	-0.340
-396.150	2.008	0.203	-0.147
-395.136	-177.877	-0.503	-0.012
-394.121	29.997	-0.041	0.035
-393.106	125.108	-0.055	0.069
-392.092	-110.694	-0.114	0.024
-391.077	-59.170	0.100	-0.043
-390.063	-148.356	-0.153	0.013
-389.048	-55.467	-0.063	-0.028
-388.033	-89.901	0.148	-0.043
-387.019	8.791	0.338	-0.256
-386.004	-200.000	-0.017	0.339
-384.990	-126.541	0.200	0.030
-383.975	800.000	-0.021	-0.077
-382.960	126.300	0.034	-0.043
-381.946	-200.000	0.005	-0.158
-380.931	-200.000	-0.014	0.140
-379.917	-118.979	-0.186	0.033
-378.902	-106.643	0.141	-0.032
-377.888	-24.510	-0.185	0.110
-376.873	151.723	0.117	0.159
-375.858	-200.000	0.041	-0.285
-374.844	552.467	0.123	0.296
-373.829	-36.965	0.213	0.115
-372.815	-200.000	0.034	0.165
-371.800	-63.141	0.152	-0.063
-370.785	-109.258	-0.150	-0.032
-369.771	-186.486	-0.246	0.004
-368.756	-92.866	0.211	0.059
-367.742	-33.916	0.033	0.018
-366.727	-125.390	0.124	-0.019
-365.712	-150.137	0.282	0.022
-364.698	1.414	0.220	0.159
-363.683	194.734	0.074	-0.112
-362.669	-8.078	0.147	-0.099
-361.654	223.865	-0.193	-0.312
-360.639	153.049	-0.082	0.112
-359.625	-200.000	-0.057	-0.301
-358.610	369.745	-0.024	-0.049
-357.596	243.312	0.214	0.360
-356.581	-118.503	0.038	0.007
-355.566	-200.000	-0.007	0.432
-354.552	-200.000	-0.657	-0.003
-353.537	-191.076	0.061	-0.001
-352.523	-200.000	0.009	-0.043
-351.508	-186.916	0.110	-0.002
-350.493	800.000	-0.090	0.288
-349.479	-200.000	-0.045	0.352
-348.464	172.929	0.082	0.118
-347.450	-166.222	-0.323	-0.014
-346.435	-30.998	0.129	-0.073
-345.420	-139.984	-0.538	0.057
-344.406	-78.840	0.062	-0.021
-343.391	800.000	-0.026	0.092
-342.377	51.133	-0.197	-0.187
-341.362	-20.253	-0.153	0.094
-340.348	398.400	-0.082	0.173
-339.333	-70.024	0.250	0.095
-338.318	22.027	-0.245	0.200
-337.304	-63.940	0.103	-0.042
-336.289	293.880	0.092	-0.168
-335.275	-113.719	-0.208	-0.041
-334.260	248.917	0.160	-0.271
-333.245	92.660	0.147	-0.166
-332.231	-200.000	-0.032	-0.205
-331.216	-139.721	-0.299	-0.032
-330.202	116.828	-0.090	-0.111
-329.187	-144.697	-0.402	0.037
-328.172	-200.000	0.027	-0.170
-327.158	-38.930	-0.115	-0.061
-326.143	-200.000	0.064	0.297
-325.129	294.109	-0.224	0.409
-324.114	-143.032	0.229	0.022
-323.099	-120.622	-0.332	0.056
-322.085	-156.743	0.042	0.003
-321.070	800.000	0.055	-0.238
-320.056	-73.972	0.558	-0.202
-319.041	800.000	0.069	0.282
-318.026	800.000	0.087	0.262
-317.012	-76.780	0.097	0.034
-315.997	-200.000	0.006	-0.141
-314.983	800.000	0.116	-0.332
-313.968	-200.000	0.040	-0.346
-312.953	800.000	0.151	0.441
-311.939	-200.000	0.075	0.461
-310.924	-133.058	0.314	-0.040
-309.910	102.500	0.089	-0.105
-308.895	-57.411	0.147	-0.065
-307.880	800.000	-0.024	0.080
-306.866	-55.187	-0.431	0.194
-305.851	-200.000	-0.028	0.140
-304.837	-117.457	-0.093	0.017
-303.822	-87.026	-0.154	-0.047
-302.807	321.163	0.040	-0.077
-301.793	11.413	-0.153	0.117
-300.778	3.208	-0.172	0.125
-299.764	20.217	0.179	0.144
-298.749	16.704	-0.123	-0.097
-297.735	800.000	0.037	-0.129
-296.720	200.494	-0.145	0.223
-295.705	-28.490	0.257	-0.148
-294.691	30.838	-0.164	-0.140
-293.676	800.000	-0.024	0.098
-292.662	146.344	-0.100	0.134
-291.647	800.000	-0.054	0.196
-290.632	75.806	0.104	-0.109
-289.618	747.601	-0.067	0.180
-288.603	-200.000	-0.002	0.022
-287.589	87.421	0.172	0.190
-286.574	-200.000	-0.013	-0.290
-285.559	-59.645	-0.308	-0.132
-284.545	177.239	-0.105	0.153
-283.530	-76.558	0.325	0.114
-282.516	-152.737	-0.197	-0.014
-281.501	-160.827	0.420	-0.022
-280.486	-154.247	-0.176	0.012
-279.472	-19.281	-0.108	-0.067
-278.457	93.524	0.184	0.208
-277.443	-128.534	-0.093	0.013
-276.428	-5.399	-0.095	-0.065
-275.413	-200.000	-0.042	-0.309
-274.399	-169.060	0.063	0.002
-273.384	-53.672	0.236	-0.108
-272.370	43.311	-0.054	0.049
-271.355	17.502	0.269	0.214
-270.340	-118.506	-0.023	0.004
-269.326	-91.653	-0.280	0.080
-268.311	501.286	-0.091	0.210
-267.297	293.448	0.084	-0.153
-266.282	487.060	-0.046	-0.105
-265.267	249.559	0.084	0.142
-264.253	-99.118	-0.143	0.036
-263.238	-54.220	0.365	0.165
-262.224	-200.000	0.036	0.178
-261.209	-111.010	0.277	0.057
-260.195	78.660	0.260	0.278
-259.180	49.637	0.121	0.114
-258.165	-200.000	-0.020	-0.110
-257.151	256.823	-0.186	-0.320
-256.136	283.603	0.052	-0.094
-255.122	349.954	0.154	-0.303
-254.107	-71.397	0.273	-0.102
-253.092	-88.200	-0.016	-0.005
-252.078	510.287	0.076	0.176
-251.063	-24.997	-0.335	0.198
-250.049	173.791	-0.079	-0.113
-249.034	800.000	0.057	-0.166
-248.019	190.855	0.121	0.182
-247.005	-200.000	0.048	0.454
-245.990	-33.517	0.237	0.131
-244.976	129.352	0.178	-0.227
-243.961	184.721	-0.207	-0.307
-242.946	-200.000	0.033	0.248
-241.932	236.342	0.141	-0.232
-240.917	-200.000	-0.041	0.243
-239.903	393.725	-0.140	-0.291
-238.888	166.129	0.110	0.155
-237.873	-90.756	-0.242	-0.070
-236.859	-103.466	0.011	-0.003
-235.844	-45.353	-0.112	-0.056
-234.830	-112.229	-0.113	-0.023
-233.815	-92.885	0.311	0.087
-232.800	-12.443	0.284	-0.185
-231.786	-104.448	-0.280	0.065
-230.771	68.554	0.133	0.136
-229.757	-35.392	0.128	0.070
-228.742	-17.410	0.080	-0.050
-227.727	-59.283	-0.214	0.092
-226.713	-200.000	-0.027	0.195
-225.698	-200.000	-0.021	-0.609
-224.684	60.292	-0.281	0.277
-223.669	-200.000	-0.017	-0.143
-222.655	-200.000	-0.108	0.633
-221.640	174.609	-0.045	0.065
-220.625	116.255	0.053	0.065
-219.611	-89.100	0.310	0.091
-218.596	-200.000	-0.001	0.139
-217.582	-51.582	-0.172	-0.080
-216.567	235.352	0.078	0.129
-215.552	322.019	0.170	0.321
-214.538	-84.196	0.071	0.022
-213.523	-91.161	-0.085	-0.024
-212.509	112.144	-0.109	0.132
-211.494	-15.593	0.144	0.091
-210.479	-200.000	0.067	0.304
-209.465	-33.747	0.188	-0.103
-208.450	-47.626	0.190	-0.092
-207.436	-67.132	-0.204	0.080
-206.421	714.251	-0.062	-0.163
-205.406	-150.441	0.180	0.014
-204.392	800.000	-0.107	0.418
-203.377	18.745	0.052	0.042
-202.363	274.655	-0.168	0.297
-201.348	122.286	0.173	0.215
-200.333	-161.377	-0.229	0.012
-199.319	-97.711	-0.297	-0.076
-198.304	800.000	-0.020	-0.074
-197.290	179.566	0.100	-0.145
-196.275	50.154	-0.071	-0.067
-195.260	-57.659	0.205	0.089
-194.246	-200.000	-0.029	-0.268
-193.231	-200.000	-0.016	-0.203
-192.217	298.799	-0.162	-0.297
-191.202	552.572	-0.260	-0.621
-190.187	485.140	0.036	0.081
-189.173	232.369	0.092	-0.150
-188.158	-150.925	-0.139	0.010
-187.144	41.892	-0.227	-0.205
-186.129	-200.000	0.086	0.459
-185.114	259.523	-0.194	0.333
-184.100	458.443	-0.124	0.273
-183.085	32.618	0.130	0.112
-182.071	-66.360	0.098	-0.039
-181.056	294.431	-0.088	-0.161
-180.042	108.655	-0.207	-0.246
-179.027	-93.048	0.046	0.013
-178.012	-52.019	-0.563	-0.260
-176.998	-34.139	-0.118	-0.064
-175.983	-9.188	0.262	0.174
-174.969	-118.777	-0.216	0.038
-173.954	-109.739	0.298	-0.062
-172.939	-27.474	0.019	0.011
-171.925	-10.080	0.097	0.064
-170.910	-71.968	0.279	0.103
-169.896	-200.000	-0.038	-0.462
-168.881	800.000	0.060	0.170
-167.866	368.544	-0.081	0.162
-166.852	-120.181	-0.121	-0.021
-165.837	168.365	0.246	0.348
-164.823	-172.013	0.351	-0.011
-163.808	-200.000	-0.003	-0.096
-162.793	-200.000	0.020	-0.091
-161.779	800.000	0.037	0.128
-160.764	0.590	0.292	-0.208
-159.750	-200.000	0.009	-0.164
-158.735	-147.171	-0.176	0.015
-157.720	211.913	-0.123	0.193
-156.706	5.794	0.281	-0.206
-155.691	-45.807	0.045	0.022
-154.677	800.000	0.034	-0.122
-153.662	-74.971	-0.319	-0.113
-152.647	-19.422	-0.196	0.121
-151.633	39.428	0.126	-0.112
-150.618	-200.000	-0.055	-0.272
-149.604	19.563	0.027	0.021
-148.589	-114.838	-0.322	-0.061
-147.574	-83.399	-0.223	0.071
-146.560	-11.549	-0.187	0.122
-145.545	800.000	-0.039	0.136
-144.531	322.345	-0.246	0.466
-143.516	76.852	-0.191	0.202
-142.502	-73.936	-0.390	0.141
-141.487	-52.033	0.285	0.132
-140.472	87.344	0.103	0.113
-139.458	108.746	0.071	0.085
-138.443	526.091	-0.097	0.227
-137.429	-81.056	-0.316	-0.104
-136.414	-67.858	0.064	0.025
-135.399	30.325	-0.350	-0.297
-134.385	226.817	0.181	0.292
-133.370	-200.000	-0.085	0.432
-132.356	224.205	-0.185	0.296
-131.341	-134.152	-0.342	0.042
-130.326	-107.602	0.366	0.079
-129.312	-4.472	0.200	0.137
-128.297	-200.000	0.000	0.195
-127.283	-30.183	0.212	0.120
-126.268	563.696	0.108	0.259
-125.253	800.000	-0.070	-0.222
-124.239	-93.263	-0.149	0.041
-123.224	-151.543	0.203	0.015
-122.210	-131.605	0.294	-0.038
-121.195	75.975	-0.284	-0.298
-120.180	800.000	-0.131	-0.373
