DTS Sentinel unit serial number:	SN413079Multiplexer serial number:	ORYXHardware model number:	OX4-SRSoftware version number:	ORYX F/W v4.00 Oryx Data Collector v3.7.2.0data status	okinstallation	princeton_trtdifferential loss correction	single-endedforward channel	channel 2reverse channel	N/Adate	2019/09/13time	12:03:35forward acquisition time	60.00reverse acquisition time	0.00gamma	496.2192k internal	0.2316k external	0.2316temperature offset calibration	1.0215default loss term (dB/km)	0.3790temperature slope calibration	1.0000multiplexer offset coefficient	1.0000multiplexer slope coefficient	1.0000fibre end	0.00T internal ref (°C)	33.69T ext. ref 1 (°C)	4.61T ext. ref 2 (°C)	31.25length (m)	temperature (°C)	Stokes	anti-Stokes-747.200	10.235	0.283	0.218
-746.185	-200.000	0.018	0.202
-745.171	-200.000	-0.007	0.139
-744.156	800.000	0.106	0.295
-743.142	128.718	-0.071	0.092
-742.127	800.000	-0.139	0.463
-741.112	-12.357	0.176	-0.117
-740.098	-200.000	0.010	0.048
-739.083	62.527	0.136	0.138
-738.069	-111.358	0.073	-0.015
-737.054	-200.000	0.096	0.427
-736.039	81.462	-0.122	-0.133
-735.025	-200.000	0.014	-0.200
-734.010	390.341	-0.086	0.180
-732.996	-194.892	-0.644	0.005
-731.981	47.782	0.151	0.143
-730.966	77.684	0.134	0.145
-729.952	-9.667	-0.144	0.097
-728.937	-90.444	-0.271	0.080
-727.923	361.458	0.093	-0.189
-726.908	-200.000	0.016	0.237
-725.894	-200.000	-0.011	0.171
-724.879	-94.669	0.216	-0.060
-723.864	243.242	-0.139	0.237
-722.850	3.418	-0.202	-0.149
-721.835	-113.226	-0.333	0.066
-720.821	-72.400	-0.210	-0.079
-719.806	-160.142	-0.242	0.013
-718.791	-165.761	-0.411	0.018
-717.777	4.586	-0.305	-0.226
-716.762	800.000	-0.035	0.141
-715.748	95.317	-0.129	0.149
-714.733	-200.000	-0.014	0.096
-713.718	-200.000	-0.002	-0.060
-712.704	115.932	0.224	0.278
-711.689	65.294	-0.130	0.133
-710.675	377.796	0.061	0.125
-709.660	-200.000	-0.014	-0.318
-708.645	-28.671	-0.100	0.058
-707.631	129.580	-0.207	-0.268
-706.616	-71.966	-0.143	0.054
-705.602	800.000	-0.057	-0.236
-704.587	-200.000	-0.018	-0.353
-703.572	53.249	-0.037	0.036
-702.558	-200.000	0.016	-0.167
-701.543	394.624	0.114	0.241
-700.529	679.743	0.134	0.353
-699.514	800.000	0.069	0.301
-698.499	-131.409	-0.409	0.055
-697.485	-200.000	-0.066	0.400
-696.470	137.693	-0.082	0.109
-695.456	33.036	-0.078	-0.068
-694.441	-38.664	-0.492	-0.262
-693.426	-142.352	-0.190	0.019
-692.412	-39.435	-0.315	-0.167
-691.397	-200.000	-0.046	0.233
-690.383	-200.000	-0.003	-0.023
-689.368	-155.675	-0.056	0.004
-688.354	79.687	-0.133	0.144
-687.339	116.832	0.047	0.058
-686.324	29.862	-0.442	-0.380
-685.310	126.571	0.128	-0.164
-684.295	1.796	0.142	0.103
-683.281	-200.000	-0.054	0.264
-682.266	32.431	-0.207	-0.181
-681.251	-200.000	0.061	-0.353
-680.237	376.886	0.051	-0.106
-679.222	-115.559	0.232	-0.044
-678.208	187.308	-0.048	-0.073
-677.193	-200.000	-0.032	-0.228
-676.178	0.277	-0.318	0.230
-675.164	-152.818	0.308	0.022
-674.149	5.183	-0.226	0.168
-673.135	7.880	-0.115	-0.087
-672.120	65.601	0.188	0.192
-671.105	-111.859	0.238	0.049
-670.091	-116.125	-0.148	0.028
-669.076	-29.631	0.063	0.036
-668.062	-200.000	-0.028	0.193
-667.047	-92.750	-0.165	-0.047
-666.032	-125.405	-0.204	-0.031
-665.018	-200.000	0.089	-0.418
-664.003	-200.000	-0.001	-0.191
-662.989	-200.000	-0.001	-0.128
-661.974	-200.000	0.078	-0.412
-660.959	130.218	-0.177	0.228
-659.945	-37.430	-0.130	0.070
-658.930	8.123	-0.120	0.091
-657.916	800.000	-0.063	0.192
-656.901	-159.165	0.250	0.014
-655.886	351.494	-0.079	0.158
-654.872	1.924	-0.085	0.062
-653.857	-22.708	0.134	-0.082
-652.843	83.402	0.116	-0.128
-651.828	1.204	-0.131	-0.095
-650.814	-200.000	0.037	-0.230
-649.799	800.000	0.045	-0.160
-648.784	-4.616	0.338	-0.235
-647.770	-11.391	-0.285	-0.190
-646.755	40.059	0.238	0.216
-645.741	-22.596	-0.219	-0.134
-644.726	-108.658	-0.294	-0.064
-643.711	-128.443	0.026	0.004
-642.697	-44.693	-0.145	-0.073
-641.682	296.022	-0.162	-0.300
-640.668	-60.959	-0.215	-0.091
-639.653	-109.035	0.142	-0.030
-638.638	203.106	-0.120	0.188
-637.624	0.085	0.373	-0.268
-636.609	-40.823	-0.138	-0.072
-635.595	200.068	-0.126	-0.195
-634.580	43.106	-0.096	0.089
-633.565	40.519	0.195	0.177
-632.551	270.672	-0.026	-0.046
-631.536	-200.000	-0.067	0.314
-630.522	-200.000	-0.039	-0.236
-629.507	-102.057	0.260	-0.063
-628.492	800.000	-0.048	-0.170
-627.478	-83.812	0.270	0.087
-626.463	-39.434	0.063	-0.033
-625.449	-101.852	0.150	-0.037
-624.434	-140.469	0.175	0.018
-623.419	18.874	-0.229	0.185
-622.405	518.538	0.106	-0.251
-621.390	124.564	0.141	-0.179
-620.376	-57.734	0.365	0.161
-619.361	-159.250	-0.139	-0.008
-618.346	-119.813	-0.236	0.041
-617.332	-14.320	0.262	0.170
-616.317	-137.468	-0.340	-0.039
-615.303	-102.801	-0.208	0.050
-614.288	605.040	0.162	0.408
-613.273	29.295	-0.170	-0.145
-612.259	0.773	-0.291	0.210
-611.244	39.152	-0.152	0.137
-610.230	346.378	-0.095	-0.187
-609.215	117.193	0.185	0.229
-608.201	800.000	0.033	0.129
-607.186	-200.000	0.002	-0.128
-606.171	728.222	-0.079	-0.213
-605.157	48.327	-0.130	-0.122
-604.142	-170.961	0.236	0.008
-603.128	-14.280	0.043	0.028
-602.113	651.864	0.045	0.115
-601.098	-177.954	-0.135	0.003
-600.084	-23.221	-0.108	0.066
-599.069	387.156	0.195	0.405
-598.055	-137.744	-0.394	0.044
-597.040	-151.234	-0.254	-0.019
-596.025	93.994	-0.253	-0.289
-595.011	-110.156	0.421	0.088
-593.996	800.000	-0.087	-0.375
-592.982	-200.000	-0.026	-0.247
-591.967	-76.287	0.186	0.066
-590.952	408.795	0.087	-0.186
-589.938	310.297	0.162	-0.304
-588.923	-181.618	-0.410	0.008
-587.909	-30.596	0.260	-0.148
-586.894	800.000	-0.008	-0.033
-585.879	651.822	-0.080	-0.206
-584.865	28.387	0.199	-0.169
-583.850	105.662	-0.129	-0.153
-582.836	648.202	0.096	0.248
-581.821	783.476	-0.028	0.077
-580.806	-53.487	-0.194	-0.089
-579.792	-200.000	-0.180	0.001
-578.777	453.623	0.087	0.193
-577.763	800.000	-0.034	-0.117
-576.748	800.000	0.069	0.277
-575.733	134.965	-0.186	0.243
-574.719	-91.496	-0.172	0.049
-573.704	58.260	-0.204	0.201
-572.690	61.753	-0.177	-0.177
-571.675	-34.979	0.238	0.131
-570.661	94.856	0.036	0.041
-569.646	559.201	-0.036	0.088
-568.631	96.299	0.176	-0.203
-567.617	71.422	0.070	-0.073
-566.602	-200.000	0.048	0.251
-565.588	-200.000	0.045	0.296
-564.573	52.199	0.253	-0.242
-563.558	-200.000	0.013	0.325
-562.544	94.898	-0.101	-0.115
-561.529	-157.967	0.232	0.014
-560.515	-94.412	0.213	0.058
-559.500	-166.105	0.112	-0.005
-558.485	31.656	0.102	-0.088
-557.471	-17.705	-0.032	-0.020
-556.456	25.388	0.100	0.084
-555.442	193.775	0.142	-0.215
-554.427	-200.000	-0.032	-0.157
-553.412	-3.239	-0.156	-0.109
-552.398	371.405	0.089	-0.182
-551.383	229.588	0.019	-0.031
-550.369	800.000	-0.042	0.161
-549.354	239.504	-0.106	-0.177
-548.339	103.807	0.224	-0.265
-547.325	633.312	0.049	-0.124
-546.310	-20.094	-0.085	-0.053
-545.296	-149.304	0.194	0.016
-544.281	481.057	-0.087	-0.199
-543.266	-76.635	-0.180	0.063
-542.252	800.000	-0.151	-0.612
-541.237	175.550	0.141	-0.206
-540.223	117.195	0.215	0.266
-539.208	-177.220	0.281	-0.007
-538.193	-53.528	-0.140	0.064
-537.179	-112.110	-0.133	-0.027
-536.164	-200.000	-0.024	0.315
-535.150	800.000	0.100	0.290
-534.135	705.445	0.103	0.274
-533.121	-29.406	-0.108	0.062
-532.106	735.192	-0.103	-0.277
-531.091	102.557	-0.130	-0.152
-530.077	-44.716	-0.164	0.082
-529.062	-121.399	0.102	-0.017
-528.048	-35.076	-0.306	-0.167
-527.033	-56.417	0.322	0.144
-526.018	318.936	-0.043	-0.081
-525.004	-96.628	0.353	0.093
-523.989	-153.516	-0.081	0.006
-522.975	53.183	-0.233	-0.224
-521.960	237.132	0.095	0.158
-520.945	-200.000	0.046	0.220
-519.931	135.205	-0.096	0.125
-518.916	-144.036	0.171	-0.016
-517.902	-78.277	0.205	-0.071
-516.887	-39.676	0.154	-0.081
-515.872	63.733	0.193	0.195
-514.858	75.061	0.148	-0.157
-513.843	-153.155	-0.091	-0.006
-512.829	800.000	-0.143	0.457
-511.814	-200.000	0.000	0.017
-510.799	54.030	0.110	0.106
-509.785	199.560	0.064	0.098
-508.770	-79.459	0.337	0.114
-507.756	72.781	0.087	0.091
-506.741	198.888	-0.216	-0.333
-505.726	-50.191	-0.165	0.079
-504.712	-200.000	0.031	0.149
-503.697	29.207	-0.190	0.162
-502.683	231.652	-0.085	0.140
-501.668	-32.451	-0.282	0.158
-500.653	66.731	-0.290	-0.296
-499.639	-200.000	0.108	0.530
-498.624	237.944	-0.219	-0.365
-497.610	16.596	-0.138	0.109
-496.595	159.619	0.143	0.199
-495.581	719.224	-0.065	0.174
-494.566	-1.203	0.138	0.097
-493.551	800.000	-0.041	-0.172
-492.537	194.878	-0.195	-0.297
-491.522	191.920	-0.126	0.191
-490.508	-200.000	-0.003	-0.203
-489.493	552.267	0.078	0.187
-488.478	704.741	0.143	0.379
-487.464	471.287	-0.048	0.107
-486.449	800.000	0.025	0.070
-485.435	-152.563	0.168	-0.012
-484.420	-75.157	-0.290	-0.104
-483.405	-69.951	0.118	-0.045
-482.391	-129.286	-0.207	-0.029
-481.376	263.461	-0.130	-0.226
-480.362	43.442	-0.170	-0.156
-479.347	426.329	-0.079	0.170
-478.332	293.152	-0.210	-0.384
-477.318	-148.768	0.319	0.026
-476.303	-200.000	0.045	0.211
-475.289	-147.617	-0.136	-0.011
-474.274	189.826	0.099	0.149
-473.259	386.487	0.023	-0.048
-472.245	-200.000	-0.020	0.304
-471.230	35.876	-0.200	-0.176
-470.216	-46.324	-0.051	0.025
-469.201	58.017	0.136	0.133
-468.186	-102.395	-0.128	-0.031
-467.172	124.199	0.055	-0.069
-466.157	15.346	-0.091	0.071
-465.143	800.000	0.057	-0.191
-464.128	387.530	0.199	0.412
-463.113	-81.136	-0.477	-0.158
-462.099	-144.013	0.130	0.012
-461.084	126.818	0.157	-0.199
-460.070	86.979	-0.145	0.161
-459.055	87.028	0.113	-0.125
-458.040	800.000	-0.116	0.326
-457.026	-28.753	-0.244	0.140
-456.011	29.214	-0.186	-0.159
-454.997	-200.000	0.067	0.417
-453.982	219.299	0.290	-0.464
-452.968	8.325	0.359	-0.271
-451.953	-200.000	-0.013	0.137
-450.938	800.000	-0.028	0.089
-449.924	-200.000	0.023	0.155
-448.909	-146.761	-0.357	-0.031
-447.895	-100.594	0.523	0.129
-446.880	124.876	-0.221	0.279
-445.865	56.142	0.116	0.113
-444.851	-36.864	-0.166	0.089
-443.836	-133.991	0.185	-0.023
-442.822	-200.000	0.006	-0.151
-441.807	66.400	-0.288	0.293
-440.792	-17.230	0.114	0.072
-439.778	-87.342	0.062	-0.019
-438.763	-200.000	0.015	-0.111
-437.749	-200.000	0.008	0.270
-436.734	-200.000	-0.027	-0.146
-435.719	34.272	0.052	-0.045
-434.705	151.880	0.070	-0.096
-433.690	83.223	0.143	0.156
-432.676	-86.384	-0.300	-0.092
-431.661	-101.156	0.388	0.095
-430.646	-66.607	0.116	-0.046
-429.632	-51.540	-0.163	0.076
-428.617	-150.735	0.172	-0.013
-427.603	-24.209	0.401	-0.239
-426.588	-19.335	-0.017	-0.010
-425.573	125.306	-0.059	0.074
-424.559	-22.194	-0.490	-0.297
-423.544	-111.711	-0.068	-0.014
-422.530	604.839	-0.028	0.069
-421.515	-200.000	-0.018	0.221
-420.500	-200.000	-0.054	0.252
-419.486	800.000	0.081	0.267
-418.471	213.846	0.065	0.103
-417.457	800.000	-0.036	-0.117
-416.442	416.965	0.112	-0.240
-415.428	-200.000	0.020	-0.194
-414.413	161.421	-0.266	-0.372
-413.398	-172.869	0.164	-0.005
-412.384	745.254	0.020	0.055
-411.369	-200.000	0.107	0.470
-410.355	-200.000	-0.002	-0.066
-409.340	800.000	0.093	-0.264
-408.325	-146.126	0.485	-0.043
-407.311	-111.512	-0.251	-0.051
-406.296	152.064	-0.066	0.090
-405.282	-78.073	-0.044	-0.015
-404.267	-200.000	-0.012	0.159
-403.252	-200.000	0.081	0.446
-402.238	-143.374	-0.087	-0.008
-401.223	44.832	-0.057	0.052
-400.209	672.357	-0.036	-0.095
-399.194	-117.113	-0.379	-0.069
-398.179	-126.037	-0.151	0.023
-397.165	-95.373	0.139	-0.037
-396.150	-167.643	-0.101	0.004
-395.136	-91.745	0.175	0.050
-394.121	-13.094	-0.077	-0.050
-393.106	29.942	-0.182	0.155
-392.092	-200.000	0.003	-0.272
-391.077	-119.623	0.212	-0.037
-390.063	-200.000	-0.015	0.142
-389.048	-122.640	-0.060	-0.010
-388.033	762.658	0.054	0.146
-387.019	-115.659	0.245	0.046
-386.004	356.466	0.033	0.065
-384.990	673.213	0.068	-0.177
-383.975	-54.428	-0.187	0.084
-382.960	248.755	-0.018	-0.030
-381.946	-104.429	0.092	-0.021
-380.931	-10.770	-0.244	-0.161
-379.917	69.581	0.202	0.208
-378.902	64.700	-0.045	0.046
-377.888	-15.243	-0.217	0.138
-376.873	61.372	0.063	-0.063
-375.858	102.016	0.164	0.191
-374.844	328.138	-0.120	0.229
-373.829	80.576	0.137	0.148
-372.815	29.131	-0.195	0.165
-371.800	800.000	-0.033	-0.139
-370.785	-200.000	0.043	-0.271
-369.771	-61.025	-0.173	0.073
-368.756	121.861	-0.183	0.228
-367.742	800.000	-0.056	-0.226
-366.727	49.232	-0.096	-0.090
-365.712	20.615	0.157	-0.127
-364.698	-200.000	0.004	0.052
-363.683	-200.000	0.003	0.182
-362.669	-107.786	-0.157	0.034
-361.654	-96.378	0.214	0.057
-360.639	800.000	0.027	-0.099
-359.625	77.587	-0.213	-0.226
-358.610	186.516	0.125	-0.186
-357.596	-53.284	-0.170	0.078
-356.581	-5.743	0.204	-0.139
-355.566	-74.810	-0.218	-0.078
-354.552	-153.952	0.106	0.007
-353.537	800.000	0.041	0.121
-352.523	-154.206	0.300	-0.020
-351.508	-200.000	-0.042	0.328
-350.493	103.253	-0.161	0.189
-349.479	-66.654	0.236	-0.093
-348.464	-37.334	-0.368	0.196
-347.450	-120.373	0.201	-0.034
-346.435	204.638	0.183	0.283
-345.420	42.507	-0.129	-0.117
-344.406	-39.186	-0.251	0.131
-343.391	800.000	0.084	0.296
-342.377	800.000	-0.028	-0.122
-341.362	-200.000	-0.023	0.199
-340.348	538.965	0.131	-0.311
-339.333	-183.227	-0.322	-0.006
-338.318	-56.503	-0.307	0.136
-337.304	132.676	0.037	-0.047
-336.289	800.000	0.078	0.294
-335.275	-57.957	0.187	0.081
-334.260	696.130	0.058	-0.151
-333.245	-200.000	0.179	0.000
-332.231	-174.754	-0.370	-0.010
-331.216	208.548	-0.108	0.168
-330.202	-27.976	0.085	-0.049
-329.187	10.545	-0.248	0.188
-328.172	800.000	-0.041	-0.114
-327.158	164.175	-0.150	0.211
-326.143	-200.000	-0.299	0.001
-325.129	97.195	0.041	0.047
-324.114	-134.196	-0.143	0.018
-323.099	5.733	-0.082	-0.061
-322.085	-149.817	0.134	-0.010
-321.070	800.000	0.145	0.608
-320.056	-200.000	-0.019	-0.143
-319.041	-200.000	0.008	-0.305
-318.026	207.156	-0.071	0.110
-317.012	800.000	0.009	-0.033
-315.997	-200.000	0.008	-0.223
-314.983	54.275	-0.183	-0.175
-313.968	-200.000	-0.006	-0.216
-312.953	59.733	-0.283	-0.279
-311.939	70.942	0.140	-0.144
-310.924	-126.657	0.368	-0.054
-309.910	93.905	-0.234	0.264
-308.895	177.975	0.144	0.209
-307.880	-200.000	0.062	-0.461
-306.866	18.692	0.061	0.048
-305.851	-91.196	-0.305	-0.087
-304.837	-134.907	0.394	0.047
-303.822	-6.117	0.109	-0.074
-302.807	800.000	0.083	-0.336
-301.793	-6.223	-0.141	0.096
-300.778	-139.584	0.278	0.030
-299.764	-12.036	-0.122	0.079
-298.749	81.627	-0.145	0.156
-297.735	115.281	0.136	-0.166
-296.720	-30.488	0.219	-0.124
-295.705	221.658	-0.101	-0.161
-294.691	277.774	-0.142	-0.252
-293.676	-200.000	-0.008	-0.057
-292.662	-144.551	-0.184	-0.017
-291.647	181.038	-0.125	-0.183
-290.632	-152.477	0.204	0.015
-289.618	-200.000	-0.017	-0.206
-288.603	-19.863	0.225	-0.138
-287.589	-118.415	0.127	-0.022
-286.574	299.523	-0.049	0.089
-285.559	-126.236	0.044	0.006
-284.545	24.694	-0.210	0.173
-283.530	212.735	0.101	0.158
-282.516	-122.596	-0.156	0.025
-281.501	800.000	-0.013	-0.047
-280.486	113.476	0.134	0.162
-279.472	-23.501	-0.114	0.068
-278.457	32.234	0.057	-0.049
-277.443	-118.906	-0.188	0.033
-276.428	-22.581	-0.085	0.051
-275.413	-67.773	-0.316	0.123
-274.399	-200.000	0.044	-0.281
-273.384	-2.179	0.131	-0.091
-272.370	-110.143	0.103	-0.021
-271.355	-140.358	0.261	0.027
-270.340	123.207	-0.167	-0.208
-269.326	5.518	0.276	-0.203
-268.311	51.111	0.115	-0.108
-267.297	25.480	0.148	-0.122
-266.282	-114.274	-0.199	-0.038
-265.267	-140.403	0.236	0.024
-264.253	-47.253	0.390	-0.189
-263.238	-200.000	-0.074	0.480
-262.224	-40.136	-0.176	-0.091
-261.209	-143.301	0.061	-0.006
-260.195	-154.407	0.289	-0.019
-259.180	800.000	-0.024	-0.093
-258.165	119.367	-0.221	-0.272
-257.151	-115.644	0.316	-0.059
-256.136	29.503	0.242	-0.205
-255.122	99.058	-0.102	0.117
-254.107	676.634	0.080	0.207
-253.092	-200.000	-0.033	0.147
-252.078	800.000	0.032	-0.129
-251.063	-200.000	0.001	-0.078
-250.049	-82.209	-0.165	0.053
-249.034	-186.861	-0.207	-0.003
-248.019	271.330	0.050	-0.087
-247.005	143.765	-0.104	-0.137
-245.990	411.451	-0.062	-0.131
-244.976	396.213	0.119	-0.248
-243.961	-53.940	-0.388	-0.176
-242.946	-105.258	0.035	0.008
-241.932	583.276	0.072	-0.176
-240.917	-118.744	-0.079	-0.014
-239.903	219.249	-0.107	-0.170
-238.888	-77.949	0.128	-0.044
-237.873	-72.719	-0.231	0.084
-236.859	47.275	-0.188	-0.173
-235.844	-44.031	-0.385	0.192
-234.830	-200.000	0.002	0.077
-233.815	-70.572	-0.249	-0.093
-232.800	-132.965	0.147	0.019
-231.786	114.197	0.183	0.221
-230.771	800.000	-0.044	-0.125
-229.757	72.279	0.274	-0.283
-228.742	115.731	-0.102	0.124
-227.727	800.000	0.057	0.160
-226.713	268.892	0.062	0.108
-225.698	-38.009	-0.102	-0.054
-224.684	-104.634	-0.058	0.013
-223.669	-89.340	-0.072	-0.021
-222.655	-113.016	-0.185	0.036
-221.640	65.277	-0.303	-0.304
-220.625	-81.709	0.041	0.013
-219.611	-110.729	0.163	0.033
-218.596	464.664	-0.127	-0.282
-217.582	512.901	0.078	0.180
-216.567	153.631	0.126	-0.172
-215.552	-14.553	-0.155	0.099
-214.538	108.059	-0.162	0.191
-213.523	96.955	0.115	0.131
-212.509	800.000	-0.063	0.189
-211.494	-200.000	0.044	0.293
-210.479	-200.000	-0.032	0.173
-209.465	77.875	0.031	0.032
-208.450	800.000	0.046	0.160
-207.436	-32.441	-0.158	0.087
-206.421	-132.354	0.394	-0.051
-205.406	209.375	0.152	0.237
-204.392	-119.052	-0.302	-0.052
-203.377	-200.000	0.010	0.046
-202.363	327.582	0.040	0.076
-201.348	-102.517	0.083	-0.020
-200.333	-155.077	0.097	-0.006
-199.319	105.458	-0.080	0.093
-198.304	-176.495	0.050	0.001
-197.290	800.000	-0.018	-0.057
-196.275	-200.000	0.063	-0.321
-195.260	-200.000	0.006	-0.114
-194.246	-200.000	0.032	-0.142
-193.231	88.394	0.221	-0.243
-192.217	-127.149	0.428	-0.062
-191.202	653.894	-0.066	0.169
-190.187	-200.000	-0.026	-0.142
-189.173	-20.503	-0.250	-0.152
-188.158	-103.232	0.102	0.024
-187.144	-200.000	0.000	-0.119
-186.129	-92.021	-0.127	0.036
-185.114	-200.000	-0.023	-0.129
-184.100	195.236	0.069	0.104
-183.085	83.118	0.133	-0.143
-182.071	-126.421	0.037	0.005
-181.056	800.000	0.041	-0.137
-180.042	95.240	-0.041	-0.047
-179.027	661.313	0.169	0.431
-178.012	-158.397	-0.190	0.011
-176.998	416.909	-0.099	-0.209
-175.983	800.000	0.029	0.098
-174.969	-0.999	0.263	0.184
-173.954	-68.643	0.101	-0.039
-172.939	500.541	0.099	-0.227
-171.925	370.388	-0.119	0.238
-170.910	-98.806	0.247	-0.062
-169.896	-36.505	0.301	-0.161
-168.881	-83.694	0.092	-0.029
-167.866	155.313	0.114	0.156
-166.852	-101.577	-0.358	-0.086
-165.837	-200.000	0.016	-0.163
-164.823	466.213	0.050	0.112
-163.808	14.233	0.150	-0.116
-162.793	-60.488	0.256	0.108
-161.779	-52.523	0.084	-0.038
-160.764	309.471	0.138	0.255
-159.750	-195.893	0.098	0.001
-158.735	-51.355	-0.126	-0.058
-157.720	-34.746	-0.119	0.064
-156.706	-118.821	0.097	-0.017
-155.691	233.116	0.148	0.241
-154.677	151.690	0.076	0.102
-153.662	299.841	-0.193	-0.352
-152.647	-49.651	0.324	0.153
-151.633	-15.147	-0.187	0.119
-150.618	800.000	-0.118	0.444
-149.604	100.945	-0.143	-0.164
-148.589	-200.000	-0.038	0.182
-147.574	-59.545	0.256	0.109
-146.560	676.402	0.039	0.101
-145.545	-130.571	0.323	-0.043
-144.531	-63.110	-0.265	0.108
-143.516	-68.562	-0.247	-0.095
-142.502	211.571	-0.134	-0.209
-141.487	-8.721	0.150	-0.099
-140.472	-74.037	-0.292	0.105
-139.458	-24.137	0.136	-0.080
-138.443	-73.246	-0.177	-0.064
-137.429	800.000	0.004	-0.015
-136.414	-18.445	0.375	-0.231
-135.399	-200.000	0.052	0.270
-134.385	-45.192	0.131	0.065
-133.370	-62.539	-0.399	0.164
-132.356	271.431	0.051	0.088
-131.341	-82.054	-0.286	-0.092
-130.326	84.142	-0.078	0.084
-129.312	574.031	-0.097	-0.235
-128.297	-9.012	0.119	0.079
-127.283	-53.244	-0.239	0.108
-126.268	104.735	0.155	-0.180
-125.253	-200.000	0.009	0.289
-124.239	-40.852	0.134	-0.069
-123.224	-56.701	-0.288	0.126
-122.210	-97.085	-0.252	-0.065
-121.195	-47.890	0.339	0.162
