DTS Sentinel unit serial number:	SN413079Multiplexer serial number:	ORYXHardware model number:	OX4-SRSoftware version number:	ORYX F/W v4.00 Oryx Data Collector v3.7.2.0data status	okinstallation	princeton_trtdifferential loss correction	single-endedforward channel	channel 2reverse channel	N/Adate	2019/09/15time	14:15:35forward acquisition time	60.00reverse acquisition time	0.00gamma	496.2192k internal	0.2300k external	0.2300temperature offset calibration	0.9992default loss term (dB/km)	0.3790temperature slope calibration	1.0000multiplexer offset coefficient	1.0000multiplexer slope coefficient	1.0000fibre end	0.00T internal ref (°C)	38.91T ext. ref 1 (°C)	4.95T ext. ref 2 (°C)	36.12length (m)	temperature (°C)	Stokes	anti-Stokes-747.200	-36.398	0.381	0.209
-746.185	-42.671	0.052	-0.027
-745.171	-28.406	0.280	-0.165
-744.156	-192.638	0.170	0.002
-743.142	409.764	-0.083	0.180
-742.127	800.000	-0.072	-0.207
-741.112	-107.518	0.086	0.019
-740.098	-33.145	0.063	-0.036
-739.083	-175.663	-0.154	-0.004
-738.069	-200.000	-0.054	0.329
-737.054	-113.378	-0.195	0.039
-736.039	-37.425	-0.121	-0.066
-735.025	-65.795	0.052	0.021
-734.010	-51.524	-0.236	-0.112
-732.996	295.668	-0.241	-0.451
-731.981	-200.000	0.002	-0.025
-730.966	800.000	-0.031	-0.114
-729.952	-34.705	-0.113	-0.063
-728.937	-105.974	-0.185	0.042
-727.923	-55.963	-0.160	0.073
-726.908	-28.107	-0.125	-0.074
-725.894	-195.121	0.158	-0.001
-724.879	88.329	0.254	-0.287
-723.864	800.000	0.021	0.081
-722.850	73.474	0.055	-0.059
-721.835	-161.646	0.271	-0.014
-720.821	153.775	-0.142	-0.198
-719.806	-45.734	-0.065	-0.033
-718.791	-171.907	-0.284	0.009
-717.777	-7.947	-0.132	-0.091
-716.762	-168.649	0.302	-0.012
-715.748	8.350	0.124	0.095
-714.733	-38.149	-0.028	0.015
-713.718	-90.483	0.331	-0.098
-712.704	222.021	-0.069	0.114
-711.689	77.101	0.209	0.226
-710.675	-87.174	0.306	-0.095
-709.660	-102.820	-0.146	0.035
-708.645	799.423	-0.052	-0.145
-707.631	-200.000	-0.058	0.337
-706.616	204.703	-0.085	-0.134
-705.602	-37.189	-0.097	0.053
-704.587	95.627	0.230	-0.267
-703.572	-200.000	0.059	-0.309
-702.558	38.123	-0.138	-0.125
-701.543	18.840	0.175	-0.143
-700.529	-200.000	-0.002	0.131
-699.514	-73.690	0.552	-0.204
-698.499	800.000	0.094	-0.329
-697.485	800.000	0.067	-0.282
-696.470	529.548	0.048	0.115
-695.456	-149.909	-0.048	0.004
-694.441	67.719	0.136	-0.141
-693.426	-22.378	-0.154	0.095
-692.412	-200.000	-0.004	-0.281
-691.397	-97.605	0.122	0.032
-690.383	-132.234	-0.021	-0.003
-689.368	0.165	0.097	-0.070
-688.354	-120.983	-0.106	-0.018
-687.339	-200.000	-0.019	0.134
-686.324	-145.101	0.139	0.013
-685.310	-200.000	0.023	0.231
-684.295	86.286	-0.065	-0.073
-683.281	141.126	-0.207	-0.279
-682.266	800.000	0.108	-0.345
-681.251	208.641	0.229	0.364
-680.237	640.114	0.135	0.351
-679.222	-140.447	0.244	0.026
-678.208	-186.060	0.233	0.003
-677.193	-72.555	-0.137	0.052
-676.178	-200.000	0.034	-0.312
-675.164	-106.928	0.248	-0.056
-674.149	-132.707	0.131	-0.017
-673.135	-99.260	0.032	-0.008
-672.120	504.140	-0.098	0.232
-671.105	-106.773	-0.326	0.074
-670.091	-112.896	0.017	0.003
-669.076	-9.566	-0.172	-0.117
-668.062	800.000	-0.098	-0.303
-667.047	119.813	0.201	-0.254
-666.032	152.669	0.058	0.080
-665.018	113.076	-0.225	-0.277
-664.003	800.000	0.114	-0.447
-662.989	-115.286	-0.340	0.065
-661.974	-26.501	-0.144	0.086
-660.959	18.331	-0.186	-0.151
-659.945	-176.918	-0.240	-0.006
-658.930	149.080	0.200	-0.275
-657.916	334.933	-0.051	0.101
-656.901	800.000	0.083	-0.305
-655.886	102.329	0.206	0.245
-654.872	18.654	0.137	-0.112
-653.857	-61.203	0.441	0.189
-652.843	149.314	-0.078	0.107
-651.828	-200.000	-0.023	-0.141
-650.814	-113.495	0.119	0.024
-649.799	-24.973	-0.177	0.107
-648.784	-58.855	0.137	0.060
-647.770	-39.210	-0.249	-0.133
-646.755	-59.048	-0.398	-0.174
-645.741	-128.902	-0.190	-0.027
-644.726	122.431	-0.129	0.164
-643.711	36.089	-0.161	-0.144
-642.697	-120.740	-0.133	0.023
-641.682	-56.742	0.118	0.053
-640.668	-121.151	-0.077	0.013
-639.653	160.483	0.074	-0.105
-638.638	45.356	0.056	-0.053
-637.624	228.857	-0.194	0.322
-636.609	-151.780	-0.143	0.011
-635.595	-45.996	0.293	0.147
-634.580	184.118	0.056	-0.084
-633.565	800.000	-0.085	0.279
-632.551	-172.647	-0.339	0.011
-631.536	-25.298	0.024	0.014
-630.522	87.204	0.090	-0.101
-629.507	-200.000	0.006	-0.310
-628.492	443.076	-0.234	-0.521
-627.478	46.934	-0.274	-0.258
-626.463	800.000	-0.036	0.138
-625.449	-36.555	-0.222	0.121
-624.434	116.211	0.173	-0.215
-623.419	-200.000	0.015	0.212
-622.405	52.021	-0.110	0.106
-621.390	-10.759	-0.222	-0.149
-620.376	101.163	0.096	0.113
-619.361	-179.348	-0.162	-0.004
-618.346	513.877	-0.095	-0.225
-617.332	309.210	-0.094	-0.179
-616.317	-138.588	0.075	-0.008
-615.303	118.433	-0.146	0.183
-614.288	800.000	-0.032	-0.117
-613.273	431.847	-0.113	0.248
-612.259	-150.654	0.281	-0.022
-611.244	45.391	0.175	-0.164
-610.230	180.716	-0.051	-0.076
-609.215	-111.995	-0.157	0.032
-608.201	306.306	-0.189	-0.357
-607.186	497.222	0.028	0.066
-606.171	518.182	0.091	-0.217
-605.157	-3.687	0.078	0.055
-604.142	465.673	0.049	-0.111
-603.128	54.684	-0.089	-0.087
-602.113	597.350	-0.103	-0.258
-601.098	57.338	0.200	-0.198
-600.084	-200.000	0.043	0.199
-599.069	-103.992	0.304	0.072
-598.055	-157.529	0.078	0.005
-597.040	185.057	0.148	-0.222
-596.025	-148.445	-0.418	0.035
-595.011	-142.376	0.126	-0.013
-593.996	433.536	-0.062	0.137
-592.982	-7.612	-0.087	-0.060
-591.967	26.575	-0.191	-0.162
-590.952	148.596	-0.184	-0.251
-589.938	-75.280	-0.089	0.032
-588.923	-121.141	-0.169	0.029
-587.909	313.684	0.076	-0.145
-586.894	174.681	-0.129	0.189
-585.879	-75.944	0.186	-0.067
-584.865	-120.491	0.264	0.045
-583.850	13.035	0.087	0.068
-582.836	240.422	0.074	-0.124
-581.821	-176.467	0.107	0.003
-580.806	-32.701	0.107	0.061
-579.792	-200.000	0.053	-0.367
-578.777	44.651	0.207	0.193
-577.763	800.000	-0.029	0.087
-576.748	-200.000	-0.049	-0.392
-575.733	-200.000	-0.027	0.182
-574.719	135.242	0.024	0.031
-573.704	82.723	0.082	0.090
-572.690	424.772	0.071	-0.155
-571.675	-12.897	0.087	0.058
-570.661	60.476	0.137	0.137
-569.646	-78.718	-0.207	-0.072
-568.631	-99.303	-0.259	-0.066
-567.617	-46.029	-0.062	0.031
-566.602	-29.779	0.201	0.116
-565.588	-10.794	0.131	-0.088
-564.573	-157.929	0.145	0.009
-563.558	471.387	0.106	0.241
-562.544	19.750	-0.183	0.149
-561.529	-48.818	-0.140	-0.068
-560.515	62.469	0.127	-0.128
-559.500	46.893	0.074	0.070
-558.485	-170.629	0.176	-0.006
-557.471	-64.919	0.303	0.124
-556.456	34.554	-0.176	-0.156
-555.442	-60.603	0.372	-0.160
-554.427	-104.045	0.151	0.036
-553.412	-186.293	0.033	-0.000
-552.398	-8.093	-0.271	-0.185
-551.383	579.715	-0.069	-0.170
-550.369	-185.984	-0.393	-0.006
-549.354	-0.727	0.063	-0.045
-548.339	56.000	-0.092	-0.090
-547.325	14.977	0.022	-0.017
-546.310	-72.201	0.356	-0.134
-545.296	52.146	-0.168	-0.162
-544.281	144.409	-0.174	0.235
-543.266	-25.718	-0.233	-0.139
-542.252	-200.000	0.078	-0.409
-541.237	111.414	-0.235	0.287
-540.223	-138.750	-0.237	-0.026
-539.208	-120.890	-0.284	0.048
-538.193	40.631	0.019	0.017
-537.179	-200.000	-0.011	-0.256
-536.164	-68.410	0.131	0.051
-535.150	59.420	-0.220	0.220
-534.135	170.382	-0.247	-0.358
-533.121	-54.091	0.085	0.039
-532.106	194.128	0.173	0.265
-531.091	-113.847	-0.047	0.009
-530.077	-47.609	-0.228	-0.112
-529.062	-120.015	0.063	-0.011
-528.048	124.089	0.045	0.057
-527.033	-79.650	-0.176	-0.060
-526.018	-200.000	0.039	-0.308
-525.004	2.446	-0.118	-0.086
-523.989	23.915	-0.255	0.213
-522.975	-200.000	0.023	0.134
-521.960	-58.342	0.306	0.134
-520.945	485.950	0.159	0.365
-519.931	-200.000	0.182	-0.001
-518.916	-90.022	-0.147	0.043
-517.902	-69.206	-0.217	0.084
-516.887	5.959	-0.356	-0.266
-515.872	-200.000	-0.021	-0.144
-514.858	255.707	-0.182	0.316
-513.843	59.214	0.129	0.129
-512.829	-136.314	-0.238	-0.028
-511.814	-37.129	0.247	0.133
-510.799	-5.253	0.205	-0.143
-509.785	-200.000	0.016	0.086
-508.770	-139.367	0.443	-0.048
-507.756	-138.747	-0.173	-0.019
-506.741	-140.098	0.009	0.001
-505.726	-142.339	0.092	0.009
-504.712	-32.259	-0.336	-0.190
-503.697	-63.043	-0.312	0.130
-502.683	-54.984	-0.093	-0.042
-501.668	-152.493	0.204	-0.015
-500.653	-127.699	0.163	-0.024
-499.639	-91.032	0.081	0.023
-498.624	-18.097	-0.294	-0.186
-497.610	-16.145	0.120	0.077
-496.595	-200.000	-0.080	0.467
-495.581	-143.738	0.130	0.012
-494.566	605.894	0.061	-0.153
-493.551	-136.666	0.131	-0.015
-492.537	-200.000	0.003	0.138
-491.522	250.933	0.038	0.065
-490.508	-78.397	-0.265	0.092
-489.493	800.000	-0.038	-0.107
-488.478	35.677	0.227	-0.201
-487.464	-200.000	0.028	0.159
-486.449	-94.738	0.157	-0.043
-485.435	-126.507	-0.203	-0.031
-484.420	-172.327	-0.151	0.005
-483.405	800.000	0.161	-0.460
-482.391	22.958	-0.099	-0.082
-481.376	4.564	0.069	0.051
-480.362	800.000	-0.079	-0.303
-479.347	176.105	0.104	0.152
-478.332	249.621	-0.095	0.162
-477.318	800.000	0.039	0.160
-476.303	475.330	0.083	-0.190
-475.289	183.556	0.198	-0.295
-474.274	-65.685	-0.091	-0.037
-473.259	800.000	0.088	0.257
-472.245	-12.746	-0.243	-0.160
-471.230	-200.000	0.015	0.231
-470.216	-20.011	0.075	0.047
-469.201	125.938	0.033	-0.042
-468.186	17.818	0.073	-0.059
-467.172	3.390	-0.241	-0.177
-466.157	800.000	-0.047	0.191
-465.143	2.245	0.162	-0.118
-464.128	36.446	0.104	-0.092
-463.113	70.759	-0.094	0.098
-462.099	-70.168	0.254	0.097
-461.084	398.152	0.077	-0.163
-460.070	-200.000	0.020	-0.493
-459.055	-83.606	-0.155	0.050
-458.040	206.999	-0.203	0.319
-457.026	-55.493	-0.125	0.057
-456.011	-200.000	-0.032	-0.177
-454.997	-170.991	0.128	-0.004
-453.982	-53.442	0.075	0.034
-452.968	-5.749	0.283	-0.196
-451.953	15.728	-0.066	0.053
-450.938	800.000	0.044	0.148
-449.924	248.472	-0.132	0.226
-448.909	381.895	0.124	0.256
-447.895	-200.000	-0.043	0.293
-446.880	15.693	-0.128	-0.102
-445.865	800.000	-0.080	0.322
-444.851	28.606	0.180	0.154
-443.836	-62.411	0.440	0.184
-442.822	106.236	0.124	-0.148
-441.807	43.571	0.057	0.053
-440.792	-117.119	-0.225	0.041
-439.778	160.957	0.125	0.176
-438.763	-42.607	-0.205	-0.105
-437.749	-108.993	0.124	0.027
-436.734	-200.000	-0.062	-0.362
-435.719	-139.540	0.341	-0.037
-434.705	-38.426	0.357	0.190
-433.690	-200.000	-0.016	-0.325
-432.676	-200.000	0.017	-0.386
-431.661	82.034	-0.145	-0.159
-430.646	-52.042	-0.213	0.100
-429.632	800.000	0.026	-0.081
-428.617	-14.642	-0.035	0.023
-427.603	-2.584	-0.328	0.231
-426.588	-152.497	0.314	-0.023
-425.573	-99.573	0.321	-0.081
-424.559	-200.000	0.027	-0.235
-423.544	-200.000	-0.009	-0.184
-422.530	-200.000	0.038	0.168
-421.515	53.456	-0.067	0.065
-420.500	800.000	0.051	0.180
-419.486	-14.108	-0.289	0.188
-418.471	131.477	0.225	0.291
-417.457	800.000	0.040	0.126
-416.442	92.829	-0.158	0.180
-415.428	-68.027	0.457	0.179
-414.413	-200.000	-0.002	0.036
-413.398	149.401	-0.128	-0.175
-412.384	237.129	-0.142	-0.237
-411.369	61.818	-0.187	0.188
-410.355	22.669	0.175	-0.144
-409.340	800.000	0.047	-0.170
-408.325	-10.483	0.350	0.233
-407.311	265.264	-0.076	0.134
-406.296	-147.678	0.335	0.028
-405.282	572.272	0.133	0.326
-404.267	-92.492	-0.055	-0.016
-403.252	63.626	-0.099	-0.100
-402.238	-105.540	-0.149	-0.034
-401.223	-130.097	0.064	0.009
-400.209	-73.321	-0.137	0.050
-399.194	-200.000	0.001	-0.070
-398.179	9.040	0.073	0.055
-397.165	800.000	-0.034	-0.118
-396.150	-69.695	0.287	0.110
-395.136	-3.950	-0.106	0.074
-394.121	800.000	-0.035	-0.118
-393.106	82.116	0.269	-0.293
-392.092	16.433	-0.116	-0.092
-391.077	800.000	-0.108	0.324
-390.063	182.361	-0.059	0.088
-389.048	-143.503	-0.206	0.020
-388.033	-200.000	-0.009	0.072
-387.019	-105.295	-0.152	0.035
-386.004	777.284	0.096	-0.263
-384.990	66.010	0.235	-0.240
-383.975	219.711	0.101	0.163
-382.960	-108.631	-0.249	-0.054
-381.946	87.437	-0.130	0.145
-380.931	-120.465	0.385	-0.066
-379.917	-76.229	0.191	0.068
-378.902	-200.000	-0.039	-0.264
-377.888	-43.830	-0.150	0.076
-376.873	-200.000	-0.033	0.243
-375.858	-75.957	-0.077	-0.028
-374.844	143.481	-0.124	0.166
-373.829	-81.670	-0.103	-0.034
-372.815	-156.937	-0.297	-0.018
-371.800	-27.311	-0.157	0.092
-370.785	-78.424	-0.364	0.125
-369.771	8.420	0.063	0.048
-368.756	-143.075	0.137	-0.013
-367.742	-51.514	-0.086	0.040
-366.727	-156.125	-0.270	-0.017
-365.712	-200.000	-0.068	-0.322
-364.698	-8.049	0.130	0.088
-363.683	-99.882	0.103	0.026
-362.669	48.750	-0.091	0.086
-361.654	213.510	-0.057	-0.090
-360.639	-96.484	0.099	-0.026
-359.625	-105.663	0.275	-0.063
-358.610	780.193	0.064	-0.175
-357.596	249.250	-0.134	-0.229
-356.581	-136.653	0.070	0.008
-355.566	800.000	-0.085	0.248
-354.552	-63.085	-0.179	-0.074
-353.537	55.581	0.203	0.198
-352.523	-132.046	-0.281	-0.037
-351.508	42.031	-0.146	0.133
-350.493	12.753	0.019	0.015
-349.479	-123.751	-0.074	-0.012
-348.464	-77.213	0.347	-0.121
-347.450	800.000	0.075	0.245
-346.435	60.187	0.046	0.045
-345.420	234.087	0.085	-0.141
-344.406	-61.502	0.042	0.018
-343.391	361.111	0.102	-0.205
-342.377	176.857	-0.092	0.135
-341.362	318.758	0.147	-0.280
-340.348	272.490	0.081	0.143
-339.333	14.719	0.282	0.221
-338.318	403.194	0.111	0.235
-337.304	-25.394	-0.135	-0.080
-336.289	-200.000	0.004	0.169
-335.275	11.746	-0.168	-0.129
-334.260	105.737	-0.043	0.052
-333.245	-194.777	-0.181	-0.001
-332.231	-47.655	0.174	0.085
-331.216	-103.081	-0.165	0.039
-330.202	-200.000	-0.013	-0.215
-329.187	60.549	-0.125	-0.124
-328.172	-16.775	-0.112	0.071
-327.158	-200.000	0.007	-0.154
-326.143	-115.043	-0.323	0.062
-325.129	65.653	-0.081	0.083
-324.114	-87.259	0.137	0.042
-323.099	-148.763	-0.043	0.003
-322.085	100.416	0.084	0.098
-321.070	-83.694	-0.271	0.087
-320.056	55.950	-0.119	0.115
-319.041	-8.402	-0.153	0.103
-318.026	-200.000	-0.012	0.250
-317.012	800.000	0.038	-0.109
-315.997	-200.000	0.023	-0.172
-314.983	-6.276	-0.103	0.071
-313.968	-17.139	-0.048	0.030
-312.953	-39.410	-0.250	0.132
-311.939	-200.000	0.009	-0.135
-310.924	-125.536	0.256	-0.039
-309.910	-62.839	-0.172	-0.071
-308.895	19.504	-0.135	-0.109
-307.880	-200.000	0.214	-0.000
-306.866	221.550	-0.043	0.069
-305.851	523.505	0.179	0.423
-304.837	-113.331	-0.292	-0.058
-303.822	218.971	0.019	-0.031
-302.807	3.206	-0.306	0.223
-301.793	-22.399	-0.143	0.087
-300.778	100.632	0.155	-0.181
-299.764	-200.000	-0.017	0.176
-298.749	-200.000	0.040	0.225
-297.735	150.592	0.238	0.324
-296.720	315.242	0.059	0.111
-295.705	-57.675	0.222	0.098
-294.691	19.302	-0.154	0.124
-293.676	93.261	0.082	0.093
-292.662	196.431	-0.083	0.127
-291.647	-4.338	0.228	0.158
-290.632	-200.000	0.003	0.182
-289.618	-149.176	-0.304	-0.024
-288.603	311.535	-0.057	0.107
-287.589	800.000	0.054	0.175
-286.574	547.844	0.048	-0.116
-285.559	49.279	0.129	0.121
-284.545	223.481	-0.050	0.081
-283.530	93.170	-0.128	-0.145
-282.516	-200.000	-0.028	-0.364
-281.501	-4.260	0.046	0.032
-280.486	-61.498	0.261	-0.110
-279.472	60.256	0.213	0.211
-278.457	-200.000	-0.027	0.226
-277.443	-200.000	0.007	-0.277
-276.428	427.472	0.194	-0.419
-275.413	-200.000	0.006	0.164
-274.399	-106.794	0.123	0.027
-273.384	-71.322	0.249	0.093
-272.370	-119.057	0.269	-0.047
-271.355	-122.442	-0.320	-0.052
-270.340	-50.744	-0.066	-0.031
-269.326	-82.618	0.252	-0.082
-268.311	124.815	-0.070	0.088
-267.297	-200.000	-0.025	-0.180
-266.282	-116.832	-0.176	0.032
-265.267	4.293	0.195	0.143
-264.253	-100.501	-0.199	-0.049
-263.238	243.013	-0.174	-0.291
-262.224	610.734	-0.137	0.342
-261.209	-200.000	0.022	0.237
-260.195	-132.757	0.111	-0.014
-259.180	355.629	0.255	-0.508
-258.165	800.000	0.046	0.130
-257.151	-140.062	-0.199	0.021
-256.136	-48.873	0.168	0.081
-255.122	215.656	-0.262	0.416
-254.107	-143.100	0.349	-0.034
-253.092	-200.000	0.009	-0.060
-252.078	-97.609	-0.398	0.103
-251.063	-69.040	0.022	0.009
-250.049	-38.757	0.108	-0.057
-249.034	-108.059	0.152	-0.033
-248.019	471.035	-0.220	0.496
-247.005	11.040	0.296	0.226
-245.990	-87.924	0.116	-0.035
-244.976	800.000	-0.046	0.128
-243.961	-200.000	-0.010	-0.209
-242.946	236.246	0.111	-0.183
-241.932	74.144	0.205	-0.215
-240.917	80.014	-0.144	-0.155
-239.903	187.876	-0.087	-0.130
-238.888	3.019	0.190	-0.138
-237.873	183.515	-0.087	-0.129
-236.859	128.870	0.172	-0.220
-235.844	12.031	-0.108	0.083
-234.830	46.682	0.141	-0.131
-233.815	365.730	-0.173	0.348
-232.800	-164.506	0.102	-0.005
-231.786	-68.947	0.184	-0.071
-230.771	800.000	-0.102	-0.322
-229.757	-31.762	0.172	-0.096
-228.742	63.183	-0.092	-0.092
-227.727	-200.000	0.009	0.101
-226.713	-200.000	0.008	-0.320
-225.698	-45.215	-0.208	0.103
-224.684	-114.441	0.219	0.042
-223.669	75.660	0.165	-0.174
-222.655	31.455	-0.292	-0.250
-221.640	250.362	0.081	-0.137
-220.625	204.119	0.026	0.040
-219.611	-137.169	-0.383	0.044
-218.596	313.671	0.166	0.311
-217.582	17.183	-0.010	0.008
-216.567	425.826	-0.089	-0.193
-215.552	48.396	0.081	-0.076
-214.538	195.876	0.156	-0.237
-213.523	353.126	0.047	0.093
-212.509	-3.394	0.396	0.276
-211.494	394.357	0.134	0.279
-210.479	800.000	-0.123	0.408
-209.465	-0.864	0.139	0.098
-208.450	-23.316	-0.327	0.197
-207.436	135.277	0.253	-0.328
-206.421	328.977	0.141	0.270
-205.406	800.000	-0.057	-0.171
-204.392	160.647	0.078	-0.109
-203.377	800.000	0.028	-0.082
-202.363	325.302	-0.012	0.023
-201.348	-16.318	-0.346	0.219
-200.333	145.888	-0.143	-0.192
-199.319	92.642	-0.137	-0.154
-198.304	88.790	0.150	0.167
-197.290	534.629	-0.159	0.376
-196.275	-55.380	0.197	0.088
-195.260	-200.000	-0.026	-0.178
-194.246	-145.909	0.442	-0.039
-193.231	-10.961	0.174	-0.115
-192.217	-200.000	-0.005	-0.152
-191.202	-200.000	0.024	0.164
-190.187	-200.000	0.027	0.219
-189.173	91.721	0.074	-0.083
-188.158	800.000	0.041	0.116
-187.144	-109.786	0.071	-0.015
-186.129	-200.000	-0.021	-0.214
-185.114	-37.354	0.272	-0.145
-184.100	-72.664	0.120	-0.044
-183.085	70.309	-0.196	-0.202
-182.071	-43.397	-0.210	-0.106
-181.056	-21.496	-0.073	-0.044
-180.042	20.052	0.324	-0.261
-179.027	425.149	0.143	-0.307
-178.012	177.882	-0.003	0.004
-176.998	12.868	0.195	0.150
-175.983	372.099	-0.051	-0.104
-174.969	-144.266	0.201	-0.019
-173.954	22.823	-0.174	0.143
-172.939	-200.000	0.027	0.411
-171.925	-108.096	0.189	0.041
-170.910	64.165	0.153	0.154
-169.896	-200.000	-0.008	0.163
-168.881	-123.071	-0.222	-0.036
-167.866	-129.656	0.265	-0.036
-166.852	-57.861	0.123	0.053
-165.837	390.662	-0.131	-0.271
-164.823	515.144	0.033	0.076
-163.808	158.547	-0.069	-0.096
-162.793	69.875	0.052	0.054
-161.779	-8.861	0.108	0.072
-160.764	-78.951	0.148	-0.050
-159.750	-57.743	-0.166	-0.072
-158.735	274.212	-0.084	0.147
-157.720	146.773	0.242	0.324
-156.706	-182.736	-0.177	-0.003
-155.691	800.000	-0.048	0.193
-154.677	-8.652	-0.091	0.061
-153.662	-150.556	-0.219	-0.017
-152.647	800.000	-0.152	-0.422
-151.633	-200.000	0.037	-0.294
-150.618	315.335	-0.044	-0.082
-149.604	-175.702	-0.287	0.008
-148.589	310.122	-0.073	0.136
-147.574	173.920	0.121	-0.174
-146.560	-55.843	-0.358	0.159
-145.545	-200.000	0.041	0.252
-144.531	-107.016	-0.304	-0.067
-143.516	800.000	-0.190	-0.543
-142.502	259.403	-0.094	-0.162
-141.487	-100.722	0.284	0.070
-140.472	-200.000	-0.044	-0.217
-139.458	55.046	-0.316	-0.304
-138.443	-5.527	-0.199	-0.136
-137.429	-55.016	-0.194	0.087
-136.414	204.618	-0.099	-0.153
-135.399	764.454	-0.093	0.250
-134.385	-11.986	-0.333	0.217
-133.370	-27.392	-0.220	-0.128
-132.356	443.900	0.161	0.353
-131.341	-88.123	0.172	0.051
-130.326	169.584	0.052	-0.075
-129.312	-97.995	-0.255	0.065
-128.297	-21.622	0.245	-0.149
-127.283	11.860	0.109	-0.084
-126.268	-200.000	-0.025	-0.153
-125.253	110.176	-0.038	0.045
-124.239	-111.994	0.265	-0.053
-123.224	5.156	0.069	0.050
-122.210	-10.033	-0.034	-0.022
-121.195	341.077	-0.123	-0.240
-120.180	441.653	0.017	-0.037
