DTS Sentinel unit serial number:	SN413079Multiplexer serial number:	ORYXHardware model number:	OX4-SRSoftware version number:	ORYX F/W v4.00 Oryx Data Collector v3.7.2.0data status	okinstallation	princeton_trtdifferential loss correction	single-endedforward channel	channel 2reverse channel	N/Adate	2019/09/15time	23:19:34forward acquisition time	60.00reverse acquisition time	0.00gamma	496.2192k internal	0.2335k external	0.2335temperature offset calibration	0.9953default loss term (dB/km)	0.3790temperature slope calibration	1.0000multiplexer offset coefficient	1.0000multiplexer slope coefficient	1.0000fibre end	0.00T internal ref (°C)	28.31T ext. ref 1 (°C)	9.10T ext. ref 2 (°C)	22.02length (m)	temperature (°C)	Stokes	anti-Stokes-747.200	-67.707	-0.363	-0.143
-746.185	800.000	0.009	-0.039
-745.171	134.989	0.161	-0.210
-744.156	195.593	-0.083	0.127
-743.142	800.000	0.069	-0.276
-742.127	-200.000	-0.043	0.239
-741.112	-139.946	0.379	-0.040
-740.098	19.224	-0.234	0.189
-739.083	-200.000	-0.018	0.296
-738.069	30.203	0.205	0.176
-737.054	129.885	0.049	0.063
-736.039	-124.466	-0.242	-0.038
-735.025	-45.507	-0.256	0.127
-734.010	117.840	-0.029	0.036
-732.996	85.703	0.157	-0.173
-731.981	-90.585	0.324	0.094
-730.966	229.810	-0.067	0.110
-729.952	356.430	-0.228	-0.457
-728.937	194.061	-0.005	-0.008
-727.923	565.506	-0.048	0.118
-726.908	156.872	-0.254	-0.352
-725.894	-200.000	0.000	-0.241
-724.879	9.065	-0.198	0.150
-723.864	-200.000	0.007	0.116
-722.850	197.163	-0.138	-0.212
-721.835	484.625	-0.076	-0.173
-720.821	529.301	0.194	-0.459
-719.806	288.628	-0.092	0.168
-718.791	-21.749	-0.239	-0.146
-717.777	-72.196	-0.022	0.008
-716.762	-151.730	-0.381	-0.028
-715.748	158.308	-0.074	-0.103
-714.733	-200.000	-0.008	-0.197
-713.718	8.733	-0.267	-0.202
-712.704	-30.067	0.100	-0.057
-711.689	24.416	0.257	-0.213
-710.675	260.746	0.278	-0.483
-709.660	-142.026	0.338	-0.034
-708.645	-110.984	0.214	0.044
-707.631	131.550	-0.212	0.274
-706.616	-200.000	-0.045	0.353
-705.602	-69.072	0.239	-0.092
-704.587	-200.000	-0.003	-0.166
-703.572	41.399	-0.213	-0.193
-702.558	-170.611	-0.255	-0.009
-701.543	-200.000	-0.049	-0.281
-700.529	-104.715	-0.439	-0.101
-699.514	677.856	-0.044	0.115
-698.499	328.715	0.056	-0.107
-697.485	-200.000	-0.003	-0.149
-696.470	-167.768	-0.345	0.014
-695.456	-103.721	-0.242	-0.057
-694.441	-59.552	0.159	-0.068
-693.426	-43.073	0.297	-0.151
-692.412	-200.000	0.005	0.066
-691.397	800.000	0.044	0.139
-690.383	-17.951	0.033	-0.021
-689.368	-144.625	-0.162	0.015
-688.354	800.000	0.108	-0.329
-687.339	44.756	-0.119	0.110
-686.324	-200.000	0.043	-0.211
-685.310	-138.870	0.117	0.013
-684.295	-200.000	0.008	-0.038
-683.281	-32.996	0.234	-0.130
-682.266	45.530	0.110	0.101
-681.251	32.251	-0.217	-0.188
-680.237	800.000	0.080	0.334
-679.222	-200.000	-0.012	-0.352
-678.208	800.000	-0.050	0.199
-677.193	800.000	0.009	-0.029
-676.178	800.000	-0.016	0.062
-675.164	-18.324	-0.116	-0.073
-674.149	300.551	0.038	-0.070
-673.135	-200.000	-0.032	0.186
-672.120	800.000	-0.076	0.284
-671.105	800.000	0.050	-0.144
-670.091	-9.322	-0.180	-0.121
-669.076	-173.157	0.368	0.011
-668.062	800.000	-0.099	0.299
-667.047	-38.764	0.116	-0.061
-666.032	18.033	0.262	-0.209
-665.018	800.000	-0.055	-0.234
-664.003	20.429	-0.082	-0.067
-662.989	252.307	0.076	-0.130
-661.974	800.000	0.032	-0.141
-660.959	53.424	0.317	0.304
-659.945	9.895	-0.111	0.084
-658.930	-57.425	0.173	-0.076
-657.916	114.482	-0.035	-0.042
-656.901	99.232	0.122	0.141
-655.886	181.984	-0.022	-0.032
-654.872	723.927	-0.079	-0.210
-653.857	10.921	-0.152	0.116
-652.843	-200.000	0.012	-0.220
-651.828	502.382	0.057	0.131
-650.814	43.666	-0.225	0.206
-649.799	209.027	-0.093	0.145
-648.784	-85.504	-0.046	-0.014
-647.770	-50.164	-0.257	-0.122
-646.755	-39.641	-0.169	-0.088
-645.741	-52.046	0.203	-0.094
-644.726	60.131	0.133	-0.131
-643.711	-88.823	0.158	0.047
-642.697	125.258	0.196	-0.247
-641.682	313.884	-0.075	-0.142
-640.668	-18.990	-0.031	0.019
-639.653	-44.602	0.048	0.024
-638.638	16.964	0.331	0.262
-637.624	-16.699	-0.185	-0.117
-636.609	-43.575	-0.090	0.045
-635.595	185.929	0.130	0.193
-634.580	212.600	-0.039	0.062
-633.565	38.201	-0.102	0.091
-632.551	-142.533	-0.219	0.022
-631.536	-45.726	0.126	-0.062
-630.522	-120.329	-0.270	-0.046
-629.507	800.000	-0.056	-0.241
-628.492	-137.211	0.159	0.018
-627.478	-105.625	-0.317	0.072
-626.463	-200.000	-0.029	-0.180
-625.449	19.018	0.080	0.064
-624.434	33.864	-0.214	-0.186
-623.419	69.705	0.383	-0.395
-622.405	-160.262	0.099	0.005
-621.390	185.332	-0.097	-0.144
-620.376	10.080	-0.329	-0.250
-619.361	-200.000	-0.020	-0.199
-618.346	8.062	0.023	-0.018
-617.332	100.625	0.073	0.084
-616.317	-88.553	-0.312	0.093
-615.303	800.000	-0.001	-0.003
-614.288	-46.178	-0.297	-0.146
-613.273	-200.000	0.014	-0.204
-612.259	-37.143	0.338	0.181
-611.244	360.951	-0.100	0.200
-610.230	800.000	0.086	-0.281
-609.215	-200.000	0.020	0.133
-608.201	331.137	0.163	-0.313
-607.186	800.000	-0.054	-0.195
-606.171	15.251	0.251	0.197
-605.157	-200.000	-0.031	-0.160
-604.142	-69.946	-0.372	0.142
-603.128	-183.494	0.154	-0.003
-602.113	-99.507	-0.268	0.067
-601.098	435.238	0.069	0.151
-600.084	800.000	-0.106	0.311
-599.069	-166.542	-0.356	0.015
-598.055	-134.783	-0.049	0.006
-597.040	-200.000	0.030	0.191
-596.025	52.137	-0.091	0.086
-595.011	250.327	-0.142	0.241
-593.996	-200.000	0.010	0.126
-592.982	-200.000	0.041	0.341
-591.967	-70.138	-0.236	0.090
-590.952	42.475	-0.211	0.192
-589.938	-200.000	0.014	0.129
-588.923	-24.897	-0.226	-0.134
-587.909	-2.006	-0.290	-0.204
-586.894	273.915	0.089	0.157
-585.879	-200.000	-0.005	-0.318
-584.865	341.515	0.117	-0.229
-583.850	-200.000	-0.022	0.368
-582.836	-200.000	-0.074	-0.394
-581.821	-200.000	-0.022	-0.154
-580.806	50.108	-0.146	0.137
-579.792	-200.000	-0.050	-0.275
-578.777	-32.702	-0.322	0.179
-577.763	-111.739	0.174	-0.035
-576.748	-152.786	0.431	-0.031
-575.733	24.398	0.336	-0.277
-574.719	25.158	0.013	0.011
-573.704	-200.000	0.044	-0.216
-572.690	-84.271	-0.182	0.057
-571.675	-37.291	0.041	-0.022
-570.661	800.000	-0.073	0.216
-569.646	-31.519	0.026	0.014
-568.631	140.921	0.076	-0.100
-567.617	29.024	-0.072	-0.061
-566.602	-16.482	-0.155	0.098
-565.588	189.864	0.154	0.230
-564.573	38.648	0.218	-0.194
-563.558	-75.247	0.252	0.090
-562.544	4.327	0.374	0.274
-561.529	96.236	0.077	0.088
-560.515	-144.639	0.203	-0.019
-559.500	115.740	-0.168	-0.205
-558.485	-200.000	0.048	-0.593
-557.471	-93.632	-0.457	0.126
-556.456	-200.000	0.055	0.517
-555.442	172.406	0.042	0.060
-554.427	90.941	-0.250	-0.279
-553.412	-122.728	0.188	-0.030
-552.398	9.091	0.106	0.080
-551.383	-24.541	-0.144	0.085
-550.369	84.824	0.102	-0.112
-549.354	74.063	0.130	-0.136
-548.339	-138.680	0.124	0.014
-547.325	130.021	-0.158	-0.202
-546.310	-199.993	-0.362	0.002
-545.296	117.078	-0.286	0.350
-544.281	245.572	0.143	-0.239
-543.266	-161.215	0.097	-0.005
-542.252	-59.393	0.030	0.013
-541.237	98.746	-0.145	-0.167
-540.223	-200.000	0.008	-0.048
-539.208	800.000	0.057	-0.191
-538.193	-21.126	-0.217	0.132
-537.179	-118.559	0.060	-0.011
-536.164	-54.918	-0.223	0.100
-535.150	205.827	-0.107	0.166
-534.135	90.580	0.158	-0.177
-533.121	377.189	0.119	0.242
-532.106	571.452	-0.070	0.169
-531.091	-101.365	0.276	0.067
-530.077	-127.832	0.126	-0.018
-529.062	64.898	-0.210	-0.212
-528.048	-200.000	0.036	-0.318
-527.033	450.173	-0.073	0.160
-526.018	308.437	-0.289	0.537
-525.004	-200.000	-0.015	-0.168
-523.989	135.562	0.044	-0.057
-522.975	800.000	-0.065	-0.212
-521.960	-42.107	-0.079	-0.040
-520.945	-133.353	0.202	0.025
-519.931	69.360	0.010	-0.010
-518.916	39.257	-0.040	0.036
-517.902	800.000	0.049	-0.188
-516.887	57.257	0.087	-0.084
-515.872	-48.405	-0.235	0.113
-514.858	-63.350	-0.132	-0.054
-513.843	-114.943	0.140	0.027
-512.829	447.639	0.003	0.006
-511.814	63.387	0.222	-0.222
-510.799	375.445	0.066	-0.133
-509.785	800.000	0.059	0.206
-508.770	158.719	0.075	0.103
-507.756	-133.524	0.260	-0.032
-506.741	340.398	-0.066	-0.128
-505.726	277.382	-0.136	0.241
-504.712	54.948	-0.098	-0.095
-503.697	-109.103	-0.332	-0.070
-502.683	-200.000	0.016	-0.132
-501.668	-105.127	-0.177	0.040
-500.653	36.548	-0.147	0.129
-499.639	0.763	0.098	-0.070
-498.624	-78.267	0.149	0.051
-497.610	215.394	0.074	-0.118
-496.595	-31.690	-0.291	0.162
-495.581	121.328	-0.297	-0.368
-494.566	-87.573	0.301	0.090
-493.551	-135.154	-0.422	0.050
-492.537	-200.000	0.039	0.225
-491.522	800.000	0.048	-0.150
-490.508	-200.000	-0.026	0.120
-489.493	285.011	-0.117	0.210
-488.478	667.681	-0.107	-0.274
-487.464	215.339	-0.064	0.102
-486.449	-86.578	-0.289	-0.088
-485.435	-7.469	0.129	0.087
-484.420	-51.628	-0.203	-0.094
-483.405	800.000	0.109	0.365
-482.391	-121.910	-0.411	-0.067
-481.376	12.778	-0.084	0.064
-480.362	-138.058	0.400	0.044
-479.347	-200.000	0.016	0.248
-478.332	-99.562	0.332	0.083
-477.318	-95.914	-0.183	-0.048
-476.303	-85.938	0.213	-0.066
-475.289	537.958	-0.078	0.183
-474.274	-200.000	0.075	-0.327
-473.259	-118.609	0.144	-0.025
-472.245	-110.037	0.258	-0.054
-471.230	-122.100	-0.105	-0.017
-470.216	-60.106	-0.129	0.055
-469.201	209.802	-0.139	0.217
-468.186	-39.641	0.433	-0.225
-467.172	57.185	0.045	-0.044
-466.157	-97.648	-0.212	-0.055
-465.143	-49.627	-0.216	-0.102
-464.128	225.219	-0.106	-0.170
-463.113	195.491	-0.165	-0.249
-462.099	-130.256	-0.077	0.010
-461.084	231.251	0.126	-0.205
-460.070	334.095	0.135	0.260
-459.055	-134.767	-0.338	-0.041
-458.040	-200.000	0.019	0.214
-457.026	-129.238	0.248	0.034
-456.011	800.000	-0.124	0.491
-454.997	-83.195	-0.259	0.083
-453.982	72.853	0.286	0.297
-452.968	-63.662	0.263	0.107
-451.953	566.208	0.037	0.089
-450.938	581.924	-0.160	-0.391
-449.924	-33.794	0.205	0.112
-448.909	-93.482	-0.509	-0.140
-447.895	-200.000	0.036	-0.185
-446.880	-94.868	0.115	0.031
-445.865	-182.447	0.257	-0.005
-444.851	-41.354	-0.177	0.090
-443.836	-200.000	-0.003	-0.109
-442.822	-200.000	0.008	0.224
-441.807	42.824	0.198	-0.179
-440.792	244.341	-0.158	0.264
-439.778	-195.672	-0.078	-0.001
-438.763	34.403	0.194	0.168
-437.749	-200.000	0.013	0.087
-436.734	-98.261	0.172	0.044
-435.719	-24.745	-0.249	-0.147
-434.705	-55.286	-0.124	0.055
-433.690	41.021	0.079	-0.071
-432.676	271.607	-0.098	0.172
-431.661	-200.000	0.009	0.108
-430.646	192.973	-0.215	0.322
-429.632	-30.532	0.162	0.091
-428.617	-53.404	0.148	0.067
-427.603	91.353	-0.159	0.177
-426.588	800.000	0.055	-0.223
-425.573	-200.000	0.026	0.115
-424.559	-8.062	-0.545	0.364
-423.544	-4.893	0.232	-0.158
-422.530	-200.000	-0.002	-0.042
-421.515	-108.710	0.389	0.083
-420.500	181.735	0.239	-0.350
-419.486	-200.000	0.009	0.292
-418.471	-20.235	0.349	-0.213
-417.457	-200.000	0.299	-0.001
-416.442	-200.000	0.039	0.262
-415.428	800.000	-0.016	0.047
-414.413	-149.549	0.167	0.013
-413.398	800.000	0.073	-0.297
-412.384	-94.612	0.414	-0.112
-411.369	33.530	-0.070	0.060
-410.355	-200.000	0.008	0.242
-409.340	427.987	-0.170	-0.364
-408.325	44.971	-0.283	0.258
-407.311	-112.177	-0.261	0.052
-406.296	-48.107	0.208	0.100
-405.282	-200.000	-0.030	0.172
-404.267	-29.183	0.121	0.069
-403.252	-200.000	0.034	-0.188
-402.238	-0.068	0.170	0.120
-401.223	-200.000	0.034	0.167
-400.209	4.553	-0.444	-0.323
-399.194	-200.000	-0.012	-0.133
-398.179	-141.549	0.279	-0.028
-397.165	-6.033	0.158	0.107
-396.150	-142.110	0.200	-0.020
-395.136	39.778	-0.203	0.180
-394.121	448.493	-0.081	0.176
-393.106	800.000	-0.056	0.189
-392.092	-55.636	-0.173	-0.077
-391.077	-116.073	-0.326	-0.060
-390.063	-13.374	0.314	-0.202
-389.048	-28.621	-0.051	0.029
-388.033	587.999	0.009	-0.022
-387.019	247.164	-0.152	-0.253
-386.004	-148.493	0.304	0.025
-384.990	-200.000	-0.004	0.307
-383.975	-200.000	-0.020	-0.131
-382.960	-4.884	-0.363	-0.248
-381.946	-185.540	-0.068	-0.001
-380.931	36.788	0.187	-0.164
-379.917	-80.243	0.063	-0.021
-378.902	77.825	-0.057	-0.060
-377.888	153.931	-0.086	-0.117
-376.873	232.274	0.255	0.415
-375.858	-57.436	0.168	0.073
-374.844	-20.729	-0.129	0.079
-373.829	-89.361	0.358	0.104
-372.815	-152.611	0.270	-0.019
-371.800	-93.383	-0.491	-0.135
-370.785	399.137	0.189	-0.393
-369.771	-108.553	0.422	-0.090
-368.756	-68.312	0.124	-0.048
-367.742	135.481	-0.066	0.085
-366.727	566.094	0.162	0.388
-365.712	112.173	0.143	-0.171
-364.698	800.000	-0.093	-0.296
-363.683	-23.402	0.090	-0.053
-362.669	-34.129	0.245	0.133
-361.654	800.000	0.052	-0.185
-360.639	-155.718	-0.050	0.003
-359.625	650.080	0.092	0.232
-358.610	37.278	-0.205	0.180
-357.596	40.848	-0.130	0.116
-356.581	-73.725	-0.150	0.054
-355.566	-200.000	0.031	0.217
-354.552	-111.950	0.173	-0.035
-353.537	-200.000	-0.032	0.189
-352.523	800.000	0.044	-0.132
-351.508	-41.959	-0.099	-0.050
-350.493	-99.290	-0.061	-0.015
-349.479	-145.494	0.312	0.028
-348.464	47.132	0.215	0.198
-347.450	-48.097	-0.013	-0.006
-346.435	551.905	-0.226	-0.537
-345.420	-200.000	0.074	-0.389
-344.406	-200.000	-0.005	0.242
-343.391	800.000	0.100	-0.346
-342.377	475.340	-0.135	-0.301
-341.362	137.744	0.109	-0.141
-340.348	146.699	0.164	0.217
-339.333	521.095	0.073	0.170
-338.318	-86.362	-0.117	0.035
-337.304	62.823	0.059	-0.059
-336.289	725.192	0.157	-0.414
-335.275	-200.000	0.000	-0.007
-334.260	-200.000	0.009	0.519
-333.245	-48.438	-0.163	0.077
-332.231	-179.367	-0.461	-0.010
-331.216	159.258	0.144	0.197
-330.202	-126.473	0.271	-0.040
-329.187	16.011	0.170	0.132
-328.172	-130.454	-0.298	0.040
-327.158	-129.152	-0.189	0.026
-326.143	-111.379	0.167	0.034
-325.129	-28.516	-0.064	0.037
-324.114	800.000	-0.058	-0.168
-323.099	305.811	0.093	0.172
-322.085	13.107	0.039	0.030
-321.070	-123.041	-0.402	0.064
-320.056	-93.675	0.160	-0.044
-319.041	-200.000	0.054	-0.242
-318.026	-103.357	-0.398	-0.093
-317.012	32.267	-0.162	-0.138
-315.997	194.599	0.264	0.395
-314.983	16.417	0.302	0.236
-313.968	-106.624	-0.072	-0.016
-312.953	48.317	0.059	0.055
-311.939	527.124	-0.059	-0.136
-310.924	373.496	-0.168	-0.337
-309.910	-200.000	0.016	-0.119
-308.895	28.356	0.144	-0.120
-307.880	800.000	-0.017	-0.071
-306.866	12.590	0.138	-0.105
-305.851	-200.000	-0.002	-0.109
-304.837	84.877	-0.224	-0.243
-303.822	-200.000	-0.003	0.201
-302.807	-200.000	0.049	0.299
-301.793	-29.322	-0.374	-0.211
-300.778	-83.438	0.107	0.034
-299.764	65.614	0.136	0.136
-298.749	56.757	0.177	-0.170
-297.735	-47.591	0.373	0.179
-296.720	281.493	0.058	-0.102
-295.705	-93.959	-0.405	0.110
-294.691	800.000	0.070	0.198
-293.676	480.245	-0.047	-0.105
-292.662	137.571	0.092	-0.119
-291.647	-71.778	-0.120	-0.044
-290.632	507.513	-0.159	-0.364
-289.618	131.022	-0.033	-0.042
-288.603	800.000	0.043	0.119
-287.589	-200.000	-0.022	-0.144
-286.574	96.788	-0.050	-0.057
-285.559	-200.000	0.022	0.186
-284.545	392.936	0.151	-0.310
-283.530	412.310	-0.200	0.420
-282.516	244.596	0.058	-0.097
-281.501	-19.272	-0.121	0.074
-280.486	712.933	0.097	-0.252
-279.472	800.000	0.065	-0.208
-278.457	155.580	-0.057	0.078
-277.443	414.112	0.081	0.170
-276.428	35.011	-0.222	-0.192
-275.413	115.461	-0.100	-0.120
-274.399	-10.573	-0.246	-0.160
-273.384	-200.000	-0.073	0.341
-272.370	-52.364	-0.269	0.123
-271.355	-90.753	-0.066	-0.019
-270.340	106.360	-0.116	-0.136
-269.326	552.937	-0.139	0.329
-268.311	252.532	-0.210	0.353
-267.297	-194.651	0.157	0.001
-266.282	-141.437	-0.281	0.028
-265.267	-129.795	0.081	0.011
-264.253	-1.842	0.276	0.191
-263.238	38.134	0.186	0.163
-262.224	-126.998	0.185	0.027
-261.209	671.804	-0.026	0.066
-260.195	-200.000	-0.021	-0.173
-259.180	188.072	-0.127	0.187
-258.165	-200.000	0.007	0.195
-257.151	800.000	-0.061	0.186
-256.136	477.189	0.169	-0.377
-255.122	-200.000	0.009	0.131
-254.107	170.634	-0.062	-0.087
-253.092	665.256	0.046	0.117
-252.078	-136.177	0.105	-0.012
-251.063	-140.289	-0.332	-0.034
-250.049	-56.118	-0.319	-0.140
-249.034	-22.394	-0.257	-0.153
-248.019	-62.358	0.112	0.046
-247.005	800.000	-0.049	0.187
-245.990	434.171	0.134	0.286
-244.976	-200.000	0.043	0.253
-243.961	505.194	0.164	-0.375
-242.946	-200.000	0.031	-0.429
-241.932	-200.000	0.012	0.198
-240.917	34.032	-0.126	-0.108
-239.903	-98.489	-0.192	-0.048
-238.888	290.081	0.126	0.226
-237.873	-112.129	0.515	0.102
-236.859	68.243	0.212	-0.214
-235.844	800.000	0.052	-0.193
-234.830	800.000	0.057	-0.234
-233.815	-48.411	-0.231	-0.109
-232.800	-82.672	0.354	-0.113
-231.786	-114.452	0.236	0.045
-230.771	81.450	0.097	-0.104
-229.757	222.245	0.111	0.176
-228.742	-141.172	-0.241	0.024
-227.727	-7.883	-0.196	-0.130
-226.713	78.206	0.197	-0.207
-225.698	-62.783	0.237	-0.097
-224.684	571.785	0.109	-0.260
-223.669	-62.737	-0.228	0.093
-222.655	-200.000	-0.015	0.519
-221.640	-136.652	-0.157	0.018
-220.625	47.184	-0.227	0.208
-219.611	-46.167	0.497	0.241
-218.596	166.231	-0.100	-0.140
-217.582	-98.592	0.330	0.083
-216.567	-41.747	-0.244	0.123
-215.552	-111.339	-0.239	0.048
-214.538	-89.236	-0.158	-0.046
-213.523	-200.000	-0.035	0.333
-212.509	-126.808	0.100	0.015
-211.494	800.000	0.059	0.217
-210.479	192.010	-0.168	-0.249
-209.465	-94.352	0.369	0.099
-208.450	-110.130	0.197	0.040
-207.436	171.087	-0.062	0.087
-206.421	301.627	0.141	-0.256
-205.406	-133.237	-0.371	-0.046
-204.392	-200.000	0.005	0.176
-203.377	-75.128	-0.098	0.035
-202.363	-71.249	0.098	-0.036
-201.348	750.761	-0.094	-0.249
-200.333	-200.000	0.116	-0.528
-199.319	-193.168	-0.189	0.002
-198.304	540.054	0.006	-0.014
-197.290	-125.480	0.126	-0.019
-196.275	-164.130	0.003	-0.000
-195.260	407.124	0.084	0.174
-194.246	-121.107	0.152	-0.025
-193.231	-11.641	0.139	0.090
-192.217	60.462	-0.166	-0.162
-191.202	375.130	-0.096	-0.192
-190.187	-107.749	0.211	-0.045
-189.173	114.266	-0.080	0.096
-188.158	42.353	-0.115	-0.103
-187.144	-54.548	-0.342	-0.152
-186.129	-125.917	0.074	-0.011
-185.114	-7.325	0.213	0.142
-184.100	252.328	-0.014	0.024
-183.085	384.915	0.077	-0.156
-182.071	-20.892	0.104	-0.063
-181.056	417.514	-0.059	-0.124
-180.042	67.758	0.116	-0.117
-179.027	-142.594	-0.236	-0.023
-178.012	-97.687	0.182	0.046
-176.998	-57.672	0.240	-0.103
-175.983	688.213	0.078	0.200
-174.969	800.000	0.030	-0.100
-173.954	372.396	0.158	0.315
-172.939	-200.000	0.005	0.047
-171.925	163.902	-0.078	0.107
-170.910	201.562	0.142	0.215
-169.896	-200.000	-0.019	0.113
-168.881	139.414	0.038	0.050
-167.866	800.000	-0.034	-0.128
-166.852	-179.785	-0.267	0.006
-165.837	-130.890	0.295	0.039
-164.823	112.948	-0.101	-0.120
-163.808	176.052	0.117	-0.167
-162.793	-200.000	-0.010	0.046
-161.779	800.000	-0.052	-0.195
-160.764	91.538	-0.131	0.144
-159.750	398.338	0.077	0.159
-158.735	-200.000	0.032	-0.149
-157.720	134.520	0.185	0.236
-156.706	-30.965	0.315	0.175
-155.691	-142.859	-0.209	0.020
-154.677	662.882	0.086	-0.219
-153.662	800.000	0.029	-0.082
-152.647	800.000	0.047	0.137
-151.633	-161.207	0.073	0.004
-150.618	-53.699	0.165	-0.074
-149.604	800.000	0.020	-0.073
-148.589	800.000	-0.054	0.182
-147.574	-164.695	0.100	-0.004
-146.560	-7.027	-0.329	0.219
-145.545	62.347	0.492	0.482
-144.531	90.769	-0.119	-0.131
-143.516	213.962	0.053	0.082
-142.502	-42.698	-0.367	-0.183
-141.487	387.371	-0.131	0.265
-140.472	800.000	0.018	-0.060
-139.458	-91.419	0.383	0.107
-138.443	-6.343	0.147	0.098
-137.429	-200.000	0.040	0.276
-136.414	-153.272	-0.227	-0.016
-135.399	-116.750	0.162	0.029
-134.385	-182.498	-0.123	-0.002
-133.370	65.592	-0.142	0.141
-132.356	14.726	0.024	-0.019
-131.341	800.000	0.069	-0.252
-130.326	-83.901	0.255	0.080
-129.312	116.522	0.200	0.240
-128.297	35.586	0.160	0.138
-127.283	-165.524	-0.268	0.011
-126.268	25.919	0.259	0.211
-125.253	-32.272	0.223	0.122
-124.239	-69.497	-0.292	-0.110
-123.224	524.972	0.152	0.351
-122.210	172.712	-0.094	-0.133
-121.195	800.000	-0.122	0.369
