DTS Sentinel unit serial number:	SN413079Multiplexer serial number:	ORYXHardware model number:	OX4-SRSoftware version number:	ORYX F/W v4.00 Oryx Data Collector v3.7.2.0data status	okinstallation	princeton_trtdifferential loss correction	single-endedforward channel	channel 2reverse channel	N/Adate	2019/09/15time	21:15:35forward acquisition time	60.00reverse acquisition time	0.00gamma	496.2192k internal	0.2333k external	0.2333temperature offset calibration	0.9940default loss term (dB/km)	0.3790temperature slope calibration	1.0000multiplexer offset coefficient	1.0000multiplexer slope coefficient	1.0000fibre end	0.00T internal ref (°C)	31.20T ext. ref 1 (°C)	8.17T ext. ref 2 (°C)	24.18length (m)	temperature (°C)	Stokes	anti-Stokes-747.200	28.672	-0.077	0.065
-746.185	94.511	0.251	0.287
-745.171	-143.088	0.132	0.013
-744.156	530.044	-0.055	0.130
-743.142	-200.000	-0.032	0.155
-742.127	-152.532	-0.187	0.013
-741.112	400.930	-0.094	0.197
-740.098	-200.000	0.033	0.244
-739.083	460.740	0.065	-0.146
-738.069	199.469	-0.108	0.166
-737.054	-95.129	-0.231	-0.063
-736.039	429.845	-0.048	0.105
-735.025	800.000	0.053	-0.163
-734.010	-90.309	0.094	-0.028
-732.996	-109.108	-0.514	-0.110
-731.981	-21.982	-0.114	0.070
-730.966	-116.329	-0.146	-0.027
-729.952	0.459	0.215	0.154
-728.937	70.731	-0.167	0.174
-727.923	238.515	-0.124	0.208
-726.908	800.000	-0.085	-0.280
-725.894	800.000	0.035	-0.132
-724.879	-181.512	-0.319	0.006
-723.864	-32.820	-0.150	0.084
-722.850	236.145	-0.167	-0.278
-721.835	800.000	-0.020	-0.085
-720.821	-120.424	-0.250	-0.043
-719.806	-200.000	0.015	-0.131
-718.791	444.318	-0.088	0.193
-717.777	800.000	-0.046	-0.128
-716.762	800.000	0.060	0.194
-715.748	-130.031	-0.265	-0.036
-714.733	-57.451	0.130	0.057
-713.718	-111.676	0.177	-0.036
-712.704	-12.676	0.135	0.088
-711.689	14.954	0.264	-0.207
-710.675	-52.399	0.111	-0.051
-709.660	506.360	0.059	-0.138
-708.645	-70.357	-0.172	0.066
-707.631	-145.973	-0.149	-0.013
-706.616	211.595	-0.075	0.119
-705.602	-63.984	0.249	-0.102
-704.587	-200.000	-0.008	-0.065
-703.572	-16.270	0.060	0.039
-702.558	173.637	0.055	-0.080
-701.543	-103.721	-0.171	-0.040
-700.529	-8.830	-0.039	-0.026
-699.514	-95.968	0.238	0.064
-698.499	-103.684	-0.092	0.022
-697.485	800.000	-0.058	-0.167
-696.470	355.821	-0.147	-0.293
-695.456	-62.044	-0.015	-0.006
-694.441	199.148	0.131	-0.201
-693.426	-200.000	-0.041	0.248
-692.412	-200.000	0.024	-0.310
-691.397	121.880	-0.148	-0.185
-690.383	-42.715	0.333	0.170
-689.368	-200.000	-0.043	0.250
-688.354	430.661	-0.073	-0.158
-687.339	-137.209	0.308	-0.035
-686.324	-200.000	-0.010	-0.265
-685.310	-125.702	0.255	-0.039
-684.295	-56.314	-0.065	-0.029
-683.281	-200.000	-0.040	0.183
-682.266	-114.101	0.174	0.034
-681.251	-83.764	-0.420	-0.134
-680.237	-200.000	-0.019	-0.213
-679.222	-48.918	-0.239	-0.115
-678.208	761.397	-0.041	-0.111
-677.193	-87.549	0.243	-0.074
-676.178	-79.264	0.404	0.137
-675.164	-200.000	0.067	-0.320
-674.149	-79.180	-0.176	-0.060
-673.135	-75.442	0.053	0.019
-672.120	-15.285	0.176	-0.113
-671.105	-117.712	-0.050	-0.009
-670.091	-161.190	0.275	-0.014
-669.076	800.000	-0.038	-0.149
-668.062	256.688	0.101	-0.174
-667.047	34.828	0.064	-0.056
-666.032	86.828	0.076	-0.084
-665.018	-17.938	-0.017	-0.011
-664.003	20.949	-0.054	-0.044
-662.989	156.581	-0.047	0.065
-661.974	-104.546	0.232	-0.054
-660.959	-141.710	-0.174	-0.018
-659.945	-73.336	-0.284	0.104
-658.930	-200.000	0.024	-0.161
-657.916	-93.991	0.206	-0.057
-656.901	-200.000	-0.063	-0.371
-655.886	677.025	0.070	-0.182
-654.872	-200.000	0.022	0.175
-653.857	463.212	0.118	0.263
-652.843	56.658	-0.289	0.282
-651.828	-106.330	0.323	-0.073
-650.814	800.000	-0.116	0.470
-649.799	-36.280	-0.316	-0.171
-648.784	6.565	-0.165	0.123
-647.770	-200.000	0.016	0.239
-646.755	-31.901	0.195	0.109
-645.741	388.570	-0.117	-0.243
-644.726	-200.000	-0.006	0.081
-643.711	78.107	-0.253	-0.270
-642.697	-200.000	0.011	-0.279
-641.682	267.040	0.097	-0.170
-640.668	-200.000	0.032	-0.187
-639.653	298.414	-0.191	-0.352
-638.638	800.000	-0.056	-0.205
-637.624	-92.683	-0.369	-0.104
-636.609	-137.048	0.134	-0.015
-635.595	86.962	0.114	-0.126
-634.580	109.074	-0.109	-0.131
-633.565	-200.000	-0.007	-0.186
-632.551	-200.000	0.009	-0.062
-631.536	-22.591	0.096	-0.058
-630.522	187.776	-0.096	-0.144
-629.507	22.619	0.176	-0.144
-628.492	387.649	0.159	0.329
-627.478	-200.000	0.043	-0.270
-626.463	-33.855	0.216	0.119
-625.449	71.567	0.350	-0.364
-624.434	-200.000	0.019	-0.204
-623.419	134.519	0.145	0.188
-622.405	-36.738	-0.084	0.045
-621.390	-146.619	0.246	-0.021
-620.376	57.730	-0.198	-0.194
-619.361	800.000	0.052	-0.188
-618.346	63.462	-0.287	0.288
-617.332	391.810	-0.149	-0.310
-616.317	65.009	0.322	-0.325
-615.303	-200.000	0.014	-0.174
-614.288	784.258	0.029	-0.081
-613.273	318.414	0.186	-0.352
-612.259	-200.000	0.018	-0.093
-611.244	212.505	-0.118	0.186
-610.230	-148.888	-0.423	0.034
-609.215	81.976	0.063	-0.068
-608.201	469.769	0.050	0.112
-607.186	-59.190	-0.108	-0.046
-606.171	144.834	-0.013	-0.017
-605.157	680.046	0.146	0.381
-604.142	-1.795	-0.187	-0.131
-603.128	-155.479	0.069	-0.004
-602.113	-19.971	0.265	-0.164
-601.098	298.037	-0.131	0.240
-600.084	-21.361	0.376	0.230
-599.069	12.163	0.054	-0.042
-598.055	-200.000	-0.069	-0.344
-597.040	-200.000	0.050	-0.223
-596.025	-87.162	-0.203	-0.062
-595.011	-200.000	-0.009	0.045
-593.996	-151.863	0.275	0.020
-592.982	800.000	-0.020	0.055
-591.967	-165.062	-0.286	0.013
-590.952	-44.634	0.177	-0.089
-589.938	800.000	-0.038	0.133
-588.923	58.878	-0.256	-0.251
-587.909	-200.000	-0.028	-0.255
-586.894	157.729	0.162	-0.225
-585.879	-109.235	-0.142	-0.030
-584.865	240.940	-0.169	0.282
-583.850	-9.365	-0.071	0.047
-582.836	-200.000	-0.006	0.188
-581.821	144.650	0.246	0.329
-580.806	-88.290	-0.187	-0.056
-579.792	-200.000	-0.039	-0.275
-578.777	800.000	-0.104	-0.304
-577.763	800.000	0.039	-0.130
-576.748	-3.874	-0.098	0.068
-575.733	125.864	-0.232	-0.293
-574.719	12.001	-0.194	0.149
-573.704	480.118	-0.110	0.248
-572.690	136.033	0.023	0.029
-571.675	377.096	-0.098	-0.200
-570.661	-57.140	0.215	0.095
-569.646	136.263	-0.123	0.160
-568.631	-75.513	0.296	0.105
-567.617	800.000	0.061	-0.236
-566.602	800.000	0.017	-0.061
-565.588	286.355	0.249	-0.450
-564.573	61.804	0.140	0.139
-563.558	-0.580	-0.190	-0.134
-562.544	-45.421	-0.364	-0.180
-561.529	82.324	0.122	0.132
-560.515	151.587	-0.067	0.091
-559.500	639.846	-0.064	0.163
-558.485	125.305	-0.067	0.085
-557.471	800.000	0.025	-0.073
-556.456	198.952	0.199	-0.305
-555.442	1.112	0.032	-0.023
-554.427	-46.015	-0.250	0.123
-553.412	7.025	0.343	-0.255
-552.398	412.290	-0.100	-0.212
-551.383	491.250	-0.191	-0.436
-550.369	-2.318	0.102	0.072
-549.354	-35.853	-0.118	-0.064
-548.339	-49.962	-0.536	0.254
-547.325	-200.000	-0.069	0.561
-546.310	53.352	-0.279	-0.267
-545.296	250.304	0.133	0.226
-544.281	73.837	0.291	-0.304
-543.266	-200.000	0.009	0.132
-542.252	-151.996	-0.280	0.020
-541.237	-54.025	-0.170	-0.077
-540.223	170.821	0.117	-0.167
-539.208	161.236	-0.056	0.078
-538.193	-200.000	0.023	0.104
-537.179	-18.888	0.091	0.057
-536.164	55.304	-0.159	0.153
-535.150	-200.000	-0.018	0.205
-534.135	800.000	-0.054	0.162
-533.121	435.135	-0.118	0.255
-532.106	-147.302	-0.202	0.017
-531.091	800.000	-0.038	-0.118
-530.077	564.433	-0.100	-0.240
-529.062	593.262	0.035	-0.087
-528.048	400.788	-0.075	0.156
-527.033	12.820	0.177	-0.136
-526.018	-66.449	-0.105	0.042
-525.004	-168.906	-0.589	0.022
-523.989	-24.652	0.047	0.028
-522.975	-89.646	0.342	0.100
-521.960	193.768	0.109	0.164
-520.945	26.675	0.211	-0.176
-519.931	-68.981	0.236	-0.091
-518.916	-117.832	0.055	-0.010
-517.902	90.001	-0.063	0.070
-516.887	-200.000	-0.100	-0.450
-515.872	-12.711	0.166	-0.108
-514.858	-125.034	0.172	0.026
-513.843	-11.972	-0.206	-0.134
-512.829	-200.000	0.070	0.728
-511.814	800.000	-0.055	0.199
-510.799	-147.160	0.186	0.016
-509.785	-47.604	0.214	0.104
-508.770	60.126	0.147	-0.144
-507.756	-130.973	0.341	-0.045
-506.741	77.960	-0.206	0.219
-505.726	-200.000	-0.055	-0.251
-504.712	87.866	-0.219	-0.241
-503.697	800.000	-0.051	-0.170
-502.683	-11.159	-0.202	-0.133
-501.668	-143.380	0.290	0.028
-500.653	-200.000	-0.053	0.446
-499.639	-200.000	0.053	0.487
-498.624	505.148	-0.133	0.307
-497.610	17.129	0.138	-0.109
-496.595	-165.357	0.236	-0.010
-495.581	46.494	-0.160	-0.148
-494.566	503.520	-0.089	0.206
-493.551	65.248	-0.286	0.288
-492.537	183.455	0.161	0.238
-491.522	47.485	0.106	0.098
-490.508	-8.882	0.111	0.074
-489.493	716.333	-0.119	-0.314
-488.478	450.807	0.031	-0.068
-487.464	57.952	0.149	-0.145
-486.449	135.596	0.369	0.478
-485.435	204.837	-0.066	0.102
-484.420	-63.066	0.125	0.051
-483.405	163.104	0.045	-0.062
-482.391	-200.000	-0.030	-0.345
-481.376	747.320	0.077	-0.207
-480.362	13.639	-0.168	-0.130
-479.347	-123.710	-0.294	0.046
-478.332	-129.427	0.161	-0.022
-477.318	118.386	0.128	0.157
-476.303	-33.256	0.177	-0.097
-475.289	-10.778	0.090	0.059
-474.274	-61.667	0.092	0.038
-473.259	-200.000	0.000	-0.073
-472.245	157.778	0.084	-0.116
-471.230	387.551	0.191	0.393
-470.216	90.439	-0.193	0.215
-469.201	-14.182	0.075	0.048
-468.186	-200.000	-0.015	0.098
-467.172	-143.264	-0.308	0.029
-466.157	800.000	0.020	0.073
-465.143	-200.000	-0.021	-0.462
-464.128	800.000	0.108	-0.347
-463.113	78.889	0.103	0.110
-462.099	231.593	0.091	0.148
-461.084	-90.010	-0.186	-0.054
-460.070	-200.000	-0.039	0.355
-459.055	102.416	-0.163	0.189
-458.040	-120.304	-0.169	0.029
-457.026	-165.524	0.093	0.004
-456.011	-200.000	0.048	-0.418
-454.997	-107.663	-0.031	0.007
-453.982	-200.000	-0.048	-0.260
-452.968	-200.000	-0.046	-0.412
-451.953	-96.951	-0.292	-0.076
-450.938	308.476	-0.062	-0.114
-449.924	-68.398	0.229	-0.088
-448.909	161.320	-0.085	-0.118
-447.895	-15.177	0.350	0.223
-446.880	232.362	0.201	0.328
-445.865	800.000	-0.031	0.125
-444.851	26.033	0.060	-0.050
-443.836	79.425	0.081	-0.087
-442.822	-200.000	-0.027	-0.164
-441.807	22.715	0.317	-0.258
-440.792	-22.418	0.168	0.101
-439.778	-200.000	0.012	-0.264
-438.763	-200.000	-0.004	0.381
-437.749	569.129	0.051	0.123
-436.734	-65.379	0.213	0.085
-435.719	-114.962	-0.288	-0.055
-434.705	800.000	-0.048	0.151
-433.690	800.000	0.031	-0.119
-432.676	800.000	-0.024	-0.077
-431.661	800.000	-0.067	-0.210
-430.646	-90.279	-0.252	-0.073
-429.632	-24.061	0.253	0.150
-428.617	16.002	-0.393	-0.307
-427.603	-61.179	0.212	-0.089
-426.588	182.025	0.048	-0.070
-425.573	-180.684	-0.142	-0.003
-424.559	-200.000	0.045	-0.521
-423.544	-90.050	0.138	-0.040
-422.530	-200.000	0.054	0.255
-421.515	95.611	-0.243	-0.275
-420.500	-200.000	0.041	-0.262
-419.486	123.085	0.036	-0.045
-418.471	63.391	0.183	0.182
-417.457	-200.000	-0.045	0.323
-416.442	377.200	-0.024	0.048
-415.428	-98.757	-0.086	0.022
-414.413	267.719	-0.037	-0.065
-413.398	58.224	-0.084	0.082
-412.384	238.453	-0.083	0.136
-411.369	95.675	0.093	0.106
-410.355	-161.560	0.326	-0.017
-409.340	-75.222	-0.220	0.078
-408.325	-32.444	-0.264	0.146
-407.311	-200.000	0.014	-0.081
-406.296	800.000	0.048	0.150
-405.282	-27.702	0.059	0.034
-404.267	800.000	0.036	0.110
-403.252	319.671	-0.066	0.124
-402.238	-80.508	-0.126	0.042
-401.223	127.671	-0.164	0.206
-400.209	-198.456	0.266	0.002
-399.194	161.530	0.106	-0.147
-398.179	800.000	-0.046	-0.143
-397.165	-200.000	0.059	0.404
-396.150	32.045	0.252	0.216
-395.136	-69.984	-0.234	0.088
-394.121	-122.768	0.225	0.036
-393.106	-26.708	-0.159	0.092
-392.092	-200.000	0.026	-0.122
-391.077	-100.834	0.345	-0.084
-390.063	71.614	-0.114	0.118
-389.048	36.173	-0.201	0.176
-388.033	116.129	-0.144	0.175
-387.019	-92.812	0.117	-0.033
-386.004	210.557	-0.118	0.184
-384.990	87.823	0.095	-0.104
-383.975	800.000	0.035	-0.133
-382.960	537.182	0.186	-0.439
-381.946	-115.828	0.174	0.032
-380.931	346.827	0.130	0.254
-379.917	-133.748	0.162	-0.020
-378.902	614.228	0.005	-0.011
-377.888	800.000	-0.080	-0.264
-376.873	93.428	0.207	-0.232
-375.858	-132.640	0.104	-0.013
-374.844	-9.281	0.238	0.158
-373.829	-200.000	0.034	0.361
-372.815	211.442	0.049	0.077
-371.800	-105.111	-0.185	-0.042
-370.785	189.973	-0.254	0.378
-369.771	-162.407	0.027	-0.001
-368.756	800.000	0.060	-0.251
-367.742	-67.205	-0.482	-0.188
-366.727	-200.000	0.002	0.018
-365.712	-160.880	-0.316	0.016
-364.698	75.835	-0.115	0.120
-363.683	-177.723	0.267	0.006
-362.669	800.000	-0.077	-0.285
-361.654	254.519	0.154	0.261
-360.639	26.865	0.145	0.120
-359.625	1.519	0.469	0.334
-358.610	20.509	-0.125	0.100
-357.596	67.105	-0.248	-0.250
-356.581	25.111	-0.443	-0.364
-355.566	-3.944	0.138	0.095
-354.552	800.000	0.140	0.447
-353.537	279.882	-0.091	0.161
-352.523	28.620	0.107	-0.090
-351.508	-125.397	0.232	0.035
-350.493	800.000	0.060	0.239
-349.479	392.835	-0.043	-0.089
-348.464	12.087	-0.142	-0.108
-347.450	-67.493	-0.052	0.020
-346.435	800.000	0.054	0.186
-345.420	-48.711	-0.107	0.051
-344.406	-200.000	0.071	-0.472
-343.391	101.087	0.057	0.065
-342.377	-193.838	0.206	0.002
-341.362	11.851	-0.188	0.143
-340.348	800.000	-0.097	-0.316
-339.333	-200.000	-0.002	-0.298
-338.318	61.586	-0.348	-0.342
-337.304	-75.940	0.114	0.040
-336.289	-200.000	0.010	-0.087
-335.275	-200.000	-0.034	0.168
-334.260	-94.880	0.426	-0.114
-333.245	-1.131	-0.165	0.115
-332.231	-116.961	0.121	-0.022
-331.216	800.000	0.052	-0.186
-330.202	129.888	0.089	-0.113
-329.187	-136.256	-0.209	0.024
-328.172	-106.981	0.236	-0.052
-327.158	-90.849	-0.261	0.075
-326.143	72.787	0.096	-0.099
-325.129	800.000	0.129	-0.407
-324.114	61.886	0.163	-0.161
-323.099	286.373	-0.054	0.097
-322.085	800.000	0.094	0.267
-321.070	-103.635	-0.158	-0.037
-320.056	-158.587	-0.371	0.021
-319.041	-200.000	-0.028	0.167
-318.026	83.687	0.031	0.033
-317.012	-10.977	0.222	-0.145
-315.997	94.054	-0.158	0.177
-314.983	-200.000	0.000	0.103
-313.968	-67.180	0.348	0.136
-312.953	-169.085	-0.177	-0.007
-311.939	800.000	-0.167	-0.570
-310.924	-129.460	-0.226	-0.031
-309.910	-152.130	-0.220	0.016
-308.895	-200.000	0.002	-0.179
-307.880	-89.594	0.065	-0.019
-306.866	39.400	0.179	0.158
-305.851	-164.339	0.156	0.007
-304.837	487.047	0.049	0.111
-303.822	68.981	0.223	0.226
-302.807	797.517	-0.098	0.268
-301.793	-200.000	0.025	0.374
-300.778	800.000	0.069	0.211
-299.764	-42.271	0.215	0.109
-298.749	-200.000	0.038	0.273
-297.735	150.985	0.035	-0.047
-296.720	235.103	0.165	-0.269
-295.705	-76.895	-0.116	-0.040
-294.691	-200.000	0.038	0.364
-293.676	-22.967	-0.192	0.114
-292.662	13.957	0.089	0.068
-291.647	40.380	0.107	0.095
-290.632	-83.669	0.088	-0.028
-289.618	71.516	0.076	-0.078
-288.603	33.655	-0.284	0.243
-287.589	7.261	-0.157	-0.116
-286.574	-6.852	0.194	0.130
-285.559	34.081	0.053	-0.046
-284.545	-14.198	0.103	0.066
-283.530	-165.332	-0.214	0.009
-282.516	-74.968	0.268	-0.095
-281.501	-177.337	0.216	-0.005
-280.486	-12.392	-0.021	0.014
-279.472	-108.460	0.319	-0.068
-278.457	-200.000	-0.061	0.306
-277.443	-41.001	-0.103	0.052
-276.428	-59.161	0.208	0.089
-275.413	244.384	0.135	0.223
-274.399	575.588	0.052	0.124
-273.384	-200.000	-0.016	0.300
-272.370	800.000	0.033	0.134
-271.355	-188.926	0.266	-0.003
-270.340	-132.849	-0.291	-0.037
-269.326	15.967	-0.233	0.181
-268.311	-51.982	-0.228	0.104
-267.297	-117.394	0.117	0.021
-266.282	-31.826	-0.118	-0.065
-265.267	63.274	-0.074	0.073
-264.253	-50.912	-0.198	-0.092
-263.238	32.733	-0.141	0.121
-262.224	798.572	0.090	-0.245
-261.209	-22.776	-0.275	-0.164
-260.195	373.436	-0.069	-0.138
-259.180	-30.621	0.287	-0.160
-258.165	-129.979	-0.245	-0.033
-257.151	-11.337	-0.359	-0.233
-256.136	-153.788	0.268	0.018
-255.122	-3.872	0.166	0.114
-254.107	461.261	-0.057	0.125
-253.092	-143.252	0.298	-0.028
-252.078	-200.000	0.068	-0.343
-251.063	-200.000	0.036	0.169
-250.049	-71.556	0.294	0.108
-249.034	-200.000	-0.033	-0.317
-248.019	-81.459	0.410	0.133
-247.005	-200.000	0.025	0.594
-245.990	252.150	-0.082	-0.139
-244.976	-111.043	-0.124	0.025
-243.961	-200.000	-0.019	0.447
-242.946	-86.827	-0.085	0.026
-241.932	-200.000	0.033	0.218
-240.917	-128.432	-0.167	0.023
-239.903	-200.000	0.009	0.231
-238.888	651.205	-0.116	0.293
-237.873	-200.000	-0.003	-0.065
-236.859	-179.822	-0.199	-0.004
-235.844	-11.151	0.433	0.282
-234.830	800.000	0.085	0.314
-233.815	-176.113	-0.121	0.003
-232.800	245.559	-0.145	0.240
-231.786	22.797	0.197	-0.159
-230.771	800.000	0.035	0.138
-229.757	-174.376	0.083	-0.002
-228.742	-78.686	-0.149	0.050
-227.727	303.803	-0.052	0.095
-226.713	-200.000	0.023	-0.323
-225.698	-108.545	0.051	0.011
-224.684	593.518	-0.030	-0.074
-223.669	800.000	-0.119	-0.497
-222.655	123.800	-0.061	-0.075
-221.640	800.000	-0.075	-0.265
-220.625	800.000	-0.068	0.273
-219.611	616.445	0.087	0.216
-218.596	-108.225	-0.133	-0.028
-217.582	800.000	-0.035	-0.113
-216.567	-100.180	0.205	-0.050
-215.552	-151.845	-0.127	-0.009
-214.538	-56.220	0.102	-0.045
-213.523	-55.706	0.132	-0.058
-212.509	-200.000	0.001	-0.051
-211.494	198.912	-0.079	0.119
-210.479	-176.710	-0.162	-0.004
-209.465	207.855	0.119	-0.183
-208.450	364.058	0.030	-0.059
-207.436	-66.378	0.255	-0.100
-206.421	180.194	0.051	0.074
-205.406	-200.000	-0.028	0.188
-204.392	-39.269	0.170	0.088
-203.377	5.245	0.111	-0.080
-202.363	-105.950	0.127	0.028
-201.348	72.738	-0.043	-0.045
-200.333	84.989	-0.143	-0.155
-199.319	-200.000	-0.039	-0.200
-198.304	239.685	-0.145	-0.237
-197.290	800.000	-0.040	0.122
-196.275	-200.000	-0.025	0.204
-195.260	-12.676	0.121	0.078
-194.246	233.235	-0.062	0.101
-193.231	-136.463	-0.260	0.030
-192.217	2.685	0.143	-0.102
-191.202	-126.753	-0.242	-0.035
-190.187	344.476	0.116	-0.224
-189.173	-76.294	-0.169	0.059
-188.158	-147.702	-0.254	0.021
-187.144	332.890	-0.067	0.127
-186.129	490.064	-0.104	0.233
-185.114	-200.000	-0.004	0.024
-184.100	191.842	0.197	0.292
-183.085	92.171	-0.199	-0.220
-182.071	-200.000	0.006	-0.182
-181.056	81.182	-0.082	0.087
-180.042	-35.440	-0.166	0.089
-179.027	61.984	0.366	0.359
-178.012	284.297	0.162	-0.286
-176.998	-109.455	0.188	0.039
-175.983	264.683	-0.141	-0.242
-174.969	-88.065	0.414	-0.122
-173.954	-200.000	-0.009	-0.080
-172.939	602.763	-0.051	0.125
-171.925	-145.013	-0.358	0.032
-170.910	-200.000	-0.008	0.193
-169.896	800.000	-0.024	-0.067
-168.881	800.000	-0.083	-0.239
-167.866	-86.840	0.323	0.097
-166.852	-200.000	0.005	-0.155
-165.837	109.632	0.153	-0.181
-164.823	-130.563	-0.085	0.011
-163.808	-79.311	-0.385	-0.128
-162.793	66.533	0.105	-0.105
-161.779	800.000	-0.039	0.122
-160.764	800.000	0.033	0.132
-159.750	-53.717	-0.429	-0.192
-158.735	392.829	0.095	-0.194
-157.720	-200.000	0.043	0.301
-156.706	-200.000	-0.018	0.493
-155.691	19.147	-0.159	0.125
-154.677	-18.688	-0.155	-0.095
-153.662	39.379	-0.165	0.145
-152.647	800.000	0.024	-0.083
-151.633	5.994	-0.188	-0.137
-150.618	125.005	0.170	-0.210
-149.604	-200.000	0.008	-0.124
-148.589	-88.971	0.066	0.019
-147.574	-200.000	0.006	0.405
-146.560	108.865	-0.110	0.129
-145.545	88.753	-0.294	-0.322
-144.531	249.463	-0.056	-0.094
-143.516	-63.050	-0.249	-0.101
-142.502	-7.703	-0.292	0.194
-141.487	469.334	-0.169	-0.373
-140.472	230.111	-0.126	0.202
-139.458	800.000	-0.123	0.356
-138.443	800.000	0.097	0.324
-137.429	46.545	0.212	0.193
-136.414	135.396	-0.115	0.147
-135.399	420.136	0.045	0.094
-134.385	-197.364	-0.244	0.002
-133.370	-92.100	0.231	-0.064
-132.356	-200.000	0.013	0.104
-131.341	-200.000	0.030	0.179
-130.326	-180.315	-0.232	0.005
-129.312	33.777	-0.131	0.112
-128.297	-200.000	-0.012	-0.107
-127.283	-79.506	-0.225	-0.075
-126.268	800.000	-0.035	0.117
-125.253	-200.000	0.046	-0.287
-124.239	-139.038	-0.145	-0.015
-123.224	-200.000	0.047	0.367
-122.210	183.747	0.027	-0.040
-121.195	325.123	-0.121	0.227
