DTS Sentinel unit serial number:	SN413079Multiplexer serial number:	ORYXHardware model number:	OX4-SRSoftware version number:	ORYX F/W v4.00 Oryx Data Collector v3.7.2.0data status	okinstallation	princeton_trtdifferential loss correction	single-endedforward channel	channel 2reverse channel	N/Adate	2019/09/17time	04:55:35forward acquisition time	60.00reverse acquisition time	0.00gamma	496.2192k internal	0.2328k external	0.2328temperature offset calibration	0.9980default loss term (dB/km)	0.3790temperature slope calibration	1.0000multiplexer offset coefficient	1.0000multiplexer slope coefficient	1.0000fibre end	0.00T internal ref (°C)	29.52T ext. ref 1 (°C)	0.14T ext. ref 2 (°C)	23.93length (m)	temperature (°C)	Stokes	anti-Stokes-747.200	67.368	0.170	0.175
-746.185	69.116	0.158	0.164
-745.171	-63.990	0.042	0.017
-744.156	208.297	0.110	0.173
-743.142	217.789	0.165	-0.265
-742.127	-200.000	-0.033	0.220
-741.112	1.358	0.200	0.145
-740.098	143.244	0.028	-0.038
-739.083	-200.000	-0.004	-0.350
-738.069	-200.000	-0.107	0.590
-737.054	29.408	-0.100	-0.086
-736.039	-101.372	0.167	0.041
-735.025	-200.000	0.017	-0.178
-734.010	-86.377	0.018	0.005
-732.996	10.599	-0.174	0.134
-731.981	19.817	0.115	-0.094
-730.966	216.650	-0.200	0.321
-729.952	-200.000	0.037	0.286
-728.937	800.000	0.046	-0.161
-727.923	-1.512	0.195	-0.139
-726.908	254.043	-0.170	0.292
-725.894	36.322	-0.358	0.318
-724.879	-200.000	0.030	-0.281
-723.864	64.508	-0.212	-0.215
-722.850	-6.899	0.018	-0.012
-721.835	-143.323	-0.420	0.041
-720.821	-200.000	0.023	-0.249
-719.806	-200.000	-0.003	0.356
-718.791	-200.000	0.000	-0.023
-717.777	800.000	0.047	-0.163
-716.762	800.000	0.111	-0.390
-715.748	-75.186	-0.149	-0.054
-714.733	800.000	0.057	0.214
-713.718	278.907	0.018	0.032
-712.704	-106.448	0.281	-0.063
-711.689	-200.000	-0.045	-0.241
-710.675	-90.046	0.234	-0.069
-709.660	-200.000	0.010	0.319
-708.645	258.228	0.071	0.123
-707.631	-93.307	-0.307	-0.086
-706.616	-175.369	0.338	0.009
-705.602	-62.499	0.229	0.096
-704.587	83.822	0.104	0.114
-703.572	-200.000	-0.016	-0.442
-702.558	-200.000	-0.079	-0.382
-701.543	338.967	0.133	-0.261
-700.529	-20.972	-0.277	0.171
-699.514	-100.420	0.370	-0.092
-698.499	3.614	0.199	-0.146
-697.485	-33.713	-0.175	0.097
-696.470	713.941	0.071	-0.189
-695.456	800.000	0.054	-0.233
-694.441	2.508	-0.393	-0.286
-693.426	800.000	0.021	-0.081
-692.412	-86.741	-0.142	0.044
-691.397	-63.985	0.367	0.151
-690.383	-148.042	-0.554	0.046
-689.368	-81.607	-0.396	-0.131
-688.354	703.863	0.151	-0.399
-687.339	262.814	-0.232	0.405
-686.324	24.917	-0.073	0.061
-685.310	800.000	-0.052	0.159
-684.295	-142.127	-0.317	-0.032
-683.281	-146.133	-0.288	0.026
-682.266	-200.000	0.042	0.218
-681.251	-110.975	0.232	-0.048
-680.237	-103.167	-0.149	-0.035
-679.222	342.530	0.036	0.071
-678.208	-56.819	-0.126	-0.056
-677.193	-174.967	0.343	0.010
-676.178	21.164	0.114	-0.093
-675.164	-162.547	-0.323	0.016
-674.149	-200.000	0.014	0.256
-673.135	-62.707	0.089	-0.037
-672.120	-182.035	0.228	-0.004
-671.105	-69.014	-0.130	-0.050
-670.091	-121.478	-0.110	0.018
-669.076	411.813	0.055	0.116
-668.062	800.000	0.067	0.268
-667.047	60.050	0.180	0.179
-666.032	0.545	-0.241	-0.173
-665.018	234.676	-0.072	0.119
-664.003	391.952	0.130	-0.272
-662.989	-32.432	-0.143	-0.080
-661.974	199.332	-0.179	-0.276
-660.959	-87.688	0.278	-0.084
-659.945	-0.390	-0.108	0.077
-658.930	-0.733	-0.248	0.177
-657.916	-196.932	0.154	0.001
-656.901	290.196	-0.128	-0.234
-655.886	-109.286	0.045	0.010
-654.872	-32.768	0.090	-0.050
-653.857	-160.083	-0.234	-0.013
-652.843	189.575	0.099	0.149
-651.828	171.870	-0.190	0.274
-650.814	-200.000	0.014	0.080
-649.799	-200.000	0.046	-0.305
-648.784	-8.539	-0.074	0.050
-647.770	-11.485	-0.320	0.211
-646.755	-102.183	0.163	-0.039
-645.741	-103.718	-0.183	-0.043
-644.726	375.075	0.181	0.371
-643.711	579.555	-0.142	0.348
-642.697	131.667	0.056	-0.072
-641.682	-37.848	0.284	0.151
-640.668	-57.344	-0.276	0.122
-639.653	-200.000	0.041	-0.455
-638.638	-18.132	-0.145	-0.091
-637.624	51.031	-0.094	-0.090
-636.609	523.330	-0.062	0.147
-635.595	248.471	0.181	0.308
-634.580	-25.539	-0.158	-0.094
-633.565	228.650	0.043	-0.071
-632.551	77.579	0.151	-0.162
-631.536	800.000	-0.014	-0.059
-630.522	-29.570	0.129	-0.074
-629.507	108.591	-0.161	-0.193
-628.492	-79.448	0.122	0.041
-627.478	95.651	0.146	0.167
-626.463	-127.537	0.216	-0.031
-625.449	-135.784	-0.360	0.043
-624.434	-75.964	0.047	-0.017
-623.419	703.233	-0.008	0.021
-622.405	-200.000	0.011	-0.094
-621.390	88.749	0.208	0.232
-620.376	800.000	-0.066	-0.238
-619.361	54.740	-0.149	-0.145
-618.346	-67.950	0.058	-0.023
-617.332	291.768	-0.138	0.252
-616.317	-159.619	0.318	-0.018
-615.303	645.425	-0.189	-0.484
-614.288	-125.418	-0.033	-0.005
-613.273	-172.522	-0.093	0.003
-612.259	-41.524	0.201	-0.104
-611.244	-200.000	0.032	-0.183
-610.230	-200.000	0.044	-0.211
-609.215	-200.000	-0.075	-0.424
-608.201	-60.728	-0.454	0.193
-607.186	-92.868	0.230	0.065
-606.171	-200.000	0.023	-0.119
-605.157	683.082	-0.050	-0.131
-604.142	-84.759	-0.155	-0.049
-603.128	-200.000	0.024	0.182
-602.113	104.898	-0.152	0.180
-601.098	-77.540	-0.142	0.049
-600.084	-87.595	-0.604	0.183
-599.069	-9.985	0.091	-0.061
-598.055	370.543	-0.056	0.114
-597.040	-76.102	0.421	0.149
-596.025	92.623	0.198	0.224
-595.011	695.778	-0.093	-0.245
-593.996	-200.000	0.001	-0.318
-592.982	632.606	0.083	-0.210
-591.967	-200.000	0.013	-0.372
-590.952	-200.000	-0.024	-0.128
-589.938	375.260	-0.052	-0.107
-588.923	-200.000	0.035	-0.219
-587.909	-12.950	-0.124	-0.081
-586.894	65.545	-0.140	-0.142
-585.879	156.424	-0.172	0.238
-584.865	537.167	-0.083	0.197
-583.850	409.754	0.076	-0.160
-582.836	-200.000	0.022	0.283
-581.821	162.327	-0.220	-0.309
-580.806	-169.276	-0.190	-0.007
-579.792	-151.592	0.487	0.036
-578.777	-192.729	-0.401	0.004
-577.763	-200.000	0.016	-0.439
-576.748	800.000	0.058	-0.178
-575.733	-44.934	-0.096	0.048
-574.719	-102.929	0.301	-0.072
-573.704	308.155	-0.180	0.337
-572.690	-162.152	-0.150	0.008
-571.675	5.004	-0.233	-0.171
-570.661	-90.506	0.119	-0.034
-569.646	800.000	0.066	0.242
-568.631	-158.757	-0.156	-0.009
-567.617	-13.485	0.132	-0.086
-566.602	148.226	-0.309	-0.417
-565.588	-91.324	0.271	-0.077
-564.573	-127.039	0.070	-0.010
-563.558	-15.709	-0.282	-0.180
-562.544	82.988	-0.195	-0.212
-561.529	241.969	0.214	-0.358
-560.515	-101.037	-0.200	-0.049
-559.500	151.007	0.106	0.145
-558.485	318.033	0.244	0.463
-557.471	54.592	-0.128	0.124
-556.456	-44.457	0.150	-0.075
-555.442	17.338	-0.132	0.105
-554.427	748.996	-0.049	0.131
-553.412	123.980	0.172	-0.216
-552.398	-160.520	-0.188	0.010
-551.383	23.756	-0.170	0.140
-550.369	197.394	-0.036	-0.054
-549.354	-200.000	0.018	0.136
-548.339	-200.000	-0.001	0.267
-547.325	-113.053	-0.486	-0.096
-546.310	-106.571	0.238	0.053
-545.296	77.849	0.312	0.333
-544.281	-200.000	-0.011	0.528
-543.266	-7.440	-0.225	-0.152
-542.252	-15.286	0.049	0.031
-541.237	-200.000	0.005	-0.109
-540.223	-76.588	-0.294	0.103
-539.208	-83.739	-0.323	0.103
-538.193	-160.885	0.274	-0.014
-537.179	800.000	0.002	-0.007
-536.164	10.546	-0.092	0.070
-535.150	-200.000	0.021	-0.130
-534.135	-105.466	0.231	0.052
-533.121	-122.312	-0.068	-0.011
-532.106	-86.264	0.306	0.094
-531.091	-200.000	0.002	0.037
-530.077	-200.000	-0.027	0.241
-529.062	-200.000	-0.052	0.270
-528.048	-200.000	0.039	-0.288
-527.033	-200.000	0.026	-0.168
-526.018	-22.709	0.125	-0.075
-525.004	800.000	-0.082	0.300
-523.989	365.781	-0.252	-0.508
-522.975	-147.864	-0.055	0.005
-521.960	-200.000	-0.025	0.126
-520.945	734.928	0.009	0.024
-519.931	-200.000	0.057	-0.462
-518.916	-33.324	0.179	-0.099
-517.902	104.970	0.098	-0.116
-516.887	-173.397	0.157	0.005
-515.872	-200.000	0.060	0.516
-514.858	-106.001	-0.265	-0.060
-513.843	383.442	0.019	-0.038
-512.829	-190.561	0.373	-0.004
-511.814	-73.325	-0.244	-0.089
-510.799	546.008	0.071	0.169
-509.785	17.250	0.254	0.201
-508.770	-200.000	0.001	-0.251
-507.756	-200.000	-0.008	0.094
-506.741	-96.874	0.180	0.047
-505.726	800.000	-0.071	-0.219
-504.712	-200.000	-0.010	-0.060
-503.697	71.727	0.050	0.052
-502.683	-75.759	0.099	-0.035
-501.668	209.483	-0.234	-0.366
-500.653	-79.382	0.247	-0.084
-499.639	522.761	0.117	0.274
-498.624	127.908	-0.085	-0.108
-497.610	477.257	0.033	0.075
-496.595	206.711	-0.170	-0.265
-495.581	150.322	-0.051	-0.069
-494.566	-200.000	-0.013	-0.143
-493.551	-200.000	0.015	-0.329
-492.537	48.760	-0.085	0.080
-491.522	-57.292	-0.127	0.056
-490.508	800.000	0.084	0.240
-489.493	-55.730	0.322	-0.144
-488.478	-48.473	-0.115	-0.055
-487.464	-200.000	0.032	-0.228
-486.449	-69.701	-0.151	0.057
-485.435	-63.380	0.050	-0.021
-484.420	800.000	-0.073	0.242
-483.405	19.581	0.328	0.263
-482.391	-38.226	0.120	0.064
-481.376	-61.327	0.135	-0.057
-480.362	87.049	-0.137	-0.151
-479.347	144.038	0.100	-0.133
-478.332	77.568	0.172	-0.182
-477.318	-200.000	-0.000	-0.293
-476.303	-22.262	-0.198	-0.120
-475.289	-19.704	0.327	0.202
-474.274	515.222	-0.108	0.251
-473.259	-200.000	-0.024	0.301
-472.245	137.022	0.049	-0.064
-471.230	409.260	-0.118	0.250
-470.216	-147.097	-0.164	-0.014
-469.201	315.507	0.014	0.027
-468.186	122.104	-0.086	-0.107
-467.172	800.000	0.040	-0.122
-466.157	338.171	0.096	0.186
-465.143	-200.000	-0.007	0.125
-464.128	22.212	0.262	0.213
-463.113	-167.943	-0.117	0.005
-462.099	-152.033	0.260	-0.019
-461.084	452.312	-0.120	-0.264
-460.070	-88.168	0.026	0.008
-459.055	-132.517	0.173	-0.022
-458.040	-143.595	0.252	0.024
-457.026	-43.020	0.395	-0.200
-456.011	-134.294	0.227	0.028
-454.997	-145.232	-0.071	-0.006
-453.982	-61.444	0.155	0.065
-452.968	-157.076	0.062	-0.004
-451.953	130.894	-0.347	0.444
-450.938	118.728	0.218	0.268
-449.924	-77.560	0.262	0.091
-448.909	-94.381	-0.289	0.079
-447.895	-139.150	0.320	-0.034
-446.880	108.363	-0.123	-0.146
-445.865	-200.000	-0.017	-0.413
-444.851	-110.504	0.418	-0.086
-443.836	-200.000	-0.015	0.103
-442.822	-200.000	0.004	0.030
-441.807	-200.000	-0.014	-0.592
-440.792	-116.944	0.411	-0.075
-439.778	114.894	-0.061	-0.074
-438.763	124.021	0.153	-0.192
-437.749	-32.264	0.294	-0.164
-436.734	599.744	0.018	0.046
-435.719	-171.192	-0.398	0.013
-434.705	43.551	0.216	-0.196
-433.690	100.523	0.173	0.201
-432.676	684.179	-0.049	-0.126
-431.661	73.694	-0.228	0.238
-430.646	-51.771	-0.172	0.080
-429.632	-105.433	0.264	0.060
-428.617	485.459	-0.105	0.238
-427.603	66.600	0.174	-0.176
-426.588	-200.000	0.003	-0.036
-425.573	-200.000	-0.008	-0.165
-424.559	143.885	-0.069	-0.091
-423.544	30.591	0.199	0.170
-422.530	106.186	-0.104	0.123
-421.515	477.388	0.092	0.206
-420.500	-200.000	0.019	-0.232
-419.486	382.490	-0.155	0.318
-418.471	187.569	-0.110	0.163
-417.457	-84.206	0.173	0.054
-416.442	52.474	-0.042	0.040
-415.428	284.971	-0.164	-0.294
-414.413	17.705	-0.146	-0.116
-413.398	127.185	0.189	-0.238
-412.384	78.453	-0.252	0.268
-411.369	-78.327	-0.285	0.097
-410.355	-52.302	-0.152	0.070
-409.340	-31.064	0.066	0.037
-408.325	-62.181	0.334	0.139
-407.311	15.488	0.175	-0.137
-406.296	-167.427	0.325	-0.013
-405.282	-37.802	0.368	-0.195
-404.267	-10.808	-0.066	0.043
-403.252	-11.772	0.291	-0.190
-402.238	235.852	0.109	0.179
-401.223	-200.000	-0.007	0.502
-400.209	-44.510	-0.343	0.171
-399.194	316.261	-0.147	0.276
-398.179	-200.000	0.014	-0.102
-397.165	-184.934	-0.104	0.002
-396.150	-200.000	-0.017	-0.091
-395.136	-24.970	0.309	-0.182
-394.121	39.944	0.136	-0.121
-393.106	-200.000	0.050	0.290
-392.092	90.694	0.158	0.175
-391.077	-87.563	0.144	-0.043
-390.063	206.095	-0.121	-0.187
-389.048	74.196	0.212	0.222
-388.033	158.868	0.247	0.342
-387.019	-198.636	-0.027	-0.000
-386.004	217.738	-0.179	-0.283
-384.990	12.351	-0.116	-0.089
-383.975	182.741	-0.099	-0.146
-382.960	-125.502	0.317	-0.048
-381.946	44.177	0.212	0.193
-380.931	-69.566	0.155	0.059
-379.917	800.000	-0.075	-0.230
-378.902	-200.000	0.035	-0.320
-377.888	164.943	0.190	-0.266
-376.873	-93.957	-0.162	-0.044
-375.858	800.000	0.092	-0.356
-374.844	-200.000	-0.015	-0.204
-373.829	154.663	0.138	-0.188
-372.815	-200.000	-0.006	-0.087
-371.800	-11.774	0.151	0.099
-370.785	-200.000	0.016	0.115
-369.771	-71.904	0.154	0.057
-368.756	-33.655	-0.218	0.120
-367.742	-141.276	-0.229	0.023
-366.727	121.628	-0.162	0.200
-365.712	518.947	-0.037	0.086
-364.698	-200.000	-0.056	0.333
-363.683	177.203	-0.163	0.235
-362.669	-200.000	-0.036	-0.199
-361.654	380.884	0.177	0.361
-360.639	-152.183	-0.252	0.018
-359.625	-50.819	-0.180	-0.084
-358.610	223.104	0.189	-0.303
-357.596	-200.000	0.022	-0.184
-356.581	-76.248	0.202	-0.071
-355.566	98.963	-0.138	0.158
-354.552	-200.000	0.041	-0.230
-353.537	73.036	-0.235	0.243
-352.523	-87.802	-0.298	0.089
-351.508	232.447	-0.089	0.144
-350.493	-52.740	-0.182	0.083
-349.479	24.811	-0.182	0.150
-348.464	527.812	0.093	0.218
-347.450	-153.189	-0.070	0.005
-346.435	229.914	-0.150	-0.243
-345.420	239.670	-0.104	-0.172
-344.406	-24.435	-0.156	0.092
-343.391	-2.600	-0.283	0.197
-342.377	51.772	-0.237	-0.224
-341.362	-0.414	-0.147	-0.103
-340.348	-200.000	-0.054	0.287
-339.333	-64.629	-0.238	-0.096
-338.318	-200.000	0.011	-0.384
-337.304	-110.043	-0.208	-0.043
-336.289	-200.000	-0.080	0.372
-335.275	99.862	-0.063	-0.072
-334.260	429.413	0.070	0.150
-333.245	800.000	-0.057	-0.181
-332.231	498.514	-0.055	-0.125
-331.216	6.545	-0.086	-0.063
-330.202	184.003	-0.158	0.231
-329.187	21.697	0.070	0.056
-328.172	-200.000	0.043	0.314
-327.158	800.000	-0.030	0.107
-326.143	88.520	-0.098	-0.108
-325.129	-65.871	-0.073	-0.029
-324.114	-200.000	0.034	0.160
-323.099	335.287	0.084	-0.161
-322.085	204.104	-0.054	0.084
-321.070	12.027	0.154	-0.118
-320.056	-200.000	0.025	-0.145
-319.041	225.798	0.040	0.064
-318.026	-36.555	-0.135	0.072
-317.012	-200.000	-0.007	0.044
-315.997	-200.000	-0.012	-0.403
-314.983	800.000	0.047	0.174
-313.968	-119.652	-0.098	0.017
-312.953	-14.951	-0.113	-0.072
-311.939	-43.993	-0.138	0.069
-310.924	-37.550	0.155	-0.082
-309.910	429.434	0.103	0.221
-308.895	58.848	-0.203	-0.198
-307.880	-20.091	-0.090	-0.055
-306.866	-59.330	-0.142	0.061
-305.851	-166.709	0.250	-0.010
-304.837	-46.264	0.230	0.112
-303.822	36.409	-0.184	0.161
-302.807	-200.000	0.012	-0.194
-301.793	130.769	0.043	0.055
-300.778	-102.561	0.118	-0.028
-299.764	176.843	0.101	0.145
-298.749	220.733	0.106	0.168
-297.735	96.675	0.177	-0.201
-296.720	97.564	-0.166	-0.189
-295.705	313.544	-0.138	0.258
-294.691	-68.020	-0.213	0.082
-293.676	138.265	0.073	-0.095
-292.662	-24.985	0.432	0.254
-291.647	65.557	0.035	-0.035
-290.632	-51.102	-0.140	0.065
-289.618	800.000	-0.104	-0.341
-288.603	-145.191	-0.145	0.013
-287.589	-97.273	0.229	-0.059
-286.574	800.000	0.130	0.364
-285.559	-39.983	0.206	-0.106
-284.545	-159.164	0.128	-0.007
-283.530	84.032	0.104	0.112
-282.516	-124.760	0.254	0.039
-281.501	-144.146	0.083	0.008
-280.486	18.187	0.073	-0.058
-279.472	23.578	0.032	-0.026
-278.457	88.135	0.122	0.134
-277.443	363.547	-0.070	-0.139
-276.428	-154.691	-0.076	0.005
-275.413	-76.943	-0.273	0.094
-274.399	-53.393	-0.344	-0.156
-273.384	-200.000	-0.007	-0.233
-272.370	524.702	-0.103	0.239
-271.355	0.472	-0.305	0.216
-270.340	183.647	-0.076	-0.112
-269.326	446.704	-0.091	-0.198
-268.311	-200.000	0.006	-0.057
-267.297	18.617	0.152	-0.120
-266.282	-200.000	-0.001	-0.077
-265.267	711.749	-0.070	0.183
-264.253	341.712	0.183	0.353
-263.238	-200.000	-0.038	0.286
-262.224	153.174	0.247	-0.334
-261.209	800.000	-0.072	0.234
-260.195	-47.364	0.335	-0.161
-259.180	-92.455	-0.256	-0.071
-258.165	-77.153	0.135	-0.046
-257.151	800.000	0.067	-0.218
-256.136	-122.839	0.355	0.057
-255.122	9.633	0.117	-0.088
-254.107	75.086	-0.185	-0.193
-253.092	305.342	0.159	-0.293
-252.078	119.080	-0.308	-0.377
-251.063	-200.000	0.024	0.270
-250.049	592.240	0.042	0.102
-249.034	-76.682	0.205	-0.071
-248.019	-136.824	-0.051	-0.006
-247.005	406.312	0.095	-0.197
-245.990	-147.567	0.131	-0.011
-244.976	51.605	-0.107	0.101
-243.961	-124.007	-0.181	0.028
-242.946	-155.899	0.276	0.017
-241.932	3.507	0.230	0.165
-240.917	-12.057	-0.100	-0.065
-239.903	-56.720	-0.190	-0.083
-238.888	-141.651	-0.291	0.029
-237.873	-200.000	0.012	-0.088
-236.859	47.945	-0.291	0.269
-235.844	-98.188	0.111	-0.028
-234.830	-37.779	-0.039	-0.020
-233.815	622.151	0.120	0.299
-232.800	-200.000	-0.033	-0.228
-231.786	-200.000	0.078	-0.417
-230.771	-42.226	0.164	0.083
-229.757	-43.043	-0.300	0.150
-228.742	-198.682	0.081	-0.000
-227.727	-22.602	-0.123	-0.074
-226.713	17.125	-0.384	-0.301
-225.698	-155.671	0.166	0.011
-224.684	364.859	0.160	-0.319
-223.669	113.277	-0.053	0.064
-222.655	800.000	-0.091	0.278
-221.640	5.223	0.143	0.104
-220.625	-200.000	-0.003	0.112
-219.611	320.516	0.109	0.205
-218.596	185.455	-0.070	0.102
-217.582	118.437	0.146	-0.178
-216.567	97.159	-0.144	-0.163
-215.552	-163.626	-0.038	0.002
-214.538	17.447	-0.040	0.032
-213.523	-119.829	0.298	-0.051
-212.509	380.330	-0.091	0.185
-211.494	199.481	-0.255	0.386
-210.479	0.746	-0.088	-0.062
-209.465	89.059	0.082	0.090
-208.450	52.879	-0.047	-0.044
-207.436	-200.000	0.035	0.220
-206.421	-6.227	0.112	0.075
-205.406	308.026	-0.034	-0.063
-204.392	-85.927	0.155	-0.047
-203.377	-200.000	0.030	-0.136
-202.363	-43.990	-0.065	-0.032
-201.348	149.244	-0.051	-0.068
-200.333	800.000	-0.077	-0.214
-199.319	-48.934	-0.211	0.100
-198.304	-200.000	-0.010	-0.168
-197.290	-200.000	0.018	-0.171
-196.275	-158.743	0.074	0.004
-195.260	-200.000	0.035	-0.153
-194.246	800.000	-0.025	0.107
-193.231	800.000	0.093	0.331
-192.217	54.773	0.226	0.215
-191.202	133.325	-0.089	-0.113
-190.187	-39.975	-0.232	-0.119
-189.173	-55.373	0.198	-0.087
-188.158	800.000	0.052	0.201
-187.144	612.312	-0.022	-0.055
-186.129	800.000	-0.093	0.335
-185.114	53.626	0.278	0.263
-184.100	268.147	0.168	-0.290
-183.085	113.111	-0.042	0.051
-182.071	-200.000	-0.020	0.203
-181.056	16.679	0.105	0.082
-180.042	-14.094	-0.159	0.101
-179.027	128.029	0.137	0.172
-178.012	125.752	-0.232	0.288
-176.998	238.939	-0.164	0.270
-175.983	62.727	-0.225	0.222
-174.969	740.267	0.027	0.071
-173.954	-200.000	-0.031	0.235
-172.939	-162.288	-0.212	-0.010
-171.925	-136.416	0.196	0.022
-170.910	-190.961	-0.593	-0.006
-169.896	-200.000	-0.046	0.242
-168.881	-140.776	0.226	0.023
-167.866	800.000	-0.059	-0.255
-166.852	-200.000	0.017	0.163
-165.837	-127.551	0.545	-0.078
-164.823	205.122	-0.060	-0.091
-163.808	-200.000	-0.024	0.217
-162.793	-97.268	-0.134	0.035
-161.779	-145.982	0.107	0.009
-160.764	-74.952	-0.014	0.005
-159.750	712.025	0.055	-0.145
-158.735	-90.338	-0.171	-0.049
-157.720	-200.000	0.031	-0.220
-156.706	800.000	-0.042	-0.162
-155.691	-38.147	0.217	0.113
-154.677	255.710	-0.169	0.285
-153.662	6.922	-0.086	-0.063
-152.647	-98.836	-0.194	0.049
-151.633	71.003	0.048	-0.049
-150.618	-200.000	-0.028	-0.250
-149.604	-162.277	0.257	0.013
-148.589	126.014	-0.160	0.199
-147.574	-124.542	0.314	-0.048
-146.560	-200.000	0.038	0.239
-145.545	-200.000	-0.042	-0.265
-144.531	-101.234	0.211	-0.051
-143.516	50.096	0.184	0.171
-142.502	-64.017	-0.087	0.035
-141.487	175.594	0.272	-0.389
-140.472	-200.000	-0.068	-0.435
-139.458	-142.972	-0.129	-0.012
-138.443	800.000	0.070	-0.229
-137.429	-18.234	0.147	0.091
-136.414	730.425	-0.023	-0.062
-135.399	-98.245	-0.157	0.040
-134.385	551.098	0.114	-0.270
-133.370	-9.503	0.454	-0.298
-132.356	124.681	0.088	-0.109
-131.341	-94.254	-0.022	0.006
-130.326	-41.426	0.196	-0.099
-129.312	-86.243	0.094	0.029
-128.297	800.000	-0.052	0.225
-127.283	-200.000	0.020	-0.140
-126.268	107.113	0.102	0.120
-125.253	-200.000	0.079	0.374
-124.239	-200.000	0.040	-0.316
-123.224	800.000	0.070	-0.249
-122.210	212.874	0.165	-0.256
