DTS Sentinel unit serial number:	SN413079Multiplexer serial number:	ORYXHardware model number:	OX4-SRSoftware version number:	ORYX F/W v4.00 Oryx Data Collector v3.7.2.0data status	okinstallation	princeton_trtdifferential loss correction	single-endedforward channel	channel 2reverse channel	N/Adate	2019/09/16time	08:15:35forward acquisition time	60.00reverse acquisition time	0.00gamma	496.2192k internal	0.2329k external	0.2329temperature offset calibration	0.9975default loss term (dB/km)	0.3790temperature slope calibration	1.0000multiplexer offset coefficient	1.0000multiplexer slope coefficient	1.0000fibre end	0.00T internal ref (°C)	28.87T ext. ref 1 (°C)	11.83T ext. ref 2 (°C)	25.20length (m)	temperature (°C)	Stokes	anti-Stokes-747.200	-36.803	0.122	0.066
-746.185	-187.811	-0.125	-0.002
-745.171	371.730	-0.161	0.330
-744.156	139.613	-0.119	-0.158
-743.142	27.963	0.196	0.167
-742.127	-110.405	0.158	0.033
-741.112	-74.339	0.113	0.041
-740.098	800.000	0.110	0.431
-739.083	-124.548	-0.222	0.035
-738.069	-200.000	-0.071	0.572
-737.054	-8.564	0.145	0.098
-736.039	382.059	0.156	-0.323
-735.025	-88.068	0.298	0.090
-734.010	800.000	0.088	0.332
-732.996	316.435	-0.133	-0.252
-731.981	-200.000	0.018	-0.094
-730.966	-200.000	0.003	0.124
-729.952	800.000	0.037	-0.147
-728.937	-142.152	-0.417	-0.042
-727.923	800.000	0.107	-0.326
-726.908	-65.056	0.085	0.034
-725.894	104.662	-0.140	-0.166
-724.879	180.463	-0.180	0.266
-723.864	-127.698	-0.416	-0.061
-722.850	-148.168	-0.336	-0.028
-721.835	-138.639	0.132	-0.015
-720.821	35.944	-0.091	0.081
-719.806	-41.794	-0.170	0.088
-718.791	41.714	-0.140	-0.128
-717.777	41.135	-0.166	0.151
-716.762	800.000	0.058	0.241
-715.748	123.493	0.132	-0.166
-714.733	-118.597	0.085	0.015
-713.718	71.684	-0.129	-0.135
-712.704	800.000	0.058	0.228
-711.689	-155.930	-0.295	-0.019
-710.675	36.672	0.148	-0.131
-709.660	-200.000	-0.037	0.222
-708.645	-78.018	0.179	-0.062
-707.631	-172.505	0.344	0.011
-706.616	272.458	0.110	-0.196
-705.602	67.988	-0.304	0.313
-704.587	-120.537	0.179	0.030
-703.572	4.691	0.162	0.120
-702.558	-112.768	-0.093	-0.018
-701.543	86.881	-0.137	-0.152
-700.529	-58.703	0.042	0.018
-699.514	2.930	0.119	-0.087
-698.499	47.607	0.109	0.102
-697.485	664.749	0.036	-0.093
-696.470	12.759	-0.362	-0.281
-695.456	254.470	0.143	-0.245
-694.441	800.000	-0.100	0.375
-693.426	179.149	0.110	-0.162
-692.412	168.394	0.136	0.194
-691.397	119.382	0.315	-0.391
-690.383	-113.818	0.080	-0.016
-689.368	-200.000	-0.030	-0.196
-688.354	-39.462	0.083	0.044
-687.339	-96.382	0.190	-0.050
-686.324	-200.000	-0.018	-0.083
-685.310	51.116	-0.087	-0.083
-684.295	103.977	-0.309	-0.365
-683.281	-200.000	0.042	0.239
-682.266	800.000	-0.066	0.239
-681.251	168.343	0.298	0.426
-680.237	275.245	0.063	0.112
-679.222	-20.348	-0.151	-0.093
-678.208	-115.406	0.227	0.043
-677.193	129.141	-0.141	0.180
-676.178	800.000	-0.052	-0.154
-675.164	402.757	-0.124	-0.262
-674.149	-200.000	-0.091	0.494
-673.135	147.064	0.133	0.180
-672.120	-16.161	0.176	-0.112
-671.105	48.190	0.299	-0.281
-670.091	-200.000	0.040	-0.224
-669.076	-90.976	0.233	0.067
-668.062	800.000	-0.081	-0.241
-667.047	800.000	-0.078	-0.316
-666.032	222.855	-0.101	-0.164
-665.018	-139.402	-0.189	-0.020
-664.003	800.000	-0.061	-0.257
-662.989	-25.757	-0.178	0.105
-661.974	83.695	0.084	-0.092
-660.959	178.899	0.150	0.220
-659.945	60.624	-0.099	0.099
-658.930	3.719	0.025	-0.018
-657.916	-200.000	-0.003	-0.089
-656.901	-35.610	-0.029	-0.016
-655.886	171.792	-0.183	-0.264
-654.872	-127.774	-0.102	0.015
-653.857	4.457	-0.145	-0.107
-652.843	70.090	-0.204	-0.212
-651.828	717.129	-0.218	-0.580
-650.814	-200.000	0.008	0.084
-649.799	78.464	-0.195	-0.209
-648.784	155.443	-0.147	0.204
-647.770	800.000	0.066	0.203
-646.755	-200.000	0.006	0.211
-645.741	-86.174	-0.188	-0.058
-644.726	11.219	0.249	-0.191
-643.711	226.673	-0.135	-0.220
-642.697	-141.404	-0.106	0.011
-641.682	52.451	-0.201	0.192
-640.668	800.000	0.050	-0.144
-639.653	-200.000	0.006	0.033
-638.638	76.926	-0.259	-0.276
-637.624	27.571	0.122	0.103
-636.609	67.884	0.008	0.009
-635.595	542.379	-0.107	0.255
-634.580	-111.400	-0.128	-0.026
-633.565	14.122	0.143	-0.111
-632.551	103.635	0.134	-0.158
-631.536	800.000	-0.053	0.191
-630.522	-47.586	-0.112	0.055
-629.507	-47.467	-0.343	0.167
-628.492	101.727	-0.141	-0.164
-627.478	63.400	-0.254	-0.256
-626.463	64.112	0.008	0.008
-625.449	800.000	0.102	0.287
-624.434	16.820	0.081	-0.065
-623.419	14.233	0.144	0.113
-622.405	-125.013	0.251	0.039
-621.390	-31.148	-0.299	-0.169
-620.376	86.009	-0.226	0.250
-619.361	-147.451	-0.128	0.011
-618.346	-123.370	0.099	0.016
-617.332	-123.251	-0.340	0.054
-616.317	-158.660	-0.195	0.011
-615.303	-154.958	0.358	0.024
-614.288	-31.538	0.246	0.138
-613.273	222.879	-0.059	-0.095
-612.259	215.154	-0.222	-0.352
-611.244	41.393	-0.039	0.035
-610.230	101.073	-0.206	0.240
-609.215	-200.000	0.009	-0.436
-608.201	78.347	0.366	0.392
-607.186	-2.948	-0.036	-0.025
-606.171	76.933	0.241	-0.257
-605.157	8.419	-0.149	0.113
-604.142	800.000	-0.062	0.210
-603.128	472.705	0.044	0.100
-602.113	-121.909	0.076	0.013
-601.098	-200.000	-0.048	-0.516
-600.084	213.009	0.119	0.188
-599.069	-106.129	-0.451	-0.102
-598.055	-121.243	-0.059	0.010
-597.040	146.448	0.109	0.147
-596.025	-200.000	-0.012	0.171
-595.011	-200.000	-0.043	0.236
-593.996	134.285	0.042	0.055
-592.982	-45.793	0.261	-0.129
-591.967	-162.792	-0.094	-0.005
-590.952	227.271	0.068	-0.111
-589.938	-200.000	0.035	-0.181
-588.923	234.370	-0.029	0.048
-587.909	-17.169	0.086	-0.054
-586.894	511.368	0.140	-0.327
-585.879	31.874	0.222	-0.191
-584.865	-200.000	0.008	-0.220
-583.850	343.009	-0.141	-0.277
-582.836	800.000	0.028	0.106
-581.821	139.066	0.116	-0.153
-580.806	-123.503	0.057	-0.009
-579.792	800.000	-0.067	-0.244
-578.777	-200.000	-0.021	0.108
-577.763	800.000	-0.108	0.306
-576.748	-183.700	0.264	0.005
-575.733	-55.330	0.106	0.048
-574.719	-106.804	0.113	-0.025
-573.704	-45.245	-0.115	0.057
-572.690	57.244	-0.071	-0.069
-571.675	114.909	-0.088	-0.107
-570.661	143.281	0.194	0.258
-569.646	-119.182	-0.224	-0.039
-568.631	82.393	-0.200	-0.218
-567.617	403.726	-0.122	0.257
-566.602	-101.093	-0.086	-0.021
-565.588	-6.572	-0.181	0.124
-564.573	-19.539	0.195	-0.121
-563.558	264.076	-0.249	0.433
-562.544	3.846	0.163	-0.119
-561.529	82.393	0.200	-0.217
-560.515	-200.000	0.061	0.317
-559.500	57.835	-0.270	-0.265
-558.485	-79.451	-0.217	-0.073
-557.471	69.481	0.128	0.132
-556.456	800.000	-0.007	-0.032
-555.442	800.000	0.082	0.238
-554.427	-32.793	-0.176	0.098
-553.412	148.943	0.197	0.266
-552.398	-65.360	-0.112	-0.045
-551.383	-115.332	0.451	-0.085
-550.369	86.337	-0.202	0.223
-549.354	800.000	-0.088	-0.365
-548.339	-56.347	0.410	-0.182
-547.325	71.655	0.246	-0.255
-546.310	40.798	-0.031	-0.028
-545.296	-4.006	-0.320	0.221
-544.281	-74.975	0.263	0.094
-543.266	-123.838	0.167	0.026
-542.252	-75.430	0.284	-0.101
-541.237	-124.445	-0.228	-0.035
-540.223	1.345	0.171	0.123
-539.208	-200.000	0.003	-0.031
-538.193	-5.958	0.114	-0.078
-537.179	-70.447	0.131	-0.050
-536.164	-152.932	0.142	-0.010
-535.150	-143.378	-0.272	-0.026
-534.135	89.077	-0.060	-0.067
-533.121	-25.510	0.169	-0.100
-532.106	800.000	-0.034	0.111
-531.091	99.939	0.168	0.195
-530.077	-200.000	-0.031	-0.206
-529.062	800.000	-0.060	-0.228
-528.048	312.576	-0.066	0.124
-527.033	542.068	0.046	0.109
-526.018	-42.320	-0.379	-0.193
-525.004	-40.353	0.125	0.065
-523.989	-32.784	-0.236	0.131
-522.975	-200.000	-0.010	0.210
-521.960	-200.000	0.110	0.522
-520.945	-18.351	-0.270	0.169
-519.931	-86.013	-0.168	-0.052
-518.916	138.258	0.091	0.120
-517.902	-200.000	0.034	-0.216
-516.887	182.657	0.145	0.213
-515.872	-10.706	-0.125	-0.083
-514.858	724.164	-0.095	-0.253
-513.843	-121.120	0.193	0.032
-512.829	-200.000	0.010	-0.134
-511.814	38.888	-0.016	0.014
-510.799	-57.778	-0.239	0.104
-509.785	-95.760	-0.425	-0.113
-508.770	-184.977	-0.433	0.007
-507.756	9.690	0.123	-0.093
-506.741	-34.520	0.376	-0.205
-505.726	-95.228	0.092	0.025
-504.712	-83.642	-0.157	-0.050
-503.697	800.000	-0.017	0.054
-502.683	52.407	0.079	0.075
-501.668	-124.758	0.123	-0.019
-500.653	120.195	0.249	0.309
-499.639	-118.653	-0.417	-0.073
-498.624	-200.000	0.023	-0.210
-497.610	118.737	0.278	-0.343
-496.595	-200.000	0.020	-0.265
-495.581	-85.883	0.191	0.059
-494.566	-200.000	0.001	-0.149
-493.551	-200.000	0.039	-0.333
-492.537	259.732	0.139	0.239
-491.522	363.248	-0.147	-0.295
-490.508	-76.573	-0.281	0.098
-489.493	-11.339	0.334	-0.219
-488.478	-86.758	0.178	-0.054
-487.464	105.311	0.045	-0.053
-486.449	-112.719	-0.200	0.040
-485.435	-177.719	-0.182	-0.004
-484.420	-34.252	0.280	-0.153
-483.405	77.242	-0.110	0.116
-482.391	-169.418	0.210	0.008
-481.376	-56.152	0.327	0.145
-480.362	-155.241	0.060	-0.004
-479.347	-118.926	0.312	-0.055
-478.332	-200.000	-0.012	0.061
-477.318	-112.464	0.326	0.065
-476.303	-109.446	-0.149	-0.031
-475.289	-62.015	0.216	0.090
-474.274	319.124	-0.122	0.231
-473.259	57.637	-0.083	-0.081
-472.245	74.008	0.136	-0.142
-471.230	800.000	-0.131	-0.383
-470.216	58.807	-0.048	0.047
-469.201	33.962	0.178	-0.154
-468.186	383.574	0.080	-0.164
-467.172	-92.197	-0.385	0.108
-466.157	135.776	-0.160	0.207
-465.143	-113.472	-0.079	-0.016
-464.128	-200.000	0.016	0.123
-463.113	172.797	-0.077	0.111
-462.099	-200.000	-0.021	0.178
-461.084	35.794	0.227	0.199
-460.070	-149.582	0.241	-0.019
-459.055	27.116	-0.220	0.184
-458.040	-4.872	0.325	0.223
-457.026	-177.371	-0.377	0.009
-456.011	-115.227	-0.155	0.029
-454.997	-164.725	0.240	-0.011
-453.982	-200.000	-0.017	-0.271
-452.968	285.344	-0.176	0.315
-451.953	82.258	-0.144	-0.155
-450.938	-67.035	0.314	0.123
-449.924	158.371	-0.255	-0.352
-448.909	-47.667	0.139	-0.067
-447.895	-152.662	0.077	0.005
-446.880	250.051	-0.149	0.252
-445.865	-133.180	-0.378	0.048
-444.851	-89.924	-0.043	-0.013
-443.836	-50.284	0.118	0.055
-442.822	-145.958	-0.028	0.002
-441.807	114.523	0.231	-0.281
-440.792	-80.627	-0.247	-0.082
-439.778	-200.000	-0.043	-0.296
-438.763	30.638	0.010	-0.009
-437.749	-43.348	-0.108	-0.054
-436.734	302.647	-0.065	0.120
-435.719	-161.267	0.213	-0.011
-434.705	-49.443	0.211	-0.100
-433.690	800.000	-0.081	-0.287
-432.676	-200.000	0.016	0.095
-431.661	73.587	-0.266	-0.277
-430.646	-200.000	0.019	-0.149
-429.632	129.572	-0.017	-0.021
-428.617	-90.165	-0.373	0.108
-427.603	73.406	-0.167	0.174
-426.588	-91.225	-0.171	0.049
-425.573	-36.816	0.116	-0.062
-424.559	-18.411	0.217	0.135
-423.544	-128.161	0.045	0.006
-422.530	270.858	0.135	-0.236
-421.515	-200.000	-0.062	-0.308
-420.500	-200.000	-0.012	0.371
-419.486	258.994	0.033	0.057
-418.471	600.009	-0.049	-0.120
-417.457	800.000	0.140	-0.416
-416.442	180.180	0.127	-0.185
-415.428	-72.159	0.285	-0.105
-414.413	102.950	-0.050	-0.058
-413.398	-119.834	-0.112	0.019
-412.384	309.588	-0.025	-0.046
-411.369	58.482	0.246	0.240
-410.355	108.732	-0.192	0.228
-409.340	-200.000	0.044	0.315
-408.325	-200.000	0.017	0.075
-407.311	800.000	-0.042	0.149
-406.296	62.417	0.073	0.072
-405.282	-168.103	0.238	-0.009
-404.267	-98.458	-0.022	0.006
-403.252	-77.125	-0.264	-0.092
-402.238	-92.853	0.227	0.063
-401.223	-200.000	-0.016	0.069
-400.209	-165.361	0.355	0.015
-399.194	-200.000	0.009	0.367
-398.179	110.798	-0.147	0.176
-397.165	-200.000	0.043	-0.243
-396.150	70.863	0.121	-0.125
-395.136	-200.000	-0.028	-0.187
-394.121	88.981	-0.320	0.354
-393.106	-200.000	0.002	-0.327
-392.092	-81.959	0.236	0.077
-391.077	273.910	-0.023	0.040
-390.063	117.650	-0.064	-0.079
-389.048	50.637	0.231	0.217
-388.033	-155.234	-0.122	0.008
-387.019	265.891	-0.153	0.264
-386.004	-75.038	-0.271	-0.096
-384.990	90.570	-0.051	0.056
-383.975	176.864	0.199	-0.287
-382.960	800.000	-0.013	-0.045
-381.946	81.032	-0.063	-0.068
-380.931	101.260	-0.108	-0.125
-379.917	123.964	-0.192	0.239
-378.902	109.237	-0.197	0.234
-377.888	723.590	0.040	-0.106
-376.873	162.202	-0.010	0.013
-375.858	-9.531	-0.142	0.094
-374.844	-173.230	-0.260	-0.008
-373.829	-200.000	0.001	0.263
-372.815	-23.022	-0.216	-0.129
-371.800	283.291	-0.121	0.216
-370.785	-90.746	0.235	0.067
-369.771	-36.690	-0.144	0.077
-368.756	-200.000	-0.016	0.124
-367.742	-88.311	0.189	0.056
-366.727	-105.925	-0.273	-0.061
-365.712	-8.298	0.081	-0.054
-364.698	63.318	-0.278	-0.276
-363.683	-75.766	0.298	0.105
-362.669	214.715	0.058	-0.092
-361.654	-44.483	0.118	-0.059
-360.639	83.439	0.257	0.278
-359.625	-18.472	-0.279	-0.173
-358.610	4.429	0.080	0.058
-357.596	-200.000	-0.017	-0.220
-356.581	-21.295	-0.106	0.064
-355.566	9.086	-0.026	-0.020
-354.552	70.307	-0.063	-0.065
-353.537	60.233	-0.175	-0.172
-352.523	-68.570	0.372	0.143
-351.508	-63.780	-0.252	0.103
-350.493	-133.198	-0.267	0.033
-349.479	180.168	0.214	0.312
-348.464	-162.109	0.140	-0.007
-347.450	56.982	-0.220	0.212
-346.435	25.024	0.089	-0.073
-345.420	-200.000	0.024	-0.312
-344.406	-155.131	-0.298	-0.019
-343.391	-37.972	0.221	0.117
-342.377	167.435	-0.105	0.147
-341.362	-200.000	0.004	0.164
-340.348	678.886	0.070	-0.181
-339.333	-96.072	-0.513	-0.135
-338.318	800.000	0.062	0.180
-337.304	800.000	0.009	-0.030
-336.289	-0.767	0.083	0.058
-335.275	239.929	0.041	0.067
-334.260	579.078	-0.076	-0.184
-333.245	-162.116	-0.336	-0.017
-332.231	-200.000	0.030	0.308
-331.216	-200.000	0.013	0.468
-330.202	-200.000	0.040	-0.250
-329.187	329.139	-0.066	-0.126
-328.172	-17.936	-0.089	0.055
-327.158	185.207	0.157	0.231
-326.143	-200.000	-0.003	-0.386
-325.129	470.382	-0.037	-0.082
-324.114	-55.767	0.271	-0.120
-323.099	82.634	0.085	0.091
-322.085	-200.000	-0.008	-0.101
-321.070	315.829	-0.199	-0.372
-320.056	-118.357	0.191	-0.034
-319.041	-86.160	-0.145	0.044
-318.026	20.109	0.155	0.124
-317.012	-200.000	-0.067	-0.305
-315.997	30.690	0.037	0.031
-314.983	-200.000	-0.045	-0.196
-313.968	-200.000	-0.032	0.192
-312.953	-154.677	0.177	0.012
-311.939	-168.746	-0.261	0.010
-310.924	800.000	0.037	-0.128
-309.910	-200.000	0.005	0.210
-308.895	19.344	0.281	-0.223
-307.880	165.401	-0.125	0.174
-306.866	213.368	-0.122	0.190
-305.851	372.493	0.039	0.079
-304.837	-9.777	-0.041	-0.027
-303.822	226.124	-0.230	-0.369
-302.807	-148.792	-0.134	-0.011
-301.793	-43.537	0.032	-0.016
-300.778	800.000	-0.044	0.181
-299.764	25.869	0.188	0.155
-298.749	149.810	0.172	0.231
-297.735	-22.467	-0.131	-0.078
-296.720	11.450	0.148	0.112
-295.705	-200.000	-0.013	0.242
-294.691	-72.707	0.145	-0.053
-293.676	800.000	0.029	0.087
-292.662	-67.327	0.128	-0.050
-291.647	75.459	-0.175	0.182
-290.632	-32.205	-0.218	-0.120
-289.618	37.733	0.214	-0.188
-288.603	-56.349	0.049	-0.021
-287.589	800.000	-0.092	-0.319
-286.574	-45.310	0.139	-0.068
-285.559	11.105	-0.158	0.120
-284.545	-38.855	-0.163	0.085
-283.530	-54.400	-0.154	-0.069
-282.516	-200.000	-0.034	0.195
-281.501	136.057	0.080	0.103
-280.486	243.267	0.057	-0.095
-279.472	-69.422	-0.376	0.143
-278.457	-200.000	-0.042	0.253
-277.443	-28.955	0.331	0.188
-276.428	187.667	-0.093	-0.137
-275.413	40.560	-0.112	-0.100
-274.399	151.452	-0.026	-0.034
-273.384	800.000	-0.077	0.226
-272.370	800.000	0.100	0.279
-271.355	800.000	-0.007	0.026
-270.340	-196.168	0.203	0.001
-269.326	800.000	0.087	0.277
-268.311	-200.000	0.039	0.535
-267.297	223.201	-0.116	-0.186
-266.282	-22.816	0.341	-0.203
-265.267	800.000	-0.059	0.161
-264.253	-90.521	0.291	0.083
-263.238	-156.546	0.282	0.017
-262.224	-200.000	-0.015	0.344
-261.209	58.297	0.142	0.137
-260.195	64.427	-0.021	0.021
-259.180	-168.386	0.254	-0.010
-258.165	196.711	0.175	-0.264
-257.151	-200.000	0.033	-0.277
-256.136	-129.179	-0.320	-0.044
-255.122	36.288	-0.184	0.160
-254.107	-200.000	-0.007	0.040
-253.092	-39.433	0.292	-0.151
-252.078	223.373	0.014	-0.022
-251.063	330.858	-0.143	0.273
-250.049	26.081	0.262	0.216
-249.034	800.000	-0.108	-0.311
-248.019	333.060	-0.100	-0.191
-247.005	-200.000	-0.028	0.134
-245.990	217.961	0.106	-0.167
-244.976	-200.000	-0.004	-0.063
-243.961	318.776	0.073	-0.137
-242.946	-116.460	-0.115	0.021
-241.932	-28.994	-0.118	-0.067
-240.917	155.457	-0.079	-0.108
-239.903	-62.667	0.236	-0.097
-238.888	-112.659	-0.076	-0.015
-237.873	7.181	-0.168	-0.124
-236.859	-108.736	0.177	0.037
-235.844	123.260	0.139	-0.171
-234.830	-200.000	-0.002	0.103
-233.815	484.278	0.029	-0.066
-232.800	45.683	-0.028	0.026
-231.786	204.552	0.073	-0.111
-230.771	253.094	-0.037	-0.063
-229.757	673.609	-0.133	-0.341
-228.742	93.942	-0.262	0.293
-227.727	209.846	0.155	-0.239
-226.713	-98.482	-0.167	-0.042
-225.698	316.112	0.091	-0.170
-224.684	-200.000	-0.012	-0.202
-223.669	-200.000	0.036	-0.251
-222.655	36.963	-0.061	-0.053
-221.640	104.906	0.087	0.102
-220.625	691.180	0.071	0.183
-219.611	-125.106	-0.401	0.061
-218.596	-200.000	0.017	0.098
-217.582	800.000	0.043	-0.147
-216.567	109.874	0.339	-0.402
-215.552	-200.000	-0.042	0.217
-214.538	-200.000	0.007	-0.047
-213.523	225.882	0.266	-0.425
-212.509	-101.828	0.494	-0.118
-211.494	574.161	0.024	-0.057
-210.479	-104.440	0.292	0.067
-209.465	-17.207	0.196	0.122
-208.450	562.953	0.134	0.319
-207.436	-116.404	-0.162	-0.030
-206.421	252.899	0.183	-0.308
-205.406	36.420	0.118	0.103
-204.392	-84.801	-0.178	-0.055
-203.377	-200.000	0.010	0.125
-202.363	800.000	0.033	-0.134
-201.348	45.190	0.157	-0.143
-200.333	2.077	-0.074	-0.053
-199.319	277.368	-0.125	-0.219
-198.304	-200.000	-0.027	-0.118
-197.290	23.105	0.185	-0.150
-196.275	241.069	0.044	0.072
-195.260	166.306	0.092	0.128
-194.246	-149.927	0.197	-0.015
-193.231	151.360	-0.197	0.264
-192.217	-200.000	-0.014	-0.320
-191.202	341.661	-0.026	0.049
-190.187	-161.151	-0.110	-0.006
-189.173	-174.836	0.269	0.007
-188.158	54.610	0.189	0.180
-187.144	17.476	0.099	-0.078
-186.129	35.935	-0.304	0.264
-185.114	636.901	-0.176	0.442
-184.100	800.000	0.009	-0.028
-183.085	-130.659	-0.377	0.050
-182.071	-200.000	-0.017	0.079
-181.056	-200.000	0.005	-0.046
-180.042	638.519	0.056	0.141
-179.027	275.212	-0.127	0.222
-178.012	-153.136	-0.108	-0.007
-176.998	488.204	0.022	0.049
-175.983	115.553	-0.290	-0.350
-174.969	800.000	0.013	-0.042
-173.954	-200.000	0.023	0.414
-172.939	61.511	-0.194	0.190
-171.925	-106.055	-0.138	0.031
-170.910	800.000	0.018	0.076
-169.896	46.327	0.089	0.082
-168.881	-3.862	-0.114	-0.078
-167.866	-49.885	-0.144	-0.067
-166.852	-200.000	-0.008	0.205
-165.837	-103.914	-0.026	-0.006
-164.823	-53.018	0.230	0.104
-163.808	-200.000	0.009	-0.098
-162.793	-19.060	0.253	-0.155
-161.779	800.000	0.045	0.143
-160.764	85.587	0.043	-0.046
-159.750	9.426	0.162	0.121
-158.735	402.015	0.025	0.051
-157.720	-124.372	-0.294	-0.045
-156.706	-200.000	-0.011	-0.247
-155.691	-81.722	0.211	0.068
-154.677	-200.000	-0.004	-0.079
-153.662	-30.835	0.210	-0.117
-152.647	382.392	0.126	0.256
-151.633	800.000	0.059	-0.233
-150.618	800.000	0.038	0.108
-149.604	-200.000	-0.068	0.395
-148.589	-66.946	-0.271	-0.105
-147.574	-162.432	0.152	0.007
-146.560	-200.000	0.057	0.247
-145.545	-200.000	0.058	0.471
-144.531	-157.120	-0.068	-0.004
-143.516	-125.170	0.332	0.050
-142.502	-99.357	0.049	-0.012
-141.487	-33.960	0.216	-0.117
-140.472	268.202	0.069	0.119
-139.458	-22.089	0.131	-0.078
-138.443	-200.000	-0.008	0.075
-137.429	29.525	-0.298	0.249
-136.414	-52.066	0.250	0.114
-135.399	400.739	0.059	-0.122
-134.385	-103.268	0.099	0.023
-133.370	800.000	-0.032	-0.099
-132.356	800.000	-0.061	0.187
-131.341	-200.000	-0.030	-0.361
-130.326	189.505	-0.054	-0.079
-129.312	165.959	-0.054	-0.076
-128.297	124.751	-0.078	0.096
-127.283	497.509	-0.039	-0.088
-126.268	127.612	-0.177	-0.221
-125.253	191.370	0.048	-0.072
-124.239	40.635	-0.171	0.152
-123.224	218.330	-0.093	0.146
-122.210	-105.180	-0.361	-0.081
-121.195	-200.000	-0.003	-0.064
