DTS Sentinel unit serial number:	SN413079Multiplexer serial number:	ORYXHardware model number:	OX4-SRSoftware version number:	ORYX F/W v4.00 Oryx Data Collector v3.7.2.0data status	okinstallation	princeton_trtdifferential loss correction	single-endedforward channel	channel 2reverse channel	N/Adate	2019/09/18time	04:31:35forward acquisition time	60.00reverse acquisition time	0.00gamma	496.2192k internal	0.2348k external	0.2348temperature offset calibration	0.9985default loss term (dB/km)	0.3790temperature slope calibration	1.0000multiplexer offset coefficient	1.0000multiplexer slope coefficient	1.0000fibre end	0.00T internal ref (°C)	23.37T ext. ref 1 (°C)	0.19T ext. ref 2 (°C)	17.60length (m)	temperature (°C)	Stokes	anti-Stokes-747.200	154.603	0.181	-0.249
-746.185	-102.947	-0.284	0.067
-745.171	-200.000	-0.029	-0.133
-744.156	800.000	0.047	0.174
-743.142	-52.172	0.168	0.078
-742.127	800.000	-0.069	0.287
-741.112	251.083	0.256	0.435
-740.098	53.895	0.120	-0.116
-739.083	-200.000	-0.096	0.535
-738.069	472.860	-0.128	0.288
-737.054	-200.000	-0.028	0.458
-736.039	-27.484	-0.396	-0.230
-735.025	800.000	-0.016	-0.047
-734.010	-58.312	-0.438	-0.190
-732.996	-200.000	-0.007	0.034
-731.981	-128.646	-0.164	-0.023
-730.966	-38.032	0.042	-0.022
-729.952	-200.000	0.011	-0.107
-728.937	298.624	-0.126	0.232
-727.923	-200.000	-0.016	-0.258
-726.908	-42.308	0.122	0.062
-725.894	231.893	-0.174	-0.284
-724.879	-155.919	-0.068	-0.004
-723.864	-113.934	0.058	-0.011
-722.850	138.779	0.129	-0.170
-721.835	-200.000	0.013	0.113
-720.821	-166.185	0.141	-0.006
-719.806	-8.144	-0.472	0.317
-718.791	800.000	-0.105	0.327
-717.777	70.863	0.169	0.174
-716.762	-44.383	-0.173	-0.087
-715.748	-200.000	0.052	0.611
-714.733	-102.313	0.080	-0.019
-713.718	-141.286	-0.254	-0.026
-712.704	47.128	-0.180	-0.168
-711.689	53.358	-0.064	0.061
-710.675	-115.456	-0.291	0.055
-709.660	-128.508	0.129	0.018
-708.645	-200.000	0.018	0.084
-707.631	-92.069	-0.429	0.121
-706.616	365.906	0.055	0.110
-705.602	112.270	0.150	0.182
-704.587	-156.373	-0.368	0.023
-703.572	-16.372	-0.286	0.181
-702.558	-200.000	-0.050	-0.309
-701.543	198.136	0.032	0.049
-700.529	615.050	0.023	0.057
-699.514	-20.982	-0.332	0.203
-698.499	724.391	-0.062	-0.164
-697.485	-59.396	0.145	-0.062
-696.470	-157.919	0.206	0.012
-695.456	68.884	-0.276	0.283
-694.441	-72.103	0.272	-0.101
-693.426	125.089	0.200	0.251
-692.412	254.061	-0.106	-0.181
-691.397	-88.336	-0.347	0.103
-690.383	692.129	-0.083	0.218
-689.368	327.495	-0.149	-0.284
-688.354	-200.000	0.018	-0.175
-687.339	154.411	-0.374	-0.512
-686.324	800.000	0.128	-0.483
-685.310	67.948	-0.176	-0.179
-684.295	-56.532	0.189	-0.084
-683.281	-200.000	0.060	0.424
-682.266	333.084	0.147	0.284
-681.251	129.866	-0.119	0.152
-680.237	23.379	-0.240	-0.197
-679.222	800.000	0.057	-0.225
-678.208	186.008	0.094	-0.139
-677.193	-164.153	-0.340	-0.016
-676.178	191.726	-0.299	-0.450
-675.164	-120.283	0.138	-0.024
-674.149	-62.266	-0.148	0.061
-673.135	800.000	0.038	0.105
-672.120	377.890	-0.047	-0.095
-671.105	-48.077	-0.076	-0.036
-670.091	-200.000	0.013	0.204
-669.076	415.640	-0.090	-0.192
-668.062	-55.393	-0.274	-0.122
-667.047	-200.000	-0.023	-0.177
-666.032	-52.760	0.199	0.091
-665.018	-200.000	-0.002	0.149
-664.003	800.000	-0.047	0.180
-662.989	-55.230	0.396	0.178
-661.974	-200.000	0.017	-0.156
-660.959	-200.000	0.005	0.196
-659.945	182.778	0.141	-0.207
-658.930	207.502	-0.029	-0.045
-657.916	-92.699	0.165	-0.046
-656.901	-8.141	-0.095	0.064
-655.886	60.453	-0.041	0.040
-654.872	211.371	-0.133	-0.209
-653.857	-26.702	0.268	-0.156
-652.843	-15.972	0.267	0.169
-651.828	126.208	-0.267	-0.336
-650.814	-82.979	-0.142	-0.045
-649.799	-154.085	-0.377	0.025
-648.784	-200.000	-0.036	-0.321
-647.770	547.487	-0.098	-0.233
-646.755	24.843	0.058	0.048
-645.741	337.663	-0.088	-0.171
-644.726	-200.000	-0.028	-0.174
-643.711	-146.407	0.295	0.026
-642.697	-113.322	-0.034	-0.007
-641.682	-200.000	-0.034	-0.346
-640.668	-31.732	-0.159	-0.089
-639.653	-200.000	-0.015	-0.106
-638.638	339.190	0.103	-0.200
-637.624	-200.000	-0.010	-0.269
-636.609	615.392	-0.113	0.281
-635.595	-147.530	-0.042	0.004
-634.580	-62.664	0.227	-0.094
-633.565	-119.487	0.382	0.066
-632.551	-117.835	-0.297	-0.053
-631.536	99.219	-0.247	0.285
-630.522	220.773	0.148	0.236
-629.507	-78.081	-0.199	-0.068
-628.492	-90.074	-0.110	0.032
-627.478	-65.099	-0.015	0.006
-626.463	-18.926	-0.332	-0.205
-625.449	-200.000	-0.018	0.137
-624.434	189.339	-0.046	-0.069
-623.419	-68.818	0.312	0.120
-622.405	326.030	-0.140	0.266
-621.390	-135.413	0.065	0.008
-620.376	161.028	0.088	-0.122
-619.361	-194.066	0.322	0.003
-618.346	-200.000	0.008	-0.388
-617.332	298.325	0.103	-0.189
-616.317	183.221	-0.160	0.235
-615.303	800.000	-0.033	0.141
-614.288	-200.000	-0.042	-0.248
-613.273	218.712	0.244	-0.387
-612.259	-64.175	0.066	-0.027
-611.244	-109.458	-0.243	0.051
-610.230	10.265	0.186	-0.141
-609.215	-200.000	0.069	-0.323
-608.201	-200.000	-0.018	0.171
-607.186	-52.823	-0.315	0.144
-606.171	-67.996	0.073	-0.028
-605.157	-41.191	-0.203	0.104
-604.142	148.375	0.083	0.111
-603.128	108.532	0.100	0.118
-602.113	-153.341	0.108	-0.008
-601.098	-2.186	-0.248	0.173
-600.084	-101.380	0.195	-0.047
-599.069	-67.791	0.100	-0.039
-598.055	22.806	0.091	0.074
-597.040	24.466	-0.154	-0.127
-596.025	-200.000	0.003	0.218
-595.011	70.867	0.208	0.214
-593.996	-200.000	0.022	0.343
-592.982	-10.392	-0.208	0.137
-591.967	-200.000	-0.039	-0.303
-590.952	-133.089	0.266	0.034
-589.938	160.875	-0.163	0.226
-588.923	-200.000	0.003	-0.116
-587.909	-107.569	-0.121	-0.026
-586.894	800.000	0.063	-0.192
-585.879	153.872	-0.036	-0.049
-584.865	81.735	-0.266	0.285
-583.850	-200.000	0.003	0.061
-582.836	-81.213	-0.168	0.055
-581.821	-200.000	0.000	0.233
-580.806	-149.516	-0.485	-0.038
-579.792	-192.250	-0.227	0.002
-578.777	-8.279	0.158	-0.106
-577.763	-200.000	-0.003	0.062
-576.748	36.062	-0.268	0.235
-575.733	41.382	0.254	0.228
-574.719	-48.518	-0.339	0.162
-573.704	-10.360	-0.324	-0.214
-572.690	-0.012	0.108	0.076
-571.675	800.000	-0.041	0.147
-570.661	-127.284	0.078	0.011
-569.646	-61.828	-0.078	0.033
-568.631	-200.000	-0.012	-0.191
-567.617	-70.890	-0.191	-0.071
-566.602	-200.000	0.187	-0.001
-565.588	636.861	0.155	0.391
-564.573	-200.000	-0.044	-0.331
-563.558	-94.175	-0.284	-0.077
-562.544	8.240	0.168	0.125
-561.529	-32.984	-0.267	0.147
-560.515	-200.000	-0.047	-0.214
-559.500	-200.000	0.041	-0.318
-558.485	-54.485	-0.112	0.050
-557.471	-110.548	0.195	0.040
-556.456	77.646	0.073	-0.077
-555.442	-172.005	0.020	0.001
-554.427	-200.000	-0.020	-0.175
-553.412	400.993	-0.095	0.198
-552.398	800.000	0.046	0.137
-551.383	279.453	0.088	-0.156
-550.369	124.148	0.345	0.430
-549.354	-107.600	0.249	0.054
-548.339	256.314	-0.177	0.301
-547.325	-200.000	0.011	-0.083
-546.310	-108.124	0.071	-0.015
-545.296	332.222	-0.023	-0.045
-544.281	-200.000	0.013	-0.370
-543.266	63.771	-0.138	0.137
-542.252	-200.000	0.000	0.131
-541.237	-73.169	0.137	0.050
-540.223	297.134	0.025	0.045
-539.208	-139.945	-0.468	-0.049
-538.193	-84.566	-0.350	0.109
-537.179	25.258	0.222	0.182
-536.164	85.418	0.090	-0.098
-535.150	-98.359	-0.188	-0.048
-534.135	3.872	0.285	0.207
-533.121	134.952	0.054	0.070
-532.106	137.447	-0.225	-0.292
-531.091	-68.467	-0.483	-0.186
-530.077	-133.560	0.251	-0.031
-529.062	-200.000	0.029	0.345
-528.048	-60.034	0.201	-0.085
-527.033	289.409	0.089	0.160
-526.018	-3.715	0.173	-0.119
-525.004	-86.482	0.295	0.090
-523.989	-149.221	-0.341	-0.027
-522.975	58.957	0.234	0.228
-521.960	-200.000	0.011	0.233
-520.945	-200.000	0.002	0.020
-519.931	38.225	-0.109	0.096
-518.916	-200.000	-0.053	-0.231
-517.902	-123.726	0.253	0.040
-516.887	800.000	-0.054	-0.207
-515.872	-156.093	0.080	0.005
-514.858	77.715	-0.298	0.314
-513.843	-53.491	0.235	-0.106
-512.829	-19.773	0.051	0.032
-511.814	69.784	-0.164	0.168
-510.799	42.989	0.178	0.161
-509.785	-72.534	-0.345	0.126
-508.770	-51.743	0.368	-0.170
-507.756	-0.279	-0.239	-0.168
-506.741	30.874	-0.111	-0.094
-505.726	14.127	-0.057	-0.044
-504.712	57.579	0.084	-0.081
-503.697	322.373	0.055	0.104
-502.683	74.657	0.324	0.337
-501.668	282.198	-0.207	-0.368
-500.653	4.366	-0.239	0.173
-499.639	-111.980	-0.315	-0.063
-498.624	-200.000	0.013	0.261
-497.610	-23.572	-0.184	-0.109
-496.595	-10.843	-0.079	-0.052
-495.581	-87.016	0.164	-0.050
-494.566	51.571	-0.079	-0.074
-493.551	-22.462	-0.273	-0.163
-492.537	-200.000	0.013	-0.093
-491.522	-105.818	0.177	-0.039
-490.508	-14.940	-0.092	0.058
-489.493	-200.000	0.039	0.190
-488.478	-200.000	0.003	0.062
-487.464	-62.238	-0.286	-0.118
-486.449	70.990	-0.068	-0.070
-485.435	38.879	0.281	-0.248
-484.420	232.761	-0.037	0.060
-483.405	80.725	-0.190	0.203
-482.391	-200.000	-0.042	-0.222
-481.376	95.916	-0.278	0.314
-480.362	800.000	-0.076	0.282
-479.347	800.000	0.110	0.428
-478.332	800.000	-0.019	-0.068
-477.318	-69.848	0.253	-0.095
-476.303	413.329	0.089	-0.187
-475.289	-126.734	-0.150	-0.022
-474.274	-15.586	-0.146	-0.092
-473.259	-83.340	0.242	0.077
-472.245	-35.794	0.082	-0.044
-471.230	-200.000	-0.014	-0.166
-470.216	800.000	0.124	0.384
-469.201	-41.433	-0.231	-0.117
-468.186	800.000	0.054	-0.164
-467.172	800.000	-0.113	0.373
-466.157	-95.752	-0.311	0.082
-465.143	-64.852	-0.245	-0.098
-464.128	46.248	0.345	-0.316
-463.113	18.124	0.379	0.299
-462.099	800.000	0.043	0.182
-461.084	800.000	-0.016	-0.058
-460.070	-178.136	0.333	0.008
-459.055	-13.598	-0.375	0.240
-458.040	-108.776	-0.298	-0.063
-457.026	17.019	-0.138	-0.108
-456.011	22.796	0.292	-0.236
-454.997	-106.993	-0.283	0.062
-453.982	85.644	-0.067	-0.072
-452.968	-200.000	0.031	0.238
-451.953	-109.649	-0.270	0.056
-450.938	54.473	-0.288	-0.274
-449.924	101.887	0.022	0.025
-448.909	1.693	-0.178	0.127
-447.895	-200.000	-0.057	0.323
-446.880	-52.181	0.214	-0.098
-445.865	194.491	-0.175	0.263
-444.851	49.360	0.140	-0.130
-443.836	-6.613	0.117	-0.079
-442.822	-116.669	0.242	-0.044
-441.807	-28.643	-0.364	0.207
-440.792	22.406	0.080	0.065
-439.778	127.507	-0.088	0.110
-438.763	-42.293	0.332	-0.167
-437.749	174.908	0.162	-0.231
-436.734	-200.000	-0.021	0.144
-435.719	62.565	0.040	0.039
-434.705	-48.298	-0.294	0.140
-433.690	336.885	0.098	-0.188
-432.676	0.480	-0.321	0.227
-431.661	-200.000	0.033	0.156
-430.646	-126.215	-0.332	-0.049
-429.632	224.775	-0.203	0.323
-428.617	-200.000	-0.078	-0.358
-427.603	-200.000	0.029	0.475
-426.588	-60.290	-0.346	-0.146
-425.573	96.500	-0.098	-0.111
-424.559	800.000	0.115	0.404
-423.544	800.000	0.043	-0.135
-422.530	288.228	-0.088	0.157
-421.515	473.378	0.065	-0.145
-420.500	-193.722	-0.174	0.001
-419.486	-71.401	-0.106	-0.039
-418.471	800.000	0.037	-0.132
-417.457	478.395	-0.061	0.137
-416.442	191.188	0.036	0.053
-415.428	-126.519	0.348	0.051
-414.413	-66.113	0.210	-0.083
-413.398	69.029	-0.069	0.070
-412.384	224.019	-0.114	-0.182
-411.369	-200.000	-0.007	-0.033
-410.355	-65.087	-0.141	-0.056
-409.340	800.000	-0.086	-0.311
-408.325	800.000	0.058	-0.187
-407.311	-123.481	0.108	0.017
-406.296	-200.000	-0.021	-0.173
-405.282	-120.745	0.311	-0.052
-404.267	215.720	0.067	0.105
-403.252	162.967	0.017	-0.024
-402.238	471.526	-0.205	-0.454
-401.223	-105.519	-0.136	-0.030
-400.209	-182.601	0.246	0.004
-399.194	-200.000	0.017	0.116
-398.179	-117.395	0.224	-0.040
-397.165	-26.429	0.157	0.091
-396.150	-200.000	-0.030	-0.177
-395.136	10.223	-0.217	0.163
-394.121	209.884	0.131	0.203
-393.106	-200.000	-0.011	0.210
-392.092	493.402	0.202	-0.458
-391.077	-200.000	-0.044	0.219
-390.063	39.358	0.075	-0.066
-389.048	800.000	-0.142	-0.473
-388.033	-200.000	0.049	0.240
-387.019	-4.193	-0.142	0.097
-386.004	103.839	0.266	-0.308
-384.990	192.851	0.066	0.098
-383.975	-200.000	0.057	0.255
-382.960	-200.000	0.013	0.133
-381.946	328.190	-0.081	-0.153
-380.931	-200.000	-0.016	-0.133
-379.917	-81.714	-0.254	-0.082
-378.902	-200.000	-0.034	-0.218
-377.888	-124.074	-0.398	-0.062
-376.873	-43.854	0.118	-0.058
-375.858	79.119	-0.267	0.281
-374.844	-200.000	0.038	-0.360
-373.829	800.000	0.048	0.150
-372.815	424.114	-0.062	-0.132
-371.800	349.983	-0.108	-0.210
-370.785	130.080	0.005	-0.007
-369.771	16.764	0.177	0.138
-368.756	580.334	0.065	0.157
-367.742	-41.060	0.149	0.076
-366.727	92.381	-0.033	-0.037
-365.712	-200.000	0.015	0.134
-364.698	61.489	-0.111	-0.108
-363.683	800.000	-0.029	-0.102
-362.669	-4.501	0.254	-0.173
-361.654	800.000	0.075	-0.300
-360.639	84.072	-0.056	-0.060
-359.625	-180.977	0.196	-0.004
-358.610	34.476	-0.086	0.074
-357.596	-200.000	-0.014	0.197
-356.581	26.020	0.195	0.160
-355.566	800.000	0.076	0.255
-354.552	95.467	0.158	0.178
-353.537	-35.679	0.208	-0.111
-352.523	33.615	0.192	-0.164
-351.508	-97.342	-0.379	-0.097
-350.493	108.660	0.201	-0.236
-349.479	-200.000	0.013	0.175
-348.464	-200.000	0.000	-0.111
-347.450	89.787	-0.017	-0.019
-346.435	-3.152	-0.279	-0.191
-345.420	-17.603	0.171	0.106
-344.406	-200.000	-0.016	0.199
-343.391	-146.763	-0.465	-0.039
-342.377	800.000	-0.049	-0.140
-341.362	98.550	-0.111	0.125
-340.348	-130.176	-0.473	0.063
-339.333	64.114	-0.228	0.225
-338.318	-60.404	-0.211	0.088
-337.304	-200.000	-0.016	-0.084
-336.289	-71.101	0.131	0.048
-335.275	-146.403	-0.048	0.004
-334.260	-196.358	-0.234	-0.002
-333.245	348.409	0.089	-0.173
-332.231	-56.781	0.277	0.120
-331.216	-3.704	0.078	-0.053
-330.202	800.000	-0.062	0.195
-329.187	594.875	0.081	0.197
-328.172	269.000	-0.082	0.142
-327.158	424.018	0.157	0.333
-326.143	800.000	-0.047	-0.140
-325.129	-7.545	-0.055	-0.037
-324.114	1.481	0.186	-0.131
-323.099	-118.724	-0.068	0.012
-322.085	-120.016	0.095	0.016
-321.070	-115.259	-0.340	0.063
-320.056	-200.000	0.006	-0.533
-319.041	574.264	0.092	-0.220
-318.026	22.323	0.060	0.048
-317.012	-142.508	0.446	-0.043
-315.997	-200.000	-0.007	0.094
-314.983	-19.188	-0.139	-0.085
-313.968	24.493	0.202	-0.164
-312.953	-200.000	0.019	0.280
-311.939	-200.000	-0.065	-0.321
-310.924	800.000	-0.034	-0.113
-309.910	651.415	0.066	0.165
-308.895	-71.263	0.142	0.052
-307.880	160.719	-0.142	0.195
-306.866	25.945	-0.328	0.269
-305.851	-162.379	-0.272	-0.013
-304.837	-62.716	-0.317	0.129
-303.822	-16.969	0.146	0.091
-302.807	-200.000	0.006	-0.266
-301.793	-73.587	0.228	-0.082
-300.778	-58.987	0.080	-0.034
-299.764	270.761	-0.122	-0.211
-298.749	221.699	0.020	-0.032
-297.735	107.316	0.067	-0.078
-296.720	-52.643	0.151	-0.068
-295.705	800.000	-0.122	0.388
-294.691	289.164	0.102	-0.181
-293.676	-30.062	-0.140	0.078
-292.662	189.148	-0.206	0.303
-291.647	-98.439	-0.039	-0.010
-290.632	96.244	0.135	-0.152
-289.618	-200.000	-0.049	0.363
-288.603	-200.000	-0.071	0.322
-287.589	-13.664	0.252	-0.160
-286.574	-79.884	0.235	0.077
-285.559	-96.817	-0.139	0.036
-284.545	370.757	0.116	0.230
-283.530	55.491	-0.177	0.168
-282.516	50.845	0.170	0.158
-281.501	351.429	0.261	-0.506
-280.486	-6.890	0.148	0.099
-279.472	-79.881	0.227	0.075
-278.457	-138.281	0.291	-0.032
-277.443	-74.196	-0.037	0.013
-276.428	-58.300	0.188	-0.080
-275.413	-67.649	0.276	-0.106
-274.399	800.000	0.022	0.080
-273.384	142.897	0.103	0.134
-272.370	-114.017	0.049	-0.009
-271.355	589.075	0.046	-0.112
-270.340	-47.859	0.240	0.114
-269.326	452.883	-0.068	0.146
-268.311	88.982	-0.099	-0.108
-267.297	-140.442	0.191	-0.020
-266.282	800.000	0.141	0.450
-265.267	19.572	0.229	-0.180
-264.253	200.457	-0.058	0.087
-263.238	-63.216	-0.132	-0.053
-262.224	671.207	-0.040	0.103
-261.209	-145.702	-0.335	0.029
-260.195	-200.000	-0.018	0.147
-259.180	126.548	0.070	0.087
-258.165	-185.344	0.214	0.003
-257.151	55.427	-0.170	0.161
-256.136	-73.257	0.378	0.136
-255.122	-131.742	0.287	-0.037
-254.107	-39.339	-0.343	-0.177
-253.092	-56.417	-0.202	-0.088
-252.078	67.701	0.311	0.311
-251.063	236.557	-0.135	-0.218
-250.049	-60.658	-0.394	-0.164
-249.034	-200.000	0.039	0.263
-248.019	95.212	-0.118	-0.131
-247.005	-15.901	-0.261	-0.163
-245.990	9.407	0.342	-0.253
-244.976	-200.000	0.018	-0.085
-243.961	673.017	0.093	-0.236
-242.946	-131.972	0.329	-0.042
-241.932	-69.481	0.179	-0.067
-240.917	517.315	-0.027	-0.061
-239.903	144.793	-0.136	0.178
-238.888	670.493	-0.026	-0.066
-237.873	254.079	0.209	0.351
-236.859	-40.452	-0.266	0.135
-235.844	-91.555	-0.306	0.086
-234.830	-54.631	-0.127	0.056
-233.815	-54.189	0.263	-0.117
-232.800	800.000	-0.067	0.195
-231.786	179.997	-0.117	-0.168
-230.771	148.051	-0.095	-0.126
-229.757	35.807	0.306	0.264
-228.742	800.000	-0.028	0.106
-227.727	800.000	-0.046	0.150
-226.713	-46.177	0.383	-0.185
-225.698	800.000	0.033	-0.137
-224.684	345.905	-0.076	-0.146
-223.669	800.000	-0.154	-0.475
-222.655	57.410	-0.137	-0.131
-221.640	-200.000	-0.021	0.144
-220.625	14.677	0.102	-0.078
-219.611	-200.000	-0.033	-0.260
-218.596	-20.361	-0.059	-0.036
-217.582	-200.000	-0.019	-0.254
-216.567	3.667	-0.095	-0.068
-215.552	-133.605	0.050	-0.006
-214.538	-106.626	0.316	0.069
-213.523	-95.257	0.324	-0.085
-212.509	-200.000	0.006	0.124
-211.494	-5.985	-0.204	0.136
-210.479	-18.985	-0.037	0.023
-209.465	27.605	-0.085	-0.070
-208.450	-84.763	0.080	-0.025
-207.436	-38.880	0.205	-0.106
-206.421	123.153	0.077	-0.095
-205.406	162.368	0.081	0.111
-204.392	-200.000	-0.023	-0.274
-203.377	-37.899	0.380	-0.198
-202.363	-200.000	0.014	-0.077
-201.348	178.250	-0.039	0.055
-200.333	-44.172	0.220	0.108
-199.319	240.179	0.044	-0.071
-198.304	-113.714	0.221	-0.042
-197.290	-200.000	0.002	0.281
-196.275	-45.329	0.041	0.020
-195.260	-200.000	0.019	-0.273
-194.246	-164.488	-0.391	0.017
-193.231	158.101	0.173	0.234
-192.217	292.253	-0.104	0.185
-191.202	-29.156	0.207	-0.116
-190.187	672.587	-0.067	-0.170
-189.173	118.387	-0.027	0.033
-188.158	800.000	-0.098	0.411
-187.144	234.873	-0.087	-0.140
-186.129	-49.484	0.218	0.102
-185.114	-143.781	0.341	0.032
-184.100	-87.669	0.362	-0.107
-183.085	-7.182	0.124	-0.082
-182.071	800.000	-0.095	0.255
-181.056	-191.960	-0.284	-0.003
-180.042	-200.000	0.012	0.112
-179.027	24.695	0.222	0.180
-178.012	-145.922	0.119	-0.010
-176.998	28.978	-0.170	0.141
-175.983	331.403	0.223	-0.420
-174.969	-33.975	0.067	-0.036
-173.954	-154.877	0.095	0.006
-172.939	33.663	0.210	0.178
-171.925	40.471	0.284	-0.249
-170.910	325.473	-0.046	-0.085
-169.896	36.922	0.068	-0.059
-168.881	233.037	-0.148	-0.238
-167.866	118.381	-0.169	-0.203
-166.852	94.651	0.034	0.038
-165.837	-200.000	-0.035	0.319
-164.823	-53.420	0.227	0.101
-163.808	-57.395	-0.270	0.116
-162.793	52.673	0.198	-0.185
-161.779	800.000	0.111	-0.300
-160.764	-119.848	0.144	0.024
-159.750	70.426	0.271	-0.274
-158.735	60.549	-0.161	-0.156
-157.720	-200.000	0.021	-0.208
-156.706	-200.000	-0.025	-0.189
-155.691	16.687	0.159	-0.122
-154.677	30.113	-0.063	0.052
-153.662	-133.550	-0.232	-0.028
-152.647	136.433	-0.143	-0.183
-151.633	-200.000	0.021	0.144
-150.618	-99.896	0.245	-0.060
-149.604	766.097	-0.037	-0.097
-148.589	572.570	-0.139	-0.331
-147.574	175.751	0.154	0.218
-146.560	368.187	0.085	-0.168
-145.545	-137.840	0.363	-0.040
-144.531	61.533	-0.136	-0.132
-143.516	800.000	0.089	0.254
-142.502	-63.762	-0.294	-0.117
-141.487	-0.662	0.275	-0.190
-140.472	-200.000	0.006	0.130
-139.458	800.000	0.032	0.107
-138.443	106.783	-0.151	0.175
-137.429	-200.000	0.039	0.269
-136.414	-197.493	-0.347	-0.002
-135.399	49.148	0.230	0.211
-134.385	53.531	0.068	0.064
-133.370	-200.000	-0.070	0.430
-132.356	-200.000	-0.045	-0.202
-131.341	7.137	0.175	0.127
-130.326	-200.000	-0.025	0.145
-129.312	-200.000	-0.016	-0.395
-128.297	-99.930	-0.303	-0.074
-127.283	285.572	0.130	0.229
-126.268	288.617	0.179	-0.315
-125.253	57.170	0.209	-0.199
-124.239	24.747	0.231	0.186
-123.224	113.744	0.194	-0.229
-122.210	57.985	-0.265	-0.253
-121.195	247.551	-0.267	-0.440
