DTS Sentinel unit serial number:	SN413079Multiplexer serial number:	ORYXHardware model number:	OX4-SRSoftware version number:	ORYX F/W v4.00 Oryx Data Collector v3.7.2.0data status	okinstallation	princeton_trtdifferential loss correction	single-endedforward channel	channel 2reverse channel	N/Adate	2019/09/12time	06:45:10forward acquisition time	60.00reverse acquisition time	0.00gamma	496.2192k internal	0.2324k external	0.2324temperature offset calibration	1.0065default loss term (dB/km)	0.3790temperature slope calibration	1.0000multiplexer offset coefficient	1.0000multiplexer slope coefficient	1.0000fibre end	0.00T internal ref (°C)	32.14T ext. ref 1 (°C)	1.58T ext. ref 2 (°C)	27.27length (m)	temperature (°C)	Stokes	anti-Stokes-747.200	-3.305	-0.182	0.128
-746.185	235.579	-0.088	0.147
-745.171	800.000	-0.005	-0.017
-744.156	-120.412	-0.234	0.040
-743.142	70.191	0.097	-0.102
-742.127	-200.000	-0.037	0.198
-741.112	232.433	-0.183	0.303
-740.098	800.000	-0.049	0.201
-739.083	381.939	0.043	-0.090
-738.069	574.712	0.018	0.043
-737.054	240.276	-0.109	-0.183
-736.039	62.377	-0.227	-0.228
-735.025	-100.123	-0.291	-0.073
-734.010	-21.959	-0.175	-0.107
-732.996	85.449	-0.278	-0.308
-731.981	-134.480	-0.124	-0.015
-730.966	96.346	0.101	-0.116
-729.952	-200.000	0.030	-0.225
-728.937	62.538	0.172	0.174
-727.923	-137.613	-0.228	0.026
-726.908	179.719	-0.146	-0.216
-725.894	-70.753	-0.419	-0.159
-724.879	70.753	-0.336	-0.350
-723.864	13.726	-0.198	-0.155
-722.850	800.000	0.002	-0.006
-721.835	-24.821	-0.140	0.084
-720.821	-22.962	0.126	-0.076
-719.806	15.054	-0.311	-0.246
-718.791	-200.000	0.062	0.406
-717.777	800.000	-0.159	-0.453
-716.762	-29.705	-0.384	0.221
-715.748	-200.000	0.011	0.076
-714.733	-200.000	0.007	-0.279
-713.718	82.276	-0.275	-0.301
-712.704	-165.682	-0.028	-0.001
-711.689	237.027	0.090	0.149
-710.675	-200.000	-0.021	-0.150
-709.660	652.592	0.149	-0.385
-708.645	-65.172	0.049	-0.020
-707.631	-139.622	0.200	-0.022
-706.616	22.288	0.132	0.108
-705.602	800.000	-0.050	-0.193
-704.587	93.789	-0.224	0.256
-703.572	800.000	-0.105	-0.302
-702.558	-94.508	-0.428	-0.117
-701.543	-42.828	0.150	-0.077
-700.529	-0.593	0.055	-0.039
-699.514	-200.000	0.036	-0.237
-698.499	-200.000	-0.051	0.288
-697.485	-200.000	-0.043	0.220
-696.470	131.023	-0.165	-0.213
-695.456	325.028	-0.078	0.149
-694.441	-114.425	0.253	0.049
-693.426	800.000	0.156	-0.537
-692.412	-200.000	0.071	-0.332
-691.397	800.000	0.056	-0.224
-690.383	-150.790	0.283	0.022
-689.368	-118.101	0.115	0.021
-688.354	-200.000	-0.083	0.385
-687.339	800.000	-0.119	0.428
-686.324	-125.297	-0.165	0.025
-685.310	31.378	-0.071	-0.061
-684.295	-200.000	0.024	0.216
-683.281	800.000	0.034	0.133
-682.266	82.660	-0.091	-0.100
-681.251	-200.000	0.014	0.266
-680.237	-181.463	-0.390	0.008
-679.222	-15.276	0.201	0.129
-678.208	-200.000	0.015	-0.086
-677.193	-31.450	0.142	0.080
-676.178	-128.652	-0.054	0.008
-675.164	58.526	-0.204	0.202
-674.149	-82.102	-0.126	0.041
-673.135	72.850	0.233	-0.245
-672.120	-72.121	-0.177	0.066
-671.105	173.643	0.220	0.319
-670.091	112.794	-0.116	0.142
-669.076	534.941	-0.055	-0.131
-668.062	-8.414	-0.261	-0.176
-667.047	-38.168	0.016	0.009
-666.032	282.580	-0.088	-0.159
-665.018	-78.653	-0.210	0.072
-664.003	302.514	0.180	-0.335
-662.989	536.746	0.141	-0.337
-661.974	-63.629	0.171	0.071
-660.959	-200.000	0.027	-0.157
-659.945	371.643	-0.098	0.199
-658.930	91.527	-0.149	-0.169
-657.916	-30.725	-0.136	0.077
-656.901	-2.232	0.070	0.050
-655.886	478.737	-0.039	0.089
-654.872	504.736	0.055	-0.129
-653.857	-200.000	0.019	-0.106
-652.843	176.776	-0.150	0.219
-651.828	-200.000	0.022	0.312
-650.814	33.966	-0.205	-0.179
-649.799	-95.732	0.183	-0.049
-648.784	-200.000	-0.082	-0.371
-647.770	-113.004	-0.242	0.048
-646.755	202.733	0.112	0.174
-645.741	-57.751	0.213	-0.094
-644.726	70.295	0.177	-0.184
-643.711	-29.571	0.128	-0.073
-642.697	-42.178	0.108	0.056
-641.682	-71.019	0.145	0.055
-640.668	-78.867	0.201	-0.069
-639.653	187.471	-0.222	0.333
-638.638	-77.679	-0.352	-0.122
-637.624	-48.829	-0.146	-0.070
-636.609	-72.804	0.029	-0.011
-635.595	-200.000	-0.045	-0.353
-634.580	800.000	-0.057	-0.166
-633.565	-200.000	-0.016	-0.179
-632.551	-59.437	-0.181	0.078
-631.536	-165.387	-0.243	-0.011
-630.522	102.729	-0.060	-0.071
-629.507	-200.000	0.017	-0.140
-628.492	57.130	0.220	-0.215
-627.478	312.167	-0.136	-0.257
-626.463	800.000	0.135	-0.537
-625.449	800.000	0.033	-0.119
-624.434	583.342	0.066	-0.162
-623.419	-200.000	-0.005	-0.066
-622.405	-64.235	0.082	0.034
-621.390	-200.000	-0.037	0.223
-620.376	-98.868	0.066	-0.017
-619.361	52.587	0.194	-0.186
-618.346	-36.712	-0.145	-0.078
-617.332	-200.000	-0.045	0.414
-616.317	134.250	-0.224	0.291
-615.303	-108.504	-0.192	0.041
-614.288	17.701	0.126	0.101
-613.273	-84.463	0.353	0.112
-612.259	-61.397	0.065	-0.027
-611.244	-133.332	-0.471	0.060
-610.230	688.606	0.057	0.150
-609.215	258.415	0.107	0.184
-608.201	73.613	0.465	-0.490
-607.186	-12.584	-0.138	-0.091
-606.171	-200.000	-0.016	-0.215
-605.157	529.009	0.024	-0.057
-604.142	-50.140	0.350	-0.166
-603.128	-96.255	-0.162	0.043
-602.113	-29.633	-0.229	0.132
-601.098	422.122	-0.178	0.384
-600.084	51.280	-0.074	-0.070
-599.069	-4.998	0.112	0.077
-598.055	-41.589	0.086	-0.044
-597.040	-200.000	-0.032	0.441
-596.025	800.000	0.043	-0.128
-595.011	67.468	-0.162	-0.166
-593.996	-141.658	0.157	-0.016
-592.982	-71.403	-0.312	0.117
-591.967	502.132	0.085	-0.196
-590.952	6.256	-0.104	0.078
-589.938	-82.003	-0.130	-0.043
-588.923	-31.834	-0.263	-0.148
-587.909	-200.000	0.024	-0.156
-586.894	-67.599	0.094	-0.037
-585.879	-102.432	0.295	-0.071
-584.865	-140.354	0.046	0.005
-583.850	-41.300	-0.103	0.053
-582.836	-62.863	-0.193	-0.080
-581.821	175.034	0.098	-0.142
-580.806	-9.229	0.143	-0.096
-579.792	-84.325	-0.340	-0.108
-578.777	-115.210	0.163	0.031
-577.763	-200.000	0.065	0.368
-576.748	-200.000	0.032	-0.255
-575.733	-143.256	0.192	-0.019
-574.719	-41.710	0.106	-0.054
-573.704	-38.679	-0.212	-0.112
-572.690	-156.833	-0.258	-0.016
-571.675	521.950	0.139	-0.328
-570.661	-89.212	-0.151	-0.045
-569.646	-101.486	-0.150	0.037
-568.631	-14.938	0.372	-0.239
-567.617	-93.259	0.230	0.064
-566.602	-65.322	-0.091	0.037
-565.588	-69.769	-0.183	0.070
-564.573	-58.359	-0.019	0.008
-563.558	-53.180	-0.208	-0.096
-562.544	-179.283	0.356	-0.008
-561.529	-121.870	-0.230	-0.038
-560.515	-156.394	-0.055	-0.003
-559.500	-187.977	-0.286	-0.004
-558.485	55.747	-0.241	0.234
-557.471	161.374	0.043	0.060
-556.456	-112.067	0.264	-0.053
-555.442	800.000	0.116	-0.371
-554.427	163.271	-0.131	-0.185
-553.412	-200.000	-0.016	0.255
-552.398	-200.000	0.006	0.173
-551.383	800.000	0.056	-0.180
-550.369	-200.000	0.018	0.228
-549.354	207.345	-0.055	0.086
-548.339	-9.724	-0.058	-0.038
-547.325	800.000	0.055	-0.186
-546.310	-200.000	-0.006	0.041
-545.296	-200.000	-0.026	0.200
-544.281	149.676	0.155	0.210
-543.266	134.504	0.057	-0.074
-542.252	140.231	-0.168	-0.222
-541.237	800.000	0.068	0.268
-540.223	-130.643	-0.214	0.029
-539.208	-200.000	-0.010	0.086
-538.193	228.224	0.230	-0.375
-537.179	-33.867	0.166	0.092
-536.164	-12.081	-0.333	0.218
-535.150	-82.437	-0.057	-0.019
-534.135	800.000	0.048	-0.150
-533.121	-192.888	-0.098	-0.001
-532.106	-52.964	0.153	0.070
-531.091	800.000	-0.115	-0.464
-530.077	800.000	-0.097	0.296
-529.062	24.045	-0.163	-0.135
-528.048	-70.872	0.472	0.178
-527.033	111.042	0.077	0.093
-526.018	-9.554	0.058	-0.039
-525.004	-75.589	-0.519	-0.185
-523.989	-200.000	0.038	0.341
-522.975	-43.727	0.272	-0.137
-521.960	-200.000	-0.008	-0.132
-520.945	311.000	-0.114	0.213
-519.931	800.000	0.091	0.323
-518.916	800.000	0.088	0.313
-517.902	24.780	-0.012	-0.010
-516.887	6.532	0.325	-0.242
-515.872	-200.000	-0.004	-0.209
-514.858	-200.000	0.013	-0.243
-513.843	-69.565	0.149	0.057
-512.829	-137.752	-0.388	-0.044
-511.814	-200.000	0.020	0.109
-510.799	34.800	0.239	-0.209
-509.785	800.000	-0.038	-0.163
-508.770	-200.000	-0.001	0.244
-507.756	-21.983	0.392	0.238
-506.741	-200.000	0.038	-0.257
-505.726	800.000	0.113	-0.431
-504.712	-21.644	0.397	0.242
-503.697	-200.000	-0.025	-0.360
-502.683	-72.464	0.292	-0.108
-501.668	-72.865	-0.217	-0.080
-500.653	171.943	0.136	0.195
-499.639	-117.644	-0.314	0.057
-498.624	-108.272	-0.079	0.017
-497.610	13.240	0.048	-0.037
-496.595	-45.101	0.433	0.215
-495.581	-32.837	0.417	0.231
-494.566	-145.966	-0.109	0.010
-493.551	-161.230	-0.078	-0.004
-492.537	-167.046	0.320	0.013
-491.522	219.776	-0.096	0.153
-490.508	-200.000	0.036	0.158
-489.493	-200.000	-0.001	0.192
-488.478	-71.241	-0.288	0.108
-487.464	-200.000	0.014	0.092
-486.449	127.919	-0.317	-0.403
-485.435	11.948	0.215	-0.165
-484.420	-138.759	0.296	-0.032
-483.405	407.425	-0.148	-0.312
-482.391	-80.689	-0.067	0.022
-481.376	24.613	-0.121	-0.100
-480.362	-200.000	-0.001	-0.151
-479.347	-200.000	0.011	-0.367
-478.332	-20.397	0.049	-0.030
-477.318	-96.412	0.319	0.084
-476.303	-101.941	0.222	0.054
-475.289	-139.763	0.289	0.031
-474.274	-124.423	-0.064	-0.010
-473.259	-89.514	-0.122	-0.036
-472.245	-80.441	-0.277	0.092
-471.230	335.644	-0.174	0.338
-470.216	800.000	0.098	-0.366
-469.201	-123.416	0.137	-0.022
-468.186	369.952	-0.073	0.148
-467.172	338.677	0.157	0.306
-466.157	-72.367	-0.092	0.034
-465.143	151.633	0.195	-0.265
-464.128	-200.000	0.009	-0.305
-463.113	-29.032	-0.160	-0.091
-462.099	-200.000	0.019	-0.263
-461.084	-200.000	0.026	0.136
-460.070	-200.000	0.008	0.278
-459.055	-200.000	-0.055	-0.298
-458.040	-107.331	-0.255	-0.056
-457.026	-103.127	-0.343	-0.081
-456.011	800.000	0.046	-0.153
-454.997	49.450	-0.228	-0.214
-453.982	8.558	0.070	0.053
-452.968	-144.895	0.089	0.008
-451.953	-72.501	-0.154	-0.057
-450.938	-145.785	-0.161	0.014
-449.924	80.970	0.281	-0.302
-448.909	681.692	0.015	0.039
-447.895	275.432	-0.082	0.145
-446.880	-200.000	-0.003	-0.098
-445.865	-64.135	0.144	0.059
-444.851	800.000	-0.065	0.240
-443.836	-200.000	0.032	-0.182
-442.822	-21.703	-0.416	-0.253
-441.807	218.762	-0.036	0.058
-440.792	-200.000	0.047	-0.436
-439.778	151.387	0.114	0.154
-438.763	489.894	-0.095	-0.217
-437.749	-140.455	0.101	-0.011
-436.734	-200.000	-0.022	-0.252
-435.719	29.682	0.118	0.100
-434.705	-200.000	0.036	0.240
-433.690	-200.000	-0.052	-0.240
-432.676	-200.000	0.027	0.244
-431.661	-200.000	0.055	-0.263
-430.646	255.249	0.174	-0.296
-429.632	294.708	-0.147	-0.268
-428.617	176.412	-0.090	-0.130
-427.603	236.846	-0.121	0.199
-426.588	-29.122	-0.189	-0.108
-425.573	266.428	-0.009	0.015
-424.559	-106.637	0.277	-0.061
-423.544	477.362	0.138	0.312
-422.530	-200.000	0.040	-0.287
-421.515	338.511	-0.156	0.303
-420.500	-200.000	-0.006	-0.165
-419.486	-90.910	0.186	0.053
-418.471	-29.212	-0.092	-0.052
-417.457	800.000	0.055	0.163
-416.442	269.721	0.069	0.121
-415.428	-200.000	-0.068	0.422
-414.413	-0.356	0.278	0.197
-413.398	238.789	-0.128	0.213
-412.384	-67.599	0.416	0.163
-411.369	-172.714	-0.152	0.005
-410.355	-200.000	0.049	-0.534
-409.340	-200.000	0.003	-0.051
-408.325	-108.257	-0.213	0.046
-407.311	-200.000	-0.018	0.270
-406.296	-34.062	0.259	0.142
-405.282	204.123	0.155	0.239
-404.267	-143.482	0.155	-0.015
-403.252	7.255	-0.200	-0.149
-402.238	-64.264	-0.185	0.075
-401.223	20.828	-0.135	-0.109
-400.209	-200.000	-0.014	-0.297
-399.194	189.016	-0.079	-0.117
-398.179	-187.180	-0.314	0.004
-397.165	88.608	0.192	-0.213
-396.150	22.544	0.141	-0.115
-395.136	46.994	-0.123	-0.114
-394.121	400.866	-0.045	-0.094
-393.106	618.723	0.014	0.034
-392.092	32.031	-0.267	0.230
-391.077	166.117	0.068	-0.096
-390.063	-3.008	-0.329	0.229
-389.048	-111.053	0.288	-0.059
-388.033	-200.000	-0.033	0.203
-387.019	-200.000	-0.012	0.054
-386.004	-157.822	0.132	0.008
-384.990	-200.000	-0.135	0.000
-383.975	-98.348	-0.105	-0.027
-382.960	-6.303	-0.246	-0.167
-381.946	-200.000	0.110	-0.499
-380.931	100.071	-0.141	0.163
-379.917	-69.926	0.427	-0.162
-378.902	-105.853	0.176	0.039
-377.888	-74.380	-0.142	-0.051
-376.873	-200.000	0.012	-0.113
-375.858	269.190	-0.049	0.085
-374.844	-129.398	0.692	-0.096
-373.829	-198.536	-0.203	0.001
-372.815	137.003	0.177	0.230
-371.800	800.000	-0.073	0.277
-370.785	11.974	0.073	-0.056
-369.771	-99.664	0.282	0.070
-368.756	-145.191	0.143	-0.013
-367.742	-103.290	0.084	0.020
-366.727	347.993	-0.093	-0.182
-365.712	60.129	0.218	0.215
-364.698	-73.543	-0.194	-0.070
-363.683	103.950	0.064	-0.075
-362.669	-200.000	0.045	0.380
-361.654	-200.000	-0.037	0.357
-360.639	-120.006	0.286	0.049
-359.625	-200.000	-0.010	0.111
-358.610	-200.000	-0.044	0.252
-357.596	-142.904	0.187	0.018
-356.581	86.724	-0.215	-0.235
-355.566	-200.000	0.019	-0.165
-354.552	-41.845	0.322	0.164
-353.537	91.591	-0.094	0.105
-352.523	166.927	-0.066	0.093
-351.508	-200.000	0.021	0.132
-350.493	180.933	0.171	-0.250
-349.479	-89.863	0.102	0.030
-348.464	-200.000	0.026	0.188
-347.450	-82.434	-0.185	0.060
-346.435	-200.000	0.007	-0.059
-345.420	800.000	0.041	0.160
-344.406	-7.482	-0.279	0.187
-343.391	18.135	-0.207	0.164
-342.377	-108.294	0.039	-0.008
-341.362	800.000	-0.047	-0.138
-340.348	-23.593	0.088	-0.053
-339.333	-22.326	-0.129	0.078
-338.318	-129.061	-0.197	-0.027
-337.304	190.041	0.040	-0.059
-336.289	-87.735	-0.378	0.113
-335.275	233.620	0.167	0.272
-334.260	-109.555	-0.393	-0.082
-333.245	-117.932	-0.133	0.024
-332.231	15.090	0.204	0.158
-331.216	-200.000	-0.003	-0.071
-330.202	-156.626	0.063	0.004
-329.187	-200.000	0.014	0.116
-328.172	-120.178	0.091	-0.015
-327.158	496.031	0.027	-0.063
-326.143	174.869	-0.095	-0.137
-325.129	85.858	0.325	-0.355
-324.114	800.000	0.084	0.233
-323.099	466.252	-0.067	0.148
-322.085	315.465	0.126	0.235
-321.070	-36.067	-0.195	0.105
-320.056	800.000	-0.052	0.152
-319.041	-139.643	0.117	-0.012
-318.026	128.643	0.287	0.363
-317.012	-94.267	0.099	0.027
-315.997	-200.000	0.008	-0.172
-314.983	-200.000	0.042	0.324
-313.968	800.000	-0.114	0.347
-312.953	67.245	0.132	-0.133
-311.939	-200.000	-0.006	-0.058
-310.924	82.684	0.102	-0.110
-309.910	151.098	0.121	0.163
-308.895	6.775	0.343	-0.254
-307.880	295.796	0.060	-0.110
-306.866	128.894	-0.087	-0.110
-305.851	-49.276	-0.200	-0.095
-304.837	496.329	0.108	-0.247
-303.822	-90.403	-0.214	0.062
-302.807	147.384	-0.098	0.131
-301.793	800.000	-0.075	-0.318
-300.778	-200.000	0.007	-0.282
-299.764	-73.956	-0.014	-0.005
-298.749	-200.000	0.037	0.230
-297.735	-200.000	-0.004	0.111
-296.720	267.084	-0.132	0.229
-295.705	-200.000	0.102	0.582
-294.691	-89.762	-0.200	-0.058
-293.676	-35.920	-0.192	0.103
-292.662	-146.530	0.195	-0.017
-291.647	102.158	-0.126	0.146
-290.632	-200.000	-0.012	-0.107
-289.618	400.812	-0.109	-0.226
-288.603	-151.572	0.140	-0.010
-287.589	-63.428	0.103	0.042
-286.574	67.293	-0.100	-0.102
-285.559	444.969	0.033	0.073
-284.545	800.000	0.063	0.220
-283.530	231.753	-0.140	0.228
-282.516	-112.853	-0.122	-0.024
-281.501	219.063	0.111	0.176
-280.486	-121.489	0.092	0.015
-279.472	97.831	-0.150	0.171
-278.457	534.259	-0.080	0.187
-277.443	298.929	-0.067	0.121
-276.428	202.587	-0.083	-0.127
-275.413	-23.188	0.073	0.043
-274.399	-200.000	-0.017	-0.269
-273.384	-119.689	0.387	-0.066
-272.370	168.837	-0.149	0.211
-271.355	-149.254	0.116	-0.009
-270.340	-200.000	0.032	0.183
-269.326	-119.084	-0.418	0.073
-268.311	113.343	-0.267	-0.321
-267.297	-67.166	-0.173	0.068
-266.282	-154.726	0.089	-0.006
-265.267	-200.000	0.019	-0.138
-264.253	-65.329	0.329	0.131
-263.238	404.640	-0.092	-0.192
-262.224	368.568	-0.056	-0.112
-261.209	158.736	0.192	-0.265
-260.195	191.201	0.189	0.282
-259.180	101.969	-0.162	0.187
-258.165	-200.000	0.024	-0.239
-257.151	800.000	-0.005	0.014
-256.136	-91.344	-0.310	-0.088
-255.122	55.331	-0.160	-0.153
-254.107	-200.000	-0.026	0.173
-253.092	-88.145	0.227	0.067
-252.078	800.000	0.048	-0.195
-251.063	-113.416	-0.063	-0.012
-250.049	-133.888	0.161	0.020
-249.034	102.703	-0.094	0.109
-248.019	-17.917	-0.223	0.138
-247.005	175.765	-0.142	-0.204
-245.990	80.184	0.113	0.120
-244.976	-12.502	0.114	-0.074
-243.961	800.000	0.064	-0.261
-242.946	153.434	-0.279	0.378
-241.932	-200.000	0.008	0.536
-240.917	-128.566	0.123	-0.017
-239.903	119.042	0.056	-0.069
-238.888	-17.203	-0.273	0.170
-237.873	-137.492	0.143	0.016
-236.859	800.000	-0.090	-0.263
-235.844	-90.500	-0.149	-0.043
-234.830	-200.000	-0.024	-0.308
-233.815	-200.000	-0.005	-0.175
-232.800	-16.849	-0.297	0.186
-231.786	107.671	0.111	0.131
-230.771	585.048	-0.123	-0.300
-229.757	463.564	-0.103	0.227
-228.742	800.000	0.112	0.348
-227.727	-10.854	-0.110	0.072
-226.713	143.059	-0.150	0.197
-225.698	-80.378	-0.105	0.035
-224.684	-200.000	0.065	-0.465
-223.669	-200.000	-0.063	0.415
-222.655	800.000	-0.147	0.517
-221.640	68.099	-0.074	0.075
-220.625	-133.893	-0.115	-0.014
-219.611	-164.741	0.295	0.013
-218.596	-178.023	-0.177	-0.004
-217.582	-200.000	0.004	-0.158
-216.567	165.176	0.210	0.293
-215.552	-129.084	-0.216	0.030
-214.538	74.136	-0.045	0.047
-213.523	121.310	-0.172	-0.211
-212.509	213.746	0.032	0.050
-211.494	60.424	0.102	0.100
-210.479	-96.705	0.122	0.032
-209.465	800.000	-0.017	0.046
-208.450	-200.000	0.102	0.000
-207.436	800.000	0.081	-0.318
-206.421	-102.026	-0.103	-0.025
-205.406	800.000	-0.028	-0.112
-204.392	37.527	-0.162	0.142
-203.377	-87.172	-0.089	0.027
-202.363	-89.207	0.397	-0.116
-201.348	-70.407	-0.065	-0.024
-200.333	800.000	-0.022	-0.081
-199.319	-54.881	0.322	-0.144
-198.304	-200.000	0.313	0.000
-197.290	-200.000	-0.016	0.138
-196.275	573.855	-0.040	0.095
-195.260	-75.506	-0.359	-0.126
-194.246	-200.000	0.005	0.058
-193.231	-55.767	0.235	-0.104
-192.217	-6.684	0.017	0.011
-191.202	-14.886	-0.020	-0.013
-190.187	-117.837	0.345	-0.061
-189.173	374.658	0.130	-0.262
-188.158	62.790	0.167	0.165
-187.144	-200.000	-0.006	0.292
-186.129	430.866	0.036	0.078
-185.114	117.063	0.192	0.232
-184.100	41.440	0.082	-0.073
-183.085	-62.625	-0.445	-0.182
-182.071	-143.959	-0.268	0.025
-181.056	-50.627	-0.041	-0.019
-180.042	-26.023	-0.135	-0.079
-179.027	-200.000	-0.060	0.266
-178.012	800.000	-0.069	0.225
-176.998	-123.016	-0.246	0.039
-175.983	333.233	-0.034	0.064
-174.969	-21.010	-0.060	0.036
-173.954	-200.000	-0.028	-0.176
-172.939	14.816	0.255	0.197
-171.925	-142.539	0.181	-0.017
-170.910	39.100	0.145	0.128
-169.896	131.871	-0.099	0.126
-168.881	-200.000	0.031	-0.209
-167.866	800.000	-0.120	0.410
-166.852	86.957	0.188	-0.204
-165.837	176.901	-0.090	0.129
-164.823	-2.358	-0.094	0.065
-163.808	277.844	0.082	0.145
-162.793	64.675	-0.180	0.179
-161.779	-200.000	0.032	-0.148
-160.764	139.840	0.025	-0.033
-159.750	-200.000	0.022	-0.257
-158.735	-1.424	-0.095	-0.066
-157.720	112.096	-0.298	-0.355
-156.706	158.585	0.059	-0.081
-155.691	-200.000	0.009	0.047
-154.677	180.395	0.126	0.183
-153.662	-83.187	-0.327	-0.104
-152.647	180.540	0.095	0.137
-151.633	-200.000	-0.012	0.065
-150.618	-3.220	0.381	-0.262
-149.604	-88.569	-0.008	-0.002
-148.589	464.268	-0.168	-0.369
-147.574	800.000	0.068	-0.189
-146.560	-27.883	0.393	-0.225
-145.545	-200.000	0.003	0.132
-144.531	-200.000	-0.011	0.331
-143.516	222.798	0.244	-0.388
-142.502	59.842	0.188	0.183
-141.487	-89.463	-0.107	0.031
-140.472	85.564	0.254	0.275
-139.458	-12.927	-0.023	0.015
-138.443	-86.989	0.295	0.089
-137.429	35.750	0.179	0.155
-136.414	141.260	0.172	0.225
-135.399	340.933	-0.045	0.087
-134.385	-123.672	0.028	-0.004
-133.370	-88.542	0.312	0.091
-132.356	-200.000	-0.002	0.082
-131.341	-164.638	0.402	0.018
-130.326	800.000	-0.052	-0.186
-129.312	-28.175	-0.395	0.225
-128.297	150.052	0.062	-0.082
-127.283	19.534	0.198	0.157
-126.268	-82.762	-0.324	0.103
-125.253	132.739	-0.146	0.186
-124.239	738.717	0.029	-0.077
-123.224	800.000	0.091	-0.319
