DTS Sentinel unit serial number:	SN413079Multiplexer serial number:	ORYXHardware model number:	OX4-SRSoftware version number:	ORYX F/W v4.00 Oryx Data Collector v3.7.2.0data status	okinstallation	princeton_trtdifferential loss correction	single-endedforward channel	channel 2reverse channel	N/Adate	2019/09/19time	00:15:35forward acquisition time	60.00reverse acquisition time	0.00gamma	496.2192k internal	0.2352k external	0.2352temperature offset calibration	1.0017default loss term (dB/km)	0.3790temperature slope calibration	1.0000multiplexer offset coefficient	1.0000multiplexer slope coefficient	1.0000fibre end	0.00T internal ref (°C)	22.78T ext. ref 1 (°C)	0.74T ext. ref 2 (°C)	15.83length (m)	temperature (°C)	Stokes	anti-Stokes-747.200	104.049	0.214	-0.251
-746.185	-84.566	-0.267	-0.084
-745.171	-0.491	-0.171	-0.121
-744.156	96.412	-0.230	0.263
-743.142	800.000	0.046	0.137
-742.127	-200.000	0.021	0.447
-741.112	-200.000	-0.053	0.413
-740.098	-62.154	-0.296	-0.123
-739.083	-137.992	0.023	0.003
-738.069	-200.000	0.047	0.342
-737.054	800.000	0.122	0.344
-736.039	-105.905	-0.103	0.023
-735.025	-132.371	0.126	-0.016
-734.010	8.990	0.191	0.144
-732.996	201.924	0.080	-0.124
-731.981	-200.000	0.061	-0.348
-730.966	-30.403	0.139	-0.078
-729.952	569.052	-0.203	-0.492
-728.937	103.587	-0.121	-0.141
-727.923	-127.797	-0.143	0.021
-726.908	-142.138	0.236	-0.023
-725.894	117.994	-0.312	-0.383
-724.879	-75.490	-0.199	-0.071
-723.864	-12.481	-0.303	-0.197
-722.850	-22.651	0.119	-0.071
-721.835	68.997	-0.207	0.212
-720.821	766.278	0.036	0.097
-719.806	800.000	-0.089	-0.294
-718.791	-169.478	0.202	0.007
-717.777	16.233	-0.237	0.187
-716.762	800.000	-0.104	0.343
-715.748	81.069	-0.089	0.096
-714.733	-116.475	0.301	-0.055
-713.718	40.413	-0.103	-0.093
-712.704	-193.365	-0.386	0.003
-711.689	-200.000	0.034	0.235
-710.675	800.000	0.064	-0.277
-709.660	-85.318	-0.156	-0.049
-708.645	800.000	0.088	0.251
-707.631	73.946	-0.160	-0.167
-706.616	126.158	-0.282	0.356
-705.602	-81.146	0.323	-0.106
-704.587	-46.486	-0.236	0.116
-703.572	-26.260	-0.127	0.074
-702.558	259.734	-0.176	0.302
-701.543	8.158	-0.392	0.293
-700.529	102.644	0.180	0.210
-699.514	201.425	-0.101	-0.155
-698.499	-2.088	0.127	-0.089
-697.485	198.737	0.068	0.103
-696.470	-104.684	0.235	0.054
-695.456	156.062	-0.138	0.190
-694.441	-129.026	-0.237	-0.033
-693.426	464.827	-0.061	0.135
-692.412	549.133	0.057	-0.136
-691.397	-65.794	-0.134	-0.053
-690.383	-8.549	-0.213	-0.142
-689.368	212.220	-0.181	-0.285
-688.354	-16.636	0.347	-0.219
-687.339	176.802	-0.101	-0.146
-686.324	36.543	-0.055	-0.049
-685.310	150.243	0.136	0.184
-684.295	-10.633	-0.138	-0.091
-683.281	800.000	-0.025	0.093
-682.266	-36.595	-0.165	0.088
-681.251	3.524	-0.433	0.314
-680.237	-191.531	-0.363	-0.004
-679.222	270.671	-0.155	-0.272
-678.208	-23.592	-0.196	-0.117
-677.193	251.848	-0.014	0.023
-676.178	76.168	-0.091	0.096
-675.164	7.290	-0.112	-0.083
-674.149	-200.000	0.030	-0.194
-673.135	-200.000	0.070	0.421
-672.120	-85.851	-0.229	-0.071
-671.105	-137.500	-0.179	-0.020
-670.091	344.143	0.072	-0.140
-669.076	-200.000	0.046	-0.301
-668.062	36.501	-0.355	-0.311
-667.047	286.883	-0.071	-0.128
-666.032	-51.212	-0.262	0.122
-665.018	-123.354	0.091	0.014
-664.003	-200.000	-0.011	-0.239
-662.989	157.480	0.199	0.273
-661.974	-140.997	-0.151	0.015
-660.959	-118.656	0.133	-0.023
-659.945	288.938	0.150	0.270
-658.930	52.793	-0.253	0.241
-657.916	-12.190	-0.086	0.056
-656.901	131.334	0.118	0.150
-655.886	166.394	0.278	-0.392
-654.872	229.477	-0.058	0.094
-653.857	19.107	-0.082	-0.066
-652.843	55.512	0.218	0.210
-651.828	59.251	-0.157	-0.153
-650.814	-200.000	0.033	-0.241
-649.799	-162.950	-0.073	0.003
-648.784	40.510	-0.089	-0.079
-647.770	800.000	0.031	-0.114
-646.755	461.563	-0.081	-0.179
-645.741	59.793	-0.112	-0.110
-644.726	82.577	-0.141	-0.153
-643.711	-130.723	-0.116	0.016
-642.697	800.000	-0.029	0.091
-641.682	-123.663	0.373	0.059
-640.668	-200.000	0.027	0.177
-639.653	322.143	-0.067	-0.127
-638.638	5.119	-0.236	0.173
-637.624	105.297	-0.087	0.102
-636.609	292.958	-0.125	-0.226
-635.595	563.660	0.084	0.201
-634.580	52.632	0.213	0.202
-633.565	-132.741	-0.136	0.017
-632.551	109.493	0.101	0.121
-631.536	-200.000	-0.010	0.059
-630.522	-167.922	-0.165	-0.006
-629.507	188.965	0.145	-0.215
-628.492	-91.190	-0.228	0.065
-627.478	-17.944	-0.080	0.050
-626.463	-200.000	0.039	0.186
-625.449	-200.000	0.034	-0.195
-624.434	800.000	0.120	0.412
-623.419	47.856	-0.308	0.286
-622.405	800.000	-0.070	-0.288
-621.390	-63.044	-0.134	0.055
-620.376	-200.000	-0.013	-0.129
-619.361	-95.891	0.211	0.056
-618.346	45.778	0.178	-0.163
-617.332	-82.596	-0.196	0.063
-616.317	83.386	-0.070	-0.076
-615.303	-200.000	-0.153	-0.669
-614.288	328.147	-0.103	-0.196
-613.273	-116.553	-0.100	-0.018
-612.259	800.000	-0.050	-0.163
-611.244	64.636	-0.114	-0.114
-610.230	-141.641	0.295	-0.029
-609.215	-131.437	0.308	-0.040
-608.201	-94.747	-0.423	-0.114
-607.186	-48.279	0.418	0.200
-606.171	800.000	-0.066	0.283
-605.157	82.740	-0.072	0.077
-604.142	-200.000	-0.048	-0.212
-603.128	-161.456	-0.187	0.010
-602.113	-16.459	-0.168	0.106
-601.098	33.647	0.158	-0.136
-600.084	-200.000	-0.020	-0.171
-599.069	-77.652	0.072	0.025
-598.055	-79.925	-0.150	0.050
-597.040	-71.112	0.338	-0.126
-596.025	-128.179	-0.099	-0.014
-595.011	-124.382	0.579	0.090
-593.996	4.928	-0.104	-0.076
-592.982	-13.737	-0.197	0.127
-591.967	-197.482	-0.251	-0.002
-590.952	-135.466	0.339	-0.040
-589.938	-78.169	-0.174	0.059
-588.923	451.591	0.193	0.422
-587.909	-122.611	0.201	0.032
-586.894	82.344	-0.160	0.172
-585.879	-200.000	0.011	-0.111
-584.865	2.506	-0.133	0.096
-583.850	-104.111	0.118	0.027
-582.836	-200.000	0.006	0.103
-581.821	-41.503	-0.283	-0.144
-580.806	-86.836	-0.285	0.086
-579.792	-44.970	-0.278	-0.137
-578.777	-33.783	-0.066	0.036
-577.763	-4.162	-0.348	0.239
-576.748	-96.588	0.375	0.098
-575.733	791.641	0.148	0.404
-574.719	156.957	-0.158	0.216
-573.704	46.180	-0.147	0.135
-572.690	385.624	0.236	-0.482
-571.675	119.874	-0.152	0.186
-570.661	9.450	0.080	0.060
-569.646	302.874	-0.079	-0.146
-568.631	-83.828	0.349	0.110
-567.617	-200.000	0.018	0.099
-566.602	-120.018	-0.462	0.078
-565.588	82.450	-0.168	-0.181
-564.573	245.710	-0.078	-0.130
-563.558	-14.177	-0.305	-0.195
-562.544	-120.351	-0.118	0.020
-561.529	34.023	0.111	0.096
-560.515	89.764	-0.112	-0.124
-559.500	120.011	0.038	-0.047
-558.485	80.639	-0.089	-0.095
-557.471	455.835	-0.047	-0.103
-556.456	800.000	-0.099	0.373
-555.442	-200.000	0.032	-0.148
-554.427	800.000	0.094	0.353
-553.412	-200.000	-0.045	0.377
-552.398	281.526	-0.201	0.357
-551.383	152.380	0.081	0.109
-550.369	-15.356	0.087	0.055
-549.354	500.237	-0.070	0.160
-548.339	231.088	-0.078	-0.127
-547.325	-62.061	0.245	-0.101
-546.310	-157.631	-0.129	-0.008
-545.296	-58.341	-0.232	-0.100
-544.281	245.257	-0.153	0.254
-543.266	-200.000	0.020	-0.277
-542.252	8.818	-0.203	-0.152
-541.237	-96.000	0.314	0.083
-540.223	-87.267	-0.159	-0.048
-539.208	396.344	0.108	-0.224
-538.193	-200.000	0.047	-0.308
-537.179	251.970	0.166	-0.280
-536.164	220.331	0.096	-0.152
-535.150	-98.553	0.237	-0.060
-534.135	-18.534	-0.246	-0.152
-533.121	-41.349	0.214	-0.109
-532.106	-186.612	-0.112	0.002
-531.091	-167.652	0.233	0.009
-530.077	90.545	-0.110	0.122
-529.062	-200.000	0.028	-0.167
-528.048	-167.014	0.329	0.013
-527.033	234.979	-0.102	0.167
-526.018	-200.000	-0.048	-0.261
-525.004	800.000	0.073	-0.215
-523.989	-135.806	0.163	0.019
-522.975	-3.674	-0.088	0.061
-521.960	30.821	-0.174	0.147
-520.945	-5.067	-0.299	-0.203
-519.931	513.815	-0.059	0.136
-518.916	-4.639	-0.050	-0.034
-517.902	-200.000	0.005	0.210
-516.887	-182.821	-0.312	-0.006
-515.872	-134.176	0.106	-0.013
-514.858	484.249	-0.092	-0.206
-513.843	800.000	-0.140	-0.399
-512.829	-58.030	-0.099	0.043
-511.814	-200.000	-0.003	-0.488
-510.799	-200.000	-0.008	-0.335
-509.785	800.000	-0.040	-0.130
-508.770	427.875	-0.089	0.191
-507.756	-117.289	0.253	0.045
-506.741	-32.158	0.125	0.069
-505.726	16.773	0.203	-0.159
-504.712	411.966	-0.040	0.084
-503.697	-35.458	-0.288	-0.155
-502.683	91.494	-0.122	-0.135
-501.668	-200.000	0.005	0.106
-500.653	-200.000	-0.030	-0.170
-499.639	-177.534	-0.028	0.001
-498.624	77.552	0.228	-0.240
-497.610	653.484	-0.189	0.480
-496.595	316.090	-0.030	0.056
-495.581	651.495	0.036	-0.092
-494.566	49.496	0.223	-0.208
-493.551	800.000	-0.062	-0.218
-492.537	165.749	-0.100	0.139
-491.522	-200.000	-0.115	-0.000
-490.508	-152.217	-0.298	-0.021
-489.493	41.606	0.040	-0.036
-488.478	176.427	0.144	-0.207
-487.464	-59.050	0.148	0.063
-486.449	-12.109	-0.040	0.026
-485.435	-155.683	-0.212	-0.013
-484.420	-4.032	0.195	-0.133
-483.405	102.634	-0.141	0.163
-482.391	-86.114	-0.072	-0.022
-481.376	207.337	0.031	0.048
-480.362	363.248	-0.076	0.152
-479.347	-109.760	-0.462	-0.096
-478.332	254.135	-0.167	0.282
-477.318	384.874	0.133	-0.270
-476.303	-200.000	0.051	-0.293
-475.289	179.797	0.194	-0.280
-474.274	81.010	0.344	0.367
-473.259	-89.076	0.459	-0.134
-472.245	-51.759	-0.048	0.022
-471.230	135.822	-0.210	0.269
-470.216	-105.962	-0.075	0.017
-469.201	-101.193	-0.028	0.007
-468.186	-13.832	-0.199	0.127
-467.172	55.282	0.184	0.175
-466.157	-115.466	0.226	-0.042
-465.143	454.875	-0.140	-0.307
-464.128	-200.000	0.014	-0.132
-463.113	45.801	0.192	-0.175
-462.099	-61.770	0.127	0.053
-461.084	287.615	-0.124	0.221
-460.070	595.961	0.173	-0.423
-459.055	-134.987	-0.067	0.008
-458.040	-92.090	0.152	0.042
-457.026	192.353	0.312	-0.465
-456.011	-96.814	-0.485	-0.126
-454.997	116.791	-0.213	0.257
-453.982	6.264	-0.206	-0.151
-452.968	-0.398	-0.335	0.235
-451.953	486.592	-0.048	-0.108
-450.938	466.145	0.114	0.252
-449.924	-61.983	0.081	0.033
-448.909	-200.000	-0.023	0.146
-447.895	-7.007	0.192	-0.129
-446.880	-118.186	-0.368	-0.065
-445.865	-95.825	0.227	0.060
-444.851	-123.036	0.209	0.033
-443.836	55.026	0.141	0.135
-442.822	216.522	0.052	0.082
-441.807	-200.000	0.007	0.273
-440.792	99.411	0.040	0.045
-439.778	800.000	0.079	-0.227
-438.763	800.000	-0.104	0.357
-437.749	800.000	-0.086	0.358
-436.734	-51.027	-0.212	-0.098
-435.719	624.755	-0.021	-0.053
-434.705	-200.000	-0.022	0.111
-433.690	-54.760	-0.368	-0.164
-432.676	-68.892	0.291	0.111
-431.661	127.872	-0.071	0.089
-430.646	485.123	0.060	-0.134
-429.632	284.478	-0.165	0.293
-428.617	-176.110	-0.266	0.007
-427.603	128.274	0.194	0.244
-426.588	165.708	-0.155	-0.216
-425.573	-158.258	0.193	0.011
-424.559	45.476	0.076	0.069
-423.544	14.192	-0.069	-0.053
-422.530	66.370	-0.127	0.127
-421.515	25.202	0.195	-0.159
-420.500	-94.540	-0.336	-0.090
-419.486	-75.508	-0.384	-0.135
-418.471	-200.000	0.080	-0.406
-417.457	-30.518	-0.108	-0.060
-416.442	-84.076	0.059	0.018
-415.428	224.663	-0.052	0.083
-414.413	-139.946	0.139	0.014
-413.398	800.000	-0.038	0.117
-412.384	-117.485	0.238	-0.042
-411.369	-200.000	-0.006	0.195
-410.355	118.757	-0.068	-0.082
-409.340	800.000	-0.049	-0.164
-408.325	306.214	-0.100	0.183
-407.311	332.854	0.061	-0.117
-406.296	-200.000	-0.063	-0.353
-405.282	37.323	0.102	-0.089
-404.267	800.000	0.122	-0.356
-403.252	-200.000	0.017	-0.192
-402.238	395.385	-0.100	0.206
-401.223	-106.137	-0.117	0.026
-400.209	177.655	-0.103	-0.147
-399.194	92.037	-0.043	0.048
-398.179	545.134	0.058	-0.137
-397.165	-200.000	-0.044	0.219
-396.150	288.521	0.035	-0.063
-395.136	695.189	0.072	-0.185
-394.121	800.000	0.082	-0.258
-393.106	-64.468	0.406	0.162
-392.092	-74.908	-0.110	-0.039
-391.077	800.000	0.110	0.413
-390.063	-200.000	0.056	0.250
-389.048	249.246	-0.094	-0.157
-388.033	800.000	0.004	-0.014
-387.019	-135.091	-0.183	-0.022
-386.004	-138.495	0.251	0.027
-384.990	16.813	-0.200	-0.156
-383.975	9.315	0.247	-0.183
-382.960	358.426	0.202	-0.396
-381.946	-128.258	0.217	-0.030
-380.931	-7.621	0.091	0.060
-379.917	-155.076	0.160	-0.010
-378.902	-159.927	-0.247	-0.013
-377.888	-23.727	0.062	0.037
-376.873	-13.167	0.253	0.162
-375.858	162.041	0.115	-0.158
-374.844	-155.052	0.278	0.018
-373.829	149.251	-0.145	0.193
-372.815	-94.986	0.223	0.059
-371.800	800.000	0.054	0.154
-370.785	-41.822	0.120	-0.061
-369.771	800.000	0.080	0.222
-368.756	-59.347	-0.648	0.274
-367.742	-200.000	-0.011	0.218
-366.727	-93.539	0.218	0.059
-365.712	-200.000	-0.018	-0.078
-364.698	800.000	0.032	0.090
-363.683	-171.151	0.190	0.006
-362.669	-109.812	-0.228	-0.047
-361.654	6.423	-0.193	-0.141
-360.639	70.356	-0.283	0.288
-359.625	800.000	0.071	-0.225
-358.610	315.404	0.184	-0.341
-357.596	-136.742	0.412	0.047
-356.581	283.330	-0.123	0.217
-355.566	-32.572	0.315	-0.173
-354.552	226.783	-0.046	-0.074
-353.537	-8.534	0.122	0.081
-352.523	-200.000	-0.045	0.289
-351.508	-22.127	0.267	-0.159
-350.493	-110.905	0.183	-0.037
-349.479	470.885	0.151	0.334
-348.464	325.468	0.073	0.136
-347.450	800.000	-0.072	-0.306
-346.435	1.959	-0.107	-0.076
-345.420	-15.010	0.159	0.100
-344.406	380.507	-0.067	-0.135
-343.391	-200.000	0.053	-0.252
-342.377	530.619	-0.023	-0.054
-341.362	69.537	0.083	-0.084
-340.348	800.000	0.128	-0.501
-339.333	534.703	0.102	-0.238
-338.318	102.306	0.234	0.269
-337.304	-55.607	-0.309	-0.136
-336.289	17.800	-0.248	0.193
-335.275	-200.000	0.006	0.028
-334.260	128.945	-0.092	0.115
-333.245	800.000	-0.126	0.357
-332.231	258.452	0.085	0.143
-331.216	800.000	-0.077	-0.279
-330.202	800.000	-0.079	0.298
-329.187	281.056	-0.123	-0.216
-328.172	-10.378	0.296	-0.193
-327.158	286.502	0.086	-0.153
-326.143	-74.316	-0.194	-0.069
-325.129	122.452	-0.221	-0.271
-324.114	169.694	0.087	-0.121
-323.099	310.844	0.035	0.065
-322.085	-101.248	-0.143	0.034
-321.070	-92.604	-0.432	-0.119
-320.056	35.892	0.116	0.100
-319.041	-200.000	-0.007	-0.264
-318.026	-87.213	0.038	0.011
-317.012	166.160	0.186	-0.258
-315.997	333.771	-0.084	-0.159
-314.983	233.718	-0.238	0.384
-313.968	422.620	-0.086	0.181
-312.953	-16.866	0.071	-0.044
-311.939	800.000	-0.100	-0.341
-310.924	-63.409	0.112	-0.045
-309.910	-146.045	-0.535	-0.046
-308.895	-200.000	0.004	0.259
-307.880	27.124	-0.231	0.190
-306.866	148.343	-0.234	0.309
-305.851	-141.121	0.082	-0.008
-304.837	394.141	-0.122	0.249
-303.822	-180.280	-0.163	0.003
-302.807	348.349	-0.092	-0.178
-301.793	-200.000	0.030	0.283
-300.778	-84.363	0.402	-0.125
-299.764	95.821	-0.099	0.111
-298.749	800.000	-0.066	-0.249
-297.735	269.709	0.035	0.060
-296.720	143.611	0.224	0.292
-295.705	195.640	-0.097	0.145
-294.691	21.730	-0.091	0.072
-293.676	-74.461	0.151	-0.053
-292.662	800.000	0.035	0.097
-291.647	-200.000	0.015	0.438
-290.632	176.926	-0.140	-0.199
-289.618	-25.173	0.173	-0.101
-288.603	130.624	0.186	0.234
-287.589	-176.163	-0.107	0.003
-286.574	318.755	0.094	0.174
-285.559	12.984	0.270	0.205
-284.545	-78.142	-0.207	-0.070
-283.530	-129.493	0.409	0.055
-282.516	268.811	-0.219	0.377
-281.501	224.867	0.011	-0.018
-280.486	24.830	0.195	-0.158
-279.472	-2.476	-0.230	-0.158
-278.457	-57.326	-0.156	-0.067
-277.443	180.505	0.161	0.231
-276.428	18.082	0.151	0.118
-275.413	-136.109	0.219	0.025
-274.399	71.630	-0.142	0.144
-273.384	-200.000	0.003	0.397
-272.370	800.000	0.042	-0.113
-271.355	1.977	0.282	0.199
-270.340	110.269	-0.132	0.155
-269.326	800.000	-0.047	0.139
-268.311	800.000	-0.079	-0.222
-267.297	-69.421	0.182	-0.068
-266.282	-165.622	0.285	0.012
-265.267	41.050	-0.237	-0.209
-264.253	-104.158	0.259	-0.059
-263.238	210.165	-0.098	0.151
-262.224	17.267	-0.280	-0.217
-261.209	216.825	-0.088	-0.137
-260.195	27.725	-0.183	0.151
-259.180	-42.691	-0.081	-0.040
-258.165	111.762	-0.297	-0.350
-257.151	246.304	0.223	0.367
-256.136	134.465	0.200	-0.253
-255.122	17.186	0.272	0.211
-254.107	-102.531	0.161	-0.038
-253.092	800.000	0.026	-0.094
-252.078	168.232	-0.174	0.243
-251.063	-46.047	0.076	-0.037
-250.049	-200.000	-0.010	-0.204
-249.034	81.035	0.065	0.069
-248.019	-118.930	-0.328	0.056
-247.005	800.000	0.085	-0.353
-245.990	-9.235	0.266	0.174
-244.976	737.934	0.092	0.243
-243.961	800.000	-0.065	0.277
-242.946	800.000	0.087	0.262
-241.932	147.958	0.246	0.324
-240.917	452.662	0.151	0.326
-239.903	-73.396	0.179	-0.064
-238.888	-200.000	-0.026	0.171
-237.873	800.000	0.088	-0.258
-236.859	44.863	0.231	-0.208
-235.844	800.000	0.079	0.268
-234.830	525.302	0.077	-0.177
-233.815	18.475	-0.233	0.182
-232.800	12.404	-0.299	-0.225
-231.786	-115.180	-0.154	0.029
-230.771	-123.867	-0.230	-0.036
-229.757	800.000	-0.006	0.024
-228.742	-104.058	0.383	-0.087
-227.727	800.000	-0.026	0.092
-226.713	442.143	0.115	0.246
-225.698	-54.700	0.171	0.075
-224.684	42.437	0.372	-0.331
-223.669	522.130	0.194	0.445
-222.655	-155.592	0.110	0.007
-221.640	-22.384	-0.312	-0.185
-220.625	38.504	-0.121	-0.105
-219.611	219.299	0.027	-0.043
-218.596	-75.048	0.443	-0.155
-217.582	-92.864	0.160	0.044
-216.567	-143.883	-0.332	-0.031
-215.552	-200.000	0.049	-0.295
-214.538	-200.000	-0.031	0.209
-213.523	-104.976	-0.150	0.034
-212.509	-4.700	0.227	-0.153
-211.494	-158.353	-0.239	-0.014
-210.479	-116.997	-0.267	0.048
-209.465	800.000	0.063	-0.211
-208.450	-21.445	0.090	0.054
-207.436	64.416	0.248	0.244
-206.421	67.278	0.295	0.294
-205.406	17.384	-0.071	-0.055
-204.392	-31.443	0.122	0.067
-203.377	233.349	0.026	0.042
-202.363	119.455	0.213	0.258
-201.348	341.942	0.152	0.291
-200.333	-200.000	0.036	-0.485
-199.319	0.391	-0.234	0.163
-198.304	-82.103	0.204	-0.065
-197.290	46.137	0.130	0.117
-196.275	150.254	-0.175	-0.232
-195.260	-114.966	-0.106	0.020
-194.246	-112.070	0.110	0.022
-193.231	-200.000	0.035	0.185
-192.217	-66.270	-0.190	-0.074
-191.202	45.404	0.252	0.227
-190.187	199.809	0.149	-0.223
-189.173	-156.442	0.277	0.017
-188.158	800.000	-0.132	0.408
-187.144	-69.280	0.360	-0.135
-186.129	-200.000	-0.012	0.253
-185.114	146.371	-0.214	0.281
-184.100	-200.000	0.002	-0.095
-183.085	-144.794	-0.191	-0.017
-182.071	41.247	-0.115	0.102
-181.056	-129.625	-0.297	0.040
-180.042	-42.348	0.180	0.090
-179.027	125.087	0.152	-0.187
-178.012	-73.622	0.089	0.032
-176.998	-77.347	-0.128	0.043
-175.983	1.029	-0.060	0.042
-174.969	530.734	0.121	-0.280
-173.954	-200.000	0.090	-0.423
-172.939	-135.793	-0.246	-0.028
-171.925	800.000	0.081	-0.311
-170.910	-93.552	-0.193	0.052
-169.896	-80.015	0.426	-0.139
-168.881	-57.826	0.140	-0.060
-167.866	421.174	0.056	0.118
-166.852	-172.980	-0.082	0.002
-165.837	33.263	-0.305	0.258
-164.823	27.603	0.121	-0.100
-163.808	-106.136	-0.199	-0.044
-162.793	-200.000	-0.021	-0.258
-161.779	-200.000	-0.017	-0.124
-160.764	800.000	-0.036	0.137
-159.750	-200.000	0.071	-0.316
-158.735	61.374	0.100	-0.097
-157.720	800.000	0.023	-0.080
-156.706	-42.511	-0.226	0.112
-155.691	-200.000	0.022	-0.108
-154.677	-59.337	0.308	0.129
-153.662	209.931	0.031	0.048
-152.647	-69.118	-0.268	0.101
-151.633	126.755	0.062	0.077
-150.618	-112.077	-0.213	-0.042
-149.604	800.000	-0.061	0.249
-148.589	248.021	0.062	-0.102
-147.574	45.153	0.106	-0.095
-146.560	368.027	0.091	-0.179
-145.545	800.000	-0.036	-0.126
-144.531	-168.383	0.129	0.005
-143.516	24.111	-0.139	0.112
-142.502	161.113	0.187	0.254
-141.487	-115.334	0.365	0.067
-140.472	-49.035	-0.138	0.064
-139.458	116.386	-0.340	0.406
-138.443	-200.000	0.033	0.383
-137.429	-161.526	-0.183	0.009
-136.414	236.318	0.110	0.178
-135.399	72.633	-0.150	-0.152
-134.385	-200.000	-0.016	0.243
-133.370	30.021	-0.287	-0.238
-132.356	130.895	-0.073	-0.091
-131.341	-12.410	-0.091	-0.058
-130.326	-120.654	0.207	-0.034
-129.312	-20.411	-0.031	-0.019
-128.297	-82.319	-0.213	0.067
-127.283	-180.165	-0.293	0.006
-126.268	51.153	0.153	-0.141
-125.253	-51.790	-0.091	-0.041
-124.239	-171.868	-0.263	-0.008
-123.224	-200.000	0.008	0.215
-122.210	-67.369	-0.305	-0.117
-121.195	-200.000	-0.028	-0.164
