DTS Sentinel unit serial number:	SN413079Multiplexer serial number:	ORYXHardware model number:	OX4-SRSoftware version number:	ORYX F/W v4.00 Oryx Data Collector v3.7.2.0data status	okinstallation	princeton_trtdifferential loss correction	single-endedforward channel	channel 2reverse channel	N/Adate	2019/09/19time	13:47:35forward acquisition time	60.00reverse acquisition time	0.00gamma	496.2192k internal	0.2325k external	0.2325temperature offset calibration	1.0019default loss term (dB/km)	0.3790temperature slope calibration	1.0000multiplexer offset coefficient	1.0000multiplexer slope coefficient	1.0000fibre end	0.00T internal ref (°C)	30.62T ext. ref 1 (°C)	1.00T ext. ref 2 (°C)	27.95length (m)	temperature (°C)	Stokes	anti-Stokes-747.200	-200.000	-0.012	-0.078
-746.185	13.980	-0.152	0.119
-745.171	168.803	0.149	-0.214
-744.156	248.217	-0.233	0.398
-743.142	-46.125	-0.156	0.077
-742.127	-200.000	0.042	0.240
-741.112	-37.415	-0.191	-0.103
-740.098	-19.937	-0.214	0.133
-739.083	-152.381	0.200	0.015
-738.069	415.496	-0.121	0.261
-737.054	523.222	-0.097	-0.230
-736.039	-134.380	-0.360	-0.045
-735.025	800.000	0.076	0.238
-734.010	221.863	0.137	0.222
-732.996	-126.874	-0.354	-0.053
-731.981	0.496	0.067	0.048
-730.966	-155.468	0.209	0.014
-729.952	544.537	-0.015	0.037
-728.937	2.586	0.126	0.092
-727.923	-99.722	-0.128	-0.032
-726.908	-27.495	-0.149	0.087
-725.894	-194.402	-0.216	0.002
-724.879	-35.853	-0.176	-0.096
-723.864	-57.370	-0.207	-0.092
-722.850	-57.939	0.242	-0.107
-721.835	800.000	-0.058	0.177
-720.821	-200.000	0.051	-0.380
-719.806	-200.000	-0.066	-0.298
-718.791	-56.955	0.173	-0.077
-717.777	-77.528	-0.250	0.087
-716.762	268.804	0.118	0.208
-715.748	-0.316	0.113	-0.081
-714.733	411.840	0.046	-0.099
-713.718	421.837	-0.168	-0.364
-712.704	22.465	0.176	-0.145
-711.689	-53.596	-0.402	0.185
-710.675	800.000	-0.053	0.169
-709.660	-158.497	0.160	0.009
-708.645	-200.000	0.093	0.581
-707.631	60.382	-0.092	0.092
-706.616	23.495	0.247	0.204
-705.602	-89.284	0.040	0.012
-704.587	-200.000	-0.006	-0.242
-703.572	-87.133	-0.285	-0.087
-702.558	235.564	0.040	-0.067
-701.543	-83.018	0.115	0.037
-700.529	517.655	0.133	-0.312
-699.514	-69.272	-0.286	-0.111
-698.499	-134.672	0.254	-0.031
-697.485	-53.152	0.083	0.039
-696.470	-193.773	0.262	0.002
-695.456	150.588	0.082	0.113
-694.441	800.000	0.068	-0.227
-693.426	-145.311	-0.550	-0.050
-692.412	-91.860	-0.106	-0.030
-691.397	-58.178	-0.205	0.090
-690.383	108.181	-0.229	-0.274
-689.368	-200.000	-0.004	-0.046
-688.354	416.487	0.136	-0.292
-687.339	710.175	0.027	-0.072
-686.324	-44.826	-0.275	0.138
-685.310	-112.421	-0.319	-0.064
-684.295	800.000	-0.088	0.279
-683.281	29.520	-0.333	-0.285
-682.266	-200.000	0.029	-0.265
-681.251	-200.000	0.000	-0.105
-680.237	14.626	0.201	-0.158
-679.222	-90.815	0.132	0.038
-678.208	-79.865	0.555	0.188
-677.193	22.317	0.037	-0.030
-676.178	-200.000	0.019	-0.185
-675.164	800.000	-0.045	0.132
-674.149	-89.142	-0.245	-0.073
-673.135	-200.000	-0.041	-0.252
-672.120	-200.000	-0.031	0.153
-671.105	-55.424	-0.046	0.021
-670.091	-67.349	0.186	0.074
-669.076	-98.152	-0.186	0.048
-668.062	-29.982	-0.182	-0.104
-667.047	-84.595	0.220	-0.070
-666.032	-69.775	0.305	0.117
-665.018	-64.995	-0.122	-0.050
-664.003	-200.000	0.015	-0.324
-662.989	800.000	-0.020	-0.077
-661.974	-14.145	-0.099	-0.065
-660.959	16.307	-0.088	-0.070
-659.945	800.000	-0.087	0.265
-658.930	406.844	0.168	-0.358
-657.916	-200.000	-0.007	-0.063
-656.901	-55.430	0.213	-0.096
-655.886	-126.149	0.112	0.017
-654.872	-139.651	-0.195	0.021
-653.857	-200.000	-0.001	-0.069
-652.843	347.687	0.081	0.161
-651.828	-33.830	0.256	-0.142
-650.814	61.982	0.181	-0.182
-649.799	99.951	-0.080	-0.094
-648.784	-128.047	-0.234	-0.034
-647.770	-90.899	0.097	0.028
-646.755	-44.368	0.129	0.065
-645.741	-90.576	-0.261	-0.076
-644.726	-200.000	-0.035	-0.234
-643.711	-28.508	-0.179	-0.104
-642.697	20.509	-0.160	0.130
-641.682	-16.055	-0.111	0.071
-640.668	117.625	0.232	-0.287
-639.653	-95.780	0.118	0.032
-638.638	-200.000	0.017	0.129
-637.624	-49.181	-0.398	-0.191
-636.609	-200.000	0.014	-0.205
-635.595	800.000	0.048	-0.182
-634.580	-91.627	-0.258	-0.074
-633.565	-200.000	0.024	-0.253
-632.551	5.793	0.080	-0.060
-631.536	280.107	-0.235	-0.422
-630.522	-200.000	0.030	0.171
-629.507	61.583	0.208	-0.208
-628.492	-89.566	-0.222	0.065
-627.478	-42.341	-0.126	0.064
-626.463	-147.349	-0.078	0.007
-625.449	-57.222	-0.111	-0.049
-624.434	-172.455	-0.327	-0.010
-623.419	26.113	-0.138	-0.116
-622.405	406.009	-0.075	-0.159
-621.390	86.344	0.055	0.061
-620.376	-200.000	-0.024	-0.359
-619.361	-84.944	-0.288	0.091
-618.346	-200.000	-0.011	0.241
-617.332	-90.807	-0.211	-0.061
-616.317	39.353	0.180	0.162
-615.303	-9.225	0.239	0.160
-614.288	800.000	0.114	-0.327
-613.273	-160.551	-0.191	-0.010
-612.259	-68.745	-0.316	0.123
-611.244	12.272	-0.086	0.066
-610.230	-103.582	0.245	0.058
-609.215	-200.000	0.034	0.177
-608.201	23.468	-0.192	0.158
-607.186	598.129	-0.064	0.160
-606.171	-95.233	-0.177	-0.048
-605.157	800.000	0.117	0.360
-604.142	-22.406	0.025	-0.015
-603.128	-17.993	0.219	-0.138
-602.113	-56.902	0.109	-0.048
-601.098	132.153	-0.166	0.214
-600.084	-200.000	-0.012	0.153
-599.069	61.173	-0.106	-0.105
-598.055	640.814	0.057	-0.145
-597.040	-57.844	-0.102	0.045
-596.025	800.000	-0.063	-0.230
-595.011	-169.729	0.184	0.007
-593.996	-86.076	0.311	0.096
-592.982	-62.350	-0.083	-0.035
-591.967	66.797	-0.066	0.067
-590.952	30.249	0.182	0.156
-589.938	271.715	-0.116	0.206
-588.923	-126.985	-0.207	0.031
-587.909	-200.000	-0.005	0.129
-586.894	-56.101	-0.250	-0.112
-585.879	-84.218	0.186	0.059
-584.865	-200.000	-0.041	0.536
-583.850	800.000	0.030	0.130
-582.836	800.000	-0.055	0.234
-581.821	-200.000	0.027	0.230
-580.806	800.000	-0.051	0.205
-579.792	456.082	0.088	-0.196
-578.777	630.905	-0.057	-0.145
-577.763	800.000	-0.132	-0.386
-576.748	365.711	-0.045	0.091
-575.733	800.000	-0.015	-0.063
-574.719	31.573	-0.081	-0.070
-573.704	128.729	0.132	0.168
-572.690	186.603	0.196	-0.293
-571.675	242.836	0.318	-0.534
-570.661	-145.755	-0.183	0.016
-569.646	800.000	0.119	-0.329
-568.631	-200.000	-0.008	-0.471
-567.617	134.221	-0.101	-0.131
-566.602	221.966	0.180	-0.290
-565.588	226.945	0.153	-0.249
-564.573	340.982	0.118	-0.231
-563.558	-97.408	-0.287	-0.075
-562.544	62.471	-0.095	-0.095
-561.529	316.329	-0.068	-0.129
-560.515	220.781	0.191	0.308
-559.500	-200.000	0.021	-0.126
-558.485	-24.180	-0.119	0.071
-557.471	154.546	-0.021	-0.029
-556.456	-109.102	0.517	0.110
-555.442	-112.758	-0.266	-0.053
-554.427	-67.360	-0.220	0.087
-553.412	180.597	0.120	0.176
-552.398	-200.000	0.015	-0.134
-551.383	-121.716	0.193	0.032
-550.369	-83.082	-0.111	0.036
-549.354	206.581	0.151	-0.236
-548.339	-200.000	0.045	0.215
-547.325	316.011	-0.066	0.125
-546.310	800.000	-0.091	0.375
-545.296	-200.000	-0.003	-0.031
-544.281	-4.601	0.146	0.101
-543.266	-200.000	-0.043	0.235
-542.252	292.220	-0.124	-0.226
-541.237	-200.000	0.044	-0.315
-540.223	-46.023	0.109	0.054
-539.208	227.523	0.147	0.239
-538.193	-102.040	0.148	-0.036
-537.179	266.992	0.052	0.091
-536.164	676.094	-0.052	0.134
-535.150	-36.849	-0.214	0.115
-534.135	-155.521	0.120	0.008
-533.121	-200.000	0.044	-0.506
-532.106	-128.322	0.249	-0.035
-531.091	-185.714	-0.165	0.002
-530.077	265.624	-0.153	-0.267
-529.062	5.930	-0.155	0.115
-528.048	-200.000	-0.006	-0.033
-527.033	120.218	0.022	-0.027
-526.018	-179.285	0.348	0.008
-525.004	-200.000	0.114	0.000
-523.989	800.000	0.106	-0.357
-522.975	-200.000	-0.024	0.146
-521.960	25.378	-0.059	0.049
-520.945	-99.000	0.296	0.075
-519.931	-178.922	0.295	0.007
-518.916	29.508	0.067	0.057
-517.902	-127.256	-0.385	0.056
-516.887	695.489	0.150	-0.395
-515.872	219.716	0.131	0.210
-514.858	-135.568	-0.305	-0.036
-513.843	-49.785	-0.043	0.020
-512.829	800.000	0.018	0.076
-511.814	800.000	-0.095	-0.321
-510.799	-75.927	0.352	0.125
-509.785	159.119	-0.108	-0.150
-508.770	449.135	0.058	0.128
-507.756	313.880	0.060	-0.113
-506.741	-200.000	0.247	-0.001
-505.726	-16.081	0.039	-0.024
-504.712	-43.297	-0.311	0.157
-503.697	-200.000	-0.041	-0.416
-502.683	-200.000	-0.022	-0.335
-501.668	0.647	0.187	-0.134
-500.653	-120.232	-0.345	-0.059
-499.639	-200.000	0.011	-0.145
-498.624	-200.000	-0.007	-0.230
-497.610	100.005	0.168	0.195
-496.595	-134.505	-0.291	0.036
-495.581	166.030	-0.164	-0.232
-494.566	302.543	0.058	0.108
-493.551	14.940	-0.167	0.131
-492.537	-200.000	-0.037	0.386
-491.522	22.495	0.132	0.108
-490.508	-4.889	0.048	0.033
-489.493	621.830	-0.101	-0.255
-488.478	-200.000	-0.034	0.173
-487.464	800.000	-0.024	-0.093
-486.449	-151.162	-0.202	-0.015
-485.435	42.648	0.212	0.193
-484.420	-83.063	0.252	0.081
-483.405	-8.099	-0.263	-0.177
-482.391	-123.808	-0.248	-0.039
-481.376	333.548	0.148	-0.285
-480.362	-200.000	-0.000	0.011
-479.347	-85.376	-0.161	-0.050
-478.332	80.145	0.372	0.400
-477.318	-200.000	0.013	-0.187
-476.303	-38.048	-0.099	0.052
-475.289	-200.000	-0.014	0.231
-474.274	222.456	-0.257	0.413
-473.259	352.202	0.112	-0.222
-472.245	59.140	-0.169	0.166
-471.230	-125.765	-0.264	0.040
-470.216	-37.820	0.043	0.023
-469.201	-50.720	-0.206	0.097
-468.186	-98.560	0.308	0.079
-467.172	171.800	0.205	-0.294
-466.157	17.426	0.396	-0.314
-465.143	-101.989	-0.351	0.084
-464.128	800.000	-0.075	0.318
-463.113	-200.000	-0.002	-0.074
-462.099	-200.000	-0.032	0.140
-461.084	66.212	-0.263	-0.266
-460.070	444.391	0.108	-0.236
-459.055	148.539	-0.079	0.106
-458.040	23.151	-0.122	-0.100
-457.026	-86.331	0.189	-0.058
-456.011	-200.000	-0.058	-0.336
-454.997	11.957	-0.364	-0.279
-453.982	220.500	-0.160	-0.256
-452.968	-57.507	0.316	0.138
-451.953	-46.600	-0.244	-0.119
-450.938	-194.073	-0.343	0.003
-449.924	227.709	-0.138	-0.223
-448.909	-115.580	0.124	0.023
-447.895	-200.000	0.029	0.205
-446.880	11.641	-0.116	0.089
-445.865	129.021	-0.110	-0.140
-444.851	-200.000	0.012	0.089
-443.836	614.667	-0.052	-0.131
-442.822	279.922	0.124	-0.222
-441.807	366.657	-0.029	-0.058
-440.792	-15.193	0.079	0.050
-439.778	12.279	-0.188	-0.145
-438.763	28.270	-0.283	-0.239
-437.749	800.000	-0.055	0.227
-436.734	-104.111	0.180	0.042
-435.719	67.434	0.145	0.148
-434.705	-116.820	0.296	0.054
-433.690	800.000	-0.068	0.272
-432.676	800.000	-0.036	0.138
-431.661	165.026	0.140	-0.197
-430.646	-0.635	-0.021	-0.015
-429.632	-64.810	0.117	0.047
-428.617	27.110	-0.091	-0.076
-427.603	-32.628	0.217	-0.121
-426.588	-70.724	0.102	0.038
-425.573	-48.259	0.147	-0.071
-424.559	396.534	-0.042	-0.088
-423.544	-144.455	0.375	0.035
-422.530	176.201	0.160	-0.231
-421.515	-200.000	-0.092	0.429
-420.500	-173.589	0.203	-0.006
-419.486	800.000	0.025	0.104
-418.471	-178.894	0.263	-0.006
-417.457	566.476	-0.065	0.158
-416.442	141.116	-0.198	-0.261
-415.428	54.831	-0.228	-0.219
-414.413	-200.000	0.023	-0.205
-413.398	330.179	-0.101	0.194
-412.384	-3.945	-0.349	-0.241
-411.369	-74.146	-0.227	0.082
-410.355	-185.864	-0.090	0.001
-409.340	-19.948	-0.271	-0.167
-408.325	-139.916	0.231	-0.024
-407.311	-120.951	-0.069	0.012
-406.296	-200.000	0.013	0.180
-405.282	-76.355	-0.100	0.035
-404.267	-53.322	-0.277	-0.127
-403.252	-50.058	0.198	-0.093
-402.238	320.867	0.237	-0.449
-401.223	36.241	-0.327	-0.287
-400.209	430.152	0.113	0.244
-399.194	350.981	0.129	0.255
-398.179	250.656	-0.063	0.107
-397.165	432.154	0.079	0.171
-396.150	-22.258	0.162	0.097
-395.136	-200.000	0.007	0.041
-394.121	-12.816	-0.081	-0.052
-393.106	-56.198	0.065	-0.029
-392.092	483.940	-0.075	0.170
-391.077	-120.906	0.256	-0.043
-390.063	3.468	0.238	0.173
-389.048	228.700	0.064	-0.103
-388.033	488.598	0.022	-0.050
-387.019	800.000	-0.052	0.185
-386.004	800.000	-0.035	0.139
-384.990	148.413	-0.202	-0.271
-383.975	-5.070	-0.210	-0.144
-382.960	176.775	-0.203	-0.293
-381.946	-200.000	0.006	-0.163
-380.931	205.721	0.130	-0.201
-379.917	-200.000	-0.041	0.216
-378.902	149.788	0.097	-0.130
-377.888	800.000	0.042	-0.137
-376.873	124.499	0.117	0.146
-375.858	-93.088	-0.107	0.030
-374.844	-200.000	0.026	0.183
-373.829	800.000	-0.058	0.186
-372.815	-200.000	-0.329	0.000
-371.800	150.392	-0.245	0.331
-370.785	109.426	-0.102	-0.121
-369.771	85.890	-0.129	0.141
-368.756	-200.000	0.004	0.077
-367.742	-10.334	0.159	-0.105
-366.727	380.743	-0.055	0.113
-365.712	-51.656	-0.409	0.190
-364.698	800.000	-0.037	0.107
-363.683	149.205	0.138	0.185
-362.669	-25.892	0.020	0.012
-361.654	-36.741	-0.347	0.185
-360.639	41.212	0.319	-0.287
-359.625	-200.000	-0.018	0.169
-358.610	-200.000	-0.006	-0.114
-357.596	-88.323	0.157	-0.047
-356.581	679.528	-0.104	0.270
-355.566	-180.901	0.185	-0.004
-354.552	-52.291	-0.274	0.126
-353.537	-47.265	0.040	0.019
-352.523	-95.742	0.113	0.030
-351.508	-62.868	-0.252	0.104
-350.493	-14.257	-0.272	-0.174
-349.479	51.097	0.161	-0.152
-348.464	-131.813	0.273	-0.035
-347.450	44.482	-0.244	-0.223
-346.435	-35.272	-0.159	-0.086
-345.420	286.477	-0.055	0.098
-344.406	442.442	-0.098	-0.214
-343.391	170.912	0.124	0.177
-342.377	-37.228	0.249	0.132
-341.362	-200.000	-0.035	-0.200
-340.348	-70.814	-0.169	0.063
-339.333	-40.836	0.249	-0.128
-338.318	800.000	0.161	-0.510
-337.304	800.000	0.032	-0.119
-336.289	368.779	-0.107	-0.214
-335.275	-137.763	-0.322	-0.036
-334.260	-89.290	0.134	-0.039
-333.245	144.424	0.215	0.285
-332.231	-20.614	-0.512	-0.312
-331.216	260.648	0.093	0.160
-330.202	-47.086	0.334	0.162
-329.187	-200.000	0.003	0.024
-328.172	40.554	-0.120	0.108
-327.158	44.042	0.305	-0.277
-326.143	91.910	0.243	0.272
-325.129	139.631	0.139	0.182
-324.114	-63.584	-0.164	-0.067
-323.099	48.085	-0.090	-0.083
-322.085	331.260	-0.194	0.372
-321.070	178.557	0.088	-0.128
-320.056	57.840	-0.060	0.058
-319.041	252.665	-0.061	-0.104
-318.026	618.391	0.071	-0.177
-317.012	-200.000	0.001	0.220
-315.997	-200.000	0.015	0.175
-314.983	-98.656	0.234	-0.059
-313.968	40.951	0.187	0.168
-312.953	80.335	0.099	0.106
-311.939	25.374	0.194	0.160
-310.924	800.000	-0.042	0.157
-309.910	800.000	0.032	-0.100
-308.895	800.000	0.101	0.389
-307.880	-36.624	0.200	-0.107
-306.866	17.624	0.177	-0.139
-305.851	-121.769	-0.354	0.058
-304.837	384.103	0.065	0.134
-303.822	210.926	-0.084	-0.131
-302.807	195.907	-0.090	0.136
-301.793	122.396	-0.103	-0.128
-300.778	-200.000	-0.017	-0.086
-299.764	94.863	-0.210	-0.237
-298.749	193.915	0.220	0.330
-297.735	64.093	0.174	0.174
-296.720	-200.000	0.018	0.199
-295.705	-200.000	0.028	0.195
-294.691	-110.075	0.026	0.005
-293.676	800.000	-0.053	-0.178
-292.662	100.624	-0.109	-0.126
-291.647	-87.568	0.222	0.067
-290.632	97.810	0.126	-0.144
-289.618	3.186	0.074	0.053
-288.603	-138.508	0.372	0.041
-287.589	-200.000	0.001	0.009
-286.574	-38.323	-0.463	-0.243
-285.559	243.425	-0.124	0.206
-284.545	-107.986	-0.128	0.027
-283.530	-136.803	0.141	0.016
-282.516	-105.507	0.405	0.091
-281.501	-9.665	0.259	0.171
-280.486	459.497	0.035	-0.076
-279.472	-200.000	-0.014	-0.076
-278.457	-119.310	-0.243	-0.042
-277.443	-187.184	-0.266	-0.004
-276.428	158.209	-0.060	-0.082
-275.413	522.662	-0.126	0.292
-274.399	65.153	-0.064	0.064
-273.384	800.000	0.029	-0.089
-272.370	502.232	-0.160	-0.367
-271.355	-35.671	-0.062	-0.033
-270.340	161.042	-0.098	-0.135
-269.326	-127.179	-0.112	0.016
-268.311	-200.000	0.003	0.382
-267.297	-200.000	-0.010	-0.078
-266.282	157.651	0.082	0.113
-265.267	-44.458	0.270	-0.134
-264.253	-155.552	0.130	-0.008
-263.238	41.705	0.181	-0.162
-262.224	-96.969	-0.084	0.022
-261.209	57.102	-0.278	-0.268
-260.195	31.954	0.055	0.047
-259.180	55.286	0.017	0.016
-258.165	176.936	0.219	-0.316
-257.151	413.967	0.227	0.478
-256.136	65.755	-0.164	0.165
-255.122	800.000	0.067	-0.215
-254.107	-70.896	0.138	0.051
-253.092	-66.793	0.257	0.101
-252.078	-200.000	-0.001	-0.096
-251.063	35.973	0.262	0.228
-250.049	-116.628	-0.374	0.068
-249.034	-108.687	0.183	-0.039
-248.019	437.378	0.106	0.228
-247.005	-76.433	0.077	0.027
-245.990	-67.433	0.066	-0.026
-244.976	93.048	0.202	0.226
-243.961	324.919	-0.146	-0.276
-242.946	-96.566	0.170	0.044
-241.932	-200.000	0.001	-0.127
-240.917	544.911	0.037	-0.088
-239.903	-43.214	-0.287	-0.144
-238.888	74.080	0.287	0.298
-237.873	11.528	0.071	0.054
-236.859	800.000	0.050	0.145
-235.844	-200.000	0.033	-0.155
-234.830	-150.289	-0.250	0.019
-233.815	-118.521	-0.164	0.029
-232.800	-200.000	-0.022	-0.196
-231.786	800.000	0.055	0.206
-230.771	-37.495	-0.241	-0.127
-229.757	141.768	0.066	0.086
-228.742	451.909	-0.044	0.096
-227.727	217.904	0.198	-0.312
-226.713	-67.393	0.106	-0.041
-225.698	69.769	-0.257	-0.262
-224.684	507.462	-0.170	0.391
-223.669	-49.606	-0.375	-0.177
-222.655	342.550	0.205	-0.398
-221.640	159.895	0.194	0.267
-220.625	-166.819	0.332	-0.014
-219.611	-200.000	-0.028	0.380
-218.596	-200.000	-0.076	0.343
-217.582	32.063	0.165	0.141
-216.567	48.904	0.320	0.297
-215.552	193.926	-0.055	0.082
-214.538	-200.000	0.020	-0.138
-213.523	216.665	-0.066	0.104
-212.509	-133.775	0.348	0.043
-211.494	-49.434	-0.269	0.127
-210.479	-54.353	-0.288	-0.129
-209.465	291.549	0.020	0.036
-208.450	-99.529	-0.157	-0.039
-207.436	18.058	-0.138	-0.109
-206.421	164.799	-0.183	-0.255
-205.406	9.298	0.182	-0.136
-204.392	76.925	-0.113	0.118
-203.377	-57.327	0.198	0.086
-202.363	35.369	0.192	-0.166
-201.348	-80.460	0.349	0.115
-200.333	-200.000	0.006	-0.269
-199.319	-76.625	0.301	0.104
-198.304	-200.000	0.012	-0.148
-197.290	214.620	-0.021	0.034
-196.275	-24.061	-0.093	-0.055
-195.260	103.876	0.149	0.173
-194.246	7.264	0.132	-0.097
-193.231	49.384	-0.135	0.125
-192.217	-61.146	-0.118	0.049
-191.202	-63.963	0.154	0.062
-190.187	201.259	-0.063	0.096
-189.173	-200.000	0.002	-0.016
-188.158	-162.504	0.303	0.015
-187.144	429.729	-0.091	0.194
-186.129	-93.694	-0.246	-0.067
-185.114	-200.000	-0.025	-0.114
-184.100	581.964	-0.073	0.177
-183.085	58.968	-0.231	0.225
-182.071	-134.043	-0.121	-0.015
-181.056	566.264	-0.121	0.291
-180.042	-200.000	-0.032	0.158
-179.027	-200.000	-0.007	0.042
-178.012	107.064	-0.226	0.265
-176.998	10.337	-0.053	-0.040
-175.983	800.000	-0.040	0.168
-174.969	-71.968	0.225	0.083
-173.954	43.183	0.135	-0.122
-172.939	-41.160	0.124	0.063
-171.925	-81.090	0.245	0.080
-170.910	-48.026	0.118	0.056
-169.896	-67.737	0.212	0.082
-168.881	-49.144	-0.222	0.105
-167.866	-139.456	0.125	-0.013
-166.852	256.378	0.229	0.387
-165.837	95.528	-0.130	0.146
-164.823	129.455	0.037	0.046
-163.808	-157.430	-0.238	-0.014
-162.793	-200.000	0.064	-0.335
-161.779	251.464	0.046	-0.077
-160.764	44.016	0.179	-0.162
-159.750	800.000	-0.046	0.182
-158.735	-167.033	0.129	0.005
-157.720	-134.483	-0.224	-0.027
-156.706	-163.483	0.326	0.015
-155.691	800.000	0.082	0.225
-154.677	-168.196	0.311	0.012
-153.662	-200.000	0.000	0.005
-152.647	-200.000	0.038	0.255
-151.633	384.243	0.049	-0.099
-150.618	-200.000	-0.072	-0.456
-149.604	-130.090	-0.424	0.057
-148.589	-200.000	-0.053	-0.232
-147.574	257.867	-0.180	0.305
-146.560	-98.240	0.207	-0.052
-145.545	-130.085	0.064	-0.009
-144.531	775.813	-0.060	0.161
-143.516	106.916	0.247	0.290
-142.502	800.000	0.070	0.293
-141.487	-12.419	-0.074	-0.048
-140.472	5.774	-0.240	0.175
-139.458	-118.505	0.279	0.049
-138.443	15.972	0.340	0.264
-137.429	-132.933	-0.288	-0.036
-136.414	-121.001	-0.182	-0.030
-135.399	-126.027	0.199	0.029
-134.385	180.889	0.145	0.209
-133.370	-38.227	0.190	0.099
-132.356	-24.925	0.093	-0.054
-131.341	522.522	-0.014	-0.032
-130.326	42.694	0.204	0.183
-129.312	-10.820	0.100	-0.065
-128.297	107.583	0.163	-0.191
-127.283	-18.317	-0.154	-0.095
-126.268	-116.899	0.172	0.031
-125.253	11.245	-0.046	0.034
-124.239	-25.321	0.103	0.060
-123.224	-200.000	0.000	0.143
-122.210	-134.811	-0.266	-0.032
-121.195	-130.743	0.385	-0.051
