DTS Sentinel unit serial number:	SN413079Multiplexer serial number:	ORYXHardware model number:	OX4-SRSoftware version number:	ORYX F/W v4.00 Oryx Data Collector v3.7.2.0data status	okinstallation	princeton_trtdifferential loss correction	single-endedforward channel	channel 2reverse channel	N/Adate	2019/09/14time	03:43:34forward acquisition time	60.00reverse acquisition time	0.00gamma	496.2192k internal	0.2337k external	0.2337temperature offset calibration	1.0127default loss term (dB/km)	0.3790temperature slope calibration	1.0000multiplexer offset coefficient	1.0000multiplexer slope coefficient	1.0000fibre end	0.00T internal ref (°C)	26.64T ext. ref 1 (°C)	3.28T ext. ref 2 (°C)	21.67length (m)	temperature (°C)	Stokes	anti-Stokes-747.200	391.572	0.149	-0.310
-746.185	-99.654	0.524	0.132
-745.171	297.736	-0.104	0.191
-744.156	-140.922	-0.275	-0.028
-743.142	-200.000	0.012	-0.207
-742.127	-200.000	0.005	0.063
-741.112	224.629	-0.115	0.186
-740.098	-72.601	-0.326	-0.121
-739.083	-71.435	-0.338	0.127
-738.069	-200.000	0.092	0.511
-737.054	-10.704	-0.114	0.075
-736.039	-19.559	-0.267	-0.166
-735.025	-31.901	0.257	0.144
-734.010	-47.620	-0.155	0.076
-732.996	119.187	-0.092	-0.115
-731.981	-29.954	0.175	-0.100
-730.966	-122.905	0.394	0.064
-729.952	-103.029	-0.385	0.092
-728.937	-200.000	0.033	0.233
-727.923	-200.000	0.004	-0.263
-726.908	-85.568	-0.444	0.138
-725.894	-97.236	0.345	-0.090
-724.879	7.972	0.092	-0.069
-723.864	-200.000	-0.069	-0.413
-722.850	-141.019	-0.276	-0.028
-721.835	191.864	-0.148	-0.224
-720.821	-65.367	-0.020	-0.008
-719.806	-22.909	-0.465	-0.282
-718.791	105.256	0.212	-0.251
-717.777	-47.769	-0.182	-0.088
-716.762	228.269	0.070	0.114
-715.748	70.457	-0.131	0.136
-714.733	18.172	0.090	0.072
-713.718	-200.000	-0.008	0.218
-712.704	-200.000	-0.065	-0.339
-711.689	139.326	0.043	0.057
-710.675	-171.762	-0.255	0.008
-709.660	47.186	0.092	-0.086
-708.645	-47.004	0.202	0.099
-707.631	-24.909	0.240	-0.143
-706.616	526.898	0.084	0.198
-705.602	-200.000	-0.018	-0.194
-704.587	-16.388	0.144	0.091
-703.572	-200.000	-0.016	-0.104
-702.558	-116.739	0.173	-0.032
-701.543	-116.775	0.240	-0.044
-700.529	-200.000	-0.010	-0.050
-699.514	367.115	0.119	-0.241
-698.499	292.491	-0.100	0.182
-697.485	-200.000	-0.039	-0.187
-696.470	381.298	-0.161	-0.331
-695.456	-200.000	-0.027	-0.141
-694.441	-27.097	0.164	-0.096
-693.426	-200.000	0.020	-0.101
-692.412	178.416	-0.196	-0.287
-691.397	719.172	0.121	0.322
-690.383	-119.180	0.073	0.013
-689.368	-200.000	-0.037	0.235
-688.354	64.582	-0.136	-0.137
-687.339	-98.846	-0.229	-0.058
-686.324	61.857	-0.131	-0.131
-685.310	-39.372	-0.221	-0.116
-684.295	-65.099	-0.122	0.049
-683.281	98.709	0.206	-0.239
-682.266	99.216	-0.121	0.140
-681.251	800.000	-0.091	-0.266
-680.237	-162.400	-0.240	-0.012
-679.222	51.292	-0.191	0.181
-678.208	800.000	-0.148	-0.577
-677.193	146.075	0.148	0.198
-676.178	-200.000	-0.068	0.410
-675.164	-200.000	-0.013	-0.095
-674.149	-200.000	-0.026	0.132
-673.135	337.314	0.078	0.152
-672.120	-60.173	-0.280	0.119
-671.105	339.898	-0.164	-0.320
-670.091	-128.290	-0.115	-0.016
-669.076	-166.053	-0.245	-0.010
-668.062	294.246	-0.030	0.055
-667.047	-38.091	-0.164	-0.087
-666.032	-200.000	-0.000	-0.207
-665.018	13.363	-0.281	-0.218
-664.003	77.888	0.075	0.080
-662.989	304.532	-0.127	-0.235
-661.974	-138.173	-0.191	-0.021
-660.959	26.909	0.119	-0.100
-659.945	-91.742	-0.110	0.031
-658.930	109.668	-0.036	-0.043
-657.916	712.512	-0.052	0.138
-656.901	105.987	0.118	-0.140
-655.886	-67.611	0.211	0.083
-654.872	563.875	-0.148	-0.358
-653.857	661.738	-0.016	0.043
-652.843	-39.677	-0.200	-0.105
-651.828	96.470	-0.202	-0.231
-650.814	-200.000	0.083	-0.386
-649.799	800.000	0.102	-0.286
-648.784	-49.789	-0.096	-0.046
-647.770	-200.000	-0.037	-0.214
-646.755	-135.127	-0.107	0.013
-645.741	800.000	-0.062	-0.226
-644.726	345.018	-0.141	-0.276
-643.711	225.943	0.094	-0.152
-642.697	132.748	-0.093	-0.120
-641.682	-200.000	-0.022	0.147
-640.668	725.867	-0.070	-0.185
-639.653	74.401	-0.098	0.103
-638.638	-42.512	-0.117	0.059
-637.624	38.890	0.181	-0.162
-636.609	52.971	-0.091	-0.087
-635.595	103.141	-0.137	0.160
-634.580	43.479	-0.199	-0.182
-633.565	-34.049	-0.303	-0.167
-632.551	800.000	-0.015	0.054
-631.536	15.047	0.144	-0.113
-630.522	-200.000	0.015	-0.083
-629.507	-200.000	-0.069	0.337
-628.492	-81.852	-0.441	0.144
-627.478	-69.259	-0.384	0.147
-626.463	77.861	-0.133	0.142
-625.449	109.475	-0.115	-0.138
-624.434	-5.237	-0.218	-0.150
-623.419	800.000	0.050	0.170
-622.405	-200.000	0.046	0.245
-621.390	800.000	0.055	-0.162
-620.376	-58.311	-0.266	-0.115
-619.361	-137.576	0.176	-0.020
-618.346	-101.915	-0.176	0.042
-617.332	-200.000	-0.016	0.525
-616.317	-121.420	0.068	-0.011
-615.303	351.237	0.032	0.063
-614.288	-67.744	-0.041	-0.016
-613.273	-107.072	-0.221	0.049
-612.259	-58.597	0.246	0.107
-611.244	319.044	0.113	-0.214
-610.230	-131.366	0.282	0.037
-609.215	-200.000	-0.008	-0.048
-608.201	800.000	-0.023	0.076
-607.186	-140.032	-0.437	-0.046
-606.171	-200.000	0.058	-0.722
-605.157	89.329	0.164	-0.182
-604.142	800.000	-0.034	-0.130
-603.128	168.117	0.122	-0.173
-602.113	149.348	0.109	-0.148
-601.098	37.585	-0.330	0.292
-600.084	800.000	0.073	0.300
-599.069	-200.000	-0.043	-0.218
-598.055	172.450	-0.042	0.060
-597.040	-75.927	-0.249	-0.088
-596.025	-200.000	-0.066	-0.396
-595.011	-49.896	-0.166	0.079
-593.996	160.225	0.104	0.145
-592.982	264.216	0.152	0.263
-591.967	200.585	0.074	-0.114
-590.952	39.840	-0.149	0.133
-589.938	-165.187	0.304	-0.013
-588.923	-200.000	0.014	0.145
-587.909	800.000	0.027	-0.081
-586.894	-8.499	-0.112	0.075
-585.879	-4.643	-0.115	-0.079
-584.865	89.705	-0.212	-0.236
-583.850	-24.696	-0.227	-0.135
-582.836	-160.527	0.279	-0.015
-581.821	-56.685	0.235	-0.104
-580.806	-87.141	0.196	-0.060
-579.792	-101.165	-0.276	-0.067
-578.777	-92.897	-0.121	0.034
-577.763	517.143	0.089	-0.207
-576.748	-150.262	-0.205	0.016
-575.733	182.669	0.155	-0.228
-574.719	65.830	0.170	-0.171
-573.704	69.277	0.112	0.115
-572.690	562.752	0.070	0.169
-571.675	-200.000	0.032	0.426
-570.661	800.000	-0.050	0.178
-569.646	-99.952	0.210	0.052
-568.631	-200.000	-0.034	0.235
-567.617	-164.809	-0.472	-0.021
-566.602	319.377	-0.069	0.130
-565.588	302.839	0.132	0.244
-564.573	-167.545	-0.076	-0.003
-563.558	0.046	-0.196	-0.139
-562.544	800.000	-0.084	-0.278
-561.529	-29.561	0.186	0.106
-560.515	95.824	0.147	-0.167
-559.500	337.170	-0.034	-0.066
-558.485	112.316	0.076	-0.092
-557.471	-68.611	-0.221	0.085
-556.456	-46.599	0.048	0.024
-555.442	-200.000	-0.034	-0.242
-554.427	148.130	-0.269	-0.362
-553.412	-121.471	0.176	0.029
-552.398	-122.305	-0.202	-0.033
-551.383	800.000	-0.112	-0.412
-550.369	26.307	-0.281	0.234
-549.354	425.430	-0.038	-0.082
-548.339	379.308	-0.121	-0.246
-547.325	-200.000	-0.064	0.310
-546.310	-119.894	0.325	-0.056
-545.296	-200.000	0.007	-0.161
-544.281	98.701	0.195	-0.224
-543.266	-200.000	-0.007	0.166
-542.252	-200.000	0.009	0.079
-541.237	-128.817	0.309	-0.043
-540.223	-200.000	-0.017	-0.238
-539.208	319.463	-0.035	0.067
-538.193	6.686	0.202	0.150
-537.179	-200.000	-0.042	-0.254
-536.164	94.964	0.029	0.033
-535.150	69.184	0.282	0.289
-534.135	214.199	-0.165	0.261
-533.121	-3.165	0.187	0.130
-532.106	221.586	0.045	-0.071
-531.091	800.000	0.082	-0.285
-530.077	133.227	-0.017	-0.021
-529.062	-35.124	0.243	0.132
-528.048	38.757	0.303	0.269
-527.033	401.717	0.073	-0.152
-526.018	800.000	-0.037	-0.129
-525.004	169.547	-0.190	-0.270
-523.989	-105.571	0.161	0.036
-522.975	435.085	0.130	0.281
-521.960	132.619	0.053	-0.068
-520.945	-43.330	-0.156	0.079
-519.931	-18.355	0.319	0.198
-518.916	-121.457	-0.237	0.039
-517.902	-16.891	0.138	-0.087
-516.887	800.000	0.094	-0.272
-515.872	-86.003	0.178	-0.055
-514.858	-99.821	-0.181	-0.045
-513.843	-50.659	-0.149	0.070
-512.829	-200.000	0.044	-0.299
-511.814	-200.000	0.014	-0.135
-510.799	73.201	-0.079	-0.082
-509.785	-132.483	0.210	0.027
-508.770	-200.000	0.035	-0.163
-507.756	-138.641	-0.138	-0.015
-506.741	-92.652	0.168	-0.047
-505.726	133.217	0.086	-0.110
-504.712	-35.567	-0.108	0.058
-503.697	-110.513	-0.116	0.024
-502.683	-200.000	0.004	0.215
-501.668	-200.000	-0.013	0.340
-500.653	-23.367	0.232	0.138
-499.639	-34.117	0.170	-0.093
-498.624	504.424	-0.057	-0.132
-497.610	-177.037	-0.164	0.004
-496.595	256.188	0.147	-0.251
-495.581	-3.703	-0.118	0.082
-494.566	19.663	0.259	0.207
-493.551	800.000	-0.019	0.068
-492.537	53.380	-0.093	0.089
-491.522	-32.911	-0.253	-0.139
-490.508	38.891	0.281	0.250
-489.493	31.581	0.207	-0.177
-488.478	-88.814	-0.121	-0.036
-487.464	125.782	0.262	-0.329
-486.449	69.995	-0.102	0.104
-485.435	49.493	0.111	0.103
-484.420	-7.890	-0.228	0.153
-483.405	-88.413	-0.218	0.065
-482.391	-12.075	0.070	0.045
-481.376	70.728	0.088	0.090
-480.362	-35.437	-0.076	0.041
-479.347	-5.316	-0.082	0.056
-478.332	32.608	0.220	0.189
-477.318	-25.029	-0.146	0.086
-476.303	-200.000	0.009	-0.322
-475.289	-84.807	0.110	0.034
-474.274	800.000	-0.007	0.021
-473.259	-17.438	0.156	0.097
-472.245	-102.995	0.278	-0.066
-471.230	471.663	0.025	0.055
-470.216	15.914	0.257	0.201
-469.201	130.848	0.395	-0.503
-468.186	150.919	-0.137	0.185
-467.172	-40.204	-0.088	0.045
-466.157	-200.000	-0.072	-0.460
-465.143	-144.670	0.398	0.036
-464.128	93.977	0.068	-0.076
-463.113	40.591	0.064	0.057
-462.099	-28.711	0.143	0.082
-461.084	-4.585	0.149	-0.102
-460.070	-200.000	0.010	0.058
-459.055	-53.610	-0.192	-0.087
-458.040	238.623	-0.252	-0.416
-457.026	82.773	-0.097	0.104
-456.011	249.258	0.015	0.025
-454.997	800.000	-0.089	-0.276
-453.982	800.000	0.107	0.305
-452.968	67.321	0.100	-0.101
-451.953	-200.000	-0.038	-0.175
-450.938	-75.556	-0.267	-0.094
-449.924	115.748	-0.183	0.223
-448.909	16.969	0.269	-0.212
-447.895	-39.772	-0.309	0.161
-446.880	16.582	-0.150	0.118
-445.865	53.893	0.011	-0.011
-444.851	800.000	-0.045	-0.132
-443.836	587.290	-0.077	-0.189
-442.822	800.000	-0.082	-0.313
-441.807	-200.000	0.025	0.244
-440.792	343.526	0.072	-0.141
-439.778	-90.075	0.392	-0.113
-438.763	-97.499	-0.424	-0.109
-437.749	149.909	0.103	-0.139
-436.734	-46.897	0.290	-0.141
-435.719	800.000	0.072	0.295
-434.705	-200.000	-0.002	-0.014
-433.690	-200.000	-0.049	-0.271
-432.676	-90.623	-0.509	-0.146
-431.661	-200.000	0.024	-0.135
-430.646	-200.000	0.027	0.297
-429.632	-62.144	0.099	0.041
-428.617	800.000	-0.101	0.344
-427.603	710.351	-0.073	0.191
-426.588	127.167	0.240	0.302
-425.573	538.873	0.074	0.173
-424.559	800.000	-0.054	-0.189
-423.544	-53.206	0.196	0.089
-422.530	7.375	-0.393	-0.291
-421.515	-128.480	0.374	0.053
-420.500	-153.137	-0.362	0.025
-419.486	57.605	0.183	0.178
-418.471	69.083	0.059	-0.060
-417.457	800.000	-0.055	0.161
-416.442	800.000	0.083	0.266
-415.428	92.638	0.118	-0.132
-414.413	800.000	-0.010	0.028
-413.398	800.000	-0.081	0.336
-412.384	-132.133	-0.162	0.021
-411.369	-200.000	-0.051	0.244
-410.355	10.184	-0.224	0.169
-409.340	54.963	0.470	-0.449
-408.325	26.498	0.240	-0.199
-407.311	66.036	-0.042	0.042
-406.296	-38.309	-0.210	0.110
-405.282	-200.000	0.049	-0.329
-404.267	-101.030	-0.055	0.013
-403.252	-76.236	0.281	-0.098
-402.238	-45.779	0.086	-0.042
-401.223	-129.118	-0.128	-0.018
-400.209	-200.000	-0.003	-0.296
-399.194	57.047	0.050	0.048
-398.179	289.561	0.135	-0.243
-397.165	-200.000	0.028	-0.238
-396.150	-112.633	-0.090	-0.018
-395.136	-200.000	-0.023	0.257
-394.121	-32.495	-0.463	-0.256
-393.106	-200.000	0.041	-0.184
-392.092	-129.481	0.147	0.020
-391.077	-116.997	-0.237	0.043
-390.063	-200.000	0.026	-0.131
-389.048	1.120	-0.268	0.190
-388.033	-106.833	0.400	-0.088
-387.019	-200.000	-0.006	0.034
-386.004	-16.212	0.289	-0.182
-384.990	-93.231	0.170	0.047
-383.975	-48.693	0.040	-0.019
-382.960	-200.000	-0.002	0.176
-381.946	-57.313	0.133	-0.058
-380.931	-200.000	-0.014	-0.090
-379.917	-54.544	0.181	0.081
-378.902	-64.041	0.083	0.033
-377.888	709.847	-0.088	-0.231
-376.873	-71.559	-0.405	-0.150
-375.858	-88.798	0.325	-0.096
-374.844	-124.585	0.197	-0.030
-373.829	-139.525	-0.084	0.009
-372.815	-200.000	-0.034	0.217
-371.800	-200.000	0.006	0.103
-370.785	91.634	-0.204	-0.227
-369.771	-76.935	0.121	0.042
-368.756	483.762	-0.074	0.167
-367.742	196.269	-0.202	0.304
-366.727	-81.774	-0.057	-0.019
-365.712	-178.131	-0.391	0.009
-364.698	-155.459	-0.110	0.007
-363.683	84.224	0.086	0.093
-362.669	-0.377	0.203	-0.143
-361.654	69.785	-0.175	-0.178
-360.639	219.008	-0.092	-0.146
-359.625	-107.223	-0.302	0.066
-358.610	156.535	0.123	0.168
-357.596	-60.688	-0.168	-0.071
-356.581	50.003	0.070	-0.065
-355.566	-42.205	-0.145	-0.073
-354.552	-3.155	-0.176	-0.121
-353.537	283.248	0.041	-0.073
-352.523	800.000	0.117	0.376
-351.508	-108.083	0.154	0.033
-350.493	-175.649	-0.108	0.003
-349.479	727.097	0.069	0.181
-348.464	-104.342	-0.351	-0.080
-347.450	800.000	0.143	-0.425
-346.435	121.261	0.021	0.026
-345.420	-52.699	0.146	0.067
-344.406	-23.623	-0.233	-0.138
-343.391	22.975	-0.274	0.222
-342.377	236.052	-0.076	-0.124
-341.362	-140.571	-0.124	0.013
-340.348	-200.000	-0.003	-0.074
-339.333	22.067	0.219	-0.177
-338.318	800.000	-0.092	0.381
-337.304	-200.000	0.009	0.166
-336.289	-93.135	-0.438	0.120
-335.275	800.000	0.070	0.282
-334.260	800.000	-0.070	-0.289
-333.245	-177.023	-0.291	0.007
-332.231	-200.000	0.298	0.001
-331.216	-176.253	0.331	0.009
-330.202	-77.370	0.122	-0.042
-329.187	-20.473	-0.323	0.196
-328.172	-200.000	-0.049	0.217
-327.158	113.078	0.152	0.181
-326.143	275.305	-0.093	0.163
-325.129	579.713	0.057	0.138
-324.114	-35.054	0.186	0.100
-323.099	77.138	-0.177	-0.186
-322.085	372.542	0.059	-0.118
-321.070	-167.272	-0.239	-0.010
-320.056	-72.756	-0.058	-0.021
-319.041	218.070	0.101	-0.160
-318.026	652.753	-0.063	0.161
-317.012	-117.885	0.267	0.047
-315.997	353.676	0.158	0.309
-314.983	130.400	-0.128	-0.162
-313.968	-23.706	-0.131	-0.077
-312.953	-29.602	-0.095	0.054
-311.939	-51.129	-0.219	0.101
-310.924	-124.714	0.440	0.067
-309.910	-131.901	0.333	0.043
-308.895	-121.589	-0.202	0.033
-307.880	28.082	-0.358	0.298
-306.866	-3.448	0.008	-0.006
-305.851	800.000	0.045	0.174
-304.837	-163.800	-0.145	-0.007
-303.822	223.142	0.102	-0.162
-302.807	327.047	0.027	0.052
-301.793	-200.000	0.029	0.240
-300.778	425.572	-0.010	0.021
-299.764	294.892	-0.157	-0.283
-298.749	-33.409	-0.199	0.108
-297.735	84.683	-0.217	-0.235
-296.720	-119.995	0.227	0.039
-295.705	-12.190	0.097	0.063
-294.691	-200.000	-0.041	0.223
-293.676	-113.817	0.200	-0.038
-292.662	-66.028	-0.146	-0.057
-291.647	199.534	-0.257	0.389
-290.632	-53.886	0.218	0.098
-289.618	-6.575	0.317	0.213
-288.603	-200.000	0.022	-0.154
-287.589	101.308	-0.204	-0.235
-286.574	-186.309	-0.173	0.002
-285.559	800.000	-0.098	0.285
-284.545	-176.396	-0.102	0.003
-283.530	-118.138	-0.059	-0.010
-282.516	21.999	-0.127	-0.102
-281.501	-66.474	0.237	-0.093
-280.486	-52.184	0.082	-0.037
-279.472	309.269	0.158	0.291
-278.457	-186.662	-0.174	-0.002
-277.443	-13.465	0.137	-0.088
-276.428	800.000	-0.043	0.137
-275.413	-37.081	-0.154	-0.081
-274.399	118.872	0.148	0.180
-273.384	800.000	-0.060	-0.204
-272.370	283.614	-0.098	-0.173
-271.355	-102.295	-0.329	0.078
-270.340	-200.000	-0.021	0.211
-269.326	75.192	-0.131	-0.136
-268.311	-147.694	-0.081	-0.007
-267.297	-140.799	-0.193	0.020
-266.282	571.814	0.080	0.193
-265.267	800.000	-0.092	0.271
-264.253	-31.491	0.129	-0.072
-263.238	149.623	-0.172	-0.230
-262.224	-104.922	0.202	-0.046
-261.209	-200.000	0.049	0.260
-260.195	48.663	0.138	0.127
-259.180	-39.629	0.086	0.044
-258.165	-105.376	-0.443	0.099
-257.151	800.000	0.039	-0.110
-256.136	-112.123	0.113	0.022
-255.122	341.174	0.077	0.148
-254.107	-126.821	0.250	0.036
-253.092	-129.448	-0.173	0.024
-252.078	-119.350	0.384	0.066
-251.063	-200.000	-0.023	-0.146
-250.049	-79.112	-0.258	-0.086
-249.034	-149.514	0.282	0.022
-248.019	-118.335	0.418	0.073
-247.005	-107.191	-0.043	-0.009
-245.990	-73.686	0.226	-0.081
-244.976	412.002	-0.061	0.128
-243.961	46.832	0.255	0.233
-242.946	-52.166	-0.235	0.107
-241.932	800.000	0.038	-0.144
-240.917	386.182	0.077	0.155
-239.903	-77.199	0.221	-0.076
-238.888	800.000	-0.028	-0.105
-237.873	-166.132	-0.406	-0.017
-236.859	-40.217	0.337	0.173
-235.844	81.218	-0.144	0.154
-234.830	-155.391	0.162	0.010
-233.815	231.969	-0.147	0.237
-232.800	60.226	-0.014	-0.014
-231.786	-126.707	0.030	0.004
-230.771	-200.000	-0.001	0.024
-229.757	-83.386	-0.070	-0.022
-228.742	-34.616	0.083	0.045
-227.727	-200.000	-0.029	0.227
-226.713	-54.070	-0.143	-0.064
-225.698	-40.093	0.091	0.047
-224.684	-200.000	0.001	-0.056
-223.669	-116.870	0.276	-0.050
-222.655	114.740	-0.068	-0.082
-221.640	-58.353	-0.133	-0.057
-220.625	-73.969	0.140	0.050
-219.611	800.000	-0.113	0.385
-218.596	-200.000	0.003	-0.269
-217.582	-132.319	-0.221	0.028
-216.567	800.000	0.015	0.052
-215.552	106.143	-0.163	-0.190
-214.538	-200.000	0.015	0.229
-213.523	-135.365	-0.421	0.049
-212.509	-1.638	0.495	-0.343
-211.494	-33.030	-0.108	-0.059
-210.479	-153.346	0.018	-0.001
-209.465	-200.000	0.016	0.227
-208.450	96.107	-0.280	-0.315
-207.436	-60.861	0.202	0.084
-206.421	224.665	0.090	-0.143
-205.406	-83.274	0.209	-0.066
-204.392	-200.000	0.001	-0.069
-203.377	-66.163	0.202	0.079
-202.363	2.006	-0.156	0.111
-201.348	-200.000	-0.001	0.196
-200.333	46.788	-0.218	-0.199
-199.319	-200.000	0.191	-0.001
-198.304	-12.232	0.229	0.147
-197.290	-10.008	-0.256	0.167
-196.275	-72.851	0.143	-0.052
-195.260	-127.085	-0.112	0.016
-194.246	800.000	0.068	-0.245
-193.231	-187.694	0.393	-0.005
-192.217	-86.474	-0.060	-0.018
-191.202	227.316	0.158	0.252
-190.187	195.012	-0.070	0.105
-189.173	193.887	-0.217	0.323
-188.158	-99.204	-0.109	0.027
-187.144	181.554	-0.237	-0.342
-186.129	-104.876	0.283	0.064
-185.114	-42.682	-0.173	-0.087
-184.100	-67.777	-0.093	-0.036
-183.085	-18.926	0.401	-0.245
-182.071	-36.336	0.262	-0.139
-181.056	800.000	-0.078	-0.256
-180.042	544.943	0.045	-0.106
-179.027	-122.362	-0.179	0.029
-178.012	800.000	-0.053	0.224
-176.998	16.533	0.031	-0.024
-175.983	-49.377	-0.230	-0.108
-174.969	-98.216	0.166	0.042
-173.954	-200.000	-0.022	-0.236
-172.939	-109.692	0.004	-0.001
-171.925	203.202	-0.174	-0.264
-170.910	214.118	-0.157	0.244
-169.896	34.878	0.209	0.179
-168.881	48.251	0.235	-0.216
-167.866	-163.293	-0.140	-0.007
-166.852	-102.213	0.283	0.067
-165.837	335.961	0.097	0.184
-164.823	-161.026	0.370	-0.019
-163.808	252.146	0.071	0.119
-162.793	523.953	0.064	-0.148
-161.779	-49.145	-0.251	0.118
-160.764	-200.000	-0.011	-0.191
-159.750	-25.821	0.395	0.229
-158.735	-105.212	-0.072	-0.016
-157.720	-82.540	0.221	0.070
-156.706	109.145	0.181	0.212
-155.691	-200.000	-0.030	0.136
-154.677	-155.301	0.171	-0.011
-153.662	-87.945	-0.153	-0.045
-152.647	498.064	0.129	0.291
-151.633	435.086	-0.110	0.234
-150.618	800.000	-0.067	-0.264
-149.604	-200.000	0.010	0.088
-148.589	312.254	-0.182	0.335
-147.574	-109.026	0.295	-0.062
-146.560	303.247	0.254	-0.462
-145.545	-57.600	0.293	0.126
-144.531	54.181	-0.121	-0.114
-143.516	800.000	0.053	0.220
-142.502	-46.489	-0.369	-0.178
-141.487	-59.138	-0.204	0.086
-140.472	-93.980	-0.071	-0.019
-139.458	299.856	0.070	0.127
-138.443	16.765	-0.108	0.084
-137.429	206.390	-0.144	0.219
-136.414	-200.000	-0.026	0.313
-135.399	-156.023	-0.135	0.008
-134.385	274.163	-0.111	0.193
-133.370	56.124	-0.103	-0.098
-132.356	-200.000	-0.012	-0.352
-131.341	-200.000	0.022	0.189
-130.326	-32.574	-0.034	0.019
-129.312	-200.000	0.079	0.359
-128.297	-73.801	0.263	-0.094
-127.283	1.050	0.296	-0.208
-126.268	-132.537	-0.022	0.003
-125.253	-101.254	0.430	0.103
-124.239	70.786	-0.135	-0.137
-123.224	496.782	-0.097	-0.218
-122.210	381.086	0.092	-0.184
