DTS Sentinel unit serial number:	SN413079Multiplexer serial number:	ORYXHardware model number:	OX4-SRSoftware version number:	ORYX F/W v4.00 Oryx Data Collector v3.7.2.0data status	okinstallation	princeton_trtdifferential loss correction	single-endedforward channel	channel 2reverse channel	N/Adate	2019/09/14time	10:15:35forward acquisition time	60.00reverse acquisition time	0.00gamma	496.2192k internal	0.2316k external	0.2316temperature offset calibration	1.0136default loss term (dB/km)	0.3790temperature slope calibration	1.0000multiplexer offset coefficient	1.0000multiplexer slope coefficient	1.0000fibre end	0.00T internal ref (°C)	33.97T ext. ref 1 (°C)	4.10T ext. ref 2 (°C)	32.69length (m)	temperature (°C)	Stokes	anti-Stokes-747.200	-200.000	-0.050	0.232
-746.185	59.640	-0.250	0.250
-745.171	38.842	-0.051	0.046
-744.156	47.386	0.052	0.049
-743.142	48.134	-0.024	0.023
-742.127	800.000	-0.099	0.333
-741.112	-124.677	-0.311	0.049
-740.098	-200.000	-0.011	-0.108
-739.083	-117.468	0.266	-0.049
-738.069	-64.526	0.066	-0.027
-737.054	200.177	-0.118	-0.184
-736.039	-125.115	0.068	0.011
-735.025	-200.000	0.013	0.060
-734.010	87.250	0.076	-0.085
-732.996	-40.327	-0.170	0.089
-731.981	800.000	-0.056	-0.206
-730.966	197.105	0.253	-0.391
-729.952	116.745	-0.279	0.347
-728.937	12.794	0.073	0.057
-727.923	-60.233	-0.098	-0.042
-726.908	-200.000	0.004	0.094
-725.894	-27.534	-0.459	-0.270
-724.879	-104.121	0.115	-0.027
-723.864	763.602	0.103	-0.283
-722.850	165.921	-0.072	0.102
-721.835	-26.534	0.215	0.128
-720.821	-32.734	-0.098	-0.055
-719.806	244.744	0.126	-0.215
-718.791	147.186	-0.122	0.167
-717.777	-200.000	-0.009	0.075
-716.762	326.150	-0.018	0.035
-715.748	800.000	0.022	0.081
-714.733	1.773	0.163	-0.119
-713.718	687.025	0.047	-0.123
-712.704	19.665	0.110	0.090
-711.689	-128.623	0.159	-0.023
-710.675	-30.480	-0.304	0.175
-709.660	83.894	-0.112	0.124
-708.645	59.139	-0.089	0.088
-707.631	-182.965	0.104	-0.002
-706.616	589.106	0.025	-0.063
-705.602	-90.843	0.065	-0.019
-704.587	-96.112	-0.147	0.040
-703.572	-62.038	-0.194	0.082
-702.558	-70.258	-0.240	0.092
-701.543	-110.706	0.199	-0.042
-700.529	-200.000	-0.033	-0.461
-699.514	230.336	0.049	-0.081
-698.499	359.608	0.079	-0.159
-697.485	-46.571	-0.303	-0.150
-696.470	-153.795	0.047	-0.003
-695.456	-91.749	0.030	-0.009
-694.441	-107.676	0.174	-0.038
-693.426	-20.609	0.255	-0.158
-692.412	307.295	-0.125	-0.236
-691.397	63.189	-0.238	0.241
-690.383	152.407	-0.145	0.201
-689.368	-71.304	0.093	-0.035
-688.354	-73.277	-0.082	-0.030
-687.339	166.415	-0.053	0.076
-686.324	45.305	-0.183	0.171
-685.310	800.000	0.073	-0.229
-684.295	-60.009	0.152	0.066
-683.281	135.794	0.075	0.099
-682.266	-90.594	0.318	0.093
-681.251	-89.944	0.066	0.019
-680.237	-24.143	0.232	-0.140
-679.222	-137.564	0.086	0.010
-678.208	-200.000	-0.017	-0.126
-677.193	-121.619	0.382	-0.064
-676.178	-122.025	-0.257	-0.043
-675.164	736.710	-0.217	-0.588
-674.149	-93.685	-0.225	0.063
-673.135	-14.128	-0.356	-0.232
-672.120	-87.303	0.121	-0.037
-671.105	14.098	-0.208	-0.164
-670.091	-2.327	-0.249	-0.177
-669.076	61.221	-0.135	-0.135
-668.062	228.072	-0.118	0.194
-667.047	14.933	-0.206	0.163
-666.032	70.051	-0.031	-0.032
-665.018	-200.000	0.004	-0.278
-664.003	800.000	0.095	-0.319
-662.989	88.368	-0.113	0.127
-661.974	-39.860	0.189	0.100
-660.959	544.995	-0.063	-0.151
-659.945	800.000	0.049	-0.181
-658.930	-1.532	-0.293	0.208
-657.916	352.844	-0.024	0.048
-656.901	-44.056	0.196	0.099
-655.886	130.536	-0.005	0.007
-654.872	62.125	-0.243	-0.245
-653.857	24.505	0.262	0.219
-652.843	136.734	-0.204	0.269
-651.828	-200.000	-0.000	-0.193
-650.814	-200.000	-0.003	0.178
-649.799	165.918	0.114	-0.163
-648.784	-57.700	-0.218	-0.096
-647.770	-200.000	-0.040	-0.306
-646.755	800.000	0.067	0.189
-645.741	-31.403	-0.290	-0.165
-644.726	800.000	0.125	0.474
-643.711	-26.749	-0.156	0.092
-642.697	-50.031	0.054	-0.026
-641.682	-111.726	-0.185	0.038
-640.668	-200.000	-0.037	0.184
-639.653	-200.000	-0.071	0.465
-638.638	-200.000	0.011	0.102
-637.624	-157.495	0.209	0.013
-636.609	66.885	-0.130	0.133
-635.595	800.000	-0.036	-0.103
-634.580	92.659	-0.047	-0.054
-633.565	-120.531	-0.287	0.049
-632.551	295.707	0.104	0.192
-631.536	-200.000	-0.029	-0.186
-630.522	121.678	-0.112	-0.141
-629.507	1.591	0.348	-0.253
-628.492	-22.255	-0.195	0.119
-627.478	800.000	0.069	-0.257
-626.463	28.523	0.079	-0.067
-625.449	-53.642	-0.348	-0.160
-624.434	176.374	-0.245	-0.359
-623.419	800.000	0.062	0.252
-622.405	-101.887	-0.077	-0.019
-621.390	133.705	-0.254	-0.331
-620.376	-70.830	0.244	0.093
-619.361	-200.000	-0.039	0.361
-618.346	-73.715	0.125	-0.046
-617.332	-200.000	0.236	-0.001
-616.317	-200.000	-0.005	0.106
-615.303	-200.000	-0.020	0.337
-614.288	-41.065	-0.122	-0.063
-613.273	-166.617	0.245	0.010
-612.259	80.674	0.056	-0.061
-611.244	772.348	0.161	-0.443
-610.230	-200.000	0.028	-0.353
-609.215	34.719	-0.110	-0.097
-608.201	-200.000	0.034	-0.194
-607.186	161.765	0.298	0.421
-606.171	-75.909	-0.156	-0.055
-605.157	77.555	-0.127	-0.136
-604.142	800.000	-0.051	-0.142
-603.128	160.844	0.093	0.131
-602.113	641.456	0.110	-0.281
-601.098	148.063	0.186	-0.253
-600.084	26.592	-0.146	0.123
-599.069	-141.717	-0.212	-0.021
-598.055	439.077	0.073	-0.160
-597.040	183.314	-0.203	-0.302
-596.025	800.000	-0.071	0.223
-595.011	-88.491	-0.068	0.020
-593.996	613.086	0.017	0.042
-592.982	-200.000	-0.006	0.103
-591.967	800.000	-0.046	0.173
-590.952	-3.223	-0.298	-0.209
-589.938	92.310	-0.194	0.220
-588.923	226.641	-0.197	-0.321
-587.909	-29.798	-0.164	0.094
-586.894	-2.503	0.100	0.071
-585.879	-58.956	0.201	0.087
-584.865	-87.716	-0.197	-0.060
-583.850	-78.559	0.206	0.071
-582.836	109.782	0.226	0.273
-581.821	655.328	-0.067	-0.172
-580.806	-98.658	0.507	0.130
-579.792	203.405	0.171	0.266
-578.777	346.634	0.054	-0.107
-577.763	-200.000	0.015	0.236
-576.748	-18.950	-0.279	-0.175
-575.733	-76.844	0.302	-0.106
-574.719	-161.528	-0.166	-0.009
-573.704	315.149	0.079	0.150
-572.690	-200.000	-0.007	0.431
-571.675	-55.312	0.126	-0.057
-570.661	800.000	0.033	-0.134
-569.646	386.193	0.050	0.104
-568.631	719.942	-0.133	0.356
-567.617	-200.000	-0.042	0.210
-566.602	-4.503	0.038	0.026
-565.588	28.869	0.081	-0.069
-564.573	-116.605	-0.145	0.027
-563.558	-200.000	0.025	-0.146
-562.544	-200.000	0.045	0.483
-561.529	-121.471	-0.054	0.009
-560.515	-200.000	0.025	0.193
-559.500	-200.000	-0.007	-0.058
-558.485	-49.337	-0.216	0.103
-557.471	-38.045	0.143	-0.076
-556.456	-200.000	0.031	-0.240
-555.442	-31.791	0.266	0.150
-554.427	-61.757	0.067	0.028
-553.412	-49.704	0.248	0.119
-552.398	266.485	-0.068	0.119
-551.383	800.000	0.034	0.137
-550.369	35.747	-0.125	-0.111
-549.354	-108.531	-0.059	0.013
-548.339	319.624	-0.206	0.393
-547.325	165.771	0.158	0.225
-546.310	-50.519	0.139	0.066
-545.296	800.000	-0.073	0.259
-544.281	800.000	-0.030	-0.110
-543.266	-200.000	0.025	-0.176
-542.252	117.892	-0.139	0.172
-541.237	-200.000	0.048	0.218
-540.223	-51.383	0.082	-0.039
-539.208	-178.591	0.239	0.006
-538.193	474.680	0.027	0.062
-537.179	-54.045	0.214	0.098
-536.164	800.000	0.042	-0.138
-535.150	-70.255	-0.271	0.103
-534.135	800.000	-0.082	0.331
-533.121	-59.504	0.328	0.142
-532.106	274.549	-0.130	0.231
-531.091	-56.254	0.182	-0.081
-530.077	-26.352	0.283	-0.167
-529.062	-135.195	-0.289	-0.035
-528.048	800.000	-0.097	0.301
-527.033	160.053	-0.083	-0.116
-526.018	-200.000	0.022	-0.214
-525.004	-39.968	-0.363	0.190
-523.989	238.307	-0.112	0.187
-522.975	590.139	-0.075	0.187
-521.960	292.306	-0.109	-0.199
-520.945	-80.342	0.065	-0.022
-519.931	615.372	0.087	0.218
-518.916	-100.524	-0.283	-0.070
-517.902	800.000	0.070	-0.294
-516.887	422.720	0.054	0.117
-515.872	302.308	-0.107	-0.199
-514.858	-200.000	0.021	-0.155
-513.843	69.764	0.326	0.338
-512.829	-33.041	0.145	-0.081
-511.814	-42.234	0.095	0.049
-510.799	-47.447	0.295	-0.144
-509.785	79.164	-0.050	0.054
-508.770	17.866	0.265	-0.212
-507.756	-200.000	-0.047	-0.271
-506.741	34.678	-0.390	-0.342
-505.726	-115.904	-0.148	-0.028
-504.712	-67.317	0.162	0.064
-503.697	66.804	0.099	0.101
-502.683	447.870	0.111	0.246
-501.668	37.132	0.304	-0.270
-500.653	78.470	0.185	-0.198
-499.639	233.726	0.102	0.168
-498.624	-25.825	-0.143	-0.085
-497.610	800.000	-0.033	0.130
-496.595	-200.000	-0.023	-0.300
-495.581	197.693	-0.208	-0.319
-494.566	301.626	-0.160	0.297
-493.551	113.510	0.067	0.082
-492.537	158.600	-0.104	0.145
-491.522	74.529	0.205	0.216
-490.508	115.736	0.086	-0.106
-489.493	32.029	-0.253	-0.219
-488.478	-200.000	-0.019	0.293
-487.464	-200.000	-0.011	-0.348
-486.449	46.157	0.179	0.166
-485.435	-151.107	-0.257	0.019
-484.420	94.247	0.215	0.245
-483.405	102.738	-0.122	0.143
-482.391	-2.217	-0.070	0.049
-481.376	-169.930	0.241	0.009
-480.362	-97.209	-0.060	-0.016
-479.347	627.681	0.090	-0.227
-478.332	75.287	-0.137	-0.145
-477.318	-111.341	-0.230	0.047
-476.303	-200.000	-0.019	0.131
-475.289	166.195	0.114	0.161
-474.274	146.845	0.291	-0.392
-473.259	464.902	-0.105	-0.235
-472.245	800.000	-0.117	-0.338
-471.230	-78.086	-0.366	0.126
-470.216	-200.000	0.055	0.392
-469.201	-47.714	-0.055	-0.027
-468.186	-88.337	-0.061	0.018
-467.172	44.458	0.244	0.224
-466.157	-200.000	-0.067	0.470
-465.143	28.098	0.048	0.040
-464.128	800.000	-0.062	0.231
-463.113	-16.103	-0.216	0.137
-462.099	53.838	-0.272	-0.262
-461.084	-11.833	-0.370	0.243
-460.070	-200.000	0.040	0.356
-459.055	-200.000	-0.004	0.048
-458.040	-123.631	0.083	-0.013
-457.026	800.000	-0.086	-0.315
-456.011	93.622	-0.098	0.111
-454.997	800.000	0.052	-0.164
-453.982	-200.000	-0.013	-0.449
-452.968	800.000	0.020	0.075
-451.953	-117.939	0.142	0.025
-450.938	-67.277	-0.228	0.090
-449.924	-81.029	0.219	0.072
-448.909	-130.717	-0.281	0.038
-447.895	737.938	0.025	0.066
-446.880	-54.301	0.186	-0.085
-445.865	800.000	-0.007	0.019
-444.851	678.215	-0.173	-0.451
-443.836	196.834	-0.089	-0.136
-442.822	62.224	0.151	-0.151
-441.807	-179.529	-0.201	-0.004
-440.792	-133.795	-0.051	0.006
-439.778	800.000	0.074	0.218
-438.763	-44.224	0.136	0.068
-437.749	-110.046	-0.162	-0.034
-436.734	277.028	0.153	0.273
-435.719	-200.000	0.030	0.314
-434.705	-31.054	-0.197	-0.111
-433.690	-161.221	0.116	-0.006
-432.676	-125.258	-0.135	-0.021
-431.661	187.325	0.147	-0.219
-430.646	-125.533	0.410	-0.062
-429.632	428.300	0.189	-0.408
-428.617	-139.140	-0.264	0.029
-427.603	800.000	0.026	-0.096
-426.588	-47.793	0.376	0.182
-425.573	-84.346	-0.331	0.105
-424.559	-87.293	0.124	-0.038
-423.544	800.000	0.061	-0.237
-422.530	357.562	0.073	-0.145
-421.515	-80.878	-0.343	0.114
-420.500	-30.813	0.035	-0.020
-419.486	-34.334	0.242	0.133
-418.471	3.589	-0.039	0.029
-417.457	-21.376	-0.045	-0.028
-416.442	21.292	0.160	0.130
-415.428	26.677	-0.149	0.125
-414.413	-21.224	-0.093	-0.057
-413.398	-82.485	-0.229	0.074
-412.384	-200.000	0.014	-0.542
-411.369	206.739	0.117	0.183
-410.355	11.449	0.275	0.210
-409.340	-110.593	-0.344	0.071
-408.325	-31.310	-0.226	0.127
-407.311	56.623	-0.049	-0.048
-406.296	-191.357	-0.208	0.002
-405.282	-37.889	-0.259	-0.138
-404.267	34.008	0.163	0.141
-403.252	-160.528	-0.271	-0.014
-402.238	-4.428	0.152	-0.105
-401.223	-106.519	-0.090	-0.020
-400.209	89.815	0.200	-0.223
-399.194	-7.056	-0.087	0.059
-398.179	208.674	0.167	-0.261
-397.165	63.758	-0.076	-0.076
-396.150	800.000	-0.133	-0.421
-395.136	161.953	0.148	-0.208
-394.121	605.568	-0.133	-0.330
-393.106	-200.000	-0.004	0.117
-392.092	228.474	0.220	0.358
-391.077	-200.000	0.027	0.215
-390.063	-146.947	0.205	-0.018
-389.048	800.000	0.051	-0.171
-388.033	-35.400	-0.254	0.138
-387.019	-88.115	-0.276	0.083
-386.004	-79.982	0.293	0.098
-384.990	525.881	-0.061	-0.144
-383.975	765.441	0.068	-0.183
-382.960	30.769	0.150	-0.128
-381.946	-40.509	0.320	0.166
-380.931	800.000	0.065	0.190
-379.917	-127.782	-0.477	0.069
-378.902	257.649	-0.138	-0.237
-377.888	-200.000	-0.008	0.117
-376.873	-159.155	0.333	0.019
-375.858	-137.960	0.067	0.007
-374.844	68.093	0.096	0.098
-373.829	-78.142	-0.097	0.033
-372.815	-8.441	-0.187	0.125
-371.800	61.047	0.069	-0.068
-370.785	106.374	-0.070	-0.083
-369.771	38.270	-0.085	0.076
-368.756	27.698	-0.187	0.157
-367.742	-200.000	0.059	-0.349
-366.727	-83.052	-0.116	0.037
-365.712	17.364	0.179	0.141
-364.698	-200.000	-0.029	0.172
-363.683	-200.000	0.024	0.151
-362.669	-200.000	0.007	-0.143
-361.654	753.260	0.099	0.267
-360.639	-200.000	0.004	-0.351
-359.625	-77.908	-0.312	0.107
-358.610	-22.903	-0.105	0.063
-357.596	-152.816	-0.190	-0.013
-356.581	800.000	0.065	-0.270
-355.566	54.319	-0.108	0.103
-354.552	-71.430	0.189	0.070
-353.537	-11.755	-0.117	0.077
-352.523	230.031	-0.153	-0.249
-351.508	-120.049	-0.252	-0.043
-350.493	-139.462	0.229	-0.024
-349.479	492.282	0.145	-0.330
-348.464	-26.476	0.206	-0.120
-347.450	39.547	-0.008	0.007
-346.435	1.713	-0.273	-0.196
-345.420	302.897	0.131	0.242
-344.406	-200.000	-0.031	0.273
-343.391	-91.877	-0.251	0.071
-342.377	-146.671	-0.045	0.004
-341.362	87.599	0.248	-0.274
-340.348	71.584	-0.190	0.197
-339.333	153.759	0.088	-0.120
-338.318	11.158	-0.103	0.079
-337.304	337.961	0.215	-0.417
-336.289	283.810	0.212	0.380
-335.275	-66.488	-0.075	0.030
-334.260	411.058	0.037	0.079
-333.245	-97.003	-0.128	-0.033
-332.231	800.000	0.030	0.086
-331.216	-78.559	0.135	0.046
-330.202	-65.410	-0.318	-0.128
-329.187	800.000	0.078	-0.318
-328.172	-123.436	0.203	0.032
-327.158	-11.644	0.461	0.302
-326.143	-6.398	-0.276	-0.188
-325.129	459.990	0.039	0.088
-324.114	266.689	-0.166	-0.288
-323.099	100.726	0.091	0.105
-322.085	34.802	0.051	-0.045
-321.070	-186.975	-0.353	-0.005
-320.056	14.584	0.115	-0.090
-319.041	147.610	0.064	-0.085
-318.026	-118.804	0.339	-0.059
-317.012	-76.674	0.235	-0.082
-315.997	-21.597	0.051	0.031
-314.983	-200.000	-0.070	-0.344
-313.968	-161.443	-0.314	-0.016
-312.953	-137.624	0.474	0.053
-311.939	95.267	0.145	-0.164
-310.924	-200.000	-0.034	0.496
-309.910	-20.785	-0.306	0.187
-308.895	522.041	-0.101	-0.236
-307.880	10.471	0.084	-0.064
-306.866	97.119	-0.031	0.035
-305.851	269.577	-0.163	0.285
-304.837	-127.766	0.268	-0.039
-303.822	-167.994	0.125	-0.005
-302.807	-200.000	0.003	0.282
-301.793	-200.000	-0.034	0.380
-300.778	-143.080	-0.041	0.004
-299.764	184.556	0.244	-0.359
-298.749	-56.976	-0.202	-0.089
-297.735	-5.448	-0.300	-0.205
-296.720	-37.339	0.113	0.060
-295.705	12.823	-0.131	-0.101
-294.691	-89.663	-0.259	0.075
-293.676	62.291	-0.178	-0.177
-292.662	-200.000	0.024	-0.219
-291.647	-60.946	0.227	-0.096
-290.632	182.229	-0.164	-0.240
-289.618	-200.000	-0.021	-0.216
-288.603	8.730	0.268	0.201
-287.589	-200.000	0.060	0.394
-286.574	-111.154	-0.468	-0.095
-285.559	666.094	0.130	-0.333
-284.545	-109.389	0.304	0.064
-283.530	-144.442	0.186	0.017
-282.516	74.860	0.186	0.195
-281.501	166.696	0.189	0.266
-280.486	800.000	0.104	-0.302
-279.472	78.006	0.182	-0.193
-278.457	80.858	-0.026	-0.028
-277.443	41.791	0.104	0.094
-276.428	-11.228	0.301	0.197
-275.413	-200.000	0.025	0.121
-274.399	-200.000	-0.034	0.205
-273.384	72.226	0.060	-0.062
-272.370	-65.089	0.093	-0.037
-271.355	-57.135	-0.113	-0.050
-270.340	39.537	0.174	0.155
-269.326	-163.217	-0.141	0.007
-268.311	139.358	0.175	0.230
-267.297	800.000	0.005	-0.019
-266.282	-110.254	-0.102	0.021
-265.267	627.494	-0.131	-0.330
-264.253	140.498	0.109	0.143
-263.238	149.985	0.129	0.174
-262.224	189.864	-0.138	-0.205
-261.209	-200.000	-0.018	0.157
-260.195	-128.963	-0.224	0.031
-259.180	-131.295	-0.110	0.014
-258.165	-117.449	0.246	-0.044
-257.151	602.533	0.153	-0.377
-256.136	-142.795	0.154	0.015
-255.122	-52.987	0.247	0.113
-254.107	-34.327	-0.193	0.105
-253.092	660.667	0.143	-0.366
-252.078	237.221	-0.127	0.210
-251.063	637.831	-0.071	0.180
-250.049	522.796	0.137	0.320
-249.034	-200.000	0.031	0.211
-248.019	-97.854	-0.157	-0.040
-247.005	-48.926	0.142	-0.067
-245.990	305.818	-0.117	0.216
-244.976	395.616	0.059	0.123
-243.961	113.022	-0.199	0.239
-242.946	-31.441	0.397	0.222
-241.932	-73.099	-0.062	0.023
-240.917	-200.000	-0.074	0.392
-239.903	-2.962	-0.183	0.127
-238.888	33.586	0.120	0.104
-237.873	-200.000	-0.020	-0.255
-236.859	-200.000	-0.027	-0.459
-235.844	18.208	-0.211	-0.167
-234.830	-200.000	-0.029	-0.139
-233.815	237.653	0.135	-0.223
-232.800	-170.658	-0.408	0.014
-231.786	349.404	0.061	-0.119
-230.771	573.778	0.066	-0.161
-229.757	13.395	-0.102	0.078
-228.742	435.625	-0.035	0.076
-227.727	800.000	-0.104	-0.284
-226.713	-11.182	0.181	0.118
-225.698	363.261	0.081	-0.162
-224.684	-164.659	-0.230	-0.010
-223.669	-200.000	0.040	-0.207
-222.655	-53.950	0.109	0.049
-221.640	800.000	0.122	0.340
-220.625	-18.699	0.331	0.205
-219.611	70.603	0.136	0.140
-218.596	52.094	-0.262	0.248
-217.582	-120.336	-0.277	0.047
-216.567	800.000	0.077	0.284
-215.552	-18.534	0.127	0.079
-214.538	95.113	0.223	-0.251
-213.523	-127.388	-0.211	0.030
-212.509	235.744	0.128	-0.210
-211.494	-168.744	0.124	0.005
-210.479	800.000	-0.074	-0.256
-209.465	800.000	-0.101	0.394
-208.450	35.366	-0.303	-0.263
-207.436	-69.490	0.416	0.158
-206.421	46.994	-0.273	-0.252
-205.406	-22.391	0.181	-0.109
-204.392	10.195	-0.103	-0.078
-203.377	237.978	-0.107	-0.177
-202.363	-200.000	0.006	-0.293
-201.348	-49.237	-0.286	-0.135
-200.333	85.136	0.182	0.198
-199.319	194.578	-0.133	0.200
-198.304	62.985	-0.268	0.266
-197.290	39.059	0.184	-0.164
-196.275	411.843	0.153	0.321
-195.260	-50.081	0.297	0.139
-194.246	-68.976	-0.149	-0.057
-193.231	23.389	-0.129	0.105
-192.217	-31.175	-0.332	-0.185
-191.202	-61.350	0.153	0.064
-190.187	-113.243	-0.341	-0.067
-189.173	-51.009	-0.284	-0.132
-188.158	-18.844	-0.031	-0.019
-187.144	289.632	0.044	0.079
-186.129	-47.750	0.181	-0.087
-185.114	-30.612	-0.310	-0.174
-184.100	-97.374	0.216	-0.056
-183.085	-108.269	-0.223	-0.048
-182.071	-112.386	0.245	-0.048
-181.056	-142.635	-0.194	-0.019
-180.042	535.081	-0.054	0.128
-179.027	-200.000	-0.001	-0.078
-178.012	-8.856	0.081	-0.054
-176.998	-111.174	0.072	-0.015
-175.983	140.765	0.241	-0.316
-174.969	22.012	0.434	-0.351
-173.954	-68.936	-0.275	0.105
-172.939	-29.887	0.241	0.136
-171.925	-59.625	0.246	-0.104
-170.910	-5.175	-0.099	0.067
-169.896	430.773	0.068	0.146
-168.881	8.883	0.037	-0.027
-167.866	-124.434	-0.307	-0.047
-166.852	-29.975	0.046	0.026
-165.837	-157.998	0.119	-0.007
-164.823	-200.000	0.049	-0.228
-163.808	-59.482	0.259	-0.110
-162.793	-200.000	0.007	0.109
-161.779	64.263	0.114	-0.114
-160.764	203.772	0.166	-0.254
-159.750	-200.000	0.015	0.278
-158.735	171.532	-0.139	0.198
-157.720	-86.151	-0.199	-0.061
-156.706	-61.612	-0.120	-0.050
-155.691	-20.689	0.062	-0.038
-154.677	-33.016	0.303	-0.166
-153.662	286.254	-0.209	-0.374
-152.647	-93.383	-0.064	0.018
-151.633	-200.000	-0.029	-0.293
-150.618	-200.000	-0.012	-0.057
-149.604	228.149	0.042	0.068
-148.589	-200.000	-0.039	0.400
-147.574	38.460	-0.169	0.149
-146.560	385.790	0.099	-0.202
-145.545	800.000	0.143	-0.512
-144.531	47.854	0.080	0.074
-143.516	-200.000	-0.062	-0.404
-142.502	-181.759	-0.275	0.005
-141.487	-77.322	0.125	-0.043
-140.472	748.101	-0.093	0.247
-139.458	-71.254	-0.354	0.131
-138.443	85.025	-0.153	0.166
-137.429	-114.687	0.185	0.035
-136.414	34.575	0.122	0.105
-135.399	-69.584	-0.297	0.112
-134.385	-65.370	0.289	0.115
-133.370	-119.718	0.367	0.063
-132.356	-103.852	0.061	-0.014
-131.341	302.924	0.054	0.098
-130.326	631.292	0.185	-0.463
-129.312	-200.000	-0.005	0.078
-128.297	-200.000	0.007	-0.067
-127.283	-143.379	0.237	0.022
-126.268	207.886	-0.218	-0.337
-125.253	19.594	0.057	0.045
-124.239	-5.560	0.372	0.252
-123.224	-160.453	0.166	0.009
-122.210	-48.235	0.236	0.113
-121.195	-82.621	-0.241	0.077
-120.180	-200.000	-0.018	0.227
