DTS Sentinel unit serial number:	SN413079Multiplexer serial number:	ORYXHardware model number:	OX4-SRSoftware version number:	ORYX F/W v4.00 Oryx Data Collector v3.7.2.0data status	okinstallation	princeton_trtdifferential loss correction	single-endedforward channel	channel 2reverse channel	N/Adate	2019/09/11time	23:37:10forward acquisition time	60.00reverse acquisition time	0.00gamma	496.2192k internal	0.2325k external	0.2325temperature offset calibration	1.0075default loss term (dB/km)	0.3790temperature slope calibration	1.0000multiplexer offset coefficient	1.0000multiplexer slope coefficient	1.0000fibre end	0.00T internal ref (°C)	34.14T ext. ref 1 (°C)	1.87T ext. ref 2 (°C)	28.45length (m)	temperature (°C)	Stokes	anti-Stokes-747.200	-200.000	0.026	0.205
-746.185	624.060	-0.155	0.394
-745.171	-200.000	-0.028	-0.150
-744.156	105.921	0.199	-0.237
-743.142	427.249	-0.063	0.136
-742.127	-84.191	-0.182	-0.058
-741.112	-200.000	0.020	0.137
-740.098	-200.000	-0.010	0.411
-739.083	800.000	-0.028	0.094
-738.069	73.967	-0.293	0.311
-737.054	513.825	0.056	0.131
-736.039	-18.310	-0.346	0.218
-735.025	634.228	-0.187	0.478
-734.010	-24.941	-0.147	0.088
-732.996	176.774	-0.103	0.152
-731.981	110.923	-0.160	-0.194
-730.966	-81.145	-0.168	0.056
-729.952	-57.590	-0.398	-0.176
-728.937	-200.000	0.028	-0.279
-727.923	354.358	-0.223	-0.447
-726.908	-67.614	0.055	0.022
-725.894	-58.423	-0.189	0.083
-724.879	277.384	-0.128	-0.229
-723.864	-200.000	0.019	-0.190
-722.850	-98.838	-0.042	0.011
-721.835	-7.118	-0.336	0.230
-720.821	-86.045	0.293	0.091
-719.806	-200.000	-0.002	0.068
-718.791	-10.518	-0.301	0.201
-717.777	272.297	-0.107	-0.190
-716.762	759.525	-0.067	0.184
-715.748	-24.528	-0.179	0.108
-714.733	223.009	0.064	0.103
-713.718	-79.439	-0.100	0.034
-712.704	-51.776	0.348	0.163
-711.689	-200.000	-0.018	0.427
-710.675	627.065	0.058	0.148
-709.660	488.910	-0.071	-0.163
-708.645	-200.000	0.003	-0.380
-707.631	82.041	0.210	-0.229
-706.616	-12.859	-0.251	-0.165
-705.602	800.000	-0.123	-0.374
-704.587	343.089	-0.180	0.356
-703.572	763.998	-0.090	-0.248
-702.558	-124.665	0.074	0.012
-701.543	-45.759	-0.128	0.064
-700.529	54.929	-0.123	-0.120
-699.514	-200.000	-0.003	0.043
-698.499	196.242	-0.159	-0.244
-697.485	-200.000	-0.019	-0.191
-696.470	-52.294	-0.131	0.061
-695.456	412.797	0.081	-0.174
-694.441	-107.827	-0.364	0.080
-693.426	324.322	0.046	-0.088
-692.412	101.581	0.103	0.121
-691.397	60.130	0.312	0.310
-690.383	57.395	0.155	0.153
-689.368	638.624	-0.088	-0.226
-688.354	-25.259	0.342	-0.204
-687.339	800.000	-0.051	0.148
-686.324	624.061	0.026	0.065
-685.310	-159.090	0.270	0.015
-684.295	47.214	-0.184	0.172
-683.281	800.000	0.069	-0.225
-682.266	-200.000	0.075	-0.410
-681.251	543.115	0.019	-0.046
-680.237	-130.048	-0.208	0.029
-679.222	65.812	-0.104	-0.106
-678.208	-1.383	-0.153	-0.109
-677.193	4.800	0.200	-0.148
-676.178	-109.317	0.350	0.075
-675.164	735.751	0.102	-0.276
-674.149	50.744	-0.112	-0.107
-673.135	-157.080	0.343	0.021
-672.120	-85.450	-0.216	0.068
-671.105	800.000	-0.063	-0.222
-670.091	39.769	0.143	0.129
-669.076	-200.000	0.006	0.062
-668.062	88.313	-0.155	-0.173
-667.047	-7.767	-0.205	-0.139
-666.032	-37.770	-0.323	-0.173
-665.018	10.421	-0.085	0.065
-664.003	-200.000	-0.057	0.420
-662.989	-82.660	0.321	-0.105
-661.974	-20.499	0.426	-0.264
-660.959	-142.690	0.105	0.010
-659.945	25.559	-0.229	-0.192
-658.930	150.334	-0.060	0.082
-657.916	99.183	-0.244	-0.284
-656.901	-46.514	-0.154	0.076
-655.886	-200.000	-0.031	-0.249
-654.872	-115.249	0.289	0.055
-653.857	-131.118	0.062	-0.008
-652.843	447.235	-0.147	-0.324
-651.828	-172.151	0.270	0.009
-650.814	-11.276	-0.171	0.113
-649.799	-64.759	0.139	0.057
-648.784	6.348	-0.196	0.146
-647.770	85.830	-0.158	0.174
-646.755	125.062	-0.113	0.143
-645.741	95.108	0.076	-0.087
-644.726	-200.000	-0.001	-0.203
-643.711	-153.211	0.270	-0.019
-642.697	44.480	-0.166	-0.154
-641.682	30.034	-0.092	0.079
-640.668	21.929	-0.217	0.178
-639.653	58.328	0.241	-0.237
-638.638	139.084	-0.135	-0.179
-637.624	-122.203	-0.212	0.035
-636.609	-200.000	-0.035	-0.168
-635.595	-120.472	0.284	0.048
-634.580	-200.000	-0.013	-0.216
-633.565	68.953	-0.176	0.182
-632.551	128.794	0.129	-0.166
-631.536	89.635	-0.071	0.080
-630.522	-166.315	0.372	-0.016
-629.507	-200.000	0.019	0.346
-628.492	-200.000	-0.035	0.231
-627.478	-129.752	-0.157	0.022
-626.463	-136.517	-0.057	0.007
-625.449	-18.617	-0.148	-0.093
-624.434	800.000	0.057	-0.175
-623.419	-94.355	0.120	-0.033
-622.405	-200.000	0.011	-0.330
-621.390	600.649	-0.088	-0.218
-620.376	41.223	-0.117	-0.106
-619.361	-200.000	-0.007	-0.336
-618.346	92.493	0.184	-0.208
-617.332	-137.323	-0.095	-0.011
-616.317	-200.000	-0.013	0.077
-615.303	800.000	-0.032	-0.106
-614.288	-200.000	-0.066	-0.337
-613.273	-15.948	-0.249	-0.159
-612.259	-97.207	-0.171	-0.045
-611.244	127.922	-0.071	0.091
-610.230	209.955	0.095	-0.149
-609.215	-99.631	0.258	-0.065
-608.201	-9.310	0.110	-0.074
-607.186	800.000	0.114	-0.366
-606.171	115.709	0.119	-0.146
-605.157	-25.259	-0.350	0.208
-604.142	-200.000	-0.036	0.262
-603.128	153.382	-0.141	0.193
-602.113	53.521	0.074	-0.072
-601.098	367.028	0.048	0.097
-600.084	-147.362	0.210	0.018
-599.069	800.000	-0.075	0.242
-598.055	-80.140	-0.194	0.065
-597.040	185.016	0.149	-0.222
-596.025	66.934	-0.130	-0.133
-595.011	98.315	0.197	0.228
-593.996	12.402	-0.170	0.131
-592.982	269.306	-0.143	-0.253
-591.967	-87.426	0.049	-0.015
-590.952	103.594	0.134	0.158
-589.938	-176.661	-0.082	-0.002
-588.923	52.575	-0.140	-0.134
-587.909	-78.368	-0.288	0.099
-586.894	3.195	-0.062	0.045
-585.879	-48.566	0.245	0.118
-584.865	138.877	-0.203	0.268
-583.850	800.000	0.080	0.255
-582.836	-71.896	0.196	-0.073
-581.821	-85.401	-0.125	-0.039
-580.806	-200.000	-0.020	-0.243
-579.792	-92.110	0.335	-0.095
-578.777	-160.016	-0.404	-0.022
-577.763	-81.112	-0.334	0.111
-576.748	800.000	-0.075	0.225
-575.733	41.150	-0.276	-0.250
-574.719	236.035	-0.144	0.239
-573.704	394.233	-0.071	0.149
-572.690	-200.000	0.002	0.063
-571.675	65.810	0.063	0.064
-570.661	-76.238	0.147	0.052
-569.646	-79.022	0.276	-0.094
-568.631	-115.227	0.088	0.017
-567.617	103.085	-0.029	0.034
-566.602	800.000	0.038	0.126
-565.588	-129.272	-0.066	-0.009
-564.573	-200.000	0.004	0.026
-563.558	346.234	-0.166	-0.328
-562.544	-112.878	-0.176	-0.035
-561.529	-200.000	-0.032	0.323
-560.515	531.367	-0.091	0.217
-559.500	50.225	0.068	-0.065
-558.485	-200.000	0.006	0.186
-557.471	-200.000	-0.024	-0.156
-556.456	-37.778	-0.061	0.033
-555.442	71.559	-0.087	0.090
-554.427	61.483	0.016	0.016
-553.412	163.530	0.064	0.091
-552.398	54.375	-0.011	-0.011
-551.383	-53.103	0.165	0.076
-550.369	175.496	-0.119	0.173
-549.354	734.419	-0.076	-0.204
-548.339	-50.342	0.236	-0.112
-547.325	-200.000	-0.025	0.270
-546.310	291.294	-0.122	-0.221
-545.296	-79.362	-0.124	0.042
-544.281	-139.899	0.119	0.013
-543.266	150.979	-0.070	0.095
-542.252	312.373	-0.125	-0.235
-541.237	664.437	-0.042	0.107
-540.223	-85.981	0.460	-0.143
-539.208	-116.904	-0.026	-0.005
-538.193	387.205	0.134	0.277
-537.179	-181.361	0.348	-0.007
-536.164	-200.000	-0.005	0.102
-535.150	100.812	-0.183	0.213
-534.135	66.867	-0.282	0.287
-533.121	-13.089	-0.381	-0.248
-532.106	-37.008	0.081	-0.043
-531.091	800.000	-0.060	0.225
-530.077	115.677	-0.074	-0.090
-529.062	-6.970	0.134	0.091
-528.048	617.062	-0.120	-0.301
-527.033	382.345	0.108	-0.223
-526.018	188.058	0.210	-0.313
-525.004	-121.701	-0.367	-0.061
-523.989	-74.351	-0.144	-0.052
-522.975	-175.821	-0.132	0.004
-521.960	292.974	-0.121	-0.221
-520.945	-133.841	-0.413	0.051
-519.931	-200.000	0.012	0.166
-518.916	113.905	0.104	-0.126
-517.902	-42.825	-0.075	-0.038
-516.887	1.050	-0.390	0.280
-515.872	48.166	-0.169	0.158
-514.858	-103.858	-0.326	-0.076
-513.843	-12.086	0.155	-0.101
-512.829	429.032	-0.075	-0.163
-511.814	-200.000	0.008	0.134
-510.799	-200.000	0.016	-0.214
-509.785	259.127	0.067	-0.116
-508.770	-93.534	0.151	-0.042
-507.756	197.149	-0.118	-0.179
-506.741	-36.914	-0.341	-0.183
-505.726	58.894	-0.206	0.202
-504.712	-64.550	0.042	-0.017
-503.697	140.153	0.313	-0.413
-502.683	-162.468	0.071	0.004
-501.668	36.345	-0.121	-0.106
-500.653	-103.328	-0.102	0.024
-499.639	-71.050	-0.311	0.117
-498.624	800.000	-0.044	0.158
-497.610	-88.438	-0.117	0.035
-496.595	-25.002	-0.285	0.169
-495.581	-53.466	-0.132	-0.060
-494.566	-6.637	0.149	0.101
-493.551	-178.950	-0.171	-0.004
-492.537	-105.746	-0.335	0.076
-491.522	-200.000	0.053	-0.280
-490.508	-200.000	-0.003	-0.242
-489.493	-179.849	0.297	0.006
-488.478	188.126	-0.029	0.043
-487.464	-82.016	-0.154	-0.050
-486.449	81.556	-0.032	-0.034
-485.435	-129.642	0.126	0.017
-484.420	-104.702	0.130	0.030
-483.405	-51.307	0.267	-0.125
-482.391	86.631	0.144	-0.159
-481.376	-200.000	-0.024	-0.398
-480.362	-153.961	-0.246	0.017
-479.347	-200.000	-0.041	-0.188
-478.332	-130.556	0.211	-0.029
-477.318	-37.312	0.472	-0.252
-476.303	79.046	-0.243	0.259
-475.289	-200.000	0.030	-0.299
-474.274	-200.000	0.021	0.305
-473.259	46.099	-0.184	0.170
-472.245	-62.725	-0.222	0.092
-471.230	261.620	0.135	-0.233
-470.216	-200.000	-0.012	0.336
-469.201	800.000	0.053	0.202
-468.186	309.759	-0.193	-0.361
-467.172	267.110	0.086	-0.151
-466.157	-42.059	-0.139	0.071
-465.143	-10.663	0.133	-0.088
-464.128	497.375	0.049	0.113
-463.113	450.108	-0.053	0.116
-462.099	-200.000	-0.006	0.271
-461.084	-125.208	0.375	-0.057
-460.070	-50.557	0.079	-0.037
-459.055	800.000	0.057	-0.226
-458.040	116.196	-0.089	-0.109
-457.026	-54.039	0.156	-0.071
-456.011	1.293	0.125	0.090
-454.997	-47.519	0.412	0.200
-453.982	487.504	-0.125	-0.285
-452.968	-20.034	0.274	0.169
-451.953	-73.539	0.321	-0.117
-450.938	-117.722	0.076	0.014
-449.924	214.195	0.069	0.109
-448.909	-130.811	-0.198	-0.027
-447.895	-163.038	0.151	-0.007
-446.880	-102.482	0.172	0.041
-445.865	-134.381	0.146	-0.018
-444.851	-200.000	0.054	-0.255
-443.836	532.668	0.085	-0.200
-442.822	197.768	0.113	-0.172
-441.807	86.719	0.299	0.329
-440.792	-169.619	-0.168	-0.006
-439.778	800.000	-0.047	-0.186
-438.763	-94.689	0.306	-0.083
-437.749	42.949	0.173	0.158
-436.734	528.023	0.151	0.354
-435.719	-32.242	-0.205	0.114
-434.705	-200.000	-0.030	-0.200
-433.690	14.770	0.132	0.103
-432.676	65.267	-0.207	0.209
-431.661	-104.140	0.143	-0.033
-430.646	166.327	-0.098	0.138
-429.632	-109.275	-0.089	-0.019
-428.617	561.238	-0.108	0.260
-427.603	98.507	0.290	-0.333
-426.588	47.000	0.210	0.195
-425.573	-13.314	-0.135	0.087
-424.559	-147.359	0.035	0.003
-423.544	-200.000	0.005	-0.077
-422.530	-117.026	-0.194	-0.035
-421.515	45.684	-0.164	0.151
-420.500	209.775	-0.219	-0.342
-419.486	-200.000	-0.019	0.455
-418.471	800.000	0.054	0.159
-417.457	-162.129	-0.066	-0.003
-416.442	498.789	-0.020	-0.046
-415.428	166.715	0.122	-0.172
-414.413	-200.000	0.007	-0.100
-413.398	800.000	0.097	0.408
-412.384	-163.783	-0.127	-0.006
-411.369	-126.441	0.101	-0.015
-410.355	157.505	0.189	0.261
-409.340	-127.685	-0.167	0.024
-408.325	-50.886	-0.210	-0.098
-407.311	800.000	-0.046	-0.135
-406.296	-22.724	-0.056	0.034
-405.282	-200.000	0.002	-0.175
-404.267	-200.000	-0.019	0.164
-403.252	356.238	-0.030	0.060
-402.238	82.641	-0.077	0.083
-401.223	-46.939	0.223	-0.108
-400.209	559.691	0.024	-0.058
-399.194	-128.076	0.119	-0.017
-398.179	175.982	-0.146	-0.211
-397.165	280.046	0.144	0.257
-396.150	295.579	0.077	0.140
-395.136	800.000	0.029	0.096
-394.121	-37.783	-0.113	0.060
-393.106	800.000	-0.101	0.279
-392.092	-200.000	-0.008	-0.094
-391.077	-128.406	0.111	-0.016
-390.063	296.985	-0.114	-0.208
-389.048	-54.046	0.290	0.132
-388.033	-200.000	-0.005	-0.025
-387.019	319.841	-0.045	-0.085
-386.004	-27.114	-0.267	0.155
-384.990	-73.767	0.359	-0.130
-383.975	611.321	0.073	0.182
-382.960	-200.000	0.033	-0.390
-381.946	-27.636	-0.145	-0.083
-380.931	276.277	0.032	0.056
-379.917	-200.000	0.054	0.259
-378.902	-17.623	0.117	-0.073
-377.888	-44.438	0.153	-0.076
-376.873	-200.000	0.035	0.171
-375.858	-18.748	-0.182	-0.113
-374.844	259.413	0.198	0.341
-373.829	-11.903	0.167	0.109
-372.815	593.488	-0.073	0.179
-371.800	92.603	0.088	-0.099
-370.785	-200.000	-0.012	0.110
-369.771	241.047	0.060	0.100
-368.756	766.666	0.125	-0.339
-367.742	136.004	0.007	0.009
-366.727	800.000	-0.039	0.157
-365.712	11.766	-0.284	-0.217
-364.698	-200.000	-0.018	-0.111
-363.683	-19.803	-0.207	0.127
-362.669	70.083	-0.108	-0.111
-361.654	-86.960	0.141	-0.043
-360.639	96.460	0.190	0.217
-359.625	427.850	0.164	0.351
-358.610	-74.275	0.271	0.097
-357.596	6.708	0.044	0.032
-356.581	239.125	0.094	0.155
-355.566	350.334	-0.090	0.177
-354.552	35.773	0.022	-0.019
-353.537	-200.000	0.029	-0.265
-352.523	-3.315	-0.168	0.116
-351.508	-69.441	-0.217	-0.083
-350.493	-115.444	0.102	-0.019
-349.479	-200.000	-0.017	-0.325
-348.464	-60.780	-0.090	0.038
-347.450	-53.711	0.068	0.031
-346.435	-20.614	0.035	0.021
-345.420	-79.475	0.172	-0.058
-344.406	800.000	-0.038	-0.123
-343.391	-17.284	0.199	-0.124
-342.377	-31.901	-0.099	-0.055
-341.362	-130.568	0.175	0.023
-340.348	800.000	0.056	0.174
-339.333	-49.932	-0.229	-0.108
-338.318	-89.124	0.154	-0.045
-337.304	-94.727	-0.076	0.020
-336.289	-200.000	0.023	0.227
-335.275	192.300	0.204	-0.306
-334.260	-39.799	-0.436	0.226
-333.245	800.000	0.091	-0.333
-332.231	71.139	0.335	0.345
-331.216	-200.000	0.012	0.313
-330.202	-173.978	-0.098	-0.003
-329.187	309.875	-0.105	0.196
-328.172	61.341	-0.162	0.160
-327.158	-58.031	-0.263	0.114
-326.143	345.402	0.132	0.257
-325.129	81.170	0.182	0.195
-324.114	800.000	-0.084	0.309
-323.099	-144.049	-0.127	0.012
-322.085	68.743	0.128	-0.131
-321.070	800.000	-0.068	0.189
-320.056	-46.003	0.444	0.217
-319.041	-200.000	-0.011	-0.502
-318.026	266.103	-0.053	-0.091
-317.012	-22.210	-0.046	0.028
-315.997	-200.000	-0.061	-0.404
-314.983	206.569	-0.077	-0.119
-313.968	-135.229	-0.256	0.031
-312.953	361.641	-0.033	0.065
-311.939	-200.000	0.045	-0.222
-310.924	-110.861	0.265	-0.054
-309.910	-200.000	-0.031	0.256
-308.895	800.000	-0.054	-0.229
-307.880	408.652	-0.242	-0.507
-306.866	29.503	0.277	0.234
-305.851	-158.065	-0.251	0.015
-304.837	-5.663	-0.156	-0.106
-303.822	55.526	0.441	-0.423
-302.807	-200.000	-0.042	0.300
-301.793	491.122	0.148	-0.335
-300.778	53.791	0.058	0.055
-299.764	-94.820	-0.123	0.033
-298.749	-41.343	0.201	0.102
-297.735	-32.498	-0.425	0.235
-296.720	10.822	-0.375	0.284
-295.705	782.663	0.078	-0.212
-294.691	-5.849	-0.235	0.159
-293.676	-200.000	-0.027	-0.256
-292.662	-16.639	0.154	0.096
-291.647	24.640	-0.049	0.040
-290.632	27.435	-0.097	-0.081
-289.618	68.897	0.190	-0.193
-288.603	-154.889	0.259	-0.017
-287.589	-56.193	0.220	-0.097
-286.574	737.226	-0.119	0.317
-285.559	-58.526	0.202	-0.087
-284.545	-97.303	-0.113	-0.029
-283.530	-60.318	-0.267	0.113
-282.516	800.000	0.051	0.150
-281.501	-87.757	0.195	-0.058
-280.486	95.483	0.175	0.198
-279.472	-116.188	0.207	-0.038
-278.457	-200.000	0.020	-0.105
-277.443	-46.519	-0.480	-0.233
-276.428	431.649	-0.156	-0.335
-275.413	-118.305	-0.209	0.037
-274.399	449.810	0.104	-0.228
-273.384	-200.000	-0.044	-0.338
-272.370	134.243	0.061	0.078
-271.355	-191.397	0.137	-0.001
-270.340	106.434	0.107	-0.125
-269.326	88.645	-0.067	0.074
-268.311	-89.003	-0.188	-0.055
-267.297	-200.000	-0.062	-0.284
-266.282	800.000	-0.039	-0.116
-265.267	76.267	0.107	-0.112
-264.253	-200.000	-0.002	0.012
-263.238	80.769	0.196	0.210
-262.224	-25.669	-0.160	0.094
-261.209	800.000	-0.067	-0.184
-260.195	-87.001	0.106	0.032
-259.180	-69.752	0.321	-0.121
-258.165	92.161	-0.152	0.170
-257.151	-88.652	-0.057	0.017
-256.136	10.425	-0.103	0.078
-255.122	252.739	-0.018	0.030
-254.107	-200.000	-0.027	0.249
-253.092	-2.367	-0.123	0.085
-252.078	-100.701	0.166	0.041
-251.063	-33.545	-0.166	-0.090
-250.049	-85.553	0.084	-0.026
-249.034	800.000	-0.037	0.146
-248.019	278.482	-0.018	-0.031
-247.005	46.753	0.090	-0.082
-245.990	-43.011	0.352	-0.177
-244.976	28.870	0.078	0.066
-243.961	-25.754	-0.349	-0.204
-242.946	800.000	0.033	0.114
-241.932	-200.000	0.070	0.317
-240.917	313.033	-0.114	0.213
-239.903	-200.000	-0.025	0.218
-238.888	281.436	0.168	0.298
-237.873	-200.000	0.010	0.048
-236.859	8.401	0.134	0.100
-235.844	-200.000	-0.052	-0.284
-234.830	51.502	0.269	-0.253
-233.815	-165.062	0.081	0.004
-232.800	-200.000	-0.028	0.173
-231.786	-200.000	0.065	-0.394
-230.771	-141.616	-0.153	0.015
-229.757	-200.000	0.057	0.346
-228.742	-200.000	0.001	-0.170
-227.727	-200.000	-0.012	0.158
-226.713	12.630	0.131	0.100
-225.698	-169.416	-0.266	-0.010
-224.684	-92.030	0.201	0.056
-223.669	104.451	0.192	0.223
-222.655	-132.909	0.144	-0.018
-221.640	800.000	0.046	0.155
-220.625	410.510	0.110	-0.230
-219.611	-70.383	-0.237	-0.089
-218.596	643.877	-0.121	-0.304
-217.582	-144.344	0.244	-0.022
-216.567	104.730	-0.077	0.090
-215.552	-200.000	-0.052	-0.238
-214.538	-200.000	0.026	-0.267
-213.523	-78.459	0.279	-0.094
-212.509	-145.699	0.267	0.024
-211.494	-46.765	0.348	-0.168
-210.479	-200.000	0.022	-0.333
-209.465	-67.934	0.207	0.080
-208.450	-55.601	0.122	-0.054
-207.436	354.061	0.055	0.108
-206.421	800.000	0.055	0.225
-205.406	-192.937	0.200	-0.002
-204.392	-200.000	0.052	0.249
-203.377	-84.439	-0.649	-0.203
-202.363	-200.000	-0.012	0.117
-201.348	474.672	0.075	0.167
-200.333	34.741	0.062	0.054
-199.319	29.134	0.211	0.177
-198.304	46.489	0.209	-0.191
-197.290	-200.000	0.021	0.282
-196.275	18.073	-0.246	-0.194
-195.260	-200.000	-0.017	-0.227
-194.246	-72.600	-0.210	-0.077
-193.231	-31.055	-0.149	0.083
-192.217	-56.192	-0.073	-0.032
-191.202	800.000	0.033	0.104
-190.187	-57.803	0.031	-0.013
-189.173	-81.677	0.066	-0.021
-188.158	-30.066	-0.279	0.157
-187.144	92.157	-0.111	-0.124
-186.129	-140.630	-0.272	0.028
-185.114	93.122	-0.230	-0.257
-184.100	800.000	0.037	-0.127
-183.085	800.000	-0.068	0.291
-182.071	-29.600	-0.035	-0.020
-181.056	800.000	-0.056	0.236
-180.042	800.000	-0.017	0.069
-179.027	13.831	-0.134	0.103
-178.012	470.529	0.029	-0.065
-176.998	-57.683	0.027	0.012
-175.983	-121.363	0.347	-0.057
-174.969	118.476	-0.083	0.101
-173.954	361.690	-0.088	0.174
-172.939	-108.950	0.321	-0.068
-171.925	-12.465	-0.216	0.139
-170.910	87.779	0.082	0.090
-169.896	-136.160	0.106	-0.012
-168.881	-153.340	0.198	0.014
-167.866	66.335	-0.169	0.169
-166.852	-92.885	0.262	-0.072
-165.837	-74.868	0.317	0.112
-164.823	800.000	0.019	-0.055
-163.808	263.749	-0.180	0.310
-162.793	-125.109	-0.172	0.026
-161.779	-32.554	0.329	0.181
-160.764	-23.073	-0.354	0.210
-159.750	611.761	0.043	0.106
-158.735	301.833	-0.160	-0.291
-157.720	800.000	-0.024	0.095
-156.706	563.233	0.076	0.181
-155.691	-2.093	-0.128	-0.089
-154.677	18.809	-0.180	-0.142
-153.662	285.559	0.117	-0.208
-152.647	65.403	0.089	-0.088
-151.633	179.534	0.131	-0.189
-150.618	145.602	-0.130	0.172
-149.604	-91.234	0.260	0.073
-148.589	-200.000	-0.029	0.178
-147.574	-69.871	-0.178	0.067
-146.560	-200.000	0.005	-0.252
-145.545	-175.077	-0.426	0.012
-144.531	194.461	-0.083	0.124
-143.516	232.163	-0.147	0.238
-142.502	-200.000	-0.012	-0.090
-141.487	211.528	0.115	-0.178
-140.472	218.700	-0.116	0.183
-139.458	354.005	-0.043	0.085
-138.443	-90.704	0.158	0.045
-137.429	33.255	-0.140	0.120
-136.414	416.708	-0.010	-0.020
-135.399	69.052	0.219	0.222
-134.385	800.000	0.073	0.226
-133.370	367.828	-0.207	-0.412
-132.356	162.125	-0.056	-0.077
-131.341	62.181	0.128	-0.125
-130.326	122.929	-0.181	0.223
-129.312	213.045	0.267	0.416
-128.297	-200.000	0.082	0.355
-127.283	530.351	0.098	0.228
-126.268	-200.000	0.003	0.204
-125.253	-60.965	-0.090	0.037
-124.239	-74.288	0.050	-0.018
-123.224	78.151	-0.134	-0.141
-122.210	-51.079	-0.161	0.074
-121.195	800.000	-0.068	0.247
