DTS Sentinel unit serial number:	SN413079Multiplexer serial number:	ORYXHardware model number:	OX4-SRSoftware version number:	ORYX F/W v4.00 Oryx Data Collector v3.7.2.0data status	okinstallation	princeton_trtdifferential loss correction	single-endedforward channel	channel 2reverse channel	N/Adate	2019/09/17time	09:11:35forward acquisition time	60.00reverse acquisition time	0.00gamma	496.2192k internal	0.2331k external	0.2331temperature offset calibration	0.9969default loss term (dB/km)	0.3790temperature slope calibration	1.0000multiplexer offset coefficient	1.0000multiplexer slope coefficient	1.0000fibre end	0.00T internal ref (°C)	28.37T ext. ref 1 (°C)	0.13T ext. ref 2 (°C)	25.28length (m)	temperature (°C)	Stokes	anti-Stokes-747.200	286.048	-0.179	0.325
-746.185	800.000	0.070	0.272
-745.171	-200.000	0.000	0.010
-744.156	-200.000	0.153	0.701
-743.142	280.613	0.106	0.190
-742.127	-97.450	-0.190	0.050
-741.112	-200.000	-0.048	0.286
-740.098	-200.000	0.043	0.380
-739.083	146.520	0.091	-0.123
-738.069	451.405	0.049	0.109
-737.054	-120.601	0.264	-0.045
-736.039	336.931	0.061	-0.119
-735.025	383.292	-0.133	0.275
-734.010	243.259	0.244	-0.412
-732.996	-200.000	-0.039	-0.602
-731.981	303.318	-0.073	-0.135
-730.966	-149.535	0.354	-0.028
-729.952	-103.862	-0.226	0.053
-728.937	-50.078	-0.062	0.030
-727.923	-100.819	-0.326	-0.081
-726.908	-71.384	-0.156	-0.059
-725.894	79.836	-0.314	0.339
-724.879	800.000	-0.071	-0.253
-723.864	-111.014	0.350	-0.072
-722.850	102.255	-0.067	0.078
-721.835	-58.432	-0.272	-0.119
-720.821	-200.000	0.032	-0.165
-719.806	144.053	-0.112	-0.151
-718.791	-126.527	0.257	0.038
-717.777	36.091	0.223	0.198
-716.762	-22.401	0.096	0.059
-715.748	-112.646	-0.189	0.038
-714.733	2.327	-0.100	0.073
-713.718	-23.966	0.196	0.118
-712.704	-200.000	-0.015	-0.152
-711.689	298.609	0.166	0.307
-710.675	-200.000	-0.045	-0.206
-709.660	47.261	0.159	-0.149
-708.645	94.214	-0.068	-0.078
-707.631	255.978	0.124	-0.214
-706.616	-200.000	-0.009	0.092
-705.602	-200.000	-0.052	0.370
-704.587	-129.632	0.227	0.031
-703.572	-200.000	0.047	0.276
-702.558	-165.121	-0.146	0.007
-701.543	24.629	0.092	0.077
-700.529	162.650	0.155	0.218
-699.514	-173.652	0.294	0.009
-698.499	-99.469	-0.095	0.024
-697.485	-58.190	-0.253	0.111
-696.470	-71.012	-0.401	-0.152
-695.456	42.477	0.101	0.092
-694.441	65.117	-0.239	0.242
-693.426	-200.000	-0.039	-0.247
-692.412	-139.907	-0.317	-0.034
-691.397	-100.769	-0.120	-0.030
-690.383	102.742	-0.100	-0.118
-689.368	-101.285	0.151	-0.037
-688.354	-200.000	-0.083	-0.509
-687.339	-60.565	-0.212	0.091
-686.324	-131.782	-0.380	0.050
-685.310	-200.000	-0.027	-0.274
-684.295	-83.073	0.217	0.070
-683.281	-54.406	-0.101	-0.046
-682.266	15.751	-0.043	0.034
-681.251	-200.000	-0.016	-0.089
-680.237	800.000	0.082	0.303
-679.222	-17.622	-0.335	-0.211
-678.208	-200.000	0.006	-0.056
-677.193	-19.528	-0.257	0.160
-676.178	-25.613	-0.204	-0.121
-675.164	31.194	0.095	0.082
-674.149	-108.695	0.011	-0.002
-673.135	308.033	-0.142	-0.266
-672.120	175.977	-0.099	0.144
-671.105	259.061	0.042	-0.072
-670.091	800.000	0.086	0.241
-669.076	-200.000	-0.041	-0.237
-668.062	90.753	0.117	0.132
-667.047	-200.000	0.042	-0.376
-666.032	-168.706	-0.320	0.012
-665.018	-200.000	-0.022	-0.352
-664.003	100.293	-0.169	0.197
-662.989	-200.000	0.007	0.142
-661.974	-200.000	-0.051	0.427
-660.959	-121.138	-0.208	0.035
-659.945	-200.000	-0.017	-0.357
-658.930	800.000	0.005	-0.015
-657.916	271.446	0.063	-0.111
-656.901	-200.000	0.024	-0.122
-655.886	-126.726	-0.368	-0.055
-654.872	800.000	-0.077	0.236
-653.857	-179.429	-0.242	-0.005
-652.843	-200.000	0.009	-0.064
-651.828	56.229	-0.158	0.154
-650.814	-1.293	0.250	-0.177
-649.799	-200.000	0.092	-0.678
-648.784	257.092	-0.167	-0.287
-647.770	257.571	-0.022	-0.038
-646.755	-200.000	-0.019	0.112
-645.741	135.667	0.060	-0.078
-644.726	-103.126	0.113	0.027
-643.711	-16.747	-0.435	-0.276
-642.697	-183.368	-0.402	-0.007
-641.682	-200.000	0.011	0.214
-640.668	-200.000	0.039	-0.265
-639.653	-200.000	0.015	0.197
-638.638	-130.761	-0.351	0.047
-637.624	-200.000	-0.000	0.053
-636.609	126.493	-0.126	0.160
-635.595	-200.000	0.025	0.346
-634.580	-32.576	-0.183	0.102
-633.565	48.630	0.151	-0.142
-632.551	-6.752	-0.065	0.044
-631.536	800.000	-0.042	-0.120
-630.522	72.335	-0.105	-0.110
-629.507	-136.604	0.170	0.020
-628.492	-114.451	-0.312	0.060
-627.478	634.806	-0.109	0.278
-626.463	-200.000	-0.012	0.082
-625.449	800.000	0.080	0.331
-624.434	-200.000	0.001	0.101
-623.419	28.673	-0.325	0.275
-622.405	61.965	0.337	0.336
-621.390	-200.000	-0.005	-0.184
-620.376	-200.000	-0.024	-0.298
-619.361	-200.000	0.010	0.082
-618.346	-200.000	0.023	-0.215
-617.332	-200.000	0.072	-0.328
-616.317	-22.851	-0.356	-0.215
-615.303	-200.000	-0.025	-0.235
-614.288	-14.532	-0.232	-0.150
-613.273	18.060	0.284	-0.227
-612.259	800.000	-0.045	-0.133
-611.244	298.123	-0.201	-0.370
-610.230	187.092	0.205	-0.306
-609.215	-113.995	-0.293	0.057
-608.201	43.182	0.113	-0.103
-607.186	-109.750	-0.503	0.106
-606.171	-22.587	-0.207	-0.126
-605.157	173.803	0.021	0.031
-604.142	-169.983	0.280	-0.010
-603.128	76.503	0.193	-0.205
-602.113	800.000	0.137	-0.384
-601.098	-62.637	-0.247	-0.103
-600.084	182.550	0.040	0.059
-599.069	-200.000	0.052	-0.451
-598.055	800.000	0.029	0.109
-597.040	42.108	0.274	0.249
-596.025	-38.830	0.165	0.087
-595.011	-98.485	-0.223	-0.057
-593.996	800.000	0.039	-0.145
-592.982	800.000	-0.051	0.208
-591.967	-29.819	-0.392	0.224
-590.952	-23.434	0.175	0.105
-589.938	112.084	-0.140	-0.169
-588.923	-87.140	-0.353	0.108
-587.909	30.058	-0.236	0.201
-586.894	260.150	-0.151	-0.262
-585.879	-80.527	-0.353	0.118
-584.865	288.875	-0.155	0.281
-583.850	80.547	0.202	0.217
-582.836	-133.013	-0.229	0.029
-581.821	-180.656	0.075	-0.002
-580.806	64.931	-0.114	-0.115
-579.792	40.222	-0.101	0.091
-578.777	-30.822	0.203	0.115
-577.763	-146.518	-0.493	0.043
-576.748	-179.918	-0.195	-0.004
-575.733	260.572	0.224	0.388
-574.719	-200.000	-0.011	-0.146
-573.704	680.775	-0.040	-0.105
-572.690	122.536	0.125	-0.156
-571.675	800.000	0.104	-0.296
-570.661	800.000	-0.046	-0.129
-569.646	-200.000	0.014	0.074
-568.631	800.000	0.025	-0.105
-567.617	-123.257	-0.067	0.011
-566.602	-200.000	-0.036	0.322
-565.588	-126.608	-0.278	0.041
-564.573	636.678	-0.026	0.067
-563.558	68.500	0.123	0.126
-562.544	800.000	0.034	0.111
-561.529	391.442	-0.172	-0.356
-560.515	102.133	0.066	-0.077
-559.500	-180.439	0.346	-0.007
-558.485	-50.018	0.205	0.097
-557.471	800.000	-0.040	-0.118
-556.456	-200.000	0.300	0.001
-555.442	-61.974	-0.244	0.102
-554.427	-124.920	-0.638	0.098
-553.412	259.664	-0.047	0.081
-552.398	-95.291	0.264	-0.071
-551.383	-131.854	-0.289	0.038
-550.369	-94.698	-0.098	0.027
-549.354	-137.212	-0.118	-0.013
-548.339	-106.889	-0.184	0.041
-547.325	-137.851	0.217	-0.024
-546.310	800.000	-0.073	0.315
-545.296	606.755	0.149	-0.370
-544.281	-72.998	-0.133	-0.049
-543.266	-200.000	0.027	-0.197
-542.252	-200.000	0.003	-0.231
-541.237	154.725	0.028	-0.039
-540.223	-169.404	0.231	-0.008
-539.208	-120.366	0.070	-0.012
-538.193	0.980	-0.238	-0.171
-537.179	-113.374	-0.345	-0.068
-536.164	800.000	-0.029	-0.122
-535.150	714.140	-0.116	0.307
-534.135	502.523	-0.095	0.220
-533.121	62.212	0.136	-0.135
-532.106	201.623	-0.038	0.059
-531.091	800.000	-0.059	0.227
-530.077	257.825	0.115	-0.198
-529.062	-158.201	-0.184	-0.011
-528.048	-140.353	0.115	-0.012
-527.033	-200.000	0.017	-0.114
-526.018	278.907	-0.034	-0.060
-525.004	-158.423	0.442	0.026
-523.989	196.879	-0.192	0.292
-522.975	-200.000	-0.016	-0.207
-521.960	800.000	-0.053	-0.191
-520.945	800.000	0.069	-0.244
-519.931	147.091	0.174	-0.234
-518.916	-134.227	-0.119	-0.015
-517.902	-200.000	0.000	-0.009
-516.887	6.370	0.081	-0.060
-515.872	19.380	-0.213	0.171
-514.858	-200.000	0.008	-0.437
-513.843	272.667	0.258	-0.454
-512.829	-154.836	0.145	-0.010
-511.814	-200.000	0.016	0.077
-510.799	800.000	-0.047	0.161
-509.785	35.463	-0.164	0.143
-508.770	253.798	0.029	0.049
-507.756	74.561	-0.199	-0.209
-506.741	-58.704	0.154	0.066
-505.726	-62.621	0.154	0.064
-504.712	-125.835	0.144	0.022
-503.697	149.823	0.098	0.132
-502.683	-200.000	0.014	-0.288
-501.668	-22.149	-0.179	0.108
-500.653	-32.330	0.109	0.061
-499.639	460.504	0.048	0.107
-498.624	397.542	0.067	-0.141
-497.610	23.532	-0.184	-0.151
-496.595	496.992	-0.052	-0.119
-495.581	430.825	-0.087	0.188
-494.566	66.590	-0.231	-0.234
-493.551	-102.891	0.262	0.062
-492.537	-200.000	0.012	-0.517
-491.522	800.000	-0.058	-0.184
-490.508	208.531	0.077	-0.120
-489.493	35.190	-0.053	0.047
-488.478	462.531	0.023	-0.052
-487.464	-178.860	-0.085	0.002
-486.449	800.000	-0.092	-0.266
-485.435	140.157	-0.101	0.132
-484.420	-135.207	-0.225	0.027
-483.405	-128.439	0.222	0.031
-482.391	-200.000	-0.015	0.278
-481.376	381.606	-0.175	0.357
-480.362	67.025	-0.242	0.245
-479.347	79.877	0.167	0.179
-478.332	-200.000	-0.011	0.295
-477.318	25.255	0.319	0.264
-476.303	293.994	0.237	0.431
-475.289	-21.354	-0.332	-0.202
-474.274	-52.611	-0.259	0.119
-473.259	-200.000	-0.009	-0.090
-472.245	506.340	0.038	-0.087
-471.230	-61.398	0.277	0.116
-470.216	-200.000	0.062	-0.327
-469.201	63.598	0.247	-0.247
-468.186	-60.251	0.217	0.092
-467.172	800.000	0.025	0.095
-466.157	72.987	0.238	0.247
-465.143	800.000	0.069	0.246
-464.128	800.000	0.031	-0.085
-463.113	45.849	-0.355	-0.326
-462.099	511.779	-0.058	-0.135
-461.084	-137.528	-0.404	-0.045
-460.070	-200.000	-0.043	-0.244
-459.055	-112.401	-0.038	-0.008
-458.040	113.264	-0.030	0.037
-457.026	324.504	0.167	-0.317
-456.011	84.476	-0.189	0.206
-454.997	-40.910	-0.193	0.099
-453.982	-69.041	0.102	0.039
-452.968	-200.000	-0.014	0.191
-451.953	5.156	0.229	-0.168
-450.938	226.072	0.121	0.196
-449.924	643.335	-0.101	-0.257
-448.909	149.232	0.155	-0.209
-447.895	-58.353	0.222	-0.096
-446.880	45.705	0.311	-0.286
-445.865	758.274	-0.040	0.108
-444.851	-35.523	-0.322	0.174
-443.836	-200.000	0.047	0.271
-442.822	-200.000	0.016	-0.486
-441.807	102.271	-0.094	-0.110
-440.792	83.572	-0.162	0.176
-439.778	-63.027	0.333	0.137
-438.763	-41.319	0.179	0.092
-437.749	98.562	0.117	0.134
-436.734	-43.279	0.008	0.004
-435.719	-200.000	0.001	0.205
-434.705	51.382	0.159	0.150
-433.690	46.068	0.160	-0.147
-432.676	757.054	0.072	-0.195
-431.661	-143.266	-0.158	-0.015
-430.646	-25.348	-0.149	0.088
-429.632	800.000	-0.103	0.433
-428.617	-159.138	0.145	0.008
-427.603	166.351	0.233	-0.328
-426.588	-200.000	-0.002	-0.063
-425.573	-123.207	-0.104	-0.017
-424.559	-33.286	0.549	-0.302
-423.544	-129.693	0.022	-0.003
-422.530	-153.302	-0.368	0.026
-421.515	-62.993	0.083	-0.034
-420.500	18.537	-0.274	-0.218
-419.486	59.780	-0.230	0.226
-418.471	800.000	-0.070	-0.278
-417.457	235.088	0.010	0.016
-416.442	-133.576	0.192	0.024
-415.428	170.539	-0.197	0.281
-414.413	-140.408	0.431	-0.045
-413.398	-200.000	-0.050	0.327
-412.384	327.144	0.024	-0.045
-411.369	800.000	0.022	-0.079
-410.355	-107.401	0.222	0.048
-409.340	-28.981	-0.194	-0.110
-408.325	-138.730	-0.370	0.040
-407.311	-86.680	-0.139	0.042
-406.296	409.466	-0.039	0.081
-405.282	59.877	-0.245	-0.241
-404.267	-98.174	-0.344	0.088
-403.252	98.962	0.155	0.178
-402.238	-200.000	0.033	-0.177
-401.223	-200.000	-0.027	0.242
-400.209	33.266	0.085	0.074
-399.194	-13.016	0.365	0.236
-398.179	369.081	0.029	0.058
-397.165	69.082	-0.175	-0.179
-396.150	800.000	0.050	-0.187
-395.136	116.075	-0.030	-0.036
-394.121	-50.625	-0.112	0.052
-393.106	-11.423	0.071	0.047
-392.092	-104.093	0.392	0.090
-391.077	35.104	-0.129	-0.112
-390.063	800.000	-0.076	0.247
-389.048	-81.359	-0.236	0.077
-388.033	131.610	-0.120	0.153
-387.019	193.777	0.213	-0.319
-386.004	800.000	-0.042	0.182
-384.990	115.691	0.332	0.403
-383.975	20.247	-0.148	0.118
-382.960	-83.198	0.113	-0.036
-381.946	-200.000	0.024	0.144
-380.931	143.128	-0.035	0.046
-379.917	270.226	-0.109	-0.190
-378.902	-139.760	-0.318	0.033
-377.888	95.248	-0.155	-0.175
-376.873	-14.540	0.117	0.074
-375.858	129.855	-0.098	0.125
-374.844	-2.690	0.095	0.066
-373.829	678.876	-0.059	-0.153
-372.815	27.048	0.212	-0.176
-371.800	-200.000	0.029	-0.135
-370.785	-200.000	0.038	0.477
-369.771	589.623	0.136	-0.331
-368.756	-107.371	-0.033	0.007
-367.742	217.662	-0.102	-0.161
-366.727	-71.150	0.043	-0.016
-365.712	178.165	-0.109	-0.157
-364.698	-200.000	-0.021	-0.134
-363.683	-193.209	0.084	0.001
-362.669	76.077	-0.179	0.188
-361.654	-81.762	0.226	0.073
-360.639	-126.920	-0.335	0.049
-359.625	247.065	0.174	0.291
-358.610	-46.438	-0.157	0.076
-357.596	-200.000	-0.011	-0.195
-356.581	-200.000	-0.015	-0.186
-355.566	98.944	0.053	-0.060
-354.552	-88.412	0.298	-0.088
-353.537	-124.553	-0.049	-0.008
-352.523	444.368	0.121	-0.264
-351.508	89.035	0.013	0.015
-350.493	-60.511	-0.200	-0.084
-349.479	-44.628	-0.143	-0.071
-348.464	552.016	0.118	-0.280
-347.450	-188.435	0.095	0.001
-346.435	-200.000	-0.007	0.030
-345.420	30.599	-0.081	-0.069
-344.406	-105.824	0.170	-0.038
-343.391	-30.252	-0.135	0.076
-342.377	-28.573	0.368	0.210
-341.362	116.866	0.145	0.176
-340.348	-134.676	0.163	-0.020
-339.333	-34.246	0.062	-0.034
-338.318	-75.862	-0.318	-0.111
-337.304	8.499	-0.249	0.186
-336.289	-40.037	-0.363	-0.187
-335.275	-29.849	-0.064	-0.036
-334.260	-110.892	0.360	-0.073
-333.245	784.420	-0.088	-0.239
-332.231	20.238	0.239	0.191
-331.216	-140.168	-0.392	0.041
-330.202	800.000	0.018	0.060
-329.187	-81.266	0.333	0.109
-328.172	-71.251	0.055	0.021
-327.158	79.541	-0.070	0.074
-326.143	20.341	0.123	-0.098
-325.129	-116.746	0.380	-0.069
-324.114	-200.000	-0.055	0.410
-323.099	413.002	-0.084	-0.176
-322.085	130.242	0.076	-0.096
-321.070	253.333	0.063	-0.107
-320.056	18.524	-0.104	-0.083
-319.041	800.000	0.131	0.418
-318.026	-200.000	0.040	0.189
-317.012	800.000	0.060	-0.197
-315.997	-112.673	0.250	-0.049
-314.983	38.132	-0.133	0.117
-313.968	-200.000	-0.036	0.379
-312.953	-200.000	0.074	-0.329
-311.939	127.406	-0.061	-0.077
-310.924	-120.389	0.334	-0.056
-309.910	800.000	0.080	0.252
-308.895	-200.000	0.003	0.153
-307.880	-125.631	-0.112	0.017
-306.866	446.086	0.070	0.153
-305.851	123.515	0.277	0.343
-304.837	3.219	0.162	0.117
-303.822	-67.335	0.232	0.090
-302.807	-200.000	-0.019	-0.094
-301.793	165.748	-0.004	-0.005
-300.778	226.991	0.087	0.140
-299.764	-55.870	0.150	-0.066
-298.749	738.862	0.054	-0.144
-297.735	-200.000	0.008	0.072
-296.720	-200.000	-0.005	0.420
-295.705	178.192	0.073	0.106
-294.691	-45.574	0.069	0.034
-293.676	-133.288	-0.121	-0.015
-292.662	105.830	-0.080	0.093
-291.647	-200.000	0.013	-0.057
-290.632	800.000	-0.055	-0.152
-289.618	628.202	0.086	0.214
-288.603	82.467	-0.163	0.175
-287.589	-116.347	0.160	-0.029
-286.574	-187.006	0.196	-0.003
-285.559	367.161	-0.131	-0.262
-284.545	258.469	0.140	0.239
-283.530	38.729	-0.206	0.182
-282.516	-23.609	0.232	0.138
-281.501	-116.664	-0.296	-0.054
-280.486	465.862	-0.091	0.200
-279.472	-57.447	0.019	-0.008
-278.457	-200.000	-0.013	0.265
-277.443	-200.000	-0.006	-0.204
-276.428	17.713	0.130	0.102
-275.413	546.973	-0.055	0.129
-274.399	-200.000	0.001	0.242
-273.384	457.087	-0.096	-0.211
-272.370	151.797	0.254	-0.342
-271.355	104.348	0.124	-0.144
-270.340	-200.000	0.003	-0.093
-269.326	-40.404	0.225	-0.116
-268.311	212.285	-0.170	-0.264
-267.297	800.000	0.063	0.214
-266.282	69.661	0.119	0.121
-265.267	525.876	-0.082	-0.192
-264.253	29.650	-0.076	0.064
-263.238	-54.104	-0.104	0.047
-262.224	-27.373	0.073	0.042
-261.209	192.213	-0.098	-0.147
-260.195	-37.540	0.134	0.071
-259.180	-122.291	0.132	0.021
-258.165	-200.000	0.042	0.202
-257.151	-3.366	-0.345	0.237
-256.136	173.779	0.102	0.145
-255.122	175.885	-0.038	0.054
-254.107	43.584	0.203	0.183
-253.092	308.681	0.173	0.320
-252.078	-77.964	0.357	0.122
-251.063	-25.352	0.091	-0.053
-250.049	32.074	0.099	0.085
-249.034	127.906	-0.166	-0.208
-248.019	191.857	0.135	0.201
-247.005	436.808	-0.093	0.201
-245.990	377.144	-0.064	-0.129
-244.976	-160.988	-0.159	-0.008
-243.961	800.000	-0.066	0.259
-242.946	-8.814	-0.079	-0.052
-241.932	-200.000	-0.012	-0.157
-240.917	294.277	0.051	-0.092
-239.903	250.231	0.179	-0.300
-238.888	-159.475	0.133	-0.007
-237.873	79.430	0.278	0.294
-236.859	-39.407	0.255	0.132
-235.844	207.674	0.152	0.235
-234.830	98.068	0.152	0.173
-233.815	221.994	0.120	-0.190
-232.800	63.440	0.226	-0.224
-231.786	800.000	0.136	-0.466
-230.771	-200.000	-0.015	0.398
-229.757	-200.000	-0.020	0.151
-228.742	31.374	0.114	0.097
-227.727	-195.613	-0.063	-0.000
-226.713	-200.000	0.047	0.278
-225.698	-200.000	0.065	0.000
-224.684	147.481	0.162	0.215
-223.669	-85.512	-0.039	0.012
-222.655	-200.000	-0.011	0.113
-221.640	77.350	-0.065	-0.069
-220.625	162.139	-0.127	-0.176
-219.611	11.349	0.109	-0.083
-218.596	-78.892	0.044	-0.015
-217.582	341.374	0.051	0.098
-216.567	503.031	-0.079	-0.181
-215.552	-40.391	-0.104	0.053
-214.538	800.000	0.103	-0.305
-213.523	45.700	0.123	-0.112
-212.509	-117.260	-0.204	-0.037
-211.494	-25.816	-0.127	0.074
-210.479	800.000	0.152	0.430
-209.465	800.000	0.046	-0.156
-208.450	-84.518	-0.368	0.114
-207.436	-200.000	0.025	0.152
-206.421	62.000	0.088	0.087
-205.406	-150.693	-0.284	0.021
-204.392	-49.545	-0.170	-0.080
-203.377	-200.000	-0.050	-0.258
-202.363	-83.808	0.357	-0.112
-201.348	-200.000	0.044	0.212
-200.333	-11.900	-0.102	0.066
-199.319	-200.000	-0.033	-0.197
-198.304	-51.385	-0.289	0.133
-197.290	-200.000	-0.091	0.000
-196.275	-200.000	0.016	-0.177
-195.260	-112.198	-0.157	0.031
-194.246	44.811	0.221	-0.201
-193.231	30.131	-0.248	-0.208
-192.217	32.479	-0.184	-0.157
-191.202	-79.535	-0.022	-0.007
-190.187	398.148	-0.103	-0.213
-189.173	800.000	-0.059	-0.193
-188.158	5.117	-0.456	-0.331
-187.144	443.121	-0.065	-0.140
-186.129	-54.154	0.350	0.157
-185.114	-40.042	0.075	-0.038
-184.100	-53.586	0.228	0.103
-183.085	800.000	0.029	0.099
-182.071	16.939	-0.093	0.073
-181.056	201.526	-0.017	-0.026
-180.042	8.168	0.259	-0.191
-179.027	-200.000	-0.007	0.033
-178.012	-98.381	-0.272	0.069
-176.998	-71.809	-0.045	0.016
-175.983	-120.937	0.286	-0.047
-174.969	-140.786	-0.096	0.010
-173.954	-115.541	-0.291	0.054
-172.939	130.960	-0.092	-0.116
-171.925	-76.460	0.274	-0.095
-170.910	800.000	-0.068	0.187
-169.896	-34.397	0.131	-0.071
-168.881	-29.623	0.156	-0.088
-167.866	-96.789	0.174	-0.045
-166.852	128.072	0.197	0.247
-165.837	-88.082	-0.206	-0.061
-164.823	355.216	-0.111	-0.217
-163.808	-200.000	0.007	0.077
-162.793	-200.000	0.009	-0.218
-161.779	-69.337	0.212	0.080
-160.764	-200.000	0.029	-0.210
-159.750	-56.118	0.067	0.029
-158.735	642.919	-0.121	0.303
-157.720	9.871	0.181	0.135
-156.706	-200.000	0.038	0.251
-155.691	115.672	0.073	-0.087
-154.677	34.093	-0.127	0.109
-153.662	-108.555	0.132	0.028
-152.647	-18.706	0.107	0.066
-151.633	508.957	0.016	0.038
-150.618	800.000	-0.050	0.155
-149.604	800.000	-0.178	-0.553
-148.589	381.605	0.137	-0.276
-147.574	-200.000	0.003	0.129
-146.560	130.859	-0.092	0.116
-145.545	73.404	-0.135	0.139
-144.531	284.958	-0.202	-0.357
-143.516	105.374	0.099	0.115
-142.502	243.709	0.045	-0.074
-141.487	20.392	0.351	0.279
-140.472	579.268	0.071	0.170
-139.458	-200.000	-0.059	-0.264
-138.443	221.195	-0.100	-0.158
-137.429	-200.000	0.016	-0.086
-136.414	-48.419	0.191	-0.090
-135.399	557.315	-0.009	0.021
-134.385	800.000	-0.145	-0.397
-133.370	800.000	0.042	-0.169
-132.356	21.254	0.130	-0.104
-131.341	-56.265	0.197	0.086
-130.326	-200.000	-0.067	-0.343
-129.312	-22.186	-0.391	0.233
-128.297	800.000	0.116	-0.390
-127.283	-118.804	0.141	0.024
-126.268	-119.178	0.112	0.019
-125.253	81.399	-0.161	-0.171
-124.239	378.197	-0.172	0.346
-123.224	-180.632	0.365	0.007
-122.210	52.758	0.050	-0.047
