DTS Sentinel unit serial number:	SN413079Multiplexer serial number:	ORYXHardware model number:	OX4-SRSoftware version number:	ORYX F/W v4.00 Oryx Data Collector v3.7.2.0data status	okinstallation	princeton_trtdifferential loss correction	single-endedforward channel	channel 2reverse channel	N/Adate	2019/09/16time	06:27:34forward acquisition time	60.00reverse acquisition time	0.00gamma	496.2192k internal	0.2334k external	0.2334temperature offset calibration	0.9981default loss term (dB/km)	0.3790temperature slope calibration	1.0000multiplexer offset coefficient	1.0000multiplexer slope coefficient	1.0000fibre end	0.00T internal ref (°C)	27.37T ext. ref 1 (°C)	11.36T ext. ref 2 (°C)	21.71length (m)	temperature (°C)	Stokes	anti-Stokes-747.200	-29.557	0.110	-0.063
-746.185	-190.958	-0.151	-0.002
-745.171	-181.759	0.133	0.003
-744.156	217.146	-0.135	0.216
-743.142	257.475	-0.035	-0.061
-742.127	800.000	-0.061	0.171
-741.112	480.409	0.161	-0.366
-740.098	-200.000	0.005	-0.048
-739.083	184.958	0.273	-0.407
-738.069	-37.453	-0.356	-0.191
-737.054	-140.833	0.411	0.043
-736.039	-63.058	0.047	-0.020
-735.025	54.598	0.188	0.182
-734.010	-121.889	-0.099	-0.016
-732.996	-78.925	0.220	0.075
-731.981	29.890	-0.060	-0.051
-730.966	-200.000	-0.009	0.269
-729.952	42.729	-0.031	-0.029
-728.937	-200.000	0.012	0.100
-727.923	121.749	-0.214	0.269
-726.908	43.710	0.074	-0.068
-725.894	93.339	-0.053	-0.061
-724.879	-57.004	0.145	0.064
-723.864	187.137	-0.196	-0.294
-722.850	-200.000	-0.011	0.117
-721.835	265.392	-0.180	0.314
-720.821	-22.196	-0.211	0.128
-719.806	800.000	-0.059	-0.219
-718.791	-32.752	0.222	0.124
-717.777	-65.261	-0.176	-0.071
-716.762	324.704	-0.099	0.190
-715.748	-56.304	0.132	0.059
-714.733	-65.257	-0.242	-0.098
-713.718	49.517	0.206	0.195
-712.704	135.091	-0.118	0.154
-711.689	-200.000	0.038	-0.191
-710.675	6.643	-0.119	0.089
-709.660	-94.540	-0.205	-0.056
-708.645	36.686	0.350	0.310
-707.631	-98.214	-0.190	-0.049
-706.616	-43.446	-0.262	-0.133
-705.602	67.358	-0.072	0.073
-704.587	-63.998	0.068	0.028
-703.572	195.651	-0.045	-0.068
-702.558	37.479	-0.099	0.088
-701.543	-30.536	-0.388	0.221
-700.529	27.229	0.217	-0.183
-699.514	-16.048	-0.261	0.167
-698.499	-200.000	-0.019	-0.105
-697.485	707.859	0.130	0.345
-696.470	-200.000	0.033	-0.236
-695.456	-200.000	-0.024	-0.151
-694.441	-35.015	-0.060	0.033
-693.426	570.936	-0.188	-0.458
-692.412	192.296	0.159	0.241
-691.397	-200.000	0.038	-0.239
-690.383	-200.000	0.052	-0.275
-689.368	-200.000	0.049	-0.361
-688.354	14.884	-0.140	-0.110
-687.339	157.759	-0.140	0.195
-686.324	17.503	-0.280	-0.223
-685.310	175.616	0.226	-0.329
-684.295	466.516	-0.142	0.320
-683.281	-97.831	0.251	-0.065
-682.266	75.142	-0.327	0.346
-681.251	162.666	0.104	0.147
-680.237	-32.605	-0.361	0.202
-679.222	37.111	-0.098	-0.087
-678.208	-31.904	-0.078	0.044
-677.193	-42.961	-0.283	-0.144
-676.178	94.030	0.162	0.184
-675.164	160.583	-0.114	0.159
-674.149	-185.372	0.084	-0.001
-673.135	209.021	-0.041	-0.065
-672.120	651.145	-0.093	-0.239
-671.105	-200.000	0.013	0.289
-670.091	781.771	-0.114	-0.312
-669.076	48.675	-0.047	-0.044
-668.062	-200.000	-0.088	0.000
-667.047	147.936	-0.288	0.390
-666.032	-73.657	0.560	0.204
-665.018	32.706	0.194	-0.168
-664.003	92.664	-0.157	0.178
-662.989	800.000	0.210	0.687
-661.974	251.150	-0.116	-0.197
-660.959	234.439	-0.159	-0.263
-659.945	122.428	0.200	0.251
-658.930	-154.091	-0.091	-0.006
-657.916	800.000	-0.077	0.249
-656.901	800.000	-0.108	0.423
-655.886	267.614	-0.275	0.482
-654.872	-125.947	-0.505	0.076
-653.857	47.915	-0.497	0.465
-652.843	-99.274	0.328	0.083
-651.828	85.789	-0.080	0.089
-650.814	149.405	0.404	-0.548
-649.799	800.000	0.022	-0.083
-648.784	-200.000	0.010	0.229
-647.770	-64.345	-0.219	-0.089
-646.755	112.326	-0.066	-0.080
-645.741	123.899	0.271	0.341
-644.726	-200.000	0.022	0.293
-643.711	12.278	0.026	0.020
-642.697	-143.292	0.051	0.005
-641.682	87.731	0.106	-0.117
-640.668	45.585	0.116	-0.107
-639.653	42.901	-0.072	-0.066
-638.638	-6.533	0.103	0.070
-637.624	180.479	-0.046	0.068
-636.609	127.256	0.069	-0.088
-635.595	119.231	0.086	-0.106
-634.580	-200.000	-0.008	0.235
-633.565	-200.000	0.042	-0.336
-632.551	-117.024	-0.010	-0.002
-631.536	-6.779	-0.184	0.125
-630.522	68.302	0.347	-0.356
-629.507	-78.068	-0.420	0.145
-628.492	-200.000	0.007	0.261
-627.478	-200.000	0.028	0.200
-626.463	76.759	0.178	-0.189
-625.449	-78.463	0.090	0.031
-624.434	-45.255	-0.216	0.107
-623.419	-39.036	-0.079	-0.041
-622.405	-200.000	0.269	0.000
-621.390	-127.436	0.033	-0.005
-620.376	493.409	0.164	0.377
-619.361	-200.000	0.003	-0.381
-618.346	800.000	0.159	-0.452
-617.332	-200.000	-0.052	0.459
-616.317	-200.000	0.022	-0.096
-615.303	-71.488	0.313	-0.117
-614.288	800.000	-0.052	-0.184
-613.273	-99.622	0.243	-0.061
-612.259	32.443	-0.144	0.125
-611.244	64.470	-0.153	0.154
-610.230	375.948	-0.124	-0.253
-609.215	-40.944	-0.149	0.077
-608.201	-200.000	-0.012	0.158
-607.186	-179.015	-0.084	-0.002
-606.171	800.000	-0.040	0.115
-605.157	638.968	-0.170	-0.432
-604.142	42.421	0.288	-0.262
-603.128	61.266	0.256	0.254
-602.113	800.000	-0.032	0.120
-601.098	-36.704	0.127	-0.068
-600.084	800.000	-0.098	-0.390
-599.069	256.550	-0.213	-0.366
-598.055	-162.737	0.158	0.008
-597.040	-167.765	-0.033	-0.001
-596.025	-194.947	0.072	-0.001
-595.011	249.870	-0.229	-0.388
-593.996	-40.604	0.134	0.069
-592.982	-27.973	0.180	-0.104
-591.967	126.264	0.158	0.199
-590.952	-30.824	0.254	0.144
-589.938	85.797	0.118	-0.129
-588.923	-200.000	0.054	-0.278
-587.909	-176.261	-0.382	0.010
-586.894	-25.213	0.237	0.140
-585.879	423.070	0.042	0.090
-584.865	-146.358	-0.222	-0.019
-583.850	515.671	-0.167	0.390
-582.836	230.280	0.046	0.075
-581.821	-200.000	0.058	-0.316
-580.806	-162.590	0.025	0.001
-579.792	-27.126	-0.112	0.065
-578.777	11.660	0.304	-0.233
-577.763	-98.206	0.122	0.031
-576.748	20.117	0.318	0.256
-575.733	800.000	-0.069	-0.198
-574.719	-200.000	0.014	-0.084
-573.704	705.021	0.108	-0.285
-572.690	-131.581	-0.294	-0.039
-571.675	-200.000	0.013	-0.192
-570.661	-200.000	-0.025	0.146
-569.646	235.794	-0.072	0.120
-568.631	800.000	0.042	-0.177
-567.617	148.830	-0.110	0.149
-566.602	-70.050	-0.175	-0.067
-565.588	-86.092	-0.143	0.044
-564.573	109.750	-0.069	0.082
-563.558	800.000	-0.037	0.130
-562.544	468.550	-0.025	-0.057
-561.529	800.000	-0.037	0.125
-560.515	133.906	-0.170	0.220
-559.500	33.151	-0.280	0.243
-558.485	-200.000	-0.101	0.487
-557.471	703.130	-0.064	0.168
-556.456	61.822	0.149	-0.148
-555.442	-93.929	0.098	-0.027
-554.427	-200.000	-0.015	-0.205
-553.412	800.000	-0.127	0.414
-552.398	17.964	0.381	-0.303
-551.383	-132.848	0.015	0.002
-550.369	800.000	-0.085	-0.277
-549.354	78.244	-0.192	-0.204
-548.339	-167.051	0.457	0.019
-547.325	-13.928	-0.163	-0.105
-546.310	-69.060	-0.217	0.083
-545.296	517.641	0.162	0.377
-544.281	-69.168	0.139	-0.053
-543.266	-200.000	-0.016	0.181
-542.252	140.761	-0.029	-0.038
-541.237	72.420	0.271	-0.282
-540.223	349.392	-0.178	-0.350
-539.208	114.276	0.153	-0.186
-538.193	36.352	0.131	-0.116
-537.179	-158.576	-0.251	0.014
-536.164	94.409	0.360	-0.408
-535.150	-125.820	-0.219	0.033
-534.135	-58.473	-0.135	0.058
-533.121	117.621	0.150	-0.185
-532.106	-200.000	-0.033	-0.203
-531.091	-79.433	0.216	-0.073
-530.077	434.903	0.132	-0.287
-529.062	418.816	-0.046	0.098
-528.048	-40.325	-0.081	-0.042
-527.033	510.930	0.036	0.082
-526.018	-24.982	-0.166	-0.098
-525.004	223.314	-0.054	0.087
-523.989	-137.650	-0.482	-0.054
-522.975	800.000	0.095	-0.313
-521.960	-76.598	-0.189	-0.066
-520.945	-131.297	-0.157	-0.021
-519.931	-123.172	0.113	0.018
-518.916	574.739	0.117	-0.285
-517.902	32.488	0.219	-0.188
-516.887	-98.286	-0.161	0.041
-515.872	84.495	-0.172	-0.187
-514.858	309.615	-0.057	0.107
-513.843	665.262	0.052	-0.133
-512.829	-200.000	0.011	-0.249
-511.814	-101.050	-0.212	0.052
-510.799	-18.827	-0.119	-0.074
-509.785	238.899	0.231	-0.383
-508.770	-200.000	-0.004	0.155
-507.756	-27.317	0.061	0.035
-506.741	800.000	0.028	0.079
-505.726	413.338	-0.033	-0.070
-504.712	-175.049	-0.303	-0.008
-503.697	-200.000	0.048	-0.387
-502.683	800.000	0.051	0.158
-501.668	142.536	0.091	0.120
-500.653	-155.434	-0.293	0.019
-499.639	-200.000	0.021	0.481
-498.624	-81.189	0.453	-0.149
-497.610	339.835	0.104	-0.201
-496.595	563.945	-0.148	0.356
-495.581	-167.823	-0.369	-0.014
-494.566	32.951	0.237	-0.204
-493.551	34.635	-0.174	0.152
-492.537	-200.000	-0.028	-0.169
-491.522	27.297	-0.415	-0.347
-490.508	-200.000	0.005	-0.115
-489.493	0.597	-0.131	0.093
-488.478	-77.489	-0.213	-0.074
-487.464	181.823	0.044	-0.065
-486.449	-120.235	0.265	-0.045
-485.435	283.826	-0.108	-0.193
-484.420	-200.000	0.008	-0.105
-483.405	-23.635	0.199	-0.119
-482.391	800.000	0.034	0.136
-481.376	-121.143	-0.262	0.044
-480.362	-200.000	0.040	-0.298
-479.347	-173.444	-0.191	-0.006
-478.332	-148.865	0.042	-0.003
-477.318	4.959	0.173	0.127
-476.303	-70.896	-0.141	-0.053
-475.289	-200.000	-0.006	-0.031
-474.274	100.785	0.222	0.257
-473.259	340.835	0.152	0.296
-472.245	162.870	-0.343	0.479
-471.230	-83.801	0.142	0.045
-470.216	453.967	-0.146	0.321
-469.201	-105.827	0.215	0.048
-468.186	-15.065	0.353	-0.225
-467.172	-97.735	0.436	0.112
-466.157	800.000	0.174	0.573
-465.143	186.515	-0.212	0.314
-464.128	-31.920	-0.147	-0.082
-463.113	-200.000	0.007	-0.038
-462.099	-1.257	-0.094	0.066
-461.084	-200.000	0.003	0.166
-460.070	257.132	-0.052	-0.088
-459.055	115.503	0.053	0.065
-458.040	48.873	0.216	-0.201
-457.026	-200.000	0.005	-0.184
-456.011	-200.000	-0.021	0.230
-454.997	-200.000	0.009	-0.046
-453.982	9.984	-0.100	-0.075
-452.968	-106.238	0.086	-0.019
-451.953	198.671	0.067	-0.102
-450.938	71.526	-0.222	0.229
-449.924	-103.348	0.259	-0.061
-448.909	800.000	-0.014	-0.040
-447.895	-200.000	-0.068	-0.367
-446.880	50.871	0.046	-0.043
-445.865	-81.507	-0.334	0.109
-444.851	147.297	0.122	-0.163
-443.836	-200.000	0.015	-0.084
-442.822	-40.929	-0.092	-0.047
-441.807	88.961	0.174	0.192
-440.792	-200.000	-0.044	0.268
-439.778	66.367	0.180	-0.182
-438.763	-94.702	0.334	0.090
-437.749	100.638	-0.155	-0.179
-436.734	76.123	0.107	-0.113
-435.719	20.500	0.112	-0.090
-434.705	240.582	-0.176	-0.292
-433.690	-200.000	-0.081	0.472
-432.676	38.663	-0.363	0.322
-431.661	142.604	0.079	0.104
-430.646	-25.675	0.081	0.047
-429.632	-200.000	-0.016	0.316
-428.617	-200.000	-0.004	0.288
-427.603	181.000	0.126	0.183
-426.588	118.099	0.187	-0.229
-425.573	308.439	-0.124	0.230
-424.559	170.734	-0.268	0.381
-423.544	-200.000	0.015	-0.135
-422.530	-99.518	0.297	-0.074
-421.515	-30.888	0.106	-0.059
-420.500	-108.504	0.177	0.038
-419.486	800.000	0.034	0.116
-418.471	729.932	-0.185	0.491
-417.457	-163.657	-0.270	0.013
-416.442	-57.784	-0.080	0.035
-415.428	118.979	-0.162	-0.198
-414.413	800.000	-0.050	-0.203
-413.398	256.435	0.069	0.118
-412.384	438.119	-0.076	-0.164
-411.369	468.833	-0.038	0.086
-410.355	-64.700	-0.245	-0.098
-409.340	800.000	-0.064	-0.186
-408.325	-119.682	0.345	0.059
-407.311	56.192	-0.264	-0.254
-406.296	165.020	0.174	0.243
-405.282	-113.356	0.124	-0.024
-404.267	-105.508	-0.252	0.057
-403.252	-71.471	-0.100	0.037
-402.238	196.444	0.050	-0.075
-401.223	25.713	0.118	-0.098
-400.209	115.799	0.139	0.169
-399.194	800.000	0.065	0.226
-398.179	-200.000	-0.003	-0.188
-397.165	88.208	-0.201	0.222
-396.150	800.000	-0.125	0.348
-395.136	189.184	-0.202	-0.300
-394.121	468.150	0.081	0.180
-393.106	-49.326	0.044	0.021
-392.092	-200.000	-0.011	-0.157
-391.077	-200.000	0.094	0.449
-390.063	-112.090	0.347	0.069
-389.048	166.791	-0.126	-0.177
-388.033	800.000	-0.070	-0.223
-387.019	432.827	0.090	-0.194
-386.004	41.827	-0.103	-0.093
-384.990	-200.000	-0.008	0.357
-383.975	-115.696	-0.311	0.058
-382.960	-200.000	-0.037	0.317
-381.946	184.035	0.024	0.035
-380.931	315.571	0.070	-0.132
-379.917	800.000	0.095	0.265
-378.902	719.000	0.079	0.209
-377.888	104.838	0.143	0.167
-376.873	800.000	0.103	0.304
-375.858	-101.570	0.258	-0.062
-374.844	407.568	0.042	0.087
-373.829	-134.352	0.478	0.058
-372.815	-37.747	-0.367	-0.194
-371.800	568.882	-0.034	0.081
-370.785	255.291	0.037	-0.063
-369.771	-200.000	0.039	0.171
-368.756	17.272	0.062	-0.049
-367.742	-105.654	0.115	-0.026
-366.727	386.782	-0.204	-0.417
-365.712	470.983	0.076	0.169
-364.698	429.504	0.164	0.350
-363.683	-140.351	-0.253	-0.026
-362.669	-181.309	-0.177	0.003
-361.654	-16.022	0.329	-0.207
-360.639	-53.532	-0.269	0.122
-359.625	-200.000	0.041	0.266
-358.610	-79.409	-0.283	-0.095
-357.596	25.231	0.336	0.276
-356.581	-97.234	0.126	-0.032
-355.566	138.674	0.085	-0.110
-354.552	-74.501	0.167	0.060
-353.537	-65.780	0.121	0.048
-352.523	-200.000	0.001	0.106
-351.508	405.271	-0.056	-0.117
-350.493	-30.340	0.238	-0.134
-349.479	70.917	-0.257	0.264
-348.464	62.653	0.180	-0.179
-347.450	-200.000	0.008	0.082
-346.435	800.000	-0.117	-0.430
-345.420	466.836	-0.189	-0.418
-344.406	-59.552	-0.169	0.072
-343.391	-63.574	-0.104	-0.042
-342.377	-122.771	-0.090	-0.014
-341.362	800.000	0.081	-0.224
-340.348	-128.994	0.365	-0.051
-339.333	783.961	-0.045	0.122
-338.318	215.785	0.105	0.166
-337.304	80.887	-0.186	-0.198
-336.289	-200.000	-0.018	-0.329
-335.275	11.577	-0.137	0.104
-334.260	226.361	0.257	0.412
-333.245	800.000	-0.089	0.243
-332.231	-24.470	-0.212	0.125
-331.216	-200.000	0.010	-0.198
-330.202	-117.328	-0.242	0.043
-329.187	125.218	-0.080	0.100
-328.172	109.312	-0.101	0.120
-327.158	-36.203	-0.290	-0.155
-326.143	384.461	0.132	0.269
-325.129	-61.688	0.192	-0.080
-324.114	-35.819	0.073	0.039
-323.099	34.117	-0.096	-0.083
-322.085	800.000	-0.077	0.226
-321.070	-122.972	0.254	-0.040
-320.056	-200.000	0.011	-0.215
-319.041	800.000	-0.058	-0.201
-318.026	-133.858	0.380	0.047
-317.012	-196.225	-0.167	-0.001
-315.997	8.016	0.218	-0.162
-314.983	-99.558	0.177	0.044
-313.968	-169.103	0.134	0.005
-312.953	800.000	0.075	0.282
-311.939	188.350	-0.175	0.258
-310.924	-55.210	-0.178	-0.079
-309.910	258.719	0.095	0.162
-308.895	-200.000	-0.007	-0.235
-307.880	42.973	0.058	-0.052
-306.866	134.477	-0.273	0.349
-305.851	83.376	-0.108	0.116
-304.837	-200.000	0.002	-0.178
-303.822	-200.000	0.015	-0.318
-302.807	129.372	0.125	-0.157
-301.793	-4.087	-0.293	0.201
-300.778	205.827	0.191	-0.293
-299.764	86.461	-0.113	-0.123
-298.749	800.000	0.051	0.169
-297.735	15.096	-0.170	-0.132
-296.720	-63.541	-0.166	0.068
-295.705	-200.000	-0.037	0.178
-294.691	-200.000	-0.003	0.068
-293.676	-9.839	-0.194	0.128
-292.662	-31.365	0.096	-0.054
-291.647	-116.955	-0.139	-0.025
-290.632	-200.000	-0.021	0.196
-289.618	-4.891	0.079	0.053
-288.603	-49.430	-0.170	-0.080
-287.589	-200.000	0.008	0.286
-286.574	95.090	0.194	0.218
-285.559	-128.170	0.117	0.017
-284.545	-187.071	0.309	0.004
-283.530	800.000	-0.021	0.077
-282.516	-200.000	-0.018	0.096
-281.501	21.543	0.131	0.105
-280.486	345.063	-0.126	0.244
-279.472	-118.867	-0.159	-0.028
-278.457	-200.000	-0.073	-0.366
-277.443	206.480	0.091	0.140
-276.428	2.021	-0.418	0.298
-275.413	-70.447	0.255	-0.095
-274.399	800.000	-0.016	-0.049
-273.384	702.457	-0.119	0.310
-272.370	225.121	-0.019	-0.031
-271.355	-165.319	0.268	0.012
-270.340	157.230	0.204	0.279
-269.326	-43.918	-0.044	-0.022
-268.311	-31.428	-0.173	0.096
-267.297	800.000	0.031	0.092
-266.282	-200.000	-0.032	-0.192
-265.267	-92.466	-0.128	-0.035
-264.253	354.816	-0.061	-0.120
-263.238	-119.117	0.283	0.049
-262.224	-171.881	-0.273	0.009
-261.209	800.000	-0.110	-0.342
-260.195	214.175	0.088	0.137
-259.180	267.500	-0.082	-0.141
-258.165	-200.000	-0.009	-0.049
-257.151	-200.000	0.019	0.113
-256.136	-53.034	-0.100	-0.045
-255.122	178.439	-0.128	-0.184
-254.107	800.000	0.080	-0.295
-253.092	258.094	0.050	0.085
-252.078	134.872	0.067	0.086
-251.063	143.442	0.084	-0.110
-250.049	-10.747	0.241	-0.157
-249.034	-139.441	-0.202	-0.021
-248.019	-144.288	0.481	-0.044
-247.005	800.000	0.033	0.100
-245.990	175.079	-0.160	0.229
-244.976	-60.572	-0.235	-0.098
-243.961	-172.897	-0.086	-0.003
-242.946	394.808	-0.088	-0.181
-241.932	528.906	-0.144	-0.335
-240.917	484.782	0.169	-0.379
-239.903	-26.268	-0.183	-0.106
-238.888	-133.889	-0.175	0.021
-237.873	-200.000	-0.016	0.346
-236.859	800.000	0.069	-0.191
-235.844	-200.000	-0.005	0.366
-234.830	-68.111	0.119	0.046
-233.815	-6.462	-0.349	-0.234
-232.800	800.000	-0.092	-0.344
-231.786	67.215	-0.063	0.063
-230.771	705.439	0.079	0.205
-229.757	112.668	0.100	0.120
-228.742	-14.615	-0.165	-0.104
-227.727	-36.341	0.375	0.199
-226.713	66.654	-0.047	0.047
-225.698	800.000	0.061	0.197
-224.684	-124.074	-0.387	-0.060
-223.669	-200.000	0.017	-0.122
-222.655	205.936	-0.108	-0.166
-221.640	287.220	-0.069	0.123
-220.625	160.044	0.084	-0.115
-219.611	147.745	0.140	-0.186
-218.596	226.218	0.199	-0.317
-217.582	-142.299	0.315	-0.031
-216.567	-200.000	0.004	-0.143
-215.552	-101.572	0.216	0.052
-214.538	-71.488	-0.095	-0.035
-213.523	-46.592	-0.261	-0.126
-212.509	-200.000	-0.015	-0.138
-211.494	57.967	-0.115	0.111
-210.479	-189.215	0.250	-0.003
-209.465	189.578	0.098	0.145
-208.450	-200.000	0.021	0.123
-207.436	12.186	0.065	-0.049
-206.421	235.923	-0.064	-0.104
-205.406	-46.857	0.048	0.023
-204.392	-200.000	0.007	-0.035
-203.377	183.303	-0.096	-0.140
-202.363	128.916	0.192	0.241
-201.348	-8.604	0.123	0.081
-200.333	126.519	-0.047	-0.058
-199.319	-200.000	0.016	-0.116
-198.304	52.297	-0.123	-0.115
-197.290	442.604	0.060	-0.130
-196.275	-200.000	0.004	-0.111
-195.260	800.000	-0.066	-0.222
-194.246	-0.890	0.364	0.253
-193.231	800.000	-0.114	0.333
-192.217	-41.355	-0.140	-0.071
-191.202	111.441	-0.087	0.103
-190.187	-174.321	-0.085	0.002
-189.173	-102.539	-0.065	0.015
-188.158	114.421	-0.205	-0.245
-187.144	-159.451	-0.090	0.005
-186.129	-35.420	0.065	-0.035
-185.114	-38.744	-0.308	0.160
-184.100	-113.947	-0.185	-0.035
-183.085	-200.000	0.012	-0.067
-182.071	84.068	0.140	-0.151
-181.056	-200.000	-0.038	0.208
-180.042	-115.422	0.081	0.015
-179.027	-200.000	0.032	0.360
-178.012	-188.021	0.313	-0.004
-176.998	-0.628	-0.035	-0.024
-175.983	-149.921	0.290	0.022
-174.969	700.750	-0.077	-0.200
-173.954	408.880	-0.071	-0.147
-172.939	160.599	-0.207	-0.283
-171.925	800.000	0.071	-0.227
-170.910	-103.259	0.397	0.092
-169.896	50.209	0.206	-0.192
-168.881	31.325	-0.416	0.352
-167.866	-200.000	-0.003	-0.235
-166.852	16.934	0.057	-0.044
-165.837	-99.611	-0.269	0.066
-164.823	-200.000	0.051	0.362
-163.808	-200.000	-0.011	0.108
-162.793	-200.000	0.003	0.157
-161.779	-48.608	-0.183	-0.086
-160.764	800.000	0.028	-0.087
-159.750	-146.300	-0.222	-0.019
-158.735	-81.254	0.151	-0.049
-157.720	160.325	0.211	-0.289
-156.706	-102.404	-0.062	-0.015
-155.691	-126.892	0.328	0.047
-154.677	31.958	-0.043	-0.036
-153.662	236.895	-0.156	0.253
-152.647	-126.939	-0.147	-0.021
-151.633	-200.000	-0.006	0.255
-150.618	-45.482	0.342	-0.166
-149.604	91.921	-0.114	-0.126
-148.589	800.000	-0.087	0.252
-147.574	18.861	0.174	-0.137
-146.560	-126.993	0.078	0.011
-145.545	-200.000	-0.014	-0.078
-144.531	54.264	0.160	-0.151
-143.516	72.827	0.263	0.270
-142.502	20.854	0.247	-0.196
-141.487	27.477	-0.180	0.148
-140.472	-200.000	-0.026	0.149
-139.458	-200.000	-0.006	-0.041
-138.443	192.999	0.076	-0.113
-137.429	83.263	-0.156	0.167
-136.414	501.440	0.131	0.296
-135.399	-200.000	0.053	0.304
-134.385	-8.232	-0.249	-0.165
-133.370	20.621	0.016	-0.012
-132.356	-54.596	0.077	-0.034
-131.341	-10.394	-0.074	-0.048
-130.326	32.537	0.127	-0.108
-129.312	-142.041	0.290	0.028
-128.297	217.911	-0.097	0.152
-127.283	202.612	0.284	0.430
-126.268	-21.896	-0.180	-0.107
-125.253	-81.244	-0.197	-0.064
-124.239	-152.614	-0.094	0.007
-123.224	504.054	0.154	0.349
-122.210	106.088	0.039	-0.046
