DTS Sentinel unit serial number:	SN413079Multiplexer serial number:	ORYXHardware model number:	OX4-SRSoftware version number:	ORYX F/W v4.00 Oryx Data Collector v3.7.2.0data status	okinstallation	princeton_trtdifferential loss correction	single-endedforward channel	channel 2reverse channel	N/Adate	2019/09/13time	06:51:35forward acquisition time	60.00reverse acquisition time	0.00gamma	496.2192k internal	0.2338k external	0.2338temperature offset calibration	1.0196default loss term (dB/km)	0.3790temperature slope calibration	1.0000multiplexer offset coefficient	1.0000multiplexer slope coefficient	1.0000fibre end	0.00T internal ref (°C)	26.00T ext. ref 1 (°C)	4.13T ext. ref 2 (°C)	20.66length (m)	temperature (°C)	Stokes	anti-Stokes-747.200	-97.585	-0.260	0.068
-746.185	499.357	-0.071	-0.165
-745.171	-200.000	0.063	-0.340
-744.156	462.281	0.150	0.337
-743.142	-88.918	0.343	0.102
-742.127	147.914	-0.139	0.188
-741.112	-105.042	-0.248	0.057
-740.098	365.595	-0.134	0.270
-739.083	-53.111	0.023	0.011
-738.069	-200.000	-0.026	-0.131
-737.054	76.163	0.154	-0.163
-736.039	-43.955	-0.197	-0.099
-735.025	157.509	-0.154	0.214
-734.010	-200.000	0.012	-0.158
-732.996	37.644	-0.162	-0.144
-731.981	377.673	0.065	-0.134
-730.966	-34.599	0.188	-0.103
-729.952	-19.099	-0.132	0.082
-728.937	-77.871	-0.243	0.084
-727.923	415.524	0.103	-0.220
-726.908	241.436	0.038	0.064
-725.894	-14.670	-0.292	0.188
-724.879	-200.000	-0.044	-0.222
-723.864	168.317	0.056	-0.080
-722.850	-119.087	0.195	-0.034
-721.835	-23.435	-0.230	-0.138
-720.821	-70.120	0.084	-0.032
-719.806	52.261	0.124	-0.118
-718.791	-187.371	0.078	-0.001
-717.777	-92.056	-0.097	0.027
-716.762	-62.714	0.018	-0.007
-715.748	62.893	-0.343	0.344
-714.733	297.535	-0.220	-0.405
-713.718	-117.566	-0.159	0.029
-712.704	30.792	-0.075	-0.064
-711.689	-200.000	-0.059	-0.360
-710.675	-150.464	-0.521	-0.040
-709.660	182.401	0.077	0.114
-708.645	223.170	0.076	0.122
-707.631	455.433	-0.098	0.219
-706.616	665.021	-0.112	0.289
-705.602	465.150	-0.144	-0.323
-704.587	443.761	0.058	0.127
-703.572	13.384	-0.316	0.246
-702.558	-135.979	0.178	-0.021
-701.543	20.503	-0.118	-0.096
-700.529	-200.000	-0.042	-0.200
-699.514	-34.907	-0.177	-0.097
-698.499	-200.000	0.015	-0.088
-697.485	171.507	-0.069	0.099
-696.470	10.850	-0.246	-0.188
-695.456	-93.164	-0.145	-0.040
-694.441	23.485	0.107	-0.088
-693.426	-200.000	0.029	-0.141
-692.412	110.952	-0.177	-0.214
-691.397	308.525	0.186	-0.348
-690.383	-98.459	-0.159	-0.041
-689.368	194.438	-0.203	-0.307
-688.354	12.192	-0.071	-0.055
-687.339	-21.804	-0.409	0.249
-686.324	-191.018	-0.184	0.002
-685.310	-107.549	-0.144	-0.032
-684.295	-200.000	-0.051	-0.365
-683.281	3.196	0.142	-0.103
-682.266	-118.194	-0.328	0.058
-681.251	-3.151	-0.138	0.096
-680.237	800.000	-0.127	-0.391
-679.222	-101.339	-0.157	-0.038
-678.208	-175.739	-0.370	-0.010
-677.193	-200.000	0.012	-0.229
-676.178	10.547	0.041	-0.031
-675.164	272.576	0.068	-0.120
-674.149	103.517	0.215	0.252
-673.135	-137.759	0.210	0.024
-672.120	466.696	0.086	-0.193
-671.105	-5.253	-0.214	-0.147
-670.091	-133.392	-0.146	-0.018
-669.076	55.635	-0.298	-0.289
-668.062	36.698	-0.191	-0.169
-667.047	-46.618	0.162	0.079
-666.032	-35.598	0.262	0.142
-665.018	-63.764	0.223	-0.091
-664.003	233.477	0.092	-0.152
-662.989	-200.000	-0.032	0.320
-661.974	23.726	-0.241	-0.198
-660.959	-200.000	0.032	0.370
-659.945	168.213	-0.189	0.269
-658.930	-22.034	-0.135	-0.082
-657.916	-200.000	0.000	-0.100
-656.901	-74.398	-0.160	0.058
-655.886	-159.918	0.439	0.024
-654.872	-200.000	0.038	-0.328
-653.857	179.148	-0.185	0.270
-652.843	193.914	0.033	-0.050
-651.828	-200.000	0.021	0.207
-650.814	59.989	-0.146	-0.144
-649.799	296.496	-0.085	-0.156
-648.784	-45.510	0.172	-0.085
-647.770	-200.000	-0.006	-0.428
-646.755	-38.823	-0.301	0.159
-645.741	-200.000	0.004	-0.623
-644.726	-44.043	-0.119	0.060
-643.711	-200.000	0.017	0.100
-642.697	57.113	-0.252	0.246
-641.682	72.441	-0.061	-0.064
-640.668	-46.069	0.138	-0.068
-639.653	-189.499	0.116	-0.001
-638.638	761.979	-0.067	0.182
-637.624	-80.523	-0.428	-0.143
-636.609	-142.180	-0.073	-0.007
-635.595	66.518	-0.219	-0.223
-634.580	18.573	0.217	0.173
-633.565	73.301	-0.122	-0.128
-632.551	-126.667	0.253	-0.037
-631.536	357.201	-0.034	0.068
-630.522	-146.939	-0.160	-0.014
-629.507	800.000	-0.131	-0.449
-628.492	54.562	0.269	-0.259
-627.478	-107.443	-0.194	0.043
-626.463	-6.628	0.175	-0.119
-625.449	29.531	-0.113	-0.096
-624.434	800.000	0.040	-0.165
-623.419	-108.242	-0.068	-0.015
-622.405	559.729	0.157	0.379
-621.390	110.429	0.070	-0.084
-620.376	-39.012	0.189	0.099
-619.361	-200.000	-0.005	0.033
-618.346	-135.331	-0.096	-0.012
-617.332	276.779	-0.173	0.308
-616.317	239.277	0.243	0.404
-615.303	97.921	-0.035	-0.040
-614.288	-95.866	-0.078	-0.021
-613.273	800.000	-0.043	0.166
-612.259	278.530	0.168	-0.299
-611.244	-200.000	0.062	0.291
-610.230	-152.024	-0.077	0.006
-609.215	-200.000	-0.052	-0.351
-608.201	-114.589	-0.388	-0.074
-607.186	-108.106	0.085	0.018
-606.171	-86.725	0.278	-0.085
-605.157	73.852	-0.141	0.148
-604.142	-137.818	0.264	0.029
-603.128	240.216	-0.075	0.124
-602.113	-200.000	-0.062	-0.359
-601.098	-200.000	0.013	-0.266
-600.084	-13.194	0.186	-0.120
-599.069	70.538	0.210	0.217
-598.055	-200.000	0.016	-0.473
-597.040	55.830	0.190	0.184
-596.025	-106.780	-0.446	-0.099
-595.011	-79.557	-0.258	0.087
-593.996	585.184	0.063	-0.155
-592.982	-36.945	-0.178	-0.095
-591.967	-133.053	0.154	0.020
-590.952	800.000	-0.067	-0.280
-589.938	-101.667	-0.229	0.055
-588.923	-200.000	0.018	0.209
-587.909	-108.820	0.083	0.018
-586.894	184.777	-0.197	-0.291
-585.879	26.394	0.225	0.188
-584.865	-37.571	-0.158	-0.084
-583.850	800.000	-0.025	0.080
-582.836	64.144	0.085	0.086
-581.821	40.407	0.319	0.287
-580.806	800.000	-0.076	0.217
-579.792	-29.866	-0.086	-0.049
-578.777	326.065	-0.193	0.369
-577.763	223.828	-0.044	0.071
-576.748	-96.875	-0.271	0.071
-575.733	188.421	0.137	-0.204
-574.719	800.000	0.112	0.413
-573.704	54.269	-0.176	-0.169
-572.690	800.000	0.077	-0.218
-571.675	-39.415	-0.225	-0.117
-570.661	74.813	-0.242	0.254
-569.646	-8.418	0.121	0.081
-568.631	-81.616	-0.071	-0.023
-567.617	-187.427	-0.327	-0.004
-566.602	2.373	-0.196	0.141
-565.588	-90.798	0.226	-0.065
-564.573	-200.000	-0.006	-0.105
-563.558	-200.000	0.009	0.266
-562.544	-160.021	0.082	0.004
-561.529	153.784	-0.075	0.103
-560.515	52.905	0.183	0.174
-559.500	242.908	-0.132	-0.221
-558.485	-200.000	-0.053	-0.333
-557.471	455.872	-0.134	-0.296
-556.456	-139.279	0.216	0.023
-555.442	-27.365	-0.267	0.155
-554.427	116.960	0.146	0.179
-553.412	-200.000	0.068	-0.300
-552.398	-200.000	-0.002	-0.092
-551.383	109.783	-0.153	-0.182
-550.369	-200.000	0.034	-0.247
-549.354	-85.331	0.268	0.083
-548.339	490.633	-0.114	-0.259
-547.325	-200.000	0.043	0.332
-546.310	342.444	-0.051	-0.099
-545.296	-200.000	-0.032	-0.431
-544.281	-200.000	-0.054	-0.422
-543.266	800.000	-0.049	0.152
-542.252	-112.434	-0.072	-0.014
-541.237	-173.807	-0.118	0.003
-540.223	-76.187	0.150	-0.053
-539.208	755.448	0.117	-0.314
-538.193	-138.673	-0.070	-0.008
-537.179	-1.474	0.325	-0.228
-536.164	-119.606	-0.146	-0.025
-535.150	39.373	0.211	-0.188
-534.135	-109.615	-0.267	0.056
-533.121	325.695	-0.140	0.267
-532.106	-93.140	-0.465	0.129
-531.091	92.357	-0.128	0.143
-530.077	-171.770	-0.395	0.013
-529.062	42.241	0.206	-0.187
-528.048	-200.000	0.027	-0.181
-527.033	-26.311	-0.139	-0.081
-526.018	-200.000	0.009	-0.217
-525.004	-60.216	-0.329	-0.140
-523.989	-200.000	-0.003	-0.031
-522.975	120.742	0.138	0.170
-521.960	-174.659	-0.042	0.001
-520.945	190.711	-0.079	-0.118
-519.931	33.108	-0.213	-0.184
-518.916	-39.894	0.057	-0.030
-517.902	266.257	0.060	0.105
-516.887	213.162	0.125	-0.197
-515.872	800.000	0.031	0.101
-514.858	-135.384	0.172	0.020
-513.843	-62.789	-0.462	-0.190
-512.829	-200.000	-0.040	-0.258
-511.814	119.256	0.225	-0.277
-510.799	32.258	-0.055	0.047
-509.785	-103.987	-0.204	0.047
-508.770	-35.100	0.144	-0.078
-507.756	800.000	-0.047	-0.158
-506.741	207.423	-0.166	-0.257
-505.726	-142.255	-0.101	0.010
-504.712	-200.000	0.033	-0.179
-503.697	74.071	0.183	-0.190
-502.683	654.849	-0.105	0.268
-501.668	716.862	-0.020	0.052
-500.653	-58.968	-0.371	-0.159
-499.639	28.002	0.120	0.101
-498.624	-20.942	-0.206	0.125
-497.610	-25.182	-0.462	-0.272
-496.595	342.792	-0.054	0.105
-495.581	-191.579	0.253	0.003
-494.566	15.867	-0.232	0.182
-493.551	-148.087	0.122	0.010
-492.537	-79.993	-0.247	-0.082
-491.522	-97.071	0.199	-0.052
-490.508	-109.085	-0.199	-0.042
-489.493	174.729	0.115	0.166
-488.478	-88.875	-0.251	0.074
-487.464	-111.019	0.319	-0.065
-486.449	-8.171	0.197	-0.132
-485.435	-200.000	-0.006	-0.049
-484.420	800.000	-0.062	0.226
-483.405	190.924	-0.112	-0.167
-482.391	-200.000	0.359	0.002
-481.376	292.974	-0.149	-0.270
-480.362	-155.966	-0.251	0.016
-479.347	-38.338	-0.188	-0.099
-478.332	-200.000	0.037	0.219
-477.318	-33.790	0.137	-0.075
-476.303	-56.374	0.288	0.127
-475.289	362.586	-0.102	0.204
-474.274	-5.671	0.230	0.157
-473.259	20.277	-0.100	-0.080
-472.245	62.037	0.068	0.068
-471.230	59.438	-0.327	0.320
-470.216	490.533	-0.031	-0.070
-469.201	-10.957	-0.216	-0.142
-468.186	-35.745	-0.197	0.106
-467.172	615.692	-0.111	0.276
-466.157	-51.490	-0.313	-0.145
-465.143	579.352	-0.028	0.068
-464.128	180.507	-0.012	0.018
-463.113	-62.458	0.216	-0.089
-462.099	69.803	-0.192	-0.196
-461.084	192.217	-0.225	0.337
-460.070	336.215	0.100	0.192
-459.055	-35.029	0.250	-0.135
-458.040	59.593	-0.256	-0.251
-457.026	-130.206	0.307	-0.041
-456.011	-73.040	-0.160	-0.058
-454.997	4.005	0.082	0.060
-453.982	-123.786	0.206	-0.032
-452.968	-70.317	0.231	-0.087
-451.953	-173.148	0.251	-0.008
-450.938	-200.000	-0.003	0.015
-449.924	-200.000	-0.011	-0.109
-448.909	-33.361	0.143	-0.079
-447.895	-70.011	0.236	0.089
-446.880	54.592	-0.091	-0.087
-445.865	-80.260	0.476	-0.158
-444.851	356.889	0.141	0.279
-443.836	-32.301	0.198	0.109
-442.822	-200.000	-0.002	0.242
-441.807	21.599	-0.138	-0.111
-440.792	-24.478	-0.239	0.141
-439.778	-12.650	0.091	-0.059
-438.763	-19.747	0.145	-0.089
-437.749	-85.367	0.065	-0.020
-436.734	28.128	-0.024	0.020
-435.719	3.590	-0.125	0.090
-434.705	14.855	0.306	0.237
-433.690	449.309	0.083	-0.180
-432.676	-150.856	0.176	-0.013
-431.661	182.789	0.059	-0.086
-430.646	142.446	0.079	-0.104
-429.632	-118.090	-0.322	0.057
-428.617	-200.000	-0.038	-0.263
-427.603	-147.125	0.297	-0.025
-426.588	71.651	0.060	-0.062
-425.573	314.545	-0.170	0.316
-424.559	489.985	-0.077	0.173
-423.544	436.226	-0.084	-0.182
-422.530	78.605	0.007	0.008
-421.515	21.286	0.066	0.053
-420.500	-147.013	0.308	-0.026
-419.486	298.986	-0.067	0.122
-418.471	-34.857	-0.170	0.092
-417.457	171.391	-0.121	-0.172
-416.442	285.006	0.168	0.300
-415.428	-200.000	-0.021	-0.156
-414.413	100.957	-0.078	-0.090
-413.398	800.000	-0.111	-0.348
-412.384	-101.417	-0.458	-0.111
-411.369	265.759	-0.009	-0.015
-410.355	622.502	0.147	-0.366
-409.340	205.285	0.149	-0.230
-408.325	-200.000	-0.009	0.194
-407.311	5.729	-0.150	-0.110
-406.296	-71.034	0.079	-0.029
-405.282	-200.000	0.004	0.213
-404.267	-52.790	-0.192	0.088
-403.252	800.000	0.120	0.390
-402.238	-123.465	0.238	0.038
-401.223	-36.837	0.213	0.113
-400.209	-200.000	0.025	0.258
-399.194	246.619	0.057	0.096
-398.179	11.402	0.114	0.087
-397.165	-146.619	0.274	-0.024
-396.150	354.356	0.080	-0.158
-395.136	-78.956	0.189	-0.064
-394.121	-71.599	0.273	0.101
-393.106	-104.968	0.157	0.036
-392.092	-156.011	0.265	0.017
-391.077	-131.944	-0.142	-0.018
-390.063	158.931	-0.078	0.107
-389.048	-145.710	-0.110	-0.010
-388.033	182.046	0.044	-0.064
-387.019	-200.000	-0.036	0.374
-386.004	-184.869	-0.256	-0.004
-384.990	791.727	0.054	-0.147
-383.975	-200.000	0.023	0.345
-382.960	173.832	-0.204	-0.291
-381.946	-200.000	-0.043	-0.201
-380.931	82.523	0.065	0.070
-379.917	84.557	0.184	-0.199
-378.902	-54.668	-0.300	-0.134
-377.888	88.370	0.145	0.159
-376.873	-40.096	0.332	0.171
-375.858	-161.166	0.271	-0.014
-374.844	26.427	0.183	0.151
-373.829	-200.000	0.028	0.220
-372.815	216.413	-0.127	0.200
-371.800	-149.238	-0.207	0.016
-370.785	741.600	0.111	-0.295
-369.771	-200.000	-0.033	-0.379
-368.756	-34.563	-0.261	-0.141
-367.742	-98.739	0.408	0.103
-366.727	-91.888	0.257	0.072
-365.712	98.341	-0.298	-0.340
-364.698	-2.636	-0.209	0.145
-363.683	593.578	-0.030	0.072
-362.669	-84.877	-0.246	-0.076
-361.654	1.178	0.102	0.073
-360.639	-68.379	-0.214	0.082
-359.625	-80.319	0.267	0.088
-358.610	-165.557	-0.167	0.007
-357.596	-94.138	-0.169	0.046
-356.581	-200.000	-0.063	0.482
-355.566	152.879	-0.148	0.199
-354.552	-92.283	0.293	-0.082
-353.537	165.331	0.034	-0.047
-352.523	-18.240	0.112	0.069
-351.508	175.741	0.150	-0.215
-350.493	-78.833	-0.228	-0.077
-349.479	52.072	-0.214	-0.202
-348.464	66.734	-0.135	-0.135
-347.450	776.921	-0.042	0.112
-346.435	-200.000	-0.039	-0.172
-345.420	-65.954	-0.282	0.111
-344.406	189.718	0.107	0.158
-343.391	253.869	-0.135	-0.228
-342.377	800.000	0.038	-0.164
-341.362	800.000	0.049	0.205
-340.348	-200.000	0.049	0.216
-339.333	270.389	0.036	0.062
-338.318	52.712	-0.143	0.135
-337.304	27.963	0.199	0.165
-336.289	411.500	0.090	-0.188
-335.275	-47.883	-0.263	0.126
-334.260	-7.111	-0.227	0.152
-333.245	362.809	-0.082	-0.163
-332.231	98.782	0.240	0.273
-331.216	800.000	0.052	-0.141
-330.202	20.961	0.125	-0.100
-329.187	111.630	-0.136	-0.162
-328.172	-46.225	0.337	-0.164
-327.158	-23.135	0.296	-0.176
-326.143	-86.081	-0.509	0.155
-325.129	-65.283	0.422	0.168
-324.114	800.000	-0.092	0.323
-323.099	-166.309	0.246	-0.010
-322.085	800.000	0.028	-0.079
-321.070	-200.000	0.020	0.124
-320.056	-74.573	0.174	-0.062
-319.041	800.000	-0.034	-0.094
-318.026	-91.455	0.178	-0.050
-317.012	800.000	0.037	-0.146
-315.997	-118.194	0.200	0.035
-314.983	-80.010	0.139	0.046
-313.968	-10.974	-0.061	-0.040
-312.953	-200.000	-0.008	-0.169
-311.939	-124.608	0.162	0.025
-310.924	-124.572	-0.063	0.010
-309.910	102.279	-0.262	-0.302
-308.895	-200.000	-0.009	0.421
-307.880	-4.112	0.128	-0.087
-306.866	169.809	-0.134	0.188
-305.851	-122.492	0.375	0.060
-304.837	-8.338	-0.167	0.111
-303.822	-132.168	-0.071	0.009
-302.807	-200.000	0.007	-0.055
-301.793	51.966	-0.261	0.245
-300.778	735.773	-0.116	-0.306
-299.764	-21.834	-0.230	-0.138
-298.749	39.766	-0.073	0.065
-297.735	49.144	-0.273	0.253
-296.720	800.000	0.136	0.373
-295.705	-62.685	0.112	0.046
-294.691	91.356	-0.076	0.084
-293.676	313.223	0.091	-0.168
-292.662	-1.394	0.186	-0.130
-291.647	-63.013	0.091	0.037
-290.632	-118.087	-0.242	-0.043
-289.618	800.000	-0.044	-0.142
-288.603	-43.007	0.237	0.119
-287.589	46.586	0.074	-0.068
-286.574	-200.000	-0.032	0.307
-285.559	58.928	-0.097	0.094
-284.545	-163.996	-0.143	-0.007
-283.530	169.851	0.044	0.063
-282.516	-200.000	0.005	0.366
-281.501	104.448	0.066	-0.077
-280.486	-17.138	-0.104	0.065
-279.472	-200.000	0.003	0.022
-278.457	-200.000	-0.054	0.274
-277.443	-103.199	0.213	0.049
-276.428	-158.855	0.169	0.009
-275.413	22.777	-0.258	-0.209
-274.399	-200.000	0.022	0.160
-273.384	-6.310	-0.246	0.166
-272.370	199.850	0.145	0.220
-271.355	21.957	0.024	-0.019
-270.340	-7.360	-0.117	0.078
-269.326	-116.913	0.291	-0.052
-268.311	762.336	0.031	-0.084
-267.297	225.889	0.124	0.197
-266.282	-93.509	0.030	-0.008
-265.267	800.000	-0.047	-0.171
-264.253	164.321	-0.117	0.162
-263.238	800.000	0.069	0.191
-262.224	97.259	-0.103	0.116
-261.209	102.659	0.208	0.240
-260.195	396.987	-0.032	-0.066
-259.180	97.947	-0.140	-0.158
-258.165	-200.000	-0.056	-0.321
-257.151	-69.120	0.182	-0.069
-256.136	-125.201	0.393	0.059
-255.122	-33.341	-0.175	-0.095
-254.107	735.651	0.094	-0.248
-253.092	-200.000	-0.055	-0.577
-252.078	-72.204	-0.501	0.183
-251.063	-140.779	-0.128	-0.013
-250.049	-158.094	0.303	-0.018
-249.034	-200.000	0.029	-0.316
-248.019	389.314	-0.136	-0.277
-247.005	-56.520	-0.157	0.068
-245.990	507.870	0.045	-0.104
-244.976	243.230	0.095	0.156
-243.961	397.615	-0.092	-0.188
-242.946	-200.000	0.050	-0.218
-241.932	-43.775	0.324	-0.161
-240.917	115.610	-0.110	-0.133
-239.903	-111.495	0.314	0.063
-238.888	11.635	-0.070	0.053
-237.873	-35.864	-0.245	0.130
-236.859	111.327	-0.123	0.146
-235.844	-177.989	0.526	-0.012
-234.830	3.333	0.328	0.235
-233.815	130.632	0.049	0.062
-232.800	291.670	0.105	0.187
-231.786	-200.000	-0.046	0.231
-230.771	800.000	-0.118	0.346
-229.757	800.000	0.068	0.204
-228.742	-57.209	-0.316	-0.137
-227.727	-200.000	0.007	0.156
-226.713	-60.926	0.185	-0.077
-225.698	146.064	0.201	-0.265
-224.684	-11.758	-0.248	0.160
-223.669	60.146	-0.132	0.128
-222.655	-85.279	-0.259	-0.080
-221.640	242.676	0.161	0.264
-220.625	-200.000	-0.049	-0.286
-219.611	-200.000	-0.005	-0.054
-218.596	312.410	-0.035	0.064
-217.582	89.395	-0.149	0.163
-216.567	-60.002	0.384	-0.161
-215.552	218.790	0.146	0.230
-214.538	109.903	-0.177	0.208
-213.523	-65.114	0.045	0.018
-212.509	-169.504	-0.374	-0.013
-211.494	-144.104	0.398	-0.037
-210.479	2.156	0.216	-0.154
-209.465	-14.810	0.237	-0.150
-208.450	-79.202	-0.186	0.062
-207.436	-116.877	-0.249	0.045
-206.421	-39.001	-0.153	-0.079
-205.406	90.287	-0.146	0.160
-204.392	125.192	0.145	0.180
-203.377	-34.442	0.286	-0.154
-202.363	-9.200	0.283	0.186
-201.348	-200.000	-0.015	0.082
-200.333	125.422	0.192	0.238
-199.319	87.213	0.167	0.182
-198.304	-200.000	-0.035	0.250
-197.290	-154.391	-0.216	-0.014
-196.275	79.761	0.033	-0.035
-195.260	-26.121	0.184	-0.106
-194.246	-154.643	-0.249	0.016
-193.231	46.393	0.163	-0.148
-192.217	-98.116	-0.089	0.022
-191.202	-200.000	-0.020	-0.277
-190.187	98.349	0.092	0.104
-189.173	-89.724	0.083	-0.024
-188.158	187.941	-0.152	0.223
-187.144	23.093	-0.179	-0.144
-186.129	46.185	0.184	-0.168
-185.114	121.967	0.176	0.216
-184.100	586.876	-0.097	-0.234
-183.085	39.032	0.099	-0.087
-182.071	250.385	0.224	0.373
-181.056	-46.698	-0.284	0.136
-180.042	-24.342	0.225	-0.132
-179.027	-200.000	-0.016	-0.131
-178.012	-33.302	-0.164	-0.089
-176.998	-140.251	0.228	-0.023
-175.983	800.000	0.107	-0.388
-174.969	198.265	0.128	-0.192
-173.954	591.163	0.140	0.338
-172.939	-131.456	0.332	-0.043
-171.925	34.024	0.042	0.036
-170.910	-91.862	-0.038	-0.011
-169.896	213.864	0.256	0.397
-168.881	134.976	0.104	-0.132
-167.866	117.794	-0.185	0.224
-166.852	-199.057	0.142	-0.001
-165.837	800.000	0.046	0.132
-164.823	800.000	-0.112	0.333
-163.808	205.433	0.032	0.049
-162.793	25.606	-0.132	0.107
-161.779	177.143	-0.113	-0.161
-160.764	-200.000	0.018	0.204
-159.750	251.644	0.150	0.250
-158.735	-157.698	-0.165	-0.010
-157.720	800.000	-0.088	0.276
-156.706	34.383	-0.174	-0.149
-155.691	-13.230	-0.096	-0.061
-154.677	30.380	0.204	0.171
-153.662	116.024	-0.136	-0.163
-152.647	800.000	-0.028	-0.104
-151.633	-46.413	0.065	0.031
-150.618	560.089	0.092	0.219
-149.604	11.482	0.093	-0.070
-148.589	-101.802	0.083	0.020
-147.574	37.527	0.036	0.031
-146.560	166.579	-0.099	0.138
-145.545	800.000	0.065	-0.276
-144.531	-96.610	0.298	0.077
-143.516	-200.000	-0.016	0.227
-142.502	36.206	-0.123	-0.106
-141.487	-37.935	-0.198	0.103
-140.472	-52.744	0.426	0.192
-139.458	-49.751	0.085	-0.040
-138.443	-200.000	-0.005	0.075
-137.429	-135.863	-0.120	0.014
-136.414	400.090	-0.143	0.294
-135.399	17.970	-0.431	-0.336
-134.385	-88.110	-0.149	-0.044
-133.370	487.594	0.091	0.203
-132.356	698.101	0.101	-0.259
-131.341	-200.000	-0.014	0.098
-130.326	93.424	0.085	0.094
-129.312	-22.183	0.093	-0.055
-128.297	-22.697	0.215	-0.127
-127.283	337.708	-0.006	0.012
-126.268	507.914	-0.120	-0.273
-125.253	-87.751	0.176	-0.052
-124.239	66.714	-0.403	-0.401
-123.224	-104.374	0.144	-0.033
-122.210	-200.000	0.047	0.212
-121.195	-38.204	0.092	-0.048
