DTS Sentinel unit serial number:	SN413079Multiplexer serial number:	ORYXHardware model number:	OX4-SRSoftware version number:	ORYX F/W v4.00 Oryx Data Collector v3.7.2.0data status	okinstallation	princeton_trtdifferential loss correction	single-endedforward channel	channel 2reverse channel	N/Adate	2019/09/16time	09:11:34forward acquisition time	60.00reverse acquisition time	0.00gamma	496.2192k internal	0.2324k external	0.2324temperature offset calibration	0.9970default loss term (dB/km)	0.3790temperature slope calibration	1.0000multiplexer offset coefficient	1.0000multiplexer slope coefficient	1.0000fibre end	0.00T internal ref (°C)	30.98T ext. ref 1 (°C)	12.11T ext. ref 2 (°C)	28.27length (m)	temperature (°C)	Stokes	anti-Stokes-747.200	800.000	0.017	-0.077
-746.185	-200.000	-0.045	0.320
-745.171	23.173	-0.037	0.030
-744.156	-200.000	0.064	0.551
-743.142	26.416	-0.019	0.016
-742.127	460.931	-0.102	0.230
-741.112	115.795	-0.162	-0.200
-740.098	-68.050	-0.416	0.164
-739.083	577.453	-0.035	-0.087
-738.069	800.000	0.020	0.066
-737.054	615.263	0.104	0.262
-736.039	800.000	0.107	0.310
-735.025	289.325	0.034	0.062
-734.010	0.749	-0.434	-0.314
-732.996	39.588	-0.275	-0.249
-731.981	-200.000	-0.014	0.326
-730.966	266.328	-0.075	0.132
-729.952	84.538	-0.187	-0.206
-728.937	-78.238	0.084	-0.029
-727.923	-200.000	-0.061	-0.303
-726.908	5.164	-0.113	-0.084
-725.894	-78.734	-0.118	-0.041
-724.879	224.291	-0.111	-0.181
-723.864	-60.324	0.090	-0.039
-722.850	-39.770	0.035	-0.018
-721.835	-200.000	0.024	0.211
-720.821	-38.821	-0.142	-0.075
-719.806	-200.000	0.023	-0.113
-718.791	-200.000	0.043	-0.438
-717.777	-56.740	0.154	0.069
-716.762	-82.362	-0.189	-0.062
-715.748	-43.370	0.049	-0.025
-714.733	131.689	0.203	0.263
-713.718	45.351	0.135	0.126
-712.704	-37.028	-0.064	-0.034
-711.689	-117.197	-0.236	-0.043
-710.675	-18.437	0.391	0.246
-709.660	-41.351	0.210	-0.109
-708.645	-30.199	-0.380	-0.218
-707.631	-200.000	0.028	-0.211
-706.616	-143.622	-0.084	0.008
-705.602	-143.836	-0.312	0.030
-704.587	-28.254	0.191	0.111
-703.572	-200.000	0.009	-0.073
-702.558	-157.783	-0.209	0.013
-701.543	-200.000	0.042	-0.231
-700.529	153.179	-0.109	0.150
-699.514	-164.766	-0.253	0.011
-698.499	800.000	0.094	0.302
-697.485	372.513	-0.160	-0.328
-696.470	-55.724	0.098	-0.044
-695.456	64.431	-0.281	0.285
-694.441	-108.573	0.336	-0.073
-693.426	-11.474	-0.110	0.073
-692.412	472.762	-0.139	-0.315
-691.397	-27.482	0.128	-0.075
-690.383	-79.513	0.151	0.051
-689.368	-200.000	-0.012	0.163
-688.354	168.314	-0.153	0.219
-687.339	-4.731	-0.040	-0.028
-686.324	546.289	0.114	0.275
-685.310	-200.000	-0.008	0.160
-684.295	775.253	0.070	0.192
-683.281	92.946	0.275	0.313
-682.266	-183.986	-0.347	0.006
-681.251	800.000	0.013	0.046
-680.237	64.974	0.392	-0.399
-679.222	-103.625	-0.165	-0.039
-678.208	700.998	-0.128	-0.339
-677.193	2.474	-0.123	-0.090
-676.178	255.505	0.072	0.124
-675.164	800.000	0.056	0.210
-674.149	53.343	-0.190	-0.183
-673.135	-50.242	-0.194	-0.092
-672.120	48.860	0.109	0.103
-671.105	-145.809	0.292	0.026
-670.091	242.512	0.092	0.154
-669.076	800.000	0.038	0.158
-668.062	315.554	0.039	0.075
-667.047	258.072	-0.161	-0.280
-666.032	2.481	-0.085	-0.062
-665.018	108.145	-0.116	-0.139
-664.003	-200.000	-0.012	0.109
-662.989	123.571	0.068	-0.086
-661.974	126.049	-0.169	0.215
-660.959	-16.777	-0.249	0.158
-659.945	-88.629	-0.390	-0.117
-658.930	800.000	-0.113	0.331
-657.916	-25.480	0.113	0.067
-656.901	136.904	-0.218	0.287
-655.886	-200.000	-0.077	-0.360
-654.872	-200.000	-0.066	-0.371
-653.857	168.127	0.188	0.269
-652.843	800.000	-0.085	0.304
-651.828	-188.733	0.090	0.001
-650.814	-200.000	-0.017	-0.227
-649.799	-33.725	0.191	-0.106
-648.784	-200.000	0.003	-0.074
-647.770	590.457	-0.085	0.210
-646.755	-200.000	-0.016	-0.238
-645.741	-83.251	0.270	-0.087
-644.726	-77.788	-0.203	0.071
-643.711	640.577	-0.023	-0.059
-642.697	106.735	-0.126	-0.150
-641.682	-198.208	-0.265	0.002
-640.668	35.879	-0.171	-0.151
-639.653	-200.000	0.045	0.231
-638.638	-200.000	0.030	-0.150
-637.624	108.785	-0.025	0.030
-636.609	207.012	0.229	0.358
-635.595	-60.540	-0.052	-0.022
-634.580	395.326	0.053	0.111
-633.565	800.000	-0.049	-0.136
-632.551	593.793	0.035	-0.087
-631.536	-167.359	-0.273	-0.011
-630.522	166.762	-0.115	0.164
-629.507	-99.545	0.187	-0.047
-628.492	37.360	-0.057	0.050
-627.478	367.670	-0.142	-0.287
-626.463	-113.665	-0.199	0.039
-625.449	-54.953	-0.246	-0.112
-624.434	-200.000	-0.031	-0.145
-623.419	800.000	0.027	-0.106
-622.405	-35.888	0.140	-0.076
-621.390	-48.677	-0.143	-0.069
-620.376	-88.897	-0.285	-0.085
-619.361	-200.000	-0.006	-0.214
-618.346	-200.000	-0.067	0.464
-617.332	-150.444	0.091	-0.007
-616.317	-200.000	0.005	-0.096
-615.303	-200.000	-0.004	-0.057
-614.288	-196.262	-0.293	-0.002
-613.273	323.426	-0.073	-0.140
-612.259	380.176	0.163	0.336
-611.244	-37.766	-0.192	0.103
-610.230	-75.501	0.111	0.040
-609.215	-41.887	-0.341	-0.176
-608.201	-172.585	-0.151	0.005
-607.186	-200.000	-0.063	0.325
-606.171	-200.000	0.005	-0.398
-605.157	-131.076	0.312	-0.042
-604.142	224.005	0.224	0.363
-603.128	649.025	0.073	0.187
-602.113	185.423	-0.128	-0.191
-601.098	-85.713	-0.048	0.015
-600.084	-200.000	-0.017	-0.117
-599.069	15.790	0.134	0.106
-598.055	154.419	0.251	0.346
-597.040	208.783	-0.125	0.197
-596.025	-104.062	0.255	-0.060
-595.011	-200.000	0.002	0.229
-593.996	-200.000	0.012	-0.078
-592.982	-96.315	-0.307	0.082
-591.967	800.000	-0.054	0.188
-590.952	235.412	0.065	0.108
-589.938	510.922	0.150	0.350
-588.923	-91.968	0.147	-0.042
-587.909	-200.000	0.042	0.210
-586.894	82.130	-0.161	0.175
-585.879	244.012	-0.192	-0.323
-584.865	800.000	-0.067	0.241
-583.850	47.598	0.118	-0.110
-582.836	28.960	-0.129	-0.110
-581.821	439.902	-0.096	0.210
-580.806	-92.271	0.060	0.017
-579.792	-200.000	-0.046	0.267
-578.777	-25.593	-0.353	-0.209
-577.763	472.168	-0.045	-0.102
-576.748	800.000	-0.101	-0.293
-575.733	-64.383	0.315	-0.129
-574.719	796.911	0.107	-0.294
-573.704	-116.443	-0.143	-0.026
-572.690	-88.911	0.275	0.082
-571.675	800.000	0.080	-0.284
-570.661	-200.000	0.017	-0.304
-569.646	-64.867	0.175	-0.071
-568.631	-88.602	0.167	0.050
-567.617	43.445	0.032	-0.030
-566.602	800.000	0.031	-0.086
-565.588	800.000	0.041	0.128
-564.573	800.000	-0.049	0.165
-563.558	-139.750	0.073	-0.008
-562.544	800.000	0.055	-0.165
-561.529	622.147	-0.122	-0.309
-560.515	9.614	0.101	-0.077
-559.500	371.465	0.097	-0.197
-558.485	-171.161	-0.177	0.006
-557.471	314.429	-0.071	-0.134
-556.456	-197.627	0.108	0.001
-555.442	-109.429	-0.163	0.035
-554.427	37.143	-0.103	-0.091
-553.412	63.871	-0.201	0.202
-552.398	121.488	0.095	0.119
-551.383	-34.800	0.440	-0.241
-550.369	47.416	0.204	-0.191
-549.354	113.586	-0.073	0.089
-548.339	81.210	-0.175	-0.190
-547.325	-117.720	0.222	0.040
-546.310	-25.247	0.290	0.172
-545.296	-138.421	0.060	-0.007
-544.281	32.543	-0.323	0.280
-543.266	175.371	0.136	-0.198
-542.252	226.117	0.066	0.107
-541.237	-57.846	0.106	0.047
-540.223	-200.000	0.055	0.309
-539.208	-200.000	0.070	-0.524
-538.193	-80.179	0.369	-0.124
-537.179	177.170	0.206	0.300
-536.164	-117.777	-0.154	-0.028
-535.150	66.616	-0.068	0.069
-534.135	-121.074	-0.112	-0.019
-533.121	-200.000	-0.046	0.268
-532.106	-60.172	0.286	0.122
-531.091	800.000	-0.044	0.172
-530.077	-200.000	0.000	0.223
-529.062	219.060	0.142	-0.227
-528.048	199.750	0.115	-0.177
-527.033	-132.093	-0.287	-0.037
-526.018	-102.835	-0.222	-0.053
-525.004	394.669	0.198	0.413
-523.989	-15.786	0.131	-0.083
-522.975	-13.031	-0.162	0.105
-521.960	-200.000	-0.045	-0.249
-520.945	93.639	0.164	-0.186
-519.931	-141.272	0.365	-0.037
-518.916	92.247	-0.107	-0.120
-517.902	-84.115	0.205	-0.065
-516.887	-198.362	0.069	-0.000
-515.872	-54.587	0.235	0.107
-514.858	472.949	0.015	0.035
-513.843	632.677	-0.042	0.106
-512.829	117.839	-0.040	0.050
-511.814	-200.000	-0.079	0.449
-510.799	-168.814	-0.072	0.003
-509.785	800.000	0.095	-0.384
-508.770	-200.000	-0.000	-0.221
-507.756	315.136	0.062	-0.117
-506.741	800.000	0.077	0.265
-505.726	-200.000	-0.049	0.293
-504.712	472.268	0.100	-0.225
-503.697	34.077	0.258	0.224
-502.683	-54.072	0.268	0.122
-501.668	-200.000	0.010	-0.288
-500.653	-200.000	0.001	-0.012
-499.639	800.000	0.058	0.248
-498.624	133.804	-0.210	-0.271
-497.610	-127.881	-0.105	-0.015
-496.595	660.096	-0.148	-0.380
-495.581	-113.109	-0.211	-0.042
-494.566	-42.284	0.083	0.042
-493.551	-30.089	-0.126	-0.072
-492.537	800.000	-0.050	0.203
-491.522	-92.861	-0.055	-0.015
-490.508	-130.381	0.151	0.021
-489.493	-134.753	0.192	0.023
-488.478	381.423	-0.050	0.102
-487.464	-46.153	0.213	-0.105
-486.449	800.000	0.076	-0.305
-485.435	-85.611	-0.153	0.047
-484.420	127.723	-0.071	-0.091
-483.405	102.198	-0.391	-0.457
-482.391	800.000	-0.057	-0.206
-481.376	-79.829	0.129	0.043
-480.362	63.104	0.086	0.086
-479.347	-200.000	0.064	-0.357
-478.332	-109.894	0.544	-0.114
-477.318	-182.677	0.322	0.006
-476.303	-42.211	0.062	0.031
-475.289	-7.421	-0.083	0.056
-474.274	-200.000	-0.052	0.261
-473.259	137.659	-0.250	0.327
-472.245	-79.936	-0.114	0.038
-471.230	57.448	-0.170	0.166
-470.216	544.224	-0.127	-0.303
-469.201	-5.486	-0.231	0.159
-468.186	85.403	-0.096	0.105
-467.172	-102.990	0.293	-0.069
-466.157	256.571	0.087	-0.150
-465.143	-50.334	-0.361	-0.170
-464.128	-78.008	0.130	0.045
-463.113	-200.000	0.059	0.453
-462.099	22.023	0.093	0.076
-461.084	292.001	-0.123	-0.223
-460.070	-200.000	-0.081	-0.392
-459.055	-89.355	-0.597	0.175
-458.040	687.235	0.041	-0.108
-457.026	723.713	-0.019	-0.050
-456.011	-200.000	-0.017	-0.160
-454.997	32.774	-0.103	-0.089
-453.982	795.382	-0.090	-0.247
-452.968	-188.059	-0.330	-0.004
-451.953	-38.495	-0.394	0.208
-450.938	-200.000	0.001	-0.170
-449.924	-200.000	0.271	0.000
-448.909	-2.820	-0.335	0.234
-447.895	74.189	0.195	0.204
-446.880	-29.440	-0.157	-0.090
-445.865	524.400	-0.026	0.061
-444.851	138.578	-0.086	-0.113
-443.836	60.867	0.199	-0.197
-442.822	37.504	-0.052	-0.046
-441.807	-67.440	-0.534	0.209
-440.792	-200.000	-0.008	0.114
-439.778	22.146	0.153	-0.124
-438.763	56.894	-0.033	0.032
-437.749	800.000	-0.106	-0.303
-436.734	417.524	-0.059	0.126
-435.719	356.812	-0.116	0.230
-434.705	-164.597	0.067	-0.003
-433.690	32.420	-0.060	-0.052
-432.676	31.109	-0.142	0.121
-431.661	100.117	0.177	0.205
-430.646	-168.166	0.098	0.004
-429.632	232.069	-0.106	-0.173
-428.617	-99.292	0.198	0.050
-427.603	-67.680	0.160	0.063
-426.588	-102.901	0.136	0.032
-425.573	-48.511	-0.205	0.098
-424.559	-200.000	-0.024	-0.670
-423.544	20.400	0.170	-0.137
-422.530	-117.919	0.123	0.022
-421.515	-120.136	0.161	-0.028
-420.500	-200.000	-0.019	-0.173
-419.486	-170.494	-0.293	-0.010
-418.471	174.863	0.078	-0.113
-417.457	-56.033	-0.068	0.030
-416.442	-200.000	-0.023	-0.133
-415.428	-88.031	-0.106	0.032
-414.413	-146.333	-0.499	-0.044
-413.398	-200.000	0.028	-0.123
-412.384	31.489	0.208	-0.178
-411.369	-140.567	0.092	0.010
-410.355	45.004	0.142	0.130
-409.340	-200.000	0.001	0.025
-408.325	-128.294	-0.169	-0.024
-407.311	206.098	-0.082	-0.128
-406.296	-154.696	-0.131	-0.009
-405.282	-10.933	0.248	-0.163
-404.267	-125.652	-0.445	0.067
-403.252	-118.719	-0.042	-0.007
-402.238	105.571	0.112	0.131
-401.223	-200.000	-0.031	0.164
-400.209	-108.837	-0.068	0.014
-399.194	-82.369	0.206	-0.067
-398.179	-142.934	0.269	0.026
-397.165	-117.485	0.183	-0.033
-396.150	-100.075	0.085	0.021
-395.136	706.637	0.064	-0.167
-394.121	-200.000	-0.016	-0.417
-393.106	728.223	-0.087	-0.232
-392.092	-124.156	0.235	-0.037
-391.077	55.112	0.141	-0.136
-390.063	-200.000	-0.023	-0.280
-389.048	560.559	0.105	-0.253
-388.033	-200.000	-0.007	0.293
-387.019	-34.333	-0.133	-0.072
-386.004	43.981	0.204	0.186
-384.990	50.792	-0.290	-0.273
-383.975	315.818	0.150	0.282
-382.960	-200.000	-0.020	0.164
-381.946	-200.000	0.026	0.207
-380.931	-200.000	0.028	0.327
-379.917	-107.468	0.128	-0.028
-378.902	-70.572	-0.262	0.099
-377.888	-155.372	0.392	0.025
-376.873	38.590	0.202	-0.179
-375.858	178.112	0.085	0.124
-374.844	-13.837	-0.269	-0.173
-373.829	-200.000	0.007	0.262
-372.815	-200.000	0.031	0.413
-371.800	-72.458	-0.132	-0.049
-370.785	-51.123	0.194	0.091
-369.771	158.769	-0.108	0.150
-368.756	-200.000	0.003	0.116
-367.742	800.000	-0.118	0.439
-366.727	-97.826	-0.127	0.033
-365.712	-126.531	-0.363	-0.054
-364.698	723.685	0.117	0.309
-363.683	-200.000	-0.082	0.455
-362.669	2.993	0.382	0.276
-361.654	-81.616	-0.338	-0.110
-360.639	276.871	0.032	-0.057
-359.625	-98.168	-0.076	-0.019
-358.610	-52.304	-0.313	0.144
-357.596	-61.558	0.650	-0.271
-356.581	211.917	-0.083	-0.131
-355.566	-200.000	-0.020	-0.092
-354.552	43.083	0.117	-0.106
-353.537	800.000	0.045	0.163
-352.523	244.944	-0.172	0.287
-351.508	-79.881	0.082	-0.028
-350.493	80.829	-0.116	0.124
-349.479	-120.033	0.310	-0.053
-348.464	98.813	0.155	-0.178
-347.450	-50.373	-0.227	0.107
-346.435	-71.073	-0.142	0.053
-345.420	-8.731	0.078	0.052
-344.406	275.876	-0.022	0.039
-343.391	202.639	-0.177	-0.272
-342.377	3.946	0.175	-0.127
-341.362	-59.366	0.026	0.011
-340.348	675.614	0.078	0.200
-339.333	-122.087	-0.269	0.044
-338.318	17.048	-0.116	-0.091
-337.304	151.319	0.245	0.332
-336.289	65.475	-0.186	-0.187
-335.275	76.670	0.125	0.132
-334.260	-189.234	0.143	0.002
-333.245	344.763	0.220	0.429
-332.231	800.000	0.064	-0.251
-331.216	-5.834	0.015	-0.010
-330.202	442.063	0.008	-0.018
-329.187	800.000	-0.036	-0.148
-328.172	-25.838	-0.130	-0.076
-327.158	-87.223	0.081	0.024
-326.143	65.738	-0.114	-0.115
-325.129	-200.000	0.044	0.229
-324.114	424.954	-0.110	0.234
-323.099	-36.694	-0.098	-0.052
-322.085	325.516	-0.283	0.537
-321.070	-120.704	-0.271	-0.045
-320.056	55.743	0.349	-0.336
-319.041	-56.312	0.198	0.087
-318.026	-200.000	-0.030	0.289
-317.012	266.597	0.138	-0.240
-315.997	800.000	-0.027	-0.107
-314.983	-200.000	-0.022	0.181
-313.968	-200.000	-0.040	0.330
-312.953	133.866	0.121	0.155
-311.939	-13.003	-0.269	-0.173
-310.924	247.766	-0.146	-0.244
-309.910	-21.414	0.204	-0.123
-308.895	-200.000	0.009	-0.049
-307.880	-107.035	-0.277	0.061
-306.866	800.000	0.049	0.149
-305.851	197.072	0.173	0.262
-304.837	2.304	0.294	-0.211
-303.822	-119.947	-0.296	0.050
-302.807	-200.000	-0.006	0.141
-301.793	635.559	-0.091	0.229
-300.778	-171.975	-0.145	-0.005
-299.764	-42.736	-0.257	-0.130
-298.749	-100.234	-0.227	-0.056
-297.735	-31.975	0.166	0.092
-296.720	-70.647	-0.483	0.181
-295.705	-38.614	-0.522	0.274
-294.691	800.000	-0.002	0.010
-293.676	800.000	-0.058	0.203
-292.662	-200.000	0.007	-0.108
-291.647	800.000	0.116	-0.321
-290.632	39.861	0.210	-0.187
-289.618	800.000	0.157	0.455
-288.603	606.786	-0.114	-0.282
-287.589	-190.103	0.170	-0.002
-286.574	-153.764	-0.038	0.003
-285.559	309.505	-0.082	0.151
-284.545	-18.562	0.240	-0.149
-283.530	-200.000	0.064	-0.324
-282.516	-200.000	0.021	-0.485
-281.501	-103.750	-0.280	-0.065
-280.486	789.242	0.121	0.330
-279.472	306.425	0.086	-0.159
-278.457	678.844	0.078	-0.202
-277.443	475.066	0.099	0.222
-276.428	554.635	-0.054	0.128
-275.413	62.094	-0.042	-0.042
-274.399	186.832	0.158	-0.234
-273.384	-105.075	-0.202	0.046
-272.370	66.447	0.132	-0.133
-271.355	450.337	-0.159	0.348
-270.340	630.610	-0.078	0.196
-269.326	97.124	-0.138	-0.156
-268.311	144.572	-0.208	-0.275
-267.297	-200.000	0.046	0.386
-266.282	130.907	-0.180	0.229
-265.267	455.570	-0.061	0.135
-264.253	47.632	0.253	-0.234
-263.238	-122.702	-0.258	-0.041
-262.224	-200.000	-0.024	-0.124
-261.209	263.124	0.067	0.115
-260.195	40.400	-0.263	0.234
-259.180	-200.000	0.037	0.302
-258.165	-159.412	0.457	0.025
-257.151	-151.507	-0.120	0.009
-256.136	-200.000	-0.010	0.066
-255.122	800.000	0.086	0.311
-254.107	795.379	0.071	-0.194
-253.092	-20.406	0.373	-0.227
-252.078	-200.000	-0.004	0.054
-251.063	-159.748	-0.073	-0.004
-250.049	480.693	-0.119	-0.267
-249.034	106.127	-0.184	0.215
-248.019	-11.051	-0.244	-0.159
-247.005	74.636	-0.102	0.106
-245.990	-6.502	0.101	-0.068
-244.976	332.061	-0.083	-0.159
-243.961	-105.478	-0.043	0.010
-242.946	-161.562	-0.043	-0.002
-241.932	-200.000	0.021	0.120
-240.917	-32.185	0.200	-0.111
-239.903	-34.139	0.052	0.028
-238.888	-168.996	-0.138	0.005
-237.873	-63.188	0.207	0.085
-236.859	55.392	0.221	0.212
-235.844	13.770	-0.224	0.172
-234.830	-200.000	-0.022	-0.118
-233.815	75.613	0.153	-0.160
-232.800	319.066	-0.079	0.149
-231.786	-140.148	-0.072	0.007
-230.771	-200.000	0.045	-0.222
-229.757	124.670	0.071	0.088
-228.742	402.350	0.114	-0.237
-227.727	-39.931	-0.115	0.060
-226.713	-200.000	-0.011	0.055
-225.698	294.718	-0.044	0.080
-224.684	-97.788	0.062	-0.016
-223.669	-27.667	0.404	0.232
-222.655	-12.235	0.060	0.039
-221.640	-45.485	0.143	0.070
-220.625	-15.740	-0.372	-0.235
-219.611	-112.443	-0.307	-0.061
-218.596	686.542	-0.069	-0.178
-217.582	-18.769	0.125	-0.077
-216.567	800.000	-0.062	0.214
-215.552	-184.028	0.300	0.005
-214.538	-200.000	0.004	-0.055
-213.523	-45.862	-0.178	-0.087
-212.509	-114.753	0.307	-0.058
-211.494	-100.061	0.396	-0.098
-210.479	-200.000	0.006	0.156
-209.465	-98.263	-0.172	0.044
-208.450	800.000	-0.109	-0.399
-207.436	-120.810	-0.110	0.018
-206.421	13.274	0.122	-0.093
-205.406	310.296	0.080	-0.148
-204.392	-15.917	0.259	-0.163
-203.377	396.255	-0.162	-0.335
-202.363	-80.371	-0.314	-0.103
-201.348	800.000	0.043	-0.173
-200.333	463.380	-0.110	-0.243
-199.319	239.806	-0.126	0.207
-198.304	-200.000	-0.036	0.282
-197.290	17.912	0.265	0.209
-196.275	-49.706	-0.183	-0.086
-195.260	17.701	-0.195	0.153
-194.246	-200.000	0.006	-0.057
-193.231	-200.000	-0.009	-0.116
-192.217	60.343	-0.234	0.229
-191.202	44.384	0.114	0.104
-190.187	800.000	0.012	-0.052
-189.173	10.226	-0.095	-0.072
-188.158	-36.670	0.377	-0.200
-187.144	191.891	0.291	0.433
-186.129	-200.000	-0.006	0.099
-185.114	80.390	-0.152	-0.162
-184.100	368.456	0.189	0.377
-183.085	-195.993	-0.074	0.001
-182.071	151.315	0.061	0.082
-181.056	254.293	-0.065	0.110
-180.042	142.092	0.051	0.067
-179.027	-157.107	0.181	0.011
-178.012	800.000	-0.053	0.203
-176.998	108.241	0.160	0.188
-175.983	800.000	0.073	-0.204
-174.969	245.754	-0.077	-0.128
-173.954	19.475	0.209	-0.166
-172.939	48.809	-0.060	-0.056
-171.925	326.746	-0.124	-0.235
-170.910	597.519	0.041	-0.101
-169.896	45.783	-0.185	-0.169
-168.881	-42.284	0.127	-0.064
-167.866	293.657	0.188	-0.340
-166.852	-8.642	0.128	0.085
-165.837	-136.497	-0.160	0.018
-164.823	-200.000	0.012	-0.275
-163.808	-84.229	-0.165	-0.052
-162.793	-76.939	0.084	-0.029
-161.779	-124.195	0.256	-0.040
-160.764	800.000	0.125	0.344
-159.750	116.024	0.242	0.292
-158.735	223.893	0.083	-0.132
-157.720	-5.974	0.342	-0.230
-156.706	47.509	0.177	0.162
-155.691	73.593	0.123	0.127
-154.677	40.903	-0.224	-0.200
-153.662	-132.797	0.326	-0.041
-152.647	-17.420	-0.151	0.093
-151.633	69.818	-0.277	0.281
-150.618	-104.258	0.685	0.157
-149.604	-7.810	-0.181	0.121
-148.589	735.997	-0.060	0.157
-147.574	800.000	-0.098	0.313
-146.560	-148.711	0.536	-0.043
-145.545	180.705	-0.145	0.210
-144.531	800.000	-0.063	0.179
-143.516	-151.753	-0.116	-0.008
-142.502	16.524	0.415	0.323
-141.487	-27.991	-0.291	0.166
-140.472	800.000	0.102	0.366
-139.458	-200.000	0.036	0.226
-138.443	-12.858	-0.143	0.092
-137.429	23.821	-0.218	0.177
-136.414	90.418	0.281	-0.310
-135.399	11.620	0.289	-0.218
-134.385	-200.000	0.022	0.230
-133.370	66.678	-0.308	0.309
-132.356	800.000	-0.092	0.279
-131.341	135.810	-0.197	0.253
-130.326	-200.000	0.019	0.275
-129.312	-200.000	-0.034	0.163
-128.297	198.628	-0.036	-0.055
-127.283	-200.000	0.001	-0.041
-126.268	204.484	0.095	0.145
-125.253	64.392	0.090	0.090
-124.239	123.888	0.195	-0.242
-123.224	-200.000	-0.035	0.175
-122.210	159.966	-0.123	-0.169
