DTS Sentinel unit serial number:	SN413079Multiplexer serial number:	ORYXHardware model number:	OX4-SRSoftware version number:	ORYX F/W v4.00 Oryx Data Collector v3.7.2.0data status	okinstallation	princeton_trtdifferential loss correction	single-endedforward channel	channel 2reverse channel	N/Adate	2019/09/15time	03:39:35forward acquisition time	60.00reverse acquisition time	0.00gamma	496.2192k internal	0.2326k external	0.2326temperature offset calibration	1.0031default loss term (dB/km)	0.3790temperature slope calibration	1.0000multiplexer offset coefficient	1.0000multiplexer slope coefficient	1.0000fibre end	0.00T internal ref (°C)	31.00T ext. ref 1 (°C)	4.60T ext. ref 2 (°C)	25.87length (m)	temperature (°C)	Stokes	anti-Stokes-747.200	576.101	-0.086	0.212
-746.185	127.632	0.174	0.222
-745.171	-14.924	0.271	-0.175
-744.156	191.941	-0.110	0.167
-743.142	-162.086	0.107	0.005
-742.127	-84.912	-0.346	-0.110
-741.112	117.806	0.136	0.169
-740.098	-4.799	-0.328	0.228
-739.083	-31.697	0.293	-0.166
-738.069	-126.941	-0.229	0.034
-737.054	-200.000	-0.061	-0.471
-736.039	-14.580	-0.120	-0.078
-735.025	183.986	0.143	-0.213
-734.010	7.558	-0.325	-0.245
-732.996	337.889	-0.087	0.171
-731.981	-84.464	-0.239	0.076
-730.966	705.771	-0.081	-0.216
-729.952	-134.849	0.241	0.029
-728.937	23.328	-0.211	0.175
-727.923	-101.590	0.200	-0.049
-726.908	272.351	0.169	0.301
-725.894	800.000	-0.018	0.063
-724.879	728.607	-0.095	0.255
-723.864	-200.000	0.020	-0.317
-722.850	800.000	-0.040	0.134
-721.835	135.475	-0.165	0.216
-720.821	-198.013	-0.188	-0.001
-719.806	59.392	-0.242	-0.240
-718.791	-124.175	-0.099	0.016
-717.777	539.836	-0.090	0.216
-716.762	156.426	0.089	0.124
-715.748	16.903	0.168	0.134
-714.733	1.215	-0.245	0.177
-713.718	504.152	0.197	-0.460
-712.704	597.068	-0.115	0.287
-711.689	8.097	-0.117	0.089
-710.675	440.746	-0.087	0.192
-709.660	800.000	-0.130	0.386
-708.645	-100.188	-0.146	0.037
-707.631	800.000	0.104	0.438
-706.616	-200.000	-0.012	-0.214
-705.602	-81.905	0.206	0.068
-704.587	-200.000	0.003	0.043
-703.572	-200.000	0.003	-0.045
-702.558	800.000	0.095	-0.333
-701.543	-15.123	-0.204	0.132
-700.529	277.811	-0.171	0.306
-699.514	717.327	0.058	-0.156
-698.499	-2.239	-0.269	-0.190
-697.485	159.171	0.207	-0.289
-696.470	-192.489	0.338	0.003
-695.456	-200.000	0.001	0.025
-694.441	-22.369	0.077	-0.047
-693.426	234.154	-0.082	-0.136
-692.412	288.473	-0.035	-0.064
-691.397	-200.000	-0.018	0.152
-690.383	-145.295	-0.314	-0.029
-689.368	81.231	0.246	-0.267
-688.354	65.269	-0.266	-0.271
-687.339	-160.727	-0.218	0.012
-686.324	675.906	0.153	-0.401
-685.310	84.800	-0.125	-0.138
-684.295	-200.000	0.019	0.098
-683.281	-67.654	-0.422	-0.166
-682.266	-79.698	-0.282	-0.096
-681.251	268.922	0.046	0.081
-680.237	129.717	-0.067	-0.087
-679.222	-200.000	-0.011	-0.062
-678.208	-86.439	-0.377	-0.116
-677.193	-23.958	-0.522	-0.314
-676.178	-28.537	-0.039	0.023
-675.164	11.413	-0.176	-0.135
-674.149	-15.513	-0.274	0.176
-673.135	-34.531	-0.254	-0.140
-672.120	-111.611	0.446	-0.091
-671.105	-200.000	-0.029	0.362
-670.091	-200.000	0.335	0.000
-669.076	-3.834	-0.146	0.102
-668.062	-200.000	0.013	0.148
-667.047	15.669	-0.136	-0.107
-666.032	68.476	-0.024	-0.024
-665.018	800.000	0.035	0.139
-664.003	800.000	-0.014	0.050
-662.989	83.860	0.127	-0.140
-661.974	342.963	0.130	-0.256
-660.959	-67.232	0.153	-0.061
-659.945	-96.782	-0.013	0.003
-658.930	68.326	0.018	-0.018
-657.916	41.319	-0.356	0.324
-656.901	-200.000	-0.050	0.292
-655.886	32.358	-0.153	-0.133
-654.872	-55.094	0.229	-0.104
-653.857	11.334	0.257	-0.198
-652.843	-40.621	0.151	-0.079
-651.828	-67.172	-0.075	-0.030
-650.814	-81.083	-0.230	0.077
-649.799	800.000	0.047	0.186
-648.784	800.000	0.125	-0.401
-647.770	800.000	-0.061	-0.244
-646.755	-6.394	0.291	-0.200
-645.741	639.072	0.036	0.092
-644.726	15.978	0.205	-0.162
-643.711	800.000	-0.072	-0.227
-642.697	-16.926	0.164	0.104
-641.682	-200.000	0.072	-0.377
-640.668	685.021	0.058	0.152
-639.653	-200.000	-0.048	0.215
-638.638	69.592	-0.155	0.160
-637.624	-200.000	-0.003	0.027
-636.609	-200.000	-0.018	-0.146
-635.595	74.162	-0.195	0.206
-634.580	-137.883	0.493	0.055
-633.565	461.965	-0.101	-0.225
-632.551	265.753	-0.257	0.451
-631.536	6.111	-0.295	-0.219
-630.522	-163.535	-0.170	0.008
-629.507	299.004	-0.052	0.096
-628.492	-79.696	-0.079	0.027
-627.478	-154.567	0.185	-0.012
-626.463	74.958	0.045	-0.048
-625.449	-47.997	0.145	-0.070
-624.434	-154.226	-0.294	0.020
-623.419	90.077	-0.178	0.200
-622.405	800.000	-0.013	0.040
-621.390	-200.000	0.042	0.267
-620.376	-0.081	0.075	-0.054
-619.361	282.125	-0.064	-0.115
-618.346	-109.383	-0.104	0.022
-617.332	-176.086	-0.148	0.004
-616.317	-140.213	0.122	0.013
-615.303	280.397	0.123	-0.221
-614.288	738.743	0.098	-0.263
-613.273	416.397	0.200	-0.429
-612.259	526.840	-0.083	-0.196
-611.244	-200.000	0.013	0.102
-610.230	-134.224	0.063	0.008
-609.215	-69.032	0.293	-0.113
-608.201	-200.000	-0.039	-0.300
-607.186	-200.000	-0.013	-0.286
-606.171	-58.342	0.080	-0.035
-605.157	-200.000	-0.032	-0.186
-604.142	800.000	0.049	0.168
-603.128	800.000	-0.063	0.225
-602.113	-94.747	-0.290	-0.079
-601.098	245.128	-0.160	-0.270
-600.084	-43.501	-0.208	-0.106
-599.069	800.000	0.104	-0.390
-598.055	393.908	0.078	0.162
-597.040	34.671	0.145	0.127
-596.025	447.530	0.130	0.288
-595.011	311.312	0.014	0.026
-593.996	-200.000	-0.021	0.152
-592.982	-19.908	-0.244	0.151
-591.967	-82.135	-0.450	-0.147
-590.952	-159.134	-0.321	0.018
-589.938	42.927	0.110	0.100
-588.923	800.000	-0.023	0.073
-587.909	-165.039	0.257	0.011
-586.894	57.036	-0.021	0.021
-585.879	800.000	0.008	-0.028
-584.865	-197.455	0.224	0.001
-583.850	-36.537	0.423	0.228
-582.836	-58.696	0.181	0.079
-581.821	85.740	-0.027	0.029
-580.806	140.928	0.048	0.064
-579.792	800.000	0.089	-0.313
-578.777	-39.716	-0.148	0.078
-577.763	-200.000	-0.004	-0.254
-576.748	356.183	-0.169	-0.336
-575.733	113.535	-0.058	0.070
-574.719	669.103	0.033	0.087
-573.704	227.800	0.122	-0.199
-572.690	137.486	0.182	0.239
-571.675	-200.000	-0.021	0.141
-570.661	-200.000	0.014	-0.494
-569.646	-91.914	0.071	-0.020
-568.631	67.934	0.139	-0.143
-567.617	-67.913	0.151	-0.059
-566.602	-92.681	0.283	0.079
-565.588	-21.942	0.108	-0.066
-564.573	-96.571	-0.211	-0.056
-563.558	-104.846	0.217	-0.050
-562.544	143.199	0.165	0.220
-561.529	342.470	-0.031	-0.061
-560.515	-200.000	0.003	0.154
-559.500	249.433	-0.086	0.146
-558.485	55.537	-0.064	-0.062
-557.471	-87.039	-0.107	-0.033
-556.456	629.483	0.030	0.076
-555.442	765.034	0.003	-0.008
-554.427	-200.000	-0.008	-0.124
-553.412	800.000	-0.095	-0.333
-552.398	65.589	-0.062	0.063
-551.383	-35.661	0.034	0.019
-550.369	153.623	0.064	-0.088
-549.354	217.665	-0.069	0.109
-548.339	-64.182	0.198	0.081
-547.325	-200.000	0.033	0.337
-546.310	462.058	-0.099	0.222
-545.296	-200.000	-0.007	0.110
-544.281	6.499	0.102	0.076
-543.266	-33.587	-0.435	0.240
-542.252	-200.000	0.029	-0.226
-541.237	800.000	-0.106	-0.463
-540.223	-73.939	0.226	-0.082
-539.208	61.139	0.032	-0.032
-538.193	44.530	0.140	-0.128
-537.179	43.266	-0.231	-0.211
-536.164	711.090	0.092	0.244
-535.150	-62.516	-0.316	-0.131
-534.135	800.000	-0.043	-0.166
-533.121	-21.317	0.113	-0.069
-532.106	57.584	-0.194	0.190
-531.091	-200.000	-0.023	-0.401
-530.077	237.893	-0.171	-0.283
-529.062	800.000	-0.119	-0.415
-528.048	-192.423	0.341	-0.003
-527.033	-72.114	-0.324	-0.120
-526.018	-200.000	0.005	0.094
-525.004	185.262	-0.105	-0.155
-523.989	57.820	-0.222	0.217
-522.975	108.063	0.102	-0.121
-521.960	-39.578	-0.313	-0.164
-520.945	-200.000	-0.003	0.075
-519.931	66.438	0.048	-0.048
-518.916	0.354	-0.106	-0.076
-517.902	778.144	-0.060	0.164
-516.887	-27.048	-0.348	0.203
-515.872	800.000	-0.094	0.299
-514.858	24.049	-0.121	-0.100
-513.843	-200.000	-0.013	0.283
-512.829	99.420	-0.206	0.239
-511.814	-175.232	-0.121	-0.003
-510.799	86.228	-0.083	0.091
-509.785	95.158	0.019	0.022
-508.770	-200.000	-0.018	0.263
-507.756	534.727	-0.131	0.311
-506.741	-200.000	-0.045	0.237
-505.726	-200.000	-0.073	-0.444
-504.712	-200.000	-0.017	0.137
-503.697	229.432	0.099	-0.162
-502.683	800.000	0.125	-0.446
-501.668	542.281	0.067	-0.159
-500.653	-37.868	-0.233	-0.124
-499.639	-150.088	-0.190	0.015
-498.624	78.669	0.112	-0.120
-497.610	-200.000	0.055	0.243
-496.595	800.000	-0.050	-0.152
-495.581	800.000	-0.114	-0.348
-494.566	188.262	-0.101	0.151
-493.551	-4.926	0.096	-0.066
-492.537	-43.289	-0.169	-0.085
-491.522	-184.515	-0.169	0.003
-490.508	800.000	0.038	0.115
-489.493	-200.000	0.029	-0.168
-488.478	678.264	0.044	0.114
-487.464	-0.606	-0.165	-0.117
-486.449	-86.427	0.263	-0.081
-485.435	267.437	-0.070	-0.122
-484.420	-200.000	-0.003	0.167
-483.405	-140.270	-0.191	-0.020
-482.391	4.486	0.155	-0.113
-481.376	-12.245	0.362	0.236
-480.362	-50.203	-0.036	0.017
-479.347	-6.706	0.263	0.179
-478.332	72.314	0.172	0.178
-477.318	-115.465	0.424	0.080
-476.303	604.252	0.022	-0.055
-475.289	800.000	-0.076	0.209
-474.274	-44.890	0.148	0.074
-473.259	800.000	0.016	0.068
-472.245	-75.931	-0.303	0.107
-471.230	800.000	0.076	0.332
-470.216	-63.082	0.114	0.047
-469.201	800.000	0.077	0.263
-468.186	-71.465	-0.164	0.061
-467.172	-136.226	0.128	-0.015
-466.157	-70.489	0.360	0.136
-465.143	35.801	0.112	0.099
-464.128	573.416	0.042	0.102
-463.113	267.754	-0.181	-0.317
-462.099	94.985	-0.150	0.171
-461.084	437.297	-0.179	0.389
-460.070	-136.895	0.180	0.021
-459.055	687.736	-0.100	-0.262
-458.040	660.482	0.030	0.077
-457.026	-200.000	0.006	-0.039
-456.011	259.348	-0.074	-0.128
-454.997	-58.547	0.349	0.151
-453.982	-97.025	0.118	0.031
-452.968	800.000	-0.117	0.391
-451.953	32.822	-0.159	0.137
-450.938	-200.000	-0.017	-0.128
-449.924	-200.000	0.013	-0.085
-448.909	102.421	0.056	-0.065
-447.895	-96.913	-0.223	0.058
-446.880	301.209	-0.078	0.144
-445.865	800.000	0.057	-0.164
-444.851	83.586	0.079	0.085
-443.836	800.000	0.100	0.323
-442.822	-162.702	-0.265	0.013
-441.807	-150.143	-0.231	0.018
-440.792	-200.000	-0.060	-0.318
-439.778	251.774	-0.027	-0.046
-438.763	4.049	-0.116	0.084
-437.749	-59.050	0.309	-0.133
-436.734	-89.427	0.046	0.013
-435.719	-24.279	-0.133	-0.079
-434.705	-154.171	0.223	-0.015
-433.690	245.381	-0.018	-0.030
-432.676	800.000	0.124	0.486
-431.661	-200.000	0.003	0.219
-430.646	-200.000	0.009	-0.194
-429.632	-138.692	-0.235	-0.026
-428.617	-20.657	-0.256	-0.157
-427.603	-155.941	0.090	-0.006
-426.588	-200.000	-0.073	-0.416
-425.573	-50.268	-0.248	-0.117
-424.559	800.000	-0.102	0.297
-423.544	-200.000	0.006	-0.111
-422.530	-200.000	-0.099	-0.613
-421.515	800.000	0.059	-0.191
-420.500	-119.765	-0.398	0.068
-419.486	-200.000	0.028	0.397
-418.471	-122.226	0.177	0.029
-417.457	47.719	0.070	-0.065
-416.442	572.575	0.110	0.268
-415.428	-60.580	-0.212	-0.090
-414.413	-200.000	0.060	0.333
-413.398	-94.343	0.139	0.038
-412.384	800.000	-0.095	0.285
-411.369	-14.825	0.261	0.167
-410.355	-93.215	-0.201	0.056
-409.340	800.000	0.092	0.296
-408.325	-22.394	0.268	-0.162
-407.311	-6.807	-0.193	0.130
-406.296	-113.358	0.283	-0.055
-405.282	-200.000	0.003	-0.264
-404.267	325.865	0.111	-0.211
-403.252	-200.000	-0.035	-0.330
-402.238	96.888	0.114	-0.130
-401.223	-124.826	0.363	0.056
-400.209	245.139	0.063	0.105
-399.194	441.434	0.117	0.255
-398.179	-78.870	0.141	-0.048
-397.165	304.360	-0.100	-0.185
-396.150	628.861	0.079	-0.199
-395.136	-97.002	-0.120	0.031
-394.121	13.784	0.150	0.116
-393.106	-97.848	0.123	0.032
-392.092	472.834	-0.036	-0.082
-391.077	-10.198	-0.217	-0.143
-390.063	106.961	-0.068	0.081
-389.048	800.000	-0.017	0.065
-388.033	800.000	0.046	-0.128
-387.019	-107.467	0.185	0.040
-386.004	-141.320	0.256	-0.026
-384.990	-96.646	-0.266	-0.070
-383.975	-66.224	-0.072	-0.028
-382.960	-200.000	-0.022	0.419
-381.946	-66.594	0.237	-0.094
-380.931	-136.718	-0.089	-0.010
-379.917	-200.000	0.017	-0.159
-378.902	540.722	0.181	0.428
-377.888	800.000	-0.182	0.556
-376.873	800.000	-0.022	0.067
-375.858	76.161	0.074	-0.078
-374.844	16.059	0.110	-0.087
-373.829	69.709	0.054	0.056
-372.815	-0.061	0.043	0.031
-371.800	196.040	0.198	-0.299
-370.785	-76.097	-0.108	-0.038
-369.771	-142.401	-0.385	0.038
-368.756	21.596	0.148	-0.119
-367.742	47.306	-0.104	0.097
-366.727	-200.000	0.017	-0.091
-365.712	112.812	0.027	-0.033
-364.698	537.135	-0.090	-0.213
-363.683	-69.962	-0.098	-0.037
-362.669	-200.000	0.012	0.119
-361.654	16.365	-0.039	-0.031
-360.639	-200.000	0.002	-0.189
-359.625	61.673	0.052	-0.051
-358.610	-24.871	-0.188	0.111
-357.596	231.242	0.160	-0.261
-356.581	-200.000	-0.030	0.153
-355.566	79.483	-0.146	0.156
-354.552	22.962	0.113	-0.092
-353.537	800.000	-0.026	0.114
-352.523	9.478	-0.116	0.088
-351.508	-200.000	-0.022	-0.192
-350.493	-97.422	-0.160	-0.041
-349.479	800.000	-0.028	-0.086
-348.464	126.262	0.142	-0.178
-347.450	110.835	-0.049	-0.058
-346.435	-200.000	0.001	0.011
-345.420	-126.072	0.388	-0.058
-344.406	-136.848	0.267	-0.030
-343.391	-200.000	0.005	0.034
-342.377	800.000	-0.043	-0.121
-341.362	47.520	0.130	-0.120
-340.348	-111.413	-0.163	0.033
-339.333	800.000	0.122	0.349
-338.318	-22.420	0.079	-0.047
-337.304	-0.761	-0.018	-0.013
-336.289	-159.117	0.165	0.009
-335.275	-159.753	-0.416	0.023
-334.260	-90.333	-0.442	-0.127
-333.245	49.097	-0.191	-0.178
-332.231	294.809	0.081	-0.148
-331.216	-200.000	0.019	-0.225
-330.202	-186.591	-0.352	0.005
-329.187	-59.705	-0.207	-0.088
-328.172	19.119	-0.077	-0.062
-327.158	282.756	-0.149	-0.266
-326.143	-200.000	0.033	0.220
-325.129	-200.000	0.022	0.157
-324.114	-200.000	-0.023	-0.173
-323.099	-5.038	-0.146	-0.100
-322.085	318.789	0.090	0.169
-321.070	47.134	-0.124	-0.114
-320.056	75.597	0.021	-0.022
-319.041	-50.269	0.137	-0.064
-318.026	-200.000	-0.012	-0.136
-317.012	-77.238	-0.029	-0.010
-315.997	-200.000	-0.026	-0.149
-314.983	-8.498	0.381	-0.254
-313.968	98.991	0.115	-0.131
-312.953	-200.000	-0.019	0.317
-311.939	119.948	-0.102	0.126
-310.924	-139.548	-0.162	0.017
-309.910	-132.859	0.076	-0.010
-308.895	33.184	-0.141	-0.121
-307.880	-60.239	0.173	-0.073
-306.866	-47.543	-0.265	-0.128
-305.851	231.597	0.175	0.285
-304.837	-119.897	0.310	0.053
-303.822	110.604	0.213	0.254
-302.807	-70.590	-0.452	0.169
-301.793	310.614	-0.114	0.213
-300.778	-150.631	0.126	0.010
-299.764	800.000	-0.058	0.243
-298.749	-121.907	-0.505	-0.083
-297.735	-155.847	0.238	-0.015
-296.720	-25.601	-0.114	-0.067
-295.705	77.535	0.023	0.024
-294.691	529.821	-0.012	0.029
-293.676	129.287	0.145	-0.184
-292.662	-200.000	0.004	0.328
-291.647	800.000	0.084	0.254
-290.632	-200.000	-0.016	0.112
-289.618	494.555	0.003	-0.006
-288.603	-200.000	0.008	-0.238
-287.589	16.260	-0.065	0.051
-286.574	359.093	0.245	-0.485
-285.559	-6.954	0.257	0.173
-284.545	29.327	-0.227	-0.191
-283.530	360.996	-0.054	-0.107
-282.516	-200.000	-0.013	-0.351
-281.501	-200.000	-0.034	-0.178
-280.486	-200.000	0.058	0.500
-279.472	-53.080	-0.331	-0.151
-278.457	-200.000	-0.034	0.168
-277.443	5.255	0.298	0.217
-276.428	-61.738	0.107	-0.044
-275.413	-46.982	0.272	-0.132
-274.399	800.000	-0.041	0.180
-273.384	-159.496	-0.187	-0.010
-272.370	231.505	-0.068	0.110
-271.355	1.275	-0.176	0.125
-270.340	228.485	0.144	0.232
-269.326	40.567	-0.032	0.029
-268.311	65.215	-0.295	-0.296
-267.297	413.762	-0.044	-0.092
-266.282	160.509	0.147	0.202
-265.267	-56.472	-0.100	-0.044
-264.253	119.733	0.113	0.139
-263.238	800.000	-0.071	0.257
-262.224	86.816	-0.143	0.157
-261.209	26.432	0.162	-0.134
-260.195	482.372	0.021	0.046
-259.180	-200.000	-0.010	0.413
-258.165	-132.264	-0.317	0.041
-257.151	-56.436	0.277	0.122
-256.136	-33.831	-0.194	-0.106
-255.122	-111.011	-0.359	-0.073
-254.107	-97.197	-0.269	0.070
-253.092	-77.960	0.125	-0.043
-252.078	-200.000	-0.002	-0.010
-251.063	800.000	-0.070	0.279
-250.049	173.656	0.116	0.166
-249.034	-78.221	0.207	-0.071
-248.019	-113.170	-0.114	0.022
-247.005	800.000	0.043	-0.162
-245.990	26.847	0.217	-0.180
-244.976	45.552	0.159	0.145
-243.961	-63.300	0.236	0.096
-242.946	-80.196	-0.268	0.089
-241.932	105.545	0.256	0.300
-240.917	-97.952	-0.112	0.029
-239.903	28.769	0.210	-0.176
-238.888	-19.086	0.086	-0.053
-237.873	-200.000	-0.026	-0.391
-236.859	-44.247	-0.192	-0.095
-235.844	188.771	0.151	-0.224
-234.830	14.200	0.153	-0.118
-233.815	-200.000	-0.036	0.155
-232.800	-53.270	0.209	0.095
-231.786	800.000	-0.090	-0.265
-230.771	-73.049	-0.114	0.041
-229.757	430.730	0.041	0.087
-228.742	-141.391	0.117	0.012
-227.727	372.118	0.056	-0.112
-226.713	-40.631	0.254	-0.130
-225.698	800.000	-0.077	-0.254
-224.684	193.674	0.190	0.284
-223.669	413.521	0.042	-0.088
-222.655	32.502	0.138	0.118
-221.640	522.935	-0.043	0.101
-220.625	-39.467	0.092	-0.048
-219.611	-196.623	0.166	0.001
-218.596	800.000	0.090	0.279
-217.582	19.623	0.294	0.234
-216.567	-200.000	-0.028	-0.291
-215.552	40.168	0.235	-0.209
-214.538	35.222	0.168	0.145
-213.523	-163.823	0.008	0.000
-212.509	800.000	0.019	0.073
-211.494	-117.620	0.093	-0.017
-210.479	25.813	-0.182	-0.149
-209.465	-40.581	0.418	0.214
-208.450	-141.677	-0.478	0.048
-207.436	65.015	-0.275	0.274
-206.421	80.676	-0.233	0.248
-205.406	-21.093	0.074	-0.045
-204.392	7.796	-0.182	0.134
-203.377	-200.000	-0.023	0.269
-202.363	-142.978	0.119	-0.011
-201.348	362.664	0.122	0.243
-200.333	-142.469	0.329	0.032
-199.319	661.890	-0.049	0.125
-198.304	800.000	0.038	-0.136
-197.290	-41.421	-0.136	0.069
-196.275	-108.635	-0.204	0.043
-195.260	45.773	-0.079	0.072
-194.246	800.000	0.115	0.427
-193.231	108.935	0.229	0.270
-192.217	-45.385	0.073	0.036
-191.202	-177.322	0.033	0.001
-190.187	-23.673	-0.268	0.159
-189.173	800.000	0.053	0.153
-188.158	-129.360	-0.122	-0.017
-187.144	-57.142	-0.024	-0.011
-186.129	-22.602	-0.247	-0.147
-185.114	-97.746	-0.352	-0.090
-184.100	800.000	-0.051	-0.204
-183.085	785.394	0.083	0.223
-182.071	33.706	0.052	-0.044
-181.056	-19.483	-0.089	-0.054
-180.042	800.000	0.117	-0.343
-179.027	-196.472	0.142	0.001
-178.012	102.202	0.151	0.174
-176.998	-151.072	-0.135	-0.010
-175.983	119.325	0.292	-0.356
-174.969	235.763	0.086	-0.140
-173.954	-200.000	0.004	-0.090
-172.939	-200.000	0.003	0.291
-171.925	-200.000	-0.006	-0.130
-170.910	-79.661	-0.348	0.116
-169.896	-200.000	-0.073	0.379
-168.881	-129.738	0.218	0.030
-167.866	-55.700	0.156	-0.069
-166.852	-98.114	0.059	-0.015
-165.837	-200.000	0.001	-0.147
-164.823	-148.508	0.154	-0.012
-163.808	83.354	0.145	-0.156
-162.793	184.242	-0.096	-0.140
-161.779	-24.246	0.215	0.127
-160.764	-128.623	0.226	0.032
-159.750	800.000	-0.029	-0.126
-158.735	-200.000	-0.001	-0.179
-157.720	150.130	0.023	-0.030
-156.706	94.036	0.112	0.125
-155.691	-200.000	0.017	-0.149
-154.677	11.121	-0.333	0.251
-153.662	104.701	-0.113	-0.132
-152.647	124.123	-0.219	-0.271
-151.633	800.000	-0.122	-0.340
-150.618	-16.510	0.201	-0.126
-149.604	5.062	0.279	0.202
-148.589	-67.769	0.154	0.060
-147.574	-172.970	0.318	0.010
-146.560	-143.323	-0.068	0.006
-145.545	258.491	0.043	-0.073
-144.531	-142.065	-0.040	0.004
-143.516	-129.495	-0.142	-0.019
-142.502	800.000	0.075	0.211
-141.487	31.132	0.144	-0.122
-140.472	27.790	-0.180	-0.149
-139.458	243.581	0.136	0.225
-138.443	57.426	-0.035	-0.034
-137.429	-146.466	0.273	0.023
-136.414	22.116	0.141	0.113
-135.399	-51.675	0.339	0.155
-134.385	194.357	-0.179	-0.268
-133.370	146.070	0.163	-0.216
-132.356	510.369	-0.098	0.223
-131.341	182.117	0.140	-0.203
-130.326	-200.000	-0.007	-0.085
-129.312	-141.421	0.056	-0.006
-128.297	-25.976	0.271	0.157
-127.283	-107.075	-0.208	0.045
-126.268	267.966	0.114	-0.196
-125.253	800.000	0.110	-0.447
-124.239	18.178	0.050	-0.040
-123.224	800.000	0.038	0.116
-122.210	247.783	-0.108	0.181
-121.195	-150.805	0.283	0.021
-120.180	-82.323	-0.105	-0.034
