DTS Sentinel unit serial number:	SN413079Multiplexer serial number:	ORYXHardware model number:	OX4-SRSoftware version number:	ORYX F/W v4.00 Oryx Data Collector v3.7.2.0data status	okinstallation	princeton_trtdifferential loss correction	single-endedforward channel	channel 2reverse channel	N/Adate	2019/09/12time	16:17:10forward acquisition time	60.00reverse acquisition time	0.00gamma	496.2192k internal	0.2315k external	0.2315temperature offset calibration	1.0111default loss term (dB/km)	0.3790temperature slope calibration	1.0000multiplexer offset coefficient	1.0000multiplexer slope coefficient	1.0000fibre end	0.00T internal ref (°C)	38.06T ext. ref 1 (°C)	2.55T ext. ref 2 (°C)	30.79length (m)	temperature (°C)	Stokes	anti-Stokes-747.200	507.625	-0.102	0.239
-746.185	92.038	0.064	-0.073
-745.171	-200.000	0.010	-0.155
-744.156	-125.914	0.205	0.031
-743.142	-200.000	-0.022	0.203
-742.127	32.165	-0.039	0.034
-741.112	800.000	0.111	0.385
-740.098	291.999	0.090	0.166
-739.083	-200.000	-0.036	-0.177
-738.069	-44.248	-0.298	0.152
-737.054	113.568	0.146	0.180
-736.039	800.000	0.033	0.124
-735.025	-16.908	0.403	-0.258
-734.010	800.000	-0.147	-0.481
-732.996	800.000	-0.098	-0.312
-731.981	114.574	0.082	-0.101
-730.966	-73.243	-0.279	0.103
-729.952	-200.000	-0.028	0.142
-728.937	-132.537	-0.167	0.022
-727.923	207.793	-0.051	0.081
-726.908	145.416	-0.360	-0.489
-725.894	703.243	-0.125	0.334
-724.879	-200.000	-0.004	-0.053
-723.864	-46.007	-0.178	-0.089
-722.850	110.826	0.192	0.234
-721.835	518.868	-0.088	0.208
-720.821	666.029	-0.136	-0.354
-719.806	484.466	-0.149	-0.344
-718.791	159.378	-0.158	-0.223
-717.777	-43.889	-0.056	0.029
-716.762	-90.558	-0.396	0.116
-715.748	-94.272	-0.160	0.044
-714.733	-68.653	0.109	0.043
-713.718	-41.690	0.176	-0.091
-712.704	212.093	-0.041	-0.066
-711.689	54.598	0.268	-0.261
-710.675	293.760	-0.112	0.207
-709.660	44.346	-0.343	0.319
-708.645	800.000	-0.081	0.244
-707.631	800.000	0.013	-0.046
-706.616	774.106	0.077	0.211
-705.602	-123.833	0.200	-0.032
-704.587	800.000	-0.125	-0.409
-703.572	132.268	0.155	-0.202
-702.558	-84.554	-0.088	-0.028
-701.543	-21.881	-0.196	-0.121
-700.529	-94.187	0.084	0.023
-699.514	-95.595	-0.082	0.022
-698.499	-79.602	0.125	0.043
-697.485	800.000	0.054	-0.159
-696.470	-3.293	-0.069	-0.048
-695.456	30.224	-0.115	0.100
-694.441	113.977	-0.103	-0.126
-693.426	-7.749	-0.038	0.026
-692.412	-15.596	0.171	0.110
-691.397	30.832	-0.227	0.197
-690.383	800.000	0.083	0.314
-689.368	800.000	-0.041	-0.140
-688.354	85.463	-0.141	0.156
-687.339	419.810	-0.139	-0.302
-686.324	-161.340	0.281	-0.015
-685.310	260.688	0.118	-0.206
-684.295	-13.835	-0.198	0.130
-683.281	-200.000	0.024	0.108
-682.266	-3.423	-0.188	-0.132
-681.251	-72.444	0.181	0.068
-680.237	-200.000	0.038	-0.263
-679.222	-43.505	0.136	-0.069
-678.208	544.785	0.083	-0.199
-677.193	-20.660	-0.284	-0.176
-676.178	223.059	0.075	0.123
-675.164	800.000	-0.046	-0.177
-674.149	477.221	0.187	-0.428
-673.135	800.000	-0.035	-0.103
-672.120	-157.196	0.142	0.009
-671.105	-200.000	-0.003	-0.108
-670.091	800.000	0.106	-0.369
-669.076	-74.507	0.225	0.082
-668.062	-150.418	0.403	-0.031
-667.047	235.437	-0.058	-0.096
-666.032	177.054	-0.125	0.183
-665.018	114.445	0.157	0.194
-664.003	-200.000	0.078	0.370
-662.989	-35.871	-0.114	0.062
-661.974	-27.219	0.058	-0.034
-660.959	-110.299	-0.097	-0.020
-659.945	43.958	-0.141	-0.130
-658.930	97.064	-0.103	0.119
-657.916	-200.000	0.050	-0.274
-656.901	-200.000	-0.048	-0.215
-655.886	-200.000	0.025	-0.228
-654.872	-200.000	0.082	-0.431
-653.857	-200.000	0.007	0.233
-652.843	-118.412	-0.282	0.050
-651.828	200.530	-0.121	-0.188
-650.814	800.000	0.059	0.239
-649.799	-13.896	-0.119	-0.078
-648.784	-57.907	0.057	-0.025
-647.770	28.476	-0.369	0.315
-646.755	-156.673	-0.167	0.010
-645.741	52.912	-0.199	0.192
-644.726	-135.323	-0.408	-0.049
-643.711	-2.751	-0.089	0.063
-642.697	-108.872	-0.351	0.076
-641.682	-143.119	0.134	0.013
-640.668	-57.722	-0.407	0.180
-639.653	297.017	-0.197	-0.365
-638.638	165.957	0.040	0.057
-637.624	-200.000	-0.008	0.113
-636.609	-200.000	0.019	0.192
-635.595	-110.493	-0.084	0.018
-634.580	-114.183	-0.026	-0.005
-633.565	-132.934	0.236	-0.030
-632.551	-25.459	0.191	-0.114
-631.536	607.090	0.059	-0.150
-630.522	-200.000	-0.020	-0.208
-629.507	415.521	0.085	0.183
-628.492	-36.601	0.183	-0.099
-627.478	-93.692	-0.247	0.069
-626.463	129.096	-0.224	0.288
-625.449	230.144	0.056	-0.093
-624.434	-146.778	-0.273	0.024
-623.419	13.200	0.085	-0.066
-622.405	-200.000	0.009	-0.105
-621.390	670.490	0.085	-0.223
-620.376	184.905	-0.096	-0.144
-619.361	-85.162	-0.101	0.032
-618.346	-128.743	-0.325	-0.046
-617.332	-28.522	-0.148	-0.086
-616.317	150.821	0.160	-0.219
-615.303	591.836	0.058	-0.144
-614.288	-200.000	0.037	0.331
-613.273	800.000	0.117	-0.423
-612.259	235.531	-0.243	0.405
-611.244	396.070	0.099	0.208
-610.230	598.438	-0.094	-0.236
-609.215	175.854	0.029	0.043
-608.201	-200.000	-0.023	-0.127
-607.186	-96.246	-0.146	-0.039
-606.171	26.679	0.162	0.137
-605.157	-200.000	-0.022	0.168
-604.142	101.505	-0.094	0.111
-603.128	438.553	-0.037	0.080
-602.113	-105.033	-0.043	-0.010
-601.098	125.095	-0.165	-0.209
-600.084	181.043	0.090	-0.133
-599.069	166.628	-0.114	0.163
-598.055	643.670	-0.055	0.141
-597.040	-200.000	0.007	-0.080
-596.025	-96.957	0.301	0.079
-595.011	-56.457	0.032	-0.014
-593.996	78.261	0.057	-0.062
-592.982	335.341	-0.191	-0.372
-591.967	-200.000	-0.064	0.309
-590.952	800.000	-0.069	-0.225
-589.938	-185.107	-0.077	0.001
-588.923	-182.152	-0.289	0.005
-587.909	358.240	0.088	-0.177
-586.894	53.935	0.140	0.136
-585.879	205.559	0.184	-0.288
-584.865	-52.225	-0.256	0.119
-583.850	-110.499	-0.194	-0.040
-582.836	-135.051	0.280	0.034
-581.821	1.188	0.129	0.093
-580.806	-79.048	-0.308	-0.105
-579.792	32.461	0.110	0.096
-578.777	233.367	-0.042	-0.069
-577.763	116.803	0.104	-0.128
-576.748	-54.506	0.213	-0.097
-575.733	11.772	0.146	-0.113
-574.719	800.000	-0.075	0.268
-573.704	172.346	-0.082	-0.119
-572.690	-4.056	0.176	0.123
-571.675	239.034	0.153	-0.257
-570.661	800.000	-0.057	-0.182
-569.646	84.315	0.119	0.131
-568.631	-113.393	0.187	0.037
-567.617	431.569	-0.116	0.253
-566.602	-111.183	0.128	-0.026
-565.588	-74.286	0.046	0.017
-564.573	-183.797	0.120	0.002
-563.558	800.000	0.091	0.353
-562.544	800.000	-0.094	0.347
-561.529	-105.539	-0.071	-0.016
-560.515	-153.955	-0.199	-0.014
-559.500	61.257	-0.068	0.068
-558.485	-119.279	-0.156	-0.027
-557.471	174.721	-0.098	-0.143
-556.456	-91.034	-0.437	-0.126
-555.442	800.000	-0.050	0.219
-554.427	98.567	0.191	0.221
-553.412	36.171	0.237	0.210
-552.398	-154.696	0.290	0.019
-551.383	-73.871	0.230	-0.084
-550.369	107.567	-0.203	0.242
-549.354	-200.000	-0.068	-0.536
-548.339	96.017	-0.113	0.130
-547.325	101.595	0.123	-0.145
-546.310	800.000	-0.035	0.133
-545.296	35.894	0.149	0.132
-544.281	-74.400	-0.226	0.082
-543.266	-87.999	-0.124	0.038
-542.252	314.560	0.052	0.099
-541.237	-153.481	0.166	0.012
-540.223	800.000	-0.036	-0.130
-539.208	-50.916	-0.147	0.069
-538.193	29.120	-0.081	-0.069
-537.179	-24.858	0.174	-0.104
-536.164	-200.000	0.102	-0.457
-535.150	-197.326	0.146	0.001
-534.135	-200.000	-0.057	0.293
-533.121	-80.815	0.281	0.094
-532.106	-127.411	0.204	0.030
-531.091	-200.000	0.077	0.350
-530.077	-200.000	0.003	-0.174
-529.062	-125.253	0.076	-0.012
-528.048	28.776	0.194	-0.165
-527.033	-200.000	0.010	0.049
-526.018	53.440	-0.357	0.344
-525.004	679.742	0.041	-0.107
-523.989	-123.745	0.202	0.032
-522.975	-66.185	-0.106	-0.043
-521.960	800.000	-0.070	0.219
-520.945	72.692	0.100	0.105
-519.931	-144.569	-0.521	0.048
-518.916	-64.685	-0.223	-0.091
-517.902	-92.103	-0.113	-0.032
-516.887	-34.958	0.041	0.023
-515.872	-157.827	-0.171	0.010
-514.858	-200.000	-0.029	0.360
-513.843	-135.690	-0.356	-0.042
-512.829	33.833	-0.112	-0.098
-511.814	-89.597	0.094	-0.028
-510.799	-162.907	0.083	0.004
-509.785	76.893	0.046	0.050
-508.770	800.000	0.079	-0.238
-507.756	538.447	0.075	-0.179
-506.741	-200.000	0.020	-0.326
-505.726	482.934	0.076	-0.173
-504.712	185.834	-0.223	-0.333
-503.697	-200.000	0.004	-0.273
-502.683	82.327	-0.173	0.188
-501.668	163.812	-0.196	-0.277
-500.653	281.341	0.112	0.201
-499.639	168.875	-0.140	-0.201
-498.624	-58.158	-0.169	-0.074
-497.610	55.027	0.058	-0.056
-496.595	-37.025	-0.278	0.149
-495.581	-24.508	0.159	-0.095
-494.566	-114.998	0.092	-0.018
-493.551	-106.491	0.288	-0.064
-492.537	-200.000	0.019	-0.089
-491.522	24.324	0.197	0.163
-490.508	94.549	-0.292	0.333
-489.493	297.829	-0.123	-0.226
-488.478	-109.534	0.220	0.047
-487.464	-200.000	-0.006	0.237
-486.449	199.074	-0.101	0.155
-485.435	302.667	0.138	-0.256
-484.420	-131.154	-0.223	0.030
-483.405	-79.154	0.120	0.041
-482.391	-80.535	-0.204	-0.068
-481.376	-109.637	0.377	0.080
-480.362	36.376	-0.157	-0.139
-479.347	-96.171	-0.131	0.035
-478.332	800.000	-0.067	0.218
-477.318	33.727	-0.063	0.055
-476.303	135.778	0.111	-0.145
-475.289	-200.000	0.018	-0.198
-474.274	-35.139	0.136	0.074
-473.259	-14.397	-0.226	0.146
-472.245	580.229	0.112	-0.276
-471.230	800.000	0.045	0.158
-470.216	800.000	-0.092	-0.274
-469.201	44.495	-0.066	0.061
-468.186	-70.376	-0.188	-0.071
-467.172	194.057	-0.088	0.134
-466.157	-36.142	-0.167	0.090
-465.143	-143.085	-0.400	-0.039
-464.128	-200.000	-0.007	-0.042
-463.113	-19.764	0.066	0.041
-462.099	231.549	0.219	0.360
-461.084	57.995	0.185	0.182
-460.070	13.364	-0.269	-0.209
-459.055	-44.607	-0.050	-0.025
-458.040	60.926	0.214	0.212
-457.026	202.064	-0.122	-0.189
-456.011	-184.603	0.130	0.002
-454.997	107.603	0.100	-0.119
-453.982	-200.000	0.072	-0.364
-452.968	800.000	0.034	0.117
-451.953	-141.346	0.169	0.017
-450.938	-199.246	0.172	-0.001
-449.924	-31.115	-0.187	-0.106
-448.909	-88.366	-0.345	-0.103
-447.895	800.000	0.052	-0.189
-446.880	20.822	-0.066	-0.053
-445.865	800.000	-0.050	-0.192
-444.851	214.282	0.093	0.147
-443.836	-85.015	-0.224	-0.070
-442.822	121.906	0.100	-0.125
-441.807	-6.341	0.169	0.115
-440.792	335.525	-0.085	-0.166
-439.778	-200.000	0.060	-0.372
-438.763	-99.752	0.185	0.046
-437.749	179.708	0.161	-0.235
-436.734	-200.000	-0.042	0.440
-435.719	-200.000	-0.039	-0.188
-434.705	118.594	0.129	0.159
-433.690	-73.335	0.126	-0.046
-432.676	-112.301	0.248	0.050
-431.661	439.171	-0.050	-0.110
-430.646	-24.413	0.179	-0.107
-429.632	-61.006	-0.162	0.069
-428.617	-136.714	-0.184	-0.021
-427.603	-107.205	0.219	0.048
-426.588	-122.896	0.177	-0.028
-425.573	-60.683	0.116	0.049
-424.559	-76.912	-0.119	0.042
-423.544	2.004	-0.264	0.191
-422.530	-146.921	-0.055	0.005
-421.515	-16.301	0.290	-0.184
-420.500	-200.000	-0.023	0.177
-419.486	-32.438	-0.205	-0.114
-418.471	-118.711	0.145	-0.026
-417.457	113.459	-0.044	0.054
-416.442	-14.192	0.334	0.216
-415.428	-145.479	0.069	-0.006
-414.413	-138.130	-0.287	-0.032
-413.398	644.346	-0.097	-0.249
-412.384	800.000	0.038	0.146
-411.369	-141.131	0.110	-0.011
-410.355	119.213	-0.296	0.366
-409.340	-54.075	0.102	0.047
-408.325	-16.058	0.411	-0.261
-407.311	-79.717	0.192	0.065
-406.296	90.977	0.096	-0.108
-405.282	-200.000	0.018	0.098
-404.267	7.711	-0.126	0.094
-403.252	237.402	-0.042	-0.070
-402.238	-200.000	-0.008	0.141
-401.223	-3.579	-0.199	0.138
-400.209	-200.000	0.001	0.067
-399.194	800.000	0.067	0.237
-398.179	49.285	0.429	0.403
-397.165	64.035	-0.238	0.239
-396.150	-103.852	0.416	-0.097
-395.136	-186.501	-0.449	0.006
-394.121	-76.061	-0.099	-0.035
-393.106	-87.106	0.304	-0.092
-392.092	-27.026	-0.329	0.192
-391.077	141.695	-0.139	0.184
-390.063	800.000	0.025	-0.094
-389.048	-200.000	0.062	-0.314
-388.033	171.333	0.167	-0.240
-387.019	800.000	-0.053	-0.228
-386.004	-70.599	-0.339	-0.128
-384.990	-79.010	0.320	0.109
-383.975	800.000	-0.062	-0.264
-382.960	110.302	0.186	-0.223
-381.946	-109.955	0.070	-0.015
-380.931	-200.000	0.044	0.000
-379.917	325.334	-0.160	0.307
-378.902	99.292	0.143	-0.165
-377.888	-5.557	-0.234	0.160
-376.873	350.215	0.130	-0.257
-375.858	64.366	0.186	0.188
-374.844	449.247	0.140	-0.308
-373.829	-46.615	-0.321	0.157
-372.815	-28.925	-0.184	-0.106
-371.800	385.065	-0.071	-0.147
-370.785	-157.025	0.345	-0.021
-369.771	5.705	0.224	-0.165
-368.756	-200.000	0.021	0.228
-367.742	294.765	-0.060	0.110
-366.727	-90.574	0.186	0.054
-365.712	596.894	-0.064	-0.158
-364.698	-200.000	0.057	0.426
-363.683	-105.349	-0.225	0.051
-362.669	562.384	0.021	-0.050
-361.654	-200.000	-0.037	0.277
-360.639	-200.000	0.030	-0.211
-359.625	-200.000	0.016	-0.081
-358.610	94.618	-0.116	-0.132
-357.596	-171.346	0.072	-0.002
-356.581	-104.944	-0.275	0.063
-355.566	82.483	-0.226	-0.245
-354.552	-33.342	-0.219	-0.121
-353.537	663.772	-0.014	0.037
-352.523	-158.789	0.205	-0.012
-351.508	-200.000	0.013	0.089
-350.493	-200.000	-0.008	-0.257
-349.479	75.831	0.373	0.393
-348.464	800.000	0.074	-0.288
-347.450	9.281	-0.143	-0.108
-346.435	30.963	0.033	-0.028
-345.420	204.696	-0.048	0.075
-344.406	-98.280	-0.096	0.025
-343.391	-200.000	0.041	0.511
-342.377	-153.078	0.247	-0.017
-341.362	11.543	-0.309	-0.237
-340.348	800.000	0.130	0.413
-339.333	-200.000	0.009	-0.277
-338.318	232.363	0.176	-0.288
-337.304	800.000	-0.071	0.303
-336.289	-200.000	0.013	-0.203
-335.275	-73.790	0.414	-0.150
-334.260	800.000	0.037	-0.107
-333.245	-200.000	-0.016	-0.191
-332.231	114.980	-0.202	0.246
-331.216	-69.968	0.288	-0.109
-330.202	296.468	-0.069	0.126
-329.187	-124.336	0.115	0.018
-328.172	-102.053	0.148	0.036
-327.158	446.666	0.132	-0.290
-326.143	800.000	-0.051	-0.201
-325.129	45.646	0.102	0.094
-324.114	790.220	0.084	0.230
-323.099	390.493	-0.072	0.150
-322.085	-68.596	-0.301	-0.116
-321.070	-138.283	-0.159	0.017
-320.056	212.119	-0.031	-0.048
-319.041	-200.000	0.019	-0.146
-318.026	27.251	-0.114	0.095
-317.012	-163.354	-0.016	-0.001
-315.997	192.106	-0.210	0.315
-314.983	-71.867	-0.302	0.112
-313.968	-75.684	-0.312	0.111
-312.953	-82.921	0.162	0.052
-311.939	47.119	-0.047	0.044
-310.924	16.564	-0.095	-0.075
-309.910	800.000	-0.136	0.413
-308.895	800.000	-0.019	-0.057
-307.880	176.545	0.103	-0.149
-306.866	206.277	-0.103	0.160
-305.851	-94.148	-0.024	-0.006
-304.837	476.280	0.051	-0.116
-303.822	385.847	-0.130	0.266
-302.807	-200.000	-0.007	-0.094
-301.793	-8.587	0.422	0.282
-300.778	-105.207	-0.067	-0.015
-299.764	-45.779	-0.159	0.078
-298.749	-9.254	0.126	-0.084
-297.735	-200.000	0.009	-0.479
-296.720	6.731	0.116	0.086
-295.705	193.955	0.125	0.189
-294.691	128.037	0.183	0.232
-293.676	463.122	-0.060	-0.133
-292.662	697.792	-0.074	0.193
-291.647	-200.000	0.022	0.125
-290.632	476.741	-0.136	0.305
-289.618	-200.000	-0.027	-0.184
-288.603	442.302	0.134	0.292
-287.589	-151.862	0.187	-0.014
-286.574	-6.002	-0.130	-0.088
-285.559	18.784	0.195	0.156
-284.545	76.754	-0.046	-0.048
-283.530	-200.000	-0.037	-0.181
-282.516	-200.000	0.102	0.458
-281.501	-200.000	-0.044	-0.352
-280.486	345.335	0.034	0.067
-279.472	115.640	0.123	0.150
-278.457	-129.356	0.248	0.034
-277.443	-74.885	0.205	-0.073
-276.428	38.549	0.132	0.117
-275.413	39.068	0.255	-0.227
-274.399	75.015	0.126	-0.132
-273.384	-37.906	0.167	-0.088
-272.370	182.882	-0.122	0.179
-271.355	-200.000	-0.044	-0.192
-270.340	-200.000	-0.078	-0.341
-269.326	90.147	-0.182	0.203
-268.311	800.000	0.131	0.410
-267.297	7.851	-0.282	-0.210
-266.282	-86.221	-0.124	-0.038
-265.267	-128.865	-0.266	0.037
-264.253	-17.993	0.140	-0.087
-263.238	-200.000	0.071	-0.333
-262.224	95.148	-0.085	0.096
-261.209	-43.783	0.179	0.089
-260.195	473.114	0.107	-0.240
-259.180	76.535	-0.094	-0.099
-258.165	182.725	0.006	0.009
-257.151	444.001	0.153	-0.334
-256.136	459.875	0.053	-0.117
-255.122	331.556	-0.057	0.109
-254.107	800.000	0.016	0.054
-253.092	-68.426	0.281	0.108
-252.078	800.000	0.040	-0.112
-251.063	800.000	-0.064	0.195
-250.049	-24.087	0.306	-0.182
-249.034	-160.016	0.176	0.010
-248.019	-64.348	-0.162	0.066
-247.005	-76.692	-0.162	0.057
-245.990	-64.043	0.451	-0.183
-244.976	-104.113	-0.174	-0.040
-243.961	56.203	0.091	0.087
-242.946	-200.000	-0.008	-0.280
-241.932	69.409	0.261	-0.267
-240.917	434.493	0.032	0.068
-239.903	-49.912	-0.261	-0.123
-238.888	-180.268	-0.062	-0.001
-237.873	-111.524	0.127	-0.026
-236.859	-200.000	0.026	0.200
-235.844	-200.000	0.007	-0.037
-234.830	189.987	-0.062	-0.093
-233.815	222.889	0.187	-0.300
-232.800	-68.721	0.160	0.061
-231.786	57.903	-0.030	-0.029
-230.771	-200.000	-0.009	0.327
-229.757	180.306	-0.072	0.105
-228.742	-100.214	0.125	-0.031
-227.727	51.189	-0.064	0.061
-226.713	-110.231	-0.139	-0.029
-225.698	20.736	0.097	-0.078
-224.684	-200.000	0.027	0.129
-223.669	38.590	-0.164	-0.146
-222.655	800.000	-0.028	-0.088
-221.640	116.921	-0.100	-0.122
-220.625	800.000	0.075	-0.233
-219.611	800.000	-0.120	-0.329
-218.596	-39.203	0.192	-0.100
-217.582	605.908	-0.064	-0.158
-216.567	159.603	0.080	-0.111
-215.552	759.199	0.139	0.375
-214.538	-19.929	0.106	-0.065
-213.523	22.194	0.030	0.024
-212.509	-55.861	-0.334	0.148
-211.494	131.566	-0.081	0.103
-210.479	378.030	0.236	0.480
-209.465	88.826	-0.132	-0.145
-208.450	294.496	-0.028	-0.051
-207.436	800.000	-0.156	-0.472
-206.421	66.364	0.149	-0.150
-205.406	-94.746	-0.094	-0.025
-204.392	-16.044	-0.056	-0.035
-203.377	-87.994	0.330	0.098
-202.363	468.760	0.120	0.268
-201.348	-38.501	0.249	-0.130
-200.333	543.365	-0.087	0.207
-199.319	-9.267	-0.176	0.117
-198.304	-200.000	0.013	0.063
-197.290	-124.079	-0.355	-0.055
-196.275	-103.924	-0.292	0.068
-195.260	-200.000	-0.010	0.059
-194.246	800.000	0.064	0.229
-193.231	-200.000	-0.009	-0.143
-192.217	65.851	-0.272	0.273
-191.202	284.496	0.051	0.090
-190.187	-147.431	0.174	0.015
-189.173	12.230	-0.126	-0.097
-188.158	194.457	-0.177	0.266
-187.144	-200.000	-0.039	-0.244
-186.129	800.000	-0.080	0.309
-185.114	-200.000	0.058	-0.281
-184.100	-9.968	0.219	-0.144
-183.085	-200.000	0.016	-0.069
-182.071	124.916	0.056	-0.069
-181.056	-121.015	0.143	0.024
-180.042	800.000	-0.128	0.416
-179.027	111.608	0.230	0.275
-178.012	-54.764	-0.302	-0.135
-176.998	-200.000	-0.022	-0.213
-175.983	103.415	-0.081	-0.095
-174.969	800.000	0.051	0.196
-173.954	284.685	0.134	0.239
-172.939	-80.355	0.404	-0.134
-171.925	-148.324	0.088	0.007
-170.910	45.621	0.242	0.222
-169.896	-200.000	-0.002	-0.096
-168.881	-88.544	-0.042	0.012
-167.866	-200.000	-0.015	-0.294
-166.852	148.494	0.124	-0.166
-165.837	-200.000	0.001	0.030
-164.823	159.937	0.272	0.375
-163.808	-114.902	0.460	-0.087
-162.793	-50.728	-0.137	0.064
-161.779	-200.000	-0.016	0.219
-160.764	150.504	-0.112	-0.151
-159.750	-200.000	-0.014	-0.176
-158.735	-200.000	0.002	-0.253
-157.720	418.055	0.126	0.266
-156.706	34.502	0.236	0.204
-155.691	40.253	-0.146	0.130
-154.677	508.819	-0.127	-0.291
-153.662	-110.333	-0.238	0.049
-152.647	227.555	-0.154	0.248
-151.633	83.290	-0.053	0.057
-150.618	-118.644	0.127	0.022
-149.604	405.840	-0.138	0.287
-148.589	-58.273	-0.066	0.028
-147.574	800.000	-0.044	0.126
-146.560	-41.524	-0.126	-0.064
-145.545	800.000	-0.103	0.328
-144.531	-69.973	-0.366	-0.138
-143.516	163.201	0.083	-0.116
-142.502	-200.000	0.021	0.230
-141.487	54.176	0.144	0.137
-140.472	12.710	0.125	-0.096
-139.458	-53.480	-0.074	0.034
-138.443	-59.112	0.222	-0.095
-137.429	800.000	-0.005	0.019
-136.414	-128.370	0.142	-0.020
-135.399	-97.396	0.237	0.061
-134.385	-110.563	-0.435	-0.089
-133.370	502.691	-0.120	-0.274
-132.356	285.834	0.171	0.305
-131.341	-75.721	0.056	0.020
-130.326	-200.000	-0.030	0.396
-129.312	800.000	-0.136	0.516
-128.297	-27.255	0.275	0.159
-127.283	116.871	-0.162	0.196
-126.268	-50.686	-0.307	-0.143
-125.253	194.234	-0.056	0.084
-124.239	233.761	-0.131	0.214
-123.224	-150.857	-0.219	-0.016
-122.210	42.481	0.280	0.252
-121.195	60.583	-0.191	0.187
