DTS Sentinel unit serial number:	SN413079Multiplexer serial number:	ORYXHardware model number:	OX4-SRSoftware version number:	ORYX F/W v4.00 Oryx Data Collector v3.7.2.0data status	okinstallation	princeton_trtdifferential loss correction	single-endedforward channel	channel 2reverse channel	N/Adate	2019/09/19time	05:35:35forward acquisition time	60.00reverse acquisition time	0.00gamma	496.2192k internal	0.2351k external	0.2351temperature offset calibration	1.0016default loss term (dB/km)	0.3790temperature slope calibration	1.0000multiplexer offset coefficient	1.0000multiplexer slope coefficient	1.0000fibre end	0.00T internal ref (°C)	19.31T ext. ref 1 (°C)	0.60T ext. ref 2 (°C)	12.85length (m)	temperature (°C)	Stokes	anti-Stokes-747.200	-45.980	-0.117	-0.057
-746.185	107.031	-0.126	0.149
-745.171	-200.000	-0.025	0.335
-744.156	143.425	-0.185	0.246
-743.142	-10.191	0.058	-0.039
-742.127	-134.430	-0.208	0.025
-741.112	120.069	-0.125	0.154
-740.098	-36.912	-0.324	0.174
-739.083	-47.567	0.105	0.051
-738.069	39.519	0.150	0.134
-737.054	-200.000	-0.001	-0.171
-736.039	-200.000	-0.071	-0.415
-735.025	-153.495	-0.275	0.019
-734.010	318.695	-0.063	-0.118
-732.996	-200.000	0.030	-0.184
-731.981	-84.387	-0.130	-0.041
-730.966	76.956	-0.310	-0.328
-729.952	465.976	0.045	-0.101
-728.937	-172.243	-0.371	0.012
-727.923	372.812	-0.015	-0.030
-726.908	-200.000	-0.026	-0.435
-725.894	-75.456	0.098	0.035
-724.879	-76.621	-0.134	-0.047
-723.864	225.124	-0.141	-0.227
-722.850	-62.839	0.068	0.028
-721.835	141.609	-0.138	-0.183
-720.821	11.058	-0.174	0.132
-719.806	800.000	-0.074	-0.268
-718.791	130.410	0.261	-0.333
-717.777	-200.000	-0.008	-0.089
-716.762	-60.981	-0.452	-0.190
-715.748	177.058	0.343	0.497
-714.733	-132.512	0.219	-0.028
-713.718	-121.037	-0.202	-0.034
-712.704	-6.065	-0.234	-0.160
-711.689	-134.428	-0.217	-0.026
-710.675	151.634	-0.151	-0.205
-709.660	-200.000	-0.009	0.113
-708.645	800.000	-0.141	0.400
-707.631	-183.902	-0.057	-0.001
-706.616	-178.590	0.355	-0.008
-705.602	107.082	-0.291	0.345
-704.587	-41.635	0.180	0.092
-703.572	-200.000	-0.101	0.535
-702.558	-48.789	-0.296	0.141
-701.543	77.717	-0.150	0.160
-700.529	-200.000	-0.006	0.159
-699.514	-7.302	0.006	-0.004
-698.499	-113.142	-0.068	-0.013
-697.485	220.696	0.164	-0.262
-696.470	-122.744	0.115	0.019
-695.456	-133.791	-0.211	0.026
-694.441	-89.251	0.081	-0.024
-693.426	800.000	0.061	0.214
-692.412	-82.604	-0.264	-0.085
-691.397	-200.000	0.014	-0.251
-690.383	-200.000	-0.025	0.149
-689.368	800.000	0.048	0.203
-688.354	-133.021	0.063	-0.008
-687.339	396.891	0.096	0.200
-686.324	400.337	-0.095	-0.199
-685.310	330.955	-0.087	-0.166
-684.295	194.633	0.045	-0.068
-683.281	155.802	0.098	0.135
-682.266	-109.047	-0.044	0.009
-681.251	800.000	-0.088	0.357
-680.237	258.700	0.142	0.244
-679.222	47.555	0.348	-0.324
-678.208	-200.000	-0.011	-0.223
-677.193	-23.190	-0.296	-0.177
-676.178	-160.868	0.571	-0.030
-675.164	-3.737	-0.336	0.232
-674.149	-35.327	-0.129	0.070
-673.135	-13.012	0.192	-0.125
-672.120	-68.536	0.140	-0.054
-671.105	-200.000	0.126	-0.616
-670.091	63.367	-0.086	-0.086
-669.076	-118.181	0.150	-0.027
-668.062	-200.000	0.070	-0.420
-667.047	-170.071	0.052	-0.002
-666.032	-52.738	0.070	0.032
-665.018	346.662	-0.127	0.249
-664.003	155.941	0.208	-0.285
-662.989	-103.406	-0.327	0.077
-661.974	-200.000	-0.022	0.200
-660.959	65.374	0.182	0.183
-659.945	-126.791	0.202	0.030
-658.930	142.342	0.083	0.110
-657.916	188.106	0.069	-0.103
-656.901	-200.000	-0.023	0.315
-655.886	800.000	-0.034	0.102
-654.872	-73.974	-0.270	0.098
-653.857	797.011	0.146	-0.400
-652.843	800.000	-0.024	-0.067
-651.828	-81.068	0.464	-0.153
-650.814	381.086	0.208	0.424
-649.799	71.961	0.082	0.085
-648.784	24.851	-0.241	0.199
-647.770	-200.000	-0.005	0.060
-646.755	733.698	0.042	0.112
-645.741	-68.361	-0.258	0.100
-644.726	-200.000	0.011	0.172
-643.711	-200.000	0.003	0.092
-642.697	-31.066	-0.282	0.158
-641.682	-73.538	-0.338	-0.122
-640.668	111.016	0.230	-0.276
-639.653	275.823	-0.166	-0.293
-638.638	627.450	-0.102	-0.256
-637.624	800.000	0.030	0.113
-636.609	48.158	0.236	0.219
-635.595	7.141	-0.211	-0.156
-634.580	-200.000	-0.020	0.292
-633.565	353.720	-0.139	-0.275
-632.551	-75.807	-0.398	0.140
-631.536	-146.002	0.157	-0.014
-630.522	-136.808	-0.130	-0.015
-629.507	-101.709	0.187	-0.045
-628.492	-200.000	0.032	-0.287
-627.478	-105.322	-0.080	0.018
-626.463	11.715	-0.152	-0.116
-625.449	-14.450	-0.031	-0.020
-624.434	-200.000	-0.266	0.001
-623.419	-200.000	-0.011	0.316
-622.405	92.787	0.255	-0.286
-621.390	-200.000	0.026	0.397
-620.376	-109.189	-0.378	0.080
-619.361	344.812	-0.062	0.122
-618.346	132.588	-0.244	-0.312
-617.332	63.843	-0.084	0.084
-616.317	129.898	-0.169	-0.215
-615.303	-200.000	-0.033	0.205
-614.288	27.658	0.039	0.033
-613.273	-200.000	0.024	0.160
-612.259	37.365	-0.062	0.054
-611.244	97.986	-0.133	0.152
-610.230	-136.958	-0.035	0.004
-609.215	-23.312	0.296	0.177
-608.201	-200.000	-0.007	0.048
-607.186	-182.117	0.095	-0.002
-606.171	3.474	-0.144	-0.104
-605.157	-22.182	0.138	-0.083
-604.142	300.178	0.087	-0.160
-603.128	-40.993	0.155	0.079
-602.113	314.268	0.102	0.191
-601.098	-129.735	-0.135	-0.018
-600.084	800.000	0.079	0.306
-599.069	800.000	-0.027	0.082
-598.055	-125.417	-0.283	0.043
-597.040	-200.000	-0.012	-0.180
-596.025	-59.640	-0.316	0.135
-595.011	800.000	-0.052	0.208
-593.996	179.150	0.144	-0.208
-592.982	42.458	0.222	0.200
-591.967	-200.000	0.002	0.030
-590.952	-10.603	-0.280	-0.184
-589.938	-200.000	0.028	-0.238
-588.923	301.538	0.133	0.244
-587.909	800.000	0.078	0.321
-586.894	-27.779	0.314	-0.180
-585.879	800.000	-0.042	-0.157
-584.865	-78.866	-0.126	-0.043
-583.850	800.000	0.033	0.091
-582.836	0.610	-0.316	-0.224
-581.821	-157.473	0.265	0.016
-580.806	800.000	0.074	0.232
-579.792	800.000	-0.092	-0.283
-578.777	217.997	0.195	0.308
-577.763	15.949	0.096	0.075
-576.748	551.490	-0.151	0.359
-575.733	800.000	0.014	-0.055
-574.719	-73.647	0.206	-0.074
-573.704	-200.000	0.000	-0.076
-572.690	190.749	-0.151	0.225
-571.675	47.691	-0.026	-0.024
-570.661	-91.965	-0.192	-0.054
-569.646	-85.634	0.077	-0.024
-568.631	1.226	-0.110	-0.078
-567.617	-127.688	-0.222	-0.032
-566.602	-54.822	0.179	-0.080
-565.588	-200.000	-0.018	-0.276
-564.573	800.000	0.015	-0.052
-563.558	28.635	0.055	0.046
-562.544	-110.782	-0.115	0.023
-561.529	-200.000	-0.060	0.266
-560.515	-41.740	0.250	-0.127
-559.500	60.717	0.151	-0.149
-558.485	-30.596	-0.178	0.100
-557.471	428.518	0.092	-0.197
-556.456	514.213	-0.193	0.446
-555.442	91.541	0.187	0.208
-554.427	-200.000	-0.017	-0.304
-553.412	207.855	-0.057	0.088
-552.398	-200.000	0.016	-0.170
-551.383	-148.458	0.239	-0.019
-550.369	-30.675	-0.369	-0.207
-549.354	140.627	-0.145	0.190
-548.339	-115.344	0.397	0.074
-547.325	360.820	0.136	0.270
-546.310	-200.000	-0.096	0.434
-545.296	-200.000	-0.028	-0.224
-544.281	50.554	0.274	0.257
-543.266	186.422	-0.174	-0.256
-542.252	310.733	0.155	-0.288
-541.237	-200.000	-0.014	-0.087
-540.223	85.930	-0.402	-0.437
-539.208	-43.214	-0.334	0.167
-538.193	-200.000	0.228	-0.001
-537.179	-131.432	0.249	-0.033
-536.164	-184.108	-0.189	0.003
-535.150	-200.000	-0.029	-0.295
-534.135	24.324	0.192	0.157
-533.121	692.451	0.125	0.324
-532.106	-163.693	-0.309	0.014
-531.091	-182.855	0.171	0.003
-530.077	-74.312	0.215	-0.077
-529.062	42.991	-0.094	-0.085
-528.048	800.000	-0.012	0.037
-527.033	181.687	-0.029	-0.043
-526.018	-168.167	-0.344	0.013
-525.004	800.000	0.068	-0.281
-523.989	-190.445	0.165	-0.002
-522.975	-79.105	0.270	0.091
-521.960	-200.000	0.037	0.182
-520.945	-200.000	-0.021	-0.207
-519.931	49.391	0.105	0.097
-518.916	1.614	0.202	-0.144
-517.902	106.196	0.099	-0.116
-516.887	-61.166	-0.237	0.099
-515.872	-174.520	0.105	-0.003
-514.858	-200.000	-0.020	0.189
-513.843	90.011	0.299	0.330
-512.829	800.000	0.082	0.331
-511.814	77.506	0.150	-0.158
-510.799	-200.000	0.028	0.131
-509.785	-200.000	0.027	0.330
-508.770	75.290	-0.059	0.062
-507.756	-86.072	0.097	-0.030
-506.741	340.873	-0.061	0.117
-505.726	6.185	0.128	-0.094
-504.712	800.000	-0.100	-0.277
-503.697	-140.662	0.113	-0.012
-502.683	67.460	0.111	0.112
-501.668	800.000	-0.047	0.145
-500.653	28.353	-0.103	0.086
-499.639	345.287	0.020	0.038
-498.624	-89.656	-0.412	-0.119
-497.610	-103.581	-0.173	-0.040
-496.595	-189.755	0.098	-0.001
-495.581	-101.517	0.030	0.007
-494.566	-86.711	0.173	0.052
-493.551	-170.179	-0.310	-0.011
-492.537	37.827	-0.277	-0.244
-491.522	-116.987	0.123	-0.022
-490.508	152.781	0.151	-0.204
-489.493	-198.052	-0.127	0.001
-488.478	28.327	-0.221	-0.185
-487.464	-116.084	0.084	0.015
-486.449	800.000	-0.027	0.103
-485.435	-33.006	0.304	0.167
-484.420	-107.168	0.109	0.024
-483.405	800.000	0.049	-0.151
-482.391	220.902	-0.110	0.175
-481.376	157.823	-0.054	-0.074
-480.362	203.791	0.110	0.168
-479.347	-133.094	0.092	-0.012
-478.332	70.749	0.131	-0.134
-477.318	97.050	-0.081	0.092
-476.303	-118.218	0.240	0.042
-475.289	-200.000	0.008	-0.173
-474.274	129.834	-0.198	-0.250
-473.259	706.682	-0.075	-0.195
-472.245	198.316	-0.077	-0.117
-471.230	-0.305	-0.123	0.086
-470.216	-182.619	0.135	-0.002
-469.201	-72.488	0.126	0.046
-468.186	-200.000	-0.041	-0.190
-467.172	-81.679	0.302	0.098
-466.157	-11.354	-0.160	0.104
-465.143	-200.000	0.017	0.285
-464.128	-200.000	0.013	-0.394
-463.113	-200.000	-0.023	-0.132
-462.099	800.000	0.042	0.117
-461.084	800.000	-0.025	0.098
-460.070	800.000	-0.012	0.037
-459.055	-200.000	-0.028	-0.347
-458.040	-111.778	-0.067	0.013
-457.026	-36.486	-0.327	0.174
-456.011	-200.000	0.013	0.094
-454.997	-72.747	-0.273	0.099
-453.982	-106.412	0.203	0.045
-452.968	1.683	-0.137	-0.097
-451.953	-200.000	0.035	0.000
-450.938	41.596	0.184	0.164
-449.924	87.783	-0.120	0.131
-448.909	-7.865	0.116	0.077
-447.895	-18.535	-0.370	0.228
-446.880	788.802	-0.119	-0.322
-445.865	-200.000	0.084	0.539
-444.851	-85.528	-0.090	-0.028
-443.836	67.767	-0.164	-0.165
-442.822	-78.627	-0.206	-0.069
-441.807	-33.785	0.228	-0.124
-440.792	800.000	0.044	-0.176
-439.778	-200.000	0.026	0.269
-438.763	215.560	-0.204	0.319
-437.749	-200.000	-0.052	-0.438
-436.734	800.000	0.159	-0.453
-435.719	800.000	-0.051	-0.215
-434.705	39.930	-0.192	-0.170
-433.690	29.661	0.138	-0.116
-432.676	-19.772	-0.093	0.057
-431.661	-32.136	-0.205	-0.113
-430.646	-123.153	-0.169	0.027
-429.632	132.582	0.227	-0.289
-428.617	-200.000	0.069	0.385
-427.603	237.349	-0.061	0.099
-426.588	-143.129	0.200	0.019
-425.573	778.865	-0.006	-0.017
-424.559	51.231	0.101	-0.094
-423.544	5.584	0.156	-0.114
-422.530	-200.000	0.019	-0.167
-421.515	-81.284	-0.101	0.033
-420.500	-132.065	0.297	-0.038
-419.486	407.315	-0.061	0.127
-418.471	84.283	0.158	-0.170
-417.457	453.402	0.050	0.110
-416.442	581.418	0.046	0.111
-415.428	-200.000	-0.009	-0.218
-414.413	-152.177	-0.222	-0.016
-413.398	800.000	0.072	0.221
-412.384	151.867	-0.114	0.153
-411.369	-200.000	0.001	0.530
-410.355	-200.000	0.023	-0.271
-409.340	159.963	0.090	0.123
-408.325	8.344	0.198	-0.146
-407.311	800.000	0.128	0.398
-406.296	800.000	-0.075	-0.264
-405.282	-200.000	-0.006	0.127
-404.267	-15.164	0.184	0.116
-403.252	-75.944	0.241	0.084
-402.238	-200.000	-0.068	-0.310
-401.223	-150.433	-0.091	0.007
-400.209	-195.178	0.319	-0.002
-399.194	109.822	-0.222	-0.263
-398.179	800.000	0.043	-0.184
-397.165	553.526	-0.104	-0.246
-396.150	-200.000	0.009	0.058
-395.136	14.180	-0.241	0.185
-394.121	-182.791	-0.234	-0.004
-393.106	-98.125	0.150	-0.038
-392.092	-200.000	-0.043	0.249
-391.077	800.000	-0.097	-0.285
-390.063	-171.365	0.428	0.014
-389.048	66.810	-0.166	0.166
-388.033	59.384	0.058	0.057
-387.019	-46.820	-0.166	-0.080
-386.004	286.367	0.053	-0.094
-384.990	800.000	0.066	-0.195
-383.975	-80.229	-0.360	-0.118
-382.960	185.742	0.246	0.359
-381.946	-131.509	0.385	-0.050
-380.931	13.741	0.249	0.190
-379.917	275.304	0.070	-0.121
-378.902	85.830	0.253	-0.273
-377.888	-80.026	-0.265	-0.088
-376.873	323.662	-0.094	-0.177
-375.858	800.000	0.029	-0.110
-374.844	530.153	0.055	-0.127
-373.829	-55.415	0.130	-0.057
-372.815	188.006	-0.151	0.222
-371.800	800.000	-0.032	-0.126
-370.785	800.000	0.039	0.108
-369.771	-1.273	-0.008	-0.006
-368.756	236.497	0.083	0.135
-367.742	67.689	0.094	-0.094
-366.727	-82.089	-0.279	0.089
-365.712	800.000	-0.035	-0.099
-364.698	-34.384	0.137	-0.074
-363.683	379.942	0.099	-0.199
-362.669	-200.000	-0.038	-0.312
-361.654	39.835	0.421	0.371
-360.639	73.449	-0.082	-0.084
-359.625	222.787	0.133	-0.211
-358.610	-148.326	-0.201	-0.016
-357.596	-120.656	0.062	0.010
-356.581	-124.514	-0.158	0.024
-355.566	-6.185	0.244	-0.164
-354.552	-200.000	0.004	-0.052
-353.537	119.038	-0.079	0.095
-352.523	-121.943	-0.212	0.034
-351.508	800.000	0.036	0.128
-350.493	76.118	0.170	0.177
-349.479	151.410	0.088	0.118
-348.464	-89.898	-0.078	0.022
-347.450	-200.000	-0.016	-0.188
-346.435	-142.831	0.269	-0.026
-345.420	128.931	-0.039	0.049
-344.406	-98.467	0.220	-0.055
-343.391	-131.520	0.200	-0.026
-342.377	-11.323	0.296	-0.192
-341.362	-81.762	0.105	-0.034
-340.348	-108.900	-0.193	-0.040
-339.333	213.128	0.050	0.077
-338.318	353.226	0.157	0.306
-337.304	-46.227	0.137	0.066
-336.289	-200.000	0.043	-0.239
-335.275	453.247	0.213	0.463
-334.260	122.294	-0.106	0.130
-333.245	271.448	-0.127	0.220
-332.231	-200.000	-0.026	0.281
-331.216	177.154	0.153	0.219
-330.202	-135.071	-0.457	-0.054
-329.187	336.872	0.120	-0.229
-328.172	-105.633	0.116	0.026
-327.158	296.949	0.119	0.214
-326.143	3.524	0.167	-0.120
-325.129	800.000	0.062	-0.172
-324.114	800.000	-0.053	0.164
-323.099	800.000	-0.128	-0.349
-322.085	385.163	0.026	0.053
-321.070	800.000	-0.052	0.185
-320.056	-200.000	-0.024	-0.126
-319.041	800.000	-0.111	-0.466
-318.026	800.000	0.005	0.021
-317.012	78.461	0.189	0.199
-315.997	-67.704	-0.126	0.048
-314.983	-97.363	-0.251	0.064
-313.968	-99.324	-0.178	-0.044
-312.953	-86.991	-0.243	-0.073
-311.939	192.647	-0.013	-0.019
-310.924	800.000	-0.090	0.301
-309.910	127.047	0.120	-0.149
-308.895	-97.484	0.193	0.049
-307.880	-169.832	0.221	0.008
-306.866	447.713	-0.089	-0.192
-305.851	-200.000	-0.002	0.087
-304.837	254.229	-0.150	-0.252
-303.822	277.206	0.059	0.103
-302.807	-36.708	-0.236	0.124
-301.793	177.163	0.082	-0.118
-300.778	-32.622	-0.148	0.081
-299.764	-152.375	0.175	-0.012
-298.749	18.276	0.332	-0.260
-297.735	151.176	-0.117	-0.156
-296.720	-45.733	-0.338	0.164
-295.705	243.729	0.112	0.185
-294.691	-48.267	-0.250	0.118
-293.676	-200.000	0.015	-0.223
-292.662	-80.108	-0.214	-0.070
-291.647	39.730	0.201	0.177
-290.632	-169.787	0.311	0.011
-289.618	45.632	0.085	-0.077
-288.603	39.623	-0.221	-0.194
-287.589	-200.000	0.010	0.146
-286.574	88.689	0.198	-0.216
-285.559	96.236	0.190	-0.213
-284.545	37.951	0.182	-0.159
-283.530	-200.000	-0.005	-0.087
-282.516	-118.320	0.171	0.030
-281.501	-37.883	0.152	-0.079
-280.486	274.815	-0.100	-0.174
-279.472	381.793	-0.110	-0.222
-278.457	216.052	-0.233	-0.362
-277.443	60.509	0.096	0.093
-276.428	-121.447	-0.260	-0.042
-275.413	249.840	-0.109	0.181
-274.399	153.388	-0.088	-0.118
-273.384	99.425	0.061	0.069
-272.370	543.480	-0.224	0.524
-271.355	93.156	0.199	-0.221
-270.340	-39.248	0.118	-0.061
-269.326	-33.536	0.332	-0.180
-268.311	146.235	-0.127	-0.167
-267.297	-82.777	0.055	-0.017
-266.282	-51.495	0.220	0.101
-265.267	-144.152	0.195	0.018
-264.253	24.615	-0.137	0.111
-263.238	-146.299	-0.137	-0.012
-262.224	5.573	-0.170	0.123
-261.209	220.411	0.074	0.116
-260.195	92.852	0.214	-0.237
-259.180	-162.632	0.035	-0.002
-258.165	576.358	0.078	-0.187
-257.151	424.649	-0.077	0.163
-256.136	499.875	-0.074	0.167
-255.122	-4.411	0.350	-0.237
-254.107	-128.201	0.304	-0.043
-253.092	800.000	0.190	-0.587
-252.078	-153.182	0.041	-0.003
-251.063	19.118	-0.151	0.119
-250.049	-57.653	-0.299	0.128
-249.034	800.000	-0.039	-0.130
-248.019	-200.000	-0.007	0.084
-247.005	-60.194	-0.273	-0.114
-245.990	-200.000	0.006	0.296
-244.976	-47.982	0.147	0.069
-243.961	800.000	0.028	-0.116
-242.946	323.492	0.061	-0.114
-241.932	37.664	0.156	-0.135
-240.917	26.372	-0.170	-0.139
-239.903	800.000	0.084	0.287
-238.888	-90.415	-0.367	-0.104
-237.873	800.000	-0.038	0.138
-236.859	26.518	0.041	-0.034
-235.844	-41.549	-0.235	-0.118
-234.830	-200.000	0.025	0.319
-233.815	10.553	-0.087	0.065
-232.800	-200.000	0.031	-0.166
-231.786	22.826	0.243	-0.195
-230.771	217.568	-0.023	0.035
-229.757	17.939	0.124	-0.097
-228.742	-8.453	-0.178	0.117
-227.727	-200.000	-0.033	-0.398
-226.713	-182.915	0.309	0.005
-225.698	-103.545	-0.314	-0.072
-224.684	-143.597	-0.087	-0.008
-223.669	101.568	-0.176	-0.201
-222.655	800.000	0.051	0.160
-221.640	196.891	-0.125	0.186
-220.625	-200.000	0.030	0.188
-219.611	59.548	-0.269	0.260
-218.596	-48.689	0.414	0.195
-217.582	-17.737	-0.145	0.089
-216.567	91.352	-0.121	0.133
-215.552	687.945	-0.065	0.167
-214.538	-114.869	-0.252	-0.047
-213.523	-200.000	-0.004	0.229
-212.509	-200.000	0.069	0.307
-211.494	-200.000	-0.002	-0.293
-210.479	-145.801	-0.194	0.017
-209.465	-125.080	0.183	0.027
-208.450	800.000	-0.079	0.233
-207.436	60.138	-0.110	-0.107
-206.421	99.142	-0.257	-0.290
-205.406	-200.000	0.025	-0.248
-204.392	492.781	-0.151	-0.339
-203.377	482.242	-0.094	-0.208
-202.363	800.000	-0.042	-0.163
-201.348	-27.609	-0.023	0.013
-200.333	116.948	-0.060	0.072
-199.319	-38.662	0.287	0.148
-198.304	-131.139	-0.389	0.051
-197.290	-200.000	0.055	-0.328
-196.275	-142.257	0.176	0.017
-195.260	10.883	0.127	-0.095
-194.246	389.645	0.025	-0.051
-193.231	55.745	-0.273	-0.258
-192.217	-99.253	0.195	0.048
-191.202	-95.020	0.215	0.057
-190.187	51.793	0.238	0.221
-189.173	108.051	-0.220	0.257
-188.158	19.580	-0.118	0.093
-187.144	336.071	-0.054	-0.102
-186.129	-60.639	0.235	0.097
-185.114	82.850	0.073	-0.077
-184.100	-8.113	-0.226	0.149
-183.085	-11.121	0.023	0.015
-182.071	-200.000	-0.008	0.137
-181.056	199.919	0.138	0.207
-180.042	21.299	0.218	0.173
-179.027	343.147	-0.149	0.285
-178.012	746.288	0.065	-0.172
-176.998	800.000	0.033	-0.099
-175.983	-142.945	-0.074	-0.007
-174.969	368.848	-0.153	-0.301
-173.954	-48.820	-0.071	-0.033
-172.939	-7.659	-0.372	0.246
-171.925	-27.157	0.046	-0.026
-170.910	89.206	0.097	0.106
-169.896	800.000	0.098	-0.352
-168.881	-200.000	-0.052	0.253
-167.866	-200.000	0.002	0.060
-166.852	-159.264	0.200	0.011
-165.837	-56.352	-0.161	-0.070
-164.823	738.942	0.019	-0.049
-163.808	177.213	0.166	0.236
-162.793	-200.000	-0.043	0.195
-161.779	351.340	-0.158	0.304
-160.764	-200.000	-0.043	-0.309
-159.750	-71.019	0.157	0.058
-158.735	-162.412	-0.334	-0.016
-157.720	33.660	-0.134	0.113
-156.706	-110.127	0.187	-0.038
-155.691	143.093	0.151	0.196
-154.677	800.000	0.086	0.256
-153.662	-32.882	-0.258	-0.140
-152.647	-108.053	0.236	-0.050
-151.633	-135.590	0.531	0.062
-150.618	49.208	0.124	0.114
-149.604	-63.640	-0.105	0.042
-148.589	800.000	-0.132	0.358
-147.574	-57.639	0.194	0.083
-146.560	275.957	0.080	0.139
-145.545	-200.000	0.082	0.444
-144.531	-200.000	0.016	-0.069
-143.516	-90.012	0.255	0.073
-142.502	-2.806	0.122	0.083
-141.487	292.409	0.103	0.182
-140.472	-10.703	0.099	-0.064
-139.458	12.082	0.189	0.142
-138.443	108.792	-0.078	0.091
-137.429	800.000	0.086	0.304
-136.414	-86.753	0.073	0.022
-135.399	104.504	0.113	0.130
-134.385	491.867	-0.011	-0.024
-133.370	-10.214	-0.237	0.154
-132.356	-151.143	0.430	-0.031
-131.341	800.000	0.078	0.274
-130.326	-200.000	-0.003	-0.371
-129.312	-37.409	-0.061	0.032
-128.297	-117.094	-0.236	0.042
-127.283	-200.000	-0.028	0.146
-126.268	-26.144	0.325	0.186
-125.253	353.949	0.041	-0.079
-124.239	623.993	-0.202	0.496
-123.224	-200.000	0.056	0.248
-122.210	-200.000	0.017	-0.196
-121.195	-200.000	0.061	-0.286
