DTS Sentinel unit serial number:	SN413079Multiplexer serial number:	ORYXHardware model number:	OX4-SRSoftware version number:	ORYX F/W v4.00 Oryx Data Collector v3.7.2.0data status	okinstallation	princeton_trtdifferential loss correction	single-endedforward channel	channel 2reverse channel	N/Adate	2019/09/15time	15:15:35forward acquisition time	60.00reverse acquisition time	0.00gamma	496.2192k internal	0.2298k external	0.2298temperature offset calibration	0.9966default loss term (dB/km)	0.3790temperature slope calibration	1.0000multiplexer offset coefficient	1.0000multiplexer slope coefficient	1.0000fibre end	0.00T internal ref (°C)	40.69T ext. ref 1 (°C)	5.01T ext. ref 2 (°C)	37.97length (m)	temperature (°C)	Stokes	anti-Stokes-747.200	-200.000	-0.044	0.240
-746.185	130.273	0.211	0.276
-745.171	-118.344	0.094	0.017
-744.156	800.000	0.062	0.215
-743.142	-163.196	-0.238	0.012
-742.127	0.883	0.023	-0.017
-741.112	-82.920	0.143	-0.047
-740.098	55.402	-0.114	0.112
-739.083	680.510	0.068	0.182
-738.069	150.574	-0.178	0.247
-737.054	28.616	0.143	0.124
-736.039	31.517	-0.069	-0.060
-735.025	571.468	-0.060	0.148
-734.010	129.939	-0.130	-0.169
-732.996	10.214	-0.057	0.044
-731.981	113.193	-0.190	-0.235
-730.966	202.260	0.079	0.124
-729.952	436.258	-0.037	-0.081
-728.937	-200.000	-0.027	0.179
-727.923	143.279	-0.153	0.208
-726.908	-183.405	-0.150	0.003
-725.894	-77.065	-0.191	0.068
-724.879	-147.708	-0.085	0.007
-723.864	-200.000	0.020	0.122
-722.850	-200.000	-0.032	-0.339
-721.835	-29.789	-0.160	0.093
-720.821	-69.179	-0.151	-0.059
-719.806	84.982	-0.143	-0.160
-718.791	81.960	0.311	-0.344
-717.777	479.430	-0.081	-0.187
-716.762	75.689	-0.034	-0.036
-715.748	196.077	-0.060	0.092
-714.733	-155.226	0.388	-0.026
-713.718	-57.482	0.147	-0.066
-712.704	216.178	-0.060	0.098
-711.689	-91.747	-0.344	-0.100
-710.675	-200.000	0.045	-0.290
-709.660	463.365	0.173	-0.394
-708.645	68.857	-0.093	0.097
-707.631	-168.973	-0.172	0.007
-706.616	-200.000	0.072	-0.351
-705.602	58.476	0.083	-0.083
-704.587	-11.616	0.291	-0.195
-703.572	-136.369	0.284	-0.034
-702.558	-200.000	-0.010	0.209
-701.543	72.201	0.132	0.140
-700.529	-200.000	0.013	-0.067
-699.514	-200.000	-0.051	-0.340
-698.499	-200.000	0.022	-0.346
-697.485	-105.769	0.108	0.025
-696.470	-200.000	0.024	-0.194
-695.456	208.848	0.289	0.462
-694.441	-55.454	0.292	-0.133
-693.426	800.000	-0.160	-0.460
-692.412	101.165	-0.337	-0.399
-691.397	-180.740	-0.237	0.005
-690.383	86.015	0.246	0.276
-689.368	92.503	0.070	0.081
-688.354	40.444	0.114	-0.104
-687.339	610.561	-0.061	-0.155
-686.324	-166.954	0.473	-0.020
-685.310	17.452	-0.138	-0.112
-684.295	-80.222	-0.167	-0.057
-683.281	-132.477	-0.279	-0.037
-682.266	139.551	0.122	-0.164
-681.251	800.000	-0.055	-0.165
-680.237	61.198	0.144	0.146
-679.222	-107.095	-0.117	0.026
-678.208	-200.000	-0.007	-0.100
-677.193	-200.000	0.034	-0.165
-676.178	463.690	-0.118	0.268
-675.164	95.266	-0.106	0.123
-674.149	-46.474	0.256	0.128
-673.135	312.045	0.128	0.244
-672.120	-126.498	-0.155	-0.023
-671.105	20.694	0.214	0.177
-670.091	69.594	0.129	0.135
-669.076	76.790	-0.302	0.326
-668.062	27.840	0.046	-0.040
-667.047	111.108	0.085	-0.104
-666.032	-29.602	0.096	0.056
-665.018	-80.805	-0.207	-0.070
-664.003	36.359	-0.199	-0.179
-662.989	219.860	-0.051	-0.083
-661.974	24.632	-0.136	0.115
-660.959	62.282	-0.152	-0.154
-659.945	97.612	0.204	-0.239
-658.930	22.071	-0.271	-0.225
-657.916	111.387	-0.071	-0.087
-656.901	800.000	-0.087	0.334
-655.886	83.497	-0.099	-0.109
-654.872	-200.000	-0.015	-0.389
-653.857	6.176	-0.296	-0.223
-652.843	-59.125	0.207	-0.091
-651.828	800.000	-0.064	-0.191
-650.814	-18.130	0.247	-0.157
-649.799	-200.000	-0.085	-0.410
-648.784	-200.000	0.020	-0.290
-647.770	4.455	-0.102	0.076
-646.755	-48.476	0.129	-0.063
-645.741	29.980	0.064	0.056
-644.726	-104.511	-0.378	-0.089
-643.711	-93.987	-0.141	-0.039
-642.697	-65.472	0.192	-0.079
-641.682	-33.794	0.118	0.066
-640.668	-77.238	0.110	-0.039
-639.653	800.000	0.089	-0.254
-638.638	390.090	-0.018	0.038
-637.624	-180.774	0.173	-0.004
-636.609	-68.171	-0.491	0.194
-635.595	-91.260	0.359	0.105
-634.580	19.511	-0.191	-0.156
-633.565	134.784	0.034	0.045
-632.551	103.229	-0.324	-0.386
-631.536	172.925	-0.220	-0.322
-630.522	7.790	-0.062	-0.047
-629.507	-103.158	0.187	-0.045
-628.492	-144.109	-0.193	-0.018
-627.478	-76.842	-0.375	-0.133
-626.463	516.254	0.024	0.058
-625.449	-84.762	0.197	-0.063
-624.434	-116.019	0.153	0.029
-623.419	81.145	-0.127	-0.140
-622.405	800.000	0.066	-0.266
-621.390	176.428	-0.210	-0.311
-620.376	3.060	-0.138	-0.102
-619.361	126.696	-0.149	0.192
-618.346	81.127	-0.029	-0.032
-617.332	-16.709	-0.028	0.018
-616.317	-200.000	-0.004	0.032
-615.303	-157.748	-0.297	-0.018
-614.288	-141.554	-0.223	0.023
-613.273	-200.000	0.013	0.122
-612.259	391.831	0.179	0.378
-611.244	-153.049	0.214	-0.015
-610.230	-33.729	-0.060	-0.034
-609.215	-117.242	-0.073	-0.014
-608.201	-44.270	0.203	-0.103
-607.186	-12.513	0.099	0.066
-606.171	186.797	-0.229	0.346
-605.157	129.422	0.093	0.121
-604.142	800.000	-0.045	0.164
-603.128	101.607	0.101	-0.120
-602.113	729.899	0.047	0.128
-601.098	-86.419	-0.061	-0.019
-600.084	-39.780	-0.167	0.089
-599.069	-200.000	0.025	0.132
-598.055	-123.390	0.160	0.026
-597.040	424.790	0.135	0.296
-596.025	-22.223	0.146	-0.090
-595.011	800.000	-0.062	0.226
-593.996	-47.897	-0.250	0.123
-592.982	-107.447	0.191	-0.043
-591.967	-24.792	-0.134	-0.081
-590.952	26.963	0.208	-0.177
-589.938	39.710	0.180	-0.164
-588.923	800.000	-0.022	0.084
-587.909	497.830	0.175	0.408
-586.894	-197.295	-0.091	0.001
-585.879	-13.148	0.060	-0.039
-584.865	-200.000	0.007	0.068
-583.850	297.699	-0.058	0.107
-582.836	177.851	-0.099	-0.147
-581.821	-7.368	0.141	0.097
-580.806	-87.381	-0.182	-0.056
-579.792	480.122	-0.058	-0.134
-578.777	230.954	-0.047	-0.078
-577.763	-200.000	-0.165	0.000
-576.748	-200.000	0.004	-0.159
-575.733	397.330	0.090	-0.190
-574.719	-99.156	-0.276	0.071
-573.704	-124.709	-0.262	0.041
-572.690	-18.805	-0.249	0.157
-571.675	-191.446	-0.221	0.002
-570.661	147.495	0.056	0.076
-569.646	-106.447	-0.146	-0.033
-568.631	-199.608	-0.310	0.002
-567.617	236.168	0.093	-0.157
-566.602	-63.118	-0.393	0.165
-565.588	-94.828	-0.284	-0.078
-564.573	161.718	-0.199	0.283
-563.558	-200.000	-0.008	-0.507
-562.544	-48.092	-0.232	0.113
-561.529	58.502	0.140	-0.139
-560.515	-88.518	0.202	0.061
-559.500	-146.457	0.133	0.012
-558.485	-200.000	-0.017	0.107
-557.471	82.505	0.274	0.302
-556.456	57.381	0.208	-0.206
-555.442	-92.961	0.388	0.110
-554.427	31.106	-0.190	0.165
-553.412	60.046	0.076	0.076
-552.398	-14.206	-0.171	-0.112
-551.383	267.333	0.079	-0.139
-550.369	48.604	-0.161	0.153
-549.354	-154.707	0.136	-0.009
-548.339	-54.245	0.349	0.161
-547.325	-200.000	0.009	-0.056
-546.310	-45.804	0.188	0.094
-545.296	-153.796	0.189	-0.013
-544.281	-72.752	-0.131	-0.049
-543.266	565.846	-0.106	-0.260
-542.252	-185.249	-0.292	0.005
-541.237	-122.419	0.148	0.024
-540.223	116.189	-0.097	0.120
-539.208	800.000	-0.059	0.260
-538.193	-79.181	-0.166	-0.057
-537.179	800.000	-0.012	-0.049
-536.164	392.627	0.050	0.106
-535.150	-126.293	-0.117	0.018
-534.135	10.250	0.169	-0.130
-533.121	-200.000	-0.005	-0.066
-532.106	-200.000	-0.023	0.253
-531.091	-98.241	-0.250	-0.065
-530.077	-200.000	0.027	-0.153
-529.062	277.580	0.159	-0.286
-528.048	445.199	0.154	-0.342
-527.033	-153.606	0.239	-0.017
-526.018	-63.952	0.196	-0.081
-525.004	357.683	-0.061	0.122
-523.989	800.000	0.069	0.217
-522.975	-41.134	-0.095	0.050
-521.960	800.000	0.146	-0.540
-520.945	-26.523	-0.141	-0.084
-519.931	-200.000	-0.023	0.341
-518.916	-200.000	0.017	0.430
-517.902	36.877	0.219	0.196
-516.887	-22.041	-0.356	-0.219
-515.872	-200.000	-0.046	-0.243
-514.858	-200.000	-0.013	0.183
-513.843	800.000	0.019	-0.085
-512.829	-79.513	0.217	0.074
-511.814	-151.092	0.296	-0.023
-510.799	-160.534	-0.448	0.024
-509.785	800.000	-0.045	0.180
-508.770	-47.854	-0.185	0.090
-507.756	30.425	0.164	0.142
-506.741	231.975	-0.206	0.341
-505.726	-112.971	-0.311	0.062
-504.712	-81.854	0.284	-0.094
-503.697	-200.000	-0.003	-0.244
-502.683	93.247	0.132	0.151
-501.668	-83.154	-0.215	0.070
-500.653	800.000	-0.090	-0.307
-499.639	171.724	-0.055	-0.080
-498.624	236.059	0.182	-0.305
-497.610	494.099	0.092	-0.212
-496.595	695.727	-0.066	0.175
-495.581	51.175	0.213	-0.205
-494.566	23.953	-0.208	-0.173
-493.551	-121.876	0.302	0.050
-492.537	-200.000	0.028	-0.199
-491.522	-50.876	0.058	-0.027
-490.508	387.366	-0.168	-0.350
-489.493	136.531	0.212	0.280
-488.478	471.307	0.057	-0.130
-487.464	-200.000	-0.024	-0.183
-486.449	185.599	-0.085	-0.127
-485.435	-21.767	-0.364	0.224
-484.420	-104.606	0.272	-0.063
-483.405	-2.900	0.261	0.184
-482.391	145.610	0.101	-0.137
-481.376	800.000	-0.089	-0.267
-480.362	-40.480	0.272	-0.143
-479.347	800.000	0.092	-0.291
-478.332	5.015	-0.260	0.193
-477.318	6.692	0.215	0.161
-476.303	-200.000	0.005	0.170
-475.289	-59.940	-0.120	0.052
-474.274	-200.000	0.047	0.332
-473.259	-55.037	-0.251	-0.114
-472.245	-89.955	-0.429	0.127
-471.230	-200.000	-0.022	0.405
-470.216	-37.490	-0.082	-0.044
-469.201	-89.005	0.242	-0.073
-468.186	104.507	-0.127	0.151
-467.172	-154.637	-0.188	-0.013
-466.157	601.540	-0.091	-0.228
-465.143	241.460	0.047	-0.080
-464.128	79.477	0.133	0.144
-463.113	800.000	0.055	-0.163
-462.099	-35.190	-0.230	-0.127
-461.084	508.413	-0.154	-0.362
-460.070	-16.735	-0.258	-0.165
-459.055	27.543	-0.270	-0.230
-458.040	-175.114	-0.242	-0.007
-457.026	122.120	0.142	0.180
-456.011	-138.270	0.083	0.009
-454.997	59.743	-0.140	-0.139
-453.982	-138.733	-0.182	0.020
-452.968	-145.341	0.093	-0.008
-451.953	-35.094	0.355	-0.195
-450.938	800.000	0.047	-0.174
-449.924	-200.000	-0.011	-0.305
-448.909	-110.413	0.314	-0.066
-447.895	-95.731	-0.044	0.012
-446.880	786.173	-0.182	0.504
-445.865	34.932	-0.073	-0.065
-444.851	-200.000	-0.011	-0.078
-443.836	-185.309	-0.260	0.004
-442.822	-123.275	-0.180	-0.029
-441.807	356.386	-0.169	-0.340
-440.792	32.906	0.158	0.138
-439.778	-62.681	-0.022	-0.009
-438.763	186.130	0.178	-0.268
-437.749	155.312	0.087	0.121
-436.734	114.863	-0.087	0.107
-435.719	327.262	-0.110	0.213
-434.705	-200.000	-0.005	0.227
-433.690	-136.079	0.093	0.011
-432.676	131.130	-0.142	0.184
-431.661	-31.866	-0.189	-0.107
-430.646	577.370	-0.015	0.036
-429.632	126.281	-0.119	0.152
-428.617	-105.589	-0.492	-0.113
-427.603	16.538	0.165	-0.131
-426.588	-200.000	0.002	-0.146
-425.573	-160.861	-0.111	-0.006
-424.559	-195.304	-0.317	-0.002
-423.544	351.297	0.080	-0.160
-422.530	-200.000	-0.001	-0.210
-421.515	-167.677	-0.266	-0.011
-420.500	-200.000	-0.006	0.231
-419.486	-25.248	-0.311	-0.186
-418.471	191.904	-0.204	0.310
-417.457	-200.000	0.002	-0.410
-416.442	10.452	0.057	0.043
-415.428	-200.000	-0.044	0.211
-414.413	77.348	-0.093	0.100
-413.398	-126.355	-0.225	0.034
-412.384	-84.874	-0.180	-0.057
-411.369	-107.794	-0.095	0.021
-410.355	-200.000	-0.013	0.115
-409.340	26.731	0.069	-0.058
-408.325	276.636	0.191	-0.342
-407.311	33.603	-0.044	-0.039
-406.296	377.851	-0.064	-0.132
-405.282	-139.854	0.157	0.017
-404.267	191.323	0.177	0.269
-403.252	-200.000	-0.007	0.339
-402.238	69.216	-0.190	0.197
-401.223	-89.345	0.165	-0.049
-400.209	-6.613	-0.043	0.029
-399.194	-92.313	-0.161	-0.046
-398.179	-119.136	-0.293	-0.052
-397.165	-165.760	-0.110	0.005
-396.150	-72.636	0.179	0.066
-395.136	9.881	0.201	-0.154
-394.121	-163.572	-0.486	-0.023
-393.106	106.830	0.118	0.141
-392.092	-200.000	0.296	-0.000
-391.077	202.496	0.248	-0.386
-390.063	1.883	0.227	-0.165
-389.048	800.000	-0.068	0.250
-388.033	-150.712	0.143	-0.011
-387.019	800.000	0.011	-0.035
-386.004	-200.000	0.026	0.123
-384.990	-83.373	0.060	0.019
-383.975	-101.877	0.091	-0.022
-382.960	53.913	-0.102	0.098
-381.946	-200.000	0.025	0.214
-380.931	-109.260	0.148	0.032
-379.917	686.342	-0.042	0.110
-378.902	-88.735	0.499	-0.149
-377.888	95.622	0.112	0.129
-376.873	800.000	0.038	-0.130
-375.858	93.839	0.025	-0.028
-374.844	-200.000	0.043	0.218
-373.829	52.666	-0.260	-0.250
-372.815	-1.557	0.194	0.138
-371.800	35.423	-0.173	-0.153
-370.785	-69.548	-0.219	0.084
-369.771	-99.501	-0.157	0.040
-368.756	-80.122	0.043	0.014
-367.742	-200.000	-0.017	-0.127
-366.727	164.375	0.075	0.106
-365.712	-200.000	-0.016	0.312
-364.698	191.376	-0.115	0.175
-363.683	800.000	0.104	0.388
-362.669	275.283	-0.020	-0.036
-361.654	38.241	0.165	-0.148
-360.639	-0.525	-0.218	0.156
-359.625	-82.898	-0.201	-0.065
-358.610	404.508	0.155	0.328
-357.596	-77.203	-0.135	0.047
-356.581	-61.225	0.209	0.089
-355.566	-110.850	0.352	-0.073
-354.552	182.481	0.168	0.249
-353.537	-200.000	-0.015	0.077
-352.523	-34.300	-0.445	-0.245
-351.508	-107.019	-0.147	0.033
-350.493	366.393	-0.126	-0.255
-349.479	800.000	0.056	-0.172
-348.464	429.812	0.111	0.242
-347.450	-40.413	-0.097	0.051
-346.435	800.000	0.043	-0.143
-345.420	-0.035	0.131	-0.094
-344.406	272.057	-0.255	0.452
-343.391	-137.151	-0.161	-0.018
-342.377	-68.167	0.360	-0.141
-341.362	106.598	0.242	0.289
-340.348	-166.495	-0.352	-0.015
-339.333	-125.471	0.240	-0.037
-338.318	-71.286	0.347	0.131
-337.304	161.415	0.204	-0.286
-336.289	78.423	-0.103	-0.111
-335.275	-130.706	0.115	-0.016
-334.260	800.000	-0.041	-0.160
-333.245	800.000	-0.041	-0.124
-332.231	-200.000	-0.002	0.048
-331.216	33.497	-0.108	-0.094
-330.202	143.603	-0.214	0.286
-329.187	-200.000	0.006	-0.055
-328.172	-15.449	-0.175	0.112
-327.158	6.408	-0.289	-0.216
-326.143	88.748	0.079	-0.088
-325.129	60.562	0.135	0.134
-324.114	499.589	-0.050	0.117
-323.099	217.495	0.216	-0.346
-322.085	800.000	0.040	0.129
-321.070	112.340	0.142	-0.172
-320.056	280.434	-0.057	0.103
-319.041	62.597	0.295	0.296
-318.026	-137.064	0.108	0.012
-317.012	-155.384	0.162	0.011
-315.997	434.243	0.090	0.197
-314.983	-200.000	0.006	0.100
-313.968	-200.000	0.017	0.177
-312.953	276.818	-0.071	0.127
-311.939	-200.000	0.004	0.398
-310.924	87.467	0.340	0.377
-309.910	233.387	-0.146	0.242
-308.895	-121.740	0.346	-0.057
-307.880	-200.000	-0.004	0.227
-306.866	39.012	-0.348	-0.313
-305.851	-169.451	0.213	-0.008
-304.837	-46.729	-0.504	-0.248
-303.822	154.423	0.089	-0.123
-302.807	-200.000	0.017	0.190
-301.793	132.952	0.065	-0.085
-300.778	10.165	-0.249	0.190
-299.764	-134.817	0.148	0.018
-298.749	450.484	-0.144	-0.320
-297.735	-200.000	0.007	-0.333
-296.720	-92.584	0.331	0.093
-295.705	-134.885	-0.197	-0.024
-294.691	-200.000	-0.044	-0.210
-293.676	-200.000	-0.007	-0.084
-292.662	-200.000	-0.093	-0.472
-291.647	-150.543	0.084	-0.006
-290.632	83.689	-0.092	0.101
-289.618	290.789	-0.062	-0.114
-288.603	-200.000	0.031	-0.373
-287.589	254.057	-0.135	0.231
-286.574	-60.232	0.188	-0.080
-285.559	-140.678	0.337	-0.035
-284.545	-200.000	0.015	0.070
-283.530	-200.000	0.015	-0.300
-282.516	34.695	-0.088	0.078
-281.501	49.920	0.104	0.099
-280.486	800.000	-0.122	0.430
-279.472	81.907	0.112	-0.122
-278.457	-135.617	0.179	0.021
-277.443	128.462	0.078	0.100
-276.428	473.032	-0.061	0.138
-275.413	-29.421	-0.069	0.039
-274.399	414.104	0.142	-0.303
-273.384	-23.428	0.217	0.131
-272.370	-193.673	-0.242	0.002
-271.355	-100.439	-0.140	-0.035
-270.340	405.864	0.072	-0.153
-269.326	-200.000	-0.015	0.110
-268.311	348.622	-0.051	-0.101
-267.297	-181.886	0.316	-0.006
-266.282	-119.597	0.241	0.042
-265.267	104.654	-0.100	0.118
-264.253	-125.180	0.173	0.027
-263.238	-200.000	0.034	-0.155
-262.224	-129.842	0.094	0.013
-261.209	-103.712	0.378	0.089
-260.195	332.800	0.168	-0.325
-259.180	800.000	0.108	0.380
-258.165	-72.285	-0.339	0.126
-257.151	-200.000	-0.019	-0.264
-256.136	-106.314	-0.149	0.033
-255.122	-200.000	-0.001	0.102
-254.107	-37.549	0.195	-0.104
-253.092	-121.259	-0.221	-0.037
-252.078	-159.199	-0.150	-0.008
-251.063	110.221	-0.184	-0.222
-250.049	-50.882	0.041	-0.019
-249.034	800.000	-0.101	0.289
-248.019	94.473	0.219	-0.249
-247.005	190.582	0.090	-0.135
-245.990	-40.588	-0.150	0.078
-244.976	576.558	0.065	-0.160
-243.961	-59.527	-0.186	0.080
-242.946	-200.000	-0.045	-0.227
-241.932	800.000	-0.010	-0.040
-240.917	96.208	-0.078	-0.089
-239.903	211.446	-0.047	-0.074
-238.888	800.000	0.096	0.350
-237.873	-142.443	0.101	0.010
-236.859	800.000	0.044	0.121
-235.844	-112.007	0.210	0.042
-234.830	-200.000	-0.032	-0.213
-233.815	294.791	-0.080	-0.147
-232.800	-200.000	-0.006	0.053
-231.786	-7.708	-0.289	-0.196
-230.771	-117.621	0.285	0.051
-229.757	-80.736	-0.053	0.018
-228.742	167.441	-0.119	-0.169
-227.727	800.000	0.041	-0.142
-226.713	239.831	0.168	0.281
-225.698	137.199	0.149	0.195
-224.684	-63.676	0.264	0.108
-223.669	-200.000	-0.011	-0.080
-222.655	-200.000	0.004	0.224
-221.640	800.000	0.065	0.259
-220.625	110.486	0.285	0.343
-219.611	296.276	0.067	0.123
-218.596	253.398	0.175	0.299
-217.582	18.032	-0.085	-0.068
-216.567	-200.000	-0.025	-0.231
-215.552	-164.188	0.369	0.017
-214.538	116.393	0.050	0.061
-213.523	714.230	-0.010	0.028
-212.509	13.533	0.099	-0.076
-211.494	313.788	0.153	0.287
-210.479	132.102	0.238	0.306
-209.465	-200.000	0.022	-0.121
-208.450	-159.633	0.191	0.011
-207.436	202.298	0.115	0.177
-206.421	326.871	0.068	0.131
-205.406	246.651	0.048	0.081
-204.392	-95.574	-0.121	-0.032
-203.377	800.000	-0.118	0.374
-202.363	544.346	-0.134	-0.319
-201.348	-195.002	-0.099	-0.001
-200.333	-5.641	0.287	0.196
-199.319	-93.795	0.146	-0.040
-198.304	37.575	-0.214	0.190
-197.290	436.849	-0.064	-0.139
-196.275	800.000	-0.052	0.164
-195.260	350.405	-0.019	0.038
-194.246	16.752	-0.151	-0.119
-193.231	32.780	-0.267	-0.231
-192.217	-132.916	-0.222	0.028
-191.202	167.267	-0.055	0.078
-190.187	-167.749	0.418	0.016
-189.173	208.321	-0.126	0.197
-188.158	-95.836	0.298	-0.079
-187.144	-200.000	0.033	-0.314
-186.129	532.101	0.141	-0.334
-185.114	-40.384	-0.105	0.055
-184.100	445.388	0.070	0.153
-183.085	-66.886	-0.197	-0.078
-182.071	651.483	-0.090	-0.231
-181.056	286.839	-0.063	0.114
-180.042	-26.347	0.180	-0.106
-179.027	26.300	0.210	0.175
-178.012	123.344	0.194	0.242
-176.998	96.340	-0.158	-0.180
-175.983	-61.314	-0.283	-0.119
-174.969	-167.396	0.252	-0.010
-173.954	-13.776	0.204	-0.132
-172.939	-88.207	0.088	-0.026
-171.925	431.835	-0.135	-0.293
-170.910	-88.379	0.279	0.083
-169.896	-16.616	0.112	0.071
-168.881	190.686	-0.127	0.190
-167.866	-137.176	-0.224	-0.025
-166.852	-97.476	0.190	-0.049
-165.837	149.837	-0.149	-0.201
-164.823	251.602	-0.091	0.154
-163.808	163.524	0.126	-0.176
-162.793	-111.173	0.185	0.038
-161.779	-200.000	0.049	-0.214
-160.764	-85.279	0.189	0.059
-159.750	-67.922	0.122	0.048
-158.735	-87.652	0.225	0.068
-157.720	-13.939	-0.153	-0.098
-156.706	295.529	-0.100	0.182
-155.691	-159.398	0.031	-0.002
-154.677	-200.000	0.001	0.280
-153.662	221.277	0.078	0.125
-152.647	-85.476	0.125	-0.039
-151.633	-200.000	-0.011	-0.188
-150.618	24.967	0.176	-0.145
-149.604	43.832	-0.120	-0.109
-148.589	-200.000	-0.014	-0.135
-147.574	-200.000	-0.007	-0.164
-146.560	-200.000	-0.015	-0.260
-145.545	260.008	0.134	0.231
-144.531	-200.000	0.036	-0.245
-143.516	118.382	-0.091	0.111
-142.502	-200.000	-0.002	0.062
-141.487	214.720	0.181	0.286
-140.472	-53.055	-0.219	0.100
-139.458	800.000	-0.022	0.087
-138.443	-97.789	-0.155	0.040
-137.429	212.239	0.039	0.062
-136.414	4.569	0.169	-0.124
-135.399	521.254	-0.103	-0.242
-134.385	170.756	0.070	-0.100
-133.370	-10.092	-0.171	-0.113
-132.356	-137.137	-0.212	0.024
-131.341	14.265	0.071	0.055
-130.326	-85.115	0.351	-0.109
-129.312	342.264	0.021	-0.042
-128.297	461.780	-0.127	-0.282
-127.283	260.280	0.146	0.251
-126.268	-18.171	-0.297	-0.185
-125.253	432.623	0.035	-0.075
-124.239	19.773	0.157	-0.126
-123.224	-103.885	0.322	-0.075
-122.210	-60.428	-0.247	-0.105
