DTS Sentinel unit serial number:	SN413079Multiplexer serial number:	ORYXHardware model number:	OX4-SRSoftware version number:	ORYX F/W v4.00 Oryx Data Collector v3.7.2.0data status	okinstallation	princeton_trtdifferential loss correction	single-endedforward channel	channel 2reverse channel	N/Adate	2019/09/12time	04:09:11forward acquisition time	60.00reverse acquisition time	0.00gamma	496.2192k internal	0.2327k external	0.2327temperature offset calibration	1.0097default loss term (dB/km)	0.3790temperature slope calibration	1.0000multiplexer offset coefficient	1.0000multiplexer slope coefficient	1.0000fibre end	0.00T internal ref (°C)	31.98T ext. ref 1 (°C)	2.20T ext. ref 2 (°C)	25.66length (m)	temperature (°C)	Stokes	anti-Stokes-747.200	-28.625	-0.308	0.179
-746.185	724.537	-0.130	0.351
-745.171	-121.675	-0.075	-0.012
-744.156	-79.919	-0.203	0.069
-743.142	-96.562	0.130	0.035
-742.127	254.459	-0.219	0.378
-741.112	-120.519	0.247	-0.042
-740.098	-200.000	-0.003	0.196
-739.083	800.000	0.024	0.101
-738.069	-85.283	-0.220	0.069
-737.054	800.000	-0.070	0.247
-736.039	-98.516	-0.283	0.073
-735.025	-161.499	0.298	0.015
-734.010	-20.419	0.014	0.009
-732.996	-200.000	0.011	-0.311
-731.981	-11.036	-0.330	-0.219
-730.966	-130.242	-0.110	0.015
-729.952	-200.000	0.015	0.154
-728.937	-70.274	-0.187	-0.072
-727.923	313.664	-0.022	-0.042
-726.908	800.000	0.045	0.128
-725.894	-124.351	-0.171	0.027
-724.879	-134.592	-0.041	0.005
-723.864	-8.023	-0.235	-0.160
-722.850	28.396	-0.216	-0.184
-721.835	60.430	0.090	0.090
-720.821	-200.000	-0.009	-0.310
-719.806	306.387	-0.119	0.224
-718.791	713.474	0.109	-0.291
-717.777	-96.956	-0.313	0.083
-716.762	800.000	-0.077	-0.329
-715.748	-169.461	0.294	0.011
-714.733	-100.488	-0.088	-0.022
-713.718	-10.056	-0.464	-0.310
-712.704	-200.000	0.013	0.180
-711.689	800.000	-0.057	-0.216
-710.675	-86.886	0.088	-0.027
-709.660	-162.950	0.182	0.009
-708.645	-200.000	-0.002	0.260
-707.631	-26.610	0.094	0.055
-706.616	96.863	-0.238	-0.275
-705.602	-53.306	-0.230	-0.106
-704.587	-91.942	-0.121	-0.035
-703.572	611.420	-0.094	-0.236
-702.558	-200.000	0.035	-0.230
-701.543	-4.196	0.054	-0.038
-700.529	-1.142	-0.163	0.116
-699.514	-200.000	0.009	-0.072
-698.499	142.033	-0.116	0.155
-697.485	532.864	-0.079	-0.189
-696.470	800.000	-0.073	-0.224
-695.456	506.765	0.058	0.135
-694.441	-200.000	-0.049	0.251
-693.426	-81.818	0.237	0.078
-692.412	-200.000	-0.029	0.296
-691.397	-64.907	-0.342	0.139
-690.383	-200.000	-0.037	0.190
-689.368	478.286	0.095	0.215
-688.354	-92.793	0.128	-0.036
-687.339	166.967	-0.217	0.310
-686.324	-15.698	0.239	0.153
-685.310	800.000	-0.115	-0.401
-684.295	-105.060	0.199	0.046
-683.281	-19.065	0.230	-0.144
-682.266	-200.000	0.015	0.148
-681.251	-113.020	0.238	-0.047
-680.237	23.277	-0.190	0.157
-679.222	37.068	0.151	0.134
-678.208	-200.000	0.042	-0.387
-677.193	39.016	-0.210	-0.189
-676.178	43.911	-0.102	-0.094
-675.164	4.823	0.398	-0.294
-674.149	-111.784	-0.316	0.064
-673.135	-9.402	0.188	0.126
-672.120	-142.875	-0.210	-0.020
-671.105	-87.587	-0.153	-0.046
-670.091	427.052	0.155	-0.337
-669.076	-8.458	0.105	-0.071
-668.062	64.778	0.187	-0.190
-667.047	263.480	0.179	0.313
-666.032	-200.000	-0.023	0.379
-665.018	-105.319	0.357	0.082
-664.003	221.974	-0.131	-0.213
-662.989	9.277	0.055	-0.042
-661.974	-200.000	-0.095	-0.455
-660.959	180.823	-0.108	-0.159
-659.945	-116.274	0.090	-0.017
-658.930	-200.000	0.016	-0.088
-657.916	-200.000	0.042	-0.419
-656.901	45.978	-0.064	-0.060
-655.886	800.000	-0.032	-0.098
-654.872	396.091	-0.092	0.193
-653.857	-200.000	-0.011	-0.079
-652.843	149.391	0.124	0.168
-651.828	701.374	0.072	-0.191
-650.814	-200.000	-0.036	0.280
-649.799	-200.000	-0.058	-0.634
-648.784	366.320	-0.066	-0.133
-647.770	131.231	0.111	0.143
-646.755	224.325	-0.029	-0.047
-645.741	-33.894	-0.295	-0.163
-644.726	228.378	0.077	-0.126
-643.711	-200.000	-0.003	-0.120
-642.697	-37.228	0.198	-0.106
-641.682	-84.952	-0.188	0.059
-640.668	-135.761	0.157	0.019
-639.653	2.842	0.281	-0.205
-638.638	-200.000	0.040	-0.305
-637.624	-44.290	0.112	-0.056
-636.609	-54.556	-0.148	0.067
-635.595	43.624	0.098	-0.090
-634.580	-88.149	0.465	-0.140
-633.565	-200.000	0.024	-0.125
-632.551	0.124	-0.222	-0.159
-631.536	-11.728	0.344	0.227
-630.522	-51.242	-0.133	0.062
-629.507	-172.552	0.463	-0.015
-628.492	48.762	0.103	0.097
-627.478	39.342	0.313	0.281
-626.463	-88.581	0.165	0.049
-625.449	-200.000	0.054	-0.434
-624.434	-102.064	-0.254	-0.062
-623.419	43.204	0.203	-0.186
-622.405	585.641	-0.036	0.090
-621.390	24.863	0.094	-0.078
-620.376	-200.000	0.034	-0.304
-619.361	311.090	0.165	0.311
-618.346	-34.555	0.188	-0.103
-617.332	-39.885	-0.261	-0.136
-616.317	-52.782	0.096	-0.044
-615.303	123.130	0.151	0.190
-614.288	-144.122	-0.147	-0.014
-613.273	-82.898	0.069	-0.022
-612.259	11.622	-0.310	-0.239
-611.244	-200.000	0.029	-0.164
-610.230	-74.887	0.114	-0.041
-609.215	-17.563	0.109	-0.068
-608.201	-27.789	-0.245	-0.142
-607.186	-68.837	0.313	0.121
-606.171	800.000	0.028	0.078
-605.157	-134.453	0.060	-0.007
-604.142	-86.258	-0.123	0.038
-603.128	-143.302	-0.064	0.006
-602.113	-200.000	-0.024	0.392
-601.098	800.000	0.059	-0.206
-600.084	-74.447	-0.112	-0.041
-599.069	-93.889	-0.569	0.157
-598.055	-68.548	-0.234	0.091
-597.040	-200.000	0.036	-0.188
-596.025	-107.709	0.112	-0.025
-595.011	-200.000	0.023	-0.103
-593.996	-200.000	-0.005	0.055
-592.982	800.000	-0.015	0.066
-591.967	229.948	0.148	0.242
-590.952	-80.503	-0.079	-0.027
-589.938	-200.000	-0.047	-0.364
-588.923	-200.000	-0.061	0.359
-587.909	-31.410	0.121	0.068
-586.894	95.070	0.199	0.227
-585.879	-200.000	-0.021	-0.261
-584.865	-132.097	0.248	-0.032
-583.850	343.004	-0.164	0.321
-582.836	106.043	0.169	0.200
-581.821	6.686	-0.334	-0.249
-580.806	-63.784	0.076	-0.031
-579.792	-5.390	-0.034	-0.023
-578.777	-159.804	0.390	-0.022
-577.763	794.766	0.129	0.355
-576.748	-121.925	-0.018	-0.003
-575.733	399.492	0.043	0.091
-574.719	141.092	0.106	-0.141
-573.704	-99.806	0.163	-0.041
-572.690	-109.087	-0.133	-0.028
-571.675	40.971	0.053	-0.048
-570.661	75.401	-0.256	-0.270
-569.646	-200.000	0.000	0.129
-568.631	-72.328	-0.092	0.034
-567.617	-39.110	0.299	-0.157
-566.602	-200.000	0.041	0.244
-565.588	800.000	-0.111	0.367
-564.573	-10.470	-0.116	-0.077
-563.558	-200.000	-0.008	-0.461
-562.544	76.313	0.030	0.032
-561.529	-174.489	-0.414	0.012
-560.515	428.307	-0.182	-0.394
-559.500	202.978	0.149	0.231
-558.485	195.145	-0.085	0.129
-557.471	317.455	-0.115	-0.217
-556.456	138.546	0.132	-0.173
-555.442	-200.000	-0.024	0.108
-554.427	-139.037	-0.182	-0.020
-553.412	-58.622	0.091	-0.040
-552.398	118.504	-0.113	-0.139
-551.383	1.727	0.109	0.079
-550.369	228.707	0.201	0.328
-549.354	298.982	-0.145	-0.267
-548.339	79.321	-0.163	-0.175
-547.325	-98.844	0.134	-0.034
-546.310	23.778	-0.217	-0.179
-545.296	-82.421	-0.208	-0.068
-544.281	80.103	-0.046	-0.050
-543.266	-92.438	-0.109	0.031
-542.252	53.244	-0.121	0.116
-541.237	-24.172	-0.159	-0.095
-540.223	-200.000	-0.021	0.278
-539.208	-161.314	0.115	-0.006
-538.193	-35.585	-0.174	0.095
-537.179	-200.000	-0.037	0.232
-536.164	-11.258	0.335	0.221
-535.150	164.171	-0.179	-0.252
-534.135	6.939	0.084	-0.063
-533.121	-200.000	0.014	0.188
-532.106	-200.000	0.030	0.253
-531.091	-58.969	0.383	-0.165
-530.077	614.127	-0.051	-0.127
-529.062	593.189	-0.105	-0.258
-528.048	-112.618	-0.364	-0.072
-527.033	184.499	0.058	-0.085
-526.018	-90.433	-0.157	0.046
-525.004	800.000	0.043	-0.181
-523.989	-200.000	-0.071	0.392
-522.975	800.000	-0.026	-0.086
-521.960	-88.157	-0.240	-0.072
-520.945	249.159	-0.040	0.068
-519.931	-3.936	-0.288	0.199
-518.916	85.963	-0.164	-0.180
-517.902	-161.839	0.158	-0.008
-516.887	-125.726	0.256	0.039
-515.872	-134.846	-0.169	-0.020
-514.858	-200.000	0.063	0.278
-513.843	800.000	-0.104	-0.342
-512.829	-63.280	-0.275	0.113
-511.814	-11.977	-0.174	0.114
-510.799	-88.419	-0.244	0.073
-509.785	-23.218	0.120	0.072
-508.770	-134.974	0.328	-0.040
-507.756	-200.000	-0.031	-0.226
-506.741	-134.881	0.095	-0.011
-505.726	248.321	-0.057	-0.096
-504.712	-200.000	-0.006	-0.103
-503.697	-200.000	-0.394	-0.000
-502.683	800.000	-0.085	-0.256
-501.668	102.215	-0.168	-0.196
-500.653	800.000	-0.037	-0.116
-499.639	-84.664	-0.128	0.040
-498.624	-140.650	0.333	-0.034
-497.610	800.000	0.033	0.107
-496.595	-122.014	-0.106	0.017
-495.581	-200.000	0.030	0.155
-494.566	482.743	-0.086	0.196
-493.551	202.449	0.200	-0.308
-492.537	-48.921	0.192	0.092
-491.522	227.105	0.146	0.238
-490.508	83.592	-0.073	0.080
-489.493	-88.760	-0.184	0.055
-488.478	-0.921	0.201	-0.142
-487.464	34.169	-0.071	0.062
-486.449	187.586	0.147	-0.219
-485.435	-49.296	0.279	-0.133
-484.420	-200.000	-0.010	-0.202
-483.405	-200.000	-0.044	-0.253
-482.391	-14.554	0.096	0.062
-481.376	-104.533	-0.194	-0.045
-480.362	-200.000	-0.055	0.364
-479.347	-91.466	-0.106	-0.030
-478.332	3.664	0.107	0.078
-477.318	494.250	0.047	-0.108
-476.303	-200.000	-0.014	0.229
-475.289	63.392	0.247	-0.247
-474.274	-200.000	-0.029	-0.188
-473.259	78.759	-0.160	0.170
-472.245	80.566	0.120	0.129
-471.230	447.921	0.088	0.194
-470.216	-54.691	-0.297	0.134
-469.201	-145.077	0.234	0.021
-468.186	412.673	-0.095	0.200
-467.172	192.962	0.191	-0.288
-466.157	-96.764	0.228	0.060
-465.143	-140.409	-0.187	-0.019
-464.128	-178.023	0.300	0.007
-463.113	89.391	-0.143	-0.159
-462.099	-200.000	0.001	-0.012
-461.084	25.284	0.072	-0.060
-460.070	69.436	-0.145	-0.149
-459.055	-200.000	0.056	-0.245
-458.040	-200.000	0.012	0.229
-457.026	-12.188	-0.062	0.040
-456.011	-37.789	0.232	0.123
-454.997	48.615	-0.084	0.078
-453.982	-13.037	0.268	0.173
-452.968	-17.911	0.158	0.099
-451.953	150.138	0.197	-0.267
-450.938	5.960	-0.204	0.151
-449.924	17.087	-0.162	0.128
-448.909	800.000	-0.040	-0.162
-447.895	51.040	0.220	0.208
-446.880	606.979	0.091	0.227
-445.865	17.229	-0.044	-0.035
-444.851	-56.065	0.143	-0.064
-443.836	-96.037	0.449	-0.119
-442.822	-64.976	-0.009	-0.004
-441.807	173.780	-0.180	0.259
-440.792	25.440	-0.233	0.193
-439.778	-66.733	0.239	0.094
-438.763	-175.512	-0.357	0.010
-437.749	-180.793	-0.140	-0.003
-436.734	-92.959	-0.234	-0.065
-435.719	-129.694	0.497	-0.068
-434.705	-32.625	-0.254	-0.141
-433.690	104.166	-0.107	-0.126
-432.676	-200.000	-0.009	0.061
-431.661	113.194	0.114	0.138
-430.646	439.343	0.150	0.327
-429.632	-6.642	-0.350	0.237
-428.617	800.000	0.091	0.308
-427.603	-169.376	-0.017	-0.001
-426.588	305.279	-0.105	-0.194
-425.573	-200.000	-0.028	0.276
-424.559	64.436	0.204	0.204
-423.544	-20.603	-0.163	0.100
-422.530	109.087	-0.119	0.142
-421.515	800.000	-0.058	-0.168
-420.500	-88.819	0.012	0.004
-419.486	-49.939	0.289	0.136
-418.471	-200.000	-0.001	-0.138
-417.457	221.769	0.070	-0.112
-416.442	800.000	0.033	0.094
-415.428	-200.000	-0.037	-0.175
-414.413	306.841	-0.106	0.196
-413.398	183.004	0.135	-0.198
-412.384	208.838	-0.218	0.340
-411.369	256.722	-0.033	-0.056
-410.355	800.000	0.056	0.185
-409.340	60.868	-0.208	-0.205
-408.325	800.000	-0.081	-0.247
-407.311	-56.692	-0.059	0.026
-406.296	142.745	0.326	-0.430
-405.282	190.525	0.188	-0.281
-404.267	306.846	0.023	0.042
-403.252	-167.560	0.363	0.014
-402.238	61.754	0.215	0.213
-401.223	-23.527	-0.351	-0.210
-400.209	329.594	0.030	0.057
-399.194	559.778	-0.057	-0.138
-398.179	331.603	0.124	-0.237
-397.165	-143.308	-0.576	0.055
-396.150	-66.242	-0.188	-0.075
-395.136	-16.262	-0.335	0.211
-394.121	122.968	0.161	0.200
-393.106	112.377	0.081	-0.097
-392.092	-200.000	-0.011	0.112
-391.077	-87.655	-0.295	0.089
-390.063	1.016	-0.207	-0.148
-389.048	800.000	-0.104	-0.297
-388.033	-200.000	0.091	0.443
-387.019	227.030	-0.057	0.092
-386.004	-200.000	-0.023	0.254
-384.990	-128.764	0.197	0.028
-383.975	-45.379	0.302	-0.149
-382.960	557.973	-0.116	-0.277
-381.946	-147.000	-0.220	0.019
-380.931	538.958	-0.165	0.390
-379.917	-17.197	-0.201	-0.126
-378.902	-161.399	0.260	0.013
-377.888	3.739	-0.194	0.141
-376.873	451.885	0.133	0.292
-375.858	561.942	0.032	0.077
-374.844	5.437	0.276	0.202
-373.829	119.530	-0.050	0.061
-372.815	161.396	0.063	-0.088
-371.800	514.987	0.059	0.136
-370.785	-200.000	-0.027	0.125
-369.771	-7.992	0.190	-0.127
-368.756	-200.000	0.007	0.269
-367.742	-200.000	0.012	0.067
-366.727	-98.932	-0.120	0.030
-365.712	-200.000	0.023	0.374
-364.698	375.375	0.176	0.357
-363.683	249.080	-0.091	-0.153
-362.669	-200.000	-0.028	0.247
-361.654	-28.490	-0.048	0.028
-360.639	173.644	0.075	-0.108
-359.625	-200.000	0.002	0.135
-358.610	105.254	-0.219	0.257
-357.596	-174.066	-0.377	-0.011
-356.581	435.956	0.079	0.171
-355.566	-84.522	-0.116	0.036
-354.552	-200.000	0.048	-0.414
-353.537	250.601	-0.048	0.082
-352.523	-95.356	-0.436	-0.116
-351.508	220.963	-0.029	0.047
-350.493	-34.329	-0.360	0.196
-349.479	-98.641	-0.190	0.048
-348.464	-193.182	-0.154	-0.001
-347.450	16.509	0.219	-0.172
-346.435	-73.109	-0.097	-0.035
-345.420	314.865	-0.062	-0.117
-344.406	-118.041	0.028	-0.005
-343.391	177.351	-0.042	0.061
-342.377	-61.644	-0.119	0.050
-341.362	-123.998	0.357	-0.056
-340.348	-200.000	-0.086	0.429
-339.333	-200.000	-0.006	0.228
-338.318	69.765	0.112	0.115
-337.304	300.823	0.121	0.222
-336.289	55.470	-0.211	-0.203
-335.275	710.461	-0.063	0.165
-334.260	496.354	0.117	-0.266
-333.245	800.000	0.074	-0.270
-332.231	334.896	0.149	-0.286
-331.216	89.964	0.148	-0.164
-330.202	46.063	-0.159	-0.146
-329.187	-200.000	0.016	0.095
-328.172	-10.073	0.241	-0.159
-327.158	-67.134	0.262	-0.102
-326.143	178.631	0.095	0.137
-325.129	693.729	-0.046	0.119
-324.114	44.447	-0.127	-0.116
-323.099	33.148	0.106	-0.091
-322.085	202.715	0.155	0.238
-321.070	152.781	-0.280	0.379
-320.056	-200.000	0.042	0.263
-319.041	-200.000	0.016	-0.116
-318.026	100.109	-0.134	0.155
-317.012	-69.797	0.109	-0.041
-315.997	76.145	-0.222	-0.233
-314.983	-192.319	0.489	-0.005
-313.968	8.009	0.284	-0.211
-312.953	-200.000	0.005	0.211
-311.939	68.640	0.037	0.038
-310.924	-22.514	0.054	-0.033
-309.910	-200.000	0.007	0.204
-308.895	-200.000	0.049	0.280
-307.880	-200.000	0.023	-0.144
-306.866	-200.000	-0.019	-0.285
-305.851	-13.418	0.264	-0.170
-304.837	-200.000	-0.006	-0.034
-303.822	95.559	-0.093	0.105
-302.807	-111.526	-0.113	0.023
-301.793	209.512	-0.041	-0.063
-300.778	800.000	0.057	-0.243
-299.764	-200.000	0.014	-0.141
-298.749	88.451	-0.173	0.190
-297.735	-125.385	0.044	-0.007
-296.720	202.038	0.163	0.249
-295.705	-96.088	-0.118	0.031
-294.691	-31.362	0.283	-0.158
-293.676	-134.361	-0.186	-0.023
-292.662	800.000	-0.083	0.272
-291.647	800.000	0.106	0.405
-290.632	-30.623	0.085	0.048
-289.618	-50.321	0.241	-0.113
-288.603	380.422	0.082	-0.167
-287.589	-171.512	-0.221	0.007
-286.574	49.351	0.130	-0.121
-285.559	800.000	-0.070	-0.279
-284.545	721.150	-0.121	0.319
-283.530	83.343	0.070	0.076
-282.516	289.275	0.165	0.297
-281.501	-91.307	-0.226	-0.064
-280.486	-60.064	-0.161	0.068
-279.472	-200.000	0.021	-0.237
-278.457	-200.000	0.049	-0.285
-277.443	-43.843	0.288	0.143
-276.428	-38.849	-0.227	-0.119
-275.413	-74.974	-0.174	-0.062
-274.399	236.833	0.097	0.158
-273.384	-11.218	-0.204	-0.133
-272.370	204.435	-0.134	-0.206
-271.355	105.316	-0.024	-0.027
-270.340	204.027	-0.061	0.093
-269.326	35.844	0.420	-0.365
-268.311	-43.589	-0.152	-0.076
-267.297	-94.452	-0.146	0.039
-266.282	-122.432	-0.077	-0.012
-265.267	-78.747	-0.220	0.074
-264.253	800.000	-0.086	-0.312
-263.238	800.000	-0.064	0.205
-262.224	-106.080	0.076	-0.017
-261.209	-200.000	0.071	0.363
-260.195	-124.512	0.359	-0.055
-259.180	-5.256	-0.181	-0.123
-258.165	-84.361	0.437	0.137
-257.151	-151.481	0.302	-0.022
-256.136	-129.631	-0.090	0.012
-255.122	70.861	0.076	-0.078
-254.107	143.877	0.076	-0.101
-253.092	-91.986	-0.256	-0.072
-252.078	800.000	0.012	-0.039
-251.063	333.358	-0.084	0.161
-250.049	-119.884	-0.402	-0.068
-249.034	104.342	0.163	0.190
-248.019	-200.000	-0.064	-0.407
-247.005	-200.000	-0.011	-0.270
-245.990	-126.949	0.110	0.016
-244.976	-42.572	0.345	-0.174
-243.961	-24.707	0.118	-0.069
-242.946	35.877	0.229	-0.200
-241.932	-106.980	-0.151	0.033
-240.917	-158.518	0.210	0.012
-239.903	-41.135	0.004	0.002
-238.888	-135.376	-0.290	0.034
-237.873	-200.000	-0.012	-0.126
-236.859	800.000	0.051	-0.142
-235.844	302.409	0.078	0.143
-234.830	800.000	0.042	0.164
-233.815	-10.221	-0.304	0.199
-232.800	800.000	-0.075	0.235
-231.786	800.000	0.059	-0.162
-230.771	20.210	-0.181	-0.144
-229.757	167.375	-0.299	-0.420
-228.742	-200.000	-0.013	-0.316
-227.727	-200.000	-0.064	0.413
-226.713	800.000	0.083	-0.267
-225.698	-64.148	-0.127	0.051
-224.684	78.504	0.230	0.243
-223.669	54.829	0.118	-0.112
-222.655	169.292	0.030	-0.043
-221.640	-200.000	-0.011	-0.132
-220.625	-34.993	-0.184	-0.099
-219.611	-36.443	-0.129	0.068
-218.596	7.739	-0.038	0.028
-217.582	-52.235	0.347	-0.159
-216.567	-200.000	-0.051	0.236
-215.552	-98.738	0.265	0.067
-214.538	-200.000	-0.036	0.278
-213.523	-200.000	-0.021	0.144
-212.509	-149.144	0.145	-0.011
-211.494	-58.236	-0.226	-0.097
-210.479	-130.894	0.334	-0.044
-209.465	-117.624	0.151	0.027
-208.450	40.586	0.150	-0.133
-207.436	461.100	0.040	-0.088
-206.421	-200.000	-0.018	-0.198
-205.406	-200.000	0.052	-0.250
-204.392	-200.000	-0.066	0.407
-203.377	-200.000	-0.016	-0.125
-202.363	205.263	0.035	-0.053
-201.348	-200.000	-0.014	0.246
-200.333	-101.791	-0.201	-0.048
-199.319	345.169	0.105	-0.204
-198.304	77.663	0.202	0.212
-197.290	17.876	-0.291	0.228
-196.275	-200.000	-0.003	0.277
-195.260	98.582	-0.202	0.230
-194.246	800.000	-0.087	0.292
-193.231	217.966	0.120	-0.188
-192.217	-105.151	0.138	0.031
-191.202	408.715	0.080	-0.166
-190.187	-61.349	-0.269	-0.112
-189.173	85.107	0.268	-0.290
-188.158	800.000	0.035	-0.106
-187.144	800.000	0.050	0.141
-186.129	800.000	0.128	0.517
-185.114	31.586	0.080	0.068
-184.100	-200.000	-0.093	-0.000
-183.085	278.002	-0.084	0.148
-182.071	800.000	-0.018	-0.060
-181.056	-62.028	-0.379	0.156
-180.042	-66.087	-0.159	0.062
-179.027	-161.912	-0.339	-0.017
-178.012	-74.541	-0.096	0.034
-176.998	135.561	0.176	-0.226
-175.983	-44.102	-0.144	0.071
-174.969	90.704	0.112	-0.124
-173.954	-128.564	0.071	-0.010
-172.939	800.000	-0.091	-0.255
-171.925	-200.000	0.070	0.402
-170.910	-152.536	0.167	0.012
-169.896	330.226	0.173	-0.329
-168.881	166.162	0.078	-0.108
-167.866	-8.946	-0.132	0.087
-166.852	800.000	-0.013	0.042
-165.837	-164.472	-0.072	0.003
-164.823	-51.420	-0.179	-0.082
-163.808	-200.000	-0.028	-0.134
-162.793	371.225	0.091	0.181
-161.779	-131.474	-0.047	0.006
-160.764	-200.000	0.005	-0.064
-159.750	-88.990	-0.431	-0.126
-158.735	800.000	0.032	0.130
-157.720	800.000	0.083	-0.304
-156.706	-15.785	-0.149	0.093
-155.691	800.000	0.035	0.109
-154.677	-69.464	0.228	-0.086
-153.662	-200.000	0.005	-0.280
-152.647	572.530	0.057	0.138
-151.633	-42.598	0.120	-0.060
-150.618	-86.583	0.272	0.082
-149.604	-41.987	-0.308	0.155
-148.589	108.485	-0.080	-0.094
-147.574	-174.898	-0.263	0.007
-146.560	209.346	-0.143	0.221
-145.545	-128.395	0.334	0.047
-144.531	102.212	0.164	0.189
-143.516	93.945	-0.105	0.117
-142.502	-93.049	0.109	0.030
-141.487	-82.040	-0.059	-0.019
-140.472	-200.000	0.069	0.330
-139.458	-200.000	-0.006	0.061
-138.443	37.609	0.097	0.085
-137.429	-200.000	-0.061	-0.279
-136.414	127.471	0.118	-0.148
-135.399	800.000	0.072	0.246
-134.385	-152.615	0.292	0.021
-133.370	298.472	0.017	0.030
-132.356	51.348	0.271	-0.253
-131.341	-59.682	-0.256	-0.108
-130.326	635.028	-0.163	-0.406
-129.312	-170.032	-0.199	0.007
-128.297	800.000	-0.039	-0.145
-127.283	28.217	-0.215	-0.178
-126.268	-200.000	-0.005	-0.041
-125.253	-150.270	-0.262	-0.020
-124.239	-58.038	0.115	-0.049
-123.224	4.143	-0.211	-0.152
-122.210	-200.000	-0.010	0.382
