DTS Sentinel unit serial number:	SN413079Multiplexer serial number:	ORYXHardware model number:	OX4-SRSoftware version number:	ORYX F/W v4.00 Oryx Data Collector v3.7.2.0data status	okinstallation	princeton_trtdifferential loss correction	single-endedforward channel	channel 2reverse channel	N/Adate	2019/09/18time	01:23:34forward acquisition time	60.00reverse acquisition time	0.00gamma	496.2192k internal	0.2350k external	0.2350temperature offset calibration	0.9980default loss term (dB/km)	0.3790temperature slope calibration	1.0000multiplexer offset coefficient	1.0000multiplexer slope coefficient	1.0000fibre end	0.00T internal ref (°C)	23.14T ext. ref 1 (°C)	0.17T ext. ref 2 (°C)	16.88length (m)	temperature (°C)	Stokes	anti-Stokes-747.200	22.566	0.155	0.127
-746.185	-200.000	-0.003	0.154
-745.171	-104.408	-0.190	-0.044
-744.156	-200.000	-0.017	0.211
-743.142	-76.683	-0.298	0.104
-742.127	-200.000	-0.001	0.444
-741.112	10.192	-0.310	0.235
-740.098	150.761	-0.089	0.121
-739.083	-17.765	0.158	0.099
-738.069	33.549	0.076	-0.066
-737.054	-105.143	0.277	0.063
-736.039	-47.676	-0.322	0.156
-735.025	-167.533	0.259	0.010
-734.010	-44.982	0.023	0.011
-732.996	-130.655	0.282	-0.038
-731.981	-200.000	-0.032	-0.287
-730.966	215.429	-0.107	-0.170
-729.952	-200.000	0.008	-0.179
-728.937	-32.151	0.306	-0.170
-727.923	-151.635	-0.248	0.018
-726.908	-20.528	-0.241	-0.148
-725.894	800.000	-0.043	0.120
-724.879	800.000	-0.028	0.104
-723.864	-200.000	0.002	-0.102
-722.850	392.128	0.243	-0.504
-721.835	-117.270	-0.597	0.108
-720.821	-200.000	-0.004	0.280
-719.806	-181.007	-0.156	0.003
-718.791	-200.000	0.016	-0.233
-717.777	800.000	-0.025	0.098
-716.762	-200.000	-0.018	-0.384
-715.748	-105.169	0.111	0.025
-714.733	-151.104	-0.175	-0.013
-713.718	-26.533	-0.068	-0.040
-712.704	-13.414	0.072	-0.046
-711.689	-45.737	-0.246	0.121
-710.675	398.791	0.019	0.040
-709.660	-146.678	-0.084	-0.007
-708.645	-164.946	0.202	0.009
-707.631	509.054	0.117	-0.271
-706.616	800.000	0.102	0.444
-705.602	-154.830	-0.139	-0.009
-704.587	-200.000	-0.053	0.259
-703.572	800.000	-0.074	0.206
-702.558	-200.000	-0.068	-0.322
-701.543	800.000	0.113	-0.451
-700.529	-106.972	-0.281	-0.062
-699.514	786.594	-0.076	-0.207
-698.499	800.000	0.021	0.078
-697.485	-186.092	-0.202	-0.003
-696.470	-157.369	-0.117	0.007
-695.456	347.873	-0.179	-0.352
-694.441	-103.033	0.199	-0.047
-693.426	26.048	-0.194	0.161
-692.412	301.120	-0.115	0.212
-691.397	-137.117	-0.230	0.026
-690.383	-200.000	0.003	-0.478
-689.368	-129.413	-0.548	-0.076
-688.354	-200.000	-0.287	-0.000
-687.339	31.886	-0.078	0.067
-686.324	-91.571	-0.067	0.019
-685.310	-114.000	-0.192	-0.037
-684.295	105.015	-0.142	-0.167
-683.281	-11.997	-0.139	0.090
-682.266	52.205	0.177	-0.168
-681.251	-61.610	-0.121	0.050
-680.237	567.009	0.091	0.220
-679.222	11.948	0.069	0.053
-678.208	-200.000	-0.024	-0.280
-677.193	125.910	-0.217	0.273
-676.178	33.085	0.106	-0.092
-675.164	-174.566	-0.427	-0.012
-674.149	-162.243	-0.288	-0.014
-673.135	-142.073	0.171	-0.017
-672.120	-50.620	-0.265	0.124
-671.105	-30.906	-0.267	-0.150
-670.091	-96.643	0.378	-0.099
-669.076	543.633	0.077	-0.182
-668.062	98.762	-0.220	-0.252
-667.047	-81.853	-0.267	-0.087
-666.032	-200.000	0.018	0.343
-665.018	6.722	-0.094	-0.070
-664.003	-164.149	0.253	0.012
-662.989	-150.627	-0.355	-0.027
-661.974	356.180	0.056	0.112
-660.959	-200.000	0.008	-0.062
-659.945	476.812	0.150	-0.338
-658.930	-14.132	-0.172	-0.110
-657.916	-109.723	0.353	0.074
-656.901	206.577	-0.115	-0.179
-655.886	-59.926	-0.283	-0.120
-654.872	-3.306	-0.103	-0.071
-653.857	-200.000	-0.018	-0.156
-652.843	-131.236	-0.406	-0.054
-651.828	-200.000	0.010	0.259
-650.814	335.573	0.113	0.219
-649.799	170.525	-0.167	-0.237
-648.784	-165.794	-0.110	-0.005
-647.770	-200.000	0.056	-0.270
-646.755	379.619	0.202	-0.411
-645.741	33.905	0.078	0.067
-644.726	98.659	-0.154	-0.177
-643.711	374.897	-0.095	-0.192
-642.697	54.897	0.053	-0.051
-641.682	-200.000	0.054	-0.317
-640.668	800.000	0.060	-0.176
-639.653	668.753	-0.076	-0.195
-638.638	90.546	0.236	-0.263
-637.624	76.825	-0.062	-0.065
-636.609	-73.936	0.139	0.050
-635.595	800.000	0.059	0.213
-634.580	-20.639	0.107	-0.065
-633.565	30.589	-0.142	-0.120
-632.551	-200.000	-0.000	-0.145
-631.536	40.509	-0.248	-0.222
-630.522	-35.792	-0.107	0.058
-629.507	43.871	-0.218	0.199
-628.492	175.829	0.153	0.221
-627.478	113.244	-0.192	0.231
-626.463	87.306	0.040	0.044
-625.449	800.000	0.106	0.370
-624.434	-112.750	0.136	-0.027
-623.419	-200.000	0.017	-0.130
-622.405	-22.240	-0.198	-0.119
-621.390	-107.664	-0.652	0.142
-620.376	279.535	0.265	-0.471
-619.361	418.680	-0.124	-0.264
-618.346	-103.578	0.344	-0.080
-617.332	-87.851	-0.201	-0.060
-616.317	800.000	-0.132	0.556
-615.303	-166.395	0.012	-0.001
-614.288	-200.000	-0.027	0.141
-613.273	800.000	0.045	-0.134
-612.259	172.201	0.091	0.131
-611.244	97.307	0.049	-0.056
-610.230	-200.000	0.016	-0.102
-609.215	314.785	-0.176	0.330
-608.201	-91.603	-0.169	0.048
-607.186	-200.000	0.012	-0.298
-606.171	16.522	0.081	0.064
-605.157	-200.000	-0.005	0.199
-604.142	-58.388	-0.184	0.079
-603.128	-130.856	-0.323	-0.043
-602.113	-128.217	0.143	0.020
-601.098	305.871	0.063	-0.116
-600.084	490.294	0.080	0.182
-599.069	-107.564	0.288	-0.062
-598.055	599.311	-0.145	-0.356
-597.040	513.867	-0.074	-0.172
-596.025	286.879	0.023	0.042
-595.011	-200.000	0.001	-0.056
-593.996	800.000	-0.087	-0.324
-592.982	-193.856	-0.186	-0.002
-591.967	-200.000	0.035	-0.261
-590.952	-200.000	-0.034	-0.225
-589.938	-44.979	-0.032	0.016
-588.923	-171.954	0.324	0.010
-587.909	146.856	0.046	-0.061
-586.894	586.531	-0.157	0.383
-585.879	-57.376	-0.084	0.037
-584.865	15.988	0.158	-0.123
-583.850	-146.694	-0.243	-0.021
-582.836	-26.373	-0.130	-0.076
-581.821	-62.595	-0.341	-0.141
-580.806	404.297	-0.046	-0.096
-579.792	-169.025	0.308	-0.011
-578.777	-200.000	0.005	-0.149
-577.763	-38.649	-0.178	-0.093
-576.748	-75.211	-0.197	0.070
-575.733	-88.091	0.151	-0.045
-574.719	-140.907	-0.183	0.019
-573.704	7.737	-0.116	0.086
-572.690	498.868	-0.032	-0.072
-571.675	65.469	0.187	-0.188
-570.661	55.827	0.039	0.037
-569.646	-200.000	-0.002	-0.016
-568.631	800.000	0.071	-0.289
-567.617	295.226	0.042	0.076
-566.602	-94.711	-0.329	0.088
-565.588	-200.000	-0.046	-0.317
-564.573	-57.107	-0.305	0.133
-563.558	800.000	-0.103	0.314
-562.544	-200.000	0.029	-0.322
-561.529	-158.962	-0.360	-0.020
-560.515	-200.000	-0.028	0.363
-559.500	43.226	0.183	-0.166
-558.485	-200.000	0.039	-0.193
-557.471	466.071	0.061	0.136
-556.456	103.840	0.112	-0.130
-555.442	-200.000	0.005	0.039
-554.427	99.149	-0.141	-0.162
-553.412	-131.764	0.243	-0.032
-552.398	-154.902	0.339	0.022
-551.383	-41.394	0.138	0.070
-550.369	169.300	0.079	-0.112
-549.354	800.000	-0.101	0.309
-548.339	-104.921	-0.131	0.030
-547.325	-86.117	-0.144	0.044
-546.310	96.390	-0.176	0.199
-545.296	-200.000	-0.021	0.362
-544.281	83.680	-0.140	0.152
-543.266	69.894	-0.055	-0.056
-542.252	-54.174	0.174	-0.078
-541.237	-200.000	-0.012	-0.129
-540.223	246.047	0.204	-0.341
-539.208	175.171	0.047	0.067
-538.193	-167.012	-0.269	-0.011
-537.179	-200.000	0.044	0.264
-536.164	29.812	-0.163	-0.137
-535.150	-123.725	0.163	0.026
-534.135	-16.280	-0.167	-0.105
-533.121	-45.597	0.176	-0.086
-532.106	-78.871	-0.164	0.055
-531.091	176.098	0.261	0.375
-530.077	-200.000	0.065	0.453
-529.062	317.214	0.054	0.100
-528.048	411.423	-0.176	0.369
-527.033	22.364	-0.197	0.159
-526.018	38.667	-0.150	0.132
-525.004	-90.272	0.196	-0.056
-523.989	67.071	-0.173	0.175
-522.975	-105.287	-0.244	-0.055
-521.960	7.854	0.240	-0.178
-520.945	-200.000	-0.012	0.225
-519.931	71.252	0.155	-0.159
-518.916	48.140	0.128	0.118
-517.902	17.774	0.064	-0.050
-516.887	-200.000	-0.030	-0.204
-515.872	386.711	-0.057	0.116
-514.858	266.090	0.018	0.031
-513.843	-200.000	0.013	0.169
-512.829	23.785	-0.079	0.065
-511.814	800.000	0.082	0.234
-510.799	65.679	-0.275	-0.275
-509.785	-70.874	0.232	0.087
-508.770	-30.306	0.146	-0.082
-507.756	-200.000	0.048	-0.297
-506.741	147.111	-0.030	-0.040
-505.726	-5.836	-0.360	-0.244
-504.712	21.626	0.121	-0.098
-503.697	7.115	0.165	-0.122
-502.683	77.238	-0.231	-0.243
-501.668	800.000	-0.070	-0.203
-500.653	123.826	0.055	-0.068
-499.639	800.000	0.109	-0.336
-498.624	255.681	-0.154	0.261
-497.610	7.706	0.213	-0.157
-496.595	-78.311	0.110	-0.037
-495.581	37.991	0.161	0.142
-494.566	605.069	0.029	0.072
-493.551	481.094	-0.190	-0.426
-492.537	-13.010	-0.090	0.058
-491.522	355.383	0.044	-0.087
-490.508	560.942	0.058	0.139
-489.493	457.557	0.095	0.208
-488.478	25.246	-0.058	-0.048
-487.464	-11.098	-0.159	-0.104
-486.449	-104.084	0.156	-0.036
-485.435	-200.000	0.021	-0.222
-484.420	179.809	0.062	0.090
-483.405	-200.000	0.022	0.135
-482.391	-200.000	0.015	0.247
-481.376	800.000	0.028	-0.104
-480.362	-161.259	0.234	-0.012
-479.347	179.061	0.160	-0.231
-478.332	242.892	0.050	0.083
-477.318	-130.506	-0.313	0.042
-476.303	108.919	0.011	0.012
-475.289	-91.198	0.454	0.129
-474.274	-107.593	-0.235	0.051
-473.259	-181.735	-0.230	-0.004
-472.245	-200.000	-0.044	0.213
-471.230	-62.965	-0.129	0.053
-470.216	-200.000	-0.018	-0.147
-469.201	-33.768	0.353	-0.192
-468.186	800.000	-0.071	0.203
-467.172	-82.198	0.178	-0.057
-466.157	-28.385	-0.379	-0.216
-465.143	39.803	-0.151	-0.134
-464.128	-200.000	0.014	-0.093
-463.113	800.000	0.057	-0.159
-462.099	-200.000	-0.009	-0.086
-461.084	-129.686	-0.243	-0.033
-460.070	-200.000	-0.043	-0.291
-459.055	-130.261	0.198	-0.027
-458.040	-81.400	-0.326	0.106
-457.026	-107.595	-0.183	0.040
-456.011	-200.000	0.011	0.276
-454.997	-114.011	0.286	-0.055
-453.982	-27.866	-0.269	0.154
-452.968	97.746	-0.130	0.147
-451.953	766.917	0.025	-0.068
-450.938	147.749	-0.224	0.298
-449.924	69.242	-0.099	-0.100
-448.909	800.000	0.056	0.180
-447.895	-107.790	-0.147	0.032
-446.880	62.941	0.185	0.182
-445.865	-200.000	-0.025	0.175
-444.851	8.179	-0.104	-0.077
-443.836	200.581	0.018	-0.027
-442.822	-32.645	-0.297	-0.163
-441.807	-123.910	0.369	0.057
-440.792	130.141	-0.117	-0.147
-439.778	-61.861	-0.177	0.073
-438.763	134.994	0.135	0.173
-437.749	-88.307	-0.262	0.077
-436.734	-62.664	-0.109	-0.045
-435.719	-200.000	0.012	0.259
-434.705	51.928	0.042	0.039
-433.690	413.956	0.131	-0.275
-432.676	1.684	0.161	-0.115
-431.661	214.188	0.017	-0.027
-430.646	-71.542	0.126	0.046
-429.632	16.676	-0.324	0.253
-428.617	-83.569	0.245	0.077
-427.603	226.891	0.150	0.240
-426.588	262.064	-0.096	0.163
-425.573	-8.766	0.260	0.172
-424.559	94.746	0.145	-0.163
-423.544	800.000	-0.119	0.451
-422.530	-112.250	-0.238	-0.047
-421.515	227.216	-0.017	0.028
-420.500	100.357	0.124	0.142
-419.486	250.911	-0.155	0.259
-418.471	781.753	0.008	0.022
-417.457	-200.000	0.018	-0.307
-416.442	284.615	-0.061	0.108
-415.428	-39.519	0.118	0.061
-414.413	-150.079	0.177	-0.014
-413.398	800.000	-0.031	0.100
-412.384	-26.213	-0.156	-0.090
-411.369	-102.822	0.271	-0.064
-410.355	-138.854	0.051	0.005
-409.340	800.000	-0.107	-0.348
-408.325	-72.037	0.299	-0.110
-407.311	8.337	0.084	-0.062
-406.296	-70.722	-0.179	-0.067
-405.282	-82.598	0.084	0.027
-404.267	-168.698	0.292	0.011
-403.252	-43.686	0.119	-0.059
-402.238	90.437	-0.062	0.069
-401.223	276.654	0.229	-0.400
-400.209	800.000	0.034	-0.142
-399.194	-200.000	-0.023	0.144
-398.179	-109.479	-0.196	-0.041
-397.165	-200.000	0.042	0.361
-396.150	800.000	-0.078	0.237
-395.136	800.000	-0.019	-0.072
-394.121	800.000	0.032	-0.086
-393.106	263.784	0.043	0.074
-392.092	-99.482	-0.076	-0.019
-391.077	678.344	0.138	0.354
-390.063	-59.183	0.304	0.129
-389.048	129.579	-0.074	-0.093
-388.033	425.385	0.110	0.233
-387.019	-13.103	-0.067	0.043
-386.004	-101.261	0.191	-0.046
-384.990	274.624	-0.057	0.099
-383.975	52.470	0.261	0.245
-382.960	251.628	0.070	-0.117
-381.946	21.304	0.136	-0.109
-380.931	-200.000	0.019	0.146
-379.917	-200.000	0.001	-0.147
-378.902	-43.741	-0.322	-0.160
-377.888	-92.756	0.382	0.105
-376.873	800.000	0.047	-0.135
-375.858	252.912	0.065	0.110
-374.844	121.612	0.078	-0.095
-373.829	288.235	0.130	0.232
-372.815	355.340	-0.065	0.127
-371.800	176.889	-0.171	-0.245
-370.785	364.153	-0.083	-0.164
-369.771	-158.773	0.452	0.025
-368.756	10.134	-0.190	-0.142
-367.742	74.983	0.085	-0.088
-366.727	-35.514	0.112	-0.060
-365.712	-27.908	-0.151	-0.086
-364.698	-185.358	0.060	0.001
-363.683	61.686	0.058	0.057
-362.669	259.521	-0.099	-0.169
-361.654	409.787	-0.049	0.103
-360.639	-134.722	0.130	0.016
-359.625	-98.830	-0.268	0.067
-358.610	-171.507	-0.268	0.009
-357.596	81.330	0.153	0.163
-356.581	-29.278	-0.101	-0.057
-355.566	800.000	-0.059	0.221
-354.552	-56.832	0.111	-0.048
-353.537	800.000	-0.032	0.134
-352.523	82.283	0.037	-0.040
-351.508	-37.183	0.260	-0.137
-350.493	-200.000	0.024	-0.310
-349.479	214.483	-0.204	-0.318
-348.464	169.290	0.092	0.128
-347.450	609.599	0.235	0.578
-346.435	-200.000	0.048	-0.241
-345.420	-73.989	-0.244	0.087
-344.406	-200.000	0.013	-0.202
-343.391	117.681	0.073	-0.088
-342.377	147.148	-0.075	-0.099
-341.362	800.000	0.086	-0.324
-340.348	-124.989	0.307	-0.046
-339.333	493.948	0.008	0.019
-338.318	-26.789	0.220	0.126
-337.304	-21.283	-0.275	-0.165
-336.289	-14.268	-0.333	-0.211
-335.275	7.348	-0.241	0.177
-334.260	91.692	0.079	0.087
-333.245	-200.000	0.031	-0.142
-332.231	-56.050	-0.191	0.084
-331.216	99.503	0.152	-0.172
-330.202	105.046	0.046	-0.054
-329.187	77.909	-0.044	-0.046
-328.172	487.962	0.067	-0.150
-327.158	26.414	0.224	-0.184
-326.143	528.843	0.140	0.325
-325.129	-95.516	-0.151	-0.040
-324.114	-200.000	0.345	-0.001
-323.099	294.793	0.065	0.116
-322.085	-200.000	-0.003	-0.392
-321.070	169.967	-0.252	0.354
-320.056	76.058	-0.111	-0.115
-319.041	-200.000	0.020	-0.237
-318.026	297.262	0.118	-0.212
-317.012	-200.000	0.016	-0.138
-315.997	-200.000	-0.023	0.119
-314.983	-120.981	0.161	-0.027
-313.968	-200.000	0.062	-0.273
-312.953	-131.025	0.175	0.023
-311.939	-69.332	-0.121	-0.046
-310.924	-200.000	-0.030	0.273
-309.910	-134.715	-0.223	0.027
-308.895	308.345	-0.164	0.301
-307.880	-200.000	-0.059	0.283
-306.866	800.000	0.054	0.159
-305.851	-200.000	0.016	-0.230
-304.837	-13.650	0.306	0.194
-303.822	263.775	0.110	-0.188
-302.807	23.724	0.180	0.146
-301.793	-200.000	-0.018	0.381
-300.778	-128.478	0.504	0.070
-299.764	-200.000	-0.006	0.121
-298.749	451.087	-0.090	-0.194
-297.735	800.000	-0.074	-0.266
-296.720	-61.754	0.253	0.104
-295.705	-200.000	-0.016	0.196
-294.691	181.847	-0.373	-0.539
-293.676	156.199	-0.145	0.196
-292.662	-130.489	0.094	-0.013
-291.647	800.000	-0.040	-0.134
-290.632	-200.000	0.072	0.430
-289.618	-7.928	-0.060	-0.039
-288.603	152.303	-0.124	0.165
-287.589	-122.826	0.102	0.016
-286.574	62.545	0.209	-0.205
-285.559	326.546	0.213	-0.400
-284.545	308.412	0.104	-0.190
-283.530	-200.000	0.042	0.252
-282.516	-100.121	0.363	0.089
-281.501	16.509	0.250	-0.193
-280.486	118.316	0.171	-0.207
-279.472	66.921	0.207	0.206
-278.457	-90.083	0.172	0.049
-277.443	-200.000	-0.031	0.202
-276.428	-52.300	0.119	-0.054
-275.413	352.425	0.134	-0.261
-274.399	545.698	0.115	-0.268
-273.384	800.000	0.057	-0.240
-272.370	23.113	0.165	0.133
-271.355	62.883	0.049	-0.048
-270.340	402.883	-0.041	0.084
-269.326	-119.808	-0.209	-0.035
-268.311	800.000	0.043	-0.138
-267.297	384.294	0.029	0.059
-266.282	800.000	0.063	-0.200
-265.267	194.126	-0.102	0.151
-264.253	-65.494	0.299	-0.118
-263.238	-85.241	0.276	-0.084
-262.224	800.000	0.099	0.398
-261.209	175.268	-0.134	0.190
-260.195	-200.000	0.045	0.248
-259.180	-113.925	0.165	0.031
-258.165	5.506	0.185	-0.134
-257.151	-127.236	0.373	-0.053
-256.136	51.080	0.055	0.051
-255.122	280.657	-0.197	0.346
-254.107	-19.087	0.276	0.168
-253.092	-47.148	0.233	-0.111
-252.078	-200.000	-0.020	0.142
-251.063	-21.083	-0.230	0.138
-250.049	-22.080	0.111	0.066
-249.034	-200.000	-0.067	-0.314
-248.019	-159.659	-0.113	-0.006
-247.005	-152.775	-0.239	-0.017
-245.990	-200.000	-0.025	0.401
-244.976	-114.839	-0.145	0.027
-243.961	364.440	-0.104	0.205
-242.946	-200.000	0.041	-0.377
-241.932	-137.598	0.217	-0.024
-240.917	800.000	-0.017	0.071
-239.903	-200.000	0.004	-0.125
-238.888	127.078	-0.066	-0.082
-237.873	-33.161	-0.090	-0.049
-236.859	564.745	-0.069	0.163
-235.844	757.445	0.120	-0.318
-234.830	-76.173	-0.494	-0.171
-233.815	361.948	-0.089	0.174
-232.800	800.000	0.058	0.198
-231.786	8.133	0.464	0.341
-230.771	256.270	-0.173	-0.290
-229.757	-109.762	-0.153	0.032
-228.742	243.773	0.166	0.272
-227.727	-24.195	-0.184	0.107
-226.713	-200.000	0.055	0.264
-225.698	-28.156	-0.240	-0.136
-224.684	427.314	0.069	0.146
-223.669	-28.414	-0.228	-0.128
-222.655	800.000	0.054	0.190
-221.640	52.749	-0.166	0.155
-220.625	-155.414	-0.124	-0.008
-219.611	253.382	0.100	-0.167
-218.596	-200.000	0.008	-0.100
-217.582	754.032	0.064	0.169
-216.567	-200.000	0.050	0.375
-215.552	517.272	0.054	0.123
-214.538	516.897	0.120	-0.275
-213.523	76.850	-0.157	0.163
-212.509	-200.000	-0.012	0.141
-211.494	298.246	0.018	0.033
-210.479	-122.671	0.060	-0.009
-209.465	-101.580	0.252	0.060
-208.450	384.251	0.082	0.166
-207.436	-200.000	0.016	0.357
-206.421	-200.000	0.007	-0.095
-205.406	-40.784	-0.128	0.065
-204.392	-37.930	-0.125	-0.065
-203.377	-200.000	-0.015	0.266
-202.363	344.175	-0.155	0.296
-201.348	198.181	-0.160	0.239
-200.333	361.849	0.222	0.435
-199.319	-52.737	-0.163	-0.074
-198.304	215.297	-0.124	-0.192
-197.290	800.000	-0.121	0.422
-196.275	-95.200	-0.021	-0.006
-195.260	-150.278	-0.370	-0.028
-194.246	-200.000	0.056	0.250
-193.231	59.332	-0.134	0.129
-192.217	-200.000	0.015	0.067
-191.202	720.446	-0.062	-0.162
-190.187	564.882	-0.156	-0.369
-189.173	85.522	-0.039	-0.042
-188.158	521.208	0.080	-0.183
-187.144	800.000	-0.111	-0.393
-186.129	5.191	0.195	-0.141
-185.114	12.769	-0.275	0.208
-184.100	800.000	0.014	0.051
-183.085	800.000	0.103	0.334
-182.071	-149.153	0.169	0.013
-181.056	-144.353	-0.324	0.029
-180.042	-200.000	-0.006	0.028
-179.027	-31.990	0.333	0.182
-178.012	-20.293	-0.103	0.062
-176.998	728.914	-0.093	-0.243
-175.983	241.223	-0.050	0.081
-174.969	143.080	-0.067	-0.087
-173.954	39.629	-0.095	0.083
-172.939	713.534	-0.072	-0.185
-171.925	118.709	-0.019	-0.023
-170.910	-68.912	-0.134	-0.051
-169.896	-200.000	0.011	-0.178
-168.881	-82.530	-0.180	0.057
-167.866	305.156	-0.206	-0.373
-166.852	-14.086	-0.147	0.092
-165.837	-63.524	-0.193	0.077
-164.823	84.337	-0.126	-0.134
-163.808	-200.000	-0.005	0.251
-162.793	-166.172	-0.274	-0.011
-161.779	33.564	-0.172	-0.146
-160.764	800.000	0.113	-0.320
-159.750	-141.666	0.288	-0.028
-158.735	406.315	0.119	-0.245
-157.720	40.476	0.092	-0.081
-156.706	-200.000	0.064	0.314
-155.691	-200.000	-0.031	0.275
-154.677	-200.000	0.084	-0.372
-153.662	51.223	-0.071	0.066
-152.647	250.746	-0.022	0.037
-151.633	52.152	-0.135	-0.126
-150.618	379.023	0.043	0.085
-149.604	212.728	0.207	0.319
-148.589	-63.960	-0.088	0.035
-147.574	4.490	-0.248	-0.177
-146.560	-11.500	0.272	0.174
-145.545	-200.000	-0.009	0.130
-144.531	135.064	-0.089	-0.113
-143.516	-142.981	0.299	0.028
-142.502	425.351	-0.044	-0.093
-141.487	-39.093	-0.248	-0.127
-140.472	152.065	0.203	-0.270
-139.458	-10.620	-0.237	0.153
-138.443	-103.545	-0.183	0.042
-137.429	800.000	-0.029	0.111
-136.414	-112.835	-0.369	0.071
-135.399	-152.531	0.219	0.015
-134.385	37.094	-0.099	0.086
-133.370	-62.776	-0.133	0.054
-132.356	-200.000	0.034	0.412
-131.341	-34.772	0.090	-0.048
-130.326	800.000	-0.067	-0.212
-129.312	118.791	-0.087	0.104
-128.297	-114.774	0.272	-0.051
-127.283	124.460	0.064	-0.079
-126.268	-58.719	0.263	0.111
-125.253	-200.000	0.058	0.299
-124.239	-63.931	0.288	-0.115
-123.224	112.566	-0.118	0.140
-122.210	499.913	-0.071	0.160
