DTS Sentinel unit serial number:	SN413079Multiplexer serial number:	ORYXHardware model number:	OX4-SRSoftware version number:	ORYX F/W v4.00 Oryx Data Collector v3.7.2.0data status	okinstallation	princeton_trtdifferential loss correction	single-endedforward channel	channel 2reverse channel	N/Adate	2019/09/14time	10:55:35forward acquisition time	60.00reverse acquisition time	0.00gamma	496.2192k internal	0.2314k external	0.2314temperature offset calibration	1.0143default loss term (dB/km)	0.3790temperature slope calibration	1.0000multiplexer offset coefficient	1.0000multiplexer slope coefficient	1.0000fibre end	0.00T internal ref (°C)	35.81T ext. ref 1 (°C)	4.35T ext. ref 2 (°C)	33.34length (m)	temperature (°C)	Stokes	anti-Stokes-747.200	-200.000	-0.041	0.226
-746.185	32.581	-0.106	0.093
-745.171	-93.435	0.187	0.052
-744.156	-200.000	0.008	0.063
-743.142	-63.058	-0.221	0.093
-742.127	-76.938	-0.457	-0.162
-741.112	-93.968	0.270	-0.075
-740.098	-82.015	-0.198	0.066
-739.083	5.861	-0.156	-0.117
-738.069	-137.289	0.134	0.015
-737.054	210.996	0.220	0.350
-736.039	-55.415	-0.278	0.126
-735.025	-200.000	0.077	-0.390
-734.010	800.000	-0.084	-0.265
-732.996	412.771	0.085	-0.184
-731.981	-200.000	-0.068	-0.361
-730.966	-144.908	-0.249	0.023
-729.952	-91.258	0.144	0.042
-728.937	-200.000	0.011	-0.114
-727.923	-65.495	-0.209	-0.085
-726.908	-43.636	-0.231	-0.118
-725.894	100.305	-0.179	0.210
-724.879	13.872	-0.060	-0.047
-723.864	-200.000	0.028	-0.206
-722.850	32.699	-0.142	-0.125
-721.835	-120.477	-0.135	-0.023
-720.821	-200.000	0.013	-0.090
-719.806	800.000	0.035	0.113
-718.791	800.000	-0.094	0.304
-717.777	166.053	-0.065	-0.094
-716.762	76.809	0.069	0.074
-715.748	-99.517	-0.378	-0.096
-714.733	271.644	0.063	-0.112
-713.718	-126.843	-0.073	0.011
-712.704	560.777	0.080	0.195
-711.689	418.794	-0.086	0.185
-710.675	160.060	0.021	-0.030
-709.660	800.000	-0.022	-0.072
-708.645	45.163	0.131	-0.122
-707.631	513.297	-0.104	0.246
-706.616	-12.698	-0.238	0.157
-705.602	128.867	-0.162	0.209
-704.587	563.136	-0.094	-0.229
-703.572	-200.000	-0.036	0.350
-702.558	136.154	0.213	-0.280
-701.543	-200.000	0.004	0.141
-700.529	140.596	0.120	-0.160
-699.514	-200.000	-0.034	0.191
-698.499	234.862	-0.112	0.187
-697.485	-148.611	-0.443	-0.037
-696.470	-200.000	0.052	-0.269
-695.456	800.000	0.113	0.326
-694.441	-145.398	-0.118	0.011
-693.426	-200.000	-0.019	-0.201
-692.412	772.656	-0.017	-0.047
-691.397	166.512	-0.014	-0.020
-690.383	-200.000	0.020	-0.146
-689.368	127.014	-0.066	0.084
-688.354	-200.000	0.002	-0.292
-687.339	-84.634	-0.165	-0.053
-686.324	800.000	-0.055	-0.160
-685.310	-42.825	0.170	-0.087
-684.295	-182.368	-0.266	-0.005
-683.281	104.684	0.067	-0.079
-682.266	45.997	0.255	-0.239
-681.251	-24.121	-0.163	0.098
-680.237	64.493	-0.173	-0.176
-679.222	658.052	-0.090	0.234
-678.208	70.263	-0.070	0.073
-677.193	229.212	0.233	-0.385
-676.178	620.389	0.044	-0.113
-675.164	65.170	-0.062	-0.064
-674.149	-200.000	0.028	-0.299
-673.135	-16.947	-0.086	0.055
-672.120	-47.632	0.098	-0.048
-671.105	196.172	0.140	-0.215
-670.091	-200.000	-0.042	0.449
-669.076	228.593	-0.204	-0.337
-668.062	145.506	0.189	-0.256
-667.047	99.401	-0.165	0.193
-666.032	379.181	0.058	0.121
-665.018	153.544	-0.102	-0.141
-664.003	62.742	-0.086	-0.087
-662.989	-200.000	0.002	-0.179
-661.974	41.819	0.136	-0.125
-660.959	-117.519	-0.094	0.017
-659.945	-97.044	0.315	-0.083
-658.930	-45.580	-0.051	0.026
-657.916	-90.103	-0.367	-0.108
-656.901	-200.000	-0.060	0.329
-655.886	-132.136	0.247	-0.032
-654.872	112.084	0.083	0.102
-653.857	-40.213	-0.214	0.112
-652.843	-76.587	0.103	-0.036
-651.828	-57.035	0.065	-0.029
-650.814	-109.289	0.236	-0.051
-649.799	-23.583	-0.359	-0.217
-648.784	108.078	0.239	-0.287
-647.770	-200.000	0.060	-0.469
-646.755	-32.271	-0.188	0.106
-645.741	-80.350	-0.114	-0.039
-644.726	-70.313	-0.112	-0.043
-643.711	683.235	0.068	-0.179
-642.697	-183.559	0.077	-0.001
-641.682	-116.226	-0.251	-0.047
-640.668	136.825	-0.076	-0.100
-639.653	-200.000	0.046	-0.401
-638.638	11.654	0.098	-0.076
-637.624	77.985	0.112	0.121
-636.609	25.520	-0.210	-0.177
-635.595	800.000	0.044	-0.195
-634.580	800.000	0.072	0.207
-633.565	102.606	-0.144	0.170
-632.551	-52.704	-0.047	-0.022
-631.536	92.412	-0.044	-0.050
-630.522	-83.597	-0.203	0.065
-629.507	164.707	0.099	0.141
-628.492	-200.000	0.008	0.049
-627.478	112.322	0.166	0.202
-626.463	524.581	0.111	0.263
-625.449	510.925	0.069	0.162
-624.434	555.313	-0.051	-0.125
-623.419	453.112	0.101	-0.225
-622.405	-39.766	0.231	-0.122
-621.390	-200.000	0.021	0.216
-620.376	-156.252	0.255	-0.016
-619.361	-19.160	-0.019	-0.012
-618.346	-150.035	-0.310	-0.024
-617.332	-92.722	-0.268	0.076
-616.317	77.494	0.202	-0.217
-615.303	-200.000	-0.033	0.281
-614.288	120.984	0.206	-0.259
-613.273	-58.239	0.077	-0.034
-612.259	-90.391	-0.514	-0.150
-611.244	257.059	-0.084	0.146
-610.230	17.245	-0.117	0.093
-609.215	437.061	0.002	0.005
-608.201	800.000	0.050	0.177
-607.186	800.000	-0.032	0.102
-606.171	-29.088	0.078	0.045
-605.157	-143.197	-0.152	-0.015
-604.142	92.875	-0.105	-0.120
-603.128	-168.569	-0.427	0.016
-602.113	43.150	-0.124	-0.114
-601.098	-51.493	-0.235	-0.111
-600.084	-200.000	-0.067	0.298
-599.069	7.960	0.252	0.190
-598.055	-200.000	-0.000	0.084
-597.040	412.274	-0.076	0.164
-596.025	-183.473	-0.306	0.005
-595.011	531.165	-0.179	0.426
-593.996	-129.182	0.106	-0.015
-592.982	-163.253	-0.272	0.013
-591.967	800.000	0.048	0.140
-590.952	-83.572	0.193	0.062
-589.938	-72.115	-0.231	0.086
-588.923	-194.267	0.537	-0.004
-587.909	273.938	-0.137	-0.244
-586.894	210.034	-0.220	-0.347
-585.879	179.671	0.229	0.337
-584.865	-15.190	-0.057	-0.037
-583.850	800.000	0.059	0.182
-582.836	521.057	0.111	-0.263
-581.821	218.359	0.065	0.104
-580.806	-72.047	-0.113	-0.042
-579.792	236.472	0.152	-0.253
-578.777	-127.057	-0.447	-0.066
-577.763	218.744	0.103	0.166
-576.748	250.890	-0.070	0.120
-575.733	156.567	-0.032	0.044
-574.719	264.943	-0.136	0.239
-573.704	314.867	-0.075	-0.142
-572.690	-78.007	0.331	-0.115
-571.675	258.568	0.049	-0.086
-570.661	99.112	-0.187	-0.217
-569.646	-200.000	0.010	0.074
-568.631	20.603	0.242	0.197
-567.617	69.051	0.201	0.208
-566.602	-200.000	-0.024	0.180
-565.588	-55.982	-0.212	0.095
-564.573	-105.891	0.144	0.033
-563.558	-126.419	-0.254	0.038
-562.544	22.103	-0.229	0.188
-561.529	98.529	0.191	-0.221
-560.515	791.671	-0.081	-0.225
-559.500	161.297	0.132	0.185
-558.485	800.000	0.082	0.273
-557.471	-42.753	-0.204	-0.105
-556.456	231.168	-0.115	0.190
-555.442	-137.769	-0.183	-0.021
-554.427	-106.195	0.174	0.039
-553.412	244.036	0.129	0.219
-552.398	-97.002	-0.019	-0.005
-551.383	-124.436	0.058	0.009
-550.369	-86.707	0.195	0.060
-549.354	-193.137	0.250	-0.002
-548.339	49.889	0.090	0.085
-547.325	-47.653	-0.299	0.146
-546.310	-117.358	0.191	0.035
-545.296	-2.915	-0.214	-0.150
-544.281	-5.337	0.125	-0.087
-543.266	-13.926	0.077	0.050
-542.252	114.588	-0.245	-0.300
-541.237	123.122	-0.179	-0.226
-540.223	-33.744	0.128	0.071
-539.208	-134.125	-0.191	-0.024
-538.193	19.440	0.253	-0.205
-537.179	-17.507	-0.096	-0.061
-536.164	176.952	-0.137	0.200
-535.150	-83.607	0.274	0.088
-534.135	-41.495	-0.140	0.072
-533.121	800.000	0.045	-0.174
-532.106	-177.148	-0.152	-0.004
-531.091	274.520	-0.083	-0.147
-530.077	-31.016	-0.187	-0.106
-529.062	-32.017	0.236	0.133
-528.048	-16.128	-0.094	-0.060
-527.033	-77.893	0.270	0.094
-526.018	800.000	0.016	0.049
-525.004	-200.000	0.007	-0.232
-523.989	-200.000	-0.049	-0.219
-522.975	800.000	-0.083	0.275
-521.960	-111.925	-0.248	-0.050
-520.945	-119.314	0.197	0.034
-519.931	-124.405	0.242	0.038
-518.916	165.505	-0.093	-0.132
-517.902	-161.012	-0.157	-0.008
-516.887	-31.902	-0.216	0.122
-515.872	-149.642	-0.115	-0.009
-514.858	-13.972	-0.071	-0.046
-513.843	-19.886	-0.108	-0.067
-512.829	50.958	0.180	-0.172
-511.814	217.588	0.036	0.058
-510.799	800.000	-0.031	-0.121
-509.785	237.293	-0.050	0.083
-508.770	-200.000	0.024	0.125
-507.756	264.103	-0.024	-0.041
-506.741	21.742	0.166	-0.136
-505.726	-168.710	0.166	0.006
-504.712	35.069	0.183	-0.161
-503.697	-143.123	0.087	0.008
-502.683	256.240	-0.113	-0.194
-501.668	-85.630	-0.382	-0.119
-500.653	-141.123	-0.133	-0.014
-499.639	-130.717	-0.331	-0.045
-498.624	64.948	-0.066	0.067
-497.610	-200.000	0.003	0.202
-496.595	71.512	0.062	0.065
-495.581	-41.895	0.231	0.119
-494.566	607.597	0.082	0.204
-493.551	-99.474	-0.303	0.077
-492.537	-200.000	-0.032	0.248
-491.522	274.784	0.060	-0.107
-490.508	800.000	-0.043	0.141
-489.493	-114.868	0.312	-0.060
-488.478	-163.609	-0.238	0.011
-487.464	-42.147	-0.368	0.189
-486.449	643.798	0.085	-0.219
-485.435	63.525	0.060	0.060
-484.420	76.842	0.034	0.036
-483.405	-4.903	-0.116	-0.080
-482.391	-8.702	-0.078	-0.052
-481.376	-200.000	0.033	-0.148
-480.362	-126.356	0.314	-0.047
-479.347	-42.780	0.279	-0.142
-478.332	-200.000	0.001	-0.015
-477.318	-49.475	0.222	-0.106
-476.303	-150.765	0.197	-0.015
-475.289	800.000	0.064	-0.224
-474.274	-68.295	0.227	-0.089
-473.259	266.447	0.100	0.175
-472.245	-39.004	-0.091	0.048
-471.230	-200.000	-0.026	0.163
-470.216	-73.650	-0.076	0.028
-469.201	-200.000	0.016	0.252
-468.186	800.000	0.074	0.291
-467.172	161.490	0.155	-0.217
-466.157	163.235	0.055	-0.078
-465.143	291.338	0.053	-0.096
-464.128	27.417	0.210	-0.177
-463.113	-131.308	0.233	0.031
-462.099	21.187	-0.144	-0.117
-461.084	501.532	0.091	0.211
-460.070	272.603	-0.053	0.094
-459.055	-42.211	0.164	0.084
-458.040	140.505	-0.157	-0.208
-457.026	-149.742	0.357	0.028
-456.011	-130.790	-0.160	-0.022
-454.997	-200.000	-0.004	-0.268
-453.982	53.288	-0.112	0.108
-452.968	-200.000	-0.057	0.271
-451.953	-152.053	-0.143	-0.010
-450.938	75.952	0.318	-0.337
-449.924	-84.616	-0.195	0.062
-448.909	-68.292	0.069	-0.027
-447.895	-200.000	-0.023	-0.136
-446.880	12.797	-0.033	0.025
-445.865	183.981	-0.080	0.118
-444.851	586.881	-0.168	0.413
-443.836	473.390	0.080	-0.181
-442.822	75.754	0.246	-0.260
-441.807	-200.000	0.047	-0.323
-440.792	13.683	-0.191	-0.149
-439.778	-131.311	0.292	0.039
-438.763	-130.629	-0.066	-0.009
-437.749	265.851	-0.054	0.094
-436.734	-77.829	0.347	-0.120
-435.719	-125.481	-0.435	0.066
-434.705	-130.060	0.287	-0.039
-433.690	22.251	0.144	0.118
-432.676	-13.424	0.122	-0.079
-431.661	41.282	0.071	-0.064
-430.646	-67.072	0.221	0.087
-429.632	-200.000	-0.066	0.359
-428.617	215.381	0.163	-0.258
-427.603	292.914	-0.044	-0.080
-426.588	800.000	0.073	-0.299
-425.573	-3.602	-0.086	0.060
-424.559	800.000	0.053	-0.174
-423.544	-68.216	-0.460	-0.179
-422.530	139.854	0.030	-0.039
-421.515	-71.017	0.191	-0.072
-420.500	-173.750	0.536	0.016
-419.486	202.294	-0.022	0.035
-418.471	-173.470	0.018	-0.001
-417.457	-200.000	0.019	-0.138
-416.442	-131.033	0.179	-0.024
-415.428	-1.679	-0.240	0.169
-414.413	-24.091	-0.031	0.019
-413.398	-200.000	-0.087	0.395
-412.384	-142.588	0.171	-0.017
-411.369	150.123	0.099	-0.135
-410.355	-24.226	-0.214	0.128
-409.340	125.516	0.103	0.131
-408.325	800.000	-0.056	-0.201
-407.311	-63.853	0.192	-0.079
-406.296	155.806	0.069	0.095
-405.282	-42.926	0.349	0.177
-404.267	-145.627	0.155	-0.014
-403.252	-200.000	-0.012	0.184
-402.238	-86.484	-0.112	-0.035
-401.223	-23.372	-0.369	0.222
-400.209	-69.757	0.285	0.109
-399.194	58.618	-0.131	-0.128
-398.179	-200.000	-0.011	-0.341
-397.165	800.000	0.044	0.147
-396.150	-60.221	-0.166	-0.071
-395.136	-200.000	0.026	0.216
-394.121	42.900	-0.181	0.165
-393.106	-94.254	0.084	-0.023
-392.092	-200.000	0.011	0.096
-391.077	95.064	0.211	-0.241
-390.063	-74.807	0.169	-0.061
-389.048	-152.182	0.199	-0.014
-388.033	-132.602	0.187	-0.024
-387.019	800.000	0.019	0.074
-386.004	72.336	-0.201	-0.209
-384.990	-1.793	0.221	-0.156
-383.975	12.415	-0.067	-0.052
-382.960	-200.000	0.057	-0.447
-381.946	788.861	-0.117	-0.322
-380.931	800.000	-0.095	-0.375
-379.917	-123.716	0.237	-0.038
-378.902	-97.539	-0.078	0.020
-377.888	-14.646	-0.171	0.110
-376.873	64.807	0.015	-0.016
-375.858	643.157	-0.040	0.103
-374.844	172.740	-0.163	0.234
-373.829	-120.781	-0.345	-0.058
-372.815	32.249	-0.123	-0.106
-371.800	-55.342	0.240	0.108
-370.785	-73.474	0.213	-0.078
-369.771	-19.018	-0.241	-0.150
-368.756	265.198	-0.055	-0.096
-367.742	-131.588	-0.414	-0.054
-366.727	-152.475	0.211	0.015
-365.712	-68.401	-0.092	0.036
-364.698	800.000	0.035	0.101
-363.683	194.392	-0.262	0.396
-362.669	47.457	-0.212	0.198
-361.654	225.771	-0.144	-0.233
-360.639	800.000	-0.070	0.286
-359.625	-20.036	-0.309	0.191
-358.610	-200.000	-0.093	-0.000
-357.596	-200.000	-0.022	-0.133
-356.581	34.966	-0.152	-0.133
-355.566	-24.467	-0.160	0.095
-354.552	-34.667	0.357	0.195
-353.537	16.197	0.198	0.156
-352.523	-47.169	-0.083	0.040
-351.508	-91.367	0.230	-0.066
-350.493	-152.132	-0.148	-0.011
-349.479	-16.819	-0.201	0.127
-348.464	-40.701	0.141	0.073
-347.450	-115.520	-0.271	-0.051
-346.435	-92.360	-0.090	0.025
-345.420	71.677	-0.208	0.216
-344.406	-91.073	-0.036	-0.010
-343.391	-161.912	0.131	-0.007
-342.377	-200.000	-0.020	-0.409
-341.362	800.000	-0.046	-0.159
-340.348	-200.000	-0.062	0.285
-339.333	-91.447	-0.097	0.028
-338.318	-96.363	0.069	-0.018
-337.304	-90.042	0.156	-0.045
-336.289	-82.438	0.278	-0.090
-335.275	136.466	-0.133	-0.172
-334.260	-16.886	-0.208	-0.131
-333.245	-114.563	0.325	0.062
-332.231	-10.245	-0.344	-0.228
-331.216	-200.000	-0.027	0.476
-330.202	-38.567	-0.336	-0.177
-329.187	-200.000	0.005	-0.035
-328.172	-200.000	0.030	0.211
-327.158	-200.000	0.026	0.220
-326.143	-177.290	0.180	0.004
-325.129	-187.459	-0.362	-0.005
-324.114	-143.590	0.229	0.022
-323.099	116.948	0.161	-0.197
-322.085	-200.000	0.028	0.207
-321.070	-13.488	0.264	0.171
-320.056	-41.909	0.121	-0.062
-319.041	-118.873	-0.230	-0.040
-318.026	-200.000	0.001	0.054
-317.012	800.000	-0.071	0.277
-315.997	-162.468	0.066	-0.003
-314.983	-129.520	-0.110	-0.015
-313.968	11.694	-0.288	0.220
-312.953	-102.260	0.231	0.055
-311.939	-200.000	-0.034	0.237
-310.924	419.008	-0.094	-0.201
-309.910	-28.801	0.291	-0.167
-308.895	380.942	0.034	0.069
-307.880	-164.165	-0.358	0.016
-306.866	800.000	-0.027	0.108
-305.851	58.161	-0.068	-0.067
-304.837	100.528	0.141	0.163
-303.822	-200.000	0.014	-0.202
-302.807	-38.644	-0.221	-0.116
-301.793	184.706	-0.137	0.202
-300.778	800.000	0.067	-0.200
-299.764	-71.735	0.175	-0.065
-298.749	-118.716	0.119	-0.021
-297.735	-47.350	-0.214	0.104
-296.720	95.585	0.183	-0.208
-295.705	-200.000	0.018	-0.165
-294.691	57.351	0.221	-0.214
-293.676	-200.000	-0.035	-0.351
-292.662	287.776	-0.020	-0.035
-291.647	203.577	-0.084	0.129
-290.632	62.940	0.195	0.194
-289.618	43.356	-0.125	0.114
-288.603	-200.000	-0.036	-0.175
-287.589	-200.000	-0.002	-0.189
-286.574	800.000	0.021	-0.076
-285.559	-18.815	0.156	0.097
-284.545	-79.519	0.011	0.004
-283.530	-109.128	0.250	0.053
-282.516	22.688	-0.104	-0.085
-281.501	800.000	0.067	0.222
-280.486	3.200	0.226	0.163
-279.472	47.590	0.137	0.127
-278.457	207.988	0.120	0.187
-277.443	12.520	0.229	0.176
-276.428	800.000	-0.030	0.121
-275.413	571.784	-0.063	0.152
-274.399	-89.542	-0.155	-0.045
-273.384	10.909	-0.049	-0.038
-272.370	800.000	-0.079	0.220
-271.355	13.016	0.186	-0.143
-270.340	263.164	-0.063	0.108
-269.326	0.794	-0.267	-0.190
-268.311	-108.743	0.254	-0.054
-267.297	-102.837	-0.236	0.056
-266.282	6.212	0.103	-0.076
-265.267	62.551	0.105	0.105
-264.253	29.786	-0.095	-0.081
-263.238	800.000	-0.065	-0.184
-262.224	-88.692	0.262	0.077
-261.209	800.000	-0.077	-0.308
-260.195	-1.236	0.254	0.179
-259.180	-36.471	-0.209	0.112
-258.165	177.440	0.077	0.111
-257.151	-114.073	-0.047	-0.009
-256.136	-93.706	-0.296	0.081
-255.122	-36.554	0.299	-0.160
-254.107	-156.475	0.154	0.010
-253.092	214.216	-0.038	-0.059
-252.078	449.724	0.139	0.304
-251.063	-200.000	-0.010	0.098
-250.049	-36.325	-0.239	-0.128
-249.034	116.402	0.026	-0.031
-248.019	-141.395	-0.163	0.016
-247.005	-4.188	0.177	0.122
-245.990	28.918	-0.134	0.113
-244.976	-45.271	0.256	-0.126
-243.961	-43.859	0.192	-0.096
-242.946	154.626	0.182	-0.248
-241.932	50.164	0.068	-0.063
-240.917	-200.000	-0.027	0.243
-239.903	448.413	0.187	0.409
-238.888	-200.000	-0.006	-0.035
-237.873	800.000	-0.095	-0.266
-236.859	19.037	0.165	0.131
-235.844	70.974	-0.115	0.119
-234.830	25.581	-0.214	-0.177
-233.815	-111.396	-0.123	0.025
-232.800	-7.251	0.235	0.158
-231.786	283.341	-0.082	-0.146
-230.771	-21.259	-0.340	0.206
-229.757	800.000	-0.078	0.284
-228.742	-120.976	0.250	-0.042
-227.727	-81.007	0.118	0.039
-226.713	8.371	-0.066	-0.049
-225.698	-36.135	-0.284	0.153
-224.684	-200.000	-0.046	-0.265
-223.669	-200.000	0.043	-0.555
-222.655	-200.000	0.073	0.427
-221.640	-200.000	0.047	0.212
-220.625	208.597	0.072	0.111
-219.611	800.000	-0.168	-0.540
-218.596	733.059	-0.010	-0.026
-217.582	513.801	0.021	-0.048
-216.567	800.000	-0.056	0.207
-215.552	14.442	-0.080	0.062
-214.538	-139.312	0.050	0.005
-213.523	-200.000	0.020	0.090
-212.509	129.472	0.049	-0.062
-211.494	9.395	0.049	-0.037
-210.479	-45.989	-0.268	-0.131
-209.465	-166.860	0.129	0.005
-208.450	-140.404	-0.217	-0.022
-207.436	193.269	-0.043	0.064
-206.421	-200.000	-0.004	0.137
-205.406	-46.372	-0.350	-0.171
-204.392	-87.677	0.273	0.082
-203.377	-113.615	-0.258	0.050
-202.363	-74.428	0.064	0.023
-201.348	-200.000	-0.053	-0.298
-200.333	-150.531	0.258	-0.020
-199.319	-200.000	-0.066	-0.351
-198.304	-196.524	0.332	0.002
-197.290	-200.000	-0.032	-0.168
-196.275	-33.919	-0.498	-0.272
-195.260	-126.489	0.431	-0.064
-194.246	-56.642	0.359	-0.158
-193.231	-79.060	0.151	0.051
-192.217	86.532	-0.087	-0.095
-191.202	71.259	-0.072	0.074
-190.187	-200.000	-0.045	0.354
-189.173	-147.103	-0.216	0.018
-188.158	-169.472	-0.111	-0.004
-187.144	157.591	-0.043	-0.060
-186.129	-12.025	-0.195	-0.127
-185.114	800.000	0.032	-0.135
-184.100	22.669	0.098	0.080
-183.085	-102.429	0.298	-0.071
-182.071	-200.000	-0.034	-0.279
-181.056	800.000	-0.003	0.009
-180.042	49.201	0.153	-0.143
-179.027	530.236	0.039	0.091
-178.012	210.240	0.214	0.333
-176.998	-200.000	0.017	0.257
-175.983	225.553	0.117	0.188
-174.969	-200.000	0.008	0.295
-173.954	2.733	-0.130	0.093
-172.939	200.832	0.050	-0.076
-171.925	186.814	0.119	0.176
-170.910	34.151	0.126	-0.108
-169.896	-175.278	-0.294	0.008
-168.881	-200.000	-0.047	0.304
-167.866	-69.516	0.306	-0.116
-166.852	-200.000	0.011	-0.383
-165.837	559.612	0.082	-0.197
-164.823	244.741	-0.088	0.146
-163.808	-65.235	0.117	-0.047
-162.793	654.483	0.097	-0.247
-161.779	800.000	-0.026	0.079
-160.764	-200.000	-0.258	0.001
-159.750	800.000	-0.112	-0.356
-158.735	180.433	0.170	0.247
-157.720	14.265	0.306	0.236
-156.706	373.055	-0.059	0.119
-155.691	256.865	-0.096	-0.164
-154.677	792.271	-0.027	0.075
-153.662	800.000	-0.085	-0.255
-152.647	-200.000	-0.035	0.308
-151.633	115.161	-0.093	0.113
-150.618	335.239	0.081	-0.155
-149.604	-110.425	0.178	0.037
-148.589	496.883	-0.005	-0.011
-147.574	442.885	-0.013	0.029
-146.560	-21.495	-0.147	0.089
-145.545	202.864	-0.138	0.211
-144.531	-200.000	0.002	0.084
-143.516	800.000	-0.084	0.242
-142.502	-111.858	0.198	0.040
-141.487	-57.979	-0.078	-0.034
-140.472	-200.000	-0.029	0.282
-139.458	-77.952	0.177	0.061
-138.443	-200.000	0.001	-0.194
-137.429	201.704	0.110	0.167
-136.414	181.135	0.054	0.079
-135.399	-56.386	0.245	0.108
-134.385	-31.325	-0.041	-0.023
-133.370	800.000	-0.102	-0.382
-132.356	-98.556	0.154	-0.039
-131.341	-145.367	0.116	0.010
-130.326	709.416	0.092	-0.242
-129.312	142.154	0.011	-0.014
-128.297	-78.321	0.306	0.104
-127.283	-27.083	-0.226	-0.131
-126.268	-78.538	0.129	0.044
-125.253	-88.281	-0.081	0.024
-124.239	225.413	-0.096	-0.153
-123.224	386.177	-0.134	-0.274
-122.210	-200.000	-0.016	-0.140
