DTS Sentinel unit serial number:	SN413079Multiplexer serial number:	ORYXHardware model number:	OX4-SRSoftware version number:	ORYX F/W v4.00 Oryx Data Collector v3.7.2.0data status	okinstallation	princeton_trtdifferential loss correction	single-endedforward channel	channel 2reverse channel	N/Adate	2019/09/11time	13:21:11forward acquisition time	60.00reverse acquisition time	0.00gamma	496.2192k internal	0.2293k external	0.2293temperature offset calibration	1.0005default loss term (dB/km)	0.3790temperature slope calibration	1.0000multiplexer offset coefficient	1.0000multiplexer slope coefficient	1.0000fibre end	0.00T internal ref (°C)	41.94T ext. ref 1 (°C)	0.82T ext. ref 2 (°C)	36.19length (m)	temperature (°C)	Stokes	anti-Stokes-747.200	-200.000	-0.006	-0.167
-746.185	-2.407	0.046	0.033
-745.171	130.115	-0.078	0.102
-744.156	-200.000	-0.103	0.953
-743.142	-200.000	0.014	-0.206
-742.127	-140.843	-0.225	-0.024
-741.112	305.604	-0.076	-0.145
-740.098	-67.762	0.081	0.033
-739.083	-200.000	-0.044	-0.347
-738.069	238.763	0.157	0.267
-737.054	65.829	-0.167	-0.173
-736.039	31.467	-0.308	0.271
-735.025	35.324	-0.119	-0.106
-734.010	-200.000	-0.044	-0.390
-732.996	-200.000	-0.017	-0.286
-731.981	576.839	-0.143	-0.358
-730.966	-161.755	0.357	0.019
-729.952	158.818	0.129	-0.183
-728.937	-200.000	0.017	0.086
-727.923	800.000	0.025	0.077
-726.908	-200.000	0.062	-0.299
-725.894	254.978	-0.043	0.076
-724.879	691.366	0.086	0.230
-723.864	-123.911	-0.340	0.055
-722.850	800.000	-0.058	-0.260
-721.835	283.355	0.113	0.208
-720.821	-84.582	-0.217	-0.070
-719.806	51.648	-0.291	-0.283
-718.791	179.946	-0.063	-0.094
-717.777	-155.012	0.130	0.009
-716.762	-200.000	-0.000	-0.116
-715.748	800.000	0.009	0.036
-714.733	385.034	0.055	-0.115
-713.718	-200.000	0.005	-0.207
-712.704	-61.054	0.147	-0.063
-711.689	-40.461	0.262	-0.139
-710.675	200.128	0.196	-0.307
-709.660	294.123	-0.129	-0.240
-708.645	158.538	-0.077	0.109
-707.631	-10.221	0.060	0.040
-706.616	222.884	0.022	-0.037
-705.602	249.736	0.184	-0.318
-704.587	-49.395	-0.014	0.007
-703.572	-68.644	-0.201	0.079
-702.558	800.000	0.049	-0.145
-701.543	321.226	-0.033	0.063
-700.529	-75.719	-0.014	-0.005
-699.514	-8.666	-0.170	-0.116
-698.499	780.857	-0.024	0.066
-697.485	79.965	0.107	-0.118
-696.470	-167.127	0.135	-0.006
-695.456	-26.415	0.131	0.078
-694.441	363.247	0.026	0.054
-693.426	-174.443	-0.146	0.004
-692.412	-118.504	0.140	-0.025
-691.397	800.000	0.029	0.098
-690.383	-200.000	-0.007	0.213
-689.368	678.899	0.058	-0.155
-688.354	545.865	0.110	-0.270
-687.339	327.732	0.035	0.069
-686.324	211.744	0.042	0.068
-685.310	-96.613	-0.563	-0.151
-684.295	27.126	-0.352	0.302
-683.281	205.182	-0.080	0.126
-682.266	-57.327	-0.041	0.018
-681.251	69.920	0.156	0.164
-680.237	-200.000	-0.026	-0.139
-679.222	-200.000	0.006	-0.193
-678.208	-8.941	0.107	0.073
-677.193	-138.171	0.166	0.019
-676.178	-13.885	-0.432	-0.285
-675.164	-96.051	-0.249	-0.068
-674.149	122.411	-0.057	-0.073
-673.135	-106.657	-0.189	-0.043
-672.120	35.097	-0.189	-0.169
-671.105	-91.602	-0.195	0.057
-670.091	516.199	0.021	-0.050
-669.076	-100.175	-0.330	-0.084
-668.062	622.249	0.058	-0.148
-667.047	142.226	-0.072	0.097
-666.032	-200.000	0.307	0.000
-665.018	71.090	-0.127	-0.135
-664.003	48.707	0.201	0.192
-662.989	-58.269	-0.195	0.086
-661.974	143.808	-0.222	0.302
-660.959	56.332	0.238	-0.236
-659.945	800.000	0.060	-0.172
-658.930	354.240	-0.162	-0.327
-657.916	68.035	-0.375	0.391
-656.901	-109.607	-0.303	0.065
-655.886	800.000	-0.041	0.119
-654.872	25.022	-0.273	0.231
-653.857	800.000	-0.035	-0.142
-652.843	-121.525	0.181	-0.031
-651.828	108.593	0.010	0.013
-650.814	473.563	-0.088	-0.202
-649.799	-140.196	-0.250	0.027
-648.784	-60.266	0.236	0.103
-647.770	744.635	0.093	-0.254
-646.755	-49.891	-0.308	0.149
-645.741	800.000	0.003	0.011
-644.726	-172.754	0.275	-0.009
-643.711	-45.813	-0.056	0.028
-642.697	-81.425	-0.187	0.063
-641.682	88.085	-0.213	-0.241
-640.668	800.000	-0.031	-0.094
-639.653	800.000	0.094	0.286
-638.638	209.779	0.068	-0.108
-637.624	-200.000	0.020	0.331
-636.609	800.000	-0.042	-0.173
-635.595	-159.746	-0.319	-0.018
-634.580	-200.000	-0.023	-0.254
-633.565	12.563	0.156	-0.122
-632.551	800.000	-0.040	-0.153
-631.536	-67.148	-0.033	0.013
-630.522	-11.855	-0.214	-0.143
-629.507	50.651	-0.106	0.102
-628.492	-13.151	-0.303	-0.201
-627.478	228.358	-0.141	-0.234
-626.463	-19.427	0.223	0.141
-625.449	-200.000	-0.004	0.082
-624.434	-200.000	-0.013	0.240
-623.419	315.591	-0.110	0.212
-622.405	780.408	0.044	0.124
-621.390	-42.488	-0.340	0.176
-620.376	-120.434	0.186	-0.032
-619.361	-78.685	0.143	0.050
-618.346	-82.260	0.383	0.127
-617.332	-12.802	-0.235	-0.156
-616.317	360.482	-0.056	-0.115
-615.303	-118.295	0.278	0.050
-614.288	-133.098	0.306	0.039
-613.273	-200.000	-0.023	0.137
-612.259	149.561	-0.137	-0.189
-611.244	-56.318	-0.119	-0.054
-610.230	-200.000	-0.012	-0.054
-609.215	143.819	-0.124	0.169
-608.201	221.227	-0.223	0.364
-607.186	-27.469	0.071	0.042
-606.171	474.074	-0.052	-0.119
-605.157	-66.901	-0.460	0.185
-604.142	175.780	-0.107	-0.158
-603.128	-137.145	0.134	-0.016
-602.113	-200.000	0.009	-0.233
-601.098	-169.588	0.215	-0.008
-600.084	-200.000	-0.084	0.430
-599.069	800.000	-0.150	0.484
-598.055	390.069	-0.055	0.115
-597.040	124.327	0.083	0.107
-596.025	-180.817	-0.231	-0.005
-595.011	-62.812	-0.177	-0.074
-593.996	800.000	-0.044	0.162
-592.982	393.041	0.087	0.184
-591.967	800.000	-0.063	0.237
-590.952	-33.882	0.100	0.056
-589.938	329.925	-0.149	0.291
-588.923	800.000	0.077	-0.217
-587.909	-115.627	0.201	-0.038
-586.894	544.206	0.105	-0.256
-585.879	73.074	0.327	-0.348
-584.865	-119.376	0.356	-0.063
-583.850	-142.865	-0.142	0.014
-582.836	-74.465	0.166	0.061
-581.821	-55.532	-0.315	-0.143
-580.806	-190.475	0.184	-0.002
-579.792	-185.090	-0.343	0.005
-578.777	-200.000	0.024	-0.244
-577.763	-200.000	-0.001	0.045
-576.748	-200.000	-0.031	0.239
-575.733	-200.000	0.056	-0.429
-574.719	719.414	-0.185	0.499
-573.704	-200.000	-0.014	-0.082
-572.690	249.230	-0.123	-0.212
-571.675	-30.559	-0.034	-0.019
-570.661	-32.017	-0.095	0.054
-569.646	285.137	0.153	0.281
-568.631	119.348	-0.135	0.170
-567.617	169.179	0.151	0.219
-566.602	-118.106	-0.342	-0.062
-565.588	436.661	-0.029	0.065
-564.573	-200.000	-0.036	-0.170
-563.558	-21.750	0.025	0.015
-562.544	-200.000	-0.024	0.311
-561.529	139.141	-0.027	-0.036
-560.515	-200.000	-0.047	0.237
-559.500	1.963	-0.125	0.092
-558.485	-127.920	0.150	-0.022
-557.471	-75.807	-0.372	-0.134
-556.456	-152.546	0.230	-0.017
-555.442	-130.848	0.228	-0.031
-554.427	-26.800	0.280	-0.166
-553.412	155.089	0.174	-0.243
-552.398	-149.172	0.083	-0.007
-551.383	-200.000	-0.061	-0.364
-550.369	-8.245	0.183	0.125
-549.354	-52.853	0.243	0.114
-548.339	274.923	-0.095	-0.172
-547.325	61.316	-0.082	0.083
-546.310	-200.000	-0.025	0.303
-545.296	230.542	-0.182	0.303
-544.281	-66.340	-0.167	0.067
-543.266	-15.591	-0.206	0.133
-542.252	35.351	-0.149	0.132
-541.237	54.299	0.112	-0.110
-540.223	194.050	-0.187	-0.288
-539.208	-63.849	0.268	0.111
-538.193	246.344	0.110	-0.188
-537.179	-200.000	0.004	-0.064
-536.164	-44.829	0.261	0.132
-535.150	-90.228	0.031	-0.009
-534.135	-200.000	0.027	0.279
-533.121	-79.605	-0.378	-0.129
-532.106	-200.000	-0.001	-0.101
-531.091	0.730	0.074	0.054
-530.077	-170.473	0.625	0.022
-529.062	800.000	0.048	-0.209
-528.048	-42.235	0.250	-0.130
-527.033	800.000	-0.063	0.189
-526.018	-200.000	0.019	-0.126
-525.004	-200.000	0.015	0.159
-523.989	-135.606	-0.163	-0.020
-522.975	-200.000	-0.027	-0.259
-521.960	65.478	0.085	0.087
-520.945	-77.129	-0.153	0.054
-519.931	-40.730	0.320	-0.168
-518.916	-94.375	0.286	-0.079
-517.902	196.614	0.201	-0.311
-516.887	69.327	-0.107	-0.112
-515.872	-200.000	0.026	-0.225
-514.858	126.894	-0.040	-0.051
-513.843	-158.694	0.276	0.016
-512.829	-200.000	-0.009	-0.079
-511.814	126.516	-0.027	0.034
-510.799	-200.000	0.003	-0.168
-509.785	605.529	-0.056	-0.142
-508.770	433.858	0.098	-0.216
-507.756	93.859	-0.129	-0.148
-506.741	-200.000	-0.041	-0.288
-505.726	-200.000	0.010	0.083
-504.712	410.768	-0.055	-0.118
-503.697	-200.000	0.049	-0.268
-502.683	-119.697	-0.284	0.050
-501.668	800.000	-0.058	0.185
-500.653	-112.003	-0.142	0.029
-499.639	186.569	-0.094	-0.142
-498.624	448.206	-0.036	0.080
-497.610	-10.104	0.201	0.135
-496.595	-89.778	0.142	0.042
-495.581	-57.687	-0.085	0.038
-494.566	-73.085	-0.287	0.107
-493.551	-104.503	-0.265	-0.062
-492.537	-109.406	0.353	-0.076
-491.522	367.054	0.159	-0.326
-490.508	-0.604	0.370	0.266
-489.493	800.000	0.082	-0.267
-488.478	533.447	0.124	0.297
-487.464	224.265	0.100	0.164
-486.449	38.017	-0.136	0.123
-485.435	-103.908	-0.143	0.034
-484.420	-79.507	-0.204	0.070
-483.405	-42.452	-0.132	-0.068
-482.391	70.657	-0.035	-0.037
-481.376	57.160	-0.094	0.093
-480.362	35.959	0.158	-0.141
-479.347	409.654	-0.132	-0.284
-478.332	-25.119	0.190	-0.114
-477.318	-16.860	0.101	0.065
-476.303	-200.000	-0.091	0.413
-475.289	15.864	0.230	-0.183
-474.274	-29.299	-0.061	-0.035
-473.259	117.204	0.070	-0.087
-472.245	-100.054	0.289	-0.073
-471.230	-140.309	-0.162	-0.017
-470.216	-44.665	-0.118	0.060
-469.201	800.000	0.060	0.180
-468.186	410.986	0.121	-0.260
-467.172	341.959	-0.045	-0.090
-466.157	22.694	0.140	0.116
-465.143	-200.000	0.029	0.185
-464.128	466.951	0.116	-0.263
-463.113	-42.824	0.137	-0.070
-462.099	118.206	0.066	-0.082
-461.084	-200.000	0.069	0.354
-460.070	-43.024	0.067	-0.035
-459.055	704.435	-0.068	0.181
-458.040	138.524	0.242	-0.322
-457.026	-37.796	-0.148	0.080
-456.011	-77.712	-0.094	-0.033
-454.997	-200.000	-0.058	0.262
-453.982	-121.149	-0.453	0.077
-452.968	775.434	0.021	0.058
-451.953	-5.492	-0.090	-0.062
-450.938	-48.035	0.147	-0.072
-449.924	-16.909	-0.115	0.074
-448.909	12.531	0.200	-0.156
-447.895	-45.302	0.121	0.061
-446.880	734.884	-0.040	0.108
-445.865	-200.000	-0.030	0.183
-444.851	-200.000	0.003	0.082
-443.836	-100.261	0.307	0.077
-442.822	-200.000	-0.033	0.168
-441.807	-135.373	-0.153	0.019
-440.792	113.158	0.146	0.179
-439.778	-200.000	0.020	-0.242
-438.763	-200.000	-0.026	-0.210
-437.749	75.418	0.110	-0.118
-436.734	-53.186	-0.045	-0.021
-435.719	-77.053	-0.027	-0.010
-434.705	202.474	-0.271	-0.423
-433.690	7.797	-0.106	0.081
-432.676	-39.714	0.247	-0.130
-431.661	14.029	0.084	-0.066
-430.646	-73.108	-0.238	-0.088
-429.632	-14.272	0.188	0.122
-428.617	53.811	-0.227	0.221
-427.603	800.000	0.027	0.079
-426.588	-45.221	-0.160	-0.080
-425.573	-60.019	0.314	0.136
-424.559	-51.601	-0.201	0.095
-423.544	115.254	-0.113	0.139
-422.530	-19.733	-0.022	-0.014
-421.515	-200.000	-0.021	0.234
-420.500	800.000	-0.042	-0.118
-419.486	-200.000	0.010	-0.119
-418.471	-187.550	-0.151	-0.002
-417.457	-200.000	-0.003	-0.030
-416.442	-200.000	-0.021	0.163
-415.428	-93.914	-0.276	-0.077
-414.413	10.353	-0.057	-0.044
-413.398	-200.000	0.010	0.236
-412.384	-49.181	0.297	-0.143
-411.369	-20.836	-0.094	0.058
-410.355	-1.859	0.190	-0.135
-409.340	-200.000	-0.009	-0.132
-408.325	800.000	0.078	-0.238
-407.311	-154.648	-0.053	0.004
-406.296	-200.000	0.007	-0.250
-405.282	-80.909	-0.057	0.019
-404.267	137.644	-0.206	-0.272
-403.252	-200.000	-0.017	-0.211
-402.238	-24.871	0.184	0.111
-401.223	-41.013	0.229	-0.119
-400.209	-182.709	-0.297	-0.005
-399.194	259.735	0.152	0.266
-398.179	472.519	-0.095	-0.216
-397.165	314.396	0.119	0.227
-396.150	-200.000	-0.020	-0.135
-395.136	-63.896	-0.035	-0.015
-394.121	-142.819	0.167	0.016
-393.106	70.294	-0.167	0.174
-392.092	-200.000	0.018	0.149
-391.077	126.288	0.068	0.087
-390.063	0.508	0.141	0.102
-389.048	-158.054	0.035	0.002
-388.033	-200.000	-0.010	-0.230
-387.019	-31.421	0.163	0.092
-386.004	539.972	0.066	0.159
-384.990	-121.945	-0.154	0.026
-383.975	-96.669	-0.086	0.023
-382.960	84.512	-0.028	-0.031
-381.946	-96.997	-0.181	-0.048
-380.931	-200.000	0.001	0.245
-379.917	-152.488	0.112	-0.008
-378.902	51.767	-0.080	-0.076
-377.888	102.746	0.288	0.339
-376.873	253.514	-0.050	0.086
-375.858	-41.411	0.125	0.065
-374.844	-200.000	0.004	0.225
-373.829	-9.038	0.046	0.031
-372.815	56.731	0.093	0.092
-371.800	40.153	-0.147	-0.133
-370.785	-200.000	0.035	-0.167
-369.771	-200.000	-0.013	0.128
-368.756	-75.659	0.269	0.097
-367.742	-174.747	0.238	-0.007
-366.727	120.237	-0.101	-0.126
-365.712	-157.268	-0.171	0.010
-364.698	305.012	0.116	-0.217
-363.683	774.453	0.011	-0.030
-362.669	17.676	-0.305	0.245
-361.654	66.515	0.123	-0.126
-360.639	-112.600	-0.428	-0.086
-359.625	156.305	0.179	-0.249
-358.610	419.656	0.111	-0.240
-357.596	312.943	-0.092	0.174
-356.581	156.988	0.247	0.344
-355.566	57.864	-0.331	0.327
-354.552	-200.000	0.018	0.116
-353.537	704.279	0.108	-0.287
-352.523	-100.845	0.122	0.030
-351.508	-88.797	0.251	-0.075
-350.493	74.080	-0.238	-0.252
-349.479	800.000	-0.127	0.393
-348.464	-110.031	0.135	0.028
-347.450	33.134	0.049	-0.042
-346.435	-200.000	0.000	-0.284
-345.420	186.657	-0.122	-0.183
-344.406	400.228	-0.048	-0.102
-343.391	94.885	-0.002	-0.002
-342.377	-108.032	-0.269	0.059
-341.362	-72.560	-0.045	0.017
-340.348	-200.000	-0.003	-0.193
-339.333	-200.000	-0.023	0.186
-338.318	6.774	-0.104	0.078
-337.304	108.565	-0.063	0.076
-336.289	-200.000	0.005	0.035
-335.275	-29.623	-0.086	-0.050
-334.260	121.802	0.285	0.358
-333.245	-91.861	-0.052	-0.015
-332.231	289.814	0.184	-0.337
-331.216	-200.000	0.016	-0.385
-330.202	-136.384	0.082	0.010
-329.187	71.822	0.064	0.067
-328.172	58.269	0.073	0.072
-327.158	800.000	0.012	-0.041
-326.143	726.944	-0.090	-0.241
-325.129	-200.000	-0.019	0.203
-324.114	-182.227	0.167	-0.003
-323.099	79.073	0.268	0.289
-322.085	-190.376	0.106	0.001
-321.070	130.847	0.214	-0.277
-320.056	-200.000	0.008	-0.098
-319.041	543.004	0.128	-0.307
-318.026	-49.625	-0.185	-0.088
-317.012	404.675	0.081	0.173
-315.997	-159.296	-0.097	0.005
-314.983	-52.083	-0.160	-0.075
-313.968	59.414	-0.222	-0.220
-312.953	-29.619	-0.219	0.126
-311.939	-85.453	-0.346	-0.108
-310.924	-149.235	-0.383	-0.031
-309.910	-70.449	-0.539	-0.206
-308.895	214.724	0.106	0.169
-307.880	-134.384	0.456	-0.056
-306.866	800.000	0.039	0.157
-305.851	111.910	0.272	0.331
-304.837	-74.254	0.160	0.058
-303.822	-141.432	0.185	-0.019
-302.807	800.000	0.064	-0.248
-301.793	26.115	-0.066	0.055
-300.778	104.076	-0.114	-0.135
-299.764	101.548	-0.141	-0.165
-298.749	38.373	0.168	0.150
-297.735	117.087	0.317	-0.392
-296.720	15.636	-0.065	-0.052
-295.705	166.979	0.147	0.210
-294.691	159.295	0.198	-0.277
-293.676	233.338	-0.067	-0.110
-292.662	109.582	0.237	-0.286
-291.647	731.467	0.066	0.176
-290.632	-34.787	-0.028	-0.015
-289.618	-200.000	0.001	-0.046
-288.603	-200.000	-0.028	0.266
-287.589	-131.782	-0.053	0.007
-286.574	-26.083	-0.163	0.097
-285.559	-37.107	-0.136	0.073
-284.545	3.868	0.079	-0.058
-283.530	125.137	0.064	-0.082
-282.516	-110.031	0.292	-0.061
-281.501	-127.571	-0.277	0.040
-280.486	-200.000	-0.032	-0.212
-279.472	143.122	0.123	0.164
-278.457	-169.958	-0.166	0.006
-277.443	-200.000	0.002	0.209
-276.428	105.183	-0.098	-0.116
-275.413	800.000	-0.047	-0.205
-274.399	-62.809	0.184	0.077
-273.384	64.129	-0.138	0.139
-272.370	245.167	0.225	0.380
-271.355	113.419	0.111	0.136
-270.340	-86.369	-0.390	0.121
-269.326	92.212	-0.173	-0.195
-268.311	237.334	0.039	0.065
-267.297	-127.070	-0.191	-0.028
-266.282	188.026	-0.113	0.170
-265.267	800.000	0.078	0.302
-264.253	33.320	-0.083	0.072
-263.238	5.294	0.145	-0.107
-262.224	-98.913	-0.149	0.038
-261.209	-67.347	-0.148	0.058
-260.195	-200.000	-0.003	-0.313
-259.180	80.060	0.081	0.088
-258.165	-5.292	-0.180	0.124
-257.151	-200.000	0.002	0.299
-256.136	-96.576	0.280	-0.074
-255.122	-200.000	-0.082	-0.423
-254.107	137.998	0.118	-0.156
-253.092	-70.323	-0.357	0.136
-252.078	-15.249	0.150	0.096
-251.063	92.777	-0.243	-0.275
-250.049	314.525	0.106	-0.200
-249.034	-69.785	-0.300	-0.115
-248.019	-200.000	0.018	-0.309
-247.005	140.690	-0.159	-0.211
-245.990	800.000	0.166	0.466
-244.976	800.000	0.112	0.339
-243.961	-24.594	-0.364	-0.218
-242.946	-200.000	0.053	-0.268
-241.932	58.550	-0.071	-0.070
-240.917	107.547	0.173	-0.206
-239.903	0.374	-0.110	0.079
-238.888	-111.144	0.156	0.032
-237.873	-200.000	0.002	0.067
-236.859	-14.568	-0.108	-0.069
-235.844	-142.969	0.347	-0.034
-234.830	281.837	-0.157	-0.282
-233.815	53.660	0.286	0.276
-232.800	402.744	0.055	0.115
-231.786	-200.000	0.003	0.220
-230.771	71.203	0.166	-0.172
-229.757	-18.281	-0.034	-0.021
-228.742	108.091	0.108	-0.129
-227.727	388.919	0.011	-0.022
-226.713	800.000	-0.052	0.216
-225.698	-32.701	-0.208	0.116
-224.684	800.000	-0.173	-0.565
-223.669	-43.022	0.265	0.135
-222.655	-91.634	0.031	-0.009
-221.640	78.862	0.212	0.228
-220.625	414.014	-0.075	0.159
-219.611	334.548	0.234	-0.454
-218.596	-200.000	0.034	0.167
-217.582	-200.000	-0.028	0.130
-216.567	450.938	0.076	0.168
-215.552	-78.975	-0.283	-0.096
-214.538	800.000	-0.031	-0.108
-213.523	-30.866	0.353	0.200
-212.509	96.638	0.208	0.239
-211.494	114.433	0.079	0.097
-210.479	-27.080	0.118	0.069
-209.465	-28.809	-0.352	0.203
-208.450	-200.000	0.028	0.138
-207.436	363.163	-0.066	-0.133
-206.421	-59.187	0.217	-0.094
-205.406	-200.000	0.066	-0.323
-204.392	-200.000	-0.016	0.113
-203.377	-200.000	-0.009	0.250
-202.363	-92.596	0.222	-0.062
-201.348	-30.005	-0.373	-0.213
-200.333	-200.000	-0.024	-0.117
-199.319	-45.953	0.044	0.022
-198.304	800.000	-0.026	-0.086
-197.290	-200.000	-0.017	-0.170
-196.275	-200.000	-0.014	0.206
-195.260	-200.000	0.027	0.464
-194.246	477.373	-0.030	0.069
-193.231	326.653	-0.048	0.093
-192.217	-54.552	0.257	0.116
-191.202	800.000	-0.045	-0.193
-190.187	-200.000	0.003	-0.096
-189.173	-200.000	-0.038	-0.231
-188.158	8.769	0.172	-0.130
-187.144	800.000	-0.069	0.210
-186.129	-156.303	-0.359	-0.023
-185.114	218.994	-0.110	-0.177
-184.100	-18.635	0.162	-0.101
-183.085	-200.000	-0.036	-0.180
-182.071	-80.326	-0.152	0.051
-181.056	381.547	-0.160	-0.329
-180.042	239.349	-0.144	0.240
-179.027	-19.284	-0.357	0.222
-178.012	-117.387	0.244	-0.044
-176.998	-173.198	-0.563	0.017
-175.983	5.902	-0.181	0.134
-174.969	212.705	-0.051	0.081
-173.954	-200.000	-0.138	0.000
-172.939	-200.000	-0.008	-0.132
-171.925	-200.000	0.021	0.406
-170.910	-49.130	0.268	0.128
-169.896	800.000	-0.107	0.308
-168.881	-9.065	0.168	-0.112
-167.866	-62.164	0.174	0.073
-166.852	-85.671	0.439	-0.136
-165.837	-200.000	0.002	-0.344
-164.823	185.164	-0.079	-0.117
-163.808	-86.167	0.314	-0.097
-162.793	-193.755	0.145	0.001
-161.779	-5.393	0.085	0.059
-160.764	204.864	-0.082	0.128
-159.750	800.000	0.053	0.211
-158.735	180.374	-0.117	-0.171
-157.720	-200.000	0.034	0.192
-156.706	85.969	-0.150	0.165
-155.691	-122.369	0.401	0.065
-154.677	-160.483	-0.237	-0.013
-153.662	800.000	0.041	0.128
-152.647	70.795	-0.086	0.089
-151.633	37.980	-0.261	-0.232
-150.618	-72.625	0.150	0.055
-149.604	-17.509	0.246	-0.155
-148.589	-72.813	0.331	-0.122
-147.574	800.000	0.035	-0.153
-146.560	67.485	-0.168	0.172
-145.545	-131.905	-0.268	0.035
-144.531	-26.698	0.232	-0.136
-143.516	-24.315	0.202	-0.120
-142.502	-200.000	0.050	0.380
-141.487	-125.458	-0.291	-0.044
-140.472	248.388	0.107	-0.181
-139.458	800.000	0.091	-0.307
-138.443	-200.000	-0.024	0.172
-137.429	-39.286	0.269	0.141
-136.414	-74.142	-0.370	0.134
-135.399	-200.000	0.000	-0.072
-134.385	0.962	-0.233	-0.167
-133.370	178.519	-0.087	0.126
-132.356	800.000	-0.036	-0.131
-131.341	360.733	-0.051	0.101
-130.326	-18.314	-0.211	0.132
-129.312	-200.000	0.003	0.401
-128.297	370.073	0.127	0.256
-127.283	-200.000	0.042	0.255
-126.268	-128.161	0.087	-0.012
-125.253	279.120	-0.084	-0.150
-124.239	84.666	0.226	-0.247
-123.224	-49.687	0.150	0.071
-122.210	52.476	0.145	0.139
