DTS Sentinel unit serial number:	SN413079Multiplexer serial number:	ORYXHardware model number:	OX4-SRSoftware version number:	ORYX F/W v4.00 Oryx Data Collector v3.7.2.0data status	okinstallation	princeton_trtdifferential loss correction	single-endedforward channel	channel 2reverse channel	N/Adate	2019/09/17time	03:51:34forward acquisition time	60.00reverse acquisition time	0.00gamma	496.2192k internal	0.2327k external	0.2327temperature offset calibration	0.9970default loss term (dB/km)	0.3790temperature slope calibration	1.0000multiplexer offset coefficient	1.0000multiplexer slope coefficient	1.0000fibre end	0.00T internal ref (°C)	29.94T ext. ref 1 (°C)	0.14T ext. ref 2 (°C)	24.45length (m)	temperature (°C)	Stokes	anti-Stokes-747.200	548.374	-0.121	0.293
-746.185	-200.000	0.039	0.469
-745.171	143.467	-0.333	0.447
-744.156	81.673	-0.311	0.340
-743.142	-73.258	-0.223	-0.082
-742.127	-131.319	0.150	0.020
-741.112	189.342	0.070	0.106
-740.098	-72.271	-0.152	0.057
-739.083	-145.511	-0.201	-0.018
-738.069	-200.000	0.044	0.370
-737.054	3.093	-0.144	-0.105
-736.039	-109.192	0.219	-0.047
-735.025	159.421	-0.093	0.131
-734.010	-94.880	-0.201	0.055
-732.996	69.001	-0.166	-0.172
-731.981	-200.000	-0.042	0.307
-730.966	-200.000	-0.013	0.176
-729.952	-12.696	0.258	0.169
-728.937	-63.321	-0.279	-0.116
-727.923	69.765	-0.180	-0.187
-726.908	800.000	-0.115	-0.351
-725.894	506.519	-0.080	-0.187
-724.879	118.313	0.071	-0.088
-723.864	-6.406	-0.085	-0.059
-722.850	-149.364	-0.378	0.030
-721.835	-19.564	-0.361	-0.225
-720.821	61.409	0.257	-0.258
-719.806	129.448	-0.303	-0.390
-718.791	-84.081	0.108	-0.035
-717.777	-83.519	-0.255	-0.082
-716.762	69.400	-0.118	0.122
-715.748	177.400	0.051	0.075
-714.733	800.000	0.071	0.203
-713.718	-165.729	0.427	-0.019
-712.704	-62.081	-0.252	0.106
-711.689	-200.000	0.042	0.199
-710.675	800.000	0.094	0.314
-709.660	-109.006	-0.244	0.052
-708.645	209.273	-0.207	0.327
-707.631	800.000	-0.065	-0.262
-706.616	511.111	-0.097	-0.228
-705.602	800.000	-0.097	-0.305
-704.587	132.143	0.153	-0.199
-703.572	-189.950	-0.265	-0.003
-702.558	104.874	0.250	0.297
-701.543	-10.101	0.278	0.186
-700.529	-31.947	-0.274	0.154
-699.514	182.779	0.150	0.223
-698.499	144.203	0.098	0.132
-697.485	-106.092	-0.278	-0.063
-696.470	340.518	0.151	-0.297
-695.456	800.000	-0.119	-0.333
-694.441	181.403	-0.094	-0.140
-693.426	30.170	-0.148	0.127
-692.412	368.543	0.069	0.140
-691.397	130.936	-0.154	0.199
-690.383	-200.000	-0.032	-0.349
-689.368	-78.110	-0.055	-0.019
-688.354	-65.274	-0.195	0.079
-687.339	-100.813	-0.224	-0.055
-686.324	-67.555	-0.123	-0.049
-685.310	-55.935	0.260	0.117
-684.295	-200.000	0.082	-0.367
-683.281	-10.004	-0.076	-0.051
-682.266	32.270	-0.070	0.060
-681.251	7.613	0.136	0.102
-680.237	-52.610	-0.411	0.191
-679.222	-200.000	0.035	0.339
-678.208	-102.793	0.323	0.077
-677.193	230.041	-0.051	-0.084
-676.178	-134.260	0.208	-0.026
-675.164	-95.227	0.139	-0.038
-674.149	388.532	-0.111	-0.231
-673.135	50.735	-0.142	-0.136
-672.120	-125.372	-0.212	0.033
-671.105	-90.982	-0.045	-0.013
-670.091	-91.429	-0.133	-0.038
-669.076	-42.159	0.167	-0.086
-668.062	164.164	-0.036	0.051
-667.047	211.807	-0.034	-0.053
-666.032	800.000	-0.075	0.322
-665.018	800.000	-0.038	-0.162
-664.003	88.538	-0.071	0.080
-662.989	800.000	-0.063	0.186
-661.974	126.607	0.022	-0.028
-660.959	585.635	-0.028	0.069
-659.945	151.068	-0.134	0.183
-658.930	-200.000	-0.029	-0.276
-657.916	568.660	-0.092	0.225
-656.901	124.427	-0.074	-0.093
-655.886	-24.817	-0.134	-0.080
-654.872	156.617	-0.158	-0.219
-653.857	67.645	0.079	0.081
-652.843	800.000	0.078	0.277
-651.828	-32.751	-0.198	-0.110
-650.814	-32.171	-0.427	-0.240
-649.799	-59.421	-0.194	0.084
-648.784	-33.179	-0.283	-0.158
-647.770	800.000	0.013	0.053
-646.755	-108.847	-0.191	-0.041
-645.741	-84.020	-0.118	0.038
-644.726	-200.000	-0.053	-0.234
-643.711	-178.292	-0.264	-0.006
-642.697	37.472	0.313	0.279
-641.682	-62.668	0.266	-0.111
-640.668	-49.439	-0.227	-0.109
-639.653	-167.865	-0.142	-0.006
-638.638	16.657	0.066	0.052
-637.624	-110.711	0.270	-0.056
-636.609	-127.639	-0.217	-0.031
-635.595	-51.935	0.058	0.027
-634.580	276.921	0.117	-0.208
-633.565	95.700	-0.122	-0.140
-632.551	400.079	0.030	0.063
-631.536	800.000	0.036	-0.149
-630.522	591.538	-0.077	0.190
-629.507	-70.474	0.106	-0.040
-628.492	768.703	-0.046	0.127
-627.478	33.026	-0.237	0.206
-626.463	-91.885	-0.271	0.077
-625.449	-200.000	-0.038	-0.335
-624.434	-124.565	0.163	0.025
-623.419	11.838	0.290	0.224
-622.405	800.000	0.001	0.004
-621.390	22.972	-0.146	-0.120
-620.376	-200.000	-0.076	-0.379
-619.361	-77.198	-0.091	-0.032
-618.346	-29.104	0.056	-0.032
-617.332	745.332	-0.014	0.037
-616.317	800.000	-0.112	-0.414
-615.303	161.471	0.119	-0.168
-614.288	-41.843	-0.129	0.067
-613.273	-28.120	-0.100	-0.058
-612.259	-200.000	-0.013	0.181
-611.244	199.312	0.030	0.046
-610.230	-127.685	-0.199	-0.029
-609.215	-90.608	-0.214	0.062
-608.201	-200.000	-0.021	0.229
-607.186	139.791	0.139	0.184
-606.171	60.510	-0.218	-0.216
-605.157	-24.970	-0.306	0.182
-604.142	-200.000	0.010	0.067
-603.128	3.687	-0.296	0.217
-602.113	-51.690	0.360	0.168
-601.098	165.471	0.181	-0.256
-600.084	-108.275	0.272	-0.059
-599.069	96.979	-0.139	0.160
-598.055	111.752	0.147	-0.178
-597.040	48.190	-0.146	-0.137
-596.025	-156.993	-0.342	-0.021
-595.011	125.294	0.108	0.136
-593.996	800.000	-0.160	-0.623
-592.982	-200.000	-0.009	-0.216
-591.967	100.946	-0.087	0.102
-590.952	800.000	-0.077	0.271
-589.938	228.205	0.111	0.181
-588.923	16.624	0.119	-0.095
-587.909	-200.000	-0.031	0.330
-586.894	-130.355	-0.221	-0.030
-585.879	-16.552	-0.235	0.149
-584.865	800.000	-0.065	-0.231
-583.850	150.570	-0.118	-0.161
-582.836	-74.024	-0.146	-0.053
-581.821	109.676	0.095	0.114
-580.806	-200.000	0.034	-0.292
-579.792	145.299	-0.068	-0.092
-578.777	-47.343	0.435	0.212
-577.763	91.284	-0.044	-0.049
-576.748	-43.070	0.044	-0.022
-575.733	-200.000	-0.045	-0.222
-574.719	172.760	0.084	-0.121
-573.704	-200.000	-0.005	0.244
-572.690	-4.349	-0.046	-0.032
-571.675	356.574	-0.131	0.261
-570.661	-158.757	-0.236	0.014
-569.646	255.729	-0.156	0.267
-568.631	181.032	-0.139	-0.204
-567.617	-108.691	-0.163	-0.035
-566.602	-48.245	-0.104	0.050
-565.588	-200.000	-0.005	0.114
-564.573	-200.000	0.004	-0.155
-563.558	-7.577	-0.234	0.158
-562.544	165.282	-0.244	0.345
-561.529	-43.431	-0.181	0.091
-560.515	-64.957	-0.303	0.123
-559.500	-32.806	0.283	0.158
-558.485	-104.626	0.143	-0.033
-557.471	10.253	0.116	0.088
-556.456	45.199	-0.087	-0.080
-555.442	-200.000	-0.052	-0.237
-554.427	800.000	0.044	-0.161
-553.412	-96.471	0.055	0.014
-552.398	-13.877	0.116	-0.075
-551.383	-90.503	-0.186	0.054
-550.369	800.000	0.105	-0.314
-549.354	216.250	0.165	-0.263
-548.339	94.038	-0.182	-0.207
-547.325	-200.000	-0.022	0.400
-546.310	-200.000	-0.007	0.113
-545.296	315.516	-0.140	0.265
-544.281	327.071	-0.035	-0.066
-543.266	-200.000	-0.018	-0.409
-542.252	19.284	-0.142	0.114
-541.237	-31.405	0.399	0.224
-540.223	-88.895	0.199	0.059
-539.208	409.555	-0.047	-0.100
-538.193	313.693	0.249	-0.469
-537.179	160.099	0.114	0.159
-536.164	-200.000	-0.056	-0.272
-535.150	522.895	-0.099	0.232
-534.135	345.796	0.185	0.364
-533.121	-21.667	-0.262	0.160
-532.106	-156.719	0.170	-0.011
-531.091	282.603	-0.021	-0.038
-530.077	99.878	-0.106	-0.122
-529.062	-200.000	-0.013	0.060
-528.048	74.691	-0.128	-0.134
-527.033	-97.294	-0.239	0.062
-526.018	-79.937	-0.185	0.062
-525.004	-43.529	0.235	0.119
-523.989	218.061	-0.186	-0.297
-522.975	-66.654	0.133	-0.053
-521.960	-200.000	0.001	-0.278
-520.945	-120.973	0.125	-0.021
-519.931	44.991	-0.235	0.216
-518.916	-108.793	0.274	-0.059
-517.902	-57.612	0.180	-0.079
-516.887	-72.569	-0.169	-0.062
-515.872	800.000	0.152	-0.457
-514.858	800.000	-0.080	-0.265
-513.843	-200.000	-0.010	-0.199
-512.829	-0.423	0.094	-0.067
-511.814	589.195	-0.035	0.086
-510.799	800.000	0.053	0.198
-509.785	243.273	0.082	0.137
-508.770	-200.000	-0.017	-0.213
-507.756	-27.079	-0.179	0.104
-506.741	-155.425	0.168	-0.011
-505.726	-13.790	0.275	-0.178
-504.712	800.000	0.084	0.242
-503.697	-166.686	-0.064	-0.003
-502.683	-63.912	0.233	-0.095
-501.668	-200.000	-0.001	-0.117
-500.653	-200.000	0.247	0.001
-499.639	46.551	-0.239	0.221
-498.624	800.000	0.062	-0.220
-497.610	-142.862	0.329	0.032
-496.595	111.686	0.068	-0.081
-495.581	800.000	-0.079	-0.292
-494.566	1.483	0.084	-0.061
-493.551	-81.575	0.148	0.049
-492.537	800.000	0.062	-0.235
-491.522	84.650	-0.213	-0.233
-490.508	9.798	-0.198	0.150
-489.493	247.990	-0.043	0.072
-488.478	-144.983	-0.229	0.021
-487.464	-26.406	0.297	-0.174
-486.449	-197.290	-0.288	-0.002
-485.435	-181.360	0.114	0.002
-484.420	-99.829	0.232	-0.058
-483.405	108.436	-0.258	-0.307
-482.391	-14.651	-0.071	0.045
-481.376	-125.122	-0.031	-0.005
-480.362	-88.387	-0.419	-0.125
-479.347	-118.960	-0.393	0.069
-478.332	800.000	0.017	-0.060
-477.318	11.156	0.041	0.031
-476.303	-35.523	-0.112	-0.061
-475.289	39.746	-0.235	-0.211
-474.274	-200.000	0.027	-0.263
-473.259	256.490	0.185	-0.317
-472.245	-13.274	-0.291	-0.189
-471.230	120.156	-0.286	0.354
-470.216	-5.159	0.115	-0.079
-469.201	-175.185	0.205	0.006
-468.186	67.899	-0.272	-0.277
-467.172	58.963	0.217	0.213
-466.157	-64.776	-0.266	0.107
-465.143	-92.449	0.049	-0.014
-464.128	800.000	0.072	-0.218
-463.113	-71.206	0.114	0.043
-462.099	-51.305	0.058	0.027
-461.084	97.334	0.272	-0.312
-460.070	-157.015	-0.448	-0.027
-459.055	143.145	-0.150	0.199
-458.040	47.456	0.088	0.082
-457.026	-120.956	-0.227	0.038
-456.011	47.433	0.176	0.164
-454.997	-33.392	-0.201	-0.111
-453.982	24.067	-0.269	-0.222
-452.968	-49.674	-0.180	0.085
-451.953	228.324	-0.118	0.191
-450.938	-39.336	0.121	-0.063
-449.924	709.300	-0.068	0.180
-448.909	195.139	0.213	0.322
-447.895	51.022	-0.225	0.213
-446.880	666.971	0.084	-0.217
-445.865	168.193	0.179	-0.255
-444.851	327.602	-0.027	-0.052
-443.836	-200.000	-0.014	-0.265
-442.822	-111.274	-0.157	-0.032
-441.807	733.935	-0.032	-0.085
-440.792	-115.954	0.250	0.046
-439.778	-25.867	-0.286	0.168
-438.763	37.068	0.108	-0.095
-437.749	-200.000	0.009	0.368
-436.734	166.743	-0.182	-0.257
-435.719	402.292	-0.087	0.183
-434.705	-200.000	-0.002	-0.398
-433.690	-97.705	0.209	-0.054
-432.676	-120.172	-0.299	-0.051
-431.661	-63.752	0.372	-0.152
-430.646	-200.000	-0.012	-0.187
-429.632	800.000	-0.073	-0.232
-428.617	-147.018	-0.018	0.002
-427.603	770.668	0.060	-0.162
-426.588	-200.000	-0.007	0.154
-425.573	-200.000	-0.036	-0.249
-424.559	220.312	-0.045	-0.072
-423.544	-56.166	-0.052	-0.023
-422.530	467.262	-0.026	-0.058
-421.515	-200.000	0.043	-0.206
-420.500	-200.000	-0.003	-0.083
-419.486	-130.724	0.187	0.025
-418.471	800.000	-0.124	0.382
-417.457	-66.074	0.197	0.078
-416.442	243.770	-0.062	0.104
-415.428	-39.455	0.299	0.156
-414.413	-137.692	0.074	0.008
-413.398	800.000	0.016	-0.055
-412.384	129.357	-0.223	-0.284
-411.369	800.000	-0.052	0.212
-410.355	-151.503	0.270	0.020
-409.340	34.683	-0.139	0.121
-408.325	-139.725	-0.369	0.039
-407.311	741.577	-0.062	0.167
-406.296	-69.791	0.205	0.078
-405.282	79.902	-0.080	0.086
-404.267	-88.096	-0.152	-0.046
-403.252	621.853	0.085	0.213
-402.238	800.000	-0.025	0.096
-401.223	-200.000	-0.041	-0.366
-400.209	-49.661	0.201	-0.095
-399.194	-55.777	0.181	0.080
-398.179	-158.746	-0.309	-0.018
-397.165	512.130	-0.089	0.207
-396.150	-15.073	0.159	-0.101
-395.136	-79.947	-0.222	-0.074
-394.121	-64.269	0.219	0.089
-393.106	73.154	-0.154	0.160
-392.092	-69.994	-0.258	-0.098
-391.077	800.000	0.047	0.200
-390.063	-107.523	0.525	-0.114
-389.048	-48.723	-0.246	-0.118
-388.033	-58.365	0.464	0.201
-387.019	19.971	0.133	-0.106
-386.004	51.772	-0.046	0.044
-384.990	39.301	-0.239	-0.213
-383.975	800.000	0.051	-0.150
-382.960	-200.000	0.010	-0.198
-381.946	-121.542	0.185	0.031
-380.931	-37.770	-0.238	-0.126
-379.917	800.000	0.042	0.154
-378.902	-19.962	0.373	-0.229
-377.888	-200.000	-0.005	-0.168
-376.873	-114.121	0.144	-0.028
-375.858	-97.633	-0.397	0.102
-374.844	333.456	0.231	0.444
-373.829	-12.589	-0.099	0.064
-372.815	-46.859	0.117	0.057
-371.800	-101.202	-0.415	0.101
-370.785	32.830	0.211	-0.181
-369.771	800.000	0.087	0.274
-368.756	197.126	-0.140	0.212
-367.742	800.000	0.034	0.121
-366.727	281.999	-0.040	0.071
-365.712	-200.000	-0.006	-0.108
-364.698	160.210	0.250	-0.347
-363.683	-200.000	0.022	0.237
-362.669	92.922	0.217	-0.243
-361.654	-200.000	-0.068	0.310
-360.639	-0.702	0.043	0.030
-359.625	-93.334	0.169	0.047
-358.610	-200.000	-0.023	-0.340
-357.596	-124.785	0.209	-0.032
-356.581	-16.393	-0.215	0.135
-355.566	502.870	0.123	0.283
-354.552	-99.097	-0.121	0.030
-353.537	-22.744	-0.156	0.093
-352.523	800.000	0.048	0.192
-351.508	65.223	0.146	-0.146
-350.493	-200.000	0.045	0.249
-349.479	-34.684	0.194	-0.105
-348.464	-200.000	0.010	0.086
-347.450	44.373	0.278	0.254
-346.435	-124.920	-0.220	0.034
-345.420	800.000	-0.074	0.303
-344.406	-103.931	0.350	0.081
-343.391	-200.000	-0.009	-0.065
-342.377	-30.196	-0.238	0.134
-341.362	-44.097	0.214	0.107
-340.348	-200.000	0.306	0.001
-339.333	-39.889	-0.003	-0.001
-338.318	154.463	-0.022	0.030
-337.304	-79.816	0.451	0.151
-336.289	685.888	0.110	-0.286
-335.275	-101.421	-0.182	0.044
-334.260	-125.481	0.089	-0.013
-333.245	-119.457	-0.116	0.020
-332.231	-38.381	-0.213	-0.112
-331.216	237.696	-0.124	0.205
-330.202	55.763	0.189	0.182
-329.187	91.171	0.157	0.175
-328.172	-33.860	-0.249	-0.136
-327.158	800.000	-0.025	-0.104
-326.143	-109.526	0.236	0.049
-325.129	800.000	-0.131	-0.367
-324.114	11.283	0.193	-0.147
-323.099	-82.195	-0.247	-0.080
-322.085	-34.692	0.293	0.159
-321.070	180.680	-0.198	-0.289
-320.056	-200.000	0.006	-0.029
-319.041	153.170	0.167	0.227
-318.026	800.000	0.108	-0.382
-317.012	269.296	0.109	0.189
-315.997	-63.631	0.042	-0.017
-314.983	-116.449	0.165	0.030
-313.968	-66.624	0.106	0.041
-312.953	-133.696	-0.145	0.018
-311.939	-71.010	0.356	0.133
-310.924	-200.000	-0.027	0.355
-309.910	-155.050	-0.281	-0.018
-308.895	66.556	-0.164	-0.165
-307.880	193.977	0.122	0.184
-306.866	-200.000	0.017	0.404
-305.851	-94.369	0.083	0.023
-304.837	-62.233	0.413	-0.171
-303.822	-200.000	0.040	0.254
-302.807	-4.759	-0.291	-0.199
-301.793	-125.110	0.234	0.036
-300.778	800.000	0.070	-0.195
-299.764	800.000	-0.058	-0.247
-298.749	-83.668	-0.227	-0.072
-297.735	-33.432	0.108	-0.059
-296.720	-9.661	-0.105	-0.069
-295.705	-200.000	-0.009	0.273
-294.691	222.553	-0.236	-0.377
-293.676	84.803	-0.187	0.203
-292.662	182.914	0.143	0.209
-291.647	-127.214	0.140	-0.020
-290.632	350.378	0.175	0.342
-289.618	38.321	-0.299	-0.264
-288.603	800.000	0.131	0.368
-287.589	40.948	-0.193	-0.173
-286.574	-9.422	0.203	0.135
-285.559	-142.553	-0.205	-0.020
-284.545	156.705	0.105	-0.143
-283.530	-200.000	-0.026	0.119
-282.516	-200.000	-0.002	0.401
-281.501	-50.482	0.170	0.080
-280.486	-20.091	0.249	-0.152
-279.472	-51.190	-0.378	-0.175
-278.457	-141.404	0.392	0.039
-277.443	-112.481	-0.026	-0.005
-276.428	-200.000	-0.011	0.400
-275.413	-200.000	-0.002	-0.168
-274.399	110.378	-0.272	0.323
-273.384	-200.000	0.020	0.254
-272.370	800.000	0.052	-0.152
-271.355	34.415	-0.123	-0.107
-270.340	339.046	-0.042	-0.080
-269.326	-155.748	-0.176	-0.011
-268.311	800.000	0.063	-0.182
-267.297	753.330	0.042	0.111
-266.282	-128.013	-0.374	-0.053
-265.267	532.920	0.070	-0.164
-264.253	102.788	-0.036	0.041
-263.238	-200.000	-0.038	0.247
-262.224	432.467	-0.067	0.144
-261.209	-62.335	0.292	0.120
-260.195	-36.280	0.440	0.235
-259.180	173.963	-0.285	-0.408
-258.165	-200.000	-0.018	-0.273
-257.151	-60.324	0.628	-0.264
-256.136	535.216	0.094	0.220
-255.122	-117.689	-0.203	-0.036
-254.107	-200.000	0.064	0.295
-253.092	800.000	0.049	-0.152
-252.078	-115.209	0.058	-0.011
-251.063	25.551	-0.172	-0.141
-250.049	-114.669	-0.332	0.063
-249.034	717.548	-0.127	-0.334
-248.019	186.272	0.074	-0.108
-247.005	470.949	0.139	0.309
-245.990	183.798	-0.144	-0.210
-244.976	82.150	0.254	-0.272
-243.961	-200.000	-0.021	0.229
-242.946	-58.262	0.064	-0.028
-241.932	-122.517	-0.332	0.053
-240.917	-114.283	0.103	-0.020
-239.903	800.000	0.080	0.228
-238.888	-133.693	0.229	0.028
-237.873	-28.927	0.207	0.117
-236.859	-200.000	-0.003	-0.016
-235.844	-105.498	-0.354	0.079
-234.830	-200.000	0.042	0.224
-233.815	257.384	0.128	0.217
-232.800	66.724	-0.129	-0.129
-231.786	-200.000	-0.009	-0.295
-230.771	189.313	0.069	0.102
-229.757	-200.000	0.002	0.068
-228.742	5.004	0.141	0.102
-227.727	-200.000	-0.335	0.001
-226.713	51.982	-0.116	-0.109
-225.698	-66.404	0.235	-0.092
-224.684	-23.655	0.096	0.057
-223.669	-173.913	0.443	0.013
-222.655	12.449	-0.243	-0.185
-221.640	-85.617	0.180	-0.055
-220.625	86.359	0.162	0.177
-219.611	800.000	0.063	-0.235
-218.596	304.318	0.081	0.149
-217.582	251.862	-0.144	0.241
-216.567	350.227	0.219	-0.428
-215.552	-127.693	-0.031	-0.004
-214.538	-200.000	-0.010	0.238
-213.523	129.140	0.114	-0.144
-212.509	-119.103	-0.198	0.034
-211.494	87.190	0.272	0.297
-210.479	-136.462	-0.179	-0.021
-209.465	72.445	-0.055	-0.056
-208.450	-46.147	0.393	-0.191
-207.436	800.000	0.055	-0.209
-206.421	78.211	0.168	0.177
-205.406	800.000	0.056	-0.207
-204.392	-142.805	-0.258	-0.025
-203.377	-200.000	-0.004	0.094
-202.363	410.740	-0.074	-0.155
-201.348	-37.510	0.111	-0.058
-200.333	-200.000	0.016	0.200
-199.319	-106.097	-0.175	0.039
-198.304	301.128	-0.024	0.044
-197.290	-200.000	0.002	0.191
-196.275	-47.906	0.257	-0.123
-195.260	800.000	0.117	-0.344
-194.246	333.340	-0.100	0.190
-193.231	-200.000	-0.014	0.102
-192.217	-92.790	0.404	0.112
-191.202	-41.186	0.084	0.043
-190.187	235.659	0.022	0.036
-189.173	102.834	-0.062	0.072
-188.158	800.000	0.093	0.289
-187.144	325.441	-0.105	-0.198
-186.129	800.000	0.066	-0.255
-185.114	44.192	0.320	-0.290
-184.100	-16.837	0.160	0.100
-183.085	-200.000	-0.004	0.260
-182.071	-2.596	-0.414	0.286
-181.056	-58.870	0.263	-0.112
-180.042	-200.000	0.018	-0.148
-179.027	-51.776	-0.372	0.171
-178.012	281.128	0.123	0.217
-176.998	-10.115	0.348	-0.228
-175.983	800.000	-0.096	0.354
-174.969	-42.612	-0.118	0.059
-173.954	-3.947	-0.282	0.193
-172.939	502.461	0.016	-0.036
-171.925	-129.305	-0.217	0.030
-170.910	66.005	-0.119	0.119
-169.896	192.988	0.027	0.041
-168.881	231.221	0.123	0.199
-167.866	372.226	-0.142	0.285
-166.852	-103.458	-0.254	0.059
-165.837	-75.912	0.081	0.028
-164.823	-200.000	0.029	0.133
-163.808	5.832	0.174	0.127
-162.793	337.279	-0.101	-0.193
-161.779	489.041	0.090	-0.202
-160.764	579.779	-0.096	-0.233
-159.750	27.970	-0.074	0.062
-158.735	-200.000	0.011	0.329
-157.720	-174.919	0.339	-0.009
-156.706	115.780	0.209	0.252
-155.691	-200.000	-0.008	-0.099
-154.677	535.352	0.097	-0.227
-153.662	-100.770	0.176	-0.043
-152.647	800.000	-0.089	0.257
-151.633	-132.188	-0.133	-0.017
-150.618	-200.000	0.025	-0.194
-149.604	-200.000	-0.026	0.122
-148.589	181.518	-0.026	0.037
-147.574	-200.000	-0.016	-0.148
-146.560	800.000	-0.053	0.160
-145.545	336.608	-0.175	-0.336
-144.531	-200.000	0.032	0.221
-143.516	-93.364	-0.030	-0.008
-142.502	-200.000	-0.035	0.156
-141.487	68.997	-0.106	0.107
-140.472	-134.139	-0.135	-0.016
-139.458	-74.053	-0.087	-0.031
-138.443	199.081	0.057	-0.086
-137.429	-122.410	0.112	-0.018
-136.414	31.505	0.051	-0.043
-135.399	-65.935	0.201	-0.079
-134.385	-41.532	-0.156	0.079
-133.370	-153.147	0.036	0.002
-132.356	-133.196	-0.196	0.024
-131.341	-200.000	-0.006	0.233
-130.326	-40.046	0.248	0.127
-129.312	800.000	0.073	-0.229
-128.297	209.896	-0.052	-0.080
-127.283	-106.106	0.246	-0.054
-126.268	359.899	0.164	0.323
-125.253	-86.568	0.209	0.063
-124.239	344.727	-0.072	-0.139
-123.224	-39.315	0.183	-0.095
-122.210	-200.000	0.007	0.304
